DTS Sentinel unit serial number:	SN413079Multiplexer serial number:	ORYXHardware model number:	OX4-SRSoftware version number:	ORYX F/W v4.00 Oryx Data Collector v3.7.2.0data status	okinstallation	princeton_trtdifferential loss correction	single-endedforward channel	channel 1reverse channel	N/Adate	2019/09/11time	03:48:11forward acquisition time	60.00reverse acquisition time	0.00gamma	496.2192k internal	0.2331k external	0.2331temperature offset calibration	0.9927default loss term (dB/km)	0.3790temperature slope calibration	1.0000multiplexer offset coefficient	1.0000multiplexer slope coefficient	1.0000fibre end	0.00T internal ref (°C)	29.56T ext. ref 1 (°C)	-0.31T ext. ref 2 (°C)	23.79length (m)	temperature (°C)	Stokes	anti-Stokes-747.200	-109.247	0.502	0.107
-746.185	-71.143	-0.054	0.020
-745.171	800.000	-0.046	-0.141
-744.156	-161.297	-0.669	0.035
-743.142	-156.320	-0.040	0.003
-742.127	-20.697	0.059	0.036
-741.112	-67.527	0.171	-0.068
-740.098	92.208	-0.048	0.055
-739.083	86.913	-0.053	0.059
-738.069	105.663	-0.064	0.076
-737.054	-90.234	-0.210	-0.061
-736.039	79.597	-0.072	0.078
-735.025	-188.911	-0.135	0.002
-734.010	-200.000	-0.009	0.208
-732.996	35.598	-0.158	-0.140
-731.981	800.000	0.030	-0.125
-730.966	-188.899	-0.157	-0.002
-729.952	104.852	0.130	-0.155
-728.937	432.089	-0.149	-0.324
-727.923	47.574	-0.398	-0.373
-726.908	204.774	-0.221	-0.345
-725.894	28.231	-0.132	-0.112
-724.879	-200.000	0.026	-0.235
-723.864	292.676	-0.247	0.452
-722.850	273.641	0.031	0.056
-721.835	-25.726	0.288	0.171
-720.821	-29.184	-0.178	-0.102
-719.806	800.000	-0.040	-0.148
-718.791	281.261	-0.182	-0.328
-717.777	-67.360	0.163	0.064
-716.762	-90.582	0.024	0.007
-715.748	111.332	-0.186	0.225
-714.733	590.394	-0.116	0.287
-713.718	800.000	-0.059	-0.179
-712.704	444.570	-0.254	-0.561
-711.689	130.581	-0.114	-0.146
-710.675	147.242	0.128	0.174
-709.660	174.292	0.114	-0.166
-708.645	-130.390	-0.196	0.027
-707.631	800.000	0.130	0.392
-706.616	-139.077	-0.160	-0.017
-705.602	-200.000	-0.006	0.120
-704.587	800.000	-0.019	-0.069
-703.572	-200.000	-0.034	0.278
-702.558	-66.337	-0.309	0.124
-701.543	-200.000	-0.006	0.048
-700.529	-66.903	-0.164	-0.065
-699.514	-12.978	-0.081	0.053
-698.499	-27.346	-0.154	-0.090
-697.485	-64.052	-0.203	-0.083
-696.470	35.168	0.206	0.181
-695.456	69.393	0.124	-0.128
-694.441	8.111	0.330	0.249
-693.426	800.000	0.056	0.221
-692.412	27.769	0.073	-0.062
-691.397	130.517	-0.201	0.259
-690.383	1.197	-0.153	-0.111
-689.368	109.831	0.029	-0.034
-688.354	105.494	-0.035	-0.041
-687.339	16.359	-0.180	-0.143
-686.324	735.164	0.009	-0.023
-685.310	-32.385	0.142	0.080
-684.295	252.545	-0.087	-0.149
-683.281	12.806	0.307	-0.238
-682.266	-196.454	0.220	0.001
-681.251	27.839	0.090	-0.076
-680.237	800.000	0.027	-0.084
-679.222	54.407	0.197	0.191
-678.208	-97.359	-0.267	0.070
-677.193	417.710	-0.143	-0.306
-676.178	-15.610	0.097	-0.062
-675.164	-200.000	0.030	0.351
-674.149	40.398	-0.109	0.099
-673.135	339.304	-0.087	-0.170
-672.120	-200.000	-0.045	-0.319
-671.105	91.136	0.229	-0.257
-670.091	-200.000	0.028	-0.137
-669.076	297.451	-0.133	0.245
-668.062	386.201	0.061	0.125
-667.047	55.081	-0.079	0.077
-666.032	-84.260	0.262	-0.083
-665.018	-88.902	0.228	0.068
-664.003	-95.563	-0.423	0.114
-662.989	-75.502	0.177	0.063
-661.974	-33.484	-0.188	-0.104
-660.959	-77.439	-0.276	-0.096
-659.945	800.000	0.049	0.185
-658.930	-81.203	-0.062	0.021
-657.916	-135.142	-0.207	-0.025
-656.901	225.470	0.114	0.186
-655.886	800.000	-0.039	-0.134
-654.872	179.419	-0.185	-0.272
-653.857	800.000	-0.048	-0.153
-652.843	-27.441	0.030	0.017
-651.828	5.845	-0.235	-0.174
-650.814	226.675	-0.224	0.364
-649.799	-200.000	0.013	-0.218
-648.784	-200.000	-0.024	0.259
-647.770	29.265	0.124	0.105
-646.755	-27.073	0.183	0.107
-645.741	22.659	-0.181	-0.148
-644.726	46.232	0.050	0.046
-643.711	451.876	-0.193	-0.429
-642.697	-42.339	0.038	-0.019
-641.682	33.261	-0.181	-0.158
-640.668	587.833	-0.063	-0.157
-639.653	168.755	0.186	0.266
-638.638	-69.616	0.261	-0.100
-637.624	187.609	0.138	0.207
-636.609	-165.255	-0.012	-0.001
-635.595	-118.539	-0.087	-0.015
-634.580	27.079	-0.045	0.038
-633.565	-181.316	0.397	-0.008
-632.551	-80.915	-0.270	-0.090
-631.536	-150.111	0.342	0.027
-630.522	-69.702	0.139	0.053
-629.507	-115.346	-0.092	-0.017
-628.492	-85.156	-0.150	0.047
-627.478	248.835	0.159	0.270
-626.463	-143.283	-0.118	-0.011
-625.449	-111.677	-0.127	0.026
-624.434	-62.759	-0.203	0.084
-623.419	-200.000	0.041	0.441
-622.405	-30.151	-0.298	0.170
-621.390	170.157	-0.119	-0.170
-620.376	-92.723	-0.227	-0.064
-619.361	-105.064	0.145	-0.033
-618.346	95.127	0.189	0.216
-617.332	800.000	0.056	-0.199
-616.317	-93.568	-0.048	-0.013
-615.303	-43.450	-0.331	0.168
-614.288	242.801	0.280	-0.469
-613.273	800.000	0.080	0.295
-612.259	-82.671	-0.253	-0.082
-611.244	-18.820	0.153	-0.095
-610.230	800.000	-0.107	-0.347
-609.215	35.834	0.197	0.174
-608.201	800.000	-0.015	-0.066
-607.186	-42.616	-0.170	0.087
-606.171	588.651	-0.074	0.182
-605.157	-58.214	-0.105	-0.046
-604.142	170.119	-0.165	0.236
-603.128	-57.448	0.252	0.111
-602.113	-54.603	0.142	0.064
-601.098	94.337	-0.069	0.078
-600.084	-68.544	-0.065	0.025
-599.069	-200.000	0.072	-0.407
-598.055	193.288	0.114	-0.172
-597.040	-200.000	-0.637	0.001
-596.025	-144.135	0.159	-0.015
-595.011	-200.000	-0.034	-0.475
-593.996	-12.801	-0.112	-0.073
-592.982	-98.884	-0.284	0.072
-591.967	-200.000	-0.029	-0.206
-590.952	800.000	0.057	0.170
-589.938	260.411	-0.122	-0.210
-588.923	116.172	0.167	0.205
-587.909	-132.487	0.098	0.013
-586.894	800.000	0.041	-0.164
-585.879	20.588	-0.027	-0.021
-584.865	205.400	-0.343	-0.533
-583.850	-104.525	-0.292	-0.067
-582.836	66.151	-0.332	-0.337
-581.821	-200.000	0.012	-0.104
-580.806	41.868	-0.305	-0.276
-579.792	-92.206	0.326	-0.092
-578.777	12.221	0.259	-0.199
-577.763	-121.494	-0.155	-0.026
-576.748	-170.914	-0.225	-0.008
-575.733	-24.524	0.133	-0.079
-574.719	-129.982	-0.540	-0.074
-573.704	-54.937	-0.104	0.047
-572.690	-37.043	-0.023	0.012
-571.675	-121.685	0.176	-0.029
-570.661	443.864	-0.035	0.076
-569.646	50.615	-0.058	-0.055
-568.631	-200.000	0.047	-0.229
-567.617	-114.231	-0.451	-0.087
-566.602	42.373	0.231	-0.210
-565.588	-107.865	0.106	0.023
-564.573	-24.814	0.134	-0.079
-563.558	83.409	0.191	-0.208
-562.544	-84.797	-0.189	-0.060
-561.529	-200.000	-0.010	-0.350
-560.515	-150.192	-0.094	-0.007
-559.500	-36.315	0.049	0.026
-558.485	-200.000	0.012	-0.215
-557.471	11.004	-0.094	0.072
-556.456	-200.000	0.021	0.161
-555.442	-86.664	-0.301	-0.092
-554.427	-20.138	-0.208	-0.128
-553.412	-117.998	-0.083	0.015
-552.398	800.000	0.085	-0.289
-551.383	192.652	-0.238	0.359
-550.369	-200.000	0.025	-0.271
-549.354	475.603	-0.110	-0.249
-548.339	800.000	-0.052	0.153
-547.325	-94.334	0.229	-0.063
-546.310	-200.000	0.023	0.537
-545.296	-200.000	-0.027	0.155
-544.281	-135.118	0.141	-0.017
-543.266	268.164	-0.149	0.260
-542.252	-200.000	-0.074	-0.353
-541.237	-200.000	0.029	0.155
-540.223	-160.175	-0.187	0.010
-539.208	-52.978	0.087	0.040
-538.193	154.321	-0.207	0.284
-537.179	-30.095	0.280	-0.159
-536.164	-200.000	0.024	-0.213
-535.150	-200.000	-0.051	-0.397
-534.135	540.918	0.128	0.305
-533.121	6.770	0.212	0.157
-532.106	-168.353	-0.371	0.014
-531.091	-200.000	-0.001	0.073
-530.077	800.000	-0.060	0.169
-529.062	-58.317	0.152	0.066
-528.048	421.147	-0.053	0.114
-527.033	-13.093	-0.051	-0.033
-526.018	-129.328	0.225	0.031
-525.004	187.512	-0.137	0.203
-523.989	8.854	-0.173	-0.130
-522.975	-92.600	-0.204	0.057
-521.960	-160.622	-0.407	-0.022
-520.945	-10.068	-0.207	-0.137
-519.931	-51.225	-0.124	0.058
-518.916	-200.000	-0.003	-0.241
-517.902	-98.746	-0.104	0.026
-516.887	70.806	0.305	-0.315
-515.872	800.000	0.068	0.270
-514.858	80.409	-0.050	-0.054
-513.843	171.180	-0.163	-0.233
-512.829	467.964	0.084	0.189
-511.814	-200.000	0.019	-0.134
-510.799	800.000	-0.035	0.133
-509.785	800.000	-0.119	-0.398
-508.770	-29.539	-0.208	0.119
-507.756	92.260	-0.078	0.088
-506.741	99.393	0.157	-0.181
-505.726	-148.298	0.090	-0.007
-504.712	99.543	0.064	-0.074
-503.697	-45.152	0.114	0.057
-502.683	275.452	-0.049	0.086
-501.668	376.348	-0.055	-0.112
-500.653	156.499	0.116	0.160
-499.639	7.127	-0.248	-0.184
-498.624	800.000	0.072	0.246
-497.610	800.000	-0.125	-0.360
-496.595	495.454	-0.040	-0.092
-495.581	-151.426	0.194	-0.014
-494.566	-124.812	0.268	0.041
-493.551	-179.374	-0.141	-0.003
-492.537	479.126	0.071	-0.160
-491.522	111.279	-0.099	-0.119
-490.508	-146.022	-0.282	-0.025
-489.493	138.794	-0.172	-0.225
-488.478	-200.000	-0.050	-0.342
-487.464	-141.974	0.090	-0.009
-486.449	-28.927	-0.300	-0.172
-485.435	74.091	0.231	0.242
-484.420	-55.820	0.064	0.029
-483.405	800.000	-0.052	-0.194
-482.391	-21.181	0.287	0.175
-481.376	-199.537	-0.031	0.000
-480.362	-15.201	-0.093	-0.059
-479.347	-152.686	0.170	0.012
-478.332	160.179	-0.133	-0.184
-477.318	-200.000	-0.020	-0.106
-476.303	191.052	-0.086	-0.129
-475.289	800.000	-0.087	0.246
-474.274	-139.719	0.181	0.019
-473.259	442.479	-0.091	0.198
-472.245	100.842	0.210	0.243
-471.230	3.193	0.297	-0.215
-470.216	-109.701	0.102	0.021
-469.201	44.547	0.187	0.171
-468.186	-114.909	0.138	0.026
-467.172	21.562	0.088	-0.072
-466.157	-47.130	-0.085	-0.041
-465.143	-46.819	-0.170	0.083
-464.128	49.321	-0.152	0.142
-463.113	36.036	0.235	0.206
-462.099	308.023	0.099	-0.183
-461.084	193.223	-0.091	0.137
-460.070	-21.615	0.165	-0.100
-459.055	56.325	-0.159	-0.153
-458.040	-58.656	-0.172	0.074
-457.026	-200.000	0.092	-0.496
-456.011	15.021	0.226	-0.176
-454.997	183.630	0.236	-0.347
-453.982	-200.000	0.001	0.078
-452.968	-63.546	-0.118	0.048
-451.953	800.000	0.100	0.278
-450.938	-137.955	0.566	0.063
-449.924	-136.106	-0.261	0.030
-448.909	-36.337	-0.318	0.170
-447.895	4.194	0.311	-0.227
-446.880	48.303	-0.231	-0.215
-445.865	-30.812	0.209	0.117
-444.851	3.622	0.142	0.103
-443.836	-98.634	-0.186	0.047
-442.822	-56.435	0.270	0.119
-441.807	49.609	0.252	-0.236
-440.792	9.142	-0.306	0.230
-439.778	39.324	-0.121	0.108
-438.763	788.964	-0.018	0.048
-437.749	-200.000	-0.001	0.137
-436.734	-156.837	0.216	0.013
-435.719	-199.630	-0.273	0.001
-434.705	-200.000	0.007	0.062
-433.690	142.273	-0.148	0.195
-432.676	-85.200	-0.281	0.087
-431.661	-200.000	0.033	0.170
-430.646	328.975	0.118	-0.225
-429.632	-86.094	-0.198	-0.061
-428.617	-106.199	0.176	0.039
-427.603	690.143	0.059	-0.155
-426.588	121.035	-0.112	0.139
-425.573	-32.428	-0.107	0.059
-424.559	65.998	0.129	0.130
-423.544	57.242	0.176	-0.170
-422.530	-36.617	-0.220	-0.117
-421.515	70.501	0.232	0.238
-420.500	155.512	-0.137	0.188
-419.486	-110.361	-0.218	0.045
-418.471	662.520	0.031	-0.080
-417.457	-200.000	-0.004	0.083
-416.442	37.197	0.162	0.142
-415.428	-95.016	-0.440	0.118
-414.413	61.232	0.092	-0.091
-413.398	-107.155	0.384	0.084
-412.384	-80.845	0.132	0.044
-411.369	52.210	-0.071	0.067
-410.355	-52.788	0.109	0.050
-409.340	-129.527	0.089	0.012
-408.325	231.465	0.036	-0.058
-407.311	698.608	0.150	0.391
-406.296	-46.110	0.338	-0.165
-405.282	-3.462	0.106	-0.073
-404.267	-113.359	-0.204	0.040
-403.252	800.000	-0.045	0.137
-402.238	431.601	-0.151	0.324
-401.223	-98.784	-0.161	0.041
-400.209	800.000	-0.077	-0.329
-399.194	41.539	0.221	-0.199
-398.179	-31.610	0.233	0.130
-397.165	-189.844	-0.298	-0.003
-396.150	-200.000	0.004	0.350
-395.136	800.000	-0.066	-0.195
-394.121	103.200	-0.015	-0.018
-393.106	350.152	0.055	-0.107
-392.092	367.688	0.034	0.067
-391.077	-200.000	0.049	0.324
-390.063	-84.937	0.243	-0.076
-389.048	-6.630	0.143	-0.096
-388.033	-85.888	0.187	0.058
-387.019	-200.000	-0.035	-0.263
-386.004	63.695	-0.185	-0.184
-384.990	12.812	0.162	-0.124
-383.975	186.690	-0.115	-0.170
-382.960	-200.000	0.015	-0.338
-381.946	-40.359	-0.329	0.170
-380.931	-78.528	-0.223	-0.076
-379.917	-142.527	0.276	0.027
-378.902	675.819	0.113	-0.292
-377.888	-100.818	0.275	-0.067
-376.873	191.379	0.067	-0.099
-375.858	-80.137	-0.120	-0.040
-374.844	-43.112	-0.139	0.070
-373.829	43.467	0.147	-0.133
-372.815	-90.577	-0.338	-0.097
-371.800	-200.000	-0.004	0.277
-370.785	800.000	0.076	-0.215
-369.771	-17.782	-0.078	0.049
-368.756	31.915	0.203	0.173
-367.742	-49.695	0.275	-0.130
-366.727	-14.759	0.007	0.005
-365.712	135.664	0.142	-0.183
-364.698	-101.341	-0.101	0.025
-363.683	717.454	-0.041	0.107
-362.669	-4.874	-0.168	0.115
-361.654	-200.000	0.014	-0.074
-360.639	-200.000	0.028	0.196
-359.625	-89.839	0.090	0.026
-358.610	800.000	-0.054	0.213
-357.596	27.038	0.286	0.238
-356.581	-200.000	-0.042	0.210
-355.566	30.159	0.015	0.013
-354.552	-200.000	0.008	-0.246
-353.537	800.000	0.064	0.236
-352.523	222.546	0.133	-0.213
-351.508	158.316	0.173	0.238
-350.493	341.726	0.048	0.093
-349.479	-200.000	0.000	-0.155
-348.464	-72.838	-0.108	-0.039
-347.450	-73.852	0.127	-0.046
-346.435	-0.341	0.094	0.066
-345.420	-80.731	-0.178	-0.059
-344.406	-135.891	-0.233	0.027
-343.391	-50.780	0.059	0.027
-342.377	10.397	0.109	0.082
-341.362	-56.768	0.210	0.092
-340.348	-200.000	0.000	0.243
-339.333	-200.000	-0.003	0.195
-338.318	-146.609	0.494	0.043
-337.304	41.269	0.240	0.215
-336.289	-171.923	0.154	0.005
-335.275	-200.000	-0.011	0.294
-334.260	-47.613	0.079	0.038
-333.245	-103.730	-0.135	0.031
-332.231	367.950	-0.132	0.265
-331.216	19.417	0.052	-0.041
-330.202	800.000	-0.093	0.259
-329.187	106.734	-0.130	-0.152
-328.172	-76.799	-0.169	-0.058
-327.158	-43.342	-0.231	0.116
-326.143	59.502	-0.145	0.141
-325.129	298.622	0.089	0.162
-324.114	242.505	-0.118	-0.195
-323.099	-198.384	-0.237	0.001
-322.085	121.740	0.173	0.213
-321.070	105.706	0.189	0.221
-320.056	800.000	-0.047	0.132
-319.041	177.631	-0.238	0.343
-318.026	-200.000	-0.029	0.127
-317.012	366.962	0.121	-0.242
-315.997	122.036	0.160	0.198
-314.983	-142.790	0.274	-0.026
-313.968	477.609	0.106	-0.236
-312.953	800.000	0.036	-0.147
-311.939	-36.688	0.146	0.078
-310.924	-200.000	-0.015	0.119
-309.910	-68.286	0.458	-0.176
-308.895	-40.984	-0.187	-0.096
-307.880	800.000	0.051	-0.197
-306.866	247.141	-0.056	0.094
-305.851	-187.234	-0.139	-0.002
-304.837	20.962	-0.047	0.038
-303.822	-200.000	-0.018	0.149
-302.807	800.000	0.104	-0.334
-301.793	19.591	-0.247	0.196
-300.778	118.955	-0.083	-0.102
-299.764	-93.023	0.198	-0.055
-298.749	372.614	-0.151	-0.303
-297.735	-200.000	0.014	-0.145
-296.720	230.761	-0.212	0.343
-295.705	-10.191	0.197	0.130
-294.691	-107.465	0.683	-0.148
-293.676	16.925	-0.079	-0.062
-292.662	-88.940	0.065	-0.019
-291.647	800.000	0.150	-0.421
-290.632	-200.000	0.024	-0.114
-289.618	-120.768	-0.425	-0.071
-288.603	-75.176	-0.183	-0.065
-287.589	360.755	-0.127	0.252
-286.574	-200.000	-0.015	0.188
-285.559	-34.202	0.415	-0.225
-284.545	-23.826	-0.064	-0.038
-283.530	-174.548	-0.328	0.009
-282.516	-42.604	0.299	0.150
-281.501	25.004	-0.066	-0.054
-280.486	-37.942	-0.251	0.132
-279.472	-81.459	0.340	0.110
-278.457	443.639	-0.081	-0.175
-277.443	63.627	-0.063	0.062
-276.428	156.367	-0.055	-0.075
-275.413	-60.961	0.246	-0.103
-274.399	232.840	-0.179	0.290
-273.384	304.823	0.263	0.483
-272.370	12.143	-0.356	0.270
-271.355	800.000	0.123	0.338
-270.340	56.968	-0.064	0.061
-269.326	172.057	-0.117	0.166
-268.311	489.427	-0.080	-0.180
-267.297	-185.202	-0.228	-0.004
-266.282	-87.102	0.310	-0.093
-265.267	564.604	-0.172	0.412
-264.253	-200.000	0.002	0.121
-263.238	-30.593	-0.224	0.125
-262.224	-17.375	-0.128	-0.080
-261.209	242.259	0.150	-0.248
-260.195	-40.029	-0.185	0.095
-259.180	-73.336	0.149	0.054
-258.165	-47.149	0.244	0.117
-257.151	82.823	-0.230	0.247
-256.136	-200.000	0.042	-0.318
-255.122	173.659	-0.236	-0.336
-254.107	33.689	0.198	0.170
-253.092	-26.821	-0.079	0.046
-252.078	-200.000	0.047	0.260
-251.063	-175.370	0.064	-0.002
-250.049	18.536	0.323	0.255
-249.034	800.000	0.114	-0.395
-248.019	-166.680	0.080	0.003
-247.005	-83.864	0.295	0.093
-245.990	-166.440	-0.686	0.028
-244.976	699.862	0.065	-0.169
-243.961	-49.882	0.075	0.035
-242.946	8.937	0.250	0.186
-241.932	188.040	0.073	-0.107
-240.917	154.111	-0.115	-0.156
-239.903	204.599	0.076	-0.116
-238.888	270.484	-0.083	-0.144
-237.873	-106.680	-0.377	0.083
-236.859	-85.570	-0.240	0.074
-235.844	-200.000	-0.006	0.071
-234.830	-4.956	0.235	-0.160
-233.815	128.204	0.114	-0.144
-232.800	27.569	-0.114	0.094
-231.786	-200.000	0.031	-0.280
-230.771	48.583	0.098	0.091
-229.757	92.949	0.069	-0.077
-228.742	-69.177	-0.256	0.097
-227.727	-145.371	0.062	-0.005
-226.713	20.960	-0.061	-0.049
-225.698	-200.000	-0.000	0.099
-224.684	439.820	-0.090	0.195
-223.669	800.000	-0.035	-0.108
-222.655	-118.687	-0.116	-0.020
-221.640	590.469	0.077	0.188
-220.625	26.298	0.068	0.056
-219.611	-77.330	0.314	-0.108
-218.596	-200.000	-0.002	0.307
-217.582	-1.054	-0.086	0.060
-216.567	491.416	-0.062	0.141
-215.552	-163.715	0.326	-0.015
-214.538	111.994	-0.128	0.153
-213.523	-8.416	-0.169	-0.112
-212.509	190.753	-0.201	-0.298
-211.494	-65.206	-0.122	-0.049
-210.479	800.000	0.039	-0.121
-209.465	-83.122	0.221	-0.070
-208.450	-200.000	0.010	-0.262
-207.436	29.761	0.147	-0.123
-206.421	90.270	0.195	-0.215
-205.406	-200.000	0.000	-0.062
-204.392	38.280	-0.044	-0.038
-203.377	762.332	-0.042	0.113
-202.363	-95.487	-0.405	0.107
-201.348	182.453	0.218	0.316
-200.333	-117.547	-0.068	-0.012
-199.319	541.391	0.104	0.244
-198.304	310.008	-0.171	-0.316
-197.290	-54.874	-0.109	-0.048
-196.275	271.437	0.070	0.121
-195.260	-83.522	0.315	-0.099
-194.246	270.922	0.195	-0.338
-193.231	255.101	0.138	0.233
-192.217	36.466	0.105	-0.091
-191.202	105.504	-0.138	-0.160
-190.187	97.775	-0.099	0.113
-189.173	43.962	-0.146	0.132
-188.158	47.152	0.090	-0.083
-187.144	0.173	-0.065	-0.046
-186.129	248.706	0.070	0.116
-185.114	-7.414	-0.197	0.131
-184.100	-31.354	0.483	0.268
-183.085	800.000	-0.026	-0.081
-182.071	-59.999	-0.191	0.081
-181.056	24.593	-0.133	-0.108
-180.042	-64.994	-0.094	-0.037
-179.027	642.001	0.065	-0.163
-178.012	-93.165	-0.290	0.079
-176.998	-85.226	0.160	-0.049
-175.983	36.723	-0.098	0.085
-174.969	65.566	0.167	0.166
-173.954	674.269	0.105	-0.268
-172.939	-200.000	-0.000	0.027
-171.925	-24.221	0.180	0.105
-170.910	-7.872	0.225	-0.149
-169.896	800.000	-0.122	0.408
-168.881	-200.000	0.059	0.262
-167.866	-200.000	0.056	-0.321
-166.852	-121.997	0.083	0.013
-165.837	189.912	0.096	-0.142
-164.823	-200.000	-0.029	-0.157
-163.808	800.000	0.096	-0.288
-162.793	-18.675	0.022	-0.013
-161.779	-185.582	0.235	-0.004
-160.764	760.213	-0.008	0.021
-159.750	-85.840	0.265	0.081
-158.735	-109.052	-0.145	-0.030
-157.720	1.110	0.202	0.142
-156.706	-120.360	0.227	-0.038
-155.691	-200.000	-0.047	0.380
-154.677	210.799	-0.239	0.370
-153.662	800.000	-0.075	-0.207
-152.647	-59.827	-0.262	0.110
-151.633	303.912	-0.021	0.038
-150.618	-87.355	0.270	-0.081
-149.604	584.312	-0.016	0.040
-148.589	69.808	-0.128	-0.130
-147.574	-56.386	0.107	-0.047
-146.560	342.245	-0.200	-0.385
-145.545	-128.422	-0.134	0.019
-144.531	196.067	0.088	0.132
-143.516	-200.000	0.042	-0.248
-142.502	151.736	-0.107	-0.143
-141.487	-46.807	-0.235	-0.113
-140.472	218.238	0.195	-0.306
-139.458	-41.846	-0.168	0.085
-138.443	78.152	0.302	0.316
-137.429	-46.905	-0.230	0.111
-136.414	134.600	-0.086	0.109
-135.399	-134.111	0.227	-0.028
-134.385	-200.000	0.049	0.216
-133.370	66.379	-0.199	-0.198
-132.356	-43.748	0.145	0.072
-131.341	93.097	-0.210	0.233
-130.326	-3.590	0.079	0.054
-129.312	301.483	0.061	-0.111
-128.297	-68.489	0.112	-0.043
-127.283	-28.882	0.149	0.084
-126.268	583.457	0.055	0.133
-125.253	104.699	-0.102	0.119
-124.239	118.265	-0.281	0.340
-123.224	75.778	-0.194	0.201
-122.210	800.000	0.020	0.083
-121.195	-85.952	-0.170	0.052
-120.180	199.276	-0.065	-0.098
