DTS Sentinel unit serial number:	SN413079Multiplexer serial number:	ORYXHardware model number:	OX4-SRSoftware version number:	ORYX F/W v4.00 Oryx Data Collector v3.7.2.0data status	okinstallation	princeton_trtdifferential loss correction	single-endedforward channel	channel 1reverse channel	N/Adate	2019/09/11time	01:44:11forward acquisition time	60.00reverse acquisition time	0.00gamma	496.2192k internal	0.2331k external	0.2331temperature offset calibration	0.9927default loss term (dB/km)	0.3790temperature slope calibration	1.0000multiplexer offset coefficient	1.0000multiplexer slope coefficient	1.0000fibre end	0.00T internal ref (°C)	29.17T ext. ref 1 (°C)	-0.31T ext. ref 2 (°C)	23.23length (m)	temperature (°C)	Stokes	anti-Stokes-747.200	141.148	0.153	-0.204
-746.185	5.914	-0.237	0.177
-745.171	69.846	-0.142	-0.148
-744.156	-62.096	0.385	0.162
-743.142	451.889	0.107	-0.237
-742.127	800.000	0.034	-0.148
-741.112	-200.000	-0.041	0.274
-740.098	606.895	0.082	0.205
-739.083	-61.578	-0.237	0.100
-738.069	288.140	0.041	0.074
-737.054	-146.667	-0.435	-0.038
-736.039	55.782	-0.366	-0.357
-735.025	-42.742	0.378	0.194
-734.010	-61.414	-0.420	0.178
-732.996	-40.635	0.014	-0.007
-731.981	800.000	-0.066	-0.237
-730.966	-200.000	-0.008	0.202
-729.952	-121.930	0.204	-0.034
-728.937	800.000	-0.086	-0.261
-727.923	-130.478	0.178	-0.024
-726.908	-42.548	-0.144	-0.074
-725.894	-94.008	0.090	0.025
-724.879	119.548	-0.126	-0.157
-723.864	-200.000	-0.037	0.237
-722.850	442.134	-0.062	-0.135
-721.835	50.907	-0.149	-0.142
-720.821	-29.387	0.484	0.278
-719.806	-15.845	-0.074	-0.047
-718.791	36.969	0.065	-0.058
-717.777	215.414	-0.154	0.246
-716.762	61.980	-0.087	-0.087
-715.748	170.343	-0.180	0.259
-714.733	87.334	-0.187	-0.208
-713.718	-82.321	0.130	0.042
-712.704	-200.000	0.046	0.250
-711.689	-145.729	-0.398	0.036
-710.675	-200.000	-0.019	-0.242
-709.660	-200.000	-0.000	-0.135
-708.645	-200.000	0.035	-0.236
-707.631	-200.000	0.016	0.109
-706.616	-200.000	0.047	-0.443
-705.602	191.615	0.123	-0.187
-704.587	-0.096	0.092	-0.066
-703.572	320.681	-0.054	-0.102
-702.558	-72.289	0.334	0.124
-701.543	-200.000	0.029	-0.150
-700.529	-104.007	0.247	-0.058
-699.514	-35.700	-0.221	0.120
-698.499	-109.239	-0.246	0.052
-697.485	224.378	0.043	0.070
-696.470	-91.426	0.106	0.030
-695.456	-50.448	-0.106	-0.050
-694.441	7.723	-0.182	-0.137
-693.426	20.092	-0.108	-0.088
-692.412	-181.437	0.285	-0.006
-691.397	-77.280	-0.257	0.090
-690.383	-125.901	-0.350	0.053
-689.368	800.000	0.119	0.379
-688.354	-108.968	-0.145	-0.031
-687.339	708.122	0.028	-0.073
-686.324	245.510	-0.035	0.060
-685.310	487.952	-0.160	0.366
-684.295	23.849	-0.154	-0.127
-683.281	466.373	0.040	-0.090
-682.266	-158.991	-0.448	-0.025
-681.251	229.984	-0.344	0.565
-680.237	-130.966	-0.171	-0.023
-679.222	71.662	-0.093	0.097
-678.208	-200.000	0.008	0.352
-677.193	-153.832	-0.137	-0.009
-676.178	-200.000	0.032	-0.283
-675.164	800.000	0.143	-0.463
-674.149	-200.000	-0.025	-0.121
-673.135	16.360	-0.157	-0.125
-672.120	158.747	0.142	0.197
-671.105	-155.889	-0.310	-0.020
-670.091	-200.000	0.007	0.122
-669.076	162.478	-0.126	-0.177
-668.062	-200.000	-0.050	0.325
-667.047	-35.780	-0.100	0.054
-666.032	-91.545	0.267	0.076
-665.018	89.111	-0.040	-0.045
-664.003	307.996	-0.047	-0.087
-662.989	-200.000	0.033	0.276
-661.974	-200.000	-0.097	-0.566
-660.959	-38.650	0.079	-0.042
-659.945	124.483	0.179	-0.226
-658.930	357.501	-0.041	0.083
-657.916	-25.845	0.118	0.070
-656.901	160.011	-0.059	0.083
-655.886	-200.000	0.056	0.388
-654.872	40.452	0.254	0.229
-653.857	-80.400	-0.271	0.091
-652.843	800.000	0.046	0.180
-651.828	-99.777	0.057	-0.014
-650.814	800.000	-0.057	-0.162
-649.799	800.000	0.090	-0.264
-648.784	94.159	0.157	0.178
-647.770	20.426	0.127	-0.103
-646.755	200.655	-0.091	-0.141
-645.741	-200.000	0.048	-0.254
-644.726	800.000	0.061	0.201
-643.711	120.347	0.069	0.086
-642.697	-53.510	0.268	-0.123
-641.682	800.000	-0.087	0.247
-640.668	-39.531	0.177	-0.093
-639.653	144.428	0.172	0.231
-638.638	-55.304	-0.260	0.117
-637.624	-99.398	-0.407	-0.103
-636.609	116.788	0.028	-0.034
-635.595	8.793	0.081	-0.061
-634.580	674.838	-0.071	0.184
-633.565	800.000	-0.052	-0.209
-632.551	643.872	0.123	-0.315
-631.536	-61.305	0.180	-0.076
-630.522	320.526	0.023	-0.044
-629.507	-67.872	-0.487	0.190
-628.492	156.496	-0.098	0.135
-627.478	58.481	-0.169	0.167
-626.463	-100.635	-0.478	-0.118
-625.449	-200.000	0.047	-0.325
-624.434	-125.214	0.131	0.020
-623.419	-108.847	-0.039	0.008
-622.405	-110.923	-0.204	-0.042
-621.390	-152.966	0.092	-0.006
-620.376	-200.000	0.038	-0.279
-619.361	55.355	0.208	-0.201
-618.346	581.407	0.089	-0.218
-617.332	13.911	0.100	-0.078
-616.317	800.000	0.023	0.075
-615.303	78.408	-0.220	-0.236
-614.288	-81.952	0.117	-0.038
-613.273	153.169	0.195	-0.267
-612.259	-63.004	-0.236	0.098
-611.244	800.000	0.180	0.587
-610.230	101.450	0.202	0.236
-609.215	-200.000	0.023	0.393
-608.201	-58.678	-0.277	-0.120
-607.186	-200.000	0.069	0.457
-606.171	-42.069	-0.165	-0.085
-605.157	-122.790	-0.110	-0.018
-604.142	-78.882	-0.257	-0.088
-603.128	582.511	0.151	-0.370
-602.113	800.000	0.056	-0.165
-601.098	421.231	-0.102	-0.220
-600.084	-70.982	-0.279	-0.105
-599.069	-139.691	-0.463	-0.049
-598.055	-166.061	-0.054	-0.002
-597.040	-126.281	0.106	0.016
-596.025	143.524	0.065	-0.086
-595.011	701.818	0.064	-0.170
-593.996	148.622	-0.267	0.360
-592.982	-200.000	0.024	0.395
-591.967	41.173	0.162	-0.147
-590.952	446.288	-0.021	-0.045
-589.938	303.455	-0.076	0.141
-588.923	174.293	0.115	-0.166
-587.909	15.454	0.152	0.119
-586.894	800.000	0.052	0.177
-585.879	327.148	-0.027	-0.051
-584.865	285.710	0.091	-0.165
-583.850	50.523	-0.179	-0.169
-582.836	175.433	-0.162	-0.235
-581.821	-200.000	-0.023	0.107
-580.806	302.062	-0.100	0.185
-579.792	-80.568	0.324	0.108
-578.777	-72.628	-0.062	-0.023
-577.763	182.701	0.142	0.210
-576.748	-119.056	0.060	-0.011
-575.733	232.720	-0.093	-0.152
-574.719	-88.338	0.459	0.137
-573.704	142.853	0.099	-0.131
-572.690	-136.820	0.409	-0.047
-571.675	18.406	0.046	-0.037
-570.661	144.461	-0.222	0.296
-569.646	-200.000	-0.011	0.287
-568.631	-105.692	0.258	-0.058
-567.617	-170.319	-0.128	-0.005
-566.602	59.189	-0.090	-0.089
-565.588	181.107	-0.168	0.247
-564.573	-200.000	0.010	-0.052
-563.558	-33.480	0.302	0.167
-562.544	-96.217	0.389	0.103
-561.529	-64.532	-0.276	0.112
-560.515	33.700	-0.143	0.124
-559.500	800.000	0.046	-0.164
-558.485	119.815	0.016	-0.020
-557.471	800.000	-0.075	-0.237
-556.456	-0.590	0.164	0.116
-555.442	170.489	0.170	-0.244
-554.427	-12.742	0.190	0.124
-553.412	86.537	0.128	0.141
-552.398	-47.198	-0.107	-0.052
-551.383	639.094	-0.003	0.009
-550.369	32.949	0.099	0.086
-549.354	335.449	-0.025	-0.049
-548.339	538.625	0.029	-0.070
-547.325	166.346	0.098	-0.138
-546.310	-50.272	0.245	0.116
-545.296	10.446	-0.266	0.202
-544.281	-154.390	-0.260	0.017
-543.266	566.744	-0.065	-0.158
-542.252	-200.000	-0.048	0.269
-541.237	205.672	0.142	0.220
-540.223	567.776	0.068	-0.166
-539.208	131.126	-0.133	-0.171
-538.193	800.000	-0.049	-0.151
-537.179	-21.011	-0.289	0.177
-536.164	-123.776	0.344	0.054
-535.150	-113.454	0.305	-0.060
-534.135	-32.844	-0.309	0.172
-533.121	-200.000	0.002	-0.055
-532.106	-52.256	-0.313	-0.145
-531.091	403.221	-0.086	-0.182
-530.077	-200.000	0.068	-0.357
-529.062	-171.622	-0.168	-0.006
-528.048	31.669	-0.238	-0.204
-527.033	-145.198	0.203	-0.018
-526.018	416.208	-0.076	-0.161
-525.004	800.000	0.081	-0.334
-523.989	98.902	-0.216	0.248
-522.975	-16.657	0.313	0.198
-521.960	427.324	0.049	0.106
-520.945	19.479	-0.292	0.234
-519.931	-22.710	-0.183	0.110
-518.916	-200.000	0.006	-0.431
-517.902	54.158	-0.193	0.185
-516.887	-177.176	-0.164	-0.004
-515.872	425.647	-0.056	-0.119
-514.858	87.347	-0.214	0.236
-513.843	-200.000	0.027	-0.134
-512.829	-25.324	0.071	-0.042
-511.814	-153.455	0.225	-0.016
-510.799	-16.034	-0.186	-0.118
-509.785	390.770	-0.128	-0.264
-508.770	800.000	-0.095	0.348
-507.756	-200.000	-0.037	0.311
-506.741	160.467	-0.099	-0.138
-505.726	84.192	-0.118	-0.129
-504.712	800.000	0.053	0.187
-503.697	-14.698	-0.343	-0.220
-502.683	-15.396	-0.221	-0.141
-501.668	303.049	-0.039	-0.072
-500.653	-22.984	0.465	-0.279
-499.639	66.244	0.253	0.257
-498.624	0.845	-0.102	-0.073
-497.610	74.130	-0.143	0.150
-496.595	58.091	-0.107	0.104
-495.581	-33.030	-0.139	-0.077
-494.566	232.185	-0.030	0.048
-493.551	-47.635	-0.155	0.075
-492.537	147.938	-0.036	-0.048
-491.522	-43.354	0.117	0.059
-490.508	-200.000	0.030	0.180
-489.493	-200.000	0.016	0.391
-488.478	800.000	-0.127	0.369
-487.464	11.037	0.076	0.058
-486.449	-143.134	-0.134	-0.013
-485.435	-12.054	0.270	0.176
-484.420	206.563	-0.113	0.175
-483.405	19.659	-0.193	-0.155
-482.391	-49.179	0.144	0.068
-481.376	-44.220	0.139	-0.069
-480.362	800.000	-0.079	-0.241
-479.347	-98.492	-0.344	-0.088
-478.332	-105.738	0.077	-0.017
-477.318	13.068	0.127	-0.098
-476.303	-2.917	-0.138	0.096
-475.289	-200.000	-0.017	-0.156
-474.274	-200.000	-0.002	-0.157
-473.259	-200.000	0.000	-0.063
-472.245	161.510	0.185	0.258
-471.230	220.567	-0.176	-0.281
-470.216	-200.000	0.033	-0.179
-469.201	369.562	0.104	-0.210
-468.186	-26.435	-0.206	0.120
-467.172	-177.508	-0.422	0.010
-466.157	17.773	-0.042	0.033
-465.143	-133.071	-0.263	-0.033
-464.128	45.074	-0.214	-0.196
-463.113	70.037	-0.047	0.048
-462.099	-86.157	0.221	0.068
-461.084	-200.000	0.001	-0.120
-460.070	-200.000	-0.009	-0.066
-459.055	-116.247	0.218	-0.040
-458.040	-142.302	0.152	0.015
-457.026	-17.926	-0.192	0.120
-456.011	333.590	0.067	-0.130
-454.997	-135.007	0.152	-0.018
-453.982	13.093	-0.204	-0.157
-452.968	800.000	-0.085	0.349
-451.953	54.581	-0.138	0.132
-450.938	67.713	0.337	0.343
-449.924	-120.725	-0.137	0.023
-448.909	4.612	0.072	0.053
-447.895	-126.183	-0.029	0.004
-446.880	5.411	0.221	-0.162
-445.865	393.992	0.118	-0.244
-444.851	800.000	0.077	-0.230
-443.836	-130.002	0.146	-0.020
-442.822	49.242	-0.197	0.184
-441.807	-10.182	-0.195	-0.129
-440.792	-124.339	0.317	0.049
-439.778	260.894	-0.053	-0.091
-438.763	-146.635	0.171	0.015
-437.749	800.000	-0.084	-0.307
-436.734	800.000	-0.035	-0.107
-435.719	-200.000	-0.024	-0.123
-434.705	-93.638	-0.279	-0.077
-433.690	-138.137	-0.283	0.031
-432.676	-200.000	0.079	-0.357
-431.661	-78.562	-0.297	-0.101
-430.646	412.172	-0.101	-0.212
-429.632	77.416	0.362	0.382
-428.617	-85.042	-0.181	-0.057
-427.603	-75.172	-0.208	0.074
-426.588	-180.584	-0.064	-0.001
-425.573	-200.000	-0.015	0.334
-424.559	-100.497	-0.104	-0.026
-423.544	-49.489	0.065	0.031
-422.530	-200.000	0.006	0.364
-421.515	800.000	-0.101	0.357
-420.500	116.132	0.219	0.267
-419.486	69.048	-0.131	-0.134
-418.471	192.904	0.078	-0.117
-417.457	102.220	0.119	0.139
-416.442	-102.649	0.219	-0.052
-415.428	95.299	0.112	-0.127
-414.413	-46.166	0.128	0.063
-413.398	584.646	-0.020	0.050
-412.384	11.835	-0.140	-0.107
-411.369	800.000	0.087	-0.280
-410.355	800.000	0.059	0.214
-409.340	22.139	0.005	0.004
-408.325	-175.457	0.344	-0.009
-407.311	-10.186	0.210	0.138
-406.296	-200.000	-0.028	-0.188
-405.282	554.004	0.198	-0.473
-404.267	14.087	-0.037	0.029
-403.252	67.351	0.183	0.185
-402.238	262.374	0.123	-0.211
-401.223	-200.000	0.068	-0.298
-400.209	155.122	-0.110	-0.150
-399.194	-200.000	-0.011	-0.360
-398.179	-200.000	0.034	-0.252
-397.165	-154.509	-0.122	-0.008
-396.150	-119.137	0.306	0.053
-395.136	800.000	-0.038	-0.110
-394.121	445.140	0.076	-0.165
-393.106	118.354	0.091	0.111
-392.092	-200.000	0.018	0.276
-391.077	-168.651	0.227	0.009
-390.063	351.276	-0.088	0.172
-389.048	116.078	0.033	-0.040
-388.033	-31.700	-0.426	0.237
-387.019	-200.000	-0.019	-0.135
-386.004	-30.796	-0.380	-0.213
-384.990	-86.629	0.377	0.115
-383.975	119.708	-0.125	0.153
-382.960	-90.574	0.332	-0.095
-381.946	554.837	0.124	-0.297
-380.931	107.402	-0.143	-0.169
-379.917	-101.471	0.229	-0.055
-378.902	8.084	-0.366	0.272
-377.888	9.609	-0.162	0.121
-376.873	-44.081	0.020	-0.010
-375.858	-200.000	-0.001	0.059
-374.844	34.198	0.212	-0.183
-373.829	236.202	-0.041	-0.067
-372.815	-134.698	-0.202	-0.024
-371.800	800.000	-0.055	0.162
-370.785	238.725	-0.130	-0.214
-369.771	135.483	0.261	-0.336
-368.756	-51.746	0.162	0.075
-367.742	-1.980	-0.211	0.147
-366.727	-200.000	0.056	-0.280
-365.712	-46.077	-0.259	-0.127
-364.698	800.000	0.054	-0.185
-363.683	60.782	0.124	0.122
-362.669	800.000	0.053	-0.167
-361.654	-117.204	0.338	0.061
-360.639	-200.000	-0.013	-0.078
-359.625	-200.000	0.029	-0.220
-358.610	24.622	0.531	0.436
-357.596	-70.399	0.047	-0.017
-356.581	11.409	-0.278	0.211
-355.566	-200.000	0.017	-0.582
-354.552	48.786	-0.199	-0.185
-353.537	360.739	-0.074	-0.146
-352.523	-200.000	-0.026	0.214
-351.508	-200.000	0.008	0.055
-350.493	-61.760	0.222	-0.092
-349.479	17.015	0.276	0.217
-348.464	98.904	-0.325	0.371
-347.450	-101.769	-0.299	0.072
-346.435	-15.693	-0.172	-0.109
-345.420	-33.438	0.093	-0.051
-344.406	-200.000	-0.013	0.219
-343.391	-124.981	-0.108	-0.016
-342.377	800.000	-0.055	0.234
-341.362	-77.462	-0.207	-0.071
-340.348	-200.000	0.052	-0.428
-339.333	31.595	0.096	-0.082
-338.318	-109.571	-0.236	0.049
-337.304	-200.000	0.001	-0.268
-336.289	-150.513	0.277	-0.021
-335.275	-200.000	0.013	0.215
-334.260	800.000	0.025	-0.080
-333.245	88.284	-0.168	-0.184
-332.231	-146.009	0.437	0.038
-331.216	224.532	0.192	-0.308
-330.202	93.836	-0.075	-0.084
-329.187	48.373	-0.210	0.195
-328.172	800.000	-0.071	0.224
-327.158	243.177	0.173	-0.286
-326.143	-47.609	-0.166	0.080
-325.129	-200.000	-0.017	-0.143
-324.114	-200.000	0.009	-0.087
-323.099	57.905	0.063	0.061
-322.085	800.000	0.046	0.184
-321.070	38.033	0.036	-0.031
-320.056	-200.000	0.022	-0.107
-319.041	-62.438	0.229	-0.094
-318.026	-82.324	-0.161	0.052
-317.012	-200.000	-0.018	0.120
-315.997	-15.758	-0.082	0.052
-314.983	-200.000	0.016	0.193
-313.968	-200.000	0.019	0.440
-312.953	-200.000	0.001	-0.117
-311.939	-10.882	0.260	-0.170
-310.924	-124.936	-0.144	0.022
-309.910	-62.342	0.199	-0.082
-308.895	-19.767	0.043	0.026
-307.880	128.631	-0.028	0.035
-306.866	-130.396	0.291	0.039
-305.851	5.865	0.022	0.016
-304.837	100.411	-0.067	0.077
-303.822	155.544	0.204	0.278
-302.807	800.000	-0.026	-0.099
-301.793	-122.448	0.328	-0.053
-300.778	-70.283	-0.138	-0.052
-299.764	800.000	-0.034	0.095
-298.749	-175.008	0.278	-0.008
-297.735	-200.000	-0.002	-0.201
-296.720	-71.783	-0.060	-0.022
-295.705	400.044	0.016	0.033
-294.691	78.678	-0.147	0.155
-293.676	113.884	0.030	-0.036
-292.662	-200.000	-0.057	-0.479
-291.647	800.000	0.124	0.469
-290.632	5.254	0.046	-0.033
-289.618	-16.837	-0.127	-0.079
-288.603	193.203	0.233	0.348
-287.589	421.963	-0.028	0.060
-286.574	-137.368	0.116	0.013
-285.559	-90.985	-0.185	-0.052
-284.545	482.297	-0.051	-0.115
-283.530	462.219	-0.058	-0.128
-282.516	-78.141	0.148	-0.050
-281.501	116.613	0.106	-0.129
-280.486	-23.266	-0.122	-0.072
-279.472	-49.485	0.203	-0.096
-278.457	192.774	0.057	-0.085
-277.443	51.473	-0.100	-0.094
-276.428	-200.000	-0.005	-0.250
-275.413	160.833	-0.081	0.112
-274.399	-200.000	0.060	0.431
-273.384	-183.784	-0.251	-0.004
-272.370	-40.666	-0.359	0.184
-271.355	165.472	-0.073	-0.101
-270.340	-41.328	0.116	0.059
-269.326	-109.743	0.172	-0.036
-268.311	800.000	0.073	0.214
-267.297	800.000	0.037	0.117
-266.282	-77.314	0.129	0.044
-265.267	800.000	-0.101	0.297
-264.253	-138.303	0.284	-0.031
-263.238	-94.788	0.256	-0.068
-262.224	-52.451	-0.045	-0.020
-261.209	-200.000	0.002	0.155
-260.195	-200.000	0.001	0.423
-259.180	-112.907	0.317	0.062
-258.165	-104.863	-0.335	0.076
-257.151	-200.000	0.006	-0.232
-256.136	797.055	-0.127	-0.346
-255.122	248.305	0.083	0.138
-254.107	-125.570	-0.160	0.024
-253.092	254.630	-0.032	-0.055
-252.078	-200.000	0.026	0.261
-251.063	196.372	0.212	0.319
-250.049	-91.755	-0.268	-0.075
-249.034	-4.081	-0.156	0.106
-248.019	80.155	-0.026	0.027
-247.005	-105.773	0.121	-0.027
-245.990	475.236	-0.168	-0.373
-244.976	518.542	-0.096	-0.222
-243.961	-59.408	0.300	-0.127
-242.946	296.803	-0.095	0.171
-241.932	-14.429	-0.188	-0.120
-240.917	-138.986	0.185	-0.020
-239.903	271.029	0.143	0.248
-238.888	800.000	0.054	-0.195
-237.873	-200.000	0.000	0.086
-236.859	70.375	0.107	-0.109
-235.844	-29.645	-0.075	0.042
-234.830	800.000	-0.075	-0.293
-233.815	-200.000	-0.011	-0.071
-232.800	-125.696	-0.342	0.051
-231.786	-138.891	0.122	0.013
-230.771	213.475	0.065	-0.102
-229.757	2.382	0.261	0.186
-228.742	800.000	0.060	0.178
-227.727	-5.799	-0.219	0.148
-226.713	800.000	0.114	0.393
-225.698	99.977	0.134	0.153
-224.684	77.658	-0.058	-0.061
-223.669	-200.000	-0.054	0.276
-222.655	333.849	0.077	0.147
-221.640	636.748	0.025	0.063
-220.625	199.271	0.045	-0.068
-219.611	328.800	0.151	0.286
-218.596	-200.000	0.018	0.133
-217.582	273.568	0.061	-0.107
-216.567	-114.876	0.094	-0.018
-215.552	392.696	0.136	-0.280
-214.538	-90.797	0.218	-0.062
-213.523	0.209	-0.294	0.207
-212.509	200.223	-0.058	-0.087
-211.494	-200.000	0.011	0.257
-210.479	45.660	-0.128	-0.117
-209.465	1.410	0.136	-0.097
-208.450	528.480	0.076	0.176
-207.436	-200.000	0.003	0.125
-206.421	26.033	-0.245	-0.201
-205.406	-64.504	0.144	0.058
-204.392	-200.000	-0.023	0.112
-203.377	800.000	0.026	0.083
-202.363	-93.313	-0.316	0.086
-201.348	-78.358	0.386	-0.131
-200.333	-157.063	-0.239	0.014
-199.319	103.001	-0.308	0.356
-198.304	-41.145	-0.295	0.150
-197.290	-28.882	-0.291	-0.165
-196.275	496.322	0.085	-0.193
-195.260	-138.652	-0.234	0.025
-194.246	96.924	0.066	-0.074
-193.231	590.689	-0.007	-0.016
-192.217	-200.000	-0.005	-0.067
-191.202	-200.000	0.029	-0.160
-190.187	137.616	-0.169	0.218
-189.173	-74.310	-0.291	-0.103
-188.158	23.988	0.060	0.049
-187.144	274.826	0.052	-0.090
-186.129	392.667	0.078	0.159
-185.114	73.999	-0.259	0.268
-184.100	380.093	-0.124	0.251
-183.085	800.000	-0.078	-0.285
-182.071	-120.251	0.131	0.022
-181.056	223.273	-0.191	0.303
-180.042	773.070	-0.055	0.147
-179.027	553.610	-0.051	0.122
-178.012	-80.058	0.132	0.044
-176.998	-200.000	-0.044	-0.208
-175.983	186.771	-0.097	-0.142
-174.969	171.287	-0.085	0.119
-173.954	27.939	-0.033	0.028
-172.939	-200.000	-0.015	-0.123
-171.925	14.967	-0.143	0.110
-170.910	139.167	-0.106	-0.137
-169.896	58.507	0.073	-0.071
-168.881	-200.000	-0.005	0.042
-167.866	-70.411	0.199	0.074
-166.852	24.628	0.344	0.280
-165.837	-118.112	0.374	-0.066
-164.823	-200.000	0.023	0.262
-163.808	800.000	0.017	0.064
-162.793	-32.931	0.273	-0.149
-161.779	-104.805	0.233	-0.053
-160.764	-66.308	-0.314	-0.123
-159.750	-200.000	-0.014	0.106
-158.735	-200.000	-0.027	0.268
-157.720	-200.000	-0.016	0.157
-156.706	-155.596	0.270	0.017
-155.691	-200.000	-0.066	-0.344
-154.677	-80.659	0.178	-0.058
-153.662	-53.117	0.226	-0.102
-152.647	-91.253	0.175	0.049
-151.633	-200.000	0.011	-0.272
-150.618	-110.445	-0.194	0.040
-149.604	375.858	-0.168	0.336
-148.589	203.774	-0.171	0.261
-147.574	-135.999	0.250	0.029
-146.560	641.254	-0.032	0.080
-145.545	-121.692	-0.194	-0.032
-144.531	800.000	-0.023	0.064
-143.516	-200.000	-0.017	-0.372
-142.502	-166.290	0.162	0.007
-141.487	-41.166	0.174	0.088
-140.472	800.000	0.057	0.191
-139.458	-85.940	0.179	-0.055
-138.443	411.761	-0.073	-0.152
-137.429	-28.718	0.104	0.059
-136.414	-133.826	0.112	0.014
-135.399	-183.690	-0.173	0.003
-134.385	140.491	0.161	-0.209
-133.370	-124.767	-0.260	0.040
-132.356	351.873	-0.044	0.086
-131.341	16.837	-0.098	0.076
-130.326	-200.000	-0.050	0.360
-129.312	-85.439	0.185	0.056
-128.297	800.000	-0.082	-0.300
-127.283	56.802	-0.073	-0.070
-126.268	247.312	0.094	-0.156
-125.253	800.000	-0.078	-0.262
-124.239	-64.519	0.111	-0.044
-123.224	-166.834	-0.332	-0.013
-122.210	800.000	0.037	0.137
