DTS Sentinel unit serial number:	SN413079Multiplexer serial number:	ORYXHardware model number:	OX4-SRSoftware version number:	ORYX F/W v4.00 Oryx Data Collector v3.7.2.0data status	okinstallation	princeton_trtdifferential loss correction	single-endedforward channel	channel 1reverse channel	N/Adate	2019/09/11time	23:24:11forward acquisition time	60.00reverse acquisition time	0.00gamma	496.2192k internal	0.2318k external	0.2318temperature offset calibration	1.0063default loss term (dB/km)	0.3790temperature slope calibration	1.0000multiplexer offset coefficient	1.0000multiplexer slope coefficient	1.0000fibre end	0.00T internal ref (°C)	34.31T ext. ref 1 (°C)	1.87T ext. ref 2 (°C)	28.94length (m)	temperature (°C)	Stokes	anti-Stokes-747.200	-88.574	-0.056	-0.017
-746.185	-200.000	0.022	0.400
-745.171	800.000	-0.008	-0.029
-744.156	-109.740	-0.265	0.056
-743.142	-200.000	-0.013	-0.410
-742.127	-5.746	0.200	-0.139
-741.112	800.000	-0.008	0.024
-740.098	-68.725	-0.194	-0.076
-739.083	-88.650	0.207	-0.062
-738.069	58.780	0.091	0.090
-737.054	163.265	0.101	0.144
-736.039	-86.450	-0.309	-0.096
-735.025	-133.978	0.284	-0.036
-734.010	-200.000	0.034	-0.156
-732.996	-127.007	-0.351	0.052
-731.981	800.000	-0.100	0.308
-730.966	269.166	0.114	0.202
-729.952	800.000	-0.051	-0.208
-728.937	-82.767	-0.163	0.053
-727.923	-200.000	0.071	0.323
-726.908	-129.682	-0.149	0.021
-725.894	259.522	-0.067	-0.118
-724.879	200.317	0.151	-0.234
-723.864	4.874	-0.190	-0.142
-722.850	-64.475	0.258	0.106
-721.835	114.638	-0.147	0.181
-720.821	-200.000	-0.036	-0.342
-719.806	429.589	-0.042	-0.092
-718.791	-200.000	0.015	0.265
-717.777	800.000	0.146	-0.412
-716.762	-200.000	-0.004	-0.367
-715.748	-89.812	0.069	0.020
-714.733	800.000	0.071	-0.206
-713.718	145.169	-0.032	-0.044
-712.704	-138.829	-0.214	-0.024
-711.689	-200.000	-0.036	0.389
-710.675	287.978	-0.123	-0.225
-709.660	-123.125	-0.326	-0.053
-708.645	15.189	0.167	-0.132
-707.631	-37.758	-0.197	-0.106
-706.616	-139.822	0.341	0.037
-705.602	-9.020	-0.341	-0.231
-704.587	-200.000	-0.066	0.291
-703.572	46.452	-0.143	0.134
-702.558	-104.917	-0.291	0.068
-701.543	-39.368	0.164	0.087
-700.529	3.669	-0.225	0.166
-699.514	-200.000	-0.006	0.361
-698.499	-38.853	-0.283	-0.151
-697.485	-85.428	-0.262	0.082
-696.470	-200.000	0.027	-0.244
-695.456	34.874	-0.249	-0.220
-694.441	-124.319	0.249	-0.039
-693.426	151.705	-0.079	0.109
-692.412	-200.000	-0.001	-0.058
-691.397	-90.574	0.141	-0.041
-690.383	35.770	-0.163	0.145
-689.368	-200.000	-0.007	-0.133
-688.354	-48.350	0.104	-0.051
-687.339	57.980	0.059	0.058
-686.324	263.758	-0.173	0.303
-685.310	-26.536	-0.297	-0.175
-684.295	-200.000	0.017	0.147
-683.281	295.012	0.168	-0.311
-682.266	-40.582	0.187	0.098
-681.251	-21.281	-0.111	-0.069
-680.237	800.000	-0.072	-0.234
-679.222	382.584	0.085	-0.175
-678.208	186.144	-0.141	0.211
-677.193	-200.000	-0.100	-0.451
-676.178	-61.361	-0.142	-0.060
-675.164	-125.992	0.280	-0.043
-674.149	67.779	0.109	-0.113
-673.135	38.724	-0.360	-0.325
-672.120	-83.315	0.349	-0.113
-671.105	800.000	-0.075	-0.291
-670.091	181.890	-0.090	0.134
-669.076	40.881	-0.107	0.097
-668.062	433.297	0.041	0.090
-667.047	-16.255	-0.106	-0.068
-666.032	480.155	-0.116	-0.265
-665.018	347.835	0.059	0.118
-664.003	10.355	0.077	-0.059
-662.989	126.664	-0.125	-0.160
-661.974	295.491	0.197	-0.363
-660.959	800.000	-0.111	0.379
-659.945	751.581	0.107	0.291
-658.930	84.711	-0.060	-0.067
-657.916	-138.987	0.079	-0.009
-656.901	3.108	-0.140	0.103
-655.886	-67.182	0.160	0.064
-654.872	-2.364	-0.119	-0.084
-653.857	-200.000	-0.034	0.167
-652.843	800.000	0.048	0.146
-651.828	110.219	0.057	-0.068
-650.814	99.998	-0.094	0.110
-649.799	26.974	-0.080	0.068
-648.784	-91.510	-0.080	0.023
-647.770	258.043	-0.187	-0.325
-646.755	629.236	-0.037	0.093
-645.741	77.114	-0.068	0.073
-644.726	800.000	-0.058	0.186
-643.711	80.812	-0.180	-0.196
-642.697	800.000	0.078	0.251
-641.682	75.158	-0.272	-0.289
-640.668	800.000	-0.103	-0.311
-639.653	800.000	-0.017	-0.048
-638.638	66.291	0.428	0.438
-637.624	800.000	-0.017	-0.054
-636.609	12.000	0.235	0.182
-635.595	525.418	-0.082	-0.194
-634.580	202.529	0.109	0.169
-633.565	-47.366	-0.094	-0.046
-632.551	-200.000	0.069	-0.461
-631.536	-78.687	-0.265	-0.091
-630.522	-80.716	-0.269	-0.090
-629.507	388.755	0.132	-0.276
-628.492	-200.000	0.029	-0.245
-627.478	-33.853	-0.151	-0.084
-626.463	-104.289	-0.361	-0.084
-625.449	-73.389	-0.234	-0.086
-624.434	206.450	-0.170	-0.267
-623.419	360.983	-0.150	-0.303
-622.405	-12.052	-0.236	0.156
-621.390	431.789	0.103	0.224
-620.376	-200.000	-0.025	0.376
-619.361	-168.167	0.103	-0.004
-618.346	-39.355	0.150	-0.079
-617.332	-200.000	0.022	-0.408
-616.317	505.546	0.085	-0.199
-615.303	8.032	-0.059	0.045
-614.288	-24.578	-0.287	0.172
-613.273	73.879	0.340	0.359
-612.259	-65.430	-0.351	0.142
-611.244	-104.656	-0.089	-0.021
-610.230	-200.000	-0.023	-0.123
-609.215	-57.542	-0.202	-0.089
-608.201	-60.370	0.295	0.126
-607.186	144.285	0.170	-0.228
-606.171	495.608	0.113	-0.262
-605.157	-176.008	0.400	0.011
-604.142	-200.000	0.005	0.032
-603.128	49.609	-0.289	0.274
-602.113	428.522	-0.072	0.156
-601.098	-200.000	-0.022	-0.331
-600.084	79.845	-0.098	0.106
-599.069	-79.889	-0.194	0.066
-598.055	-200.000	-0.009	-0.241
-597.040	68.207	-0.300	0.309
-596.025	-12.094	0.252	-0.166
-595.011	-200.000	0.012	0.237
-593.996	-16.371	-0.344	0.219
-592.982	800.000	0.015	-0.042
-591.967	-50.548	0.101	0.048
-590.952	-151.796	-0.277	0.020
-589.938	337.031	0.043	-0.083
-588.923	423.425	0.095	-0.205
-587.909	-10.083	0.133	-0.089
-586.894	800.000	-0.084	0.263
-585.879	586.222	0.193	-0.477
-584.865	179.497	0.147	0.216
-583.850	38.595	0.185	-0.166
-582.836	-21.164	0.295	0.181
-581.821	-139.035	0.179	-0.019
-580.806	22.303	0.149	-0.122
-579.792	251.770	0.099	0.170
-578.777	302.443	-0.102	-0.189
-577.763	160.153	-0.058	0.082
-576.748	-82.442	-0.422	0.138
-575.733	-9.354	0.108	-0.072
-574.719	-200.000	-0.005	-0.166
-573.704	665.456	-0.078	-0.203
-572.690	-136.772	-0.240	-0.028
-571.675	-200.000	0.028	-0.173
-570.661	-200.000	0.028	0.263
-569.646	-90.737	0.188	0.054
-568.631	-8.471	0.207	0.140
-567.617	-200.000	0.025	-0.265
-566.602	-74.953	-0.162	-0.058
-565.588	-138.899	0.199	0.022
-564.573	554.595	-0.134	-0.325
-563.558	800.000	0.048	-0.135
-562.544	31.741	0.187	0.161
-561.529	48.714	0.247	-0.233
-560.515	-131.679	-0.075	-0.010
-559.500	-103.488	-0.208	-0.049
-558.485	-200.000	-0.061	-0.297
-557.471	-22.389	0.111	0.068
-556.456	-175.748	0.303	-0.008
-555.442	169.966	0.027	0.039
-554.427	25.977	-0.356	-0.298
-553.412	243.065	-0.112	-0.189
-552.398	592.727	-0.122	-0.303
-551.383	-200.000	0.006	0.182
-550.369	315.442	0.127	-0.240
-549.354	800.000	-0.073	-0.282
-548.339	30.990	0.113	-0.097
-547.325	-104.454	0.168	-0.039
-546.310	7.056	0.028	-0.021
-545.296	-69.629	-0.163	0.062
-544.281	-32.229	-0.217	0.122
-543.266	372.930	0.075	-0.154
-542.252	800.000	-0.050	-0.159
-541.237	-23.012	0.138	-0.084
-540.223	-200.000	0.042	0.256
-539.208	-200.000	0.000	-0.044
-538.193	-52.588	0.157	-0.073
-537.179	265.546	-0.148	-0.259
-536.164	800.000	0.060	0.213
-535.150	665.438	-0.017	-0.045
-534.135	800.000	-0.108	0.442
-533.121	154.227	0.292	-0.402
-532.106	95.046	0.089	0.101
-531.091	-45.094	0.074	0.037
-530.077	600.845	-0.064	-0.159
-529.062	-99.770	0.141	-0.035
-528.048	800.000	-0.045	0.191
-527.033	800.000	0.019	0.062
-526.018	-193.621	0.157	-0.001
-525.004	292.886	-0.195	0.356
-523.989	134.107	-0.085	0.111
-522.975	-35.001	-0.384	0.210
-521.960	-200.000	0.021	0.189
-520.945	-140.944	-0.284	-0.029
-519.931	-117.414	-0.434	-0.079
-518.916	-57.516	0.089	-0.039
-517.902	52.447	0.195	0.187
-516.887	134.953	-0.054	0.071
-515.872	-13.657	-0.237	0.154
-514.858	-200.000	-0.046	0.316
-513.843	-200.000	-0.060	0.436
-512.829	-200.000	0.001	-0.026
-511.814	-200.000	-0.022	-0.269
-510.799	84.453	0.219	-0.240
-509.785	153.751	-0.148	-0.203
-508.770	-98.639	-0.301	-0.077
-507.756	26.945	0.069	0.058
-506.741	-93.015	0.109	0.030
-505.726	-200.000	-0.010	0.082
-504.712	237.612	0.090	0.149
-503.697	-36.414	0.077	-0.041
-502.683	-40.395	0.322	0.168
-501.668	-200.000	-0.021	-0.445
-500.653	-60.511	-0.135	-0.058
-499.639	-131.929	-0.268	0.035
-498.624	218.492	-0.155	0.248
-497.610	-15.319	-0.190	0.122
-496.595	-66.993	-0.248	0.098
-495.581	120.343	0.109	-0.136
-494.566	800.000	-0.062	-0.230
-493.551	-151.854	-0.257	-0.019
-492.537	-200.000	0.018	0.242
-491.522	70.396	-0.032	-0.033
-490.508	-121.657	0.082	-0.014
-489.493	250.849	-0.088	0.151
-488.478	48.483	-0.037	0.034
-487.464	16.391	-0.075	0.059
-486.449	-200.000	-0.073	0.342
-485.435	-40.530	-0.203	-0.106
-484.420	800.000	0.037	-0.103
-483.405	145.235	-0.164	0.219
-482.391	147.116	-0.169	0.228
-481.376	-73.874	-0.141	-0.051
-480.362	242.598	-0.128	0.215
-479.347	-194.820	0.288	-0.002
-478.332	753.372	-0.071	-0.192
-477.318	548.783	-0.095	-0.228
-476.303	197.968	0.196	-0.300
-475.289	-110.246	0.113	0.024
-474.274	3.369	-0.129	0.094
-473.259	-45.824	0.408	-0.202
-472.245	800.000	-0.089	0.303
-471.230	326.051	-0.183	0.351
-470.216	-200.000	-0.014	-0.116
-469.201	38.831	0.263	-0.236
-468.186	119.776	-0.160	0.199
-467.172	800.000	-0.038	0.133
-466.157	-1.249	-0.133	0.094
-465.143	-200.000	0.029	-0.136
-464.128	800.000	0.070	-0.236
-463.113	-84.949	0.140	-0.044
-462.099	120.556	-0.149	0.186
-461.084	-1.901	0.101	0.071
-460.070	-64.386	0.175	0.071
-459.055	-141.350	-0.133	-0.014
-458.040	206.707	-0.108	-0.168
-457.026	-154.065	0.070	0.005
-456.011	-69.518	0.227	0.087
-454.997	165.957	0.099	-0.140
-453.982	17.800	0.037	0.029
-452.968	-15.864	-0.363	0.232
-451.953	800.000	0.079	-0.256
-450.938	-200.000	0.026	-0.135
-449.924	95.262	-0.067	0.076
-448.909	709.465	0.044	-0.115
-447.895	-200.000	-0.020	-0.155
-446.880	-200.000	-0.015	-0.140
-445.865	89.797	-0.164	-0.184
-444.851	164.606	-0.077	-0.109
-443.836	-200.000	0.034	-0.177
-442.822	800.000	0.101	-0.327
-441.807	-76.385	-0.069	-0.024
-440.792	-144.938	0.440	0.040
-439.778	-37.803	-0.371	0.197
-438.763	249.253	0.010	-0.017
-437.749	-86.571	0.410	-0.126
-436.734	-161.389	0.026	0.001
-435.719	97.503	0.226	0.260
-434.705	-54.451	-0.273	-0.124
-433.690	800.000	0.047	0.192
-432.676	-200.000	0.019	0.121
-431.661	101.830	-0.101	-0.118
-430.646	-200.000	0.041	0.199
-429.632	207.511	-0.121	-0.189
-428.617	-200.000	-0.066	0.316
-427.603	800.000	-0.071	0.251
-426.588	-200.000	0.060	0.274
-425.573	160.351	0.173	0.242
-424.559	-200.000	-0.014	-0.170
-423.544	-200.000	0.036	0.415
-422.530	-200.000	0.004	-0.112
-421.515	205.642	0.299	-0.464
-420.500	143.809	0.120	0.160
-419.486	103.945	0.239	0.280
-418.471	-59.514	-0.061	0.026
-417.457	-10.144	0.137	-0.091
-416.442	-91.425	0.059	0.017
-415.428	-168.283	-0.221	-0.009
-414.413	115.469	-0.091	-0.111
-413.398	-49.227	-0.526	-0.251
-412.384	133.152	-0.050	0.065
-411.369	-200.000	-0.121	-0.579
-410.355	-160.250	0.575	-0.031
-409.340	686.335	0.057	-0.148
-408.325	436.583	0.078	-0.169
-407.311	112.984	-0.107	-0.129
-406.296	-200.000	0.002	0.116
-405.282	800.000	-0.074	0.208
-404.267	-200.000	-0.022	-0.118
-403.252	-146.434	0.202	-0.018
-402.238	-73.310	0.080	-0.029
-401.223	-5.304	0.172	0.118
-400.209	48.058	-0.182	0.170
-399.194	-183.127	0.048	0.001
-398.179	-28.589	-0.279	0.161
-397.165	351.358	-0.126	0.250
-396.150	140.130	0.163	-0.215
-395.136	183.413	-0.112	-0.165
-394.121	-105.731	0.205	-0.046
-393.106	-43.856	-0.272	-0.137
-392.092	-107.269	0.347	0.076
-391.077	363.173	-0.072	-0.145
-390.063	-10.184	-0.130	-0.086
-389.048	-67.232	0.355	-0.139
-388.033	341.525	-0.089	-0.174
-387.019	220.543	-0.277	-0.443
-386.004	58.767	0.152	0.149
-384.990	-60.922	0.112	0.047
-383.975	-106.617	0.331	0.073
-382.960	-174.868	0.115	0.003
-381.946	12.358	0.089	0.069
-380.931	-32.252	-0.214	0.119
-379.917	262.634	0.115	-0.199
-378.902	-14.961	0.135	0.086
-377.888	270.828	0.220	0.387
-376.873	139.408	-0.257	-0.337
-375.858	190.404	-0.232	0.348
-374.844	-200.000	-0.001	-0.239
-373.829	-113.976	0.160	0.031
-372.815	-83.394	0.388	-0.124
-371.800	147.188	0.085	-0.114
-370.785	800.000	0.044	0.131
-369.771	622.678	-0.028	0.071
-368.756	800.000	-0.115	0.384
-367.742	43.783	0.131	-0.120
-366.727	615.882	0.088	-0.220
-365.712	-15.696	0.090	-0.057
-364.698	110.742	0.213	-0.255
-363.683	768.910	0.065	-0.178
-362.669	36.239	0.082	-0.072
-361.654	-200.000	0.018	0.311
-360.639	553.586	-0.098	-0.235
-359.625	-62.814	-0.262	0.108
-358.610	-200.000	-0.075	-0.335
-357.596	258.586	-0.046	-0.079
-356.581	387.005	-0.045	0.092
-355.566	-200.000	0.013	0.359
-354.552	612.281	-0.046	0.114
-353.537	414.665	-0.116	0.247
-352.523	-53.790	-0.203	0.092
-351.508	-100.166	-0.211	0.052
-350.493	-200.000	0.028	0.126
-349.479	-140.890	-0.272	0.028
-348.464	-60.293	0.142	-0.060
-347.450	-71.827	0.152	-0.056
-346.435	-38.270	0.083	0.044
-345.420	-34.110	0.131	0.072
-344.406	-79.947	0.246	-0.082
-343.391	-200.000	-0.029	-0.217
-342.377	118.859	-0.115	0.141
-341.362	-200.000	-0.114	0.533
-340.348	-200.000	-0.003	-0.221
-339.333	127.036	0.137	-0.173
-338.318	86.414	0.082	-0.090
-337.304	-15.301	-0.383	-0.244
-336.289	-200.000	-0.025	0.223
-335.275	-117.888	0.294	-0.052
-334.260	63.824	0.195	-0.195
-333.245	122.005	0.175	-0.217
-332.231	36.592	-0.207	-0.182
-331.216	800.000	0.064	0.278
-330.202	550.660	0.078	-0.186
-329.187	800.000	0.007	-0.023
-328.172	-6.430	-0.086	-0.058
-327.158	-13.403	-0.481	-0.310
-326.143	-200.000	-0.003	0.345
-325.129	-200.000	0.003	0.053
-324.114	-163.357	0.342	-0.016
-323.099	-200.000	-0.024	-0.199
-322.085	367.733	-0.054	0.108
-321.070	-39.140	-0.210	-0.110
-320.056	-42.345	-0.254	-0.129
-319.041	-35.803	-0.087	-0.047
-318.026	-32.773	-0.183	0.101
-317.012	-56.254	-0.122	-0.054
-315.997	-122.111	0.225	-0.037
-314.983	52.136	-0.229	0.217
-313.968	105.365	0.202	0.237
-312.953	800.000	0.061	-0.203
-311.939	800.000	-0.058	0.217
-310.924	-85.405	-0.063	0.020
-309.910	-200.000	0.048	-0.221
-308.895	24.881	0.015	-0.012
-307.880	204.486	-0.066	0.102
-306.866	34.212	0.076	-0.066
-305.851	112.806	-0.243	-0.293
-304.837	800.000	-0.013	0.037
-303.822	-92.542	0.004	-0.001
-302.807	-147.544	0.055	0.005
-301.793	620.579	0.070	0.176
-300.778	-85.107	0.028	-0.009
-299.764	-75.641	0.133	-0.047
-298.749	41.952	0.219	0.197
-297.735	347.310	-0.158	0.309
-296.720	446.969	-0.174	0.381
-295.705	95.589	0.088	0.100
-294.691	36.150	-0.181	0.159
-293.676	27.443	-0.149	0.124
-292.662	-137.544	-0.172	-0.019
-291.647	800.000	-0.026	0.084
-290.632	-200.000	0.031	-0.184
-289.618	-200.000	0.024	0.284
-288.603	-93.428	-0.209	-0.057
-287.589	-87.621	-0.232	-0.070
-286.574	-129.965	0.456	-0.062
-285.559	-178.392	-0.246	-0.006
-284.545	-58.498	0.240	0.103
-283.530	116.535	-0.068	0.083
-282.516	12.523	0.111	-0.085
-281.501	-200.000	-0.027	-0.184
-280.486	-200.000	0.002	-0.093
-279.472	800.000	-0.065	-0.260
-278.457	15.415	-0.112	-0.087
-277.443	-32.627	-0.113	-0.062
-276.428	-106.327	0.225	-0.050
-275.413	196.322	0.056	0.085
-274.399	800.000	0.073	0.262
-273.384	-135.965	-0.222	0.026
-272.370	-99.891	0.453	-0.113
-271.355	-148.091	0.061	0.005
-270.340	-136.613	-0.178	-0.021
-269.326	-200.000	-0.082	-0.510
-268.311	316.153	-0.151	-0.283
-267.297	14.268	-0.138	-0.107
-266.282	800.000	0.053	0.176
-265.267	-200.000	0.000	0.269
-264.253	800.000	-0.109	-0.426
-263.238	511.420	0.059	0.136
-262.224	-200.000	0.015	0.363
-261.209	-102.913	0.170	0.040
-260.195	-89.277	0.036	-0.011
-259.180	-16.341	0.214	-0.135
-258.165	-42.974	0.274	-0.138
-257.151	-154.830	-0.148	-0.010
-256.136	-200.000	0.048	0.216
-255.122	31.801	-0.102	0.088
-254.107	40.086	0.165	-0.147
-253.092	221.816	-0.083	-0.133
-252.078	-118.059	0.249	0.044
-251.063	-200.000	0.068	0.366
-250.049	-22.365	0.203	0.122
-249.034	135.007	0.132	0.170
-248.019	126.262	0.307	0.385
-247.005	547.337	0.203	0.481
-245.990	345.024	0.077	0.150
-244.976	39.179	0.235	0.209
-243.961	151.818	-0.086	-0.117
-242.946	245.480	-0.130	0.217
-241.932	11.483	0.023	0.017
-240.917	-55.286	-0.168	0.075
-239.903	94.792	-0.113	0.127
-238.888	176.372	-0.028	0.041
-237.873	5.140	0.120	0.087
-236.859	-200.000	0.075	0.459
-235.844	-49.850	-0.175	-0.083
-234.830	-200.000	-0.017	0.187
-233.815	60.042	-0.131	-0.128
-232.800	-61.702	0.334	0.139
-231.786	-35.816	-0.027	0.015
-230.771	72.007	-0.067	-0.069
-229.757	720.438	0.059	-0.156
-228.742	119.740	-0.094	-0.116
-227.727	56.750	0.120	0.116
-226.713	-150.724	-0.109	-0.008
-225.698	316.767	-0.119	0.222
-224.684	-200.000	-0.003	-0.117
-223.669	-192.701	0.230	-0.002
-222.655	289.628	-0.075	-0.135
-221.640	-62.063	0.254	0.105
-220.625	409.541	-0.046	0.096
-219.611	-155.278	0.380	-0.025
-218.596	-200.000	0.030	-0.153
-217.582	-200.000	0.002	0.085
-216.567	346.098	0.123	-0.240
-215.552	718.393	-0.159	-0.418
-214.538	-200.000	0.027	0.120
-213.523	800.000	-0.059	-0.169
-212.509	-55.461	0.171	0.076
-211.494	-142.652	0.202	-0.020
-210.479	-200.000	0.044	0.264
-209.465	-200.000	-0.005	0.280
-208.450	-200.000	-0.047	-0.270
-207.436	-128.380	0.138	0.019
-206.421	-200.000	0.028	0.371
-205.406	348.002	-0.117	0.228
-204.392	215.487	-0.125	-0.196
-203.377	-146.273	0.149	-0.013
-202.363	165.697	0.106	-0.149
-201.348	145.705	0.167	-0.222
-200.333	800.000	0.109	-0.299
-199.319	-129.625	-0.346	0.047
-198.304	-167.579	0.005	-0.000
-197.290	309.682	0.038	0.070
-196.275	-200.000	-0.050	0.257
-195.260	-200.000	0.010	-0.534
-194.246	476.754	0.034	0.077
-193.231	2.435	-0.164	0.118
-192.217	284.926	0.075	-0.134
-191.202	-72.762	-0.266	-0.097
-190.187	9.850	-0.197	0.148
-189.173	-2.660	0.094	-0.065
-188.158	28.495	0.095	-0.079
-187.144	171.402	-0.144	0.205
-186.129	33.875	0.282	0.243
-185.114	-47.434	0.111	-0.053
-184.100	-137.394	0.140	0.016
-183.085	159.209	-0.230	-0.316
-182.071	114.718	-0.082	0.099
-181.056	80.809	0.088	0.094
-180.042	-168.418	-0.214	0.008
-179.027	167.397	-0.193	-0.272
-178.012	-72.601	0.144	0.053
-176.998	-200.000	0.051	0.495
-175.983	138.131	0.351	0.456
-174.969	-200.000	-0.021	0.115
-173.954	-43.914	0.087	-0.043
-172.939	-95.557	0.232	-0.062
-171.925	-6.405	-0.195	0.131
-170.910	-200.000	0.003	0.393
-169.896	-200.000	-0.035	0.251
-168.881	443.219	-0.049	-0.106
-167.866	10.462	-0.151	0.114
-166.852	800.000	-0.019	0.057
-165.837	-200.000	0.012	-0.061
-164.823	202.279	-0.112	-0.171
-163.808	-90.327	-0.294	0.084
-162.793	301.582	0.219	0.401
-161.779	-80.210	0.209	-0.069
-160.764	4.291	0.267	0.193
-159.750	-155.815	-0.164	0.010
-158.735	-56.137	0.153	-0.067
-157.720	189.214	0.229	-0.339
-156.706	165.668	-0.065	0.090
-155.691	-200.000	0.027	-0.165
-154.677	-96.126	0.387	-0.102
-153.662	774.457	0.054	-0.145
-152.647	-78.560	-0.376	-0.127
-151.633	-68.944	-0.117	0.045
-150.618	451.999	-0.214	0.467
-149.604	-200.000	0.014	0.158
-148.589	-122.478	-0.204	-0.033
-147.574	273.000	-0.182	-0.318
-146.560	38.502	0.175	0.154
-145.545	-129.317	-0.299	0.041
-144.531	357.894	-0.126	0.248
-143.516	306.144	-0.007	-0.013
-142.502	464.478	-0.157	0.347
-141.487	-75.470	0.223	-0.078
-140.472	-134.850	0.167	-0.020
-139.458	-37.343	-0.158	-0.084
-138.443	-189.739	-0.172	-0.002
-137.429	-77.008	-0.492	-0.170
-136.414	208.017	0.116	0.179
-135.399	119.160	0.104	-0.127
-134.385	-169.145	-0.267	0.010
-133.370	-200.000	-0.029	0.211
-132.356	222.832	0.193	-0.308
-131.341	-200.000	-0.001	-0.064
-130.326	-200.000	-0.004	-0.191
-129.312	-200.000	-0.021	0.260
-128.297	-166.969	0.330	0.013
-127.283	-53.428	-0.089	-0.040
-126.268	713.002	-0.119	0.311
-125.253	800.000	-0.074	0.279
-124.239	66.761	0.175	-0.176
-123.224	-91.761	-0.012	0.003
-122.210	382.378	0.169	0.344
