DTS Sentinel unit serial number:	SN413079Multiplexer serial number:	ORYXHardware model number:	OX4-SRSoftware version number:	ORYX F/W v4.00 Oryx Data Collector v3.7.2.0data status	okinstallation	princeton_trtdifferential loss correction	single-endedforward channel	channel 1reverse channel	N/Adate	2019/09/11time	22:08:11forward acquisition time	60.00reverse acquisition time	0.00gamma	496.2192k internal	0.2313k external	0.2313temperature offset calibration	1.0053default loss term (dB/km)	0.3790temperature slope calibration	1.0000multiplexer offset coefficient	1.0000multiplexer slope coefficient	1.0000fibre end	0.00T internal ref (°C)	35.41T ext. ref 1 (°C)	1.73T ext. ref 2 (°C)	29.43length (m)	temperature (°C)	Stokes	anti-Stokes-747.200	800.000	0.103	-0.321
-746.185	800.000	0.118	0.435
-745.171	41.261	-0.099	0.091
-744.156	113.243	0.183	0.226
-743.142	-93.892	0.292	-0.081
-742.127	-66.559	-0.192	-0.077
-741.112	-77.181	-0.125	-0.044
-740.098	100.254	-0.225	0.265
-739.083	-98.374	0.068	-0.018
-738.069	166.305	-0.218	0.313
-737.054	-66.789	0.029	0.012
-736.039	312.831	0.021	0.041
-735.025	800.000	0.108	0.311
-734.010	-82.958	-0.160	0.052
-732.996	-188.242	0.232	0.003
-731.981	530.787	-0.196	-0.471
-730.966	-200.000	0.039	-0.185
-729.952	169.351	0.194	-0.281
-728.937	11.553	-0.110	0.085
-727.923	-200.000	-0.022	-0.413
-726.908	95.147	-0.126	0.146
-725.894	-103.446	-0.450	-0.107
-724.879	511.885	0.130	0.308
-723.864	-9.793	-0.171	0.115
-722.850	350.629	-0.104	0.209
-721.835	-107.661	-0.128	-0.028
-720.821	671.884	0.086	-0.226
-719.806	-120.480	-0.162	0.028
-718.791	-132.751	0.080	-0.010
-717.777	-33.948	-0.195	-0.109
-716.762	-200.000	-0.036	-0.293
-715.748	-89.031	-0.122	0.036
-714.733	-151.196	-0.251	0.019
-713.718	2.058	-0.344	-0.251
-712.704	-200.000	0.066	0.411
-711.689	112.876	0.208	0.255
-710.675	114.582	0.195	-0.241
-709.660	800.000	-0.142	-0.472
-708.645	76.226	0.091	0.098
-707.631	297.442	0.086	-0.160
-706.616	104.386	0.106	0.127
-705.602	-102.821	-0.212	0.051
-704.587	586.943	0.031	-0.078
-703.572	406.605	-0.064	0.137
-702.558	243.328	0.156	-0.266
-701.543	800.000	-0.045	-0.171
-700.529	-20.910	-0.143	0.089
-699.514	93.043	-0.144	-0.165
-698.499	-168.432	-0.184	0.007
-697.485	658.740	0.098	0.256
-696.470	-6.847	0.129	-0.089
-695.456	800.000	-0.034	-0.120
-694.441	-68.000	0.299	-0.118
-693.426	-48.447	0.285	-0.139
-692.412	-116.397	-0.023	0.004
-691.397	-67.156	-0.238	-0.095
-690.383	-123.884	0.039	0.006
-689.368	-115.633	0.099	-0.019
-688.354	579.679	0.112	-0.279
-687.339	800.000	0.093	-0.344
-686.324	268.709	-0.125	-0.221
-685.310	-64.177	0.286	0.118
-684.295	-200.000	-0.022	0.104
-683.281	433.990	-0.078	-0.172
-682.266	-2.695	0.149	-0.106
-681.251	-200.000	-0.006	0.208
-680.237	800.000	-0.043	0.152
-679.222	800.000	0.064	0.217
-678.208	39.065	-0.121	-0.109
-677.193	-1.517	0.134	-0.096
-676.178	-91.669	-0.153	0.044
-675.164	-200.000	0.052	0.289
-674.149	-132.866	0.153	-0.020
-673.135	327.570	0.210	-0.407
-672.120	-51.262	0.222	-0.105
-671.105	-143.932	-0.270	-0.026
-670.091	126.836	0.214	0.274
-669.076	356.917	0.036	-0.073
-668.062	-84.082	-0.158	-0.051
-667.047	-103.507	0.408	0.097
-666.032	89.891	0.376	0.425
-665.018	-200.000	-0.012	0.241
-664.003	375.092	-0.057	0.117
-662.989	-21.480	0.363	-0.224
-661.974	52.127	-0.014	-0.014
-660.959	149.596	0.046	-0.064
-659.945	-3.802	0.108	0.076
-658.930	102.615	-0.115	-0.136
-657.916	-50.778	0.170	-0.081
-656.901	702.400	-0.016	-0.042
-655.886	33.115	0.271	-0.238
-654.872	662.588	-0.045	0.117
-653.857	-66.976	0.092	0.037
-652.843	128.504	-0.310	-0.399
-651.828	-133.852	0.223	0.028
-650.814	-69.889	-0.052	-0.020
-649.799	-8.579	-0.094	-0.064
-648.784	800.000	0.059	-0.180
-647.770	800.000	-0.113	0.420
-646.755	-114.096	-0.167	0.033
-645.741	-26.019	0.372	0.221
-644.726	-62.371	-0.116	-0.049
-643.711	800.000	-0.108	-0.348
-642.697	800.000	0.041	-0.121
-641.682	-23.031	-0.078	0.047
-640.668	-200.000	0.047	-0.273
-639.653	7.678	0.243	0.184
-638.638	800.000	0.016	0.061
-637.624	-163.490	0.034	-0.002
-636.609	800.000	-0.038	0.139
-635.595	-171.499	-0.331	-0.011
-634.580	-131.990	0.335	-0.044
-633.565	-75.570	0.170	0.061
-632.551	-200.000	-0.025	0.109
-631.536	-145.521	0.259	0.023
-630.522	-4.309	0.104	0.073
-629.507	-200.000	-0.006	-0.072
-628.492	25.181	-0.181	0.152
-627.478	327.577	-0.028	-0.054
-626.463	-87.451	0.227	0.069
-625.449	-155.811	0.042	0.003
-624.434	-70.631	0.212	0.081
-623.419	341.651	0.149	-0.294
-622.405	-79.623	-0.188	-0.064
-621.390	-55.238	-0.195	0.088
-620.376	72.407	-0.222	0.234
-619.361	57.570	0.249	0.246
-618.346	-200.000	-0.012	-0.239
-617.332	-200.000	-0.020	-0.205
-616.317	176.593	0.217	0.319
-615.303	800.000	-0.022	0.075
-614.288	227.151	-0.058	-0.095
-613.273	-84.961	-0.243	0.077
-612.259	-200.000	-0.034	0.212
-611.244	-37.452	-0.144	0.077
-610.230	310.536	0.096	-0.181
-609.215	234.900	-0.127	-0.211
-608.201	132.063	0.157	-0.204
-607.186	-200.000	-0.019	-0.173
-606.171	95.896	0.205	-0.237
-605.157	-200.000	0.006	0.219
-604.142	7.869	-0.270	-0.204
-603.128	-10.988	0.031	-0.021
-602.113	86.634	-0.250	-0.278
-601.098	-85.995	0.111	0.035
-600.084	-105.239	0.286	0.066
-599.069	-167.653	0.244	-0.010
-598.055	24.997	0.247	0.207
-597.040	-200.000	0.022	0.236
-596.025	246.786	0.131	0.223
-595.011	243.374	-0.049	0.083
-593.996	-120.110	-0.151	-0.026
-592.982	-200.000	0.020	0.183
-591.967	44.941	0.216	0.201
-590.952	7.236	-0.218	-0.164
-589.938	-19.985	-0.239	-0.149
-588.923	-200.000	0.056	0.335
-587.909	-166.269	0.423	-0.018
-586.894	-81.023	-0.182	0.061
-585.879	149.081	0.114	-0.155
-584.865	-200.000	0.005	-0.171
-583.850	-88.390	-0.328	0.099
-582.836	158.249	-0.197	0.276
-581.821	-91.724	0.228	0.065
-580.806	84.812	-0.127	-0.141
-579.792	113.571	0.105	0.129
-578.777	-110.487	0.230	-0.048
-577.763	800.000	-0.069	-0.248
-576.748	389.309	0.048	-0.101
-575.733	355.845	0.080	0.160
-574.719	83.234	0.023	-0.026
-573.704	-65.712	-0.149	-0.060
-572.690	3.377	-0.158	-0.116
-571.675	-134.757	0.349	0.043
-570.661	84.564	0.100	-0.110
-569.646	-183.128	0.302	-0.005
-568.631	-33.034	0.334	-0.187
-567.617	-132.199	0.162	0.021
-566.602	-200.000	0.026	0.136
-565.588	128.312	0.031	-0.040
-564.573	-102.301	-0.154	0.037
-563.558	269.321	-0.050	-0.089
-562.544	-5.644	0.132	-0.091
-561.529	177.583	0.271	0.397
-560.515	-200.000	-0.003	0.051
-559.500	37.564	-0.253	-0.226
-558.485	758.943	-0.140	-0.381
-557.471	-200.000	-0.033	-0.290
-556.456	-33.843	-0.378	-0.210
-555.442	-200.000	-0.004	0.192
-554.427	36.694	-0.042	0.037
-553.412	778.462	0.032	-0.089
-552.398	44.964	0.077	-0.071
-551.383	108.586	-0.114	-0.137
-550.369	402.686	-0.084	0.178
-549.354	45.302	-0.191	0.177
-548.339	-37.552	-0.253	-0.136
-547.325	-200.000	-0.018	0.119
-546.310	-200.000	-0.017	-0.512
-545.296	-52.073	-0.369	-0.172
-544.281	-1.001	-0.108	0.077
-543.266	-142.035	0.333	0.033
-542.252	-61.482	0.266	0.113
-541.237	-200.000	-0.030	-0.165
-540.223	79.300	-0.200	-0.216
-539.208	-122.768	0.117	-0.019
-538.193	66.716	0.398	-0.408
-537.179	465.840	0.127	0.286
-536.164	237.916	0.059	-0.099
-535.150	800.000	-0.051	-0.215
-534.135	-167.559	0.174	0.007
-533.121	126.771	0.031	0.039
-532.106	649.178	-0.128	0.330
-531.091	800.000	0.090	0.283
-530.077	120.216	-0.219	0.273
-529.062	-200.000	0.006	0.243
-528.048	800.000	0.084	-0.242
-527.033	-4.301	0.143	0.100
-526.018	129.326	-0.177	-0.228
-525.004	98.115	0.153	-0.177
-523.989	-44.036	0.158	-0.080
-522.975	-144.439	0.300	-0.028
-521.960	-59.103	-0.126	-0.055
-520.945	-12.821	-0.101	0.066
-519.931	800.000	-0.069	-0.205
-518.916	-200.000	-0.016	-0.327
-517.902	-79.679	0.089	-0.030
-516.887	800.000	-0.063	0.253
-515.872	-85.079	-0.185	0.058
-514.858	-104.376	-0.164	0.038
-513.843	480.118	-0.106	-0.242
-512.829	-129.017	-0.363	-0.051
-511.814	-151.472	-0.452	0.034
-510.799	-52.794	-0.117	-0.054
-509.785	-200.000	0.025	0.526
-508.770	-28.889	0.153	0.088
-507.756	-59.202	0.233	0.101
-506.741	-141.964	0.021	-0.002
-505.726	-43.043	0.296	0.151
-504.712	98.469	-0.043	0.050
-503.697	-87.767	0.247	-0.075
-502.683	-37.660	-0.248	0.133
-501.668	19.476	-0.201	-0.163
-500.653	-71.311	0.264	0.099
-499.639	-200.000	-0.061	-0.352
-498.624	-98.005	-0.185	-0.048
-497.610	-200.000	0.018	0.154
-496.595	360.149	0.014	-0.028
-495.581	112.040	-0.021	0.026
-494.566	392.569	0.056	0.117
-493.551	-100.880	0.134	-0.033
-492.537	79.133	-0.234	-0.252
-491.522	800.000	-0.073	-0.309
-490.508	371.931	0.043	0.088
-489.493	466.637	-0.070	0.158
-488.478	185.526	-0.328	-0.490
-487.464	167.638	0.078	-0.111
-486.449	-79.262	-0.234	-0.080
-485.435	-150.253	-0.226	0.018
-484.420	96.723	0.048	-0.055
-483.405	-37.177	0.184	-0.099
-482.391	-166.059	0.223	-0.010
-481.376	99.313	-0.397	0.461
-480.362	26.450	0.212	0.178
-479.347	800.000	-0.048	0.158
-478.332	800.000	-0.069	0.278
-477.318	-200.000	0.081	-0.485
-476.303	-102.419	0.119	-0.029
-475.289	-66.565	0.248	0.099
-474.274	-139.165	-0.294	0.032
-473.259	-43.419	0.064	-0.033
-472.245	17.581	0.330	-0.263
-471.230	-200.000	0.027	0.400
-470.216	-194.042	0.238	-0.002
-469.201	518.968	0.112	-0.263
-468.186	-10.751	-0.061	-0.041
-467.172	-94.229	-0.178	0.049
-466.157	149.199	-0.103	-0.140
-465.143	-200.000	-0.002	-0.187
-464.128	77.065	0.092	0.098
-463.113	15.936	0.080	-0.063
-462.099	-200.000	-0.001	-0.076
-461.084	31.141	-0.287	0.247
-460.070	-121.824	0.285	-0.047
-459.055	-200.000	0.033	0.288
-458.040	220.154	-0.145	0.232
-457.026	-140.904	-0.295	0.030
-456.011	32.988	0.084	0.073
-454.997	766.973	0.100	0.272
-453.982	-141.851	-0.184	0.019
-452.968	60.510	0.146	-0.145
-451.953	-200.000	0.008	0.264
-450.938	-63.419	-0.188	-0.077
-449.924	-123.930	0.268	-0.042
-448.909	95.364	0.194	0.221
-447.895	800.000	0.067	0.189
-446.880	47.092	-0.123	-0.115
-445.865	327.784	-0.065	-0.126
-444.851	87.362	0.290	0.322
-443.836	-4.786	0.167	-0.116
-442.822	-200.000	-0.035	0.217
-441.807	800.000	0.137	0.385
-440.792	-200.000	-0.033	-0.313
-439.778	721.585	0.078	0.207
-438.763	-110.443	-0.233	-0.048
-437.749	-200.000	0.004	-0.120
-436.734	-72.430	-0.110	0.041
-435.719	-200.000	-0.010	0.109
-434.705	9.409	0.371	0.281
-433.690	-66.235	0.294	0.117
-432.676	-64.475	-0.076	0.031
-431.661	-87.921	0.108	0.032
-430.646	207.966	-0.141	0.220
-429.632	-14.152	0.052	0.033
-428.617	-200.000	0.020	-0.248
-427.603	-77.561	-0.069	-0.024
-426.588	357.287	-0.063	0.125
-425.573	-23.025	0.224	0.136
-424.559	739.000	-0.089	-0.239
-423.544	-58.242	0.212	0.092
-422.530	-104.952	-0.078	-0.018
-421.515	50.927	-0.075	0.071
-420.500	800.000	0.074	0.229
-419.486	-135.025	-0.271	-0.033
-418.471	100.304	0.104	-0.121
-417.457	-91.372	-0.240	-0.069
-416.442	-129.223	0.145	0.020
-415.428	593.245	-0.039	-0.096
-414.413	-81.779	0.076	-0.025
-413.398	-69.665	-0.168	-0.064
-412.384	-200.000	0.032	0.294
-411.369	-200.000	-0.007	0.047
-410.355	-67.393	-0.177	-0.069
-409.340	-18.843	0.054	0.034
-408.325	-200.000	0.045	-0.247
-407.311	330.893	0.100	0.193
-406.296	-200.000	-0.009	0.155
-405.282	-26.020	-0.171	0.101
-404.267	392.301	0.143	0.297
-403.252	153.985	0.090	0.124
-402.238	177.054	0.223	-0.325
-401.223	-200.000	0.002	0.155
-400.209	-112.649	-0.381	0.076
-399.194	-30.687	-0.247	-0.140
-398.179	102.955	0.068	-0.080
-397.165	-58.076	-0.163	-0.071
-396.150	-32.318	-0.282	0.158
-395.136	800.000	-0.110	0.315
-394.121	465.669	0.065	-0.147
-393.106	-200.000	-0.032	-0.155
-392.092	-157.813	-0.185	-0.011
-391.077	-73.489	-0.336	-0.123
-390.063	-200.000	0.005	0.062
-389.048	83.186	-0.206	0.224
-388.033	-153.439	-0.115	-0.008
-387.019	800.000	-0.118	-0.375
-386.004	-96.612	-0.370	-0.098
-384.990	9.196	0.173	0.131
-383.975	22.400	0.203	-0.166
-382.960	-16.254	0.134	-0.085
-381.946	35.082	-0.147	0.128
-380.931	-97.705	-0.092	0.024
-379.917	800.000	0.066	0.230
-378.902	326.452	0.084	0.160
-377.888	249.913	0.095	-0.161
-376.873	-102.958	0.227	-0.054
-375.858	31.528	0.215	0.185
-374.844	-58.067	0.120	0.052
-373.829	484.100	-0.158	-0.360
-372.815	-176.787	0.179	0.005
-371.800	-18.850	0.060	0.038
-370.785	-163.392	0.227	0.011
-369.771	-91.146	-0.165	0.047
-368.756	24.749	0.185	0.153
-367.742	-96.865	0.102	-0.027
-366.727	800.000	-0.032	-0.095
-365.712	-72.511	-0.216	0.080
-364.698	177.303	0.103	0.149
-363.683	-200.000	0.033	0.167
-362.669	-94.359	0.117	0.032
-361.654	-200.000	-0.002	-0.018
-360.639	-125.601	-0.086	0.013
-359.625	-98.139	-0.512	0.132
-358.610	237.728	0.057	-0.094
-357.596	-137.886	0.417	0.047
-356.581	800.000	0.117	-0.420
-355.566	129.568	-0.092	0.117
-354.552	-200.000	-0.012	0.106
-353.537	-112.029	0.284	0.057
-352.523	-200.000	0.017	-0.111
-351.508	221.913	0.057	0.092
-350.493	-4.859	-0.034	-0.024
-349.479	-83.124	0.101	0.033
-348.464	-200.000	-0.058	-0.535
-347.450	54.379	0.275	0.265
-346.435	-156.322	0.165	0.010
-345.420	20.597	0.202	-0.164
-344.406	536.653	-0.129	-0.305
-343.391	-5.848	-0.156	0.106
-342.377	-72.360	-0.057	0.021
-341.362	800.000	0.058	-0.189
-340.348	-85.902	0.350	0.108
-339.333	-25.146	-0.311	-0.184
-338.318	36.753	0.231	0.204
-337.304	-28.492	-0.197	-0.113
-336.289	-158.389	-0.156	0.009
-335.275	177.518	0.160	-0.233
-334.260	-126.181	0.213	-0.032
-333.245	103.761	0.090	-0.105
-332.231	-200.000	-0.040	-0.189
-331.216	800.000	-0.091	0.317
-330.202	-33.224	-0.176	0.097
-329.187	-52.730	0.016	-0.008
-328.172	-200.000	0.065	-0.386
-327.158	-61.072	-0.217	-0.091
-326.143	-25.848	-0.145	-0.085
-325.129	-41.555	-0.149	-0.077
-324.114	-99.169	0.220	0.055
-323.099	-53.787	0.142	-0.065
-322.085	-66.446	-0.109	0.043
-321.070	800.000	0.089	0.286
-320.056	800.000	0.027	-0.115
-319.041	-56.403	-0.055	0.024
-318.026	800.000	0.010	0.035
-317.012	-200.000	-0.007	0.212
-315.997	800.000	-0.047	0.165
-314.983	2.815	-0.065	-0.047
-313.968	-134.001	-0.202	0.025
-312.953	-121.734	0.229	0.038
-311.939	800.000	-0.015	-0.049
-310.924	-74.339	0.103	-0.037
-309.910	-200.000	-0.038	0.340
-308.895	-75.993	-0.149	-0.053
-307.880	265.768	-0.114	-0.198
-306.866	605.391	-0.074	0.183
-305.851	326.550	-0.040	0.076
-304.837	-200.000	0.006	-0.343
-303.822	33.542	-0.080	-0.069
-302.807	199.347	0.030	0.045
-301.793	149.194	0.119	0.161
-300.778	-200.000	-0.178	0.000
-299.764	7.578	-0.038	0.029
-298.749	49.866	-0.308	-0.290
-297.735	-200.000	-0.006	-0.074
-296.720	-122.041	-0.168	-0.027
-295.705	-46.349	0.141	0.069
-294.691	416.728	0.130	-0.277
-293.676	-60.869	0.213	-0.090
-292.662	800.000	-0.098	0.322
-291.647	-200.000	-0.020	-0.346
-290.632	41.322	0.096	0.086
-289.618	83.692	0.088	-0.096
-288.603	-33.358	0.391	-0.215
-287.589	-200.000	0.034	-0.216
-286.574	-94.232	-0.237	0.065
-285.559	-50.871	-0.148	0.069
-284.545	-200.000	0.054	-0.403
-283.530	-37.849	0.057	0.030
-282.516	-29.838	0.085	-0.049
-281.501	-11.775	-0.286	-0.187
-280.486	524.724	-0.057	-0.133
-279.472	26.933	0.393	0.328
-278.457	-200.000	-0.007	0.237
-277.443	-108.628	0.133	-0.028
-276.428	800.000	-0.007	0.021
-275.413	-26.056	0.189	0.111
-274.399	-200.000	-0.005	-0.187
-273.384	-134.827	0.280	0.034
-272.370	41.930	-0.308	0.278
-271.355	252.396	0.121	0.205
-270.340	-130.595	-0.320	0.043
-269.326	-133.216	-0.361	-0.045
-268.311	-92.123	0.279	0.078
-267.297	-98.071	-0.191	-0.049
-266.282	195.185	-0.034	-0.052
-265.267	145.807	0.166	-0.221
-264.253	-200.000	-0.038	-0.207
-263.238	86.439	-0.029	-0.032
-262.224	18.667	0.109	-0.087
-261.209	80.963	-0.093	0.100
-260.195	627.404	0.047	-0.119
-259.180	-200.000	-0.000	-0.126
-258.165	-67.244	0.330	0.129
-257.151	-200.000	-0.060	0.441
-256.136	3.937	-0.096	0.069
-255.122	47.168	0.097	-0.090
-254.107	-28.950	-0.128	-0.073
-253.092	115.089	0.092	-0.112
-252.078	50.397	0.342	-0.322
-251.063	-200.000	0.068	-0.315
-250.049	-123.840	0.460	-0.072
-249.034	255.681	0.123	-0.210
-248.019	-149.728	0.212	-0.017
-247.005	-77.187	-0.179	0.062
-245.990	-126.158	0.086	0.013
-244.976	-65.185	-0.172	0.069
-243.961	-82.156	-0.302	-0.098
-242.946	392.415	0.086	0.178
-241.932	-200.000	0.023	0.158
-240.917	-125.931	-0.320	-0.048
-239.903	394.058	0.052	0.107
-238.888	147.196	0.226	0.303
-237.873	-53.948	-0.270	-0.122
-236.859	800.000	-0.084	-0.244
-235.844	-136.507	0.276	0.032
-234.830	178.082	-0.149	-0.216
-233.815	-69.568	-0.323	-0.123
-232.800	-200.000	-0.031	0.199
-231.786	-3.537	-0.095	-0.066
-230.771	800.000	0.074	0.250
-229.757	-43.818	0.081	0.041
-228.742	407.668	-0.139	-0.293
-227.727	-116.652	-0.240	0.044
-226.713	-58.219	-0.214	-0.093
-225.698	794.078	-0.126	-0.344
-224.684	-49.298	0.041	-0.019
-223.669	151.839	0.257	0.349
-222.655	-44.140	-0.194	0.097
-221.640	-99.452	0.184	-0.046
-220.625	800.000	0.073	-0.257
-219.611	-133.735	-0.065	0.008
-218.596	401.110	0.014	0.030
-217.582	-200.000	0.005	0.130
-216.567	-200.000	0.033	0.233
-215.552	-88.015	0.227	0.068
-214.538	-200.000	0.007	-0.121
-213.523	94.926	0.284	0.322
-212.509	-200.000	0.005	0.339
-211.494	800.000	-0.102	0.341
-210.479	58.703	0.104	0.102
-209.465	-47.777	-0.137	0.066
-208.450	-123.220	0.108	0.017
-207.436	-82.888	0.064	0.021
-206.421	-108.190	-0.092	0.020
-205.406	-200.000	0.010	-0.265
-204.392	85.465	0.142	-0.154
-203.377	-105.789	-0.192	-0.043
-202.363	303.373	-0.057	-0.105
-201.348	-179.038	-0.014	0.000
-200.333	111.974	-0.152	-0.183
-199.319	-200.000	-0.005	-0.077
-198.304	-84.910	-0.285	-0.089
-197.290	-50.611	-0.204	0.096
-196.275	-25.972	-0.127	0.074
-195.260	216.943	0.180	-0.284
-194.246	-148.613	-0.236	0.019
-193.231	-44.451	0.229	-0.114
-192.217	-69.421	0.069	0.026
-191.202	-101.394	-0.101	-0.024
-190.187	-200.000	0.021	0.510
-189.173	-123.599	-0.521	0.082
-188.158	-200.000	-0.061	-0.328
-187.144	-200.000	-0.044	0.311
-186.129	-181.606	-0.280	-0.005
-185.114	-11.946	0.183	-0.119
-184.100	89.626	-0.206	-0.228
-183.085	-95.168	-0.318	0.085
-182.071	-3.036	0.076	-0.052
-181.056	-200.000	-0.059	-0.357
-180.042	351.738	-0.150	0.294
-179.027	-200.000	0.036	0.360
-178.012	108.485	-0.117	0.138
-176.998	2.422	0.262	0.188
-175.983	-57.071	-0.252	-0.110
-174.969	800.000	0.076	-0.248
-173.954	800.000	0.048	-0.204
-172.939	4.832	-0.103	-0.075
-171.925	403.104	-0.088	-0.184
-170.910	189.510	0.107	0.159
-169.896	-62.986	-0.155	0.064
-168.881	-31.175	0.122	-0.068
-167.866	33.198	-0.349	-0.300
-166.852	165.733	-0.147	0.206
-165.837	800.000	0.021	-0.065
-164.823	-200.000	-0.011	-0.385
-163.808	-200.000	0.039	0.246
-162.793	-86.288	0.491	0.150
-161.779	5.650	0.033	0.024
-160.764	-10.614	-0.134	-0.088
-159.750	-200.000	0.006	-0.051
-158.735	297.760	0.241	0.438
-157.720	634.756	-0.131	0.330
-156.706	-43.538	0.453	0.227
-155.691	-37.892	-0.283	-0.149
-154.677	-76.846	0.319	0.111
-153.662	39.399	-0.198	0.176
-152.647	555.113	0.118	-0.283
-151.633	-100.223	-0.114	-0.028
-150.618	-200.000	0.045	-0.377
-149.604	230.372	-0.052	-0.084
-148.589	-145.269	0.071	0.006
-147.574	593.069	-0.083	-0.203
-146.560	96.671	0.079	0.089
-145.545	248.386	0.213	0.357
-144.531	-106.223	0.269	-0.060
-143.516	-96.974	-0.245	-0.064
-142.502	-122.089	-0.193	0.031
-141.487	697.995	-0.176	0.458
-140.472	-200.000	0.049	0.545
-139.458	-137.622	0.151	-0.017
-138.443	47.174	-0.163	0.150
-137.429	-155.497	-0.273	0.017
-136.414	346.381	-0.141	0.274
-135.399	-200.000	0.033	-0.147
-134.385	-200.000	0.022	-0.119
-133.370	800.000	-0.080	-0.256
-132.356	570.506	-0.163	-0.393
-131.341	-200.000	-0.037	0.294
-130.326	-166.226	-0.227	0.010
-129.312	-200.000	-0.024	-0.312
-128.297	119.226	-0.123	-0.151
-127.283	-80.971	-0.412	-0.135
-126.268	15.531	0.101	-0.079
-125.253	174.309	0.081	-0.117
-124.239	773.548	0.110	-0.296
-123.224	544.102	0.023	-0.055
-122.210	-59.774	0.278	-0.118
-121.195	-200.000	0.034	-0.259
