DTS Sentinel unit serial number:	SN413079Multiplexer serial number:	ORYXHardware model number:	OX4-SRSoftware version number:	ORYX F/W v4.00 Oryx Data Collector v3.7.2.0data status	okinstallation	princeton_trtdifferential loss correction	single-endedforward channel	channel 1reverse channel	N/Adate	2019/09/11time	15:24:11forward acquisition time	60.00reverse acquisition time	0.00gamma	496.2192k internal	0.2292k external	0.2292temperature offset calibration	0.9990default loss term (dB/km)	0.3790temperature slope calibration	1.0000multiplexer offset coefficient	1.0000multiplexer slope coefficient	1.0000fibre end	0.00T internal ref (°C)	42.87T ext. ref 1 (°C)	0.98T ext. ref 2 (°C)	37.50length (m)	temperature (°C)	Stokes	anti-Stokes-747.200	129.579	-0.175	-0.229
-746.185	257.917	0.154	0.271
-745.171	-62.734	-0.089	0.038
-744.156	-68.872	0.041	0.016
-743.142	-200.000	-0.047	0.242
-742.127	-200.000	-0.018	0.347
-741.112	-55.744	0.097	0.044
-740.098	292.047	-0.171	-0.318
-739.083	800.000	0.122	0.356
-738.069	255.127	-0.157	0.276
-737.054	-116.553	-0.169	-0.032
-736.039	800.000	0.038	-0.124
-735.025	-200.000	-0.008	0.544
-734.010	-185.526	-0.431	0.007
-732.996	736.071	-0.147	-0.403
-731.981	-11.183	0.132	0.089
-730.966	284.462	-0.109	0.200
-729.952	-49.735	-0.031	-0.015
-728.937	-117.927	-0.422	-0.077
-727.923	122.546	0.161	-0.206
-726.908	-110.323	-0.250	-0.053
-725.894	162.870	-0.119	-0.171
-724.879	142.895	-0.104	0.141
-723.864	-149.556	0.271	-0.022
-722.850	-191.418	-0.169	0.002
-721.835	95.128	0.078	0.090
-720.821	-200.000	0.012	0.108
-719.806	800.000	-0.056	0.225
-718.791	277.845	0.291	-0.530
-717.777	-50.769	0.289	-0.139
-716.762	-200.000	0.011	-0.127
-715.748	-39.423	0.044	0.024
-714.733	386.673	0.161	-0.339
-713.718	-144.768	-0.082	-0.008
-712.704	353.268	0.067	0.135
-711.689	-7.355	-0.057	-0.040
-710.675	-35.842	-0.300	-0.166
-709.660	-189.511	0.140	0.002
-708.645	-200.000	-0.039	-0.262
-707.631	26.481	-0.066	-0.056
-706.616	-200.000	-0.017	-0.333
-705.602	800.000	0.074	-0.248
-704.587	-65.735	-0.201	-0.082
-703.572	-45.908	0.195	-0.098
-702.558	50.042	-0.240	0.231
-701.543	-200.000	-0.009	-0.211
-700.529	-15.793	-0.166	0.108
-699.514	800.000	-0.064	0.193
-698.499	-70.436	-0.079	-0.031
-697.485	3.176	-0.069	0.051
-696.470	29.483	0.082	-0.071
-695.456	-200.000	-0.033	-0.000
-694.441	-64.223	0.273	0.114
-693.426	43.552	0.132	0.124
-692.412	235.777	-0.243	0.411
-691.397	-55.355	0.142	-0.065
-690.383	-48.821	-0.371	-0.182
-689.368	37.333	0.299	-0.271
-688.354	295.164	0.104	0.195
-687.339	99.576	0.042	-0.050
-686.324	-120.096	-0.054	-0.010
-685.310	-169.299	0.050	-0.002
-684.295	114.971	0.216	-0.270
-683.281	-47.720	-0.291	-0.144
-682.266	712.427	-0.102	-0.276
-681.251	-151.567	0.281	0.021
-680.237	-8.723	0.067	-0.046
-679.222	-146.173	-0.261	0.023
-678.208	800.000	-0.044	-0.152
-677.193	-105.502	0.075	-0.017
-676.178	281.074	-0.032	0.059
-675.164	238.779	0.041	-0.069
-674.149	-12.140	0.226	0.151
-673.135	-200.000	-0.007	-0.128
-672.120	-200.000	0.001	-0.068
-671.105	-200.000	0.005	-0.143
-670.091	-200.000	-0.390	0.002
-669.076	800.000	0.035	-0.133
-668.062	96.251	0.185	-0.216
-667.047	-109.621	0.263	0.057
-666.032	800.000	-0.073	-0.276
-665.018	800.000	0.029	-0.096
-664.003	-200.000	0.005	-0.183
-662.989	112.723	0.321	0.397
-661.974	293.992	0.056	0.104
-660.959	-24.693	-0.067	-0.041
-659.945	-200.000	0.045	-0.240
-658.930	292.576	-0.096	0.179
-657.916	-200.000	-0.027	0.391
-656.901	800.000	0.083	-0.310
-655.886	-28.911	-0.172	-0.101
-654.872	-108.708	0.292	-0.064
-653.857	686.394	0.106	-0.281
-652.843	-130.816	-0.274	-0.037
-651.828	293.931	0.096	-0.179
-650.814	-94.400	-0.313	0.087
-649.799	-94.886	-0.450	-0.124
-648.784	274.100	0.016	0.028
-647.770	-66.476	0.238	0.096
-646.755	-200.000	-0.024	0.196
-645.741	136.276	-0.202	0.268
-644.726	-200.000	-0.010	-0.248
-643.711	108.850	-0.073	-0.088
-642.697	-4.982	0.272	0.191
-641.682	354.008	0.091	-0.184
-640.668	257.690	-0.145	0.255
-639.653	3.773	-0.250	0.186
-638.638	26.766	-0.245	-0.209
-637.624	316.829	0.107	0.206
-636.609	-129.862	0.092	-0.013
-635.595	-200.000	0.020	-0.205
-634.580	90.117	-0.099	0.113
-633.565	218.049	-0.067	-0.110
-632.551	535.771	0.163	-0.395
-631.536	800.000	-0.052	0.167
-630.522	-200.000	0.010	-0.150
-629.507	96.108	0.189	-0.220
-628.492	-200.000	-0.031	0.523
-627.478	-26.495	-0.219	0.131
-626.463	678.067	-0.079	0.210
-625.449	-118.653	0.318	0.057
-624.434	-4.586	-0.188	0.132
-623.419	290.068	-0.144	-0.267
-622.405	187.119	-0.242	0.368
-621.390	-91.815	0.296	0.086
-620.376	-59.600	-0.067	-0.029
-619.361	7.856	-0.329	0.251
-618.346	-145.547	-0.178	-0.016
-617.332	-200.000	0.023	0.212
-616.317	-124.214	0.462	-0.074
-615.303	-200.000	-0.026	0.124
-614.288	51.107	0.123	-0.119
-613.273	-122.926	-0.285	-0.047
-612.259	-200.000	0.001	0.199
-611.244	-148.065	0.093	0.008
-610.230	-129.382	0.167	0.024
-609.215	800.000	0.067	0.264
-608.201	631.579	-0.062	0.161
-607.186	800.000	-0.027	-0.077
-606.171	-81.502	-0.215	-0.072
-605.157	800.000	0.106	0.361
-604.142	364.483	-0.056	-0.115
-603.128	-200.000	-0.004	0.186
-602.113	-98.401	0.215	0.056
-601.098	-0.582	0.097	0.070
-600.084	62.989	0.223	-0.227
-599.069	-117.062	0.302	0.056
-598.055	800.000	0.062	0.217
-597.040	-200.000	0.017	-0.125
-596.025	9.296	-0.114	0.088
-595.011	377.472	0.126	0.262
-593.996	-200.000	0.015	0.091
-592.982	35.926	0.084	0.075
-591.967	595.396	0.126	-0.316
-590.952	-72.333	0.063	-0.024
-589.938	258.959	-0.063	-0.110
-588.923	-141.764	-0.204	0.021
-587.909	4.979	-0.254	0.190
-586.894	-200.000	0.064	0.415
-585.879	-134.848	0.097	0.012
-584.865	616.667	0.150	-0.383
-583.850	-11.019	-0.187	-0.126
-582.836	-7.647	-0.088	-0.060
-581.821	-38.298	0.116	-0.062
-580.806	800.000	0.096	-0.299
-579.792	120.008	-0.200	-0.252
-578.777	-143.725	-0.083	0.008
-577.763	800.000	-0.060	-0.260
-576.748	-108.155	0.163	-0.036
-575.733	-124.852	0.350	0.055
-574.719	363.987	0.094	-0.191
-573.704	-53.150	0.084	-0.039
-572.690	800.000	0.061	0.239
-571.675	-79.351	-0.346	0.119
-570.661	-56.624	0.142	0.064
-569.646	-19.223	0.169	0.106
-568.631	215.688	-0.231	0.373
-567.617	-200.000	0.016	0.172
-566.602	3.211	0.127	0.094
-565.588	-27.360	0.230	0.136
-564.573	-168.694	0.053	0.002
-563.558	146.799	0.147	0.200
-562.544	-16.439	-0.129	0.083
-561.529	-1.425	0.163	0.117
-560.515	40.623	-0.018	0.017
-559.500	-200.000	0.002	-0.096
-558.485	-200.000	0.029	-0.278
-557.471	21.814	-0.053	0.043
-556.456	318.658	0.155	0.298
-555.442	125.242	0.148	0.190
-554.427	-135.381	0.131	-0.016
-553.412	-89.713	-0.213	0.063
-552.398	-200.000	0.006	0.121
-551.383	-127.644	-0.162	-0.024
-550.369	77.454	0.179	0.193
-549.354	-153.054	0.164	0.012
-548.339	-62.584	-0.192	-0.081
-547.325	-200.000	0.009	-0.117
-546.310	-36.595	0.094	-0.051
-545.296	63.704	0.333	0.339
-544.281	-75.335	-0.235	-0.085
-543.266	280.062	0.046	-0.083
-542.252	-60.472	-0.070	-0.030
-541.237	800.000	0.030	-0.126
-540.223	122.264	-0.249	0.315
-539.208	-129.005	0.183	-0.026
-538.193	800.000	-0.122	0.375
-537.179	0.171	0.110	0.080
-536.164	800.000	0.030	-0.089
-535.150	-76.231	-0.192	-0.069
-534.135	-112.996	0.238	0.048
-533.121	-200.000	0.001	-0.306
-532.106	187.721	-0.094	-0.143
-531.091	-35.797	-0.087	-0.048
-530.077	263.906	-0.158	-0.278
-529.062	-118.171	0.146	0.026
-528.048	239.096	0.132	0.223
-527.033	-80.518	0.175	0.059
-526.018	42.006	0.240	-0.221
-525.004	140.427	0.052	-0.070
-523.989	81.319	-0.057	-0.062
-522.975	-200.000	-0.009	-0.201
-521.960	79.988	-0.292	-0.319
-520.945	-4.123	-0.026	0.019
-519.931	-151.599	-0.272	0.020
-518.916	-200.000	-0.035	0.314
-517.902	800.000	0.106	0.315
-516.887	-150.809	0.156	-0.012
-515.872	28.527	-0.171	-0.147
-514.858	728.846	0.039	-0.105
-513.843	87.171	0.128	0.143
-512.829	-7.695	0.242	-0.166
-511.814	89.409	-0.089	0.101
-510.799	54.475	-0.151	0.147
-509.785	202.812	-0.129	-0.203
-508.770	153.782	-0.196	-0.273
-507.756	-110.489	-0.332	-0.070
-506.741	-61.933	0.324	0.137
-505.726	-200.000	0.020	-0.266
-504.712	234.890	-0.178	0.299
-503.697	472.576	0.101	-0.232
-502.683	-30.849	0.169	0.097
-501.668	-132.772	0.028	-0.004
-500.653	140.826	-0.101	-0.135
-499.639	-200.000	-0.020	-0.164
-498.624	235.417	-0.056	0.094
-497.610	158.281	-0.101	-0.143
-496.595	-124.694	0.183	-0.029
-495.581	201.840	-0.211	-0.330
-494.566	-64.021	0.329	0.136
-493.551	95.441	-0.245	0.283
-492.537	37.712	-0.120	0.108
-491.522	-200.000	0.033	-0.183
-490.508	21.696	0.375	-0.310
-489.493	-200.000	-0.012	-0.249
-488.478	777.058	-0.060	-0.166
-487.464	-81.038	-0.103	-0.034
-486.449	-96.949	-0.207	-0.055
-485.435	-200.000	-0.028	-0.363
-484.420	413.074	0.137	-0.295
-483.405	-45.167	0.193	-0.097
-482.391	-173.217	-0.284	0.009
-481.376	242.532	0.061	-0.103
-480.362	-18.153	-0.148	-0.094
-479.347	-127.718	0.202	-0.030
-478.332	265.593	0.079	0.140
-477.318	-200.000	0.029	0.256
-476.303	232.142	-0.078	-0.130
-475.289	-119.130	0.246	-0.044
-474.274	-200.000	0.028	0.240
-473.259	-66.574	-0.327	-0.131
-472.245	-136.578	0.038	0.004
-471.230	-171.866	0.046	-0.002
-470.216	172.881	-0.256	0.373
-469.201	800.000	-0.064	0.202
-468.186	388.638	0.071	0.150
-467.172	-200.000	0.014	0.184
-466.157	-87.850	-0.205	-0.062
-465.143	-126.956	0.278	0.041
-464.128	-54.884	0.251	-0.115
-463.113	-108.707	-0.198	-0.043
-462.099	11.504	-0.137	-0.106
-461.084	-159.999	-0.261	-0.014
-460.070	-4.500	-0.193	0.135
-459.055	-165.422	0.201	-0.009
-458.040	177.287	0.006	-0.009
-457.026	800.000	-0.065	0.287
-456.011	42.913	-0.175	0.161
-454.997	-13.309	-0.163	0.107
-453.982	800.000	0.030	0.099
-452.968	323.143	0.062	-0.120
-451.953	184.595	0.078	-0.117
-450.938	451.097	0.162	-0.362
-449.924	224.751	-0.075	-0.123
-448.909	204.876	0.022	0.035
-447.895	-83.357	-0.081	0.026
-446.880	-2.072	0.248	0.176
-445.865	-200.000	0.064	0.364
-444.851	800.000	0.116	-0.338
-443.836	136.264	-0.171	-0.225
-442.822	-200.000	0.037	0.182
-441.807	28.958	0.144	-0.123
-440.792	266.476	-0.085	-0.151
-439.778	-125.403	0.345	0.053
-438.763	-200.000	-0.053	0.286
-437.749	135.184	0.145	-0.190
-436.734	210.975	0.198	-0.315
-435.719	-68.349	0.208	0.082
-434.705	261.587	-0.074	0.129
-433.690	472.604	0.052	-0.118
-432.676	-136.693	-0.365	-0.043
-431.661	-200.000	0.021	-0.121
-430.646	148.001	-0.262	-0.357
-429.632	-90.910	0.118	-0.034
-428.617	-200.000	-0.009	-0.205
-427.603	50.697	0.118	-0.113
-426.588	71.442	-0.196	0.206
-425.573	-200.000	-0.047	0.215
-424.559	125.348	-0.077	-0.098
-423.544	-133.266	-0.178	0.023
-422.530	405.395	-0.210	-0.448
-421.515	800.000	0.080	-0.329
-420.500	32.295	-0.277	0.242
-419.486	800.000	0.082	0.242
-418.471	800.000	0.063	0.178
-417.457	-83.091	-0.061	-0.020
-416.442	-21.741	-0.025	-0.015
-415.428	21.197	-0.207	0.170
-414.413	30.427	0.406	-0.351
-413.398	726.592	-0.028	0.076
-412.384	-169.679	0.163	-0.006
-411.369	0.994	0.096	0.069
-410.355	-200.000	-0.018	0.263
-409.340	66.775	-0.128	-0.132
-408.325	115.961	-0.212	-0.263
-407.311	-33.294	0.285	-0.159
-406.296	-100.665	0.243	0.060
-405.282	-16.206	0.059	0.038
-404.267	-200.000	0.017	-0.186
-403.252	332.473	-0.042	0.082
-402.238	800.000	0.066	-0.208
-401.223	-21.529	0.224	-0.138
-400.209	800.000	0.105	-0.301
-399.194	-20.297	0.113	-0.070
-398.179	127.672	-0.141	0.181
-397.165	-191.833	-0.206	-0.002
-396.150	-13.341	0.080	0.052
-395.136	-8.602	-0.195	-0.132
-394.121	-52.437	-0.257	-0.120
-393.106	78.388	-0.044	0.047
-392.092	3.013	0.183	0.134
-391.077	429.695	0.061	0.133
-390.063	-200.000	-0.005	0.187
-389.048	-27.650	-0.124	0.073
-388.033	-31.747	-0.241	-0.136
-387.019	-26.527	-0.232	-0.137
-386.004	-147.208	-0.071	-0.006
-384.990	32.676	0.166	-0.145
-383.975	292.320	0.046	-0.084
-382.960	-9.919	0.130	-0.087
-381.946	-100.984	-0.199	-0.049
-380.931	-66.496	0.271	0.108
-379.917	-200.000	-0.037	-0.251
-378.902	800.000	0.096	-0.355
-377.888	166.047	0.157	0.224
-376.873	-200.000	0.021	0.372
-375.858	129.407	-0.068	-0.087
-374.844	115.542	-0.123	0.151
-373.829	64.570	-0.040	0.041
-372.815	-110.958	0.168	-0.035
-371.800	-151.057	0.134	0.010
-370.785	110.110	-0.202	-0.245
-369.771	231.604	0.093	0.154
-368.756	136.062	-0.229	-0.301
-367.742	161.045	0.236	0.333
-366.727	-47.548	-0.256	-0.126
-365.712	-95.156	0.045	-0.012
-364.698	-149.257	-0.538	0.043
-363.683	451.445	0.139	0.310
-362.669	114.228	0.080	0.098
-361.654	95.454	0.088	0.101
-360.639	-64.585	0.116	0.048
-359.625	244.240	-0.127	-0.215
-358.610	800.000	0.064	0.236
-357.596	-79.621	-0.341	0.116
-356.581	-200.000	0.013	0.212
-355.566	-110.475	-0.346	0.072
-354.552	372.614	0.176	-0.361
-353.537	-91.518	-0.153	0.044
-352.523	-140.507	0.257	-0.027
-351.508	-200.000	-0.018	-0.289
-350.493	800.000	0.084	-0.359
-349.479	234.268	0.169	-0.281
-348.464	498.328	0.083	-0.192
-347.450	-200.000	0.022	0.125
-346.435	-76.153	-0.106	-0.038
-345.420	-150.004	0.264	0.021
-344.406	-200.000	-0.023	0.120
-343.391	204.966	0.059	0.092
-342.377	800.000	0.079	0.228
-341.362	-95.536	-0.196	-0.053
-340.348	-42.553	-0.202	0.104
-339.333	-16.394	0.126	-0.081
-338.318	-57.327	-0.050	0.022
-337.304	-17.309	-0.218	-0.138
-336.289	481.519	-0.030	0.070
-335.275	-58.680	0.338	-0.148
-334.260	-108.386	-0.127	-0.028
-333.245	-77.600	0.233	-0.081
-332.231	156.179	-0.171	-0.238
-331.216	449.378	0.061	0.136
-330.202	185.134	-0.237	-0.355
-329.187	-11.475	0.158	-0.104
-328.172	15.904	-0.152	0.120
-327.158	-103.131	-0.163	-0.039
-326.143	57.221	0.172	-0.169
-325.129	-61.724	-0.357	-0.151
-324.114	-96.441	0.179	-0.048
-323.099	3.215	0.324	-0.238
-322.085	31.727	-0.160	-0.139
-321.070	-200.000	-0.043	0.318
-320.056	800.000	-0.067	0.214
-319.041	-45.650	-0.067	-0.033
-318.026	653.905	0.073	0.190
-317.012	-163.742	0.228	0.011
-315.997	-200.000	0.008	0.286
-314.983	-97.543	-0.200	-0.052
-313.968	-47.815	0.171	0.083
-312.953	789.027	-0.119	0.330
-311.939	-44.075	-0.301	0.152
-310.924	169.155	0.120	-0.172
-309.910	367.827	0.060	0.122
-308.895	230.550	-0.208	0.342
-307.880	216.810	0.068	-0.110
-306.866	403.662	0.088	0.186
-305.851	413.864	-0.140	0.301
-304.837	-121.737	-0.235	-0.039
-303.822	-104.005	0.115	-0.027
-302.807	-7.583	-0.048	-0.033
-301.793	-162.619	-0.447	0.022
-300.778	-41.954	0.296	-0.152
-299.764	-200.000	-0.059	-0.325
-298.749	252.763	0.144	0.246
-297.735	20.008	-0.108	0.087
-296.720	-4.272	-0.223	0.155
-295.705	61.965	0.135	0.135
-294.691	-35.806	0.228	0.124
-293.676	-200.000	-0.047	-0.334
-292.662	49.125	-0.089	-0.084
-291.647	31.370	0.212	0.183
-290.632	-6.324	-0.203	-0.139
-289.618	-31.166	-0.261	-0.148
-288.603	38.966	0.055	-0.050
-287.589	204.986	0.158	-0.247
-286.574	-125.363	-0.272	-0.042
-285.559	188.900	-0.154	0.231
-284.545	-7.145	0.152	0.104
-283.530	35.733	-0.083	0.073
-282.516	-200.000	-0.026	-0.152
-281.501	-84.316	-0.108	-0.034
-280.486	800.000	0.051	-0.151
-279.472	663.406	0.084	-0.219
-278.457	-132.121	-0.227	0.030
-277.443	800.000	-0.054	0.215
-276.428	553.654	-0.089	-0.216
-275.413	-147.028	-0.375	-0.032
-274.399	336.326	0.163	0.319
-273.384	-72.176	-0.288	-0.107
-272.370	414.453	-0.141	0.303
-271.355	-200.000	0.003	-0.429
-270.340	-200.000	-0.031	-0.235
-269.326	17.354	0.233	-0.186
-268.311	20.971	-0.097	0.079
-267.297	-26.249	-0.233	0.138
-266.282	-98.036	0.189	0.049
-265.267	-12.100	-0.195	0.128
-264.253	16.942	0.263	-0.210
-263.238	-182.772	0.178	-0.003
-262.224	383.287	-0.060	-0.123
-261.209	-200.000	-0.013	0.093
-260.195	478.134	0.042	-0.095
-259.180	-30.391	0.539	0.307
-258.165	-200.000	-0.059	-0.315
-257.151	-200.000	0.027	-0.197
-256.136	460.259	0.145	-0.324
-255.122	-200.000	-0.029	-0.297
-254.107	-200.000	0.005	-0.193
-253.092	-200.000	0.012	0.284
-252.078	56.828	0.150	0.146
-251.063	48.868	0.192	0.181
-250.049	53.176	-0.050	-0.048
-249.034	-117.842	-0.310	0.056
-248.019	-95.902	0.194	0.052
-247.005	-98.432	0.101	-0.026
-245.990	70.611	0.245	0.255
-244.976	-200.000	0.012	-0.101
-243.961	53.167	-0.192	-0.184
-242.946	634.570	-0.104	-0.264
-241.932	41.102	0.020	-0.018
-240.917	-26.978	-0.010	-0.006
-239.903	-39.205	-0.142	0.075
-238.888	-85.870	0.293	0.091
-237.873	389.131	-0.102	0.213
-236.859	800.000	0.005	0.021
-235.844	34.363	0.098	0.086
-234.830	-44.762	0.378	0.189
-233.815	93.741	-0.137	0.156
-232.800	644.396	-0.056	0.144
-231.786	128.279	0.229	0.293
-230.771	-3.584	0.208	-0.145
-229.757	-200.000	-0.026	0.174
-228.742	472.705	-0.126	0.286
-227.727	-200.000	0.007	-0.139
-226.713	662.761	-0.075	-0.194
-225.698	-200.000	0.002	-0.131
-224.684	84.152	-0.054	0.059
-223.669	-23.324	0.313	-0.189
-222.655	-75.493	0.055	-0.020
-221.640	148.068	0.012	0.016
-220.625	195.030	-0.085	0.129
-219.611	-121.804	-0.223	-0.037
-218.596	645.807	0.060	0.153
-217.582	-76.407	0.291	0.103
-216.567	800.000	-0.087	-0.254
-215.552	-22.950	-0.144	-0.087
-214.538	800.000	0.024	0.103
-213.523	-200.000	0.018	0.138
-212.509	-99.509	0.138	0.035
-211.494	800.000	0.089	0.284
-210.479	40.487	0.054	0.049
-209.465	-200.000	-0.048	-0.352
-208.450	-110.825	-0.149	0.031
-207.436	800.000	-0.035	0.104
-206.421	33.133	-0.155	-0.134
-205.406	715.648	0.094	-0.249
-204.392	-200.000	-0.037	0.204
-203.377	-108.158	0.246	0.053
-202.363	-132.435	0.081	0.010
-201.348	19.909	0.083	0.067
-200.333	729.862	-0.101	-0.269
-199.319	-114.398	-0.104	0.020
-198.304	800.000	-0.065	0.257
-197.290	-140.544	0.258	0.027
-196.275	-200.000	0.004	-0.169
-195.260	-128.759	0.308	0.044
-194.246	-200.000	0.017	-0.338
-193.231	20.040	0.179	-0.145
-192.217	293.322	0.207	0.378
-191.202	800.000	0.102	0.362
-190.187	224.208	0.207	0.335
-189.173	-37.153	-0.200	0.107
-188.158	-6.739	-0.145	0.099
-187.144	-0.730	-0.151	-0.107
-186.129	193.945	0.153	-0.231
-185.114	-62.466	0.113	0.047
-184.100	-71.630	-0.181	-0.068
-183.085	49.855	-0.414	0.391
-182.071	564.707	0.114	-0.276
-181.056	-135.043	-0.412	0.050
-180.042	173.996	0.022	-0.032
-179.027	663.684	-0.064	0.165
-178.012	-200.000	0.004	0.100
-176.998	19.971	0.093	-0.075
-175.983	-100.802	-0.254	-0.063
-174.969	-66.484	0.119	0.047
-173.954	-82.580	-0.205	0.067
-172.939	-37.068	-0.351	-0.188
-171.925	-200.000	0.054	-0.414
-170.910	41.935	0.291	-0.265
-169.896	600.983	0.139	0.345
-168.881	64.934	0.046	-0.047
-167.866	-135.968	-0.283	-0.033
-166.852	-130.077	0.304	-0.042
-165.837	51.132	-0.203	-0.193
-164.823	-200.000	-0.028	0.195
-163.808	-200.000	-0.043	-0.218
-162.793	264.885	0.125	0.218
-161.779	339.917	0.130	0.255
-160.764	656.159	0.124	-0.319
-159.750	-114.629	0.244	-0.047
-158.735	15.978	0.197	0.155
-157.720	800.000	0.069	0.235
-156.706	-127.847	-0.411	-0.059
-155.691	-4.333	-0.106	0.073
-154.677	-90.543	0.261	0.076
-153.662	-200.000	-0.042	-0.304
-152.647	4.160	-0.097	0.071
-151.633	-43.048	-0.209	-0.106
-150.618	430.953	-0.059	-0.128
-149.604	-200.000	0.036	0.277
-148.589	-145.028	-0.554	-0.050
-147.574	72.569	0.173	0.181
-146.560	-18.145	0.209	-0.131
-145.545	400.578	0.040	0.084
-144.531	-33.788	0.338	0.186
-143.516	27.989	-0.207	0.175
-142.502	40.201	0.223	-0.201
-141.487	234.522	0.149	0.245
-140.472	30.357	-0.171	-0.146
-139.458	800.000	-0.098	-0.304
-138.443	-95.983	0.230	0.061
-137.429	800.000	-0.103	0.324
-136.414	800.000	0.055	0.158
-135.399	800.000	0.116	0.450
-134.385	244.115	0.047	0.079
-133.370	-101.019	0.237	0.058
-132.356	-24.987	-0.217	0.129
-131.341	-200.000	0.044	0.294
-130.326	228.745	0.035	-0.058
-129.312	-200.000	0.015	0.179
-128.297	241.278	0.064	0.107
-127.283	211.710	0.108	-0.170
-126.268	-59.653	-0.195	-0.083
-125.253	-44.988	0.219	0.109
-124.239	800.000	-0.069	-0.297
-123.224	-95.866	-0.188	-0.050
-122.210	602.679	0.169	0.421
-121.195	42.454	-0.058	0.053
-120.180	107.942	0.095	0.113
