DTS Sentinel unit serial number:	SN413079Multiplexer serial number:	ORYXHardware model number:	OX4-SRSoftware version number:	ORYX F/W v4.00 Oryx Data Collector v3.7.2.0data status	okinstallation	princeton_trtdifferential loss correction	single-endedforward channel	channel 1reverse channel	N/Adate	2019/09/11time	21:12:11forward acquisition time	60.00reverse acquisition time	0.00gamma	496.2192k internal	0.2307k external	0.2307temperature offset calibration	1.0047default loss term (dB/km)	0.3790temperature slope calibration	1.0000multiplexer offset coefficient	1.0000multiplexer slope coefficient	1.0000fibre end	0.00T internal ref (°C)	36.39T ext. ref 1 (°C)	1.57T ext. ref 2 (°C)	30.75length (m)	temperature (°C)	Stokes	anti-Stokes-747.200	94.009	-0.106	-0.122
-746.185	-40.205	0.262	0.139
-745.171	800.000	0.036	-0.125
-744.156	-200.000	-0.030	0.400
-743.142	116.672	0.060	-0.075
-742.127	342.385	-0.100	0.199
-741.112	800.000	-0.069	0.260
-740.098	108.725	-0.303	0.369
-739.083	-116.723	0.257	-0.048
-738.069	12.446	-0.278	0.218
-737.054	722.110	-0.038	0.103
-736.039	-200.000	0.015	0.280
-735.025	395.869	-0.015	-0.033
-734.010	-200.000	-0.043	0.305
-732.996	44.373	0.132	0.123
-731.981	376.197	0.099	-0.205
-730.966	-144.629	0.120	0.011
-729.952	800.000	-0.078	-0.283
-728.937	-109.413	0.261	0.056
-727.923	15.914	-0.251	0.201
-726.908	713.978	-0.067	-0.181
-725.894	800.000	-0.045	0.195
-724.879	63.743	0.225	-0.230
-723.864	20.525	-0.128	0.105
-722.850	-52.735	-0.070	0.033
-721.835	32.978	-0.257	-0.226
-720.821	-42.157	-0.116	0.060
-719.806	219.873	-0.075	0.122
-718.791	800.000	-0.145	0.529
-717.777	-33.144	-0.366	-0.206
-716.762	-74.049	0.055	-0.020
-715.748	-2.347	0.138	0.099
-714.733	-200.000	0.000	0.173
-713.718	-56.580	-0.105	0.047
-712.704	-200.000	-0.012	-0.080
-711.689	-18.731	-0.146	-0.093
-710.675	427.343	-0.129	-0.282
-709.660	-31.665	0.236	-0.135
-708.645	291.122	0.137	-0.253
-707.631	696.690	-0.037	-0.100
-706.616	-132.813	-0.546	0.071
-705.602	-88.579	0.287	-0.087
-704.587	79.167	-0.053	-0.058
-703.572	-63.951	-0.093	0.039
-702.558	-66.324	-0.132	-0.053
-701.543	28.902	-0.077	-0.066
-700.529	-7.208	-0.024	-0.016
-699.514	-152.375	0.163	0.012
-698.499	-28.611	0.152	0.089
-697.485	-200.000	-0.005	0.057
-696.470	315.909	0.099	0.190
-695.456	800.000	0.049	-0.185
-694.441	-57.460	-0.224	-0.100
-693.426	23.251	-0.069	0.058
-692.412	-116.177	0.335	0.063
-691.397	-92.455	0.348	-0.099
-690.383	-105.636	-0.150	-0.034
-689.368	800.000	0.053	0.190
-688.354	-200.000	-0.004	0.308
-687.339	140.203	-0.183	-0.245
-686.324	-66.852	-0.282	0.113
-685.310	800.000	-0.045	-0.152
-684.295	-200.000	0.023	-0.202
-683.281	-183.189	0.185	0.003
-682.266	71.747	-0.209	-0.220
-681.251	115.749	0.143	-0.177
-680.237	-163.296	0.057	0.003
-679.222	-200.000	0.012	0.414
-678.208	800.000	0.051	-0.159
-677.193	-87.071	-0.435	0.134
-676.178	651.676	-0.150	-0.389
-675.164	-96.704	0.253	-0.067
-674.149	42.045	0.243	0.224
-673.135	-128.142	0.157	-0.023
-672.120	-3.543	0.131	-0.092
-671.105	257.848	-0.178	0.311
-670.091	-200.000	0.014	-0.202
-669.076	-200.000	-0.012	-0.327
-668.062	-35.264	-0.043	-0.024
-667.047	63.201	0.280	-0.284
-666.032	800.000	-0.065	0.253
-665.018	236.425	-0.138	0.232
-664.003	-99.991	-0.098	0.025
-662.989	133.552	0.016	0.021
-661.974	-74.554	-0.198	-0.072
-660.959	800.000	0.137	-0.418
-659.945	214.492	0.107	0.171
-658.930	32.015	-0.085	0.075
-657.916	-13.509	0.156	0.102
-656.901	-200.000	-0.009	-0.214
-655.886	800.000	0.049	0.143
-654.872	-116.829	0.243	-0.045
-653.857	-115.188	-0.190	-0.037
-652.843	-43.104	0.136	-0.070
-651.828	800.000	-0.064	0.196
-650.814	800.000	0.066	0.206
-649.799	23.639	0.063	-0.053
-648.784	177.735	-0.103	-0.151
-647.770	-200.000	-0.018	0.360
-646.755	-51.726	-0.081	0.038
-645.741	126.944	-0.127	0.163
-644.726	-93.983	-0.247	-0.069
-643.711	70.283	0.203	-0.212
-642.697	77.176	0.173	-0.186
-641.682	51.294	0.091	-0.088
-640.668	-47.518	0.486	0.239
-639.653	-106.177	0.079	-0.018
-638.638	-101.060	-0.397	-0.099
-637.624	781.914	-0.065	-0.181
-636.609	72.234	-0.265	-0.279
-635.595	-61.559	-0.136	0.058
-634.580	-30.031	-0.200	0.115
-633.565	-200.000	-0.017	0.090
-632.551	92.708	-0.099	0.113
-631.536	-72.931	-0.143	-0.053
-630.522	-96.122	-0.171	0.046
-629.507	-200.000	0.015	0.198
-628.492	387.557	-0.129	0.270
-627.478	-124.633	-0.250	0.039
-626.463	-173.443	-0.261	-0.008
-625.449	45.200	-0.196	0.182
-624.434	-168.985	-0.007	-0.000
-623.419	-37.770	-0.146	-0.079
-622.405	-81.011	0.150	-0.050
-621.390	12.659	0.284	0.222
-620.376	23.428	0.039	0.033
-619.361	-60.638	-0.470	0.202
-618.346	-31.108	-0.051	0.029
-617.332	150.210	0.153	-0.210
-616.317	-200.000	0.007	0.314
-615.303	-87.013	-0.162	0.050
-614.288	131.888	0.044	0.058
-613.273	22.265	-0.090	0.074
-612.259	800.000	-0.058	-0.206
-611.244	117.468	0.194	-0.241
-610.230	55.512	-0.064	0.062
-609.215	-41.991	0.129	0.067
-608.201	15.576	0.196	0.156
-607.186	-1.126	-0.328	-0.234
-606.171	287.976	0.114	-0.209
-605.157	-200.000	-0.007	-0.141
-604.142	-200.000	-0.033	-0.174
-603.128	316.554	-0.118	-0.225
-602.113	800.000	-0.069	0.274
-601.098	-200.000	-0.014	0.115
-600.084	-200.000	-0.006	0.035
-599.069	-86.229	-0.095	0.030
-598.055	500.688	-0.050	-0.116
-597.040	800.000	-0.154	0.546
-596.025	-152.330	-0.202	0.015
-595.011	-200.000	-0.001	-0.286
-593.996	-110.887	0.290	-0.060
-592.982	-200.000	0.138	-0.000
-591.967	568.550	-0.053	0.131
-590.952	800.000	-0.007	-0.027
-589.938	94.572	0.299	-0.344
-588.923	186.820	-0.160	-0.241
-587.909	152.419	-0.077	0.106
-586.894	-23.634	-0.234	0.142
-585.879	89.797	0.198	-0.223
-584.865	-42.913	-0.227	-0.116
-583.850	-27.556	-0.204	0.120
-582.836	-162.554	-0.410	0.020
-581.821	-200.000	0.013	0.150
-580.806	-138.142	0.261	0.029
-579.792	47.167	-0.122	0.114
-578.777	163.359	-0.267	-0.379
-577.763	12.045	-0.103	-0.080
-576.748	-34.592	-0.200	-0.111
-575.733	55.812	0.096	0.094
-574.719	-137.755	0.378	0.043
-573.704	800.000	-0.051	0.189
-572.690	-99.712	0.109	-0.028
-571.675	391.225	-0.162	0.340
-570.661	800.000	0.039	-0.158
-569.646	-81.527	0.265	-0.088
-568.631	380.707	-0.165	-0.342
-567.617	-136.582	-0.052	-0.006
-566.602	341.028	0.121	0.238
-565.588	-3.030	-0.306	0.216
-564.573	44.545	0.123	-0.114
-563.558	-200.000	-0.037	0.179
-562.544	205.573	-0.096	-0.150
-561.529	-200.000	-0.003	0.017
-560.515	-91.444	0.306	-0.088
-559.500	-73.887	-0.178	0.065
-558.485	800.000	0.057	0.201
-557.471	-73.792	0.150	-0.055
-556.456	60.005	-0.176	0.175
-555.442	248.946	0.086	0.148
-554.427	150.231	-0.177	0.243
-553.412	-0.296	0.074	0.053
-552.398	123.197	-0.023	-0.029
-551.383	-109.911	0.233	-0.049
-550.369	104.712	-0.154	0.183
-549.354	6.618	0.059	-0.045
-548.339	-9.401	-0.283	0.191
-547.325	222.321	-0.039	-0.064
-546.310	30.465	-0.041	0.036
-545.296	322.191	-0.118	0.227
-544.281	-129.614	0.106	0.015
-543.266	800.000	-0.106	0.328
-542.252	74.027	0.146	0.154
-541.237	-200.000	-0.009	0.243
-540.223	347.744	-0.037	0.074
-539.208	29.369	-0.354	-0.304
-538.193	-128.640	-0.342	-0.049
-537.179	-200.000	-0.000	0.246
-536.164	3.512	-0.135	0.099
-535.150	-200.000	-0.029	0.307
-534.135	-133.843	0.355	-0.045
-533.121	80.702	-0.205	0.222
-532.106	118.089	0.126	-0.157
-531.091	12.087	-0.241	0.187
-530.077	80.925	0.117	0.128
-529.062	-123.959	0.439	-0.070
-528.048	-120.792	-0.237	0.040
-527.033	68.695	0.232	-0.240
-526.018	306.802	-0.066	-0.124
-525.004	-33.830	0.044	0.024
-523.989	128.877	0.057	0.074
-522.975	-140.914	0.232	-0.024
-521.960	-154.976	-0.357	-0.024
-520.945	51.793	0.172	0.165
-519.931	-200.000	-0.006	-0.041
-518.916	-200.000	0.035	0.254
-517.902	-121.660	0.218	-0.036
-516.887	57.710	-0.071	0.070
-515.872	-76.963	0.098	0.034
-514.858	-51.289	-0.423	0.199
-513.843	156.123	0.055	-0.076
-512.829	-38.900	0.228	0.121
-511.814	98.165	0.263	0.306
-510.799	-200.000	0.011	0.240
-509.785	-62.023	-0.363	0.153
-508.770	44.962	0.197	-0.183
-507.756	-200.000	-0.003	-0.029
-506.741	115.204	0.167	-0.205
-505.726	9.789	0.332	-0.254
-504.712	-33.634	-0.300	-0.167
-503.697	161.351	-0.205	-0.289
-502.683	-4.931	0.355	-0.247
-501.668	800.000	-0.060	-0.261
-500.653	165.249	-0.112	0.159
-499.639	-4.580	-0.035	-0.024
-498.624	-120.861	0.227	-0.039
-497.610	112.936	-0.308	-0.376
-496.595	-7.226	0.257	-0.176
-495.581	-55.903	0.196	0.088
-494.566	61.144	0.104	-0.104
-493.551	-200.000	0.001	0.294
-492.537	63.677	-0.242	0.245
-491.522	800.000	0.052	0.164
-490.508	-200.000	0.054	0.296
-489.493	190.697	0.130	-0.197
-488.478	534.803	0.075	-0.179
-487.464	414.731	0.034	-0.073
-486.449	-180.764	0.140	0.003
-485.435	-200.000	0.041	0.233
-484.420	-200.000	0.007	0.341
-483.405	-200.000	0.010	0.067
-482.391	-3.270	-0.168	-0.118
-481.376	32.784	0.140	0.122
-480.362	96.691	0.091	0.105
-479.347	167.038	0.094	-0.134
-478.332	46.970	-0.484	-0.452
-477.318	269.518	0.166	0.294
-476.303	51.686	0.212	0.203
-475.289	462.753	0.122	0.274
-474.274	-63.311	-0.183	0.076
-473.259	115.947	-0.227	-0.280
-472.245	-200.000	0.016	0.096
-471.230	-200.000	-0.029	0.237
-470.216	-8.162	0.066	-0.045
-469.201	-144.725	0.509	0.047
-468.186	251.551	0.190	-0.325
-467.172	-72.311	0.197	-0.073
-466.157	800.000	-0.045	0.151
-465.143	-59.624	-0.256	-0.111
-464.128	800.000	-0.074	-0.217
-463.113	84.200	-0.065	-0.072
-462.099	800.000	-0.119	-0.508
-461.084	51.478	-0.134	0.128
-460.070	-200.000	0.005	-0.243
-459.055	15.095	-0.060	-0.047
-458.040	-136.777	-0.321	0.037
-457.026	-200.000	0.017	-0.123
-456.011	385.335	-0.065	-0.135
-454.997	-200.000	-0.051	0.275
-453.982	-200.000	0.013	-0.200
-452.968	26.710	-0.170	0.143
-451.953	-200.000	0.022	-0.151
-450.938	-200.000	0.027	-0.458
-449.924	639.892	-0.098	-0.251
-448.909	51.103	0.125	0.120
-447.895	-36.751	0.147	-0.079
-446.880	800.000	0.136	0.487
-445.865	392.492	-0.104	0.218
-444.851	-161.216	0.078	-0.004
-443.836	-200.000	-0.004	-0.209
-442.822	4.115	-0.079	0.058
-441.807	-42.568	0.274	-0.140
-440.792	35.739	0.224	0.198
-439.778	361.173	0.035	-0.070
-438.763	-120.311	0.311	0.053
-437.749	85.421	0.100	0.110
-436.734	-200.000	-0.010	-0.147
-435.719	-23.574	0.271	0.164
-434.705	416.450	0.198	0.425
-433.690	739.502	-0.097	-0.262
-432.676	735.852	0.086	-0.232
-431.661	800.000	-0.060	0.201
-430.646	520.689	-0.206	0.485
-429.632	317.075	-0.115	-0.218
-428.617	428.400	-0.139	-0.301
-427.603	178.291	0.115	0.168
-426.588	74.851	-0.183	0.194
-425.573	108.348	0.224	-0.269
-424.559	419.554	-0.049	-0.106
-423.544	277.410	-0.080	0.143
-422.530	-106.349	0.316	0.071
-421.515	379.198	-0.050	0.103
-420.500	-148.716	0.368	-0.030
-419.486	800.000	-0.025	0.099
-418.471	172.280	-0.139	-0.200
-417.457	152.035	0.232	-0.317
-416.442	-92.781	-0.316	-0.089
-415.428	-36.703	0.118	-0.064
-414.413	800.000	-0.072	-0.254
-413.398	-134.453	-0.153	-0.019
-412.384	18.181	-0.145	0.116
-411.369	-62.080	-0.050	-0.021
-410.355	76.882	-0.090	0.096
-409.340	-26.885	0.217	-0.127
-408.325	-0.559	-0.069	0.049
-407.311	202.530	-0.128	-0.198
-406.296	537.368	-0.076	-0.180
-405.282	-54.804	0.062	-0.028
-404.267	168.827	0.200	0.286
-403.252	800.000	0.039	0.139
-402.238	-71.288	-0.437	-0.164
-401.223	84.866	0.027	-0.029
-400.209	-179.048	0.220	-0.005
-399.194	142.356	-0.075	-0.100
-398.179	-42.437	0.052	0.027
-397.165	800.000	0.006	0.019
-396.150	-116.769	0.152	0.028
-395.136	-126.502	-0.071	0.011
-394.121	-84.375	0.215	0.068
-393.106	-200.000	0.079	-0.371
-392.092	-134.906	-0.289	-0.035
-391.077	-200.000	0.010	0.256
-390.063	-168.436	0.408	0.016
-389.048	-200.000	-0.026	0.254
-388.033	377.202	0.003	-0.007
-387.019	-132.210	-0.222	0.029
-386.004	800.000	0.067	-0.205
-384.990	176.233	0.140	-0.204
-383.975	211.796	-0.156	0.246
-382.960	1.497	0.105	0.075
-381.946	5.319	0.114	0.084
-380.931	77.620	0.142	0.152
-379.917	458.127	0.027	-0.060
-378.902	800.000	-0.044	-0.150
-377.888	-71.492	-0.288	-0.108
-376.873	155.876	0.046	0.064
-375.858	45.897	0.114	-0.105
-374.844	-200.000	0.042	0.191
-373.829	-112.345	0.266	-0.053
-372.815	-84.860	0.226	-0.071
-371.800	-69.741	0.166	0.064
-370.785	800.000	0.065	-0.206
-369.771	-116.125	0.030	0.006
-368.756	-19.760	0.127	-0.079
-367.742	-200.000	-0.002	-0.195
-366.727	-29.897	0.147	0.084
-365.712	328.179	-0.177	-0.340
-364.698	-200.000	0.033	-0.240
-363.683	-183.372	-0.224	-0.004
-362.669	286.173	0.026	-0.047
-361.654	800.000	-0.071	0.308
-360.639	370.701	0.078	-0.159
-359.625	-44.815	-0.227	0.113
-358.610	-10.010	-0.074	-0.049
-357.596	114.315	-0.215	-0.262
-356.581	-200.000	-0.084	-0.464
-355.566	-25.398	0.251	-0.149
-354.552	-162.016	-0.133	0.007
-353.537	-76.691	-0.423	0.149
-352.523	-150.521	-0.210	-0.016
-351.508	-200.000	-0.017	0.334
-350.493	800.000	-0.055	0.232
-349.479	-200.000	0.044	-0.352
-348.464	800.000	-0.147	-0.427
-347.450	43.183	0.165	-0.151
-346.435	239.527	-0.131	-0.218
-345.420	-123.891	-0.339	-0.053
-344.406	343.434	0.112	0.220
-343.391	1.957	0.337	-0.243
-342.377	96.488	0.195	-0.223
-341.362	68.065	-0.265	-0.272
-340.348	-28.870	-0.142	0.082
-339.333	-200.000	0.030	0.162
-338.318	-113.261	-0.177	0.035
-337.304	91.612	0.088	-0.099
-336.289	555.892	-0.177	0.427
-335.275	-160.298	-0.092	-0.005
-334.260	-200.000	-0.084	-0.000
-333.245	-200.000	-0.014	-0.078
-332.231	143.324	-0.184	0.245
-331.216	554.385	-0.133	-0.321
-330.202	-138.937	-0.288	0.031
-329.187	666.682	-0.203	-0.525
-328.172	197.479	0.159	0.243
-327.158	-45.580	-0.242	0.120
-326.143	5.366	0.050	0.037
-325.129	110.686	0.150	0.181
-324.114	-79.989	0.311	-0.105
-323.099	279.605	-0.130	-0.232
-322.085	-144.249	0.256	-0.024
-321.070	800.000	-0.029	-0.090
-320.056	-69.202	-0.117	0.045
-319.041	-27.430	0.190	0.111
-318.026	-74.287	0.295	0.107
-317.012	130.279	-0.201	0.258
-315.997	-79.920	0.437	-0.147
-314.983	-200.000	0.016	-0.222
-313.968	36.002	-0.320	0.282
-312.953	269.245	0.146	-0.256
-311.939	49.348	0.075	-0.070
-310.924	33.650	-0.123	0.107
-309.910	-159.592	0.318	-0.018
-308.895	736.011	-0.057	0.153
-307.880	244.333	-0.147	-0.246
-306.866	-73.396	0.147	-0.054
-305.851	83.979	0.084	0.091
-304.837	124.071	-0.152	0.191
-303.822	-33.490	-0.179	0.099
-302.807	20.958	0.141	0.114
-301.793	-191.659	-0.109	0.001
-300.778	119.453	0.084	-0.104
-299.764	-165.395	-0.524	-0.023
-298.749	430.661	0.038	-0.083
-297.735	-155.787	0.298	0.019
-296.720	-157.032	0.417	-0.025
-295.705	-120.548	-0.191	0.032
-294.691	167.501	-0.126	0.179
-293.676	647.705	0.129	0.330
-292.662	-23.942	0.252	0.150
-291.647	94.993	0.213	-0.242
-290.632	-69.089	0.226	0.087
-289.618	-61.067	-0.239	-0.101
-288.603	110.237	0.157	0.189
-287.589	154.007	-0.157	-0.215
-286.574	-2.764	0.251	0.175
-285.559	-17.863	-0.222	-0.139
-284.545	-156.349	-0.253	0.016
-283.530	800.000	0.030	-0.103
-282.516	800.000	-0.089	0.373
-281.501	-200.000	0.011	0.106
-280.486	78.294	0.167	0.178
-279.472	84.931	0.287	0.314
-278.457	-159.304	0.362	0.020
-277.443	-36.678	-0.386	-0.207
-276.428	66.816	0.194	-0.197
-275.413	-56.283	-0.113	-0.050
-274.399	-200.000	-0.337	-0.001
-273.384	56.166	-0.157	-0.152
-272.370	-77.168	0.247	0.086
-271.355	726.081	-0.039	0.104
-270.340	450.331	-0.086	0.188
-269.326	471.155	-0.102	-0.229
-268.311	-200.000	-0.047	0.255
-267.297	-200.000	-0.054	-0.245
-266.282	-34.608	0.237	-0.130
-265.267	122.815	-0.096	-0.120
-264.253	0.054	0.249	-0.177
-263.238	800.000	0.051	-0.208
-262.224	-39.299	0.196	-0.102
-261.209	-79.497	0.040	0.014
-260.195	49.636	-0.370	-0.348
-259.180	-78.365	-0.061	-0.021
-258.165	-172.209	0.497	-0.016
-257.151	80.075	0.062	0.067
-256.136	133.237	0.123	-0.159
-255.122	235.920	-0.098	-0.162
-254.107	276.502	0.087	-0.154
-253.092	-121.441	0.018	-0.003
-252.078	800.000	0.114	-0.352
-251.063	6.376	0.184	0.136
-250.049	592.595	-0.079	0.195
-249.034	706.697	0.079	-0.207
-248.019	28.214	-0.377	-0.318
-247.005	800.000	-0.046	-0.171
-245.990	-33.586	-0.146	-0.081
-244.976	-97.618	0.129	-0.033
-243.961	-200.000	0.064	0.290
-242.946	-89.324	0.227	0.067
-241.932	383.713	0.083	0.171
-240.917	800.000	-0.050	-0.180
-239.903	446.397	0.106	-0.233
-238.888	-142.050	0.289	0.029
-237.873	800.000	-0.071	0.201
-236.859	800.000	0.093	0.285
-235.844	-200.000	-0.079	0.373
-234.830	194.436	-0.311	0.470
-233.815	180.655	0.063	0.092
-232.800	800.000	-0.069	0.197
-231.786	-118.679	-0.365	0.064
-230.771	-64.904	0.220	-0.089
-229.757	-32.977	0.148	0.082
-228.742	-200.000	0.066	0.288
-227.727	70.378	-0.281	-0.289
-226.713	118.578	-0.160	0.197
-225.698	-121.885	0.220	-0.036
-224.684	128.561	0.085	0.108
-223.669	425.603	0.118	-0.253
-222.655	616.276	-0.030	0.076
-221.640	8.770	0.218	-0.164
-220.625	800.000	-0.017	0.069
-219.611	-60.754	0.322	-0.136
-218.596	170.001	0.262	0.373
-217.582	800.000	-0.046	-0.159
-216.567	34.857	-0.141	0.123
-215.552	42.906	0.058	-0.052
-214.538	-55.330	0.170	-0.076
-213.523	-128.965	0.246	0.034
-212.509	182.629	-0.139	-0.204
-211.494	-200.000	-0.004	-0.179
-210.479	800.000	0.064	-0.213
-209.465	277.633	-0.039	0.069
-208.450	-58.816	0.309	0.133
-207.436	117.836	0.069	0.084
-206.421	-200.000	-0.003	0.056
-205.406	523.946	0.109	-0.256
-204.392	-200.000	0.067	-0.311
-203.377	-200.000	-0.010	0.099
-202.363	31.467	-0.229	0.196
-201.348	562.242	0.158	0.379
-200.333	-109.931	0.275	0.057
-199.319	-200.000	-0.012	-0.097
-198.304	101.112	0.216	-0.250
-197.290	-62.496	-0.136	-0.056
-196.275	151.733	-0.062	0.085
-195.260	800.000	0.060	0.193
-194.246	-54.846	0.242	-0.109
-193.231	410.929	0.037	0.077
-192.217	-160.479	-0.095	0.005
-191.202	138.376	0.120	0.157
-190.187	-200.000	-0.013	0.241
-189.173	19.621	-0.209	-0.167
-188.158	556.712	-0.046	-0.110
-187.144	-65.921	-0.205	0.082
-186.129	85.753	0.085	0.093
-185.114	255.512	-0.064	0.109
-184.100	534.583	-0.119	-0.282
-183.085	-107.238	-0.086	0.019
-182.071	35.630	0.232	-0.202
-181.056	555.661	0.030	0.071
-180.042	84.700	-0.055	0.060
-179.027	92.817	-0.224	0.252
-178.012	45.982	-0.318	0.293
-176.998	800.000	0.077	-0.318
-175.983	-164.492	-0.097	-0.004
-174.969	205.281	0.111	-0.171
-173.954	144.120	-0.165	-0.218
-172.939	302.542	-0.162	-0.297
-171.925	128.179	0.184	0.233
-170.910	-168.625	0.143	-0.005
-169.896	-200.000	-0.028	-0.277
-168.881	800.000	-0.083	0.237
-167.866	-51.026	-0.252	-0.118
-166.852	-32.480	-0.453	-0.251
-165.837	-115.116	0.073	-0.014
-164.823	140.674	0.057	0.075
-163.808	-95.624	0.131	-0.035
-162.793	-200.000	0.008	0.260
-161.779	800.000	-0.052	0.199
-160.764	-5.891	0.315	0.214
-159.750	-19.382	0.101	-0.062
-158.735	-54.034	0.217	-0.098
-157.720	448.943	0.101	0.222
-156.706	204.666	0.167	0.258
-155.691	-58.895	0.078	-0.034
-154.677	-156.272	-0.189	0.012
-153.662	-139.091	-0.198	-0.021
-152.647	-81.986	-0.148	-0.048
-151.633	-93.206	-0.245	0.068
-150.618	334.746	-0.177	0.340
-149.604	-200.000	0.026	0.263
-148.589	-92.368	0.333	0.093
-147.574	-29.978	-0.130	-0.074
-146.560	800.000	0.055	0.211
-145.545	-95.367	0.367	0.098
-144.531	800.000	-0.088	0.317
-143.516	-2.527	-0.075	-0.052
-142.502	-200.000	0.017	0.230
-141.487	-83.972	0.174	-0.055
-140.472	265.332	-0.103	0.178
-139.458	-22.155	0.108	-0.065
-138.443	800.000	0.111	0.479
-137.429	138.409	-0.172	0.225
-136.414	-28.504	0.330	0.189
-135.399	-98.016	-0.379	0.097
-134.385	45.175	-0.102	-0.094
-133.370	-152.383	-0.403	0.029
-132.356	-27.143	0.190	0.110
-131.341	-49.206	0.073	-0.035
-130.326	-124.749	0.072	0.011
-129.312	-200.000	-0.043	0.351
-128.297	-5.099	0.144	0.099
-127.283	125.971	-0.187	0.234
-126.268	-200.000	-0.004	-0.062
-125.253	-101.891	0.116	0.028
-124.239	38.688	0.091	0.081
-123.224	67.805	0.204	-0.207
-122.210	-17.495	-0.149	0.093
-121.195	127.903	0.061	-0.077
-120.180	-85.227	0.147	0.046
