DTS Sentinel unit serial number:	SN413079Multiplexer serial number:	ORYXHardware model number:	OX4-SRSoftware version number:	ORYX F/W v4.00 Oryx Data Collector v3.7.2.0data status	okinstallation	princeton_trtdifferential loss correction	single-endedforward channel	channel 1reverse channel	N/Adate	2019/09/11time	08:48:11forward acquisition time	60.00reverse acquisition time	0.00gamma	496.2192k internal	0.2312k external	0.2312temperature offset calibration	0.9946default loss term (dB/km)	0.3790temperature slope calibration	1.0000multiplexer offset coefficient	1.0000multiplexer slope coefficient	1.0000fibre end	0.00T internal ref (°C)	33.75T ext. ref 1 (°C)	0.05T ext. ref 2 (°C)	30.99length (m)	temperature (°C)	Stokes	anti-Stokes-747.200	-30.541	0.065	-0.038
-746.185	65.164	-0.249	0.255
-745.171	154.727	0.069	-0.097
-744.156	205.583	-0.224	0.353
-743.142	221.464	0.133	0.217
-742.127	800.000	0.032	-0.093
-741.112	55.818	0.260	0.255
-740.098	-54.881	-0.170	0.078
-739.083	119.829	-0.162	-0.204
-738.069	72.983	-0.027	0.029
-737.054	-200.000	0.079	0.398
-736.039	239.883	-0.048	-0.080
-735.025	-140.584	0.328	0.035
-734.010	87.676	-0.124	0.139
-732.996	-57.840	-0.079	-0.035
-731.981	-200.000	0.022	-0.192
-730.966	-120.794	-0.272	0.047
-729.952	-115.649	-0.158	0.030
-728.937	-35.930	0.148	0.081
-727.923	-37.180	0.041	0.022
-726.908	414.440	-0.102	0.221
-725.894	-91.561	0.078	0.022
-724.879	-154.142	-0.452	-0.031
-723.864	113.085	-0.216	0.266
-722.850	-200.000	-0.020	0.132
-721.835	98.489	0.128	0.150
-720.821	-77.098	-0.218	0.077
-719.806	-200.000	-0.013	0.427
-718.791	-44.646	-0.283	-0.143
-717.777	-82.237	0.394	0.130
-716.762	-114.187	-0.255	-0.050
-715.748	-200.000	0.019	0.136
-714.733	104.757	0.191	-0.228
-713.718	-78.940	-0.271	0.094
-712.704	800.000	0.058	-0.218
-711.689	514.403	0.097	-0.230
-710.675	173.770	0.185	-0.271
-709.660	-6.680	-0.521	0.359
-708.645	-91.387	0.078	0.023
-707.631	149.744	-0.152	-0.209
-706.616	-105.891	0.125	0.029
-705.602	-200.000	-0.042	0.334
-704.587	217.546	0.085	0.137
-703.572	95.196	0.057	-0.066
-702.558	-69.790	-0.108	-0.042
-701.543	32.777	-0.046	0.040
-700.529	440.674	-0.071	-0.158
-699.514	289.251	0.217	-0.399
-698.499	-70.301	-0.132	0.051
-697.485	-200.000	0.003	0.153
-696.470	272.716	-0.033	-0.060
-695.456	182.660	0.087	-0.130
-694.441	800.000	-0.026	0.092
-693.426	-82.131	-0.183	0.060
-692.412	-3.627	0.271	-0.191
-691.397	-200.000	-0.010	0.098
-690.383	-101.191	0.197	0.049
-689.368	800.000	0.031	0.114
-688.354	-109.522	0.298	0.064
-687.339	-200.000	0.007	0.145
-686.324	-200.000	-0.003	-0.087
-685.310	106.018	0.112	-0.134
-684.295	-29.718	-0.368	0.213
-683.281	-195.037	0.248	0.002
-682.266	-86.367	-0.324	-0.101
-681.251	219.060	-0.068	-0.109
-680.237	-29.091	-0.240	-0.140
-679.222	122.306	0.100	-0.126
-678.208	135.907	-0.096	-0.127
-677.193	-200.000	-0.034	-0.280
-676.178	105.076	-0.268	0.320
-675.164	511.008	0.047	-0.111
-674.149	-200.000	-0.006	-0.187
-673.135	46.951	-0.170	-0.160
-672.120	-99.801	-0.484	0.123
-671.105	-200.000	-0.004	0.079
-670.091	-156.041	-0.409	-0.026
-669.076	33.688	0.052	0.046
-668.062	239.907	0.085	-0.143
-667.047	-83.346	0.193	0.063
-666.032	-200.000	0.075	-0.379
-665.018	-103.896	-0.246	-0.058
-664.003	-28.511	-0.130	0.076
-662.989	-200.000	-0.012	-0.076
-661.974	-111.356	0.187	-0.039
-660.959	800.000	-0.051	-0.212
-659.945	17.367	0.184	-0.148
-658.930	-200.000	-0.014	0.000
-657.916	-23.985	-0.161	-0.097
-656.901	-200.000	-0.024	-0.155
-655.886	150.107	-0.101	0.139
-654.872	-1.785	0.272	0.194
-653.857	-200.000	-0.023	-0.240
-652.843	-128.127	-0.342	0.049
-651.828	763.762	-0.060	-0.165
-650.814	-200.000	0.031	-0.137
-649.799	103.750	-0.302	-0.358
-648.784	42.788	-0.122	-0.112
-647.770	-65.633	-0.296	-0.120
-646.755	10.482	0.331	-0.254
-645.741	64.543	-0.210	-0.214
-644.726	366.726	0.025	0.051
-643.711	-8.339	0.192	0.130
-642.697	400.985	0.104	-0.221
-641.682	57.913	0.256	0.253
-640.668	-155.776	-0.179	0.012
-639.653	45.270	-0.015	0.014
-638.638	237.649	-0.076	0.127
-637.624	-17.953	-0.141	0.089
-636.609	-200.000	-0.045	0.245
-635.595	-179.298	-0.234	-0.005
-634.580	-200.000	0.005	-0.038
-633.565	508.328	-0.056	0.132
-632.551	-27.226	0.289	-0.170
-631.536	488.787	0.051	-0.117
-630.522	148.479	0.063	0.086
-629.507	135.728	0.027	-0.035
-628.492	-11.329	-0.265	-0.176
-627.478	39.437	0.202	0.183
-626.463	-152.384	-0.214	0.016
-625.449	-25.647	0.108	0.065
-624.434	-71.716	0.609	0.230
-623.419	-154.062	-0.451	-0.031
-622.405	66.100	0.162	-0.166
-621.390	114.489	-0.344	0.423
-620.376	-200.000	-0.002	-0.112
-619.361	-197.513	-0.254	0.002
-618.346	-77.915	-0.163	-0.057
-617.332	-20.172	0.257	-0.160
-616.317	181.699	0.295	-0.439
-615.303	-94.869	0.465	-0.127
-614.288	293.846	-0.140	-0.258
-613.273	139.177	0.146	-0.194
-612.259	-200.000	0.002	-0.119
-611.244	800.000	-0.091	-0.317
-610.230	-151.051	-0.318	0.024
-609.215	-54.308	-0.071	-0.032
-608.201	477.756	0.019	0.044
-607.186	-21.987	-0.202	-0.124
-606.171	-200.000	-0.004	0.150
-605.157	421.026	0.099	-0.215
-604.142	297.180	-0.181	0.335
-603.128	-73.094	-0.381	-0.141
-602.113	800.000	-0.079	-0.288
-601.098	-200.000	0.035	0.160
-600.084	-34.635	-0.152	0.084
-599.069	-143.030	-0.155	0.015
-598.055	-117.825	-0.221	0.040
-597.040	-111.817	-0.132	-0.027
-596.025	142.816	0.214	0.287
-595.011	416.433	-0.062	0.133
-593.996	78.062	0.383	0.412
-592.982	128.458	-0.138	-0.177
-591.967	-87.192	-0.256	-0.078
-590.952	69.311	-0.042	-0.044
-589.938	-200.000	0.055	0.338
-588.923	-155.082	-0.223	-0.015
-587.909	-200.000	-0.002	-0.092
-586.894	-135.178	-0.192	0.023
-585.879	-69.697	0.385	0.148
-584.865	-78.647	-0.170	0.059
-583.850	153.598	-0.083	0.115
-582.836	181.022	0.015	-0.022
-581.821	-64.278	-0.130	0.054
-580.806	-200.000	-0.011	-0.203
-579.792	123.925	0.160	0.203
-578.777	32.754	0.275	0.240
-577.763	33.076	-0.060	0.052
-576.748	79.404	0.082	-0.089
-575.733	-65.746	0.195	0.079
-574.719	800.000	0.054	0.181
-573.704	-146.372	0.402	0.035
-572.690	-70.846	0.160	-0.061
-571.675	26.443	0.297	-0.251
-570.661	-200.000	0.018	-0.326
-569.646	-179.982	0.167	-0.004
-568.631	800.000	-0.078	0.300
-567.617	800.000	0.037	0.139
-566.602	-146.570	-0.087	-0.008
-565.588	75.518	-0.270	0.287
-564.573	-72.199	-0.207	0.077
-563.558	-68.862	-0.303	-0.118
-562.544	800.000	0.047	-0.139
-561.529	26.140	0.259	-0.218
-560.515	-200.000	0.003	-0.389
-559.500	-200.000	-0.048	0.237
-558.485	-7.535	-0.033	0.023
-557.471	800.000	0.064	0.263
-556.456	1.160	0.206	-0.149
-555.442	125.404	0.257	-0.326
-554.427	-200.000	0.010	-0.091
-553.412	118.924	-0.146	-0.181
-552.398	31.938	0.370	0.321
-551.383	527.423	0.065	-0.154
-550.369	-165.609	0.317	-0.014
-549.354	-87.946	-0.211	-0.064
-548.339	158.823	-0.103	0.144
-547.325	11.282	-0.093	0.071
-546.310	82.030	-0.116	0.127
-545.296	54.316	-0.251	-0.243
-544.281	-200.000	-0.044	-0.255
-543.266	-151.282	0.063	-0.005
-542.252	174.655	-0.058	0.085
-541.237	-26.787	-0.132	-0.078
-540.223	2.524	-0.158	-0.116
-539.208	-200.000	-0.004	0.244
-538.193	-200.000	-0.013	0.177
-537.179	107.902	-0.168	-0.201
-536.164	51.884	-0.290	0.278
-535.150	-200.000	0.039	0.289
-534.135	-200.000	0.003	0.286
-533.121	-34.884	0.050	-0.027
-532.106	800.000	0.025	0.073
-531.091	-154.946	0.233	0.015
-530.077	-33.001	0.136	-0.076
-529.062	-50.641	0.054	-0.026
-528.048	133.284	0.316	0.410
-527.033	-162.723	0.129	0.006
-526.018	188.668	0.160	-0.241
-525.004	-200.000	-0.028	0.320
-523.989	-200.000	-0.013	0.194
-522.975	315.945	0.075	0.142
-521.960	116.965	0.136	-0.168
-520.945	800.000	-0.079	0.288
-519.931	-200.000	-0.034	0.172
-518.916	-184.818	0.057	-0.001
-517.902	-200.000	0.002	-0.149
-516.887	486.756	0.065	-0.150
-515.872	-200.000	-0.024	-0.289
-514.858	-96.926	0.423	-0.112
-513.843	43.500	0.079	0.072
-512.829	-72.326	0.335	-0.125
-511.814	-107.742	-0.348	0.076
-510.799	-53.146	-0.201	-0.093
-509.785	0.589	0.067	-0.048
-508.770	-82.654	0.201	0.065
-507.756	240.056	-0.067	0.113
-506.741	-122.544	-0.303	-0.049
-505.726	72.979	-0.272	0.286
-504.712	-116.526	0.159	0.030
-503.697	54.154	-0.152	0.147
-502.683	24.294	-0.136	-0.113
-501.668	-200.000	-0.048	0.389
-500.653	800.000	-0.017	0.060
-499.639	800.000	0.061	0.196
-498.624	-17.035	-0.172	0.109
-497.610	-200.000	-0.038	0.219
-496.595	-85.307	0.059	0.019
-495.581	-200.000	0.039	-0.498
-494.566	158.645	0.106	-0.147
-493.551	436.492	-0.082	0.179
-492.537	-200.000	-0.032	-0.284
-491.522	11.129	0.150	0.116
-490.508	-57.739	0.125	0.055
-489.493	775.622	0.077	-0.212
-488.478	-50.556	0.069	0.032
-487.464	6.220	-0.442	0.329
-486.449	-97.401	-0.417	-0.109
-485.435	-88.916	-0.332	-0.099
-484.420	-71.161	-0.194	0.073
-483.405	-149.060	0.370	-0.030
-482.391	-14.868	-0.138	0.089
-481.376	310.992	0.199	0.374
-480.362	-200.000	-0.025	-0.318
-479.347	429.833	-0.002	-0.004
-478.332	655.812	-0.042	-0.109
-477.318	800.000	0.112	0.453
-476.303	-29.581	-0.149	-0.085
-475.289	-137.706	0.147	0.017
-474.274	800.000	0.060	-0.178
-473.259	402.603	-0.056	0.118
-472.245	306.759	0.183	-0.343
-471.230	-71.883	-0.058	0.022
-470.216	-200.000	0.018	-0.171
-469.201	-200.000	-0.013	-0.064
-468.186	244.667	-0.027	-0.045
-467.172	24.425	0.279	-0.232
-466.157	472.229	-0.065	-0.148
-465.143	-1.903	-0.145	0.103
-464.128	-200.000	-0.009	0.052
-463.113	-200.000	0.002	-0.180
-462.099	-200.000	0.018	-0.151
-461.084	800.000	-0.099	0.425
-460.070	128.024	-0.103	-0.132
-459.055	123.760	0.385	-0.484
-458.040	137.546	0.099	-0.130
-457.026	-3.455	0.456	-0.319
-456.011	800.000	0.048	0.173
-454.997	-14.155	0.169	0.109
-453.982	348.793	0.080	-0.158
-452.968	-200.000	0.015	0.186
-451.953	394.622	0.059	-0.123
-450.938	-141.288	0.219	0.022
-449.924	248.666	0.134	0.227
-448.909	15.724	-0.478	-0.377
-447.895	552.682	0.046	-0.112
-446.880	-77.234	-0.411	0.143
-445.865	800.000	-0.008	0.024
-444.851	-82.389	0.198	-0.065
-443.836	-159.907	-0.076	-0.004
-442.822	203.085	0.096	-0.148
-441.807	-200.000	-0.067	-0.442
-440.792	-65.246	0.144	0.058
-439.778	-36.319	0.086	-0.047
-438.763	-30.197	-0.411	-0.234
-437.749	-55.578	-0.078	-0.035
-436.734	62.183	-0.150	0.150
-435.719	-200.000	0.019	-0.252
-434.705	646.204	-0.023	0.059
-433.690	-200.000	0.063	-0.379
-432.676	368.770	0.159	-0.323
-431.661	498.413	-0.143	-0.330
-430.646	-144.258	-0.271	0.025
-429.632	-131.834	0.100	-0.013
-428.617	800.000	-0.014	-0.058
-427.603	-38.285	-0.291	0.154
-426.588	343.032	0.060	0.118
-425.573	-122.899	0.139	0.022
-424.559	-107.569	0.154	0.034
-423.544	-39.338	0.116	-0.061
-422.530	-161.301	0.201	-0.010
-421.515	44.567	-0.021	0.019
-420.500	736.073	-0.151	-0.405
-419.486	-142.059	0.127	-0.013
-418.471	800.000	0.070	-0.230
-417.457	232.360	-0.043	-0.071
-416.442	-33.585	-0.279	0.155
-415.428	-200.000	0.009	0.266
-414.413	-29.389	-0.133	-0.076
-413.398	-112.574	0.308	0.061
-412.384	-148.013	0.083	0.007
-411.369	-200.000	-0.039	-0.184
-410.355	192.881	-0.085	-0.128
-409.340	187.474	0.225	0.336
-408.325	225.293	-0.142	0.230
-407.311	-200.000	-0.015	0.247
-406.296	-29.921	0.478	-0.272
-405.282	-65.256	-0.398	0.161
-404.267	338.127	0.119	-0.232
-403.252	28.397	0.153	0.129
-402.238	-41.650	-0.109	-0.056
-401.223	663.309	-0.018	0.047
-400.209	94.774	0.222	0.253
-399.194	40.520	-0.151	0.136
-398.179	-29.461	0.237	0.136
-397.165	-132.144	0.207	0.027
-396.150	-200.000	0.045	0.229
-395.136	304.132	0.125	0.231
-394.121	-200.000	-0.062	-0.321
-393.106	-164.434	-0.500	0.023
-392.092	35.656	0.352	-0.309
-391.077	800.000	-0.046	-0.146
-390.063	-90.888	0.411	0.118
-389.048	800.000	0.078	-0.235
-388.033	-34.933	-0.129	-0.070
-387.019	-200.000	0.016	0.098
-386.004	563.462	0.054	0.132
-384.990	-79.870	-0.121	-0.041
-383.975	800.000	-0.031	0.115
-382.960	-103.675	0.213	-0.050
-381.946	-200.000	-0.021	0.171
-380.931	59.191	-0.078	0.077
-379.917	-160.289	-0.397	-0.021
-378.902	-62.247	-0.314	0.131
-377.888	-0.282	0.190	0.135
-376.873	800.000	-0.072	0.268
-375.858	-85.673	0.120	0.037
-374.844	-200.000	-0.023	-0.322
-373.829	-160.780	0.248	-0.013
-372.815	-109.269	0.211	-0.045
-371.800	49.825	-0.013	0.012
-370.785	13.039	0.199	-0.154
-369.771	-134.442	0.208	0.025
-368.756	-42.236	-0.177	0.090
-367.742	-200.000	-0.012	0.185
-366.727	-200.000	-0.011	-0.174
-365.712	381.538	-0.078	0.159
-364.698	-28.956	0.185	-0.106
-363.683	63.732	0.082	0.083
-362.669	-36.116	-0.261	-0.141
-361.654	-200.000	0.040	-0.275
-360.639	800.000	-0.015	0.059
-359.625	199.742	0.189	-0.289
-358.610	60.231	0.132	0.131
-357.596	-200.000	0.091	-0.415
-356.581	-89.349	0.525	0.155
-355.566	-105.156	0.403	-0.092
-354.552	-72.709	-0.049	-0.018
-353.537	-93.068	-0.217	-0.060
-352.523	-146.305	-0.069	0.006
-351.508	31.316	-0.121	0.104
-350.493	143.765	0.281	-0.374
-349.479	-22.243	-0.102	0.062
-348.464	-200.000	-0.029	0.137
-347.450	-200.000	-0.006	0.149
-346.435	18.929	-0.243	-0.195
-345.420	56.283	0.205	0.199
-344.406	-157.591	-0.211	0.013
-343.391	-23.675	0.048	-0.029
-342.377	72.467	-0.194	0.202
-341.362	-200.000	-0.032	0.269
-340.348	322.280	0.072	0.136
-339.333	-33.046	-0.345	-0.191
-338.318	308.426	0.007	-0.012
-337.304	800.000	-0.038	0.130
-336.289	-133.723	-0.202	0.025
-335.275	40.306	0.036	0.032
-334.260	-200.000	-0.024	0.356
-333.245	-200.000	0.013	0.168
-332.231	-63.140	0.358	0.147
-331.216	-174.806	-0.057	0.002
-330.202	224.985	-0.018	-0.030
-329.187	245.382	-0.041	-0.069
-328.172	372.570	-0.159	-0.323
-327.158	-200.000	-0.016	-0.107
-326.143	72.090	-0.104	-0.108
-325.129	800.000	-0.069	-0.194
-324.114	361.752	0.150	0.300
-323.099	-200.000	-0.010	0.290
-322.085	73.020	0.187	-0.195
-321.070	-167.755	-0.370	-0.015
-320.056	-79.062	0.155	-0.053
-319.041	-65.887	-0.309	0.123
-318.026	-200.000	-0.021	0.136
-317.012	147.755	0.211	0.284
-315.997	189.982	-0.113	0.169
-314.983	85.346	0.226	-0.247
-313.968	-113.153	0.140	0.027
-312.953	192.039	-0.080	0.121
-311.939	123.350	-0.079	-0.099
-310.924	-179.220	-0.350	-0.008
-309.910	3.677	0.097	0.071
-308.895	-115.733	-0.120	-0.022
-307.880	18.136	-0.419	0.333
-306.866	-57.943	0.143	-0.062
-305.851	148.297	-0.096	0.129
-304.837	274.605	-0.108	-0.191
-303.822	472.084	0.166	-0.372
-302.807	45.575	-0.365	0.336
-301.793	-200.000	-0.000	0.200
-300.778	779.695	0.071	-0.195
-299.764	222.208	-0.107	0.172
-298.749	800.000	-0.116	-0.417
-297.735	2.265	-0.169	0.122
-296.720	-38.389	-0.372	0.197
-295.705	117.902	-0.239	0.293
-294.691	-69.006	0.207	0.079
-293.676	-68.727	0.195	-0.075
-292.662	-200.000	0.041	0.246
-291.647	21.113	0.123	0.099
-290.632	800.000	-0.032	0.115
-289.618	103.037	0.077	0.090
-288.603	-93.530	0.294	0.081
-287.589	569.099	0.040	0.098
-286.574	55.381	0.092	-0.089
-285.559	128.913	-0.272	-0.346
-284.545	-200.000	0.058	0.389
-283.530	-200.000	-0.031	0.185
-282.516	444.003	-0.087	0.190
-281.501	-200.000	-0.009	-0.223
-280.486	-175.369	0.134	0.004
-279.472	-6.969	0.123	-0.083
-278.457	8.085	-0.223	-0.167
-277.443	159.250	-0.020	0.028
-276.428	170.618	-0.130	0.186
-275.413	800.000	0.040	0.160
-274.399	-88.511	-0.219	-0.065
-273.384	276.768	0.167	0.296
-272.370	-94.131	0.140	0.038
-271.355	243.703	-0.073	0.121
-270.340	-66.856	0.145	-0.057
-269.326	800.000	-0.030	0.115
-268.311	800.000	-0.022	0.088
-267.297	-200.000	-0.004	0.220
-266.282	-45.792	0.223	0.110
-265.267	11.749	0.118	0.090
-264.253	116.202	0.043	-0.053
-263.238	63.649	0.183	0.183
-262.224	-156.043	-0.123	-0.008
-261.209	-43.293	-0.078	0.039
-260.195	800.000	0.030	-0.098
-259.180	-200.000	0.063	0.389
-258.165	-18.448	0.270	-0.168
-257.151	445.086	-0.114	-0.249
-256.136	800.000	0.057	-0.159
-255.122	132.614	0.073	-0.094
-254.107	209.171	-0.043	0.066
-253.092	793.605	0.053	0.146
-252.078	-71.507	0.166	0.062
-251.063	43.549	-0.218	-0.198
-250.049	800.000	0.067	0.272
-249.034	-200.000	0.008	0.000
-248.019	800.000	0.039	0.147
-247.005	-81.044	-0.391	0.129
-245.990	800.000	0.022	0.082
-244.976	-35.119	-0.412	0.223
-243.961	-191.472	0.197	-0.002
-242.946	-94.183	-0.138	0.038
-241.932	126.367	-0.139	-0.174
-240.917	32.330	-0.239	-0.205
-239.903	174.640	-0.147	-0.211
-238.888	223.594	-0.236	0.380
-237.873	204.510	-0.075	-0.116
-236.859	-166.924	-0.069	0.003
-235.844	277.851	-0.162	-0.287
-234.830	71.907	0.197	0.204
-233.815	-200.000	0.014	-0.114
-232.800	-71.099	-0.247	0.092
-231.786	-200.000	-0.029	0.209
-230.771	-133.057	0.253	-0.032
-229.757	-200.000	0.021	0.147
-228.742	-200.000	-0.039	0.206
-227.727	218.005	-0.065	0.103
-226.713	-200.000	-0.019	-0.103
-225.698	86.866	0.135	0.149
-224.684	-135.399	0.155	-0.018
-223.669	-40.940	0.063	0.032
-222.655	-200.000	0.096	-0.482
-221.640	-186.619	0.087	-0.001
-220.625	-61.994	0.419	-0.174
-219.611	800.000	0.087	0.294
-218.596	-200.000	0.007	-0.162
-217.582	800.000	-0.025	0.082
-216.567	-83.268	0.138	0.044
-215.552	90.633	0.120	0.133
-214.538	-151.714	0.148	0.011
-213.523	-148.484	0.352	0.029
-212.509	728.293	-0.081	-0.216
-211.494	-200.000	0.027	-0.184
-210.479	168.956	-0.180	0.255
-209.465	74.271	0.033	-0.035
-208.450	800.000	0.093	0.352
-207.436	29.114	-0.249	-0.210
-206.421	521.169	0.068	-0.159
-205.406	-199.765	-0.067	-0.000
-204.392	-122.614	-0.155	0.025
-203.377	34.829	-0.110	-0.096
-202.363	-2.752	0.209	-0.145
-201.348	228.771	-0.197	-0.319
-200.333	-8.692	-0.037	0.025
-199.319	145.088	0.169	-0.225
-198.304	800.000	0.059	-0.171
-197.290	-200.000	0.017	-0.113
-196.275	-79.809	0.186	-0.062
-195.260	202.109	-0.089	-0.136
-194.246	770.452	0.100	-0.269
-193.231	-135.672	0.164	0.019
-192.217	-27.181	-0.266	0.154
-191.202	-200.000	0.012	0.173
-190.187	-200.000	-0.026	0.133
-189.173	-200.000	0.004	-0.075
-188.158	-118.695	-0.142	0.025
-187.144	-1.116	0.091	-0.064
-186.129	145.084	-0.149	-0.199
-185.114	800.000	-0.006	0.017
-184.100	-200.000	0.093	-0.578
-183.085	-39.998	0.185	-0.096
-182.071	-200.000	-0.056	0.256
-181.056	-200.000	-0.031	-0.166
-180.042	174.354	-0.117	0.168
-179.027	-39.268	-0.172	-0.090
-178.012	28.755	0.020	0.017
-176.998	109.849	-0.179	-0.213
-175.983	-165.224	-0.227	0.010
-174.969	-153.728	0.548	0.037
-173.954	240.406	0.008	0.013
-172.939	-162.166	0.211	0.010
-171.925	132.006	-0.145	-0.185
-170.910	41.042	0.112	-0.100
-169.896	-190.260	-0.474	0.005
-168.881	346.749	-0.086	-0.169
-167.866	-89.460	-0.216	-0.063
-166.852	-126.353	-0.331	-0.049
-165.837	-65.440	0.124	-0.050
-164.823	-2.657	0.107	0.074
-163.808	-129.401	0.174	-0.024
-162.793	800.000	-0.060	0.202
-161.779	-200.000	0.027	-0.130
-160.764	-138.581	0.099	-0.011
-159.750	-141.794	0.406	0.040
-158.735	-200.000	-0.026	-0.159
-157.720	8.589	0.151	-0.112
-156.706	-100.533	-0.137	0.034
-155.691	108.607	0.123	0.146
-154.677	-200.000	-0.006	0.098
-153.662	-144.897	-0.229	-0.021
-152.647	800.000	0.009	-0.038
-151.633	377.955	-0.088	0.178
-150.618	-147.680	-0.138	-0.011
-149.604	125.544	0.187	0.234
-148.589	463.454	-0.258	0.571
-147.574	55.934	-0.115	-0.110
-146.560	-107.989	-0.317	-0.068
-145.545	-126.000	0.099	-0.015
-144.531	271.339	0.200	0.349
-143.516	-200.000	-0.004	0.345
-142.502	88.444	0.153	-0.168
-141.487	-77.646	-0.327	-0.112
-140.472	800.000	0.053	-0.163
-139.458	-50.675	0.189	-0.088
-138.443	52.321	0.128	-0.121
-137.429	-8.658	-0.104	-0.069
-136.414	-200.000	-0.038	0.470
-135.399	150.988	-0.173	0.233
-134.385	-200.000	-0.006	-0.035
-133.370	-1.407	-0.031	-0.022
-132.356	243.588	-0.093	0.154
-131.341	64.050	0.092	0.092
-130.326	-74.925	0.177	0.063
-129.312	-129.006	-0.284	-0.039
-128.297	6.292	-0.078	-0.057
-127.283	38.269	-0.119	0.105
-126.268	-8.326	-0.038	-0.025
-125.253	800.000	0.110	0.317
-124.239	393.739	0.031	0.064
-123.224	-64.979	-0.202	0.081
-122.210	-112.581	-0.114	-0.022
