DTS Sentinel unit serial number:	SN413079Multiplexer serial number:	ORYXHardware model number:	OX4-SRSoftware version number:	ORYX F/W v4.00 Oryx Data Collector v3.7.2.0data status	okinstallation	princeton_trtdifferential loss correction	single-endedforward channel	channel 1reverse channel	N/Adate	2019/09/11time	11:56:11forward acquisition time	60.00reverse acquisition time	0.00gamma	496.2192k internal	0.2291k external	0.2291temperature offset calibration	0.9943default loss term (dB/km)	0.3790temperature slope calibration	1.0000multiplexer offset coefficient	1.0000multiplexer slope coefficient	1.0000fibre end	0.00T internal ref (°C)	39.08T ext. ref 1 (°C)	0.20T ext. ref 2 (°C)	37.33length (m)	temperature (°C)	Stokes	anti-Stokes-747.200	-20.181	0.195	-0.123
-746.185	-161.874	-0.304	-0.016
-745.171	-172.998	-0.408	-0.013
-744.156	-200.000	0.040	0.182
-743.142	40.742	-0.258	0.238
-742.127	-200.000	-0.019	0.358
-741.112	85.805	-0.058	-0.065
-740.098	-200.000	-0.053	0.247
-739.083	-115.978	0.272	-0.052
-738.069	-91.169	0.562	0.165
-737.054	34.606	0.081	-0.073
-736.039	-75.455	-0.362	0.132
-735.025	-200.000	-0.043	0.296
-734.010	-200.000	0.000	-0.036
-732.996	13.543	0.131	-0.104
-731.981	24.426	-0.404	0.342
-730.966	7.360	0.152	-0.117
-729.952	-200.000	0.004	0.161
-728.937	528.481	0.174	-0.420
-727.923	22.673	-0.065	0.054
-726.908	-200.000	0.022	-0.134
-725.894	673.526	-0.047	-0.124
-724.879	337.149	0.044	-0.087
-723.864	282.773	-0.168	0.308
-722.850	222.682	-0.043	-0.071
-721.835	-164.719	-0.160	0.007
-720.821	-21.826	-0.120	0.075
-719.806	-200.000	-0.024	0.257
-718.791	-200.000	0.006	0.060
-717.777	-11.572	-0.053	-0.036
-716.762	-138.261	-0.277	0.031
-715.748	-121.109	0.248	0.043
-714.733	-200.000	0.043	0.218
-713.718	15.853	0.133	-0.107
-712.704	800.000	-0.008	0.029
-711.689	147.448	-0.049	-0.067
-710.675	136.092	0.228	-0.304
-709.660	-19.271	0.188	0.119
-708.645	-99.191	-0.195	-0.050
-707.631	-200.000	0.003	-0.195
-706.616	-54.673	0.257	-0.119
-705.602	74.605	-0.144	-0.154
-704.587	-200.000	0.002	-0.069
-703.572	800.000	-0.054	-0.163
-702.558	48.330	0.040	0.039
-701.543	-200.000	-0.023	-0.369
-700.529	40.752	0.206	-0.190
-699.514	68.222	0.194	0.203
-698.499	-147.164	-0.618	-0.054
-697.485	361.043	-0.130	0.265
-696.470	13.269	0.077	-0.061
-695.456	-200.000	-0.031	-0.156
-694.441	-151.457	-0.299	0.023
-693.426	-200.000	0.079	-0.379
-692.412	-200.000	-0.052	-0.249
-691.397	710.900	-0.097	0.263
-690.383	8.318	0.227	-0.174
-689.368	-157.151	-0.381	-0.024
-688.354	-89.771	-0.187	-0.056
-687.339	-148.808	0.137	-0.011
-686.324	168.608	0.072	0.105
-685.310	-200.000	-0.056	-0.275
-684.295	105.548	-0.145	0.174
-683.281	-85.516	0.137	-0.043
-682.266	-4.191	0.165	0.117
-681.251	417.327	-0.067	-0.147
-680.237	166.153	-0.160	0.231
-679.222	510.280	0.046	-0.110
-678.208	-112.823	0.405	-0.082
-677.193	120.077	-0.065	0.082
-676.178	454.193	0.105	-0.238
-675.164	-45.174	-0.247	0.125
-674.149	5.078	-0.401	-0.302
-673.135	-116.772	0.164	-0.031
-672.120	-131.955	0.137	0.018
-671.105	167.577	-0.195	-0.283
-670.091	-171.613	-0.176	-0.006
-669.076	203.421	-0.262	-0.414
-668.062	18.227	0.099	-0.081
-667.047	161.403	0.124	0.177
-666.032	-72.464	0.221	-0.083
-665.018	-17.665	-0.259	0.166
-664.003	-88.422	-0.167	-0.051
-662.989	37.913	0.112	-0.102
-661.974	-159.233	0.427	-0.024
-660.959	-39.560	-0.199	-0.106
-659.945	-67.393	0.237	0.095
-658.930	371.738	-0.067	-0.139
-657.916	-30.625	0.161	0.093
-656.901	154.116	0.130	0.182
-655.886	22.016	-0.104	-0.086
-654.872	800.000	0.127	0.392
-653.857	-165.504	-0.207	0.009
-652.843	-81.888	0.315	-0.105
-651.828	-200.000	-0.053	-0.312
-650.814	-200.000	-0.007	-0.120
-649.799	21.281	-0.049	0.040
-648.784	-200.000	-0.023	0.119
-647.770	-81.771	0.112	0.037
-646.755	-200.000	0.009	0.226
-645.741	51.914	-0.089	-0.086
-644.726	-87.947	0.134	-0.041
-643.711	272.318	0.111	0.199
-642.697	800.000	-0.051	-0.204
-641.682	265.775	-0.038	-0.068
-640.668	252.187	-0.100	-0.175
-639.653	40.702	-0.126	-0.116
-638.638	-87.935	0.399	0.122
-637.624	49.715	0.082	-0.079
-636.609	402.410	-0.095	0.204
-635.595	-179.776	0.311	0.007
-634.580	-103.778	-0.082	-0.020
-633.565	800.000	0.035	-0.124
-632.551	-80.429	0.283	-0.096
-631.536	-78.346	0.209	0.073
-630.522	-200.000	0.028	-0.220
-629.507	-200.000	0.012	0.170
-628.492	-57.374	0.200	0.089
-627.478	-115.516	-0.109	0.021
-626.463	-200.000	-0.039	-0.212
-625.449	-73.918	-0.318	-0.118
-624.434	-191.193	0.222	0.002
-623.419	-200.000	-0.005	0.054
-622.405	-200.000	-0.020	0.149
-621.390	30.940	0.022	0.019
-620.376	-92.362	0.411	-0.118
-619.361	-118.823	0.127	-0.023
-618.346	-200.000	-0.048	-0.327
-617.332	78.141	0.149	-0.162
-616.317	-8.655	0.306	0.209
-615.303	50.899	0.012	0.011
-614.288	-35.760	0.098	0.054
-613.273	-75.257	0.409	0.149
-612.259	32.147	-0.110	0.096
-611.244	-109.948	-0.326	-0.069
-610.230	-78.040	0.064	-0.022
-609.215	120.702	0.131	-0.166
-608.201	-200.000	0.017	-0.228
-607.186	-172.892	0.310	-0.010
-606.171	121.032	0.060	-0.076
-605.157	-13.633	0.044	-0.029
-604.142	124.342	-0.176	-0.225
-603.128	149.800	0.140	0.194
-602.113	171.010	-0.067	0.097
-601.098	266.010	-0.074	0.131
-600.084	201.931	0.090	0.142
-599.069	-28.606	-0.172	0.101
-598.055	-200.000	-0.019	0.250
-597.040	193.023	-0.099	-0.152
-596.025	61.185	-0.225	-0.228
-595.011	-110.508	0.160	0.034
-593.996	-117.021	0.094	-0.017
-592.982	-34.875	-0.222	0.123
-591.967	-59.908	-0.221	0.096
-590.952	432.022	0.023	-0.050
-589.938	-160.517	-0.255	-0.014
-588.923	800.000	0.015	-0.052
-587.909	-25.462	-0.313	0.188
-586.894	-200.000	0.032	0.184
-585.879	-59.709	-0.133	-0.058
-584.865	-30.013	0.120	0.070
-583.850	-200.000	-0.041	0.329
-582.836	-86.318	-0.167	0.052
-581.821	142.640	-0.038	-0.052
-580.806	47.302	-0.273	-0.258
-579.792	800.000	0.015	-0.045
-578.777	800.000	0.032	-0.117
-577.763	-71.866	0.238	0.090
-576.748	-200.000	0.033	0.252
-575.733	-88.650	-0.317	0.096
-574.719	-107.294	0.162	-0.036
-573.704	228.090	0.063	0.105
-572.690	-50.949	0.066	-0.031
-571.675	-125.954	-0.421	-0.064
-570.661	-200.000	-0.013	-0.068
-569.646	-200.000	-0.016	-0.205
-568.631	-86.743	0.366	0.114
-567.617	-82.630	0.273	0.090
-566.602	-200.000	-0.025	0.181
-565.588	-200.000	0.007	-0.150
-564.573	-200.000	0.044	-0.251
-563.558	-127.483	0.209	-0.031
-562.544	-200.000	0.017	0.260
-561.529	85.437	0.005	0.006
-560.515	-67.231	0.309	-0.124
-559.500	-186.562	0.219	-0.003
-558.485	-200.000	0.007	0.155
-557.471	-149.971	-0.062	-0.005
-556.456	-161.075	0.240	-0.013
-555.442	340.897	0.066	-0.131
-554.427	645.074	-0.106	-0.276
-553.412	-160.745	0.106	-0.006
-552.398	-200.000	-0.038	-0.348
-551.383	293.693	-0.069	-0.129
-550.369	-200.000	0.059	-0.346
-549.354	-150.246	0.203	-0.016
-548.339	-37.891	-0.267	-0.144
-547.325	313.444	0.047	0.090
-546.310	488.525	-0.058	-0.134
-545.296	200.136	0.059	-0.093
-544.281	-20.112	-0.268	0.168
-543.266	800.000	-0.010	0.039
-542.252	800.000	0.080	-0.224
-541.237	-200.000	0.025	-0.301
-540.223	465.265	-0.115	0.260
-539.208	222.612	0.092	0.151
-538.193	-56.084	0.050	0.022
-537.179	-136.417	-0.310	0.037
-536.164	-87.101	0.244	0.075
-535.150	153.481	-0.211	-0.293
-534.135	-67.915	-0.048	-0.019
-533.121	-135.026	0.117	-0.014
-532.106	41.560	-0.094	-0.087
-531.091	800.000	0.047	-0.198
-530.077	224.167	0.103	0.168
-529.062	161.078	-0.112	-0.159
-528.048	9.657	-0.200	0.154
-527.033	-159.422	-0.266	-0.015
-526.018	-175.557	0.102	-0.003
-525.004	-14.857	-0.191	0.124
-523.989	-200.000	-0.090	0.460
-522.975	-200.000	0.039	0.338
-521.960	-76.508	-0.146	-0.052
-520.945	262.407	-0.172	-0.303
-519.931	12.399	-0.296	0.231
-518.916	684.148	-0.117	0.310
-517.902	-79.922	0.098	-0.034
-516.887	-62.709	-0.506	-0.213
-515.872	293.992	0.137	-0.255
-514.858	439.041	-0.132	0.292
-513.843	-117.847	0.436	-0.079
-512.829	800.000	-0.036	0.137
-511.814	23.174	-0.124	0.103
-510.799	58.013	0.210	-0.209
-509.785	-191.447	-0.058	-0.001
-508.770	-61.443	-0.146	-0.062
-507.756	178.271	0.178	-0.264
-506.741	210.068	-0.054	-0.087
-505.726	199.934	0.225	-0.350
-504.712	-107.965	-0.045	0.010
-503.697	-200.000	-0.141	-0.000
-502.683	-95.541	0.236	0.064
-501.668	255.670	0.067	0.116
-500.653	46.552	-0.215	-0.202
-499.639	87.100	0.091	-0.102
-498.624	-27.794	-0.171	0.101
-497.610	-139.070	0.118	0.013
-496.595	800.000	-0.093	-0.352
-495.581	58.964	-0.067	-0.067
-494.566	120.073	0.100	0.126
-493.551	599.305	-0.128	-0.321
-492.537	-200.000	0.066	0.000
-491.522	-139.650	0.157	-0.017
-490.508	800.000	0.176	-0.522
-489.493	-124.691	0.243	-0.038
-488.478	-83.645	-0.232	-0.075
-487.464	-49.393	0.093	0.045
-486.449	15.195	0.092	0.073
-485.435	-128.287	0.470	-0.068
-484.420	-200.000	-0.022	-0.127
-483.405	81.281	0.144	-0.158
-482.391	-14.114	0.163	-0.106
-481.376	800.000	-0.033	-0.096
-480.362	-143.329	0.223	0.022
-479.347	800.000	-0.067	0.244
-478.332	62.305	-0.093	0.094
-477.318	-200.000	0.002	0.253
-476.303	-68.574	0.303	0.119
-475.289	192.912	-0.087	0.133
-474.274	57.181	0.113	0.112
-473.259	-115.285	-0.242	0.046
-472.245	69.033	-0.274	-0.286
-471.230	20.526	-0.142	-0.116
-470.216	22.451	-0.357	0.296
-469.201	367.004	-0.165	0.338
-468.186	-200.000	0.006	-0.044
-467.172	800.000	0.012	0.035
-466.157	-59.861	-0.140	0.061
-465.143	219.129	-0.126	0.204
-464.128	61.696	0.069	-0.070
-463.113	114.256	0.031	-0.039
-462.099	-200.000	0.013	-0.091
-461.084	6.209	-0.189	0.142
-460.070	786.246	-0.086	0.239
-459.055	-18.387	0.054	0.034
-458.040	67.630	-0.187	0.193
-457.026	-200.000	0.006	-0.388
-456.011	588.433	-0.213	-0.532
-454.997	-74.804	0.073	0.026
-453.982	-189.113	0.176	-0.002
-452.968	-56.578	0.281	-0.126
-451.953	-144.311	-0.185	0.017
-450.938	-200.000	0.065	-0.372
-449.924	66.194	0.167	0.172
-448.909	-62.319	0.202	0.085
-447.895	131.446	-0.041	-0.053
-446.880	607.939	0.031	-0.078
-445.865	-200.000	-0.058	-0.342
-444.851	-200.000	-0.007	0.185
-443.836	39.063	-0.122	-0.110
-442.822	800.000	-0.108	-0.302
-441.807	22.438	-0.133	-0.110
-440.792	-15.305	0.208	0.135
-439.778	275.389	-0.116	0.207
-438.763	-122.057	0.122	-0.020
-437.749	-51.534	0.194	0.092
-436.734	37.684	-0.076	-0.068
-435.719	-45.456	-0.223	-0.112
-434.705	-200.000	0.002	0.011
-433.690	-28.036	-0.189	0.110
-432.676	170.426	-0.180	-0.260
-431.661	-122.998	-0.493	0.080
-430.646	800.000	0.042	0.141
-429.632	555.385	0.096	0.233
-428.617	-11.414	0.193	-0.129
-427.603	-48.497	-0.133	-0.064
-426.588	800.000	-0.075	0.224
-425.573	87.834	-0.123	-0.138
-424.559	800.000	-0.009	0.033
-423.544	308.920	0.053	0.099
-422.530	-4.975	-0.321	-0.223
-421.515	-105.359	-0.133	-0.031
-420.500	-200.000	0.018	0.291
-419.486	-156.981	-0.054	0.003
-418.471	-200.000	-0.015	0.104
-417.457	199.976	0.060	0.093
-416.442	-200.000	0.004	0.035
-415.428	-200.000	-0.019	-0.202
-414.413	-17.060	-0.201	0.128
-413.398	-93.192	-0.030	-0.008
-412.384	-134.690	0.025	-0.003
-411.369	-82.692	-0.140	0.046
-410.355	45.280	0.120	-0.112
-409.340	800.000	0.038	0.130
-408.325	26.414	-0.177	-0.150
-407.311	251.624	0.083	-0.143
-406.296	-200.000	-0.069	-0.335
-405.282	-144.309	-0.195	0.018
-404.267	-171.013	0.471	0.016
-403.252	256.449	-0.215	0.373
-402.238	800.000	0.166	-0.466
-401.223	-200.000	-0.046	-0.306
-400.209	-8.117	0.098	0.066
-399.194	-63.454	-0.073	-0.030
-398.179	157.639	-0.096	-0.134
-397.165	-70.130	-0.188	0.072
-396.150	800.000	-0.091	0.294
-395.136	137.599	0.040	-0.054
-394.121	-200.000	-0.030	-0.155
-393.106	-26.221	0.278	-0.165
-392.092	-54.487	-0.035	-0.016
-391.077	-71.189	0.057	0.021
-390.063	11.106	0.113	-0.087
-389.048	354.433	-0.076	-0.152
-388.033	105.281	-0.010	0.012
-387.019	-58.539	0.298	0.131
-386.004	-90.549	0.216	0.063
-384.990	106.847	-0.177	0.213
-383.975	82.022	0.286	-0.313
-382.960	410.404	-0.181	0.387
-381.946	800.000	0.020	0.078
-380.931	-140.848	-0.282	0.029
-379.917	35.379	-0.227	0.201
-378.902	-98.190	-0.285	0.074
-377.888	-200.000	0.021	0.227
-376.873	40.545	-0.068	0.062
-375.858	-104.874	-0.267	0.062
-374.844	-200.000	-0.035	0.180
-373.829	-146.224	-0.241	0.021
-372.815	14.720	-0.226	-0.178
-371.800	-138.654	-0.188	-0.021
-370.785	-120.597	-0.199	-0.034
-369.771	106.774	0.078	-0.094
-368.756	800.000	-0.060	-0.241
-367.742	-143.371	-0.493	-0.048
-366.727	-26.356	0.232	0.138
-365.712	-200.000	0.009	-0.085
-364.698	55.293	0.166	-0.162
-363.683	11.439	-0.141	0.109
-362.669	-149.759	0.119	0.009
-361.654	178.393	-0.054	-0.079
-360.639	-200.000	-0.033	0.153
-359.625	120.353	-0.044	0.055
-358.610	-97.640	-0.103	-0.027
-357.596	-147.340	0.205	-0.018
-356.581	800.000	0.040	0.128
-355.566	449.316	0.051	0.113
-354.552	-72.240	-0.057	-0.021
-353.537	109.791	0.180	-0.217
-352.523	-200.000	0.018	0.285
-351.508	185.651	-0.066	0.098
-350.493	798.861	0.064	0.177
-349.479	-6.214	0.099	-0.068
-348.464	-139.547	0.147	0.016
-347.450	194.858	-0.214	0.327
-346.435	-200.000	0.029	0.161
-345.420	265.205	-0.104	-0.183
-344.406	-36.438	0.228	0.124
-343.391	-111.922	-0.334	-0.068
-342.377	800.000	-0.046	0.180
-341.362	-28.619	-0.085	-0.049
-340.348	-136.084	0.121	0.014
-339.333	-60.770	-0.384	0.164
-338.318	214.223	0.171	-0.273
-337.304	33.328	-0.319	0.279
-336.289	-200.000	-0.006	0.026
-335.275	-36.641	0.148	0.080
-334.260	328.479	0.035	0.068
-333.245	-14.804	-0.081	0.052
-332.231	-8.313	0.114	0.077
-331.216	82.292	-0.150	0.164
-330.202	598.884	0.080	0.201
-329.187	800.000	0.048	0.163
-328.172	-8.594	-0.208	-0.141
-327.158	-154.392	0.064	-0.004
-326.143	412.749	0.028	-0.059
-325.129	31.268	0.165	0.143
-324.114	192.644	-0.202	0.308
-323.099	130.382	0.053	0.068
-322.085	279.761	0.123	0.221
-321.070	-21.687	0.144	-0.088
-320.056	268.940	0.073	-0.129
-319.041	-71.284	-0.316	0.119
-318.026	-55.446	0.293	-0.132
-317.012	-42.974	-0.466	-0.238
-315.997	81.274	0.093	0.101
-314.983	-57.810	0.292	-0.129
-313.968	-200.000	0.017	0.220
-312.953	44.415	0.137	-0.127
-311.939	15.964	0.207	-0.164
-310.924	774.066	0.021	0.057
-309.910	12.801	0.183	0.142
-308.895	-60.364	0.295	0.126
-307.880	27.396	0.070	0.059
-306.866	-200.000	-0.016	-0.166
-305.851	-137.870	0.062	-0.007
-304.837	136.257	0.137	-0.179
-303.822	-118.400	0.207	0.037
-302.807	508.393	0.080	-0.187
-301.793	-86.814	0.254	0.078
-300.778	-200.000	0.051	0.469
-299.764	-200.000	0.003	0.067
-298.749	-200.000	0.024	0.146
-297.735	108.920	0.181	0.217
-296.720	7.138	0.291	0.218
-295.705	-200.000	0.011	0.187
-294.691	40.719	0.137	-0.124
-293.676	191.675	-0.181	-0.274
-292.662	800.000	0.045	0.181
-291.647	407.936	0.100	0.213
-290.632	-200.000	-0.015	0.253
-289.618	800.000	-0.086	-0.368
-288.603	159.479	0.011	0.016
-287.589	102.148	-0.145	0.170
-286.574	-200.000	-0.060	0.294
-285.559	-74.533	0.115	-0.042
-284.545	225.850	-0.090	-0.146
-283.530	-66.585	0.313	-0.125
-282.516	39.855	-0.196	-0.177
-281.501	-200.000	-0.046	0.214
-280.486	800.000	0.060	-0.192
-279.472	402.917	0.103	0.218
-278.457	-200.000	0.050	0.344
-277.443	800.000	-0.063	-0.219
-276.428	8.153	0.122	0.092
-275.413	-93.120	0.264	0.074
-274.399	54.962	-0.032	-0.031
-273.384	-200.000	0.006	-0.241
-272.370	-76.421	-0.168	0.060
-271.355	436.399	-0.079	0.174
-270.340	-22.273	0.169	0.103
-269.326	-200.000	-0.295	-0.001
-268.311	530.990	0.116	0.276
-267.297	292.103	-0.060	0.109
-266.282	472.353	-0.025	0.056
-265.267	-74.103	-0.298	0.108
-264.253	-78.424	-0.196	0.068
-263.238	-127.199	0.321	-0.047
-262.224	-13.032	0.080	-0.053
-261.209	-160.216	0.166	0.009
-260.195	-200.000	-0.061	-0.290
-259.180	-11.082	0.351	0.233
-258.165	22.886	-0.215	-0.177
-257.151	158.921	0.180	-0.251
-256.136	-70.652	-0.606	-0.230
-255.122	-139.063	0.066	0.007
-254.107	-131.995	0.219	-0.029
-253.092	92.203	-0.302	-0.342
-252.078	-168.731	0.250	0.010
-251.063	-145.628	0.486	-0.044
-250.049	26.931	-0.300	0.253
-249.034	-47.411	-0.174	0.085
-248.019	800.000	0.045	-0.126
-247.005	-200.000	-0.024	-0.533
-245.990	-37.503	-0.143	-0.077
-244.976	35.206	0.128	-0.112
-243.961	-109.842	0.208	-0.044
-242.946	-197.921	-0.305	-0.002
-241.932	34.910	-0.021	-0.019
-240.917	-101.142	-0.349	-0.086
-239.903	109.213	-0.130	-0.157
-238.888	-101.849	-0.171	-0.041
-237.873	800.000	0.068	-0.208
-236.859	800.000	-0.036	-0.139
-235.844	356.945	-0.075	0.151
-234.830	101.864	0.199	0.233
-233.815	-56.984	0.178	-0.079
-232.800	-200.000	0.001	-0.062
-231.786	149.217	-0.187	0.254
-230.771	-180.845	-0.144	0.003
-229.757	-167.221	-0.249	0.010
-228.742	-48.533	-0.274	-0.132
-227.727	201.329	-0.015	-0.023
-226.713	-44.024	-0.213	0.107
-225.698	-112.065	-0.163	-0.033
-224.684	325.530	0.203	-0.390
-223.669	-28.769	-0.057	0.033
-222.655	800.000	0.068	0.287
-221.640	-155.610	0.168	-0.011
-220.625	-200.000	0.036	-0.266
-219.611	-184.187	0.223	0.004
-218.596	8.863	0.172	0.130
-217.582	-117.784	0.159	-0.029
-216.567	-200.000	-0.026	-0.136
-215.552	326.065	-0.090	0.173
-214.538	-200.000	-0.042	0.287
-213.523	-63.472	-0.111	0.046
-212.509	800.000	-0.125	-0.379
-211.494	-7.816	-0.102	0.069
-210.479	-86.330	0.198	-0.061
-209.465	-12.280	-0.174	-0.114
-208.450	-116.102	-0.212	-0.040
-207.436	800.000	-0.024	0.070
-206.421	59.250	0.270	-0.266
-205.406	-147.777	0.050	0.004
-204.392	-116.834	0.204	0.038
-203.377	337.563	0.054	-0.105
-202.363	325.493	-0.078	0.149
-201.348	118.877	0.113	-0.140
-200.333	319.258	0.125	-0.237
-199.319	-52.322	0.359	-0.166
-198.304	39.899	-0.124	0.112
-197.290	236.637	-0.126	0.208
-196.275	-200.000	0.004	-0.096
-195.260	-162.714	0.324	-0.016
-194.246	-200.000	0.025	-0.279
-193.231	-114.568	-0.472	0.091
-192.217	-27.497	-0.221	0.129
-191.202	-22.855	0.229	-0.139
-190.187	-53.612	0.156	0.071
-189.173	9.889	0.124	0.094
-188.158	-37.333	0.162	-0.087
-187.144	-200.000	-0.000	-0.164
-186.129	-36.371	-0.061	0.033
-185.114	-21.271	-0.217	0.133
-184.100	257.215	-0.065	-0.112
-183.085	-1.945	0.080	0.056
-182.071	-64.277	0.066	-0.027
-181.056	237.226	-0.155	0.258
-180.042	800.000	0.016	-0.056
-179.027	800.000	0.037	-0.117
-178.012	373.245	-0.048	0.097
-176.998	-200.000	-0.038	0.249
-175.983	59.783	0.204	0.201
-174.969	-200.000	0.011	0.166
-173.954	-200.000	-0.024	0.319
-172.939	800.000	-0.133	-0.435
-171.925	-27.820	0.227	-0.132
-170.910	-14.868	-0.028	0.018
-169.896	-200.000	-0.043	0.311
-168.881	123.723	0.119	-0.149
-167.866	275.269	0.079	-0.140
-166.852	-200.000	-0.042	0.206
-165.837	469.791	0.080	0.179
-164.823	213.908	0.023	0.036
-163.808	-2.070	-0.067	-0.047
-162.793	-77.586	0.281	0.097
-161.779	6.295	0.219	-0.163
-160.764	-200.000	-0.092	-0.474
-159.750	-142.312	0.326	0.032
-158.735	93.208	0.038	0.042
-157.720	-200.000	-0.032	0.236
-156.706	-38.862	-0.081	0.043
-155.691	-139.550	0.286	0.031
-154.677	-138.198	-0.190	-0.021
-153.662	-200.000	0.047	0.278
-152.647	-72.404	-0.374	0.138
-151.633	-200.000	0.004	0.133
-150.618	-200.000	0.008	0.090
-149.604	-20.073	-0.121	-0.075
-148.589	-86.899	0.213	-0.065
-147.574	47.553	0.217	-0.202
-146.560	8.620	-0.142	-0.107
-145.545	-164.743	-0.103	-0.005
-144.531	28.207	0.027	0.023
-143.516	-18.144	0.140	0.088
-142.502	62.095	-0.014	0.014
-141.487	356.886	0.167	0.332
-140.472	9.422	0.272	-0.206
-139.458	184.980	-0.062	0.093
-138.443	-1.305	-0.042	0.030
-137.429	-181.191	0.302	-0.006
-136.414	-200.000	-0.032	-0.214
-135.399	-200.000	0.076	-0.352
-134.385	61.582	-0.092	0.092
-133.370	-8.411	0.161	0.108
-132.356	160.653	0.164	-0.229
-131.341	-88.696	0.250	-0.074
-130.326	800.000	-0.035	-0.113
-129.312	-162.220	0.073	0.004
-128.297	-200.000	-0.019	-0.216
-127.283	743.655	-0.095	0.254
-126.268	800.000	0.053	0.228
-125.253	289.072	0.041	-0.074
-124.239	-108.013	-0.136	-0.030
-123.224	-58.811	-0.204	-0.088
-122.210	-79.653	-0.105	-0.035
