DTS Sentinel unit serial number:	SN413079Multiplexer serial number:	ORYXHardware model number:	OX4-SRSoftware version number:	ORYX F/W v4.00 Oryx Data Collector v3.7.2.0data status	okinstallation	princeton_trtdifferential loss correction	single-endedforward channel	channel 1reverse channel	N/Adate	2019/09/12time	00:40:11forward acquisition time	60.00reverse acquisition time	0.00gamma	496.2192k internal	0.2319k external	0.2319temperature offset calibration	1.0073default loss term (dB/km)	0.3790temperature slope calibration	1.0000multiplexer offset coefficient	1.0000multiplexer slope coefficient	1.0000fibre end	0.00T internal ref (°C)	33.31T ext. ref 1 (°C)	2.07T ext. ref 2 (°C)	27.98length (m)	temperature (°C)	Stokes	anti-Stokes-747.200	-89.377	-0.148	-0.044
-746.185	-61.636	0.238	0.101
-745.171	-66.839	-0.308	-0.123
-744.156	-78.652	0.049	0.017
-743.142	708.438	-0.049	-0.132
-742.127	-16.917	-0.280	0.179
-741.112	34.944	-0.058	-0.052
-740.098	800.000	-0.087	0.352
-739.083	246.731	-0.039	0.067
-738.069	120.978	-0.249	-0.313
-737.054	463.997	-0.091	0.206
-736.039	299.688	0.111	-0.206
-735.025	98.858	0.136	0.158
-734.010	800.000	0.081	-0.344
-732.996	800.000	-0.047	-0.174
-731.981	-149.288	-0.112	-0.009
-730.966	-76.723	-0.208	0.074
-729.952	571.014	0.086	-0.213
-728.937	-67.307	-0.192	0.076
-727.923	264.384	0.033	-0.058
-726.908	800.000	-0.125	-0.394
-725.894	10.858	-0.260	-0.201
-724.879	162.210	-0.104	-0.147
-723.864	-159.206	-0.169	-0.010
-722.850	538.327	-0.060	-0.143
-721.835	138.259	-0.108	0.143
-720.821	81.856	-0.083	0.090
-719.806	-61.030	0.314	0.134
-718.791	295.201	0.119	-0.221
-717.777	-102.656	-0.141	-0.034
-716.762	-161.790	-0.424	-0.022
-715.748	-200.000	-0.040	-0.244
-714.733	-148.691	-0.286	0.023
-713.718	736.314	0.014	0.038
-712.704	800.000	0.034	0.137
-711.689	-138.595	0.465	-0.051
-710.675	-200.000	0.032	0.280
-709.660	306.635	0.119	-0.224
-708.645	259.943	-0.140	-0.245
-707.631	36.785	-0.237	-0.212
-706.616	191.670	-0.245	-0.373
-705.602	-92.646	0.255	0.072
-704.587	-47.946	-0.086	-0.042
-703.572	-36.278	0.104	0.057
-702.558	657.246	0.096	0.248
-701.543	-14.530	0.443	-0.288
-700.529	800.000	0.179	-0.543
-699.514	800.000	-0.020	0.086
-698.499	-39.651	0.115	0.061
-697.485	-86.015	0.075	-0.024
-696.470	-200.000	0.082	0.448
-695.456	800.000	0.074	-0.288
-694.441	721.985	0.121	-0.325
-693.426	148.774	0.065	-0.089
-692.412	-200.000	-0.020	-0.334
-691.397	42.200	0.196	-0.180
-690.383	-78.947	-0.361	0.124
-689.368	657.272	0.056	0.145
-688.354	-200.000	-0.032	0.170
-687.339	628.306	0.068	0.174
-686.324	-104.800	-0.300	0.070
-685.310	-200.000	-0.024	0.239
-684.295	196.901	-0.223	-0.343
-683.281	-56.057	-0.310	-0.139
-682.266	-90.640	-0.320	-0.093
-681.251	222.816	-0.069	-0.113
-680.237	215.810	0.104	-0.166
-679.222	52.681	0.023	0.022
-678.208	645.189	-0.083	-0.213
-677.193	229.811	0.064	-0.106
-676.178	265.986	0.060	-0.105
-675.164	-190.905	-0.104	0.001
-674.149	-200.000	0.006	-0.120
-673.135	-200.000	0.031	-0.255
-672.120	-123.475	0.326	-0.052
-671.105	-200.000	0.027	0.275
-670.091	-22.292	-0.367	-0.224
-669.076	149.055	0.036	-0.049
-668.062	800.000	0.084	-0.272
-667.047	1.501	0.046	0.034
-666.032	-200.000	-0.023	-0.145
-665.018	-34.537	0.376	0.208
-664.003	-32.109	-0.467	-0.263
-662.989	-200.000	-0.006	-0.301
-661.974	-120.880	-0.267	-0.045
-660.959	-113.215	0.339	0.067
-659.945	-200.000	0.024	-0.188
-658.930	459.784	0.064	0.143
-657.916	168.205	0.090	-0.129
-656.901	-21.033	-0.126	-0.078
-655.886	-113.879	-0.224	-0.044
-654.872	201.344	-0.061	-0.095
-653.857	390.987	-0.091	-0.190
-652.843	535.912	-0.165	-0.394
-651.828	334.628	-0.083	-0.161
-650.814	-200.000	-0.031	0.437
-649.799	-56.050	-0.035	0.016
-648.784	-55.106	0.095	0.043
-647.770	-101.543	-0.380	0.093
-646.755	-166.647	0.378	-0.016
-645.741	17.374	-0.156	-0.125
-644.726	800.000	0.049	0.146
-643.711	800.000	0.029	-0.095
-642.697	54.235	-0.135	0.131
-641.682	-109.390	0.096	0.020
-640.668	-200.000	-0.032	0.212
-639.653	-127.502	0.155	-0.023
-638.638	18.735	0.356	0.287
-637.624	51.309	-0.061	-0.058
-636.609	112.242	0.062	-0.075
-635.595	108.356	0.085	0.102
-634.580	-67.176	-0.337	0.134
-633.565	-71.000	-0.206	-0.078
-632.551	48.469	0.083	0.078
-631.536	18.273	0.094	-0.075
-630.522	800.000	-0.009	-0.026
-629.507	387.105	0.070	-0.145
-628.492	-200.000	0.011	0.146
-627.478	-8.894	0.242	-0.163
-626.463	197.475	-0.139	0.214
-625.449	113.398	-0.313	-0.382
-624.434	-120.584	-0.283	-0.048
-623.419	-108.227	-0.111	-0.024
-622.405	800.000	0.042	-0.184
-621.390	5.245	-0.067	0.050
-620.376	-119.557	-0.030	-0.005
-619.361	-48.782	0.149	0.072
-618.346	-100.592	0.375	0.093
-617.332	-200.000	-0.061	0.438
-616.317	47.785	-0.082	-0.077
-615.303	334.831	0.124	-0.242
-614.288	-52.542	0.143	0.067
-613.273	800.000	0.104	0.322
-612.259	800.000	0.008	0.032
-611.244	45.748	-0.196	-0.182
-610.230	47.413	-0.135	-0.126
-609.215	187.879	0.041	-0.061
-608.201	-71.406	-0.411	0.155
-607.186	-56.080	-0.134	0.060
-606.171	-122.820	-0.287	-0.047
-605.157	-177.844	-0.303	0.007
-604.142	-200.000	0.035	-0.256
-603.128	-35.076	0.268	-0.147
-602.113	800.000	-0.072	0.228
-601.098	187.015	-0.181	-0.272
-600.084	-34.155	0.124	-0.069
-599.069	32.946	-0.241	0.210
-598.055	-40.491	0.119	0.062
-597.040	-43.757	0.191	0.097
-596.025	-162.811	0.171	-0.008
-595.011	-53.294	-0.129	0.059
-593.996	-200.000	-0.047	-0.536
-592.982	-130.659	-0.283	0.038
-591.967	800.000	0.014	-0.050
-590.952	800.000	-0.034	0.111
-589.938	48.720	0.079	-0.075
-588.923	-200.000	-0.045	-0.254
-587.909	800.000	0.045	-0.136
-586.894	-144.845	-0.318	0.029
-585.879	272.855	-0.069	0.123
-584.865	35.659	0.126	0.111
-583.850	-41.961	0.222	0.114
-582.836	-6.420	-0.171	-0.117
-581.821	251.127	-0.032	-0.055
-580.806	-20.918	0.151	-0.093
-579.792	157.851	-0.085	-0.118
-578.777	-200.000	0.000	-0.103
-577.763	22.338	0.169	-0.139
-576.748	34.730	-0.043	-0.038
-575.733	-156.438	0.219	0.014
-574.719	37.302	0.098	-0.088
-573.704	76.598	0.042	0.044
-572.690	57.622	0.214	-0.210
-571.675	-153.601	0.277	-0.019
-570.661	-46.935	0.278	-0.136
-569.646	-79.205	-0.408	-0.139
-568.631	445.538	0.127	0.279
-567.617	437.417	-0.101	0.222
-566.602	328.626	-0.203	-0.391
-565.588	-200.000	-0.065	-0.316
-564.573	-200.000	0.043	-0.396
-563.558	-7.763	-0.313	-0.212
-562.544	-21.050	0.006	-0.004
-561.529	-101.777	0.296	-0.072
-560.515	-54.057	-0.194	-0.088
-559.500	-102.711	-0.381	-0.091
-558.485	107.925	0.145	0.173
-557.471	-200.000	-0.046	0.213
-556.456	390.346	0.121	0.252
-555.442	-88.179	0.261	-0.079
-554.427	800.000	-0.043	0.164
-553.412	-144.800	-0.191	-0.018
-552.398	63.618	0.229	-0.231
-551.383	-200.000	0.027	-0.475
-550.369	-42.273	-0.196	0.100
-549.354	-41.897	0.092	-0.047
-548.339	28.926	0.143	-0.122
-547.325	-98.259	0.076	0.020
-546.310	-200.000	0.032	-0.153
-545.296	379.738	-0.106	-0.218
-544.281	-126.376	-0.062	-0.009
-543.266	548.386	0.114	0.274
-542.252	-158.518	-0.261	-0.015
-541.237	92.575	0.063	0.072
-540.223	-118.149	-0.336	0.060
-539.208	-14.135	0.124	-0.081
-538.193	800.000	0.092	-0.302
-537.179	-96.529	-0.105	0.028
-536.164	-54.931	-0.166	-0.075
-535.150	-172.631	0.266	0.008
-534.135	-107.460	-0.400	0.088
-533.121	800.000	-0.067	-0.282
-532.106	-200.000	0.016	-0.094
-531.091	18.046	0.066	-0.053
-530.077	-51.584	0.072	0.034
-529.062	481.984	-0.058	0.132
-528.048	-77.710	0.160	-0.055
-527.033	-53.720	-0.299	-0.137
-526.018	-155.134	0.190	-0.012
-525.004	800.000	-0.096	-0.360
-523.989	49.557	-0.320	-0.302
-522.975	-200.000	0.017	0.093
-521.960	800.000	-0.024	-0.094
-520.945	-37.421	-0.548	-0.293
-519.931	306.964	-0.135	-0.251
-518.916	-200.000	-0.022	-0.144
-517.902	-97.337	-0.429	0.112
-516.887	-55.272	0.239	0.108
-515.872	-140.633	0.083	-0.009
-514.858	800.000	0.050	0.160
-513.843	526.634	0.172	0.407
-512.829	-97.496	0.256	0.067
-511.814	132.269	0.328	0.424
-510.799	-36.428	-0.134	0.072
-509.785	-200.000	-0.027	0.128
-508.770	-59.380	-0.179	-0.077
-507.756	-167.023	-0.340	-0.014
-506.741	231.655	-0.070	-0.115
-505.726	195.466	0.120	0.183
-504.712	-200.000	-0.009	-0.359
-503.697	800.000	0.098	0.290
-502.683	344.061	0.080	0.157
-501.668	-103.381	-0.197	-0.046
-500.653	800.000	-0.015	-0.047
-499.639	-87.588	-0.213	0.064
-498.624	-200.000	0.175	0.000
-497.610	800.000	-0.048	-0.155
-496.595	-200.000	0.040	-0.345
-495.581	151.565	0.087	-0.119
-494.566	192.726	0.108	-0.163
-493.551	-200.000	-0.023	-0.131
-492.537	305.258	0.017	0.031
-491.522	447.335	-0.073	-0.161
-490.508	332.715	-0.119	-0.231
-489.493	22.272	-0.123	0.101
-488.478	419.624	-0.031	-0.066
-487.464	-200.000	0.057	-0.339
-486.449	-70.916	-0.404	0.152
-485.435	-200.000	-0.019	-0.161
-484.420	58.598	-0.049	0.048
-483.405	-139.358	0.369	-0.040
-482.391	-3.396	-0.194	0.135
-481.376	-65.549	-0.570	0.229
-480.362	306.569	-0.253	0.471
-479.347	255.907	-0.088	0.152
-478.332	800.000	-0.041	-0.164
-477.318	110.967	0.162	-0.196
-476.303	-18.220	-0.098	-0.062
-475.289	800.000	0.048	-0.192
-474.274	800.000	0.040	-0.136
-473.259	-75.139	-0.187	-0.067
-472.245	-200.000	0.046	0.283
-471.230	-200.000	0.011	-0.064
-470.216	-122.196	-0.311	-0.051
-469.201	-81.362	0.328	-0.108
-468.186	-49.149	-0.349	-0.167
-467.172	177.599	-0.154	0.225
-466.157	82.975	0.054	0.059
-465.143	-200.000	0.035	-0.349
-464.128	800.000	0.065	-0.199
-463.113	5.360	0.084	-0.062
-462.099	-136.054	0.137	0.016
-461.084	800.000	0.048	0.141
-460.070	-118.381	-0.444	0.079
-459.055	227.973	0.038	-0.062
-458.040	-13.816	0.144	-0.093
-457.026	106.149	-0.251	0.298
-456.011	-120.485	0.366	0.062
-454.997	-12.714	0.108	0.071
-453.982	-128.755	0.311	0.044
-452.968	65.819	0.128	0.130
-451.953	-89.058	0.167	0.050
-450.938	800.000	-0.063	-0.180
-449.924	800.000	-0.011	0.032
-448.909	-200.000	-0.006	-0.367
-447.895	59.316	-0.272	0.268
-446.880	3.866	0.207	0.151
-445.865	-200.000	0.181	0.000
-444.851	-99.061	0.299	-0.076
-443.836	-200.000	0.030	0.177
-442.822	-9.493	-0.150	0.100
-441.807	-29.585	-0.060	-0.034
-440.792	-200.000	0.010	0.408
-439.778	-200.000	0.010	0.085
-438.763	-4.171	-0.182	0.126
-437.749	-200.000	-0.009	-0.067
-436.734	286.928	-0.061	-0.110
-435.719	215.200	-0.113	-0.180
-434.705	-110.336	-0.190	0.040
-433.690	214.120	0.052	0.083
-432.676	206.818	0.012	0.019
-431.661	130.243	0.102	0.130
-430.646	-130.835	0.416	0.056
-429.632	129.783	-0.402	-0.513
-428.617	-200.000	0.009	-0.160
-427.603	-43.645	0.156	-0.079
-426.588	111.226	0.181	0.217
-425.573	5.915	-0.178	-0.131
-424.559	38.992	0.033	0.030
-423.544	-156.066	0.161	-0.010
-422.530	-95.505	-0.077	-0.021
-421.515	-188.001	-0.063	0.001
-420.500	-200.000	0.002	-0.176
-419.486	-175.188	-0.244	0.007
-418.471	-200.000	-0.002	0.132
-417.457	-84.059	-0.432	-0.137
-416.442	-136.113	-0.261	-0.031
-415.428	-108.709	-0.227	0.048
-414.413	328.955	0.074	0.143
-413.398	10.440	-0.204	0.155
-412.384	-200.000	-0.014	0.204
-411.369	800.000	0.101	0.350
-410.355	-138.799	-0.122	-0.013
-409.340	-60.394	0.100	-0.042
-408.325	358.463	-0.029	0.058
-407.311	572.890	0.026	0.064
-406.296	-62.282	0.291	0.121
-405.282	46.914	-0.024	0.022
-404.267	-71.547	0.243	-0.091
-403.252	166.189	-0.239	-0.338
-402.238	-33.687	-0.198	-0.109
-401.223	8.270	0.316	-0.237
-400.209	800.000	0.049	-0.212
-399.194	498.104	-0.124	-0.285
-398.179	180.419	-0.051	0.075
-397.165	453.264	0.067	-0.147
-396.150	191.979	0.119	0.179
-395.136	101.145	-0.076	-0.088
-394.121	67.386	0.069	-0.070
-393.106	76.538	0.196	0.207
-392.092	-105.291	-0.136	-0.031
-391.077	800.000	0.027	0.085
-390.063	232.271	0.115	0.188
-389.048	321.066	-0.080	0.151
-388.033	-186.561	-0.149	0.002
-387.019	629.336	0.065	0.164
-386.004	93.866	0.090	-0.102
-384.990	-33.125	-0.082	-0.045
-383.975	-57.478	0.276	-0.121
-382.960	-19.782	-0.031	0.019
-381.946	-113.585	0.091	-0.018
-380.931	-56.068	-0.231	0.103
-379.917	-200.000	-0.031	0.254
-378.902	-5.108	0.223	0.153
-377.888	39.938	-0.119	-0.107
-376.873	800.000	0.044	-0.186
-375.858	-95.802	-0.269	-0.072
-374.844	-200.000	-0.008	-0.087
-373.829	30.496	0.263	0.224
-372.815	-95.259	-0.070	0.019
-371.800	-76.133	0.237	0.084
-370.785	-89.003	-0.126	-0.037
-369.771	-200.000	-0.014	0.136
-368.756	-200.000	-0.001	-0.290
-367.742	99.438	0.151	-0.174
-366.727	475.928	-0.090	-0.203
-365.712	-50.789	0.114	-0.053
-364.698	32.298	-0.319	0.274
-363.683	800.000	-0.072	0.273
-362.669	-127.424	0.377	0.055
-361.654	-200.000	-0.015	-0.089
-360.639	-127.595	-0.194	0.028
-359.625	-200.000	-0.032	0.435
-358.610	-70.453	-0.345	-0.130
-357.596	-55.272	0.181	-0.081
-356.581	10.138	-0.074	0.056
-355.566	-200.000	0.032	-0.138
-354.552	-85.704	0.180	-0.056
-353.537	668.123	-0.084	-0.217
-352.523	-114.590	0.232	0.044
-351.508	-24.882	-0.277	0.164
-350.493	673.205	0.048	-0.123
-349.479	-74.312	-0.276	-0.099
-348.464	18.789	-0.141	0.112
-347.450	-75.453	0.132	-0.047
-346.435	80.754	0.101	-0.109
-345.420	-200.000	0.044	-0.202
-344.406	24.506	0.159	0.131
-343.391	410.693	-0.101	-0.214
-342.377	-122.667	-0.510	-0.082
-341.362	-0.389	-0.360	-0.255
-340.348	-126.108	-0.235	-0.035
-339.333	1.534	-0.029	0.021
-338.318	-55.763	-0.086	-0.038
-337.304	-123.055	0.157	-0.025
-336.289	83.724	-0.141	-0.153
-335.275	137.989	-0.191	0.250
-334.260	-91.270	0.235	0.067
-333.245	-200.000	0.010	0.065
-332.231	64.843	0.229	0.231
-331.216	-80.759	0.230	-0.076
-330.202	-200.000	0.044	0.202
-329.187	-179.911	-0.410	-0.009
-328.172	-94.733	-0.102	0.028
-327.158	43.556	-0.217	0.198
-326.143	305.280	-0.151	0.280
-325.129	23.952	0.050	0.041
-324.114	-113.627	0.305	0.059
-323.099	83.981	0.106	0.115
-322.085	-5.706	-0.032	-0.022
-321.070	-78.288	-0.070	-0.024
-320.056	-48.852	0.209	0.100
-319.041	752.448	0.071	-0.192
-318.026	-3.687	-0.219	-0.151
-317.012	287.675	-0.176	0.316
-315.997	-143.183	-0.216	0.021
-314.983	800.000	-0.038	-0.156
-313.968	144.361	-0.115	0.153
-312.953	-107.323	-0.219	-0.048
-311.939	97.921	0.221	0.252
-310.924	-200.000	-0.066	-0.288
-309.910	-200.000	-0.054	0.321
-308.895	85.281	0.220	-0.240
-307.880	-37.717	0.397	0.210
-306.866	-5.415	-0.193	-0.132
-305.851	-200.000	-0.054	0.289
-304.837	94.479	0.094	-0.107
-303.822	800.000	-0.063	0.179
-302.807	299.859	-0.114	0.208
-301.793	-109.440	-0.214	-0.045
-300.778	-200.000	-0.041	-0.358
-299.764	-141.396	-0.418	0.042
-298.749	11.967	-0.233	0.178
-297.735	-112.231	0.216	0.043
-296.720	-31.572	-0.180	-0.101
-295.705	-135.670	0.184	0.022
-294.691	800.000	-0.033	0.108
-293.676	-200.000	-0.014	0.186
-292.662	145.811	0.235	0.314
-291.647	561.630	0.092	0.221
-290.632	137.160	0.198	0.257
-289.618	-106.118	0.032	-0.007
-288.603	8.532	0.057	0.042
-287.589	-44.351	0.196	-0.098
-286.574	-109.156	0.160	-0.034
-285.559	72.326	0.044	-0.046
-284.545	-200.000	-0.017	-0.197
-283.530	-200.000	-0.044	0.217
-282.516	100.766	0.114	0.132
-281.501	-10.848	-0.088	-0.058
-280.486	-200.000	0.066	-0.381
-279.472	767.123	0.055	0.149
-278.457	-200.000	0.020	0.106
-277.443	2.947	0.049	-0.036
-276.428	54.669	-0.115	0.110
-275.413	800.000	0.063	0.244
-274.399	49.686	0.155	0.145
-273.384	-200.000	0.027	-0.241
-272.370	-200.000	0.006	0.056
-271.355	203.538	-0.138	0.212
-270.340	-70.323	0.148	-0.056
-269.326	-200.000	-0.048	0.309
-268.311	439.984	-0.099	-0.215
-267.297	-116.584	0.052	-0.010
-266.282	-93.320	0.194	0.054
-265.267	21.307	-0.132	0.107
-264.253	63.586	0.067	-0.067
-263.238	-152.830	0.143	-0.010
-262.224	-77.236	0.130	-0.045
-261.209	-57.980	-0.058	0.025
-260.195	-132.987	-0.144	0.018
-259.180	800.000	-0.113	-0.335
-258.165	-200.000	-0.020	0.233
-257.151	-200.000	0.007	0.096
-256.136	-120.833	0.169	-0.028
-255.122	131.549	0.211	-0.270
-254.107	439.734	0.089	-0.194
-253.092	96.998	0.161	0.183
-252.078	-163.370	0.068	-0.003
-251.063	121.017	0.053	-0.066
-250.049	-14.063	0.314	0.201
-249.034	-200.000	-0.031	-0.169
-248.019	-178.270	0.282	0.007
-247.005	499.695	0.250	-0.571
-245.990	673.827	-0.073	-0.189
-244.976	84.429	0.112	-0.122
-243.961	-38.151	-0.244	-0.128
-242.946	59.565	0.078	-0.077
-241.932	800.000	0.035	0.105
-240.917	-152.989	0.445	0.031
-239.903	24.872	-0.198	0.163
-238.888	234.946	-0.130	-0.213
-237.873	139.906	0.204	-0.267
-236.859	44.744	0.148	0.135
-235.844	488.280	0.144	0.326
-234.830	20.654	-0.118	0.095
-233.815	117.973	-0.229	0.279
-232.800	800.000	0.122	0.375
-231.786	345.288	-0.034	0.067
-230.771	800.000	-0.026	-0.082
-229.757	-70.168	0.182	0.069
-228.742	-200.000	-0.003	-0.557
-227.727	105.868	0.142	-0.167
-226.713	278.098	0.103	-0.182
-225.698	-200.000	0.003	0.115
-224.684	-162.096	0.264	-0.013
-223.669	224.277	-0.097	0.156
-222.655	-60.089	0.164	0.069
-221.640	11.492	0.182	0.138
-220.625	-106.578	0.060	0.013
-219.611	800.000	-0.039	-0.136
-218.596	45.261	-0.121	-0.111
-217.582	40.780	0.115	0.103
-216.567	-20.033	-0.057	-0.035
-215.552	-79.525	-0.069	0.023
-214.538	51.285	-0.139	-0.130
-213.523	-98.135	0.259	-0.066
-212.509	-200.000	0.053	0.357
-211.494	-135.200	-0.200	0.024
-210.479	-117.803	0.200	-0.036
-209.465	-188.256	0.151	-0.002
-208.450	114.987	0.203	0.245
-207.436	35.991	-0.154	0.134
-206.421	-200.000	-0.005	0.231
-205.406	-143.743	-0.157	0.015
-204.392	191.645	0.290	0.433
-203.377	-200.000	-0.002	0.172
-202.363	415.337	-0.101	-0.214
-201.348	-200.000	-0.013	0.280
-200.333	716.616	-0.118	0.310
-199.319	-44.514	0.279	-0.138
-198.304	552.588	0.033	0.080
-197.290	407.165	-0.122	0.256
-196.275	800.000	0.145	-0.417
-195.260	20.056	-0.277	-0.221
-194.246	-30.672	0.150	-0.084
-193.231	-200.000	0.002	0.202
-192.217	-119.865	0.163	-0.028
-191.202	800.000	0.049	0.176
-190.187	582.843	-0.107	0.260
-189.173	63.656	-0.284	0.283
-188.158	-200.000	0.016	-0.150
-187.144	-180.959	0.215	-0.004
-186.129	132.186	0.076	0.097
-185.114	64.858	0.179	0.178
-184.100	118.124	-0.055	-0.067
-183.085	433.193	0.097	-0.209
-182.071	71.334	-0.080	0.082
-181.056	-200.000	-0.007	0.091
-180.042	81.125	-0.051	0.054
-179.027	353.660	0.125	-0.245
-178.012	353.906	-0.117	0.229
-176.998	-80.710	-0.072	-0.024
-175.983	-160.856	0.124	-0.006
-174.969	115.088	0.263	0.318
-173.954	-200.000	-0.011	0.201
-172.939	800.000	-0.036	0.109
-171.925	-200.000	-0.006	0.221
-170.910	-153.969	0.305	0.021
-169.896	170.748	0.195	0.276
-168.881	800.000	-0.141	-0.385
-167.866	800.000	0.041	-0.130
-166.852	419.237	-0.161	0.340
-165.837	114.306	-0.115	0.138
-164.823	7.876	-0.179	0.133
-163.808	-69.110	0.215	-0.082
-162.793	-14.506	0.221	0.141
-161.779	14.018	-0.128	0.099
-160.764	-56.797	0.139	-0.061
-159.750	-55.964	0.156	-0.069
-158.735	27.620	0.231	-0.192
-157.720	-200.000	0.090	-0.405
-156.706	763.022	0.132	-0.353
-155.691	-163.434	0.235	-0.011
-154.677	-167.863	-0.211	0.008
-153.662	121.523	-0.069	-0.085
-152.647	-164.355	0.493	0.022
-151.633	221.278	-0.143	-0.227
-150.618	-63.180	-0.120	-0.049
-149.604	87.111	-0.115	0.126
-148.589	-46.235	0.123	0.060
-147.574	-190.820	-0.063	0.001
-146.560	-2.919	-0.223	0.154
-145.545	-143.308	-0.355	0.034
-144.531	800.000	0.148	0.471
-143.516	41.349	-0.062	0.056
-142.502	800.000	-0.043	0.121
-141.487	-66.925	0.216	-0.084
-140.472	159.884	-0.104	-0.143
-139.458	-38.271	0.117	-0.061
-138.443	-32.606	-0.096	0.053
-137.429	-100.300	-0.056	0.014
-136.414	-200.000	-0.022	-0.152
-135.399	-52.268	0.287	-0.131
-134.385	-200.000	0.024	0.144
-133.370	61.440	-0.038	0.037
-132.356	-109.246	0.351	0.074
-131.341	-70.426	-0.113	0.042
-130.326	800.000	0.057	-0.172
-129.312	800.000	0.049	0.203
-128.297	-62.376	-0.168	0.069
-127.283	-122.689	0.090	0.014
-126.268	-21.162	0.253	0.153
-125.253	800.000	0.015	-0.046
-124.239	49.690	-0.128	-0.119
-123.224	-200.000	0.036	0.191
-122.210	800.000	-0.070	-0.299
