DTS Sentinel unit serial number:	SN413079Multiplexer serial number:	ORYXHardware model number:	OX4-SRSoftware version number:	ORYX F/W v4.00 Oryx Data Collector v3.7.2.0data status	okinstallation	princeton_trtdifferential loss correction	single-endedforward channel	channel 1reverse channel	N/Adate	2019/09/11time	01:16:11forward acquisition time	60.00reverse acquisition time	0.00gamma	496.2192k internal	0.2331k external	0.2331temperature offset calibration	0.9927default loss term (dB/km)	0.3790temperature slope calibration	1.0000multiplexer offset coefficient	1.0000multiplexer slope coefficient	1.0000fibre end	0.00T internal ref (°C)	29.12T ext. ref 1 (°C)	-0.30T ext. ref 2 (°C)	23.16length (m)	temperature (°C)	Stokes	anti-Stokes-747.200	-106.025	0.078	0.018
-746.185	174.557	0.237	0.344
-745.171	189.760	0.152	-0.229
-744.156	-200.000	0.023	-0.184
-743.142	719.252	0.024	-0.065
-742.127	-57.739	-0.265	0.117
-741.112	199.871	0.172	0.266
-740.098	-93.253	-0.336	-0.094
-739.083	417.740	-0.199	-0.427
-738.069	-200.000	0.064	0.310
-737.054	-75.195	0.053	-0.019
-736.039	-115.441	-0.325	0.062
-735.025	141.316	0.142	0.189
-734.010	-70.269	-0.331	-0.126
-732.996	-151.838	0.119	0.009
-731.981	-200.000	-0.004	-0.309
-730.966	27.401	-0.181	0.153
-729.952	-127.996	-0.120	-0.017
-728.937	-178.187	-0.163	0.004
-727.923	15.007	0.321	0.252
-726.908	-200.000	-0.008	0.060
-725.894	-200.000	0.003	0.032
-724.879	-109.447	-0.223	0.047
-723.864	20.511	-0.098	0.080
-722.850	668.488	-0.109	0.284
-721.835	38.282	-0.075	0.067
-720.821	88.953	-0.250	-0.280
-719.806	-100.309	0.265	-0.066
-718.791	-65.420	0.310	-0.125
-717.777	-58.419	0.145	0.063
-716.762	135.847	0.051	0.067
-715.748	-200.000	0.047	0.294
-714.733	40.021	-0.140	0.126
-713.718	800.000	0.112	-0.357
-712.704	88.236	0.076	0.085
-711.689	202.444	0.038	-0.059
-710.675	-124.386	-0.147	0.023
-709.660	-94.881	-0.166	-0.045
-708.645	291.468	-0.092	-0.169
-707.631	-200.000	-0.040	0.230
-706.616	-50.769	-0.123	0.058
-705.602	623.431	0.066	0.167
-704.587	-200.000	0.043	-0.241
-703.572	-1.161	0.289	0.205
-702.558	-45.599	-0.168	0.084
-701.543	-177.595	-0.142	-0.003
-700.529	273.802	-0.121	0.215
-699.514	37.120	-0.249	-0.221
-698.499	-168.570	-0.605	-0.023
-697.485	93.380	0.062	-0.071
-696.470	800.000	0.070	-0.252
-695.456	53.621	-0.176	-0.170
-694.441	11.955	0.167	-0.129
-693.426	35.811	0.289	-0.255
-692.412	126.082	-0.197	-0.250
-691.397	-200.000	-0.013	0.265
-690.383	800.000	0.100	0.348
-689.368	-200.000	-0.042	0.205
-688.354	-122.337	-0.287	-0.047
-687.339	218.182	-0.082	0.132
-686.324	800.000	0.046	-0.139
-685.310	341.034	0.042	0.083
-684.295	-200.000	0.030	-0.402
-683.281	-89.865	0.078	0.023
-682.266	-200.000	0.067	0.527
-681.251	-146.114	0.143	-0.013
-680.237	-113.420	-0.286	-0.056
-679.222	70.939	0.260	0.270
-678.208	152.762	0.085	-0.116
-677.193	800.000	0.018	-0.074
-676.178	343.787	-0.126	-0.247
-675.164	-96.895	-0.504	0.133
-674.149	-105.197	0.060	0.014
-673.135	-193.030	-0.238	-0.002
-672.120	270.768	-0.067	0.118
-671.105	-14.981	0.122	0.079
-670.091	-140.042	0.272	0.029
-669.076	-141.189	0.352	0.036
-668.062	52.588	-0.236	0.226
-667.047	98.688	-0.202	0.234
-666.032	-28.125	-0.244	0.142
-665.018	-200.000	-0.006	-0.342
-664.003	0.576	0.187	-0.134
-662.989	-20.204	-0.197	0.122
-661.974	-29.470	0.142	-0.082
-660.959	551.329	0.053	-0.127
-659.945	-200.000	0.004	0.150
-658.930	579.349	0.108	-0.264
-657.916	-177.508	-0.363	0.009
-656.901	-200.000	0.030	0.140
-655.886	800.000	-0.058	0.191
-654.872	182.175	-0.029	-0.042
-653.857	-112.868	-0.036	-0.007
-652.843	96.274	0.199	-0.228
-651.828	402.885	-0.115	0.243
-650.814	-177.547	0.337	0.008
-649.799	-200.000	0.014	0.166
-648.784	639.815	0.030	0.078
-647.770	55.408	0.227	0.220
-646.755	-200.000	0.069	-0.360
-645.741	360.640	0.107	0.216
-644.726	71.579	-0.134	-0.140
-643.711	155.698	-0.084	0.117
-642.697	-133.970	0.337	-0.042
-641.682	-155.300	0.102	-0.007
-640.668	-41.908	0.423	-0.217
-639.653	800.000	0.029	0.119
-638.638	-117.821	0.207	-0.037
-637.624	800.000	0.058	-0.247
-636.609	-135.030	-0.677	0.082
-635.595	179.830	-0.144	0.211
-634.580	-200.000	0.048	-0.379
-633.565	-20.643	-0.282	-0.174
-632.551	800.000	-0.031	-0.091
-631.536	563.444	0.076	0.184
-630.522	-30.770	-0.188	0.107
-629.507	177.985	-0.257	-0.375
-628.492	-42.524	-0.086	0.044
-627.478	800.000	0.030	0.129
-626.463	800.000	-0.014	0.042
-625.449	-200.000	0.006	-0.058
-624.434	450.380	-0.069	0.153
-623.419	31.855	0.119	-0.102
-622.405	-200.000	0.037	0.237
-621.390	-112.362	0.065	-0.013
-620.376	-200.000	0.001	-0.291
-619.361	800.000	-0.085	-0.255
-618.346	42.851	0.103	-0.094
-617.332	-200.000	-0.006	0.208
-616.317	800.000	-0.063	-0.195
-615.303	-200.000	0.004	-0.196
-614.288	343.233	0.188	0.370
-613.273	-19.176	0.260	-0.161
-612.259	-200.000	0.010	-0.251
-611.244	800.000	0.011	0.047
-610.230	-143.813	-0.234	-0.022
-609.215	-200.000	-0.040	0.286
-608.201	-114.411	0.459	0.088
-607.186	754.978	0.040	0.107
-606.171	-90.992	-0.627	-0.180
-605.157	-200.000	0.016	0.326
-604.142	-200.000	-0.029	-0.275
-603.128	-93.953	-0.234	0.064
-602.113	246.955	-0.147	0.248
-601.098	-200.000	0.035	-0.369
-600.084	48.498	0.122	0.114
-599.069	-167.130	-0.022	-0.001
-598.055	96.648	0.003	0.003
-597.040	-21.542	0.388	-0.237
-596.025	-83.124	0.404	0.130
-595.011	70.216	0.255	0.264
-593.996	-200.000	-0.019	-0.124
-592.982	-54.856	0.079	0.036
-591.967	51.452	-0.062	-0.059
-590.952	-200.000	0.005	0.094
-589.938	347.549	-0.129	0.254
-588.923	26.695	-0.067	-0.056
-587.909	14.945	-0.306	0.239
-586.894	-100.853	0.246	0.061
-585.879	-164.898	0.519	0.023
-584.865	-32.708	0.247	-0.138
-583.850	-200.000	-0.116	0.510
-582.836	-24.274	-0.151	-0.090
-581.821	-92.585	0.129	-0.036
-580.806	-200.000	0.004	0.276
-579.792	-176.247	0.060	0.002
-578.777	-200.000	-0.011	-0.265
-577.763	-200.000	-0.019	0.185
-576.748	-117.009	0.450	-0.082
-575.733	-97.358	-0.252	-0.065
-574.719	-58.055	-0.179	0.078
-573.704	59.397	-0.055	0.054
-572.690	-175.272	0.188	-0.005
-571.675	-166.246	-0.167	-0.007
-570.661	-49.388	-0.145	-0.069
-569.646	-200.000	-0.023	0.129
-568.631	33.007	-0.320	-0.277
-567.617	800.000	0.058	0.170
-566.602	12.534	0.101	0.078
-565.588	-70.284	-0.049	0.019
-564.573	685.942	-0.204	-0.533
-563.558	-34.187	-0.153	0.084
-562.544	82.813	-0.041	-0.044
-561.529	-20.323	0.258	0.158
-560.515	-118.555	-0.438	0.077
-559.500	414.265	0.081	0.171
-558.485	-31.749	-0.093	-0.052
-557.471	-146.724	0.396	-0.034
-556.456	-25.128	-0.214	-0.127
-555.442	59.950	0.129	-0.127
-554.427	507.757	0.058	-0.134
-553.412	800.000	0.041	-0.168
-552.398	-97.744	-0.107	-0.028
-551.383	-200.000	0.010	-0.098
-550.369	-30.962	0.246	-0.139
-549.354	182.500	0.012	0.017
-548.339	-21.747	0.182	-0.110
-547.325	44.839	-0.126	0.115
-546.310	-68.359	-0.548	-0.213
-545.296	-200.000	0.082	0.392
-544.281	507.888	0.030	-0.070
-543.266	-62.143	-0.118	0.049
-542.252	253.943	0.043	0.073
-541.237	38.432	-0.336	-0.299
-540.223	169.975	0.389	-0.556
-539.208	89.628	-0.165	0.183
-538.193	-200.000	-0.029	-0.321
-537.179	-45.787	-0.053	0.026
-536.164	53.254	-0.276	0.264
-535.150	-48.258	0.447	0.215
-534.135	-167.483	-0.226	-0.009
-533.121	-162.515	-0.305	-0.015
-532.106	-100.860	-0.175	-0.043
-531.091	-123.314	-0.090	0.014
-530.077	-11.514	0.154	0.101
-529.062	-94.120	-0.075	0.020
-528.048	-200.000	0.066	0.353
-527.033	96.752	0.189	0.217
-526.018	-200.000	-0.079	0.348
-525.004	145.183	0.068	0.090
-523.989	-48.687	-0.133	-0.064
-522.975	133.558	0.238	0.308
-521.960	-9.054	-0.125	0.084
-520.945	-150.090	-0.114	0.009
-519.931	247.154	0.193	0.326
-518.916	-109.540	-0.188	-0.040
-517.902	-200.000	0.004	-0.165
-516.887	-104.169	0.344	0.080
-515.872	18.356	0.223	0.178
-514.858	-4.700	-0.275	-0.190
-513.843	59.148	-0.147	0.144
-512.829	160.088	-0.157	0.219
-511.814	-200.000	0.002	0.129
-510.799	59.140	0.036	-0.035
-509.785	294.471	0.077	-0.140
-508.770	-200.000	0.046	0.331
-507.756	-200.000	0.047	0.226
-506.741	502.177	0.025	-0.057
-505.726	259.593	-0.176	-0.303
-504.712	292.502	0.200	-0.364
-503.697	-120.329	-0.243	-0.041
-502.683	-61.282	-0.150	-0.063
-501.668	6.009	0.027	-0.020
-500.653	60.428	-0.140	0.138
-499.639	-200.000	0.026	-0.283
-498.624	800.000	0.048	0.149
-497.610	113.739	0.176	0.213
-496.595	-181.038	0.138	0.003
-495.581	44.658	-0.039	0.036
-494.566	47.542	-0.150	0.139
-493.551	73.340	-0.038	0.039
-492.537	120.887	-0.105	-0.130
-491.522	287.749	0.082	-0.147
-490.508	534.790	0.096	-0.226
-489.493	8.480	-0.196	-0.147
-488.478	-200.000	0.036	0.258
-487.464	-148.709	0.073	0.006
-486.449	-88.100	-0.020	-0.006
-485.435	45.272	0.113	-0.104
-484.420	800.000	0.038	-0.144
-483.405	-200.000	-0.033	-0.274
-482.391	-171.116	0.073	0.002
-481.376	-200.000	-0.011	-0.365
-480.362	-43.875	-0.171	-0.086
-479.347	-200.000	-0.015	-0.296
-478.332	167.907	0.102	0.144
-477.318	-0.703	0.081	0.057
-476.303	249.825	-0.142	-0.240
-475.289	-200.000	-0.002	-0.068
-474.274	415.504	0.096	-0.205
-473.259	-131.366	0.284	0.037
-472.245	-200.000	0.009	0.230
-471.230	184.031	-0.106	-0.156
-470.216	-200.000	0.009	-0.159
-469.201	-168.723	0.162	0.006
-468.186	-18.002	-0.153	-0.095
-467.172	-136.315	-0.213	-0.025
-466.157	453.616	-0.071	0.156
-465.143	-200.000	-0.107	-0.550
-464.128	138.761	-0.015	0.019
-463.113	800.000	0.021	-0.069
-462.099	-200.000	0.017	-0.175
-461.084	10.418	-0.148	0.112
-460.070	-69.652	0.279	0.106
-459.055	100.975	-0.100	-0.115
-458.040	-73.237	-0.443	-0.162
-457.026	62.846	0.195	0.194
-456.011	800.000	-0.020	0.059
-454.997	93.514	0.195	0.220
-453.982	-24.989	0.193	0.114
-452.968	-77.005	-0.398	-0.138
-451.953	133.687	0.095	0.123
-450.938	-130.641	0.104	0.014
-449.924	-146.753	0.353	0.030
-448.909	-7.728	0.215	0.145
-447.895	51.118	-0.131	-0.123
-446.880	-138.378	0.027	0.003
-445.865	-200.000	-0.034	-0.287
-444.851	-182.283	0.217	0.004
-443.836	800.000	0.123	0.382
-442.822	-200.000	-0.038	0.553
-441.807	-131.874	-0.022	-0.003
-440.792	800.000	-0.039	0.122
-439.778	57.408	-0.214	-0.208
-438.763	45.255	-0.102	-0.094
-437.749	49.879	0.203	-0.191
-436.734	-118.310	0.298	0.053
-435.719	580.835	0.060	-0.147
-434.705	168.471	-0.218	0.309
-433.690	-38.422	0.312	0.164
-432.676	-1.820	-0.321	0.225
-431.661	-200.000	-0.021	0.172
-430.646	-200.000	-0.013	-0.067
-429.632	800.000	0.040	0.145
-428.617	329.676	-0.168	0.321
-427.603	-33.262	-0.086	-0.048
-426.588	43.345	-0.203	0.185
-425.573	149.591	0.073	0.098
-424.559	-127.632	-0.397	0.057
-423.544	-200.000	-0.002	-0.391
-422.530	-177.467	-0.226	0.005
-421.515	-200.000	0.078	0.377
-420.500	2.865	-0.152	0.110
-419.486	210.212	-0.060	0.093
-418.471	173.632	-0.218	-0.313
-417.457	22.916	-0.054	0.044
-416.442	-57.248	0.183	0.080
-415.428	800.000	-0.029	0.123
-414.413	61.971	0.178	-0.177
-413.398	56.801	0.203	-0.196
-412.384	-200.000	-0.006	0.086
-411.369	11.200	-0.130	-0.099
-410.355	-79.244	0.352	0.119
-409.340	-56.561	-0.118	0.052
-408.325	-76.052	-0.056	0.020
-407.311	-68.420	-0.275	0.106
-406.296	800.000	-0.088	-0.346
-405.282	-82.949	0.361	0.116
-404.267	-121.198	-0.300	0.050
-403.252	800.000	0.088	0.242
-402.238	209.936	-0.142	0.221
-401.223	302.213	-0.083	-0.153
-400.209	38.733	0.335	-0.297
-399.194	-200.000	-0.034	-0.363
-398.179	-35.346	-0.539	-0.291
-397.165	164.842	0.029	0.040
-396.150	800.000	-0.047	-0.138
-395.136	-123.435	-0.340	0.054
-394.121	385.079	-0.024	-0.049
-393.106	-200.000	-0.034	-0.163
-392.092	67.768	-0.303	-0.308
-391.077	-200.000	-0.009	0.106
-390.063	800.000	-0.029	-0.093
-389.048	376.191	-0.114	0.231
-388.033	-59.118	-0.311	0.133
-387.019	8.202	-0.166	0.124
-386.004	133.842	-0.137	0.176
-384.990	73.969	0.097	0.101
-383.975	-26.818	-0.460	0.267
-382.960	129.150	0.177	0.224
-381.946	-27.135	0.168	0.097
-380.931	4.648	-0.147	0.107
-379.917	29.487	-0.198	-0.167
-378.902	67.107	-0.100	0.101
-377.888	-25.290	0.051	0.030
-376.873	-197.643	0.302	-0.002
-375.858	800.000	0.069	-0.245
-374.844	800.000	0.114	-0.315
-373.829	-54.628	0.364	-0.163
-372.815	-1.871	-0.076	0.053
-371.800	534.504	0.140	-0.329
-370.785	-200.000	-0.062	-0.280
-369.771	130.631	-0.063	-0.080
-368.756	800.000	0.029	0.113
-367.742	60.930	-0.066	0.065
-366.727	-200.000	-0.012	0.091
-365.712	-148.235	-0.214	0.018
-364.698	32.823	-0.126	0.108
-363.683	-127.414	0.148	-0.021
-362.669	151.659	0.279	-0.377
-361.654	607.190	-0.097	-0.240
-360.639	133.491	-0.240	-0.307
-359.625	-21.092	0.129	-0.078
-358.610	-200.000	0.030	-0.365
-357.596	-128.122	0.088	-0.012
-356.581	526.205	-0.050	-0.117
-355.566	419.366	0.125	0.266
-354.552	800.000	-0.080	-0.318
-353.537	-39.308	-0.294	0.153
-352.523	-86.339	0.063	0.019
-351.508	-171.953	-0.207	0.007
-350.493	-200.000	-0.022	0.308
-349.479	-103.626	-0.188	-0.044
-348.464	155.442	0.149	0.203
-347.450	355.427	-0.039	-0.077
-346.435	-85.375	-0.303	-0.094
-345.420	-200.000	0.058	0.267
-344.406	-200.000	-0.049	-0.437
-343.391	-9.827	0.023	0.015
-342.377	140.376	-0.222	-0.290
-341.362	-42.499	0.096	0.049
-340.348	8.145	0.089	-0.066
-339.333	650.217	0.036	0.091
-338.318	-53.310	-0.433	-0.197
-337.304	-4.902	0.212	0.144
-336.289	-68.154	0.450	-0.174
-335.275	-32.786	-0.337	0.185
-334.260	-149.079	0.212	-0.017
-333.245	-58.352	-0.254	0.109
-332.231	200.639	-0.197	-0.299
-331.216	250.858	0.085	-0.142
-330.202	-94.628	-0.153	-0.041
-329.187	301.851	-0.053	0.097
-328.172	800.000	-0.035	0.115
-327.158	-147.101	-0.230	0.019
-326.143	-88.914	0.024	-0.007
-325.129	-149.747	0.324	-0.025
-324.114	-137.190	-0.093	-0.010
-323.099	-47.804	0.258	-0.124
-322.085	63.625	0.150	0.149
-321.070	-90.566	-0.165	0.047
-320.056	800.000	-0.048	-0.191
-319.041	208.892	-0.090	0.139
-318.026	410.305	-0.067	0.141
-317.012	125.555	-0.129	0.161
-315.997	-18.581	-0.199	-0.123
-314.983	-36.478	-0.104	0.055
-313.968	324.426	0.014	0.026
-312.953	-25.904	-0.235	-0.137
-311.939	-55.437	-0.329	0.146
-310.924	268.938	-0.136	0.236
-309.910	-144.968	0.274	0.025
-308.895	-200.000	-0.003	-0.091
-307.880	-200.000	-0.016	0.228
-306.866	-15.575	-0.179	-0.113
-305.851	-200.000	-0.013	-0.318
-304.837	-109.260	0.110	0.023
-303.822	-64.453	-0.157	0.063
-302.807	-128.131	-0.332	0.047
-301.793	185.095	0.043	-0.063
-300.778	615.662	0.007	-0.017
-299.764	64.961	-0.088	-0.088
-298.749	-200.000	0.002	0.125
-297.735	-93.585	0.038	-0.010
-296.720	800.000	-0.050	0.200
-295.705	56.748	-0.201	0.194
-294.691	-170.440	0.258	0.009
-293.676	-94.798	0.275	0.074
-292.662	-153.835	0.116	0.008
-291.647	84.429	-0.246	-0.266
-290.632	51.536	0.250	0.235
-289.618	-200.000	0.012	0.355
-288.603	77.154	-0.143	0.150
-287.589	-146.018	0.419	0.037
-286.574	24.838	0.149	-0.122
-285.559	19.723	-0.067	-0.053
-284.545	-34.361	0.423	-0.229
-283.530	-81.944	-0.112	-0.036
-282.516	-105.121	-0.275	-0.062
-281.501	12.510	0.060	0.046
-280.486	73.325	0.114	-0.118
-279.472	239.953	0.078	0.129
-278.457	264.822	0.215	0.371
-277.443	-75.025	0.035	-0.012
-276.428	-187.271	0.132	-0.002
-275.413	-200.000	0.004	-0.085
-274.399	97.744	0.179	-0.204
-273.384	-200.000	-0.007	0.464
-272.370	800.000	-0.079	0.314
-271.355	-36.276	0.141	0.075
-270.340	800.000	0.051	0.172
-269.326	83.347	-0.145	-0.156
-268.311	-37.357	-0.222	-0.117
-267.297	327.130	-0.136	0.258
-266.282	53.574	-0.208	-0.197
-265.267	800.000	0.044	0.140
-264.253	-38.609	0.155	0.081
-263.238	-200.000	-0.015	0.155
-262.224	-200.000	-0.038	0.248
-261.209	516.933	-0.091	0.211
-260.195	-185.000	-0.124	-0.002
-259.180	92.787	0.047	-0.053
-258.165	800.000	0.057	-0.157
-257.151	-0.745	0.186	-0.130
-256.136	-103.736	0.390	0.090
-255.122	431.899	-0.091	-0.195
-254.107	153.636	0.171	0.232
-253.092	-141.733	0.322	-0.032
-252.078	45.842	-0.166	0.151
-251.063	-200.000	-0.011	-0.508
-250.049	-55.934	-0.288	-0.127
-249.034	-121.365	-0.130	0.021
-248.019	-72.090	0.278	0.102
-247.005	-118.602	-0.414	-0.072
-245.990	-33.553	0.189	-0.103
-244.976	455.048	-0.089	-0.196
-243.961	17.242	-0.154	-0.121
-242.946	217.246	-0.255	-0.401
-241.932	771.267	0.117	-0.315
-240.917	-15.209	0.143	-0.090
-239.903	3.515	0.191	0.137
-238.888	800.000	0.076	0.255
-237.873	-52.047	-0.063	-0.029
-236.859	-200.000	-0.040	0.309
-235.844	-114.734	0.087	0.016
-234.830	-51.619	0.170	-0.078
-233.815	-200.000	0.468	-0.002
-232.800	262.769	0.063	0.109
-231.786	-34.575	-0.126	-0.068
-230.771	-82.471	0.173	-0.055
-229.757	-144.855	0.217	0.020
-228.742	364.184	0.204	-0.405
-227.727	-98.380	-0.203	-0.051
-226.713	30.361	0.174	0.147
-225.698	-89.912	-0.038	-0.011
-224.684	800.000	0.076	0.245
-223.669	800.000	-0.135	0.428
-222.655	-35.495	-0.391	-0.209
-221.640	-116.824	0.277	-0.050
-220.625	-55.571	-0.116	-0.051
-219.611	92.806	0.209	0.232
-218.596	800.000	-0.118	0.325
-217.582	-66.541	0.186	0.073
-216.567	102.394	0.230	0.265
-215.552	-72.958	0.215	0.078
-214.538	66.646	0.208	0.208
-213.523	800.000	0.070	-0.209
-212.509	-200.000	0.021	0.218
-211.494	191.692	0.050	0.075
-210.479	-156.941	-0.210	0.013
-209.465	-74.380	0.323	-0.115
-208.450	-151.788	-0.366	0.027
-207.436	49.640	-0.224	0.207
-206.421	-62.454	0.139	-0.057
-205.406	106.278	0.131	-0.153
-204.392	-72.002	-0.014	-0.005
-203.377	800.000	-0.050	-0.149
-202.363	191.972	-0.128	0.190
-201.348	-83.223	0.103	-0.033
-200.333	-65.914	0.223	-0.088
-199.319	19.768	-0.038	0.030
-198.304	-200.000	0.020	0.143
-197.290	-63.654	0.230	-0.093
-196.275	62.516	-0.194	-0.191
-195.260	1.673	0.250	0.177
-194.246	800.000	0.146	-0.510
-193.231	435.961	0.108	0.232
-192.217	-152.080	0.217	0.016
-191.202	-178.257	0.212	0.005
-190.187	-200.000	0.005	-0.220
-189.173	-42.940	0.295	0.147
-188.158	-200.000	0.015	0.219
-187.144	2.332	-0.196	0.140
-186.129	-48.627	-0.025	0.012
-185.114	-15.798	0.086	-0.054
-184.100	800.000	0.074	0.229
-183.085	-200.000	-0.006	0.097
-182.071	-200.000	-0.027	0.321
-181.056	-200.000	0.010	-0.071
-180.042	133.374	0.074	-0.095
-179.027	-187.010	0.033	0.000
-178.012	164.011	0.118	-0.163
-176.998	-150.279	0.328	-0.025
-175.983	-163.177	0.189	-0.009
-174.969	-79.799	-0.056	-0.019
-173.954	24.513	0.276	-0.225
-172.939	800.000	0.091	-0.272
-171.925	-10.978	-0.157	-0.102
-170.910	26.709	-0.350	-0.289
-169.896	119.142	-0.044	-0.053
-168.881	417.375	0.140	0.294
-167.866	82.300	-0.261	-0.278
-166.852	550.874	0.070	0.166
-165.837	317.589	0.149	0.276
-164.823	385.804	0.017	0.035
-163.808	800.000	0.068	-0.229
-162.793	152.174	-0.072	-0.096
-161.779	65.892	-0.085	0.085
-160.764	800.000	0.028	-0.090
-159.750	52.093	-0.077	0.072
-158.735	-56.690	-0.280	0.122
-157.720	-6.223	-0.233	-0.156
-156.706	-94.575	-0.107	0.029
-155.691	-128.960	0.584	0.081
-154.677	116.014	0.145	-0.174
-153.662	-75.338	-0.140	-0.049
-152.647	-200.000	0.000	-0.079
-151.633	64.847	0.187	-0.186
-150.618	-53.682	0.274	-0.123
-149.604	226.137	-0.122	-0.194
-148.589	-200.000	-0.044	0.206
-147.574	211.112	0.100	-0.155
-146.560	143.509	-0.176	-0.231
-145.545	-69.955	0.035	0.013
-144.531	-30.311	-0.173	0.097
-143.516	800.000	0.050	0.182
-142.502	-144.332	-0.354	0.032
-141.487	-6.353	0.118	0.079
-140.472	-98.645	-0.156	0.039
-139.458	-200.000	-0.014	0.342
-138.443	-200.000	-0.022	0.192
-137.429	45.876	-0.363	0.330
-136.414	-87.245	-0.247	0.074
-135.399	88.620	0.134	-0.147
-134.385	-200.000	0.002	0.210
-133.370	800.000	0.059	0.216
-132.356	16.382	0.084	0.065
-131.341	-81.653	0.239	0.077
-130.326	-47.773	-0.274	0.131
-129.312	-200.000	-0.034	-0.168
-128.297	-77.672	0.308	0.105
-127.283	-8.356	-0.187	0.124
-126.268	24.217	-0.177	0.144
-125.253	-163.624	0.180	-0.008
-124.239	-35.327	0.055	0.029
-123.224	88.974	-0.244	0.267
-122.210	-52.911	0.263	0.119
-121.195	-64.891	0.303	0.120
-120.180	446.805	-0.046	-0.099
