DTS Sentinel unit serial number:	SN413079Multiplexer serial number:	ORYXHardware model number:	OX4-SRSoftware version number:	ORYX F/W v4.00 Oryx Data Collector v3.7.2.0data status	okinstallation	princeton_trtdifferential loss correction	single-endedforward channel	channel 1reverse channel	N/Adate	2019/09/12time	01:52:11forward acquisition time	60.00reverse acquisition time	0.00gamma	496.2192k internal	0.2320k external	0.2320temperature offset calibration	1.0077default loss term (dB/km)	0.3790temperature slope calibration	1.0000multiplexer offset coefficient	1.0000multiplexer slope coefficient	1.0000fibre end	0.00T internal ref (°C)	32.81T ext. ref 1 (°C)	2.07T ext. ref 2 (°C)	27.33length (m)	temperature (°C)	Stokes	anti-Stokes-747.200	-16.343	0.137	-0.088
-746.185	221.110	-0.032	-0.053
-745.171	120.835	-0.208	-0.261
-744.156	-200.000	0.039	0.375
-743.142	-81.389	0.203	0.068
-742.127	-200.000	-0.081	0.378
-741.112	-92.685	-0.066	-0.019
-740.098	800.000	-0.138	0.503
-739.083	138.884	-0.148	0.196
-738.069	248.014	-0.053	0.090
-737.054	-68.221	-0.175	-0.069
-736.039	240.103	-0.209	0.352
-735.025	-200.000	-0.046	0.237
-734.010	-200.000	0.045	0.398
-732.996	47.579	0.201	0.190
-731.981	800.000	-0.013	0.041
-730.966	-200.000	-0.038	-0.267
-729.952	-200.000	-0.005	0.034
-728.937	51.442	0.155	-0.149
-727.923	2.720	-0.249	0.182
-726.908	-149.330	0.119	0.010
-725.894	43.503	-0.047	-0.043
-724.879	55.542	-0.151	-0.148
-723.864	800.000	0.157	-0.494
-722.850	43.446	0.033	-0.030
-721.835	-200.000	-0.016	-0.084
-720.821	-12.613	-0.146	-0.096
-719.806	6.580	-0.256	0.192
-718.791	-53.105	0.183	-0.085
-717.777	800.000	0.076	0.261
-716.762	-98.796	-0.347	-0.089
-715.748	-200.000	-0.046	-0.284
-714.733	650.425	0.054	0.139
-713.718	196.425	-0.131	-0.201
-712.704	-1.252	0.124	0.088
-711.689	-20.001	-0.161	-0.100
-710.675	-200.000	0.240	-0.001
-709.660	-200.000	0.002	-0.191
-708.645	-200.000	-0.007	-0.118
-707.631	366.258	-0.112	0.227
-706.616	257.472	-0.036	-0.062
-705.602	-200.000	0.064	0.289
-704.587	-119.719	-0.340	0.059
-703.572	-95.804	0.158	-0.043
-702.558	-82.491	-0.149	0.049
-701.543	-200.000	0.022	-0.268
-700.529	71.915	0.113	0.119
-699.514	-163.040	-0.126	-0.006
-698.499	-47.547	-0.073	-0.036
-697.485	-200.000	0.042	-0.290
-696.470	177.589	0.142	0.209
-695.456	-200.000	0.006	0.102
-694.441	382.977	-0.069	-0.144
-693.426	-79.549	-0.334	-0.114
-692.412	-133.783	0.240	-0.030
-691.397	60.586	-0.217	0.217
-690.383	-200.000	0.011	0.220
-689.368	-145.039	-0.479	-0.044
-688.354	-131.739	-0.090	-0.012
-687.339	238.483	-0.082	0.137
-686.324	238.991	-0.039	0.065
-685.310	770.268	0.040	-0.111
-684.295	-139.434	-0.218	-0.024
-683.281	674.362	-0.012	0.031
-682.266	-200.000	0.014	0.130
-681.251	-200.000	-0.060	-0.274
-680.237	401.074	0.108	0.228
-679.222	84.869	-0.181	0.200
-678.208	68.776	-0.113	0.117
-677.193	-89.725	-0.232	0.068
-676.178	98.891	0.077	-0.090
-675.164	358.675	0.074	0.149
-674.149	800.000	-0.124	0.385
-673.135	-161.146	0.029	-0.002
-672.120	72.957	-0.161	0.170
-671.105	-79.587	-0.375	0.127
-670.091	-117.948	0.143	0.026
-669.076	124.656	-0.128	-0.163
-668.062	27.867	-0.219	0.186
-667.047	800.000	0.028	0.108
-666.032	4.310	-0.168	0.124
-665.018	-35.865	-0.370	-0.202
-664.003	-31.770	0.138	0.078
-662.989	4.773	0.185	-0.137
-661.974	-128.165	-0.172	-0.025
-660.959	210.867	0.262	0.414
-659.945	-127.317	0.140	-0.021
-658.930	-200.000	-0.037	0.318
-657.916	62.601	-0.143	0.144
-656.901	-7.611	0.107	-0.073
-655.886	-79.201	-0.326	0.112
-654.872	175.509	-0.028	0.041
-653.857	-41.764	0.303	-0.157
-652.843	-200.000	-0.016	0.400
-651.828	-200.000	-0.277	0.001
-650.814	-200.000	-0.020	-0.228
-649.799	-200.000	0.010	-0.100
-648.784	-108.694	0.216	0.047
-647.770	3.789	0.160	0.118
-646.755	125.126	-0.142	-0.180
-645.741	800.000	0.060	-0.172
-644.726	-200.000	-0.018	-0.293
-643.711	-7.661	-0.187	-0.128
-642.697	-200.000	-0.007	0.148
-641.682	-200.000	0.027	-0.184
-640.668	800.000	0.062	-0.201
-639.653	79.106	-0.245	0.265
-638.638	-102.382	-0.141	0.034
-637.624	607.820	0.113	-0.284
-636.609	-45.643	-0.084	0.042
-635.595	-157.527	0.028	0.002
-634.580	-200.000	-0.032	0.164
-633.565	402.800	-0.054	-0.114
-632.551	-17.732	-0.119	-0.075
-631.536	-104.078	-0.056	0.013
-630.522	231.360	0.130	-0.214
-629.507	800.000	-0.119	-0.481
-628.492	-55.161	0.045	-0.021
-627.478	-113.247	-0.258	0.051
-626.463	-200.000	-0.005	0.181
-625.449	-34.551	-0.067	-0.037
-624.434	111.881	0.196	0.238
-623.419	-52.196	-0.082	0.038
-622.405	-57.771	0.098	0.043
-621.390	800.000	-0.049	0.192
-620.376	20.089	0.089	0.072
-619.361	-162.233	-0.087	0.004
-618.346	-71.297	0.083	-0.031
-617.332	7.879	0.134	0.101
-616.317	-200.000	-0.030	0.231
-615.303	-153.331	-0.399	-0.028
-614.288	-124.360	0.023	0.004
-613.273	161.588	-0.352	0.495
-612.259	113.262	-0.196	-0.239
-611.244	83.845	0.035	-0.039
-610.230	800.000	0.039	-0.148
-609.215	31.712	-0.089	-0.077
-608.201	374.685	-0.076	-0.155
-607.186	-57.754	-0.049	-0.022
-606.171	-80.434	0.273	-0.092
-605.157	-125.359	-0.150	-0.023
-604.142	-85.143	-0.136	0.043
-603.128	-143.065	0.193	-0.019
-602.113	-115.714	0.084	0.016
-601.098	600.100	0.053	0.133
-600.084	139.921	0.024	0.032
-599.069	-149.656	-0.246	0.020
-598.055	52.333	0.145	0.139
-597.040	-126.661	0.368	0.055
-596.025	-114.333	-0.043	0.008
-595.011	-100.052	-0.160	0.040
-593.996	250.098	0.204	-0.348
-592.982	-7.787	0.301	-0.204
-591.967	-157.500	0.048	-0.003
-590.952	91.657	-0.118	-0.133
-589.938	800.000	0.044	-0.145
-588.923	-129.378	-0.358	0.050
-587.909	75.134	0.190	0.201
-586.894	154.362	-0.067	-0.092
-585.879	1.913	0.197	-0.143
-584.865	-13.762	-0.156	-0.101
-583.850	0.072	-0.104	0.075
-582.836	-45.273	0.219	-0.109
-581.821	-200.000	0.033	-0.227
-580.806	-80.667	0.173	-0.058
-579.792	-19.787	-0.353	-0.219
-578.777	37.287	0.046	0.041
-577.763	-62.758	-0.113	0.047
-576.748	142.854	-0.057	-0.076
-575.733	-8.619	0.172	-0.116
-574.719	-129.767	0.168	-0.023
-573.704	-19.904	0.092	0.057
-572.690	-200.000	-0.002	0.403
-571.675	794.993	-0.049	0.135
-570.661	-39.663	0.139	-0.073
-569.646	-130.730	0.117	0.016
-568.631	105.254	-0.150	-0.178
-567.617	-7.702	-0.174	-0.118
-566.602	234.482	-0.046	-0.075
-565.588	263.554	-0.060	0.105
-564.573	379.681	-0.229	0.472
-563.558	-144.718	-0.256	-0.024
-562.544	530.331	-0.046	0.110
-561.529	-134.951	-0.414	-0.050
-560.515	-200.000	-0.048	0.252
-559.500	-141.278	0.262	-0.027
-558.485	284.596	0.079	0.143
-557.471	-149.498	-0.260	-0.021
-556.456	18.934	0.124	0.099
-555.442	-55.238	-0.125	-0.056
-554.427	-200.000	-0.054	0.424
-553.412	-200.000	0.016	-0.146
-552.398	433.396	-0.011	-0.024
-551.383	263.877	-0.060	0.105
-550.369	79.756	-0.036	-0.039
-549.354	121.524	-0.085	-0.106
-548.339	-40.817	-0.108	0.056
-547.325	-43.142	0.121	0.061
-546.310	25.647	-0.361	0.302
-545.296	-200.000	0.026	0.214
-544.281	251.151	-0.069	-0.117
-543.266	335.627	0.165	0.322
-542.252	159.479	0.155	-0.216
-541.237	23.986	-0.136	0.113
-540.223	-66.427	-0.117	0.047
-539.208	618.988	0.051	0.129
-538.193	-200.000	-0.060	0.338
-537.179	-60.749	0.331	-0.141
-536.164	678.719	0.080	-0.208
-535.150	240.524	0.133	0.222
-534.135	-135.952	-0.159	-0.019
-533.121	251.973	-0.045	-0.077
-532.106	-9.031	0.061	0.041
-531.091	83.285	0.176	-0.192
-530.077	-118.035	-0.166	-0.030
-529.062	-89.747	0.125	-0.037
-528.048	-28.714	-0.058	0.034
-527.033	3.960	-0.120	-0.088
-526.018	544.143	-0.035	-0.083
-525.004	283.638	-0.082	-0.149
-523.989	-141.022	-0.193	0.020
-522.975	800.000	-0.036	-0.122
-521.960	120.539	0.202	-0.251
-520.945	151.906	0.065	-0.088
-519.931	375.517	0.285	-0.583
-518.916	-200.000	-0.016	0.166
-517.902	316.647	0.103	-0.195
-516.887	-200.000	-0.013	-0.069
-515.872	-68.984	-0.200	-0.077
-514.858	-8.825	-0.093	-0.063
-513.843	-26.214	-0.253	0.149
-512.829	156.623	0.146	-0.202
-511.814	-200.000	0.010	-0.265
-510.799	-76.877	-0.042	0.015
-509.785	-130.581	0.259	-0.035
-508.770	-168.548	0.185	0.007
-507.756	-106.257	-0.371	0.083
-506.741	394.008	0.150	-0.312
-505.726	-136.259	0.239	0.028
-504.712	62.238	0.094	-0.094
-503.697	96.644	0.109	-0.125
-502.683	89.357	0.116	0.129
-501.668	47.891	-0.028	0.026
-500.653	-95.121	-0.314	-0.085
-499.639	-47.764	0.429	-0.208
-498.624	21.094	0.107	0.087
-497.610	-48.085	-0.039	-0.019
-496.595	-134.703	-0.344	0.042
-495.581	-200.000	0.019	0.096
-494.566	-37.897	0.033	0.018
-493.551	207.366	-0.108	0.169
-492.537	163.976	-0.091	0.128
-491.522	-200.000	0.025	0.564
-490.508	-200.000	0.011	-0.053
-489.493	38.063	0.325	-0.290
-488.478	514.774	-0.048	-0.113
-487.464	114.996	-0.114	-0.139
-486.449	24.038	-0.128	0.106
-485.435	-34.760	0.061	-0.033
-484.420	382.737	0.185	0.381
-483.405	-200.000	0.010	0.304
-482.391	-173.912	-0.082	-0.002
-481.376	624.503	-0.085	0.214
-480.362	-123.174	-0.339	0.054
-479.347	533.617	-0.116	0.274
-478.332	558.076	0.068	-0.163
-477.318	-33.725	0.134	-0.074
-476.303	-50.954	-0.064	0.030
-475.289	431.893	-0.178	-0.386
-474.274	-101.491	-0.140	-0.034
-473.259	-6.569	-0.206	0.140
-472.245	-162.941	0.378	0.018
-471.230	800.000	0.001	-0.003
-470.216	-4.474	0.136	-0.094
-469.201	-155.161	-0.092	0.006
-468.186	-68.174	0.459	0.179
-467.172	-34.491	-0.179	0.098
-466.157	222.285	0.187	0.301
-465.143	75.303	0.071	-0.074
-464.128	46.632	-0.118	0.109
-463.113	359.788	-0.077	-0.154
-462.099	800.000	0.122	-0.342
-461.084	301.675	-0.050	0.092
-460.070	417.060	-0.063	-0.134
-459.055	182.950	-0.142	0.209
-458.040	-38.381	0.333	-0.176
-457.026	41.267	-0.301	0.273
-456.011	75.039	0.283	-0.298
-454.997	151.294	0.220	-0.300
-453.982	156.024	0.107	0.147
-452.968	468.786	0.108	-0.241
-451.953	-108.866	-0.106	0.023
-450.938	-200.000	-0.072	0.338
-449.924	-59.711	-0.234	-0.100
-448.909	-39.977	0.349	-0.182
-447.895	-25.982	0.118	-0.069
-446.880	-158.173	0.258	0.015
-445.865	-77.426	-0.323	-0.112
-444.851	800.000	-0.026	-0.103
-443.836	53.714	-0.255	0.245
-442.822	-130.433	0.120	-0.016
-441.807	-198.263	0.241	-0.001
-440.792	211.686	-0.218	0.343
-439.778	-200.000	-0.025	0.192
-438.763	800.000	0.130	0.467
-437.749	212.345	0.069	-0.108
-436.734	-200.000	0.037	-0.179
-435.719	52.907	-0.159	0.152
-434.705	-200.000	-0.034	-0.235
-433.690	-35.778	0.250	-0.135
-432.676	-119.577	0.390	-0.067
-431.661	-96.179	-0.138	0.037
-430.646	-12.356	0.136	0.089
-429.632	250.263	0.099	0.169
-428.617	-27.168	-0.330	0.192
-427.603	367.753	-0.126	-0.255
-426.588	49.161	0.210	0.197
-425.573	0.560	0.101	-0.072
-424.559	-168.130	-0.166	0.006
-423.544	261.561	-0.192	0.332
-422.530	-14.015	0.073	0.047
-421.515	51.601	0.170	0.161
-420.500	128.770	0.054	-0.069
-419.486	146.122	-0.324	0.434
-418.471	323.093	0.051	-0.097
-417.457	-171.279	0.441	0.015
-416.442	-58.768	-0.285	-0.123
-415.428	-107.219	0.261	0.057
-414.413	-107.318	0.231	-0.051
-413.398	-146.893	-0.129	-0.011
-412.384	525.583	-0.179	0.420
-411.369	139.109	-0.035	-0.046
-410.355	20.754	0.101	0.082
-409.340	254.112	0.022	-0.038
-408.325	36.392	0.173	0.152
-407.311	-17.788	0.220	0.138
-406.296	-84.612	0.405	-0.127
-405.282	248.692	0.094	-0.158
-404.267	-91.859	0.123	-0.035
-403.252	-57.919	-0.174	-0.076
-402.238	-200.000	-0.001	0.110
-401.223	190.086	0.238	0.356
-400.209	-200.000	0.007	-0.127
-399.194	800.000	0.115	-0.322
-398.179	-200.000	0.061	-0.419
-397.165	800.000	-0.084	-0.324
-396.150	-71.731	-0.036	-0.013
-395.136	134.172	-0.247	0.320
-394.121	-152.388	-0.260	0.019
-393.106	-69.835	-0.320	0.122
-392.092	-186.603	-0.173	-0.002
-391.077	650.794	0.140	-0.357
-390.063	-200.000	0.060	0.378
-389.048	51.595	0.237	0.225
-388.033	-65.009	0.030	-0.012
-387.019	477.081	-0.202	-0.456
-386.004	78.400	-0.029	0.031
-384.990	-107.630	-0.228	0.050
-383.975	143.282	-0.293	0.389
-382.960	-167.708	-0.257	-0.010
-381.946	-200.000	-0.024	0.122
-380.931	-134.813	0.144	0.017
-379.917	-39.266	-0.290	-0.152
-378.902	-4.266	0.204	0.141
-377.888	467.668	0.081	0.182
-376.873	77.886	0.211	-0.224
-375.858	800.000	0.084	-0.320
-374.844	800.000	0.057	0.187
-373.829	-200.000	-0.037	0.215
-372.815	219.354	0.248	0.396
-371.800	800.000	-0.069	-0.252
-370.785	451.684	0.093	-0.204
-369.771	800.000	0.060	0.173
-368.756	-141.265	-0.295	0.030
-367.742	-43.510	0.286	-0.144
-366.727	181.586	-0.045	0.066
-365.712	739.035	0.060	0.160
-364.698	-54.856	-0.102	-0.046
-363.683	-55.228	-0.144	0.065
-362.669	507.192	0.046	0.107
-361.654	55.948	0.149	0.144
-360.639	-200.000	0.050	0.257
-359.625	339.665	-0.099	-0.192
-358.610	79.625	0.075	0.080
-357.596	-68.002	0.153	-0.059
-356.581	-121.901	-0.282	0.046
-355.566	18.528	0.039	0.031
-354.552	-200.000	-0.041	-0.393
-353.537	633.973	-0.117	-0.296
-352.523	2.607	-0.098	0.071
-351.508	-21.835	-0.187	-0.113
-350.493	-40.687	-0.222	0.114
-349.479	245.804	0.146	-0.245
-348.464	174.911	-0.125	0.180
-347.450	48.976	-0.155	-0.145
-346.435	-200.000	-0.067	-0.318
-345.420	800.000	-0.063	-0.173
-344.406	-120.177	0.028	0.005
-343.391	-200.000	0.010	-0.188
-342.377	-185.495	0.192	0.003
-341.362	-14.251	-0.227	0.146
-340.348	243.368	-0.115	0.191
-339.333	-14.758	0.283	-0.181
-338.318	492.714	-0.096	-0.218
-337.304	-116.295	-0.239	-0.044
-336.289	800.000	0.141	0.418
-335.275	-57.797	-0.239	0.104
-334.260	402.945	-0.066	0.137
-333.245	610.838	0.119	-0.295
-332.231	-138.898	-0.141	0.015
-331.216	71.516	-0.233	0.240
-330.202	-67.328	-0.244	0.095
-329.187	-81.450	-0.069	0.022
-328.172	800.000	0.061	-0.176
-327.158	-47.159	0.229	-0.111
-326.143	-158.616	-0.139	0.008
-325.129	-151.401	0.258	0.019
-324.114	81.712	-0.093	-0.101
-323.099	-43.747	-0.251	-0.126
-322.085	5.077	0.072	-0.053
-321.070	-139.977	0.187	0.020
-320.056	-138.381	-0.196	0.021
-319.041	283.183	-0.027	-0.048
-318.026	800.000	-0.043	-0.143
-317.012	-200.000	-0.018	0.233
-315.997	-84.509	0.116	-0.036
-314.983	-200.000	-0.016	0.470
-313.968	654.443	0.075	0.190
-312.953	136.002	0.070	-0.091
-311.939	800.000	-0.142	0.398
-310.924	-200.000	0.014	0.426
-309.910	800.000	-0.055	0.170
-308.895	-57.659	0.346	-0.150
-307.880	-116.486	-0.051	0.009
-306.866	-200.000	0.048	0.267
-305.851	2.540	0.176	0.127
-304.837	320.525	0.141	0.266
-303.822	-200.000	-0.001	0.183
-302.807	297.855	-0.141	-0.257
-301.793	-45.272	0.242	0.119
-300.778	-173.535	0.241	0.007
-299.764	121.998	-0.205	0.254
-298.749	-26.999	0.298	-0.173
-297.735	23.841	-0.156	-0.127
-296.720	-200.000	-0.013	0.130
-295.705	-200.000	-0.028	0.173
-294.691	26.358	-0.256	0.212
-293.676	18.965	-0.095	-0.076
-292.662	-28.177	-0.210	0.120
-291.647	82.285	-0.199	-0.215
-290.632	-100.916	0.152	0.037
-289.618	314.820	-0.139	0.259
-288.603	-12.311	-0.159	0.103
-287.589	-200.000	-0.022	0.568
-286.574	605.830	0.049	0.122
-285.559	-200.000	0.017	0.331
-284.545	-6.853	0.146	-0.098
-283.530	-87.433	0.479	-0.144
-282.516	-152.564	0.093	0.007
-281.501	-130.765	-0.173	-0.023
-280.486	-200.000	0.046	-0.293
-279.472	-34.984	0.142	0.077
-278.457	-70.271	0.161	-0.061
-277.443	-10.212	0.178	0.117
-276.428	407.668	-0.082	0.172
-275.413	-120.926	-0.165	0.028
-274.399	800.000	0.080	0.261
-273.384	-42.581	0.377	-0.191
-272.370	104.127	0.081	0.094
-271.355	-73.989	-0.110	0.040
-270.340	-200.000	0.017	-0.245
-269.326	-66.027	-0.129	0.051
-268.311	269.233	-0.083	0.144
-267.297	329.863	-0.092	0.176
-266.282	210.677	0.115	-0.180
-265.267	-200.000	0.024	-0.197
-264.253	430.089	0.138	-0.297
-263.238	522.998	-0.109	-0.254
-262.224	49.099	0.214	-0.200
-261.209	21.807	-0.314	-0.254
-260.195	-200.000	-0.002	0.320
-259.180	-112.728	0.436	-0.086
-258.165	800.000	0.120	-0.372
-257.151	-5.197	-0.251	-0.171
-256.136	800.000	-0.046	-0.191
-255.122	-200.000	-0.010	-0.092
-254.107	800.000	0.053	0.228
-253.092	63.809	-0.170	-0.169
-252.078	-73.614	0.398	-0.144
-251.063	-200.000	0.017	0.100
-250.049	180.663	-0.076	0.110
-249.034	-118.707	-0.370	-0.065
-248.019	-153.127	0.180	0.013
-247.005	8.673	0.543	0.406
-245.990	2.607	0.122	0.088
-244.976	295.541	0.107	-0.194
-243.961	58.124	-0.115	-0.111
-242.946	199.413	0.176	-0.268
-241.932	393.306	-0.036	-0.074
-240.917	800.000	-0.065	-0.277
-239.903	91.734	0.220	-0.245
-238.888	-200.000	-0.018	-0.134
-237.873	-83.722	0.311	0.099
-236.859	-76.530	-0.443	0.154
-235.844	341.069	0.054	-0.105
-234.830	1.668	0.259	-0.185
-233.815	-200.000	-0.049	-0.238
-232.800	800.000	0.065	-0.252
-231.786	199.629	-0.104	0.158
-230.771	-41.420	-0.142	-0.073
-229.757	86.439	0.174	-0.190
-228.742	-200.000	-0.003	-0.134
-227.727	800.000	-0.021	0.064
-226.713	-25.211	-0.309	-0.181
-225.698	-200.000	0.011	-0.394
-224.684	-112.725	-0.051	0.010
-223.669	-42.524	0.317	-0.160
-222.655	-200.000	0.035	0.251
-221.640	800.000	0.060	-0.212
-220.625	35.767	-0.116	0.101
-219.611	800.000	-0.093	0.258
-218.596	-117.226	0.197	-0.036
-217.582	-200.000	0.008	-0.142
-216.567	800.000	0.072	-0.290
-215.552	-156.904	-0.370	0.022
-214.538	101.416	-0.100	0.115
-213.523	-47.786	0.064	-0.031
-212.509	800.000	0.017	-0.052
-211.494	420.840	-0.096	0.204
-210.479	178.264	0.110	-0.159
-209.465	49.182	-0.150	-0.139
-208.450	151.983	0.074	-0.101
-207.436	-1.985	0.189	0.131
-206.421	-60.104	0.044	0.019
-205.406	187.682	-0.053	-0.078
-204.392	-200.000	-0.056	-0.263
-203.377	-58.534	-0.175	0.075
-202.363	-9.290	-0.092	0.061
-201.348	37.702	0.236	-0.208
-200.333	-147.118	-0.168	0.014
-199.319	-73.056	-0.245	0.089
-198.304	-43.062	-0.311	-0.156
-197.290	330.061	0.163	0.310
-196.275	-50.926	0.227	0.106
-195.260	-62.384	0.098	0.040
-194.246	-72.049	0.345	0.127
-193.231	800.000	0.023	-0.065
-192.217	-200.000	0.017	-0.248
-191.202	273.174	-0.061	-0.106
-190.187	0.811	0.231	0.164
-189.173	-200.000	0.005	-0.062
-188.158	-36.938	-0.052	-0.028
-187.144	-69.331	-0.039	-0.015
-186.129	-200.000	0.026	-0.249
-185.114	-120.902	0.207	-0.035
-184.100	-200.000	0.015	0.092
-183.085	659.447	-0.041	0.103
-182.071	800.000	-0.091	0.254
-181.056	5.411	0.092	-0.067
-180.042	119.318	0.118	0.144
-179.027	454.545	-0.067	-0.147
-178.012	-121.188	0.083	0.014
-176.998	60.825	0.191	0.187
-175.983	455.049	0.076	-0.166
-174.969	372.112	0.068	0.137
-173.954	-11.519	0.122	0.079
-172.939	126.917	-0.182	0.228
-171.925	54.013	-0.198	-0.188
-170.910	800.000	-0.089	0.242
-169.896	800.000	0.038	0.114
-168.881	-97.922	-0.097	-0.025
-167.866	-200.000	-0.040	0.274
-166.852	89.700	-0.224	-0.247
-165.837	-200.000	-0.009	0.104
-164.823	800.000	0.044	-0.145
-163.808	263.235	0.159	0.274
-162.793	-24.407	-0.218	-0.128
-161.779	190.310	-0.090	-0.134
-160.764	122.507	-0.163	-0.202
-159.750	-77.458	-0.143	-0.049
-158.735	500.914	0.033	-0.076
-157.720	800.000	0.053	-0.164
-156.706	-200.000	-0.004	0.168
-155.691	-70.288	-0.298	0.112
-154.677	-200.000	0.017	0.189
-153.662	57.946	-0.262	-0.253
-152.647	135.695	-0.135	-0.173
-151.633	30.784	0.306	0.259
-150.618	800.000	-0.067	0.278
-149.604	3.931	-0.205	0.148
-148.589	-200.000	0.046	-0.262
-147.574	-0.517	-0.177	0.124
-146.560	233.262	0.110	-0.178
-145.545	-119.706	-0.098	0.017
-144.531	190.708	-0.072	-0.106
-143.516	30.501	-0.352	-0.297
-142.502	203.346	0.016	-0.024
-141.487	115.776	0.195	0.236
-140.472	114.356	0.090	0.108
-139.458	-75.977	-0.104	0.036
-138.443	-92.069	-0.222	-0.062
-137.429	800.000	0.135	0.401
-136.414	-103.900	0.425	-0.098
-135.399	61.031	-0.323	0.317
-134.385	-75.022	0.098	0.035
-133.370	371.204	-0.058	0.115
-132.356	-63.075	-0.111	0.045
-131.341	800.000	-0.029	-0.092
-130.326	-5.962	0.161	0.109
-129.312	800.000	-0.076	0.292
-128.297	12.190	-0.175	0.133
-127.283	-92.721	-0.223	-0.062
-126.268	-44.489	0.052	-0.025
-125.253	800.000	0.033	-0.143
-124.239	88.202	0.234	0.256
-123.224	800.000	0.096	0.305
-122.210	800.000	-0.043	0.120
-121.195	53.980	0.200	-0.190
