DTS Sentinel unit serial number:	SN413079Multiplexer serial number:	ORYXHardware model number:	OX4-SRSoftware version number:	ORYX F/W v4.00 Oryx Data Collector v3.7.2.0data status	okinstallation	princeton_trtdifferential loss correction	single-endedforward channel	channel 1reverse channel	N/Adate	2019/09/12time	02:40:11forward acquisition time	60.00reverse acquisition time	0.00gamma	496.2192k internal	0.2322k external	0.2322temperature offset calibration	1.0077default loss term (dB/km)	0.3790temperature slope calibration	1.0000multiplexer offset coefficient	1.0000multiplexer slope coefficient	1.0000fibre end	0.00T internal ref (°C)	32.42T ext. ref 1 (°C)	2.08T ext. ref 2 (°C)	27.17length (m)	temperature (°C)	Stokes	anti-Stokes-747.200	599.941	0.107	0.269
-746.185	-62.120	-0.201	0.085
-745.171	-83.028	0.438	-0.143
-744.156	182.826	-0.120	0.178
-743.142	-38.571	0.182	0.097
-742.127	126.549	-0.210	0.268
-741.112	27.695	0.117	-0.100
-740.098	-158.321	0.231	0.014
-739.083	252.531	0.213	0.367
-738.069	-87.662	-0.417	0.127
-737.054	-156.778	-0.395	-0.025
-736.039	123.968	-0.199	-0.253
-735.025	-161.606	0.125	-0.006
-734.010	-200.000	0.067	0.339
-732.996	800.000	-0.039	0.121
-731.981	15.579	-0.149	-0.118
-730.966	-44.536	-0.181	-0.091
-729.952	147.505	0.090	-0.122
-728.937	793.655	0.058	0.160
-727.923	39.420	-0.235	-0.212
-726.908	712.082	-0.106	-0.283
-725.894	26.895	0.229	-0.194
-724.879	142.931	-0.104	0.140
-723.864	247.843	0.132	0.225
-722.850	190.408	-0.123	-0.187
-721.835	43.259	-0.331	-0.305
-720.821	141.690	-0.086	0.115
-719.806	-59.215	-0.334	0.145
-718.791	-120.180	0.376	-0.065
-717.777	-80.663	-0.361	-0.121
-716.762	-37.430	-0.299	-0.161
-715.748	57.822	-0.179	-0.176
-714.733	-67.215	-0.345	0.137
-713.718	76.531	0.113	0.121
-712.704	245.280	0.170	0.288
-711.689	122.484	-0.278	-0.351
-710.675	800.000	-0.033	-0.133
-709.660	291.381	-0.135	-0.248
-708.645	450.434	0.153	-0.341
-707.631	-113.579	0.164	-0.032
-706.616	-42.102	0.416	-0.215
-705.602	-200.000	0.023	-0.115
-704.587	307.164	-0.073	-0.136
-703.572	5.678	-0.177	-0.132
-702.558	-74.793	-0.080	0.029
-701.543	-200.000	-0.034	-0.245
-700.529	241.391	0.074	-0.124
-699.514	-36.446	-0.049	-0.027
-698.499	213.711	0.131	-0.210
-697.485	82.335	0.068	-0.075
-696.470	-92.941	0.127	0.036
-695.456	-118.102	0.194	0.035
-694.441	-200.000	-0.005	-0.051
-693.426	-33.142	-0.175	0.098
-692.412	-161.779	0.039	0.002
-691.397	-117.881	0.233	-0.042
-690.383	575.100	0.034	-0.082
-689.368	-43.781	-0.245	-0.124
-688.354	800.000	0.112	-0.326
-687.339	317.873	-0.027	-0.051
-686.324	215.825	0.066	0.106
-685.310	337.502	-0.152	0.297
-684.295	56.750	0.089	-0.087
-683.281	-112.624	0.146	0.029
-682.266	-114.969	0.439	-0.084
-681.251	496.752	0.095	0.221
-680.237	-7.336	-0.133	-0.091
-679.222	-102.973	-0.264	0.063
-678.208	527.642	0.044	0.106
-677.193	584.425	-0.054	0.134
-676.178	68.545	0.102	-0.105
-675.164	-41.325	-0.230	-0.119
-674.149	142.800	0.269	-0.360
-673.135	50.706	0.232	0.221
-672.120	256.131	-0.163	-0.282
-671.105	-156.943	0.100	-0.006
-670.091	800.000	-0.109	0.340
-669.076	179.585	0.022	0.032
-668.062	-200.000	0.014	0.178
-667.047	263.528	0.085	-0.149
-666.032	800.000	-0.050	0.160
-665.018	-200.000	-0.003	-0.147
-664.003	158.486	0.118	-0.165
-662.989	-142.563	0.237	-0.023
-661.974	754.623	0.072	0.196
-660.959	-66.401	0.248	-0.099
-659.945	-66.495	-0.155	0.062
-658.930	-61.746	0.195	-0.082
-657.916	86.805	-0.105	0.117
-656.901	17.324	0.151	-0.121
-655.886	-200.000	-0.002	0.023
-654.872	-31.166	0.316	-0.179
-653.857	-200.000	0.005	0.155
-652.843	39.744	-0.161	-0.146
-651.828	269.101	-0.120	0.211
-650.814	-200.000	-0.035	0.364
-649.799	-200.000	-0.037	-0.173
-648.784	-133.267	-0.232	0.029
-647.770	-200.000	-0.012	-0.282
-646.755	-57.607	-0.073	-0.032
-645.741	-38.824	0.241	-0.128
-644.726	800.000	-0.079	0.294
-643.711	84.989	0.107	0.118
-642.697	800.000	0.055	0.165
-641.682	-120.158	-0.063	-0.011
-640.668	92.497	-0.118	0.134
-639.653	63.221	0.190	-0.191
-638.638	-83.251	0.094	0.030
-637.624	-200.000	-0.059	-0.480
-636.609	-62.522	-0.104	-0.043
-635.595	472.463	-0.160	0.363
-634.580	-99.266	-0.063	0.016
-633.565	-102.507	0.137	0.033
-632.551	-134.329	-0.240	-0.030
-631.536	44.542	0.309	0.286
-630.522	100.247	-0.155	-0.180
-629.507	-200.000	-0.329	0.001
-628.492	9.934	-0.162	0.123
-627.478	-57.074	-0.317	0.140
-626.463	-200.000	-0.019	0.438
-625.449	673.202	-0.095	0.249
-624.434	800.000	0.019	-0.074
-623.419	-200.000	0.011	-0.132
-622.405	-160.624	-0.401	-0.021
-621.390	69.776	-0.203	0.210
-620.376	800.000	-0.025	0.078
-619.361	-200.000	0.054	0.347
-618.346	60.471	-0.233	-0.232
-617.332	-66.191	0.195	-0.078
-616.317	-200.000	0.002	-0.022
-615.303	195.074	0.126	-0.193
-614.288	24.130	0.235	-0.195
-613.273	800.000	0.097	-0.291
-612.259	-144.819	0.218	-0.020
-611.244	-146.991	0.124	0.011
-610.230	-1.911	0.207	-0.146
-609.215	-200.000	0.048	0.212
-608.201	127.782	-0.057	0.073
-607.186	255.249	0.080	0.138
-606.171	-101.193	-0.345	-0.085
-605.157	800.000	0.073	0.291
-604.142	-87.258	0.165	0.050
-603.128	431.341	0.044	-0.095
-602.113	-200.000	0.000	-0.071
-601.098	128.114	-0.287	0.367
-600.084	324.346	-0.239	-0.458
-599.069	-24.770	-0.044	-0.027
-598.055	-159.133	0.258	0.015
-597.040	-20.546	-0.082	-0.050
-596.025	-170.466	-0.151	-0.005
-595.011	800.000	0.038	0.117
-593.996	-114.249	-0.132	-0.026
-592.982	97.362	0.093	-0.107
-591.967	60.862	0.145	-0.145
-590.952	42.826	0.086	-0.079
-589.938	88.177	-0.099	0.111
-588.923	-94.610	0.302	0.082
-587.909	-117.811	0.306	-0.055
-586.894	195.582	-0.063	-0.097
-585.879	248.251	-0.057	0.096
-584.865	648.540	-0.058	0.150
-583.850	-200.000	-0.314	0.001
-582.836	208.964	-0.037	0.058
-581.821	91.615	0.192	0.216
-580.806	800.000	-0.051	-0.154
-579.792	489.315	-0.092	-0.211
-578.777	-129.862	-0.221	-0.031
-577.763	-138.251	0.519	-0.058
-576.748	-200.000	-0.003	0.457
-575.733	800.000	0.079	-0.292
-574.719	-170.721	-0.349	0.012
-573.704	-148.841	0.191	0.015
-572.690	13.143	-0.117	0.091
-571.675	156.254	0.061	0.084
-570.661	54.755	0.159	-0.154
-569.646	41.317	0.273	0.248
-568.631	55.321	-0.145	-0.140
-567.617	-200.000	0.061	-0.272
-566.602	166.582	-0.143	0.203
-565.588	-54.599	-0.207	-0.094
-564.573	105.870	0.151	-0.179
-563.558	-200.000	-0.033	0.243
-562.544	-34.626	0.336	-0.184
-561.529	-200.000	0.062	-0.316
-560.515	-200.000	-0.016	-0.106
-559.500	-32.093	-0.288	0.162
-558.485	672.635	0.015	-0.039
-557.471	-23.954	0.179	-0.108
-556.456	-119.576	-0.113	-0.020
-555.442	423.979	0.082	0.177
-554.427	-89.972	-0.227	0.066
-553.412	51.118	-0.178	0.169
-552.398	135.185	0.360	0.470
-551.383	-97.736	0.228	-0.059
-550.369	383.623	0.067	0.138
-549.354	240.354	-0.113	-0.189
-548.339	-200.000	-0.072	-0.375
-547.325	-28.257	-0.155	-0.090
-546.310	-46.333	0.176	0.087
-545.296	513.525	0.075	0.176
-544.281	191.217	-0.172	-0.259
-543.266	800.000	0.056	-0.224
-542.252	-110.977	-0.101	0.021
-541.237	-26.703	-0.164	-0.096
-540.223	-53.030	-0.260	-0.120
-539.208	-69.915	0.168	-0.064
-538.193	-136.062	0.061	0.007
-537.179	178.391	-0.174	-0.254
-536.164	800.000	-0.063	-0.256
-535.150	381.533	0.061	0.125
-534.135	0.378	-0.157	0.112
-533.121	-200.000	-0.022	-0.340
-532.106	800.000	-0.081	-0.275
-531.091	-47.821	-0.028	-0.013
-530.077	800.000	0.016	-0.065
-529.062	344.971	-0.143	-0.282
-528.048	800.000	0.082	0.226
-527.033	-97.100	0.380	0.100
-526.018	-161.611	-0.152	-0.008
-525.004	263.170	-0.239	-0.416
-523.989	370.509	-0.181	-0.368
-522.975	-200.000	0.023	-0.394
-521.960	381.913	-0.109	-0.223
-520.945	-153.647	0.304	0.021
-519.931	66.607	0.251	0.255
-518.916	213.699	0.172	0.272
-517.902	-8.641	0.189	-0.127
-516.887	779.351	-0.110	-0.302
-515.872	34.328	0.202	0.176
-514.858	7.230	0.142	0.106
-513.843	631.297	-0.058	-0.146
-512.829	-200.000	-0.017	0.121
-511.814	800.000	-0.125	-0.415
-510.799	52.331	0.125	-0.119
-509.785	36.489	0.236	-0.208
-508.770	80.323	-0.074	0.080
-507.756	-200.000	-0.234	0.001
-506.741	743.141	0.059	-0.160
-505.726	-107.045	-0.131	0.029
-504.712	800.000	0.079	0.270
-503.697	162.562	0.070	-0.098
-502.683	-71.630	-0.092	0.034
-501.668	121.446	-0.124	0.154
-500.653	-147.907	0.296	0.025
-499.639	-41.033	0.056	0.029
-498.624	-142.951	0.110	-0.011
-497.610	99.997	-0.258	0.299
-496.595	-95.879	-0.172	0.046
-495.581	-176.637	-0.673	0.017
-494.566	-200.000	0.020	-0.192
-493.551	-200.000	0.005	0.116
-492.537	350.642	0.016	0.031
-491.522	-78.292	-0.267	0.092
-490.508	800.000	0.076	0.240
-489.493	169.293	-0.180	-0.257
-488.478	253.653	-0.121	-0.207
-487.464	-66.104	0.345	-0.138
-486.449	800.000	0.086	-0.244
-485.435	-61.367	-0.269	0.113
-484.420	-122.560	0.243	-0.039
-483.405	241.420	0.027	-0.045
-482.391	-105.272	0.267	-0.061
-481.376	793.940	-0.061	-0.168
-480.362	-152.613	-0.221	0.016
-479.347	-97.057	-0.191	-0.050
-478.332	427.323	-0.177	-0.383
-477.318	-65.546	-0.041	-0.016
-476.303	484.491	-0.242	0.550
-475.289	-143.927	-0.043	0.004
-474.274	-200.000	-0.005	0.139
-473.259	5.126	0.154	-0.114
-472.245	79.506	-0.161	-0.173
-471.230	-200.000	-0.018	-0.132
-470.216	-173.717	0.201	0.006
-469.201	-108.522	0.200	0.043
-468.186	95.948	0.155	0.177
-467.172	21.320	0.186	0.151
-466.157	-14.177	0.241	-0.155
-465.143	172.010	-0.114	-0.163
-464.128	-200.000	0.031	-0.206
-463.113	213.564	-0.126	0.200
-462.099	-53.144	0.363	0.167
-461.084	-200.000	0.003	0.210
-460.070	-53.108	0.184	0.085
-459.055	800.000	-0.062	0.266
-458.040	-200.000	-0.003	0.125
-457.026	-131.338	0.131	-0.017
-456.011	-200.000	0.058	0.260
-454.997	581.602	0.115	0.282
-453.982	-52.564	0.359	-0.166
-452.968	-182.983	0.205	-0.004
-451.953	800.000	-0.040	0.124
-450.938	715.808	0.140	-0.370
-449.924	-51.957	0.105	0.049
-448.909	-133.940	-0.212	0.026
-447.895	110.388	-0.242	0.290
-446.880	-0.300	0.156	0.111
-445.865	-200.000	0.002	-0.120
-444.851	800.000	-0.065	0.261
-443.836	-200.000	-0.042	0.393
-442.822	-105.104	-0.295	0.067
-441.807	800.000	-0.129	0.444
-440.792	-200.000	0.019	-0.138
-439.778	-200.000	-0.063	-0.425
-438.763	-90.013	0.373	0.109
-437.749	2.991	0.155	-0.113
-436.734	800.000	-0.075	-0.295
-435.719	-42.967	-0.125	0.063
-434.705	-155.833	-0.143	0.009
-433.690	168.769	0.078	0.111
-432.676	-83.138	-0.204	-0.065
-431.661	-153.589	0.068	0.005
-430.646	-1.165	0.159	-0.112
-429.632	-200.000	0.025	-0.247
-428.617	-7.116	-0.303	-0.205
-427.603	-87.499	-0.250	-0.076
-426.588	-200.000	-0.079	0.422
-425.573	46.420	0.157	0.146
-424.559	-66.543	-0.096	-0.038
-423.544	-31.209	0.120	0.067
-422.530	-34.472	-0.226	0.124
-421.515	-99.213	-0.289	-0.073
-420.500	615.209	-0.130	-0.326
-419.486	800.000	-0.053	0.170
-418.471	34.810	0.107	0.093
-417.457	-200.000	-0.019	-0.144
-416.442	592.763	-0.134	0.331
-415.428	299.463	0.178	-0.327
-414.413	-170.664	-0.135	0.005
-413.398	-32.045	-0.105	0.059
-412.384	-87.800	-0.062	-0.019
-411.369	55.920	-0.210	-0.203
-410.355	-71.410	0.215	-0.080
-409.340	-6.544	-0.080	-0.054
-408.325	192.074	0.046	0.069
-407.311	-200.000	-0.013	0.120
-406.296	149.273	0.076	-0.102
-405.282	-171.361	-0.167	-0.006
-404.267	-53.398	-0.038	-0.017
-403.252	-14.820	-0.313	0.200
-402.238	800.000	0.108	0.461
-401.223	-0.678	-0.249	-0.176
-400.209	407.190	-0.075	0.158
-399.194	114.734	0.272	-0.330
-398.179	-19.128	0.150	0.093
-397.165	-200.000	0.025	0.404
-396.150	-115.955	-0.090	0.017
-395.136	230.800	-0.158	-0.258
-394.121	-200.000	-0.056	-0.336
-393.106	-49.817	-0.174	-0.082
-392.092	116.122	0.227	-0.277
-391.077	244.375	0.017	0.029
-390.063	-200.000	0.071	-0.358
-389.048	195.925	-0.124	0.189
-388.033	44.644	-0.133	0.121
-387.019	226.195	-0.149	0.241
-386.004	703.928	0.107	0.280
-384.990	800.000	0.028	0.092
-383.975	260.121	-0.026	-0.045
-382.960	-140.155	-0.201	-0.021
-381.946	800.000	0.145	0.518
-380.931	800.000	-0.082	-0.230
-379.917	486.300	0.183	-0.416
-378.902	78.074	0.259	-0.276
-377.888	42.663	0.338	-0.306
-376.873	-50.247	-0.146	0.069
-375.858	-164.486	-0.282	0.013
-374.844	128.034	-0.098	0.124
-373.829	117.272	-0.052	0.063
-372.815	72.083	-0.161	0.167
-371.800	-10.209	0.224	0.148
-370.785	119.185	0.095	0.118
-369.771	-99.945	0.148	0.037
-368.756	62.571	-0.219	0.218
-367.742	-19.863	0.267	0.164
-366.727	-63.696	0.259	0.106
-365.712	-200.000	0.052	0.282
-364.698	-157.405	-0.177	0.011
-363.683	254.722	-0.053	-0.090
-362.669	-200.000	0.078	-0.388
-361.654	504.528	0.041	0.095
-360.639	-117.812	0.207	-0.037
-359.625	52.942	-0.281	-0.268
-358.610	71.452	0.113	-0.117
-357.596	-76.477	0.106	-0.037
-356.581	-64.401	0.133	0.054
-355.566	-74.227	-0.136	-0.049
-354.552	273.641	0.118	-0.207
-353.537	-200.000	-0.044	0.367
-352.523	574.992	0.075	-0.183
-351.508	-10.762	-0.110	0.072
-350.493	-83.535	-0.299	0.095
-349.479	-170.044	-0.110	0.004
-348.464	609.537	0.128	-0.317
-347.450	-96.379	0.291	0.077
-346.435	-200.000	0.001	0.260
-345.420	-127.605	0.203	-0.029
-344.406	-61.075	0.193	-0.081
-343.391	-28.906	0.138	0.079
-342.377	-0.499	-0.105	-0.074
-341.362	-110.707	0.333	0.068
-340.348	-200.000	0.064	0.569
-339.333	69.415	0.204	0.209
-338.318	-155.113	0.289	-0.019
-337.304	-130.129	-0.160	-0.022
-336.289	98.884	0.148	0.170
-335.275	-200.000	0.000	0.079
-334.260	-200.000	0.036	-0.303
-333.245	254.902	-0.068	-0.115
-332.231	-4.613	0.149	0.102
-331.216	323.366	-0.161	-0.305
-330.202	-200.000	0.027	0.134
-329.187	-200.000	-0.031	0.233
-328.172	-139.238	-0.193	-0.021
-327.158	-116.679	0.255	-0.047
-326.143	393.487	-0.129	0.267
-325.129	34.536	-0.208	-0.180
-324.114	44.056	0.140	0.128
-323.099	180.835	0.138	0.201
-322.085	-15.255	-0.238	0.151
-321.070	636.038	0.048	0.121
-320.056	224.745	0.164	0.263
-319.041	42.643	-0.262	-0.237
-318.026	778.078	0.074	-0.200
-317.012	-24.097	0.302	-0.179
-315.997	304.594	0.089	0.164
-314.983	240.733	0.059	0.098
-313.968	800.000	-0.141	0.398
-312.953	-200.000	0.032	0.308
-311.939	265.367	-0.040	-0.070
-310.924	194.283	-0.112	-0.169
-309.910	-200.000	-0.033	0.276
-308.895	81.671	0.082	0.089
-307.880	800.000	-0.107	0.453
-306.866	-25.689	0.118	-0.069
-305.851	-36.324	0.403	0.216
-304.837	-200.000	0.013	-0.227
-303.822	733.593	-0.143	0.379
-302.807	-36.680	0.325	-0.173
-301.793	101.475	-0.147	-0.170
-300.778	322.403	-0.097	0.184
-299.764	-95.907	-0.169	0.045
-298.749	366.012	-0.160	0.320
-297.735	7.903	0.193	0.144
-296.720	-76.412	0.268	-0.094
-295.705	-56.274	-0.241	0.106
-294.691	419.616	-0.033	0.070
-293.676	-106.801	0.128	-0.028
-292.662	800.000	0.081	-0.224
-291.647	800.000	-0.032	0.108
-290.632	51.711	-0.194	0.183
-289.618	-76.490	0.054	0.019
-288.603	-137.649	0.183	-0.020
-287.589	-160.741	0.204	0.011
-286.574	132.271	-0.253	-0.324
-285.559	-153.399	0.081	-0.006
-284.545	-200.000	0.006	0.057
-283.530	193.579	0.124	0.186
-282.516	-26.684	0.116	-0.068
-281.501	37.815	0.115	-0.101
-280.486	615.097	0.091	0.226
-279.472	-200.000	-0.037	-0.292
-278.457	800.000	0.059	-0.226
-277.443	36.046	0.037	0.033
-276.428	-68.045	0.230	-0.089
-275.413	254.537	0.128	0.217
-274.399	-42.207	0.165	-0.084
-273.384	353.717	-0.091	-0.180
-272.370	-169.239	0.042	0.002
-271.355	68.710	0.249	0.253
-270.340	133.549	-0.052	0.067
-269.326	374.992	0.033	0.068
-268.311	273.419	0.131	-0.229
-267.297	253.050	-0.039	-0.067
-266.282	-101.902	0.301	-0.072
-265.267	800.000	-0.041	-0.150
-264.253	-110.558	-0.128	-0.026
-263.238	800.000	0.093	-0.378
-262.224	-59.305	-0.235	-0.100
-261.209	9.292	0.069	0.052
-260.195	12.388	0.178	0.136
-259.180	-95.634	-0.498	0.132
-258.165	-121.956	0.215	0.035
-257.151	-200.000	-0.008	0.136
-256.136	800.000	0.084	0.260
-255.122	-73.611	-0.201	0.073
-254.107	238.553	-0.060	-0.100
-253.092	92.361	0.172	-0.193
-252.078	800.000	-0.094	-0.287
-251.063	-83.365	0.097	-0.031
-250.049	-200.000	-0.029	-0.246
-249.034	510.457	0.145	-0.334
-248.019	-200.000	0.025	-0.241
-247.005	9.994	-0.190	-0.143
-245.990	-15.330	0.231	0.146
-244.976	800.000	0.104	0.373
-243.961	216.360	-0.137	0.215
-242.946	530.937	-0.012	-0.028
-241.932	-14.706	0.012	-0.008
-240.917	100.117	-0.161	-0.184
-239.903	366.099	-0.156	-0.311
-238.888	-111.807	0.137	-0.028
-237.873	211.671	0.114	0.177
-236.859	5.661	-0.099	-0.072
-235.844	-200.000	0.031	-0.354
-234.830	596.215	-0.150	-0.368
-233.815	0.025	-0.222	-0.156
-232.800	76.541	0.093	-0.098
-231.786	189.470	-0.132	-0.195
-230.771	78.215	-0.239	-0.253
-229.757	-200.000	-0.009	0.190
-228.742	51.558	0.075	-0.071
-227.727	-200.000	-0.050	0.341
-226.713	-24.628	0.122	-0.072
-225.698	334.351	-0.035	-0.068
-224.684	31.387	0.215	-0.183
-223.669	-156.288	0.145	-0.009
-222.655	295.007	0.045	0.082
-221.640	724.388	-0.027	0.072
-220.625	430.334	-0.120	0.257
-219.611	-200.000	0.007	-0.273
-218.596	98.015	0.117	-0.133
-217.582	-105.156	0.352	-0.080
-216.567	800.000	0.027	0.114
-215.552	88.201	0.085	0.094
-214.538	-200.000	-0.001	0.112
-213.523	-200.000	0.019	0.392
-212.509	-76.761	-0.200	0.069
-211.494	260.666	0.095	-0.163
-210.479	-112.334	-0.125	0.025
-209.465	258.672	-0.140	0.239
-208.450	800.000	0.021	-0.063
-207.436	-77.500	-0.174	0.060
-206.421	-200.000	-0.034	0.215
-205.406	-200.000	-0.002	0.064
-204.392	4.103	-0.139	-0.100
-203.377	-75.056	0.254	0.090
-202.363	97.711	0.067	0.076
-201.348	144.916	0.143	0.190
-200.333	-200.000	0.009	0.235
-199.319	85.984	-0.135	-0.147
-198.304	-85.529	0.222	-0.068
-197.290	57.532	-0.219	-0.211
-196.275	15.889	-0.213	-0.166
-195.260	-99.898	-0.357	-0.088
-194.246	-66.051	-0.240	-0.095
-193.231	260.063	-0.125	-0.214
-192.217	-200.000	0.040	0.274
-191.202	-82.913	-0.175	0.056
-190.187	-24.843	0.247	-0.145
-189.173	162.974	0.189	0.262
-188.158	153.750	-0.201	-0.272
-187.144	181.584	-0.195	-0.284
-186.129	-167.818	0.177	0.007
-185.114	0.785	-0.065	0.046
-184.100	800.000	0.092	0.265
-183.085	-3.357	-0.209	0.144
-182.071	626.085	0.062	0.155
-181.056	355.453	-0.103	0.203
-180.042	30.537	0.273	-0.231
-179.027	145.147	0.198	-0.262
-178.012	-200.000	0.045	-0.287
-176.998	43.973	-0.332	0.300
-175.983	197.718	-0.065	-0.098
-174.969	6.228	0.235	0.173
-173.954	-9.326	-0.131	-0.087
-172.939	-113.265	-0.108	0.021
-171.925	-200.000	-0.040	0.249
-170.910	534.945	0.046	0.107
-169.896	-200.000	0.231	-0.001
-168.881	800.000	-0.038	0.151
-167.866	61.302	0.103	-0.101
-166.852	-65.947	0.257	0.101
-165.837	-130.491	-0.059	0.008
-164.823	-200.000	0.036	0.358
-163.808	-149.778	-0.344	-0.027
-162.793	800.000	-0.073	-0.249
-161.779	-92.597	0.304	-0.084
-160.764	-43.825	-0.206	-0.102
-159.750	-73.230	-0.331	0.120
-158.735	299.421	0.210	-0.381
-157.720	9.697	-0.337	-0.252
-156.706	-38.030	0.054	-0.028
-155.691	-200.000	-0.015	0.287
-154.677	31.950	-0.193	-0.165
-153.662	54.188	-0.205	-0.195
-152.647	-78.770	0.116	0.039
-151.633	-200.000	-0.017	0.315
-150.618	163.138	-0.127	-0.176
-149.604	30.877	-0.340	-0.287
-148.589	-56.941	0.512	-0.223
-147.574	175.378	-0.091	0.131
-146.560	90.410	0.121	0.134
-145.545	50.162	0.098	-0.091
-144.531	173.604	0.058	-0.082
-143.516	-32.798	-0.062	-0.034
-142.502	-20.808	0.225	0.136
-141.487	31.998	-0.186	0.158
-140.472	800.000	-0.061	-0.252
-139.458	-200.000	-0.001	0.060
-138.443	-115.590	-0.235	0.044
-137.429	-200.000	-0.035	-0.364
-136.414	-51.509	0.103	-0.047
-135.399	-200.000	-0.001	0.166
-134.385	344.496	-0.064	-0.124
-133.370	-127.754	-0.259	-0.037
-132.356	800.000	0.071	0.249
-131.341	-75.032	-0.059	0.021
-130.326	146.758	0.053	0.070
-129.312	800.000	0.028	0.081
-128.297	-80.422	-0.292	0.096
-127.283	-200.000	-0.008	-0.172
-126.268	-42.452	0.125	0.063
-125.253	-113.237	0.147	-0.028
-124.239	380.107	-0.022	-0.044
-123.224	-22.885	0.206	0.123
-122.210	-200.000	-0.017	0.143
-121.195	29.327	0.279	-0.233
