DTS Sentinel unit serial number:	SN413079Multiplexer serial number:	ORYXHardware model number:	OX4-SRSoftware version number:	ORYX F/W v4.00 Oryx Data Collector v3.7.2.0data status	okinstallation	princeton_trtdifferential loss correction	single-endedforward channel	channel 1reverse channel	N/Adate	2019/09/11time	22:40:11forward acquisition time	60.00reverse acquisition time	0.00gamma	496.2192k internal	0.2315k external	0.2315temperature offset calibration	1.0056default loss term (dB/km)	0.3790temperature slope calibration	1.0000multiplexer offset coefficient	1.0000multiplexer slope coefficient	1.0000fibre end	0.00T internal ref (°C)	34.87T ext. ref 1 (°C)	1.73T ext. ref 2 (°C)	28.80length (m)	temperature (°C)	Stokes	anti-Stokes-747.200	29.747	0.123	-0.107
-746.185	-200.000	-0.023	0.425
-745.171	-147.253	0.206	0.018
-744.156	364.698	0.129	0.262
-743.142	-114.158	0.161	-0.032
-742.127	-106.491	-0.358	-0.081
-741.112	800.000	-0.019	0.065
-740.098	564.005	0.127	0.311
-739.083	-0.703	-0.283	-0.203
-738.069	611.616	0.179	0.454
-737.054	-63.122	-0.211	-0.088
-736.039	-44.726	0.050	0.025
-735.025	-200.000	0.037	0.169
-734.010	111.288	0.133	0.162
-732.996	-7.351	-0.069	0.047
-731.981	573.804	-0.093	-0.231
-730.966	-200.000	-0.018	-0.422
-729.952	-103.022	-0.151	-0.036
-728.937	112.835	-0.085	-0.105
-727.923	137.611	-0.163	-0.216
-726.908	-114.795	0.185	0.036
-725.894	-200.000	0.010	-0.143
-724.879	27.755	0.072	-0.061
-723.864	-200.000	-0.027	-0.141
-722.850	-31.636	-0.129	-0.074
-721.835	-122.927	-0.392	-0.064
-720.821	-38.086	-0.176	-0.095
-719.806	-29.325	-0.028	-0.016
-718.791	800.000	-0.162	0.465
-717.777	10.334	-0.193	-0.149
-716.762	168.096	-0.052	-0.075
-715.748	304.432	-0.054	0.102
-714.733	87.582	-0.313	-0.351
-713.718	170.006	-0.095	-0.137
-712.704	137.546	-0.163	-0.216
-711.689	800.000	0.004	0.012
-710.675	-40.910	-0.293	-0.153
-709.660	1.980	-0.078	0.057
-708.645	-25.071	-0.169	-0.101
-707.631	-196.152	-0.490	-0.003
-706.616	71.816	-0.184	-0.193
-705.602	800.000	-0.108	-0.319
-704.587	-200.000	-0.008	0.257
-703.572	-30.759	0.316	-0.181
-702.558	-86.187	-0.317	-0.099
-701.543	-191.013	0.208	0.002
-700.529	359.949	-0.078	-0.157
-699.514	-200.000	-0.015	-0.188
-698.499	-21.098	-0.042	-0.026
-697.485	-52.512	0.296	0.138
-696.470	-15.541	-0.040	0.026
-695.456	800.000	-0.031	-0.091
-694.441	-158.715	0.241	-0.014
-693.426	-156.379	-0.225	0.014
-692.412	-62.913	-0.389	-0.163
-691.397	-103.595	0.220	-0.052
-690.383	-151.839	0.314	0.023
-689.368	-200.000	0.021	0.145
-688.354	-155.490	-0.370	0.024
-687.339	41.285	0.108	-0.099
-686.324	-109.345	-0.236	-0.051
-685.310	-200.000	-0.067	0.440
-684.295	8.299	-0.203	0.154
-683.281	-59.386	-0.214	-0.093
-682.266	-200.000	-0.003	0.362
-681.251	-63.953	-0.200	-0.083
-680.237	-77.198	-0.209	-0.073
-679.222	800.000	0.089	0.254
-678.208	249.877	0.163	0.279
-677.193	-73.348	-0.388	0.143
-676.178	800.000	0.079	-0.331
-675.164	71.107	0.107	-0.113
-674.149	-200.000	-0.081	0.562
-673.135	-46.495	0.077	-0.038
-672.120	255.106	-0.074	-0.128
-671.105	800.000	-0.050	0.166
-670.091	776.567	0.023	-0.062
-669.076	100.441	0.160	0.187
-668.062	27.761	-0.194	-0.165
-667.047	-200.000	0.000	0.043
-666.032	800.000	0.090	-0.314
-665.018	800.000	-0.083	-0.246
-664.003	-107.875	0.313	-0.069
-662.989	-157.269	-0.354	0.022
-661.974	353.396	0.150	-0.301
-660.959	800.000	-0.155	0.561
-659.945	-6.091	0.332	0.229
-658.930	58.952	0.044	0.044
-657.916	-70.560	-0.065	0.025
-656.901	10.166	0.139	-0.107
-655.886	-24.610	-0.047	-0.028
-654.872	147.903	-0.268	-0.365
-653.857	-59.719	-0.067	0.029
-652.843	29.175	-0.292	-0.250
-651.828	-200.000	-0.014	-0.100
-650.814	60.562	-0.308	-0.308
-649.799	63.836	-0.249	-0.253
-648.784	-154.432	0.106	-0.007
-647.770	723.044	-0.048	-0.128
-646.755	12.104	-0.301	-0.234
-645.741	-110.665	-0.147	-0.031
-644.726	-59.639	0.099	0.043
-643.711	800.000	0.033	-0.097
-642.697	199.941	0.164	-0.255
-641.682	-94.896	0.160	0.044
-640.668	800.000	-0.068	-0.227
-639.653	-61.214	-0.273	-0.116
-638.638	-71.717	-0.029	-0.011
-637.624	6.129	0.098	-0.074
-636.609	-35.752	-0.139	0.076
-635.595	-120.896	0.252	-0.043
-634.580	-90.961	0.261	0.076
-633.565	743.669	-0.103	0.279
-632.551	454.851	-0.152	0.341
-631.536	-53.112	0.163	-0.075
-630.522	213.417	0.058	0.093
-629.507	-162.803	-0.112	-0.006
-628.492	-200.000	0.062	0.279
-627.478	-200.000	0.044	0.237
-626.463	201.040	0.188	0.292
-625.449	-49.541	-0.259	-0.125
-624.434	92.143	0.104	-0.118
-623.419	18.258	-0.176	-0.142
-622.405	7.806	-0.156	0.118
-621.390	207.751	-0.194	-0.306
-620.376	-10.375	0.095	0.064
-619.361	-200.000	-0.025	0.144
-618.346	-82.380	-0.271	-0.089
-617.332	-54.012	0.202	0.093
-616.317	633.103	-0.107	0.273
-615.303	-6.021	-0.285	-0.197
-614.288	-7.933	-0.096	-0.066
-613.273	55.631	0.047	0.046
-612.259	164.466	-0.097	-0.138
-611.244	-112.407	0.233	-0.047
-610.230	800.000	0.030	-0.086
-609.215	-200.000	-0.005	0.047
-608.201	63.468	0.145	0.146
-607.186	-44.286	-0.252	-0.127
-606.171	219.907	0.194	0.313
-605.157	52.621	-0.102	-0.098
-604.142	69.569	-0.098	-0.102
-603.128	-90.957	0.251	0.073
-602.113	-87.811	0.274	-0.083
-601.098	70.925	-0.252	-0.263
-600.084	71.977	0.006	0.006
-599.069	-142.693	-0.152	-0.015
-598.055	-187.902	-0.161	-0.002
-597.040	-200.000	0.015	0.068
-596.025	-72.250	0.165	-0.062
-595.011	163.396	-0.051	-0.073
-593.996	-137.238	-0.234	0.027
-592.982	-33.841	-0.414	-0.230
-591.967	-90.225	-0.084	-0.025
-590.952	-64.382	0.304	0.125
-589.938	-112.062	-0.244	0.050
-588.923	156.357	-0.240	-0.333
-587.909	-200.000	-0.026	-0.263
-586.894	800.000	-0.022	0.083
-585.879	-200.000	-0.024	0.146
-584.865	70.468	-0.211	-0.219
-583.850	-12.433	0.246	0.162
-582.836	-138.069	0.163	-0.018
-581.821	11.852	0.134	0.103
-580.806	513.207	-0.072	-0.169
-579.792	-151.731	-0.221	-0.016
-578.777	28.144	0.087	0.074
-577.763	105.693	-0.144	0.171
-576.748	134.974	-0.083	0.109
-575.733	-20.213	0.451	0.280
-574.719	587.347	-0.138	-0.342
-573.704	54.657	-0.232	-0.226
-572.690	45.656	0.170	0.158
-571.675	800.000	0.019	0.077
-570.661	800.000	0.029	-0.110
-569.646	-200.000	0.062	-0.316
-568.631	-49.778	-0.134	-0.064
-567.617	-117.499	-0.314	0.057
-566.602	-200.000	0.016	-0.182
-565.588	713.340	-0.042	0.112
-564.573	436.579	0.069	0.150
-563.558	147.022	0.040	0.054
-562.544	6.834	0.191	0.143
-561.529	-168.719	0.184	-0.007
-560.515	800.000	0.026	-0.089
-559.500	9.895	-0.433	0.330
-558.485	235.013	0.200	0.332
-557.471	800.000	0.131	-0.373
-556.456	-85.121	0.143	0.045
-555.442	-12.163	-0.161	0.106
-554.427	-123.956	0.209	0.033
-553.412	-200.000	-0.053	0.277
-552.398	93.346	0.110	0.126
-551.383	-65.393	-0.147	-0.060
-550.369	96.348	-0.141	0.162
-549.354	-3.835	-0.030	-0.021
-548.339	195.998	0.094	0.144
-547.325	298.827	-0.206	-0.382
-546.310	-200.000	0.023	0.119
-545.296	241.586	0.112	0.188
-544.281	-35.386	-0.182	0.099
-543.266	-50.908	-0.168	0.079
-542.252	800.000	-0.055	0.217
-541.237	-82.358	-0.311	-0.102
-540.223	410.872	0.291	0.620
-539.208	-79.072	0.099	0.034
-538.193	-60.558	0.161	-0.069
-537.179	800.000	0.075	-0.215
-536.164	44.090	0.216	0.199
-535.150	-79.526	0.201	-0.068
-534.135	-200.000	0.002	-0.147
-533.121	800.000	-0.033	0.105
-532.106	403.637	0.042	-0.089
-531.091	-8.042	0.049	0.033
-530.077	-200.000	0.002	-0.169
-529.062	-200.000	-0.007	0.271
-528.048	-200.000	-0.048	0.280
-527.033	-6.151	-0.237	-0.163
-526.018	486.094	0.100	-0.228
-525.004	182.065	-0.130	0.192
-523.989	-200.000	-0.007	-0.055
-522.975	165.252	0.096	0.137
-521.960	-148.450	0.236	-0.019
-520.945	21.739	0.177	0.145
-519.931	-200.000	-0.225	0.001
-518.916	296.805	0.063	-0.117
-517.902	33.240	-0.196	0.171
-516.887	89.503	-0.095	0.106
-515.872	72.419	-0.298	0.312
-514.858	-177.662	-0.126	0.003
-513.843	-30.962	0.156	-0.088
-512.829	800.000	-0.040	-0.117
-511.814	227.830	0.162	-0.265
-510.799	51.561	-0.164	0.157
-509.785	698.673	0.046	-0.122
-508.770	48.693	0.100	-0.094
-507.756	294.239	-0.140	0.256
-506.741	800.000	0.021	-0.060
-505.726	71.415	0.080	0.083
-504.712	-7.002	-0.093	-0.064
-503.697	-177.753	0.293	0.007
-502.683	-128.204	-0.330	0.047
-501.668	800.000	0.045	0.135
-500.653	78.178	-0.087	0.093
-499.639	647.724	-0.167	-0.428
-498.624	671.679	-0.123	-0.320
-497.610	-106.023	-0.057	0.013
-496.595	-165.653	0.386	-0.017
-495.581	752.736	-0.119	0.322
-494.566	-115.856	0.237	-0.044
-493.551	110.398	-0.072	0.087
-492.537	156.053	0.127	-0.175
-491.522	501.461	0.039	0.090
-490.508	44.346	-0.027	0.025
-489.493	800.000	-0.119	-0.441
-488.478	-74.227	0.362	-0.131
-487.464	-58.627	-0.106	0.046
-486.449	-125.914	-0.149	0.023
-485.435	-55.545	0.167	-0.075
-484.420	154.848	0.125	-0.173
-483.405	-32.179	-0.209	-0.117
-482.391	-200.000	-0.027	0.345
-481.376	-145.950	0.032	-0.003
-480.362	123.484	-0.233	-0.293
-479.347	380.555	-0.067	-0.138
-478.332	-200.000	0.015	-0.123
-477.318	-78.927	0.136	-0.046
-476.303	-200.000	0.011	-0.203
-475.289	-178.700	0.283	0.007
-474.274	-92.957	0.312	0.087
-473.259	-150.700	-0.441	-0.034
-472.245	-200.000	0.003	-0.129
-471.230	800.000	0.040	-0.129
-470.216	-91.977	0.034	-0.010
-469.201	550.733	0.033	-0.079
-468.186	-200.000	0.032	0.177
-467.172	132.241	0.144	0.186
-466.157	114.530	-0.139	-0.170
-465.143	-44.742	-0.218	-0.109
-464.128	800.000	-0.018	-0.056
-463.113	-91.675	-0.249	-0.071
-462.099	-26.051	-0.092	0.054
-461.084	800.000	0.022	-0.075
-460.070	-83.483	-0.388	0.125
-459.055	-36.068	0.107	-0.058
-458.040	653.664	-0.042	-0.107
-457.026	-200.000	0.039	-0.264
-456.011	800.000	-0.055	0.228
-454.997	-200.000	0.002	-0.060
-453.982	-130.406	0.299	0.041
-452.968	-200.000	0.034	0.240
-451.953	800.000	0.074	-0.213
-450.938	800.000	-0.145	-0.562
-449.924	-173.053	-0.393	0.012
-448.909	-200.000	0.024	0.230
-447.895	-17.771	0.178	-0.112
-446.880	-200.000	-0.009	0.084
-445.865	-157.178	0.220	-0.013
-444.851	-82.244	0.316	-0.103
-443.836	-22.088	-0.160	0.097
-442.822	-200.000	-0.019	0.119
-441.807	278.473	0.186	-0.331
-440.792	255.951	-0.316	-0.543
-439.778	-67.853	-0.062	-0.024
-438.763	-57.366	0.365	-0.161
-437.749	448.526	-0.046	-0.102
-436.734	184.654	-0.164	0.243
-435.719	-89.160	-0.183	-0.054
-434.705	-8.161	0.083	-0.056
-433.690	-97.799	0.289	-0.075
-432.676	-121.991	-0.202	-0.033
-431.661	-200.000	0.006	0.266
-430.646	-200.000	-0.027	0.131
-429.632	-200.000	-0.003	-0.160
-428.617	-200.000	0.008	-0.227
-427.603	-0.996	0.047	0.033
-426.588	-10.371	-0.268	0.178
-425.573	-64.071	0.220	0.090
-424.559	-101.830	0.366	-0.089
-423.544	24.228	-0.100	0.082
-422.530	600.614	0.082	-0.204
-421.515	-86.339	-0.182	0.056
-420.500	303.380	-0.025	-0.046
-419.486	-86.859	0.044	0.013
-418.471	32.861	0.144	-0.125
-417.457	-29.572	0.085	-0.048
-416.442	-69.452	0.390	0.150
-415.428	800.000	0.136	0.418
-414.413	-113.435	-0.411	-0.081
-413.398	-50.679	0.126	0.059
-412.384	275.087	0.154	0.274
-411.369	386.670	-0.104	0.216
-410.355	520.881	-0.065	0.152
-409.340	389.868	0.023	0.047
-408.325	-112.143	0.183	0.037
-407.311	79.689	0.197	0.212
-406.296	222.202	0.130	-0.208
-405.282	290.198	0.034	-0.062
-404.267	-200.000	-0.056	0.334
-403.252	-200.000	-0.007	-0.105
-402.238	494.538	-0.190	-0.435
-401.223	-200.000	0.028	0.233
-400.209	-4.995	0.288	-0.198
-399.194	-63.158	-0.238	-0.098
-398.179	188.062	0.174	0.260
-397.165	-47.354	0.188	0.091
-396.150	-31.448	0.315	0.177
-395.136	293.098	-0.167	-0.305
-394.121	-200.000	0.037	0.244
-393.106	105.973	-0.080	-0.095
-392.092	14.289	-0.205	0.160
-391.077	0.791	0.281	-0.201
-390.063	-83.669	-0.234	0.075
-389.048	124.064	-0.129	0.162
-388.033	-153.298	0.217	-0.015
-387.019	458.691	0.008	0.018
-386.004	214.432	-0.083	-0.131
-384.990	-94.151	0.125	-0.034
-383.975	0.842	-0.312	0.223
-382.960	256.653	0.101	-0.174
-381.946	-20.276	-0.084	0.052
-380.931	30.746	-0.222	-0.190
-379.917	146.570	0.015	0.020
-378.902	163.461	-0.135	0.189
-377.888	366.484	-0.144	0.291
-376.873	-200.000	-0.066	0.359
-375.858	-16.833	-0.093	-0.059
-374.844	101.088	0.119	-0.139
-373.829	50.294	0.229	-0.216
-372.815	800.000	0.032	-0.108
-371.800	800.000	-0.129	-0.539
-370.785	107.378	0.178	0.211
-369.771	-200.000	0.008	-0.091
-368.756	-200.000	0.009	0.120
-367.742	800.000	0.077	-0.256
-366.727	266.761	-0.101	0.176
-365.712	98.315	0.143	-0.165
-364.698	-140.744	-0.087	0.009
-363.683	337.541	0.019	0.037
-362.669	74.885	-0.103	0.108
-361.654	10.255	0.197	-0.149
-360.639	37.103	-0.135	-0.119
-359.625	-32.976	-0.316	0.175
-358.610	-29.065	0.044	-0.025
-357.596	119.717	0.161	0.199
-356.581	650.064	0.213	-0.545
-355.566	44.648	0.144	-0.132
-354.552	-88.830	-0.292	-0.087
-353.537	129.408	-0.078	0.099
-352.523	-200.000	-0.009	0.217
-351.508	179.702	-0.123	0.179
-350.493	-12.279	-0.042	0.028
-349.479	-112.405	0.164	-0.033
-348.464	-103.754	-0.132	-0.031
-347.450	-96.409	-0.032	-0.008
-346.435	-200.000	-0.067	0.336
-345.420	104.321	0.076	0.089
-344.406	-117.216	0.334	0.061
-343.391	-4.071	0.291	0.201
-342.377	-200.000	-0.012	-0.372
-341.362	-82.803	0.305	0.098
-340.348	-59.833	-0.369	0.157
-339.333	-135.775	-0.292	-0.034
-338.318	116.785	0.243	0.297
-337.304	-200.000	0.012	0.217
-336.289	-18.777	0.381	0.237
-335.275	-36.804	-0.372	0.199
-334.260	-27.798	0.080	-0.046
-333.245	-98.582	0.179	0.046
-332.231	-180.012	0.299	0.006
-331.216	120.245	-0.262	0.324
-330.202	-200.000	-0.009	-0.383
-329.187	37.836	-0.246	-0.218
-328.172	-51.628	-0.156	0.073
-327.158	-200.000	0.056	0.396
-326.143	45.189	-0.057	-0.052
-325.129	-200.000	-0.014	-0.095
-324.114	-109.906	0.215	0.045
-323.099	650.075	-0.073	-0.186
-322.085	768.247	0.100	0.270
-321.070	330.975	0.177	0.340
-320.056	-42.361	-0.071	-0.036
-319.041	252.389	-0.155	0.263
-318.026	-109.692	0.201	0.042
-317.012	9.161	-0.054	0.041
-315.997	-30.744	0.008	0.004
-314.983	800.000	-0.101	0.406
-313.968	-40.130	-0.114	0.059
-312.953	487.683	0.178	-0.405
-311.939	-18.629	-0.066	-0.041
-310.924	219.709	-0.139	0.222
-309.910	450.782	0.120	-0.263
-308.895	-17.124	-0.154	0.097
-307.880	-182.919	0.713	0.013
-306.866	-200.000	-0.004	0.057
-305.851	150.285	-0.063	-0.085
-304.837	-26.696	-0.227	0.132
-303.822	308.794	0.110	0.205
-302.807	-55.048	-0.161	0.072
-301.793	203.575	0.109	0.168
-300.778	49.358	0.083	0.078
-299.764	-200.000	0.049	0.296
-298.749	-22.382	0.131	-0.079
-297.735	39.178	0.205	-0.182
-296.720	-115.714	-0.033	-0.006
-295.705	-200.000	-0.047	-0.219
-294.691	-200.000	-0.002	-0.127
-293.676	-9.667	0.174	0.115
-292.662	54.883	0.214	-0.205
-291.647	483.588	-0.074	0.167
-290.632	-84.726	0.374	0.117
-289.618	21.991	0.197	0.160
-288.603	752.482	0.067	-0.179
-287.589	38.072	-0.050	-0.045
-286.574	-161.310	-0.170	-0.009
-285.559	800.000	0.102	-0.358
-284.545	57.727	-0.116	0.113
-283.530	8.139	-0.165	-0.123
-282.516	364.545	0.153	-0.306
-281.501	-86.980	0.160	-0.049
-280.486	-97.915	0.277	-0.071
-279.472	298.322	0.189	0.346
-278.457	254.728	0.085	-0.144
-277.443	195.263	0.092	-0.140
-276.428	-200.000	-0.020	-0.152
-275.413	-125.162	0.114	0.017
-274.399	-169.033	-0.059	0.002
-273.384	270.862	0.217	0.379
-272.370	-200.000	-0.042	-0.375
-271.355	-200.000	-0.002	0.148
-270.340	-36.880	0.160	0.085
-269.326	-137.664	0.118	-0.013
-268.311	317.441	-0.018	-0.034
-267.297	-200.000	-0.047	0.221
-266.282	-114.239	0.380	-0.073
-265.267	86.359	0.337	0.369
-264.253	115.158	0.044	0.054
-263.238	-200.000	0.025	0.236
-262.224	-200.000	0.039	0.203
-261.209	457.208	-0.055	-0.122
-260.195	138.265	-0.185	0.242
-259.180	58.707	-0.089	-0.087
-258.165	33.555	0.112	0.096
-257.151	-145.351	-0.320	-0.029
-256.136	-43.264	0.121	-0.061
-255.122	-183.754	0.204	-0.003
-254.107	136.776	0.109	0.141
-253.092	464.748	-0.061	0.135
-252.078	800.000	0.089	0.273
-251.063	800.000	-0.104	-0.383
-250.049	-56.687	-0.120	-0.053
-249.034	-85.628	-0.173	-0.053
-248.019	-131.087	-0.203	-0.027
-247.005	425.607	-0.080	0.170
-245.990	31.376	-0.104	-0.089
-244.976	6.143	-0.066	-0.049
-243.961	110.573	-0.056	0.067
-242.946	-123.248	0.324	0.051
-241.932	6.239	0.112	-0.083
-240.917	-200.000	-0.024	0.289
-239.903	-200.000	-0.039	0.193
-238.888	-77.500	-0.198	0.068
-237.873	64.475	0.222	0.223
-236.859	-200.000	-0.005	-0.024
-235.844	-48.607	-0.096	0.046
-234.830	378.442	0.047	0.095
-233.815	330.813	-0.142	-0.271
-232.800	-71.676	0.235	-0.087
-231.786	-74.323	-0.206	-0.074
-230.771	156.700	-0.154	-0.211
-229.757	487.247	-0.037	0.084
-228.742	712.539	-0.132	0.347
-227.727	-132.516	-0.111	0.014
-226.713	-21.724	0.165	0.100
-225.698	354.309	0.151	0.298
-224.684	-1.651	-0.148	-0.104
-223.669	-200.000	0.006	0.197
-222.655	-60.043	-0.321	-0.136
-221.640	800.000	-0.009	0.025
-220.625	-200.000	-0.029	-0.213
-219.611	93.627	-0.267	-0.300
-218.596	-153.492	-0.171	-0.012
-217.582	177.356	0.205	-0.297
-216.567	563.007	-0.159	-0.381
-215.552	62.922	0.099	0.098
-214.538	200.375	0.152	-0.232
-213.523	-200.000	-0.026	-0.399
-212.509	35.275	0.210	-0.183
-211.494	-119.512	0.359	0.062
-210.479	-94.873	-0.199	0.053
-209.465	-89.112	-0.242	0.071
-208.450	-43.699	-0.258	0.129
-207.436	39.011	-0.135	0.120
-206.421	-200.000	0.033	0.311
-205.406	-127.021	-0.353	0.051
-204.392	800.000	0.019	-0.071
-203.377	800.000	0.027	-0.076
-202.363	800.000	-0.186	-0.539
-201.348	101.697	0.093	0.108
-200.333	541.367	-0.225	-0.532
-199.319	-200.000	0.019	0.188
-198.304	-102.796	0.447	-0.106
-197.290	-152.235	-0.370	-0.027
-196.275	-33.538	0.234	0.128
-195.260	-42.591	-0.375	-0.189
-194.246	-200.000	-0.004	-0.033
-193.231	465.044	-0.181	0.401
-192.217	-200.000	-0.029	-0.133
-191.202	-46.894	-0.107	0.052
-190.187	108.110	-0.274	-0.324
-189.173	-200.000	0.033	-0.253
-188.158	22.459	-0.274	-0.222
-187.144	-200.000	-0.018	-0.080
-186.129	-106.942	-0.325	-0.071
-185.114	-72.211	0.185	-0.068
-184.100	-54.872	0.057	0.025
-183.085	429.778	-0.044	-0.094
-182.071	800.000	0.047	-0.131
-181.056	-200.000	-0.015	0.399
-180.042	166.833	-0.068	-0.096
-179.027	185.462	0.041	-0.060
-178.012	-85.944	-0.249	-0.076
-176.998	-89.930	0.203	-0.059
-175.983	-200.000	0.049	-0.284
-174.969	-95.751	-0.220	0.058
-173.954	-200.000	-0.041	0.185
-172.939	759.306	0.126	-0.337
-171.925	45.745	0.192	0.176
-170.910	590.460	0.150	0.367
-169.896	-59.440	-0.049	0.021
-168.881	-78.951	0.053	-0.018
-167.866	512.210	-0.165	-0.381
-166.852	-200.000	0.030	-0.243
-165.837	-15.127	-0.153	-0.097
-164.823	-135.500	0.327	-0.039
-163.808	736.238	-0.025	-0.065
-162.793	268.848	0.121	0.210
-161.779	-200.000	-0.038	0.320
-160.764	-70.062	0.209	-0.079
-159.750	-24.760	-0.275	-0.162
-158.735	800.000	0.129	0.419
-157.720	22.543	0.271	-0.219
-156.706	588.086	0.194	-0.472
-155.691	17.210	-0.296	0.232
-154.677	-27.908	0.087	-0.050
-153.662	-78.894	0.297	0.100
-152.647	-154.075	-0.346	0.023
-151.633	132.415	0.136	0.173
-150.618	-135.470	-0.194	-0.023
-149.604	-160.709	0.452	-0.024
-148.589	5.939	0.229	-0.168
-147.574	-58.554	-0.266	-0.114
-146.560	-200.000	-0.006	0.080
-145.545	543.199	-0.060	-0.141
-144.531	35.296	0.213	0.185
-143.516	389.468	0.053	0.109
-142.502	124.777	0.065	0.082
-141.487	-142.371	0.294	-0.029
-140.472	-200.000	-0.001	0.067
-139.458	-177.681	-0.054	0.001
-138.443	-34.832	0.044	-0.024
-137.429	70.763	0.360	0.369
-136.414	42.470	0.233	-0.210
-135.399	-91.978	0.092	-0.026
-134.385	-66.154	-0.106	0.042
-133.370	-200.000	-0.206	0.000
-132.356	-14.153	-0.094	-0.060
-131.341	-45.298	0.310	0.152
-130.326	29.836	0.021	0.018
-129.312	-56.586	0.106	0.047
-128.297	16.698	0.204	-0.160
-127.283	-16.205	-0.208	0.131
-126.268	40.368	-0.214	-0.191
-125.253	-124.430	-0.265	-0.041
-124.239	-122.275	-0.095	0.015
-123.224	23.828	0.040	-0.032
-122.210	195.880	0.112	-0.169
