DTS Sentinel unit serial number:	SN413079Multiplexer serial number:	ORYXHardware model number:	OX4-SRSoftware version number:	ORYX F/W v4.00 Oryx Data Collector v3.7.2.0data status	okinstallation	princeton_trtdifferential loss correction	single-endedforward channel	channel 1reverse channel	N/Adate	2019/09/11time	10:00:11forward acquisition time	60.00reverse acquisition time	0.00gamma	496.2192k internal	0.2301k external	0.2301temperature offset calibration	0.9952default loss term (dB/km)	0.3790temperature slope calibration	1.0000multiplexer offset coefficient	1.0000multiplexer slope coefficient	1.0000fibre end	0.00T internal ref (°C)	35.37T ext. ref 1 (°C)	0.13T ext. ref 2 (°C)	32.74length (m)	temperature (°C)	Stokes	anti-Stokes-747.200	-17.128	0.145	0.093
-746.185	0.764	-0.183	0.134
-745.171	-159.157	-0.146	0.008
-744.156	-122.213	0.209	-0.035
-743.142	-33.549	0.049	0.027
-742.127	-53.542	-0.170	-0.079
-741.112	-44.129	-0.232	0.119
-740.098	247.901	0.047	-0.081
-739.083	46.237	0.119	-0.113
-738.069	-48.221	0.040	-0.020
-737.054	253.016	0.042	-0.074
-736.039	-105.976	0.069	-0.016
-735.025	42.928	-0.189	0.175
-734.010	800.000	0.090	-0.299
-732.996	608.205	-0.076	-0.194
-731.981	-135.326	-0.414	0.051
-730.966	65.491	0.245	0.253
-729.952	-46.121	-0.102	0.051
-728.937	-105.728	0.187	-0.043
-727.923	-55.154	-0.190	0.087
-726.908	717.510	0.091	0.245
-725.894	-200.000	-0.001	0.252
-724.879	-93.723	-0.228	-0.064
-723.864	-97.336	0.248	-0.066
-722.850	-200.000	0.009	0.128
-721.835	-200.000	-0.034	-0.317
-720.821	109.013	-0.254	0.309
-719.806	-22.190	-0.187	-0.116
-718.791	-34.786	-0.161	-0.090
-717.777	800.000	-0.082	-0.308
-716.762	-200.000	0.056	-0.403
-715.748	-94.395	-0.286	-0.079
-714.733	-114.587	0.479	-0.094
-713.718	79.774	0.187	0.204
-712.704	-200.000	0.022	-0.125
-711.689	-8.935	-0.178	-0.121
-710.675	-200.000	-0.003	0.281
-709.660	-41.314	0.211	0.111
-708.645	-13.280	-0.170	-0.112
-707.631	1.899	-0.333	-0.245
-706.616	132.032	-0.076	-0.100
-705.602	18.994	0.042	-0.034
-704.587	-200.000	-0.044	-0.266
-703.572	-89.949	0.255	0.076
-702.558	-92.739	-0.144	0.041
-701.543	-6.339	-0.219	-0.152
-700.529	95.176	0.316	0.366
-699.514	-81.500	-0.027	0.009
-698.499	135.487	0.187	0.247
-697.485	800.000	-0.082	0.347
-696.470	-156.229	-0.210	-0.013
-695.456	800.000	0.125	-0.402
-694.441	-200.000	0.028	0.232
-693.426	18.218	-0.109	0.088
-692.412	-155.335	0.242	0.016
-691.397	-162.660	-0.159	-0.008
-690.383	426.374	0.138	0.302
-689.368	-200.000	0.035	0.167
-688.354	-81.316	0.233	-0.078
-687.339	-57.422	-0.296	0.132
-686.324	-42.662	0.233	0.121
-685.310	-137.158	0.258	0.030
-684.295	-22.550	0.233	0.144
-683.281	-200.000	-0.021	-0.100
-682.266	-102.465	0.297	-0.072
-681.251	123.447	0.080	-0.102
-680.237	800.000	0.029	-0.105
-679.222	-83.016	-0.098	0.032
-678.208	262.814	0.107	-0.188
-677.193	-97.507	-0.265	0.070
-676.178	-95.894	-0.027	-0.007
-675.164	-200.000	0.018	-0.401
-674.149	66.909	-0.178	-0.184
-673.135	-118.912	0.468	-0.083
-672.120	-200.000	0.050	0.225
-671.105	-118.622	0.379	-0.068
-670.091	52.344	-0.038	-0.036
-669.076	-200.000	0.017	0.141
-668.062	-200.000	0.024	-0.113
-667.047	80.157	-0.093	-0.101
-666.032	53.518	0.252	-0.246
-665.018	800.000	-0.062	-0.271
-664.003	-33.137	-0.068	0.039
-662.989	-55.134	0.100	-0.046
-661.974	800.000	-0.090	-0.361
-660.959	101.247	0.143	0.169
-659.945	244.517	-0.148	-0.253
-658.930	-82.538	0.167	-0.055
-657.916	-145.764	0.162	0.015
-656.901	-158.134	0.159	-0.009
-655.886	-2.579	0.263	0.187
-654.872	-77.281	-0.162	-0.057
-653.857	800.000	0.074	-0.316
-652.843	-40.819	0.091	-0.048
-651.828	-200.000	-0.072	-0.371
-650.814	-106.237	-0.063	0.014
-649.799	-200.000	-0.019	-0.109
-648.784	-200.000	0.016	0.115
-647.770	-200.000	-0.007	-0.062
-646.755	-200.000	-0.038	-0.396
-645.741	107.804	0.214	0.258
-644.726	-8.761	0.312	0.213
-643.711	105.471	-0.070	0.084
-642.697	65.011	-0.124	-0.127
-641.682	-200.000	0.009	0.058
-640.668	103.864	0.125	-0.149
-639.653	-37.319	0.302	-0.164
-638.638	-104.623	-0.345	-0.081
-637.624	476.458	-0.074	-0.169
-636.609	800.000	-0.042	-0.166
-635.595	60.858	-0.059	0.059
-634.580	-93.675	-0.133	0.037
-633.565	241.778	0.099	-0.168
-632.551	-200.000	-0.060	0.345
-631.536	-2.291	0.199	0.142
-630.522	800.000	0.045	0.130
-629.507	138.548	0.044	-0.059
-628.492	89.787	-0.160	-0.181
-627.478	-55.674	-0.114	0.052
-626.463	-200.000	0.014	-0.076
-625.449	-1.315	0.214	0.153
-624.434	800.000	-0.103	0.310
-623.419	-200.000	-0.002	0.182
-622.405	19.187	0.195	0.159
-621.390	800.000	-0.083	-0.317
-620.376	-8.993	-0.194	0.132
-619.361	-200.000	-0.022	0.313
-618.346	-131.212	0.335	-0.045
-617.332	392.665	0.075	-0.158
-616.317	68.152	-0.155	0.160
-615.303	124.663	-0.085	-0.109
-614.288	177.673	0.127	0.187
-613.273	-200.000	0.034	-0.240
-612.259	93.410	-0.139	-0.159
-611.244	-177.133	-0.231	-0.006
-610.230	-200.000	-0.007	-0.355
-609.215	-200.000	0.055	-0.297
-608.201	38.276	-0.096	-0.087
-607.186	-135.556	0.272	-0.033
-606.171	800.000	0.134	0.451
-605.157	237.229	0.128	0.215
-604.142	-66.837	0.223	-0.090
-603.128	143.093	-0.026	-0.035
-602.113	130.773	0.100	-0.130
-601.098	105.173	-0.181	-0.216
-600.084	-200.000	0.006	-0.047
-599.069	147.483	-0.087	-0.119
-598.055	100.637	-0.218	-0.257
-597.040	800.000	0.055	0.203
-596.025	-200.000	-0.015	-0.149
-595.011	-167.245	-0.396	-0.016
-593.996	-37.825	0.099	0.053
-592.982	24.914	-0.259	-0.217
-591.967	39.773	-0.096	-0.087
-590.952	-200.000	-0.018	-0.350
-589.938	-200.000	0.030	-0.223
-588.923	-200.000	-0.008	-0.242
-587.909	-161.958	0.161	-0.008
-586.894	109.098	-0.168	0.204
-585.879	800.000	-0.068	-0.192
-584.865	72.972	-0.047	-0.049
-583.850	-3.064	0.131	-0.093
-582.836	258.100	0.093	-0.162
-581.821	800.000	-0.034	0.134
-580.806	-89.442	-0.306	-0.091
-579.792	131.964	-0.145	0.189
-578.777	-55.776	0.147	0.066
-577.763	-200.000	-0.022	-0.250
-576.748	84.532	0.154	-0.171
-575.733	-36.517	-0.147	0.080
-574.719	196.875	-0.121	0.186
-573.704	800.000	-0.056	0.235
-572.690	-200.000	0.029	0.312
-571.675	541.045	-0.032	-0.078
-570.661	-200.000	0.009	0.098
-569.646	163.072	-0.121	0.171
-568.631	433.587	-0.119	-0.262
-567.617	312.205	-0.067	0.128
-566.602	800.000	-0.103	-0.294
-565.588	214.972	-0.203	-0.326
-564.573	-10.299	-0.061	-0.041
-563.558	-200.000	0.008	-0.189
-562.544	-65.054	-0.130	-0.053
-561.529	160.774	-0.162	0.229
-560.515	165.032	0.110	-0.157
-559.500	800.000	0.043	-0.139
-558.485	800.000	-0.045	-0.173
-557.471	158.404	0.180	-0.253
-556.456	62.175	0.177	-0.179
-555.442	224.210	-0.201	0.329
-554.427	341.305	-0.255	0.503
-553.412	-67.752	0.167	0.066
-552.398	-200.000	-0.074	0.529
-551.383	-159.303	-0.278	0.016
-550.369	422.520	0.228	-0.495
-549.354	176.777	-0.278	-0.409
-548.339	-200.000	-0.011	0.217
-547.325	-31.745	0.261	-0.148
-546.310	123.663	-0.146	-0.185
-545.296	4.243	-0.018	0.014
-544.281	800.000	0.040	-0.116
-543.266	-119.860	-0.045	-0.008
-542.252	800.000	0.078	0.227
-541.237	45.675	0.137	0.128
-540.223	25.031	-0.261	-0.219
-539.208	48.565	0.266	-0.252
-538.193	-200.000	-0.019	-0.242
-537.179	39.916	-0.267	-0.243
-536.164	-200.000	0.024	-0.167
-535.150	-16.020	-0.025	-0.016
-534.135	-57.719	0.101	-0.045
-533.121	-131.763	-0.354	-0.047
-532.106	-200.000	-0.005	0.135
-531.091	-81.896	-0.262	-0.087
-530.077	800.000	-0.029	-0.100
-529.062	-163.046	0.218	-0.011
-528.048	-200.000	0.031	-0.210
-527.033	41.807	0.275	0.252
-526.018	-60.927	-0.135	-0.058
-525.004	-200.000	-0.014	0.481
-523.989	317.770	0.209	0.399
-522.975	-117.517	0.237	0.043
-521.960	-200.000	0.008	-0.332
-520.945	-103.059	0.295	-0.071
-519.931	138.843	0.113	0.150
-518.916	800.000	-0.068	0.295
-517.902	-48.376	-0.317	-0.154
-516.887	-153.365	0.293	-0.021
-515.872	-171.727	-0.448	-0.015
-514.858	50.073	0.285	0.272
-513.843	-0.493	-0.026	0.019
-512.829	11.028	-0.088	0.068
-511.814	-163.897	-0.152	-0.007
-510.799	800.000	0.018	0.078
-509.785	-75.799	0.160	0.057
-508.770	-71.758	0.219	0.082
-507.756	-200.000	-0.023	0.123
-506.741	-189.159	-0.424	0.005
-505.726	800.000	-0.059	-0.176
-504.712	-114.668	-0.533	0.103
-503.697	800.000	0.063	-0.189
-502.683	-200.000	-0.027	0.369
-501.668	48.131	-0.167	-0.158
-500.653	368.447	0.176	-0.360
-499.639	81.553	-0.143	0.156
-498.624	-200.000	-0.130	0.616
-497.610	218.962	0.114	0.184
-496.595	773.663	-0.028	-0.077
-495.581	800.000	0.040	0.155
-494.566	230.312	-0.126	0.209
-493.551	135.295	0.109	0.143
-492.537	-31.404	-0.351	-0.199
-491.522	2.370	-0.117	0.086
-490.508	289.800	-0.038	0.070
-489.493	348.635	-0.071	0.141
-488.478	-144.117	-0.238	-0.023
-487.464	800.000	-0.018	-0.067
-486.449	360.270	-0.155	-0.312
-485.435	12.884	-0.099	-0.077
-484.420	-38.781	0.338	-0.180
-483.405	-35.902	0.310	0.169
-482.391	268.193	0.031	-0.055
-481.376	-108.733	-0.144	-0.031
-480.362	-200.000	-0.011	0.062
-479.347	322.063	0.133	0.256
-478.332	-200.000	0.004	-0.451
-477.318	-75.355	0.209	-0.075
-476.303	667.638	0.041	0.106
-475.289	-164.866	-0.061	0.003
-474.274	596.787	-0.115	-0.287
-473.259	-200.000	0.012	-0.160
-472.245	81.641	-0.026	-0.029
-471.230	-88.388	-0.074	-0.022
-470.216	128.325	0.344	0.441
-469.201	-200.000	0.022	0.119
-468.186	-200.000	-0.042	0.206
-467.172	92.754	-0.111	0.127
-466.157	504.149	0.114	-0.266
-465.143	133.758	-0.238	-0.310
-464.128	-200.000	0.038	-0.386
-463.113	800.000	-0.066	-0.264
-462.099	338.697	-0.041	-0.080
-461.084	-5.570	-0.251	0.174
-460.070	-170.261	-0.227	0.008
-459.055	71.476	0.109	-0.114
-458.040	8.001	-0.172	-0.130
-457.026	52.212	-0.165	0.159
-456.011	-98.476	0.327	0.084
-454.997	800.000	-0.064	0.240
-453.982	37.399	0.158	0.141
-452.968	-200.000	-0.079	-0.431
-451.953	-55.171	0.163	-0.074
-450.938	-58.387	0.194	0.085
-449.924	800.000	0.073	-0.210
-448.909	26.129	-0.301	-0.253
-447.895	15.814	0.109	-0.086
-446.880	-140.617	0.178	-0.019
-445.865	-200.000	-0.022	0.135
-444.851	-200.000	0.081	-0.467
-443.836	-200.000	-0.072	0.424
-442.822	4.643	-0.207	0.153
-441.807	-65.729	0.319	-0.129
-440.792	361.574	-0.178	0.360
-439.778	-75.028	-0.204	-0.074
-438.763	197.663	-0.166	-0.255
-437.749	705.498	0.092	0.245
-436.734	-84.563	0.282	0.089
-435.719	222.113	0.022	-0.035
-434.705	528.570	-0.105	-0.249
-433.690	-142.688	-0.082	-0.008
-432.676	529.354	-0.110	0.260
-431.661	128.511	-0.111	-0.142
-430.646	88.746	0.268	0.300
-429.632	800.000	0.014	-0.058
-428.617	-200.000	0.037	0.316
-427.603	50.252	-0.033	0.032
-426.588	-77.784	0.163	-0.057
-425.573	17.840	0.156	-0.125
-424.559	-42.741	0.402	-0.206
-423.544	247.056	0.047	0.080
-422.530	-51.221	0.103	0.049
-421.515	800.000	-0.072	-0.202
-420.500	800.000	0.088	-0.282
-419.486	134.928	0.102	-0.133
-418.471	458.130	-0.130	0.292
-417.457	-200.000	-0.002	-0.041
-416.442	-35.343	0.161	0.088
-415.428	-76.721	-0.559	-0.197
-414.413	-200.000	0.016	-0.172
-413.398	14.005	0.252	0.197
-412.384	-107.579	-0.264	0.058
-411.369	-186.485	-0.066	0.001
-410.355	-200.000	-0.062	-0.279
-409.340	-143.760	-0.331	0.032
-408.325	82.678	0.028	0.031
-407.311	-200.000	0.089	0.405
-406.296	-200.000	0.022	0.245
-405.282	-176.242	-0.161	-0.004
-404.267	613.194	-0.010	0.024
-403.252	800.000	-0.039	-0.150
-402.238	122.669	0.061	-0.077
-401.223	800.000	0.085	0.249
-400.209	-63.639	-0.049	-0.020
-399.194	-117.759	-0.322	-0.058
-398.179	59.350	0.123	-0.122
-397.165	-75.596	-0.053	0.019
-396.150	273.070	0.181	-0.321
-395.136	800.000	0.117	-0.352
-394.121	10.597	-0.248	-0.190
-393.106	-134.587	0.180	-0.022
-392.092	-200.000	0.051	0.247
-391.077	-200.000	0.029	-0.230
-390.063	180.991	0.090	0.133
-389.048	97.231	0.147	0.170
-388.033	73.475	0.211	0.222
-387.019	165.015	-0.117	-0.165
-386.004	17.816	0.073	-0.058
-384.990	247.105	0.208	0.353
-383.975	9.661	-0.062	0.047
-382.960	-200.000	0.006	-0.196
-381.946	-43.705	0.267	0.135
-380.931	261.640	0.034	0.059
-379.917	-94.005	-0.364	-0.100
-378.902	-66.062	0.146	-0.059
-377.888	-193.737	0.267	-0.002
-376.873	171.747	-0.234	0.338
-375.858	272.447	0.105	-0.186
-374.844	395.186	-0.104	-0.218
-373.829	-40.532	-0.195	0.101
-372.815	310.447	0.115	0.216
-371.800	-129.747	-0.169	0.023
-370.785	22.624	-0.029	-0.024
-369.771	-41.407	0.480	0.248
-368.756	800.000	0.069	0.225
-367.742	273.212	0.044	-0.078
-366.727	800.000	-0.059	0.178
-365.712	108.764	-0.046	0.055
-364.698	800.000	-0.068	0.223
-363.683	249.042	0.142	0.242
-362.669	-99.295	-0.376	-0.095
-361.654	-200.000	-0.000	-0.007
-360.639	-94.235	0.154	0.042
-359.625	-21.037	-0.204	-0.125
-358.610	-79.669	0.412	-0.139
-357.596	116.220	-0.193	-0.237
-356.581	374.598	-0.109	-0.222
-355.566	-200.000	-0.054	0.281
-354.552	-141.571	-0.411	0.042
-353.537	-149.611	0.172	0.014
-352.523	-103.066	-0.307	-0.073
-351.508	-200.000	0.020	-0.094
-350.493	-13.896	-0.068	0.044
-349.479	157.070	0.161	0.223
-348.464	-45.742	-0.337	0.167
-347.450	-200.000	-0.052	-0.373
-346.435	16.264	0.192	-0.152
-345.420	800.000	-0.014	-0.048
-344.406	160.322	-0.194	-0.271
-343.391	-74.730	0.221	-0.080
-342.377	140.046	0.100	-0.132
-341.362	64.039	-0.117	-0.118
-340.348	-96.046	0.396	-0.106
-339.333	108.157	0.201	0.241
-338.318	-105.955	0.118	0.027
-337.304	24.431	-0.212	0.176
-336.289	-119.427	0.275	-0.048
-335.275	-140.915	0.249	-0.026
-334.260	-200.000	-0.017	0.099
-333.245	-18.286	-0.231	-0.145
-332.231	-13.520	0.450	-0.292
-331.216	800.000	0.085	0.275
-330.202	-109.092	-0.370	-0.079
-329.187	-110.822	-0.087	-0.018
-328.172	-23.441	0.148	0.089
-327.158	800.000	0.038	0.154
-326.143	-200.000	-0.012	0.214
-325.129	-181.746	-0.064	-0.001
-324.114	-172.984	-0.080	-0.002
-323.099	-64.046	-0.089	0.036
-322.085	-21.887	-0.257	0.156
-321.070	122.841	-0.189	-0.237
-320.056	-70.186	-0.159	0.061
-319.041	-200.000	-0.036	0.195
-318.026	16.978	-0.239	0.190
-317.012	-113.965	-0.257	0.050
-315.997	225.608	0.011	0.017
-314.983	-111.796	0.166	-0.034
-313.968	306.488	0.139	-0.259
-312.953	158.790	0.225	0.313
-311.939	607.038	-0.083	0.207
-310.924	800.000	0.029	-0.098
-309.910	-29.689	-0.176	-0.101
-308.895	89.094	0.250	0.279
-307.880	-98.133	0.281	-0.073
-306.866	682.525	0.147	0.383
-305.851	-6.157	-0.184	0.126
-304.837	32.452	0.113	-0.098
-303.822	-200.000	-0.087	-0.664
-302.807	800.000	0.069	-0.205
-301.793	-53.302	0.312	0.144
-300.778	12.397	-0.086	-0.066
-299.764	800.000	-0.050	0.160
-298.749	215.187	-0.031	0.050
-297.735	-135.038	0.126	-0.015
-296.720	-200.000	0.025	0.245
-295.705	-53.415	0.207	0.095
-294.691	-155.348	0.154	0.010
-293.676	-98.297	-0.188	-0.048
-292.662	68.487	0.118	-0.121
-291.647	42.778	0.452	-0.412
-290.632	-41.668	-0.385	-0.198
-289.618	-200.000	-0.035	0.375
-288.603	-200.000	0.021	0.131
-287.589	-14.032	0.050	-0.032
-286.574	-111.253	-0.116	0.024
-285.559	-162.952	0.301	-0.015
-284.545	-178.690	-0.269	0.006
-283.530	21.582	0.265	-0.216
-282.516	-200.000	-0.007	-0.068
-281.501	-72.707	-0.481	-0.178
-280.486	349.932	-0.177	0.351
-279.472	58.610	0.096	-0.094
-278.457	-200.000	0.001	-0.269
-277.443	-200.000	0.019	0.190
-276.428	-15.199	-0.197	-0.126
-275.413	-74.598	0.239	-0.086
-274.399	1.115	0.281	0.202
-273.384	215.486	0.099	-0.158
-272.370	-172.668	0.093	0.003
-271.355	-138.632	-0.063	-0.007
-270.340	12.224	0.201	0.155
-269.326	-13.248	0.237	0.154
-268.311	55.854	0.196	0.190
-267.297	-200.000	-0.015	0.154
-266.282	226.931	0.118	0.192
-265.267	-159.379	0.311	0.017
-264.253	151.882	-0.133	-0.181
-263.238	-120.392	0.216	-0.037
-262.224	121.191	0.170	0.211
-261.209	-115.318	-0.038	-0.007
-260.195	-5.028	0.063	0.043
-259.180	800.000	0.067	0.189
-258.165	800.000	0.047	-0.186
-257.151	800.000	0.067	0.188
-256.136	33.716	0.150	-0.130
-255.122	109.525	-0.210	0.252
-254.107	-80.608	0.129	0.043
-253.092	-109.906	0.121	-0.025
-252.078	-73.171	-0.081	-0.030
-251.063	-173.267	0.076	-0.002
-250.049	52.345	0.204	0.194
-249.034	-200.000	0.004	-0.321
-248.019	-161.032	0.220	0.012
-247.005	-76.956	-0.198	-0.069
-245.990	-31.530	0.332	-0.187
-244.976	-200.000	0.006	0.162
-243.961	-75.304	0.198	0.070
-242.946	800.000	-0.060	-0.261
-241.932	800.000	0.074	-0.279
-240.917	-57.248	0.115	0.050
-239.903	800.000	0.168	-0.662
-238.888	-110.824	0.066	0.014
-237.873	-47.330	-0.117	-0.057
-236.859	116.618	0.200	0.245
-235.844	161.107	0.049	0.069
-234.830	29.944	-0.080	0.068
-233.815	97.642	-0.171	0.196
-232.800	-200.000	-0.023	0.234
-231.786	-22.630	-0.183	-0.111
-230.771	227.192	0.178	0.289
-229.757	281.226	0.126	0.225
-228.742	351.796	-0.176	0.349
-227.727	800.000	-0.093	0.262
-226.713	-200.000	-0.001	0.095
-225.698	-43.023	0.164	-0.083
-224.684	-140.113	0.203	-0.021
-223.669	-200.000	0.038	-0.212
-222.655	-101.384	-0.232	0.057
-221.640	200.184	0.104	0.159
-220.625	-47.712	0.104	0.050
-219.611	-132.640	-0.224	-0.029
-218.596	723.877	-0.117	0.312
-217.582	-102.939	-0.225	0.053
-216.567	-200.000	0.019	-0.320
-215.552	-12.300	-0.090	-0.059
-214.538	-17.478	0.256	-0.161
-213.523	-68.021	0.052	0.020
-212.509	-200.000	0.033	0.278
-211.494	800.000	-0.104	0.441
-210.479	-75.502	-0.186	-0.066
-209.465	313.749	-0.089	0.167
-208.450	36.942	-0.206	0.182
-207.436	-200.000	-0.031	0.364
-206.421	-131.017	0.188	-0.025
-205.406	84.662	0.192	-0.210
-204.392	376.102	-0.138	-0.281
-203.377	-200.000	0.002	0.014
-202.363	24.981	0.207	-0.171
-201.348	-39.019	0.349	0.183
-200.333	800.000	-0.047	-0.152
-199.319	67.950	0.117	-0.119
-198.304	800.000	0.030	0.095
-197.290	-157.390	0.211	0.013
-196.275	306.829	-0.039	-0.072
-195.260	52.131	-0.206	0.196
-194.246	-200.000	-0.106	0.538
-193.231	-200.000	0.008	0.113
-192.217	-109.716	-0.308	0.065
-191.202	9.426	-0.236	0.178
-190.187	285.589	-0.125	0.225
-189.173	-200.000	-0.004	0.071
-188.158	800.000	0.023	-0.074
-187.144	-200.000	-0.066	-0.352
-186.129	-200.000	0.039	0.208
-185.114	-102.008	-0.054	-0.013
-184.100	-15.239	0.130	0.083
-183.085	53.451	-0.191	0.183
-182.071	-167.244	0.252	0.010
-181.056	-63.968	-0.313	-0.128
-180.042	128.205	0.065	-0.083
-179.027	800.000	0.045	0.191
-178.012	619.338	-0.130	-0.325
-176.998	-15.324	-0.290	0.185
-175.983	-200.000	0.025	0.175
-174.969	145.013	-0.112	-0.150
-173.954	171.074	-0.157	0.224
-172.939	-200.000	-0.029	-0.309
-171.925	-14.820	0.227	-0.145
-170.910	-60.694	0.189	-0.080
-169.896	-188.099	0.077	-0.001
-168.881	800.000	-0.077	0.234
-167.866	778.665	0.087	-0.237
-166.852	-16.166	-0.166	-0.105
-165.837	-32.213	-0.181	0.101
-164.823	-157.573	0.037	0.002
-163.808	18.396	-0.144	-0.115
-162.793	-121.145	-0.128	-0.021
-161.779	-88.146	0.025	0.007
-160.764	-63.802	0.313	0.128
-159.750	-105.992	0.120	0.027
-158.735	-112.547	0.053	-0.011
-157.720	220.289	-0.110	-0.175
-156.706	-200.000	-0.015	-0.358
-155.691	194.335	-0.031	-0.047
-154.677	-0.702	-0.151	0.107
-153.662	-200.000	-0.009	-0.256
-152.647	-163.560	0.178	0.008
-151.633	800.000	-0.058	-0.233
-150.618	-46.405	0.331	-0.162
-149.604	328.470	0.049	0.094
-148.589	34.550	0.156	0.135
-147.574	-200.000	0.011	0.125
-146.560	-89.560	-0.083	-0.024
-145.545	-48.939	-0.172	-0.082
-144.531	-200.000	-0.101	-0.480
-143.516	800.000	0.094	0.365
-142.502	-134.401	0.231	0.028
-141.487	-15.483	-0.088	0.056
-140.472	800.000	-0.026	-0.098
-139.458	138.919	-0.147	0.192
-138.443	147.511	0.072	-0.097
-137.429	-200.000	-0.005	0.212
-136.414	-200.000	0.042	0.196
-135.399	800.000	0.070	-0.304
-134.385	137.033	-0.030	0.040
-133.370	-200.000	-0.003	-0.147
-132.356	136.378	-0.106	-0.137
-131.341	-49.968	-0.304	0.143
-130.326	-200.000	0.055	0.325
-129.312	-178.654	0.238	-0.005
-128.297	800.000	0.042	-0.151
-127.283	-96.168	-0.147	0.039
-126.268	-158.859	-0.363	0.021
-125.253	204.950	0.205	-0.317
-124.239	623.634	-0.036	0.091
-123.224	-107.863	-0.301	-0.065
-122.210	54.163	0.199	0.190
