DTS Sentinel unit serial number:	SN413079Multiplexer serial number:	ORYXHardware model number:	OX4-SRSoftware version number:	ORYX F/W v4.00 Oryx Data Collector v3.7.2.0data status	okinstallation	princeton_trtdifferential loss correction	single-endedforward channel	channel 1reverse channel	N/Adate	2019/09/11time	15:48:11forward acquisition time	60.00reverse acquisition time	0.00gamma	496.2192k internal	0.2291k external	0.2291temperature offset calibration	0.9985default loss term (dB/km)	0.3790temperature slope calibration	1.0000multiplexer offset coefficient	1.0000multiplexer slope coefficient	1.0000fibre end	0.00T internal ref (°C)	42.87T ext. ref 1 (°C)	1.00T ext. ref 2 (°C)	38.49length (m)	temperature (°C)	Stokes	anti-Stokes-747.200	-74.125	0.274	-0.102
-746.185	368.471	-0.068	-0.140
-745.171	480.435	0.044	0.102
-744.156	533.834	-0.151	0.367
-743.142	-200.000	-0.007	0.048
-742.127	-89.059	0.067	-0.020
-741.112	180.667	-0.170	-0.256
-740.098	-71.175	0.119	-0.046
-739.083	439.025	-0.092	0.206
-738.069	-200.000	0.055	0.483
-737.054	800.000	0.143	-0.476
-736.039	20.825	-0.358	0.297
-735.025	-148.234	0.466	-0.039
-734.010	33.033	-0.331	-0.294
-732.996	800.000	0.040	0.113
-731.981	-200.000	0.038	0.217
-730.966	-114.593	-0.139	0.027
-729.952	-26.515	-0.288	0.173
-728.937	162.989	-0.227	0.326
-727.923	29.134	-0.030	0.026
-726.908	-200.000	0.008	0.084
-725.894	17.548	0.222	-0.180
-724.879	800.000	-0.068	0.205
-723.864	293.675	0.019	-0.035
-722.850	8.870	-0.251	-0.194
-721.835	-200.000	-0.018	0.121
-720.821	-17.368	0.202	-0.130
-719.806	106.109	0.118	-0.143
-718.791	-73.651	-0.203	0.075
-717.777	800.000	-0.069	-0.272
-716.762	16.464	-0.201	0.162
-715.748	800.000	-0.053	0.176
-714.733	35.608	0.305	-0.274
-713.718	14.428	0.234	-0.186
-712.704	296.352	0.075	-0.140
-711.689	-125.363	-0.243	-0.038
-710.675	-200.000	0.021	-0.125
-709.660	10.026	-0.368	-0.286
-708.645	-117.012	-0.052	0.010
-707.631	-86.925	-0.201	0.063
-706.616	-200.000	0.031	-0.273
-705.602	628.524	-0.125	-0.324
-704.587	800.000	0.057	0.184
-703.572	25.909	0.141	0.120
-702.558	-134.415	0.221	0.028
-701.543	-200.000	0.036	-0.239
-700.529	6.925	-0.169	0.128
-699.514	191.770	0.055	-0.084
-698.499	-112.089	-0.259	-0.053
-697.485	-150.064	0.135	0.011
-696.470	-43.021	0.250	0.129
-695.456	-34.084	-0.196	-0.110
-694.441	90.626	-0.229	-0.263
-693.426	157.679	-0.131	0.186
-692.412	30.371	0.169	0.147
-691.397	-170.773	0.189	-0.007
-690.383	83.068	0.244	0.271
-689.368	-148.006	0.212	0.018
-688.354	65.790	-0.262	0.271
-687.339	216.611	-0.129	0.209
-686.324	800.000	0.044	0.185
-685.310	-9.668	0.121	-0.083
-684.295	800.000	-0.059	0.172
-683.281	77.954	0.186	-0.202
-682.266	241.616	0.004	0.007
-681.251	800.000	0.044	-0.157
-680.237	-33.918	0.276	-0.155
-679.222	491.069	0.126	-0.294
-678.208	142.625	-0.133	-0.180
-677.193	-108.982	-0.364	0.079
-676.178	-91.746	-0.039	-0.011
-675.164	719.449	0.074	-0.202
-674.149	-169.951	0.362	0.013
-673.135	84.614	-0.303	-0.338
-672.120	249.504	-0.106	-0.183
-671.105	36.039	-0.141	-0.127
-670.091	-200.000	0.007	0.138
-669.076	150.372	-0.059	0.082
-668.062	-99.787	-0.371	0.095
-667.047	-39.976	-0.346	0.185
-666.032	-73.245	-0.364	0.136
-665.018	15.878	-0.145	0.116
-664.003	-200.000	-0.041	0.211
-662.989	-125.391	-0.246	-0.038
-661.974	-3.575	0.318	0.226
-660.959	506.670	0.070	0.167
-659.945	344.681	0.115	0.229
-658.930	800.000	0.060	0.228
-657.916	27.060	-0.165	-0.141
-656.901	602.783	0.100	-0.253
-655.886	-112.483	0.160	-0.033
-654.872	113.927	0.089	-0.111
-653.857	-146.275	0.427	0.038
-652.843	-200.000	0.004	-0.518
-651.828	-71.611	0.111	0.042
-650.814	55.175	-0.165	0.163
-649.799	9.632	-0.108	-0.083
-648.784	-133.733	-0.277	0.035
-647.770	800.000	-0.065	-0.228
-646.755	800.000	0.073	0.217
-645.741	191.857	-0.215	0.331
-644.726	800.000	-0.100	0.321
-643.711	-111.878	0.301	0.062
-642.697	-56.372	0.113	0.051
-641.682	-200.000	-0.031	-0.153
-640.668	-33.639	0.181	-0.102
-639.653	-126.464	0.286	0.043
-638.638	561.999	0.150	-0.370
-637.624	-118.693	-0.034	-0.006
-636.609	-97.912	-0.267	-0.070
-635.595	-42.424	-0.195	0.101
-634.580	390.822	0.104	-0.220
-633.565	236.358	0.157	-0.265
-632.551	-48.617	-0.100	-0.049
-631.536	800.000	0.071	0.210
-630.522	800.000	-0.044	0.124
-629.507	8.077	-0.110	0.084
-628.492	-200.000	-0.012	-0.222
-627.478	-30.365	0.216	0.125
-626.463	-106.334	-0.335	-0.076
-625.449	-127.065	0.195	0.029
-624.434	-76.177	-0.283	0.102
-623.419	-91.924	-0.076	0.022
-622.405	2.367	-0.260	-0.191
-621.390	99.463	0.164	-0.193
-620.376	629.699	-0.037	0.094
-619.361	-200.000	0.025	-0.188
-618.346	-200.000	-0.073	0.422
-617.332	-133.198	-0.557	-0.072
-616.317	-90.898	-0.163	-0.048
-615.303	800.000	-0.066	-0.296
-614.288	107.641	0.126	-0.153
-613.273	84.857	-0.117	0.131
-612.259	-42.224	-0.230	-0.120
-611.244	23.603	-0.130	0.109
-610.230	48.587	0.160	0.153
-609.215	-131.359	-0.058	-0.008
-608.201	260.658	0.116	-0.205
-607.186	190.991	0.086	0.131
-606.171	477.104	-0.079	0.183
-605.157	383.365	-0.039	0.081
-604.142	132.170	-0.252	0.330
-603.128	127.037	0.073	-0.094
-602.113	-84.461	-0.338	0.109
-601.098	-100.789	0.205	0.051
-600.084	-112.828	-0.175	-0.035
-599.069	562.296	-0.051	-0.125
-598.055	-40.404	-0.148	0.078
-597.040	185.755	-0.083	0.126
-596.025	29.087	-0.136	0.117
-595.011	272.507	-0.034	0.060
-593.996	138.595	-0.235	-0.314
-592.982	186.008	0.333	-0.504
-591.967	-68.112	-0.071	-0.028
-590.952	113.039	0.174	0.215
-589.938	310.835	0.135	0.258
-588.923	-38.427	-0.142	0.076
-587.909	40.320	-0.286	-0.262
-586.894	-123.309	0.312	-0.051
-585.879	141.135	0.028	0.038
-584.865	-121.633	0.128	0.022
-583.850	-60.143	0.200	0.087
-582.836	412.651	-0.070	0.152
-581.821	-200.000	-0.004	-0.062
-580.806	-50.252	-0.136	0.065
-579.792	-112.879	-0.036	0.007
-578.777	101.467	-0.200	-0.237
-577.763	492.768	0.088	0.205
-576.748	215.878	0.130	0.210
-575.733	21.966	-0.050	0.041
-574.719	59.656	-0.194	0.195
-573.704	-123.367	-0.279	0.045
-572.690	-200.000	-0.015	0.067
-571.675	800.000	-0.027	0.083
-570.661	53.586	0.157	-0.153
-569.646	-200.000	0.020	0.123
-568.631	6.959	0.195	0.148
-567.617	-6.669	-0.312	0.216
-566.602	275.479	0.026	-0.048
-565.588	-200.000	0.012	0.148
-564.573	-45.009	-0.165	0.083
-563.558	120.152	0.053	-0.067
-562.544	-25.935	-0.291	0.174
-561.529	458.251	0.049	-0.111
-560.515	476.745	-0.133	-0.306
-559.500	-42.750	-0.226	-0.117
-558.485	-76.432	-0.161	0.058
-557.471	800.000	0.090	0.342
-556.456	-82.858	-0.066	-0.022
-555.442	-109.392	0.408	-0.088
-554.427	56.854	0.422	0.417
-553.412	21.564	-0.053	0.044
-552.398	145.674	0.222	-0.302
-551.383	-139.050	-0.274	0.030
-550.369	-123.763	-0.208	0.033
-549.354	151.671	0.113	0.157
-548.339	36.848	0.122	-0.109
-547.325	108.924	0.082	-0.099
-546.310	-187.596	-0.177	0.002
-545.296	-200.000	0.020	-0.252
-544.281	-72.730	-0.282	-0.105
-543.266	-42.804	-0.098	-0.051
-542.252	74.940	-0.245	-0.262
-541.237	-116.094	-0.228	0.043
-540.223	101.451	0.132	-0.157
-539.208	-123.184	-0.298	0.048
-538.193	-127.510	0.327	-0.048
-537.179	-70.049	0.261	-0.101
-536.164	-24.238	0.224	-0.136
-535.150	-200.000	0.011	-0.377
-534.135	139.494	0.115	-0.154
-533.121	-93.667	0.180	0.051
-532.106	9.351	-0.203	0.156
-531.091	71.925	-0.155	-0.164
-530.077	-200.000	-0.004	-0.374
-529.062	-200.000	0.002	-0.186
-528.048	-92.123	0.082	-0.023
-527.033	200.479	0.135	0.211
-526.018	-200.000	-0.011	-0.259
-525.004	800.000	-0.027	0.098
-523.989	-14.571	-0.203	0.132
-522.975	-200.000	0.012	-0.082
-521.960	314.298	0.076	0.146
-520.945	-63.478	-0.462	-0.193
-519.931	-43.714	0.141	0.072
-518.916	-0.767	0.104	-0.075
-517.902	740.465	0.069	-0.189
-516.887	-106.701	0.420	0.095
-515.872	-200.000	-0.039	-0.191
-514.858	-95.813	0.102	0.028
-513.843	800.000	-0.111	0.476
-512.829	-83.812	-0.254	-0.082
-511.814	-115.822	-0.076	0.014
-510.799	686.235	-0.037	0.098
-509.785	437.871	0.116	0.257
-508.770	-156.468	0.255	-0.016
-507.756	-200.000	-0.001	-0.206
-506.741	-131.709	0.104	0.014
-505.726	92.838	0.221	0.253
-504.712	-0.941	0.184	-0.132
-503.697	620.080	0.075	-0.192
-502.683	-40.609	-0.005	0.003
-501.668	8.295	0.070	0.053
-500.653	154.642	-0.088	-0.122
-499.639	6.515	0.087	-0.065
-498.624	800.000	-0.059	0.260
-497.610	-142.467	0.246	-0.024
-496.595	110.067	-0.116	-0.141
-495.581	27.419	0.032	-0.027
-494.566	-38.185	-0.219	0.118
-493.551	-200.000	-0.035	-0.501
-492.537	-200.000	-0.001	-0.256
-491.522	442.667	0.024	-0.054
-490.508	5.638	0.094	-0.070
-489.493	800.000	0.045	-0.185
-488.478	-17.978	0.138	-0.088
-487.464	800.000	0.041	-0.158
-486.449	-200.000	-0.002	-0.344
-485.435	-159.200	-0.318	0.018
-484.420	800.000	0.067	-0.272
-483.405	800.000	0.039	-0.119
-482.391	-142.083	-0.393	0.040
-481.376	-33.366	-0.362	0.203
-480.362	800.000	-0.046	0.132
-479.347	800.000	-0.054	0.197
-478.332	800.000	0.152	-0.462
-477.318	-10.318	0.164	-0.110
-476.303	-200.000	-0.027	0.144
-475.289	800.000	-0.030	-0.128
-474.274	-80.135	-0.357	0.121
-473.259	800.000	-0.086	-0.256
-472.245	-156.739	-0.270	-0.017
-471.230	-104.793	0.359	0.084
-470.216	65.233	-0.122	-0.125
-469.201	119.690	-0.057	-0.072
-468.186	800.000	-0.084	-0.279
-467.172	-137.913	0.326	0.037
-466.157	188.305	0.098	-0.148
-465.143	20.423	-0.136	0.111
-464.128	636.469	-0.112	-0.289
-463.113	-3.335	0.104	-0.073
-462.099	-200.000	-0.105	0.474
-461.084	-81.371	-0.081	0.027
-460.070	50.479	0.226	-0.216
-459.055	-11.705	-0.125	-0.083
-458.040	24.524	-0.263	0.220
-457.026	-102.644	-0.448	0.108
-456.011	-113.330	0.078	-0.016
-454.997	-90.388	0.090	0.026
-453.982	-200.000	0.000	-0.098
-452.968	91.988	-0.152	0.173
-451.953	800.000	-0.052	0.150
-450.938	-76.601	-0.312	0.111
-449.924	-200.000	-0.020	-0.143
-448.909	684.962	-0.077	-0.203
-447.895	-64.289	0.074	0.030
-446.880	-132.338	0.213	-0.028
-445.865	-149.713	-0.292	-0.023
-444.851	34.806	0.173	-0.153
-443.836	-124.152	-0.043	-0.007
-442.822	-200.000	0.005	0.156
-441.807	-200.000	0.007	-0.107
-440.792	-82.127	0.184	0.061
-439.778	-130.530	0.212	-0.029
-438.763	48.167	0.250	-0.237
-437.749	36.704	-0.050	-0.045
-436.734	183.704	-0.113	-0.169
-435.719	-56.360	0.252	-0.113
-434.705	183.873	0.073	-0.110
-433.690	-91.607	-0.487	0.140
-432.676	-200.000	0.059	0.263
-431.661	-200.000	0.006	-0.056
-430.646	682.434	-0.089	-0.235
-429.632	800.000	0.010	-0.035
-428.617	202.761	0.132	-0.207
-427.603	800.000	0.076	0.271
-426.588	-81.168	0.340	0.114
-425.573	-13.113	0.297	0.195
-424.559	48.335	0.156	0.148
-423.544	-119.033	-0.027	-0.005
-422.530	19.582	0.276	0.225
-421.515	-1.792	0.292	0.208
-420.500	48.835	-0.196	-0.186
-419.486	444.676	0.180	-0.401
-418.471	-200.000	-0.006	0.234
-417.457	47.649	-0.221	0.208
-416.442	-200.000	0.004	-0.217
-415.428	-200.000	0.011	-0.180
-414.413	226.052	0.029	-0.048
-413.398	69.613	0.074	-0.077
-412.384	-6.724	0.118	-0.081
-411.369	800.000	0.080	0.320
-410.355	-42.403	0.255	-0.131
-409.340	-30.628	0.087	0.050
-408.325	-160.851	0.089	-0.005
-407.311	429.856	-0.062	-0.135
-406.296	-95.711	-0.446	-0.120
-405.282	-21.430	0.350	-0.216
-404.267	189.352	-0.102	0.154
-403.252	-150.027	0.257	0.020
-402.238	-33.919	-0.247	-0.138
-401.223	178.687	0.141	-0.208
-400.209	187.597	0.114	0.172
-399.194	103.420	0.182	-0.215
-398.179	-131.396	0.322	-0.043
-397.165	-137.490	-0.470	0.054
-396.150	171.154	0.124	0.180
-395.136	800.000	-0.084	0.241
-394.121	112.483	-0.038	-0.046
-393.106	-133.731	0.245	0.031
-392.092	-200.000	0.065	0.293
-391.077	-16.250	-0.114	0.073
-390.063	800.000	0.052	0.191
-389.048	-200.000	-0.014	0.136
-388.033	-165.086	-0.348	0.016
-387.019	137.786	0.082	0.108
-386.004	139.808	-0.069	0.091
-384.990	-188.287	-0.240	-0.003
-383.975	-19.076	0.086	-0.054
-382.960	800.000	-0.065	-0.242
-381.946	-200.000	-0.012	0.214
-380.931	800.000	0.070	0.208
-379.917	800.000	0.102	-0.321
-378.902	293.717	0.065	0.121
-377.888	-141.940	-0.133	-0.013
-376.873	730.682	-0.145	-0.392
-375.858	-156.507	-0.104	0.007
-374.844	-119.827	0.180	0.031
-373.829	135.373	-0.083	0.109
-372.815	-200.000	0.009	-0.142
-371.800	233.440	0.079	-0.131
-370.785	-200.000	-0.007	0.066
-369.771	62.143	-0.240	0.242
-368.756	-47.165	-0.115	-0.056
-367.742	406.629	-0.126	0.269
-366.727	-61.927	-0.139	-0.059
-365.712	-113.547	-0.215	0.042
-364.698	84.511	-0.239	-0.263
-363.683	505.639	-0.020	-0.047
-362.669	800.000	0.096	-0.288
-361.654	636.895	-0.012	-0.030
-360.639	-200.000	-0.066	-0.444
-359.625	-46.054	-0.163	0.081
-358.610	723.323	0.160	0.431
-357.596	-59.599	0.079	0.034
-356.581	269.041	0.103	-0.182
-355.566	131.825	0.060	0.078
-354.552	-59.799	-0.102	0.044
-353.537	261.638	-0.129	-0.226
-352.523	-1.791	-0.052	-0.037
-351.508	-99.247	0.292	0.074
-350.493	28.321	0.056	0.048
-349.479	-99.319	-0.329	0.084
-348.464	-36.850	0.222	0.120
-347.450	-87.753	-0.119	-0.036
-346.435	-15.054	-0.311	-0.201
-345.420	147.421	0.122	-0.165
-344.406	800.000	-0.033	-0.128
-343.391	-200.000	0.110	-0.546
-342.377	45.544	0.119	-0.111
-341.362	396.907	-0.073	-0.153
-340.348	459.761	0.033	-0.074
-339.333	258.287	0.100	-0.174
-338.318	48.492	0.095	0.090
-337.304	-200.000	0.000	0.136
-336.289	-102.245	-0.350	0.085
-335.275	8.198	0.079	-0.060
-334.260	-20.083	0.197	0.123
-333.245	-29.775	-0.177	0.101
-332.231	482.877	0.202	0.463
-331.216	84.269	0.250	0.275
-330.202	195.454	0.124	0.191
-329.187	245.348	-0.123	-0.208
-328.172	-200.000	0.006	0.249
-327.158	53.367	-0.063	-0.061
-326.143	799.597	0.090	0.251
-325.129	20.913	0.155	0.126
-324.114	-200.000	0.278	0.000
-323.099	-200.000	0.016	-0.319
-322.085	34.024	0.273	0.240
-321.070	94.499	-0.289	0.330
-320.056	-113.489	0.255	-0.050
-319.041	-37.218	0.184	0.099
-318.026	800.000	-0.060	-0.182
-317.012	800.000	-0.058	-0.234
-315.997	34.938	0.240	-0.211
-314.983	-200.000	-0.031	0.158
-313.968	-150.530	0.080	-0.006
-312.953	2.687	-0.292	0.213
-311.939	-35.588	-0.126	-0.069
-310.924	-200.000	0.021	0.097
-309.910	658.438	0.055	-0.142
-308.895	-81.387	-0.172	-0.057
-307.880	49.626	0.039	-0.037
-306.866	-200.000	-0.013	0.199
-305.851	156.227	0.033	0.046
-304.837	-153.664	0.238	0.016
-303.822	54.167	0.164	0.158
-302.807	-200.000	0.026	-0.126
-301.793	32.417	0.083	0.072
-300.778	-200.000	0.056	0.329
-299.764	800.000	0.054	0.181
-298.749	604.644	-0.115	-0.287
-297.735	183.286	0.096	-0.142
-296.720	71.688	-0.043	-0.045
-295.705	-200.000	0.018	-0.400
-294.691	191.571	0.037	-0.056
-293.676	470.611	0.084	0.191
-292.662	-71.566	0.098	-0.037
-291.647	49.418	-0.175	-0.166
-290.632	800.000	0.031	0.134
-289.618	-140.956	-0.122	-0.013
-288.603	250.502	-0.098	-0.167
-287.589	-102.069	0.183	-0.044
-286.574	-134.795	0.243	0.030
-285.559	-95.092	-0.196	0.053
-284.545	23.025	-0.096	-0.080
-283.530	-200.000	0.058	-0.278
-282.516	-9.887	-0.373	0.249
-281.501	-29.870	0.136	0.078
-280.486	50.226	-0.188	0.178
-279.472	-32.395	0.206	-0.116
-278.457	-200.000	0.009	0.313
-277.443	-91.600	0.253	0.073
-276.428	111.070	-0.145	0.176
-275.413	-200.000	-0.003	-0.068
-274.399	-200.000	-0.056	0.262
-273.384	10.460	0.156	-0.120
-272.370	-8.929	-0.140	0.094
-271.355	5.269	-0.156	-0.116
-270.340	-170.040	0.179	0.006
-269.326	73.582	0.235	-0.248
-268.311	47.753	0.205	-0.192
-267.297	-14.406	0.064	-0.042
-266.282	134.145	-0.215	-0.281
-265.267	-66.671	-0.029	0.012
-264.253	-64.158	0.260	-0.106
-263.238	187.099	-0.131	0.196
-262.224	73.805	-0.207	0.218
-261.209	-200.000	-0.026	0.200
-260.195	-7.763	-0.135	-0.091
-259.180	162.623	-0.096	0.135
-258.165	93.798	-0.070	0.080
-257.151	-79.070	0.165	0.056
-256.136	367.522	-0.045	-0.091
-255.122	-119.617	0.121	-0.021
-254.107	105.672	-0.164	0.195
-253.092	-129.731	-0.189	-0.026
-252.078	0.054	-0.083	0.059
-251.063	-82.642	0.292	-0.095
-250.049	-7.789	0.254	0.172
-249.034	-98.475	0.330	0.085
-248.019	66.183	-0.057	0.058
-247.005	-143.945	-0.023	0.002
-245.990	-93.971	-0.109	-0.030
-244.976	-200.000	-0.001	-0.082
-243.961	-200.000	0.037	0.258
-242.946	800.000	0.050	0.173
-241.932	34.507	0.267	0.234
-240.917	-138.639	-0.326	-0.036
-239.903	84.437	-0.079	0.087
-238.888	5.813	0.108	0.080
-237.873	-37.676	0.027	-0.014
-236.859	-178.670	0.144	0.003
-235.844	-200.000	0.025	-0.315
-234.830	66.098	-0.244	0.249
-233.815	-21.528	0.089	0.055
-232.800	-101.682	-0.161	0.039
-231.786	-200.000	0.028	-0.155
-230.771	629.233	-0.121	0.308
-229.757	-118.056	0.119	0.021
-228.742	-97.443	0.223	0.058
-227.727	-148.827	-0.163	0.013
-226.713	-128.814	0.341	-0.048
-225.698	-87.212	0.115	0.035
-224.684	158.039	-0.054	0.075
-223.669	220.213	-0.075	-0.121
-222.655	-93.580	-0.201	-0.056
-221.640	582.652	0.143	-0.353
-220.625	-200.000	0.020	-0.535
-219.611	179.513	-0.173	-0.253
-218.596	93.270	-0.207	0.235
-217.582	-200.000	-0.020	0.202
-216.567	-96.326	0.205	0.055
-215.552	-154.281	0.081	0.006
-214.538	-6.637	-0.324	0.221
-213.523	-72.612	-0.184	0.068
-212.509	800.000	-0.076	0.210
-211.494	37.265	0.030	-0.027
-210.479	281.867	-0.056	-0.101
-209.465	-104.366	-0.107	0.025
-208.450	-55.613	-0.100	0.045
-207.436	-200.000	-0.074	0.343
-206.421	150.138	0.139	-0.190
-205.406	-58.287	-0.479	-0.209
-204.392	246.507	0.145	-0.245
-203.377	-89.038	0.233	-0.069
-202.363	-77.789	-0.092	0.032
-201.348	800.000	-0.024	0.087
-200.333	-200.000	0.014	-0.168
-199.319	-200.000	0.067	-0.358
-198.304	800.000	0.094	0.282
-197.290	158.613	0.147	-0.205
-196.275	-200.000	0.008	0.059
-195.260	-2.956	-0.191	0.134
-194.246	-200.000	0.004	0.103
-193.231	639.652	0.045	0.115
-192.217	-200.000	-0.032	0.345
-191.202	800.000	0.037	0.128
-190.187	141.959	0.170	0.226
-189.173	-94.480	0.259	-0.071
-188.158	-109.793	0.099	-0.021
-187.144	-71.314	0.043	0.016
-186.129	-200.000	0.021	0.282
-185.114	800.000	0.042	-0.151
-184.100	-200.000	-0.061	0.400
-183.085	266.849	0.070	-0.122
-182.071	360.435	-0.158	0.316
-181.056	587.886	0.110	0.271
-180.042	69.431	0.202	0.208
-179.027	-70.019	-0.203	0.077
-178.012	-200.000	-0.011	-0.301
-176.998	-92.250	-0.214	0.060
-175.983	336.751	-0.064	-0.125
-174.969	28.039	0.220	0.186
-173.954	-123.927	-0.113	0.018
-172.939	-34.618	0.198	0.108
-171.925	-97.613	0.258	-0.067
-170.910	56.333	0.239	-0.232
-169.896	-82.705	0.404	0.131
-168.881	662.706	0.041	-0.106
-167.866	-200.000	0.035	-0.171
-166.852	576.347	-0.124	0.304
-165.837	203.246	-0.161	0.249
-164.823	291.928	0.150	0.273
-163.808	-49.287	0.174	0.083
-162.793	116.453	-0.058	0.071
-161.779	53.733	0.174	-0.167
-160.764	-84.736	0.340	-0.107
-159.750	60.172	0.240	0.237
-158.735	28.806	0.142	-0.120
-157.720	-200.000	0.025	0.253
-156.706	-170.760	-0.375	0.013
-155.691	-200.000	0.012	-0.510
-154.677	-29.128	-0.155	0.089
-153.662	278.153	-0.117	-0.208
-152.647	-80.120	0.085	-0.029
-151.633	-104.366	-0.153	0.036
-150.618	280.147	-0.122	0.218
-149.604	402.648	0.132	0.278
-148.589	144.035	0.271	0.362
-147.574	800.000	-0.074	0.282
-146.560	-4.050	-0.090	-0.063
-145.545	-200.000	-0.002	0.038
-144.531	-200.000	0.014	-0.500
-143.516	756.557	-0.104	0.282
-142.502	-19.035	0.278	-0.173
-141.487	461.023	-0.121	-0.270
-140.472	-176.928	0.058	-0.001
-139.458	-53.097	0.247	0.113
-138.443	223.179	0.105	0.170
-137.429	30.380	0.213	-0.182
-136.414	138.983	-0.148	0.195
-135.399	629.822	-0.110	-0.278
-134.385	1.941	-0.023	0.016
-133.370	-200.000	-0.048	0.260
-132.356	-200.000	-0.021	-0.103
-131.341	136.412	-0.078	0.102
-130.326	349.959	0.065	-0.129
-129.312	663.668	0.128	-0.331
-128.297	305.322	0.225	0.417
-127.283	320.215	0.167	0.317
-126.268	-117.256	-0.051	-0.009
-125.253	46.562	-0.039	-0.036
-124.239	-5.534	0.172	-0.118
-123.224	-174.861	-0.324	0.009
-122.210	-3.825	0.069	0.048
-121.195	-169.142	0.235	-0.009
-120.180	55.216	-0.260	0.252
-119.166	-200.000	0.044	0.247
