DTS Sentinel unit serial number:	SN413079Multiplexer serial number:	ORYXHardware model number:	OX4-SRSoftware version number:	ORYX F/W v4.00 Oryx Data Collector v3.7.2.0data status	okinstallation	princeton_trtdifferential loss correction	single-endedforward channel	channel 1reverse channel	N/Adate	2019/09/10time	17:44:11forward acquisition time	60.00reverse acquisition time	0.00gamma	496.2192k internal	0.2300k external	0.2300temperature offset calibration	0.9927default loss term (dB/km)	0.3790temperature slope calibration	1.0000multiplexer offset coefficient	1.0000multiplexer slope coefficient	1.0000fibre end	0.00T internal ref (°C)	37.55T ext. ref 1 (°C)	-0.32T ext. ref 2 (°C)	30.70length (m)	temperature (°C)	Stokes	anti-Stokes-747.200	346.219	0.155	0.311
-746.185	-200.000	0.028	0.217
-745.171	325.759	0.165	0.323
-744.156	800.000	-0.090	0.351
-743.142	800.000	0.090	0.284
-742.127	134.909	0.131	0.173
-741.112	-101.817	-0.161	-0.040
-740.098	-105.672	-0.301	0.070
-739.083	-160.952	-0.238	0.013
-738.069	54.085	0.118	-0.116
-737.054	-200.000	0.005	-0.141
-736.039	381.270	-0.058	-0.121
-735.025	-89.199	-0.253	0.076
-734.010	-200.000	0.006	-0.080
-732.996	219.621	-0.164	0.268
-731.981	-200.000	0.000	-0.123
-730.966	387.109	-0.077	-0.162
-729.952	-83.678	-0.229	-0.074
-728.937	-112.074	0.294	-0.060
-727.923	-158.102	0.211	0.013
-726.908	-200.000	-0.025	-0.310
-725.894	234.995	-0.172	-0.290
-724.879	310.603	0.121	-0.231
-723.864	244.476	-0.107	0.184
-722.850	-106.097	0.263	0.060
-721.835	655.627	-0.095	0.248
-720.821	-113.906	-0.076	0.015
-719.806	67.124	0.087	-0.091
-718.791	-200.000	-0.045	-0.220
-717.777	-14.629	0.159	-0.104
-716.762	588.253	0.039	-0.097
-715.748	235.238	-0.158	-0.266
-714.733	467.614	-0.020	0.047
-713.718	-149.772	0.071	0.006
-712.704	200.794	0.142	0.222
-711.689	-44.130	0.371	-0.190
-710.675	35.172	0.154	0.137
-709.660	-7.565	0.176	-0.121
-708.645	35.454	0.065	-0.058
-707.631	312.220	0.063	0.121
-706.616	-200.000	-0.033	-0.153
-705.602	93.848	-0.114	0.131
-704.587	119.937	-0.135	-0.170
-703.572	800.000	0.066	-0.295
-702.558	169.282	0.102	0.148
-701.543	-120.554	0.328	0.057
-700.529	161.274	0.141	-0.201
-699.514	74.766	-0.203	-0.218
-698.499	-171.909	-0.108	-0.004
-697.485	244.606	-0.108	0.185
-696.470	152.918	-0.085	-0.119
-695.456	800.000	-0.036	0.116
-694.441	241.411	-0.123	-0.210
-693.426	169.725	-0.139	-0.202
-692.412	-99.980	-0.461	-0.117
-691.397	800.000	-0.065	-0.198
-690.383	-115.379	-0.170	-0.033
-689.368	800.000	-0.060	-0.233
-688.354	-12.914	-0.327	-0.217
-687.339	35.155	0.057	-0.051
-686.324	20.093	0.090	0.074
-685.310	-109.521	-0.110	-0.024
-684.295	12.591	-0.253	-0.198
-683.281	-113.499	0.168	-0.034
-682.266	-103.534	0.068	-0.016
-681.251	348.546	-0.050	0.101
-680.237	-126.979	-0.182	0.027
-679.222	800.000	0.018	0.066
-678.208	158.689	0.132	0.187
-677.193	-182.763	-0.170	0.003
-676.178	464.521	-0.055	0.126
-675.164	12.097	0.192	-0.150
-674.149	-137.868	0.184	-0.021
-673.135	-115.512	0.427	-0.082
-672.120	266.525	-0.116	0.206
-671.105	72.761	-0.032	0.034
-670.091	-76.440	0.185	-0.066
-669.076	-125.731	-0.126	-0.019
-668.062	-154.559	-0.050	0.003
-667.047	482.831	-0.163	0.376
-666.032	-187.365	0.096	0.001
-665.018	15.365	0.157	0.126
-664.003	800.000	0.088	0.389
-662.989	-20.361	0.175	-0.109
-661.974	91.736	0.256	-0.293
-660.959	-137.038	-0.083	-0.010
-659.945	223.528	0.037	-0.061
-658.930	132.143	-0.121	-0.159
-657.916	-165.874	0.098	0.004
-656.901	-200.000	0.036	-0.323
-655.886	-36.383	0.059	-0.032
-654.872	-48.088	0.456	-0.224
-653.857	66.768	0.259	0.268
-652.843	-200.000	0.025	0.193
-651.828	579.205	-0.063	0.158
-650.814	-200.000	-0.016	0.132
-649.799	-100.495	0.051	-0.013
-648.784	-16.045	-0.340	-0.220
-647.770	682.984	0.100	0.266
-646.755	-200.000	-0.003	-0.145
-645.741	-94.086	0.255	0.071
-644.726	35.486	-0.137	-0.122
-643.711	-200.000	-0.016	-0.165
-642.697	-145.532	0.337	-0.031
-641.682	-107.279	0.220	-0.049
-640.668	450.777	0.084	-0.189
-639.653	191.548	-0.094	-0.144
-638.638	82.675	0.142	0.156
-637.624	-40.710	0.188	0.099
-636.609	-49.070	0.081	-0.040
-635.595	197.725	-0.171	0.265
-634.580	-107.109	0.367	-0.082
-633.565	-200.000	-0.032	0.228
-632.551	800.000	-0.072	-0.216
-631.536	-200.000	0.022	-0.117
-630.522	-22.513	0.370	-0.227
-629.507	-81.532	0.150	-0.050
-628.492	-75.743	0.163	0.059
-627.478	-200.000	-0.030	0.291
-626.463	-81.297	0.114	-0.038
-625.449	236.633	0.043	-0.072
-624.434	-55.546	-0.335	0.153
-623.419	-48.530	-0.075	0.037
-622.405	-93.100	0.324	0.092
-621.390	-200.000	-0.031	-0.493
-620.376	-200.000	0.011	-0.386
-619.361	454.504	0.057	0.128
-618.346	173.016	0.198	0.289
-617.332	144.163	-0.071	0.096
-616.317	-25.105	-0.292	-0.176
-615.303	-82.666	0.414	-0.136
-614.288	316.674	-0.096	-0.185
-613.273	-44.479	0.231	0.117
-612.259	148.374	-0.049	0.068
-611.244	-200.000	-0.003	0.034
-610.230	800.000	0.021	-0.069
-609.215	-20.706	0.065	-0.041
-608.201	-105.438	0.333	-0.077
-607.186	381.692	0.126	-0.262
-606.171	-70.983	-0.228	0.087
-605.157	138.302	0.207	0.275
-604.142	-70.156	-0.334	0.129
-603.128	100.797	-0.218	0.258
-602.113	36.540	-0.186	0.166
-601.098	114.816	0.363	0.449
-600.084	-200.000	0.009	-0.192
-599.069	-99.480	-0.222	-0.057
-598.055	-200.000	-0.001	0.128
-597.040	41.893	-0.347	-0.319
-596.025	78.993	0.133	-0.144
-595.011	28.970	-0.117	-0.100
-593.996	-200.000	0.039	0.238
-592.982	788.685	-0.075	0.208
-591.967	-200.000	0.025	0.141
-590.952	-53.754	0.286	0.132
-589.938	-162.497	-0.083	0.004
-588.923	-200.000	0.035	-0.167
-587.909	108.152	0.295	-0.356
-586.894	-109.025	0.459	-0.099
-585.879	-45.476	-0.100	0.050
-584.865	-100.975	0.233	0.058
-583.850	256.634	-0.248	-0.432
-582.836	800.000	-0.178	-0.536
-581.821	27.957	0.219	-0.187
-580.806	-94.623	-0.404	-0.111
-579.792	-200.000	-0.001	0.126
-578.777	-200.000	-0.042	0.239
-577.763	-36.317	0.168	-0.092
-576.748	-74.112	-0.232	-0.085
-575.733	-87.605	0.139	0.042
-574.719	800.000	0.075	-0.325
-573.704	450.332	-0.098	-0.219
-572.690	-135.068	0.299	0.037
-571.675	-12.639	-0.235	0.155
-570.661	800.000	0.013	0.056
-569.646	117.775	0.044	0.055
-568.631	530.527	0.125	0.298
-567.617	-200.000	-0.038	0.174
-566.602	-200.000	-0.010	-0.321
-565.588	77.014	-0.200	-0.215
-564.573	-30.596	-0.169	-0.097
-563.558	-31.742	0.190	-0.108
-562.544	-94.847	-0.221	0.061
-561.529	-193.691	-0.397	-0.003
-560.515	-52.089	0.092	0.043
-559.500	-112.149	-0.069	-0.014
-558.485	-71.853	0.314	0.118
-557.471	-175.643	0.228	-0.006
-556.456	-79.358	0.156	-0.054
-555.442	-179.928	0.426	0.009
-554.427	-102.068	0.365	-0.089
-553.412	220.200	-0.128	0.208
-552.398	83.210	-0.216	-0.238
-551.383	207.597	-0.192	-0.303
-550.369	-139.753	0.290	0.031
-549.354	465.417	0.146	-0.330
-548.339	-171.816	-0.108	-0.004
-547.325	-69.198	0.087	-0.034
-546.310	-125.810	0.128	-0.020
-545.296	212.591	0.125	-0.199
-544.281	-200.000	-0.040	0.286
-543.266	-8.265	-0.076	0.052
-542.252	-52.907	-0.257	0.120
-541.237	-60.396	-0.099	0.043
-540.223	-200.000	-0.001	-0.301
-539.208	200.074	0.036	-0.057
-538.193	381.560	0.089	0.184
-537.179	800.000	-0.024	-0.101
-536.164	-200.000	0.030	-0.274
-535.150	-200.000	-0.039	-0.179
-534.135	33.998	0.294	0.259
-533.121	-145.687	0.375	-0.034
-532.106	-87.386	-0.320	0.098
-531.091	-3.160	0.051	-0.036
-530.077	-33.493	-0.295	0.165
-529.062	-88.402	-0.508	0.154
-528.048	-67.775	-0.040	-0.016
-527.033	81.699	-0.214	-0.234
-526.018	800.000	-0.103	-0.391
-525.004	17.064	0.077	0.062
-523.989	800.000	-0.130	-0.369
-522.975	496.829	0.037	0.085
-521.960	238.178	0.098	-0.164
-520.945	800.000	-0.023	0.090
-519.931	60.848	-0.129	0.129
-518.916	151.739	0.111	0.153
-517.902	35.833	-0.111	-0.099
-516.887	320.550	-0.141	0.272
-515.872	-97.030	-0.081	0.021
-514.858	-28.057	0.184	0.108
-513.843	281.356	-0.108	0.195
-512.829	-200.000	0.018	-0.095
-511.814	-200.000	-0.005	0.119
-510.799	176.805	0.076	0.112
-509.785	-121.499	0.253	-0.043
-508.770	128.057	-0.185	0.238
-507.756	-67.678	-0.249	0.099
-506.741	-200.000	-0.027	-0.204
-505.726	-82.869	0.440	-0.144
-504.712	-200.000	-0.016	-0.253
-503.697	-123.268	-0.138	0.022
-502.683	378.762	-0.062	-0.128
-501.668	-80.904	-0.200	0.067
-500.653	-58.507	0.060	-0.026
-499.639	800.000	0.061	-0.184
-498.624	800.000	-0.058	-0.163
-497.610	-116.749	-0.105	-0.019
-496.595	127.458	0.062	-0.080
-495.581	-122.138	-0.053	-0.009
-494.566	-26.916	-0.131	0.078
-493.551	-183.181	0.076	-0.001
-492.537	469.325	-0.114	0.258
-491.522	237.361	-0.236	0.396
-490.508	-30.203	-0.343	0.197
-489.493	-87.623	-0.227	0.069
-488.478	88.701	-0.213	0.239
-487.464	-200.000	0.014	-0.379
-486.449	520.459	-0.039	0.093
-485.435	48.498	0.216	-0.204
-484.420	206.166	-0.145	-0.228
-483.405	-200.000	-0.034	-0.467
-482.391	-131.970	0.433	0.057
-481.376	35.855	0.245	0.218
-480.362	-94.477	0.296	-0.081
-479.347	-85.021	-0.087	-0.028
-478.332	-81.684	0.125	0.041
-477.318	63.148	0.072	-0.073
-476.303	196.493	0.086	-0.132
-475.289	-175.893	-0.220	0.006
-474.274	0.656	-0.224	0.162
-473.259	142.913	0.040	0.054
-472.245	-200.000	0.020	-0.161
-471.230	-200.000	-0.043	0.366
-470.216	-200.000	-0.000	0.134
-469.201	-200.000	0.042	0.271
-468.186	-89.471	0.254	0.075
-467.172	-200.000	0.003	0.296
-466.157	291.972	-0.254	-0.466
-465.143	86.349	0.081	0.090
-464.128	642.972	0.019	0.048
-463.113	-49.996	-0.199	-0.095
-462.099	296.036	-0.089	0.164
-461.084	10.373	-0.296	-0.227
-460.070	161.419	0.168	0.238
-459.055	68.679	-0.173	-0.179
-458.040	-200.000	-0.002	0.194
-457.026	800.000	0.097	-0.334
-456.011	800.000	0.072	0.307
-454.997	-97.841	-0.153	0.040
-453.982	632.218	0.074	0.188
-452.968	403.838	-0.103	-0.219
-451.953	-200.000	0.008	-0.180
-450.938	800.000	0.082	0.326
-449.924	-178.795	-0.252	-0.006
-448.909	-200.000	-0.005	0.215
-447.895	664.691	0.158	-0.412
-446.880	41.619	-0.093	0.085
-445.865	-32.230	-0.193	-0.109
-444.851	305.804	-0.069	0.129
-443.836	-45.289	-0.033	0.016
-442.822	741.493	-0.144	0.391
-441.807	120.499	-0.133	0.167
-440.792	-40.691	0.214	-0.112
-439.778	35.078	0.265	-0.234
-438.763	341.948	-0.178	-0.351
-437.749	79.149	0.037	0.040
-436.734	298.245	0.098	0.181
-435.719	-133.115	0.054	-0.007
-434.705	138.074	0.078	0.103
-433.690	-200.000	-0.014	-0.125
-432.676	-72.977	0.132	0.049
-431.661	800.000	-0.097	0.311
-430.646	51.103	0.234	0.224
-429.632	-200.000	-0.044	0.491
-428.617	-23.030	0.136	-0.083
-427.603	-200.000	0.026	-0.278
-426.588	269.885	-0.134	0.237
-425.573	-31.509	0.439	0.249
-424.559	1.957	-0.190	0.138
-423.544	161.133	0.277	-0.391
-422.530	-200.000	-0.041	0.258
-421.515	15.253	-0.042	0.033
-420.500	339.084	-0.105	-0.206
-419.486	-82.408	-0.113	-0.037
-418.471	76.175	-0.123	-0.131
-417.457	-200.000	0.002	0.075
-416.442	23.913	-0.412	0.342
-415.428	-200.000	0.046	-0.423
-414.413	-9.662	-0.132	-0.089
-413.398	-95.457	0.142	0.038
-412.384	77.958	0.177	-0.190
-411.369	0.077	-0.122	0.088
-410.355	-55.141	0.299	-0.136
-409.340	-70.078	-0.095	-0.036
-408.325	-4.911	0.182	0.126
-407.311	-103.678	0.335	0.079
-406.296	-104.003	-0.135	-0.032
-405.282	26.704	0.059	-0.050
-404.267	-125.062	0.425	0.066
-403.252	108.412	-0.193	-0.231
-402.238	82.831	-0.077	-0.084
-401.223	89.251	0.073	-0.082
-400.209	355.378	0.093	0.187
-399.194	-61.528	-0.220	-0.093
-398.179	-105.185	0.144	0.033
-397.165	-84.517	-0.305	-0.097
-396.150	-44.269	0.296	-0.149
-395.136	-200.000	0.006	0.091
-394.121	-63.718	-0.180	-0.074
-393.106	449.882	0.134	-0.297
-392.092	87.857	-0.130	-0.145
-391.077	191.186	0.133	-0.202
-390.063	-38.650	-0.141	0.075
-389.048	-142.589	0.054	-0.005
-388.033	-12.952	0.238	-0.156
-387.019	-200.000	0.069	-0.573
-386.004	377.330	-0.004	-0.008
-384.990	1.363	-0.166	-0.120
-383.975	275.607	-0.095	-0.169
-382.960	-74.130	-0.292	-0.107
-381.946	-147.850	-0.277	0.023
-380.931	-108.414	-0.188	-0.041
-379.917	25.741	-0.150	0.125
-378.902	489.685	0.063	-0.145
-377.888	13.216	0.099	0.077
-376.873	498.283	-0.052	-0.121
-375.858	-182.692	-0.058	-0.001
-374.844	26.564	0.034	-0.029
-373.829	-161.186	0.142	-0.007
-372.815	-142.410	0.242	-0.024
-371.800	140.148	0.068	0.090
-370.785	-200.000	0.032	0.149
-369.771	800.000	0.004	0.015
-368.756	160.917	0.090	0.127
-367.742	139.343	-0.069	-0.091
-366.727	-200.000	-0.016	0.225
-365.712	139.332	0.251	-0.332
-364.698	-48.803	-0.350	0.169
-363.683	-156.097	-0.199	-0.013
-362.669	288.380	0.139	0.253
-361.654	-200.000	-0.023	-0.128
-360.639	-72.709	0.290	-0.107
-359.625	23.992	0.001	-0.001
-358.610	-24.377	-0.169	-0.101
-357.596	-185.770	-0.199	-0.003
-356.581	-60.244	0.219	0.094
-355.566	68.714	0.055	-0.057
-354.552	22.376	-0.311	0.256
-353.537	765.500	-0.062	-0.168
-352.523	720.273	-0.051	0.137
-351.508	-65.554	-0.216	-0.087
-350.493	800.000	0.048	0.135
-349.479	-5.990	0.157	-0.108
-348.464	347.712	0.059	0.117
-347.450	663.348	-0.133	0.343
-346.435	195.209	0.092	0.140
-345.420	-100.107	0.254	0.064
-344.406	3.173	-0.181	-0.132
-343.391	24.705	-0.218	-0.181
-342.377	-200.000	0.064	-0.325
-341.362	465.580	0.154	-0.346
-340.348	800.000	-0.086	0.356
-339.333	234.519	0.113	-0.187
-338.318	-200.000	0.038	0.231
-337.304	126.447	0.158	-0.201
-336.289	138.037	-0.257	-0.339
-335.275	-200.000	0.051	-0.406
-334.260	376.171	-0.032	0.065
-333.245	-200.000	-0.049	0.296
-332.231	-80.250	-0.345	0.116
-331.216	-200.000	0.013	0.200
-330.202	542.441	-0.075	0.178
-329.187	83.551	-0.200	-0.219
-328.172	-44.285	-0.178	0.089
-327.158	260.267	0.080	0.138
-326.143	-176.440	0.177	0.005
-325.129	3.683	0.247	0.181
-324.114	114.423	-0.242	-0.296
-323.099	130.136	0.139	-0.179
-322.085	-72.175	-0.330	0.123
-321.070	33.768	0.307	0.268
-320.056	15.491	-0.169	0.133
-319.041	37.908	0.169	-0.151
-318.026	520.551	0.149	0.352
-317.012	111.362	0.074	0.089
-315.997	-200.000	0.016	0.126
-314.983	0.910	-0.065	0.047
-313.968	695.568	0.025	0.065
-312.953	126.940	0.161	0.205
-311.939	-65.196	0.229	-0.093
-310.924	-200.000	-0.043	0.224
-309.910	77.017	0.095	-0.101
-308.895	-81.206	0.074	-0.025
-307.880	-9.819	0.205	0.137
-306.866	800.000	0.026	-0.089
-305.851	-101.941	-0.207	0.050
-304.837	-20.149	-0.099	0.061
-303.822	-21.767	-0.404	0.247
-302.807	688.523	-0.063	-0.165
-301.793	167.717	0.094	-0.134
-300.778	213.856	-0.150	-0.238
-299.764	-44.109	0.312	0.157
-298.749	-119.925	-0.078	-0.013
-297.735	42.887	-0.044	0.041
-296.720	-9.164	0.043	0.029
-295.705	-151.893	-0.184	0.014
-294.691	-200.000	-0.002	0.096
-293.676	228.382	-0.209	0.341
-292.662	518.866	-0.109	-0.256
-291.647	-87.302	0.234	0.071
-290.632	-142.866	0.153	-0.015
-289.618	87.804	-0.057	-0.063
-288.603	-131.188	-0.232	0.031
-287.589	-71.297	0.134	-0.050
-286.574	-0.691	0.233	-0.166
-285.559	-27.311	0.316	-0.184
-284.545	800.000	0.039	0.155
-283.530	-200.000	0.009	0.335
-282.516	-167.247	-0.375	-0.015
-281.501	-88.162	-0.294	-0.088
-280.486	800.000	0.069	-0.255
-279.472	245.427	0.080	-0.135
-278.457	111.740	-0.023	0.028
-277.443	115.864	-0.159	-0.195
-276.428	-95.476	0.140	0.038
-275.413	-150.831	0.354	-0.027
-274.399	35.216	-0.117	0.103
-273.384	455.642	0.184	-0.408
-272.370	368.021	0.147	0.298
-271.355	160.658	0.090	-0.126
-270.340	-200.000	0.012	0.111
-269.326	-149.419	0.088	0.007
-268.311	608.729	0.062	0.154
-267.297	-133.413	-0.592	-0.075
-266.282	-200.000	-0.046	0.265
-265.267	-200.000	0.013	0.306
-264.253	169.718	0.145	-0.208
-263.238	35.206	-0.237	-0.208
-262.224	249.885	-0.023	-0.039
-261.209	181.232	0.164	-0.241
-260.195	-182.454	-0.168	0.003
-259.180	-200.000	-0.000	0.028
-258.165	-41.808	0.137	-0.070
-257.151	111.577	0.212	-0.256
-256.136	-98.379	-0.313	0.080
-255.122	303.997	-0.010	-0.018
-254.107	-151.900	0.159	-0.012
-253.092	-52.862	0.293	-0.135
-252.078	-161.902	-0.443	-0.022
-251.063	109.615	-0.244	-0.293
-250.049	-145.036	-0.140	-0.013
-249.034	-200.000	0.022	-0.208
-248.019	-79.841	-0.297	0.100
-247.005	798.624	-0.149	0.411
-245.990	144.868	0.096	0.128
-244.976	-53.252	0.071	0.033
-243.961	-108.724	0.115	0.025
-242.946	453.500	-0.081	0.179
-241.932	-93.228	-0.153	0.042
-240.917	108.335	0.265	0.316
-239.903	9.659	-0.123	-0.093
-238.888	800.000	-0.098	0.377
-237.873	223.544	-0.228	0.368
-236.859	-200.000	-0.012	-0.288
-235.844	410.744	-0.067	-0.142
-234.830	124.625	-0.289	0.364
-233.815	-63.962	-0.130	-0.053
-232.800	21.985	-0.188	0.153
-231.786	552.656	0.042	-0.100
-230.771	-200.000	-0.019	-0.166
-229.757	-123.713	0.167	-0.026
-228.742	-200.000	0.032	0.421
-227.727	-76.398	0.086	-0.030
-226.713	242.731	0.034	-0.057
-225.698	-200.000	0.010	0.081
-224.684	149.147	-0.064	0.087
-223.669	-126.182	0.222	0.033
-222.655	188.565	0.160	-0.240
-221.640	-82.476	-0.139	-0.045
-220.625	-76.583	-0.310	0.109
-219.611	-30.569	0.109	0.062
-218.596	-182.513	0.129	-0.002
-217.582	448.771	0.016	0.035
-216.567	256.732	0.141	0.241
-215.552	96.878	-0.161	0.184
-214.538	-64.107	0.148	-0.060
-213.523	800.000	0.085	0.259
-212.509	-135.165	-0.153	0.018
-211.494	-200.000	-0.015	0.283
-210.479	800.000	-0.130	0.428
-209.465	166.105	-0.126	-0.179
-208.450	60.755	0.079	0.079
-207.436	-200.000	-0.017	-0.174
-206.421	-99.749	0.144	0.036
-205.406	617.053	0.076	0.189
-204.392	-151.993	-0.318	0.023
-203.377	-4.171	0.240	-0.166
-202.363	29.088	0.057	-0.048
-201.348	-200.000	0.032	0.267
-200.333	-58.862	0.298	-0.129
-199.319	25.963	0.194	0.162
-198.304	-56.073	-0.176	-0.078
-197.290	27.022	-0.088	-0.074
-196.275	-11.787	0.232	0.152
-195.260	-200.000	0.028	-0.353
-194.246	-200.000	0.029	-0.329
-193.231	-30.846	-0.069	-0.039
-192.217	-43.599	0.244	0.123
-191.202	-186.502	0.388	-0.006
-190.187	-90.267	0.170	0.049
-189.173	67.576	0.170	0.173
-188.158	261.992	0.063	-0.109
-187.144	-93.420	-0.166	-0.046
-186.129	322.250	-0.143	0.271
-185.114	-82.534	-0.056	-0.018
-184.100	-74.227	-0.105	0.038
-183.085	232.573	-0.164	-0.269
-182.071	-46.264	-0.240	-0.118
-181.056	93.735	0.082	0.093
-180.042	62.543	0.111	-0.111
-179.027	54.189	0.207	-0.198
-178.012	-200.000	-0.019	-0.158
-176.998	-115.486	-0.294	-0.055
-175.983	-200.000	-0.018	-0.163
-174.969	362.230	-0.118	-0.235
-173.954	-61.534	0.203	0.085
-172.939	800.000	0.068	0.268
-171.925	-176.202	-0.108	-0.003
-170.910	-200.000	-0.001	0.455
-169.896	-200.000	-0.071	0.327
-168.881	426.075	-0.115	-0.247
-167.866	-200.000	0.038	0.189
-166.852	-125.926	0.174	0.026
-165.837	417.791	0.028	0.060
-164.823	61.335	0.058	-0.058
-163.808	368.138	0.112	-0.225
-162.793	156.591	0.031	-0.042
-161.779	31.875	-0.175	0.151
-160.764	-21.835	-0.110	0.067
-159.750	-98.315	0.260	0.066
-158.735	787.108	-0.099	-0.272
-157.720	74.399	0.115	-0.120
-156.706	97.642	-0.183	0.210
-155.691	85.276	-0.198	0.216
-154.677	-38.220	-0.147	-0.077
-153.662	71.694	0.252	0.261
-152.647	-150.390	-0.155	-0.012
-151.633	189.762	-0.142	0.212
-150.618	115.674	0.188	-0.229
-149.604	-200.000	-0.052	-0.317
-148.589	800.000	-0.073	-0.300
-147.574	-31.711	0.423	-0.236
-146.560	674.226	0.138	-0.357
-145.545	-78.315	-0.132	-0.045
-144.531	-87.267	0.187	0.056
-143.516	-171.221	0.297	-0.010
-142.502	-200.000	-0.020	0.344
-141.487	-144.684	0.209	-0.019
-140.472	-104.035	0.169	0.039
-139.458	745.998	0.139	0.372
-138.443	-76.612	0.217	0.076
-137.429	-200.000	-0.036	0.275
-136.414	-200.000	0.030	-0.218
-135.399	55.260	-0.229	-0.221
-134.385	-121.517	0.095	0.016
-133.370	-98.473	-0.212	0.054
-132.356	800.000	0.022	-0.069
-131.341	-40.885	-0.609	-0.314
-130.326	491.143	0.096	-0.219
-129.312	-8.070	-0.124	-0.083
-128.297	800.000	-0.047	0.169
-127.283	186.657	0.089	-0.133
-126.268	-66.911	0.367	-0.145
-125.253	-200.000	0.024	0.348
-124.239	214.784	-0.138	0.218
-123.224	-123.908	-0.239	0.037
-122.210	-63.597	-0.049	-0.020
