DTS Sentinel unit serial number:	SN413079Multiplexer serial number:	ORYXHardware model number:	OX4-SRSoftware version number:	ORYX F/W v4.00 Oryx Data Collector v3.7.2.0data status	okinstallation	princeton_trtdifferential loss correction	single-endedforward channel	channel 1reverse channel	N/Adate	2019/09/11time	00:40:11forward acquisition time	60.00reverse acquisition time	0.00gamma	496.2192k internal	0.2331k external	0.2331temperature offset calibration	0.9933default loss term (dB/km)	0.3790temperature slope calibration	1.0000multiplexer offset coefficient	1.0000multiplexer slope coefficient	1.0000fibre end	0.00T internal ref (°C)	29.19T ext. ref 1 (°C)	-0.29T ext. ref 2 (°C)	22.91length (m)	temperature (°C)	Stokes	anti-Stokes-747.200	-106.923	0.313	-0.070
-746.185	192.011	0.068	-0.103
-745.171	-200.000	-0.032	-0.523
-744.156	-93.391	-0.325	0.091
-743.142	-78.101	0.198	0.069
-742.127	-131.640	-0.052	0.007
-741.112	150.181	-0.152	0.208
-740.098	32.374	0.292	0.254
-739.083	31.322	0.273	0.236
-738.069	0.669	0.274	-0.197
-737.054	70.552	-0.232	-0.241
-736.039	-86.158	-0.314	-0.097
-735.025	-200.000	-0.004	0.183
-734.010	-33.829	0.054	-0.030
-732.996	-200.000	-0.065	-0.441
-731.981	-200.000	0.014	-0.088
-730.966	34.682	-0.122	0.107
-729.952	135.366	0.152	-0.199
-728.937	557.373	0.015	-0.037
-727.923	286.770	0.099	0.181
-726.908	-200.000	-0.017	-0.225
-725.894	506.460	-0.107	-0.250
-724.879	55.768	-0.215	-0.209
-723.864	-113.546	0.096	-0.019
-722.850	-115.825	-0.187	0.035
-721.835	-139.252	-0.406	0.044
-720.821	17.015	0.139	-0.111
-719.806	119.857	-0.044	-0.055
-718.791	61.688	-0.102	0.102
-717.777	800.000	0.119	-0.446
-716.762	291.232	-0.063	0.115
-715.748	352.321	0.129	-0.257
-714.733	326.580	0.125	-0.241
-713.718	800.000	0.019	0.079
-712.704	696.676	0.027	0.072
-711.689	161.866	0.036	-0.051
-710.675	561.760	-0.141	-0.342
-709.660	18.633	0.199	-0.160
-708.645	-158.338	0.294	0.017
-707.631	95.907	0.271	0.311
-706.616	-104.877	-0.180	-0.042
-705.602	688.585	-0.070	-0.184
-704.587	-21.261	0.063	0.039
-703.572	6.747	-0.231	-0.173
-702.558	800.000	0.073	0.277
-701.543	609.967	-0.070	0.175
-700.529	-63.806	0.194	0.080
-699.514	-107.857	-0.253	0.055
-698.499	125.972	-0.201	-0.255
-697.485	100.733	-0.025	0.029
-696.470	6.858	0.085	-0.063
-695.456	150.694	0.166	0.226
-694.441	-100.561	0.234	-0.058
-693.426	800.000	0.062	0.237
-692.412	588.530	0.048	-0.118
-691.397	-118.347	-0.438	-0.078
-690.383	-76.261	-0.167	0.059
-689.368	18.178	-0.147	0.118
-688.354	-200.000	-0.045	0.254
-687.339	-16.599	0.304	0.193
-686.324	-14.217	0.161	-0.104
-685.310	-119.226	-0.079	-0.014
-684.295	498.221	0.141	0.327
-683.281	-70.684	-0.195	-0.074
-682.266	4.544	-0.040	-0.029
-681.251	-38.956	-0.216	0.114
-680.237	-1.049	0.106	-0.076
-679.222	-200.000	-0.006	-0.208
-678.208	-129.928	0.197	-0.027
-677.193	29.522	0.176	-0.150
-676.178	481.170	0.144	-0.327
-675.164	-147.903	-0.162	0.014
-674.149	-190.151	-0.280	0.003
-673.135	800.000	0.035	-0.150
-672.120	64.633	0.162	-0.164
-671.105	10.527	-0.126	0.096
-670.091	-122.825	-0.190	-0.031
-669.076	-72.458	-0.197	-0.073
-668.062	-31.189	0.111	0.063
-667.047	-127.148	-0.094	0.014
-666.032	-200.000	0.002	0.239
-665.018	-200.000	-0.013	0.242
-664.003	219.006	-0.083	0.133
-662.989	-97.757	-0.101	0.026
-661.974	-159.884	0.378	-0.021
-660.959	-29.041	0.283	-0.163
-659.945	102.814	-0.161	0.189
-658.930	-27.807	-0.308	-0.179
-657.916	631.546	0.057	-0.145
-656.901	-107.431	-0.258	-0.057
-655.886	800.000	0.053	-0.167
-654.872	-200.000	-0.040	-0.216
-653.857	23.759	-0.170	-0.141
-652.843	-200.000	-0.001	0.028
-651.828	356.562	-0.063	-0.125
-650.814	-36.659	-0.176	0.095
-649.799	489.889	0.044	0.101
-648.784	-200.000	-0.044	0.261
-647.770	-200.000	0.010	-0.058
-646.755	800.000	0.089	-0.345
-645.741	800.000	-0.060	-0.219
-644.726	-37.002	-0.335	-0.180
-643.711	-109.190	0.391	-0.083
-642.697	-200.000	-0.012	0.403
-641.682	-200.000	0.047	-0.345
-640.668	-132.866	-0.376	-0.048
-639.653	201.355	-0.107	-0.165
-638.638	166.677	-0.044	-0.062
-637.624	-85.711	0.273	-0.085
-636.609	-86.275	-0.218	0.067
-635.595	738.976	0.130	-0.350
-634.580	42.104	-0.201	-0.183
-633.565	176.014	0.113	-0.165
-632.551	266.801	0.046	0.080
-631.536	800.000	-0.032	-0.123
-630.522	146.032	0.074	-0.099
-629.507	10.903	-0.170	0.130
-628.492	-50.537	-0.185	0.087
-627.478	288.285	-0.040	0.073
-626.463	-88.410	-0.308	-0.092
-625.449	-97.884	-0.338	0.088
-624.434	-55.885	0.385	-0.172
-623.419	411.503	0.083	-0.176
-622.405	800.000	-0.020	0.057
-621.390	51.455	-0.170	-0.162
-620.376	-132.760	-0.193	-0.025
-619.361	125.638	0.121	0.153
-618.346	305.124	0.011	0.021
-617.332	800.000	-0.083	-0.323
-616.317	-200.000	0.026	0.223
-615.303	-111.359	0.084	-0.017
-614.288	-200.000	0.025	-0.120
-613.273	-114.088	0.416	0.081
-612.259	-42.045	-0.151	0.078
-611.244	-2.537	-0.132	0.093
-610.230	125.375	-0.139	0.176
-609.215	86.354	0.065	0.072
-608.201	-74.078	-0.208	0.076
-607.186	-200.000	-0.001	-0.102
-606.171	286.764	0.161	-0.291
-605.157	157.658	-0.201	-0.279
-604.142	-200.000	-0.044	0.332
-603.128	227.687	-0.073	0.119
-602.113	23.277	-0.116	-0.096
-601.098	89.256	-0.074	0.083
-600.084	-95.471	0.139	-0.037
-599.069	99.368	-0.390	-0.451
-598.055	110.725	-0.179	-0.215
-597.040	-102.883	-0.144	0.034
-596.025	800.000	0.060	0.253
-595.011	15.640	0.098	-0.077
-593.996	52.369	0.114	0.109
-592.982	4.156	0.116	-0.085
-591.967	-87.836	-0.059	0.018
-590.952	46.307	0.304	0.282
-589.938	-12.220	0.111	0.072
-588.923	800.000	-0.054	-0.204
-587.909	150.233	-0.174	0.237
-586.894	-5.008	-0.280	0.193
-585.879	800.000	-0.075	-0.218
-584.865	429.176	0.083	0.179
-583.850	148.114	-0.196	-0.265
-582.836	-122.874	0.270	0.044
-581.821	-63.188	-0.322	0.133
-580.806	800.000	-0.026	-0.109
-579.792	-78.743	0.087	-0.030
-578.777	313.460	-0.103	-0.193
-577.763	-168.526	0.390	0.015
-576.748	-72.559	-0.042	-0.016
-575.733	-200.000	-0.009	0.366
-574.719	-81.323	0.214	0.071
-573.704	46.637	-0.141	-0.131
-572.690	75.071	0.150	0.158
-571.675	95.939	-0.144	-0.164
-570.661	-200.000	-0.025	-0.137
-569.646	-200.000	0.012	0.110
-568.631	800.000	-0.044	0.127
-567.617	90.578	-0.167	0.187
-566.602	800.000	0.058	-0.211
-565.588	-63.833	0.157	-0.064
-564.573	666.579	0.022	-0.057
-563.558	-0.905	-0.204	0.144
-562.544	800.000	0.056	0.190
-561.529	119.421	-0.045	0.056
-560.515	162.132	0.227	-0.318
-559.500	-200.000	-0.002	-0.075
-558.485	-69.504	-0.162	0.062
-557.471	-67.375	0.261	0.102
-556.456	437.557	0.177	-0.386
-555.442	-111.849	0.390	-0.079
-554.427	-51.388	-0.141	0.066
-553.412	43.102	0.209	-0.190
-552.398	428.340	-0.182	-0.392
-551.383	59.351	-0.081	0.080
-550.369	46.806	-0.110	0.102
-549.354	-127.415	-0.375	0.055
-548.339	156.364	0.100	0.138
-547.325	426.334	0.123	0.266
-546.310	17.298	-0.161	0.127
-545.296	800.000	-0.035	-0.143
-544.281	-50.860	-0.382	0.179
-543.266	156.298	0.127	-0.176
-542.252	-170.842	0.351	-0.012
-541.237	-179.342	-0.180	-0.004
-540.223	-200.000	-0.035	0.261
-539.208	406.967	0.049	0.104
-538.193	135.722	0.100	-0.130
-537.179	167.015	-0.202	-0.287
-536.164	-200.000	0.028	0.152
-535.150	23.993	-0.201	0.166
-534.135	151.528	0.171	0.233
-533.121	800.000	-0.115	0.490
-532.106	-121.227	0.156	-0.026
-531.091	-73.485	-0.392	-0.143
-530.077	81.489	0.313	-0.338
-529.062	-146.822	0.213	-0.018
-528.048	47.984	-0.118	-0.110
-527.033	47.364	0.183	0.171
-526.018	-200.000	0.011	0.078
-525.004	358.486	-0.094	-0.187
-523.989	-145.755	-0.244	-0.022
-522.975	720.994	-0.107	-0.283
-521.960	-200.000	-0.035	-0.446
-520.945	-80.002	-0.223	-0.075
-519.931	-2.785	0.132	-0.092
-518.916	499.763	0.077	-0.177
-517.902	131.853	-0.116	-0.149
-516.887	-66.483	-0.080	-0.032
-515.872	-200.000	-0.034	0.212
-514.858	-26.779	-0.043	0.025
-513.843	-1.101	0.060	0.042
-512.829	-125.952	-0.163	-0.024
-511.814	-118.412	0.288	0.051
-510.799	-140.516	-0.456	0.047
-509.785	800.000	0.083	-0.235
-508.770	482.593	0.081	-0.184
-507.756	599.737	-0.017	0.041
-506.741	-9.030	0.058	-0.039
-505.726	215.975	-0.065	0.103
-504.712	120.579	0.396	0.491
-503.697	-49.246	0.275	-0.131
-502.683	-83.779	0.103	0.033
-501.668	-200.000	-0.018	-0.239
-500.653	-43.410	-0.278	-0.140
-499.639	647.720	0.048	-0.123
-498.624	800.000	0.014	0.052
-497.610	236.332	-0.107	-0.177
-496.595	58.621	0.128	-0.126
-495.581	322.767	-0.147	0.279
-494.566	56.352	0.127	0.123
-493.551	-33.121	-0.014	0.008
-492.537	-118.560	-0.292	-0.051
-491.522	719.967	-0.095	-0.251
-490.508	800.000	0.081	-0.319
-489.493	800.000	-0.089	0.261
-488.478	142.614	0.109	0.144
-487.464	158.043	0.063	0.087
-486.449	-55.111	-0.191	-0.086
-485.435	-15.387	0.105	0.067
-484.420	228.306	0.113	-0.184
-483.405	18.895	0.193	0.154
-482.391	-16.223	0.266	0.168
-481.376	-200.000	0.007	0.099
-480.362	-200.000	0.035	-0.195
-479.347	-10.098	-0.250	0.165
-478.332	-200.000	0.012	0.155
-477.318	800.000	0.078	-0.227
-476.303	-7.045	0.238	0.161
-475.289	-132.818	0.424	0.054
-474.274	800.000	-0.158	-0.514
-473.259	-110.861	0.141	-0.029
-472.245	101.425	0.222	0.257
-471.230	-69.428	0.158	0.060
-470.216	-200.000	0.020	-0.188
-469.201	-91.917	0.127	-0.036
-468.186	-85.470	0.277	0.086
-467.172	-104.846	-0.166	0.038
-466.157	-122.665	-0.142	-0.023
-465.143	-161.020	-0.225	0.012
-464.128	-49.871	-0.064	-0.030
-463.113	157.422	0.096	-0.132
-462.099	-109.426	0.492	-0.104
-461.084	-149.454	-0.231	-0.018
-460.070	691.315	0.082	0.214
-459.055	-34.390	0.352	-0.192
-458.040	0.353	0.060	-0.042
-457.026	-200.000	-0.029	0.344
-456.011	66.375	-0.216	0.218
-454.997	800.000	-0.100	0.316
-453.982	360.223	0.069	0.138
-452.968	618.771	0.138	-0.346
-451.953	335.564	-0.123	-0.237
-450.938	-30.784	0.123	0.069
-449.924	800.000	0.041	0.179
-448.909	77.217	-0.169	-0.178
-447.895	745.234	-0.131	-0.351
-446.880	-189.898	0.422	-0.005
-445.865	-96.147	-0.188	-0.050
-444.851	119.202	0.175	0.215
-443.836	105.679	-0.098	0.115
-442.822	-45.568	-0.232	-0.114
-441.807	9.548	0.100	0.076
-440.792	81.735	0.099	-0.107
-439.778	31.741	0.133	-0.114
-438.763	-78.174	0.397	-0.136
-437.749	-22.544	0.172	-0.103
-436.734	-153.497	-0.224	-0.015
-435.719	-113.792	0.318	0.061
-434.705	45.449	-0.066	0.060
-433.690	-200.000	0.005	0.048
-432.676	66.125	0.151	0.152
-431.661	641.831	0.116	0.294
-430.646	-200.000	0.006	-0.048
-429.632	-110.313	0.283	-0.059
-428.617	-102.669	-0.134	-0.032
-427.603	-5.399	-0.123	0.084
-426.588	175.139	0.178	0.256
-425.573	93.037	0.009	0.010
-424.559	-170.503	-0.266	-0.009
-423.544	12.735	-0.203	-0.156
-422.530	-52.469	-0.319	0.147
-421.515	-200.000	0.032	-0.370
-420.500	-200.000	-0.016	0.128
-419.486	474.954	-0.017	-0.038
-418.471	-200.000	0.010	-0.138
-417.457	-151.608	-0.251	0.018
-416.442	-143.865	0.256	-0.024
-415.428	-200.000	0.003	0.109
-414.413	-109.265	-0.229	-0.048
-413.398	-26.929	0.173	0.101
-412.384	104.391	-0.030	-0.035
-411.369	64.843	-0.303	-0.304
-410.355	113.445	0.104	0.125
-409.340	800.000	-0.045	-0.195
-408.325	2.077	-0.117	-0.084
-407.311	97.767	0.104	-0.119
-406.296	-96.637	-0.218	0.057
-405.282	56.513	0.108	0.104
-404.267	218.560	-0.220	0.349
-403.252	54.326	0.196	0.187
-402.238	-13.455	-0.195	0.125
-401.223	354.996	0.052	0.102
-400.209	152.158	-0.111	0.151
-399.194	-48.248	0.118	0.057
-398.179	396.119	0.044	-0.091
-397.165	-200.000	-0.008	0.155
-396.150	-200.000	-0.027	-0.263
-395.136	800.000	-0.068	-0.205
-394.121	-10.623	-0.159	-0.104
-393.106	150.635	-0.309	-0.416
-392.092	-101.178	-0.354	0.086
-391.077	23.080	0.236	-0.192
-390.063	-126.893	0.426	0.062
-389.048	800.000	-0.042	-0.139
-388.033	-108.364	0.102	0.022
-387.019	-135.367	0.095	0.011
-386.004	-108.254	-0.149	0.032
-384.990	800.000	0.083	-0.273
-383.975	76.465	0.153	-0.161
-382.960	-103.586	-0.188	-0.044
-381.946	-200.000	0.009	-0.141
-380.931	800.000	0.035	0.120
-379.917	-146.737	0.431	-0.037
-378.902	-135.093	0.210	-0.025
-377.888	147.797	0.074	-0.100
-376.873	-169.944	-0.298	0.011
-375.858	134.409	-0.092	-0.119
-374.844	323.941	0.157	-0.296
-373.829	212.679	0.122	0.190
-372.815	-188.172	-0.219	-0.003
-371.800	114.108	-0.030	-0.036
-370.785	54.630	0.022	-0.021
-369.771	-94.012	0.163	0.045
-368.756	-200.000	0.003	-0.108
-367.742	800.000	-0.064	0.175
-366.727	181.119	0.119	-0.173
-365.712	800.000	-0.026	-0.098
-364.698	-91.668	0.055	-0.016
-363.683	-102.013	0.188	-0.045
-362.669	33.970	0.321	0.277
-361.654	322.482	0.186	0.351
-360.639	181.372	0.114	0.167
-359.625	800.000	-0.024	0.073
-358.610	800.000	-0.047	-0.177
-357.596	125.489	0.124	0.155
-356.581	800.000	-0.045	0.166
-355.566	-79.111	0.212	0.071
-354.552	-92.929	0.337	0.093
-353.537	87.712	-0.193	-0.212
-352.523	10.871	0.133	-0.100
-351.508	-200.000	0.072	0.433
-350.493	467.216	-0.015	-0.032
-349.479	5.511	0.037	-0.027
-348.464	-147.207	-0.327	0.028
-347.450	-149.290	0.190	-0.015
-346.435	-43.532	0.120	-0.060
-345.420	8.820	-0.327	-0.244
-344.406	585.471	-0.075	0.182
-343.391	204.022	0.130	-0.200
-342.377	206.136	-0.043	-0.067
-341.362	84.571	-0.115	0.125
-340.348	-200.000	0.011	0.234
-339.333	800.000	0.067	-0.186
-338.318	-71.186	-0.059	0.022
-337.304	-139.238	0.332	0.035
-336.289	-200.000	0.012	-0.197
-335.275	-58.720	0.082	-0.035
-334.260	-200.000	0.057	0.534
-333.245	106.832	-0.167	0.196
-332.231	-85.448	-0.211	-0.065
-331.216	-64.443	-0.185	-0.074
-330.202	800.000	0.109	0.300
-329.187	-41.517	-0.179	-0.091
-328.172	-200.000	0.017	0.305
-327.158	800.000	0.075	0.317
-326.143	29.040	0.102	-0.086
-325.129	800.000	-0.053	0.190
-324.114	50.601	0.051	0.048
-323.099	-200.000	-0.003	-0.139
-322.085	-21.925	-0.186	-0.112
-321.070	800.000	0.082	-0.230
-320.056	185.605	-0.059	-0.088
-319.041	115.594	0.147	-0.178
-318.026	-150.267	-0.278	0.021
-317.012	-41.551	-0.080	0.041
-315.997	800.000	0.053	0.202
-314.983	-200.000	0.012	-0.339
-313.968	-134.200	0.138	0.017
-312.953	162.879	-0.101	0.140
-311.939	-178.089	0.270	-0.006
-310.924	241.490	0.235	0.388
-309.910	-200.000	-0.016	-0.251
-308.895	-65.974	-0.124	-0.049
-307.880	-200.000	0.003	-0.115
-306.866	-47.606	-0.303	0.146
-305.851	800.000	-0.058	-0.230
-304.837	14.993	-0.202	-0.156
-303.822	634.160	0.036	-0.091
-302.807	-200.000	0.018	0.333
-301.793	-200.000	0.024	-0.181
-300.778	-112.936	0.103	0.020
-299.764	135.394	-0.103	-0.133
-298.749	177.182	-0.127	-0.183
-297.735	-115.488	0.081	0.015
-296.720	666.375	-0.071	-0.182
-295.705	-200.000	0.024	-0.205
-294.691	-109.371	0.121	0.025
-293.676	-55.178	-0.374	-0.166
-292.662	-20.487	-0.079	0.048
-291.647	135.840	-0.290	-0.374
-290.632	-200.000	-0.022	0.161
-289.618	-200.000	0.020	0.096
-288.603	-200.000	0.016	0.092
-287.589	800.000	0.081	0.233
-286.574	477.257	-0.153	-0.343
-285.559	73.679	0.143	-0.148
-284.545	238.659	0.032	0.052
-283.530	800.000	0.038	-0.164
-282.516	-66.020	0.102	-0.040
-281.501	112.950	-0.182	0.218
-280.486	800.000	0.070	0.259
-279.472	-101.811	-0.316	0.076
-278.457	-33.528	-0.199	0.109
-277.443	68.415	0.271	-0.274
-276.428	-98.348	-0.243	0.062
-275.413	-200.000	0.036	0.170
-274.399	-171.155	-0.209	0.007
-273.384	16.227	0.022	-0.017
-272.370	-35.005	-0.161	-0.087
-271.355	490.436	-0.135	0.306
-270.340	391.753	0.092	-0.189
-269.326	-200.000	-0.015	-0.145
-268.311	-42.158	0.105	-0.053
-267.297	-200.000	0.021	-0.224
-266.282	-141.941	0.169	-0.017
-265.267	-52.937	-0.171	-0.078
-264.253	-200.000	0.030	0.320
-263.238	344.098	-0.195	0.378
-262.224	-113.608	0.138	0.027
-261.209	125.457	0.123	-0.153
-260.195	552.520	-0.076	-0.181
-259.180	106.981	-0.070	0.082
-258.165	4.665	-0.211	0.153
-257.151	-163.940	0.188	0.009
-256.136	361.526	-0.100	0.199
-255.122	-156.334	0.245	0.015
-254.107	-56.205	0.051	-0.022
-253.092	-144.233	0.455	-0.042
-252.078	139.487	-0.129	-0.167
-251.063	800.000	-0.068	0.250
-250.049	-200.000	0.020	0.248
-249.034	-57.747	0.157	0.068
-248.019	-129.484	0.059	-0.008
-247.005	168.282	0.208	0.292
-245.990	-200.000	-0.052	-0.253
-244.976	72.981	0.136	-0.140
-243.961	-34.116	-0.156	-0.085
-242.946	-200.000	-0.060	0.324
-241.932	170.124	-0.130	0.184
-240.917	-169.564	0.259	-0.009
-239.903	138.243	0.194	0.251
-238.888	-200.000	0.008	-0.205
-237.873	-130.977	-0.286	-0.038
-236.859	27.524	0.259	0.215
-235.844	-98.602	-0.272	0.069
-234.830	59.409	0.232	-0.225
-233.815	-164.874	0.141	-0.006
-232.800	-2.741	-0.121	0.083
-231.786	21.111	0.125	0.100
-230.771	12.255	0.174	-0.132
-229.757	296.595	-0.084	-0.151
-228.742	-53.114	-0.351	0.159
-227.727	-200.000	-0.028	-0.204
-226.713	766.089	0.195	0.522
-225.698	-87.654	0.139	0.041
-224.684	257.224	0.125	-0.212
-223.669	172.422	0.035	-0.049
-222.655	-44.115	0.357	-0.177
-221.640	-64.010	0.267	0.108
-220.625	158.476	-0.042	0.057
-219.611	407.256	-0.224	0.467
-218.596	800.000	-0.051	0.206
-217.582	-14.993	0.218	-0.138
-216.567	800.000	0.057	0.192
-215.552	-162.788	0.102	-0.005
-214.538	179.328	-0.069	0.100
-213.523	-90.414	0.087	-0.025
-212.509	-200.000	-0.046	0.240
-211.494	-103.643	-0.165	-0.038
-210.479	309.960	0.087	0.161
-209.465	150.931	-0.110	-0.148
-208.450	82.635	-0.178	-0.190
-207.436	302.073	-0.119	0.218
-206.421	319.640	-0.118	-0.220
-205.406	-108.927	0.126	-0.027
-204.392	-51.470	-0.202	-0.093
-203.377	21.128	0.098	-0.078
-202.363	750.830	0.090	-0.240
-201.348	266.256	-0.078	-0.134
-200.333	800.000	-0.016	-0.048
-199.319	-29.017	0.111	-0.063
-198.304	185.055	0.090	0.132
-197.290	186.124	-0.176	0.257
-196.275	-36.912	-0.082	-0.043
-195.260	-200.000	-0.004	-0.038
-194.246	-20.426	0.173	0.105
-193.231	-136.036	-0.182	0.021
-192.217	479.626	0.041	-0.092
-191.202	37.147	0.143	0.125
-190.187	268.667	-0.206	-0.355
-189.173	-200.000	0.038	-0.224
-188.158	72.333	-0.172	0.176
-187.144	25.960	-0.168	0.138
-186.129	118.087	-0.115	-0.140
-185.114	7.866	0.186	0.137
-184.100	-25.866	-0.276	0.160
-183.085	29.697	-0.185	-0.155
-182.071	-200.000	-0.005	-0.024
-181.056	-200.000	0.012	0.386
-180.042	741.395	0.047	0.124
-179.027	46.872	0.176	-0.161
-178.012	-120.899	-0.268	0.044
-176.998	9.389	0.057	0.043
-175.983	800.000	0.099	-0.318
-174.969	-13.713	0.196	-0.125
-173.954	466.559	0.071	-0.156
-172.939	-126.366	-0.090	-0.013
-171.925	-90.092	0.187	0.054
-170.910	-4.450	-0.096	0.065
-169.896	-52.171	0.218	0.099
-168.881	244.086	-0.237	0.392
-167.866	501.570	-0.080	0.181
-166.852	-22.401	0.227	0.135
-165.837	-154.325	0.256	0.017
-164.823	12.306	-0.176	-0.133
-163.808	77.437	0.210	0.220
-162.793	-200.000	-0.018	0.082
-161.779	-200.000	0.050	0.301
-160.764	322.376	-0.065	0.122
-159.750	-25.477	0.126	0.073
-158.735	198.644	0.091	0.138
-157.720	-80.726	-0.163	-0.053
-156.706	107.174	-0.262	0.306
-155.691	371.597	0.053	-0.106
-154.677	-32.517	-0.328	-0.180
-153.662	-26.994	-0.332	0.191
-152.647	-128.236	-0.226	-0.032
-151.633	-119.638	0.211	0.036
-150.618	65.337	-0.094	0.093
-149.604	143.229	0.154	-0.201
-148.589	-121.336	0.430	0.070
-147.574	-124.084	0.252	-0.039
-146.560	800.000	0.063	0.253
-145.545	-200.000	0.042	0.205
-144.531	-124.792	-0.018	-0.003
-143.516	-102.907	0.107	-0.025
-142.502	-200.000	0.008	0.150
-141.487	800.000	-0.038	-0.145
-140.472	-195.223	0.240	-0.002
-139.458	800.000	0.040	0.168
-138.443	-27.052	0.216	0.124
-137.429	-130.041	-0.197	-0.027
-136.414	-163.955	-0.045	0.002
-135.399	-113.930	0.150	0.029
-134.385	212.155	0.133	0.207
-133.370	-200.000	-0.045	0.209
-132.356	800.000	-0.024	0.086
-131.341	-21.899	-0.395	0.236
-130.326	-75.262	-0.246	-0.086
-129.312	-117.016	0.510	-0.092
-128.297	17.226	0.066	-0.052
-127.283	-85.009	-0.382	-0.118
-126.268	3.479	0.156	0.112
-125.253	417.873	-0.110	-0.231
-124.239	800.000	-0.037	-0.110
-123.224	800.000	-0.038	0.112
-122.210	800.000	0.032	-0.115
-121.195	-200.000	-0.056	0.253
