DTS Sentinel unit serial number:	SN413079Multiplexer serial number:	ORYXHardware model number:	OX4-SRSoftware version number:	ORYX F/W v4.00 Oryx Data Collector v3.7.2.0data status	okinstallation	princeton_trtdifferential loss correction	single-endedforward channel	channel 1reverse channel	N/Adate	2019/09/11time	14:20:11forward acquisition time	60.00reverse acquisition time	0.00gamma	496.2192k internal	0.2293k external	0.2293temperature offset calibration	0.9984default loss term (dB/km)	0.3790temperature slope calibration	1.0000multiplexer offset coefficient	1.0000multiplexer slope coefficient	1.0000fibre end	0.00T internal ref (°C)	42.02T ext. ref 1 (°C)	0.88T ext. ref 2 (°C)	37.71length (m)	temperature (°C)	Stokes	anti-Stokes-747.200	-95.085	-0.145	-0.040
-746.185	-32.215	0.053	0.030
-745.171	-144.799	0.065	0.006
-744.156	-159.269	-0.189	0.011
-743.142	-81.777	-0.188	0.063
-742.127	202.577	0.128	0.202
-741.112	-200.000	0.000	0.033
-740.098	-164.331	-0.094	-0.004
-739.083	-200.000	-0.016	0.215
-738.069	-147.494	-0.195	0.017
-737.054	135.295	0.159	-0.211
-736.039	-79.971	-0.094	0.032
-735.025	-60.229	-0.342	0.149
-734.010	-50.367	0.177	-0.086
-732.996	-48.567	-0.138	-0.068
-731.981	82.690	-0.259	0.288
-730.966	524.049	0.120	-0.288
-729.952	297.888	-0.075	-0.141
-728.937	-200.000	-0.015	0.227
-727.923	418.231	-0.065	0.142
-726.908	60.379	-0.320	0.324
-725.894	-128.526	-0.194	0.028
-724.879	-188.213	-0.281	-0.004
-723.864	-74.551	0.227	0.083
-722.850	-138.723	-0.171	-0.019
-721.835	315.401	-0.052	0.101
-720.821	-200.000	0.039	0.229
-719.806	-92.358	-0.076	0.022
-718.791	-200.000	-0.002	0.101
-717.777	-113.036	-0.132	-0.027
-716.762	-51.101	0.439	-0.211
-715.748	-81.834	0.237	-0.079
-714.733	527.591	-0.016	-0.037
-713.718	149.608	-0.253	-0.350
-712.704	-76.757	0.055	-0.020
-711.689	-119.570	0.246	-0.043
-710.675	-135.808	-0.147	0.018
-709.660	-114.586	0.349	-0.068
-708.645	2.426	-0.196	-0.145
-707.631	-6.771	-0.200	-0.139
-706.616	-2.772	-0.279	-0.199
-705.602	-64.778	-0.141	0.058
-704.587	-200.000	0.003	-0.233
-703.572	-58.532	-0.119	0.053
-702.558	72.013	0.049	0.052
-701.543	-200.000	-0.029	-0.142
-700.529	286.615	-0.087	0.161
-699.514	-117.953	0.133	0.024
-698.499	-0.162	-0.067	0.049
-697.485	-128.632	-0.354	0.051
-696.470	-200.000	0.017	0.196
-695.456	68.354	0.040	0.042
-694.441	-41.511	-0.112	0.059
-693.426	-108.458	-0.323	-0.071
-692.412	-55.017	-0.184	-0.085
-691.397	397.077	-0.049	0.105
-690.383	800.000	-0.053	-0.150
-689.368	-168.651	-0.208	0.008
-688.354	258.520	-0.230	0.404
-687.339	-36.125	-0.228	0.126
-686.324	157.450	-0.075	0.106
-685.310	-200.000	0.010	0.246
-684.295	-112.766	-0.236	-0.048
-683.281	57.474	-0.187	-0.186
-682.266	800.000	-0.041	0.154
-681.251	5.412	0.033	0.025
-680.237	800.000	-0.074	-0.251
-679.222	388.603	-0.065	-0.137
-678.208	-69.499	-0.140	0.055
-677.193	-2.577	0.122	-0.087
-676.178	-67.595	0.182	-0.073
-675.164	-90.381	0.079	-0.023
-674.149	203.836	0.128	0.203
-673.135	242.880	0.227	-0.388
-672.120	-200.000	0.001	-0.152
-671.105	-20.188	-0.194	0.122
-670.091	46.901	0.004	0.003
-669.076	-122.232	-0.172	-0.029
-668.062	-175.408	-0.460	0.013
-667.047	-107.071	-0.230	-0.052
-666.032	163.855	-0.141	0.202
-665.018	-36.917	0.219	-0.120
-664.003	123.569	-0.148	0.189
-662.989	-200.000	0.012	0.237
-661.974	-46.913	0.190	0.095
-660.959	-200.000	0.028	-0.228
-659.945	49.670	0.038	-0.036
-658.930	-47.598	-0.027	-0.013
-657.916	-200.000	-0.011	-0.141
-656.901	800.000	-0.067	-0.293
-655.886	-200.000	-0.042	0.313
-654.872	-6.740	0.103	0.071
-653.857	-114.249	-0.256	-0.050
-652.843	-93.935	-0.406	-0.114
-651.828	-199.141	0.153	-0.001
-650.814	-79.286	-0.070	-0.024
-649.799	-200.000	0.012	-0.129
-648.784	299.266	-0.052	-0.097
-647.770	800.000	0.072	0.259
-646.755	81.001	0.257	0.283
-645.741	-200.000	-0.006	0.082
-644.726	277.640	0.078	-0.141
-643.711	-200.000	-0.010	-0.108
-642.697	72.563	-0.147	-0.157
-641.682	-161.175	0.197	-0.010
-640.668	-175.117	-0.390	0.011
-639.653	-60.029	-0.104	0.045
-638.638	800.000	-0.026	0.084
-637.624	510.085	-0.140	0.331
-636.609	-104.685	0.419	-0.098
-635.595	174.728	0.065	-0.096
-634.580	-200.000	-0.022	-0.182
-633.565	-200.000	0.030	0.200
-632.551	-4.502	-0.089	0.063
-631.536	-83.588	0.174	-0.057
-630.522	32.728	-0.179	0.158
-629.507	415.589	-0.054	0.118
-628.492	800.000	-0.053	0.177
-627.478	719.579	0.116	0.314
-626.463	-97.779	0.388	0.102
-625.449	-191.593	-0.053	-0.001
-624.434	-67.849	0.050	-0.020
-623.419	24.046	-0.243	-0.205
-622.405	799.262	0.121	0.339
-621.390	-38.470	0.230	-0.124
-620.376	-100.126	-0.136	-0.034
-619.361	-65.386	0.097	-0.040
-618.346	-141.631	0.435	0.045
-617.332	107.098	-0.171	-0.207
-616.317	6.663	-0.123	-0.093
-615.303	165.153	-0.068	-0.098
-614.288	-29.907	-0.138	0.080
-613.273	-33.698	-0.099	0.056
-612.259	156.364	-0.101	0.142
-611.244	-102.503	0.177	-0.043
-610.230	189.617	-0.153	0.234
-609.215	103.053	-0.139	0.165
-608.201	362.288	-0.030	0.061
-607.186	101.212	0.130	0.154
-606.171	561.559	-0.048	-0.117
-605.157	-52.011	0.374	0.177
-604.142	-200.000	0.002	0.170
-603.128	-34.327	-0.028	-0.016
-602.113	-59.223	-0.144	-0.063
-601.098	263.517	-0.179	0.316
-600.084	-200.000	-0.028	-0.426
-599.069	-98.008	0.306	0.080
-598.055	-64.172	-0.228	0.095
-597.040	-65.645	0.237	-0.096
-596.025	-200.000	0.026	-0.406
-595.011	-121.590	-0.366	-0.062
-593.996	35.463	0.157	0.140
-592.982	-200.000	0.024	-0.186
-591.967	-13.698	-0.144	-0.095
-590.952	197.358	-0.127	0.197
-589.938	-91.014	-0.119	-0.035
-588.923	-134.760	-0.232	0.029
-587.909	-200.000	-0.023	0.124
-586.894	-148.233	0.437	-0.037
-585.879	-22.527	0.228	0.140
-584.865	-79.365	0.138	-0.047
-583.850	94.108	-0.271	-0.313
-582.836	460.367	0.102	-0.230
-581.821	-176.882	-0.076	0.002
-580.806	-200.000	0.004	0.244
-579.792	-107.346	-0.035	-0.008
-578.777	-103.983	-0.089	-0.021
-577.763	-200.000	0.007	-0.408
-576.748	-137.838	-0.272	-0.031
-575.733	-171.250	-0.253	0.009
-574.719	-200.000	0.045	0.292
-573.704	218.055	-0.156	0.252
-572.690	-175.003	-0.515	0.015
-571.675	78.175	-0.066	0.072
-570.661	-158.471	-0.155	0.009
-569.646	-9.067	-0.160	-0.109
-568.631	593.093	0.093	0.233
-567.617	-200.000	0.005	-0.102
-566.602	491.062	-0.128	-0.299
-565.588	24.837	-0.141	-0.118
-564.573	0.393	0.107	-0.078
-563.558	-140.791	0.341	-0.036
-562.544	-200.000	-0.022	0.388
-561.529	-38.906	0.238	0.127
-560.515	110.145	0.195	-0.238
-559.500	-33.412	-0.281	0.158
-558.485	-200.000	-0.028	0.240
-557.471	800.000	-0.069	-0.253
-556.456	260.731	0.182	-0.321
-555.442	-174.820	0.193	0.006
-554.427	-55.695	-0.305	0.139
-553.412	-163.387	0.266	-0.013
-552.398	-124.885	-0.432	0.068
-551.383	-165.863	0.276	0.012
-550.369	-200.000	0.002	0.074
-549.354	44.119	0.128	0.120
-548.339	800.000	0.019	-0.079
-547.325	-32.981	-0.056	-0.032
-546.310	29.822	0.194	-0.168
-545.296	185.582	0.132	-0.200
-544.281	94.862	0.288	-0.333
-543.266	-200.000	-0.045	-0.260
-542.252	314.986	-0.069	-0.132
-541.237	347.830	-0.035	-0.071
-540.223	148.711	-0.123	0.168
-539.208	-200.000	0.035	0.256
-538.193	800.000	-0.066	0.243
-537.179	-200.000	-0.025	0.143
-536.164	298.185	-0.174	-0.325
-535.150	-30.050	0.184	-0.106
-534.135	-200.000	-0.007	0.047
-533.121	-88.720	0.204	-0.061
-532.106	0.272	0.068	0.049
-531.091	-147.030	-0.007	0.001
-530.077	-65.987	0.300	-0.122
-529.062	-200.000	-0.020	-0.187
-528.048	328.976	0.127	0.248
-527.033	-114.037	-0.072	-0.014
-526.018	800.000	-0.036	-0.121
-525.004	-73.872	-0.283	-0.104
-523.989	-22.716	-0.284	-0.174
-522.975	-59.435	-0.233	-0.102
-521.960	-81.034	-0.249	-0.084
-520.945	800.000	0.084	0.296
-519.931	-200.000	-0.007	0.098
-518.916	-45.219	-0.409	-0.206
-517.902	107.489	0.029	-0.036
-516.887	71.460	-0.131	0.138
-515.872	101.604	0.091	0.108
-514.858	-112.706	-0.213	-0.043
-513.843	142.006	-0.185	-0.248
-512.829	-78.533	-0.146	0.051
-511.814	275.405	0.194	0.349
-510.799	220.070	-0.031	0.050
-509.785	-47.071	-0.230	-0.114
-508.770	467.529	0.060	0.137
-507.756	-46.226	0.205	-0.102
-506.741	-200.000	0.009	0.142
-505.726	72.632	0.041	-0.044
-504.712	660.332	-0.117	0.305
-503.697	96.312	0.267	-0.310
-502.683	433.490	-0.154	0.338
-501.668	231.092	-0.134	0.223
-500.653	-200.000	0.018	-0.183
-499.639	322.364	0.131	-0.252
-498.624	-70.150	-0.172	0.066
-497.610	-200.000	-0.014	0.078
-496.595	-137.696	-0.005	-0.001
-495.581	-27.011	-0.052	-0.031
-494.566	-62.189	0.310	-0.131
-493.551	-34.181	-0.151	-0.084
-492.537	335.641	0.108	-0.213
-491.522	-76.223	0.174	-0.062
-490.508	-154.906	-0.046	-0.003
-489.493	-53.968	-0.254	-0.117
-488.478	46.562	0.399	-0.376
-487.464	-55.783	0.014	0.006
-486.449	18.535	0.146	0.118
-485.435	-52.453	-0.103	0.048
-484.420	208.563	-0.141	0.224
-483.405	159.513	0.052	0.073
-482.391	-2.065	0.036	-0.026
-481.376	-130.604	-0.300	-0.041
-480.362	-183.613	-0.468	-0.008
-479.347	154.879	-0.186	0.259
-478.332	39.311	-0.285	0.258
-477.318	-20.187	-0.201	0.126
-476.303	743.138	0.042	-0.116
-475.289	548.289	-0.068	0.164
-474.274	38.625	-0.131	-0.119
-473.259	-123.366	-0.025	0.004
-472.245	108.890	0.264	-0.320
-471.230	-126.594	-0.274	-0.041
-470.216	-118.734	-0.208	-0.037
-469.201	-10.033	0.255	-0.172
-468.186	-200.000	0.097	-0.610
-467.172	-131.474	0.087	0.012
-466.157	800.000	-0.075	0.220
-465.143	800.000	0.034	-0.129
-464.128	-10.502	0.201	0.135
-463.113	73.694	0.103	0.109
-462.099	-120.858	-0.157	-0.027
-461.084	230.583	0.331	-0.548
-460.070	-200.000	0.004	0.184
-459.055	-116.804	0.218	-0.040
-458.040	2.801	-0.062	0.045
-457.026	-91.281	0.111	0.032
-456.011	478.284	-0.160	-0.365
-454.997	190.740	-0.039	-0.059
-453.982	-200.000	-0.037	-0.165
-452.968	-46.256	0.163	-0.081
-451.953	533.071	-0.182	0.437
-450.938	67.065	0.196	0.202
-449.924	-200.000	0.009	0.166
-448.909	42.753	0.024	-0.023
-447.895	-29.927	0.107	-0.062
-446.880	-200.000	0.001	0.085
-445.865	-123.936	-0.152	0.024
-444.851	800.000	0.035	0.121
-443.836	33.695	-0.085	0.075
-442.822	-27.472	0.055	-0.033
-441.807	-0.260	-0.039	0.028
-440.792	39.258	-0.202	0.183
-439.778	423.267	0.046	-0.100
-438.763	376.129	0.126	-0.260
-437.749	-13.548	-0.104	-0.068
-436.734	-85.963	0.193	0.060
-435.719	-13.142	0.076	-0.050
-434.705	-93.974	0.212	-0.059
-433.690	193.743	-0.155	0.238
-432.676	800.000	0.034	0.134
-431.661	136.508	-0.061	0.081
-430.646	7.182	-0.270	0.203
-429.632	-96.448	0.188	-0.050
-428.617	357.125	-0.085	-0.172
-427.603	-125.381	-0.125	0.019
-426.588	-143.193	0.137	-0.013
-425.573	-126.154	-0.353	-0.053
-424.559	-190.054	0.206	-0.002
-423.544	800.000	0.039	-0.154
-422.530	-83.755	0.160	0.051
-421.515	800.000	0.041	0.125
-420.500	-101.066	0.251	-0.062
-419.486	416.861	-0.077	0.167
-418.471	436.256	-0.088	0.194
-417.457	-200.000	-0.038	0.226
-416.442	-98.720	-0.116	-0.030
-415.428	-66.914	-0.155	0.062
-414.413	171.207	0.041	-0.060
-413.398	800.000	0.026	0.087
-412.384	24.385	-0.190	-0.158
-411.369	-16.094	-0.267	-0.171
-410.355	535.051	-0.147	-0.352
-409.340	-95.171	0.394	0.107
-408.325	54.817	-0.141	0.137
-407.311	800.000	0.069	-0.234
-406.296	22.792	0.190	-0.157
-405.282	301.352	0.133	-0.248
-404.267	-8.899	0.139	-0.094
-403.252	106.081	0.099	0.119
-402.238	-124.631	-0.110	-0.017
-401.223	493.663	-0.103	0.238
-400.209	-18.856	0.270	0.170
-399.194	0.028	-0.221	0.159
-398.179	348.347	0.056	-0.111
-397.165	37.619	0.145	-0.130
-396.150	-200.000	-0.019	0.175
-395.136	-102.943	-0.360	0.086
-394.121	800.000	-0.094	0.346
-393.106	-8.853	-0.010	0.007
-392.092	19.208	0.236	-0.191
-391.077	14.542	0.178	0.140
-390.063	-15.197	-0.186	-0.120
-389.048	-105.397	0.252	0.058
-388.033	-82.456	0.146	-0.048
-387.019	800.000	-0.087	0.293
-386.004	-200.000	0.024	0.348
-384.990	-53.264	0.458	0.212
-383.975	-200.000	-0.004	-0.156
-382.960	-200.000	-0.029	-0.322
-381.946	-200.000	-0.020	0.140
-380.931	-27.447	0.124	-0.073
-379.917	800.000	-0.148	0.418
-378.902	800.000	-0.037	-0.158
-377.888	-200.000	-0.012	0.170
-376.873	50.508	-0.268	0.256
-375.858	-109.796	0.250	0.053
-374.844	235.023	0.126	0.210
-373.829	-164.211	0.171	0.008
-372.815	482.094	-0.132	0.303
-371.800	-200.000	-0.121	-0.582
-370.785	-95.985	-0.225	-0.060
-369.771	325.772	-0.196	-0.379
-368.756	-68.138	0.335	-0.132
-367.742	-32.259	0.191	-0.108
-366.727	-96.065	0.243	0.065
-365.712	262.208	-0.103	-0.181
-364.698	44.768	0.102	-0.095
-363.683	800.000	-0.145	-0.482
-362.669	-151.621	-0.203	-0.015
-361.654	-83.203	0.253	-0.082
-360.639	150.992	0.022	-0.030
-359.625	403.326	0.076	0.162
-358.610	-200.000	-0.003	0.196
-357.596	-1.600	-0.109	0.078
-356.581	-144.081	0.511	-0.048
-355.566	616.490	-0.142	0.359
-354.552	181.506	-0.219	-0.324
-353.537	-47.652	-0.345	-0.169
-352.523	35.753	0.196	-0.174
-351.508	800.000	0.046	-0.194
-350.493	287.487	-0.039	-0.071
-349.479	190.814	-0.044	-0.067
-348.464	77.818	-0.099	0.106
-347.450	100.057	0.051	-0.060
-346.435	44.345	0.349	0.323
-345.420	181.628	-0.216	-0.320
-344.406	-200.000	0.003	-0.094
-343.391	-27.726	0.098	-0.057
-342.377	-33.732	0.254	-0.141
-341.362	135.631	-0.148	-0.194
-340.348	331.693	0.068	0.132
-339.333	400.499	-0.046	0.096
-338.318	-128.852	-0.208	-0.030
-337.304	317.853	0.162	0.309
-336.289	116.117	0.059	0.073
-335.275	-72.417	0.188	-0.070
-334.260	-161.254	0.141	-0.007
-333.245	89.862	-0.153	-0.172
-332.231	-200.000	0.010	-0.100
-331.216	-7.288	-0.331	-0.226
-330.202	-71.938	0.252	-0.094
-329.187	-200.000	0.000	-0.103
-328.172	-41.446	0.257	0.133
-327.158	-66.878	-0.306	-0.122
-326.143	36.261	0.218	0.193
-325.129	108.759	0.118	0.142
-324.114	135.561	0.251	-0.328
-323.099	-191.079	-0.251	-0.003
-322.085	124.875	0.131	0.166
-321.070	324.160	-0.103	-0.197
-320.056	71.034	0.081	0.085
-319.041	-155.399	-0.154	-0.010
-318.026	-43.720	-0.137	0.070
-317.012	-200.000	0.001	0.092
-315.997	13.521	-0.066	0.051
-314.983	337.252	-0.139	0.271
-313.968	800.000	-0.057	-0.181
-312.953	-39.148	-0.141	-0.075
-311.939	-96.994	-0.027	-0.007
-310.924	6.125	0.133	-0.099
-309.910	88.170	0.190	0.212
-308.895	21.453	-0.144	0.118
-307.880	119.867	-0.073	0.091
-306.866	785.944	-0.089	-0.246
-305.851	-11.816	0.259	-0.171
-304.837	31.103	-0.203	-0.175
-303.822	-80.434	0.165	-0.056
-302.807	69.846	-0.037	-0.038
-301.793	-52.254	-0.136	0.063
-300.778	230.396	0.147	0.241
-299.764	-200.000	0.014	-0.066
-298.749	320.261	-0.061	0.117
-297.735	-153.535	-0.156	0.011
-296.720	653.119	0.085	-0.218
-295.705	746.305	-0.074	-0.201
-294.691	72.625	0.292	-0.306
-293.676	-51.837	-0.150	0.070
-292.662	-200.000	0.013	0.060
-291.647	-141.747	-0.423	0.043
-290.632	153.739	-0.107	0.147
-289.618	139.491	0.158	-0.209
-288.603	261.758	0.093	-0.162
-287.589	-11.855	-0.183	0.120
-286.574	116.661	0.076	0.093
-285.559	800.000	0.045	0.180
-284.545	188.997	0.244	0.367
-283.530	-200.000	0.033	-0.242
-282.516	-131.485	0.279	0.037
-281.501	-200.000	0.013	-0.082
-280.486	16.285	0.261	-0.207
-279.472	800.000	-0.053	0.188
-278.457	800.000	0.019	0.067
-277.443	-97.591	0.170	0.044
-276.428	-200.000	0.015	0.311
-275.413	73.978	0.277	0.292
-274.399	-200.000	-0.022	0.129
-273.384	-85.503	-0.105	0.033
-272.370	-200.000	-0.058	0.448
-271.355	800.000	0.041	-0.122
-270.340	800.000	-0.012	-0.039
-269.326	-200.000	-0.022	0.430
-268.311	30.699	-0.158	0.135
-267.297	97.307	-0.213	-0.246
-266.282	15.868	-0.048	-0.038
-265.267	406.639	0.096	0.203
-264.253	-65.299	0.180	0.073
-263.238	-200.000	-0.103	-0.516
-262.224	275.082	-0.180	0.320
-261.209	439.585	-0.136	0.298
-260.195	-31.806	0.377	0.212
-259.180	144.145	0.303	-0.406
-258.165	-150.365	-0.293	-0.023
-257.151	-156.487	0.464	0.029
-256.136	8.095	0.158	-0.119
-255.122	-200.000	-0.031	0.147
-254.107	-10.503	0.208	-0.138
-253.092	-28.964	0.157	-0.091
-252.078	-22.274	-0.104	0.063
-251.063	242.365	0.111	-0.187
-250.049	195.125	0.140	-0.214
-249.034	159.297	-0.010	-0.014
-248.019	-81.348	-0.307	-0.102
-247.005	-64.720	0.137	-0.056
-245.990	-200.000	-0.011	-0.376
-244.976	38.227	-0.166	0.148
-243.961	115.118	0.088	0.107
-242.946	261.162	0.075	-0.130
-241.932	126.791	-0.149	-0.189
-240.917	45.572	-0.053	0.049
-239.903	-200.000	0.005	0.295
-238.888	538.260	-0.072	-0.172
-237.873	-143.049	0.200	0.019
-236.859	-200.000	0.008	-0.077
-235.844	32.318	0.014	-0.012
-234.830	685.485	-0.130	-0.339
-233.815	259.724	-0.108	-0.186
-232.800	-89.175	0.218	-0.064
-231.786	-2.991	0.204	0.143
-230.771	-135.233	0.171	0.021
-229.757	-57.526	0.292	0.128
-228.742	-54.145	0.101	0.046
-227.727	-105.766	0.162	-0.037
-226.713	-138.141	-0.343	0.038
-225.698	318.906	0.126	-0.239
-224.684	-104.207	0.110	0.026
-223.669	-200.000	0.009	0.222
-222.655	-102.053	-0.100	0.024
-221.640	443.347	0.123	0.269
-220.625	-200.000	-0.022	0.159
-219.611	-200.000	-0.033	-0.169
-218.596	-162.153	-0.135	-0.007
-217.582	-200.000	-0.018	-0.356
-216.567	-200.000	0.021	-0.234
-215.552	-3.723	-0.233	-0.162
-214.538	800.000	-0.081	0.264
-213.523	-147.943	-0.021	-0.002
-212.509	-88.732	0.222	0.066
-211.494	-155.101	0.057	0.004
-210.479	72.301	-0.168	0.176
-209.465	222.388	0.123	0.199
-208.450	218.892	-0.180	-0.288
-207.436	-200.000	-0.015	-0.132
-206.421	53.653	-0.024	0.023
-205.406	-148.557	-0.333	0.027
-204.392	-123.968	0.220	0.035
-203.377	-200.000	-0.030	0.357
-202.363	64.263	-0.171	0.172
-201.348	14.277	-0.264	-0.206
-200.333	-200.000	-0.051	-0.294
-199.319	344.809	0.096	0.188
-198.304	17.877	0.112	-0.090
-197.290	-200.000	-0.046	0.250
-196.275	800.000	-0.016	-0.051
-195.260	800.000	0.034	-0.111
-194.246	285.864	-0.148	0.268
-193.231	-41.491	-0.199	-0.103
-192.217	800.000	0.045	0.148
-191.202	161.231	-0.038	0.054
-190.187	115.386	0.043	-0.053
-189.173	167.066	-0.045	0.064
-188.158	-33.995	0.149	-0.082
-187.144	548.844	0.159	-0.381
-186.129	-200.000	-0.020	-0.096
-185.114	-200.000	-0.035	0.278
-184.100	484.704	-0.066	0.151
-183.085	800.000	-0.090	-0.259
-182.071	-67.719	-0.407	-0.159
-181.056	800.000	-0.066	0.246
-180.042	92.569	0.285	-0.322
-179.027	-48.148	0.086	-0.042
-178.012	-125.647	-0.113	-0.017
-176.998	-25.288	-0.313	0.186
-175.983	211.162	0.070	-0.110
-174.969	-93.607	0.261	0.072
-173.954	-140.106	0.100	0.011
-172.939	-200.000	-0.017	-0.298
-171.925	-56.002	-0.213	-0.095
-170.910	800.000	-0.063	-0.199
-169.896	-200.000	0.022	0.161
-168.881	-74.917	-0.283	0.101
-167.866	-161.763	0.027	0.001
-166.852	-150.608	0.075	-0.006
-165.837	606.784	-0.114	0.283
-164.823	800.000	0.059	0.163
-163.808	-200.000	-0.026	0.135
-162.793	800.000	0.044	0.178
-161.779	35.833	0.123	0.108
-160.764	-146.378	-0.243	0.021
-159.750	623.229	0.043	0.108
-158.735	-31.498	-0.083	0.047
-157.720	-142.967	-0.187	0.018
-156.706	800.000	0.036	0.136
-155.691	154.898	0.158	-0.218
-154.677	145.831	0.145	0.194
-153.662	463.754	-0.047	-0.105
-152.647	-56.783	0.278	0.123
-151.633	-96.002	0.149	-0.040
-150.618	-63.324	-0.392	0.161
-149.604	432.358	-0.128	0.277
-148.589	105.828	-0.258	0.305
-147.574	-153.443	-0.192	-0.013
-146.560	97.497	-0.178	-0.204
-145.545	54.028	-0.172	0.166
-144.531	800.000	-0.020	-0.072
-143.516	-106.599	-0.426	0.095
-142.502	-200.000	0.032	0.359
-141.487	-35.301	0.510	-0.277
-140.472	112.640	-0.173	-0.209
-139.458	85.719	0.148	0.163
-138.443	21.621	-0.090	0.073
-137.429	-68.433	0.032	-0.013
-136.414	85.379	0.139	-0.153
-135.399	-200.000	0.050	-0.288
-134.385	306.573	0.132	0.246
-133.370	-1.155	0.157	-0.111
-132.356	93.177	-0.229	0.259
-131.341	133.178	0.159	-0.206
-130.326	-78.202	0.071	-0.024
-129.312	-145.336	-0.304	-0.027
-128.297	800.000	-0.079	-0.300
-127.283	800.000	-0.091	0.311
-126.268	-200.000	0.035	0.165
-125.253	213.765	-0.115	0.182
-124.239	-24.126	-0.228	-0.136
-123.224	37.230	0.273	-0.241
-122.210	90.855	0.135	0.151
