DTS Sentinel unit serial number:	SN413079Multiplexer serial number:	ORYXHardware model number:	OX4-SRSoftware version number:	ORYX F/W v4.00 Oryx Data Collector v3.7.2.0data status	okinstallation	princeton_trtdifferential loss correction	single-endedforward channel	channel 1reverse channel	N/Adate	2019/09/11time	01:56:11forward acquisition time	60.00reverse acquisition time	0.00gamma	496.2192k internal	0.2332k external	0.2332temperature offset calibration	0.9928default loss term (dB/km)	0.3790temperature slope calibration	1.0000multiplexer offset coefficient	1.0000multiplexer slope coefficient	1.0000fibre end	0.00T internal ref (°C)	29.19T ext. ref 1 (°C)	-0.31T ext. ref 2 (°C)	23.35length (m)	temperature (°C)	Stokes	anti-Stokes-747.200	-200.000	-0.038	-0.232
-746.185	-38.531	0.085	-0.045
-745.171	-47.874	0.393	0.192
-744.156	-200.000	-0.083	-0.381
-743.142	131.306	0.097	-0.126
-742.127	-51.861	0.239	0.112
-741.112	39.263	-0.111	0.100
-740.098	425.528	-0.065	0.142
-739.083	409.613	-0.057	0.121
-738.069	800.000	0.030	0.125
-737.054	-192.885	0.171	0.002
-736.039	-44.551	-0.300	0.151
-735.025	800.000	0.066	0.248
-734.010	-109.288	0.116	-0.025
-732.996	-2.805	-0.165	-0.116
-731.981	35.094	-0.149	-0.131
-730.966	-87.614	-0.133	-0.040
-729.952	-200.000	-0.031	-0.150
-728.937	-78.715	-0.151	-0.052
-727.923	-18.102	0.114	0.072
-726.908	47.109	0.107	0.100
-725.894	-21.531	-0.141	0.086
-724.879	295.300	0.037	-0.067
-723.864	-74.038	-0.097	-0.035
-722.850	-104.926	-0.188	-0.043
-721.835	44.627	0.372	-0.344
-720.821	-30.486	-0.155	0.088
-719.806	106.439	0.119	-0.141
-718.791	-110.849	0.193	-0.040
-717.777	-47.628	-0.223	-0.109
-716.762	-29.271	0.169	0.097
-715.748	-192.121	0.116	0.001
-714.733	-71.334	-0.208	-0.078
-713.718	6.072	0.169	0.126
-712.704	800.000	-0.102	-0.317
-711.689	-11.171	0.228	-0.151
-710.675	-25.823	-0.236	0.140
-709.660	198.348	-0.055	-0.084
-708.645	14.978	-0.046	0.036
-707.631	-41.137	0.051	0.026
-706.616	-126.853	0.124	-0.018
-705.602	-200.000	0.040	-0.287
-704.587	-76.822	-0.094	0.033
-703.572	-47.044	-0.105	-0.051
-702.558	537.579	-0.092	-0.219
-701.543	800.000	-0.128	-0.459
-700.529	-156.767	-0.409	0.025
-699.514	524.891	0.036	0.085
-698.499	-51.646	-0.251	0.118
-697.485	-200.000	0.004	0.187
-696.470	230.408	-0.109	-0.178
-695.456	-44.833	0.069	0.035
-694.441	460.238	0.062	0.138
-693.426	-31.374	-0.160	-0.090
-692.412	-92.335	0.128	-0.036
-691.397	-200.000	0.060	-0.384
-690.383	-11.476	-0.228	0.150
-689.368	800.000	-0.091	0.385
-688.354	114.811	0.127	-0.156
-687.339	-200.000	0.001	-0.113
-686.324	-96.153	-0.078	0.021
-685.310	-99.588	0.336	-0.085
-684.295	182.547	-0.160	0.237
-683.281	-31.694	-0.262	0.148
-682.266	9.940	0.300	-0.228
-681.251	-200.000	0.010	0.116
-680.237	-78.141	0.240	-0.083
-679.222	800.000	0.056	-0.232
-678.208	-69.046	-0.141	-0.055
-677.193	76.465	0.098	-0.104
-676.178	110.935	0.220	-0.266
-675.164	161.834	0.163	0.229
-674.149	-9.806	-0.198	0.132
-673.135	450.355	-0.104	-0.231
-672.120	-29.771	0.175	-0.100
-671.105	-200.000	0.006	0.115
-670.091	-54.835	-0.039	0.018
-669.076	-200.000	0.023	-0.124
-668.062	-128.687	0.112	-0.016
-667.047	-38.716	0.125	-0.066
-666.032	1.115	-0.181	-0.130
-665.018	19.236	0.112	-0.090
-664.003	182.503	-0.051	0.075
-662.989	-200.000	-0.041	0.235
-661.974	-15.809	0.163	-0.104
-660.959	-200.000	-0.028	-0.278
-659.945	-160.158	-0.263	-0.014
-658.930	-35.548	-0.100	0.054
-657.916	-200.000	0.075	-0.351
-656.901	-101.768	0.294	-0.071
-655.886	526.186	-0.095	-0.223
-654.872	180.235	-0.145	0.213
-653.857	-86.756	0.203	0.062
-652.843	-17.122	-0.361	-0.228
-651.828	-200.000	-0.005	-0.037
-650.814	-61.499	0.192	0.081
-649.799	92.748	0.159	-0.179
-648.784	-200.000	-0.036	-0.209
-647.770	-124.260	0.127	0.020
-646.755	-41.711	0.130	0.067
-645.741	-200.000	-0.023	-0.188
-644.726	-200.000	0.000	0.046
-643.711	-56.314	0.119	0.053
-642.697	-200.000	0.013	0.238
-641.682	-200.000	0.005	-0.120
-640.668	-21.478	-0.183	-0.112
-639.653	-200.000	0.051	-0.382
-638.638	394.455	-0.080	0.167
-637.624	-200.000	-0.058	0.325
-636.609	-135.056	0.184	0.022
-635.595	-200.000	-0.015	0.262
-634.580	-109.251	-0.252	0.054
-633.565	800.000	0.026	0.109
-632.551	-78.048	0.450	0.155
-631.536	-73.063	-0.148	0.054
-630.522	-10.066	0.070	-0.046
-629.507	328.291	-0.090	-0.174
-628.492	-200.000	0.005	-0.203
-627.478	-122.963	-0.036	-0.006
-626.463	-200.000	-0.006	-0.150
-625.449	-142.044	0.178	0.018
-624.434	-134.117	-0.332	-0.041
-623.419	-74.209	-0.400	-0.145
-622.405	-200.000	0.003	0.111
-621.390	800.000	0.012	-0.041
-620.376	-84.262	-0.079	0.025
-619.361	114.459	-0.090	0.109
-618.346	-42.507	0.048	0.025
-617.332	650.203	-0.118	-0.304
-616.317	113.022	-0.050	-0.061
-615.303	-200.000	-0.021	0.103
-614.288	-200.000	-0.035	0.251
-613.273	-200.000	0.027	0.424
-612.259	11.873	-0.301	0.231
-611.244	260.684	-0.216	-0.374
-610.230	800.000	0.069	0.270
-609.215	800.000	0.051	-0.175
-608.201	-159.668	0.023	0.001
-607.186	596.018	0.111	-0.275
-606.171	-40.024	0.273	-0.143
-605.157	111.317	0.097	-0.117
-604.142	221.262	0.089	0.143
-603.128	8.299	0.136	0.102
-602.113	-12.459	-0.182	0.119
-601.098	-69.126	-0.496	0.191
-600.084	-10.143	0.367	-0.244
-599.069	-107.369	0.114	-0.025
-598.055	13.339	0.247	-0.191
-597.040	800.000	0.052	0.226
-596.025	800.000	0.063	-0.250
-595.011	49.622	0.227	0.214
-593.996	93.814	0.057	0.064
-592.982	777.267	-0.119	0.326
-591.967	19.604	0.116	0.093
-590.952	-176.553	0.545	-0.014
-589.938	-200.000	0.014	0.191
-588.923	-87.269	0.137	0.042
-587.909	-200.000	0.004	0.065
-586.894	-200.000	0.039	0.328
-585.879	214.588	-0.012	-0.018
-584.865	520.753	0.039	-0.092
-583.850	98.125	0.124	0.143
-582.836	-113.414	-0.450	-0.088
-581.821	-24.880	-0.195	0.116
-580.806	-57.979	-0.217	0.095
-579.792	238.554	0.162	-0.269
-578.777	504.659	-0.086	-0.199
-577.763	-190.498	0.322	-0.003
-576.748	-118.605	0.296	0.052
-575.733	477.256	0.097	-0.218
-574.719	800.000	0.071	-0.267
-573.704	173.747	-0.088	-0.127
-572.690	-44.352	-0.111	0.056
-571.675	-36.457	-0.233	0.125
-570.661	-78.559	-0.199	0.068
-569.646	376.600	-0.027	0.056
-568.631	131.932	0.184	0.237
-567.617	-200.000	0.005	-0.069
-566.602	114.828	-0.180	0.219
-565.588	622.558	-0.052	-0.131
-564.573	-57.137	0.131	0.058
-563.558	222.308	-0.038	0.061
-562.544	-75.427	-0.236	0.084
-561.529	13.523	0.111	-0.086
-560.515	-200.000	-0.014	0.199
-559.500	236.717	0.188	-0.311
-558.485	344.993	0.051	0.100
-557.471	-43.350	0.154	-0.078
-556.456	-14.790	0.208	-0.134
-555.442	-147.105	-0.211	-0.018
-554.427	22.736	-0.326	-0.267
-553.412	-117.590	-0.322	-0.058
-552.398	49.070	0.214	-0.201
-551.383	-75.710	0.331	-0.117
-550.369	646.392	0.074	-0.189
-549.354	-200.000	-0.006	-0.176
-548.339	-200.000	0.028	-0.189
-547.325	-49.376	0.118	-0.056
-546.310	-200.000	0.032	0.255
-545.296	-200.000	-0.000	-0.257
-544.281	-200.000	0.030	0.171
-543.266	568.597	-0.100	0.242
-542.252	20.677	0.081	0.065
-541.237	74.621	0.030	0.032
-540.223	217.095	-0.023	-0.037
-539.208	800.000	0.062	-0.258
-538.193	140.454	0.066	0.087
-537.179	-92.979	0.302	0.084
-536.164	-135.151	-0.170	-0.020
-535.150	598.686	-0.133	-0.329
-534.135	-186.714	-0.090	-0.001
-533.121	147.219	-0.301	0.404
-532.106	-200.000	-0.011	-0.207
-531.091	27.466	0.106	-0.089
-530.077	89.958	-0.158	0.177
-529.062	82.829	-0.072	0.078
-528.048	167.399	0.160	-0.227
-527.033	3.887	-0.193	0.141
-526.018	167.338	-0.059	0.084
-525.004	-136.311	-0.244	0.028
-523.989	-112.289	-0.194	-0.039
-522.975	-200.000	0.026	0.201
-521.960	-86.760	-0.225	-0.069
-520.945	217.490	-0.019	0.031
-519.931	656.908	-0.090	-0.231
-518.916	103.097	-0.139	0.162
-517.902	-200.000	0.005	-0.029
-516.887	-20.324	-0.202	0.124
-515.872	15.113	-0.121	0.094
-514.858	377.382	-0.069	0.140
-513.843	-109.185	-0.129	0.027
-512.829	336.560	-0.175	0.340
-511.814	13.110	-0.209	0.161
-510.799	-200.000	0.011	0.089
-509.785	126.526	-0.063	0.079
-508.770	107.120	0.093	-0.111
-507.756	800.000	-0.091	-0.357
-506.741	52.902	-0.214	0.204
-505.726	-200.000	-0.025	0.176
-504.712	217.164	-0.080	0.127
-503.697	-47.685	-0.090	0.044
-502.683	-200.000	-0.059	-0.276
-501.668	59.011	-0.224	0.219
-500.653	20.307	-0.050	0.040
-499.639	-200.000	-0.010	0.170
-498.624	-200.000	-0.003	0.211
-497.610	-17.633	0.151	-0.094
-496.595	-90.886	0.252	0.072
-495.581	668.761	-0.090	0.232
-494.566	-148.953	-0.136	0.011
-493.551	-146.278	0.120	-0.010
-492.537	618.565	0.056	-0.139
-491.522	-21.914	0.188	0.114
-490.508	641.962	-0.041	0.105
-489.493	-84.401	0.079	-0.025
-488.478	-90.139	-0.048	0.014
-487.464	-200.000	0.001	-0.318
-486.449	405.117	-0.149	0.313
-485.435	-71.620	0.235	0.087
-484.420	790.612	-0.056	-0.153
-483.405	-84.036	0.174	0.055
-482.391	526.148	-0.080	0.188
-481.376	-91.631	0.023	0.007
-480.362	-24.499	-0.328	-0.195
-479.347	800.000	-0.046	0.147
-478.332	800.000	0.041	-0.143
-477.318	-53.000	0.122	-0.056
-476.303	465.195	0.040	0.088
-475.289	95.152	0.126	0.143
-474.274	-1.574	0.166	0.117
-473.259	-71.081	-0.242	0.091
-472.245	31.969	0.252	-0.216
-471.230	-16.275	-0.328	0.207
-470.216	-137.704	-0.310	-0.035
-469.201	12.810	-0.155	-0.119
-468.186	-126.552	0.214	0.032
-467.172	87.925	0.289	0.319
-466.157	-141.840	-0.405	0.040
-465.143	294.167	0.096	-0.174
-464.128	616.000	-0.046	0.115
-463.113	74.137	0.261	0.273
-462.099	-200.000	-0.016	-0.561
-461.084	800.000	0.030	-0.103
-460.070	-56.389	0.093	-0.041
-459.055	235.726	0.031	0.051
-458.040	-66.414	-0.073	0.029
-457.026	800.000	0.086	0.346
-456.011	52.222	0.089	0.085
-454.997	-91.303	-0.110	-0.031
-453.982	-103.319	-0.212	-0.050
-452.968	-104.294	0.085	0.020
-451.953	-15.234	-0.152	-0.097
-450.938	-200.000	-0.019	-0.254
-449.924	-81.988	0.186	-0.060
-448.909	800.000	-0.105	0.459
-447.895	800.000	0.100	-0.381
-446.880	-40.941	0.058	-0.030
-445.865	493.932	0.048	-0.109
-444.851	150.897	-0.085	-0.115
-443.836	-200.000	0.032	0.219
-442.822	-18.392	0.268	-0.167
-441.807	-159.138	0.097	0.005
-440.792	736.062	0.104	-0.277
-439.778	-57.261	0.203	-0.089
-438.763	-200.000	0.050	-0.272
-437.749	-200.000	-0.002	0.192
-436.734	218.618	-0.218	0.347
-435.719	-47.958	0.169	-0.081
-434.705	169.736	-0.069	-0.098
-433.690	303.999	-0.044	0.081
-432.676	-81.429	0.348	0.114
-431.661	-170.291	0.244	-0.009
-430.646	-200.000	0.020	0.220
-429.632	0.908	-0.234	0.167
-428.617	-200.000	-0.057	-0.275
-427.603	39.532	0.110	-0.098
-426.588	-122.977	-0.154	-0.025
-425.573	476.897	-0.253	0.568
-424.559	406.504	0.107	0.225
-423.544	800.000	-0.057	-0.157
-422.530	-165.110	-0.116	-0.005
-421.515	211.060	-0.178	-0.278
-420.500	-189.157	-0.244	0.003
-419.486	-79.805	0.248	-0.083
-418.471	-42.999	0.265	-0.133
-417.457	165.317	0.063	0.089
-416.442	-179.738	-0.135	-0.003
-415.428	800.000	-0.059	-0.199
-414.413	66.805	-0.113	0.114
-413.398	214.267	-0.037	0.059
-412.384	-200.000	0.004	0.046
-411.369	-200.000	0.028	-0.289
-410.355	-97.099	0.233	0.060
-409.340	257.475	-0.160	0.274
-408.325	-138.521	-0.103	-0.011
-407.311	40.541	0.208	-0.186
-406.296	292.120	0.176	0.319
-405.282	8.386	-0.172	-0.129
-404.267	307.945	-0.028	-0.051
-403.252	-40.579	-0.052	0.027
-402.238	-63.579	-0.116	-0.047
-401.223	800.000	-0.040	0.145
-400.209	-200.000	0.031	0.462
-399.194	-200.000	0.039	0.325
-398.179	-200.000	0.008	-0.131
-397.165	800.000	-0.079	0.227
-396.150	-18.381	0.128	-0.079
-395.136	-200.000	-0.001	-0.022
-394.121	-48.334	-0.162	-0.077
-393.106	-200.000	-0.001	-0.124
-392.092	-200.000	-0.015	-0.304
-391.077	136.759	0.172	-0.223
-390.063	-89.571	-0.024	-0.007
-389.048	800.000	0.064	0.226
-388.033	115.173	0.118	-0.143
-387.019	800.000	-0.013	-0.040
-386.004	-44.193	-0.197	0.098
-384.990	-31.578	0.242	0.135
-383.975	-65.350	0.380	0.151
-382.960	499.926	0.079	-0.180
-381.946	-200.000	0.014	-0.111
-380.931	-141.179	-0.297	0.030
-379.917	95.660	0.165	0.187
-378.902	722.547	-0.101	0.267
-377.888	-125.214	-0.155	-0.024
-376.873	-152.368	-0.173	-0.012
-375.858	-73.241	0.332	0.120
-374.844	-99.859	0.085	-0.021
-373.829	70.640	-0.231	0.237
-372.815	30.884	0.154	-0.131
-371.800	-46.523	-0.209	0.102
-370.785	800.000	-0.072	0.300
-369.771	-167.049	0.310	-0.013
-368.756	8.301	0.229	0.170
-367.742	-0.289	-0.212	0.149
-366.727	88.884	0.123	0.135
-365.712	93.135	-0.182	-0.204
-364.698	652.891	-0.116	0.295
-363.683	84.745	0.178	0.193
-362.669	-143.458	-0.045	0.004
-361.654	256.409	-0.111	-0.188
-360.639	-65.285	0.081	-0.032
-359.625	79.462	-0.109	-0.116
-358.610	212.307	-0.081	-0.127
-357.596	717.801	0.117	-0.309
-356.581	102.426	0.208	-0.241
-355.566	-200.000	-0.014	-0.173
-354.552	289.124	0.191	0.342
-353.537	96.609	0.207	0.235
-352.523	41.085	-0.047	0.042
-351.508	-200.000	-0.059	-0.527
-350.493	-200.000	0.052	0.261
-349.479	-200.000	-0.047	-0.263
-348.464	-200.000	-0.026	-0.188
-347.450	346.797	-0.040	-0.078
-346.435	-24.193	-0.150	-0.089
-345.420	-44.039	0.122	-0.060
-344.406	163.319	0.137	0.191
-343.391	800.000	0.030	-0.112
-342.377	-200.000	-0.067	-0.314
-341.362	800.000	0.017	-0.057
-340.348	68.963	-0.179	0.182
-339.333	798.753	0.048	0.130
-338.318	13.393	-0.049	0.037
-337.304	-22.583	0.132	-0.079
-336.289	186.226	0.117	-0.172
-335.275	9.780	0.156	-0.117
-334.260	-156.424	0.232	-0.014
-333.245	204.004	-0.110	0.169
-332.231	-200.000	0.103	0.493
-331.216	58.550	-0.156	0.151
-330.202	-78.027	-0.277	0.094
-329.187	-200.000	-0.049	0.241
-328.172	-200.000	-0.029	0.269
-327.158	245.687	-0.057	0.095
-326.143	-200.000	0.017	0.178
-325.129	800.000	0.006	-0.026
-324.114	800.000	0.040	-0.159
-323.099	-96.322	0.271	-0.071
-322.085	77.521	0.142	-0.150
-321.070	-10.667	-0.036	-0.024
-320.056	-67.878	0.151	0.058
-319.041	602.826	-0.190	-0.466
-318.026	-116.220	0.248	-0.045
-317.012	92.473	0.108	0.121
-315.997	30.463	-0.262	-0.221
-314.983	-147.195	0.122	0.010
-313.968	-129.072	0.185	0.026
-312.953	444.383	0.121	-0.262
-311.939	-39.314	0.122	-0.063
-310.924	-17.519	-0.244	-0.152
-309.910	-161.648	0.465	-0.024
-308.895	494.384	0.032	0.073
-307.880	13.283	0.368	-0.282
-306.866	-36.957	-0.341	0.181
-305.851	563.731	-0.044	0.105
-304.837	523.826	0.035	-0.080
-303.822	-200.000	0.095	-0.414
-302.807	56.676	-0.188	-0.181
-301.793	-28.902	-0.342	-0.195
-300.778	8.821	-0.202	-0.151
-299.764	-8.745	-0.327	0.217
-298.749	185.862	-0.187	0.275
-297.735	5.776	-0.193	0.141
-296.720	800.000	-0.008	-0.034
-295.705	432.430	-0.090	0.193
-294.691	-113.200	0.382	-0.074
-293.676	-44.646	-0.256	0.126
-292.662	-166.200	0.204	0.009
-291.647	148.235	0.173	-0.231
-290.632	-200.000	-0.027	0.142
-289.618	-126.023	0.143	0.021
-288.603	-130.200	-0.127	0.017
-287.589	-31.410	0.299	0.166
-286.574	-111.506	0.043	0.009
-285.559	-200.000	-0.045	-0.484
-284.545	-200.000	0.065	-0.293
-283.530	-29.456	0.138	0.078
-282.516	-24.028	-0.191	-0.113
-281.501	-200.000	0.022	-0.192
-280.486	-24.395	-0.478	0.282
-279.472	-15.797	0.272	0.171
-278.457	514.677	-0.134	-0.308
-277.443	316.350	-0.149	0.277
-276.428	800.000	0.077	-0.310
-275.413	-35.405	-0.288	-0.155
-274.399	-148.854	-0.109	0.009
-273.384	294.535	0.009	0.017
-272.370	118.970	0.233	-0.284
-271.355	-63.404	-0.091	-0.037
-270.340	-200.000	0.009	-0.130
-269.326	-133.871	0.129	-0.016
-268.311	-45.232	0.140	-0.069
-267.297	-109.079	0.224	0.047
-266.282	110.808	0.058	0.069
-265.267	7.263	-0.133	0.098
-264.253	-200.000	-0.025	-0.245
-263.238	-20.112	0.132	-0.080
-262.224	-145.734	0.299	-0.026
-261.209	395.173	0.095	-0.195
-260.195	-200.000	-0.034	0.203
-259.180	560.251	-0.100	0.240
-258.165	-160.057	-0.264	0.014
-257.151	-46.656	0.147	0.071
-256.136	-128.317	-0.033	-0.005
-255.122	-127.484	-0.089	0.013
-254.107	297.010	-0.070	0.126
-253.092	800.000	0.134	0.385
-252.078	33.991	-0.122	-0.105
-251.063	88.312	0.200	0.219
-250.049	800.000	0.068	-0.225
-249.034	-61.852	0.260	0.107
-248.019	294.500	0.230	-0.414
-247.005	111.786	0.071	0.084
-245.990	49.446	-0.259	-0.240
-244.976	354.763	0.160	-0.314
-243.961	-200.000	-0.029	0.222
-242.946	-4.701	-0.061	0.042
-241.932	32.989	0.191	0.164
-240.917	56.435	-0.367	-0.352
-239.903	-13.102	-0.182	0.117
-238.888	157.716	0.069	0.094
-237.873	261.033	0.166	-0.284
-236.859	-180.239	-0.262	0.005
-235.844	20.864	0.199	-0.159
-234.830	126.271	-0.090	0.112
-233.815	-62.573	0.181	-0.074
-232.800	-27.665	0.156	-0.089
-231.786	-200.000	-0.008	0.403
-230.771	183.139	0.038	0.055
-229.757	157.602	-0.162	0.222
-228.742	-200.000	0.046	-0.256
-227.727	-92.621	-0.231	-0.064
-226.713	-21.936	-0.061	-0.036
-225.698	-128.375	-0.169	0.024
-224.684	-89.611	0.077	0.022
-223.669	-200.000	-0.028	-0.170
-222.655	-200.000	-0.003	-0.230
-221.640	-192.395	0.120	-0.001
-220.625	-200.000	-0.015	-0.066
-219.611	335.624	-0.124	0.236
-218.596	-200.000	0.007	-0.290
-217.582	68.913	0.067	0.068
-216.567	-105.850	-0.061	0.014
-215.552	536.508	-0.125	-0.293
-214.538	-120.674	-0.139	-0.023
-213.523	12.820	-0.173	0.132
-212.509	-184.532	-0.414	0.007
-211.494	-111.860	-0.056	0.011
-210.479	-200.000	0.007	0.252
-209.465	-200.000	-0.019	0.406
-208.450	-24.981	-0.119	0.070
-207.436	-72.920	0.265	0.096
-206.421	33.415	0.204	-0.175
-205.406	-27.669	0.220	-0.126
-204.392	-130.669	0.134	0.018
-203.377	41.527	0.036	-0.032
-202.363	-200.000	-0.010	-0.235
-201.348	39.348	0.231	0.203
-200.333	-200.000	-0.050	0.373
-199.319	-50.122	-0.051	0.024
-198.304	42.838	0.195	0.175
-197.290	-75.930	0.109	-0.038
-196.275	24.092	-0.045	0.037
-195.260	629.268	-0.156	0.388
-194.246	-122.678	-0.258	-0.041
-193.231	-47.086	-0.270	0.130
-192.217	113.275	-0.202	0.241
-191.202	139.755	0.071	0.092
-190.187	248.302	-0.286	-0.477
-189.173	235.456	-0.066	-0.107
-188.158	-196.036	0.183	0.001
-187.144	-180.187	-0.326	0.007
-186.129	-91.681	-0.326	-0.091
-185.114	-67.261	0.181	-0.070
-184.100	-119.655	-0.208	-0.035
-183.085	-108.000	-0.046	0.010
-182.071	675.825	-0.065	0.165
-181.056	93.316	-0.033	-0.037
-180.042	-26.176	0.219	-0.126
-179.027	-170.047	0.176	-0.006
-178.012	-93.870	-0.365	0.099
-176.998	-172.375	0.083	0.003
-175.983	-63.982	0.147	-0.059
-174.969	-75.878	0.077	0.027
-173.954	-60.615	0.250	-0.105
-172.939	-200.000	-0.044	-0.240
-171.925	800.000	0.051	0.173
-170.910	49.634	0.284	0.263
-169.896	-106.406	0.027	0.006
-168.881	-59.621	0.100	-0.042
-167.866	-14.349	-0.135	0.086
-166.852	-98.365	0.218	-0.055
-165.837	-200.000	0.029	-0.187
-164.823	-120.965	0.223	0.037
-163.808	-22.496	0.303	-0.180
-162.793	-98.317	-0.064	0.016
-161.779	-200.000	-0.016	-0.177
-160.764	-200.000	-0.084	-0.376
-159.750	-152.558	-0.239	-0.017
-158.735	-152.993	0.104	-0.007
-157.720	-200.000	0.010	-0.434
-156.706	135.011	-0.166	-0.212
-155.691	-125.906	-0.151	-0.022
-154.677	800.000	0.076	0.221
-153.662	-56.964	0.186	-0.081
-152.647	139.260	0.194	0.251
-151.633	71.993	-0.207	-0.211
-150.618	800.000	-0.028	0.100
-149.604	-100.729	0.227	0.055
-148.589	800.000	-0.015	-0.054
-147.574	73.930	-0.287	-0.296
-146.560	-107.099	0.297	0.064
-145.545	82.351	-0.147	0.157
-144.531	6.047	0.127	-0.092
-143.516	-70.147	-0.329	0.123
-142.502	-65.756	-0.223	0.088
-141.487	-200.000	0.064	0.304
-140.472	-125.353	-0.130	-0.020
-139.458	52.567	0.091	-0.086
-138.443	-74.961	-0.133	0.047
-137.429	-200.000	-0.002	-0.165
-136.414	-167.327	0.201	-0.008
-135.399	-14.345	-0.154	-0.098
-134.385	298.407	-0.038	0.069
-133.370	-61.383	-0.196	0.081
-132.356	-58.762	-0.328	-0.139
-131.341	-200.000	-0.009	0.454
-130.326	-200.000	0.037	0.330
-129.312	-129.783	-0.224	0.030
-128.297	70.118	0.336	0.340
-127.283	-44.247	-0.163	-0.080
-126.268	-200.000	0.014	-0.143
-125.253	-200.000	0.013	-0.060
-124.239	800.000	-0.016	0.059
-123.224	-91.655	-0.132	-0.037
-122.210	372.518	0.189	-0.377
