DTS Sentinel unit serial number:	SN413079Multiplexer serial number:	ORYXHardware model number:	OX4-SRSoftware version number:	ORYX F/W v4.00 Oryx Data Collector v3.7.2.0data status	okinstallation	princeton_trtdifferential loss correction	single-endedforward channel	channel 1reverse channel	N/Adate	2019/09/11time	05:48:11forward acquisition time	60.00reverse acquisition time	0.00gamma	496.2192k internal	0.2331k external	0.2331temperature offset calibration	0.9922default loss term (dB/km)	0.3790temperature slope calibration	1.0000multiplexer offset coefficient	1.0000multiplexer slope coefficient	1.0000fibre end	0.00T internal ref (°C)	29.41T ext. ref 1 (°C)	-0.24T ext. ref 2 (°C)	23.51length (m)	temperature (°C)	Stokes	anti-Stokes-747.200	-38.011	0.167	-0.089
-746.185	78.371	-0.270	-0.291
-745.171	-93.873	0.071	0.020
-744.156	495.504	0.135	-0.312
-743.142	800.000	-0.060	-0.254
-742.127	54.349	0.016	-0.015
-741.112	-92.580	0.415	0.117
-740.098	-112.670	-0.082	0.016
-739.083	-200.000	-0.144	-0.000
-738.069	432.931	-0.195	0.425
-737.054	800.000	0.164	-0.528
-736.039	79.621	0.159	-0.172
-735.025	154.910	0.169	0.234
-734.010	800.000	-0.081	-0.286
-732.996	-38.328	-0.372	0.198
-731.981	-200.000	-0.024	0.185
-730.966	41.509	-0.092	-0.084
-729.952	13.788	-0.172	0.134
-728.937	378.803	-0.088	-0.180
-727.923	208.622	0.129	0.204
-726.908	-93.625	0.356	-0.099
-725.894	-29.547	-0.130	-0.075
-724.879	-167.792	0.142	0.006
-723.864	-96.271	-0.175	0.047
-722.850	800.000	-0.046	-0.135
-721.835	-85.265	-0.342	0.107
-720.821	560.353	0.071	0.173
-719.806	-107.292	-0.252	-0.056
-718.791	141.927	0.081	0.108
-717.777	48.870	0.228	0.215
-716.762	37.005	-0.150	-0.133
-715.748	-200.000	0.021	0.254
-714.733	292.164	-0.054	-0.099
-713.718	800.000	-0.053	0.153
-712.704	800.000	-0.049	-0.213
-711.689	155.379	0.252	-0.348
-710.675	98.822	-0.084	-0.097
-709.660	155.445	-0.199	0.275
-708.645	-200.000	-0.047	-0.285
-707.631	-101.950	-0.308	-0.075
-706.616	399.281	-0.056	-0.118
-705.602	549.344	0.069	0.166
-704.587	36.761	0.132	0.117
-703.572	291.561	-0.097	-0.177
-702.558	132.328	-0.118	0.153
-701.543	19.768	-0.156	-0.127
-700.529	145.513	-0.178	-0.240
-699.514	-99.024	0.183	-0.047
-698.499	396.079	0.114	-0.238
-697.485	87.173	-0.234	-0.260
-696.470	-200.000	-0.016	-0.227
-695.456	-200.000	0.026	0.267
-694.441	800.000	-0.160	0.473
-693.426	407.070	0.108	-0.230
-692.412	398.965	-0.071	0.150
-691.397	-69.793	0.054	-0.021
-690.383	624.987	0.115	-0.290
-689.368	470.297	-0.058	0.131
-688.354	-76.981	-0.141	-0.050
-687.339	-125.650	-0.553	-0.084
-686.324	181.572	0.125	-0.184
-685.310	-200.000	0.042	-0.204
-684.295	76.404	-0.075	0.080
-683.281	-27.963	-0.302	0.175
-682.266	-50.133	0.215	-0.102
-681.251	-200.000	-0.004	-0.248
-680.237	34.179	0.242	-0.212
-679.222	-176.635	0.183	0.005
-678.208	783.693	-0.034	0.093
-677.193	10.254	0.127	0.097
-676.178	-33.798	0.071	-0.039
-675.164	4.920	0.230	0.170
-674.149	44.062	-0.157	-0.145
-673.135	-153.428	-0.354	-0.025
-672.120	91.475	-0.024	0.027
-671.105	289.149	-0.065	-0.118
-670.091	117.958	-0.082	-0.101
-669.076	-180.040	-0.273	-0.006
-668.062	-200.000	0.009	0.075
-667.047	-200.000	-0.022	-0.108
-666.032	718.597	-0.027	0.072
-665.018	-134.107	-0.174	-0.022
-664.003	-147.873	0.305	0.026
-662.989	-200.000	0.018	0.113
-661.974	2.019	-0.045	0.033
-660.959	-200.000	-0.014	0.063
-659.945	-24.353	0.316	-0.189
-658.930	800.000	-0.010	0.036
-657.916	-76.910	0.362	0.127
-656.901	-15.479	0.341	0.218
-655.886	-104.186	0.129	-0.030
-654.872	-102.761	0.096	-0.023
-653.857	-34.084	-0.152	-0.084
-652.843	6.001	-0.270	0.200
-651.828	367.050	0.081	0.164
-650.814	-171.035	-0.140	-0.005
-649.799	-12.505	-0.213	0.139
-648.784	-115.689	0.244	0.046
-647.770	-44.953	-0.174	-0.087
-646.755	-183.478	0.041	0.001
-645.741	138.518	-0.057	0.075
-644.726	168.149	0.049	-0.070
-643.711	6.008	0.077	0.057
-642.697	-34.077	-0.087	0.048
-641.682	-200.000	0.020	-0.277
-640.668	-34.759	-0.073	-0.040
-639.653	-85.342	-0.193	-0.060
-638.638	624.602	0.141	0.356
-637.624	-200.000	0.009	-0.299
-636.609	800.000	0.038	-0.111
-635.595	489.700	-0.026	0.059
-634.580	24.498	0.281	-0.233
-633.565	-142.581	-0.080	-0.008
-632.551	3.282	-0.354	0.259
-631.536	578.422	0.108	-0.265
-630.522	-22.080	-0.129	-0.079
-629.507	800.000	-0.012	-0.039
-628.492	133.890	-0.072	0.093
-627.478	-200.000	0.021	-0.212
-626.463	279.800	0.130	-0.233
-625.449	-200.000	-0.073	0.349
-624.434	64.342	-0.272	0.274
-623.419	-200.000	-0.006	0.143
-622.405	618.969	0.062	-0.156
-621.390	-67.966	0.203	-0.079
-620.376	-166.837	0.159	-0.007
-619.361	-108.246	0.245	-0.053
-618.346	-112.973	0.228	-0.045
-617.332	-77.198	0.016	-0.006
-616.317	-16.880	-0.239	-0.151
-615.303	-8.874	-0.099	-0.067
-614.288	800.000	0.128	0.464
-613.273	-186.902	0.330	0.005
-612.259	800.000	0.054	-0.152
-611.244	62.377	0.152	-0.152
-610.230	-83.927	-0.117	-0.037
-609.215	800.000	0.046	0.201
-608.201	-157.759	-0.289	0.017
-607.186	-72.592	0.200	0.074
-606.171	11.871	0.240	0.185
-605.157	800.000	-0.068	-0.297
-604.142	-170.340	0.109	0.004
-603.128	73.285	0.289	0.302
-602.113	-200.000	0.027	-0.139
-601.098	-133.157	0.360	0.046
-600.084	176.662	0.271	-0.394
-599.069	33.519	0.270	-0.234
-598.055	-200.000	-0.298	-0.001
-597.040	112.538	-0.047	-0.057
-596.025	800.000	-0.037	0.103
-595.011	79.056	-0.148	-0.159
-593.996	-66.334	-0.178	-0.071
-592.982	-200.000	-0.022	0.304
-591.967	420.458	0.113	0.243
-590.952	26.532	-0.103	0.086
-589.938	-49.800	0.330	0.157
-588.923	106.543	-0.273	-0.324
-587.909	139.639	0.225	0.296
-586.894	-60.216	0.226	-0.096
-585.879	-29.484	-0.168	0.096
-584.865	96.219	-0.171	-0.195
-583.850	547.955	-0.107	-0.257
-582.836	255.871	0.076	-0.130
-581.821	164.960	-0.167	-0.235
-580.806	12.723	0.137	0.106
-579.792	-72.214	-0.053	0.020
-578.777	252.711	0.139	-0.237
-577.763	-43.201	-0.233	-0.118
-576.748	800.000	0.013	-0.035
-575.733	205.710	-0.260	0.404
-574.719	-200.000	-0.022	0.000
-573.704	-200.000	0.012	-0.612
-572.690	-48.260	-0.074	0.036
-571.675	31.821	-0.010	0.009
-570.661	-200.000	0.006	0.099
-569.646	-200.000	-0.052	0.299
-568.631	-41.938	-0.357	-0.183
-567.617	61.687	0.218	-0.216
-566.602	50.791	0.315	-0.298
-565.588	-99.370	-0.416	0.105
-564.573	800.000	-0.080	0.227
-563.558	800.000	-0.112	0.451
-562.544	-200.000	-0.023	0.161
-561.529	309.192	0.087	-0.163
-560.515	74.727	-0.229	-0.240
-559.500	156.340	0.219	-0.302
-558.485	-37.496	-0.319	0.170
-557.471	-3.846	-0.291	-0.201
-556.456	-3.661	0.095	0.066
-555.442	153.538	-0.203	-0.278
-554.427	51.364	0.061	-0.058
-553.412	-103.835	-0.156	0.036
-552.398	78.328	0.284	-0.303
-551.383	-34.976	-0.282	-0.154
-550.369	800.000	-0.091	0.312
-549.354	92.383	-0.227	-0.255
-548.339	800.000	0.071	-0.229
-547.325	777.627	-0.056	-0.153
-546.310	-200.000	0.054	-0.298
-545.296	42.234	-0.082	-0.074
-544.281	-200.000	0.015	0.351
-543.266	143.029	-0.172	-0.228
-542.252	-132.923	0.132	0.017
-541.237	-91.076	-0.229	-0.066
-540.223	9.969	-0.237	-0.179
-539.208	-13.554	-0.104	0.067
-538.193	-200.000	-0.008	0.117
-537.179	-200.000	0.002	-0.400
-536.164	-119.212	0.248	-0.043
-535.150	73.258	-0.166	0.173
-534.135	28.314	-0.196	-0.165
-533.121	-200.000	0.034	0.244
-532.106	128.994	0.114	-0.145
-531.091	-15.259	0.222	0.142
-530.077	-147.112	-0.184	0.016
-529.062	-102.840	0.093	-0.022
-528.048	370.947	0.040	-0.081
-527.033	495.026	0.124	0.285
-526.018	-200.000	-0.027	0.148
-525.004	332.521	0.107	-0.207
-523.989	-123.930	-0.301	-0.047
-522.975	800.000	-0.065	0.181
-521.960	61.679	-0.147	0.146
-520.945	-110.967	-0.143	-0.029
-519.931	-200.000	-0.012	0.270
-518.916	33.203	0.280	0.243
-517.902	-200.000	-0.014	-0.202
-516.887	-12.917	-0.255	-0.165
-515.872	210.266	0.150	-0.235
-514.858	-2.601	0.328	0.229
-513.843	800.000	0.090	0.381
-512.829	-149.496	-0.154	0.012
-511.814	-99.991	-0.172	-0.043
-510.799	-152.228	0.261	0.019
-509.785	800.000	0.022	0.074
-508.770	-112.153	0.273	0.055
-507.756	218.662	-0.081	-0.128
-506.741	-200.000	0.006	0.253
-505.726	14.363	0.297	-0.231
-504.712	-200.000	0.005	0.198
-503.697	-106.826	-0.365	0.081
-502.683	217.673	-0.161	-0.257
-501.668	800.000	0.038	-0.112
-500.653	-109.470	-0.109	-0.023
-499.639	242.588	-0.032	0.054
-498.624	-138.614	-0.070	-0.008
-497.610	800.000	0.053	0.172
-496.595	761.695	0.048	0.131
-495.581	74.181	0.050	-0.053
-494.566	17.850	-0.234	-0.186
-493.551	327.865	0.090	0.171
-492.537	-160.112	-0.199	0.011
-491.522	800.000	0.040	0.155
-490.508	-54.105	-0.095	0.043
-489.493	-200.000	-0.001	0.232
-488.478	-156.642	0.101	-0.006
-487.464	80.769	0.143	-0.154
-486.449	-106.594	0.227	-0.050
-485.435	-110.365	-0.117	0.024
-484.420	-158.607	-0.068	-0.004
-483.405	262.523	0.076	0.131
-482.391	-181.918	-0.221	-0.004
-481.376	-66.472	0.589	-0.233
-480.362	-110.724	0.128	-0.026
-479.347	-97.435	0.041	-0.011
-478.332	800.000	0.052	-0.151
-477.318	-123.203	-0.334	-0.053
-476.303	35.073	-0.253	0.221
-475.289	-112.311	-0.067	0.013
-474.274	-184.778	-0.334	0.005
-473.259	-200.000	-0.007	0.135
-472.245	-84.364	-0.208	0.065
-471.230	129.061	-0.239	0.303
-470.216	-200.000	0.050	-0.450
-469.201	-200.000	0.001	0.114
-468.186	-200.000	0.041	-0.246
-467.172	800.000	0.006	-0.023
-466.157	-12.806	0.214	-0.139
-465.143	-158.510	-0.418	0.024
-464.128	-200.000	0.023	0.104
-463.113	252.883	-0.060	-0.101
-462.099	-5.045	0.015	-0.010
-461.084	36.637	-0.220	-0.193
-460.070	148.853	-0.142	0.191
-459.055	67.849	0.040	-0.041
-458.040	684.861	0.049	0.128
-457.026	144.560	0.088	-0.117
-456.011	316.429	-0.106	0.199
-454.997	-179.277	0.142	-0.003
-453.982	-78.579	0.325	-0.111
-452.968	193.043	-0.130	0.195
-451.953	800.000	-0.021	-0.079
-450.938	-46.564	0.106	-0.051
-449.924	-62.064	-0.077	0.032
-448.909	-26.943	0.295	0.171
-447.895	-13.994	0.205	-0.132
-446.880	-100.193	0.355	-0.088
-445.865	655.028	0.030	0.078
-444.851	-61.729	0.230	-0.096
-443.836	-38.012	-0.153	0.081
-442.822	630.706	-0.037	0.094
-441.807	800.000	-0.095	0.283
-440.792	8.618	-0.117	0.088
-439.778	-134.731	-0.095	-0.011
-438.763	388.649	-0.133	0.273
-437.749	-200.000	0.026	0.210
-436.734	-101.684	-0.173	0.042
-435.719	133.495	-0.063	-0.081
-434.705	217.548	-0.227	-0.360
-433.690	-54.879	-0.141	0.063
-432.676	-81.321	0.169	0.055
-431.661	-74.009	-0.474	0.171
-430.646	800.000	-0.031	-0.103
-429.632	77.546	0.149	-0.158
-428.617	104.668	0.266	-0.311
-427.603	-84.708	0.225	-0.070
-426.588	-200.000	0.033	0.162
-425.573	800.000	-0.021	-0.085
-424.559	-61.847	0.244	0.102
-423.544	1.402	-0.087	0.062
-422.530	-43.598	-0.117	0.059
-421.515	-200.000	0.009	0.511
-420.500	800.000	-0.092	-0.282
-419.486	-178.095	0.093	0.002
-418.471	-200.000	0.023	0.195
-417.457	649.135	-0.156	-0.397
-416.442	-101.967	0.258	0.062
-415.428	800.000	0.043	0.171
-414.413	502.498	-0.143	-0.328
-413.398	-137.045	-0.402	-0.046
-412.384	7.134	0.057	-0.043
-411.369	437.148	0.104	0.226
-410.355	800.000	0.093	-0.344
-409.340	-41.436	0.138	0.071
-408.325	171.628	-0.020	0.029
-407.311	66.378	-0.053	0.054
-406.296	-200.000	-0.014	0.346
-405.282	62.720	-0.168	0.167
-404.267	178.517	-0.120	-0.174
-403.252	475.769	-0.098	-0.220
-402.238	-200.000	0.033	0.204
-401.223	-115.767	-0.072	0.013
-400.209	-106.997	0.303	-0.067
-399.194	800.000	-0.045	0.192
-398.179	-38.732	0.189	-0.099
-397.165	-200.000	0.014	-0.100
-396.150	377.206	0.007	-0.015
-395.136	800.000	0.048	0.189
-394.121	187.445	-0.257	0.380
-393.106	159.887	-0.142	-0.196
-392.092	90.531	0.117	-0.130
-391.077	539.548	0.024	-0.057
-390.063	98.533	0.243	0.278
-389.048	-159.290	0.120	-0.007
-388.033	-144.750	0.172	0.016
-387.019	-154.165	-0.241	-0.016
-386.004	800.000	0.126	-0.440
-384.990	88.291	0.072	0.079
-383.975	-51.424	-0.327	-0.152
-382.960	-15.106	-0.107	-0.068
-381.946	17.437	-0.333	0.263
-380.931	-45.919	0.308	-0.151
-379.917	-200.000	-0.003	0.151
-378.902	-119.191	0.303	-0.052
-377.888	-158.157	-0.230	-0.013
-376.873	-95.830	-0.224	-0.059
-375.858	61.341	0.270	0.267
-374.844	-111.874	-0.189	0.038
-373.829	-58.873	0.296	0.127
-372.815	-146.973	0.111	0.009
-371.800	800.000	0.014	-0.049
-370.785	-200.000	-0.001	0.420
-369.771	34.732	0.054	-0.047
-368.756	2.116	0.072	0.052
-367.742	800.000	0.055	-0.170
-366.727	-200.000	0.041	-0.250
-365.712	800.000	0.114	0.378
-364.698	-26.831	-0.105	-0.061
-363.683	800.000	0.084	-0.248
-362.669	-39.161	-0.231	-0.120
-361.654	299.133	0.023	0.042
-360.639	-200.000	0.012	0.100
-359.625	-163.197	-0.063	-0.003
-358.610	-200.000	0.000	0.159
-357.596	-200.000	0.044	0.322
-356.581	-69.189	0.186	-0.071
-355.566	-200.000	-0.047	0.286
-354.552	-200.000	0.053	-0.270
-353.537	-200.000	-0.021	-0.211
-352.523	-70.664	0.238	-0.089
-351.508	153.183	-0.105	0.142
-350.493	545.895	0.099	-0.234
-349.479	-25.945	0.122	0.071
-348.464	-22.827	-0.102	0.061
-347.450	-200.000	-0.022	0.156
-346.435	79.434	-0.133	0.141
-345.420	263.356	0.131	-0.226
-344.406	-139.304	0.380	0.040
-343.391	-200.000	0.019	0.142
-342.377	-200.000	0.005	0.027
-341.362	253.760	-0.042	-0.070
-340.348	272.120	0.097	0.169
-339.333	800.000	0.045	-0.160
-338.318	118.930	-0.172	0.211
-337.304	305.864	0.052	0.097
-336.289	416.824	-0.206	0.436
-335.275	-112.229	0.490	0.097
-334.260	574.768	0.083	-0.200
-333.245	44.506	-0.157	-0.143
-332.231	-82.273	0.132	0.042
-331.216	466.698	-0.049	0.109
-330.202	-118.809	-0.130	-0.023
-329.187	286.478	-0.129	0.230
-328.172	43.132	0.201	-0.181
-327.158	-32.047	-0.080	-0.045
-326.143	-12.806	0.296	0.191
-325.129	-200.000	0.019	0.213
-324.114	-15.427	-0.051	-0.033
-323.099	-36.648	0.181	0.096
-322.085	30.093	-0.061	0.051
-321.070	-160.145	0.080	-0.004
-320.056	589.783	0.037	0.091
-319.041	45.297	0.023	0.021
-318.026	-200.000	0.021	0.155
-317.012	-94.003	-0.229	-0.062
-315.997	206.589	0.173	-0.267
-314.983	190.022	-0.123	0.183
-313.968	-12.843	0.222	0.143
-312.953	-88.468	-0.093	0.028
-311.939	51.865	0.234	0.221
-310.924	-13.742	-0.392	0.251
-309.910	150.460	0.074	-0.099
-308.895	-3.930	-0.194	0.133
-307.880	87.262	-0.179	0.195
-306.866	-2.245	0.338	-0.235
-305.851	-200.000	-0.017	-0.137
-304.837	-105.240	-0.206	-0.047
-303.822	569.305	0.091	-0.219
-302.807	-81.315	-0.101	-0.033
-301.793	245.157	0.055	0.092
-300.778	53.844	0.165	-0.157
-299.764	-200.000	0.120	-0.578
-298.749	-103.062	-0.211	0.049
-297.735	621.025	0.135	0.335
-296.720	-200.000	-0.004	0.235
-295.705	135.485	-0.142	-0.183
-294.691	-154.059	-0.362	-0.024
-293.676	-84.747	-0.421	-0.131
-292.662	-96.916	-0.384	0.100
-291.647	32.340	0.248	0.212
-290.632	110.870	0.189	-0.225
-289.618	-200.000	0.019	0.180
-288.603	12.729	-0.181	-0.138
-287.589	-109.146	-0.208	0.044
-286.574	-149.426	0.200	0.016
-285.559	800.000	-0.076	0.239
-284.545	-59.189	-0.302	0.128
-283.530	257.091	0.090	0.153
-282.516	-36.603	-0.231	0.123
-281.501	241.825	-0.138	-0.228
-280.486	-65.683	-0.388	-0.154
-279.472	-85.517	-0.211	-0.065
-278.457	-14.982	0.164	0.104
-277.443	-29.789	0.291	-0.164
-276.428	-200.000	-0.080	0.392
-275.413	-200.000	0.074	0.331
-274.399	-200.000	0.027	-0.331
-273.384	110.160	-0.296	-0.351
-272.370	-92.484	0.238	-0.066
-271.355	-9.828	-0.195	0.128
-270.340	763.032	-0.043	-0.115
-269.326	83.468	-0.012	0.013
-268.311	-26.710	0.134	0.077
-267.297	11.225	0.197	0.149
-266.282	336.998	0.025	0.048
-265.267	-108.875	-0.291	0.061
-264.253	393.402	0.086	-0.177
-263.238	194.609	-0.241	-0.361
-262.224	-55.088	-0.222	-0.099
-261.209	617.895	-0.055	-0.136
-260.195	-200.000	0.017	-0.113
-259.180	-166.311	0.174	0.007
-258.165	-200.000	-0.010	-0.135
-257.151	800.000	0.104	-0.290
-256.136	-107.557	-0.259	-0.056
-255.122	406.214	0.147	-0.306
-254.107	-45.462	0.178	0.087
-253.092	-20.803	0.203	-0.123
-252.078	586.517	0.078	-0.189
-251.063	48.336	-0.196	-0.181
-250.049	275.262	0.063	0.111
-249.034	224.228	0.147	-0.234
-248.019	-85.785	-0.039	-0.012
-247.005	-45.665	0.051	-0.025
-245.990	66.431	-0.259	-0.260
-244.976	-200.000	-0.028	0.130
-243.961	263.610	-0.142	0.243
-242.946	94.121	0.211	0.236
-241.932	108.317	0.048	0.057
-240.917	-107.840	-0.208	-0.045
-239.903	800.000	0.064	-0.262
-238.888	16.419	-0.074	-0.058
-237.873	800.000	-0.055	0.156
-236.859	160.550	0.315	0.433
-235.844	-158.897	-0.156	0.009
-234.830	-72.008	0.472	-0.173
-233.815	-104.388	0.060	0.014
-232.800	-89.311	0.140	-0.041
-231.786	-200.000	-0.001	-0.028
-230.771	79.812	-0.197	0.209
-229.757	-200.000	-0.001	0.330
-228.742	-116.233	0.205	-0.037
-227.727	-54.231	0.305	-0.137
-226.713	800.000	0.026	-0.086
-225.698	530.120	0.111	0.258
-224.684	-2.289	-0.152	0.105
-223.669	-45.708	-0.069	-0.034
-222.655	800.000	0.090	-0.274
-221.640	-121.676	0.201	-0.033
-220.625	224.969	0.020	0.031
-219.611	-80.251	-0.248	-0.082
-218.596	-200.000	-0.046	-0.227
-217.582	9.646	0.261	-0.195
-216.567	-4.669	0.178	-0.121
-215.552	428.204	0.174	-0.371
-214.538	-200.000	-0.016	-0.124
-213.523	-39.825	0.200	0.103
-212.509	-27.031	0.297	-0.171
-211.494	-200.000	-0.085	-0.376
-210.479	-200.000	0.005	0.194
-209.465	405.053	-0.072	0.149
-208.450	-88.183	-0.298	-0.088
-207.436	-141.156	-0.208	0.021
-206.421	-200.000	0.001	-0.141
-205.406	-111.854	-0.043	-0.009
-204.392	184.407	-0.125	0.182
-203.377	-200.000	0.050	0.256
-202.363	411.876	0.069	-0.145
-201.348	398.832	0.135	-0.279
-200.333	469.541	0.131	-0.290
-199.319	-73.564	-0.242	0.087
-198.304	-200.000	0.010	0.086
-197.290	292.820	-0.051	0.091
-196.275	93.245	0.111	-0.124
-195.260	800.000	0.071	0.262
-194.246	-200.000	0.016	0.158
-193.231	-87.857	0.080	0.024
-192.217	41.911	-0.064	0.057
-191.202	-38.978	0.188	-0.097
-190.187	-42.774	-0.122	0.061
-189.173	-56.497	-0.194	-0.085
-188.158	-25.976	0.198	-0.115
-187.144	55.288	-0.242	-0.230
-186.129	40.579	0.017	0.015
-185.114	9.907	0.068	-0.051
-184.100	12.885	0.099	0.075
-183.085	67.058	-0.241	-0.242
-182.071	-120.530	0.038	-0.006
-181.056	800.000	-0.046	0.181
-180.042	34.931	-0.228	0.197
-179.027	-98.788	-0.256	-0.064
-178.012	92.193	-0.098	-0.108
-176.998	-200.000	0.006	0.065
-175.983	45.413	-0.202	0.183
-174.969	-200.000	0.029	-0.141
-173.954	-167.891	0.268	0.010
-172.939	250.622	-0.040	0.067
-171.925	343.225	0.124	0.239
-170.910	356.456	-0.066	0.129
-169.896	-106.493	0.309	0.068
-168.881	62.603	-0.043	0.042
-167.866	-141.649	0.223	0.022
-166.852	-73.424	0.264	0.095
-165.837	-180.806	0.172	-0.003
-164.823	-44.075	-0.183	-0.090
-163.808	-200.000	0.004	0.034
-162.793	-97.244	0.400	0.103
-161.779	-45.354	0.136	0.066
-160.764	-9.093	0.123	0.081
-159.750	335.384	0.057	-0.109
-158.735	-39.747	-0.475	0.244
-157.720	-200.000	0.088	0.421
-156.706	68.141	0.289	0.291
-155.691	60.298	-0.147	0.143
-154.677	18.086	0.134	-0.105
-153.662	-37.835	0.193	0.101
-152.647	95.887	-0.045	0.050
-151.633	-200.000	0.046	-0.365
-150.618	126.648	-0.126	0.158
-149.604	206.789	0.092	-0.141
-148.589	-89.846	0.198	0.057
-147.574	-6.775	0.200	0.133
-146.560	-144.724	0.364	-0.033
-145.545	110.795	0.218	0.257
-144.531	-200.000	0.014	-0.253
-143.516	-22.138	-0.091	0.054
-142.502	300.977	0.073	0.132
-141.487	800.000	-0.057	0.156
-140.472	31.829	0.133	-0.112
-139.458	-71.064	0.331	-0.122
-138.443	-200.000	0.065	-0.288
-137.429	48.724	-0.171	-0.158
-136.414	-105.290	0.471	-0.105
-135.399	-79.883	-0.269	0.089
-134.385	13.317	-0.329	0.250
-133.370	145.911	-0.106	0.139
-132.356	800.000	0.076	0.308
-131.341	-138.528	-0.141	0.015
-130.326	176.232	0.113	0.161
-129.312	-200.000	-0.013	0.137
-128.297	-25.768	0.279	-0.162
-127.283	-200.000	-0.018	0.295
-126.268	-9.683	0.117	-0.076
-125.253	130.872	0.182	-0.230
-124.239	-57.723	-0.091	0.039
-123.224	800.000	0.087	0.335
-122.210	-200.000	0.054	0.363
-121.195	411.219	-0.218	0.454
