DTS Sentinel unit serial number:	SN413079Multiplexer serial number:	ORYXHardware model number:	OX4-SRSoftware version number:	ORYX F/W v4.00 Oryx Data Collector v3.7.2.0data status	okinstallation	princeton_trtdifferential loss correction	single-endedforward channel	channel 1reverse channel	N/Adate	2019/09/11time	17:40:11forward acquisition time	60.00reverse acquisition time	0.00gamma	496.2192k internal	0.2290k external	0.2290temperature offset calibration	0.9997default loss term (dB/km)	0.3790temperature slope calibration	1.0000multiplexer offset coefficient	1.0000multiplexer slope coefficient	1.0000fibre end	0.00T internal ref (°C)	43.81T ext. ref 1 (°C)	1.10T ext. ref 2 (°C)	39.38length (m)	temperature (°C)	Stokes	anti-Stokes-747.200	-109.933	-0.254	0.055
-746.185	-111.552	-0.545	-0.114
-745.171	-200.000	0.003	0.130
-744.156	-74.346	0.190	0.070
-743.142	-200.000	-0.003	0.061
-742.127	-172.989	0.102	0.003
-741.112	387.913	0.131	0.278
-740.098	800.000	0.092	0.316
-739.083	-100.831	0.225	-0.057
-738.069	-166.008	0.217	0.009
-737.054	-143.344	-0.093	-0.009
-736.039	-91.777	-0.101	0.030
-735.025	-64.962	-0.263	-0.109
-734.010	-32.364	-0.337	-0.192
-732.996	800.000	-0.044	-0.179
-731.981	20.970	0.258	-0.214
-730.966	711.787	0.115	0.312
-729.952	800.000	-0.091	-0.333
-728.937	800.000	0.118	-0.358
-727.923	-78.041	-0.282	0.099
-726.908	100.748	0.060	-0.071
-725.894	-200.000	0.006	-0.202
-724.879	-173.338	-0.366	-0.011
-723.864	800.000	0.068	0.195
-722.850	-13.645	-0.127	-0.084
-721.835	562.974	-0.181	0.448
-720.821	358.744	0.063	0.129
-719.806	-55.206	-0.119	0.055
-718.791	800.000	0.013	-0.042
-717.777	-54.449	-0.286	0.133
-716.762	-99.441	-0.273	0.070
-715.748	-200.000	0.031	-0.243
-714.733	230.646	-0.095	-0.158
-713.718	-55.601	0.056	-0.026
-712.704	-200.000	0.010	-0.174
-711.689	-95.546	0.110	-0.030
-710.675	-94.238	-0.281	0.079
-709.660	-113.504	0.293	0.059
-708.645	-73.185	0.290	-0.109
-707.631	-200.000	0.043	-0.390
-706.616	-138.023	-0.322	0.037
-705.602	-25.160	-0.155	-0.094
-704.587	-114.734	-0.032	-0.006
-703.572	-84.954	-0.197	-0.063
-702.558	-112.414	0.283	-0.058
-701.543	-200.000	0.051	-0.232
-700.529	-62.923	0.178	-0.075
-699.514	207.416	0.048	-0.076
-698.499	153.602	-0.075	0.105
-697.485	-104.578	-0.173	0.041
-696.470	492.523	-0.069	0.162
-695.456	-51.197	0.391	0.187
-694.441	-41.292	-0.357	-0.188
-693.426	646.384	0.080	-0.208
-692.412	800.000	0.046	-0.152
-691.397	-158.645	0.315	0.019
-690.383	179.792	-0.142	0.213
-689.368	-200.000	0.052	0.366
-688.354	92.671	0.093	0.107
-687.339	800.000	-0.032	-0.118
-686.324	386.269	0.086	0.182
-685.310	-68.494	-0.220	0.087
-684.295	430.066	0.134	-0.295
-683.281	128.054	-0.073	0.096
-682.266	-200.000	0.041	0.205
-681.251	74.980	0.213	0.229
-680.237	-6.401	0.340	0.237
-679.222	-179.321	-0.281	0.006
-678.208	800.000	0.027	-0.117
-677.193	319.077	0.048	-0.094
-676.178	151.891	-0.267	-0.372
-675.164	-16.201	-0.297	-0.193
-674.149	-107.454	-0.174	0.039
-673.135	-200.000	-0.017	0.097
-672.120	216.600	-0.062	-0.101
-671.105	-63.715	-0.551	-0.231
-670.091	-55.502	-0.045	-0.021
-669.076	-101.738	0.227	-0.056
-668.062	800.000	-0.030	0.100
-667.047	800.000	0.046	-0.135
-666.032	-10.592	-0.094	-0.063
-665.018	0.655	-0.234	-0.171
-664.003	-80.314	-0.257	-0.088
-662.989	-200.000	0.055	-0.286
-661.974	-200.000	0.007	-0.269
-660.959	59.007	0.227	0.228
-659.945	56.189	-0.149	-0.148
-658.930	14.959	0.206	0.165
-657.916	-200.000	-0.012	-0.194
-656.901	-200.000	-0.003	-0.160
-655.886	-200.000	-0.043	0.381
-654.872	263.655	0.052	0.092
-653.857	-172.814	-0.193	0.006
-652.843	-107.853	-0.240	0.053
-651.828	800.000	-0.009	0.037
-650.814	-92.707	0.346	-0.099
-649.799	-200.000	-0.019	-0.131
-648.784	59.561	-0.082	0.083
-647.770	-113.128	-0.297	0.060
-646.755	-63.231	0.302	-0.127
-645.741	362.678	0.049	0.100
-644.726	-113.040	-0.147	-0.030
-643.711	-200.000	-0.022	-0.444
-642.697	-142.929	0.257	-0.025
-641.682	365.983	-0.168	-0.346
-640.668	60.416	-0.325	-0.328
-639.653	-200.000	0.010	0.113
-638.638	-200.000	-0.068	-0.312
-637.624	-23.876	0.511	0.312
-636.609	-99.663	-0.248	-0.063
-635.595	-59.021	-0.145	-0.064
-634.580	-7.171	-0.211	0.146
-633.565	353.152	-0.084	0.169
-632.551	33.741	-0.209	0.185
-631.536	-92.748	-0.162	0.046
-630.522	-3.445	0.115	-0.082
-629.507	-24.709	-0.222	-0.135
-628.492	-152.463	-0.052	0.004
-627.478	-200.000	0.022	0.154
-626.463	-200.000	-0.117	0.001
-625.449	-21.951	-0.210	0.130
-624.434	-101.029	-0.309	-0.077
-623.419	-200.000	0.015	-0.218
-622.405	-200.000	0.043	0.364
-621.390	54.965	0.104	0.102
-620.376	-77.835	0.221	-0.078
-619.361	800.000	-0.064	-0.268
-618.346	106.748	0.077	-0.094
-617.332	-124.109	-0.158	0.025
-616.317	6.258	-0.197	0.149
-615.303	-200.000	0.035	0.259
-614.288	224.978	-0.078	-0.129
-613.273	276.479	0.158	-0.286
-612.259	800.000	0.055	-0.158
-611.244	-34.151	0.407	0.228
-610.230	299.064	-0.067	-0.126
-609.215	-130.328	-0.562	0.078
-608.201	426.475	-0.239	-0.524
-607.186	-200.000	0.015	0.486
-606.171	-200.000	-0.000	0.183
-605.157	58.027	0.121	0.121
-604.142	119.217	-0.106	-0.134
-603.128	24.270	0.204	0.172
-602.113	-200.000	-0.009	-0.118
-601.098	-116.476	-0.176	-0.033
-600.084	194.891	-0.112	0.174
-599.069	-33.481	0.040	-0.023
-598.055	310.669	-0.102	0.195
-597.040	21.093	-0.197	-0.163
-596.025	-13.561	-0.173	-0.114
-595.011	286.962	0.219	-0.403
-593.996	800.000	-0.104	0.309
-592.982	13.469	-0.132	-0.104
-591.967	-68.760	0.231	-0.091
-590.952	-200.000	0.006	-0.077
-589.938	7.148	-0.156	-0.119
-588.923	-13.689	-0.249	-0.164
-587.909	655.561	-0.065	0.170
-586.894	76.343	0.267	0.288
-585.879	-114.415	-0.341	-0.067
-584.865	-43.878	-0.065	0.033
-583.850	-27.263	0.398	-0.236
-582.836	-100.100	0.160	0.041
-581.821	440.082	0.086	0.191
-580.806	651.171	-0.026	0.068
-579.792	-57.550	-0.227	0.101
-578.777	309.291	-0.111	0.210
-577.763	-7.634	-0.146	-0.100
-576.748	-34.732	-0.211	0.118
-575.733	232.069	-0.093	0.155
-574.719	-34.865	0.145	0.080
-573.704	-121.129	0.204	-0.035
-572.690	-41.164	-0.251	-0.132
-571.675	-22.552	-0.150	-0.092
-570.661	-153.650	0.185	0.013
-569.646	312.442	0.052	-0.100
-568.631	137.230	0.114	0.152
-567.617	566.871	-0.084	0.206
-566.602	1.677	-0.219	0.161
-565.588	165.708	0.173	0.249
-564.573	-152.768	0.135	-0.010
-563.558	19.467	-0.031	-0.025
-562.544	102.902	-0.169	-0.201
-561.529	-99.443	-0.120	-0.031
-560.515	235.319	0.029	-0.048
-559.500	800.000	-0.151	-0.473
-558.485	259.116	-0.108	0.189
-557.471	54.360	0.116	0.114
-556.456	-200.000	0.023	-0.250
-555.442	378.802	-0.010	0.021
-554.427	800.000	0.088	-0.328
-553.412	414.651	0.165	-0.358
-552.398	-35.500	-0.035	-0.019
-551.383	-36.727	-0.216	-0.118
-550.369	44.965	0.132	0.124
-549.354	-123.217	-0.252	-0.041
-548.339	-6.711	0.117	-0.081
-547.325	-131.074	-0.149	-0.020
-546.310	-67.301	0.282	0.113
-545.296	-33.978	0.101	0.056
-544.281	800.000	0.103	0.368
-543.266	-200.000	0.040	0.227
-542.252	-55.711	-0.045	-0.021
-541.237	-200.000	-0.049	0.241
-540.223	25.433	-0.195	0.165
-539.208	295.619	-0.039	0.073
-538.193	-129.964	-0.175	0.024
-537.179	800.000	-0.063	0.275
-536.164	-148.682	-0.207	0.017
-535.150	-96.545	0.201	-0.054
-534.135	186.071	0.023	0.035
-533.121	-47.686	-0.070	-0.035
-532.106	-75.358	-0.234	-0.085
-531.091	-162.655	-0.297	0.015
-530.077	-116.855	0.309	-0.058
-529.062	45.258	-0.126	0.118
-528.048	-200.000	0.001	0.043
-527.033	46.175	-0.082	0.077
-526.018	219.162	0.125	-0.203
-525.004	212.026	0.054	0.086
-523.989	178.290	-0.108	0.160
-522.975	-128.981	-0.231	-0.033
-521.960	-153.804	-0.176	-0.012
-520.945	697.831	0.110	0.294
-519.931	-200.000	-0.016	0.266
-518.916	-174.995	0.423	0.012
-517.902	800.000	0.080	-0.227
-516.887	293.099	0.061	-0.113
-515.872	-200.000	0.027	-0.333
-514.858	11.210	0.193	0.150
-513.843	-200.000	-0.000	0.232
-512.829	-144.206	0.122	-0.012
-511.814	-200.000	0.027	-0.146
-510.799	-137.719	-0.061	-0.007
-509.785	-200.000	0.021	0.114
-508.770	-51.759	-0.270	-0.128
-507.756	-167.404	-0.061	-0.002
-506.741	-130.957	0.270	-0.037
-505.726	800.000	0.057	-0.169
-504.712	-34.668	0.014	-0.008
-503.697	398.739	0.147	-0.312
-502.683	-93.794	0.243	-0.068
-501.668	389.700	0.115	0.242
-500.653	-51.435	0.082	-0.039
-499.639	-109.198	-0.028	0.006
-498.624	-55.570	-0.133	-0.061
-497.610	-133.706	-0.297	-0.038
-496.595	266.026	-0.072	0.127
-495.581	-200.000	0.035	0.183
-494.566	-200.000	0.105	-0.479
-493.551	117.155	0.124	0.155
-492.537	-76.660	0.183	-0.065
-491.522	137.520	-0.052	-0.069
-490.508	-200.000	0.044	0.224
-489.493	-79.065	0.090	-0.031
-488.478	800.000	0.087	-0.343
-487.464	-31.799	0.053	0.030
-486.449	-86.200	0.134	-0.042
-485.435	-71.929	-0.095	0.036
-484.420	-58.076	0.334	0.148
-483.405	157.782	-0.092	0.129
-482.391	664.158	0.073	-0.191
-481.376	154.159	0.161	0.223
-480.362	-40.284	-0.413	-0.218
-479.347	146.405	-0.058	-0.079
-478.332	-83.300	0.268	0.087
-477.318	-54.561	-0.355	0.163
-476.303	800.000	-0.142	-0.401
-475.289	10.577	0.158	-0.122
-474.274	189.827	0.159	0.242
-473.259	4.748	0.085	-0.063
-472.245	-190.492	0.092	0.001
-471.230	-200.000	0.071	0.000
-470.216	-200.000	-0.010	0.053
-469.201	-200.000	-0.002	-0.161
-468.186	120.709	0.122	-0.154
-467.172	-164.388	0.111	-0.005
-466.157	-3.501	0.140	-0.099
-465.143	-42.862	-0.102	-0.052
-464.128	631.445	-0.070	0.179
-463.113	-23.866	0.178	0.108
-462.099	261.132	-0.109	-0.192
-461.084	187.295	-0.112	0.169
-460.070	-93.105	-0.222	0.063
-459.055	-200.000	-0.007	0.105
-458.040	-10.360	-0.147	-0.099
-457.026	-200.000	-0.009	-0.267
-456.011	138.510	-0.227	0.302
-454.997	-50.829	-0.292	0.139
-453.982	91.516	-0.098	-0.111
-452.968	455.553	0.106	-0.239
-451.953	-200.000	-0.024	0.122
-450.938	-200.000	-0.054	0.271
-449.924	800.000	-0.085	0.331
-448.909	-75.443	-0.284	-0.102
-447.895	-27.499	0.127	-0.075
-446.880	-170.721	-0.286	0.010
-445.865	800.000	0.096	-0.286
-444.851	-85.799	0.160	0.050
-443.836	131.121	-0.218	0.284
-442.822	-103.454	0.135	-0.032
-441.807	183.967	0.049	-0.074
-440.792	-17.016	0.073	-0.046
-439.778	394.725	-0.055	-0.116
-438.763	669.887	-0.082	0.214
-437.749	-160.618	0.352	0.019
-436.734	-200.000	-0.045	0.320
-435.719	46.951	0.141	-0.132
-434.705	-144.515	0.361	-0.034
-433.690	-43.519	0.200	0.102
-432.676	-2.425	0.150	-0.107
-431.661	154.951	-0.129	-0.179
-430.646	-154.033	0.409	0.028
-429.632	127.637	0.098	-0.126
-428.617	134.147	0.115	0.151
-427.603	-112.794	-0.165	0.033
-426.588	-200.000	-0.032	-0.147
-425.573	122.755	-0.082	-0.103
-424.559	664.256	0.055	0.143
-423.544	-10.139	0.090	0.060
-422.530	800.000	-0.083	-0.234
-421.515	-59.421	-0.188	0.082
-420.500	-86.899	0.127	-0.039
-419.486	800.000	0.128	-0.421
-418.471	159.533	-0.122	-0.172
-417.457	-86.331	0.538	0.168
-416.442	-4.643	0.312	0.218
-415.428	-24.873	0.123	-0.074
-414.413	157.774	0.140	0.196
-413.398	108.063	0.097	0.117
-412.384	95.330	0.143	-0.164
-411.369	264.174	0.107	0.188
-410.355	-54.516	-0.247	0.113
-409.340	-73.677	0.047	0.017
-408.325	23.078	-0.041	-0.034
-407.311	-83.065	0.162	-0.053
-406.296	22.205	0.205	-0.169
-405.282	-200.000	-0.021	-0.141
-404.267	754.391	0.069	-0.189
-403.252	-138.400	0.151	-0.017
-402.238	-149.313	0.132	-0.011
-401.223	4.078	0.131	-0.097
-400.209	-90.117	-0.160	-0.047
-399.194	631.793	-0.015	-0.037
-398.179	178.410	0.052	-0.077
-397.165	-200.000	0.009	0.130
-396.150	-15.029	-0.250	0.162
-395.136	-191.361	0.263	-0.003
-394.121	800.000	-0.056	-0.191
-393.106	-91.580	0.264	-0.076
-392.092	-55.061	0.103	0.047
-391.077	120.250	-0.054	-0.067
-390.063	-200.000	0.021	-0.177
-389.048	185.738	0.248	0.372
-388.033	133.892	-0.132	-0.172
-387.019	-18.620	0.363	-0.229
-386.004	-70.927	0.437	0.166
-384.990	-83.352	0.115	0.037
-383.975	-135.427	0.307	0.037
-382.960	111.504	-0.102	0.124
-381.946	66.832	0.127	0.131
-380.931	-97.340	-0.161	0.042
-379.917	-82.255	0.203	-0.067
-378.902	-117.557	-0.404	-0.074
-377.888	-55.929	0.175	0.079
-376.873	48.750	0.140	-0.132
-375.858	-200.000	-0.032	-0.307
-374.844	-7.377	-0.404	-0.276
-373.829	-95.547	0.293	0.079
-372.815	-147.575	-0.195	0.017
-371.800	-81.538	0.373	0.124
-370.785	-125.064	-0.377	0.058
-369.771	212.313	0.144	-0.229
-368.756	800.000	0.078	-0.227
-367.742	-29.318	-0.374	-0.216
-366.727	11.799	-0.027	-0.021
-365.712	-137.976	-0.154	-0.017
-364.698	-124.657	0.118	-0.018
-363.683	-200.000	0.024	0.124
-362.669	-200.000	0.009	0.146
-361.654	0.693	-0.243	-0.175
-360.639	123.249	0.286	-0.361
-359.625	-64.205	-0.235	0.097
-358.610	-174.500	-0.094	-0.003
-357.596	-24.969	0.279	0.167
-356.581	-122.503	-0.257	-0.042
-355.566	62.139	-0.220	-0.221
-354.552	-55.364	-0.195	-0.088
-353.537	24.724	-0.073	-0.061
-352.523	-49.902	-0.220	-0.105
-351.508	-5.017	0.237	0.164
-350.493	-95.336	0.166	0.045
-349.479	-83.852	-0.261	-0.084
-348.464	145.344	0.077	0.105
-347.450	-101.273	0.344	-0.085
-346.435	-89.436	0.277	0.082
-345.420	-118.126	0.269	-0.048
-344.406	182.506	0.171	0.255
-343.391	800.000	0.021	0.080
-342.377	48.946	-0.149	0.141
-341.362	800.000	-0.029	-0.113
-340.348	800.000	-0.054	0.213
-339.333	8.287	-0.354	0.268
-338.318	744.293	-0.044	0.119
-337.304	-83.110	0.276	0.089
-336.289	-13.777	-0.204	-0.133
-335.275	-200.000	-0.038	-0.427
-334.260	-200.000	-0.009	0.097
-333.245	100.034	0.086	-0.100
-332.231	-100.909	0.263	-0.065
-331.216	-160.750	0.163	-0.009
-330.202	-174.219	0.126	0.004
-329.187	478.188	0.100	-0.228
-328.172	-4.462	-0.231	0.161
-327.158	-123.478	0.229	0.037
-326.143	115.851	-0.153	-0.189
-325.129	-200.000	-0.005	0.066
-324.114	553.772	0.091	-0.220
-323.099	-146.301	-0.360	0.032
-322.085	200.235	-0.218	-0.338
-321.070	-200.000	-0.027	-0.303
-320.056	193.586	0.140	0.213
-319.041	6.096	0.137	0.102
-318.026	241.636	-0.083	-0.140
-317.012	-32.230	0.228	-0.128
-315.997	184.151	0.160	-0.239
-314.983	38.563	-0.248	0.223
-313.968	800.000	-0.100	0.328
-312.953	800.000	-0.055	-0.154
-311.939	800.000	-0.021	0.089
-310.924	128.980	-0.030	-0.038
-309.910	-33.305	0.270	-0.151
-308.895	-159.455	0.247	0.014
-307.880	447.791	-0.127	0.281
-306.866	-200.000	-0.040	0.254
-305.851	-127.665	-0.122	-0.018
-304.837	800.000	0.071	0.201
-303.822	730.601	-0.044	0.119
-302.807	-126.837	0.189	-0.028
-301.793	-161.233	0.031	0.002
-300.778	-94.200	-0.258	-0.071
-299.764	20.470	-0.213	0.174
-298.749	245.342	-0.122	-0.207
-297.735	-186.076	0.243	-0.004
-296.720	-143.213	-0.062	0.006
-295.705	755.910	0.121	0.330
-294.691	73.294	-0.049	-0.052
-293.676	40.888	0.265	-0.241
-292.662	125.986	-0.211	-0.269
-291.647	-174.479	-0.294	-0.008
-290.632	800.000	0.061	0.265
-289.618	-14.487	0.159	0.103
-288.603	142.205	-0.078	-0.104
-287.589	-3.384	-0.173	0.121
-286.574	800.000	0.065	-0.239
-285.559	-77.468	0.360	0.126
-284.545	84.990	-0.139	0.153
-283.530	-47.940	-0.282	-0.137
-282.516	116.371	0.151	-0.186
-281.501	-5.321	-0.133	-0.092
-280.486	115.385	0.123	0.151
-279.472	167.210	-0.044	0.062
-278.457	-200.000	0.024	0.119
-277.443	-27.513	0.263	-0.154
-276.428	375.806	0.084	-0.173
-275.413	800.000	-0.128	0.407
-274.399	226.905	0.058	-0.095
-273.384	-32.010	0.230	-0.130
-272.370	-78.923	-0.288	0.099
-271.355	800.000	-0.012	-0.054
-270.340	370.469	-0.099	0.201
-269.326	-87.956	-0.344	0.104
-268.311	169.941	-0.085	0.122
-267.297	20.919	0.148	-0.121
-266.282	-126.179	0.172	0.026
-265.267	-60.594	-0.046	0.020
-264.253	139.309	0.235	-0.311
-263.238	-59.311	-0.266	-0.115
-262.224	576.529	-0.159	0.392
-261.209	533.238	0.119	-0.284
-260.195	800.000	0.107	-0.297
-259.180	800.000	-0.117	-0.339
-258.165	-35.350	-0.109	-0.059
-257.151	-155.318	0.223	-0.015
-256.136	-38.041	0.237	0.127
-255.122	-200.000	-0.008	-0.054
-254.107	-177.810	0.145	-0.004
-253.092	-153.268	0.218	-0.015
-252.078	-10.172	-0.376	-0.251
-251.063	43.666	-0.093	0.085
-250.049	-59.651	0.309	-0.133
-249.034	107.303	0.088	0.106
-248.019	36.333	-0.038	-0.034
-247.005	-4.747	0.265	-0.184
-245.990	800.000	0.101	0.355
-244.976	-25.756	-0.036	-0.022
-243.961	800.000	0.099	0.379
-242.946	25.256	0.204	0.170
-241.932	-200.000	-0.033	-0.303
-240.917	-109.527	0.324	0.069
-239.903	83.704	-0.136	-0.149
-238.888	-125.997	0.219	-0.033
-237.873	-51.688	0.287	-0.134
-236.859	800.000	-0.112	-0.433
-235.844	-200.000	-0.003	-0.146
-234.830	-200.000	-0.003	-0.083
-233.815	-200.000	0.000	-0.278
-232.800	-152.100	0.179	-0.013
-231.786	217.557	0.145	0.232
-230.771	136.334	-0.191	0.250
-229.757	625.276	-0.054	-0.136
-228.742	-80.610	-0.364	0.122
-227.727	167.080	0.160	-0.228
-226.713	89.699	-0.172	-0.193
-225.698	82.840	-0.325	0.355
-224.684	43.769	-0.122	0.112
-223.669	-169.701	-0.268	-0.010
-222.655	285.029	-0.123	-0.223
-221.640	-62.814	-0.063	0.026
-220.625	-6.553	-0.091	-0.062
-219.611	-140.036	-0.143	-0.015
-218.596	104.360	0.329	0.389
-217.582	-44.172	0.180	0.090
-216.567	800.000	-0.136	0.388
-215.552	113.431	-0.223	0.272
-214.538	148.166	-0.161	0.218
-213.523	-49.384	0.193	0.092
-212.509	113.982	-0.136	-0.166
-211.494	-150.041	-0.256	-0.020
-210.479	800.000	0.061	0.249
-209.465	-71.319	-0.199	0.075
-208.450	-5.545	0.143	0.099
-207.436	11.736	0.453	0.349
-206.421	131.984	0.160	-0.206
-205.406	286.357	-0.057	-0.104
-204.392	-96.060	0.313	0.084
-203.377	616.585	-0.125	-0.314
-202.363	-33.220	0.198	0.110
-201.348	-91.502	-0.343	0.098
-200.333	-1.166	0.114	-0.080
-199.319	800.000	-0.036	-0.101
-198.304	-200.000	0.054	0.270
-197.290	800.000	-0.048	0.184
-196.275	-46.475	-0.291	0.143
-195.260	-200.000	0.018	0.093
-194.246	216.322	-0.254	0.406
-193.231	97.044	-0.126	0.145
-192.217	-200.000	-0.006	-0.139
-191.202	211.091	0.160	0.253
-190.187	800.000	-0.025	0.103
-189.173	17.815	-0.224	0.179
-188.158	-129.899	0.156	0.021
-187.144	-200.000	0.000	-0.029
-186.129	-41.178	0.089	0.046
-185.114	-123.030	0.102	0.016
-184.100	-155.557	-0.226	-0.015
-183.085	-200.000	0.002	0.238
-182.071	150.112	-0.136	0.185
-181.056	-71.058	-0.293	-0.110
-180.042	-200.000	-0.020	0.229
-179.027	-163.635	-0.253	-0.012
-178.012	552.490	0.099	0.239
-176.998	-102.929	-0.242	-0.058
-175.983	110.541	-0.140	0.169
-174.969	16.175	-0.136	-0.107
-173.954	246.340	0.149	-0.251
-172.939	-138.400	-0.133	-0.015
-171.925	91.020	-0.024	-0.027
-170.910	2.059	0.135	-0.098
-169.896	-200.000	0.005	-0.163
-168.881	105.434	0.066	0.078
-167.866	-8.789	0.299	0.201
-166.852	-137.709	-0.394	-0.044
-165.837	800.000	0.041	0.148
-164.823	-135.659	0.114	-0.014
-163.808	-200.000	-0.051	-0.396
-162.793	-2.979	-0.165	-0.116
-161.779	-13.390	-0.124	-0.080
-160.764	370.490	-0.054	-0.109
-159.750	-114.955	0.119	0.023
-158.735	9.358	0.174	0.132
-157.720	355.666	-0.116	0.232
-156.706	-84.911	0.270	0.085
-155.691	466.035	-0.072	-0.161
-154.677	-134.321	-0.258	0.032
-153.662	-3.525	-0.090	-0.063
-152.647	136.157	0.146	-0.190
-151.633	800.000	0.066	0.249
-150.618	150.563	0.065	-0.088
-149.604	-0.589	0.277	-0.197
-148.589	-200.000	-0.012	-0.229
-147.574	-58.528	0.329	-0.143
-146.560	-200.000	0.007	-0.366
-145.545	150.919	-0.116	0.158
-144.531	669.560	0.072	0.188
-143.516	-0.976	-0.338	0.239
-142.502	788.561	0.022	0.060
-141.487	-29.129	-0.078	0.045
-140.472	-200.000	0.009	0.053
-139.458	-94.164	-0.220	-0.060
-138.443	388.473	-0.110	-0.229
-137.429	-200.000	-0.013	0.181
-136.414	581.542	0.019	-0.047
-135.399	-200.000	-0.031	-0.180
-134.385	-172.829	0.274	-0.009
-133.370	-200.000	-0.018	0.302
-132.356	-200.000	0.076	-0.389
-131.341	464.931	-0.064	-0.144
-130.326	75.395	-0.259	-0.273
-129.312	29.521	-0.024	-0.020
-128.297	-150.749	-0.040	0.003
-127.283	-77.900	-0.321	-0.111
-126.268	-94.935	0.186	-0.050
-125.253	154.576	-0.133	-0.183
-124.239	148.507	0.102	0.138
-123.224	-145.786	-0.265	-0.024
