DTS Sentinel unit serial number:	SN413079Multiplexer serial number:	ORYXHardware model number:	OX4-SRSoftware version number:	ORYX F/W v4.00 Oryx Data Collector v3.7.2.0data status	okinstallation	princeton_trtdifferential loss correction	single-endedforward channel	channel 1reverse channel	N/Adate	2019/09/12time	04:24:11forward acquisition time	60.00reverse acquisition time	0.00gamma	496.2192k internal	0.2324k external	0.2324temperature offset calibration	1.0081default loss term (dB/km)	0.3790temperature slope calibration	1.0000multiplexer offset coefficient	1.0000multiplexer slope coefficient	1.0000fibre end	0.00T internal ref (°C)	31.69T ext. ref 1 (°C)	2.24T ext. ref 2 (°C)	25.68length (m)	temperature (°C)	Stokes	anti-Stokes-747.200	-200.000	0.051	0.317
-746.185	-20.248	-0.165	0.103
-745.171	-70.524	0.323	-0.123
-744.156	10.462	0.274	0.211
-743.142	576.463	0.107	0.265
-742.127	-120.140	-0.442	0.076
-741.112	-200.000	0.016	0.334
-740.098	800.000	-0.067	0.290
-739.083	-200.000	0.081	-0.407
-738.069	87.289	-0.237	0.265
-737.054	-44.111	-0.312	0.158
-736.039	-173.769	-0.335	-0.010
-735.025	86.623	0.178	0.198
-734.010	800.000	-0.053	-0.162
-732.996	193.897	-0.228	-0.348
-731.981	209.131	-0.060	0.094
-730.966	-101.776	-0.217	0.053
-729.952	-75.201	-0.060	-0.022
-728.937	-200.000	0.002	-0.395
-727.923	77.213	-0.108	0.116
-726.908	89.650	-0.032	0.036
-725.894	-13.137	-0.103	-0.067
-724.879	-181.388	-0.053	-0.001
-723.864	-63.048	-0.144	-0.060
-722.850	-153.651	0.203	-0.014
-721.835	800.000	0.048	-0.212
-720.821	-118.082	0.314	-0.057
-719.806	800.000	-0.091	0.272
-718.791	-143.567	0.178	-0.017
-717.777	510.852	0.063	-0.147
-716.762	800.000	0.073	-0.220
-715.748	-106.826	-0.263	0.059
-714.733	-80.299	-0.210	-0.071
-713.718	386.485	-0.079	-0.163
-712.704	-55.277	0.262	-0.119
-711.689	800.000	0.072	0.306
-710.675	-72.893	-0.233	-0.086
-709.660	288.571	0.142	0.260
-708.645	42.296	-0.267	0.245
-707.631	-103.024	-0.201	0.048
-706.616	136.180	-0.221	0.291
-705.602	35.878	-0.124	0.110
-704.587	-93.033	-0.360	0.101
-703.572	159.347	-0.019	-0.027
-702.558	45.836	-0.179	0.167
-701.543	-102.647	-0.050	0.012
-700.529	-98.590	0.203	-0.052
-699.514	-61.854	0.277	-0.117
-698.499	800.000	0.093	0.306
-697.485	294.389	-0.048	0.088
-696.470	-84.702	-0.169	0.054
-695.456	-8.024	-0.236	0.160
-694.441	-22.912	-0.020	-0.012
-693.426	-200.000	0.032	0.274
-692.412	-30.194	-0.091	0.052
-691.397	-51.045	0.258	0.122
-690.383	-200.000	-0.077	-0.405
-689.368	-30.495	-0.208	-0.119
-688.354	57.491	-0.177	0.174
-687.339	-122.583	-0.337	0.055
-686.324	-34.812	0.235	-0.129
-685.310	16.237	0.068	-0.054
-684.295	45.134	0.048	-0.044
-683.281	-200.000	0.013	0.085
-682.266	-200.000	-0.011	0.170
-681.251	466.765	0.073	-0.165
-680.237	94.902	0.137	-0.157
-679.222	-200.000	0.020	0.136
-678.208	-174.098	-0.358	-0.011
-677.193	-200.000	-0.024	-0.157
-676.178	31.394	0.065	-0.056
-675.164	-68.525	0.389	-0.152
-674.149	204.613	0.149	0.232
-673.135	93.520	0.176	-0.200
-672.120	-85.974	0.097	0.030
-671.105	307.380	-0.038	-0.071
-670.091	-6.930	0.169	-0.116
-669.076	134.882	-0.185	0.242
-668.062	541.636	-0.143	-0.342
-667.047	800.000	-0.084	-0.320
-666.032	-142.454	-0.378	0.037
-665.018	-134.960	0.445	0.054
-664.003	-27.549	0.455	0.266
-662.989	328.069	-0.029	-0.057
-661.974	-57.994	0.206	0.090
-660.959	-162.110	0.390	-0.020
-659.945	-102.098	-0.398	-0.096
-658.930	-119.262	0.149	-0.026
-657.916	-20.131	-0.213	-0.132
-656.901	197.094	0.072	0.110
-655.886	-200.000	-0.007	-0.136
-654.872	-200.000	-0.035	0.248
-653.857	800.000	-0.052	0.160
-652.843	-73.980	-0.370	0.135
-651.828	24.211	-0.025	-0.021
-650.814	0.496	-0.214	-0.154
-649.799	-37.003	-0.257	-0.139
-648.784	-192.493	-0.281	-0.003
-647.770	404.784	0.112	0.237
-646.755	115.837	0.041	-0.051
-645.741	-10.815	-0.146	0.097
-644.726	-140.979	0.248	0.026
-643.711	400.653	-0.106	0.223
-642.697	-108.416	-0.198	-0.043
-641.682	800.000	-0.062	0.190
-640.668	-37.536	-0.313	0.168
-639.653	471.635	-0.153	-0.347
-638.638	55.099	0.204	0.198
-637.624	174.704	-0.109	0.159
-636.609	227.683	0.121	-0.199
-635.595	155.238	0.076	0.106
-634.580	-197.175	0.191	0.001
-633.565	-180.093	0.181	0.004
-632.551	-37.552	-0.380	-0.203
-631.536	11.135	-0.254	0.195
-630.522	-6.198	0.083	0.057
-629.507	375.293	0.027	-0.056
-628.492	457.869	0.208	0.465
-627.478	-78.549	-0.170	0.058
-626.463	216.269	-0.026	-0.042
-625.449	104.753	-0.176	-0.208
-624.434	26.962	-0.195	-0.165
-623.419	242.191	-0.151	-0.254
-622.405	-16.411	0.204	0.130
-621.390	-196.420	-0.131	-0.001
-620.376	-61.677	-0.430	-0.181
-619.361	-98.558	-0.403	0.104
-618.346	-33.481	0.485	0.269
-617.332	-104.569	0.234	0.054
-616.317	-79.988	0.106	0.036
-615.303	-200.000	-0.003	-0.124
-614.288	257.915	-0.125	0.217
-613.273	414.266	0.053	-0.112
-612.259	-200.000	-0.109	-0.644
-611.244	-86.635	-0.307	0.094
-610.230	80.083	-0.073	-0.079
-609.215	-200.000	0.004	0.067
-608.201	-85.588	-0.281	0.088
-607.186	-200.000	0.008	0.159
-606.171	353.624	-0.157	0.313
-605.157	140.634	-0.087	-0.116
-604.142	3.642	-0.216	-0.158
-603.128	-200.000	-0.004	0.025
-602.113	771.669	0.094	-0.257
-601.098	-57.371	-0.235	-0.104
-600.084	-27.712	0.152	0.089
-599.069	-86.175	-0.114	-0.035
-598.055	-136.812	-0.515	-0.060
-597.040	-124.805	-0.401	0.062
-596.025	800.000	-0.014	0.040
-595.011	-58.069	0.285	0.125
-593.996	-200.000	-0.002	0.012
-592.982	-117.876	-0.058	-0.010
-591.967	160.867	-0.194	0.272
-590.952	-55.109	0.233	0.105
-589.938	423.507	-0.084	0.182
-588.923	-76.420	-0.283	-0.100
-587.909	219.022	-0.085	-0.136
-586.894	127.940	-0.151	0.193
-585.879	-200.000	-0.006	0.103
-584.865	17.922	-0.104	-0.083
-583.850	-72.203	0.182	-0.068
-582.836	-138.974	0.486	0.053
-581.821	10.306	-0.053	0.040
-580.806	-86.407	0.075	-0.023
-579.792	-40.838	-0.290	0.150
-578.777	128.307	-0.251	0.320
-577.763	81.580	-0.159	-0.173
-576.748	-72.392	0.237	0.088
-575.733	306.725	-0.046	0.086
-574.719	-104.847	0.142	-0.033
-573.704	-200.000	-0.036	-0.215
-572.690	56.836	0.122	0.119
-571.675	207.076	0.120	0.187
-570.661	73.697	-0.103	0.108
-569.646	-115.906	0.276	0.052
-568.631	-48.700	-0.209	-0.101
-567.617	-21.049	-0.106	-0.065
-566.602	256.067	-0.032	0.055
-565.588	60.160	-0.150	-0.148
-564.573	-50.233	0.164	-0.078
-563.558	800.000	0.022	-0.071
-562.544	-36.248	0.184	-0.100
-561.529	800.000	-0.113	0.454
-560.515	-200.000	0.037	-0.246
-559.500	-200.000	-0.010	-0.265
-558.485	-56.763	-0.052	-0.023
-557.471	-87.883	0.072	-0.022
-556.456	149.878	-0.248	-0.337
-555.442	253.831	-0.128	-0.219
-554.427	-200.000	-0.012	-0.248
-553.412	57.764	-0.163	-0.160
-552.398	27.252	-0.069	0.058
-551.383	-154.847	-0.066	0.004
-550.369	66.066	0.277	-0.281
-549.354	-92.112	0.104	-0.029
-548.339	-189.347	0.227	-0.003
-547.325	46.815	0.111	-0.103
-546.310	-11.850	-0.228	-0.150
-545.296	530.658	-0.133	0.314
-544.281	-200.000	0.000	-0.119
-543.266	152.580	-0.098	0.134
-542.252	4.483	0.180	-0.132
-541.237	800.000	-0.028	0.079
-540.223	-22.808	-0.365	-0.221
-539.208	-153.628	-0.140	0.010
-538.193	129.500	-0.163	0.208
-537.179	-193.679	0.240	-0.002
-536.164	15.190	0.099	-0.078
-535.150	55.562	-0.031	0.030
-534.135	-60.250	0.178	-0.076
-533.121	-142.648	-0.092	-0.009
-532.106	-198.482	0.261	-0.001
-531.091	-89.423	-0.391	-0.115
-530.077	-35.080	0.115	0.063
-529.062	-114.895	0.112	0.021
-528.048	217.561	-0.211	-0.337
-527.033	-12.852	0.202	-0.132
-526.018	-43.653	0.284	0.143
-525.004	69.972	0.204	0.211
-523.989	-20.324	-0.137	0.084
-522.975	800.000	-0.176	0.503
-521.960	-15.668	-0.342	-0.218
-520.945	-94.422	0.162	0.044
-519.931	-70.070	-0.219	0.083
-518.916	11.615	-0.230	0.176
-517.902	457.076	0.031	-0.070
-516.887	-65.037	-0.183	-0.074
-515.872	-200.000	0.007	-0.159
-514.858	-165.620	-0.025	0.001
-513.843	87.618	-0.202	0.224
-512.829	143.936	-0.260	0.346
-511.814	183.209	0.074	-0.109
-510.799	142.833	0.069	-0.092
-509.785	-5.176	-0.279	0.192
-508.770	-200.000	-0.022	0.165
-507.756	222.929	-0.109	-0.176
-506.741	101.573	0.201	0.234
-505.726	82.522	-0.012	0.013
-504.712	-200.000	-0.046	-0.255
-503.697	-200.000	0.022	0.111
-502.683	-200.000	-0.038	-0.194
-501.668	-159.149	0.311	0.018
-500.653	11.282	-0.062	0.048
-499.639	-78.636	0.023	-0.008
-498.624	125.466	-0.190	-0.240
-497.610	-200.000	0.016	-0.233
-496.595	48.484	0.169	0.158
-495.581	-200.000	0.024	-0.176
-494.566	656.062	-0.098	0.250
-493.551	-128.155	-0.029	-0.004
-492.537	-200.000	-0.009	0.312
-491.522	-90.718	-0.070	-0.020
-490.508	90.796	-0.080	-0.090
-489.493	125.988	0.226	-0.285
-488.478	690.676	0.037	-0.096
-487.464	-200.000	-0.043	-0.340
-486.449	462.912	0.021	-0.046
-485.435	302.948	-0.265	-0.491
-484.420	-23.890	0.020	-0.012
-483.405	-50.793	0.221	0.104
-482.391	-200.000	0.064	-0.413
-481.376	-96.117	-0.200	-0.053
-480.362	-200.000	0.019	-0.124
-479.347	196.453	0.187	0.285
-478.332	-118.351	0.026	-0.005
-477.318	124.340	-0.181	0.227
-476.303	800.000	0.056	-0.159
-475.289	522.519	0.065	-0.152
-474.274	-200.000	0.044	0.218
-473.259	28.860	-0.118	-0.100
-472.245	376.448	0.065	-0.133
-471.230	-140.080	0.369	0.039
-470.216	-13.088	0.208	0.135
-469.201	-121.576	-0.200	-0.033
-468.186	800.000	-0.061	0.181
-467.172	-109.970	0.130	0.027
-466.157	192.777	-0.245	-0.370
-465.143	77.336	0.014	-0.015
-464.128	12.067	-0.306	0.235
-463.113	-200.000	-0.003	0.056
-462.099	-82.654	-0.049	0.016
-461.084	-68.505	-0.277	-0.107
-460.070	792.157	0.109	-0.300
-459.055	-200.000	0.022	0.099
-458.040	7.714	0.074	-0.056
-457.026	525.428	-0.158	0.371
-456.011	320.188	-0.147	0.279
-454.997	-200.000	-0.014	-0.224
-453.982	-108.692	-0.276	-0.059
-452.968	137.990	0.161	0.211
-451.953	-200.000	-0.029	0.209
-450.938	-140.914	-0.352	-0.036
-449.924	149.616	-0.079	-0.106
-448.909	-25.438	0.126	-0.075
-447.895	-73.533	-0.308	-0.112
-446.880	-136.821	0.349	-0.040
-445.865	-200.000	0.030	0.252
-444.851	255.347	-0.083	-0.142
-443.836	63.108	-0.108	0.108
-442.822	515.491	0.067	-0.155
-441.807	-200.000	-0.016	0.160
-440.792	192.090	-0.086	-0.129
-439.778	800.000	-0.038	0.144
-438.763	87.727	-0.188	0.208
-437.749	-35.543	0.215	0.116
-436.734	-200.000	0.026	-0.169
-435.719	-138.288	0.287	0.032
-434.705	-57.625	0.099	-0.043
-433.690	390.855	0.130	-0.269
-432.676	133.143	0.202	0.260
-431.661	800.000	-0.030	-0.096
-430.646	-61.532	-0.104	-0.044
-429.632	-200.000	0.018	0.376
-428.617	-93.342	0.219	-0.061
-427.603	531.882	0.041	0.097
-426.588	-54.683	-0.226	0.102
-425.573	-50.310	-0.181	0.085
-424.559	294.238	0.066	0.120
-423.544	800.000	-0.069	-0.231
-422.530	156.331	-0.125	0.172
-421.515	283.699	-0.059	0.106
-420.500	166.862	0.096	-0.136
-419.486	-47.400	0.088	-0.042
-418.471	138.369	-0.079	0.104
-417.457	109.274	0.311	0.371
-416.442	-114.001	0.241	-0.047
-415.428	-27.714	0.131	0.076
-414.413	-48.374	-0.239	-0.115
-413.398	-101.111	-0.129	0.032
-412.384	-200.000	0.064	0.372
-411.369	-188.153	0.260	0.003
-410.355	719.474	-0.064	-0.169
-409.340	66.768	-0.038	0.039
-408.325	-46.520	0.233	0.114
-407.311	-200.000	-0.042	-0.195
-406.296	-200.000	-0.007	-0.040
-405.282	1.897	-0.144	-0.103
-404.267	166.998	-0.168	-0.237
-403.252	-64.854	0.375	0.151
-402.238	-88.876	-0.159	0.047
-401.223	119.622	0.105	-0.130
-400.209	451.807	-0.043	-0.094
-399.194	16.448	0.089	0.070
-398.179	25.581	-0.075	-0.063
-397.165	-171.419	-0.124	-0.004
-396.150	-200.000	0.036	-0.332
-395.136	60.988	-0.195	0.192
-394.121	-81.458	-0.115	-0.038
-393.106	800.000	-0.090	0.320
-392.092	-98.563	0.359	0.091
-391.077	-200.000	0.108	-0.525
-390.063	800.000	-0.046	-0.153
-389.048	-200.000	0.061	0.335
-388.033	708.919	0.159	0.418
-387.019	-191.399	-0.107	0.001
-386.004	-148.687	0.048	0.004
-384.990	-200.000	-0.027	-0.137
-383.975	183.109	0.230	0.339
-382.960	-92.867	-0.282	0.078
-381.946	-47.457	0.180	-0.087
-380.931	39.189	0.210	-0.187
-379.917	800.000	0.069	0.201
-378.902	81.210	-0.228	-0.245
-377.888	800.000	0.101	-0.296
-376.873	-78.606	-0.213	-0.072
-375.858	18.327	-0.267	-0.213
-374.844	-200.000	0.043	0.210
-373.829	-47.658	-0.202	-0.098
-372.815	9.547	0.062	-0.047
-371.800	-16.128	-0.221	-0.139
-370.785	-177.716	0.338	-0.008
-369.771	271.866	0.152	0.266
-368.756	-92.505	-0.238	0.067
-367.742	-119.779	0.426	-0.073
-366.727	800.000	0.113	0.329
-365.712	-200.000	-0.030	-0.474
-364.698	-200.000	0.008	0.063
-363.683	800.000	0.067	0.207
-362.669	-161.099	-0.088	-0.005
-361.654	-88.322	0.056	-0.017
-360.639	291.104	0.154	0.278
-359.625	-47.913	0.100	0.048
-358.610	354.703	0.112	0.221
-357.596	28.060	-0.192	-0.161
-356.581	-113.439	0.205	0.040
-355.566	-91.205	0.211	-0.060
-354.552	-123.290	-0.201	0.032
-353.537	-55.999	0.293	0.130
-352.523	-24.134	0.217	0.129
-351.508	-19.608	-0.153	0.094
-350.493	-16.727	-0.070	-0.044
-349.479	128.212	0.206	0.261
-348.464	308.965	0.023	0.043
-347.450	538.686	-0.066	-0.157
-346.435	-200.000	-0.007	-0.214
-345.420	-200.000	0.068	0.557
-344.406	154.521	0.274	0.374
-343.391	-22.124	0.176	-0.106
-342.377	72.496	0.030	-0.031
-341.362	-200.000	0.002	-0.029
-340.348	-168.557	0.540	-0.020
-339.333	-7.911	-0.236	-0.158
-338.318	0.082	0.144	-0.102
-337.304	-100.890	-0.424	-0.104
-336.289	89.345	-0.155	-0.172
-335.275	472.807	0.093	0.209
-334.260	-200.000	-0.008	-0.113
-333.245	-10.202	-0.027	-0.018
-332.231	-5.148	0.245	-0.168
-331.216	223.017	-0.071	-0.114
-330.202	55.962	-0.161	0.155
-329.187	-76.498	0.076	-0.026
-328.172	346.497	0.010	-0.019
-327.158	-200.000	0.017	-0.202
-326.143	-200.000	-0.005	0.150
-325.129	84.417	0.119	0.129
-324.114	21.820	-0.157	-0.127
-323.099	-65.697	0.244	0.097
-322.085	-63.955	-0.317	0.129
-321.070	-173.540	0.278	0.008
-320.056	77.647	-0.056	0.059
-319.041	-161.155	0.040	0.002
-318.026	-81.135	0.249	0.082
-317.012	6.887	-0.237	0.175
-315.997	28.730	0.134	0.113
-314.983	-200.000	0.081	0.426
-313.968	-169.746	0.045	-0.002
-312.953	238.873	0.262	-0.433
-311.939	150.272	-0.241	-0.324
-310.924	-200.000	0.014	0.147
-309.910	-200.000	-0.002	-0.168
-308.895	131.319	0.025	-0.032
-307.880	-122.442	-0.201	0.032
-306.866	21.234	-0.294	0.237
-305.851	28.266	0.269	0.225
-304.837	-200.000	-0.019	-0.180
-303.822	-28.726	-0.138	-0.079
-302.807	295.546	0.049	-0.089
-301.793	61.405	-0.097	-0.096
-300.778	-139.480	-0.301	0.032
-299.764	134.462	0.187	0.240
-298.749	-5.539	-0.139	-0.095
-297.735	-99.040	0.275	0.069
-296.720	800.000	0.082	-0.290
-295.705	34.539	0.099	-0.085
-294.691	144.493	-0.251	0.333
-293.676	53.302	0.338	-0.321
-292.662	-127.912	-0.297	-0.042
-291.647	-109.095	-0.211	0.044
-290.632	-200.000	0.018	-0.159
-289.618	-53.048	0.313	-0.143
-288.603	1.796	-0.199	0.143
-287.589	-200.000	0.045	0.265
-286.574	-33.245	0.137	0.075
-285.559	170.529	0.261	-0.370
-284.545	521.730	-0.086	0.200
-283.530	623.893	0.119	-0.297
-282.516	800.000	-0.062	0.215
-281.501	160.138	0.060	0.083
-280.486	-200.000	0.003	0.209
-279.472	-48.055	-0.107	-0.051
-278.457	-200.000	0.020	0.217
-277.443	135.520	0.165	-0.213
-276.428	-200.000	0.005	0.214
-275.413	-23.389	0.170	-0.101
-274.399	-129.201	0.102	0.014
-273.384	-200.000	-0.039	-0.298
-272.370	-42.730	-0.203	-0.102
-271.355	38.210	0.176	-0.155
-270.340	800.000	0.033	0.091
-269.326	-200.000	-0.035	-0.266
-268.311	185.931	0.269	0.396
-267.297	-83.146	-0.190	0.060
-266.282	-61.815	0.106	0.044
-265.267	11.175	-0.335	0.254
-264.253	800.000	-0.026	0.096
-263.238	-45.186	0.201	-0.099
-262.224	-20.861	0.168	-0.102
-261.209	302.349	0.023	0.041
-260.195	56.402	-0.284	-0.274
-259.180	95.217	-0.265	-0.299
-258.165	800.000	0.103	0.415
-257.151	-152.671	-0.219	0.015
-256.136	-3.300	-0.195	-0.135
-255.122	-53.755	0.164	-0.074
-254.107	-23.406	-0.189	-0.113
-253.092	-35.045	0.207	-0.112
-252.078	353.942	0.094	0.185
-251.063	50.166	-0.224	-0.209
-250.049	-200.000	-0.023	0.142
-249.034	-126.219	-0.044	0.007
-248.019	800.000	-0.125	-0.405
-247.005	-30.285	0.184	-0.103
-245.990	97.427	0.142	-0.161
-244.976	104.579	-0.085	-0.099
-243.961	62.155	-0.344	-0.340
-242.946	14.672	-0.326	0.252
-241.932	38.064	-0.191	0.169
-240.917	-99.593	0.115	-0.028
-239.903	412.893	0.061	0.129
-238.888	-102.229	-0.305	-0.072
-237.873	-25.625	-0.297	0.174
-236.859	-42.134	-0.143	0.072
-235.844	184.323	-0.108	-0.158
-234.830	551.001	0.073	0.174
-233.815	-48.354	0.318	0.152
-232.800	135.458	-0.210	0.271
-231.786	800.000	-0.026	-0.085
-230.771	568.015	0.110	0.265
-229.757	231.545	0.253	0.411
-228.742	29.804	0.193	-0.163
-227.727	665.741	-0.070	0.179
-226.713	-200.000	-0.017	-0.174
-225.698	150.148	-0.056	0.076
-224.684	-200.000	-0.020	-0.255
-223.669	319.484	0.049	0.093
-222.655	-12.190	-0.134	0.087
-221.640	-162.490	0.285	-0.014
-220.625	318.492	-0.150	0.281
-219.611	-72.408	0.128	-0.047
-218.596	-188.107	-0.478	-0.006
-217.582	-27.920	0.102	0.058
-216.567	96.960	-0.181	-0.205
-215.552	268.812	-0.070	0.122
-214.538	88.197	0.156	-0.171
-213.523	800.000	-0.038	-0.130
-212.509	-85.699	0.266	0.082
-211.494	21.900	-0.236	-0.191
-210.479	-2.699	-0.106	0.073
-209.465	-72.580	-0.401	-0.146
-208.450	-133.183	0.611	0.076
-207.436	-107.664	0.190	-0.041
-206.421	-200.000	0.037	-0.442
-205.406	53.595	0.090	-0.085
-204.392	-200.000	-0.025	-0.118
-203.377	-48.779	0.191	-0.091
-202.363	-115.291	0.183	-0.034
-201.348	525.593	0.172	-0.401
-200.333	249.334	-0.129	-0.216
-199.319	61.285	-0.008	-0.008
-198.304	-54.542	0.419	-0.187
-197.290	-200.000	0.004	0.154
-196.275	-36.769	0.406	0.215
-195.260	187.103	0.047	-0.069
-194.246	165.347	-0.049	0.068
-193.231	-200.000	0.446	-0.000
-192.217	-133.025	0.370	-0.046
-191.202	157.981	0.048	0.065
-190.187	-200.000	-0.246	0.000
-189.173	-101.579	0.246	-0.059
-188.158	800.000	-0.044	-0.134
-187.144	-58.612	0.096	-0.041
-186.129	-108.589	-0.147	-0.031
-185.114	184.441	0.283	0.414
-184.100	265.341	0.104	-0.179
-183.085	-183.132	0.179	-0.003
-182.071	-131.201	0.363	-0.048
-181.056	-200.000	0.003	0.166
-180.042	-200.000	0.032	-0.275
-179.027	800.000	0.048	-0.138
-178.012	-200.000	0.015	0.245
-176.998	-200.000	0.001	-0.191
-175.983	216.196	0.124	0.194
-174.969	-141.764	0.345	0.034
-173.954	321.320	-0.083	-0.156
-172.939	731.415	-0.076	-0.200
-171.925	-92.067	-0.124	-0.035
-170.910	-200.000	0.037	0.215
-169.896	-91.065	0.215	0.061
-168.881	96.993	-0.095	-0.107
-167.866	155.135	0.212	-0.287
-166.852	-200.000	0.004	0.177
-165.837	-126.772	-0.160	0.023
-164.823	-51.838	-0.254	-0.117
-163.808	800.000	-0.051	-0.217
-162.793	13.049	-0.164	-0.125
-161.779	43.285	0.163	0.146
-160.764	36.728	0.424	-0.370
-159.750	285.617	-0.060	0.106
-158.735	125.640	0.261	0.325
-157.720	9.901	-0.096	-0.072
-156.706	121.913	0.320	0.394
-155.691	-200.000	-0.053	0.316
-154.677	788.024	-0.085	0.231
-153.662	209.977	-0.023	-0.035
-152.647	162.353	0.045	-0.062
-151.633	-64.286	0.265	-0.106
-150.618	800.000	-0.055	-0.205
-149.604	327.547	-0.056	-0.105
-148.589	225.648	-0.099	-0.158
-147.574	194.603	0.119	0.178
-146.560	-16.932	0.378	0.235
-145.545	800.000	0.016	0.054
-144.531	800.000	-0.048	0.188
-143.516	800.000	0.153	0.417
-142.502	-143.060	0.270	-0.026
-141.487	342.221	0.184	-0.354
-140.472	-17.610	0.457	-0.283
-139.458	-106.121	-0.240	-0.053
-138.443	-135.341	-0.145	0.017
-137.429	-113.524	0.242	-0.047
-136.414	120.197	-0.036	0.044
-135.399	494.227	0.080	0.180
-134.385	354.528	-0.087	-0.170
-133.370	215.181	0.027	0.043
-132.356	-106.315	-0.213	-0.047
-131.341	-200.000	0.021	-0.134
-130.326	175.068	0.010	0.015
-129.312	-200.000	-0.014	-0.219
-128.297	-110.403	0.353	0.072
-127.283	800.000	0.074	0.256
-126.268	3.997	-0.204	-0.147
-125.253	-200.000	0.057	-0.270
-124.239	-185.883	-0.041	-0.001
-123.224	95.067	0.137	-0.154
-122.210	589.321	0.094	-0.227
