DTS Sentinel unit serial number:	SN413079Multiplexer serial number:	ORYXHardware model number:	OX4-SRSoftware version number:	ORYX F/W v4.00 Oryx Data Collector v3.7.2.0data status	okinstallation	princeton_trtdifferential loss correction	single-endedforward channel	channel 1reverse channel	N/Adate	2019/09/11time	00:48:11forward acquisition time	60.00reverse acquisition time	0.00gamma	496.2192k internal	0.2331k external	0.2331temperature offset calibration	0.9929default loss term (dB/km)	0.3790temperature slope calibration	1.0000multiplexer offset coefficient	1.0000multiplexer slope coefficient	1.0000fibre end	0.00T internal ref (°C)	29.17T ext. ref 1 (°C)	-0.32T ext. ref 2 (°C)	22.88length (m)	temperature (°C)	Stokes	anti-Stokes-747.200	91.620	-0.159	-0.180
-746.185	-43.819	-0.307	0.156
-745.171	800.000	-0.038	0.118
-744.156	-45.868	-0.429	0.213
-743.142	61.236	0.233	-0.233
-742.127	-3.188	-0.124	-0.087
-741.112	15.702	-0.221	0.175
-740.098	-200.000	0.029	0.196
-739.083	-132.750	0.086	0.011
-738.069	-153.245	0.069	-0.005
-737.054	28.864	0.126	0.108
-736.039	-200.000	-0.013	0.067
-735.025	132.675	-0.225	-0.292
-734.010	800.000	-0.162	-0.450
-732.996	-168.537	-0.176	-0.007
-731.981	74.630	-0.208	-0.220
-730.966	214.839	-0.122	0.194
-729.952	-62.511	0.010	0.004
-728.937	591.667	-0.131	-0.325
-727.923	-200.000	0.053	0.325
-726.908	513.039	0.057	-0.134
-725.894	68.073	-0.139	0.143
-724.879	129.470	0.096	0.124
-723.864	-61.136	-0.269	0.114
-722.850	540.408	-0.072	-0.172
-721.835	230.320	0.153	0.252
-720.821	-14.968	0.138	-0.089
-719.806	686.040	-0.073	0.191
-718.791	-135.422	-0.118	-0.014
-717.777	316.945	-0.176	-0.334
-716.762	-52.296	-0.214	-0.100
-715.748	371.847	-0.082	-0.167
-714.733	793.907	-0.113	-0.313
-713.718	284.700	0.056	0.100
-712.704	28.740	-0.189	-0.161
-711.689	-116.643	-0.295	0.054
-710.675	89.849	0.093	0.104
-709.660	19.708	0.119	-0.096
-708.645	-80.806	-0.352	0.118
-707.631	678.041	-0.102	-0.267
-706.616	84.406	0.167	-0.184
-705.602	-200.000	-0.067	-0.333
-704.587	-200.000	0.003	-0.022
-703.572	-112.856	-0.335	0.067
-702.558	81.559	-0.189	-0.206
-701.543	-140.025	0.482	-0.051
-700.529	293.686	-0.110	0.201
-699.514	32.233	0.275	-0.239
-698.499	-200.000	-0.007	0.083
-697.485	39.007	-0.130	0.117
-696.470	-69.922	-0.239	-0.091
-695.456	378.227	0.157	-0.322
-694.441	30.584	0.047	0.040
-693.426	136.759	0.187	0.245
-692.412	321.495	0.186	0.355
-691.397	-79.155	0.207	-0.071
-690.383	407.725	0.131	0.278
-689.368	800.000	-0.052	0.160
-688.354	-34.080	-0.188	-0.104
-687.339	-200.000	-0.036	0.194
-686.324	556.047	0.142	0.344
-685.310	315.304	-0.102	-0.193
-684.295	800.000	0.059	0.219
-683.281	-123.592	0.117	0.019
-682.266	-85.029	-0.191	0.060
-681.251	10.291	-0.092	0.070
-680.237	-44.973	-0.347	-0.173
-679.222	9.289	0.263	0.200
-678.208	800.000	-0.041	0.144
-677.193	-109.412	-0.259	0.055
-676.178	103.023	0.095	-0.112
-675.164	132.576	0.051	-0.066
-674.149	264.558	0.241	-0.420
-673.135	-118.294	0.318	0.057
-672.120	112.794	0.152	0.185
-671.105	-46.969	-0.102	0.050
-670.091	21.457	0.187	-0.152
-669.076	-200.000	0.023	-0.165
-668.062	-56.208	-0.283	-0.127
-667.047	-45.838	0.347	-0.172
-666.032	9.933	0.120	0.092
-665.018	131.473	-0.173	-0.223
-664.003	28.477	0.177	-0.151
-662.989	126.015	-0.075	0.096
-661.974	-69.421	-0.207	-0.079
-660.959	239.599	-0.127	-0.211
-659.945	730.398	0.023	-0.060
-658.930	-21.556	-0.390	-0.239
-657.916	-5.078	-0.165	0.114
-656.901	-141.667	-0.357	-0.036
-655.886	-82.312	-0.277	0.090
-654.872	101.792	0.287	-0.336
-653.857	220.705	-0.137	0.221
-652.843	-200.000	0.001	-0.029
-651.828	33.341	0.047	-0.041
-650.814	-123.088	-0.157	-0.025
-649.799	800.000	0.141	0.451
-648.784	36.875	-0.222	-0.197
-647.770	-200.000	-0.018	-0.420
-646.755	91.842	-0.157	-0.177
-645.741	800.000	-0.061	0.168
-644.726	225.764	0.160	-0.260
-643.711	-184.955	0.417	0.007
-642.697	75.470	-0.026	0.028
-641.682	-84.938	-0.028	0.009
-640.668	77.495	0.224	-0.239
-639.653	32.799	0.299	0.260
-638.638	-200.000	0.021	0.178
-637.624	-200.000	0.012	0.069
-636.609	-200.000	-0.027	-0.367
-635.595	-75.144	0.071	-0.025
-634.580	800.000	-0.021	-0.074
-633.565	-200.000	-0.004	-0.062
-632.551	230.260	-0.161	0.264
-631.536	322.464	-0.056	0.106
-630.522	144.876	0.205	-0.274
-629.507	92.438	-0.155	-0.175
-628.492	101.254	0.239	-0.279
-627.478	-200.000	0.000	0.169
-626.463	241.675	0.146	-0.245
-625.449	-111.156	-0.437	0.090
-624.434	31.268	0.217	-0.187
-623.419	46.056	-0.109	-0.101
-622.405	229.699	0.064	0.104
-621.390	233.297	-0.168	0.277
-620.376	14.680	-0.188	-0.147
-619.361	-200.000	-0.007	0.113
-618.346	13.083	0.148	0.115
-617.332	254.259	-0.160	-0.274
-616.317	-31.487	0.282	-0.158
-615.303	-162.288	-0.049	-0.002
-614.288	-84.061	-0.224	0.071
-613.273	155.839	-0.174	-0.240
-612.259	342.270	0.052	-0.102
-611.244	800.000	-0.074	0.233
-610.230	-45.160	-0.150	-0.075
-609.215	800.000	-0.038	0.145
-608.201	-123.322	-0.084	-0.013
-607.186	-38.407	0.173	-0.091
-606.171	-127.628	-0.316	-0.046
-605.157	69.479	0.129	0.133
-604.142	-165.391	-0.189	-0.008
-603.128	10.431	0.085	0.065
-602.113	800.000	-0.107	-0.420
-601.098	-54.321	-0.166	-0.075
-600.084	7.589	-0.100	-0.075
-599.069	-56.984	-0.430	0.190
-598.055	-14.456	-0.133	0.086
-597.040	28.072	-0.152	-0.128
-596.025	340.606	0.086	0.169
-595.011	357.325	0.081	-0.161
-593.996	476.946	-0.063	0.142
-592.982	-200.000	0.010	-0.125
-591.967	-12.314	-0.184	0.121
-590.952	-29.756	0.021	0.012
-589.938	-76.745	-0.493	0.173
-588.923	800.000	0.122	0.424
-587.909	-200.000	0.000	0.168
-586.894	167.274	0.138	0.196
-585.879	110.165	-0.110	0.132
-584.865	113.674	0.226	-0.275
-583.850	267.472	-0.039	0.069
-582.836	-200.000	0.060	-0.288
-581.821	-200.000	-0.034	-0.276
-580.806	-82.013	-0.181	0.059
-579.792	105.974	-0.058	0.068
-578.777	-164.920	0.031	0.001
-577.763	464.753	0.017	-0.037
-576.748	256.668	-0.031	0.053
-575.733	-30.805	0.251	0.142
-574.719	800.000	-0.122	0.391
-573.704	-11.203	0.275	-0.181
-572.690	-98.727	-0.168	0.043
-571.675	-42.662	-0.132	0.067
-570.661	24.160	-0.045	-0.037
-569.646	-200.000	-0.027	-0.189
-568.631	18.781	0.314	-0.251
-567.617	137.373	0.063	-0.082
-566.602	-82.828	0.315	0.102
-565.588	110.717	0.136	-0.164
-564.573	-83.979	-0.113	0.036
-563.558	-41.877	0.234	-0.120
-562.544	-20.534	0.018	0.011
-561.529	-53.485	-0.075	-0.034
-560.515	6.085	-0.096	0.071
-559.500	-14.938	0.315	-0.202
-558.485	-200.000	0.013	-0.167
-557.471	-65.117	-0.480	0.193
-556.456	227.567	0.141	-0.229
-555.442	283.268	0.162	0.291
-554.427	301.510	-0.038	-0.070
-553.412	-42.059	0.084	-0.043
-552.398	-74.915	0.211	0.075
-551.383	-3.589	0.028	0.020
-550.369	596.546	0.142	-0.351
-549.354	800.000	-0.030	0.110
-548.339	-200.000	0.046	-0.283
-547.325	669.579	-0.242	-0.625
-546.310	102.356	-0.298	-0.348
-545.296	800.000	-0.121	-0.410
-544.281	462.306	0.143	-0.318
-543.266	60.093	-0.224	-0.221
-542.252	-126.276	0.147	-0.022
-541.237	-200.000	0.069	-0.362
-540.223	129.306	-0.125	-0.159
-539.208	-52.589	0.313	0.144
-538.193	-200.000	-0.080	-0.461
-537.179	-18.202	-0.368	-0.230
-536.164	-40.562	0.265	0.137
-535.150	-76.625	0.133	0.046
-534.135	178.249	0.038	-0.055
-533.121	651.178	0.017	0.044
-532.106	403.477	-0.076	0.160
-531.091	38.604	-0.345	0.307
-530.077	-200.000	-0.006	0.137
-529.062	112.976	0.067	-0.081
-528.048	-90.035	0.285	0.083
-527.033	129.998	-0.373	-0.476
-526.018	-46.216	0.082	0.040
-525.004	300.042	-0.062	-0.113
-523.989	132.376	-0.172	-0.221
-522.975	216.985	0.081	-0.128
-521.960	-19.563	0.135	0.083
-520.945	-26.335	0.126	0.074
-519.931	229.565	0.190	-0.310
-518.916	293.163	0.007	-0.013
-517.902	-200.000	0.006	-0.335
-516.887	105.007	-0.098	0.115
-515.872	467.606	0.017	-0.039
-514.858	-182.772	-0.238	-0.004
-513.843	-53.073	-0.200	0.091
-512.829	20.314	-0.233	0.188
-511.814	-200.000	-0.022	0.115
-510.799	140.994	-0.347	-0.458
-509.785	-117.878	0.166	0.030
-508.770	198.800	0.094	0.143
-507.756	314.804	0.119	0.224
-506.741	19.558	0.061	-0.049
-505.726	553.565	0.191	-0.458
-504.712	346.825	-0.119	-0.234
-503.697	70.041	-0.292	-0.300
-502.683	106.910	0.112	0.133
-501.668	117.234	0.230	-0.282
-500.653	-200.000	0.024	0.389
-499.639	170.974	-0.089	0.128
-498.624	230.412	-0.048	-0.078
-497.610	-44.321	-0.221	0.110
-496.595	-180.048	-0.176	0.004
-495.581	-58.875	-0.098	-0.042
-494.566	800.000	0.080	0.275
-493.551	349.520	-0.159	-0.312
-492.537	-154.816	0.058	-0.004
-491.522	512.448	0.020	-0.045
-490.508	794.397	-0.113	0.309
-489.493	41.895	-0.318	0.287
-488.478	279.257	0.149	0.265
-487.464	6.847	-0.182	0.135
-486.449	-68.005	0.259	-0.101
-485.435	800.000	-0.015	0.053
-484.420	380.225	-0.061	-0.124
-483.405	343.855	-0.055	-0.107
-482.391	136.519	-0.076	0.099
-481.376	-200.000	0.044	-0.204
-480.362	147.588	0.123	-0.165
-479.347	419.217	0.167	-0.356
-478.332	339.176	0.140	0.272
-477.318	-145.380	-0.312	-0.028
-476.303	42.577	-0.060	-0.054
-475.289	39.571	-0.168	0.150
-474.274	208.083	0.092	-0.143
-473.259	-10.538	-0.212	-0.140
-472.245	14.744	0.224	-0.174
-471.230	-75.927	0.131	-0.046
-470.216	326.176	-0.127	-0.243
-469.201	145.792	-0.077	0.103
-468.186	-9.920	0.249	-0.165
-467.172	11.318	-0.086	-0.065
-466.157	-80.469	-0.398	0.132
-465.143	-71.978	0.221	-0.082
-464.128	-54.151	-0.298	-0.135
-463.113	800.000	-0.137	0.416
-462.099	-89.779	0.023	0.007
-461.084	-137.793	0.219	-0.024
-460.070	-108.737	-0.238	-0.051
-459.055	-200.000	0.017	0.139
-458.040	800.000	-0.177	0.510
-457.026	-59.329	-0.312	-0.133
-456.011	-104.008	0.024	0.006
-454.997	84.064	-0.146	-0.159
-453.982	-98.841	-0.256	0.065
-452.968	-124.002	0.251	0.039
-451.953	-200.000	0.027	0.126
-450.938	57.082	-0.255	0.247
-449.924	-8.076	0.201	-0.135
-448.909	658.015	0.100	-0.255
-447.895	-148.583	0.250	-0.020
-446.880	-21.190	-0.269	0.164
-445.865	117.358	0.126	-0.154
-444.851	-200.000	-0.040	-0.239
-443.836	61.673	0.196	-0.194
-442.822	-200.000	0.001	0.110
-441.807	-36.967	-0.169	0.090
-440.792	577.630	-0.190	0.461
-439.778	0.561	-0.250	-0.178
-438.763	98.473	0.108	0.124
-437.749	-78.520	-0.347	-0.118
-436.734	-38.015	0.191	-0.101
-435.719	-139.999	0.170	0.018
-434.705	535.252	-0.113	0.266
-433.690	-200.000	0.022	-0.124
-432.676	325.712	-0.066	0.125
-431.661	161.438	0.211	-0.294
-430.646	40.259	-0.044	-0.039
-429.632	-42.663	-0.140	-0.071
-428.617	-143.920	0.354	0.033
-427.603	-107.284	0.533	-0.116
-426.588	-140.101	0.337	0.035
-425.573	-200.000	-0.030	0.209
-424.559	-118.724	0.099	0.017
-423.544	-171.277	-0.177	-0.006
-422.530	-56.262	0.325	-0.144
-421.515	800.000	-0.054	-0.194
-420.500	19.636	-0.068	-0.054
-419.486	-123.564	0.105	0.017
-418.471	385.824	0.090	0.184
-417.457	-86.322	0.155	-0.047
-416.442	165.013	0.127	-0.179
-415.428	-54.896	-0.365	0.164
-414.413	154.700	-0.036	0.049
-413.398	-169.603	0.222	0.008
-412.384	77.422	0.213	0.225
-411.369	-68.994	0.148	0.057
-410.355	-200.000	0.053	0.343
-409.340	14.432	-0.175	0.136
-408.325	-101.473	-0.260	-0.063
-407.311	800.000	0.036	-0.108
-406.296	-71.794	-0.402	-0.149
-405.282	-126.771	0.057	-0.008
-404.267	-92.603	-0.245	0.068
-403.252	123.374	0.033	0.041
-402.238	-200.000	-0.009	0.276
-401.223	-75.997	0.180	-0.063
-400.209	271.230	-0.131	0.229
-399.194	327.626	0.198	0.377
-398.179	800.000	-0.056	-0.176
-397.165	-126.200	-0.332	-0.049
-396.150	800.000	0.043	0.140
-395.136	35.866	-0.271	0.236
-394.121	-200.000	0.038	0.191
-393.106	-59.487	-0.141	0.060
-392.092	-95.770	0.064	0.017
-391.077	53.889	0.094	-0.089
-390.063	-68.082	-0.248	0.096
-389.048	480.466	0.058	0.131
-388.033	586.091	-0.050	0.121
-387.019	-69.239	0.118	0.045
-386.004	-134.663	-0.204	0.025
-384.990	-151.412	0.209	-0.015
-383.975	113.835	-0.281	-0.339
-382.960	-154.512	-0.179	-0.012
-381.946	186.393	0.206	0.304
-380.931	650.005	0.072	0.182
-379.917	91.822	0.094	-0.105
-378.902	-110.903	0.383	0.078
-377.888	-97.949	0.345	0.088
-376.873	-153.736	-0.218	0.015
-375.858	-200.000	-0.005	-0.035
-374.844	174.968	-0.099	0.142
-373.829	0.619	0.158	-0.112
-372.815	43.504	-0.095	-0.086
-371.800	297.007	0.152	0.277
-370.785	-88.828	-0.152	-0.045
-369.771	214.553	-0.292	0.458
-368.756	-25.862	0.325	-0.190
-367.742	-200.000	-0.069	-0.463
-366.727	800.000	0.113	0.312
-365.712	89.873	0.117	-0.129
-364.698	-95.950	-0.167	0.044
-363.683	468.303	-0.110	0.245
-362.669	-104.278	0.263	-0.060
-361.654	-129.595	0.268	-0.037
-360.639	218.492	-0.085	-0.135
-359.625	-140.339	0.284	-0.029
-358.610	-200.000	-0.033	-0.149
-357.596	800.000	0.041	0.122
-356.581	-107.248	0.234	0.051
-355.566	800.000	0.043	0.170
-354.552	800.000	-0.036	-0.130
-353.537	-85.200	0.382	0.118
-352.523	64.179	-0.205	0.205
-351.508	-85.186	0.252	-0.078
-350.493	674.139	0.096	0.246
-349.479	-101.908	0.095	-0.023
-348.464	104.860	-0.208	0.244
-347.450	-200.000	-0.016	0.070
-346.435	234.276	-0.163	-0.266
-345.420	-83.005	0.079	-0.025
-344.406	55.950	-0.132	0.127
-343.391	-97.427	-0.174	-0.045
-342.377	-200.000	-0.038	-0.165
-341.362	-54.327	-0.197	0.088
-340.348	8.262	0.115	-0.086
-339.333	-145.112	0.375	0.034
-338.318	-50.351	-0.177	0.083
-337.304	163.789	0.178	-0.248
-336.289	47.346	-0.147	0.136
-335.275	-172.276	-0.152	-0.005
-334.260	7.690	-0.153	-0.114
-333.245	-36.841	0.132	0.070
-332.231	-141.440	0.429	0.043
-331.216	-125.456	-0.239	-0.036
-330.202	-76.741	-0.211	0.073
-329.187	406.512	0.093	0.194
-328.172	-181.779	-0.188	0.004
-327.158	-51.138	-0.181	-0.084
-326.143	-25.060	0.280	0.164
-325.129	-99.258	-0.187	0.047
-324.114	-47.146	-0.180	-0.087
-323.099	318.808	0.077	-0.144
-322.085	44.762	-0.262	-0.238
-321.070	-90.309	0.206	-0.059
-320.056	-70.858	0.432	-0.161
-319.041	-53.493	0.300	0.136
-318.026	-189.794	0.357	0.004
-317.012	-8.511	0.378	-0.251
-315.997	-113.130	0.230	-0.045
-314.983	-200.000	0.002	0.109
-313.968	-101.356	0.188	0.045
-312.953	119.555	0.148	0.181
-311.939	174.761	-0.350	0.502
-310.924	-200.000	-0.042	0.191
-309.910	-115.423	0.357	-0.067
-308.895	36.467	-0.139	-0.122
-307.880	-58.242	-0.304	0.131
-306.866	-200.000	0.012	0.086
-305.851	424.051	0.163	0.347
-304.837	533.463	0.043	0.101
-303.822	298.084	0.221	-0.403
-302.807	63.209	-0.108	-0.107
-301.793	-200.000	0.002	0.252
-300.778	93.297	-0.022	-0.025
-299.764	69.912	-0.216	-0.220
-298.749	297.971	-0.097	0.176
-297.735	-110.481	0.235	-0.048
-296.720	-82.950	-0.043	-0.014
-295.705	126.236	-0.080	0.100
-294.691	84.096	-0.160	0.173
-293.676	-48.672	-0.192	0.091
-292.662	-59.363	0.061	-0.026
-291.647	-76.836	0.121	-0.042
-290.632	179.888	0.048	-0.069
-289.618	800.000	-0.044	0.149
-288.603	92.738	0.141	0.158
-287.589	-85.827	-0.412	-0.126
-286.574	-15.110	-0.058	0.037
-285.559	-83.996	-0.190	0.060
-284.545	-68.090	0.247	0.095
-283.530	35.816	0.208	-0.180
-282.516	130.592	-0.124	-0.157
-281.501	-84.623	-0.243	0.076
-280.486	22.695	-0.271	0.219
-279.472	-200.000	0.495	-0.001
-278.457	-33.145	-0.146	-0.080
-277.443	-139.405	-0.168	-0.018
-276.428	244.724	0.201	-0.334
-275.413	-200.000	0.021	-0.096
-274.399	-96.404	0.210	0.055
-273.384	195.737	0.050	0.076
-272.370	-45.564	-0.252	-0.123
-271.355	-67.788	-0.299	0.116
-270.340	402.610	0.155	0.323
-269.326	194.782	0.088	0.132
-268.311	800.000	-0.037	-0.138
-267.297	-200.000	0.011	-0.538
-266.282	348.856	0.092	0.178
-265.267	111.404	0.070	0.083
-264.253	212.511	0.089	-0.138
-263.238	-50.914	0.422	0.196
-262.224	63.620	0.096	0.095
-261.209	84.412	0.067	0.072
-260.195	800.000	-0.029	0.102
-259.180	160.480	0.127	-0.175
-258.165	-200.000	0.007	0.133
-257.151	60.681	0.030	-0.029
-256.136	-8.984	-0.145	-0.096
-255.122	-22.321	0.171	0.103
-254.107	13.622	-0.249	-0.191
-253.092	-200.000	0.034	-0.162
-252.078	303.026	0.318	-0.581
-251.063	-200.000	0.027	0.177
-250.049	-63.472	0.175	0.071
-249.034	165.473	0.164	-0.229
-248.019	-103.644	0.299	0.069
-247.005	144.875	0.326	-0.431
-245.990	-200.000	0.030	0.220
-244.976	198.404	0.120	0.181
-243.961	57.729	-0.184	0.178
-242.946	153.459	0.104	0.141
-241.932	-36.249	-0.157	-0.083
-240.917	-200.000	-0.015	-0.440
-239.903	117.318	0.204	-0.247
-238.888	445.032	-0.084	0.183
-237.873	-164.310	-0.188	0.009
-236.859	-200.000	-0.057	0.276
-235.844	34.494	-0.023	0.020
-234.830	-115.828	0.080	0.015
-233.815	800.000	-0.098	-0.286
-232.800	-82.477	0.179	-0.057
-231.786	-30.199	-0.115	-0.065
-230.771	-200.000	-0.043	0.352
-229.757	-200.000	-0.008	-0.140
-228.742	225.953	0.059	0.094
-227.727	434.124	-0.134	-0.287
-226.713	-200.000	0.017	0.221
-225.698	187.568	-0.065	0.096
-224.684	54.273	-0.049	-0.047
-223.669	-178.873	-0.123	-0.003
-222.655	186.649	0.251	0.368
-221.640	102.175	-0.245	0.282
-220.625	-200.000	0.058	-0.307
-219.611	-121.300	-0.345	-0.057
-218.596	-159.737	-0.297	-0.016
-217.582	800.000	0.074	-0.235
-216.567	250.419	-0.052	-0.087
-215.552	201.781	0.112	-0.170
-214.538	-79.885	-0.175	-0.058
-213.523	-79.483	0.101	-0.034
-212.509	800.000	0.078	0.261
-211.494	520.992	-0.099	0.228
-210.479	434.775	0.060	-0.128
-209.465	132.188	-0.108	-0.137
-208.450	248.941	-0.151	0.253
-207.436	-200.000	-0.032	0.266
-206.421	-115.195	-0.222	0.041
-205.406	-36.663	0.141	-0.074
-204.392	124.276	0.382	0.474
-203.377	-91.703	0.114	0.032
-202.363	-200.000	0.014	0.062
-201.348	-200.000	0.024	0.497
-200.333	287.623	0.088	0.157
-199.319	86.119	-0.259	0.281
-198.304	-200.000	-0.001	-0.108
-197.290	328.773	-0.111	0.210
-196.275	-31.503	0.097	0.054
-195.260	-122.876	0.148	-0.024
-194.246	-88.434	0.226	-0.066
-193.231	800.000	-0.076	-0.216
-192.217	-200.000	-0.001	0.066
-191.202	-56.417	-0.111	-0.048
-190.187	-84.349	0.397	0.124
-189.173	389.097	-0.127	-0.258
-188.158	-31.060	-0.157	0.087
-187.144	-101.677	-0.070	0.017
-186.129	-154.870	0.372	0.024
-185.114	-99.775	0.097	0.024
-184.100	-55.388	-0.230	0.102
-183.085	-200.000	-0.049	-0.215
-182.071	-200.000	0.043	0.249
-181.056	212.631	0.071	0.111
-180.042	120.443	0.029	0.036
-179.027	7.534	0.084	0.062
-178.012	218.376	-0.025	0.039
-176.998	-43.311	-0.304	-0.151
-175.983	55.260	-0.144	-0.137
-174.969	-97.854	-0.139	0.035
-173.954	-135.220	0.195	0.023
-172.939	140.433	-0.177	-0.230
-171.925	131.775	-0.159	0.202
-170.910	-200.000	0.029	0.232
-169.896	-59.386	-0.267	-0.113
-168.881	800.000	0.076	0.244
-167.866	448.962	-0.157	0.339
-166.852	197.110	-0.021	-0.031
-165.837	24.109	0.044	0.035
-164.823	-200.000	-0.023	-0.159
-163.808	113.479	-0.094	0.112
-162.793	-35.386	0.107	-0.057
-161.779	545.034	0.117	-0.274
-160.764	174.691	0.099	-0.141
-159.750	800.000	0.082	0.251
-158.735	-122.167	0.218	0.035
-157.720	704.836	-0.114	0.296
-156.706	-61.509	0.243	-0.100
-155.691	-200.000	-0.031	0.222
-154.677	-121.298	-0.224	0.037
-153.662	-200.000	0.005	0.166
-152.647	178.850	0.052	-0.075
-151.633	800.000	-0.075	-0.243
-150.618	-172.526	-0.103	0.003
-149.604	766.530	-0.056	0.151
-148.589	24.571	0.194	-0.158
-147.574	564.209	0.053	0.127
-146.560	82.407	0.143	-0.153
-145.545	98.205	0.241	-0.273
-144.531	-109.145	0.281	0.059
-143.516	106.652	0.042	0.049
-142.502	-92.237	0.158	0.044
-141.487	-152.906	0.209	-0.015
-140.472	-75.804	-0.265	-0.092
-139.458	275.582	-0.043	-0.074
-138.443	148.701	-0.282	0.375
-137.429	800.000	-0.085	-0.262
-136.414	4.188	-0.350	0.252
-135.399	782.152	-0.063	0.169
-134.385	-124.005	0.208	-0.032
-133.370	-39.356	0.134	0.069
-132.356	-200.000	-0.054	-0.240
-131.341	-127.228	0.306	0.044
-130.326	-40.857	-0.142	0.072
-129.312	-65.895	-0.167	-0.066
-128.297	157.710	0.173	-0.236
-127.283	577.760	-0.055	0.133
-126.268	-200.000	-0.006	-0.337
-125.253	59.951	-0.159	-0.154
-124.239	58.743	-0.197	0.190
-123.224	800.000	0.102	-0.300
-122.210	800.000	0.067	0.226
-121.195	180.792	-0.309	0.446
-120.180	68.229	-0.196	0.197
