DTS Sentinel unit serial number:	SN413079Multiplexer serial number:	ORYXHardware model number:	OX4-SRSoftware version number:	ORYX F/W v4.00 Oryx Data Collector v3.7.2.0data status	okinstallation	princeton_trtdifferential loss correction	single-endedforward channel	channel 1reverse channel	N/Adate	2019/09/12time	05:16:11forward acquisition time	60.00reverse acquisition time	0.00gamma	496.2192k internal	0.2322k external	0.2322temperature offset calibration	1.0049default loss term (dB/km)	0.3790temperature slope calibration	1.0000multiplexer offset coefficient	1.0000multiplexer slope coefficient	1.0000fibre end	0.00T internal ref (°C)	31.86T ext. ref 1 (°C)	1.64T ext. ref 2 (°C)	27.31length (m)	temperature (°C)	Stokes	anti-Stokes-747.200	150.451	0.268	-0.368
-746.185	-140.082	-0.267	0.028
-745.171	-127.520	0.201	-0.030
-744.156	144.734	-0.075	0.101
-743.142	800.000	0.043	-0.130
-742.127	102.801	-0.164	-0.194
-741.112	-200.000	-0.012	-0.080
-740.098	-200.000	0.032	0.293
-739.083	213.695	0.103	-0.165
-738.069	121.916	-0.275	0.347
-737.054	-200.000	-0.088	-0.454
-736.039	-200.000	-0.029	0.156
-735.025	627.018	0.027	-0.069
-734.010	-200.000	-0.017	-0.185
-732.996	108.322	-0.267	-0.321
-731.981	800.000	-0.091	0.282
-730.966	164.509	-0.173	-0.246
-729.952	101.661	-0.056	0.066
-728.937	-200.000	0.006	-0.206
-727.923	-65.440	-0.253	0.103
-726.908	78.797	0.074	-0.080
-725.894	-140.599	0.314	0.033
-724.879	7.289	-0.101	-0.076
-723.864	-20.250	-0.022	0.013
-722.850	-21.875	-0.178	0.109
-721.835	145.758	0.015	-0.021
-720.821	-200.000	-0.047	-0.317
-719.806	130.882	-0.327	-0.424
-718.791	274.031	-0.188	-0.336
-717.777	5.272	-0.302	0.225
-716.762	-86.846	-0.128	0.039
-715.748	-150.596	-0.114	0.009
-714.733	-200.000	-0.047	-0.329
-713.718	147.207	0.101	0.137
-712.704	-2.502	-0.156	-0.110
-711.689	118.002	0.184	-0.228
-710.675	800.000	0.092	-0.363
-709.660	158.088	0.178	0.248
-708.645	231.593	0.050	-0.083
-707.631	-5.661	-0.177	-0.122
-706.616	-174.047	-0.231	-0.007
-705.602	169.082	0.235	-0.338
-704.587	-200.000	-0.019	0.193
-703.572	32.512	0.033	-0.029
-702.558	16.841	0.159	-0.127
-701.543	-68.728	-0.205	-0.080
-700.529	-200.000	0.024	0.375
-699.514	348.401	-0.187	0.372
-698.499	231.112	0.061	0.101
-697.485	62.967	0.211	-0.213
-696.470	-57.733	0.169	-0.075
-695.456	470.413	-0.108	-0.245
-694.441	-63.371	-0.158	-0.066
-693.426	296.796	-0.189	-0.350
-692.412	93.177	-0.105	-0.120
-691.397	320.379	0.179	-0.343
-690.383	150.248	0.185	-0.253
-689.368	-89.536	0.057	0.017
-688.354	-76.955	-0.270	-0.095
-687.339	446.811	-0.039	0.087
-686.324	-100.335	0.170	-0.042
-685.310	-44.922	0.124	-0.062
-684.295	-0.034	-0.080	-0.057
-683.281	316.456	-0.100	-0.190
-682.266	-9.133	-0.042	0.028
-681.251	-36.658	-0.386	-0.209
-680.237	800.000	-0.063	0.234
-679.222	800.000	0.046	0.169
-678.208	-161.534	0.464	-0.024
-677.193	-138.242	0.394	-0.044
-676.178	205.272	0.098	0.153
-675.164	118.413	0.093	0.115
-674.149	-28.018	-0.453	-0.264
-673.135	-178.341	-0.133	0.003
-672.120	119.755	-0.082	-0.102
-671.105	-200.000	-0.027	0.189
-670.091	-200.000	-0.025	0.159
-669.076	24.708	0.115	-0.096
-668.062	-200.000	0.025	-0.288
-667.047	800.000	-0.065	0.214
-666.032	-200.000	0.014	-0.166
-665.018	-200.000	0.021	-0.305
-664.003	112.731	0.153	-0.186
-662.989	-200.000	0.050	-0.484
-661.974	10.509	-0.100	0.076
-660.959	760.971	-0.012	0.032
-659.945	-125.409	0.044	-0.007
-658.930	800.000	-0.064	0.263
-657.916	-200.000	0.005	0.102
-656.901	800.000	0.020	0.070
-655.886	104.988	0.126	-0.150
-654.872	-200.000	0.007	0.091
-653.857	81.259	-0.386	0.420
-652.843	-200.000	-0.005	0.139
-651.828	-73.471	-0.105	0.038
-650.814	-122.175	0.159	-0.026
-649.799	800.000	-0.090	-0.294
-648.784	-32.904	-0.440	-0.246
-647.770	-200.000	0.002	-0.223
-646.755	800.000	-0.059	-0.186
-645.741	439.008	-0.188	0.413
-644.726	27.178	-0.182	-0.154
-643.711	107.943	-0.049	0.059
-642.697	344.036	-0.172	0.340
-641.682	-62.563	-0.117	0.049
-640.668	-200.000	0.063	-0.394
-639.653	-153.792	0.252	0.017
-638.638	34.464	-0.262	0.230
-637.624	25.080	-0.042	0.035
-636.609	800.000	-0.033	0.141
-635.595	-200.000	0.059	0.329
-634.580	660.900	-0.091	0.235
-633.565	6.505	0.013	0.010
-632.551	711.621	-0.096	0.256
-631.536	-61.600	0.204	-0.086
-630.522	179.347	-0.038	0.057
-629.507	800.000	0.064	-0.222
-628.492	800.000	0.023	-0.083
-627.478	330.596	0.103	-0.199
-626.463	800.000	-0.056	-0.210
-625.449	136.922	0.163	-0.214
-624.434	800.000	-0.044	-0.132
-623.419	-70.265	-0.076	0.029
-622.405	800.000	0.040	-0.158
-621.390	242.669	-0.055	-0.093
-620.376	800.000	0.018	0.068
-619.361	347.804	0.066	-0.131
-618.346	-186.507	0.270	0.004
-617.332	-128.809	-0.092	-0.013
-616.317	-200.000	-0.013	0.501
-615.303	-9.567	0.159	0.107
-614.288	357.965	0.014	-0.028
-613.273	742.698	0.062	-0.168
-612.259	408.928	0.075	-0.160
-611.244	155.948	-0.097	-0.135
-610.230	97.632	-0.206	-0.238
-609.215	80.814	0.117	0.127
-608.201	-50.731	-0.093	0.044
-607.186	-62.748	-0.281	-0.117
-606.171	241.242	-0.257	0.431
-605.157	151.221	-0.119	0.163
-604.142	-162.723	0.323	-0.016
-603.128	580.158	-0.124	0.306
-602.113	71.493	-0.052	-0.054
-601.098	-200.000	0.038	0.223
-600.084	-200.000	-0.005	0.075
-599.069	-173.076	-0.053	0.002
-598.055	11.936	0.277	0.214
-597.040	-72.576	0.428	0.159
-596.025	-106.203	-0.075	0.017
-595.011	800.000	0.049	0.150
-593.996	15.529	0.143	-0.113
-592.982	58.727	0.058	-0.057
-591.967	-134.967	-0.190	-0.023
-590.952	-83.800	-0.213	0.068
-589.938	-46.247	0.253	-0.125
-588.923	-200.000	-0.010	0.083
-587.909	109.591	-0.113	0.136
-586.894	-200.000	0.010	0.155
-585.879	-87.266	0.379	0.116
-584.865	-75.716	-0.226	0.081
-583.850	195.029	0.048	0.073
-582.836	-141.880	-0.154	-0.015
-581.821	800.000	-0.109	0.303
-580.806	-60.713	0.053	0.022
-579.792	-200.000	0.004	-0.124
-578.777	-131.796	-0.360	0.047
-577.763	505.638	-0.048	-0.112
-576.748	326.841	-0.173	-0.333
-575.733	-8.173	-0.369	-0.250
-574.719	-56.519	0.063	0.028
-573.704	600.582	-0.052	-0.130
-572.690	-93.432	-0.145	-0.040
-571.675	-88.770	0.105	-0.031
-570.661	96.050	-0.157	0.180
-569.646	-44.911	-0.149	-0.075
-568.631	-70.644	0.242	-0.092
-567.617	-45.677	0.390	-0.193
-566.602	110.634	-0.062	-0.075
-565.588	-9.639	-0.152	0.101
-564.573	-200.000	0.010	-0.165
-563.558	46.800	0.145	0.135
-562.544	-134.145	-0.312	0.039
-561.529	800.000	0.049	0.206
-560.515	-200.000	-0.020	0.238
-559.500	-3.719	-0.168	0.117
-558.485	-166.643	-0.092	-0.004
-557.471	-94.029	0.137	0.038
-556.456	174.076	-0.182	-0.264
-555.442	261.771	0.127	0.221
-554.427	-200.000	0.071	0.375
-553.412	9.339	-0.261	0.198
-552.398	575.293	-0.193	-0.472
-551.383	-200.000	-0.038	-0.252
-550.369	-200.000	0.035	0.360
-549.354	371.022	0.069	0.141
-548.339	-200.000	0.022	-0.150
-547.325	375.098	0.146	0.299
-546.310	592.378	-0.073	0.182
-545.296	611.578	0.063	-0.158
-544.281	800.000	-0.109	-0.437
-543.266	166.466	-0.060	-0.085
-542.252	-172.391	0.233	0.007
-541.237	-89.195	-0.120	0.036
-540.223	-73.751	0.331	-0.121
-539.208	16.293	0.066	0.052
-538.193	-107.641	0.111	0.024
-537.179	-200.000	-0.010	-0.154
-536.164	-200.000	-0.052	0.466
-535.150	-40.394	0.141	-0.074
-534.135	525.257	0.163	-0.384
-533.121	-14.302	0.104	0.067
-532.106	-111.902	-0.160	0.032
-531.091	800.000	0.070	-0.224
-530.077	-44.756	-0.329	-0.164
-529.062	-89.972	-0.284	0.083
-528.048	577.153	-0.061	-0.150
-527.033	-200.000	-0.073	-0.505
-526.018	-200.000	-0.001	0.119
-525.004	77.817	0.072	0.077
-523.989	-128.170	0.136	-0.019
-522.975	11.798	-0.106	-0.082
-521.960	340.810	0.088	0.172
-520.945	-107.239	-0.129	-0.028
-519.931	-124.325	0.209	0.033
-518.916	67.529	-0.126	0.129
-517.902	27.307	0.207	0.174
-516.887	233.166	0.006	0.011
-515.872	-200.000	-0.000	-0.148
-514.858	-152.627	-0.243	0.017
-513.843	314.269	0.096	-0.181
-512.829	6.672	0.099	-0.074
-511.814	258.443	0.188	-0.324
-510.799	117.700	-0.091	0.113
-509.785	183.334	0.203	-0.300
-508.770	-31.956	-0.239	-0.134
-507.756	248.571	0.048	0.081
-506.741	55.013	-0.234	-0.226
-505.726	-200.000	-0.014	-0.214
-504.712	-143.296	0.142	-0.014
-503.697	199.667	-0.251	0.386
-502.683	-200.000	-0.046	0.340
-501.668	-200.000	-0.025	-0.209
-500.653	101.881	-0.120	-0.141
-499.639	43.460	-0.049	-0.045
-498.624	433.580	-0.057	0.124
-497.610	35.090	0.208	0.183
-496.595	-161.215	-0.220	0.011
-495.581	-138.179	-0.260	0.029
-494.566	-3.981	-0.413	-0.287
-493.551	-65.348	0.214	-0.086
-492.537	-2.344	0.099	0.070
-491.522	83.357	0.215	0.234
-490.508	145.095	-0.116	0.155
-489.493	-117.338	-0.236	0.043
-488.478	155.632	-0.099	0.136
-487.464	-200.000	0.023	-0.217
-486.449	377.631	0.072	0.148
-485.435	-200.000	-0.008	0.047
-484.420	172.057	0.060	0.086
-483.405	59.264	-0.117	0.115
-482.391	178.421	-0.129	-0.188
-481.376	-81.414	0.143	-0.047
-480.362	81.127	0.089	-0.096
-479.347	-90.518	-0.335	0.097
-478.332	72.390	0.179	0.187
-477.318	179.079	0.061	0.090
-476.303	-105.323	0.319	0.073
-475.289	322.854	0.121	-0.231
-474.274	35.652	0.100	-0.088
-473.259	794.007	-0.053	-0.146
-472.245	-200.000	-0.009	0.113
-471.230	-200.000	0.008	-0.328
-470.216	174.918	0.117	0.170
-469.201	-12.712	0.114	-0.074
-468.186	800.000	-0.038	-0.150
-467.172	-77.781	-0.249	-0.086
-466.157	-35.414	-0.274	0.149
-465.143	-149.067	0.194	0.016
-464.128	539.116	0.152	0.362
-463.113	-200.000	-0.015	-0.255
-462.099	471.308	0.073	0.165
-461.084	149.664	0.174	0.236
-460.070	70.471	-0.221	0.228
-459.055	-103.343	-0.252	0.059
-458.040	102.292	0.173	0.202
-457.026	195.969	-0.207	-0.314
-456.011	30.879	-0.198	0.169
-454.997	41.027	-0.092	0.083
-453.982	-107.111	0.146	0.032
-452.968	64.145	0.255	0.256
-451.953	-29.953	0.170	-0.097
-450.938	-31.919	-0.273	-0.153
-449.924	7.263	-0.206	0.153
-448.909	-200.000	0.000	0.246
-447.895	216.340	0.200	-0.317
-446.880	800.000	-0.013	-0.041
-445.865	-200.000	-0.006	-0.250
-444.851	-90.421	0.125	0.036
-443.836	-200.000	0.022	-0.232
-442.822	14.045	-0.372	-0.290
-441.807	-142.602	-0.075	0.007
-440.792	447.997	-0.081	-0.178
-439.778	-200.000	-0.017	-0.268
-438.763	657.670	0.096	0.247
-437.749	74.406	0.160	0.167
-436.734	-143.622	-0.484	0.046
-435.719	800.000	-0.077	0.232
-434.705	179.827	0.205	0.300
-433.690	-24.561	0.315	0.187
-432.676	54.670	-0.203	-0.195
-431.661	28.594	-0.293	0.248
-430.646	166.778	-0.080	0.113
-429.632	-26.265	-0.274	-0.160
-428.617	45.204	-0.096	0.089
-427.603	98.071	0.098	-0.112
-426.588	800.000	-0.043	0.132
-425.573	25.989	-0.068	-0.057
-424.559	800.000	0.018	0.051
-423.544	12.514	-0.202	-0.156
-422.530	-200.000	-0.016	0.149
-421.515	-43.086	-0.274	0.139
-420.500	-8.434	-0.132	-0.089
-419.486	305.666	0.219	0.407
-418.471	-200.000	-0.013	0.062
-417.457	-90.783	0.285	0.082
-416.442	-200.000	-0.040	-0.367
-415.428	-200.000	0.066	0.393
-414.413	152.819	0.076	-0.104
-413.398	800.000	-0.040	-0.120
-412.384	31.975	0.255	-0.219
-411.369	-200.000	-0.003	0.532
-410.355	-51.618	0.216	-0.101
-409.340	-28.108	0.127	0.073
-408.325	166.536	0.191	0.270
-407.311	-42.362	-0.044	0.022
-406.296	89.061	0.159	0.177
-405.282	-94.080	0.222	0.061
-404.267	-200.000	-0.054	-0.259
-403.252	48.921	-0.150	-0.141
-402.238	-200.000	0.017	-0.128
-401.223	30.960	0.011	0.010
-400.209	56.415	-0.062	0.060
-399.194	-200.000	-0.042	-0.357
-398.179	-123.215	-0.333	-0.053
-397.165	-164.536	-0.016	-0.001
-396.150	-200.000	-0.009	0.375
-395.136	74.371	0.110	0.115
-394.121	594.185	-0.035	-0.087
-393.106	111.750	-0.090	0.108
-392.092	800.000	0.029	0.106
-391.077	34.804	0.283	-0.246
-390.063	380.002	-0.094	-0.193
-389.048	-62.508	-0.152	0.063
-388.033	78.724	0.230	-0.245
-387.019	429.885	0.152	-0.327
-386.004	-200.000	0.009	-0.144
-384.990	681.497	0.114	-0.295
-383.975	54.820	0.147	-0.142
-382.960	-200.000	0.076	-0.353
-381.946	800.000	0.046	-0.153
-380.931	285.264	0.022	-0.040
-379.917	-78.673	0.372	0.127
-378.902	216.452	0.097	0.153
-377.888	-8.686	-0.081	-0.054
-376.873	1.986	-0.168	0.121
-375.858	256.763	0.131	0.224
-374.844	106.623	-0.065	-0.077
-373.829	-111.285	-0.177	0.036
-372.815	800.000	-0.057	-0.202
-371.800	-173.364	0.187	0.006
-370.785	-117.254	0.258	0.047
-369.771	-61.566	0.191	0.080
-368.756	-85.159	0.167	0.052
-367.742	800.000	-0.090	0.375
-366.727	775.837	-0.023	0.064
-365.712	-59.445	-0.191	-0.082
-364.698	16.702	-0.318	-0.250
-363.683	-24.609	-0.134	0.079
-362.669	12.097	0.142	0.109
-361.654	63.795	-0.174	0.174
-360.639	800.000	0.054	0.232
-359.625	-0.452	-0.163	0.115
-358.610	424.301	0.099	0.212
-357.596	296.005	-0.056	-0.101
-356.581	219.808	-0.174	-0.277
-355.566	-60.875	-0.326	-0.137
-354.552	-82.939	0.259	-0.083
-353.537	8.010	0.115	0.086
-352.523	-200.000	0.038	-0.278
-351.508	800.000	-0.033	-0.114
-350.493	-89.512	-0.341	-0.100
-349.479	254.741	0.024	-0.040
-348.464	-75.241	0.188	0.067
-347.450	64.080	-0.352	-0.352
-346.435	-200.000	-0.006	0.302
-345.420	27.826	-0.182	-0.152
-344.406	35.717	-0.106	0.093
-343.391	-146.513	0.299	0.026
-342.377	314.979	0.160	-0.301
-341.362	-56.123	-0.235	0.104
-340.348	179.534	0.140	0.203
-339.333	800.000	0.078	0.300
-338.318	-75.241	-0.161	-0.057
-337.304	-56.691	0.175	-0.077
-336.289	-63.755	-0.371	0.151
-335.275	-200.000	0.008	0.044
-334.260	-200.000	0.025	-0.419
-333.245	-115.783	0.170	-0.032
-332.231	667.659	-0.110	-0.282
-331.216	-94.900	-0.073	-0.020
-330.202	-11.312	-0.214	0.140
-329.187	129.106	0.234	0.297
-328.172	800.000	-0.120	0.401
-327.158	-200.000	0.006	-0.059
-326.143	-150.557	-0.278	0.021
-325.129	41.919	-0.178	-0.161
-324.114	-46.456	0.107	-0.052
-323.099	25.566	0.226	-0.187
-322.085	-56.321	-0.284	-0.125
-321.070	64.552	0.081	0.082
-320.056	-34.850	0.255	0.139
-319.041	22.773	-0.153	-0.125
-318.026	-200.000	-0.001	-0.230
-317.012	-95.417	0.047	0.012
-315.997	53.127	-0.226	0.215
-314.983	328.031	-0.086	0.164
-313.968	-35.208	0.255	-0.138
-312.953	259.816	-0.128	-0.220
-311.939	-23.177	0.208	0.125
-310.924	556.120	-0.036	0.085
-309.910	-81.658	-0.176	0.057
-308.895	109.079	0.089	0.106
-307.880	-200.000	0.006	0.167
-306.866	-48.128	-0.316	-0.152
-305.851	-112.735	-0.172	-0.034
-304.837	-200.000	-0.013	-0.329
-303.822	-106.193	-0.321	0.072
-302.807	-31.477	0.196	0.110
-301.793	800.000	0.060	-0.214
-300.778	141.395	-0.085	0.112
-299.764	318.296	-0.129	-0.242
-298.749	56.209	0.130	-0.126
-297.735	800.000	0.155	-0.429
-296.720	-173.947	0.214	0.006
-295.705	800.000	0.084	-0.233
-294.691	-200.000	-0.007	-0.113
-293.676	-200.000	0.033	-0.163
-292.662	-191.739	0.044	-0.000
-291.647	-200.000	0.015	-0.116
-290.632	-122.199	-0.328	-0.053
-289.618	-200.000	0.042	-0.289
-288.603	279.763	0.077	0.136
-287.589	-85.532	0.190	0.059
-286.574	164.474	0.094	-0.132
-285.559	114.634	0.113	0.137
-284.545	578.821	0.036	0.087
-283.530	116.183	0.090	0.110
-282.516	-63.074	-0.054	0.022
-281.501	303.935	-0.037	0.068
-280.486	800.000	0.062	0.246
-279.472	88.431	-0.120	0.132
-278.457	-69.241	0.218	-0.083
-277.443	47.921	0.161	0.149
-276.428	63.212	-0.177	0.176
-275.413	111.514	0.153	0.183
-274.399	1.158	0.271	-0.193
-273.384	-176.559	-0.175	0.004
-272.370	107.894	-0.323	0.382
-271.355	-88.022	-0.183	-0.055
-270.340	-200.000	-0.017	-0.308
-269.326	26.845	0.319	-0.265
-268.311	-140.807	0.105	0.011
-267.297	455.195	0.046	-0.101
-266.282	-200.000	0.034	0.151
-265.267	-88.944	0.361	-0.106
-264.253	-200.000	-0.002	-0.036
-263.238	74.258	0.111	0.115
-262.224	-88.442	0.328	-0.097
-261.209	271.377	0.030	0.052
-260.195	-11.144	0.151	-0.099
-259.180	-162.768	0.126	0.006
-258.165	294.130	-0.050	-0.091
-257.151	388.103	0.081	0.166
-256.136	80.530	-0.118	-0.126
-255.122	800.000	-0.068	-0.270
-254.107	-53.074	-0.184	0.084
-253.092	-134.422	0.170	0.021
-252.078	22.928	0.431	0.351
-251.063	170.631	0.045	-0.064
-250.049	333.652	0.199	-0.381
-249.034	50.333	-0.253	-0.237
-248.019	42.384	0.165	-0.149
-247.005	-200.000	0.031	-0.138
-245.990	800.000	-0.063	-0.196
-244.976	-14.289	0.052	-0.033
-243.961	125.556	0.057	0.071
-242.946	-149.412	0.326	-0.026
-241.932	-200.000	0.042	0.189
-240.917	-86.908	0.146	-0.044
-239.903	145.524	-0.224	-0.297
-238.888	-50.583	0.160	0.075
-237.873	525.378	-0.065	0.151
-236.859	-200.000	-0.025	-0.184
-235.844	18.922	-0.194	-0.154
-234.830	-100.011	-0.285	0.070
-233.815	57.156	0.114	0.110
-232.800	-200.000	0.021	-0.171
-231.786	71.797	-0.071	0.073
-230.771	403.492	-0.149	-0.310
-229.757	27.635	-0.111	0.093
-228.742	-184.935	0.238	0.004
-227.727	-113.115	-0.187	0.037
-226.713	-172.523	0.118	-0.004
-225.698	-200.000	0.030	-0.132
-224.684	-22.959	0.283	-0.169
-223.669	800.000	-0.112	-0.345
-222.655	-37.718	0.159	0.084
-221.640	-16.626	-0.191	0.120
-220.625	-32.133	0.200	0.111
-219.611	-61.963	0.231	-0.096
-218.596	-107.524	-0.204	0.044
-217.582	-63.689	0.297	0.121
-216.567	290.438	-0.126	0.227
-215.552	-10.965	0.408	0.266
-214.538	-19.688	-0.071	-0.043
-213.523	232.370	0.151	-0.246
-212.509	-200.000	-0.033	0.206
-211.494	-125.745	0.113	-0.017
-210.479	-98.120	0.280	-0.071
-209.465	-200.000	0.042	0.375
-208.450	-33.664	-0.299	0.163
-207.436	-45.741	-0.073	0.036
-206.421	-200.000	-0.009	-0.163
-205.406	-200.000	0.065	0.293
-204.392	-7.400	0.255	0.171
-203.377	-200.000	-0.040	-0.191
-202.363	-98.281	0.369	0.094
-201.348	193.520	0.077	-0.115
-200.333	118.913	-0.089	0.109
-199.319	-35.425	-0.211	0.113
-198.304	6.840	-0.326	0.240
-197.290	-107.009	-0.313	0.069
-196.275	25.335	-0.202	0.166
-195.260	-15.314	0.490	0.310
-194.246	-134.329	0.077	-0.009
-193.231	223.652	0.131	0.209
-192.217	-200.000	-0.056	-0.530
-191.202	157.065	0.083	0.114
-190.187	197.068	-0.132	-0.198
-189.173	-84.169	0.265	0.083
-188.158	26.345	0.318	-0.262
-187.144	-53.997	0.148	-0.067
-186.129	379.237	-0.135	0.274
-185.114	800.000	-0.125	0.491
-184.100	-200.000	0.029	0.220
-183.085	36.663	-0.337	-0.294
-182.071	-78.400	-0.120	0.041
-181.056	-84.557	0.011	0.003
-180.042	-156.264	-0.127	-0.008
-179.027	-200.000	0.045	-0.201
-178.012	-67.727	-0.216	0.084
-176.998	51.227	0.160	0.150
-175.983	-19.472	0.128	0.078
-174.969	-91.860	0.079	-0.022
-173.954	-200.000	0.066	-0.313
-172.939	-200.000	-0.009	-0.250
-171.925	61.999	-0.037	0.037
-170.910	297.879	-0.172	-0.313
-169.896	213.171	-0.129	-0.202
-168.881	-200.000	0.008	0.200
-167.866	483.834	0.127	0.285
-166.852	401.377	-0.034	-0.071
-165.837	49.359	0.120	-0.112
-164.823	113.903	0.096	0.115
-163.808	72.778	0.300	-0.309
-162.793	-200.000	-0.042	-0.246
-161.779	-72.757	-0.220	0.080
-160.764	76.154	-0.220	0.230
-159.750	23.558	0.143	0.116
-158.735	211.305	0.125	0.193
-157.720	-97.653	0.109	-0.028
-156.706	-200.000	-0.050	0.253
-155.691	147.126	0.019	-0.025
-154.677	-40.298	-0.182	0.093
-153.662	28.017	0.112	0.093
-152.647	208.023	0.252	0.388
-151.633	-200.000	0.032	0.148
-150.618	727.732	-0.058	0.152
-149.604	-44.640	-0.191	0.094
-148.589	-7.887	0.261	-0.174
-147.574	-141.871	0.297	0.029
-146.560	-153.373	0.145	0.010
-145.545	800.000	0.108	-0.371
-144.531	0.230	-0.127	0.090
-143.516	-84.111	0.297	-0.093
-142.502	216.031	-0.087	0.136
-141.487	402.718	-0.161	0.334
-140.472	-200.000	0.011	-0.183
-139.458	-117.627	-0.081	-0.014
-138.443	493.289	0.019	0.043
-137.429	423.517	0.067	-0.142
-136.414	-90.550	0.086	-0.025
-135.399	-84.811	0.189	-0.059
-134.385	495.396	-0.211	-0.477
-133.370	-26.221	-0.106	0.061
-132.356	273.780	0.098	-0.171
-131.341	21.744	-0.130	0.104
-130.326	259.507	-0.107	-0.183
-129.312	23.465	-0.038	-0.031
-128.297	-200.000	0.008	-0.253
-127.283	-70.248	-0.094	-0.035
-126.268	-52.569	-0.111	-0.050
-125.253	0.397	0.234	-0.165
-124.239	800.000	0.049	0.188
-123.224	-200.000	-0.062	-0.303
-122.210	5.598	-0.217	-0.158
-121.195	-200.000	-0.050	0.223
-120.180	-172.692	-0.298	0.009
