DTS Sentinel unit serial number:	SN413079Multiplexer serial number:	ORYXHardware model number:	OX4-SRSoftware version number:	ORYX F/W v4.00 Oryx Data Collector v3.7.2.0data status	okinstallation	princeton_trtdifferential loss correction	single-endedforward channel	channel 1reverse channel	N/Adate	2019/09/10time	16:08:11forward acquisition time	60.00reverse acquisition time	0.00gamma	496.2192k internal	0.2299k external	0.2299temperature offset calibration	0.9913default loss term (dB/km)	0.3790temperature slope calibration	1.0000multiplexer offset coefficient	1.0000multiplexer slope coefficient	1.0000fibre end	0.00T internal ref (°C)	38.30T ext. ref 1 (°C)	-0.27T ext. ref 2 (°C)	31.67length (m)	temperature (°C)	Stokes	anti-Stokes-747.200	75.583	-0.170	0.183
-746.185	800.000	0.140	0.408
-745.171	-200.000	0.143	0.718
-744.156	404.274	0.218	0.468
-743.142	167.161	0.150	0.217
-742.127	60.708	0.126	0.128
-741.112	-78.546	-0.144	0.050
-740.098	-68.827	0.096	0.038
-739.083	-200.000	0.013	0.235
-738.069	21.364	-0.035	0.029
-737.054	-135.520	-0.079	0.010
-736.039	-200.000	-0.060	0.289
-735.025	-105.574	0.335	0.078
-734.010	-155.481	0.281	-0.019
-732.996	189.357	-0.085	0.130
-731.981	702.197	0.082	0.220
-730.966	523.825	-0.037	-0.088
-729.952	147.874	-0.134	-0.185
-728.937	71.659	-0.264	-0.280
-727.923	-200.000	-0.048	-0.349
-726.908	-117.341	-0.222	-0.041
-725.894	130.184	0.051	-0.066
-724.879	-200.000	0.057	-0.567
-723.864	-200.000	-0.034	-0.421
-722.850	2.911	-0.187	-0.139
-721.835	172.222	0.171	-0.251
-720.821	352.431	-0.056	0.113
-719.806	10.458	-0.017	-0.013
-718.791	-101.949	0.105	0.026
-717.777	169.436	-0.102	-0.149
-716.762	-69.403	0.291	0.114
-715.748	96.782	-0.166	0.194
-714.733	-71.026	0.199	0.076
-713.718	34.701	-0.067	-0.060
-712.704	35.466	0.070	0.063
-711.689	-41.373	-0.147	0.077
-710.675	-141.958	-0.436	0.044
-709.660	144.449	-0.208	-0.284
-708.645	-44.306	0.148	-0.076
-707.631	-46.211	0.209	-0.105
-706.616	-200.000	0.006	-0.269
-705.602	131.671	0.165	-0.216
-704.587	52.390	0.165	0.160
-703.572	-40.295	0.190	0.101
-702.558	-134.712	-0.265	-0.033
-701.543	-121.867	0.075	-0.013
-700.529	-200.000	-0.056	-0.272
-699.514	-58.262	-0.229	0.102
-698.499	18.523	-0.160	-0.130
-697.485	249.456	-0.243	-0.419
-696.470	553.454	0.219	-0.536
-695.456	-17.180	-0.248	0.159
-694.441	-90.020	-0.144	-0.043
-693.426	29.504	-0.227	0.196
-692.412	54.599	-0.252	-0.247
-691.397	156.974	0.285	0.402
-690.383	44.201	0.108	-0.101
-689.368	406.336	0.080	0.173
-688.354	-200.000	-0.003	-0.128
-687.339	-92.810	-0.222	-0.063
-686.324	425.617	-0.054	0.118
-685.310	24.952	-0.075	-0.063
-684.295	48.718	-0.249	-0.237
-683.281	-157.171	-0.269	0.017
-682.266	-200.000	0.067	-0.306
-681.251	169.510	0.139	-0.202
-680.237	-139.767	0.155	-0.017
-679.222	-97.865	-0.430	0.113
-678.208	9.022	-0.245	0.188
-677.193	44.955	0.255	-0.239
-676.178	-117.081	0.215	0.040
-675.164	800.000	-0.063	0.181
-674.149	-66.769	0.166	0.067
-673.135	48.923	0.340	-0.325
-672.120	-105.862	-0.213	-0.049
-671.105	-25.284	-0.198	0.119
-670.091	-135.300	-0.370	-0.045
-669.076	-81.267	0.248	0.083
-668.062	800.000	0.076	0.302
-667.047	45.656	0.163	-0.153
-666.032	-152.283	-0.166	0.012
-665.018	206.527	0.035	-0.055
-664.003	-68.122	0.061	0.024
-662.989	800.000	0.033	-0.095
-661.974	5.608	-0.197	0.148
-660.959	-40.547	0.224	0.118
-659.945	-18.325	-0.221	0.140
-658.930	22.190	0.131	-0.109
-657.916	165.057	-0.147	-0.212
-656.901	-186.031	-0.017	-0.000
-655.886	762.046	-0.119	0.328
-654.872	-172.954	0.326	0.010
-653.857	-127.706	-0.586	0.086
-652.843	12.528	0.155	-0.121
-651.828	29.337	0.221	0.191
-650.814	-168.231	0.586	0.023
-649.799	87.545	0.127	0.143
-648.784	-162.996	-0.267	-0.013
-647.770	-200.000	0.028	-0.190
-646.755	-143.790	0.135	0.013
-645.741	-74.695	-0.111	-0.041
-644.726	2.567	0.296	0.218
-643.711	325.614	-0.131	0.255
-642.697	-200.000	-0.035	0.347
-641.682	-48.834	-0.131	0.064
-640.668	55.936	0.150	0.148
-639.653	800.000	0.086	0.315
-638.638	-27.046	-0.226	0.134
-637.624	-98.523	0.157	-0.041
-636.609	-142.594	-0.118	0.012
-635.595	-200.000	-0.063	0.318
-634.580	-160.991	-0.077	-0.004
-633.565	181.825	-0.091	-0.136
-632.551	385.041	-0.032	0.068
-631.536	-23.058	-0.128	-0.078
-630.522	411.358	-0.228	0.492
-629.507	-163.487	-0.175	-0.008
-628.492	-126.576	0.544	-0.082
-627.478	-71.471	-0.311	-0.118
-626.463	800.000	0.077	-0.270
-625.449	146.967	0.197	0.269
-624.434	-82.643	-0.300	0.099
-623.419	-200.000	-0.019	-0.134
-622.405	-91.494	0.434	-0.126
-621.390	-56.137	-0.281	0.127
-620.376	800.000	0.060	0.195
-619.361	-54.480	0.187	0.086
-618.346	77.069	-0.387	-0.418
-617.332	67.252	0.168	0.174
-616.317	-70.923	0.184	0.071
-615.303	800.000	-0.103	-0.340
-614.288	228.743	-0.160	0.265
-613.273	800.000	0.047	-0.191
-612.259	800.000	0.114	-0.478
-611.244	184.640	-0.246	-0.370
-610.230	-200.000	0.029	-0.165
-609.215	29.519	-0.026	0.023
-608.201	153.720	0.116	0.162
-607.186	39.073	0.200	0.182
-606.171	-22.728	0.143	-0.088
-605.157	15.710	0.125	0.100
-604.142	-119.781	-0.375	-0.066
-603.128	-135.498	0.261	-0.032
-602.113	-101.970	0.217	-0.053
-601.098	800.000	-0.010	0.033
-600.084	800.000	-0.065	-0.266
-599.069	-157.517	0.319	0.019
-598.055	659.025	0.100	0.261
-597.040	-157.578	-0.144	-0.009
-596.025	-118.768	-0.219	0.039
-595.011	190.256	0.147	0.224
-593.996	288.859	-0.062	-0.114
-592.982	40.563	0.165	-0.151
-591.967	39.107	-0.043	0.039
-590.952	3.599	-0.091	-0.068
-589.938	-153.573	-0.109	0.008
-588.923	800.000	-0.132	-0.380
-587.909	-72.008	0.252	0.095
-586.894	800.000	0.030	0.124
-585.879	-44.492	0.141	0.072
-584.865	-200.000	0.006	0.143
-583.850	-85.019	0.417	0.133
-582.836	638.095	0.083	0.214
-581.821	-200.000	0.024	0.119
-580.806	118.458	-0.118	-0.147
-579.792	-7.076	-0.148	0.102
-578.777	-200.000	0.016	0.120
-577.763	-14.237	-0.172	0.112
-576.748	-38.757	-0.139	-0.074
-575.733	433.899	0.139	-0.305
-574.719	171.867	0.122	-0.177
-573.704	205.597	0.143	-0.226
-572.690	-200.000	0.033	-0.192
-571.675	-81.540	-0.499	-0.166
-570.661	-166.255	0.180	0.008
-569.646	-38.870	-0.330	-0.176
-568.631	800.000	-0.035	0.120
-567.617	-59.058	0.418	-0.183
-566.602	-200.000	-0.020	-0.249
-565.588	62.617	0.169	0.171
-564.573	-200.000	0.049	-0.406
-563.558	-200.000	0.030	-0.224
-562.544	77.892	-0.208	-0.224
-561.529	800.000	0.061	-0.246
-560.515	660.384	-0.058	-0.151
-559.500	-200.000	-0.023	-0.431
-558.485	-200.000	0.003	-0.159
-557.471	-109.138	-0.298	0.064
-556.456	-180.419	0.197	0.004
-555.442	-200.000	-0.063	0.314
-554.427	55.845	0.156	0.153
-553.412	-115.922	0.177	0.033
-552.398	209.809	-0.130	-0.207
-551.383	-86.030	-0.236	0.074
-550.369	298.695	-0.135	0.251
-549.354	262.206	-0.202	0.355
-548.339	173.632	-0.029	0.043
-547.325	-200.000	0.049	0.275
-546.310	-76.842	0.192	0.068
-545.296	800.000	-0.054	-0.177
-544.281	-101.894	0.377	0.092
-543.266	-200.000	0.003	-0.132
-542.252	-200.000	-0.038	-0.322
-541.237	-95.470	-0.402	0.109
-540.223	800.000	-0.062	0.201
-539.208	451.523	0.044	-0.097
-538.193	-200.000	-0.017	-0.295
-537.179	-9.665	0.224	0.151
-536.164	193.980	0.246	0.378
-535.150	-129.152	-0.176	0.025
-534.135	800.000	-0.061	-0.178
-533.121	-140.268	-0.161	-0.017
-532.106	327.370	0.182	-0.352
-531.091	-200.000	-0.036	-0.363
-530.077	-10.876	-0.273	-0.183
-529.062	-141.944	-0.153	0.015
-528.048	333.439	0.081	-0.158
-527.033	-92.250	-0.201	-0.057
-526.018	-35.696	-0.170	0.093
-525.004	5.904	-0.126	-0.094
-523.989	-136.197	0.250	-0.030
-522.975	-140.786	0.317	-0.033
-521.960	285.265	-0.055	0.101
-520.945	-200.000	0.000	-0.299
-519.931	-19.922	-0.249	0.155
-518.916	800.000	-0.083	0.308
-517.902	589.254	0.086	0.213
-516.887	-73.414	0.312	-0.115
-515.872	800.000	-0.058	0.181
-514.858	64.117	-0.140	-0.142
-513.843	260.471	-0.057	-0.100
-512.829	-200.000	-0.004	0.252
-511.814	-57.262	-0.523	-0.233
-510.799	-200.000	-0.025	-0.116
-509.785	-200.000	-0.020	-0.217
-508.770	100.394	-0.278	-0.327
-507.756	157.999	-0.076	0.107
-506.741	-117.747	0.052	-0.009
-505.726	-29.126	-0.060	0.035
-504.712	-6.675	0.191	0.131
-503.697	-113.778	-0.338	0.066
-502.683	150.640	0.115	0.158
-501.668	-74.733	0.476	-0.173
-500.653	265.789	0.064	-0.112
-499.639	-162.774	0.084	-0.004
-498.624	-121.157	-0.287	-0.049
-497.610	74.679	-0.223	0.237
-496.595	800.000	0.052	0.206
-495.581	-190.442	-0.365	-0.004
-494.566	156.956	-0.128	-0.179
-493.551	-70.323	0.169	-0.065
-492.537	88.118	-0.109	0.122
-491.522	181.543	0.091	0.136
-490.508	101.379	0.051	0.060
-489.493	-167.641	0.214	0.009
-488.478	800.000	0.087	-0.310
-487.464	800.000	-0.052	0.190
-486.449	-200.000	-0.008	0.156
-485.435	800.000	-0.040	-0.163
-484.420	-50.355	-0.168	-0.080
-483.405	800.000	0.072	-0.263
-482.391	129.316	-0.051	-0.066
-481.376	800.000	0.126	-0.516
-480.362	-50.253	-0.400	-0.191
-479.347	176.406	0.036	-0.052
-478.332	-200.000	-0.002	-0.258
-477.318	-41.178	0.145	-0.076
-476.303	-200.000	-0.020	-0.210
-475.289	104.406	-0.090	-0.107
-474.274	-8.098	-0.248	-0.169
-473.259	36.147	-0.335	-0.298
-472.245	-180.761	-0.186	-0.004
-471.230	253.782	0.086	-0.149
-470.216	-50.509	-0.320	0.153
-469.201	86.301	-0.049	-0.054
-468.186	-25.582	0.339	-0.202
-467.172	608.421	0.076	0.192
-466.157	-11.613	-0.157	0.104
-465.143	715.025	-0.047	-0.126
-464.128	75.798	0.116	-0.124
-463.113	-164.151	0.054	-0.003
-462.099	398.919	0.103	-0.217
-461.084	288.657	0.144	-0.263
-460.070	-67.091	-0.108	-0.043
-459.055	276.610	-0.070	-0.125
-458.040	-54.317	0.252	-0.115
-457.026	-52.981	0.184	-0.085
-456.011	-200.000	-0.021	-0.194
-454.997	576.718	-0.141	-0.346
-453.982	-26.228	-0.260	0.154
-452.968	122.183	0.258	0.325
-451.953	106.590	-0.141	0.169
-450.938	41.238	-0.088	0.080
-449.924	-69.083	-0.240	0.093
-448.909	800.000	0.154	0.445
-447.895	83.576	0.036	-0.039
-446.880	-52.876	0.125	0.058
-445.865	-98.465	-0.174	0.045
-444.851	-200.000	-0.005	0.157
-443.836	-200.000	0.029	-0.130
-442.822	800.000	-0.029	0.088
-441.807	3.485	-0.103	0.076
-440.792	15.516	0.248	0.196
-439.778	396.018	0.046	-0.097
-438.763	-41.281	-0.094	0.049
-437.749	-200.000	0.000	-0.076
-436.734	-200.000	0.006	0.053
-435.719	800.000	0.070	0.255
-434.705	82.022	0.058	-0.063
-433.690	-157.161	0.108	-0.007
-432.676	-184.684	0.202	-0.003
-431.661	-123.185	0.242	-0.039
-430.646	-8.830	-0.114	-0.077
-429.632	800.000	-0.061	0.221
-428.617	-114.623	-0.107	0.021
-427.603	-0.439	-0.325	-0.233
-426.588	96.256	-0.249	0.287
-425.573	53.658	0.201	0.195
-424.559	-58.330	-0.049	0.022
-423.544	197.908	-0.068	-0.105
-422.530	-44.157	-0.263	-0.133
-421.515	800.000	0.084	-0.248
-420.500	293.483	0.191	-0.352
-419.486	55.368	-0.094	0.092
-418.471	-200.000	0.040	0.197
-417.457	800.000	-0.039	-0.134
-416.442	-200.000	-0.010	0.110
-415.428	-200.000	-0.055	-0.289
-414.413	-200.000	-0.001	0.047
-413.398	191.051	0.171	-0.260
-412.384	-179.868	0.288	0.006
-411.369	-200.000	-0.017	-0.098
-410.355	262.696	0.062	0.108
-409.340	-90.038	-0.136	-0.040
-408.325	800.000	-0.033	-0.109
-407.311	284.361	0.157	-0.285
-406.296	362.060	-0.131	0.265
-405.282	-32.344	-0.182	0.102
-404.267	800.000	0.050	-0.148
-403.252	232.620	0.070	-0.116
-402.238	792.067	-0.042	-0.116
-401.223	800.000	-0.096	0.338
-400.209	-147.175	-0.190	-0.016
-399.194	-94.386	0.083	0.023
-398.179	-54.803	-0.083	-0.038
-397.165	87.231	-0.032	-0.036
-396.150	800.000	-0.063	0.272
-395.136	3.252	0.076	0.056
-394.121	136.839	0.150	-0.197
-393.106	487.181	0.050	-0.114
-392.092	-200.000	0.029	0.155
-391.077	139.491	0.224	0.297
-390.063	37.004	-0.225	0.200
-389.048	-1.806	0.056	-0.040
-388.033	-126.546	-0.347	-0.052
-387.019	-200.000	-0.076	0.000
-386.004	117.963	-0.098	0.122
-384.990	-200.000	-0.013	-0.124
-383.975	3.472	0.125	0.092
-382.960	608.261	-0.021	0.052
-381.946	-79.219	0.026	0.009
-380.931	67.104	0.215	0.220
-379.917	-72.598	-0.237	0.088
-378.902	-200.000	0.030	-0.266
-377.888	-10.153	-0.149	-0.099
-376.873	-13.204	-0.149	-0.097
-375.858	85.869	-0.215	0.238
-374.844	206.402	0.197	0.308
-373.829	-61.377	-0.208	0.088
-372.815	800.000	0.024	0.079
-371.800	373.822	-0.125	0.255
-370.785	-82.581	-0.481	0.157
-369.771	-200.000	0.019	-0.338
-368.756	426.022	0.116	-0.252
-367.742	20.121	-0.017	0.014
-366.727	800.000	-0.059	0.192
-365.712	155.496	-0.095	-0.131
-364.698	69.565	0.252	-0.261
-363.683	-130.087	0.098	0.014
-362.669	-48.306	0.359	-0.174
-361.654	-11.590	-0.067	-0.044
-360.639	205.446	-0.115	-0.180
-359.625	-132.483	-0.148	0.019
-358.610	-148.139	0.277	0.023
-357.596	800.000	0.050	-0.139
-356.581	411.063	-0.012	0.025
-355.566	-130.261	0.051	0.007
-354.552	780.086	0.114	-0.312
-353.537	-144.396	-0.151	-0.014
-352.523	-200.000	-0.013	0.118
-351.508	-98.649	0.278	-0.071
-350.493	800.000	0.126	-0.372
-349.479	-147.406	-0.120	-0.010
-348.464	-29.128	-0.146	0.084
-347.450	-133.469	-0.162	0.020
-346.435	109.514	-0.079	0.095
-345.420	183.681	0.264	0.393
-344.406	-69.479	0.133	0.051
-343.391	227.380	0.039	0.064
-342.377	-82.271	0.308	-0.101
-341.362	-134.415	0.307	-0.038
-340.348	-24.449	0.173	-0.104
-339.333	800.000	0.026	0.088
-338.318	-47.907	-0.159	0.077
-337.304	-200.000	0.076	0.361
-336.289	-51.720	-0.208	-0.097
-335.275	-74.761	-0.153	-0.055
-334.260	720.126	-0.029	-0.078
-333.245	8.820	-0.188	0.142
-332.231	-143.540	0.273	0.026
-331.216	72.758	-0.120	-0.126
-330.202	-92.172	0.352	0.100
-329.187	-97.610	-0.174	-0.045
-328.172	-131.219	0.177	-0.024
-327.158	218.194	-0.115	0.185
-326.143	800.000	-0.076	0.216
-325.129	345.087	-0.134	-0.264
-324.114	68.161	-0.263	0.270
-323.099	-200.000	0.040	-0.300
-322.085	-200.000	0.016	-0.255
-321.070	135.701	0.178	-0.232
-320.056	-122.412	0.228	0.037
-319.041	800.000	0.044	0.191
-318.026	-36.462	0.486	0.262
-317.012	-200.000	0.054	0.246
-315.997	108.180	0.198	-0.237
-314.983	-166.854	0.169	-0.007
-313.968	-141.854	0.179	0.018
-312.953	-50.852	-0.293	-0.138
-311.939	-200.000	-0.121	0.000
-310.924	-119.004	0.095	-0.017
-309.910	62.018	0.167	-0.167
-308.895	-33.714	-0.125	-0.069
-307.880	-136.848	0.193	-0.022
-306.866	-140.137	0.023	-0.002
-305.851	-200.000	-0.026	-0.115
-304.837	800.000	-0.027	-0.112
-303.822	42.539	-0.139	0.127
-302.807	762.214	-0.069	0.189
-301.793	285.904	-0.083	0.149
-300.778	13.759	0.123	0.096
-299.764	-10.938	0.297	-0.197
-298.749	-48.215	0.101	0.049
-297.735	-200.000	-0.040	0.246
-296.720	34.416	-0.127	0.111
-295.705	-109.642	-0.112	-0.024
-294.691	36.784	0.120	-0.106
-293.676	800.000	0.050	-0.164
-292.662	-68.249	0.405	-0.158
-291.647	-22.218	-0.219	-0.133
-290.632	169.411	-0.110	-0.158
-289.618	-200.000	0.055	0.330
-288.603	298.697	0.131	-0.242
-287.589	-61.679	-0.623	-0.262
-286.574	-107.789	-0.180	-0.039
-285.559	-200.000	-0.044	-0.272
-284.545	-97.319	-0.222	-0.058
-283.530	800.000	-0.011	0.037
-282.516	-41.775	0.121	0.062
-281.501	800.000	0.021	-0.066
-280.486	800.000	-0.018	-0.077
-279.472	-200.000	-0.029	0.343
-278.457	91.481	0.119	-0.134
-277.443	800.000	-0.106	-0.331
-276.428	-29.981	-0.199	0.114
-275.413	648.205	0.065	-0.167
-274.399	-200.000	0.002	0.135
-273.384	-200.000	0.047	0.254
-272.370	197.735	-0.142	0.218
-271.355	21.825	-0.165	0.135
-270.340	-122.545	0.648	-0.105
-269.326	42.024	-0.158	0.144
-268.311	800.000	0.027	-0.111
-267.297	333.640	-0.067	0.129
-266.282	-200.000	-0.028	-0.125
-265.267	-86.030	-0.132	0.041
-264.253	800.000	-0.072	-0.209
-263.238	800.000	0.086	0.314
-262.224	800.000	0.030	-0.088
-261.209	-27.577	0.290	0.169
-260.195	-200.000	-0.011	-0.085
-259.180	-200.000	-0.003	0.225
-258.165	800.000	0.022	-0.089
-257.151	150.523	-0.220	0.299
-256.136	751.599	-0.047	0.127
-255.122	-27.338	-0.152	-0.089
-254.107	800.000	0.045	0.163
-253.092	-19.797	0.263	0.163
-252.078	-116.818	-0.429	0.079
-251.063	-169.217	0.135	-0.005
-250.049	-110.476	-0.089	0.019
-249.034	-78.099	0.141	-0.048
-248.019	-30.812	0.173	0.098
-247.005	-200.000	0.035	-0.196
-245.990	-155.101	0.310	0.020
-244.976	-83.265	-0.196	0.063
-243.961	800.000	-0.046	-0.163
-242.946	-99.227	-0.419	0.106
-241.932	0.814	0.212	0.152
-240.917	-200.000	0.002	0.162
-239.903	-200.000	-0.061	0.601
-238.888	-1.845	-0.276	-0.194
-237.873	800.000	-0.083	0.325
-236.859	800.000	-0.082	0.307
-235.844	-94.344	0.401	-0.110
-234.830	0.948	0.126	-0.090
-233.815	52.723	0.134	-0.128
-232.800	153.833	-0.113	0.155
-231.786	232.655	0.061	-0.101
-230.771	292.965	0.169	0.309
-229.757	800.000	-0.109	0.375
-228.742	113.352	0.111	-0.135
-227.727	110.688	0.116	-0.140
-226.713	-151.225	0.168	-0.013
-225.698	70.138	0.092	0.095
-224.684	-200.000	-0.056	0.271
-223.669	-146.969	0.149	0.013
-222.655	-200.000	-0.027	0.120
-221.640	-113.189	-0.317	-0.062
-220.625	712.043	0.117	0.310
-219.611	175.535	-0.148	-0.215
-218.596	-18.885	0.217	-0.135
-217.582	-111.307	-0.462	-0.094
-216.567	324.412	0.190	-0.362
-215.552	-106.933	-0.359	0.079
-214.538	44.526	-0.205	-0.188
-213.523	-16.574	-0.080	-0.050
-212.509	9.518	0.115	0.087
-211.494	-16.113	0.121	0.077
-210.479	110.756	0.297	-0.357
-209.465	201.281	0.026	0.039
-208.450	726.709	0.135	0.359
-207.436	781.018	-0.092	0.251
-206.421	-200.000	-0.042	-0.248
-205.406	-200.000	-0.019	-0.160
-204.392	360.243	0.071	0.142
-203.377	169.044	0.079	-0.112
-202.363	245.414	0.114	0.192
-201.348	-200.000	0.062	0.371
-200.333	79.627	0.219	0.235
-199.319	-200.000	0.065	0.365
-198.304	800.000	-0.043	-0.137
-197.290	7.099	-0.389	-0.290
-196.275	-97.525	-0.149	-0.039
-195.260	-200.000	0.023	0.276
-194.246	-200.000	0.013	-0.156
-193.231	-49.414	0.277	-0.132
-192.217	-82.741	-0.072	-0.023
-191.202	-192.126	0.139	0.001
-190.187	492.572	0.141	0.322
-189.173	800.000	0.070	0.274
-188.158	-94.531	0.078	-0.021
-187.144	46.127	0.078	-0.073
-186.129	800.000	0.064	0.227
-185.114	-200.000	0.033	-0.183
-184.100	-69.030	-0.129	0.049
-183.085	-101.599	0.073	0.018
-182.071	-90.545	0.206	0.059
-181.056	-48.362	0.268	-0.129
-180.042	-84.826	-0.210	0.066
-179.027	290.877	0.035	0.064
-178.012	66.286	-0.163	0.165
-176.998	464.458	-0.043	-0.097
-175.983	-151.348	-0.289	-0.021
-174.969	-132.929	-0.091	0.012
-173.954	-40.960	-0.164	0.085
-172.939	-23.502	0.081	-0.049
-171.925	227.594	0.193	0.313
-170.910	-200.000	-0.028	0.306
-169.896	-200.000	0.078	0.353
-168.881	34.694	0.194	0.169
-167.866	199.406	-0.213	0.325
-166.852	-64.044	0.114	0.046
-165.837	141.008	0.137	0.181
-164.823	-174.699	0.315	0.009
-163.808	800.000	0.163	-0.543
-162.793	-200.000	-0.037	-0.327
-161.779	800.000	0.096	-0.405
-160.764	-145.560	0.181	0.016
-159.750	223.226	0.221	0.355
-158.735	124.074	0.032	-0.041
-157.720	78.956	0.075	-0.080
-156.706	225.534	-0.134	0.217
-155.691	343.182	0.046	-0.090
-154.677	292.337	0.114	-0.207
-153.662	-136.153	-0.419	-0.049
-152.647	-100.132	-0.186	0.046
-151.633	45.895	0.083	0.076
-150.618	113.710	0.302	0.366
-149.604	13.202	-0.146	0.113
-148.589	234.511	0.091	0.149
-147.574	800.000	-0.036	0.117
-146.560	83.744	0.262	0.284
-145.545	-65.290	0.184	0.074
-144.531	156.022	-0.211	0.290
-143.516	131.704	0.110	0.141
-142.502	11.140	0.128	-0.097
-141.487	202.258	-0.027	0.041
-140.472	-147.403	-0.230	0.019
-139.458	49.280	-0.187	-0.175
-138.443	-200.000	0.059	-0.271
-137.429	241.652	0.186	0.310
-136.414	39.473	0.155	-0.138
-135.399	299.088	-0.091	0.166
-134.385	570.360	0.053	0.129
-133.370	183.378	-0.073	-0.108
-132.356	104.706	0.138	-0.162
-131.341	446.607	0.024	-0.054
-130.326	-24.159	0.126	-0.075
-129.312	96.886	-0.122	0.140
-128.297	-200.000	-0.030	-0.151
-127.283	-47.011	0.180	-0.088
-126.268	175.688	0.261	0.377
-125.253	-35.715	0.197	-0.106
-124.239	-200.000	0.002	-0.042
-123.224	-200.000	0.004	0.167
-122.210	391.009	-0.064	0.132
-121.195	24.805	0.229	0.189
