DTS Sentinel unit serial number:	SN413079Multiplexer serial number:	ORYXHardware model number:	OX4-SRSoftware version number:	ORYX F/W v4.00 Oryx Data Collector v3.7.2.0data status	okinstallation	princeton_trtdifferential loss correction	single-endedforward channel	channel 1reverse channel	N/Adate	2019/09/11time	03:04:11forward acquisition time	60.00reverse acquisition time	0.00gamma	496.2192k internal	0.2331k external	0.2331temperature offset calibration	0.9928default loss term (dB/km)	0.3790temperature slope calibration	1.0000multiplexer offset coefficient	1.0000multiplexer slope coefficient	1.0000fibre end	0.00T internal ref (°C)	29.30T ext. ref 1 (°C)	-0.29T ext. ref 2 (°C)	23.71length (m)	temperature (°C)	Stokes	anti-Stokes-747.200	312.678	0.011	-0.020
-746.185	800.000	-0.095	0.347
-745.171	389.863	0.093	0.195
-744.156	181.827	0.137	0.202
-743.142	90.313	-0.090	-0.101
-742.127	800.000	-0.031	-0.119
-741.112	247.157	0.081	-0.138
-740.098	41.191	-0.057	-0.052
-739.083	151.028	-0.107	-0.146
-738.069	-12.972	-0.081	0.053
-737.054	32.855	0.217	0.189
-736.039	225.842	0.146	-0.238
-735.025	750.517	-0.111	0.301
-734.010	66.945	0.139	-0.142
-732.996	-50.426	-0.246	0.117
-731.981	-116.575	0.225	0.042
-730.966	-129.636	-0.342	-0.048
-729.952	800.000	0.012	0.040
-728.937	-47.585	-0.338	0.165
-727.923	38.661	-0.321	-0.288
-726.908	-157.984	0.208	0.012
-725.894	276.495	-0.058	-0.104
-724.879	788.715	0.131	-0.362
-723.864	30.987	0.267	-0.230
-722.850	-71.166	-0.240	-0.091
-721.835	30.096	-0.108	0.093
-720.821	280.104	0.080	0.144
-719.806	-84.258	0.383	0.122
-718.791	-138.930	-0.086	-0.009
-717.777	800.000	-0.041	-0.152
-716.762	47.026	-0.108	-0.101
-715.748	-28.282	0.068	0.040
-714.733	152.970	-0.190	-0.261
-713.718	-75.650	-0.272	-0.097
-712.704	-35.137	0.177	-0.097
-711.689	77.513	0.117	-0.125
-710.675	-8.580	0.385	0.260
-709.660	800.000	-0.057	0.237
-708.645	23.628	-0.096	0.079
-707.631	-40.547	0.114	0.060
-706.616	-200.000	0.034	0.180
-705.602	-200.000	-0.012	0.206
-704.587	60.926	-0.285	0.284
-703.572	337.479	0.137	0.267
-702.558	-95.879	0.393	-0.105
-701.543	-15.216	-0.095	0.061
-700.529	800.000	0.021	0.059
-699.514	89.354	0.243	0.272
-698.499	-200.000	-0.034	-0.163
-697.485	219.213	0.054	0.087
-696.470	260.905	0.117	-0.204
-695.456	800.000	0.057	-0.224
-694.441	-200.000	-0.002	0.367
-693.426	57.599	-0.073	-0.071
-692.412	-45.346	-0.389	-0.194
-691.397	32.022	-0.110	0.096
-690.383	4.185	0.240	0.176
-689.368	196.586	-0.147	-0.225
-688.354	-26.646	0.094	0.055
-687.339	-123.652	0.342	-0.054
-686.324	180.077	-0.247	0.364
-685.310	800.000	0.076	0.251
-684.295	-200.000	0.012	-0.150
-683.281	800.000	-0.022	-0.061
-682.266	-99.317	-0.296	-0.075
-681.251	-200.000	0.003	-0.337
-680.237	-34.349	-0.205	0.113
-679.222	139.888	-0.036	0.048
-678.208	-200.000	-0.017	-0.234
-677.193	-200.000	0.054	-0.281
-676.178	-200.000	-0.007	-0.167
-675.164	-200.000	-0.035	0.172
-674.149	-103.999	0.562	-0.131
-673.135	489.949	-0.101	0.231
-672.120	-81.660	-0.065	0.022
-671.105	-79.482	-0.386	0.131
-670.091	-15.552	0.034	0.022
-669.076	-86.216	0.076	-0.024
-668.062	326.776	-0.102	0.196
-667.047	275.903	0.106	-0.189
-666.032	-133.667	0.197	-0.025
-665.018	-85.433	0.476	-0.149
-664.003	-53.098	0.213	0.098
-662.989	439.529	0.168	0.368
-661.974	-37.517	-0.097	0.052
-660.959	678.296	-0.071	0.184
-659.945	-163.643	0.443	-0.021
-658.930	381.446	0.075	0.155
-657.916	-125.817	0.261	-0.040
-656.901	254.826	0.043	-0.074
-655.886	-49.042	0.364	0.175
-654.872	-67.096	-0.518	-0.205
-653.857	261.557	0.237	-0.412
-652.843	-200.000	-0.032	0.277
-651.828	58.755	-0.111	-0.109
-650.814	-200.000	0.002	0.267
-649.799	-5.134	-0.135	0.093
-648.784	-200.000	0.058	-0.421
-647.770	100.991	-0.160	0.187
-646.755	181.963	0.255	-0.377
-645.741	4.791	0.115	0.084
-644.726	204.458	0.142	0.220
-643.711	163.885	-0.259	-0.366
-642.697	84.319	-0.014	0.015
-641.682	130.085	-0.127	0.163
-640.668	3.401	0.260	0.190
-639.653	-44.160	0.158	-0.080
-638.638	131.719	-0.169	0.217
-637.624	-97.154	0.163	0.043
-636.609	-106.691	0.333	0.074
-635.595	47.388	-0.123	0.115
-634.580	-38.637	0.482	-0.255
-633.565	-144.960	0.292	-0.027
-632.551	-121.484	-0.268	-0.045
-631.536	-142.525	-0.154	0.015
-630.522	-200.000	-0.055	0.282
-629.507	235.032	0.068	-0.112
-628.492	288.063	0.106	-0.192
-627.478	-28.266	0.148	-0.085
-626.463	-91.593	-0.146	0.042
-625.449	214.054	0.071	-0.113
-624.434	410.648	0.066	-0.139
-623.419	236.247	-0.136	-0.226
-622.405	-135.667	0.229	-0.027
-621.390	-200.000	0.004	0.304
-620.376	-113.706	-0.130	0.025
-619.361	312.968	0.145	-0.274
-618.346	-141.872	0.248	-0.025
-617.332	-200.000	-0.002	0.157
-616.317	-177.387	-0.199	0.005
-615.303	157.861	-0.203	0.282
-614.288	-101.703	-0.393	0.096
-613.273	40.628	-0.122	-0.110
-612.259	-103.673	0.109	0.026
-611.244	800.000	-0.071	0.287
-610.230	122.208	0.230	-0.287
-609.215	499.105	-0.057	-0.132
-608.201	-97.824	0.064	0.017
-607.186	-140.847	-0.252	-0.026
-606.171	48.139	-0.322	-0.302
-605.157	-125.744	0.572	-0.087
-604.142	150.906	-0.098	-0.133
-603.128	-57.509	-0.159	-0.070
-602.113	0.504	-0.362	-0.259
-601.098	22.812	-0.150	-0.123
-600.084	-22.976	0.344	-0.208
-599.069	-200.000	0.004	0.032
-598.055	175.326	0.072	-0.104
-597.040	59.163	-0.128	-0.126
-596.025	50.013	-0.313	0.295
-595.011	-15.432	-0.197	0.126
-593.996	-35.548	-0.249	0.135
-592.982	800.000	0.055	0.158
-591.967	-200.000	-0.091	0.488
-590.952	-110.120	-0.227	0.047
-589.938	174.685	0.125	0.181
-588.923	90.193	0.128	0.143
-587.909	116.811	-0.265	0.325
-586.894	-57.686	-0.229	-0.100
-585.879	-67.972	-0.325	0.127
-584.865	800.000	0.040	-0.117
-583.850	800.000	0.031	0.089
-582.836	115.549	0.052	-0.063
-581.821	-200.000	-0.005	0.168
-580.806	530.614	-0.169	0.399
-579.792	-40.553	-0.213	0.111
-578.777	-169.120	-0.180	-0.007
-577.763	19.423	0.169	-0.136
-576.748	4.413	0.355	-0.260
-575.733	-200.000	-0.002	0.052
-574.719	237.807	-0.184	-0.305
-573.704	406.097	-0.155	-0.326
-572.690	10.716	-0.129	0.098
-571.675	70.654	-0.179	0.185
-570.661	-129.465	0.467	0.065
-569.646	-140.349	0.463	0.048
-568.631	-115.409	-0.288	-0.054
-567.617	546.718	0.153	0.365
-566.602	67.610	0.130	-0.133
-565.588	-200.000	0.029	0.198
-564.573	336.753	0.085	0.165
-563.558	-200.000	-0.001	0.086
-562.544	-200.000	-0.085	0.479
-561.529	110.005	0.261	0.312
-560.515	-200.000	-0.030	0.389
-559.500	-156.468	0.198	-0.012
-558.485	70.423	0.228	0.235
-557.471	-145.152	-0.082	0.007
-556.456	-74.604	-0.508	-0.183
-555.442	800.000	0.048	0.187
-554.427	97.415	-0.139	-0.160
-553.412	145.779	-0.095	0.127
-552.398	-84.532	0.125	-0.039
-551.383	-4.990	0.221	0.152
-550.369	311.047	0.108	0.203
-549.354	-72.730	0.186	0.068
-548.339	-154.086	0.068	-0.005
-547.325	-104.406	-0.550	-0.127
-546.310	-51.492	0.066	0.031
-545.296	7.623	-0.115	0.086
-544.281	-53.225	0.151	-0.069
-543.266	-92.133	0.144	-0.041
-542.252	-38.225	-0.262	-0.139
-541.237	179.204	-0.107	-0.156
-540.223	800.000	-0.125	0.366
-539.208	-70.939	-0.206	0.077
-538.193	-195.488	0.425	-0.003
-537.179	-24.094	-0.163	0.097
-536.164	-71.062	-0.106	-0.040
-535.150	-13.859	-0.299	0.193
-534.135	274.154	-0.123	-0.217
-533.121	2.375	-0.202	0.146
-532.106	-30.419	0.460	0.261
-531.091	-139.791	0.231	-0.025
-530.077	-149.920	-0.212	-0.016
-529.062	-36.834	-0.433	0.232
-528.048	-136.752	0.163	-0.019
-527.033	190.697	0.045	0.068
-526.018	800.000	0.099	0.389
-525.004	-200.000	-0.007	-0.235
-523.989	-50.151	-0.172	-0.081
-522.975	-139.041	-0.386	-0.042
-521.960	168.555	-0.178	-0.253
-520.945	323.644	-0.127	0.242
-519.931	161.211	0.108	-0.151
-518.916	-134.995	-0.285	0.034
-517.902	-200.000	-0.003	-0.029
-516.887	762.798	0.160	0.432
-515.872	-200.000	-0.006	0.339
-514.858	14.587	0.231	0.180
-513.843	438.730	0.049	0.107
-512.829	-200.000	0.076	0.515
-511.814	-74.295	-0.101	0.036
-510.799	49.609	0.281	-0.264
-509.785	800.000	-0.073	-0.268
-508.770	-116.213	0.367	-0.068
-507.756	-137.470	0.111	0.012
-506.741	178.424	-0.147	0.215
-505.726	343.147	0.103	0.201
-504.712	800.000	0.008	-0.025
-503.697	-39.671	-0.241	0.126
-502.683	-114.083	-0.121	0.023
-501.668	48.779	0.199	0.186
-500.653	-134.398	0.380	-0.046
-499.639	-105.464	-0.215	0.049
-498.624	77.015	0.147	0.156
-497.610	-166.363	0.344	0.014
-496.595	-138.733	0.100	-0.011
-495.581	-33.944	0.106	0.058
-494.566	4.635	-0.205	-0.150
-493.551	54.408	-0.230	0.220
-492.537	-173.794	0.171	0.005
-491.522	-173.273	-0.210	0.006
-490.508	7.100	0.408	-0.303
-489.493	-52.431	0.268	0.124
-488.478	-55.318	-0.216	-0.097
-487.464	-200.000	0.442	0.001
-486.449	145.788	-0.052	-0.070
-485.435	-46.553	0.240	0.117
-484.420	-128.466	0.302	0.043
-483.405	-51.539	-0.062	-0.029
-482.391	-51.248	-0.097	0.045
-481.376	792.059	-0.211	-0.579
-480.362	206.987	0.104	-0.162
-479.347	-51.755	0.395	-0.183
-478.332	-96.540	0.112	-0.030
-477.318	-115.866	0.259	-0.048
-476.303	-74.365	-0.298	0.107
-475.289	-29.493	-0.328	-0.187
-474.274	207.474	0.298	-0.463
-473.259	800.000	0.050	-0.205
-472.245	800.000	0.064	0.223
-471.230	68.046	-0.094	0.095
-470.216	800.000	0.066	-0.198
-469.201	-200.000	-0.012	-0.441
-468.186	68.994	0.110	-0.112
-467.172	-58.643	-0.227	0.098
-466.157	85.471	-0.351	-0.383
-465.143	-172.183	0.093	0.003
-464.128	-200.000	0.077	0.363
-463.113	83.484	0.042	-0.046
-462.099	-200.000	0.002	-0.138
-461.084	16.796	-0.197	-0.155
-460.070	-79.008	0.127	0.043
-459.055	-117.964	-0.058	0.010
-458.040	691.030	0.091	0.237
-457.026	-74.971	0.261	0.093
-456.011	800.000	-0.017	-0.065
-454.997	172.517	-0.240	0.344
-453.982	360.396	-0.036	-0.071
-452.968	-200.000	-0.010	-0.112
-451.953	-197.772	0.146	-0.001
-450.938	-186.149	-0.255	0.004
-449.924	128.826	-0.176	-0.223
-448.909	100.631	0.154	-0.178
-447.895	231.127	-0.063	-0.103
-446.880	-34.954	-0.261	0.141
-445.865	98.309	-0.175	0.201
-444.851	-71.490	0.423	0.157
-443.836	-200.000	-0.077	0.385
-442.822	276.945	-0.052	0.092
-441.807	6.623	0.157	-0.116
-440.792	-38.076	-0.098	0.052
-439.778	245.050	0.207	-0.347
-438.763	-102.717	-0.151	-0.036
-437.749	26.224	-0.250	0.208
-436.734	-135.336	-0.122	-0.015
-435.719	385.815	0.109	-0.224
-434.705	-200.000	-0.046	-0.255
-433.690	-155.215	0.254	0.016
-432.676	-84.357	0.184	0.058
-431.661	-3.230	0.204	-0.141
-430.646	199.520	-0.300	0.458
-429.632	-122.139	0.057	0.009
-428.617	-24.379	-0.184	-0.109
-427.603	162.049	-0.065	0.090
-426.588	-25.226	0.169	-0.099
-425.573	-99.656	-0.154	0.038
-424.559	379.859	-0.056	0.114
-423.544	-200.000	0.038	0.248
-422.530	-200.000	0.078	0.000
-421.515	-72.952	0.149	-0.055
-420.500	36.098	0.032	-0.028
-419.486	-131.903	-0.232	0.030
-418.471	75.450	-0.094	-0.099
-417.457	-155.411	-0.568	-0.037
-416.442	-200.000	-0.011	0.067
-415.428	87.159	0.089	-0.098
-414.413	-128.530	-0.107	0.015
-413.398	-24.043	-0.044	-0.026
-412.384	-145.672	-0.537	-0.048
-411.369	-20.084	0.223	0.137
-410.355	202.054	0.120	-0.184
-409.340	1.594	0.160	0.114
-408.325	144.177	0.130	-0.172
-407.311	-39.233	-0.007	0.004
-406.296	-200.000	-0.000	0.101
-405.282	-200.000	0.005	0.168
-404.267	-200.000	-0.034	-0.239
-403.252	-128.958	0.220	0.031
-402.238	479.705	0.046	0.104
-401.223	-141.799	0.317	0.031
-400.209	-140.034	-0.416	-0.044
-399.194	-89.603	-0.448	0.130
-398.179	-121.955	0.240	0.039
-397.165	-131.136	-0.218	-0.029
-396.150	-55.716	-0.410	0.182
-395.136	160.367	-0.130	0.180
-394.121	-200.000	0.075	-0.470
-393.106	-174.172	0.200	-0.006
-392.092	800.000	0.011	0.030
-391.077	75.710	0.055	-0.057
-390.063	21.310	-0.137	-0.110
-389.048	-68.819	-0.158	0.061
-388.033	45.187	-0.112	-0.102
-387.019	219.113	0.126	0.200
-386.004	800.000	0.082	0.226
-384.990	-200.000	0.016	-0.431
-383.975	2.754	0.060	0.043
-382.960	67.866	0.255	0.259
-381.946	-64.224	-0.156	0.063
-380.931	-74.488	-0.229	0.082
-379.917	35.245	-0.193	0.168
-378.902	800.000	0.055	-0.210
-377.888	-116.360	-0.113	-0.021
-376.873	-155.346	0.277	-0.018
-375.858	21.996	0.103	0.084
-374.844	-200.000	0.012	-0.119
-373.829	301.048	-0.015	0.028
-372.815	800.000	-0.040	-0.120
-371.800	207.918	0.147	-0.228
-370.785	339.796	0.088	-0.170
-369.771	302.338	-0.044	-0.081
-368.756	320.705	0.117	-0.220
-367.742	367.930	0.009	-0.019
-366.727	418.919	0.100	-0.213
-365.712	169.166	-0.205	-0.290
-364.698	-152.610	0.338	-0.024
-363.683	-200.000	-0.008	-0.131
-362.669	800.000	-0.029	0.091
-361.654	736.297	-0.035	0.092
-360.639	-200.000	-0.031	0.275
-359.625	-41.440	0.153	0.078
-358.610	198.405	-0.069	0.105
-357.596	132.862	-0.267	-0.342
-356.581	16.012	-0.268	-0.209
-355.566	800.000	0.002	0.008
-354.552	131.234	0.220	0.280
-353.537	-11.440	-0.245	0.160
-352.523	-24.763	0.128	-0.075
-351.508	141.768	0.087	0.115
-350.493	-200.000	0.010	0.247
-349.479	-132.054	0.296	-0.038
-348.464	487.951	0.107	-0.241
-347.450	167.863	0.034	0.048
-346.435	800.000	-0.041	-0.131
-345.420	443.498	-0.044	0.095
-344.406	-200.000	-0.075	-0.361
-343.391	-122.486	0.135	0.022
-342.377	-200.000	-0.020	0.263
-341.362	96.705	-0.258	-0.293
-340.348	172.650	0.151	0.216
-339.333	690.200	-0.118	0.306
-338.318	-55.117	-0.062	-0.027
-337.304	85.936	-0.151	-0.164
-336.289	-108.475	-0.150	-0.032
-335.275	-16.079	-0.051	-0.032
-334.260	82.591	-0.102	-0.110
-333.245	528.884	0.100	0.233
-332.231	130.193	-0.121	-0.153
-331.216	-91.416	-0.186	0.053
-330.202	90.736	-0.078	0.086
-329.187	74.507	0.084	-0.087
-328.172	144.560	-0.153	0.202
-327.158	37.963	0.216	0.190
-326.143	-103.430	-0.305	-0.071
-325.129	-152.996	-0.241	-0.017
-324.114	-108.263	-0.301	-0.064
-323.099	-28.929	-0.269	-0.153
-322.085	-0.488	-0.085	0.060
-321.070	-194.126	-0.219	0.002
-320.056	672.025	0.054	0.139
-319.041	16.068	-0.093	-0.073
-318.026	36.354	-0.281	-0.245
-317.012	-129.074	0.167	-0.023
-315.997	-143.283	0.396	-0.038
-314.983	-143.894	-0.339	0.032
-313.968	800.000	-0.050	0.213
-312.953	-200.000	0.048	0.347
-311.939	800.000	0.079	0.235
-310.924	-200.000	-0.061	0.299
-309.910	-82.090	0.309	-0.100
-308.895	-36.601	-0.324	0.173
-307.880	79.687	-0.053	0.056
-306.866	69.889	0.214	-0.218
-305.851	658.139	0.123	0.313
-304.837	173.054	0.064	-0.092
-303.822	-144.616	0.259	0.024
-302.807	-200.000	-0.031	0.191
-301.793	200.781	0.077	-0.117
-300.778	-40.394	-0.026	0.013
-299.764	386.350	-0.085	-0.174
-298.749	-1.327	0.211	0.147
-297.735	565.795	0.169	-0.405
-296.720	-88.099	0.315	0.094
-295.705	-54.798	-0.441	0.197
-294.691	78.118	-0.143	-0.151
-293.676	142.543	0.064	0.083
-292.662	-200.000	-0.027	0.152
-291.647	-90.852	-0.551	-0.157
-290.632	89.751	-0.232	-0.256
-289.618	-200.000	-0.016	-0.299
-288.603	-200.000	-0.006	-0.123
-287.589	-51.220	-0.261	-0.121
-286.574	719.595	-0.142	-0.372
-285.559	-173.635	0.030	-0.001
-284.545	800.000	0.076	-0.221
-283.530	-0.259	-0.069	0.048
-282.516	3.988	0.104	-0.075
-281.501	129.947	0.180	-0.227
-280.486	-78.751	0.245	-0.083
-279.472	800.000	0.089	0.297
-278.457	707.242	-0.148	0.387
-277.443	-4.593	0.133	0.091
-276.428	98.631	-0.189	0.216
-275.413	-115.919	0.400	0.074
-274.399	800.000	-0.074	-0.245
-273.384	90.101	0.189	-0.209
-272.370	-92.496	0.232	-0.064
-271.355	-159.422	-0.272	0.015
-270.340	-8.213	-0.104	0.069
-269.326	182.372	-0.133	0.194
-268.311	-200.000	-0.043	-0.328
-267.297	51.288	-0.266	0.250
-266.282	-77.769	0.388	0.132
-265.267	-151.317	0.276	0.020
-264.253	-56.721	0.252	0.110
-263.238	-65.116	0.088	0.035
-262.224	49.715	-0.284	-0.264
-261.209	-171.773	-0.312	-0.010
-260.195	498.075	0.030	-0.068
-259.180	-90.560	0.185	-0.053
-258.165	72.074	0.242	0.249
-257.151	86.344	0.019	0.020
-256.136	800.000	0.049	-0.162
-255.122	419.917	0.055	-0.115
-254.107	249.878	0.063	-0.106
-253.092	-200.000	0.056	0.413
-252.078	-3.308	0.237	-0.163
-251.063	800.000	-0.078	-0.269
-250.049	90.011	0.068	-0.075
-249.034	-16.291	0.198	-0.124
-248.019	-110.187	0.180	-0.037
-247.005	-25.456	0.345	-0.201
-245.990	-39.755	0.286	-0.148
-244.976	-55.823	-0.279	-0.123
-243.961	75.646	-0.101	0.106
-242.946	-200.000	-0.006	0.186
-241.932	32.235	-0.105	-0.089
-240.917	581.231	-0.076	0.185
-239.903	-171.256	0.184	-0.006
-238.888	-10.593	-0.256	-0.167
-237.873	-9.638	-0.142	-0.093
-236.859	-200.000	-0.011	-0.135
-235.844	-200.000	0.041	-0.259
-234.830	69.391	-0.166	-0.168
-233.815	290.525	-0.057	0.101
-232.800	33.921	0.107	0.092
-231.786	800.000	0.098	0.356
-230.771	-200.000	0.082	-0.372
-229.757	-200.000	0.046	0.203
-228.742	515.142	-0.136	0.313
-227.727	-153.569	0.266	0.018
-226.713	-124.671	0.016	0.002
-225.698	-70.042	-0.333	0.125
-224.684	33.563	-0.093	0.080
-223.669	88.981	-0.134	0.147
-222.655	-55.037	0.162	-0.072
-221.640	16.982	0.237	0.185
-220.625	-45.903	-0.183	-0.089
-219.611	171.228	0.063	-0.089
-218.596	110.657	-0.098	0.116
-217.582	-109.910	0.198	-0.041
-216.567	-156.436	0.227	0.014
-215.552	-157.037	-0.146	-0.009
-214.538	800.000	-0.109	-0.307
-213.523	800.000	0.089	0.325
-212.509	-169.423	0.309	0.011
-211.494	-200.000	-0.016	-0.156
-210.479	-200.000	0.052	-0.545
-209.465	34.661	0.181	0.156
-208.450	-86.159	-0.325	0.099
-207.436	-174.456	0.168	0.005
-206.421	-200.000	0.001	-0.173
-205.406	-200.000	0.006	0.310
-204.392	135.664	0.072	0.092
-203.377	174.740	0.086	-0.122
-202.363	119.988	0.144	-0.176
-201.348	46.702	0.162	0.148
-200.333	-119.547	0.165	-0.028
-199.319	-101.568	0.181	-0.043
-198.304	-173.869	-0.097	0.003
-197.290	280.373	0.081	-0.143
-196.275	-68.225	-0.402	0.154
-195.260	259.962	-0.085	-0.145
-194.246	-87.263	-0.154	0.046
-193.231	5.969	0.354	-0.258
-192.217	-179.551	0.380	-0.008
-191.202	325.966	0.104	-0.196
-190.187	-35.643	0.310	0.165
-189.173	-135.576	0.095	-0.011
-188.158	-77.782	-0.292	-0.099
-187.144	-66.452	-0.097	-0.038
-186.129	-200.000	0.069	-0.449
-185.114	-122.805	0.331	0.053
-184.100	-34.737	-0.336	-0.181
-183.085	800.000	0.037	0.134
-182.071	268.693	0.055	-0.096
-181.056	88.090	0.107	-0.117
-180.042	106.300	-0.182	0.213
-179.027	-200.000	0.015	0.131
-178.012	250.372	0.151	-0.253
-176.998	-200.000	0.087	0.455
-175.983	-121.435	-0.250	-0.041
-174.969	-32.533	0.033	-0.018
-173.954	-135.484	0.151	0.018
-172.939	-152.911	-0.094	0.007
-171.925	-200.000	-0.015	0.136
-170.910	800.000	-0.043	-0.139
-169.896	9.037	0.205	-0.152
-168.881	488.254	-0.087	-0.196
-167.866	-200.000	-0.226	0.000
-166.852	-200.000	0.011	-0.092
-165.837	37.610	0.298	0.261
-164.823	323.138	-0.183	0.343
-163.808	800.000	-0.056	-0.211
-162.793	-102.633	0.120	0.028
-161.779	247.720	0.074	-0.122
-160.764	800.000	-0.063	-0.201
-159.750	68.603	-0.050	-0.051
-158.735	-200.000	0.113	-0.497
-157.720	24.535	-0.201	0.163
-156.706	-0.442	-0.128	-0.089
-155.691	-22.285	-0.426	-0.254
-154.677	-160.089	0.372	-0.020
-153.662	-64.482	0.217	-0.087
-152.647	-74.751	0.057	0.020
-151.633	-135.257	0.179	0.021
-150.618	246.977	-0.031	0.052
-149.604	177.935	0.049	-0.070
-148.589	-200.000	0.001	0.017
-147.574	44.969	-0.202	-0.183
-146.560	347.937	0.047	-0.091
-145.545	562.059	-0.051	0.121
-144.531	-26.498	0.113	-0.065
-143.516	-200.000	-0.033	0.392
-142.502	-26.493	0.267	-0.154
-141.487	-88.781	0.324	-0.095
-140.472	-200.000	-0.022	-0.173
-139.458	800.000	-0.082	-0.266
-138.443	-200.000	-0.046	0.248
-137.429	426.624	0.133	0.281
-136.414	-32.719	-0.180	-0.098
-135.399	-119.183	0.327	0.056
-134.385	-200.000	0.028	-0.177
-133.370	234.974	0.121	0.197
-132.356	137.409	0.186	0.239
-131.341	77.183	-0.115	0.120
-130.326	-71.591	0.115	0.042
-129.312	800.000	0.047	-0.152
-128.297	72.195	-0.238	0.244
-127.283	17.928	-0.024	-0.019
-126.268	161.177	0.034	-0.047
-125.253	-200.000	0.074	-0.378
-124.239	22.734	0.055	0.045
-123.224	-74.782	-0.438	0.154
-122.210	-39.147	-0.173	0.089
-121.195	132.363	0.116	0.146
-120.180	-127.208	0.230	0.033
