DTS Sentinel unit serial number:	SN413079Multiplexer serial number:	ORYXHardware model number:	OX4-SRSoftware version number:	ORYX F/W v4.00 Oryx Data Collector v3.7.2.0data status	okinstallation	princeton_trtdifferential loss correction	single-endedforward channel	channel 1reverse channel	N/Adate	2019/09/10time	19:52:11forward acquisition time	60.00reverse acquisition time	0.00gamma	496.2192k internal	0.2323k external	0.2323temperature offset calibration	0.9931default loss term (dB/km)	0.3790temperature slope calibration	1.0000multiplexer offset coefficient	1.0000multiplexer slope coefficient	1.0000fibre end	0.00T internal ref (°C)	32.87T ext. ref 1 (°C)	-0.31T ext. ref 2 (°C)	25.70length (m)	temperature (°C)	Stokes	anti-Stokes-747.200	-8.617	0.078	0.053
-746.185	248.060	-0.119	0.203
-745.171	37.758	0.214	0.192
-744.156	-76.193	-0.525	0.187
-743.142	-200.000	0.070	0.340
-742.127	17.603	0.276	-0.221
-741.112	-200.000	0.046	-0.298
-740.098	-21.087	0.137	-0.085
-739.083	-200.000	-0.063	-0.298
-738.069	194.942	0.041	0.063
-737.054	-14.222	-0.026	-0.017
-736.039	-75.816	-0.275	0.099
-735.025	476.841	-0.082	0.188
-734.010	800.000	0.078	0.283
-732.996	571.171	-0.049	0.121
-731.981	268.093	-0.070	0.124
-730.966	-93.346	0.233	-0.065
-729.952	16.162	0.069	0.055
-728.937	11.519	0.023	0.018
-727.923	-200.000	-0.043	-0.250
-726.908	-55.508	0.438	0.198
-725.894	272.750	0.057	0.101
-724.879	78.993	-0.177	-0.192
-723.864	-20.416	0.273	0.170
-722.850	-79.732	0.199	-0.068
-721.835	51.669	-0.095	0.091
-720.821	208.278	-0.048	-0.075
-719.806	9.577	-0.145	-0.110
-718.791	11.267	0.203	-0.157
-717.777	-117.306	0.115	-0.021
-716.762	190.351	0.097	-0.147
-715.748	249.052	-0.150	-0.256
-714.733	603.903	0.036	-0.090
-713.718	22.905	-0.322	-0.266
-712.704	800.000	0.022	-0.073
-711.689	-198.769	0.230	-0.001
-710.675	-80.404	0.134	0.045
-709.660	76.451	-0.122	-0.130
-708.645	-144.176	-0.366	0.035
-707.631	-22.562	-0.313	-0.191
-706.616	-149.593	0.042	0.003
-705.602	-167.976	0.178	0.007
-704.587	168.157	-0.138	-0.198
-703.572	-200.000	0.008	0.076
-702.558	408.767	-0.250	-0.534
-701.543	-94.785	-0.081	-0.022
-700.529	-30.036	-0.192	0.110
-699.514	196.886	-0.072	0.110
-698.499	-95.505	-0.161	-0.044
-697.485	-27.181	0.238	-0.140
-696.470	-49.072	0.327	0.158
-695.456	-6.780	-0.291	0.199
-694.441	-145.006	-0.385	0.035
-693.426	219.017	0.037	0.059
-692.412	800.000	-0.111	-0.363
-691.397	-200.000	-0.056	0.258
-690.383	125.239	0.085	0.108
-689.368	-105.492	-0.211	0.048
-688.354	-56.022	0.064	-0.029
-687.339	166.511	0.070	0.100
-686.324	142.186	0.151	0.202
-685.310	-200.000	0.001	-0.165
-684.295	-200.000	0.050	-0.248
-683.281	19.414	-0.390	-0.316
-682.266	-80.206	-0.197	-0.066
-681.251	71.520	0.032	-0.033
-680.237	-161.628	0.120	0.006
-679.222	800.000	0.146	0.421
-678.208	249.882	-0.028	-0.048
-677.193	481.937	-0.054	-0.123
-676.178	136.606	0.134	0.176
-675.164	-143.914	-0.288	0.027
-674.149	-90.319	0.356	-0.104
-673.135	514.175	0.079	-0.186
-672.120	544.575	-0.048	0.115
-671.105	96.320	-0.130	-0.150
-670.091	28.242	-0.348	-0.296
-669.076	-200.000	-0.008	-0.193
-668.062	-84.490	-0.195	0.062
-667.047	-147.172	0.130	0.011
-666.032	458.521	-0.056	0.125
-665.018	-66.995	0.336	0.133
-664.003	-7.630	0.191	0.130
-662.989	111.812	-0.246	0.300
-661.974	-55.108	0.186	0.084
-660.959	112.832	0.086	-0.105
-659.945	-63.411	0.089	-0.037
-658.930	-7.812	-0.241	-0.164
-657.916	217.034	-0.116	-0.186
-656.901	-88.571	0.291	-0.087
-655.886	-200.000	0.022	-0.130
-654.872	-200.000	-0.027	-0.149
-653.857	300.783	-0.075	-0.139
-652.843	800.000	-0.069	-0.205
-651.828	274.129	-0.050	0.089
-650.814	171.331	0.101	0.146
-649.799	210.405	0.128	0.202
-648.784	-32.273	-0.401	0.225
-647.770	-71.978	-0.543	-0.203
-646.755	-11.126	-0.069	-0.045
-645.741	-67.998	0.170	-0.067
-644.726	-126.885	-0.142	0.021
-643.711	-109.199	0.370	0.079
-642.697	-1.524	-0.209	0.148
-641.682	122.113	0.162	-0.204
-640.668	-200.000	0.008	-0.370
-639.653	800.000	-0.039	0.141
-638.638	-200.000	-0.024	-0.267
-637.624	-27.113	-0.236	-0.139
-636.609	-52.981	-0.121	-0.056
-635.595	587.162	0.060	0.147
-634.580	-42.389	-0.069	-0.035
-633.565	15.484	-0.275	-0.217
-632.551	213.956	0.097	0.155
-631.536	-200.000	0.002	0.051
-630.522	800.000	-0.049	-0.138
-629.507	305.946	-0.100	-0.187
-628.492	-104.831	0.210	0.049
-627.478	-77.617	-0.094	0.033
-626.463	-45.539	-0.199	0.099
-625.449	-56.399	0.228	-0.102
-624.434	-33.759	-0.088	-0.049
-623.419	-179.708	0.339	0.007
-622.405	316.684	-0.126	-0.239
-621.390	-200.000	-0.003	0.028
-620.376	24.860	0.233	-0.194
-619.361	-164.811	-0.204	-0.009
-618.346	-200.000	0.065	-0.288
-617.332	138.554	-0.111	0.146
-616.317	169.219	-0.138	0.198
-615.303	-171.327	0.122	0.004
-614.288	-98.954	0.294	-0.075
-613.273	-71.860	-0.167	-0.062
-612.259	-140.895	-0.066	0.007
-611.244	-108.750	-0.187	0.040
-610.230	-200.000	0.014	-0.133
-609.215	9.220	0.098	0.075
-608.201	-3.333	-0.225	-0.158
-607.186	13.663	0.160	0.125
-606.171	-76.336	-0.092	0.032
-605.157	20.095	-0.229	-0.186
-604.142	800.000	0.048	0.199
-603.128	491.549	-0.066	0.151
-602.113	-68.292	0.289	0.113
-601.098	-113.422	0.321	0.063
-600.084	-92.370	0.125	0.035
-599.069	231.787	-0.156	-0.257
-598.055	185.798	0.020	-0.030
-597.040	-122.217	0.297	0.049
-596.025	-200.000	-0.050	-0.382
-595.011	-200.000	0.001	-0.357
-593.996	708.149	0.087	-0.230
-592.982	-90.295	-0.271	-0.079
-591.967	23.324	-0.260	-0.214
-590.952	-150.296	-0.250	0.019
-589.938	658.817	-0.070	-0.181
-588.923	581.798	-0.097	0.240
-587.909	52.745	-0.035	-0.033
-586.894	-200.000	0.002	-0.226
-585.879	-87.187	-0.191	0.058
-584.865	-78.694	0.352	0.121
-583.850	-14.546	0.317	0.205
-582.836	47.942	0.107	-0.100
-581.821	-180.081	-0.033	-0.001
-580.806	-136.191	-0.223	-0.026
-579.792	133.877	0.160	-0.208
-578.777	167.246	0.014	0.019
-577.763	-200.000	-0.002	-0.280
-576.748	800.000	-0.029	-0.108
-575.733	800.000	0.075	0.317
-574.719	-176.333	0.112	0.003
-573.704	103.227	-0.133	-0.157
-572.690	-20.695	-0.072	-0.044
-571.675	-200.000	0.063	0.555
-570.661	37.859	-0.320	0.285
-569.646	-101.592	0.306	-0.075
-568.631	39.974	-0.084	-0.075
-567.617	-59.349	-0.091	0.039
-566.602	-200.000	-0.044	-0.323
-565.588	-10.710	0.100	0.067
-564.573	-187.320	-0.298	-0.004
-563.558	800.000	0.102	0.396
-562.544	-200.000	0.027	-0.253
-561.529	207.075	-0.142	0.223
-560.515	-170.200	-0.470	-0.017
-559.500	-132.267	-0.192	-0.025
-558.485	64.528	0.051	0.052
-557.471	303.989	-0.149	0.277
-556.456	508.074	0.060	-0.140
-555.442	16.124	0.090	0.071
-554.427	112.430	0.173	0.210
-553.412	2.611	0.171	0.124
-552.398	-113.855	0.217	0.042
-551.383	238.215	0.042	-0.069
-550.369	-136.727	0.209	0.024
-549.354	-200.000	0.001	-0.199
-548.339	563.329	0.086	-0.208
-547.325	800.000	0.045	0.166
-546.310	85.755	-0.254	-0.280
-545.296	19.405	-0.155	0.125
-544.281	-50.938	-0.092	-0.043
-543.266	-200.000	0.034	0.153
-542.252	-13.454	-0.155	-0.101
-541.237	-145.757	-0.115	0.010
-540.223	180.725	0.126	-0.185
-539.208	-90.890	0.129	0.037
-538.193	-79.810	-0.096	0.032
-537.179	263.302	0.123	-0.214
-536.164	-200.000	-0.029	0.180
-535.150	-30.698	0.214	0.121
-534.135	250.117	-0.126	-0.214
-533.121	-162.685	0.262	-0.013
-532.106	-85.252	0.157	0.049
-531.091	151.217	0.056	0.077
-530.077	-121.460	-0.358	0.060
-529.062	50.006	-0.118	0.112
-528.048	-101.405	0.251	-0.061
-527.033	-120.829	0.140	-0.024
-526.018	-200.000	0.012	0.119
-525.004	-200.000	0.003	-0.147
-523.989	466.889	-0.194	-0.434
-522.975	-137.428	0.067	0.008
-521.960	-168.973	-0.155	-0.006
-520.945	-94.960	-0.393	0.106
-519.931	-115.784	-0.162	0.030
-518.916	236.660	-0.064	-0.106
-517.902	800.000	0.118	0.478
-516.887	84.302	-0.166	-0.181
-515.872	-200.000	0.012	0.364
-514.858	-200.000	-0.033	-0.209
-513.843	-157.151	0.126	0.008
-512.829	169.914	0.073	0.104
-511.814	-67.160	0.272	0.107
-510.799	-62.384	0.083	-0.035
-509.785	800.000	-0.087	-0.299
-508.770	383.477	-0.062	0.128
-507.756	-200.000	-0.034	0.390
-506.741	33.398	0.150	0.130
-505.726	66.377	-0.194	0.197
-504.712	-200.000	-0.014	0.263
-503.697	-60.610	0.378	0.160
-502.683	311.136	-0.213	0.399
-501.668	139.823	-0.103	0.136
-500.653	148.568	-0.229	-0.310
-499.639	-86.754	0.147	-0.045
-498.624	-116.550	-0.182	-0.033
-497.610	138.707	0.136	-0.178
-496.595	36.154	-0.171	0.150
-495.581	-84.897	-0.265	-0.083
-494.566	800.000	0.039	-0.162
-493.551	425.423	0.149	0.321
-492.537	-154.384	0.227	-0.015
-491.522	800.000	-0.010	0.032
-490.508	425.206	0.097	-0.209
-489.493	-46.626	0.027	-0.013
-488.478	-87.781	-0.084	0.025
-487.464	-98.952	0.223	-0.057
-486.449	-167.249	0.201	-0.008
-485.435	-200.000	-0.015	-0.176
-484.420	-123.871	0.160	-0.025
-483.405	36.308	0.039	-0.034
-482.391	127.022	-0.284	-0.359
-481.376	-94.068	-0.329	-0.090
-480.362	216.256	0.087	-0.138
-479.347	-86.225	0.138	0.043
-478.332	800.000	-0.085	0.298
-477.318	-72.648	0.413	-0.152
-476.303	270.130	-0.152	-0.268
-475.289	-155.627	-0.235	0.015
-474.274	-4.697	0.111	0.076
-473.259	78.466	0.356	0.380
-472.245	-162.130	-0.283	-0.014
-471.230	-108.197	0.181	0.039
-470.216	-72.700	-0.167	-0.061
-469.201	147.945	-0.049	-0.066
-468.186	117.215	0.171	-0.210
-467.172	48.794	-0.100	0.093
-466.157	-200.000	0.006	-0.104
-465.143	83.397	0.040	0.043
-464.128	-32.167	-0.092	0.051
-463.113	-59.883	-0.313	-0.134
-462.099	-66.371	0.251	0.100
-461.084	-114.104	-0.265	0.051
-460.070	-200.000	-0.020	-0.152
-459.055	800.000	-0.069	-0.214
-458.040	94.521	0.027	0.031
-457.026	-66.492	-0.205	0.081
-456.011	146.213	-0.159	-0.213
-454.997	-109.079	0.089	-0.019
-453.982	109.214	-0.073	-0.087
-452.968	-108.821	-0.382	0.082
-451.953	-42.535	-0.249	0.127
-450.938	-200.000	-0.003	0.036
-449.924	-33.118	0.221	0.123
-448.909	372.192	-0.010	0.021
-447.895	-157.058	0.231	-0.014
-446.880	280.301	0.118	-0.211
-445.865	800.000	0.076	-0.250
-444.851	151.237	0.086	0.117
-443.836	-35.078	0.168	-0.091
-442.822	-156.054	-0.051	0.003
-441.807	277.049	0.136	0.241
-440.792	-200.000	-0.035	0.465
-439.778	78.925	0.249	0.266
-438.763	-169.878	0.109	-0.004
-437.749	14.885	-0.191	-0.149
-436.734	-80.051	-0.156	0.052
-435.719	-140.029	0.274	0.029
-434.705	-118.049	-0.273	0.049
-433.690	-200.000	-0.013	0.292
-432.676	-49.837	0.254	0.120
-431.661	47.965	0.156	-0.145
-430.646	-11.379	0.123	0.081
-429.632	98.402	-0.132	-0.152
-428.617	81.343	-0.216	0.233
-427.603	800.000	-0.022	-0.080
-426.588	320.291	0.071	0.134
-425.573	-122.262	-0.412	0.067
-424.559	800.000	-0.056	-0.186
-423.544	5.570	0.174	0.128
-422.530	-200.000	-0.054	-0.260
-421.515	-183.082	0.145	0.003
-420.500	-200.000	0.176	0.000
-419.486	495.680	-0.059	-0.134
-418.471	35.296	0.153	0.134
-417.457	200.347	-0.177	-0.272
-416.442	85.006	0.070	0.076
-415.428	288.636	-0.065	0.118
-414.413	95.905	0.124	-0.141
-413.398	65.297	0.052	-0.052
-412.384	-149.422	0.034	-0.003
-411.369	800.000	0.085	-0.234
-410.355	-21.241	0.079	0.048
-409.340	-137.721	0.205	-0.023
-408.325	-146.440	-0.035	0.003
-407.311	800.000	-0.046	-0.176
-406.296	-133.489	-0.090	0.011
-405.282	419.899	0.082	-0.175
-404.267	48.748	0.155	0.145
-403.252	310.618	0.159	-0.296
-402.238	241.749	0.153	-0.254
-401.223	-9.879	-0.366	0.243
-400.209	-165.581	0.249	0.011
-399.194	483.946	0.053	0.119
-398.179	-46.875	0.431	0.210
-397.165	-200.000	0.011	-0.188
-396.150	-8.365	0.202	0.135
-395.136	-149.475	-0.282	0.022
-394.121	800.000	-0.063	-0.230
-393.106	-200.000	0.038	-0.207
-392.092	228.149	0.102	0.166
-391.077	239.135	0.096	-0.158
-390.063	-122.304	-0.391	0.064
-389.048	92.675	-0.033	-0.037
-388.033	138.356	0.145	0.190
-387.019	800.000	-0.105	0.354
-386.004	-200.000	-0.036	0.199
-384.990	-200.000	0.000	-0.335
-383.975	-80.690	0.157	0.052
-382.960	-50.689	-0.273	0.128
-381.946	546.096	-0.066	-0.156
-380.931	-76.565	-0.121	-0.042
-379.917	-52.914	-0.133	0.061
-378.902	208.704	0.057	0.088
-377.888	29.565	-0.031	0.026
-376.873	800.000	0.030	-0.092
-375.858	-82.635	-0.097	-0.031
-374.844	-157.918	0.264	-0.016
-373.829	800.000	-0.042	0.122
-372.815	-4.163	-0.095	-0.065
-371.800	-91.026	-0.279	0.080
-370.785	-102.810	-0.070	0.017
-369.771	-200.000	0.017	0.196
-368.756	-200.000	0.054	0.301
-367.742	-92.462	0.096	0.027
-366.727	-10.072	0.198	-0.131
-365.712	51.253	0.216	-0.204
-364.698	-102.507	-0.070	-0.017
-363.683	800.000	-0.013	0.036
-362.669	65.389	0.100	0.101
-361.654	-137.827	-0.164	-0.018
-360.639	-200.000	-0.001	0.073
-359.625	-200.000	-0.003	-0.070
-358.610	-140.675	0.412	-0.042
-357.596	66.584	0.179	-0.181
-356.581	-200.000	-0.069	0.435
-355.566	63.468	0.099	0.098
-354.552	632.703	0.082	-0.207
-353.537	-200.000	-0.017	0.113
-352.523	-200.000	0.075	0.360
-351.508	69.686	-0.263	-0.270
-350.493	-200.000	0.021	0.202
-349.479	-97.114	-0.333	0.087
-348.464	-200.000	-0.039	0.184
-347.450	41.426	0.159	0.143
-346.435	800.000	0.157	-0.465
-345.420	496.706	0.105	-0.241
-344.406	-57.377	-0.154	0.067
-343.391	543.222	-0.092	0.219
-342.377	183.462	-0.103	-0.151
-341.362	-75.780	-0.136	-0.048
-340.348	-107.031	0.304	0.067
-339.333	-200.000	0.100	-0.497
-338.318	40.131	-0.250	-0.224
-337.304	167.790	0.051	0.072
-336.289	99.456	0.385	0.442
-335.275	-152.865	-0.300	-0.021
-334.260	74.383	0.063	-0.066
-333.245	-200.000	0.030	-0.287
-332.231	-200.000	-0.005	0.031
-331.216	-144.699	0.284	0.026
-330.202	317.451	-0.047	0.088
-329.187	148.172	0.123	0.166
-328.172	64.185	-0.135	0.135
-327.158	54.373	0.239	0.229
-326.143	-13.032	0.147	0.095
-325.129	30.939	0.141	0.120
-324.114	800.000	-0.136	-0.388
-323.099	800.000	-0.031	0.125
-322.085	465.557	-0.113	0.252
-321.070	-46.228	0.268	-0.131
-320.056	-200.000	0.003	-0.137
-319.041	117.259	0.215	-0.262
-318.026	132.024	0.066	-0.085
-317.012	800.000	0.048	-0.187
-315.997	-87.049	-0.231	0.070
-314.983	409.278	-0.105	-0.222
-313.968	292.941	0.155	0.281
-312.953	-52.935	0.290	0.132
-311.939	800.000	0.122	-0.337
-310.924	73.097	0.210	0.218
-309.910	-200.000	-0.022	-0.101
-308.895	194.953	0.126	0.190
-307.880	2.394	-0.121	0.087
-306.866	483.133	-0.091	0.206
-305.851	-200.000	-0.039	-0.239
-304.837	800.000	0.106	-0.309
-303.822	-18.908	0.421	0.260
-302.807	-77.945	-0.172	0.059
-301.793	117.132	-0.083	0.101
-300.778	55.478	-0.154	-0.148
-299.764	-51.787	0.183	0.085
-298.749	-35.685	0.238	0.128
-297.735	-200.000	-0.034	-0.219
-296.720	32.210	-0.051	0.043
-295.705	8.418	0.032	0.024
-294.691	-9.547	0.340	0.225
-293.676	800.000	-0.066	0.203
-292.662	-42.625	0.136	0.069
-291.647	720.948	0.149	0.393
-290.632	800.000	0.059	0.225
-289.618	-96.044	-0.106	-0.028
-288.603	45.666	-0.027	0.025
-287.589	-26.119	-0.366	0.213
-286.574	267.913	-0.007	0.012
-285.559	-66.310	0.141	-0.056
-284.545	800.000	0.058	-0.210
-283.530	495.602	0.018	0.041
-282.516	-200.000	-0.018	0.214
-281.501	-200.000	0.043	0.280
-280.486	-64.375	0.133	0.054
-279.472	-104.753	0.268	0.061
-278.457	-170.307	0.273	-0.010
-277.443	-4.030	-0.139	-0.096
-276.428	-65.886	-0.169	0.067
-275.413	31.355	0.314	-0.268
-274.399	-98.398	-0.261	-0.066
-273.384	-100.908	-0.167	-0.041
-272.370	288.467	-0.056	-0.101
-271.355	-33.603	-0.386	0.211
-270.340	-200.000	-0.036	0.321
-269.326	-69.746	-0.214	-0.081
-268.311	-158.401	0.083	-0.005
-267.297	132.843	0.409	-0.523
-266.282	-32.836	-0.094	0.052
-265.267	62.858	-0.162	0.161
-264.253	771.564	0.069	0.186
-263.238	646.404	-0.048	0.121
-262.224	46.061	-0.148	0.136
-261.209	-194.561	0.315	-0.002
-260.195	162.607	0.150	0.208
-259.180	-14.375	0.112	-0.071
-258.165	-80.850	-0.281	-0.092
-257.151	10.790	-0.071	-0.054
-256.136	-72.174	0.262	-0.096
-255.122	-38.839	-0.130	-0.068
-254.107	-200.000	-0.030	-0.136
-253.092	492.276	-0.134	0.305
-252.078	800.000	0.044	-0.160
-251.063	-33.072	-0.216	-0.119
-250.049	-200.000	-0.000	-0.268
-249.034	108.551	-0.118	-0.140
-248.019	267.636	0.162	0.282
-247.005	18.851	0.124	0.098
-245.990	-122.766	-0.182	0.029
-244.976	-144.074	0.080	0.007
-243.961	-69.047	0.451	-0.172
-242.946	42.880	0.117	0.105
-241.932	800.000	-0.049	-0.200
-240.917	124.342	-0.185	0.231
-239.903	-200.000	0.068	-0.527
-238.888	-200.000	-0.022	-0.122
-237.873	-133.384	-0.431	0.054
-236.859	97.252	0.050	0.056
-235.844	-82.476	0.136	0.044
-234.830	30.065	0.227	-0.192
-233.815	-200.000	0.007	-0.236
-232.800	-200.000	0.016	-0.218
-231.786	-17.553	-0.255	-0.159
-230.771	-132.942	-0.280	0.035
-229.757	89.965	-0.042	-0.047
-228.742	138.021	-0.147	0.191
-227.727	800.000	-0.140	-0.410
-226.713	-200.000	-0.016	0.239
-225.698	50.668	-0.110	-0.103
-224.684	-200.000	0.006	-0.077
-223.669	-200.000	0.045	0.210
-222.655	-6.267	-0.166	-0.112
-221.640	-156.167	0.431	-0.027
-220.625	89.132	-0.075	-0.082
-219.611	-31.115	-0.195	-0.109
-218.596	-200.000	0.004	-0.127
-217.582	-73.858	-0.111	-0.040
-216.567	490.771	-0.090	0.205
-215.552	-60.991	-0.190	-0.079
-214.538	387.880	0.102	0.208
-213.523	146.194	0.218	-0.289
-212.509	269.489	-0.070	-0.122
-211.494	-72.019	-0.270	-0.099
-210.479	-200.000	-0.000	-0.244
-209.465	-58.869	-0.283	0.121
-208.450	-50.587	0.187	0.087
-207.436	86.773	0.203	-0.221
-206.421	43.796	0.110	-0.100
-205.406	-200.000	0.019	0.098
-204.392	33.132	0.219	0.188
-203.377	-200.000	0.005	0.181
-202.363	-200.000	-0.006	-0.241
-201.348	158.223	0.147	0.201
-200.333	-178.605	0.102	-0.002
-199.319	-96.718	-0.296	0.077
-198.304	28.288	-0.352	0.294
-197.290	203.602	0.274	0.420
-196.275	-107.575	0.172	0.037
-195.260	-54.851	0.056	-0.025
-194.246	-200.000	-0.017	0.459
-193.231	800.000	-0.029	-0.084
-192.217	63.151	-0.345	-0.342
-191.202	73.763	-0.409	-0.424
-190.187	-106.326	-0.068	-0.015
-189.173	577.528	0.115	0.277
-188.158	23.607	-0.174	0.142
-187.144	19.987	0.187	0.149
-186.129	-98.979	0.261	-0.065
-185.114	-200.000	-0.022	-0.210
-184.100	-20.648	0.133	-0.081
-183.085	590.212	-0.072	0.175
-182.071	-200.000	-0.011	0.210
-181.056	130.088	-0.351	0.444
-180.042	54.072	0.174	0.165
-179.027	-115.005	-0.153	-0.029
-178.012	70.393	-0.067	-0.068
-176.998	-146.297	-0.192	-0.017
-175.983	-154.055	-0.424	-0.028
-174.969	230.299	0.032	0.051
-173.954	-105.169	-0.114	0.026
-172.939	77.045	-0.242	-0.254
-171.925	32.253	0.087	-0.075
-170.910	121.187	0.205	0.252
-169.896	-86.327	0.278	-0.085
-168.881	222.819	-0.058	0.092
-167.866	215.249	0.194	0.305
-166.852	-63.057	0.191	-0.078
-165.837	-89.842	0.339	-0.098
-164.823	122.646	0.112	-0.138
-163.808	-136.811	-0.366	0.042
-162.793	185.727	-0.073	-0.107
-161.779	-128.520	-0.227	0.032
-160.764	-78.308	0.346	-0.117
-159.750	-13.997	-0.135	0.086
-158.735	14.247	-0.329	-0.253
-157.720	132.676	0.068	-0.086
-156.706	-83.417	0.235	0.074
-155.691	-41.585	-0.032	-0.016
-154.677	-149.785	-0.318	-0.025
-153.662	-118.664	0.354	-0.062
-152.647	-200.000	-0.029	0.127
-151.633	-129.856	-0.029	0.004
-150.618	-70.096	-0.202	-0.076
-149.604	800.000	-0.084	0.338
-148.589	94.731	-0.068	-0.077
-147.574	0.701	-0.180	-0.127
-146.560	-128.721	-0.305	-0.042
-145.545	-53.753	-0.130	-0.058
-144.531	-166.561	-0.142	-0.006
-143.516	-37.230	-0.178	-0.094
-142.502	10.388	-0.220	0.165
-141.487	-103.805	0.303	-0.070
-140.472	137.044	0.125	-0.161
-139.458	606.080	-0.058	-0.142
-138.443	-110.348	0.197	0.040
-137.429	-100.947	-0.364	-0.088
-136.414	-200.000	-0.014	0.375
-135.399	-98.826	0.155	0.039
-134.385	453.829	0.167	-0.365
-133.370	-132.013	0.058	0.007
-132.356	34.799	-0.079	0.068
-131.341	-200.000	-0.004	-0.187
-130.326	76.139	0.160	-0.167
-129.312	139.977	-0.110	0.144
-128.297	-200.000	-0.002	-0.313
-127.283	-6.650	-0.203	0.137
-126.268	20.023	-0.249	-0.198
-125.253	173.828	-0.042	-0.060
-124.239	800.000	-0.085	0.270
-123.224	-200.000	0.069	0.513
-122.210	-64.714	-0.107	0.043
-121.195	800.000	-0.015	-0.053
