DTS Sentinel unit serial number:	SN413079Multiplexer serial number:	ORYXHardware model number:	OX4-SRSoftware version number:	ORYX F/W v4.00 Oryx Data Collector v3.7.2.0data status	okinstallation	princeton_trtdifferential loss correction	single-endedforward channel	channel 1reverse channel	N/Adate	2019/09/11time	04:04:11forward acquisition time	60.00reverse acquisition time	0.00gamma	496.2192k internal	0.2331k external	0.2331temperature offset calibration	0.9926default loss term (dB/km)	0.3790temperature slope calibration	1.0000multiplexer offset coefficient	1.0000multiplexer slope coefficient	1.0000fibre end	0.00T internal ref (°C)	29.56T ext. ref 1 (°C)	-0.29T ext. ref 2 (°C)	23.71length (m)	temperature (°C)	Stokes	anti-Stokes-747.200	347.373	0.049	-0.098
-746.185	169.060	-0.116	0.166
-745.171	-200.000	-0.026	-0.420
-744.156	154.546	0.073	0.100
-743.142	254.138	-0.063	0.109
-742.127	442.503	-0.063	-0.138
-741.112	-40.545	-0.354	0.185
-740.098	-7.221	-0.159	0.109
-739.083	-34.546	-0.427	0.235
-738.069	800.000	0.066	0.277
-737.054	86.171	-0.059	0.066
-736.039	-154.992	-0.301	0.020
-735.025	142.802	0.025	-0.034
-734.010	-157.763	-0.188	-0.011
-732.996	55.129	-0.305	-0.297
-731.981	-144.585	-0.294	0.027
-730.966	251.478	-0.120	-0.206
-729.952	127.091	0.085	0.108
-728.937	256.281	-0.185	0.319
-727.923	-106.905	0.219	-0.049
-726.908	-172.391	-0.360	-0.012
-725.894	800.000	-0.058	-0.170
-724.879	-200.000	-0.003	0.080
-723.864	-33.866	0.230	0.127
-722.850	-68.591	-0.390	0.152
-721.835	800.000	-0.054	0.163
-720.821	800.000	0.053	-0.222
-719.806	800.000	0.082	-0.239
-718.791	800.000	-0.051	-0.189
-717.777	-120.086	0.259	-0.045
-716.762	-151.705	0.280	-0.021
-715.748	11.395	0.288	-0.222
-714.733	-96.477	-0.235	0.062
-713.718	87.620	-0.084	0.094
-712.704	-121.502	0.252	0.042
-711.689	-92.372	-0.140	-0.040
-710.675	-44.104	0.335	0.169
-709.660	-195.929	-0.185	-0.001
-708.645	-121.105	0.230	-0.039
-707.631	383.439	0.056	0.116
-706.616	-18.111	-0.137	0.086
-705.602	4.377	0.092	0.068
-704.587	-189.205	-0.331	-0.004
-703.572	-13.272	0.239	-0.156
-702.558	-200.000	-0.017	0.085
-701.543	58.053	0.238	-0.234
-700.529	-77.097	0.488	-0.171
-699.514	-200.000	-0.002	0.393
-698.499	-152.992	0.297	-0.021
-697.485	-200.000	-0.007	0.215
-696.470	-167.037	-0.266	0.011
-695.456	69.206	0.258	-0.267
-694.441	-5.587	-0.214	0.148
-693.426	-200.000	-0.001	-0.130
-692.412	-97.205	0.238	-0.062
-691.397	-64.269	0.216	0.088
-690.383	-200.000	-0.001	-0.155
-689.368	-200.000	-0.017	0.304
-688.354	8.121	-0.240	0.181
-687.339	122.274	-0.072	0.091
-686.324	-111.713	0.145	-0.029
-685.310	-140.481	0.150	-0.016
-684.295	13.225	-0.362	-0.281
-683.281	242.903	-0.081	-0.136
-682.266	101.600	0.076	-0.089
-681.251	185.675	-0.022	0.033
-680.237	800.000	-0.024	-0.101
-679.222	12.467	0.267	0.207
-678.208	-172.049	-0.295	0.010
-677.193	-200.000	0.029	-0.193
-676.178	-200.000	0.008	-0.201
-675.164	46.874	-0.130	0.122
-674.149	-63.168	0.148	0.061
-673.135	20.818	0.034	0.028
-672.120	800.000	-0.037	0.113
-671.105	309.999	-0.203	0.381
-670.091	800.000	0.075	-0.225
-669.076	-33.466	0.280	-0.155
-668.062	-63.322	-0.284	-0.117
-667.047	182.413	-0.090	-0.134
-666.032	-22.453	-0.175	0.106
-665.018	588.011	0.068	0.167
-664.003	53.975	0.030	0.029
-662.989	-13.264	-0.163	-0.106
-661.974	15.896	0.349	-0.276
-660.959	-91.928	-0.664	-0.189
-659.945	-91.064	-0.093	0.027
-658.930	-155.856	0.199	-0.013
-657.916	-200.000	-0.008	0.173
-656.901	-200.000	-0.040	-0.377
-655.886	403.791	-0.012	-0.025
-654.872	800.000	-0.043	0.131
-653.857	10.420	0.264	-0.202
-652.843	-129.820	0.410	-0.057
-651.828	-126.403	0.176	0.026
-650.814	-117.525	0.251	-0.045
-649.799	800.000	-0.057	-0.247
-648.784	-181.918	0.242	0.005
-647.770	725.759	-0.013	-0.036
-646.755	10.754	-0.164	0.125
-645.741	800.000	-0.086	0.261
-644.726	369.701	-0.154	0.312
-643.711	-66.523	0.152	-0.060
-642.697	-90.167	-0.246	0.072
-641.682	-41.845	-0.113	0.058
-640.668	86.465	-0.214	-0.237
-639.653	41.506	0.061	-0.055
-638.638	-200.000	0.007	0.345
-637.624	-32.870	0.070	-0.039
-636.609	-172.308	-0.061	0.002
-635.595	752.251	0.028	-0.075
-634.580	-200.000	0.001	-0.252
-633.565	800.000	-0.067	-0.206
-632.551	-119.706	-0.417	-0.072
-631.536	-127.384	-0.301	-0.044
-630.522	-102.162	0.199	-0.048
-629.507	-200.000	-0.023	0.250
-628.492	-200.000	-0.013	0.146
-627.478	126.625	-0.157	0.199
-626.463	-12.785	0.074	-0.048
-625.449	66.121	0.017	-0.017
-624.434	-135.127	-0.153	0.018
-623.419	51.999	0.189	0.180
-622.405	-10.001	0.270	-0.180
-621.390	-156.838	-0.180	-0.011
-620.376	-21.603	-0.209	-0.128
-619.361	-161.125	0.180	0.009
-618.346	-136.219	0.064	0.007
-617.332	-132.945	-0.139	0.018
-616.317	-112.010	0.185	-0.037
-615.303	-117.548	0.380	-0.069
-614.288	-200.000	-0.005	-0.086
-613.273	483.390	-0.081	0.185
-612.259	-200.000	-0.054	0.755
-611.244	-142.282	-0.357	-0.035
-610.230	403.404	-0.061	-0.129
-609.215	77.169	0.157	0.167
-608.201	-90.042	-0.203	0.059
-607.186	292.161	0.069	-0.126
-606.171	-50.811	0.209	0.098
-605.157	5.991	-0.247	-0.184
-604.142	344.409	0.150	-0.295
-603.128	-34.072	0.213	-0.117
-602.113	800.000	-0.080	-0.242
-601.098	93.941	-0.210	-0.239
-600.084	11.310	-0.025	0.019
-599.069	-200.000	0.052	0.422
-598.055	80.450	-0.063	-0.068
-597.040	-146.216	-0.275	-0.024
-596.025	-200.000	-0.002	0.281
-595.011	-147.574	-0.256	0.022
-593.996	215.964	-0.028	-0.045
-592.982	49.454	0.415	-0.391
-591.967	-200.000	-0.007	0.172
-590.952	-175.165	-0.126	-0.003
-589.938	32.326	0.046	-0.040
-588.923	62.757	-0.047	-0.047
-587.909	800.000	-0.071	-0.223
-586.894	-200.000	0.015	-0.080
-585.879	-106.088	-0.064	-0.014
-584.865	-195.024	-0.166	-0.001
-583.850	37.864	0.217	0.193
-582.836	-180.957	-0.152	-0.003
-581.821	39.590	-0.118	-0.106
-580.806	-133.660	0.047	0.006
-579.792	-134.277	0.122	-0.015
-578.777	264.628	0.065	0.114
-577.763	376.712	-0.099	-0.203
-576.748	-142.290	0.189	-0.019
-575.733	-121.093	-0.228	0.038
-574.719	130.593	-0.156	-0.199
-573.704	-171.706	0.401	-0.013
-572.690	-8.608	-0.445	-0.299
-571.675	-111.981	0.313	0.063
-570.661	141.773	0.069	-0.092
-569.646	800.000	0.036	0.148
-568.631	-84.261	-0.139	-0.044
-567.617	506.344	0.042	0.097
-566.602	-120.296	-0.081	0.014
-565.588	-13.321	0.228	0.148
-564.573	-73.395	-0.207	-0.076
-563.558	345.794	-0.096	-0.188
-562.544	293.799	0.062	0.113
-561.529	116.415	-0.130	-0.159
-560.515	-42.674	0.160	-0.082
-559.500	-30.574	-0.422	-0.239
-558.485	233.801	-0.176	-0.289
-557.471	79.073	-0.247	-0.265
-556.456	-101.542	-0.301	-0.073
-555.442	-200.000	-0.011	0.191
-554.427	-4.633	0.114	-0.079
-553.412	63.343	-0.020	0.020
-552.398	800.000	0.005	-0.019
-551.383	-132.161	-0.554	-0.072
-550.369	-200.000	-0.002	-0.168
-549.354	-150.176	0.278	0.022
-548.339	800.000	-0.041	-0.165
-547.325	-81.231	-0.287	0.095
-546.310	25.519	-0.243	-0.202
-545.296	-67.076	-0.346	-0.136
-544.281	-200.000	0.020	-0.218
-543.266	-200.000	0.085	0.402
-542.252	800.000	0.026	-0.075
-541.237	-93.227	-0.268	-0.074
-540.223	-200.000	-0.021	0.174
-539.208	-174.858	-0.153	-0.004
-538.193	800.000	-0.047	0.157
-537.179	-96.078	-0.146	-0.039
-536.164	41.044	-0.136	-0.122
-535.150	-57.093	-0.230	0.101
-534.135	-39.809	0.094	0.049
-533.121	-200.000	-0.001	-0.216
-532.106	-200.000	0.010	-0.231
-531.091	25.502	-0.030	0.025
-530.077	-62.737	0.161	0.066
-529.062	-30.285	-0.095	-0.054
-528.048	-67.381	0.101	-0.040
-527.033	-149.182	0.163	-0.013
-526.018	-68.609	-0.221	0.086
-525.004	-66.092	0.102	0.041
-523.989	-200.000	-0.026	-0.149
-522.975	533.053	-0.071	0.168
-521.960	328.918	0.057	-0.110
-520.945	-142.864	0.295	-0.029
-519.931	-154.965	0.207	-0.014
-518.916	-153.790	0.186	-0.013
-517.902	118.994	0.015	0.018
-516.887	78.026	-0.083	-0.089
-515.872	-101.903	0.093	-0.023
-514.858	-200.000	-0.031	-0.214
-513.843	37.884	-0.034	0.030
-512.829	-122.184	-0.079	-0.013
-511.814	155.550	0.137	0.189
-510.799	-148.760	0.182	0.015
-509.785	-14.742	0.235	0.150
-508.770	-24.490	-0.341	-0.203
-507.756	-90.009	-0.344	-0.100
-506.741	10.256	0.185	0.141
-505.726	-18.044	-0.380	0.238
-504.712	-179.363	0.190	0.004
-503.697	-200.000	0.016	0.141
-502.683	-200.000	0.024	0.213
-501.668	-14.526	0.064	-0.041
-500.653	49.761	-0.253	0.238
-499.639	-123.300	0.166	-0.026
-498.624	147.853	0.194	-0.260
-497.610	-200.000	-0.020	-0.290
-496.595	-46.630	0.210	-0.103
-495.581	-200.000	0.048	0.418
-494.566	-29.631	-0.236	-0.134
-493.551	-45.680	-0.206	0.102
-492.537	516.855	0.070	-0.164
-491.522	-113.114	0.249	0.049
-490.508	-200.000	0.013	0.159
-489.493	33.772	-0.151	-0.130
-488.478	405.475	-0.178	-0.375
-487.464	-87.001	-0.022	0.007
-486.449	-37.208	0.356	0.190
-485.435	-1.820	-0.126	-0.088
-484.420	-17.184	0.297	-0.187
-483.405	208.736	-0.140	0.217
-482.391	-56.532	-0.198	0.088
-481.376	-200.000	-0.051	0.239
-480.362	-200.000	-0.018	0.157
-479.347	732.277	0.023	0.061
-478.332	-152.402	0.147	-0.011
-477.318	-200.000	0.024	-0.376
-476.303	-151.891	-0.137	0.010
-475.289	-28.704	0.244	0.140
-474.274	800.000	-0.096	0.366
-473.259	800.000	0.036	0.140
-472.245	27.991	-0.367	-0.309
-471.230	-105.658	0.363	-0.082
-470.216	-131.133	0.405	-0.054
-469.201	800.000	-0.099	0.422
-468.186	-200.000	0.016	0.135
-467.172	-86.076	-0.214	-0.066
-466.157	337.777	-0.096	-0.185
-465.143	205.951	0.043	-0.067
-464.128	-185.118	-0.037	-0.001
-463.113	-17.475	0.234	-0.147
-462.099	-74.995	-0.187	-0.067
-461.084	-200.000	0.001	-0.046
-460.070	-5.507	-0.075	-0.051
-459.055	-27.045	0.128	-0.074
-458.040	379.393	-0.134	-0.274
-457.026	-60.137	0.178	0.076
-456.011	76.092	0.066	-0.070
-454.997	-121.818	-0.185	-0.030
-453.982	-5.502	0.019	0.013
-452.968	176.358	-0.149	-0.216
-451.953	-60.786	0.277	-0.117
-450.938	800.000	0.034	0.125
-449.924	-91.596	0.276	0.078
-448.909	-200.000	-0.004	0.120
-447.895	10.281	0.128	0.097
-446.880	556.696	-0.011	0.026
-445.865	-200.000	0.010	0.214
-444.851	609.820	0.105	-0.261
-443.836	-101.329	-0.145	0.035
-442.822	98.195	-0.318	-0.365
-441.807	195.029	0.050	0.076
-440.792	-120.483	0.258	-0.044
-439.778	-88.362	0.228	-0.068
-438.763	-102.173	0.216	-0.052
-437.749	41.858	0.213	0.193
-436.734	800.000	-0.039	0.112
-435.719	179.236	0.098	0.142
-434.705	60.112	-0.069	0.068
-433.690	-60.457	0.504	-0.213
-432.676	203.731	-0.068	-0.105
-431.661	-104.055	-0.307	0.071
-430.646	-127.123	0.215	0.031
-429.632	55.882	-0.120	-0.116
-428.617	-131.983	-0.175	-0.023
-427.603	-162.499	0.311	-0.015
-426.588	-78.163	-0.197	0.067
-425.573	-20.912	-0.025	-0.015
-424.559	-78.953	0.413	0.140
-423.544	389.389	-0.060	-0.124
-422.530	800.000	-0.061	0.248
-421.515	60.649	0.039	0.039
-420.500	-200.000	0.011	0.445
-419.486	-39.866	0.317	0.164
-418.471	800.000	0.099	0.282
-417.457	-193.934	-0.123	-0.001
-416.442	-200.000	0.012	0.162
-415.428	-109.896	-0.262	0.055
-414.413	-118.555	-0.248	-0.044
-413.398	420.860	-0.046	-0.098
-412.384	-200.000	0.005	-0.201
-411.369	-136.037	0.186	0.022
-410.355	-56.880	0.331	0.145
-409.340	800.000	0.026	-0.100
-408.325	-34.606	0.060	-0.033
-407.311	95.940	-0.151	0.172
-406.296	258.905	0.056	-0.096
-405.282	394.880	-0.137	-0.283
-404.267	146.480	-0.146	0.195
-403.252	8.677	0.308	0.230
-402.238	624.777	0.067	-0.168
-401.223	-200.000	0.022	-0.143
-400.209	128.184	-0.089	0.112
-399.194	85.345	0.143	0.156
-398.179	436.573	-0.191	0.413
-397.165	-109.328	-0.166	-0.035
-396.150	142.122	0.107	-0.141
-395.136	35.839	-0.329	0.287
-394.121	185.325	0.106	0.156
-393.106	-109.445	0.013	-0.003
-392.092	-126.774	0.289	0.042
-391.077	-143.609	0.375	0.035
-390.063	-100.746	0.037	-0.009
-389.048	-200.000	-0.009	-0.099
-388.033	-176.437	0.217	-0.006
-387.019	800.000	0.111	-0.425
-386.004	201.447	0.130	-0.198
-384.990	-82.334	-0.200	-0.064
-383.975	21.832	-0.446	0.360
-382.960	356.852	0.192	0.380
-381.946	90.192	-0.207	-0.230
-380.931	103.698	0.105	-0.122
-379.917	-32.008	0.144	0.080
-378.902	133.115	0.033	-0.042
-377.888	-90.569	0.234	-0.067
-376.873	24.614	0.127	0.104
-375.858	-200.000	0.000	0.115
-374.844	145.225	0.125	0.165
-373.829	87.232	-0.011	-0.012
-372.815	7.467	-0.112	0.083
-371.800	497.141	-0.055	-0.126
-370.785	-162.809	0.239	-0.012
-369.771	800.000	0.102	-0.289
-368.756	-11.351	0.293	-0.191
-367.742	-113.478	0.137	0.027
-366.727	-96.343	0.040	0.010
-365.712	-116.628	-0.187	0.034
-364.698	-200.000	0.002	0.080
-363.683	-200.000	0.017	0.384
-362.669	256.300	0.162	0.276
-361.654	-53.786	0.182	-0.082
-360.639	800.000	-0.057	0.161
-359.625	323.588	-0.075	-0.143
-358.610	-200.000	-0.037	-0.424
-357.596	11.230	-0.075	0.057
-356.581	7.375	0.032	0.023
-355.566	53.577	0.156	0.148
-354.552	-68.788	-0.259	0.099
-353.537	-74.758	0.274	-0.098
-352.523	-79.879	-0.197	-0.066
-351.508	-107.779	-0.040	-0.009
-350.493	-49.415	-0.266	0.126
-349.479	-200.000	0.015	0.147
-348.464	467.204	0.036	0.080
-347.450	-132.573	-0.221	-0.028
-346.435	196.295	-0.130	0.196
-345.420	800.000	0.084	-0.340
-344.406	-75.075	0.146	-0.052
-343.391	-200.000	-0.048	0.366
-342.377	15.950	0.147	-0.115
-341.362	53.997	-0.188	0.179
-340.348	74.514	0.014	0.015
-339.333	-89.227	0.162	-0.047
-338.318	22.363	-0.119	-0.096
-337.304	27.864	-0.139	0.116
-336.289	-200.000	-0.017	-0.145
-335.275	800.000	0.137	-0.451
-334.260	-155.197	0.308	-0.020
-333.245	-163.972	0.208	-0.010
-332.231	-14.420	-0.024	0.016
-331.216	-92.063	-0.098	0.027
-330.202	491.139	-0.153	0.346
-329.187	64.823	-0.286	0.286
-328.172	-113.007	0.122	0.024
-327.158	-137.560	-0.217	0.024
-326.143	249.439	-0.184	-0.309
-325.129	124.790	0.095	-0.118
-324.114	-155.721	0.377	0.024
-323.099	149.691	-0.084	-0.113
-322.085	-30.626	-0.076	0.043
-321.070	3.010	-0.127	0.092
-320.056	-89.656	0.277	0.080
-319.041	229.579	-0.150	0.242
-318.026	-173.350	0.330	-0.010
-317.012	-37.901	-0.212	-0.111
-315.997	-26.748	-0.192	-0.111
-314.983	-144.742	0.314	-0.029
-313.968	-91.962	-0.083	-0.023
-312.953	330.502	-0.200	0.381
-311.939	110.110	-0.144	-0.172
-310.924	-71.928	0.139	-0.051
-309.910	-134.290	0.173	-0.021
-308.895	-35.963	0.113	-0.060
-307.880	-68.249	-0.213	-0.082
-306.866	63.006	0.100	0.099
-305.851	101.420	-0.101	0.117
-304.837	-98.930	-0.271	-0.068
-303.822	-5.942	-0.338	0.229
-302.807	-85.969	0.078	0.024
-301.793	-0.060	0.139	0.098
-300.778	102.142	0.160	-0.185
-299.764	402.929	-0.105	-0.219
-298.749	122.956	0.123	0.153
-297.735	-51.812	-0.052	0.024
-296.720	144.953	-0.204	0.270
-295.705	-200.000	0.008	0.080
-294.691	340.946	0.134	0.260
-293.676	454.086	0.167	0.366
-292.662	366.755	-0.135	-0.269
-291.647	182.680	0.011	0.016
-290.632	-38.806	-0.121	-0.063
-289.618	-186.854	-0.289	-0.004
-288.603	-164.401	0.268	-0.012
-287.589	-200.000	0.011	-0.184
-286.574	800.000	-0.030	0.093
-285.559	-57.669	0.280	-0.121
-284.545	-79.356	-0.218	0.073
-283.530	-23.299	0.116	0.069
-282.516	31.318	-0.226	-0.192
-281.501	90.425	-0.189	0.209
-280.486	190.773	0.259	0.385
-279.472	362.443	-0.108	0.214
-278.457	573.542	-0.059	0.141
-277.443	-45.122	0.160	-0.078
-276.428	-92.884	-0.445	0.123
-275.413	-200.000	0.002	-0.025
-274.399	-174.405	-0.133	0.004
-273.384	-200.000	0.016	0.208
-272.370	-133.237	-0.528	-0.066
-271.355	-166.288	0.282	0.012
-270.340	-89.906	0.148	-0.043
-269.326	800.000	0.029	-0.086
-268.311	-159.754	0.375	-0.020
-267.297	-63.095	-0.255	0.104
-266.282	-22.426	0.068	-0.041
-265.267	-121.890	-0.402	0.066
-264.253	-128.754	0.679	0.095
-263.238	433.036	0.115	0.246
-262.224	-121.857	-0.364	0.059
-261.209	800.000	0.022	0.092
-260.195	384.980	0.013	0.026
-259.180	-194.458	0.284	0.002
-258.165	-200.000	0.034	-0.282
-257.151	133.691	-0.158	0.202
-256.136	800.000	0.013	-0.057
-255.122	54.749	0.233	-0.222
-254.107	669.623	0.092	0.236
-253.092	-200.000	-0.016	-0.071
-252.078	22.883	-0.075	0.061
-251.063	149.642	-0.045	-0.061
-250.049	-200.000	-0.031	-0.273
-249.034	-144.399	0.149	-0.014
-248.019	11.123	-0.149	-0.113
-247.005	-62.280	0.281	-0.116
-245.990	-30.497	0.258	0.144
-244.976	304.918	0.167	-0.306
-243.961	5.295	-0.082	-0.059
-242.946	29.094	0.197	-0.165
-241.932	-63.185	-0.292	0.119
-240.917	111.593	-0.108	0.128
-239.903	-119.102	0.180	0.031
-238.888	-84.773	-0.128	0.040
-237.873	-200.000	0.020	0.115
-236.859	-23.918	0.081	-0.048
-235.844	-39.162	0.054	-0.028
-234.830	-22.124	0.098	0.059
-233.815	-54.070	0.403	-0.181
-232.800	-36.158	0.121	0.064
-231.786	338.459	0.183	0.351
-230.771	219.507	0.117	0.184
-229.757	127.088	0.180	0.225
-228.742	-4.632	-0.037	0.025
-227.727	169.308	-0.028	0.040
-226.713	-90.032	-0.425	-0.122
-225.698	-69.721	0.099	0.037
-224.684	86.826	0.359	0.391
-223.669	77.673	0.206	-0.216
-222.655	67.696	0.225	-0.226
-221.640	-62.863	-0.247	0.101
-220.625	-46.149	-0.432	-0.210
-219.611	113.156	-0.083	-0.099
-218.596	55.592	-0.105	0.100
-217.582	-109.130	0.264	0.055
-216.567	212.790	-0.054	0.084
-215.552	-40.866	0.322	0.164
-214.538	58.474	-0.241	0.233
-213.523	-83.930	0.051	0.016
-212.509	93.363	-0.095	0.107
-211.494	-29.770	-0.235	0.132
-210.479	800.000	0.047	-0.191
-209.465	74.355	0.120	-0.124
-208.450	-200.000	0.018	0.082
-207.436	-61.367	0.172	-0.071
-206.421	-200.000	0.004	-0.064
-205.406	800.000	-0.076	-0.249
-204.392	800.000	-0.151	0.414
-203.377	-144.719	0.440	0.040
-202.363	25.399	0.018	-0.015
-201.348	511.604	0.147	0.338
-200.333	142.628	-0.096	0.125
-199.319	265.126	0.041	-0.071
-198.304	737.231	-0.097	-0.256
-197.290	110.563	-0.336	-0.398
-196.275	-23.796	0.153	-0.090
-195.260	-200.000	0.029	-0.378
-194.246	-160.541	0.172	-0.009
-193.231	-200.000	0.007	-0.112
-192.217	-77.065	-0.201	-0.069
-191.202	-200.000	0.045	0.216
-190.187	-100.496	-0.061	-0.015
-189.173	-200.000	0.034	-0.207
-188.158	155.298	0.189	-0.256
-187.144	-12.297	0.126	0.081
-186.129	-97.733	0.242	-0.062
-185.114	800.000	0.143	-0.395
-184.100	97.992	-0.181	-0.205
-183.085	-37.426	0.149	-0.078
-182.071	39.936	-0.173	0.153
-181.056	6.237	-0.129	0.095
-180.042	350.926	0.092	-0.180
-179.027	-8.381	-0.179	0.118
-178.012	2.246	-0.063	0.045
-176.998	97.098	0.177	-0.200
-175.983	-88.744	-0.240	0.070
-174.969	62.853	-0.247	0.243
-173.954	-88.605	0.129	-0.038
-172.939	155.303	0.030	0.040
-171.925	-67.327	-0.371	-0.144
-170.910	729.597	0.152	-0.399
-169.896	70.279	0.485	-0.493
-168.881	-200.000	-0.005	-0.051
-167.866	800.000	0.034	0.135
-166.852	666.250	-0.032	0.081
-165.837	-200.000	-0.060	-0.305
-164.823	-200.000	0.050	-0.316
-163.808	-146.751	-0.185	0.016
-162.793	-150.316	-0.271	0.021
-161.779	185.750	0.110	0.161
-160.764	800.000	0.075	0.308
-159.750	-107.962	-0.120	0.026
-158.735	-200.000	-0.001	-0.204
-157.720	-38.405	0.152	0.079
-156.706	-95.289	-0.219	-0.058
-155.691	309.683	-0.080	-0.148
-154.677	-143.758	-0.251	-0.023
-153.662	-140.555	-0.138	-0.014
-152.647	-15.483	0.131	0.082
-151.633	279.993	-0.079	0.139
-150.618	397.212	0.123	0.254
-149.604	-145.572	0.130	-0.011
-148.589	18.012	-0.357	-0.280
-147.574	-121.773	-0.329	0.053
-146.560	-200.000	0.000	-0.128
-145.545	-200.000	-0.008	-0.046
-144.531	-200.000	0.004	0.168
-143.516	-65.991	0.121	-0.047
-142.502	-59.968	0.248	0.104
-141.487	-135.886	0.072	0.008
-140.472	-45.735	0.405	-0.197
-139.458	581.390	0.106	-0.256
-138.443	388.961	0.205	-0.417
-137.429	-200.000	-0.013	-0.099
-136.414	-127.977	-0.103	0.014
-135.399	1.006	0.329	0.232
-134.385	30.530	0.264	0.222
-133.370	-127.551	-0.347	0.049
-132.356	769.628	-0.160	-0.427
-131.341	303.660	0.153	0.279
-130.326	-200.000	-0.011	0.267
-129.312	-200.000	-0.007	0.106
-128.297	800.000	-0.109	0.297
-127.283	790.458	-0.145	0.393
-126.268	800.000	0.025	0.084
-125.253	-200.000	-0.028	-0.186
-124.239	-52.394	-0.091	0.041
-123.224	667.283	-0.015	0.037
-122.210	-149.942	0.251	0.019
