DTS Sentinel unit serial number:	SN413079Multiplexer serial number:	ORYXHardware model number:	OX4-SRSoftware version number:	ORYX F/W v4.00 Oryx Data Collector v3.7.2.0data status	okinstallation	princeton_trtdifferential loss correction	single-endedforward channel	channel 1reverse channel	N/Adate	2019/09/10time	22:32:11forward acquisition time	60.00reverse acquisition time	0.00gamma	496.2192k internal	0.2332k external	0.2332temperature offset calibration	0.9937default loss term (dB/km)	0.3790temperature slope calibration	1.0000multiplexer offset coefficient	1.0000multiplexer slope coefficient	1.0000fibre end	0.00T internal ref (°C)	30.33T ext. ref 1 (°C)	-0.30T ext. ref 2 (°C)	23.77length (m)	temperature (°C)	Stokes	anti-Stokes-747.200	290.877	0.029	0.054
-746.185	-85.367	-0.332	0.104
-745.171	467.484	0.107	0.242
-744.156	-101.544	-0.336	-0.082
-743.142	201.262	0.066	-0.103
-742.127	241.971	-0.060	-0.102
-741.112	585.806	-0.064	0.158
-740.098	-132.584	-0.285	-0.037
-739.083	-181.926	-0.152	-0.003
-738.069	-200.000	-0.011	0.251
-737.054	-183.735	-0.092	-0.002
-736.039	147.805	-0.159	0.216
-735.025	-200.000	-0.040	0.248
-734.010	39.990	0.201	0.182
-732.996	-117.776	0.306	-0.055
-731.981	-7.884	-0.312	-0.212
-730.966	90.272	-0.185	0.208
-729.952	-195.169	-0.227	-0.002
-728.937	800.000	-0.036	-0.137
-727.923	599.795	-0.040	-0.101
-726.908	-200.000	-0.033	-0.237
-725.894	-139.745	-0.311	0.033
-724.879	160.510	-0.200	-0.281
-723.864	800.000	0.090	-0.252
-722.850	-19.378	-0.236	-0.147
-721.835	-111.681	-0.279	-0.057
-720.821	9.538	-0.086	0.065
-719.806	121.391	-0.119	0.149
-718.791	-50.491	0.176	-0.083
-717.777	-200.000	-0.134	-0.000
-716.762	-99.836	-0.439	0.110
-715.748	-21.941	-0.091	0.056
-714.733	-200.000	0.017	0.087
-713.718	-200.000	-0.052	0.232
-712.704	-200.000	-0.045	-0.237
-711.689	800.000	-0.087	0.248
-710.675	-200.000	0.025	-0.183
-709.660	14.839	0.247	-0.194
-708.645	228.312	0.051	-0.083
-707.631	54.798	-0.319	0.310
-706.616	-107.894	0.041	-0.009
-705.602	-126.663	0.406	-0.060
-704.587	-174.377	-0.275	-0.008
-703.572	800.000	-0.076	-0.296
-702.558	-147.236	0.270	-0.023
-701.543	-13.097	-0.179	0.117
-700.529	-105.321	-0.241	-0.055
-699.514	116.908	-0.104	0.128
-698.499	82.066	0.125	0.136
-697.485	405.678	-0.035	-0.074
-696.470	-200.000	0.039	-0.221
-695.456	-95.122	-0.244	0.066
-694.441	-25.440	-0.221	-0.131
-693.426	-7.912	-0.225	0.152
-692.412	436.995	0.087	-0.191
-691.397	214.662	-0.157	0.250
-690.383	-109.604	0.348	0.074
-689.368	-200.000	-0.010	0.123
-688.354	-143.705	-0.081	-0.008
-687.339	177.464	0.048	-0.070
-686.324	165.196	-0.125	-0.177
-685.310	261.867	0.056	-0.097
-684.295	304.940	0.123	0.230
-683.281	151.781	0.179	-0.244
-682.266	-200.000	0.002	-0.350
-681.251	139.161	0.243	-0.321
-680.237	-53.072	-0.407	-0.188
-679.222	110.598	-0.221	-0.267
-678.208	-86.215	-0.136	-0.042
-677.193	-90.322	-0.256	0.075
-676.178	24.210	-0.107	0.089
-675.164	-106.318	-0.317	-0.071
-674.149	42.579	-0.180	-0.165
-673.135	-28.203	-0.062	-0.036
-672.120	395.591	0.042	-0.088
-671.105	-200.000	-0.031	-0.486
-670.091	63.479	-0.080	0.080
-669.076	-101.484	-0.351	0.086
-668.062	-53.196	0.339	-0.156
-667.047	44.109	-0.031	0.028
-666.032	104.288	-0.089	0.106
-665.018	272.777	-0.101	-0.178
-664.003	80.783	0.232	-0.251
-662.989	-90.718	-0.192	-0.056
-661.974	-200.000	0.022	0.166
-660.959	-200.000	0.004	-0.221
-659.945	247.166	0.090	-0.152
-658.930	252.561	-0.103	-0.175
-657.916	688.795	-0.192	-0.505
-656.901	800.000	-0.072	-0.274
-655.886	-200.000	0.008	-0.156
-654.872	161.628	0.033	0.046
-653.857	-92.774	-0.102	0.029
-652.843	251.582	-0.064	-0.109
-651.828	-74.720	-0.256	0.092
-650.814	-4.030	-0.184	-0.128
-649.799	37.696	-0.097	0.086
-648.784	329.217	0.054	-0.105
-647.770	-92.635	-0.210	-0.059
-646.755	88.225	0.140	0.156
-645.741	170.585	-0.072	0.104
-644.726	800.000	-0.015	-0.053
-643.711	800.000	-0.017	-0.075
-642.697	-130.986	-0.210	0.028
-641.682	53.462	0.239	-0.229
-640.668	17.776	-0.232	0.185
-639.653	800.000	0.055	0.207
-638.638	-84.409	-0.142	0.045
-637.624	-200.000	0.056	0.260
-636.609	-95.562	0.388	-0.104
-635.595	192.793	0.136	0.206
-634.580	-17.654	0.284	-0.179
-633.565	-29.300	0.118	-0.068
-632.551	346.175	-0.111	0.218
-631.536	313.125	-0.060	0.113
-630.522	-0.575	0.222	-0.158
-629.507	89.339	-0.140	-0.156
-628.492	7.682	0.197	-0.148
-627.478	-151.884	0.129	0.009
-626.463	-200.000	0.002	-0.454
-625.449	354.913	0.081	-0.162
-624.434	800.000	0.062	-0.238
-623.419	-25.981	0.246	0.145
-622.405	-59.734	0.337	0.145
-621.390	800.000	-0.057	0.178
-620.376	5.132	-0.045	0.033
-619.361	61.441	0.224	-0.223
-618.346	675.709	-0.073	0.191
-617.332	-109.780	0.255	0.054
-616.317	-200.000	0.000	-0.176
-615.303	-146.356	0.395	-0.035
-614.288	266.955	-0.197	0.345
-613.273	-52.724	-0.177	0.082
-612.259	-25.852	0.205	0.121
-611.244	-28.747	-0.167	0.096
-610.230	340.382	-0.103	0.202
-609.215	414.799	-0.070	-0.149
-608.201	35.454	0.238	-0.209
-607.186	447.553	-0.155	-0.342
-606.171	118.085	-0.151	-0.187
-605.157	8.731	-0.233	-0.176
-604.142	-200.000	-0.011	0.059
-603.128	-200.000	-0.029	-0.259
-602.113	-175.964	-0.260	-0.007
-601.098	-73.042	-0.218	-0.080
-600.084	-141.925	0.148	0.015
-599.069	-130.252	-0.225	-0.031
-598.055	87.766	-0.193	-0.214
-597.040	66.575	-0.220	-0.224
-596.025	-70.718	-0.125	0.047
-595.011	56.644	0.150	0.146
-593.996	-29.504	-0.234	0.134
-592.982	-83.270	-0.117	0.038
-591.967	29.298	0.110	-0.094
-590.952	-63.299	-0.261	0.108
-589.938	-200.000	-0.060	0.271
-588.923	225.761	0.048	-0.079
-587.909	800.000	0.071	0.301
-586.894	34.448	0.127	0.111
-585.879	-200.000	-0.038	0.212
-584.865	-184.386	-0.204	0.003
-583.850	-23.960	-0.181	0.108
-582.836	313.061	0.130	0.244
-581.821	-127.353	0.246	0.036
-580.806	800.000	-0.061	-0.210
-579.792	-200.000	-0.009	-0.308
-578.777	-29.732	0.234	0.133
-577.763	-200.000	-0.005	-0.167
-576.748	-200.000	0.003	-0.248
-575.733	-90.654	-0.250	0.072
-574.719	-95.824	-0.114	-0.030
-573.704	-8.852	0.359	-0.240
-572.690	-108.517	-0.206	-0.044
-571.675	-142.606	-0.323	0.032
-570.661	-200.000	0.014	-0.087
-569.646	-74.594	0.407	0.147
-568.631	-10.707	-0.308	0.203
-567.617	-127.183	0.126	0.018
-566.602	33.066	-0.162	-0.141
-565.588	-143.745	-0.269	0.025
-564.573	186.980	0.173	0.257
-563.558	-200.000	0.038	-0.512
-562.544	26.053	0.085	0.071
-561.529	5.910	0.049	-0.036
-560.515	-200.000	-0.023	0.228
-559.500	-200.000	0.003	0.120
-558.485	800.000	-0.016	-0.054
-557.471	98.087	-0.106	-0.122
-556.456	-90.802	0.113	-0.032
-555.442	-200.000	-0.061	-0.304
-554.427	-81.973	-0.124	-0.040
-553.412	203.423	0.162	-0.251
-552.398	-126.328	0.113	-0.017
-551.383	-25.321	0.105	-0.062
-550.369	-187.237	0.433	-0.006
-549.354	-117.463	-0.037	0.007
-548.339	97.139	0.226	-0.259
-547.325	-44.362	0.106	-0.053
-546.310	-97.948	-0.401	0.103
-545.296	-160.076	0.280	0.015
-544.281	-200.000	0.074	-0.345
-543.266	-81.631	-0.254	-0.083
-542.252	-101.656	-0.216	0.052
-541.237	-200.000	-0.040	0.263
-540.223	72.625	-0.189	-0.197
-539.208	6.550	0.190	0.141
-538.193	-149.257	0.465	-0.037
-537.179	-41.650	-0.147	-0.076
-536.164	800.000	-0.029	0.088
-535.150	-178.900	-0.266	0.006
-534.135	-136.302	-0.396	0.046
-533.121	-200.000	-0.004	-0.133
-532.106	-47.014	-0.097	-0.047
-531.091	-80.211	-0.291	-0.097
-530.077	5.793	-0.222	-0.164
-529.062	53.398	0.296	0.283
-528.048	-200.000	-0.055	0.269
-527.033	-69.896	-0.186	-0.071
-526.018	-141.480	-0.089	0.009
-525.004	69.983	-0.110	-0.113
-523.989	-84.269	0.109	-0.035
-522.975	-111.850	-0.426	-0.086
-521.960	-200.000	-0.030	-0.217
-520.945	-136.229	-0.089	-0.010
-519.931	800.000	0.051	0.150
-518.916	426.849	-0.085	-0.184
-517.902	132.029	-0.076	0.097
-516.887	44.932	0.221	0.203
-515.872	-103.553	-0.218	0.051
-514.858	-35.556	-0.071	-0.038
-513.843	45.363	-0.187	0.172
-512.829	-17.595	-0.146	0.091
-511.814	-2.043	-0.030	0.021
-510.799	-102.100	-0.182	0.044
-509.785	-117.355	-0.277	0.050
-508.770	77.925	-0.103	-0.110
-507.756	249.070	-0.105	-0.178
-506.741	800.000	0.031	-0.093
-505.726	301.912	0.101	-0.186
-504.712	72.395	-0.067	0.069
-503.697	-166.343	-0.079	0.003
-502.683	119.188	0.083	-0.102
-501.668	-73.975	0.228	0.083
-500.653	35.077	-0.244	-0.213
-499.639	-200.000	-0.016	0.109
-498.624	-46.415	0.065	0.032
-497.610	-200.000	0.015	-0.189
-496.595	-80.515	0.122	0.040
-495.581	-61.807	-0.247	-0.103
-494.566	800.000	-0.075	-0.216
-493.551	-200.000	0.024	0.335
-492.537	800.000	0.048	0.148
-491.522	800.000	0.011	0.034
-490.508	-200.000	0.007	0.251
-489.493	-200.000	0.035	0.214
-488.478	-127.572	0.354	-0.051
-487.464	800.000	-0.138	-0.549
-486.449	150.568	0.064	-0.086
-485.435	-128.038	0.081	-0.012
-484.420	311.943	-0.106	-0.197
-483.405	280.737	-0.043	0.077
-482.391	12.096	-0.075	-0.057
-481.376	-165.030	0.250	0.011
-480.362	-0.438	-0.099	-0.070
-479.347	-28.929	-0.322	-0.184
-478.332	800.000	0.077	0.240
-477.318	-200.000	-0.007	-0.240
-476.303	-63.427	0.107	0.044
-475.289	-200.000	0.022	0.152
-474.274	800.000	0.030	0.106
-473.259	312.207	-0.087	-0.163
-472.245	243.704	-0.112	0.187
-471.230	800.000	0.027	0.089
-470.216	9.566	-0.162	-0.122
-469.201	-200.000	0.014	-0.161
-468.186	-125.276	-0.083	-0.013
-467.172	-192.170	-0.103	-0.001
-466.157	-190.520	0.174	-0.002
-465.143	294.205	-0.104	-0.189
-464.128	-53.329	0.258	0.118
-463.113	-78.485	0.473	0.161
-462.099	-22.654	-0.232	0.140
-461.084	-48.879	-0.314	0.150
-460.070	59.089	-0.330	-0.323
-459.055	-63.711	-0.110	-0.045
-458.040	199.584	-0.118	-0.180
-457.026	-153.833	0.174	-0.012
-456.011	293.812	-0.076	0.138
-454.997	0.565	0.169	0.120
-453.982	-32.492	-0.416	0.231
-452.968	318.053	-0.127	-0.239
-451.953	-200.000	-0.051	-0.257
-450.938	800.000	0.077	-0.251
-449.924	97.440	0.068	0.078
-448.909	63.517	0.212	0.211
-447.895	-142.243	-0.104	-0.010
-446.880	5.230	0.190	0.139
-445.865	286.263	0.033	-0.059
-444.851	418.042	0.216	0.459
-443.836	-200.000	-0.005	-0.143
-442.822	-54.210	-0.149	-0.067
-441.807	-200.000	0.007	0.304
-440.792	-200.000	-0.019	-0.405
-439.778	255.264	0.153	-0.261
-438.763	800.000	0.041	-0.118
-437.749	20.651	-0.202	0.162
-436.734	-180.403	0.371	-0.008
-435.719	-12.421	-0.045	0.029
-434.705	-200.000	0.032	0.192
-433.690	323.870	0.087	-0.166
-432.676	-83.300	-0.315	0.100
-431.661	-134.429	-0.026	0.003
-430.646	-149.201	0.287	0.023
-429.632	304.969	0.055	0.101
-428.617	-200.000	0.006	0.132
-427.603	472.673	0.013	0.030
-426.588	-93.361	-0.155	-0.043
-425.573	800.000	-0.076	-0.308
-424.559	1.986	0.129	-0.093
-423.544	-77.444	0.095	0.033
-422.530	-200.000	0.037	-0.288
-421.515	125.656	0.117	-0.146
-420.500	-115.048	0.247	0.047
-419.486	800.000	0.068	-0.252
-418.471	-200.000	0.054	0.305
-417.457	186.452	-0.054	-0.080
-416.442	-200.000	0.019	-0.161
-415.428	800.000	-0.173	0.572
-414.413	-148.683	0.292	-0.024
-413.398	-118.800	0.203	-0.035
-412.384	317.873	-0.109	0.205
-411.369	-154.426	-0.242	0.016
-410.355	-200.000	-0.029	-0.136
-409.340	-113.037	-0.296	-0.058
-408.325	238.813	0.102	-0.168
-407.311	-200.000	0.010	0.265
-406.296	-45.399	0.199	0.098
-405.282	-175.470	0.053	-0.001
-404.267	-37.445	-0.154	0.081
-403.252	70.835	0.262	-0.269
-402.238	-200.000	0.021	-0.110
-401.223	-96.445	0.428	0.112
-400.209	-200.000	-0.007	0.035
-399.194	157.162	0.110	0.151
-398.179	49.112	0.295	0.275
-397.165	368.322	-0.039	-0.079
-396.150	39.227	-0.122	0.108
-395.136	-200.000	0.019	0.353
-394.121	-101.100	0.261	0.063
-393.106	53.812	-0.282	0.268
-392.092	-111.855	-0.229	0.046
-391.077	144.976	-0.031	-0.041
-390.063	-75.742	-0.164	-0.058
-389.048	-140.358	0.147	-0.015
-388.033	-200.000	-0.007	-0.189
-387.019	185.901	0.152	-0.224
-386.004	-28.170	0.179	-0.103
-384.990	18.062	0.060	0.048
-383.975	-88.496	-0.216	-0.064
-382.960	-90.276	-0.348	-0.100
-381.946	46.866	-0.277	-0.255
-380.931	-180.834	0.262	0.005
-379.917	-64.024	-0.405	-0.164
-378.902	-200.000	-0.006	0.086
-377.888	-13.685	-0.272	0.174
-376.873	-7.187	-0.128	0.086
-375.858	35.681	0.357	-0.311
-374.844	23.880	0.145	0.119
-373.829	-200.000	0.029	0.355
-372.815	156.737	-0.032	0.044
-371.800	-87.005	0.273	0.083
-370.785	212.188	0.029	-0.046
-369.771	-39.925	-0.141	-0.073
-368.756	-42.057	0.387	0.197
-367.742	-79.897	0.226	-0.075
-366.727	-200.000	0.012	-0.273
-365.712	-79.252	0.328	0.110
-364.698	228.553	-0.097	0.157
-363.683	-5.522	0.188	0.128
-362.669	-124.321	0.122	-0.019
-361.654	145.586	0.201	0.267
-360.639	228.058	0.116	0.187
-359.625	800.000	0.046	-0.132
-358.610	115.588	0.090	-0.109
-357.596	387.897	0.126	-0.258
-356.581	-121.097	0.116	0.019
-355.566	32.098	0.198	-0.169
-354.552	800.000	0.018	-0.072
-353.537	-200.000	-0.003	0.121
-352.523	340.093	0.141	-0.273
-351.508	-84.852	0.150	0.047
-350.493	-42.531	0.262	-0.132
-349.479	-69.324	-0.409	-0.156
-348.464	16.177	0.155	-0.121
-347.450	-90.601	0.374	0.107
-346.435	-76.954	-0.163	-0.056
-345.420	131.678	-0.366	0.467
-344.406	-200.000	0.004	-0.153
-343.391	800.000	0.066	-0.236
-342.377	800.000	-0.045	-0.154
-341.362	-200.000	0.002	0.084
-340.348	-130.501	0.348	0.047
-339.333	-200.000	0.058	-0.350
-338.318	118.063	-0.130	0.158
-337.304	800.000	0.096	0.335
-336.289	-200.000	-0.011	0.049
-335.275	130.985	-0.063	0.080
-334.260	-81.499	-0.216	-0.071
-333.245	-168.043	-0.040	0.002
-332.231	-46.327	0.135	0.066
-331.216	-200.000	-0.013	-0.194
-330.202	71.235	-0.186	-0.191
-329.187	-106.269	0.122	0.027
-328.172	-163.161	-0.152	-0.007
-327.158	-200.000	-0.001	0.093
-326.143	-200.000	-0.096	0.527
-325.129	651.758	0.054	0.136
-324.114	-72.469	0.178	-0.065
-323.099	800.000	-0.024	0.102
-322.085	-200.000	0.027	0.210
-321.070	-200.000	0.003	-0.106
-320.056	19.301	0.294	-0.234
-319.041	-34.833	-0.332	0.179
-318.026	-200.000	-0.046	-0.299
-317.012	414.822	0.046	0.096
-315.997	460.979	-0.110	-0.242
-314.983	-73.633	-0.266	-0.096
-313.968	-25.601	-0.308	0.180
-312.953	-83.384	-0.303	0.096
-311.939	-139.795	-0.118	0.012
-310.924	90.021	0.085	-0.094
-309.910	-200.000	0.067	0.317
-308.895	305.879	-0.193	0.355
-307.880	-200.000	0.024	0.145
-306.866	-200.000	-0.037	0.407
-305.851	9.979	0.148	0.112
-304.837	-45.505	-0.124	-0.061
-303.822	466.486	-0.096	0.213
-302.807	-70.991	-0.221	0.082
-301.793	-200.000	-0.059	-0.278
-300.778	216.434	0.170	-0.267
-299.764	88.115	0.109	0.120
-298.749	-111.056	0.124	0.025
-297.735	178.410	0.062	-0.090
-296.720	-95.091	0.218	0.058
-295.705	-168.988	0.171	-0.006
-294.691	-128.789	0.403	0.056
-293.676	296.579	-0.137	0.248
-292.662	-88.556	-0.135	0.040
-291.647	800.000	0.030	0.114
-290.632	398.307	-0.145	0.299
-289.618	-200.000	0.032	0.187
-288.603	68.875	-0.045	0.046
-287.589	-108.163	0.272	-0.058
-286.574	-200.000	-0.038	0.172
-285.559	-200.000	0.021	0.538
-284.545	-29.903	0.204	-0.115
-283.530	-15.380	-0.340	0.215
-282.516	-9.537	0.311	-0.205
-281.501	633.198	-0.004	0.011
-280.486	-82.151	-0.132	0.042
-279.472	125.868	0.192	0.239
-278.457	-131.135	0.350	0.046
-277.443	344.297	0.138	0.268
-276.428	208.577	0.096	0.148
-275.413	800.000	-0.066	-0.268
-274.399	-177.850	0.223	-0.005
-273.384	-200.000	-0.036	0.173
-272.370	-200.000	0.025	-0.140
-271.355	148.241	0.014	0.019
-270.340	51.835	-0.118	0.110
-269.326	-130.675	-0.254	-0.034
-268.311	-57.564	-0.091	-0.039
-267.297	721.751	0.185	-0.485
-266.282	530.878	-0.060	0.141
-265.267	32.594	0.126	-0.108
-264.253	-107.714	0.373	-0.080
-263.238	-15.616	-0.211	0.133
-262.224	464.379	0.041	-0.091
-261.209	-200.000	-0.009	0.044
-260.195	107.358	0.078	-0.092
-259.180	-55.079	-0.096	0.043
-258.165	-22.304	-0.172	-0.103
-257.151	-72.383	-0.173	0.063
-256.136	-200.000	-0.024	-0.387
-255.122	800.000	0.081	-0.226
-254.107	27.621	-0.229	-0.191
-253.092	37.107	-0.139	-0.122
-252.078	265.646	0.161	0.277
-251.063	800.000	-0.042	0.136
-250.049	290.608	-0.092	0.164
-249.034	-200.000	-0.020	0.095
-248.019	227.220	0.196	-0.314
-247.005	103.900	-0.189	0.219
-245.990	-68.185	-0.272	0.104
-244.976	-114.110	0.349	0.067
-243.961	-94.613	-0.254	0.068
-242.946	82.157	-0.097	0.104
-241.932	-105.761	-0.282	-0.063
-240.917	-200.000	-0.077	-0.625
-239.903	-18.517	0.141	-0.087
-238.888	13.774	-0.267	0.204
-237.873	145.993	-0.075	-0.100
-236.859	-200.000	0.013	0.209
-235.844	-52.363	0.237	0.108
-234.830	-76.776	-0.175	0.060
-233.815	-29.055	0.029	0.016
-232.800	-159.169	-0.231	0.013
-231.786	-106.151	-0.096	0.021
-230.771	-4.039	0.169	-0.115
-229.757	-200.000	0.003	0.033
-228.742	-186.621	0.196	0.003
-227.727	-115.361	-0.277	0.052
-226.713	67.331	0.134	0.134
-225.698	34.876	-0.159	-0.138
-224.684	294.320	-0.078	0.141
-223.669	108.152	-0.136	-0.160
-222.655	-21.551	-0.262	-0.157
-221.640	-139.902	0.576	0.060
-220.625	-23.576	-0.141	0.084
-219.611	35.360	0.161	0.139
-218.596	-128.687	-0.075	0.010
-217.582	-45.808	0.330	0.161
-216.567	-107.394	-0.260	0.056
-215.552	-6.625	-0.176	0.118
-214.538	-138.614	0.327	0.035
-213.523	-119.965	-0.249	0.042
-212.509	136.006	0.169	-0.217
-211.494	21.759	0.098	0.079
-210.479	6.573	-0.251	0.184
-209.465	-48.182	-0.243	-0.116
-208.450	-127.990	0.349	0.049
-207.436	-69.557	0.203	0.077
-206.421	-200.000	0.004	-0.073
-205.406	-200.000	-0.024	0.435
-204.392	49.977	0.079	-0.073
-203.377	-172.787	-0.182	-0.006
-202.363	-200.000	-0.017	0.198
-201.348	-92.736	-0.331	0.091
-200.333	94.828	0.118	0.132
-199.319	-200.000	-0.022	0.135
-198.304	800.000	0.117	-0.392
-197.290	222.615	0.043	-0.068
-196.275	-77.293	-0.239	0.082
-195.260	-200.000	-0.031	0.255
-194.246	586.112	-0.079	0.191
-193.231	47.341	0.127	0.117
-192.217	224.626	0.064	-0.101
-191.202	52.633	0.089	0.084
-190.187	-68.447	0.143	0.054
-189.173	-68.394	0.240	0.092
-188.158	-98.172	-0.114	-0.029
-187.144	-200.000	0.022	-0.181
-186.129	-101.281	0.164	0.039
-185.114	40.821	-0.053	-0.047
-184.100	-145.228	-0.458	-0.041
-183.085	-200.000	0.006	0.094
-182.071	-200.000	-0.018	-0.294
-181.056	800.000	0.115	-0.315
-180.042	147.925	0.189	-0.251
-179.027	-28.077	-0.206	0.117
-178.012	-62.929	0.166	0.068
-176.998	-89.166	-0.277	-0.081
-175.983	-14.199	0.175	-0.111
-174.969	-32.334	0.103	-0.056
-173.954	24.840	-0.085	-0.069
-172.939	-57.581	-0.174	0.075
-171.925	-19.544	0.146	-0.089
-170.910	-144.184	-0.206	0.019
-169.896	800.000	-0.048	0.133
-168.881	219.423	0.134	-0.211
-167.866	-200.000	0.002	-0.179
-166.852	-62.454	-0.107	-0.044
-165.837	141.040	0.124	-0.161
-164.823	-200.000	-0.029	-0.222
-163.808	-200.000	-0.008	0.067
-162.793	-38.794	0.215	-0.112
-161.779	-139.020	-0.077	0.008
-160.764	-39.013	-0.132	-0.068
-159.750	37.171	0.421	0.366
-158.735	127.784	0.289	-0.362
-157.720	-98.403	0.175	0.044
-156.706	800.000	-0.083	0.289
-155.691	-65.557	0.011	0.005
-154.677	209.883	-0.052	-0.080
-153.662	350.241	-0.214	-0.415
-152.647	116.525	0.101	-0.121
-151.633	89.072	0.063	0.069
-150.618	221.316	0.254	-0.401
-149.604	-49.718	-0.059	-0.027
-148.589	-200.000	-0.027	0.125
-147.574	-103.539	0.329	0.076
-146.560	800.000	0.096	-0.334
-145.545	-200.000	-0.061	-0.373
-144.531	57.362	-0.090	0.086
-143.516	-87.593	-0.391	-0.116
-142.502	-110.276	-0.109	-0.022
-141.487	386.138	0.095	0.193
-140.472	-57.199	-0.269	0.116
-139.458	328.957	0.185	0.349
-138.443	-95.256	0.191	-0.051
-137.429	260.790	0.147	-0.250
-136.414	-134.270	0.030	0.004
-135.399	-142.888	-0.212	0.020
-134.385	22.759	0.077	-0.062
-133.370	-200.000	0.043	-0.199
-132.356	-131.142	0.310	-0.041
-131.341	-104.526	0.088	-0.020
-130.326	-125.996	0.013	-0.002
-129.312	-103.152	0.332	-0.077
-128.297	35.929	-0.193	0.167
-127.283	-140.481	-0.306	0.031
-126.268	-99.433	0.427	-0.106
-125.253	800.000	0.053	0.189
-124.239	-19.496	-0.169	0.103
-123.224	-138.410	-0.262	-0.028
