DTS Sentinel unit serial number:	SN413079Multiplexer serial number:	ORYXHardware model number:	OX4-SRSoftware version number:	ORYX F/W v4.00 Oryx Data Collector v3.7.2.0data status	okinstallation	princeton_trtdifferential loss correction	single-endedforward channel	channel 1reverse channel	N/Adate	2019/09/10time	17:16:11forward acquisition time	60.00reverse acquisition time	0.00gamma	496.2192k internal	0.2299k external	0.2299temperature offset calibration	0.9925default loss term (dB/km)	0.3790temperature slope calibration	1.0000multiplexer offset coefficient	1.0000multiplexer slope coefficient	1.0000fibre end	0.00T internal ref (°C)	37.62T ext. ref 1 (°C)	-0.34T ext. ref 2 (°C)	32.15length (m)	temperature (°C)	Stokes	anti-Stokes-747.200	800.000	0.031	-0.130
-746.185	-98.470	0.180	0.047
-745.171	27.256	0.172	-0.148
-744.156	234.714	0.070	0.118
-743.142	-127.724	0.124	0.018
-742.127	-121.990	-0.058	0.010
-741.112	200.338	0.108	0.170
-740.098	-200.000	-0.007	0.336
-739.083	-200.000	0.051	0.298
-738.069	15.812	0.172	0.138
-737.054	151.052	0.111	-0.154
-736.039	800.000	-0.064	-0.195
-735.025	4.876	0.258	0.193
-734.010	277.574	-0.234	0.425
-732.996	800.000	0.050	-0.224
-731.981	-123.484	-0.381	0.062
-730.966	-137.891	0.302	0.034
-729.952	-118.804	-0.145	0.026
-728.937	800.000	0.124	-0.452
-727.923	20.507	-0.145	-0.119
-726.908	-106.426	0.077	-0.018
-725.894	-135.638	-0.366	0.044
-724.879	-55.316	-0.497	-0.227
-723.864	209.897	0.151	-0.242
-722.850	-200.000	-0.033	-0.235
-721.835	521.648	0.063	-0.151
-720.821	87.824	0.251	-0.283
-719.806	-95.660	0.663	-0.181
-718.791	228.988	-0.088	0.147
-717.777	-200.000	0.024	-0.118
-716.762	204.455	-0.193	-0.305
-715.748	-200.000	-0.019	-0.130
-714.733	377.826	0.120	-0.249
-713.718	6.214	-0.228	0.172
-712.704	-111.544	0.453	-0.094
-711.689	20.508	-0.273	-0.225
-710.675	187.487	0.245	-0.372
-709.660	198.752	-0.226	0.353
-708.645	180.662	0.048	0.072
-707.631	-167.602	0.269	-0.011
-706.616	-94.176	-0.214	0.060
-705.602	5.648	0.160	-0.120
-704.587	8.780	0.259	-0.199
-703.572	800.000	-0.040	0.129
-702.558	313.956	-0.040	0.077
-701.543	-32.463	0.232	-0.131
-700.529	-130.283	0.107	0.015
-699.514	126.592	-0.080	-0.103
-698.499	-99.209	-0.055	-0.014
-697.485	800.000	-0.027	0.112
-696.470	-79.607	0.608	-0.209
-695.456	12.950	-0.260	0.205
-694.441	-24.390	0.180	0.109
-693.426	-127.982	0.075	-0.011
-692.412	-200.000	0.012	-0.112
-691.397	-44.718	0.079	-0.040
-690.383	-88.552	0.153	-0.046
-689.368	-148.726	0.226	0.019
-688.354	74.973	-0.236	-0.254
-687.339	-200.000	0.051	0.272
-686.324	368.489	-0.140	-0.288
-685.310	40.598	-0.107	0.098
-684.295	-200.000	-0.007	0.231
-683.281	-200.000	-0.007	0.056
-682.266	33.627	-0.185	-0.164
-681.251	-162.866	0.241	0.012
-680.237	-166.134	-0.199	-0.009
-679.222	24.437	0.348	-0.292
-678.208	-200.000	-0.033	-0.305
-677.193	50.371	-0.139	-0.134
-676.178	-200.000	-0.030	-0.312
-675.164	168.138	0.127	-0.183
-674.149	8.029	0.191	-0.146
-673.135	-200.000	-0.022	-0.174
-672.120	-100.357	-0.243	0.061
-671.105	-89.874	0.379	0.113
-670.091	-200.000	0.055	-0.352
-669.076	-33.721	-0.131	0.074
-668.062	81.898	-0.150	0.165
-667.047	108.041	-0.159	-0.193
-666.032	73.872	-0.110	-0.117
-665.018	-200.000	0.014	-0.186
-664.003	313.345	0.125	-0.238
-662.989	-200.000	0.034	-0.197
-661.974	-62.965	0.276	0.116
-660.959	-24.101	0.047	-0.028
-659.945	-200.000	0.028	-0.235
-658.930	382.125	-0.079	0.164
-657.916	-200.000	0.005	0.318
-656.901	-131.640	-0.117	0.016
-655.886	305.399	0.155	0.293
-654.872	46.090	0.072	0.068
-653.857	83.867	-0.161	0.178
-652.843	101.662	-0.137	-0.163
-651.828	389.777	-0.143	0.302
-650.814	-74.640	-0.211	-0.077
-649.799	115.874	0.166	0.206
-648.784	16.976	-0.255	-0.205
-647.770	-36.872	0.121	-0.066
-646.755	27.888	-0.240	0.206
-645.741	364.047	0.063	0.130
-644.726	-15.612	0.123	0.080
-643.711	53.979	-0.156	0.153
-642.697	-90.599	-0.121	-0.036
-641.682	106.936	0.043	0.052
-640.668	800.000	0.075	-0.303
-639.653	-34.672	-0.429	-0.238
-638.638	-75.295	-0.096	0.035
-637.624	-200.000	-0.002	-0.049
-636.609	0.455	-0.091	0.066
-635.595	42.074	0.154	0.142
-634.580	48.979	0.024	0.023
-633.565	233.229	-0.127	-0.212
-632.551	144.938	0.066	-0.089
-631.536	-200.000	-0.020	-0.241
-630.522	800.000	0.063	-0.221
-629.507	-26.478	0.302	-0.180
-628.492	-36.291	-0.061	0.033
-627.478	-77.374	0.179	0.063
-626.463	-18.057	0.172	0.110
-625.449	-67.544	-0.192	0.077
-624.434	-55.982	-0.213	0.096
-623.419	-124.459	-0.158	-0.025
-622.405	-127.623	0.181	-0.027
-621.390	209.709	0.031	-0.050
-620.376	-66.028	-0.216	0.088
-619.361	-18.272	-0.014	0.009
-618.346	800.000	-0.068	-0.226
-617.332	800.000	-0.082	-0.253
-616.317	-65.559	0.199	0.081
-615.303	-170.510	-0.190	0.007
-614.288	20.036	-0.150	0.123
-613.273	263.812	0.147	-0.259
-612.259	-200.000	-0.047	-0.275
-611.244	-200.000	0.070	-0.000
-610.230	-122.221	-0.222	0.037
-609.215	-83.015	-0.070	0.023
-608.201	-81.641	0.121	0.040
-607.186	96.903	-0.174	0.203
-606.171	348.656	-0.095	-0.191
-605.157	96.081	-0.016	0.018
-604.142	800.000	0.073	0.275
-603.128	710.900	0.027	-0.072
-602.113	-53.208	-0.210	0.098
-601.098	104.168	-0.205	-0.245
-600.084	21.995	0.074	0.061
-599.069	53.975	0.328	0.320
-598.055	567.018	-0.029	-0.071
-597.040	99.108	-0.097	-0.114
-596.025	1.597	-0.263	0.192
-595.011	-200.000	0.022	0.247
-593.996	-43.395	-0.112	0.057
-592.982	209.489	0.096	-0.152
-591.967	-200.000	0.003	-0.140
-590.952	800.000	0.085	-0.329
-589.938	800.000	0.035	-0.144
-588.923	-200.000	0.011	0.534
-587.909	-15.671	0.342	0.221
-586.894	47.202	-0.181	0.171
-585.879	-122.419	-0.191	0.032
-584.865	-8.237	-0.377	0.258
-583.850	800.000	-0.060	0.179
-582.836	-16.649	0.224	0.144
-581.821	-112.296	-0.242	-0.049
-580.806	173.482	0.280	-0.410
-579.792	52.958	0.216	-0.209
-578.777	118.331	0.159	0.198
-577.763	-27.738	-0.374	-0.220
-576.748	800.000	-0.049	-0.218
-575.733	-55.159	-0.199	-0.091
-574.719	-72.770	0.307	-0.115
-573.704	-200.000	-0.016	-0.239
-572.690	-45.763	-0.276	-0.138
-571.675	148.911	0.143	0.195
-570.661	-37.628	0.258	-0.139
-569.646	-52.748	-0.053	-0.025
-568.631	70.872	-0.088	-0.093
-567.617	29.816	0.139	0.120
-566.602	31.340	0.098	0.085
-565.588	800.000	0.015	-0.064
-564.573	-55.471	-0.087	-0.040
-563.558	160.436	0.231	-0.327
-562.544	417.136	-0.084	0.182
-561.529	800.000	0.004	0.012
-560.515	588.547	-0.058	0.144
-559.500	60.143	-0.035	-0.035
-558.485	20.462	-0.069	-0.056
-557.471	-86.377	-0.176	-0.055
-556.456	-179.414	0.165	-0.004
-555.442	15.778	0.199	-0.159
-554.427	312.941	-0.174	0.331
-553.412	-92.001	-0.280	-0.080
-552.398	442.059	0.123	0.273
-551.383	-8.445	-0.066	0.045
-550.369	-76.378	-0.305	-0.109
-549.354	-115.780	0.196	0.037
-548.339	18.120	0.143	-0.115
-547.325	-200.000	-0.024	0.193
-546.310	-167.157	0.184	-0.008
-545.296	43.144	-0.212	0.196
-544.281	800.000	0.144	0.467
-543.266	-93.643	-0.187	-0.052
-542.252	-200.000	0.031	-0.202
-541.237	90.729	0.286	-0.324
-540.223	162.526	0.158	-0.225
-539.208	-103.365	0.216	0.052
-538.193	35.127	0.223	-0.198
-537.179	-42.631	-0.218	-0.112
-536.164	800.000	-0.033	0.132
-535.150	-200.000	0.007	-0.158
-534.135	-23.976	-0.147	-0.089
-533.121	-200.000	0.055	-0.325
-532.106	19.400	0.363	0.295
-531.091	10.934	-0.123	-0.095
-530.077	56.163	0.055	0.054
-529.062	116.992	-0.162	0.201
-528.048	159.231	-0.183	0.257
-527.033	-47.033	0.160	-0.079
-526.018	-19.387	-0.299	0.188
-525.004	550.626	-0.169	0.410
-523.989	-134.703	-0.245	-0.030
-522.975	-142.820	0.414	0.041
-521.960	78.689	-0.212	-0.229
-520.945	-200.000	-0.028	0.124
-519.931	-65.910	0.137	-0.055
-518.916	-200.000	-0.009	-0.160
-517.902	0.137	0.195	-0.140
-516.887	44.894	0.053	-0.049
-515.872	-29.573	0.155	0.090
-514.858	-193.321	0.195	0.002
-513.843	438.348	0.078	0.172
-512.829	-200.000	0.011	0.169
-511.814	-72.868	-0.195	-0.073
-510.799	84.498	0.055	-0.061
-509.785	-200.000	-0.001	-0.101
-508.770	-142.432	-0.089	-0.009
-507.756	-200.000	-0.038	0.220
-506.741	800.000	-0.045	0.176
-505.726	-200.000	-0.020	-0.247
-504.712	-149.598	0.351	0.028
-503.697	60.260	-0.215	0.215
-502.683	-59.987	-0.215	0.093
-501.668	240.174	0.181	-0.306
-500.653	64.081	-0.065	-0.066
-499.639	212.339	-0.058	-0.092
-498.624	-200.000	-0.024	0.205
-497.610	-46.058	-0.112	0.056
-496.595	162.030	0.097	0.137
-495.581	-132.181	0.432	0.057
-494.566	6.501	-0.193	0.145
-493.551	249.046	0.112	-0.192
-492.537	239.732	-0.176	-0.296
-491.522	-73.630	-0.158	0.058
-490.508	-200.000	-0.046	-0.246
-489.493	-5.246	0.080	0.056
-488.478	-46.262	0.230	0.114
-487.464	-200.000	0.055	-0.297
-486.449	363.088	-0.129	-0.262
-485.435	-109.814	-0.160	0.034
-484.420	56.396	-0.095	-0.093
-483.405	-52.531	0.112	-0.052
-482.391	-200.000	-0.026	0.239
-481.376	106.764	0.024	0.028
-480.362	4.774	-0.287	-0.213
-479.347	457.933	-0.094	-0.210
-478.332	10.742	0.175	-0.135
-477.318	16.389	0.209	0.167
-476.303	46.544	0.114	0.107
-475.289	800.000	0.025	0.104
-474.274	-200.000	-0.013	0.355
-473.259	277.015	0.146	0.262
-472.245	101.607	0.055	-0.065
-471.230	-200.000	0.006	-0.141
-470.216	344.787	0.187	0.371
-469.201	111.469	0.115	-0.140
-468.186	-170.834	0.160	-0.006
-467.172	365.772	-0.063	0.128
-466.157	-200.000	0.054	-0.260
-465.143	268.725	-0.023	0.041
-464.128	-108.365	-0.141	0.031
-463.113	-200.000	0.036	-0.285
-462.099	-50.681	0.215	0.102
-461.084	84.107	-0.258	0.284
-460.070	-87.822	-0.193	-0.059
-459.055	51.126	0.197	-0.189
-458.040	119.328	0.288	-0.360
-457.026	71.461	-0.092	-0.097
-456.011	255.542	0.189	0.328
-454.997	387.853	-0.035	0.073
-453.982	53.537	0.173	-0.168
-452.968	-200.000	-0.011	-0.112
-451.953	152.453	0.226	0.312
-450.938	-110.579	0.055	-0.012
-449.924	-120.015	-0.254	-0.044
-448.909	-45.893	0.173	-0.086
-447.895	-52.721	-0.009	-0.004
-446.880	-200.000	-0.027	-0.294
-445.865	-2.684	-0.103	-0.073
-444.851	78.186	-0.350	0.377
-443.836	88.795	0.099	-0.111
-442.822	-68.519	0.133	0.052
-441.807	-118.459	-0.120	-0.021
-440.792	-200.000	-0.016	-0.164
-439.778	28.046	-0.127	0.108
-438.763	293.857	-0.065	-0.120
-437.749	521.668	0.085	-0.201
-436.734	65.718	-0.116	0.119
-435.719	235.232	0.131	0.218
-434.705	-8.693	0.193	-0.130
-433.690	378.090	-0.073	-0.151
-432.676	-11.313	0.188	0.125
-431.661	-65.832	-0.272	0.110
-430.646	800.000	0.079	-0.246
-429.632	800.000	0.091	0.287
-428.617	165.798	0.121	0.172
-427.603	-200.000	-0.006	0.101
-426.588	-147.812	-0.248	-0.021
-425.573	-200.000	-0.028	0.197
-424.559	97.015	-0.105	-0.122
-423.544	-46.610	-0.199	-0.098
-422.530	25.958	0.201	-0.169
-421.515	35.512	0.253	0.223
-420.500	33.336	0.218	-0.190
-419.486	-200.000	0.032	0.235
-418.471	-102.929	-0.209	0.050
-417.457	-124.148	0.072	0.011
-416.442	-127.615	0.220	0.032
-415.428	800.000	0.095	-0.316
-414.413	-156.758	-0.126	-0.008
-413.398	800.000	-0.022	-0.082
-412.384	-200.000	-0.014	0.172
-411.369	-57.229	0.046	-0.020
-410.355	-60.842	0.194	-0.083
-409.340	-114.731	-0.158	0.030
-408.325	781.353	0.024	-0.066
-407.311	-78.453	0.280	0.096
-406.296	-60.473	0.234	-0.100
-405.282	8.760	-0.064	-0.049
-404.267	51.653	0.272	-0.260
-403.252	-154.945	-0.239	0.016
-402.238	40.226	-0.164	-0.149
-401.223	-137.361	0.431	-0.049
-400.209	800.000	0.076	-0.241
-399.194	-146.434	-0.331	0.029
-398.179	-140.737	0.246	0.026
-397.165	-65.585	0.093	0.037
-396.150	-42.556	0.097	0.050
-395.136	-106.898	-0.215	-0.048
-394.121	467.481	-0.123	-0.277
-393.106	28.205	0.305	0.259
-392.092	-200.000	-0.020	0.145
-391.077	-21.264	0.334	0.205
-390.063	214.009	0.189	0.302
-389.048	179.421	0.206	-0.304
-388.033	800.000	0.044	0.173
-387.019	-7.580	-0.138	0.094
-386.004	-48.572	0.097	-0.047
-384.990	83.926	-0.108	-0.118
-383.975	-153.794	-0.142	0.010
-382.960	-200.000	-0.011	-0.127
-381.946	75.184	0.173	0.183
-380.931	-128.444	0.238	0.034
-379.917	-6.272	-0.255	-0.175
-378.902	-80.692	0.133	-0.044
-377.888	-34.354	0.218	-0.120
-376.873	-99.971	-0.126	-0.032
-375.858	-65.914	-0.371	0.149
-374.844	11.706	0.306	-0.236
-373.829	297.920	-0.049	-0.090
-372.815	-27.160	0.101	-0.059
-371.800	110.356	0.090	0.109
-370.785	157.205	-0.095	-0.133
-369.771	-56.579	0.084	0.037
-368.756	-20.280	0.309	-0.191
-367.742	-200.000	-0.053	0.591
-366.727	33.913	-0.276	0.241
-365.712	20.781	0.084	0.068
-364.698	-105.773	-0.091	0.021
-363.683	-56.251	-0.354	-0.158
-362.669	265.381	-0.095	-0.167
-361.654	775.844	-0.014	0.038
-360.639	-49.969	-0.121	0.058
-359.625	35.605	-0.192	0.169
-358.610	222.257	-0.186	-0.301
-357.596	800.000	0.070	-0.202
-356.581	-200.000	-0.023	-0.121
-355.566	398.864	0.117	0.245
-354.552	-47.313	0.081	0.040
-353.537	13.219	0.375	-0.292
-352.523	116.676	-0.181	-0.224
-351.508	163.583	0.073	0.104
-350.493	698.735	0.073	0.192
-349.479	262.866	0.085	0.149
-348.464	387.251	-0.112	0.232
-347.450	800.000	-0.054	0.210
-346.435	-85.951	0.119	0.037
-345.420	-84.388	0.136	0.043
-344.406	-200.000	0.015	-0.300
-343.391	800.000	-0.066	0.202
-342.377	518.928	0.076	0.178
-341.362	217.156	-0.157	0.251
-340.348	405.132	-0.054	0.114
-339.333	-71.280	0.104	0.039
-338.318	-64.468	-0.025	-0.010
-337.304	62.989	-0.040	-0.041
-336.289	16.931	0.350	0.278
-335.275	621.345	-0.106	-0.268
-334.260	-0.956	-0.214	0.152
-333.245	113.218	-0.122	0.148
-332.231	39.218	-0.166	0.149
-331.216	-23.964	-0.277	-0.166
-330.202	800.000	-0.050	0.193
-329.187	116.566	0.162	0.200
-328.172	143.739	-0.012	-0.016
-327.158	-117.142	-0.101	0.018
-326.143	-82.763	-0.081	0.026
-325.129	-56.777	0.216	0.096
-324.114	-200.000	-0.034	-0.234
-323.099	210.668	0.079	-0.124
-322.085	-77.889	0.172	-0.059
-321.070	0.779	0.155	-0.111
-320.056	-134.770	-0.188	-0.023
-319.041	378.548	-0.054	0.111
-318.026	-121.756	0.160	0.027
-317.012	800.000	0.030	0.108
-315.997	53.675	0.132	-0.127
-314.983	-83.965	0.269	0.086
-313.968	-48.222	-0.205	0.099
-312.953	149.779	0.072	-0.098
-311.939	-59.794	-0.069	0.030
-310.924	19.314	-0.212	-0.171
-309.910	95.236	-0.125	-0.143
-308.895	-71.650	0.185	0.069
-307.880	-200.000	-0.003	-0.455
-306.866	-72.829	0.052	0.019
-305.851	-30.621	-0.175	0.099
-304.837	-115.575	-0.132	-0.025
-303.822	-200.000	0.004	-0.158
-302.807	800.000	-0.033	-0.103
-301.793	-200.000	0.060	0.505
-300.778	-200.000	-0.007	0.256
-299.764	-200.000	-0.045	0.368
-298.749	-151.942	0.162	-0.012
-297.735	-170.674	-0.246	-0.009
-296.720	-38.009	-0.074	-0.039
-295.705	674.947	-0.044	-0.116
-294.691	-8.116	-0.340	-0.230
-293.676	48.744	-0.307	-0.289
-292.662	-74.556	-0.127	-0.046
-291.647	43.432	0.036	0.033
-290.632	172.151	0.098	0.141
-289.618	-85.977	0.122	-0.038
-288.603	113.744	-0.197	-0.239
-287.589	-46.913	0.321	0.157
-286.574	-200.000	-0.066	-0.303
-285.559	-100.805	0.119	0.029
-284.545	-200.000	0.039	0.177
-283.530	-200.000	0.037	-0.253
-282.516	-129.185	-0.254	0.036
-281.501	168.635	-0.136	-0.195
-280.486	800.000	-0.005	-0.020
-279.472	205.914	-0.101	0.157
-278.457	84.535	-0.190	-0.208
-277.443	-200.000	0.005	0.031
-276.428	-163.306	-0.164	-0.008
-275.413	152.735	0.155	0.212
-274.399	800.000	-0.064	-0.181
-273.384	-98.170	0.334	-0.086
-272.370	-6.435	0.320	-0.218
-271.355	-101.559	0.571	-0.139
-270.340	88.662	-0.061	0.068
-269.326	-200.000	0.029	-0.269
-268.311	-200.000	-0.010	-0.352
-267.297	-33.956	-0.124	-0.069
-266.282	-200.000	-0.003	-0.067
-265.267	-41.493	0.182	0.094
-264.253	452.163	-0.022	0.048
-263.238	150.103	0.195	-0.265
-262.224	-127.832	0.314	-0.045
-261.209	360.023	0.179	-0.358
-260.195	-200.000	-0.023	-0.389
-259.180	252.554	0.072	-0.122
-258.165	-200.000	-0.012	0.077
-257.151	231.751	-0.144	0.236
-256.136	-95.808	-0.394	-0.105
-255.122	800.000	-0.041	-0.127
-254.107	-200.000	0.000	-0.309
-253.092	93.138	-0.085	0.096
-252.078	-72.682	-0.233	-0.086
-251.063	-200.000	-0.121	0.000
-250.049	163.467	-0.103	-0.145
-249.034	321.347	0.160	-0.305
-248.019	-121.726	-0.219	-0.036
-247.005	-10.045	-0.120	-0.080
-245.990	34.052	0.235	0.205
-244.976	-104.383	-0.389	0.090
-243.961	-105.633	0.060	-0.013
-242.946	2.655	-0.061	-0.044
-241.932	-46.660	0.250	-0.122
-240.917	800.000	0.093	-0.271
-239.903	-7.036	0.151	0.102
-238.888	203.367	0.127	-0.197
-237.873	-49.190	-0.237	-0.113
-236.859	-42.519	-0.077	0.039
-235.844	-120.655	-0.245	0.041
-234.830	261.783	0.101	0.175
-233.815	106.989	0.079	0.094
-232.800	-137.309	-0.185	-0.021
-231.786	-200.000	0.017	0.105
-230.771	-81.088	-0.274	-0.091
-229.757	-200.000	0.020	0.318
-228.742	-40.161	0.186	0.097
-227.727	800.000	-0.061	-0.244
-226.713	-200.000	-0.012	-0.175
-225.698	663.501	-0.129	0.332
-224.684	-108.856	-0.316	-0.067
-223.669	32.660	0.268	0.232
-222.655	64.162	0.210	0.211
-221.640	375.694	0.099	0.202
-220.625	318.987	-0.198	0.376
-219.611	-200.000	0.022	-0.128
-218.596	-45.874	0.252	-0.124
-217.582	-68.788	-0.352	-0.136
-216.567	-200.000	0.062	0.425
-215.552	-117.866	0.277	0.050
-214.538	183.861	-0.077	-0.114
-213.523	52.772	-0.158	-0.151
-212.509	800.000	0.077	-0.218
-211.494	21.769	-0.210	-0.171
-210.479	-12.731	-0.087	-0.056
-209.465	310.745	-0.105	0.196
-208.450	-180.629	-0.156	0.003
-207.436	-200.000	0.035	-0.224
-206.421	-121.381	-0.290	0.048
-205.406	-104.423	0.072	-0.017
-204.392	310.881	0.199	0.373
-203.377	-200.000	-0.023	0.529
-202.363	-100.657	-0.175	-0.043
-201.348	709.414	-0.048	0.126
-200.333	-171.353	0.202	-0.007
-199.319	800.000	0.029	0.097
-198.304	107.487	-0.190	0.225
-197.290	461.645	-0.039	-0.087
-196.275	-200.000	-0.009	0.379
-195.260	-200.000	-0.014	0.126
-194.246	-111.523	-0.172	0.035
-193.231	-72.754	0.156	-0.057
-192.217	-113.579	0.217	0.042
-191.202	-77.834	0.244	-0.084
-190.187	800.000	0.057	0.247
-189.173	13.685	-0.273	0.212
-188.158	800.000	0.063	-0.214
-187.144	8.883	0.236	-0.177
-186.129	116.919	0.108	0.133
-185.114	-13.521	-0.422	0.273
-184.100	562.660	0.035	0.084
-183.085	-85.909	-0.164	-0.051
-182.071	-200.000	-0.026	-0.138
-181.056	23.720	-0.094	-0.077
-180.042	-200.000	-0.020	-0.176
-179.027	-66.431	-0.349	-0.138
-178.012	-96.060	0.228	0.061
-176.998	225.376	-0.199	0.322
-175.983	86.960	0.132	0.145
-174.969	199.728	0.131	-0.200
-173.954	800.000	-0.086	-0.251
-172.939	-200.000	0.035	0.167
-171.925	223.298	0.197	0.317
-170.910	610.984	-0.092	0.231
-169.896	300.832	-0.055	0.101
-168.881	800.000	-0.051	-0.147
-167.866	-75.540	0.270	-0.096
-166.852	48.061	0.250	0.233
-165.837	-111.136	-0.428	0.088
-164.823	800.000	-0.081	0.257
-163.808	167.481	0.239	0.339
-162.793	-63.804	0.028	-0.011
-161.779	235.955	-0.036	-0.060
-160.764	759.554	0.057	-0.153
-159.750	8.327	-0.070	0.053
-158.735	540.590	0.085	0.201
-157.720	-200.000	-0.022	-0.275
-156.706	800.000	-0.098	0.288
-155.691	-51.598	-0.100	0.047
-154.677	100.437	-0.310	-0.358
-153.662	648.490	0.085	-0.216
-152.647	-111.898	0.319	0.064
-151.633	-200.000	0.068	0.376
-150.618	-71.533	0.253	0.094
-149.604	-42.193	0.045	-0.023
-148.589	-20.870	-0.213	0.130
-147.574	-16.442	-0.160	-0.101
-146.560	800.000	0.044	-0.130
-145.545	1.533	-0.165	0.118
-144.531	191.786	0.156	0.234
-143.516	-10.437	-0.289	-0.191
-142.502	-95.081	-0.097	-0.026
-141.487	35.715	-0.365	0.320
-140.472	-200.000	0.010	0.064
-139.458	-200.000	-0.082	0.372
-138.443	40.973	-0.126	0.113
-137.429	-200.000	0.109	0.496
-136.414	621.586	-0.020	-0.049
-135.399	51.017	0.130	-0.123
-134.385	-70.421	-0.462	0.175
-133.370	-2.039	0.080	-0.056
-132.356	175.825	-0.193	-0.278
-131.341	309.725	0.057	-0.106
-130.326	143.465	0.087	0.116
-129.312	12.411	0.095	-0.073
-128.297	-53.283	0.315	-0.144
-127.283	270.410	-0.075	-0.132
-126.268	-200.000	-0.009	-0.155
-125.253	128.297	0.108	-0.137
-124.239	800.000	0.077	0.234
-123.224	-89.047	-0.255	0.075
-122.210	-141.319	0.095	-0.010
-121.195	800.000	0.076	0.264
