DTS Sentinel unit serial number:	SN413079Multiplexer serial number:	ORYXHardware model number:	OX4-SRSoftware version number:	ORYX F/W v4.00 Oryx Data Collector v3.7.2.0data status	okinstallation	princeton_trtdifferential loss correction	single-endedforward channel	channel 1reverse channel	N/Adate	2019/09/10time	15:56:11forward acquisition time	60.00reverse acquisition time	0.00gamma	496.2192k internal	0.2298k external	0.2298temperature offset calibration	0.9916default loss term (dB/km)	0.3790temperature slope calibration	1.0000multiplexer offset coefficient	1.0000multiplexer slope coefficient	1.0000fibre end	0.00T internal ref (°C)	38.19T ext. ref 1 (°C)	-0.25T ext. ref 2 (°C)	32.24length (m)	temperature (°C)	Stokes	anti-Stokes-747.200	-68.238	0.172	-0.068
-746.185	800.000	-0.057	0.194
-745.171	-38.171	-0.024	-0.013
-744.156	-200.000	0.040	0.272
-743.142	-154.993	-0.388	0.026
-742.127	143.047	0.111	0.150
-741.112	23.065	-0.067	0.056
-740.098	-200.000	-0.029	0.188
-739.083	45.864	-0.174	0.164
-738.069	-98.061	-0.143	0.037
-737.054	-119.233	0.202	0.036
-736.039	-104.669	-0.351	-0.083
-735.025	-200.000	0.254	0.000
-734.010	-200.000	-0.046	-0.301
-732.996	-63.897	-0.133	-0.056
-731.981	-10.021	0.209	0.141
-730.966	800.000	-0.067	0.231
-729.952	-200.000	-0.002	0.068
-728.937	154.569	-0.176	-0.246
-727.923	397.115	-0.197	-0.419
-726.908	448.163	-0.081	-0.182
-725.894	328.636	0.086	-0.168
-724.879	-54.159	0.073	-0.034
-723.864	-58.919	0.223	-0.098
-722.850	-200.000	-0.013	0.090
-721.835	139.791	-0.069	0.092
-720.821	84.959	-0.087	0.098
-719.806	-200.000	-0.041	0.235
-718.791	4.870	-0.102	0.077
-717.777	800.000	0.071	0.230
-716.762	800.000	0.058	-0.217
-715.748	-149.499	0.155	-0.013
-714.733	-32.752	-0.309	-0.175
-713.718	142.573	-0.106	0.143
-712.704	231.307	-0.123	-0.205
-711.689	208.249	-0.129	-0.205
-710.675	-200.000	0.026	0.176
-709.660	-15.301	0.146	0.095
-708.645	-200.000	0.040	0.289
-707.631	24.899	-0.139	-0.118
-706.616	800.000	-0.037	-0.148
-705.602	-58.448	0.243	-0.108
-704.587	-80.206	-0.112	0.038
-703.572	111.091	0.147	-0.181
-702.558	124.572	-0.078	0.100
-701.543	-45.197	0.470	-0.238
-700.529	-91.439	0.335	-0.097
-699.514	116.699	-0.055	0.068
-698.499	800.000	0.044	-0.136
-697.485	-200.000	0.005	-0.092
-696.470	-111.119	-0.348	-0.073
-695.456	-133.443	0.158	0.020
-694.441	800.000	-0.030	-0.093
-693.426	-200.000	0.033	-0.268
-692.412	-12.674	-0.239	0.159
-691.397	557.481	-0.114	-0.281
-690.383	800.000	-0.025	0.071
-689.368	-13.426	0.143	-0.095
-688.354	-200.000	0.011	-0.071
-687.339	-178.622	-0.157	0.004
-686.324	243.694	0.091	-0.155
-685.310	45.937	0.154	-0.145
-684.295	-42.506	0.105	-0.055
-683.281	14.028	0.231	-0.183
-682.266	-23.025	0.064	0.039
-681.251	-61.822	-0.115	-0.049
-680.237	25.405	0.357	0.302
-679.222	-134.807	-0.483	0.060
-678.208	54.579	0.048	0.047
-677.193	-97.236	-0.391	-0.104
-676.178	-47.386	0.178	0.088
-675.164	-142.232	0.294	0.030
-674.149	-200.000	0.032	0.164
-673.135	800.000	0.063	-0.178
-672.120	-200.000	0.000	0.141
-671.105	-200.000	0.023	-0.290
-670.091	90.126	-0.194	0.221
-669.076	63.950	0.258	0.264
-668.062	-200.000	-0.071	0.338
-667.047	178.312	0.250	0.371
-666.032	13.467	-0.191	-0.151
-665.018	14.856	-0.412	-0.328
-664.003	7.930	0.344	-0.263
-662.989	15.933	0.038	0.031
-661.974	-23.597	-0.258	0.158
-660.959	-200.000	-0.003	0.081
-659.945	-89.053	0.056	0.017
-658.930	102.690	0.083	-0.098
-657.916	-149.246	0.449	0.036
-656.901	800.000	-0.042	-0.184
-655.886	11.033	-0.099	0.077
-654.872	-80.236	0.172	-0.059
-653.857	-39.699	-0.086	0.046
-652.843	165.177	-0.089	-0.127
-651.828	208.668	0.081	0.129
-650.814	432.992	0.038	-0.085
-649.799	-86.755	-0.415	-0.129
-648.784	193.227	-0.078	0.119
-647.770	145.115	0.174	0.236
-646.755	370.141	-0.083	-0.172
-645.741	-30.174	0.111	-0.064
-644.726	-200.000	0.044	0.462
-643.711	67.488	-0.082	-0.085
-642.697	-87.985	0.045	-0.014
-641.682	-200.000	-0.087	0.445
-640.668	54.139	0.065	0.063
-639.653	102.407	0.145	0.172
-638.638	372.234	0.126	0.261
-637.624	-130.893	0.110	0.015
-636.609	32.698	-0.130	0.114
-635.595	-17.370	-0.042	-0.027
-634.580	-108.176	-0.338	0.074
-633.565	-83.415	0.076	0.025
-632.551	-73.226	-0.119	0.044
-631.536	-70.673	0.102	0.039
-630.522	-200.000	0.027	0.226
-629.507	-93.022	0.244	-0.069
-628.492	591.740	-0.069	-0.174
-627.478	-157.406	0.113	0.007
-626.463	169.985	0.023	0.033
-625.449	-128.173	0.318	-0.046
-624.434	-200.000	-0.040	0.441
-623.419	179.708	-0.141	0.210
-622.405	-84.708	0.300	0.096
-621.390	126.792	-0.164	-0.211
-620.376	184.022	-0.226	0.340
-619.361	-200.000	-0.020	0.178
-618.346	-200.000	0.021	-0.271
-617.332	-10.144	0.424	-0.286
-616.317	294.272	0.174	0.323
-615.303	-200.000	-0.043	-0.192
-614.288	-51.702	-0.251	-0.119
-613.273	493.518	-0.067	-0.157
-612.259	-8.065	-0.293	-0.200
-611.244	236.832	-0.226	-0.380
-610.230	-84.432	0.256	-0.082
-609.215	33.159	-0.054	0.048
-608.201	-87.271	-0.123	0.038
-607.186	-200.000	-0.003	0.200
-606.171	655.004	0.105	-0.273
-605.157	800.000	0.134	-0.375
-604.142	54.510	0.110	-0.107
-603.128	37.213	-0.093	-0.083
-602.113	-135.948	0.056	0.007
-601.098	-62.177	-0.176	-0.074
-600.084	-59.699	0.089	-0.039
-599.069	39.266	-0.145	0.132
-598.055	-88.443	0.119	0.036
-597.040	-153.393	-0.215	-0.015
-596.025	76.675	-0.085	0.092
-595.011	-6.287	-0.367	-0.254
-593.996	-118.488	0.119	0.021
-592.982	-87.043	-0.536	-0.166
-591.967	68.608	-0.111	-0.115
-590.952	550.004	-0.027	-0.065
-589.938	35.589	0.166	0.148
-588.923	4.749	-0.357	0.266
-587.909	-150.525	-0.199	-0.015
-586.894	-114.262	0.124	-0.024
-585.879	-41.544	0.227	-0.118
-584.865	-74.519	-0.287	0.105
-583.850	-36.839	-0.065	-0.035
-582.836	233.291	0.250	-0.417
-581.821	-32.113	0.150	0.085
-580.806	22.364	0.058	-0.048
-579.792	-76.763	-0.234	-0.083
-578.777	170.416	-0.234	-0.340
-577.763	69.892	0.077	-0.081
-576.748	800.000	-0.020	0.064
-575.733	236.841	0.107	-0.179
-574.719	280.691	0.239	-0.433
-573.704	-200.000	0.019	-0.235
-572.690	-75.344	0.190	0.069
-571.675	-1.888	-0.049	-0.035
-570.661	-200.000	0.018	0.128
-569.646	-81.837	-0.391	0.130
-568.631	-80.711	-0.207	-0.070
-567.617	281.758	-0.134	-0.244
-566.602	6.005	0.101	-0.076
-565.588	-51.542	-0.294	-0.139
-564.573	37.096	0.289	-0.259
-563.558	-127.415	-0.262	-0.039
-562.544	-4.568	0.062	0.043
-561.529	583.885	0.073	-0.183
-560.515	800.000	0.033	-0.093
-559.500	800.000	-0.029	0.105
-558.485	800.000	0.075	-0.241
-557.471	-1.798	-0.185	-0.132
-556.456	-200.000	0.023	-0.304
-555.442	-101.627	0.059	0.015
-554.427	-95.914	-0.322	-0.087
-553.412	-144.260	-0.322	-0.030
-552.398	-33.170	-0.158	0.089
-551.383	-137.278	0.268	0.031
-550.369	-62.728	0.145	-0.061
-549.354	-62.478	-0.197	-0.083
-548.339	-72.527	0.192	0.072
-547.325	52.413	-0.251	-0.243
-546.310	-175.300	0.020	0.001
-545.296	420.582	0.064	-0.139
-544.281	-200.000	0.020	0.125
-543.266	-85.501	-0.127	0.040
-542.252	-198.775	-0.009	0.000
-541.237	-82.362	-0.145	-0.048
-540.223	-48.668	-0.306	-0.149
-539.208	-151.352	0.271	0.020
-538.193	98.751	0.118	0.138
-537.179	-62.030	-0.155	-0.066
-536.164	-200.000	-0.002	-0.131
-535.150	-44.744	0.144	0.073
-534.135	526.397	0.128	-0.305
-533.121	173.095	-0.066	-0.096
-532.106	361.077	0.043	0.088
-531.091	800.000	-0.038	-0.161
-530.077	-64.368	-0.125	0.051
-529.062	-123.848	-0.087	0.014
-528.048	140.709	-0.139	0.186
-527.033	-136.020	-0.284	0.034
-526.018	-200.000	0.003	0.191
-525.004	-76.414	0.311	-0.111
-523.989	631.822	-0.126	0.324
-522.975	-101.313	-0.280	0.069
-521.960	206.679	0.090	-0.142
-520.945	-135.432	-0.266	0.032
-519.931	800.000	-0.137	0.403
-518.916	-65.206	-0.224	0.091
-517.902	613.330	-0.106	-0.268
-516.887	-200.000	0.024	-0.308
-515.872	-99.028	-0.281	-0.072
-514.858	800.000	0.064	-0.195
-513.843	800.000	-0.015	0.045
-512.829	-18.283	0.053	-0.034
-511.814	-200.000	0.016	-0.269
-510.799	21.953	0.207	-0.171
-509.785	-112.119	-0.106	0.021
-508.770	-95.841	-0.292	0.079
-507.756	200.022	-0.197	0.306
-506.741	-60.057	0.228	-0.098
-505.726	800.000	0.104	-0.335
-504.712	798.721	0.118	-0.329
-503.697	-20.925	0.210	0.130
-502.683	-165.684	-0.341	0.015
-501.668	-133.566	-0.171	0.022
-500.653	-11.556	-0.179	0.119
-499.639	221.973	0.110	0.179
-498.624	-169.064	0.261	-0.010
-497.610	20.463	-0.058	0.048
-496.595	-45.651	0.101	0.051
-495.581	-51.298	0.177	0.084
-494.566	170.093	-0.206	0.298
-493.551	58.248	-0.049	-0.048
-492.537	-143.469	0.299	-0.029
-491.522	3.451	-0.083	0.061
-490.508	37.472	-0.182	0.163
-489.493	313.390	0.156	0.296
-488.478	-81.766	0.122	0.040
-487.464	-200.000	-0.014	0.270
-486.449	98.823	-0.193	0.225
-485.435	143.229	0.080	-0.108
-484.420	21.998	-0.099	-0.082
-483.405	-200.000	0.059	0.000
-482.391	-73.632	-0.100	-0.037
-481.376	189.403	-0.186	-0.281
-480.362	-200.000	-0.012	-0.141
-479.347	-100.462	0.240	-0.060
-478.332	87.325	-0.243	0.271
-477.318	36.571	0.459	0.409
-476.303	26.945	0.257	0.217
-475.289	274.908	0.059	-0.105
-474.274	-200.000	-0.009	-0.102
-473.259	-200.000	-0.014	0.378
-472.245	77.983	-0.178	-0.192
-471.230	-200.000	-0.009	-0.278
-470.216	-69.081	0.029	0.011
-469.201	-178.268	0.140	-0.003
-468.186	-59.739	0.181	0.078
-467.172	-12.137	0.099	-0.065
-466.157	-200.000	-0.014	0.307
-465.143	190.787	0.232	-0.352
-464.128	-141.828	-0.143	0.015
-463.113	762.632	0.077	-0.210
-462.099	36.959	-0.278	-0.248
-461.084	108.658	-0.068	-0.083
-460.070	13.605	-0.251	0.197
-459.055	-99.757	-0.118	-0.030
-458.040	627.643	-0.169	-0.431
-457.026	298.657	-0.110	-0.205
-456.011	56.647	0.172	0.169
-454.997	-200.000	0.032	0.156
-453.982	-68.755	0.346	-0.135
-452.968	-49.025	0.318	0.154
-451.953	83.767	0.058	0.064
-450.938	85.732	-0.129	-0.143
-449.924	-19.904	-0.016	0.010
-448.909	800.000	0.020	-0.087
-447.895	125.077	-0.297	0.378
-446.880	800.000	0.049	-0.148
-445.865	-200.000	0.058	-0.285
-444.851	205.755	-0.014	0.023
-443.836	-133.257	-0.263	0.033
-442.822	157.256	-0.140	0.195
-441.807	-155.350	0.291	-0.019
-440.792	18.825	0.076	-0.061
-439.778	171.197	-0.158	-0.229
-438.763	-29.812	0.172	0.099
-437.749	-200.000	-0.012	-0.095
-436.734	563.751	0.057	0.139
-435.719	148.439	0.138	-0.188
-434.705	433.521	0.041	-0.091
-433.690	21.795	-0.268	-0.220
-432.676	-130.176	-0.225	-0.031
-431.661	-199.018	0.197	-0.001
-430.646	-110.565	0.192	-0.040
-429.632	-200.000	0.074	0.349
-428.617	-68.623	-0.258	0.101
-427.603	-113.651	-0.475	0.093
-426.588	-169.177	0.257	0.010
-425.573	-76.956	0.080	-0.028
-424.559	218.048	-0.109	-0.176
-423.544	-103.253	-0.161	0.038
-422.530	-123.770	0.240	0.038
-421.515	-118.177	0.053	0.010
-420.500	-150.819	-0.195	-0.015
-419.486	-63.291	-0.272	0.113
-418.471	-200.000	0.198	0.001
-417.457	41.577	-0.039	0.036
-416.442	-94.122	0.165	-0.046
-415.428	-187.500	0.063	0.001
-414.413	105.070	0.130	-0.155
-413.398	-0.061	-0.415	-0.298
-412.384	-35.628	0.066	0.036
-411.369	-166.898	0.343	0.014
-410.355	-200.000	-0.023	0.275
-409.340	104.018	-0.031	0.037
-408.325	-148.756	0.516	-0.042
-407.311	60.079	-0.102	0.101
-406.296	538.464	-0.137	-0.328
-405.282	397.893	0.152	-0.321
-404.267	-200.000	-0.009	-0.191
-403.252	633.788	0.019	0.049
-402.238	414.066	-0.136	-0.291
-401.223	215.376	0.282	-0.450
-400.209	4.945	0.126	-0.093
-399.194	800.000	0.028	-0.111
-398.179	6.513	0.141	0.105
-397.165	-29.196	0.299	-0.173
-396.150	-200.000	-0.037	0.272
-395.136	465.884	-0.090	0.203
-394.121	208.854	0.122	0.192
-393.106	800.000	-0.092	0.278
-392.092	800.000	0.063	0.275
-391.077	800.000	-0.052	0.169
-390.063	-23.923	0.210	-0.127
-389.048	46.157	-0.172	-0.161
-388.033	509.188	-0.014	-0.033
-387.019	-0.542	0.371	0.265
-386.004	95.871	-0.084	0.096
-384.990	563.025	-0.012	0.028
-383.975	-102.074	-0.168	-0.041
-382.960	120.301	0.213	0.266
-381.946	-73.649	0.094	0.035
-380.931	46.738	0.185	0.173
-379.917	-49.250	0.332	0.159
-378.902	42.732	0.232	0.213
-377.888	13.714	-0.122	-0.095
-376.873	-99.901	0.486	-0.122
-375.858	-84.763	-0.209	0.066
-374.844	78.615	-0.072	-0.077
-373.829	-159.600	-0.259	-0.014
-372.815	800.000	-0.063	-0.206
-371.800	181.961	-0.062	-0.091
-370.785	18.181	-0.236	-0.189
-369.771	-87.923	0.263	-0.079
-368.756	-45.537	0.112	-0.056
-367.742	217.512	-0.180	0.289
-366.727	43.280	-0.096	-0.088
-365.712	1.835	-0.389	-0.282
-364.698	-9.826	0.439	0.294
-363.683	87.133	0.186	-0.206
-362.669	800.000	0.053	-0.187
-361.654	-200.000	0.006	0.031
-360.639	-130.552	0.213	-0.029
-359.625	-128.693	0.271	-0.038
-358.610	-100.906	-0.290	0.072
-357.596	-200.000	0.041	0.435
-356.581	143.294	0.151	-0.203
-355.566	114.134	-0.071	-0.087
-354.552	88.143	0.089	0.100
-353.537	474.194	0.079	-0.179
-352.523	-149.570	-0.126	-0.010
-351.508	235.721	0.127	0.211
-350.493	800.000	0.052	0.225
-349.479	770.688	-0.100	0.275
-348.464	-33.754	-0.072	-0.040
-347.450	134.862	0.020	0.027
-346.435	-113.047	-0.178	0.035
-345.420	452.525	0.077	0.171
-344.406	-91.627	0.079	0.023
-343.391	231.405	-0.081	-0.134
-342.377	-81.774	0.081	-0.027
-341.362	-60.983	0.196	-0.083
-340.348	361.625	0.113	0.227
-339.333	-145.529	0.091	-0.008
-338.318	138.561	0.275	0.363
-337.304	800.000	0.072	0.267
-336.289	-200.000	0.052	-0.239
-335.275	-131.753	0.497	0.065
-334.260	59.721	-0.203	0.201
-333.245	-83.596	-0.151	-0.049
-332.231	-3.721	0.142	-0.099
-331.216	244.643	0.016	0.026
-330.202	-200.000	0.050	0.239
-329.187	79.326	-0.119	0.128
-328.172	-200.000	-0.008	-0.230
-327.158	-121.391	-0.109	-0.018
-326.143	46.478	-0.163	0.151
-325.129	238.293	-0.133	-0.221
-324.114	-72.723	0.119	0.044
-323.099	-72.705	-0.130	0.048
-322.085	223.217	0.156	0.252
-321.070	-87.585	-0.197	-0.060
-320.056	-72.766	-0.155	-0.057
-319.041	1.117	0.283	-0.204
-318.026	19.407	-0.226	0.183
-317.012	-130.968	-0.173	-0.023
-315.997	230.405	0.153	-0.250
-314.983	-160.922	-0.254	-0.013
-313.968	-83.844	0.436	-0.140
-312.953	-77.718	-0.099	0.034
-311.939	99.667	0.139	0.161
-310.924	800.000	0.024	-0.084
-309.910	455.046	0.131	-0.291
-308.895	-32.941	0.087	-0.048
-307.880	-140.574	0.478	-0.050
-306.866	-96.904	-0.134	-0.035
-305.851	774.255	-0.094	-0.258
-304.837	74.861	-0.006	0.006
-303.822	-126.750	0.215	0.032
-302.807	-122.785	-0.073	-0.012
-301.793	205.704	-0.106	0.166
-300.778	-106.503	-0.109	0.024
-299.764	-28.047	-0.297	0.172
-298.749	50.595	0.129	-0.123
-297.735	-136.896	0.240	-0.028
-296.720	800.000	0.052	-0.226
-295.705	-86.862	0.302	0.092
-294.691	-106.523	-0.187	-0.042
-293.676	800.000	0.015	-0.059
-292.662	-87.274	0.159	-0.048
-291.647	800.000	0.064	-0.227
-290.632	800.000	0.167	-0.528
-289.618	241.237	0.122	-0.204
-288.603	156.797	0.247	0.342
-287.589	210.101	0.259	0.408
-286.574	178.507	-0.180	0.264
-285.559	297.047	-0.103	0.189
-284.545	-132.034	0.238	0.031
-283.530	800.000	0.039	-0.117
-282.516	-125.872	-0.099	-0.015
-281.501	800.000	0.046	-0.126
-280.486	-119.709	0.137	-0.024
-279.472	-128.796	-0.074	-0.010
-278.457	198.214	0.267	-0.409
-277.443	-57.949	0.218	0.095
-276.428	-74.478	-0.157	0.057
-275.413	80.420	0.273	0.294
-274.399	-200.000	0.003	-0.069
-273.384	800.000	0.022	-0.067
-272.370	429.592	0.073	0.158
-271.355	308.714	-0.100	0.187
-270.340	176.014	0.181	0.263
-269.326	-163.448	-0.216	-0.010
-268.311	-155.316	0.232	0.015
-267.297	191.922	0.154	0.233
-266.282	32.937	-0.148	0.128
-265.267	-200.000	-0.096	-0.500
-264.253	-95.211	0.139	0.038
-263.238	-151.552	-0.248	0.018
-262.224	102.677	0.107	-0.125
-261.209	192.032	-0.196	-0.296
-260.195	-66.914	-0.329	0.130
-259.180	708.573	0.069	0.184
-258.165	-200.000	0.005	0.075
-257.151	-143.694	-0.157	0.015
-256.136	-200.000	0.011	0.139
-255.122	-200.000	-0.015	0.130
-254.107	-25.891	-0.438	-0.258
-253.092	55.970	0.065	0.063
-252.078	225.056	0.112	0.181
-251.063	214.872	0.214	-0.339
-250.049	-43.804	0.163	-0.082
-249.034	421.557	-0.139	0.299
-248.019	3.028	0.220	-0.160
-247.005	-158.633	0.041	0.002
-245.990	-200.000	0.004	0.032
-244.976	-10.734	0.025	0.017
-243.961	-18.941	-0.085	0.053
-242.946	800.000	-0.106	0.449
-241.932	-200.000	0.007	0.137
-240.917	-88.502	-0.259	0.077
-239.903	37.526	-0.150	0.133
-238.888	-10.946	0.113	0.075
-237.873	-94.282	-0.041	-0.011
-236.859	158.480	0.086	0.120
-235.844	-134.027	0.328	0.041
-234.830	-200.000	0.001	0.257
-233.815	116.214	-0.048	-0.059
-232.800	-200.000	-0.017	0.098
-231.786	-40.388	-0.401	0.208
-230.771	-84.857	0.061	-0.019
-229.757	-101.061	0.124	0.030
-228.742	579.665	0.075	-0.184
-227.727	105.562	-0.246	-0.291
-226.713	800.000	0.028	-0.107
-225.698	-151.636	0.190	-0.014
-224.684	-110.844	-0.136	-0.028
-223.669	201.520	0.078	-0.120
-222.655	39.366	0.213	-0.191
-221.640	800.000	-0.037	0.128
-220.625	154.734	-0.052	-0.072
-219.611	52.448	-0.325	0.310
-218.596	-200.000	-0.012	-0.057
-217.582	-96.370	-0.092	-0.024
-216.567	-164.279	-0.358	0.016
-215.552	57.310	-0.167	-0.163
-214.538	-200.000	-0.001	-0.249
-213.523	330.532	0.105	0.202
-212.509	-135.375	-0.313	0.037
-211.494	-150.650	0.137	0.010
-210.479	800.000	0.021	-0.059
-209.465	-84.771	-0.064	0.020
-208.450	-66.017	-0.540	-0.215
-207.436	307.813	0.108	0.201
-206.421	-200.000	-0.037	0.235
-205.406	-200.000	-0.011	-0.132
-204.392	-92.393	0.200	-0.056
-203.377	-97.082	-0.260	0.068
-202.363	-200.000	-0.045	-0.234
-201.348	-60.349	-0.047	0.020
-200.333	-29.100	-0.147	-0.084
-199.319	326.886	-0.181	0.347
-198.304	406.318	0.133	-0.280
-197.290	800.000	-0.051	0.223
-196.275	800.000	0.042	-0.147
-195.260	229.738	-0.113	-0.185
-194.246	111.960	-0.193	-0.233
-193.231	30.997	0.228	-0.195
-192.217	4.736	0.028	0.020
-191.202	-88.519	-0.233	0.069
-190.187	-200.000	-0.017	0.167
-189.173	-167.821	-0.084	-0.003
-188.158	192.215	0.084	0.126
-187.144	-39.595	0.334	-0.175
-186.129	-200.000	0.038	-0.438
-185.114	102.409	0.232	-0.271
-184.100	-111.524	-0.333	-0.068
-183.085	53.289	-0.216	0.206
-182.071	691.799	0.018	0.047
-181.056	800.000	-0.067	0.204
-180.042	-66.861	0.399	0.158
-179.027	-15.837	0.149	0.095
-178.012	185.547	0.071	0.106
-176.998	-200.000	0.001	-0.101
-175.983	-88.844	0.203	0.060
-174.969	23.541	0.044	0.036
-173.954	185.274	-0.193	-0.286
-172.939	-116.937	-0.213	-0.039
-171.925	-75.565	-0.164	0.058
-170.910	-72.024	0.255	0.095
-169.896	-26.591	0.052	0.030
-168.881	-54.370	-0.251	0.113
-167.866	-128.715	0.201	0.028
-166.852	-105.739	-0.399	0.090
-165.837	-111.069	0.215	-0.044
-164.823	-200.000	0.004	0.411
-163.808	-200.000	0.066	0.478
-162.793	-86.319	-0.189	0.058
-161.779	-102.145	0.309	0.074
-160.764	-200.000	-0.006	0.083
-159.750	-200.000	-0.033	0.283
-158.735	-167.655	-0.076	-0.003
-157.720	58.514	0.082	0.080
-156.706	800.000	0.119	0.365
-155.691	-171.827	-0.040	0.001
-154.677	-82.456	-0.254	-0.082
-153.662	-96.189	0.270	-0.071
-152.647	166.932	0.171	0.242
-151.633	-118.512	0.165	0.029
-150.618	-46.123	0.185	-0.091
-149.604	-84.524	-0.286	0.090
-148.589	50.227	0.146	0.137
-147.574	-200.000	0.026	-0.129
-146.560	800.000	0.036	0.139
-145.545	800.000	-0.042	0.140
-144.531	-200.000	0.409	-0.002
-143.516	-200.000	0.047	-0.413
-142.502	-200.000	-0.016	-0.146
-141.487	-121.148	-0.083	-0.014
-140.472	-22.691	0.092	0.055
-139.458	124.534	0.310	-0.389
-138.443	215.900	0.032	-0.050
-137.429	-48.675	0.104	-0.050
-136.414	-48.793	-0.410	0.196
-135.399	-200.000	-0.011	0.180
-134.385	-67.348	0.325	0.127
-133.370	-54.699	-0.508	0.229
-132.356	68.973	0.012	0.013
-131.341	171.939	-0.086	0.123
-130.326	21.570	0.181	-0.147
-129.312	-21.680	-0.155	-0.094
-128.297	75.501	0.122	-0.128
-127.283	562.066	-0.097	0.233
-126.268	44.071	-0.151	-0.138
-125.253	-141.303	-0.297	0.030
-124.239	-114.915	-0.429	-0.081
-123.224	-26.957	0.097	0.057
-122.210	-200.000	-0.038	-0.417
-121.195	-185.318	-0.258	0.004
