DTS Sentinel unit serial number:	SN413079Multiplexer serial number:	ORYXHardware model number:	OX4-SRSoftware version number:	ORYX F/W v4.00 Oryx Data Collector v3.7.2.0data status	okinstallation	princeton_trtdifferential loss correction	single-endedforward channel	channel 1reverse channel	N/Adate	2019/09/11time	06:36:11forward acquisition time	60.00reverse acquisition time	0.00gamma	496.2192k internal	0.2330k external	0.2330temperature offset calibration	0.9920default loss term (dB/km)	0.3790temperature slope calibration	1.0000multiplexer offset coefficient	1.0000multiplexer slope coefficient	1.0000fibre end	0.00T internal ref (°C)	29.69T ext. ref 1 (°C)	-0.17T ext. ref 2 (°C)	24.37length (m)	temperature (°C)	Stokes	anti-Stokes-747.200	-98.199	0.409	0.106
-746.185	-29.396	-0.205	-0.118
-745.171	-151.550	0.110	0.008
-744.156	-35.556	0.308	0.168
-743.142	-74.126	-0.183	-0.067
-742.127	800.000	0.061	0.182
-741.112	11.383	-0.219	0.169
-740.098	-126.511	-0.191	-0.029
-739.083	122.511	0.024	-0.031
-738.069	-118.699	-0.388	0.069
-737.054	800.000	0.040	-0.128
-736.039	106.647	-0.179	-0.214
-735.025	-200.000	-0.010	0.227
-734.010	-70.833	-0.274	0.104
-732.996	800.000	0.048	0.198
-731.981	-46.341	-0.359	-0.177
-730.966	-200.000	0.004	-0.058
-729.952	163.078	-0.164	-0.232
-728.937	395.959	-0.033	0.070
-727.923	781.584	-0.077	-0.213
-726.908	-200.000	-0.045	0.355
-725.894	800.000	-0.058	0.226
-724.879	-200.000	-0.025	0.283
-723.864	-117.183	0.030	-0.005
-722.850	-144.564	0.329	0.031
-721.835	11.881	-0.248	-0.192
-720.821	-200.000	-0.000	-0.179
-719.806	402.172	-0.128	-0.271
-718.791	-104.807	-0.363	0.084
-717.777	183.607	0.100	-0.149
-716.762	43.281	-0.079	0.072
-715.748	54.424	0.154	-0.149
-714.733	-23.659	0.179	0.108
-713.718	87.255	-0.145	-0.161
-712.704	258.390	0.110	0.190
-711.689	-58.539	-0.254	-0.111
-710.675	321.014	-0.117	-0.223
-709.660	-59.262	-0.498	-0.216
-708.645	78.143	0.197	-0.211
-707.631	-149.840	-0.042	-0.003
-706.616	62.361	0.172	-0.172
-705.602	-10.786	0.132	0.088
-704.587	-187.221	0.414	0.006
-703.572	-45.486	-0.037	0.018
-702.558	82.170	-0.060	-0.066
-701.543	-200.000	0.039	-0.250
-700.529	59.994	0.184	-0.183
-699.514	2.012	0.209	-0.151
-698.499	75.067	-0.188	0.199
-697.485	147.681	0.094	0.128
-696.470	-98.348	-0.285	0.073
-695.456	-149.655	0.162	-0.013
-694.441	268.252	-0.115	-0.202
-693.426	-45.187	-0.045	-0.023
-692.412	259.925	-0.149	0.258
-691.397	-27.342	-0.180	0.105
-690.383	800.000	0.074	-0.319
-689.368	-200.000	-0.030	0.146
-688.354	-200.000	0.002	-0.070
-687.339	-200.000	-0.021	0.120
-686.324	800.000	-0.043	-0.167
-685.310	-200.000	0.015	-0.180
-684.295	-168.489	0.051	0.002
-683.281	-74.863	0.155	-0.056
-682.266	800.000	0.064	-0.228
-681.251	-63.755	-0.269	-0.111
-680.237	800.000	-0.145	-0.438
-679.222	-38.175	0.126	-0.067
-678.208	-9.626	0.211	-0.141
-677.193	800.000	-0.113	0.398
-676.178	-47.871	0.031	-0.015
-675.164	554.685	-0.076	-0.184
-674.149	-7.147	0.210	0.143
-673.135	209.344	-0.174	0.273
-672.120	-200.000	-0.055	0.256
-671.105	345.387	-0.048	-0.094
-670.091	7.389	-0.133	-0.100
-669.076	-200.000	0.017	-0.126
-668.062	800.000	0.193	-0.555
-667.047	-20.515	-0.025	-0.016
-666.032	-200.000	-0.026	0.271
-665.018	146.902	0.129	-0.174
-664.003	-15.597	0.165	-0.106
-662.989	-115.924	0.056	-0.010
-661.974	19.644	-0.107	0.087
-660.959	-39.595	0.155	-0.082
-659.945	115.610	0.105	0.129
-658.930	66.843	0.185	0.189
-657.916	800.000	0.083	-0.302
-656.901	108.115	0.175	-0.210
-655.886	-44.041	-0.044	-0.022
-654.872	-200.000	-0.010	0.180
-653.857	-127.268	-0.126	0.018
-652.843	-200.000	0.041	0.203
-651.828	546.861	0.164	-0.394
-650.814	465.627	0.060	-0.134
-649.799	-35.778	0.111	0.060
-648.784	-200.000	0.013	0.084
-647.770	59.704	0.093	0.092
-646.755	-81.712	-0.255	0.084
-645.741	-89.565	0.315	0.093
-644.726	7.227	0.206	-0.155
-643.711	800.000	-0.053	0.173
-642.697	472.617	-0.160	0.362
-641.682	-83.771	0.242	0.077
-640.668	-6.953	0.179	0.122
-639.653	-129.494	-0.222	0.031
-638.638	355.039	-0.068	0.136
-637.624	-200.000	-0.028	0.247
-636.609	-95.831	0.230	0.062
-635.595	15.505	-0.061	-0.048
-634.580	-95.726	-0.150	0.040
-633.565	6.483	0.151	-0.112
-632.551	347.869	-0.133	-0.262
-631.536	800.000	-0.058	-0.193
-630.522	-200.000	0.006	-0.270
-629.507	-200.000	-0.096	-0.000
-628.492	107.364	0.065	0.077
-627.478	-77.030	-0.526	-0.184
-626.463	733.431	0.089	0.238
-625.449	-200.000	-0.029	-0.189
-624.434	-76.069	-0.284	0.101
-623.419	-200.000	0.015	0.149
-622.405	-174.979	-0.225	-0.006
-621.390	800.000	-0.059	-0.185
-620.376	165.514	-0.162	-0.230
-619.361	4.097	0.134	0.099
-618.346	-38.236	0.226	-0.120
-617.332	-67.454	0.145	-0.057
-616.317	385.184	0.106	-0.219
-615.303	5.278	-0.335	0.248
-614.288	52.262	0.161	-0.153
-613.273	-153.150	-0.375	0.026
-612.259	-11.274	-0.246	-0.162
-611.244	521.935	0.029	-0.068
-610.230	96.091	-0.096	0.110
-609.215	-75.032	-0.274	-0.098
-608.201	-177.480	-0.295	0.007
-607.186	-73.925	-0.332	0.121
-606.171	696.706	0.053	-0.141
-605.157	66.907	0.130	-0.133
-604.142	566.431	0.125	0.303
-603.128	130.684	0.132	0.170
-602.113	85.113	0.052	-0.058
-601.098	165.067	0.065	-0.093
-600.084	3.001	-0.195	-0.142
-599.069	800.000	-0.014	-0.062
-598.055	-144.289	-0.126	-0.012
-597.040	669.848	0.040	-0.103
-596.025	-58.609	-0.171	-0.074
-595.011	-118.708	-0.082	0.014
-593.996	-200.000	0.026	0.201
-592.982	16.739	0.130	-0.103
-591.967	-200.000	0.098	0.475
-590.952	-55.668	0.183	0.082
-589.938	-99.005	0.263	0.067
-588.923	138.904	-0.116	-0.152
-587.909	-91.289	0.069	-0.020
-586.894	-154.324	-0.183	0.012
-585.879	-63.908	-0.235	0.096
-584.865	727.193	0.031	-0.084
-583.850	-15.567	-0.064	0.041
-582.836	98.932	0.093	0.108
-581.821	800.000	-0.059	0.209
-580.806	-119.237	0.111	-0.019
-579.792	-76.397	0.054	-0.019
-578.777	800.000	-0.073	0.312
-577.763	-86.640	0.229	-0.070
-576.748	108.850	0.088	-0.106
-575.733	69.575	0.175	-0.181
-574.719	-200.000	0.046	-0.232
-573.704	7.372	0.038	-0.028
-572.690	20.405	-0.167	0.135
-571.675	-132.510	0.047	0.006
-570.661	-178.056	-0.118	-0.003
-569.646	187.323	-0.038	0.056
-568.631	-46.007	-0.286	0.141
-567.617	-200.000	0.370	0.001
-566.602	39.850	0.037	0.033
-565.588	94.733	-0.019	0.021
-564.573	-200.000	-0.050	0.321
-563.558	-77.684	-0.471	0.163
-562.544	-44.815	-0.031	-0.016
-561.529	53.891	-0.077	0.074
-560.515	800.000	0.096	-0.347
-559.500	-70.134	-0.431	0.164
-558.485	160.129	0.144	-0.201
-557.471	-152.105	-0.183	0.013
-556.456	-200.000	0.007	-0.158
-555.442	63.112	0.114	0.114
-554.427	395.342	-0.087	0.181
-553.412	-132.256	0.146	-0.019
-552.398	-61.305	0.065	0.027
-551.383	-200.000	0.007	-0.127
-550.369	-34.433	-0.290	0.159
-549.354	40.256	-0.232	-0.208
-548.339	800.000	-0.084	0.337
-547.325	-92.963	-0.504	-0.141
-546.310	289.571	-0.220	-0.399
-545.296	-167.470	0.203	0.008
-544.281	-112.492	0.102	0.020
-543.266	-47.442	-0.355	-0.172
-542.252	-24.816	0.068	0.040
-541.237	37.395	0.261	0.231
-540.223	-200.000	-0.055	-0.387
-539.208	181.893	-0.151	-0.222
-538.193	82.607	0.136	0.148
-537.179	-200.000	0.022	0.100
-536.164	149.624	-0.131	0.177
-535.150	107.244	-0.191	0.227
-534.135	49.271	0.145	0.136
-533.121	42.311	0.139	-0.126
-532.106	-17.470	-0.117	-0.074
-531.091	-139.698	0.132	-0.014
-530.077	42.241	-0.094	-0.085
-529.062	-10.825	0.163	0.108
-528.048	522.475	0.011	-0.025
-527.033	-200.000	-0.008	-0.083
-526.018	-133.265	-0.299	0.038
-525.004	-142.638	-0.076	0.007
-523.989	17.506	-0.232	-0.184
-522.975	800.000	0.087	0.350
-521.960	-200.000	-0.028	-0.157
-520.945	612.287	0.063	0.157
-519.931	-99.463	-0.287	0.072
-518.916	-200.000	0.039	0.276
-517.902	-97.668	0.336	0.087
-516.887	548.022	0.092	0.221
-515.872	-118.997	0.112	0.020
-514.858	800.000	0.070	-0.205
-513.843	-200.000	-0.046	0.300
-512.829	58.258	0.333	0.325
-511.814	-86.129	-0.264	0.081
-510.799	647.595	0.085	0.217
-509.785	-61.178	0.160	0.067
-508.770	-200.000	-0.022	0.399
-507.756	-73.875	0.234	-0.085
-506.741	-200.000	-0.022	-0.169
-505.726	27.137	0.218	-0.182
-504.712	-113.012	-0.280	0.055
-503.697	143.465	-0.185	-0.245
-502.683	199.604	0.215	0.329
-501.668	-75.210	-0.289	-0.103
-500.653	-122.632	-0.420	0.068
-499.639	-87.662	-0.193	0.058
-498.624	48.579	0.194	-0.181
-497.610	-96.772	0.217	-0.057
-496.595	-200.000	-0.061	-0.286
-495.581	-84.245	-0.261	0.082
-494.566	-57.606	0.124	-0.054
-493.551	-1.982	-0.138	-0.097
-492.537	314.340	-0.018	0.034
-491.522	800.000	-0.061	-0.237
-490.508	-200.000	-0.020	-0.098
-489.493	-17.351	0.144	-0.091
-488.478	103.511	0.187	-0.219
-487.464	101.721	0.283	-0.329
-486.449	124.679	0.070	-0.088
-485.435	800.000	0.076	0.219
-484.420	14.181	0.139	-0.108
-483.405	-21.910	0.273	0.166
-482.391	-12.975	-0.125	-0.081
-481.376	118.644	0.096	0.118
-480.362	-92.147	-0.176	0.050
-479.347	-200.000	0.009	-0.081
-478.332	-134.988	0.287	-0.035
-477.318	-75.054	0.254	-0.090
-476.303	214.780	0.071	0.111
-475.289	-102.898	-0.083	-0.020
-474.274	-153.986	0.075	-0.005
-473.259	405.982	-0.158	0.332
-472.245	173.965	0.113	0.162
-471.230	240.258	0.090	0.149
-470.216	641.476	0.157	-0.399
-469.201	800.000	0.016	-0.068
-468.186	-62.966	-0.088	-0.036
-467.172	-200.000	-0.021	0.268
-466.157	-10.806	-0.101	-0.067
-465.143	212.144	0.176	-0.277
-464.128	-1.790	0.235	0.165
-463.113	157.455	0.077	0.106
-462.099	28.210	0.269	-0.226
-461.084	48.432	-0.135	0.126
-460.070	-120.747	-0.119	-0.020
-459.055	-102.288	0.119	0.028
-458.040	-200.000	0.058	-0.486
-457.026	-125.702	-0.281	-0.042
-456.011	-200.000	0.018	-0.151
-454.997	-177.834	-0.148	-0.004
-453.982	31.764	-0.243	-0.208
-452.968	-200.000	0.051	-0.283
-451.953	-165.974	-0.414	0.018
-450.938	639.413	-0.069	0.174
-449.924	-200.000	-0.018	0.161
-448.909	-149.051	0.052	0.004
-447.895	158.501	-0.211	0.291
-446.880	800.000	0.077	-0.288
-445.865	-77.879	-0.156	-0.054
-444.851	692.469	0.126	-0.328
-443.836	-2.991	0.171	-0.119
-442.822	800.000	-0.061	0.192
-441.807	-31.712	0.077	0.043
-440.792	-109.960	0.216	-0.045
-439.778	-200.000	-0.045	0.424
-438.763	120.602	-0.194	0.239
-437.749	800.000	0.072	-0.209
-436.734	800.000	-0.099	0.275
-435.719	-69.411	0.135	0.051
-434.705	559.100	0.086	0.206
-433.690	-166.511	-0.141	-0.006
-432.676	-11.662	-0.183	0.120
-431.661	-48.718	0.426	0.203
-430.646	62.106	0.244	0.242
-429.632	117.790	0.063	0.078
-428.617	-200.000	-0.031	-0.333
-427.603	60.117	-0.084	0.082
-426.588	547.070	-0.187	-0.445
-425.573	-128.660	-0.095	-0.013
-424.559	90.544	-0.141	-0.157
-423.544	345.735	-0.080	0.156
-422.530	97.956	-0.181	0.208
-421.515	-115.279	-0.311	-0.058
-420.500	644.512	0.185	-0.470
-419.486	146.034	0.100	-0.133
-418.471	-5.265	0.153	0.105
-417.457	-75.936	-0.140	-0.049
-416.442	-99.034	0.229	0.058
-415.428	61.599	0.208	-0.206
-414.413	327.931	-0.118	-0.226
-413.398	92.102	-0.225	0.252
-412.384	-128.952	-0.257	-0.036
-411.369	800.000	0.050	-0.144
-410.355	6.686	-0.119	-0.088
-409.340	-65.107	-0.161	0.065
-408.325	66.894	-0.258	-0.261
-407.311	-200.000	0.041	-0.245
-406.296	3.553	0.205	0.149
-405.282	-17.367	0.169	-0.106
-404.267	136.683	0.095	-0.123
-403.252	800.000	-0.117	0.338
-402.238	-134.630	0.154	0.019
-401.223	-15.542	0.263	0.167
-400.209	53.689	-0.244	0.233
-399.194	69.320	-0.347	-0.354
-398.179	-200.000	0.002	-0.063
-397.165	800.000	0.066	0.205
-396.150	800.000	0.039	0.141
-395.136	-7.274	-0.275	-0.185
-394.121	7.505	-0.279	-0.207
-393.106	-200.000	-0.042	0.233
-392.092	98.734	-0.421	0.482
-391.077	-15.783	0.214	0.135
-390.063	-200.000	0.003	-0.086
-389.048	580.154	-0.217	-0.527
-388.033	153.844	-0.135	-0.184
-387.019	659.787	0.061	-0.156
-386.004	-200.000	0.017	-0.133
-384.990	225.661	-0.156	0.251
-383.975	-200.000	0.030	0.166
-382.960	-109.032	-0.080	0.017
-381.946	638.457	-0.069	-0.174
-380.931	373.075	0.197	-0.398
-379.917	-200.000	-0.013	0.098
-378.902	-200.000	-0.069	-0.301
-377.888	-137.367	0.286	-0.032
-376.873	-179.191	-0.293	0.006
-375.858	121.054	-0.236	0.292
-374.844	59.508	0.112	-0.110
-373.829	22.912	0.214	0.174
-372.815	-184.765	0.163	-0.003
-371.800	6.633	-0.014	0.011
-370.785	-133.887	-0.244	-0.030
-369.771	-51.889	0.271	0.125
-368.756	225.552	0.078	0.126
-367.742	-146.452	0.131	0.011
-366.727	-200.000	0.028	0.312
-365.712	23.182	0.295	-0.241
-364.698	-4.962	-0.026	-0.018
-363.683	312.659	-0.035	0.066
-362.669	-200.000	-0.014	0.188
-361.654	-177.568	0.214	-0.005
-360.639	161.997	-0.126	0.175
-359.625	-24.386	-0.057	-0.033
-358.610	-200.000	-0.028	0.144
-357.596	5.510	-0.099	0.073
-356.581	-200.000	0.002	-0.039
-355.566	184.646	-0.189	-0.278
-354.552	-200.000	0.038	-0.195
-353.537	-81.920	-0.317	-0.103
-352.523	55.638	-0.299	-0.288
-351.508	-150.040	0.097	0.007
-350.493	-100.456	0.149	-0.037
-349.479	-36.440	0.062	-0.033
-348.464	-200.000	-0.004	0.140
-347.450	-150.454	0.293	0.022
-346.435	16.802	-0.187	0.146
-345.420	22.191	-0.121	-0.098
-344.406	373.037	0.038	-0.076
-343.391	97.772	-0.008	0.009
-342.377	-154.684	-0.299	-0.020
-341.362	286.189	-0.076	0.135
-340.348	-111.212	-0.204	-0.041
-339.333	216.541	-0.153	-0.241
-338.318	-137.725	0.086	0.010
-337.304	-79.177	-0.324	0.109
-336.289	-51.962	-0.147	0.068
-335.275	-84.184	0.161	0.051
-334.260	800.000	-0.070	0.228
-333.245	-160.418	-0.274	0.015
-332.231	104.980	0.163	0.190
-331.216	55.594	-0.081	0.078
-330.202	-134.092	0.142	0.017
-329.187	-0.127	-0.112	0.079
-328.172	316.764	0.264	-0.493
-327.158	93.374	0.106	0.119
-326.143	-66.777	-0.483	0.189
-325.129	-76.948	0.286	-0.099
-324.114	-75.527	0.185	0.065
-323.099	8.427	0.389	-0.290
-322.085	-200.000	0.043	-0.239
-321.070	30.690	-0.138	-0.117
-320.056	114.990	0.114	0.138
-319.041	-200.000	-0.002	0.118
-318.026	-200.000	-0.004	-0.563
-317.012	-39.066	0.181	0.094
-315.997	-200.000	-0.007	0.094
-314.983	142.722	0.163	0.215
-313.968	-200.000	-0.002	-0.330
-312.953	800.000	0.079	0.274
-311.939	-88.841	-0.373	0.110
-310.924	-170.153	0.132	0.005
-309.910	68.965	-0.092	0.093
-308.895	-143.549	0.265	0.025
-307.880	-152.484	0.267	0.019
-306.866	-164.946	-0.155	0.007
-305.851	-169.690	0.396	-0.014
-304.837	254.052	-0.112	-0.190
-303.822	22.131	-0.187	0.151
-302.807	215.317	-0.126	-0.198
-301.793	-115.482	-0.298	-0.055
-300.778	-166.108	0.184	0.008
-299.764	210.960	-0.151	0.235
-298.749	-200.000	-0.008	0.155
-297.735	-160.641	-0.369	0.019
-296.720	-21.540	0.325	0.196
-295.705	171.059	-0.087	0.123
-294.691	-128.292	0.017	-0.002
-293.676	-88.184	0.230	-0.068
-292.662	-103.311	0.025	-0.006
-291.647	486.613	-0.094	0.213
-290.632	-200.000	-0.006	-0.106
-289.618	-91.573	0.081	-0.023
-288.603	800.000	0.094	-0.325
-287.589	678.903	0.095	0.244
-286.574	-98.633	0.128	-0.032
-285.559	576.012	0.081	0.194
-284.545	4.840	-0.066	-0.048
-283.530	-200.000	0.001	-0.121
-282.516	41.068	-0.180	0.160
-281.501	-189.528	0.073	0.001
-280.486	145.359	-0.070	-0.093
-279.472	-200.000	0.037	0.202
-278.457	33.265	-0.109	-0.094
-277.443	135.919	0.164	0.211
-276.428	-5.232	0.116	0.079
-275.413	292.601	-0.109	-0.197
-274.399	215.063	-0.161	-0.252
-273.384	-72.228	0.163	0.060
-272.370	128.269	0.039	-0.049
-271.355	-90.921	-0.177	0.050
-270.340	800.000	0.084	0.253
-269.326	9.378	-0.129	-0.096
-268.311	-200.000	0.020	-0.214
-267.297	-137.517	0.134	0.015
-266.282	149.779	0.132	0.177
-265.267	713.874	-0.112	-0.293
-264.253	111.987	0.083	0.099
-263.238	411.948	-0.058	-0.121
-262.224	114.140	0.083	-0.100
-261.209	800.000	0.124	-0.503
-260.195	137.168	-0.060	-0.078
-259.180	375.166	-0.058	0.117
-258.165	-56.537	0.249	0.109
-257.151	372.635	-0.062	-0.125
-256.136	608.958	-0.059	-0.146
-255.122	-200.000	-0.018	0.099
-254.107	-109.134	0.497	0.104
-253.092	122.542	0.150	0.185
-252.078	156.904	-0.032	-0.043
-251.063	151.272	-0.157	0.212
-250.049	-50.138	-0.069	0.032
-249.034	-21.294	-0.180	0.109
-248.019	162.917	-0.203	0.281
-247.005	319.504	0.123	-0.230
-245.990	-119.270	-0.371	0.064
-244.976	-200.000	0.013	-0.335
-243.961	-28.989	-0.085	0.048
-242.946	-181.102	0.289	-0.006
-241.932	59.591	0.032	-0.031
-240.917	-200.000	0.002	-0.072
-239.903	-132.367	0.357	-0.045
-238.888	9.821	-0.226	-0.170
-237.873	-138.735	0.203	0.022
-236.859	-62.749	0.479	0.196
-235.844	-44.067	-0.216	-0.107
-234.830	-105.595	0.228	-0.051
-233.815	355.644	-0.118	0.233
-232.800	100.275	-0.168	-0.193
-231.786	-145.519	0.064	-0.006
-230.771	-8.110	0.102	0.068
-229.757	-163.174	-0.125	-0.006
-228.742	-77.120	0.212	-0.073
-227.727	-76.859	0.118	-0.041
-226.713	22.187	0.117	-0.094
-225.698	761.128	0.048	0.129
-224.684	4.864	-0.242	0.175
-223.669	18.069	0.332	-0.261
-222.655	21.279	0.237	-0.190
-221.640	318.510	-0.099	0.185
-220.625	-64.337	0.464	-0.186
-219.611	-8.310	-0.284	0.188
-218.596	-200.000	-0.001	-0.184
-217.582	800.000	0.075	0.218
-216.567	-113.555	0.153	0.030
-215.552	111.530	-0.149	0.177
-214.538	-98.284	0.328	0.083
-213.523	-67.394	0.183	0.071
-212.509	-200.000	0.057	0.278
-211.494	-100.139	-0.056	-0.014
-210.479	800.000	0.065	0.268
-209.465	210.859	0.137	0.212
-208.450	479.315	-0.116	-0.258
-207.436	352.374	-0.074	-0.144
-206.421	-121.085	0.162	0.027
-205.406	149.588	0.213	0.284
-204.392	472.156	-0.061	0.136
-203.377	-104.724	0.553	0.126
-202.363	253.181	0.115	-0.193
-201.348	-67.379	0.144	0.056
-200.333	-50.329	-0.130	0.061
-199.319	-76.669	-0.168	-0.058
-198.304	26.509	-0.082	-0.068
-197.290	800.000	-0.044	0.129
-196.275	23.850	-0.206	0.167
-195.260	130.708	0.135	0.171
-194.246	-71.872	-0.189	-0.069
-193.231	-200.000	0.033	0.163
-192.217	195.389	0.103	0.154
-191.202	224.694	-0.064	0.102
-190.187	-73.251	-0.277	-0.100
-189.173	-53.019	-0.095	0.043
-188.158	-200.000	-0.057	-0.346
-187.144	328.866	-0.084	-0.160
-186.129	-187.819	0.134	0.002
-185.114	-159.816	-0.212	0.011
-184.100	800.000	0.029	-0.089
-183.085	800.000	-0.040	-0.150
-182.071	-49.983	0.174	-0.081
-181.056	92.959	-0.089	0.099
-180.042	88.749	0.034	-0.037
-179.027	168.489	-0.095	0.134
-178.012	-187.571	-0.163	-0.002
-176.998	344.894	-0.088	-0.171
-175.983	-45.146	0.187	0.092
-174.969	416.305	0.034	-0.070
-173.954	-35.574	0.056	-0.030
-172.939	44.218	0.141	0.127
-171.925	33.841	0.123	0.105
-170.910	-200.000	0.030	-0.252
-169.896	800.000	-0.078	0.324
-168.881	-23.909	-0.102	0.060
-167.866	145.541	0.253	0.334
-166.852	-19.814	0.161	-0.098
-165.837	-45.420	-0.052	-0.025
-164.823	178.670	0.129	-0.186
-163.808	-200.000	-0.044	-0.189
-162.793	-127.121	-0.044	-0.006
-161.779	-88.223	0.157	-0.046
-160.764	800.000	0.083	-0.233
-159.750	86.474	0.171	0.186
-158.735	-54.275	0.079	0.035
-157.720	25.149	-0.189	-0.154
-156.706	-200.000	-0.002	-0.259
-155.691	175.779	0.187	-0.266
-154.677	256.131	0.180	-0.304
-153.662	-174.760	0.441	0.012
-152.647	249.762	0.057	0.094
-151.633	-200.000	0.005	-0.134
-150.618	61.489	-0.207	0.203
-149.604	-200.000	-0.017	0.426
-148.589	146.960	-0.172	-0.227
-147.574	800.000	0.032	-0.136
-146.560	551.791	-0.074	-0.175
-145.545	-173.306	-0.385	0.012
-144.531	-116.573	-0.380	-0.069
-143.516	275.686	-0.075	0.131
-142.502	18.293	-0.342	-0.268
-141.487	-60.697	-0.047	-0.020
-140.472	-39.847	0.450	-0.231
-139.458	-200.000	-0.025	0.360
-138.443	-200.000	0.007	0.111
-137.429	-79.779	0.249	0.083
-136.414	-60.487	-0.127	-0.053
-135.399	-93.095	0.294	-0.080
-134.385	89.638	0.079	0.087
-133.370	-58.619	-0.234	-0.100
-132.356	30.197	-0.074	0.062
-131.341	-144.417	0.408	-0.037
-130.326	3.420	-0.262	-0.187
-129.312	-156.075	0.229	0.014
-128.297	-20.282	0.334	-0.202
-127.283	158.285	0.101	0.137
-126.268	50.577	-0.070	0.065
-125.253	800.000	0.052	-0.159
-124.239	-47.760	-0.317	0.151
-123.224	26.746	-0.039	0.032
-122.210	-68.078	0.286	0.110
-121.195	-128.917	0.188	-0.026
-120.180	-200.000	0.016	-0.152
