DTS Sentinel unit serial number:	SN413079Multiplexer serial number:	ORYXHardware model number:	OX4-SRSoftware version number:	ORYX F/W v4.00 Oryx Data Collector v3.7.2.0data status	okinstallation	princeton_trtdifferential loss correction	single-endedforward channel	channel 1reverse channel	N/Adate	2019/09/10time	16:40:11forward acquisition time	60.00reverse acquisition time	0.00gamma	496.2192k internal	0.2301k external	0.2301temperature offset calibration	0.9923default loss term (dB/km)	0.3790temperature slope calibration	1.0000multiplexer offset coefficient	1.0000multiplexer slope coefficient	1.0000fibre end	0.00T internal ref (°C)	37.83T ext. ref 1 (°C)	-0.28T ext. ref 2 (°C)	30.19length (m)	temperature (°C)	Stokes	anti-Stokes-747.200	131.348	-0.069	0.091
-746.185	-114.149	-0.331	0.065
-745.171	739.492	0.059	0.163
-744.156	-43.655	0.141	0.072
-743.142	-157.025	0.347	-0.022
-742.127	800.000	-0.036	0.117
-741.112	416.588	0.066	0.144
-740.098	60.791	-0.032	0.033
-739.083	6.232	0.129	-0.097
-738.069	-200.000	-0.003	0.158
-737.054	549.394	0.239	0.584
-736.039	-200.000	-0.004	0.239
-735.025	456.846	0.106	0.240
-734.010	-179.781	-0.117	-0.003
-732.996	-133.092	-0.558	-0.072
-731.981	-200.000	-0.058	0.297
-730.966	-200.000	-0.035	0.319
-729.952	-88.502	-0.124	-0.038
-728.937	800.000	-0.092	-0.308
-727.923	554.706	0.132	0.323
-726.908	-98.902	-0.171	-0.044
-725.894	-200.000	0.045	-0.217
-724.879	-200.000	0.037	-0.251
-723.864	-139.164	-0.071	0.008
-722.850	800.000	-0.035	-0.137
-721.835	62.028	0.298	-0.303
-720.821	-113.116	0.152	0.031
-719.806	-200.000	0.007	-0.346
-718.791	-176.265	0.108	-0.003
-717.777	118.994	-0.225	0.283
-716.762	241.614	-0.138	0.235
-715.748	16.952	-0.113	-0.091
-714.733	-85.943	0.191	0.060
-713.718	66.547	-0.172	0.179
-712.704	12.742	0.170	-0.134
-711.689	174.206	0.078	0.114
-710.675	-75.676	0.080	-0.029
-709.660	339.975	0.044	-0.088
-708.645	180.350	0.159	-0.237
-707.631	800.000	-0.024	0.100
-706.616	124.419	0.016	0.021
-705.602	-62.007	0.167	0.071
-704.587	-44.343	-0.196	0.100
-703.572	-17.383	0.097	-0.062
-702.558	800.000	0.070	-0.205
-701.543	426.369	0.132	0.291
-700.529	119.951	0.121	0.153
-699.514	7.696	-0.233	-0.178
-698.499	-77.758	-0.182	0.064
-697.485	-61.367	0.321	0.138
-696.470	-99.276	0.086	-0.022
-695.456	-200.000	-0.005	-0.146
-694.441	-133.265	-0.277	0.036
-693.426	94.524	0.090	-0.104
-692.412	-94.078	0.081	0.023
-691.397	-9.949	0.242	-0.164
-690.383	59.470	0.398	-0.399
-689.368	-51.696	0.180	-0.085
-688.354	-116.153	-0.089	-0.017
-687.339	-200.000	-0.049	0.328
-686.324	-168.712	-0.172	0.007
-685.310	75.463	0.309	-0.332
-684.295	167.287	-0.069	-0.100
-683.281	-91.502	0.097	-0.028
-682.266	138.443	0.061	-0.082
-681.251	-69.549	0.245	-0.095
-680.237	4.544	0.295	-0.220
-679.222	-78.812	-0.187	0.065
-678.208	243.127	-0.040	-0.068
-677.193	-77.264	-0.202	0.072
-676.178	-80.684	-0.274	-0.093
-675.164	-200.000	0.012	0.122
-674.149	-44.871	-0.227	-0.115
-673.135	22.995	-0.278	0.232
-672.120	341.769	0.152	-0.302
-671.105	800.000	0.010	0.044
-670.091	-167.398	0.220	-0.009
-669.076	212.120	-0.034	-0.054
-668.062	-29.569	-0.360	-0.209
-667.047	189.197	-0.063	-0.096
-666.032	3.209	0.222	0.164
-665.018	113.087	-0.262	0.323
-664.003	61.562	0.044	0.045
-662.989	387.065	0.063	0.132
-661.974	-65.267	0.369	0.151
-660.959	-88.187	0.197	-0.060
-659.945	-117.407	0.105	-0.019
-658.930	235.335	-0.117	0.197
-657.916	-154.385	-0.336	-0.023
-656.901	-200.000	-0.029	0.213
-655.886	-200.000	-0.007	0.106
-654.872	-200.000	-0.028	0.294
-653.857	117.773	-0.117	-0.146
-652.843	128.007	-0.209	0.270
-651.828	-200.000	-0.001	-0.167
-650.814	63.491	-0.155	0.158
-649.799	343.212	0.043	0.086
-648.784	-43.206	0.128	0.066
-647.770	29.215	0.182	-0.157
-646.755	-47.885	-0.170	-0.084
-645.741	800.000	0.008	0.036
-644.726	706.642	-0.058	-0.155
-643.711	81.706	-0.362	0.398
-642.697	-126.900	0.150	0.022
-641.682	85.563	0.096	-0.107
-640.668	-200.000	0.037	0.217
-639.653	121.918	-0.139	-0.177
-638.638	-200.000	-0.023	-0.332
-637.624	31.497	-0.207	-0.181
-636.609	107.165	0.120	0.145
-635.595	-80.095	0.300	-0.102
-634.580	-95.521	0.434	0.118
-633.565	567.409	0.085	-0.208
-632.551	-38.577	-0.027	-0.014
-631.536	-164.886	-0.143	0.006
-630.522	24.998	-0.177	-0.149
-629.507	-200.000	-0.003	0.066
-628.492	-165.639	0.178	0.008
-627.478	436.932	-0.093	-0.207
-626.463	-15.339	-0.151	-0.098
-625.449	-121.693	-0.286	0.048
-624.434	11.966	-0.200	0.156
-623.419	-29.214	-0.026	0.015
-622.405	-17.967	-0.024	0.015
-621.390	-111.066	0.428	0.089
-620.376	-200.000	0.001	-0.161
-619.361	-55.461	0.187	0.085
-618.346	-200.000	0.008	0.185
-617.332	800.000	-0.043	-0.185
-616.317	10.090	0.190	0.147
-615.303	109.819	0.050	-0.061
-614.288	501.962	0.065	0.152
-613.273	-200.000	0.030	0.166
-612.259	-200.000	-0.016	0.102
-611.244	-200.000	0.032	0.253
-610.230	-121.831	-0.459	0.077
-609.215	-91.552	-0.112	-0.032
-608.201	130.237	-0.111	0.144
-607.186	-66.549	-0.308	-0.124
-606.171	-96.725	0.133	-0.036
-605.157	-158.352	0.236	0.014
-604.142	-40.971	0.134	0.070
-603.128	-10.573	-0.222	0.149
-602.113	-200.000	-0.001	-0.296
-601.098	729.004	0.110	0.298
-600.084	-72.517	0.169	-0.063
-599.069	-96.325	0.314	-0.084
-598.055	605.811	0.089	-0.224
-597.040	-143.340	-0.089	-0.009
-596.025	750.524	-0.057	-0.155
-595.011	262.674	-0.269	-0.474
-593.996	800.000	0.005	-0.016
-592.982	92.785	-0.092	0.106
-591.967	211.722	0.031	-0.049
-590.952	800.000	-0.055	-0.157
-589.938	438.906	0.108	-0.240
-588.923	-118.016	-0.336	0.061
-587.909	-200.000	-0.027	-0.252
-586.894	-200.000	0.053	-0.235
-585.879	2.259	0.256	0.188
-584.865	56.861	0.111	0.110
-583.850	-200.000	0.013	-0.085
-582.836	211.100	-0.193	-0.308
-581.821	230.837	-0.016	0.026
-580.806	644.499	0.030	0.079
-579.792	-61.190	0.184	-0.078
-578.777	4.930	0.105	-0.079
-577.763	-9.565	0.119	-0.080
-576.748	-200.000	-0.003	0.068
-575.733	228.841	0.072	-0.118
-574.719	800.000	0.052	-0.212
-573.704	-117.446	0.443	-0.081
-572.690	-200.000	-0.015	0.092
-571.675	-85.268	-0.211	-0.067
-570.661	161.594	-0.127	0.180
-569.646	-200.000	0.014	0.157
-568.631	689.554	0.105	-0.280
-567.617	320.093	0.041	0.080
-566.602	-200.000	0.013	-0.058
-565.588	-129.933	0.133	0.019
-564.573	299.467	-0.070	0.131
-563.558	-79.887	-0.193	-0.066
-562.544	-200.000	-0.010	-0.096
-561.529	664.961	-0.072	-0.189
-560.515	-120.941	-0.137	0.023
-559.500	-82.484	0.142	0.047
-558.485	-48.540	-0.131	-0.064
-557.471	-39.765	-0.118	0.062
-556.456	40.466	0.239	0.218
-555.442	-200.000	-0.011	0.441
-554.427	-66.607	-0.103	0.042
-553.412	-200.000	0.032	-0.174
-552.398	-87.862	-0.338	-0.103
-551.383	-2.189	-0.097	0.069
-550.369	-115.697	0.146	-0.028
-549.354	-129.223	-0.113	-0.016
-548.339	-21.471	0.173	-0.107
-547.325	2.362	-0.318	0.233
-546.310	-50.502	0.333	-0.159
-545.296	800.000	0.061	-0.220
-544.281	-200.000	0.068	-0.611
-543.266	430.699	0.077	0.168
-542.252	-115.242	0.250	-0.048
-541.237	20.317	-0.293	-0.240
-540.223	-127.279	-0.241	0.036
-539.208	551.221	0.041	-0.099
-538.193	165.471	-0.176	0.251
-537.179	513.111	0.158	-0.372
-536.164	-11.340	-0.114	0.076
-535.150	-94.310	0.220	0.061
-534.135	-36.474	0.137	0.075
-533.121	-102.172	-0.018	-0.004
-532.106	192.699	-0.044	0.067
-531.091	-200.000	0.001	0.074
-530.077	127.195	0.104	0.134
-529.062	-171.314	0.334	-0.011
-528.048	-49.272	-0.145	0.070
-527.033	-200.000	0.002	-0.025
-526.018	-200.000	0.023	0.115
-525.004	800.000	0.056	0.219
-523.989	16.979	-0.102	0.081
-522.975	391.470	0.110	0.230
-521.960	800.000	-0.072	-0.300
-520.945	-103.845	0.210	-0.050
-519.931	-200.000	-0.075	0.384
-518.916	-16.929	0.094	0.060
-517.902	111.309	0.040	-0.048
-516.887	102.361	-0.093	0.110
-515.872	100.311	-0.047	0.055
-514.858	-200.000	0.023	0.164
-513.843	93.524	-0.206	-0.235
-512.829	108.718	0.210	-0.254
-511.814	349.763	0.114	0.227
-510.799	800.000	0.129	-0.524
-509.785	-72.109	-0.219	-0.082
-508.770	47.236	-0.132	0.124
-507.756	91.109	-0.174	0.198
-506.741	-136.510	-0.066	0.008
-505.726	-8.071	-0.367	-0.250
-504.712	113.178	0.093	-0.114
-503.697	-41.578	0.158	0.082
-502.683	-200.000	0.035	0.166
-501.668	162.621	0.058	-0.083
-500.653	-85.991	-0.210	0.065
-499.639	13.551	0.284	-0.223
-498.624	34.401	0.175	-0.154
-497.610	-67.424	0.189	0.075
-496.595	-154.101	0.147	0.010
-495.581	-25.346	0.108	0.065
-494.566	-48.964	-0.127	0.062
-493.551	-200.000	0.031	0.172
-492.537	800.000	0.101	-0.414
-491.522	-122.746	0.415	0.068
-490.508	-169.034	0.287	0.011
-489.493	-71.239	-0.269	0.102
-488.478	-53.618	-0.081	0.037
-487.464	120.873	0.129	0.162
-486.449	33.200	0.301	0.263
-485.435	768.279	0.113	-0.311
-484.420	76.081	-0.314	-0.335
-483.405	-111.818	0.287	0.059
-482.391	-117.189	-0.426	-0.078
-481.376	-200.000	-0.056	-0.324
-480.362	-70.695	0.293	-0.112
-479.347	-119.825	0.170	-0.029
-478.332	-200.000	0.020	0.230
-477.318	-200.000	-0.021	-0.165
-476.303	-125.189	-0.141	0.022
-475.289	-200.000	-0.009	0.333
-474.274	15.550	0.179	-0.142
-473.259	-200.000	0.011	-0.087
-472.245	43.377	-0.222	0.204
-471.230	-27.295	0.060	0.035
-470.216	742.923	0.140	0.380
-469.201	136.318	0.025	-0.033
-468.186	27.202	0.163	-0.138
-467.172	-200.000	-0.009	0.124
-466.157	9.981	0.190	-0.146
-465.143	122.822	0.231	-0.292
-464.128	617.960	0.108	0.274
-463.113	-113.820	0.474	0.093
-462.099	314.884	-0.064	0.122
-461.084	-200.000	0.039	0.181
-460.070	122.263	0.220	-0.277
-459.055	282.699	-0.152	-0.275
-458.040	-56.675	0.024	0.011
-457.026	-200.000	-0.002	0.118
-456.011	16.992	-0.208	-0.166
-454.997	50.496	0.255	0.243
-453.982	-200.000	-0.027	-0.226
-452.968	-152.161	0.226	-0.017
-451.953	800.000	-0.057	-0.174
-450.938	411.141	0.128	-0.274
-449.924	281.398	0.124	-0.223
-448.909	-23.710	-0.090	-0.054
-447.895	-28.316	-0.152	-0.089
-446.880	258.613	-0.054	0.093
-445.865	-157.544	0.431	-0.026
-444.851	-35.279	-0.068	-0.037
-443.836	-71.429	-0.418	0.158
-442.822	-10.640	-0.083	0.055
-441.807	34.808	-0.251	0.222
-440.792	-200.000	-0.018	0.178
-439.778	-171.521	-0.370	-0.012
-438.763	800.000	-0.096	0.392
-437.749	130.678	-0.290	0.375
-436.734	-149.780	-0.198	0.016
-435.719	-36.656	-0.304	0.165
-434.705	800.000	0.018	0.076
-433.690	-52.771	0.375	0.174
-432.676	550.847	0.090	0.219
-431.661	-179.676	-0.199	-0.004
-430.646	-200.000	0.041	-0.244
-429.632	122.513	0.067	-0.085
-428.617	-121.126	-0.301	0.051
-427.603	332.758	0.111	0.216
-426.588	25.228	-0.190	-0.159
-425.573	13.527	0.160	0.125
-424.559	-200.000	-0.033	-0.320
-423.544	800.000	0.185	-0.527
-422.530	-51.770	0.318	-0.149
-421.515	-57.403	-0.117	-0.052
-420.500	280.874	0.203	-0.366
-419.486	-200.000	0.015	0.368
-418.471	-200.000	-0.352	0.001
-417.457	800.000	0.027	0.098
-416.442	-65.408	-0.121	-0.049
-415.428	-200.000	0.024	0.144
-414.413	496.999	-0.097	0.225
-413.398	122.490	0.123	-0.155
-412.384	-200.000	0.009	0.041
-411.369	-176.280	0.024	-0.001
-410.355	85.468	-0.127	0.140
-409.340	198.154	-0.028	-0.043
-408.325	-20.244	-0.068	-0.042
-407.311	-55.829	-0.231	0.104
-406.296	33.622	0.213	0.186
-405.282	397.114	-0.204	-0.429
-404.267	-200.000	0.002	0.161
-403.252	-72.594	0.356	-0.132
-402.238	-161.480	-0.190	-0.010
-401.223	-118.340	-0.139	0.025
-400.209	-150.184	0.056	0.004
-399.194	184.668	0.047	0.070
-398.179	-200.000	0.014	0.166
-397.165	643.628	0.177	-0.455
-396.150	-200.000	0.045	-0.353
-395.136	52.494	0.004	0.003
-394.121	88.911	-0.052	-0.058
-393.106	-136.055	-0.334	-0.039
-392.092	-70.310	-0.094	-0.036
-391.077	548.313	0.074	0.178
-390.063	35.912	-0.222	-0.197
-389.048	800.000	0.030	-0.122
-388.033	-102.504	0.113	0.027
-387.019	213.355	0.214	-0.339
-386.004	22.915	-0.241	0.199
-384.990	-74.019	-0.380	0.139
-383.975	-68.901	-0.492	-0.191
-382.960	-200.000	0.029	0.183
-381.946	47.507	0.054	-0.051
-380.931	-200.000	-0.044	0.214
-379.917	-200.000	0.006	0.228
-378.902	25.302	-0.121	0.101
-377.888	800.000	-0.077	-0.275
-376.873	-176.602	-0.168	-0.004
-375.858	-134.965	-0.123	0.015
-374.844	62.166	0.170	0.171
-373.829	-38.128	0.169	-0.090
-372.815	297.618	0.038	-0.070
-371.800	-105.587	-0.333	-0.076
-370.785	-74.310	-0.356	-0.129
-369.771	672.939	-0.061	0.160
-368.756	68.653	-0.163	-0.168
-367.742	72.954	-0.027	0.028
-366.727	114.185	-0.216	0.264
-365.712	-200.000	0.058	-0.297
-364.698	-200.000	0.043	0.325
-363.683	-200.000	0.012	0.217
-362.669	-200.000	-0.043	0.380
-361.654	-95.886	0.246	-0.066
-360.639	559.159	0.030	-0.074
-359.625	-94.082	-0.199	-0.055
-358.610	-62.559	-0.200	0.083
-357.596	-26.378	-0.212	0.125
-356.581	-31.235	-0.322	-0.182
-355.566	-200.000	0.032	0.150
-354.552	-124.024	0.277	-0.044
-353.537	378.362	-0.057	-0.117
-352.523	168.862	0.015	-0.021
-351.508	174.619	0.036	-0.052
-350.493	435.740	-0.047	0.104
-349.479	-41.345	0.060	0.031
-348.464	-97.962	0.100	0.026
-347.450	374.040	0.034	0.070
-346.435	-9.109	-0.152	0.102
-345.420	-200.000	0.050	0.259
-344.406	-159.938	0.101	-0.006
-343.391	800.000	-0.015	-0.059
-342.377	800.000	0.058	0.245
-341.362	185.599	-0.117	0.174
-340.348	366.445	-0.043	0.086
-339.333	369.741	0.014	0.029
-338.318	-116.277	-0.199	0.037
-337.304	452.505	0.112	0.250
-336.289	213.072	-0.096	0.152
-335.275	140.603	0.228	-0.303
-334.260	144.634	0.162	-0.218
-333.245	339.966	-0.093	0.183
-332.231	-29.884	-0.091	-0.052
-331.216	212.890	-0.147	0.233
-330.202	800.000	-0.043	-0.126
-329.187	-35.647	0.310	0.169
-328.172	-181.768	-0.087	-0.002
-327.158	-50.481	-0.462	0.219
-326.143	291.588	0.099	-0.181
-325.129	228.969	-0.246	0.403
-324.114	178.189	-0.069	-0.101
-323.099	102.410	-0.140	0.164
-322.085	-66.160	0.094	0.037
-321.070	-200.000	-0.019	0.112
-320.056	800.000	-0.029	0.099
-319.041	800.000	-0.037	-0.105
-318.026	-100.211	0.193	-0.048
-317.012	-200.000	0.012	0.294
-315.997	-48.949	-0.041	0.020
-314.983	322.853	-0.039	-0.074
-313.968	-79.981	-0.275	-0.093
-312.953	-95.231	0.303	0.082
-311.939	800.000	0.088	-0.252
-310.924	317.128	-0.059	0.113
-309.910	54.623	-0.089	-0.086
-308.895	105.256	-0.054	-0.064
-307.880	-147.472	-0.441	0.037
-306.866	-71.405	-0.032	-0.012
-305.851	25.005	-0.097	-0.081
-304.837	152.656	-0.229	-0.314
-303.822	-143.983	-0.056	-0.005
-302.807	62.678	-0.133	0.133
-301.793	-191.712	-0.244	-0.002
-300.778	800.000	0.161	0.458
-299.764	61.118	-0.153	-0.153
-298.749	-95.324	0.183	-0.049
-297.735	80.689	0.219	0.236
-296.720	800.000	0.098	-0.427
-295.705	-95.306	-0.221	-0.060
-294.691	98.478	0.231	-0.267
-293.676	207.883	-0.096	-0.150
-292.662	88.324	0.229	0.255
-291.647	-200.000	0.053	-0.348
-290.632	-98.309	-0.346	-0.089
-289.618	-122.106	0.209	-0.034
-288.603	-102.442	0.362	-0.087
-287.589	93.779	0.053	0.060
-286.574	224.714	0.187	0.302
-285.559	-57.599	0.087	-0.038
-284.545	272.569	-0.151	0.268
-283.530	-112.936	0.608	0.121
-282.516	12.507	-0.154	-0.119
-281.501	-97.456	0.133	0.035
-280.486	-4.681	-0.121	-0.084
-279.472	800.000	-0.092	0.314
-278.457	343.891	-0.061	-0.120
-277.443	-135.650	0.201	0.024
-276.428	-32.812	0.257	0.143
-275.413	-67.065	0.137	0.054
-274.399	213.897	0.159	-0.252
-273.384	14.021	0.043	0.034
-272.370	44.808	-0.191	-0.176
-271.355	-105.192	-0.132	0.030
-270.340	17.248	0.103	0.082
-269.326	334.007	-0.133	-0.257
-268.311	586.757	-0.026	-0.064
-267.297	45.826	-0.228	-0.211
-266.282	165.278	0.221	0.312
-265.267	-64.424	0.448	0.182
-264.253	-200.000	-0.005	0.039
-263.238	800.000	0.086	-0.282
-262.224	497.896	-0.159	-0.367
-261.209	-104.047	-0.323	-0.075
-260.195	-116.662	0.216	-0.040
-259.180	-200.000	0.073	-0.351
-258.165	48.020	-0.282	-0.264
-257.151	678.520	0.046	0.121
-256.136	-200.000	-0.032	0.200
-255.122	437.841	0.123	0.269
-254.107	-55.442	0.138	-0.062
-253.092	305.048	-0.081	-0.151
-252.078	-178.862	-0.142	0.003
-251.063	-162.774	-0.268	-0.013
-250.049	62.510	0.131	0.131
-249.034	800.000	-0.040	0.147
-248.019	-4.969	0.196	-0.135
-247.005	-200.000	0.031	-0.219
-245.990	49.995	0.189	-0.178
-244.976	-7.533	0.169	0.115
-243.961	59.309	0.134	0.132
-242.946	776.522	0.042	0.113
-241.932	-200.000	-0.023	-0.188
-240.917	-34.010	-0.243	0.134
-239.903	331.137	-0.065	0.125
-238.888	543.126	0.281	-0.669
-237.873	-200.000	0.008	-0.060
-236.859	-200.000	0.046	0.234
-235.844	548.999	0.088	0.211
-234.830	410.538	0.052	-0.110
-233.815	-32.320	0.256	0.143
-232.800	-50.442	-0.276	-0.130
-231.786	559.990	0.139	-0.335
-230.771	-200.000	-0.017	0.102
-229.757	-200.000	0.026	0.206
-228.742	-84.532	-0.136	0.043
-227.727	405.429	0.021	-0.043
-226.713	800.000	-0.049	0.206
-225.698	9.115	0.222	-0.168
-224.684	-200.000	0.049	-0.436
-223.669	-200.000	-0.045	-0.309
-222.655	16.390	-0.129	0.102
-221.640	-95.030	-0.293	0.079
-220.625	-150.597	-0.274	0.021
-219.611	800.000	0.076	0.239
-218.596	-141.202	-0.326	-0.033
-217.582	221.569	0.251	0.403
-216.567	-81.412	0.215	-0.071
-215.552	-147.216	-0.159	-0.014
-214.538	-74.499	-0.327	0.118
-213.523	144.020	-0.158	0.210
-212.509	-200.000	0.001	0.105
-211.494	-14.320	0.245	-0.158
-210.479	-61.678	0.160	0.067
-209.465	-200.000	0.058	-0.269
-208.450	29.253	0.189	0.161
-207.436	-75.207	-0.043	0.015
-206.421	-2.110	0.312	0.219
-205.406	-72.411	0.123	0.046
-204.392	-200.000	0.102	0.466
-203.377	170.396	0.114	0.162
-202.363	-25.180	0.036	0.021
-201.348	-100.466	0.256	-0.063
-200.333	-38.658	0.288	0.152
-199.319	-36.558	0.111	-0.060
-198.304	308.466	0.162	-0.302
-197.290	800.000	0.045	-0.138
-196.275	-144.806	-0.327	-0.030
-195.260	-96.935	-0.129	-0.034
-194.246	370.812	-0.057	0.115
-193.231	-77.366	0.179	0.062
-192.217	472.971	0.081	0.183
-191.202	312.193	-0.109	0.204
-190.187	-200.000	-0.001	0.276
-189.173	-41.739	0.110	0.056
-188.158	28.071	-0.194	-0.164
-187.144	28.360	-0.246	-0.207
-186.129	800.000	-0.041	0.144
-185.114	200.080	-0.033	0.050
-184.100	232.029	0.134	-0.219
-183.085	55.357	-0.158	0.152
-182.071	-200.000	0.005	-0.056
-181.056	153.990	-0.071	-0.096
-180.042	-153.162	0.179	-0.013
-179.027	-200.000	0.036	0.343
-178.012	-56.603	-0.167	-0.074
-176.998	28.022	0.122	-0.102
-175.983	-142.025	-0.183	-0.018
-174.969	38.037	-0.225	-0.200
-173.954	-50.765	-0.041	0.019
-172.939	32.144	-0.196	0.169
-171.925	-200.000	-0.012	0.192
-170.910	-200.000	-0.061	-0.354
-169.896	-35.919	-0.140	0.075
-168.881	-200.000	-0.020	-0.368
-167.866	95.995	0.274	-0.312
-166.852	-200.000	0.032	0.142
-165.837	169.224	0.156	0.222
-164.823	-43.624	-0.268	-0.135
-163.808	-86.840	0.082	-0.025
-162.793	-55.499	0.227	-0.101
-161.779	-200.000	-0.014	0.458
-160.764	-94.681	0.246	-0.067
-159.750	33.699	0.047	0.041
-158.735	-106.620	0.037	0.008
-157.720	-95.758	-0.257	0.068
-156.706	47.734	-0.124	0.115
-155.691	-200.000	0.047	-0.224
-154.677	-188.986	-0.066	-0.001
-153.662	120.759	0.174	0.215
-152.647	-200.000	0.002	0.166
-151.633	6.171	-0.272	0.201
-150.618	22.086	0.233	0.190
-149.604	-191.791	0.269	0.003
-148.589	-77.011	0.140	-0.049
-147.574	-200.000	0.022	-0.161
-146.560	-200.000	-0.015	-0.311
-145.545	275.037	0.088	0.155
-144.531	-100.251	0.347	0.086
-143.516	90.695	0.034	-0.038
-142.502	800.000	0.155	-0.449
-141.487	199.366	-0.076	-0.116
-140.472	-145.568	0.134	0.012
-139.458	-53.396	-0.147	-0.067
-138.443	108.120	0.069	0.082
-137.429	-13.011	0.144	0.093
-136.414	212.261	0.106	0.166
-135.399	-200.000	0.011	-0.174
-134.385	-128.403	0.273	0.039
-133.370	332.649	0.006	-0.011
-132.356	-0.694	0.045	-0.032
-131.341	-115.609	-0.412	0.077
-130.326	-112.495	0.378	0.075
-129.312	-200.000	-0.035	-0.164
-128.297	122.578	-0.150	0.186
-127.283	257.326	-0.227	-0.389
-126.268	-89.434	0.335	-0.098
-125.253	-200.000	-0.002	0.185
-124.239	-164.169	0.363	-0.017
-123.224	-200.000	-0.006	0.132
-122.210	-200.000	0.002	0.154
-121.195	6.225	0.100	-0.074
