DTS Sentinel unit serial number:	SN413079Multiplexer serial number:	ORYXHardware model number:	OX4-SRSoftware version number:	ORYX F/W v4.00 Oryx Data Collector v3.7.2.0data status	okinstallation	princeton_trtdifferential loss correction	single-endedforward channel	channel 1reverse channel	N/Adate	2019/09/11time	02:16:11forward acquisition time	60.00reverse acquisition time	0.00gamma	496.2192k internal	0.2331k external	0.2331temperature offset calibration	0.9928default loss term (dB/km)	0.3790temperature slope calibration	1.0000multiplexer offset coefficient	1.0000multiplexer slope coefficient	1.0000fibre end	0.00T internal ref (°C)	29.19T ext. ref 1 (°C)	-0.29T ext. ref 2 (°C)	23.38length (m)	temperature (°C)	Stokes	anti-Stokes-747.200	-200.000	-0.015	-0.094
-746.185	-43.786	-0.390	0.198
-745.171	-40.622	0.396	-0.207
-744.156	-19.302	-0.013	-0.008
-743.142	-200.000	0.005	-0.052
-742.127	800.000	0.076	0.242
-741.112	800.000	-0.088	0.348
-740.098	453.304	-0.021	-0.046
-739.083	-110.846	0.163	0.034
-738.069	800.000	0.080	0.346
-737.054	800.000	0.077	0.261
-736.039	55.473	-0.154	0.150
-735.025	800.000	0.095	0.265
-734.010	20.603	-0.254	0.206
-732.996	466.514	0.038	0.085
-731.981	-55.345	0.270	-0.122
-730.966	76.718	-0.146	-0.156
-729.952	78.424	-0.211	0.226
-728.937	233.713	-0.155	0.257
-727.923	-101.050	-0.193	-0.048
-726.908	91.629	-0.146	0.165
-725.894	-200.000	0.023	-0.289
-724.879	-147.561	0.359	-0.030
-723.864	-169.688	-0.150	-0.005
-722.850	131.468	-0.162	0.209
-721.835	38.277	0.139	-0.124
-720.821	50.213	-0.524	-0.498
-719.806	161.837	-0.122	-0.171
-718.791	-200.000	0.003	0.114
-717.777	195.440	-0.015	0.023
-716.762	100.091	0.180	-0.210
-715.748	25.010	-0.298	-0.248
-714.733	-112.869	-0.191	0.038
-713.718	698.555	0.085	-0.226
-712.704	800.000	-0.068	0.236
-711.689	-200.000	0.004	0.200
-710.675	800.000	-0.063	0.242
-709.660	-71.136	-0.498	0.188
-708.645	318.519	-0.198	-0.377
-707.631	-200.000	0.042	-0.245
-706.616	-200.000	0.039	-0.240
-705.602	-57.765	0.321	-0.141
-704.587	38.889	0.317	-0.285
-703.572	7.696	0.034	-0.026
-702.558	-47.171	-0.180	-0.088
-701.543	-200.000	-0.023	-0.227
-700.529	-44.419	0.090	0.045
-699.514	109.096	0.133	-0.160
-698.499	-64.617	-0.239	0.098
-697.485	101.266	-0.103	-0.120
-696.470	800.000	-0.114	0.351
-695.456	800.000	-0.075	0.232
-694.441	-147.895	0.279	0.023
-693.426	-163.474	0.255	0.012
-692.412	800.000	-0.058	0.185
-691.397	800.000	-0.070	0.271
-690.383	133.493	0.202	-0.262
-689.368	20.497	0.143	-0.116
-688.354	-35.398	0.172	-0.094
-687.339	-200.000	-0.065	0.454
-686.324	-115.896	-0.190	-0.036
-685.310	-117.526	0.071	-0.013
-684.295	86.032	-0.296	0.327
-683.281	28.755	0.026	0.022
-682.266	-65.779	0.168	0.068
-681.251	-117.868	-0.408	0.073
-680.237	-77.685	-0.262	0.091
-679.222	247.885	0.069	0.117
-678.208	-190.721	0.303	0.003
-677.193	-47.519	-0.314	0.153
-676.178	800.000	0.038	0.167
-675.164	298.899	0.090	-0.166
-674.149	-82.615	-0.185	-0.060
-673.135	-200.000	0.052	0.505
-672.120	248.902	0.164	-0.280
-671.105	-200.000	0.008	0.219
-670.091	-151.521	-0.309	0.023
-669.076	-200.000	-0.010	-0.264
-668.062	800.000	0.014	-0.059
-667.047	800.000	0.123	-0.361
-666.032	-200.000	-0.018	-0.237
-665.018	-200.000	-0.003	0.074
-664.003	-200.000	-0.005	-0.047
-662.989	-200.000	-0.032	0.262
-661.974	-200.000	-0.044	0.209
-660.959	402.503	0.068	0.143
-659.945	-147.586	0.394	-0.033
-658.930	-82.992	-0.167	0.054
-657.916	-51.461	-0.053	0.025
-656.901	-192.207	0.188	0.002
-655.886	100.108	-0.145	0.168
-654.872	-160.486	0.226	-0.012
-653.857	-200.000	-0.003	0.287
-652.843	-200.000	-0.028	-0.161
-651.828	194.335	-0.065	-0.099
-650.814	-121.160	-0.096	0.016
-649.799	359.420	0.136	0.272
-648.784	-28.998	-0.116	-0.067
-647.770	99.997	0.220	-0.255
-646.755	-18.018	0.171	0.107
-645.741	-132.118	-0.233	-0.030
-644.726	-129.686	0.145	0.020
-643.711	247.412	0.049	0.082
-642.697	324.801	-0.030	0.058
-641.682	800.000	0.066	-0.241
-640.668	-38.698	0.121	0.064
-639.653	-62.424	0.172	0.072
-638.638	83.023	0.088	0.096
-637.624	-200.000	-0.032	-0.146
-636.609	-50.378	-0.213	-0.101
-635.595	-200.000	-0.021	-0.274
-634.580	101.169	-0.238	0.278
-633.565	45.794	-0.264	-0.245
-632.551	76.097	0.038	0.040
-631.536	234.502	-0.192	-0.317
-630.522	15.533	-0.116	-0.091
-629.507	-200.000	0.063	0.366
-628.492	63.485	-0.073	-0.074
-627.478	-85.857	-0.237	-0.074
-626.463	48.483	-0.080	0.075
-625.449	327.590	0.049	-0.094
-624.434	-130.201	0.170	0.023
-623.419	-94.803	0.206	0.056
-622.405	-133.012	-0.217	0.028
-621.390	-200.000	-0.059	0.361
-620.376	148.725	-0.194	0.262
-619.361	-103.774	0.190	0.044
-618.346	184.124	0.236	-0.350
-617.332	-89.062	-0.102	-0.030
-616.317	-29.631	0.044	-0.025
-615.303	-200.000	-0.004	0.302
-614.288	-93.179	0.233	-0.065
-613.273	800.000	0.074	-0.227
-612.259	-3.844	-0.321	0.223
-611.244	-37.012	0.115	-0.061
-610.230	-48.586	-0.233	-0.112
-609.215	573.362	-0.090	0.221
-608.201	-200.000	0.000	0.050
-607.186	144.785	0.087	0.116
-606.171	-102.495	-0.243	-0.058
-605.157	236.084	0.025	-0.041
-604.142	800.000	-0.063	-0.231
-603.128	-72.316	-0.048	0.018
-602.113	-120.880	-0.114	0.019
-601.098	-35.011	-0.050	0.027
-600.084	-11.715	0.239	-0.157
-599.069	-96.583	0.171	0.045
-598.055	-0.521	0.063	0.045
-597.040	-1.112	-0.148	-0.105
-596.025	108.349	-0.180	-0.215
-595.011	84.161	0.084	0.092
-593.996	-56.526	-0.255	-0.113
-592.982	-200.000	0.006	0.126
-591.967	-113.222	0.126	0.025
-590.952	289.772	-0.034	-0.061
-589.938	532.728	-0.117	-0.276
-588.923	77.457	-0.057	0.061
-587.909	-106.369	0.126	-0.028
-586.894	-54.192	-0.175	0.079
-585.879	274.828	-0.080	-0.143
-584.865	800.000	0.029	0.084
-583.850	-21.633	0.085	-0.052
-582.836	-91.175	-0.210	0.060
-581.821	-200.000	-0.029	-0.192
-580.806	206.069	0.131	-0.203
-579.792	111.288	-0.136	-0.163
-578.777	-8.418	-0.155	-0.104
-577.763	-72.157	0.477	-0.177
-576.748	-56.173	0.032	0.014
-575.733	-200.000	-0.044	0.296
-574.719	-149.665	-0.256	-0.020
-573.704	-200.000	-0.028	-0.195
-572.690	757.617	0.036	-0.097
-571.675	800.000	0.133	0.434
-570.661	-200.000	0.014	0.069
-569.646	-69.627	0.169	0.065
-568.631	-18.739	0.237	-0.148
-567.617	25.592	-0.136	-0.113
-566.602	-51.409	-0.320	-0.150
-565.588	-200.000	-0.015	0.104
-564.573	-124.837	-0.325	-0.050
-563.558	800.000	0.052	-0.149
-562.544	289.996	-0.068	-0.124
-561.529	61.658	-0.121	-0.120
-560.515	39.483	0.151	0.135
-559.500	-140.113	0.281	0.030
-558.485	-42.449	0.262	0.134
-557.471	-128.455	0.081	-0.012
-556.456	364.447	0.088	-0.177
-555.442	-53.789	-0.448	0.204
-554.427	-94.318	-0.119	-0.033
-553.412	-200.000	-0.003	0.043
-552.398	-200.000	-0.044	-0.360
-551.383	800.000	0.043	-0.121
-550.369	-200.000	0.005	-0.377
-549.354	29.231	-0.153	-0.129
-548.339	-200.000	-0.006	0.158
-547.325	-200.000	0.227	-0.000
-546.310	-31.667	-0.104	0.058
-545.296	-200.000	0.007	-0.083
-544.281	-146.724	-0.232	-0.020
-543.266	93.652	-0.196	0.221
-542.252	-49.511	0.194	0.092
-541.237	1.529	0.468	0.336
-540.223	-200.000	-0.070	-0.339
-539.208	88.804	-0.209	-0.232
-538.193	-60.847	0.465	-0.196
-537.179	-12.935	0.292	-0.190
-536.164	-84.879	0.303	-0.095
-535.150	800.000	-0.058	-0.179
-534.135	75.049	0.103	-0.109
-533.121	-157.818	-0.243	0.014
-532.106	27.996	-0.311	-0.262
-531.091	-146.599	-0.183	0.016
-530.077	800.000	-0.052	-0.186
-529.062	97.057	-0.112	0.128
-528.048	234.880	-0.143	0.235
-527.033	-200.000	0.017	-0.235
-526.018	469.796	0.048	0.108
-525.004	-50.458	-0.306	0.144
-523.989	-200.000	0.010	-0.079
-522.975	-133.685	-0.178	0.022
-521.960	-200.000	0.096	0.524
-520.945	800.000	0.090	-0.303
-519.931	188.277	0.150	0.224
-518.916	-200.000	0.045	-0.304
-517.902	-93.771	-0.236	-0.065
-516.887	-18.875	0.194	0.120
-515.872	-33.967	0.214	-0.117
-514.858	-95.268	-0.330	-0.089
-513.843	68.074	-0.170	0.174
-512.829	-200.000	-0.043	-0.225
-511.814	-200.000	0.003	-0.166
-510.799	-128.693	-0.065	-0.009
-509.785	379.007	-0.069	-0.140
-508.770	373.375	0.081	-0.164
-507.756	-33.665	0.299	-0.164
-506.741	266.949	0.144	-0.252
-505.726	-80.130	0.160	-0.053
-504.712	-20.066	-0.262	0.161
-503.697	-176.176	-0.114	-0.003
-502.683	-65.677	0.198	0.079
-501.668	239.071	-0.092	-0.152
-500.653	62.418	-0.205	0.204
-499.639	-42.461	-0.051	0.026
-498.624	133.832	-0.094	0.121
-497.610	-26.663	-0.115	0.067
-496.595	23.559	-0.139	0.114
-495.581	117.313	0.114	-0.140
-494.566	86.933	0.137	-0.151
-493.551	800.000	-0.109	-0.350
-492.537	-131.521	0.199	0.026
-491.522	-78.580	0.088	0.030
-490.508	-200.000	0.040	-0.209
-489.493	-34.631	-0.342	-0.186
-488.478	-82.662	-0.245	0.079
-487.464	509.686	0.054	-0.126
-486.449	-200.000	-0.017	0.237
-485.435	-122.985	-0.299	0.048
-484.420	-73.823	-0.121	-0.044
-483.405	-90.474	0.215	-0.062
-482.391	67.671	-0.163	-0.166
-481.376	-200.000	0.009	-0.178
-480.362	156.404	0.017	0.024
-479.347	350.608	0.191	-0.377
-478.332	-119.999	-0.226	-0.039
-477.318	800.000	0.032	-0.116
-476.303	306.145	-0.021	0.038
-475.289	-200.000	-0.023	0.112
-474.274	0.292	0.106	0.076
-473.259	116.947	-0.085	-0.104
-472.245	-81.387	-0.158	0.052
-471.230	197.649	-0.157	0.239
-470.216	197.345	-0.127	0.193
-469.201	-114.971	0.137	0.026
-468.186	40.252	-0.026	0.023
-467.172	151.101	-0.121	-0.165
-466.157	-200.000	0.007	-0.074
-465.143	800.000	-0.075	0.231
-464.128	688.855	0.138	0.359
-463.113	-200.000	0.001	0.353
-462.099	562.500	-0.104	0.252
-461.084	37.720	-0.186	-0.165
-460.070	170.438	-0.076	0.109
-459.055	54.952	0.106	-0.102
-458.040	-200.000	-0.012	-0.144
-457.026	0.485	-0.016	-0.012
-456.011	189.130	0.052	-0.077
-454.997	-197.014	-0.180	0.001
-453.982	-98.076	-0.361	-0.092
-452.968	-4.178	-0.123	0.085
-451.953	149.453	-0.170	-0.229
-450.938	123.120	0.194	-0.242
-449.924	25.270	-0.274	-0.226
-448.909	-200.000	0.000	-0.127
-447.895	800.000	0.113	0.313
-446.880	172.489	-0.050	-0.072
-445.865	-130.723	-0.321	-0.043
-444.851	800.000	0.054	0.192
-443.836	0.449	0.133	0.094
-442.822	-200.000	0.015	-0.311
-441.807	-200.000	-0.010	0.268
-440.792	17.870	0.053	-0.042
-439.778	-73.057	0.281	-0.103
-438.763	-124.278	-0.123	-0.019
-437.749	86.932	-0.116	0.127
-436.734	-112.351	0.284	0.057
-435.719	-151.226	0.153	-0.011
-434.705	30.033	-0.188	0.160
-433.690	-200.000	-0.049	0.349
-432.676	-200.000	-0.010	-0.178
-431.661	800.000	-0.034	0.130
-430.646	119.588	-0.195	0.241
-429.632	34.938	-0.255	-0.222
-428.617	-93.411	-0.428	0.118
-427.603	7.521	0.162	-0.121
-426.588	-188.299	-0.640	-0.008
-425.573	800.000	-0.087	-0.353
-424.559	-200.000	-0.042	-0.220
-423.544	20.117	-0.235	-0.189
-422.530	-41.817	-0.104	0.053
-421.515	259.818	0.145	-0.249
-420.500	800.000	-0.051	-0.178
-419.486	-200.000	-0.023	0.405
-418.471	264.331	0.193	0.333
-417.457	366.746	0.049	0.099
-416.442	-200.000	0.015	0.173
-415.428	-200.000	0.069	0.399
-414.413	-111.155	-0.085	-0.017
-413.398	54.512	0.100	0.095
-412.384	33.075	-0.155	-0.133
-411.369	-55.666	0.099	0.044
-410.355	-148.803	0.107	-0.009
-409.340	-200.000	0.000	-0.096
-408.325	108.369	0.141	0.167
-407.311	-27.372	-0.144	0.083
-406.296	800.000	0.101	-0.291
-405.282	18.856	0.197	-0.157
-404.267	-78.843	-0.139	0.047
-403.252	-121.188	-0.290	-0.048
-402.238	-200.000	-0.021	0.436
-401.223	-95.477	0.148	0.039
-400.209	459.916	-0.087	-0.193
-399.194	-200.000	-0.031	0.329
-398.179	-200.000	-0.012	-0.057
-397.165	-83.844	0.169	-0.054
-396.150	-25.370	0.160	-0.094
-395.136	469.761	-0.053	0.117
-394.121	-200.000	0.064	-0.295
-393.106	-64.549	-0.245	0.099
-392.092	-155.221	0.230	-0.015
-391.077	800.000	0.130	-0.414
-390.063	210.405	-0.030	-0.046
-389.048	98.449	0.350	0.401
-388.033	264.127	-0.138	-0.238
-387.019	224.384	0.016	-0.026
-386.004	-200.000	-0.027	0.180
-384.990	402.368	-0.063	-0.131
-383.975	172.827	-0.103	-0.147
-382.960	-62.747	0.268	0.110
-381.946	-120.371	-0.024	-0.004
-380.931	-198.391	-0.186	0.001
-379.917	493.118	0.095	-0.216
-378.902	-48.789	-0.090	0.043
-377.888	232.870	0.104	0.169
-376.873	438.242	0.073	0.158
-375.858	99.050	-0.095	-0.109
-374.844	184.870	0.172	0.253
-373.829	176.678	0.077	-0.111
-372.815	-127.452	0.333	0.048
-371.800	-108.765	-0.125	0.027
-370.785	-58.549	0.230	0.099
-369.771	260.708	-0.054	-0.092
-368.756	-86.268	0.165	-0.050
-367.742	-200.000	0.013	0.127
-366.727	-200.000	-0.026	0.337
-365.712	-172.912	0.134	0.004
-364.698	-5.008	0.147	0.100
-363.683	-132.744	0.387	-0.049
-362.669	-38.789	0.093	0.048
-361.654	65.510	-0.076	0.077
-360.639	69.583	0.226	0.231
-359.625	-106.591	0.033	0.007
-358.610	141.101	0.193	0.253
-357.596	483.452	0.100	0.224
-356.581	198.037	0.080	-0.121
-355.566	102.563	-0.087	0.101
-354.552	-47.598	0.314	0.151
-353.537	-200.000	-0.033	-0.251
-352.523	-81.613	0.338	-0.110
-351.508	97.779	-0.106	-0.121
-350.493	676.393	-0.098	-0.253
-349.479	92.891	0.181	0.203
-348.464	123.000	-0.188	0.233
-347.450	391.500	0.183	0.377
-346.435	615.737	0.126	0.313
-345.420	-124.041	-0.174	0.027
-344.406	-32.343	0.411	0.227
-343.391	-200.000	0.010	-0.328
-342.377	135.014	-0.104	-0.134
-341.362	-200.000	0.053	0.281
-340.348	158.841	-0.047	-0.064
-339.333	-162.263	0.341	0.017
-338.318	-200.000	-0.039	0.248
-337.304	-45.343	-0.273	0.134
-336.289	623.400	-0.046	0.114
-335.275	160.103	0.053	0.072
-334.260	17.453	-0.116	-0.092
-333.245	800.000	0.146	0.441
-332.231	-143.498	-0.160	-0.015
-331.216	-33.724	0.245	-0.134
-330.202	141.789	-0.264	-0.346
-329.187	-14.826	-0.234	0.149
-328.172	-35.372	0.239	0.129
-327.158	129.057	-0.216	-0.273
-326.143	599.694	0.096	0.236
-325.129	-200.000	0.038	0.241
-324.114	-80.189	0.325	-0.108
-323.099	290.269	-0.094	-0.169
-322.085	6.479	-0.259	-0.190
-321.070	-167.449	0.209	0.008
-320.056	-200.000	-0.020	0.251
-319.041	-43.192	-0.160	0.080
-318.026	-90.370	-0.008	0.002
-317.012	-14.686	-0.209	-0.133
-315.997	606.284	-0.097	0.240
-314.983	-200.000	0.018	-0.100
-313.968	-200.000	-0.069	-0.309
-312.953	347.546	-0.192	-0.375
-311.939	427.757	0.023	-0.050
-310.924	222.679	0.160	-0.255
-309.910	373.771	-0.037	-0.075
-308.895	146.861	-0.101	0.135
-307.880	51.266	-0.108	-0.102
-306.866	800.000	0.061	-0.175
-305.851	290.421	-0.166	-0.298
-304.837	749.956	0.090	0.241
-303.822	-121.900	0.098	-0.016
-302.807	-136.887	0.302	-0.034
-301.793	-82.507	-0.343	-0.110
-300.778	336.873	0.142	0.273
-299.764	-70.161	0.371	-0.140
-298.749	70.911	-0.147	-0.151
-297.735	-200.000	0.004	0.283
-296.720	800.000	0.038	-0.142
-295.705	-88.621	-0.162	-0.048
-294.691	160.254	0.196	0.271
-293.676	18.486	0.121	0.095
-292.662	-43.657	-0.322	0.160
-291.647	800.000	0.053	-0.184
-290.632	-160.569	-0.394	-0.021
-289.618	800.000	0.036	-0.107
-288.603	19.185	0.150	-0.119
-287.589	-11.024	0.166	-0.109
-286.574	800.000	0.134	-0.398
-285.559	1.795	0.193	0.137
-284.545	157.678	0.174	0.238
-283.530	800.000	-0.044	-0.137
-282.516	800.000	-0.056	-0.168
-281.501	-5.761	-0.100	0.068
-280.486	-118.014	-0.186	-0.033
-279.472	-135.248	-0.110	-0.013
-278.457	-200.000	-0.046	0.230
-277.443	800.000	-0.062	-0.176
-276.428	370.664	-0.042	0.084
-275.413	-200.000	-0.045	0.399
-274.399	-75.023	0.308	0.109
-273.384	800.000	0.096	-0.364
-272.370	35.320	-0.099	-0.085
-271.355	-71.452	0.034	-0.012
-270.340	-200.000	0.029	0.335
-269.326	-30.164	-0.156	-0.087
-268.311	-169.521	0.478	-0.017
-267.297	-200.000	0.055	0.314
-266.282	-92.027	0.353	0.099
-265.267	-14.411	-0.095	-0.060
-264.253	-106.653	0.236	-0.052
-263.238	-81.778	0.120	0.039
-262.224	800.000	-0.105	0.295
-261.209	-114.800	-0.364	0.069
-260.195	800.000	0.099	0.291
-259.180	-200.000	-0.045	-0.356
-258.165	-200.000	0.002	-0.344
-257.151	800.000	0.148	0.415
-256.136	-142.197	0.357	-0.035
-255.122	64.418	-0.039	-0.039
-254.107	-25.637	0.416	0.242
-253.092	36.794	0.415	-0.362
-252.078	800.000	0.143	0.426
-251.063	207.425	0.036	-0.055
-250.049	-108.675	0.210	0.044
-249.034	81.501	-0.103	0.110
-248.019	-82.172	-0.109	0.035
-247.005	-200.000	-0.008	0.152
-245.990	306.184	0.156	-0.286
-244.976	180.230	0.194	-0.281
-243.961	800.000	0.068	0.286
-242.946	47.586	0.183	-0.168
-241.932	-200.000	0.093	0.415
-240.917	-59.850	0.301	0.127
-239.903	-200.000	0.019	0.553
-238.888	168.542	-0.011	0.015
-237.873	-200.000	0.077	-0.351
-236.859	-44.536	-0.133	0.066
-235.844	-51.113	0.207	0.096
-234.830	-100.282	-0.322	0.079
-233.815	-200.000	-0.004	-0.030
-232.800	148.274	0.042	-0.055
-231.786	-8.134	0.158	0.105
-230.771	39.898	0.195	0.173
-229.757	-30.679	-0.184	-0.103
-228.742	137.170	0.066	-0.085
-227.727	7.320	-0.075	-0.055
-226.713	4.585	-0.369	-0.267
-225.698	713.999	0.079	-0.206
-224.684	-82.491	-0.115	0.037
-223.669	452.426	0.176	0.385
-222.655	615.529	-0.026	0.065
-221.640	800.000	0.103	0.370
-220.625	48.325	0.159	0.147
-219.611	173.192	-0.066	0.094
-218.596	43.835	-0.156	0.141
-217.582	800.000	-0.028	-0.111
-216.567	479.648	-0.064	0.142
-215.552	-177.934	-0.081	0.002
-214.538	-14.501	0.068	-0.043
-213.523	800.000	-0.060	0.238
-212.509	-41.301	0.366	0.186
-211.494	-88.086	-0.177	-0.052
-210.479	122.872	0.164	-0.202
-209.465	-146.746	-0.333	-0.028
-208.450	225.799	-0.125	0.200
-207.436	-103.738	-0.294	-0.068
-206.421	-85.581	-0.274	0.084
-205.406	130.678	-0.326	0.412
-204.392	-166.913	0.206	0.008
-203.377	-123.965	0.022	0.003
-202.363	-168.217	-0.207	0.008
-201.348	3.161	-0.200	-0.143
-200.333	-23.190	0.236	-0.140
-199.319	85.678	0.057	0.062
-198.304	-50.308	-0.142	0.066
-197.290	-63.399	0.198	0.080
-196.275	-93.443	-0.189	-0.051
-195.260	-200.000	-0.004	-0.151
-194.246	-200.000	-0.022	0.450
-193.231	761.497	-0.129	0.345
-192.217	30.501	-0.221	0.186
-191.202	388.074	-0.132	-0.268
-190.187	-133.127	-0.162	-0.020
-189.173	-60.082	-0.227	-0.095
-188.158	8.072	0.381	-0.282
-187.144	-148.446	-0.359	-0.029
-186.129	192.527	-0.159	-0.237
-185.114	-200.000	0.064	0.356
-184.100	-200.000	0.038	-0.189
-183.085	206.351	0.055	-0.084
-182.071	60.510	-0.044	-0.043
-181.056	27.358	-0.141	0.117
-180.042	-200.000	-0.011	0.056
-179.027	-97.771	-0.081	0.021
-178.012	190.054	0.148	-0.218
-176.998	-112.960	0.215	0.042
-175.983	-151.802	0.234	-0.017
-174.969	-77.175	0.055	-0.019
-173.954	389.912	0.148	-0.302
-172.939	32.436	0.034	-0.029
-171.925	440.409	-0.016	0.035
-170.910	-200.000	-0.033	-0.441
-169.896	54.573	0.225	-0.213
-168.881	800.000	0.074	0.251
-167.866	367.858	-0.194	-0.387
-166.852	-5.000	-0.262	-0.178
-165.837	800.000	-0.055	0.192
-164.823	-7.676	0.250	-0.166
-163.808	242.997	-0.047	-0.078
-162.793	114.224	0.038	-0.046
-161.779	100.613	0.176	0.201
-160.764	-92.143	0.233	-0.065
-159.750	-34.465	0.279	-0.151
-158.735	351.358	0.090	-0.174
-157.720	22.190	0.203	-0.163
-156.706	-194.188	-0.317	-0.003
-155.691	0.109	-0.052	-0.036
-154.677	321.514	0.275	0.514
-153.662	-155.423	-0.195	-0.012
-152.647	585.609	0.032	0.078
-151.633	70.113	0.092	0.093
-150.618	-200.000	-0.048	0.311
-149.604	-126.534	0.221	-0.032
-148.589	208.129	-0.099	0.152
-147.574	186.214	0.097	-0.141
-146.560	-143.921	-0.214	0.020
-145.545	-152.973	0.055	-0.004
-144.531	800.000	0.076	-0.304
-143.516	800.000	0.103	0.326
-142.502	742.517	0.186	0.493
-141.487	67.201	-0.252	0.253
-140.472	-71.407	-0.237	0.087
-139.458	-120.923	-0.465	0.077
-138.443	117.848	0.214	-0.259
-137.429	-200.000	-0.043	-0.315
-136.414	322.141	-0.110	-0.206
-135.399	240.971	-0.035	-0.057
-134.385	115.997	-0.121	-0.145
-133.370	223.821	0.070	0.112
-132.356	8.766	-0.129	0.095
-131.341	-200.000	-0.046	0.517
-130.326	180.149	-0.016	-0.022
-129.312	-200.000	-0.050	0.436
-128.297	360.322	-0.043	-0.085
-127.283	98.287	0.157	-0.177
-126.268	-104.965	-0.168	0.038
-125.253	-192.010	-0.034	0.000
-124.239	55.291	-0.154	-0.146
-123.224	180.343	-0.112	-0.161
-122.210	-190.418	-0.289	0.003
