DTS Sentinel unit serial number:	SN413079Multiplexer serial number:	ORYXHardware model number:	OX4-SRSoftware version number:	ORYX F/W v4.00 Oryx Data Collector v3.7.2.0data status	okinstallation	princeton_trtdifferential loss correction	single-endedforward channel	channel 1reverse channel	N/Adate	2019/09/11time	21:40:11forward acquisition time	60.00reverse acquisition time	0.00gamma	496.2192k internal	0.2311k external	0.2311temperature offset calibration	1.0047default loss term (dB/km)	0.3790temperature slope calibration	1.0000multiplexer offset coefficient	1.0000multiplexer slope coefficient	1.0000fibre end	0.00T internal ref (°C)	35.84T ext. ref 1 (°C)	1.62T ext. ref 2 (°C)	30.39length (m)	temperature (°C)	Stokes	anti-Stokes-747.200	-33.218	0.126	-0.071
-746.185	-178.528	0.273	-0.006
-745.171	-12.432	0.188	-0.125
-744.156	-200.000	-0.012	0.079
-743.142	800.000	-0.094	0.408
-742.127	46.772	0.152	0.143
-741.112	-200.000	-0.006	-0.210
-740.098	71.384	-0.141	0.148
-739.083	25.218	-0.457	0.385
-738.069	609.405	0.118	0.299
-737.054	-7.019	0.213	-0.147
-736.039	57.425	-0.265	-0.262
-735.025	-138.117	0.116	-0.013
-734.010	-20.562	0.297	0.185
-732.996	-111.595	-0.268	0.055
-731.981	-200.000	0.003	0.352
-730.966	-200.000	0.007	0.228
-729.952	233.164	0.056	-0.093
-728.937	-167.089	-0.406	-0.017
-727.923	800.000	-0.060	0.198
-726.908	-43.382	-0.130	-0.067
-725.894	250.092	-0.066	0.114
-724.879	-200.000	-0.042	-0.205
-723.864	-200.000	0.122	-0.555
-722.850	-200.000	0.008	0.147
-721.835	-101.355	0.267	0.066
-720.821	268.366	-0.202	-0.358
-719.806	-54.346	0.155	-0.071
-718.791	-200.000	-0.064	-0.309
-717.777	-200.000	0.054	0.261
-716.762	198.093	0.058	-0.090
-715.748	-200.000	-0.007	0.269
-714.733	800.000	0.044	-0.123
-713.718	-200.000	-0.021	0.161
-712.704	181.313	-0.040	-0.059
-711.689	86.311	-0.105	-0.118
-710.675	117.125	-0.183	-0.228
-709.660	-155.251	0.251	0.017
-708.645	6.821	-0.311	-0.235
-707.631	-78.233	-0.194	-0.068
-706.616	-127.714	-0.039	0.006
-705.602	800.000	-0.030	0.113
-704.587	-80.998	0.248	-0.083
-703.572	138.944	-0.102	-0.136
-702.558	-123.885	0.206	0.033
-701.543	-200.000	-0.014	-0.143
-700.529	-200.000	0.027	0.474
-699.514	800.000	-0.086	-0.262
-698.499	-153.908	0.650	0.045
-697.485	181.872	0.133	-0.199
-696.470	798.815	-0.056	-0.157
-695.456	-173.545	0.048	0.001
-694.441	666.830	0.040	-0.106
-693.426	152.758	-0.116	-0.161
-692.412	-180.034	-0.221	-0.005
-691.397	-116.931	0.171	0.032
-690.383	-86.833	-0.351	-0.109
-689.368	158.878	0.049	0.069
-688.354	138.781	0.158	0.211
-687.339	800.000	-0.205	0.589
-686.324	-101.142	-0.250	0.062
-685.310	-96.548	0.173	0.046
-684.295	386.019	0.060	-0.125
-683.281	84.200	-0.233	0.258
-682.266	-116.367	0.067	0.013
-681.251	75.936	-0.103	-0.110
-680.237	176.164	-0.133	-0.195
-679.222	-154.438	0.096	0.006
-678.208	631.881	-0.014	-0.035
-677.193	-90.847	0.339	0.099
-676.178	-112.951	0.433	-0.087
-675.164	34.969	0.093	0.082
-674.149	-131.517	-0.091	0.012
-673.135	229.687	-0.212	-0.350
-672.120	-200.000	-0.001	-0.118
-671.105	95.868	-0.050	0.058
-670.091	-27.887	-0.229	0.134
-669.076	-64.345	-0.385	0.159
-668.062	335.835	0.095	-0.187
-667.047	322.971	0.114	-0.221
-666.032	244.269	-0.094	0.159
-665.018	-106.020	-0.213	0.048
-664.003	53.918	-0.345	0.335
-662.989	-104.523	0.210	0.049
-661.974	-200.000	-0.040	0.236
-660.959	-77.375	0.360	0.126
-659.945	708.624	0.011	-0.029
-658.930	-200.000	-0.016	-0.344
-657.916	155.609	-0.173	-0.241
-656.901	119.110	0.138	-0.172
-655.886	774.331	-0.090	-0.249
-654.872	-62.645	0.329	-0.138
-653.857	800.000	-0.019	-0.077
-652.843	208.035	-0.106	-0.168
-651.828	191.190	0.070	0.106
-650.814	37.892	0.189	-0.170
-649.799	59.016	-0.163	-0.163
-648.784	800.000	-0.036	-0.131
-647.770	-200.000	0.004	-0.463
-646.755	-200.000	-0.007	-0.530
-645.741	-200.000	-0.006	0.100
-644.726	-200.000	-0.039	-0.217
-643.711	459.393	-0.014	-0.032
-642.697	-200.000	0.069	0.450
-641.682	136.347	-0.151	-0.199
-640.668	39.765	0.108	-0.098
-639.653	-169.772	-0.391	-0.014
-638.638	-200.000	0.016	-0.194
-637.624	-105.061	-0.251	0.058
-636.609	226.295	-0.104	0.171
-635.595	-53.261	0.141	-0.066
-634.580	15.311	-0.077	0.061
-633.565	239.486	0.147	-0.248
-632.551	-200.000	0.027	-0.231
-631.536	135.444	-0.085	0.112
-630.522	61.320	0.095	0.095
-629.507	18.317	-0.140	-0.113
-628.492	-26.292	-0.245	-0.146
-627.478	662.544	0.095	-0.247
-626.463	116.241	0.163	0.202
-625.449	-176.118	0.379	0.010
-624.434	-200.000	0.005	-0.248
-623.419	89.851	0.275	-0.310
-622.405	-200.000	-0.021	-0.094
-621.390	-48.973	0.282	-0.137
-620.376	12.170	0.058	-0.045
-619.361	-61.470	-0.169	0.072
-618.346	9.233	0.036	-0.027
-617.332	65.531	0.110	-0.113
-616.317	-106.387	-0.258	-0.058
-615.303	800.000	-0.034	0.104
-614.288	-200.000	0.056	0.368
-613.273	537.299	-0.084	0.202
-612.259	-200.000	0.019	0.102
-611.244	480.873	0.071	0.164
-610.230	41.632	-0.170	-0.156
-609.215	-71.399	-0.201	-0.076
-608.201	-62.913	-0.232	-0.097
-607.186	-200.000	0.025	-0.235
-606.171	658.737	-0.148	0.384
-605.157	-156.555	-0.078	0.005
-604.142	-200.000	0.025	0.203
-603.128	-200.000	0.191	-0.001
-602.113	-200.000	-0.027	-0.144
-601.098	101.799	-0.117	-0.138
-600.084	19.209	0.108	-0.088
-599.069	-51.869	0.069	-0.032
-598.055	-110.218	-0.337	-0.071
-597.040	-135.656	-0.150	0.018
-596.025	-28.094	-0.203	-0.119
-595.011	-107.162	-0.293	0.065
-593.996	-200.000	0.058	0.380
-592.982	-69.580	-0.069	0.027
-591.967	298.741	-0.186	-0.346
-590.952	400.263	-0.126	-0.267
-589.938	-67.459	-0.240	0.095
-588.923	63.987	0.148	0.150
-587.909	320.608	0.195	0.373
-586.894	-72.629	-0.078	0.029
-585.879	296.829	0.146	0.271
-584.865	800.000	-0.102	-0.288
-583.850	800.000	-0.137	0.454
-582.836	51.645	0.176	0.169
-581.821	800.000	0.045	-0.185
-580.806	-75.605	-0.317	0.114
-579.792	318.863	-0.059	0.113
-578.777	-200.000	-0.005	-0.134
-577.763	-122.277	-0.076	-0.013
-576.748	-137.853	-0.153	-0.017
-575.733	800.000	0.063	0.214
-574.719	-200.000	-0.041	0.218
-573.704	54.046	0.283	-0.274
-572.690	-103.148	-0.293	-0.070
-571.675	-133.201	0.331	-0.042
-570.661	-34.859	0.123	-0.068
-569.646	119.606	-0.045	-0.056
-568.631	-75.041	0.174	-0.063
-567.617	-175.330	-0.446	-0.012
-566.602	272.104	-0.171	-0.303
-565.588	-200.000	-0.039	-0.284
-564.573	-84.536	0.253	-0.081
-563.558	800.000	0.055	-0.240
-562.544	736.835	0.038	0.102
-561.529	-200.000	-0.048	0.254
-560.515	157.934	-0.217	0.303
-559.500	-13.602	0.374	0.244
-558.485	800.000	-0.133	-0.374
-557.471	48.880	0.263	0.249
-556.456	-36.540	-0.385	0.209
-555.442	-95.495	0.217	-0.059
-554.427	-41.284	-0.250	-0.130
-553.412	800.000	0.101	-0.413
-552.398	800.000	0.015	0.064
-551.383	-200.000	0.016	0.117
-550.369	54.102	-0.104	0.101
-549.354	-96.776	-0.244	-0.065
-548.339	-5.992	0.210	-0.145
-547.325	124.485	0.226	-0.287
-546.310	-45.517	-0.185	-0.092
-545.296	515.814	0.138	-0.324
-544.281	-45.143	0.086	-0.043
-543.266	800.000	0.005	0.019
-542.252	-81.708	0.145	0.048
-541.237	-88.100	0.134	0.040
-540.223	242.331	-0.112	-0.189
-539.208	79.620	-0.325	-0.351
-538.193	-127.487	0.404	-0.059
-537.179	-200.000	-0.001	0.212
-536.164	194.345	-0.185	0.282
-535.150	114.847	-0.070	-0.086
-534.135	140.556	0.149	0.199
-533.121	36.142	0.099	0.087
-532.106	314.056	0.155	0.293
-531.091	-137.828	0.246	0.028
-530.077	-73.543	0.067	-0.025
-529.062	-72.816	0.272	-0.101
-528.048	168.947	-0.263	0.378
-527.033	777.189	-0.133	0.364
-526.018	-27.772	-0.163	0.095
-525.004	-87.364	0.043	0.013
-523.989	-82.530	0.203	-0.066
-522.975	-137.141	0.175	-0.020
-521.960	26.562	-0.150	-0.126
-520.945	155.045	0.047	-0.065
-519.931	800.000	0.028	-0.081
-518.916	67.192	0.113	0.116
-517.902	-148.970	-0.322	0.026
-516.887	-32.009	0.044	-0.025
-515.872	800.000	-0.021	-0.076
-514.858	144.039	-0.130	-0.174
-513.843	-200.000	0.015	0.170
-512.829	-191.907	0.215	-0.002
-511.814	-41.769	0.158	0.081
-510.799	-78.294	-0.121	0.042
-509.785	-171.515	0.156	-0.005
-508.770	-73.032	-0.146	-0.054
-507.756	-141.384	0.169	0.017
-506.741	-81.003	0.274	-0.091
-505.726	590.486	0.061	0.151
-504.712	800.000	0.016	0.055
-503.697	-200.000	0.014	0.297
-502.683	513.279	-0.115	0.270
-501.668	-41.020	0.169	0.088
-500.653	-71.027	0.267	0.101
-499.639	42.945	-0.240	0.220
-498.624	4.588	0.204	-0.151
-497.610	-72.799	-0.233	-0.086
-496.595	-74.241	-0.446	0.162
-495.581	800.000	-0.110	-0.375
-494.566	-158.809	0.149	0.009
-493.551	-200.000	0.034	0.372
-492.537	756.274	0.047	0.128
-491.522	17.410	0.177	-0.141
-490.508	25.674	0.163	-0.136
-489.493	33.795	0.283	0.248
-488.478	-200.000	0.016	-0.240
-487.464	86.476	0.170	-0.188
-486.449	-200.000	0.014	0.173
-485.435	-156.216	0.225	0.014
-484.420	-200.000	0.009	0.276
-483.405	800.000	0.022	-0.086
-482.391	165.300	-0.214	0.304
-481.376	-200.000	-0.002	0.111
-480.362	171.066	-0.160	0.230
-479.347	47.775	-0.301	0.282
-478.332	-200.000	-0.011	-0.075
-477.318	-140.089	0.291	-0.031
-476.303	-200.000	0.088	-0.509
-475.289	-65.271	-0.205	-0.083
-474.274	-200.000	0.077	-0.527
-473.259	-54.682	-0.072	-0.033
-472.245	241.893	-0.146	-0.246
-471.230	-41.722	-0.390	0.201
-470.216	37.253	-0.315	0.280
-469.201	-48.808	-0.227	-0.109
-468.186	554.222	-0.048	0.116
-467.172	800.000	0.059	-0.251
-466.157	-200.000	-0.026	-0.166
-465.143	800.000	-0.113	-0.336
-464.128	-132.631	-0.581	-0.075
-463.113	-16.880	-0.096	-0.061
-462.099	800.000	-0.060	-0.194
-461.084	-5.472	-0.252	0.174
-460.070	13.510	-0.124	0.096
-459.055	-69.334	0.329	0.127
-458.040	800.000	0.047	-0.178
-457.026	392.183	0.057	-0.120
-456.011	282.853	-0.181	0.327
-454.997	800.000	-0.060	-0.214
-453.982	-1.258	0.141	0.100
-452.968	-86.559	-0.124	0.038
-451.953	41.477	-0.094	-0.085
-450.938	22.751	-0.363	-0.299
-449.924	528.487	0.058	0.138
-448.909	150.653	-0.118	0.161
-447.895	-152.283	-0.072	-0.005
-446.880	-200.000	0.008	0.263
-445.865	36.230	-0.197	-0.174
-444.851	608.594	-0.059	0.149
-443.836	-200.000	0.026	0.195
-442.822	172.011	0.207	-0.298
-441.807	203.224	0.061	0.094
-440.792	75.709	0.299	0.317
-439.778	-62.557	0.047	0.019
-438.763	-104.531	-0.246	-0.057
-437.749	800.000	-0.026	0.108
-436.734	-81.558	0.192	-0.063
-435.719	-56.194	-0.176	-0.079
-434.705	-109.712	-0.169	-0.036
-433.690	-38.819	-0.236	0.125
-432.676	-44.297	-0.062	0.031
-431.661	690.633	0.079	0.207
-430.646	408.030	0.155	0.329
-429.632	116.880	-0.209	0.257
-428.617	-27.170	0.056	-0.033
-427.603	-58.651	0.203	-0.088
-426.588	219.828	0.202	-0.324
-425.573	59.913	-0.361	-0.357
-424.559	392.557	-0.097	0.203
-423.544	352.453	0.008	-0.015
-422.530	526.673	-0.189	-0.447
-421.515	800.000	0.041	0.152
-420.500	-101.086	0.244	-0.060
-419.486	53.965	0.251	-0.242
-418.471	-145.204	-0.355	-0.032
-417.457	301.770	-0.150	-0.278
-416.442	800.000	0.020	-0.061
-415.428	-108.508	0.169	0.036
-414.413	-136.726	0.081	0.009
-413.398	50.237	0.287	0.271
-412.384	21.959	-0.064	0.052
-411.369	800.000	0.060	-0.233
-410.355	342.780	-0.060	0.117
-409.340	613.070	0.102	0.255
-408.325	-200.000	-0.006	0.126
-407.311	-200.000	-0.038	-0.248
-406.296	-53.907	0.171	-0.078
-405.282	-200.000	-0.065	0.292
-404.267	-200.000	-0.026	-0.144
-403.252	-131.457	-0.171	0.023
-402.238	-200.000	-0.057	-0.287
-401.223	-158.409	0.081	0.005
-400.209	-3.817	0.276	0.192
-399.194	-200.000	0.007	-0.346
-398.179	133.149	-0.316	-0.409
-397.165	-200.000	0.017	0.098
-396.150	-99.461	-0.306	0.077
-395.136	604.001	0.152	-0.378
-394.121	-200.000	0.007	0.191
-393.106	-63.990	0.208	0.085
-392.092	-50.410	0.162	0.077
-391.077	-8.989	0.058	0.039
-390.063	-115.004	-0.123	-0.023
-389.048	800.000	0.078	0.306
-388.033	598.213	0.077	0.192
-387.019	22.189	0.132	0.108
-386.004	159.382	0.160	0.224
-384.990	86.108	-0.183	-0.202
-383.975	356.449	0.193	-0.384
-382.960	-200.000	0.014	-0.219
-381.946	-40.821	0.178	0.092
-380.931	70.109	-0.052	0.054
-379.917	0.446	-0.147	0.105
-378.902	728.764	-0.026	0.068
-377.888	26.778	-0.059	0.050
-376.873	29.762	-0.193	0.164
-375.858	-200.000	-0.057	0.321
-374.844	-9.801	0.116	-0.078
-373.829	0.262	-0.053	-0.038
-372.815	-200.000	0.069	-0.338
-371.800	-13.733	0.200	-0.130
-370.785	-136.525	0.169	0.020
-369.771	68.107	0.184	-0.188
-368.756	19.247	-0.045	0.036
-367.742	-54.840	0.222	-0.100
-366.727	97.863	-0.232	-0.267
-365.712	-162.814	0.088	0.004
-364.698	-109.851	-0.189	-0.040
-363.683	71.700	-0.099	0.103
-362.669	-33.769	-0.284	-0.156
-361.654	-121.858	0.476	0.078
-360.639	800.000	0.107	-0.375
-359.625	115.702	0.193	-0.236
-358.610	76.063	0.070	-0.074
-357.596	-123.589	0.355	0.056
-356.581	533.710	0.067	-0.160
-355.566	800.000	0.050	-0.188
-354.552	561.967	0.055	0.132
-353.537	800.000	-0.068	-0.288
-352.523	800.000	0.068	-0.269
-351.508	-76.670	-0.532	-0.187
-350.493	800.000	0.054	-0.173
-349.479	115.649	-0.127	0.155
-348.464	362.538	-0.094	-0.188
-347.450	-200.000	-0.014	0.104
-346.435	88.487	-0.215	0.238
-345.420	-200.000	0.017	0.460
-344.406	-92.313	0.318	-0.090
-343.391	-200.000	0.008	-0.208
-342.377	326.466	-0.083	0.160
-341.362	-200.000	0.028	0.328
-340.348	800.000	-0.093	0.340
-339.333	75.879	0.122	0.129
-338.318	0.896	0.199	-0.143
-337.304	478.804	0.135	0.304
-336.289	800.000	0.039	0.163
-335.275	-200.000	-0.004	0.293
-334.260	556.213	-0.085	0.204
-333.245	-83.151	0.270	0.087
-332.231	-200.000	-0.026	-0.152
-331.216	305.313	-0.220	0.409
-330.202	-61.714	-0.135	0.056
-329.187	-14.320	0.181	0.116
-328.172	165.291	-0.052	-0.074
-327.158	-41.900	-0.394	0.202
-326.143	96.278	-0.146	-0.167
-325.129	-111.167	0.400	0.082
-324.114	106.971	-0.156	0.185
-323.099	-200.000	0.113	-0.529
-322.085	318.274	-0.074	0.139
-321.070	-49.993	-0.217	-0.103
-320.056	192.745	0.163	-0.246
-319.041	-200.000	0.005	-0.318
-318.026	47.287	0.109	-0.102
-317.012	-66.242	0.170	-0.068
-315.997	-117.766	-0.107	-0.019
-314.983	-51.279	-0.195	0.091
-313.968	-89.577	-0.210	0.061
-312.953	-200.000	0.040	0.308
-311.939	-200.000	0.031	0.244
-310.924	-62.797	0.177	-0.073
-309.910	800.000	-0.092	0.307
-308.895	-1.923	-0.126	0.088
-307.880	800.000	0.112	0.431
-306.866	-31.748	-0.046	0.026
-305.851	154.068	-0.083	0.113
-304.837	-118.880	0.167	0.029
-303.822	-46.253	0.132	0.065
-302.807	-16.265	0.450	0.285
-301.793	2.715	-0.184	-0.133
-300.778	126.516	-0.068	-0.086
-299.764	-151.852	-0.194	0.014
-298.749	-200.000	-0.011	0.158
-297.735	150.737	0.408	-0.553
-296.720	-111.710	0.374	-0.076
-295.705	3.948	0.085	0.062
-294.691	200.664	0.162	-0.248
-293.676	-24.355	0.213	-0.126
-292.662	68.268	-0.063	0.065
-291.647	800.000	0.093	0.267
-290.632	-21.332	0.077	-0.047
-289.618	-157.619	-0.078	-0.005
-288.603	122.804	0.229	-0.286
-287.589	127.094	-0.192	0.242
-286.574	-72.700	0.069	0.025
-285.559	-2.687	0.175	0.122
-284.545	211.830	-0.180	-0.283
-283.530	144.827	0.185	-0.247
-282.516	-137.124	0.167	0.019
-281.501	800.000	0.043	0.133
-280.486	443.593	0.095	-0.207
-279.472	130.007	-0.114	0.145
-278.457	-118.155	-0.332	-0.059
-277.443	-131.393	0.520	0.069
-276.428	-29.030	-0.364	-0.208
-275.413	-92.483	0.367	0.103
-274.399	128.732	-0.068	0.086
-273.384	625.746	0.056	0.141
-272.370	-26.935	0.208	0.121
-271.355	414.803	0.079	0.167
-270.340	-23.027	0.200	-0.120
-269.326	139.205	0.166	-0.217
-268.311	800.000	-0.120	0.361
-267.297	82.997	0.049	0.053
-266.282	203.616	-0.100	-0.153
-265.267	482.559	0.140	0.317
-264.253	-132.603	-0.082	0.011
-263.238	288.252	-0.122	-0.219
-262.224	-64.473	-0.223	0.090
-261.209	720.795	-0.019	-0.052
-260.195	-181.329	-0.256	0.005
-259.180	-11.825	0.089	0.058
-258.165	-200.000	0.038	-0.243
-257.151	800.000	0.040	0.163
-256.136	-200.000	-0.018	0.091
-255.122	-200.000	0.007	-0.244
-254.107	55.341	0.071	0.068
-253.092	-200.000	0.025	0.129
-252.078	-200.000	0.036	0.160
-251.063	-47.067	-0.098	0.047
-250.049	97.503	-0.312	-0.357
-249.034	186.311	-0.112	-0.165
-248.019	69.656	-0.083	-0.085
-247.005	209.578	0.123	0.192
-245.990	800.000	0.018	0.069
-244.976	39.120	0.150	0.134
-243.961	-132.223	0.189	-0.024
-242.946	800.000	0.054	-0.207
-241.932	148.818	0.090	0.122
-240.917	162.261	0.195	0.272
-239.903	-200.000	0.038	0.196
-238.888	-88.323	-0.101	0.030
-237.873	408.825	0.053	0.112
-236.859	800.000	-0.103	-0.293
-235.844	6.278	-0.105	-0.077
-234.830	-45.826	0.099	0.049
-233.815	-71.238	0.077	0.029
-232.800	-109.579	-0.036	-0.008
-231.786	-72.041	0.230	-0.085
-230.771	63.835	0.178	0.178
-229.757	-35.519	-0.133	0.072
-228.742	5.773	-0.016	0.012
-227.727	10.684	-0.260	0.197
-226.713	-27.919	-0.107	-0.062
-225.698	-179.096	0.127	-0.003
-224.684	-200.000	0.016	0.238
-223.669	-200.000	0.036	0.281
-222.655	800.000	-0.060	-0.198
-221.640	-66.028	-0.109	-0.043
-220.625	-33.634	0.216	-0.119
-219.611	171.589	0.111	-0.158
-218.596	800.000	0.080	0.306
-217.582	-117.979	-0.037	-0.007
-216.567	-200.000	-0.010	0.074
-215.552	-200.000	0.021	-0.202
-214.538	204.589	-0.103	-0.159
-213.523	152.627	0.104	0.141
-212.509	45.330	-0.128	0.117
-211.494	800.000	-0.013	-0.038
-210.479	686.223	0.034	0.087
-209.465	152.438	0.178	0.241
-208.450	-97.547	-0.187	0.048
-207.436	109.406	-0.136	0.162
-206.421	144.046	0.148	0.196
-205.406	128.476	-0.176	-0.223
-204.392	-116.172	-0.315	-0.058
-203.377	-98.691	0.137	0.035
-202.363	-200.000	0.048	-0.211
-201.348	800.000	-0.035	-0.136
-200.333	94.773	0.293	0.331
-199.319	122.638	-0.149	0.186
-198.304	-64.130	-0.026	0.011
-197.290	-100.525	-0.047	-0.011
-196.275	0.382	-0.066	-0.047
-195.260	-42.253	0.064	0.032
-194.246	-144.924	-0.234	-0.021
-193.231	59.617	0.299	0.293
-192.217	589.195	-0.111	-0.271
-191.202	41.639	-0.320	0.288
-190.187	-45.216	-0.348	0.172
-189.173	-190.433	-0.081	0.001
-188.158	-21.772	-0.130	-0.079
-187.144	-55.221	0.364	-0.162
-186.129	-200.000	-0.014	0.073
-185.114	131.058	-0.097	0.123
-184.100	-172.697	0.299	0.009
-183.085	-200.000	-0.029	-0.395
-182.071	-3.057	-0.226	0.157
-181.056	83.117	-0.206	0.223
-180.042	5.727	0.122	-0.090
-179.027	-200.000	-0.007	-0.137
-178.012	251.476	-0.072	-0.122
-176.998	-125.139	0.132	-0.020
-175.983	293.227	-0.071	0.129
-174.969	443.494	0.088	-0.191
-173.954	3.516	-0.199	-0.144
-172.939	-144.019	0.213	0.020
-171.925	319.190	-0.046	0.086
-170.910	-200.000	0.003	-0.027
-169.896	-200.000	0.017	0.390
-168.881	154.699	0.171	-0.234
-167.866	399.584	-0.117	-0.244
-166.852	800.000	0.078	-0.251
-165.837	-200.000	-0.007	-0.184
-164.823	56.563	0.165	0.159
-163.808	-5.482	0.226	-0.154
-162.793	539.073	-0.071	0.169
-161.779	-123.601	-0.103	0.016
-160.764	-133.727	0.239	0.030
-159.750	800.000	-0.012	0.043
-158.735	201.781	-0.213	0.326
-157.720	800.000	0.036	0.106
-156.706	-106.259	-0.253	0.056
-155.691	277.802	0.132	-0.233
-154.677	-129.134	0.163	-0.023
-153.662	-14.542	0.149	0.095
-152.647	387.775	-0.071	-0.146
-151.633	-200.000	-0.080	-0.448
-150.618	800.000	0.052	0.199
-149.604	-49.025	0.263	0.125
-148.589	-200.000	-0.040	-0.212
-147.574	-45.010	-0.124	-0.061
-146.560	365.377	-0.091	0.181
-145.545	-144.234	0.195	0.018
-144.531	-200.000	-0.045	0.265
-143.516	36.435	0.024	0.021
-142.502	-106.853	-0.311	-0.068
-141.487	-28.927	0.125	-0.071
-140.472	292.676	-0.086	-0.155
-139.458	373.117	0.069	-0.139
-138.443	-159.700	-0.285	-0.016
-137.429	-200.000	-0.033	-0.245
-136.414	163.242	0.204	-0.284
-135.399	-44.232	0.187	0.093
-134.385	-57.905	-0.208	-0.090
-133.370	210.255	0.081	0.125
-132.356	-36.981	-0.186	0.099
-131.341	465.353	-0.027	-0.061
-130.326	-94.085	-0.245	0.067
-129.312	27.065	-0.180	-0.149
-128.297	-138.320	0.133	0.015
-127.283	5.192	-0.437	-0.319
-126.268	-68.056	-0.147	0.057
-125.253	-144.076	-0.192	-0.018
-124.239	800.000	-0.054	-0.182
-123.224	10.521	0.203	-0.153
-122.210	175.309	0.126	0.181
-121.195	302.250	-0.125	0.230
