DTS Sentinel unit serial number:	SN413079Multiplexer serial number:	ORYXHardware model number:	OX4-SRSoftware version number:	ORYX F/W v4.00 Oryx Data Collector v3.7.2.0data status	okinstallation	princeton_trtdifferential loss correction	single-endedforward channel	channel 2reverse channel	N/Adate	2019/09/15time	20:27:35forward acquisition time	60.00reverse acquisition time	0.00gamma	496.2192k internal	0.2328k external	0.2328temperature offset calibration	0.9934default loss term (dB/km)	0.3790temperature slope calibration	1.0000multiplexer offset coefficient	1.0000multiplexer slope coefficient	1.0000fibre end	0.00T internal ref (°C)	33.62T ext. ref 1 (°C)	7.78T ext. ref 2 (°C)	25.28length (m)	temperature (°C)	Stokes	anti-Stokes-747.200	203.524	0.149	0.233
-746.185	12.427	0.090	-0.070
-745.171	-39.198	0.404	0.214
-744.156	344.751	0.108	0.214
-743.142	94.523	-0.036	0.042
-742.127	-200.000	0.076	0.563
-741.112	-91.452	0.217	0.062
-740.098	108.686	0.113	0.136
-739.083	58.477	0.175	0.173
-738.069	-200.000	-0.009	0.280
-737.054	-200.000	0.070	0.392
-736.039	-200.000	-0.003	0.352
-735.025	-92.024	0.285	0.081
-734.010	24.505	0.051	-0.043
-732.996	-96.774	0.524	-0.139
-731.981	-51.390	-0.161	0.076
-730.966	54.353	0.238	-0.231
-729.952	-200.000	-0.005	-0.230
-728.937	-141.399	-0.326	-0.033
-727.923	-61.393	-0.380	0.161
-726.908	-165.466	0.197	0.009
-725.894	-200.000	0.034	0.153
-724.879	-135.513	0.218	0.026
-723.864	-115.078	-0.179	0.034
-722.850	-83.957	0.108	0.035
-721.835	-141.242	-0.219	0.022
-720.821	2.062	-0.138	-0.101
-719.806	137.197	-0.043	0.057
-718.791	0.477	0.116	0.083
-717.777	-200.000	0.001	-0.078
-716.762	359.103	-0.068	-0.137
-715.748	-72.149	0.201	-0.075
-714.733	-84.878	-0.265	0.084
-713.718	-64.746	-0.064	-0.026
-712.704	272.952	0.066	-0.118
-711.689	-200.000	0.005	-0.135
-710.675	57.119	0.164	0.161
-709.660	-200.000	-0.006	0.042
-708.645	-4.784	-0.095	-0.066
-707.631	31.178	0.287	0.248
-706.616	20.002	0.015	0.012
-705.602	24.455	0.082	-0.068
-704.587	59.832	-0.099	-0.099
-703.572	-200.000	0.035	-0.296
-702.558	-200.000	0.062	0.313
-701.543	-200.000	-0.009	0.415
-700.529	-200.000	-0.004	0.296
-699.514	7.917	-0.123	0.092
-698.499	-139.381	0.184	0.020
-697.485	-200.000	0.045	-0.215
-696.470	209.493	-0.073	-0.115
-695.456	-94.482	-0.140	-0.038
-694.441	-200.000	-0.002	-0.008
-693.426	800.000	-0.018	0.078
-692.412	-6.275	-0.089	-0.061
-691.397	263.550	0.088	0.155
-690.383	-107.794	-0.201	0.044
-689.368	-200.000	0.002	-0.142
-688.354	-100.721	-0.018	-0.004
-687.339	-121.213	0.089	0.015
-686.324	800.000	-0.010	-0.032
-685.310	-122.239	0.063	0.010
-684.295	134.352	0.174	-0.227
-683.281	-80.984	-0.284	0.095
-682.266	-105.687	-0.176	0.040
-681.251	424.829	0.078	-0.168
-680.237	324.700	-0.204	-0.392
-679.222	-96.266	-0.526	-0.140
-678.208	124.260	-0.216	0.273
-677.193	159.135	-0.081	0.114
-676.178	-200.000	-0.013	0.205
-675.164	51.532	-0.068	-0.065
-674.149	-30.349	-0.052	-0.029
-673.135	351.670	0.168	-0.335
-672.120	-120.167	-0.265	-0.045
-671.105	-155.221	0.093	-0.006
-670.091	2.342	0.077	-0.056
-669.076	-200.000	-0.002	0.113
-668.062	-70.648	-0.131	0.050
-667.047	-200.000	0.020	-0.114
-666.032	340.145	0.105	-0.207
-665.018	-200.000	0.025	-0.344
-664.003	354.121	-0.111	0.221
-662.989	416.254	0.147	0.316
-661.974	-47.611	-0.238	0.116
-660.959	-165.516	0.105	-0.005
-659.945	-37.357	0.387	0.207
-658.930	-61.692	0.220	0.093
-657.916	800.000	0.041	-0.161
-656.901	-200.000	0.020	0.201
-655.886	-36.731	0.243	0.131
-654.872	24.619	-0.145	0.121
-653.857	-63.154	-0.227	-0.094
-652.843	-54.011	0.043	-0.020
-651.828	28.783	0.118	0.100
-650.814	-79.743	-0.384	-0.130
-649.799	224.443	0.178	-0.289
-648.784	-200.000	0.051	0.396
-647.770	103.609	0.225	-0.265
-646.755	-44.795	0.401	0.201
-645.741	-200.000	0.004	0.037
-644.726	-95.925	-0.188	0.050
-643.711	800.000	0.027	-0.096
-642.697	90.944	-0.082	-0.093
-641.682	197.679	-0.154	-0.236
-640.668	-85.055	-0.059	-0.019
-639.653	68.983	-0.045	-0.047
-638.638	460.951	-0.084	0.187
-637.624	-200.000	-0.070	-0.480
-636.609	15.867	-0.102	0.081
-635.595	50.143	-0.094	-0.089
-634.580	175.965	0.077	-0.112
-633.565	194.145	0.051	-0.078
-632.551	-47.636	0.198	-0.096
-631.536	-1.606	-0.149	-0.105
-630.522	-200.000	-0.006	0.050
-629.507	800.000	0.054	-0.197
-628.492	-41.874	-0.169	-0.087
-627.478	391.271	-0.182	-0.380
-626.463	-69.332	0.287	-0.111
-625.449	-147.260	-0.323	-0.028
-624.434	63.734	-0.157	0.158
-623.419	-29.323	-0.189	-0.109
-622.405	-200.000	0.008	-0.288
-621.390	-200.000	0.014	-0.206
-620.376	236.632	0.036	0.060
-619.361	-98.809	-0.211	-0.054
-618.346	800.000	-0.058	-0.244
-617.332	484.539	0.149	0.339
-616.317	800.000	-0.039	-0.129
-615.303	107.248	-0.100	-0.119
-614.288	-159.992	0.013	-0.001
-613.273	181.405	-0.061	-0.090
-612.259	-13.661	0.164	-0.106
-611.244	153.099	0.141	0.193
-610.230	-163.586	0.150	-0.007
-609.215	800.000	-0.089	-0.268
-608.201	35.433	0.288	0.253
-607.186	-137.127	-0.383	0.044
-606.171	-53.440	0.043	-0.020
-605.157	-112.596	-0.139	-0.028
-604.142	533.205	-0.078	-0.184
-603.128	373.798	0.025	-0.050
-602.113	-125.277	-0.026	-0.004
-601.098	78.438	-0.191	-0.204
-600.084	9.975	-0.155	-0.118
-599.069	-145.590	0.100	-0.009
-598.055	-108.320	0.064	0.014
-597.040	57.399	-0.106	0.104
-596.025	800.000	-0.039	0.153
-595.011	-200.000	0.060	0.333
-593.996	18.778	0.224	0.179
-592.982	-107.199	0.282	0.062
-591.967	21.516	0.087	0.071
-590.952	220.587	-0.215	-0.346
-589.938	139.452	-0.301	-0.397
-588.923	82.044	0.123	0.133
-587.909	-117.217	-0.199	-0.036
-586.894	800.000	0.061	0.173
-585.879	98.365	0.154	-0.178
-584.865	-200.000	-0.030	-0.231
-583.850	-121.571	0.309	-0.051
-582.836	144.306	0.212	-0.283
-581.821	284.499	-0.180	-0.324
-580.806	94.359	-0.249	-0.283
-579.792	14.552	0.155	0.121
-578.777	0.513	-0.043	0.031
-577.763	-200.000	-0.022	0.148
-576.748	-60.451	0.389	0.166
-575.733	-77.867	-0.179	-0.062
-574.719	194.571	-0.160	0.243
-573.704	800.000	0.070	0.280
-572.690	114.903	0.069	-0.084
-571.675	64.657	0.308	0.311
-570.661	-56.413	0.398	-0.177
-569.646	-134.005	0.102	-0.013
-568.631	-139.909	0.161	-0.017
-567.617	800.000	-0.010	0.036
-566.602	151.901	-0.095	0.130
-565.588	91.786	0.057	-0.064
-564.573	-19.245	0.126	0.078
-563.558	84.367	-0.148	0.162
-562.544	373.286	-0.049	0.101
-561.529	-94.870	0.354	0.096
-560.515	-200.000	0.035	-0.316
-559.500	-200.000	0.052	0.258
-558.485	68.893	-0.247	-0.253
-557.471	-33.016	-0.352	-0.196
-556.456	800.000	-0.073	-0.222
-555.442	668.252	-0.119	-0.309
-554.427	-39.556	-0.144	-0.075
-553.412	-200.000	0.011	-0.365
-552.398	-16.948	-0.132	-0.084
-551.383	-99.300	-0.235	-0.059
-550.369	-132.972	0.320	-0.041
-549.354	-37.951	0.212	0.113
-548.339	-110.280	0.231	0.048
-547.325	-200.000	0.018	0.081
-546.310	169.153	0.166	0.237
-545.296	800.000	0.090	-0.292
-544.281	188.598	-0.085	-0.127
-543.266	-33.402	0.258	-0.143
-542.252	800.000	-0.041	-0.117
-541.237	47.129	-0.152	-0.142
-540.223	46.343	0.195	-0.181
-539.208	-107.110	0.130	0.029
-538.193	93.378	-0.151	0.171
-537.179	387.085	0.105	-0.218
-536.164	-200.000	-0.003	-0.118
-535.150	10.373	-0.159	-0.121
-534.135	-200.000	-0.015	0.346
-533.121	-200.000	-0.003	0.061
-532.106	30.100	-0.043	0.036
-531.091	228.905	-0.102	0.165
-530.077	34.479	-0.318	-0.278
-529.062	24.868	0.119	0.098
-528.048	800.000	0.018	-0.057
-527.033	-200.000	0.010	-0.107
-526.018	-94.474	-0.020	-0.005
-525.004	303.815	0.090	-0.166
-523.989	133.609	0.340	0.439
-522.975	104.909	0.262	0.309
-521.960	42.873	-0.128	-0.117
-520.945	-2.873	0.235	-0.164
-519.931	-200.000	0.015	-0.172
-518.916	-200.000	0.048	0.388
-517.902	-200.000	0.020	0.313
-516.887	800.000	-0.095	-0.319
-515.872	41.634	-0.282	-0.255
-514.858	159.113	0.065	-0.090
-513.843	87.102	-0.234	-0.258
-512.829	-144.845	-0.401	0.037
-511.814	-200.000	-0.001	0.120
-510.799	800.000	-0.011	-0.044
-509.785	-12.556	0.008	-0.005
-508.770	-90.519	-0.130	0.038
-507.756	-56.240	-0.211	-0.094
-506.741	-200.000	-0.009	0.123
-505.726	-200.000	0.032	-0.438
-504.712	-200.000	-0.015	-0.288
-503.697	-42.096	0.070	0.036
-502.683	43.254	0.091	0.083
-501.668	-177.913	-0.190	-0.005
-500.653	89.430	-0.128	-0.143
-499.639	-200.000	-0.003	-0.112
-498.624	800.000	0.046	0.141
-497.610	294.176	-0.112	-0.205
-496.595	-141.211	0.442	-0.045
-495.581	-58.400	0.130	-0.056
-494.566	-200.000	0.026	0.204
-493.551	107.748	-0.064	-0.076
-492.537	293.813	-0.056	-0.101
-491.522	-200.000	-0.006	0.136
-490.508	791.065	0.058	-0.160
-489.493	66.188	0.075	-0.076
-488.478	-93.534	0.366	0.101
-487.464	-200.000	-0.033	0.346
-486.449	-141.782	-0.167	-0.017
-485.435	-90.132	-0.160	-0.046
-484.420	-157.889	0.300	0.018
-483.405	-85.933	-0.257	0.079
-482.391	-135.365	-0.158	0.019
-481.376	165.247	0.091	0.129
-480.362	88.163	0.226	0.250
-479.347	-105.596	-0.336	0.076
-478.332	-109.816	-0.257	0.054
-477.318	-77.976	-0.135	-0.047
-476.303	50.586	0.081	-0.076
-475.289	-28.883	0.133	0.076
-474.274	139.858	-0.208	-0.273
-473.259	-144.628	0.240	-0.022
-472.245	332.487	0.197	-0.380
-471.230	-200.000	0.091	0.406
-470.216	43.220	-0.146	-0.133
-469.201	-73.727	-0.176	0.064
-468.186	780.499	-0.021	0.058
-467.172	-200.000	0.046	-0.209
-466.157	-200.000	0.001	-0.045
-465.143	-158.143	-0.189	0.011
-464.128	435.088	0.066	-0.143
-463.113	-48.959	-0.197	-0.094
-462.099	445.769	-0.025	0.056
-461.084	-200.000	-0.026	-0.334
-460.070	-150.230	0.480	0.037
-459.055	-162.004	0.093	0.005
-458.040	-78.841	0.132	0.045
-457.026	-51.778	0.390	0.181
-456.011	-52.841	-0.168	-0.077
-454.997	311.044	-0.177	0.330
-453.982	119.091	-0.128	-0.157
-452.968	301.311	-0.212	0.390
-451.953	800.000	-0.128	0.412
-450.938	91.230	0.238	-0.266
-449.924	-44.377	0.184	-0.092
-448.909	-30.205	-0.006	0.003
-447.895	-66.201	-0.022	-0.009
-446.880	-200.000	-0.005	0.178
-445.865	-121.975	-0.417	-0.068
-444.851	174.005	0.239	0.343
-443.836	-57.459	0.206	0.090
-442.822	218.430	-0.148	-0.236
-441.807	-200.000	-0.001	-0.131
-440.792	-145.264	0.091	-0.008
-439.778	-200.000	-0.051	-0.262
-438.763	-54.188	-0.047	0.021
-437.749	-123.478	-0.239	0.038
-436.734	800.000	-0.056	-0.163
-435.719	-149.475	0.340	-0.027
-434.705	189.783	0.145	0.216
-433.690	-13.083	-0.180	-0.117
-432.676	647.284	-0.137	0.348
-431.661	-160.880	-0.118	-0.006
-430.646	-200.000	-0.023	0.115
-429.632	111.483	-0.069	0.083
-428.617	-200.000	-0.003	0.285
-427.603	-9.928	0.303	-0.200
-426.588	309.910	0.052	-0.097
-425.573	-96.041	-0.195	0.052
-424.559	328.456	-0.098	0.187
-423.544	-200.000	-0.021	-0.104
-422.530	518.955	0.040	0.094
-421.515	331.682	-0.106	-0.204
-420.500	18.248	0.129	-0.102
-419.486	-96.511	0.096	-0.025
-418.471	-112.786	0.230	0.045
-417.457	1.382	0.214	0.153
-416.442	158.891	0.044	0.061
-415.428	-92.580	0.154	-0.043
-414.413	-91.905	-0.262	0.074
-413.398	283.526	-0.103	0.184
-412.384	229.784	0.190	0.308
-411.369	138.293	0.107	-0.140
-410.355	-73.232	0.087	-0.032
-409.340	800.000	0.042	-0.136
-408.325	-51.164	0.184	-0.086
-407.311	-40.009	-0.171	0.089
-406.296	-2.574	-0.113	-0.079
-405.282	800.000	-0.034	-0.141
-404.267	-85.970	0.261	-0.080
-403.252	-99.201	-0.175	0.044
-402.238	322.368	-0.184	0.349
-401.223	120.785	0.059	-0.072
-400.209	374.053	-0.129	-0.262
-399.194	-126.348	-0.198	0.029
-398.179	-200.000	0.013	-0.133
-397.165	266.778	0.062	0.108
-396.150	-200.000	-0.007	0.183
-395.136	23.612	-0.108	-0.088
-394.121	39.127	0.106	-0.094
-393.106	-104.090	0.159	0.037
-392.092	-200.000	0.001	-0.154
-391.077	55.002	-0.153	-0.147
-390.063	154.115	0.170	0.232
-389.048	38.675	0.112	-0.100
-388.033	-23.865	0.203	0.121
-387.019	-126.279	0.396	0.059
-386.004	-200.000	-0.027	-0.149
-384.990	800.000	-0.064	0.184
-383.975	-200.000	0.003	0.155
-382.960	800.000	0.098	0.289
-381.946	-132.659	0.096	-0.012
-380.931	-21.815	-0.252	-0.152
-379.917	617.198	0.042	-0.105
-378.902	-15.802	-0.398	-0.252
-377.888	-200.000	-0.010	-0.145
-376.873	-132.069	0.238	0.031
-375.858	-35.130	-0.051	0.027
-374.844	-117.016	-0.189	-0.034
-373.829	61.637	0.275	-0.272
-372.815	239.602	-0.159	0.263
-371.800	-43.432	0.171	0.086
-370.785	-134.595	0.337	0.041
-369.771	120.925	0.175	0.216
-368.756	800.000	-0.013	0.040
-367.742	23.436	0.080	0.066
-366.727	259.569	-0.100	0.172
-365.712	-200.000	0.042	-0.198
-364.698	-105.959	-0.043	0.010
-363.683	-200.000	0.020	-0.197
-362.669	-65.852	-0.110	0.044
-361.654	-61.047	-0.177	-0.074
-360.639	-106.701	0.227	-0.050
-359.625	-200.000	-0.059	0.269
-358.610	-60.654	0.186	0.078
-357.596	102.433	-0.109	0.126
-356.581	98.212	0.108	0.124
-355.566	-34.053	0.247	0.135
-354.552	-200.000	-0.068	0.323
-353.537	650.201	0.103	0.261
-352.523	140.366	-0.295	0.387
-351.508	800.000	-0.077	-0.218
-350.493	-200.000	-0.027	-0.211
-349.479	153.608	-0.191	-0.260
-348.464	73.369	-0.165	-0.171
-347.450	-200.000	0.019	-0.304
-346.435	-200.000	0.015	0.094
-345.420	-51.403	-0.049	0.023
-344.406	-135.790	0.187	-0.022
-343.391	123.811	-0.146	0.182
-342.377	-129.903	0.173	-0.024
-341.362	10.482	0.073	0.055
-340.348	114.369	0.107	0.129
-339.333	-28.237	-0.199	-0.114
-338.318	-200.000	0.031	0.202
-337.304	-26.917	0.223	0.129
-336.289	-16.372	0.179	0.113
-335.275	-151.764	0.140	0.010
-334.260	800.000	-0.086	-0.366
-333.245	304.463	0.116	-0.213
-332.231	-200.000	0.016	-0.162
-331.216	-3.650	0.087	-0.060
-330.202	1.449	0.206	0.147
-329.187	-101.689	-0.260	-0.063
-328.172	-125.588	-0.370	-0.056
-327.158	-200.000	0.081	0.364
-326.143	-62.032	0.256	-0.106
-325.129	38.102	-0.134	-0.118
-324.114	-148.827	-0.202	0.016
-323.099	538.611	-0.183	-0.432
-322.085	-129.760	-0.464	-0.063
-321.070	208.262	-0.079	-0.122
-320.056	-11.382	0.234	0.153
-319.041	430.064	0.106	-0.226
-318.026	206.647	0.050	0.077
-317.012	800.000	-0.053	-0.190
-315.997	-89.365	0.250	-0.073
-314.983	-13.681	0.173	0.111
-313.968	107.458	0.136	0.160
-312.953	161.920	0.217	-0.301
-311.939	-29.526	-0.132	0.075
-310.924	800.000	0.142	0.413
-309.910	-1.474	-0.114	-0.080
-308.895	-98.969	-0.272	-0.068
-307.880	-3.105	-0.122	-0.084
-306.866	406.489	0.191	0.399
-305.851	334.811	0.028	-0.054
-304.837	605.125	0.062	0.153
-303.822	-51.744	0.098	-0.045
-302.807	403.662	-0.110	0.229
-301.793	-200.000	0.084	-0.525
-300.778	-73.915	-0.008	-0.003
-299.764	450.514	0.025	-0.055
-298.749	-173.226	-0.218	-0.007
-297.735	-200.000	-0.045	0.308
-296.720	508.263	-0.073	0.167
-295.705	800.000	-0.013	0.046
-294.691	59.778	0.173	-0.169
-293.676	176.620	-0.097	-0.139
-292.662	11.417	-0.227	-0.172
-291.647	28.868	-0.212	-0.178
-290.632	800.000	0.080	-0.279
-289.618	-42.377	0.394	-0.199
-288.603	-200.000	0.038	0.219
-287.589	229.225	0.095	0.153
-286.574	16.345	-0.398	0.311
-285.559	163.730	-0.230	0.320
-284.545	-96.074	-0.037	0.010
-283.530	-53.645	-0.098	0.044
-282.516	16.958	-0.156	-0.122
-281.501	163.042	0.021	0.029
-280.486	-108.359	0.321	-0.068
-279.472	-71.847	-0.382	-0.141
-278.457	-76.267	-0.163	0.057
-277.443	-11.748	0.193	0.125
-276.428	-98.613	-0.090	0.023
-275.413	-10.800	-0.194	-0.127
-274.399	-35.761	-0.175	0.094
-273.384	-105.314	0.305	-0.069
-272.370	800.000	0.092	0.255
-271.355	411.443	-0.092	0.193
-270.340	-98.974	0.153	-0.039
-269.326	202.763	0.169	0.259
-268.311	41.925	0.099	0.089
-267.297	-32.232	-0.205	0.113
-266.282	131.090	0.171	0.218
-265.267	800.000	-0.110	0.333
-264.253	121.659	-0.137	0.169
-263.238	-129.303	-0.344	-0.047
-262.224	-158.146	0.316	-0.018
-261.209	-21.339	0.464	0.280
-260.195	800.000	-0.029	0.112
-259.180	-200.000	0.040	0.242
-258.165	436.504	0.059	0.127
-257.151	347.476	-0.077	0.151
-256.136	3.734	-0.198	-0.143
-255.122	-200.000	-0.016	0.150
-254.107	141.377	-0.116	0.151
-253.092	217.570	0.127	0.200
-252.078	-200.000	-0.033	0.375
-251.063	90.987	-0.150	0.167
-250.049	38.082	-0.175	0.154
-249.034	106.436	0.151	0.177
-248.019	91.961	0.186	-0.206
-247.005	800.000	0.040	-0.126
-245.990	-147.138	-0.189	0.016
-244.976	800.000	-0.154	0.426
-243.961	-28.145	0.076	-0.043
-242.946	91.974	-0.149	0.166
-241.932	-24.622	-0.106	-0.063
-240.917	22.669	-0.104	-0.084
-239.903	-120.210	0.284	0.048
-238.888	-104.669	-0.197	0.045
-237.873	-162.625	0.163	-0.008
-236.859	-41.240	0.324	-0.165
-235.844	800.000	-0.047	-0.184
-234.830	349.254	0.159	-0.310
-233.815	800.000	-0.022	0.088
-232.800	-20.139	-0.230	-0.140
-231.786	-70.186	0.267	0.100
-230.771	-200.000	-0.015	-0.072
-229.757	-22.469	-0.257	-0.153
-228.742	162.352	-0.053	0.074
-227.727	-200.000	0.008	-0.204
-226.713	-1.166	0.129	-0.090
-225.698	-200.000	0.019	-0.146
-224.684	800.000	-0.092	-0.377
-223.669	-2.280	0.022	0.015
-222.655	800.000	0.099	-0.300
-221.640	89.452	0.015	-0.017
-220.625	-40.603	-0.184	0.094
-219.611	128.377	0.118	0.148
-218.596	-28.995	-0.198	0.112
-217.582	800.000	-0.066	0.190
-216.567	-136.326	-0.118	-0.014
-215.552	230.148	0.021	0.034
-214.538	496.834	-0.108	-0.245
-213.523	68.462	-0.032	0.032
-212.509	-60.159	-0.331	0.139
-211.494	-200.000	0.038	0.249
-210.479	51.054	0.080	-0.075
-209.465	-200.000	-0.019	0.142
-208.450	53.410	0.140	-0.132
-207.436	-97.677	-0.190	0.049
-206.421	-124.976	-0.346	0.053
-205.406	294.793	-0.220	0.398
-204.392	800.000	-0.037	0.115
-203.377	-14.551	-0.163	0.104
-202.363	4.755	-0.197	0.143
-201.348	-146.775	0.072	-0.006
-200.333	-200.000	0.003	0.163
-199.319	-76.723	0.168	0.058
-198.304	149.310	-0.057	0.077
-197.290	412.231	-0.069	0.146
-196.275	-81.470	0.284	0.092
-195.260	145.609	0.104	0.138
-194.246	-137.096	-0.233	-0.026
-193.231	800.000	0.072	-0.205
-192.217	-30.291	0.161	-0.090
-191.202	-116.823	-0.141	-0.025
-190.187	-152.852	-0.282	-0.020
-189.173	-200.000	0.004	-0.321
-188.158	0.160	0.174	0.122
-187.144	-200.000	-0.007	0.042
-186.129	800.000	-0.116	-0.344
-185.114	-118.348	0.196	-0.034
-184.100	109.009	0.144	-0.169
-183.085	120.136	0.072	0.087
-182.071	-200.000	0.032	0.153
-181.056	95.310	0.128	0.144
-180.042	-109.691	-0.129	0.027
-179.027	111.775	-0.077	-0.092
-178.012	-119.499	-0.250	-0.043
-176.998	800.000	0.048	0.196
-175.983	800.000	-0.051	0.156
-174.969	74.162	0.058	-0.060
-173.954	-200.000	-0.052	-0.351
-172.939	-200.000	-0.013	-0.158
-171.925	56.447	-0.184	0.177
-170.910	-69.201	0.275	-0.104
-169.896	47.528	-0.192	-0.177
-168.881	447.334	-0.061	0.131
-167.866	-2.667	0.072	0.050
-166.852	800.000	0.071	-0.201
-165.837	-200.000	-0.110	-0.000
-164.823	-200.000	-0.028	-0.140
-163.808	-146.421	0.141	-0.012
-162.793	-83.873	-0.245	0.077
-161.779	-200.000	0.007	0.095
-160.764	17.319	0.203	0.159
-159.750	-200.000	-0.064	0.397
-158.735	204.345	0.073	0.112
-157.720	-200.000	0.050	-0.237
-156.706	-22.214	0.059	0.035
-155.691	54.130	0.204	0.193
-154.677	800.000	0.094	0.273
-153.662	-49.061	0.274	0.129
-152.647	-200.000	0.005	-0.086
-151.633	-8.605	-0.107	-0.070
-150.618	-200.000	-0.006	-0.385
-149.604	142.238	-0.155	0.202
-148.589	39.850	0.030	0.026
-147.574	135.650	-0.241	0.309
-146.560	-200.000	0.003	-0.193
-145.545	332.677	0.090	0.172
-144.531	-7.337	-0.166	-0.111
-143.516	-200.000	-0.023	0.302
-142.502	-1.091	0.111	-0.077
-141.487	79.075	-0.192	0.202
-140.472	377.100	0.094	-0.188
-139.458	-132.830	-0.282	-0.035
-138.443	71.450	0.272	-0.278
-137.429	27.356	-0.219	-0.181
-136.414	-122.644	0.062	0.010
-135.399	800.000	-0.046	-0.155
-134.385	-15.365	-0.205	0.129
-133.370	441.101	0.144	0.311
-132.356	800.000	0.037	-0.149
-131.341	-100.048	-0.021	0.005
-130.326	-200.000	0.032	-0.215
-129.312	0.021	0.109	0.076
-128.297	-118.257	-0.198	0.035
-127.283	-130.856	0.308	-0.041
-126.268	-81.207	0.294	-0.096
-125.253	153.340	0.099	0.133
-124.239	-6.054	0.189	-0.127
-123.224	-75.377	0.118	-0.041
-122.210	292.227	-0.071	-0.127
-121.195	800.000	0.035	-0.118
