DTS Sentinel unit serial number:	SN413079Multiplexer serial number:	ORYXHardware model number:	OX4-SRSoftware version number:	ORYX F/W v4.00 Oryx Data Collector v3.7.2.0data status	okinstallation	princeton_trtdifferential loss correction	single-endedforward channel	channel 2reverse channel	N/Adate	2019/09/15time	13:55:35forward acquisition time	60.00reverse acquisition time	0.00gamma	496.2192k internal	0.2303k external	0.2303temperature offset calibration	0.9995default loss term (dB/km)	0.3790temperature slope calibration	1.0000multiplexer offset coefficient	1.0000multiplexer slope coefficient	1.0000fibre end	0.00T internal ref (°C)	38.31T ext. ref 1 (°C)	4.97T ext. ref 2 (°C)	34.99length (m)	temperature (°C)	Stokes	anti-Stokes-747.200	-65.967	-0.336	-0.137
-746.185	-10.216	0.275	0.186
-745.171	100.906	-0.071	-0.084
-744.156	-200.000	0.031	0.279
-743.142	-200.000	0.028	-0.147
-742.127	-200.000	0.024	-0.147
-741.112	561.526	-0.099	-0.244
-740.098	178.055	0.235	0.349
-739.083	-200.000	0.046	0.225
-738.069	452.049	-0.224	0.504
-737.054	-200.000	0.072	0.492
-736.039	216.194	-0.105	-0.171
-735.025	333.236	0.080	0.158
-734.010	521.129	-0.146	-0.350
-732.996	57.510	-0.129	-0.128
-731.981	-125.512	0.283	0.044
-730.966	-126.144	-0.203	0.031
-729.952	-200.000	0.072	-0.335
-728.937	-22.429	-0.274	0.169
-727.923	-20.711	-0.036	0.023
-726.908	-157.575	0.120	-0.007
-725.894	118.768	-0.209	-0.263
-724.879	-97.728	0.201	-0.053
-723.864	800.000	0.067	-0.278
-722.850	800.000	0.096	-0.317
-721.835	405.634	0.105	-0.226
-720.821	800.000	0.078	-0.319
-719.806	-121.332	0.200	-0.034
-718.791	163.585	0.185	0.265
-717.777	-87.073	-0.240	0.074
-716.762	128.434	0.065	0.085
-715.748	-176.015	0.258	-0.007
-714.733	422.424	-0.140	0.307
-713.718	677.429	-0.079	0.208
-712.704	-200.000	-0.038	-0.177
-711.689	-200.000	-0.003	0.096
-710.675	-200.000	0.011	-0.134
-709.660	243.087	-0.346	0.589
-708.645	41.949	0.038	0.035
-707.631	93.508	0.124	-0.143
-706.616	-129.119	0.388	0.055
-705.602	-68.551	0.318	-0.126
-704.587	-44.021	-0.207	-0.106
-703.572	2.031	-0.243	-0.178
-702.558	361.589	-0.093	-0.191
-701.543	146.369	-0.105	-0.143
-700.529	260.298	0.089	-0.156
-699.514	489.318	0.163	-0.378
-698.499	-73.879	-0.474	-0.175
-697.485	-49.310	-0.313	0.152
-696.470	-65.326	0.355	0.145
-695.456	-80.690	0.097	0.033
-694.441	800.000	-0.047	-0.185
-693.426	105.424	-0.149	0.180
-692.412	372.804	0.089	0.185
-691.397	-88.308	-0.115	0.035
-690.383	-200.000	0.007	0.191
-689.368	69.493	-0.383	0.401
-688.354	800.000	0.073	0.207
-687.339	800.000	-0.019	-0.059
-686.324	-73.609	0.234	-0.087
-685.310	-120.207	-0.139	-0.024
-684.295	366.549	0.150	0.309
-683.281	-102.507	-0.342	-0.083
-682.266	-153.140	0.226	0.016
-681.251	19.511	-0.140	0.114
-680.237	202.412	-0.108	-0.169
-679.222	-74.440	-0.205	-0.075
-678.208	800.000	-0.063	0.261
-677.193	-26.729	-0.067	0.040
-676.178	-200.000	-0.050	-0.293
-675.164	60.830	0.202	0.203
-674.149	47.010	-0.209	-0.197
-673.135	-200.000	-0.012	-0.157
-672.120	563.135	0.099	0.242
-671.105	35.705	0.233	0.208
-670.091	-8.956	0.154	-0.105
-669.076	-35.286	-0.081	0.045
-668.062	-105.539	-0.128	-0.029
-667.047	-114.347	0.350	-0.069
-666.032	198.025	-0.104	-0.161
-665.018	-168.549	0.268	-0.010
-664.003	75.551	-0.155	0.167
-662.989	-142.763	-0.346	0.034
-661.974	0.038	0.077	-0.056
-660.959	-125.656	0.244	-0.038
-659.945	-200.000	-0.003	-0.190
-658.930	676.189	0.082	0.215
-657.916	228.238	0.106	-0.176
-656.901	56.481	-0.110	-0.109
-655.886	-99.877	-0.116	-0.029
-654.872	52.948	0.241	0.234
-653.857	-108.000	-0.257	-0.057
-652.843	189.889	0.026	0.039
-651.828	-76.697	0.220	-0.078
-650.814	42.742	0.225	0.208
-649.799	-105.927	-0.262	-0.060
-648.784	800.000	-0.094	0.326
-647.770	-75.299	0.059	0.021
-646.755	-121.481	0.247	0.042
-645.741	-142.477	0.144	0.014
-644.726	-136.627	-0.393	0.046
-643.711	-59.567	0.469	-0.204
-642.697	101.035	0.151	-0.179
-641.682	-82.272	0.108	0.036
-640.668	-130.693	-0.243	-0.033
-639.653	52.593	-0.064	-0.062
-638.638	89.766	0.102	-0.116
-637.624	55.249	0.280	0.274
-636.609	-147.936	0.114	-0.010
-635.595	63.955	0.497	-0.507
-634.580	187.982	0.101	0.154
-633.565	98.324	-0.035	0.041
-632.551	800.000	-0.037	0.146
-631.536	654.221	-0.156	-0.407
-630.522	75.819	-0.316	-0.339
-629.507	-187.521	-0.346	0.005
-628.492	800.000	0.055	0.166
-627.478	619.637	-0.041	-0.104
-626.463	119.237	0.234	-0.294
-625.449	800.000	-0.102	-0.441
-624.434	153.802	0.164	0.228
-623.419	3.131	-0.109	0.080
-622.405	-200.000	0.026	-0.206
-621.390	10.533	0.134	-0.104
-620.376	-14.576	-0.090	-0.059
-619.361	-151.255	0.169	-0.013
-618.346	182.675	-0.138	-0.207
-617.332	-66.637	-0.301	-0.121
-616.317	-33.724	0.094	-0.053
-615.303	-10.413	0.121	-0.081
-614.288	207.922	-0.112	-0.177
-613.273	356.374	0.023	-0.047
-612.259	-45.394	-0.132	0.066
-611.244	181.029	0.045	0.067
-610.230	355.064	0.129	-0.260
-609.215	-16.778	-0.160	0.102
-608.201	-130.239	0.255	-0.035
-607.186	28.706	-0.207	-0.178
-606.171	800.000	-0.019	-0.061
-605.157	192.803	0.165	-0.253
-604.142	221.079	-0.054	-0.088
-603.128	-42.419	-0.186	-0.096
-602.113	354.803	-0.106	-0.213
-601.098	-87.058	-0.204	-0.063
-600.084	-200.000	0.008	0.142
-599.069	-57.096	0.321	-0.143
-598.055	9.577	-0.051	-0.039
-597.040	-192.976	-0.123	0.001
-596.025	2.959	-0.167	-0.123
-595.011	-7.112	-0.420	0.288
-593.996	545.317	-0.191	0.462
-592.982	-80.422	0.361	0.122
-591.967	-154.708	0.294	0.020
-590.952	286.528	-0.123	0.225
-589.938	-22.485	-0.153	-0.094
-588.923	-0.301	-0.144	-0.103
-587.909	655.891	0.203	-0.529
-586.894	353.666	0.088	0.178
-585.879	-28.648	-0.061	0.035
-584.865	84.224	0.270	0.299
-583.850	-200.000	-0.053	0.305
-582.836	-200.000	0.035	0.361
-581.821	-200.000	0.001	0.152
-580.806	507.538	-0.087	-0.203
-579.792	800.000	0.056	-0.223
-578.777	-148.809	-0.015	-0.001
-577.763	-200.000	0.009	0.070
-576.748	-45.356	-0.047	0.024
-575.733	-153.146	-0.439	-0.031
-574.719	227.617	0.058	-0.095
-573.704	424.864	0.092	-0.201
-572.690	32.449	-0.127	-0.111
-571.675	89.262	-0.102	-0.115
-570.661	-200.000	0.044	-0.349
-569.646	-155.744	-0.305	-0.020
-568.631	800.000	0.171	-0.495
-567.617	63.213	-0.176	-0.178
-566.602	-31.332	0.577	-0.328
-565.588	-98.787	0.214	-0.055
-564.573	-200.000	0.019	0.166
-563.558	-122.181	0.106	0.018
-562.544	45.133	-0.143	-0.134
-561.529	-200.000	0.013	0.372
-560.515	800.000	-0.083	0.282
-559.500	-200.000	-0.010	-0.224
-558.485	164.404	-0.323	-0.460
-557.471	-200.000	0.058	0.313
-556.456	-138.208	0.163	-0.018
-555.442	-21.853	0.513	0.315
-554.427	-44.623	-0.072	-0.036
-553.412	336.586	-0.093	-0.182
-552.398	-200.000	-0.017	-0.285
-551.383	-115.487	0.049	-0.009
-550.369	-200.000	-0.073	-0.330
-549.354	-200.000	-0.029	-0.172
-548.339	600.488	0.200	0.503
-547.325	800.000	0.027	-0.109
-546.310	505.637	0.086	-0.201
-545.296	-200.000	-0.009	-0.263
-544.281	268.060	0.109	0.192
-543.266	800.000	0.130	0.416
-542.252	149.752	-0.115	0.158
-541.237	786.178	-0.037	0.103
-540.223	34.538	0.045	0.040
-539.208	85.391	-0.137	-0.153
-538.193	-108.067	-0.205	-0.045
-537.179	-58.792	-0.500	0.219
-536.164	-2.594	0.071	-0.051
-535.150	-151.725	-0.277	-0.021
-534.135	43.980	-0.155	-0.144
-533.121	2.490	0.245	-0.180
-532.106	-200.000	0.030	0.152
-531.091	-20.719	-0.120	-0.074
-530.077	418.005	-0.059	-0.126
-529.062	3.898	0.107	0.079
-528.048	-93.939	0.152	0.042
-527.033	-112.070	-0.107	0.022
-526.018	-43.834	-0.468	0.238
-525.004	800.000	0.068	0.233
-523.989	34.176	0.169	-0.149
-522.975	-200.000	0.059	0.304
-521.960	130.259	0.164	0.212
-520.945	3.009	-0.375	0.275
-519.931	76.881	-0.150	0.160
-518.916	129.862	0.135	0.174
-517.902	119.638	-0.109	-0.136
-516.887	-67.206	-0.347	-0.138
-515.872	-105.472	0.086	0.020
-514.858	130.026	0.162	0.209
-513.843	-73.156	-0.094	-0.035
-512.829	235.510	0.215	0.358
-511.814	-89.652	0.028	-0.008
-510.799	311.378	-0.195	-0.369
-509.785	-200.000	0.078	-0.391
-508.770	-200.000	-0.014	0.456
-507.756	286.290	-0.106	0.193
-506.741	-108.728	0.216	0.047
-505.726	-91.534	-0.147	0.042
-504.712	138.746	0.143	-0.189
-503.697	-128.712	-0.344	-0.049
-502.683	-95.587	-0.105	0.028
-501.668	-142.718	-0.373	0.037
-500.653	-73.800	-0.173	-0.063
-499.639	-81.146	0.221	-0.074
-498.624	336.191	0.069	-0.135
-497.610	110.509	0.196	0.238
-496.595	-200.000	-0.020	0.208
-495.581	215.840	0.099	-0.158
-494.566	-85.675	0.123	-0.039
-493.551	346.155	-0.038	-0.075
-492.537	-200.000	0.011	0.112
-491.522	-110.613	0.281	0.059
-490.508	357.800	-0.093	-0.188
-489.493	11.257	-0.043	-0.033
-488.478	317.824	-0.055	0.104
-487.464	-200.000	0.021	-0.339
-486.449	462.506	-0.141	-0.318
-485.435	232.396	-0.054	-0.089
-484.420	144.017	-0.074	-0.099
-483.405	-55.098	-0.321	0.146
-482.391	-129.480	-0.441	0.062
-481.376	111.890	0.031	0.038
-480.362	-73.884	0.124	0.045
-479.347	-151.129	0.118	-0.009
-478.332	800.000	0.142	-0.481
-477.318	-200.000	-0.042	-0.268
-476.303	227.153	-0.054	0.088
-475.289	-83.322	-0.058	-0.019
-474.274	-106.731	0.039	0.009
-473.259	-64.112	-0.200	0.082
-472.245	122.237	-0.094	-0.118
-471.230	38.440	-0.152	0.137
-470.216	-200.000	0.002	0.026
-469.201	-155.977	0.214	-0.014
-468.186	507.557	-0.048	-0.113
-467.172	-108.935	-0.109	-0.023
-466.157	-63.684	-0.266	0.110
-465.143	69.517	0.041	0.042
-464.128	-56.150	-0.092	-0.041
-463.113	-106.118	-0.110	0.025
-462.099	-83.458	0.354	-0.114
-461.084	-147.417	-0.095	0.008
-460.070	-200.000	0.015	-0.119
-459.055	800.000	-0.073	0.219
-458.040	235.374	0.156	0.260
-457.026	721.890	0.055	0.148
-456.011	-3.269	-0.083	-0.058
-454.997	352.774	-0.128	0.256
-453.982	83.820	0.035	0.038
-452.968	-200.000	-0.004	0.179
-451.953	189.338	-0.149	-0.224
-450.938	69.878	-0.091	0.095
-449.924	-41.282	-0.350	-0.182
-448.909	800.000	-0.068	0.224
-447.895	-200.000	-0.051	0.255
-446.880	-197.732	-0.256	0.002
-445.865	-73.073	0.109	0.040
-444.851	-92.403	-0.168	-0.048
-443.836	-6.898	0.153	-0.105
-442.822	-132.027	0.141	-0.018
-441.807	800.000	-0.124	-0.424
-440.792	83.275	-0.075	-0.082
-439.778	68.747	0.046	0.048
-438.763	-87.207	0.187	0.057
-437.749	-200.000	-0.168	0.001
-436.734	-53.853	0.255	0.117
-435.719	-132.653	0.225	0.029
-434.705	800.000	0.041	-0.116
-433.690	-127.668	-0.232	0.034
-432.676	-7.335	0.212	0.145
-431.661	-45.095	0.321	0.161
-430.646	780.219	-0.044	0.120
-429.632	-33.215	0.166	0.092
-428.617	-42.951	-0.145	-0.074
-427.603	-128.258	0.083	0.012
-426.588	80.163	-0.151	0.163
-425.573	800.000	0.010	-0.042
-424.559	-35.957	0.223	0.121
-423.544	-200.000	0.043	-0.475
-422.530	-200.000	0.029	-0.191
-421.515	-71.849	0.156	-0.058
-420.500	-200.000	-0.001	-0.095
-419.486	-20.141	0.158	-0.098
-418.471	-69.096	0.022	0.009
-417.457	-100.389	0.491	-0.122
-416.442	800.000	-0.039	-0.132
-415.428	185.495	-0.049	-0.073
-414.413	-27.747	0.103	-0.060
-413.398	84.773	0.170	0.187
-412.384	800.000	0.096	0.321
-411.369	-18.307	-0.104	0.065
-410.355	-200.000	0.008	-0.303
-409.340	-121.845	-0.277	0.046
-408.325	-4.001	0.083	0.058
-407.311	800.000	0.081	-0.230
-406.296	-72.352	0.107	-0.040
-405.282	71.965	0.020	-0.021
-404.267	-38.405	-0.283	0.151
-403.252	101.331	0.187	-0.219
-402.238	545.505	0.104	0.249
-401.223	114.994	-0.169	-0.208
-400.209	-168.604	-0.122	-0.005
-399.194	-43.512	0.282	0.143
-398.179	50.650	-0.256	0.244
-397.165	85.403	-0.136	0.150
-396.150	224.224	0.228	0.370
-395.136	-159.741	-0.182	-0.010
-394.121	25.316	-0.188	-0.157
-393.106	-0.085	0.247	-0.177
-392.092	-122.660	-0.504	-0.082
-391.077	800.000	0.107	-0.376
-390.063	-76.176	-0.166	0.059
-389.048	267.451	0.123	-0.216
-388.033	583.387	0.133	0.328
-387.019	-200.000	0.026	-0.121
-386.004	-200.000	-0.020	0.401
-384.990	-27.170	0.027	-0.016
-383.975	800.000	-0.045	-0.182
-382.960	-65.631	0.157	0.063
-381.946	-127.964	0.159	-0.023
-380.931	-200.000	-0.010	0.244
-379.917	145.178	-0.035	0.047
-378.902	305.424	0.069	-0.130
-377.888	216.065	0.091	-0.146
-376.873	673.171	-0.064	-0.166
-375.858	362.731	0.036	-0.073
-374.844	-109.920	0.104	0.022
-373.829	-91.479	-0.313	-0.090
-372.815	-41.845	0.201	0.104
-371.800	68.645	-0.210	0.217
-370.785	-153.788	0.265	-0.018
-369.771	-185.434	-0.236	-0.004
-368.756	197.879	-0.045	-0.070
-367.742	-200.000	0.048	-0.219
-366.727	-82.083	-0.054	0.018
-365.712	10.502	-0.086	-0.066
-364.698	-118.993	0.082	0.014
-363.683	522.840	0.087	0.204
-362.669	-29.955	-0.103	0.059
-361.654	-66.710	0.051	-0.020
-360.639	-83.246	-0.115	-0.037
-359.625	-200.000	0.008	-0.079
-358.610	-84.766	-0.125	-0.039
-357.596	-81.327	-0.328	0.109
-356.581	-70.246	-0.104	0.040
-355.566	800.000	0.060	0.245
-354.552	-200.000	-0.211	-0.000
-353.537	-84.319	0.099	0.031
-352.523	554.093	0.064	0.155
-351.508	-19.861	0.049	-0.030
-350.493	-200.000	0.002	0.121
-349.479	66.064	0.093	-0.094
-348.464	-34.989	0.268	0.147
-347.450	13.293	0.243	0.189
-346.435	-200.000	-0.063	-0.304
-345.420	194.531	0.103	0.157
-344.406	-2.650	0.150	0.105
-343.391	-107.826	0.454	0.099
-342.377	368.980	-0.063	-0.127
-341.362	19.440	-0.181	0.146
-340.348	-200.000	-0.028	-0.195
-339.333	-200.000	0.006	0.044
-338.318	3.429	-0.265	0.194
-337.304	-134.664	-0.148	0.018
-336.289	-72.468	-0.210	-0.078
-335.275	17.533	0.251	0.200
-334.260	-128.952	-0.124	-0.017
-333.245	-113.063	-0.144	0.029
-332.231	288.404	0.057	-0.104
-331.216	800.000	-0.135	-0.422
-330.202	800.000	0.028	-0.109
-329.187	-113.058	-0.241	-0.048
-328.172	110.557	-0.071	0.085
-327.158	589.152	-0.099	0.245
-326.143	-3.205	0.212	-0.148
-325.129	311.167	0.123	-0.232
-324.114	61.341	0.101	0.100
-323.099	6.029	-0.239	-0.177
-322.085	-80.124	-0.274	0.092
-321.070	-85.574	0.270	0.084
-320.056	264.840	-0.053	0.092
-319.041	-50.119	0.103	-0.049
-318.026	-200.000	0.087	0.588
-317.012	-25.109	-0.193	-0.115
-315.997	14.218	0.125	-0.098
-314.983	-68.252	-0.142	-0.055
-313.968	-200.000	0.004	0.143
-312.953	-103.756	-0.119	0.028
-311.939	-156.445	-0.195	-0.012
-310.924	97.444	0.204	0.235
-309.910	72.923	0.271	0.283
-308.895	-37.358	-0.076	-0.041
-307.880	181.330	0.076	0.112
-306.866	-159.415	-0.205	-0.011
-305.851	229.526	-0.127	-0.208
-304.837	-200.000	-0.009	-0.152
-303.822	421.252	-0.113	0.243
-302.807	379.435	-0.089	-0.183
-301.793	800.000	0.197	0.600
-300.778	202.547	0.049	0.076
-299.764	2.347	0.207	-0.150
-298.749	-4.374	0.146	0.101
-297.735	-200.000	-0.023	-0.187
-296.720	-200.000	-0.047	-0.360
-295.705	-129.645	0.239	-0.033
-294.691	652.542	-0.119	0.305
-293.676	-113.955	-0.377	0.073
-292.662	-200.000	-0.030	-0.293
-291.647	105.378	-0.115	0.136
-290.632	19.927	0.090	-0.072
-289.618	-77.174	-0.300	0.105
-288.603	142.887	0.235	-0.313
-287.589	-89.929	0.227	-0.066
-286.574	-200.000	0.006	-0.122
-285.559	-150.781	-0.435	-0.033
-284.545	160.836	0.224	0.313
-283.530	780.585	0.056	-0.153
-282.516	-74.587	-0.306	-0.110
-281.501	800.000	0.031	0.096
-280.486	-78.189	-0.256	0.088
-279.472	-138.334	-0.208	-0.023
-278.457	800.000	-0.027	0.110
-277.443	-200.000	-0.014	-0.185
-276.428	-5.009	-0.090	0.062
-275.413	800.000	-0.053	-0.204
-274.399	-71.934	0.120	-0.045
-273.384	7.540	-0.182	-0.136
-272.370	33.804	-0.164	0.143
-271.355	-200.000	0.038	0.207
-270.340	426.229	0.105	-0.226
-269.326	-77.083	-0.182	0.064
-268.311	31.645	-0.071	0.061
-267.297	-33.569	0.248	0.137
-266.282	-200.000	0.030	0.259
-265.267	-121.491	0.104	-0.017
-264.253	709.426	-0.150	-0.398
-263.238	23.033	-0.131	-0.107
-262.224	-173.986	-0.441	-0.013
-261.209	800.000	-0.013	0.041
-260.195	340.997	-0.151	-0.294
-259.180	-3.100	-0.057	-0.039
-258.165	586.332	0.103	0.253
-257.151	800.000	-0.056	-0.211
-256.136	88.921	0.061	-0.068
-255.122	154.693	0.121	0.166
-254.107	-76.399	0.118	0.041
-253.092	607.781	0.147	-0.366
-252.078	-72.105	-0.060	0.022
-251.063	-96.739	0.202	-0.053
-250.049	-42.231	-0.091	-0.047
-249.034	-38.770	-0.259	-0.137
-248.019	-200.000	-0.078	0.374
-247.005	52.614	0.122	0.117
-245.990	-10.929	-0.223	0.147
-244.976	-91.246	-0.249	0.071
-243.961	800.000	-0.059	-0.258
-242.946	10.543	0.043	0.033
-241.932	-79.326	0.193	0.065
-240.917	-60.106	0.129	-0.055
-239.903	-200.000	0.031	0.139
-238.888	272.653	0.076	-0.134
-237.873	85.223	0.166	-0.182
-236.859	-200.000	-0.019	0.195
-235.844	800.000	0.023	-0.069
-234.830	-97.690	-0.040	-0.010
-233.815	452.817	0.145	0.320
-232.800	-91.845	-0.233	0.066
-231.786	23.266	-0.123	-0.101
-230.771	-135.569	0.220	-0.026
-229.757	126.190	0.226	0.285
-228.742	-122.883	0.277	0.045
-227.727	155.924	0.132	0.182
-226.713	-63.793	-0.188	-0.077
-225.698	575.491	-0.087	-0.212
-224.684	-0.873	0.165	-0.117
-223.669	449.450	-0.056	0.123
-222.655	277.229	-0.152	-0.270
-221.640	-200.000	0.003	-0.176
-220.625	107.121	0.160	0.189
-219.611	-136.552	0.303	-0.035
-218.596	-105.507	-0.235	0.053
-217.582	197.716	-0.120	-0.183
-216.567	387.542	0.147	0.303
-215.552	-128.338	0.256	0.036
-214.538	-148.284	-0.043	-0.004
-213.523	78.096	0.109	0.116
-212.509	228.825	0.110	-0.180
-211.494	-200.000	0.177	-0.000
-210.479	800.000	-0.031	0.129
-209.465	-134.948	0.108	0.013
-208.450	97.590	0.097	-0.111
-207.436	-200.000	-0.001	-0.183
-206.421	35.457	-0.067	0.059
-205.406	800.000	0.029	0.118
-204.392	-137.724	0.327	0.037
-203.377	21.663	0.373	0.303
-202.363	-80.180	0.257	0.086
-201.348	-42.950	0.103	-0.052
-200.333	89.107	-0.249	0.276
-199.319	109.674	0.153	-0.183
-198.304	-76.367	-0.041	-0.014
-197.290	-101.757	-0.097	-0.024
-196.275	-114.456	0.448	0.086
-195.260	-146.077	-0.260	-0.023
-194.246	145.287	-0.141	0.188
-193.231	-55.527	0.240	0.107
-192.217	-54.095	0.341	0.154
-191.202	-2.406	0.194	-0.135
-190.187	26.302	-0.167	-0.139
-189.173	360.491	-0.083	-0.166
-188.158	-200.000	-0.025	0.183
-187.144	51.791	0.158	0.149
-186.129	323.051	0.165	0.314
-185.114	737.641	0.060	0.160
-184.100	-92.170	0.055	0.015
-183.085	-20.115	-0.061	-0.037
-182.071	47.871	0.169	0.157
-181.056	-200.000	0.027	-0.125
-180.042	800.000	0.036	-0.122
-179.027	-143.570	0.371	-0.035
-178.012	448.770	-0.046	0.102
-176.998	-86.474	-0.221	-0.068
-175.983	209.481	-0.125	-0.195
-174.969	-29.922	0.271	0.154
-173.954	393.590	-0.101	-0.209
-172.939	-1.562	-0.389	-0.273
-171.925	388.661	-0.132	0.271
-170.910	320.973	-0.124	0.235
-169.896	77.071	-0.103	0.110
-168.881	309.268	0.153	0.286
-167.866	-92.107	-0.231	-0.065
-166.852	800.000	-0.052	0.184
-165.837	250.782	0.136	0.231
-164.823	-79.104	0.060	-0.020
-163.808	-74.571	-0.150	0.054
-162.793	-114.106	0.476	0.092
-161.779	-200.000	-0.022	0.217
-160.764	800.000	-0.053	0.192
-159.750	-99.984	0.109	0.027
-158.735	-108.037	0.109	-0.024
-157.720	-200.000	0.020	0.089
-156.706	-93.144	0.263	-0.073
-155.691	534.925	0.069	-0.163
-154.677	268.302	0.131	-0.228
-153.662	89.835	0.051	-0.057
-152.647	-200.000	0.011	0.078
-151.633	144.968	0.058	0.078
-150.618	357.311	0.130	0.258
-149.604	800.000	0.033	0.093
-148.589	28.448	0.089	-0.075
-147.574	-94.976	-0.216	0.058
-146.560	-79.288	-0.088	0.030
-145.545	-101.391	0.215	-0.052
-144.531	53.940	-0.195	0.187
-143.516	800.000	-0.096	0.300
-142.502	800.000	-0.053	-0.224
-141.487	800.000	-0.006	-0.025
-140.472	-102.020	-0.117	0.028
-139.458	41.537	0.225	-0.203
-138.443	-56.671	-0.369	-0.163
-137.429	-109.754	0.299	0.063
-136.414	28.736	0.096	0.081
-135.399	-143.803	0.167	-0.016
-134.385	-200.000	-0.027	0.183
-133.370	151.325	0.246	0.333
-132.356	-200.000	-0.027	-0.188
-131.341	-200.000	-0.040	-0.324
-130.326	157.404	0.110	-0.152
-129.312	-200.000	0.017	0.276
-128.297	-200.000	-0.011	0.475
-127.283	-200.000	-0.028	-0.148
-126.268	-73.804	-0.159	-0.057
-125.253	-103.191	-0.230	-0.054
-124.239	-12.102	-0.154	-0.100
-123.224	800.000	0.083	0.313
-122.210	-200.000	-0.003	-0.017
-121.195	270.365	-0.182	-0.317
