DTS Sentinel unit serial number:	SN413079Multiplexer serial number:	ORYXHardware model number:	OX4-SRSoftware version number:	ORYX F/W v4.00 Oryx Data Collector v3.7.2.0data status	okinstallation	princeton_trtdifferential loss correction	single-endedforward channel	channel 2reverse channel	N/Adate	2019/09/18time	03:51:35forward acquisition time	60.00reverse acquisition time	0.00gamma	496.2192k internal	0.2349k external	0.2349temperature offset calibration	0.9982default loss term (dB/km)	0.3790temperature slope calibration	1.0000multiplexer offset coefficient	1.0000multiplexer slope coefficient	1.0000fibre end	0.00T internal ref (°C)	23.05T ext. ref 1 (°C)	0.17T ext. ref 2 (°C)	18.05length (m)	temperature (°C)	Stokes	anti-Stokes-747.200	-107.901	-0.267	0.058
-746.185	581.826	0.094	-0.231
-745.171	800.000	-0.095	-0.392
-744.156	-64.409	-0.308	0.125
-743.142	-80.105	-0.059	0.020
-742.127	-200.000	0.004	0.263
-741.112	800.000	0.066	0.264
-740.098	93.884	0.130	0.148
-739.083	-166.890	0.341	-0.014
-738.069	-153.238	-0.114	0.008
-737.054	135.124	-0.085	-0.110
-736.039	-34.874	-0.210	0.114
-735.025	631.631	0.134	0.340
-734.010	-67.767	-0.280	-0.110
-732.996	-66.255	-0.249	-0.099
-731.981	80.683	0.156	0.168
-730.966	88.322	0.090	-0.099
-729.952	19.560	-0.170	0.136
-728.937	36.822	0.120	-0.106
-727.923	-41.042	-0.133	-0.069
-726.908	-200.000	-0.002	0.069
-725.894	24.290	-0.164	-0.136
-724.879	-9.607	-0.184	0.122
-723.864	728.229	0.132	-0.352
-722.850	-30.145	-0.257	-0.146
-721.835	-91.765	0.290	0.082
-720.821	-9.773	-0.388	-0.258
-719.806	695.796	-0.124	-0.324
-718.791	191.366	-0.209	-0.314
-717.777	-200.000	0.135	-0.000
-716.762	768.975	-0.106	-0.287
-715.748	-192.312	-0.260	-0.002
-714.733	-146.775	-0.303	-0.026
-713.718	87.518	0.106	-0.117
-712.704	-81.184	-0.136	-0.045
-711.689	-200.000	0.025	0.271
-710.675	86.013	-0.080	-0.088
-709.660	800.000	-0.037	0.126
-708.645	-114.194	0.231	-0.045
-707.631	118.571	-0.323	-0.398
-706.616	-7.488	-0.039	0.026
-705.602	122.670	0.040	-0.050
-704.587	-148.113	-0.190	0.016
-703.572	136.102	0.061	0.079
-702.558	-53.297	0.098	0.045
-701.543	446.084	-0.143	0.313
-700.529	663.792	-0.066	0.171
-699.514	-178.251	-0.073	-0.002
-698.499	45.792	0.090	0.083
-697.485	-0.873	-0.226	0.160
-696.470	100.388	0.162	-0.187
-695.456	-112.315	-0.385	0.077
-694.441	-66.545	-0.039	-0.015
-693.426	-93.294	0.182	0.050
-692.412	-97.497	0.449	0.116
-691.397	-114.842	0.136	-0.026
-690.383	25.502	0.108	0.089
-689.368	-51.260	-0.166	-0.078
-688.354	-6.092	0.185	-0.126
-687.339	85.774	0.126	-0.138
-686.324	232.215	-0.037	-0.061
-685.310	-200.000	-0.004	0.206
-684.295	-85.612	-0.107	-0.033
-683.281	-82.351	0.115	-0.037
-682.266	-112.280	0.133	-0.027
-681.251	-61.679	0.225	-0.094
-680.237	-19.657	-0.167	-0.103
-679.222	90.078	0.124	0.138
-678.208	-68.436	-0.158	0.061
-677.193	-144.503	-0.175	-0.016
-676.178	-41.224	-0.254	-0.131
-675.164	800.000	-0.037	0.114
-674.149	-200.000	0.026	0.292
-673.135	-5.112	-0.195	-0.134
-672.120	-111.220	0.131	0.027
-671.105	-15.006	-0.106	0.067
-670.091	-109.852	-0.212	-0.044
-669.076	800.000	-0.054	-0.227
-668.062	-14.971	0.240	-0.153
-667.047	-59.267	-0.057	0.025
-666.032	49.616	-0.112	-0.105
-665.018	54.315	-0.113	0.108
-664.003	-59.281	0.348	0.149
-662.989	69.926	-0.085	0.088
-661.974	264.090	0.151	0.262
-660.959	-14.308	-0.263	-0.169
-659.945	-200.000	0.055	-0.272
-658.930	-200.000	-0.027	0.171
-657.916	48.721	-0.265	0.247
-656.901	-75.904	-0.072	-0.025
-655.886	-162.013	-0.321	0.016
-654.872	-139.092	-0.096	-0.010
-653.857	689.075	0.095	-0.248
-652.843	-41.310	-0.309	0.159
-651.828	-78.055	0.111	-0.038
-650.814	-200.000	0.004	-0.256
-649.799	800.000	-0.060	0.225
-648.784	-155.789	-0.463	-0.029
-647.770	-200.000	0.008	-0.052
-646.755	252.251	0.163	-0.277
-645.741	-57.326	-0.237	0.104
-644.726	81.354	-0.174	0.187
-643.711	800.000	0.198	0.545
-642.697	-145.533	0.316	-0.028
-641.682	-200.000	0.003	0.071
-640.668	39.045	-0.147	-0.130
-639.653	383.218	-0.079	-0.162
-638.638	98.364	-0.268	-0.308
-637.624	-200.000	0.065	-0.407
-636.609	130.036	0.163	0.207
-635.595	-126.631	-0.044	0.006
-634.580	-51.681	0.100	-0.046
-633.565	-59.167	0.174	0.075
-632.551	-95.978	0.280	0.074
-631.536	800.000	0.090	-0.280
-630.522	-128.735	0.118	-0.017
-629.507	-105.918	-0.353	-0.079
-628.492	-75.897	0.316	0.111
-627.478	36.628	-0.086	-0.076
-626.463	27.626	0.255	0.214
-625.449	-92.729	0.079	-0.022
-624.434	-200.000	-0.021	-0.115
-623.419	-200.000	0.033	-0.179
-622.405	21.006	-0.205	-0.165
-621.390	-10.450	-0.203	-0.134
-620.376	475.087	0.167	-0.375
-619.361	286.117	0.049	0.089
-618.346	-200.000	-0.023	-0.213
-617.332	-61.218	-0.205	0.086
-616.317	97.362	-0.153	-0.175
-615.303	-200.000	-0.037	-0.192
-614.288	232.236	-0.203	0.331
-613.273	-200.000	0.032	0.163
-612.259	-200.000	0.004	-0.235
-611.244	-83.738	-0.110	-0.035
-610.230	525.972	0.033	-0.078
-609.215	800.000	0.018	-0.063
-608.201	-200.000	-0.006	0.101
-607.186	-114.293	-0.321	-0.061
-606.171	-200.000	0.023	-0.304
-605.157	-80.302	0.365	0.121
-604.142	-116.672	-0.087	-0.016
-603.128	147.252	0.104	-0.139
-602.113	-165.594	-0.067	0.003
-601.098	-76.381	0.232	-0.081
-600.084	125.910	0.075	-0.094
-599.069	212.101	0.145	0.227
-598.055	580.748	-0.021	-0.052
-597.040	42.543	0.121	-0.109
-596.025	19.183	0.218	-0.174
-595.011	-61.040	-0.054	-0.023
-593.996	-48.121	0.062	-0.030
-592.982	-200.000	-0.013	0.304
-591.967	20.252	-0.199	-0.160
-590.952	-79.797	-0.217	-0.072
-589.938	649.209	-0.093	-0.237
-588.923	-112.661	0.307	-0.061
-587.909	659.814	0.089	0.228
-586.894	-36.131	-0.192	-0.103
-585.879	-200.000	-0.054	0.252
-584.865	-82.851	0.365	-0.117
-583.850	-69.185	-0.272	0.104
-582.836	-200.000	0.024	-0.238
-581.821	800.000	0.019	0.057
-580.806	9.336	0.191	-0.143
-579.792	112.145	0.197	-0.236
-578.777	-126.901	-0.226	-0.033
-577.763	36.690	0.037	-0.032
-576.748	503.804	0.035	-0.080
-575.733	-200.000	0.020	-0.205
-574.719	167.792	0.112	0.158
-573.704	-85.848	-0.092	-0.028
-572.690	-80.490	-0.146	-0.048
-571.675	16.231	0.103	0.080
-570.661	-46.128	-0.221	0.108
-569.646	-77.012	0.233	0.081
-568.631	159.522	0.226	-0.312
-567.617	11.220	0.076	-0.057
-566.602	-156.433	0.097	0.006
-565.588	-87.890	-0.261	-0.078
-564.573	225.193	0.144	0.232
-563.558	-8.256	-0.146	-0.098
-562.544	-38.711	-0.064	0.033
-561.529	-200.000	-0.043	-0.191
-560.515	-140.001	-0.307	-0.032
-559.500	63.414	-0.293	-0.291
-558.485	-126.605	0.116	0.017
-557.471	-200.000	0.004	-0.183
-556.456	-58.869	0.256	-0.110
-555.442	-42.170	0.136	0.069
-554.427	-113.678	-0.145	0.028
-553.412	285.231	-0.081	-0.144
-552.398	-5.647	0.306	-0.208
-551.383	-200.000	0.020	-0.211
-550.369	-14.012	0.245	-0.157
-549.354	-200.000	-0.018	-0.235
-548.339	137.319	-0.127	-0.164
-547.325	322.106	0.109	-0.205
-546.310	-200.000	-0.023	-0.203
-545.296	800.000	0.108	0.298
-544.281	135.313	0.127	-0.163
-543.266	308.310	-0.237	0.439
-542.252	-5.034	-0.087	-0.060
-541.237	764.789	0.115	-0.310
-540.223	176.531	-0.209	0.301
-539.208	-200.000	-0.013	0.219
-538.193	89.940	0.095	0.106
-537.179	-124.294	0.166	0.026
-536.164	-180.743	0.259	-0.005
-535.150	-156.836	0.381	-0.023
-534.135	-53.097	-0.233	-0.106
-533.121	-77.419	-0.155	0.053
-532.106	743.378	0.066	0.176
-531.091	106.576	0.116	-0.137
-530.077	-136.269	-0.380	0.044
-529.062	-200.000	-0.001	0.059
-528.048	-106.409	0.251	-0.056
-527.033	194.301	0.140	0.211
-526.018	-200.000	-0.013	-0.093
-525.004	-126.628	-0.208	0.030
-523.989	800.000	0.111	0.419
-522.975	361.075	0.103	0.205
-521.960	-57.991	0.097	-0.042
-520.945	102.508	0.089	0.104
-519.931	-200.000	0.027	-0.158
-518.916	262.817	-0.071	-0.123
-517.902	-107.798	0.137	-0.030
-516.887	136.617	0.044	0.057
-515.872	-187.802	0.145	0.002
-514.858	112.120	0.065	0.078
-513.843	-29.500	0.222	0.126
-512.829	285.679	-0.284	-0.507
-511.814	301.088	-0.151	0.275
-510.799	100.341	-0.161	0.185
-509.785	53.237	-0.103	-0.097
-508.770	202.767	-0.259	-0.396
-507.756	-1.543	-0.066	0.046
-506.741	97.393	-0.326	0.370
-505.726	-34.233	-0.079	0.043
-504.712	-200.000	-0.060	-0.369
-503.697	-11.658	0.133	0.086
-502.683	-188.397	-0.602	0.007
-501.668	143.335	-0.210	0.276
-500.653	327.542	0.160	0.303
-499.639	800.000	-0.038	-0.125
-498.624	-67.796	-0.307	-0.119
-497.610	-69.780	-0.261	-0.099
-496.595	-74.839	-0.225	0.080
-495.581	-54.727	0.251	-0.112
-494.566	800.000	0.032	-0.106
-493.551	-143.408	-0.194	0.018
-492.537	-200.000	-0.069	-0.305
-491.522	-35.950	-0.240	-0.129
-490.508	-18.197	0.203	0.125
-489.493	366.405	-0.172	-0.344
-488.478	438.819	0.165	-0.356
-487.464	-91.429	-0.374	-0.106
-486.449	-200.000	0.034	-0.195
-485.435	-24.128	0.127	-0.075
-484.420	-26.947	0.308	-0.178
-483.405	-19.120	-0.099	0.061
-482.391	-111.805	0.432	0.086
-481.376	293.803	0.224	-0.405
-480.362	257.074	-0.075	-0.127
-479.347	800.000	0.042	0.160
-478.332	-200.000	-0.008	-0.101
-477.318	-66.638	0.113	0.044
-476.303	683.839	0.074	-0.190
-475.289	-111.480	0.337	0.068
-474.274	547.878	-0.047	-0.112
-473.259	-38.011	0.243	0.127
-472.245	-200.000	-0.011	-0.104
-471.230	293.482	0.116	0.210
-470.216	225.164	-0.052	0.083
-469.201	-77.621	-0.093	0.032
-468.186	-9.509	-0.142	0.094
-467.172	-13.238	0.446	-0.286
-466.157	800.000	-0.027	0.079
-465.143	-32.208	-0.285	-0.158
-464.128	205.042	-0.111	0.170
-463.113	31.063	0.139	0.118
-462.099	259.633	-0.184	0.314
-461.084	82.764	0.117	0.125
-460.070	272.876	0.060	-0.105
-459.055	51.368	0.257	0.241
-458.040	-85.880	-0.209	-0.064
-457.026	-151.665	0.079	0.006
-456.011	800.000	0.071	0.276
-454.997	175.147	0.039	0.055
-453.982	-113.742	-0.450	0.087
-452.968	-200.000	-0.009	-0.196
-451.953	800.000	0.011	-0.038
-450.938	342.294	-0.107	-0.207
-449.924	-17.970	-0.389	-0.240
-448.909	108.165	-0.026	-0.031
-447.895	-134.199	-0.096	0.012
-446.880	33.305	-0.049	0.042
-445.865	403.936	-0.126	0.261
-444.851	-63.360	-0.225	0.092
-443.836	531.013	0.107	0.250
-442.822	-86.534	-0.138	-0.042
-441.807	696.135	-0.046	0.118
-440.792	0.744	-0.196	-0.139
-439.778	-51.662	-0.289	-0.133
-438.763	241.243	-0.194	-0.320
-437.749	206.874	0.210	0.324
-436.734	-103.580	-0.170	0.039
-435.719	342.801	0.131	-0.253
-434.705	-77.055	-0.414	0.142
-433.690	102.996	-0.200	0.231
-432.676	-200.000	0.025	-0.170
-431.661	260.260	0.123	-0.210
-430.646	-151.997	-0.211	-0.015
-429.632	74.948	-0.187	0.195
-428.617	-38.120	-0.109	-0.057
-427.603	-34.809	-0.367	0.198
-426.588	48.116	0.187	-0.172
-425.573	194.009	0.112	0.168
-424.559	800.000	-0.075	-0.223
-423.544	312.013	-0.100	-0.185
-422.530	800.000	0.038	0.165
-421.515	696.653	0.135	0.351
-420.500	-107.628	-0.158	-0.034
-419.486	471.293	0.112	-0.248
-418.471	800.000	0.097	0.373
-417.457	-131.262	0.355	-0.046
-416.442	-58.890	0.251	-0.107
-415.428	-200.000	-0.001	0.008
-414.413	123.117	-0.157	-0.194
-413.398	196.535	0.150	0.225
-412.384	288.034	-0.121	-0.216
-411.369	431.415	-0.092	-0.197
-410.355	-125.424	0.247	0.037
-409.340	26.767	0.022	-0.018
-408.325	800.000	0.008	-0.029
-407.311	-200.000	0.052	-0.229
-406.296	408.148	-0.047	-0.098
-405.282	-159.607	-0.289	0.016
-404.267	800.000	-0.083	0.258
-403.252	-200.000	0.011	0.082
-402.238	-63.403	0.316	0.128
-401.223	-16.545	0.088	-0.055
-400.209	-85.987	0.274	0.084
-399.194	-130.313	-0.127	-0.017
-398.179	-200.000	-0.191	0.000
-397.165	-105.985	-0.226	-0.050
-396.150	209.861	0.048	-0.074
-395.136	-58.751	0.296	-0.126
-394.121	36.375	-0.233	0.202
-393.106	23.374	-0.291	-0.236
-392.092	-28.916	0.107	0.061
-391.077	467.659	-0.103	-0.227
-390.063	525.410	-0.091	0.212
-389.048	-58.382	0.252	-0.108
-388.033	800.000	-0.180	-0.494
-387.019	-36.227	0.018	0.010
-386.004	3.302	0.126	-0.090
-384.990	21.140	-0.349	-0.279
-383.975	350.157	0.041	0.081
-382.960	94.303	0.274	-0.306
-381.946	-126.548	0.232	0.034
-380.931	11.632	-0.209	0.158
-379.917	-200.000	0.097	-0.452
-378.902	-111.657	-0.441	0.088
-377.888	-104.327	0.427	0.097
-376.873	181.519	-0.051	-0.074
-375.858	350.764	-0.158	0.308
-374.844	32.382	0.236	0.201
-373.829	288.815	-0.107	0.191
-372.815	27.580	-0.254	0.211
-371.800	313.026	-0.210	-0.388
-370.785	-137.643	-0.284	0.032
-369.771	-108.326	0.141	0.030
-368.756	-200.000	-0.005	0.190
-367.742	512.287	-0.107	-0.246
-366.727	800.000	-0.071	-0.260
-365.712	17.301	-0.055	0.043
-364.698	800.000	0.055	0.215
-363.683	-16.376	-0.080	0.050
-362.669	532.819	0.134	0.311
-361.654	-69.803	-0.267	0.100
-360.639	-200.000	-0.050	0.339
-359.625	-95.881	0.287	0.075
-358.610	52.844	0.092	0.087
-357.596	150.862	-0.035	0.047
-356.581	800.000	0.073	0.270
-355.566	-63.452	0.231	0.093
-354.552	-63.830	0.054	0.022
-353.537	-49.414	0.169	-0.079
-352.523	40.817	-0.252	0.224
-351.508	800.000	0.043	0.130
-350.493	-107.604	0.226	0.049
-349.479	-200.000	-0.225	0.000
-348.464	-77.352	-0.323	0.111
-347.450	-178.420	-0.108	0.002
-346.435	-112.853	0.200	0.039
-345.420	347.325	0.212	-0.410
-344.406	-124.674	-0.200	-0.030
-343.391	-44.748	-0.399	0.196
-342.377	-200.000	-0.023	0.105
-341.362	-30.781	-0.200	0.111
-340.348	247.899	0.096	0.159
-339.333	251.532	-0.172	-0.288
-338.318	-200.000	-0.017	-0.101
-337.304	-35.026	0.160	-0.086
-336.289	-155.160	-0.110	0.007
-335.275	-200.000	-0.019	0.153
-334.260	309.842	-0.060	0.110
-333.245	615.346	0.122	-0.301
-332.231	137.284	-0.156	-0.201
-331.216	-200.000	0.001	0.326
-330.202	-25.843	-0.187	-0.108
-329.187	240.048	-0.189	-0.309
-328.172	157.715	-0.218	0.297
-327.158	532.686	0.073	0.170
-326.143	-153.038	-0.156	-0.011
-325.129	109.192	-0.134	0.157
-324.114	-200.000	0.048	0.292
-323.099	800.000	0.074	-0.231
-322.085	21.012	0.079	0.063
-321.070	574.504	-0.069	-0.165
-320.056	95.553	0.054	0.061
-319.041	-124.574	-0.072	-0.011
-318.026	800.000	0.062	0.205
-317.012	9.020	0.181	-0.134
-315.997	-200.000	-0.029	0.147
-314.983	-148.067	0.396	0.032
-313.968	-89.747	0.176	0.051
-312.953	153.917	-0.224	0.302
-311.939	28.458	0.103	0.085
-310.924	-200.000	-0.005	0.168
-309.910	-200.000	0.000	-0.136
-308.895	-1.587	0.334	0.231
-307.880	402.741	-0.118	0.244
-306.866	-113.886	0.163	0.031
-305.851	-124.331	0.206	0.032
-304.837	-200.000	-0.028	0.176
-303.822	131.645	0.038	0.048
-302.807	-33.672	-0.210	0.114
-301.793	-2.765	0.228	-0.156
-300.778	-189.712	0.352	0.004
-299.764	-200.000	-0.012	-0.204
-298.749	11.712	-0.064	0.048
-297.735	127.595	0.091	-0.113
-296.720	121.193	-0.038	0.046
-295.705	-162.949	0.157	0.007
-294.691	-153.953	0.123	0.008
-293.676	216.512	-0.218	0.340
-292.662	-68.805	-0.141	-0.053
-291.647	-60.318	0.155	0.065
-290.632	800.000	0.110	0.392
-289.618	124.499	-0.177	-0.219
-288.603	800.000	-0.169	0.490
-287.589	28.599	-0.154	-0.128
-286.574	-90.219	0.319	0.091
-285.559	-96.620	0.111	0.029
-284.545	-200.000	-0.046	0.205
-283.530	-42.578	0.289	0.144
-282.516	-77.581	0.062	-0.021
-281.501	-167.802	0.362	-0.014
-280.486	282.804	-0.269	0.474
-279.472	395.203	-0.038	0.078
-278.457	-112.362	-0.012	-0.002
-277.443	146.124	-0.136	-0.179
-276.428	117.400	-0.045	-0.054
-275.413	239.418	0.122	-0.199
-274.399	185.921	0.040	-0.058
-273.384	-56.972	-0.192	-0.083
-272.370	-83.441	0.219	0.069
-271.355	-63.713	-0.055	0.022
-270.340	-94.591	0.055	0.015
-269.326	800.000	-0.023	0.073
-268.311	459.282	0.111	0.242
-267.297	-149.495	0.181	-0.014
-266.282	64.930	-0.279	-0.276
-265.267	117.671	0.293	-0.353
-264.253	105.985	-0.018	0.021
-263.238	800.000	-0.083	0.243
-262.224	95.937	-0.148	-0.165
-261.209	225.004	0.226	0.358
-260.195	-110.946	0.320	0.064
-259.180	203.725	0.059	-0.089
-258.165	12.180	0.352	0.266
-257.151	654.880	0.058	-0.145
-256.136	68.974	-0.175	-0.176
-255.122	7.441	-0.091	0.066
-254.107	649.848	0.043	-0.108
-253.092	69.889	-0.121	-0.122
-252.078	75.020	0.123	0.127
-251.063	-121.032	0.106	0.017
-250.049	-200.000	-0.051	-0.311
-249.034	-85.632	0.097	0.030
-248.019	-63.354	-0.465	-0.187
-247.005	-200.000	0.025	-0.321
-245.990	25.108	-0.081	-0.066
-244.976	-67.264	0.098	0.038
-243.961	-54.250	0.128	-0.057
-242.946	39.705	-0.009	0.008
-241.932	35.175	-0.192	0.165
-240.917	51.300	-0.047	-0.044
-239.903	236.235	-0.189	-0.306
-238.888	-77.240	-0.332	0.113
-237.873	-93.182	0.333	-0.091
-236.859	142.849	-0.145	0.189
-235.844	-179.332	-0.100	0.002
-234.830	43.029	0.193	0.172
-233.815	-35.640	-0.244	0.129
-232.800	375.142	0.129	0.257
-231.786	-59.724	-0.091	0.038
-230.771	-1.559	-0.292	0.201
-229.757	-79.612	-0.233	0.077
-228.742	31.862	0.177	0.150
-227.727	-183.358	-0.255	-0.004
-226.713	-200.000	-0.024	0.238
-225.698	-153.034	-0.212	-0.015
-224.684	457.552	0.165	-0.358
-223.669	125.172	0.105	0.129
-222.655	-168.979	-0.196	0.007
-221.640	-65.133	-0.162	-0.064
-220.625	800.000	0.010	-0.041
-219.611	96.911	0.221	-0.248
-218.596	-61.812	0.119	0.049
-217.582	-140.147	-0.226	0.023
-216.567	50.059	0.267	-0.246
-215.552	-87.322	-0.267	-0.079
-214.538	800.000	0.058	0.224
-213.523	205.009	0.085	-0.129
-212.509	-113.727	0.220	0.042
-211.494	-112.314	-0.287	0.056
-210.479	27.185	-0.048	-0.039
-209.465	-16.258	-0.132	-0.082
-208.450	62.760	-0.242	-0.237
-207.436	204.530	-0.140	0.213
-206.421	-54.553	-0.133	-0.059
-205.406	-200.000	0.026	-0.437
-204.392	675.482	0.013	0.034
-203.377	-200.000	0.001	0.231
-202.363	-200.000	-0.017	-0.077
-201.348	192.439	0.154	0.228
-200.333	154.930	0.062	0.083
-199.319	69.368	-0.222	0.223
-198.304	800.000	0.096	0.311
-197.290	-27.487	-0.191	-0.109
-196.275	-16.084	0.300	-0.187
-195.260	-179.869	0.365	0.008
-194.246	-184.471	0.116	0.002
-193.231	-64.397	0.190	0.076
-192.217	47.759	-0.104	-0.095
-191.202	800.000	-0.119	0.344
-190.187	29.633	0.272	0.226
-189.173	-65.469	0.256	-0.100
-188.158	153.423	0.018	0.024
-187.144	656.807	-0.099	-0.247
-186.129	551.127	0.082	0.192
-185.114	-74.167	0.190	0.067
-184.100	28.001	-0.124	0.102
-183.085	349.767	-0.093	0.180
-182.071	-87.280	0.406	0.120
-181.056	542.268	-0.064	0.148
-180.042	795.340	0.142	-0.381
-179.027	800.000	0.057	0.191
-178.012	-200.000	0.158	-0.001
-176.998	617.048	-0.053	0.131
-175.983	12.357	0.126	-0.095
-174.969	-200.000	-0.027	-0.231
-173.954	-200.000	0.006	0.033
-172.939	96.395	0.240	-0.268
-171.925	-66.195	0.374	-0.146
-170.910	228.593	0.141	-0.225
-169.896	-85.411	0.154	0.047
-168.881	-40.450	0.137	0.070
-167.866	-3.236	0.292	0.199
-166.852	407.989	0.184	0.381
-165.837	6.456	0.252	0.182
-164.823	800.000	0.043	-0.135
-163.808	68.897	-0.137	-0.138
-162.793	800.000	0.074	0.224
-161.779	-200.000	-0.059	0.369
-160.764	2.442	0.221	0.156
-159.750	-96.130	0.114	0.030
-158.735	95.131	-0.123	0.136
-157.720	-200.000	-0.001	0.159
-156.706	250.332	0.033	-0.054
-155.691	130.973	-0.193	-0.242
-154.677	-79.319	-0.205	-0.068
-153.662	-54.448	0.202	-0.089
-152.647	-100.379	0.075	0.018
-151.633	-173.440	-0.193	0.006
-150.618	-70.259	-0.293	0.109
-149.604	-63.317	0.185	-0.074
-148.589	236.163	0.087	-0.141
-147.574	-0.270	-0.205	0.142
-146.560	800.000	0.097	0.377
-145.545	-200.000	-0.033	0.181
-144.531	-42.380	0.086	0.043
-143.516	-56.617	-0.224	0.097
-142.502	-134.648	0.209	0.025
-141.487	-109.727	0.290	0.060
-140.472	-95.411	0.373	-0.098
-139.458	-200.000	0.015	0.164
-138.443	292.932	0.073	-0.129
-137.429	263.073	-0.284	0.481
-136.414	133.033	-0.150	0.189
-135.399	800.000	0.038	-0.110
-134.385	-7.403	0.205	0.135
-133.370	701.990	0.082	0.210
-132.356	5.616	-0.082	0.059
-131.341	800.000	0.031	0.091
-130.326	-200.000	-0.058	-0.313
-129.312	-200.000	0.042	-0.209
-128.297	-200.000	-0.051	-0.264
-127.283	800.000	0.052	-0.211
-126.268	61.476	-0.117	-0.113
-125.253	800.000	0.055	0.231
-124.239	-24.167	0.095	-0.055
-123.224	-200.000	-0.031	0.154
-122.210	-25.350	0.103	0.059
-121.195	-200.000	0.008	0.080
-120.180	-47.301	-0.175	0.083
