DTS Sentinel unit serial number:	SN413079Multiplexer serial number:	ORYXHardware model number:	OX4-SRSoftware version number:	ORYX F/W v4.00 Oryx Data Collector v3.7.2.0data status	okinstallation	princeton_trtdifferential loss correction	single-endedforward channel	channel 2reverse channel	N/Adate	2019/09/11time	11:49:11forward acquisition time	60.00reverse acquisition time	0.00gamma	496.2192k internal	0.2301k external	0.2301temperature offset calibration	0.9971default loss term (dB/km)	0.3790temperature slope calibration	1.0000multiplexer offset coefficient	1.0000multiplexer slope coefficient	1.0000fibre end	0.00T internal ref (°C)	38.78T ext. ref 1 (°C)	0.19T ext. ref 2 (°C)	36.67length (m)	temperature (°C)	Stokes	anti-Stokes-747.200	-200.000	-0.009	0.155
-746.185	161.856	-0.067	0.096
-745.171	-181.474	-0.184	0.004
-744.156	-62.565	0.273	0.116
-743.142	-200.000	-0.034	-0.185
-742.127	-29.034	0.024	-0.014
-741.112	-70.522	0.487	-0.188
-740.098	-6.868	-0.009	0.006
-739.083	424.904	0.134	0.295
-738.069	535.599	0.079	0.191
-737.054	-200.000	-0.008	0.042
-736.039	30.789	-0.053	0.046
-735.025	356.378	0.055	-0.111
-734.010	-50.336	-0.427	-0.205
-732.996	76.694	0.251	-0.271
-731.981	130.344	0.073	-0.096
-730.966	314.092	-0.038	0.074
-729.952	-135.014	0.075	0.009
-728.937	-28.957	-0.305	-0.179
-727.923	-200.000	0.044	-0.248
-726.908	-200.000	-0.016	-0.279
-725.894	-165.922	0.189	0.008
-724.879	-72.874	-0.110	-0.041
-723.864	283.485	-0.063	-0.115
-722.850	-200.000	0.297	0.001
-721.835	-21.664	0.283	0.176
-720.821	198.959	0.116	0.181
-719.806	334.228	-0.042	0.083
-718.791	114.567	0.159	0.198
-717.777	-93.078	-0.261	-0.074
-716.762	57.577	0.217	-0.216
-715.748	-130.437	-0.133	-0.018
-714.733	-27.333	-0.268	-0.159
-713.718	-89.284	0.071	0.021
-712.704	-200.000	0.024	-0.157
-711.689	-200.000	-0.013	-0.072
-710.675	-37.218	-0.232	-0.126
-709.660	90.995	0.161	0.184
-708.645	800.000	0.046	0.202
-707.631	-117.938	-0.425	0.078
-706.616	-116.037	0.158	-0.030
-705.602	-200.000	-0.011	-0.370
-704.587	800.000	-0.043	-0.157
-703.572	-56.400	0.036	0.016
-702.558	16.992	0.321	-0.259
-701.543	-46.512	-0.227	0.113
-700.529	-118.769	-0.374	-0.067
-699.514	286.850	-0.074	-0.137
-698.499	-200.000	-0.012	-0.226
-697.485	-44.578	0.109	0.055
-696.470	-45.226	0.033	0.016
-695.456	800.000	-0.132	-0.405
-694.441	-149.747	-0.261	0.021
-693.426	39.031	-0.183	0.166
-692.412	-152.602	-0.153	0.011
-691.397	-49.602	0.157	-0.076
-690.383	-121.957	-0.056	-0.009
-689.368	-200.000	0.015	0.259
-688.354	800.000	-0.028	-0.107
-687.339	530.709	0.018	-0.043
-686.324	-122.750	0.246	-0.040
-685.310	-133.355	0.192	-0.025
-684.295	-200.000	0.042	0.347
-683.281	-125.337	-0.208	0.032
-682.266	236.954	0.096	0.161
-681.251	-45.142	0.300	-0.152
-680.237	7.042	-0.170	0.129
-679.222	-200.000	0.001	0.234
-678.208	-200.000	-0.024	-0.196
-677.193	-153.410	0.358	-0.025
-676.178	-79.517	0.447	0.154
-675.164	141.082	-0.050	-0.067
-674.149	-200.000	0.006	-0.117
-673.135	178.285	0.064	-0.095
-672.120	-82.940	0.150	-0.049
-671.105	-18.416	0.285	0.181
-670.091	-78.752	0.146	0.051
-669.076	-24.940	0.310	0.187
-668.062	-200.000	-0.020	0.351
-667.047	198.187	-0.056	0.086
-666.032	128.741	-0.242	-0.314
-665.018	100.258	-0.122	0.143
-664.003	667.359	-0.087	0.228
-662.989	-2.905	-0.184	0.131
-661.974	800.000	0.120	0.410
-660.959	-48.080	0.168	0.083
-659.945	45.867	-0.049	-0.046
-658.930	-147.277	0.253	-0.022
-657.916	-18.139	0.160	0.102
-656.901	309.647	-0.162	0.308
-655.886	-15.669	-0.042	0.027
-654.872	111.947	-0.106	-0.130
-653.857	-57.477	0.274	-0.122
-652.843	-200.000	0.023	-0.208
-651.828	-77.424	-0.086	-0.030
-650.814	14.918	0.312	-0.248
-649.799	-200.000	0.020	-0.198
-648.784	547.894	0.065	-0.157
-647.770	800.000	-0.045	-0.183
-646.755	-10.305	-0.188	-0.127
-645.741	-200.000	-0.051	-0.266
-644.726	416.761	-0.047	0.102
-643.711	504.917	0.144	-0.340
-642.697	26.309	-0.030	-0.025
-641.682	-152.490	-0.252	0.018
-640.668	-200.000	0.007	-0.333
-639.653	-129.686	-0.104	-0.015
-638.638	-36.938	-0.142	-0.078
-637.624	462.857	-0.182	-0.412
-636.609	-30.840	0.302	-0.173
-635.595	-48.296	-0.266	-0.130
-634.580	144.944	-0.124	-0.168
-633.565	800.000	-0.064	0.203
-632.551	-154.365	-0.277	0.019
-631.536	-200.000	-0.006	-0.074
-630.522	-79.366	-0.167	0.058
-629.507	-141.812	0.178	0.018
-628.492	-66.993	-0.135	0.054
-627.478	-83.865	-0.251	-0.081
-626.463	-88.257	-0.181	0.055
-625.449	-200.000	-0.057	0.289
-624.434	534.946	-0.106	-0.255
-623.419	-200.000	0.003	0.143
-622.405	-200.000	-0.048	-0.230
-621.390	-164.981	-0.307	0.014
-620.376	128.660	0.131	-0.169
-619.361	-65.479	0.100	0.041
-618.346	-200.000	0.025	-0.278
-617.332	131.066	-0.166	0.216
-616.317	-39.878	0.069	-0.037
-615.303	-93.086	0.134	-0.038
-614.288	800.000	0.035	0.125
-613.273	94.037	0.081	0.094
-612.259	158.679	0.138	-0.195
-611.244	123.836	0.160	0.204
-610.230	4.096	-0.374	-0.277
-609.215	178.753	-0.064	-0.095
-608.201	-56.962	-0.147	0.066
-607.186	-65.832	-0.297	-0.121
-606.171	-200.000	0.061	0.287
-605.157	133.548	-0.116	0.152
-604.142	-200.000	-0.007	0.092
-603.128	-59.828	-0.111	-0.048
-602.113	-102.012	0.268	0.066
-601.098	-200.000	-0.429	0.001
-600.084	226.723	0.188	0.310
-599.069	92.343	0.106	-0.121
-598.055	-74.646	0.272	0.099
-597.040	-200.000	-0.001	0.061
-596.025	8.913	-0.211	-0.161
-595.011	544.342	0.070	0.169
-593.996	800.000	0.015	-0.049
-592.982	43.624	-0.090	0.084
-591.967	-135.294	-0.549	-0.067
-590.952	535.330	0.054	-0.131
-589.938	-200.000	-0.002	-0.053
-588.923	139.067	0.207	0.275
-587.909	485.759	-0.118	0.273
-586.894	-200.000	0.025	0.146
-585.879	-200.000	-0.057	-0.296
-584.865	19.048	0.474	0.385
-583.850	24.552	-0.172	0.144
-582.836	-24.199	-0.162	0.098
-581.821	-103.681	-0.201	-0.048
-580.806	-200.000	-0.049	0.318
-579.792	17.941	-0.102	0.082
-578.777	-27.830	-0.080	0.047
-577.763	680.959	-0.121	-0.318
-576.748	28.881	0.145	-0.125
-575.733	655.328	0.058	-0.151
-574.719	98.800	-0.140	-0.164
-573.704	50.236	-0.086	-0.083
-572.690	-107.433	-0.179	0.040
-571.675	705.798	-0.027	-0.072
-570.661	-97.804	-0.216	-0.057
-569.646	-99.090	0.327	0.084
-568.631	20.739	-0.078	-0.064
-567.617	800.000	0.110	-0.327
-566.602	-50.620	0.089	-0.042
-565.588	-52.186	-0.314	-0.148
-564.573	800.000	0.092	0.273
-563.558	800.000	-0.080	0.276
-562.544	-128.828	0.336	0.048
-561.529	33.747	0.021	0.018
-560.515	-200.000	0.010	-0.256
-559.500	308.629	0.081	0.153
-558.485	-77.132	-0.262	-0.092
-557.471	-200.000	0.034	0.436
-556.456	-90.382	-0.003	-0.001
-555.442	-3.997	-0.049	-0.035
-554.427	-60.602	0.115	-0.049
-553.412	101.706	0.172	0.202
-552.398	800.000	-0.086	-0.283
-551.383	112.668	0.042	0.052
-550.369	33.792	-0.167	-0.147
-549.354	51.057	0.138	-0.133
-548.339	210.864	0.073	0.115
-547.325	281.764	-0.057	-0.104
-546.310	-200.000	-0.029	-0.183
-545.296	210.487	-0.213	0.338
-544.281	278.265	-0.145	-0.262
-543.266	-200.000	0.002	-0.259
-542.252	151.783	0.064	-0.088
-541.237	212.679	0.062	-0.099
-540.223	-62.049	-0.210	-0.089
-539.208	639.206	0.041	-0.105
-538.193	5.119	-0.139	0.104
-537.179	-200.000	0.039	0.231
-536.164	-200.000	-0.147	0.001
-535.150	-90.990	0.009	-0.003
-534.135	-27.841	0.156	-0.091
-533.121	-143.229	0.210	0.020
-532.106	16.416	-0.252	-0.201
-531.091	-149.689	0.197	0.016
-530.077	35.368	-0.200	0.177
-529.062	800.000	0.082	0.271
-528.048	12.423	-0.306	0.238
-527.033	-73.345	0.311	-0.115
-526.018	250.354	-0.169	0.291
-525.004	-200.000	0.054	-0.304
-523.989	392.318	-0.144	-0.303
-522.975	-200.000	-0.092	-0.447
-521.960	6.146	-0.161	-0.121
-520.945	155.363	-0.096	0.134
-519.931	-5.925	-0.247	0.171
-518.916	328.859	-0.056	-0.109
-517.902	-200.000	0.012	-0.210
-516.887	250.277	-0.206	0.353
-515.872	-80.286	-0.161	-0.054
-514.858	-117.366	0.384	0.070
-513.843	800.000	-0.069	-0.282
-512.829	61.805	0.123	0.124
-511.814	-169.546	-0.309	0.011
-510.799	302.343	-0.145	-0.271
-509.785	-7.200	-0.175	0.120
-508.770	464.232	0.145	-0.327
-507.756	-80.496	-0.172	0.058
-506.741	-96.768	-0.127	0.034
-505.726	-39.010	-0.046	0.024
-504.712	800.000	-0.088	0.260
-503.697	-110.074	0.070	-0.015
-502.683	800.000	0.082	-0.239
-501.668	-187.346	0.079	-0.001
-500.653	-100.310	-0.067	0.017
-499.639	-48.098	0.083	0.041
-498.624	124.005	0.138	0.175
-497.610	57.044	-0.131	-0.129
-496.595	92.509	-0.256	-0.292
-495.581	-200.000	-0.055	-0.396
-494.566	334.627	0.083	-0.163
-493.551	-133.837	0.298	-0.037
-492.537	800.000	-0.007	-0.032
-491.522	-114.154	0.064	0.012
-490.508	243.103	-0.217	0.367
-489.493	-200.000	-0.010	0.312
-488.478	425.257	-0.026	0.056
-487.464	23.787	-0.356	-0.296
-486.449	-200.000	0.041	0.222
-485.435	107.377	0.102	0.122
-484.420	434.350	0.082	-0.179
-483.405	-200.000	-0.030	-0.175
-482.391	98.448	0.142	-0.165
-481.376	-152.693	-0.101	0.007
-480.362	41.283	-0.109	-0.099
-479.347	800.000	-0.081	0.239
-478.332	283.404	0.050	-0.090
-477.318	49.361	0.209	-0.199
-476.303	7.812	-0.173	0.131
-475.289	-200.000	0.003	0.102
-474.274	626.380	-0.153	0.389
-473.259	31.761	0.134	0.117
-472.245	14.324	0.161	-0.127
-471.230	-67.868	-0.139	-0.055
-470.216	-79.472	0.170	0.058
-469.201	-149.934	0.194	0.015
-468.186	-200.000	-0.017	-0.354
-467.172	800.000	0.099	0.310
-466.157	432.568	-0.138	-0.303
-465.143	146.828	-0.167	-0.227
-464.128	800.000	0.071	0.227
-463.113	295.713	-0.088	0.163
-462.099	697.348	0.095	-0.252
-461.084	607.112	-0.045	-0.113
-460.070	73.246	-0.246	0.260
-459.055	219.093	0.254	-0.409
-458.040	4.576	-0.075	0.056
-457.026	30.032	-0.228	-0.196
-456.011	-200.000	-0.042	0.250
-454.997	-127.970	-0.186	-0.027
-453.982	-111.721	-0.237	-0.048
-452.968	16.510	0.422	0.336
-451.953	-52.630	-0.150	0.070
-450.938	800.000	0.117	-0.415
-449.924	158.670	-0.055	-0.077
-448.909	-88.869	0.261	-0.078
-447.895	-76.846	0.171	-0.060
-446.880	126.472	-0.025	-0.032
-445.865	-151.333	0.402	-0.030
-444.851	800.000	0.083	0.251
-443.836	19.027	0.219	-0.177
-442.822	-35.585	-0.290	0.158
-441.807	-141.164	0.255	0.026
-440.792	-195.613	0.167	-0.001
-439.778	-200.000	0.006	0.029
-438.763	122.434	-0.158	-0.199
-437.749	-66.776	-0.155	-0.062
-436.734	1.253	0.059	0.043
-435.719	387.299	0.197	0.410
-434.705	43.523	0.099	-0.091
-433.690	-40.262	-0.345	0.181
-432.676	252.037	-0.254	0.435
-431.661	-60.084	-0.105	-0.045
-430.646	800.000	-0.032	-0.090
-429.632	232.330	0.021	0.035
-428.617	-200.000	-0.013	0.316
-427.603	-50.404	-0.103	0.049
-426.588	-70.139	0.100	0.038
-425.573	800.000	0.086	0.370
-424.559	67.946	0.125	-0.129
-423.544	438.165	0.077	0.170
-422.530	57.762	0.144	-0.142
-421.515	61.557	0.202	0.202
-420.500	-142.734	0.213	0.021
-419.486	1.341	-0.312	-0.226
-418.471	800.000	-0.070	0.263
-417.457	591.140	-0.120	0.299
-416.442	-10.112	0.193	-0.129
-415.428	459.527	-0.124	-0.278
-414.413	446.715	0.128	0.283
-413.398	74.115	0.103	-0.109
-412.384	-6.129	-0.127	-0.087
-411.369	-146.145	-0.090	-0.008
-410.355	48.510	-0.142	-0.134
-409.340	800.000	-0.039	0.134
-408.325	-31.214	-0.250	0.142
-407.311	216.419	-0.113	0.181
-406.296	-200.000	-0.002	-0.098
-405.282	-60.927	-0.350	-0.149
-404.267	800.000	-0.078	-0.232
-403.252	-200.000	0.390	0.001
-402.238	-200.000	0.000	0.193
-401.223	-58.393	-0.127	-0.056
-400.209	-97.044	0.287	-0.076
-399.194	-200.000	0.010	0.144
-398.179	-49.013	-0.296	-0.143
-397.165	-200.000	0.007	0.074
-396.150	-200.000	-0.004	-0.254
-395.136	-87.192	-0.390	-0.119
-394.121	279.422	-0.175	-0.314
-393.106	142.591	0.192	0.257
-392.092	800.000	0.075	0.232
-391.077	800.000	-0.050	-0.169
-390.063	108.572	0.219	-0.263
-389.048	-65.901	0.165	0.066
-388.033	800.000	0.031	0.107
-387.019	74.789	0.087	0.092
-386.004	-200.000	-0.015	0.092
-384.990	283.595	-0.034	0.061
-383.975	114.610	-0.085	0.104
-382.960	-29.889	-0.205	-0.117
-381.946	218.929	0.181	0.291
-380.931	120.185	0.229	-0.285
-379.917	135.923	-0.083	-0.108
-378.902	-93.956	-0.031	0.009
-377.888	-200.000	0.008	-0.118
-376.873	-131.624	-0.516	0.068
-375.858	-38.634	0.047	0.025
-374.844	800.000	0.037	0.161
-373.829	-117.222	0.423	-0.077
-372.815	30.180	-0.139	-0.119
-371.800	103.564	0.301	0.355
-370.785	-149.601	0.059	-0.005
-369.771	-200.000	-0.076	-0.371
-368.756	-200.000	-0.008	-0.044
-367.742	-106.197	0.266	-0.060
-366.727	21.117	0.091	-0.074
-365.712	227.525	0.071	-0.116
-364.698	-6.293	-0.092	-0.063
-363.683	-172.243	-0.305	-0.010
-362.669	800.000	-0.076	-0.255
-361.654	223.249	0.117	0.189
-360.639	-8.598	-0.172	-0.116
-359.625	122.854	-0.081	-0.102
-358.610	12.793	-0.210	0.163
-357.596	800.000	0.114	0.382
-356.581	688.356	0.041	0.108
-355.566	-2.925	-0.192	-0.135
-354.552	-77.234	0.359	0.125
-353.537	-200.000	0.058	0.279
-352.523	-200.000	0.039	0.277
-351.508	108.224	0.084	-0.101
-350.493	-69.378	0.188	0.072
-349.479	-187.165	0.198	-0.003
-348.464	-102.725	-0.223	-0.053
-347.450	651.560	-0.054	-0.140
-346.435	800.000	0.111	0.325
-345.420	188.419	-0.118	-0.177
-344.406	-200.000	0.004	0.256
-343.391	-106.980	0.116	-0.026
-342.377	-96.038	0.253	-0.068
-341.362	284.319	0.037	-0.067
-340.348	-128.682	0.335	-0.047
-339.333	-41.656	0.523	0.270
-338.318	57.695	-0.200	-0.196
-337.304	-39.570	-0.121	-0.064
-336.289	282.535	0.072	-0.130
-335.275	151.894	-0.050	0.069
-334.260	-85.055	0.176	0.055
-333.245	-200.000	0.041	0.210
-332.231	269.654	-0.109	-0.192
-331.216	152.806	0.111	0.152
-330.202	25.153	-0.211	-0.175
-329.187	-28.563	0.275	-0.159
-328.172	-200.000	-0.010	-0.078
-327.158	29.216	0.289	-0.246
-326.143	-200.000	0.006	-0.191
-325.129	-32.896	-0.354	0.197
-324.114	148.350	-0.068	0.092
-323.099	800.000	-0.033	0.136
-322.085	-200.000	-0.024	0.252
-321.070	86.498	-0.084	0.093
-320.056	-52.413	-0.026	0.012
-319.041	56.050	-0.168	0.163
-318.026	-28.372	-0.054	0.031
-317.012	-28.485	-0.179	0.104
-315.997	-34.322	-0.180	0.099
-314.983	781.239	-0.096	-0.263
-313.968	750.684	-0.070	-0.191
-312.953	109.777	-0.136	0.164
-311.939	500.805	0.073	0.169
-310.924	800.000	0.029	0.127
-309.910	-50.812	-0.179	0.084
-308.895	691.523	0.057	-0.151
-307.880	-64.359	0.205	-0.083
-306.866	70.678	-0.139	0.144
-305.851	52.435	-0.182	-0.174
-304.837	-101.899	0.129	0.031
-303.822	800.000	0.004	-0.012
-302.807	800.000	-0.083	0.232
-301.793	-200.000	-0.017	0.198
-300.778	-200.000	0.003	-0.113
-299.764	-103.863	-0.231	-0.054
-298.749	-129.160	0.244	0.034
-297.735	555.585	0.014	-0.033
-296.720	-92.215	0.093	0.026
-295.705	-97.650	0.343	-0.089
-294.691	-177.885	0.555	0.013
-293.676	-85.298	0.278	0.087
-292.662	231.106	0.196	-0.322
-291.647	-200.000	-0.017	0.524
-290.632	-200.000	-0.000	-0.098
-289.618	-200.000	-0.027	-0.121
-288.603	-28.450	-0.162	0.094
-287.589	-200.000	-0.032	-0.494
-286.574	278.392	0.149	-0.265
-285.559	32.060	0.041	0.035
-284.545	-15.851	0.233	-0.149
-283.530	-82.867	0.177	0.057
-282.516	-44.618	-0.150	-0.075
-281.501	205.189	0.064	0.099
-280.486	-134.892	0.379	-0.046
-279.472	800.000	0.016	-0.062
-278.457	56.585	-0.093	0.090
-277.443	800.000	-0.089	0.272
-276.428	-152.770	-0.093	0.007
-275.413	11.547	-0.176	0.135
-274.399	6.964	0.566	0.422
-273.384	-103.345	0.430	0.102
-272.370	-200.000	0.037	0.292
-271.355	-120.439	0.204	0.035
-270.340	495.404	-0.072	0.166
-269.326	-200.000	-0.017	0.092
-268.311	-97.402	-0.412	-0.107
-267.297	-66.352	0.279	0.111
-266.282	800.000	-0.068	-0.252
-265.267	-115.524	0.229	-0.043
-264.253	-142.138	-0.219	-0.022
-263.238	-120.111	-0.253	0.043
-262.224	544.729	0.047	-0.112
-261.209	-129.322	0.114	0.016
-260.195	-44.982	0.062	0.031
-259.180	-163.763	-0.128	-0.006
-258.165	303.769	-0.124	-0.230
-257.151	334.235	0.084	0.162
-256.136	194.340	-0.108	-0.163
-255.122	137.967	-0.118	-0.154
-254.107	-200.000	-0.025	-0.121
-253.092	-200.000	0.015	0.124
-252.078	-200.000	-0.026	-0.155
-251.063	-124.998	-0.231	0.036
-250.049	-200.000	-0.018	-0.236
-249.034	-97.931	0.142	-0.037
-248.019	-88.682	-0.462	-0.137
-247.005	800.000	-0.045	-0.133
-245.990	-200.000	0.054	-0.303
-244.976	-200.000	0.017	0.298
-243.961	90.343	-0.166	0.186
-242.946	-82.703	0.080	-0.026
-241.932	-99.686	0.362	0.091
-240.917	-37.470	-0.229	0.122
-239.903	-92.542	0.187	-0.053
-238.888	93.132	-0.077	-0.087
-237.873	398.006	0.130	0.272
-236.859	66.324	0.138	-0.140
-235.844	-96.461	-0.079	-0.021
-234.830	-200.000	-0.033	-0.377
-233.815	65.028	-0.229	0.231
-232.800	259.067	-0.150	0.258
-231.786	-200.000	0.006	0.091
-230.771	407.914	0.041	0.086
-229.757	-34.536	-0.207	0.113
-228.742	-179.492	-0.329	-0.007
-227.727	-75.440	0.389	0.138
-226.713	156.351	0.359	0.495
-225.698	-87.175	-0.259	-0.079
-224.684	-53.796	-0.191	-0.087
-223.669	-117.973	0.257	-0.046
-222.655	90.878	0.177	0.198
-221.640	14.175	-0.246	0.192
-220.625	439.937	0.073	0.160
-219.611	508.313	0.036	0.083
-218.596	110.059	-0.054	0.065
-217.582	-11.248	0.249	-0.164
-216.567	70.942	0.258	-0.267
-215.552	-155.201	0.301	-0.020
-214.538	87.995	-0.273	0.302
-213.523	-200.000	0.046	-0.324
-212.509	-24.204	0.311	0.185
-211.494	-109.028	-0.064	-0.014
-210.479	-46.440	-0.211	0.104
-209.465	9.305	-0.349	0.264
-208.450	704.790	0.111	0.292
-207.436	-8.202	0.121	-0.082
-206.421	747.503	-0.085	-0.229
-205.406	800.000	-0.061	-0.240
-204.392	102.936	0.234	-0.273
-203.377	-200.000	0.006	0.108
-202.363	-200.000	0.056	0.261
-201.348	203.638	0.099	0.152
-200.333	655.711	0.036	-0.093
-199.319	-200.000	0.038	0.334
-198.304	-117.469	0.268	-0.048
-197.290	1.684	-0.126	0.091
-196.275	385.929	-0.032	0.067
-195.260	255.476	-0.040	0.069
-194.246	298.099	-0.098	-0.179
-193.231	800.000	-0.065	-0.268
-192.217	-200.000	-0.034	0.221
-191.202	1.563	0.199	0.143
-190.187	709.026	0.134	-0.354
-189.173	93.040	0.033	0.038
-188.158	-49.686	0.286	-0.136
-187.144	800.000	0.056	0.224
-186.129	800.000	0.078	0.270
-185.114	-200.000	0.022	-0.146
-184.100	247.993	-0.061	0.103
-183.085	171.359	-0.106	0.152
-182.071	-200.000	0.000	-0.108
-181.056	526.386	0.144	-0.337
-180.042	66.429	0.036	-0.036
-179.027	-145.571	0.195	-0.017
-178.012	17.066	0.194	-0.153
-176.998	-200.000	-0.032	0.508
-175.983	-141.631	0.279	-0.028
-174.969	-126.916	0.237	-0.035
-173.954	-80.724	-0.061	0.020
-172.939	-29.202	0.062	0.035
-171.925	-67.560	0.141	0.055
-170.910	290.438	0.113	0.205
-169.896	66.873	-0.233	0.237
-168.881	-86.048	0.110	-0.034
-167.866	-107.598	-0.240	-0.052
-166.852	462.732	-0.132	0.294
-165.837	280.260	0.067	-0.120
-164.823	-200.000	0.042	-0.302
-163.808	-200.000	0.012	-0.199
-162.793	-200.000	-0.042	0.267
-161.779	800.000	0.088	-0.346
-160.764	-87.589	-0.212	0.064
-159.750	739.409	0.028	-0.075
-158.735	1.100	0.343	-0.245
-157.720	15.390	-0.118	-0.092
-156.706	-200.000	0.035	0.197
-155.691	-124.003	0.254	-0.040
-154.677	61.011	0.290	-0.286
-153.662	800.000	0.105	-0.328
-152.647	-14.952	0.438	0.280
-151.633	-49.024	-0.044	0.021
-150.618	-46.961	-0.136	0.066
-149.604	800.000	0.049	-0.163
-148.589	368.101	-0.162	-0.326
-147.574	-116.684	0.099	-0.018
-146.560	-200.000	0.030	0.219
-145.545	15.812	0.090	0.070
-144.531	-101.056	-0.417	0.102
-143.516	94.332	0.167	-0.189
-142.502	-49.592	0.351	-0.166
-141.487	117.444	0.105	0.129
-140.472	7.423	-0.173	-0.129
-139.458	-143.038	0.156	0.015
-138.443	-21.821	0.254	-0.154
-137.429	62.863	0.110	0.110
-136.414	32.227	0.141	0.121
-135.399	-5.788	0.130	0.089
-134.385	155.638	-0.081	-0.111
-133.370	79.696	0.156	0.166
-132.356	-200.000	0.008	0.224
-131.341	-200.000	0.065	-0.301
-130.326	136.936	0.181	-0.236
-129.312	21.439	0.066	0.053
-128.297	-37.555	0.129	-0.069
-127.283	-155.264	0.100	0.006
-126.268	-114.728	-0.190	-0.036
-125.253	-200.000	-0.011	-0.120
-124.239	50.778	-0.136	-0.128
-123.224	-3.438	-0.143	-0.099
-122.210	-56.382	-0.487	0.215
-121.195	-200.000	-0.001	-0.171
