DTS Sentinel unit serial number:	SN413079Multiplexer serial number:	ORYXHardware model number:	OX4-SRSoftware version number:	ORYX F/W v4.00 Oryx Data Collector v3.7.2.0data status	okinstallation	princeton_trtdifferential loss correction	single-endedforward channel	channel 2reverse channel	N/Adate	2019/09/17time	19:43:34forward acquisition time	60.00reverse acquisition time	0.00gamma	496.2192k internal	0.2323k external	0.2323temperature offset calibration	0.9991default loss term (dB/km)	0.3790temperature slope calibration	1.0000multiplexer offset coefficient	1.0000multiplexer slope coefficient	1.0000fibre end	0.00T internal ref (°C)	35.06T ext. ref 1 (°C)	0.25T ext. ref 2 (°C)	24.40length (m)	temperature (°C)	Stokes	anti-Stokes-747.200	-19.999	0.398	-0.248
-746.185	-200.000	0.334	0.001
-745.171	-70.273	-0.186	-0.071
-744.156	-150.319	-0.177	0.014
-743.142	71.299	-0.137	0.144
-742.127	-200.000	-0.002	0.365
-741.112	-148.486	0.169	0.014
-740.098	-200.000	0.034	0.259
-739.083	800.000	0.022	0.067
-738.069	659.091	-0.050	-0.131
-737.054	555.003	-0.136	0.331
-736.039	441.263	-0.056	0.123
-735.025	-176.967	0.152	0.004
-734.010	-161.283	0.059	-0.003
-732.996	38.963	-0.189	-0.171
-731.981	613.455	-0.081	0.204
-730.966	415.237	0.037	0.079
-729.952	800.000	-0.091	-0.368
-728.937	-175.996	-0.239	0.006
-727.923	48.841	0.111	0.105
-726.908	-200.000	0.008	-0.167
-725.894	31.311	-0.074	0.064
-724.879	-116.768	-0.151	-0.028
-723.864	-17.884	-0.191	0.121
-722.850	222.393	0.068	0.110
-721.835	-22.495	-0.433	0.264
-720.821	183.537	-0.096	-0.143
-719.806	318.756	0.092	0.176
-718.791	-147.059	-0.222	0.019
-717.777	-200.000	0.024	-0.284
-716.762	800.000	-0.063	-0.190
-715.748	141.781	0.122	-0.163
-714.733	27.538	0.030	-0.026
-713.718	-200.000	0.008	0.092
-712.704	25.890	-0.082	0.069
-711.689	-200.000	0.030	-0.416
-710.675	-163.544	-0.288	-0.014
-709.660	100.450	0.233	0.273
-708.645	715.761	-0.012	0.032
-707.631	-200.000	-0.015	0.184
-706.616	-193.799	0.054	0.000
-705.602	-110.346	0.227	0.048
-704.587	273.929	-0.034	-0.060
-703.572	-200.000	-0.016	-0.104
-702.558	138.838	-0.175	-0.232
-701.543	-42.785	0.242	-0.124
-700.529	11.788	-0.448	-0.347
-699.514	480.211	-0.139	-0.317
-698.499	-47.838	-0.391	-0.191
-697.485	71.473	-0.223	-0.234
-696.470	732.802	-0.046	0.125
-695.456	28.225	-0.193	0.164
-694.441	-64.016	-0.190	0.078
-693.426	-37.677	0.109	0.059
-692.412	-101.459	0.307	0.075
-691.397	-79.945	-0.246	-0.083
-690.383	79.080	-0.097	-0.105
-689.368	48.106	0.079	0.075
-688.354	-148.751	-0.241	0.020
-687.339	172.306	-0.140	-0.202
-686.324	172.289	0.256	-0.370
-685.310	218.662	-0.086	-0.139
-684.295	630.907	-0.091	-0.232
-683.281	347.757	-0.155	-0.308
-682.266	-96.824	0.331	0.088
-681.251	-54.850	-0.239	0.109
-680.237	90.437	0.176	-0.198
-679.222	30.471	0.173	0.149
-678.208	42.343	-0.145	0.133
-677.193	-77.030	0.247	0.087
-676.178	186.545	-0.093	0.139
-675.164	93.449	-0.127	0.144
-674.149	-58.362	-0.207	0.091
-673.135	72.638	0.044	0.046
-672.120	-153.347	-0.174	0.012
-671.105	-124.450	-0.165	-0.026
-670.091	67.234	0.101	0.103
-669.076	800.000	-0.048	-0.170
-668.062	-193.854	-0.297	-0.003
-667.047	261.640	0.063	0.110
-666.032	-75.437	-0.164	-0.059
-665.018	-124.254	0.229	-0.036
-664.003	257.427	-0.245	-0.425
-662.989	-40.946	-0.252	0.131
-661.974	-71.654	0.194	0.073
-660.959	261.772	0.246	-0.429
-659.945	-7.422	-0.185	0.126
-658.930	-110.946	-0.219	0.045
-657.916	234.452	0.117	0.195
-656.901	-200.000	0.026	-0.180
-655.886	-200.000	-0.051	0.310
-654.872	-153.820	-0.127	0.009
-653.857	-113.253	-0.223	0.044
-652.843	-83.158	-0.134	-0.043
-651.828	-200.000	0.048	-0.422
-650.814	-200.000	-0.003	-0.476
-649.799	17.645	0.208	0.166
-648.784	62.618	0.298	0.299
-647.770	-52.065	-0.240	-0.112
-646.755	-200.000	-0.004	-0.143
-645.741	-200.000	0.027	-0.142
-644.726	-131.280	-0.225	0.030
-643.711	80.377	0.172	-0.186
-642.697	493.737	0.098	-0.226
-641.682	-11.004	0.385	0.255
-640.668	71.755	-0.080	0.083
-639.653	282.046	-0.162	-0.291
-638.638	-75.396	0.207	0.074
-637.624	157.530	0.120	-0.166
-636.609	223.051	0.280	0.453
-635.595	29.323	0.223	0.191
-634.580	128.150	-0.043	-0.055
-633.565	567.371	-0.056	-0.136
-632.551	-121.045	-0.121	-0.020
-631.536	800.000	-0.047	-0.160
-630.522	517.172	-0.092	0.216
-629.507	-21.538	0.330	-0.202
-628.492	-93.740	0.256	0.071
-627.478	644.701	0.137	0.350
-626.463	12.192	-0.368	-0.285
-625.449	54.455	-0.135	0.131
-624.434	218.404	-0.045	-0.073
-623.419	800.000	-0.100	0.352
-622.405	-200.000	-0.036	0.314
-621.390	-22.867	-0.222	-0.135
-620.376	265.816	-0.085	0.148
-619.361	10.102	0.092	-0.070
-618.346	800.000	0.023	-0.097
-617.332	1.042	-0.195	0.141
-616.317	242.755	0.078	0.131
-615.303	307.797	-0.143	-0.269
-614.288	800.000	-0.018	-0.066
-613.273	-49.035	-0.213	0.102
-612.259	-68.366	-0.243	-0.095
-611.244	144.876	-0.142	-0.191
-610.230	57.311	0.124	-0.121
-609.215	-200.000	-0.032	-0.262
-608.201	-135.404	-0.210	0.025
-607.186	9.743	0.076	-0.058
-606.171	-200.000	0.043	0.305
-605.157	-123.255	-0.296	-0.048
-604.142	-106.549	-0.201	-0.045
-603.128	-151.149	0.088	-0.007
-602.113	571.934	-0.157	-0.383
-601.098	164.291	-0.070	0.099
-600.084	522.713	-0.074	0.175
-599.069	-130.007	-0.311	-0.043
-598.055	-172.832	0.252	0.008
-597.040	-200.000	-0.050	-0.286
-596.025	-58.980	-0.190	-0.082
-595.011	-5.068	-0.180	0.124
-593.996	-109.160	0.292	-0.062
-592.982	47.989	0.004	0.004
-591.967	-200.000	0.026	-0.161
-590.952	-109.843	-0.318	0.067
-589.938	-115.633	-0.171	0.032
-588.923	-200.000	0.009	-0.211
-587.909	584.792	-0.072	0.177
-586.894	-87.132	0.173	-0.053
-585.879	418.326	-0.109	0.233
-584.865	-40.662	0.060	0.031
-583.850	147.052	-0.151	0.204
-582.836	550.682	-0.008	-0.020
-581.821	92.927	0.073	0.083
-580.806	-99.831	-0.245	-0.062
-579.792	-48.171	0.122	0.059
-578.777	800.000	-0.074	0.306
-577.763	-107.914	0.258	0.056
-576.748	114.941	0.232	-0.284
-575.733	-200.000	-0.014	0.118
-574.719	38.204	-0.020	-0.017
-573.704	511.183	-0.165	0.386
-572.690	-64.791	0.178	0.072
-571.675	34.634	-0.186	-0.163
-570.661	-121.712	0.043	0.007
-569.646	-51.208	0.102	0.048
-568.631	-124.032	-0.152	-0.024
-567.617	-200.000	-0.318	0.000
-566.602	54.224	0.080	0.077
-565.588	800.000	-0.091	-0.330
-564.573	184.068	-0.102	0.151
-563.558	-137.370	0.272	-0.031
-562.544	-200.000	-0.023	0.269
-561.529	-200.000	-0.043	0.228
-560.515	-26.619	-0.099	-0.058
-559.500	131.848	-0.104	-0.134
-558.485	18.093	0.148	0.119
-557.471	800.000	0.081	0.240
-556.456	-1.740	0.256	-0.180
-555.442	120.856	0.150	-0.187
-554.427	-177.836	-0.141	-0.003
-553.412	-132.104	0.271	0.035
-552.398	-200.000	0.026	-0.124
-551.383	-112.998	-0.124	0.025
-550.369	105.186	-0.202	-0.239
-549.354	-50.214	-0.176	0.083
-548.339	38.676	-0.084	-0.075
-547.325	-200.000	0.006	-0.186
-546.310	49.672	-0.319	0.301
-545.296	-200.000	-0.033	0.351
-544.281	-200.000	0.038	-0.425
-543.266	134.254	0.207	-0.269
-542.252	-200.000	0.007	-0.391
-541.237	800.000	-0.017	0.059
-540.223	800.000	0.061	-0.217
-539.208	-23.173	0.190	-0.114
-538.193	-75.522	0.258	0.092
-537.179	800.000	0.113	0.319
-536.164	800.000	0.076	0.259
-535.150	-64.213	-0.378	0.154
-534.135	203.605	0.085	-0.132
-533.121	800.000	0.057	-0.171
-532.106	374.780	-0.129	-0.264
-531.091	800.000	0.041	0.176
-530.077	-85.260	0.134	0.042
-529.062	43.184	-0.240	-0.219
-528.048	-55.825	-0.140	0.063
-527.033	256.964	-0.098	0.168
-526.018	122.420	-0.165	-0.207
-525.004	-60.105	-0.400	0.171
-523.989	650.469	0.109	-0.280
-522.975	-70.793	-0.216	0.082
-521.960	-127.692	0.427	-0.062
-520.945	-131.349	0.041	0.005
-519.931	-200.000	0.024	0.157
-518.916	115.367	0.094	-0.115
-517.902	595.338	-0.033	-0.082
-516.887	6.331	0.076	0.056
-515.872	202.094	-0.125	0.193
-514.858	159.226	0.131	-0.182
-513.843	800.000	0.089	0.263
-512.829	93.051	-0.179	-0.202
-511.814	-84.575	0.123	-0.039
-510.799	-200.000	-0.003	0.015
-509.785	-142.592	-0.067	0.007
-508.770	-200.000	0.032	-0.450
-507.756	138.890	0.191	0.252
-506.741	-108.675	0.130	0.028
-505.726	99.202	0.081	-0.093
-504.712	-75.680	0.653	0.232
-503.697	-21.232	-0.163	-0.100
-502.683	-45.470	0.164	-0.081
-501.668	-30.807	0.232	-0.131
-500.653	-200.000	-0.053	-0.275
-499.639	115.345	0.138	-0.168
-498.624	97.121	0.090	-0.104
-497.610	57.721	-0.053	0.052
-496.595	800.000	-0.067	-0.199
-495.581	16.756	-0.199	0.158
-494.566	-33.470	-0.074	-0.041
-493.551	-119.451	0.149	-0.026
-492.537	43.562	-0.249	-0.228
-491.522	-113.477	-0.438	-0.086
-490.508	205.395	0.094	0.145
-489.493	800.000	0.080	-0.254
-488.478	-99.119	-0.195	0.049
-487.464	-95.000	-0.100	-0.027
-486.449	36.577	-0.285	0.251
-485.435	800.000	0.068	-0.191
-484.420	-200.000	-0.002	-0.147
-483.405	407.019	-0.089	-0.188
-482.391	-6.851	0.230	-0.156
-481.376	-59.007	-0.442	0.191
-480.362	-159.021	0.598	0.034
-479.347	22.405	0.136	-0.111
-478.332	-84.583	-0.159	-0.050
-477.318	187.104	-0.088	-0.131
-476.303	-92.183	-0.067	0.019
-475.289	-164.398	-0.224	0.010
-474.274	-58.235	0.284	-0.123
-473.259	105.227	0.189	0.223
-472.245	409.812	0.208	0.441
-471.230	-139.619	-0.139	0.015
-470.216	-138.760	-0.109	-0.012
-469.201	-96.052	-0.169	0.045
-468.186	-41.717	-0.276	-0.142
-467.172	128.609	-0.231	-0.294
-466.157	204.720	-0.050	-0.077
-465.143	201.879	-0.139	0.213
-464.128	-11.843	-0.160	-0.105
-463.113	-108.067	-0.190	0.041
-462.099	-21.366	0.206	-0.126
-461.084	-120.734	-0.202	0.034
-460.070	101.114	0.120	0.139
-459.055	454.792	0.116	0.256
-458.040	-61.196	0.092	0.039
-457.026	-103.035	0.127	0.030
-456.011	-101.593	-0.462	0.112
-454.997	-100.332	0.089	0.022
-453.982	-80.052	0.241	0.081
-452.968	225.453	-0.101	-0.163
-451.953	800.000	-0.007	0.023
-450.938	-200.000	0.020	-0.168
-449.924	-83.104	0.060	0.019
-448.909	272.035	-0.067	-0.119
-447.895	-21.835	-0.176	-0.107
-446.880	220.752	0.069	-0.110
-445.865	-139.507	-0.360	0.038
-444.851	769.148	0.052	-0.141
-443.836	-111.960	0.372	0.075
-442.822	118.104	-0.168	0.207
-441.807	87.221	-0.088	0.097
-440.792	257.734	0.194	-0.333
-439.778	-162.276	0.233	0.012
-438.763	83.236	0.081	-0.088
-437.749	673.862	0.015	-0.039
-436.734	-200.000	0.004	-0.257
-435.719	68.496	0.228	0.233
-434.705	-163.761	0.358	-0.017
-433.690	13.905	0.077	-0.060
-432.676	142.624	0.149	-0.198
-431.661	-20.827	-0.111	0.068
-430.646	176.857	0.138	0.201
-429.632	-200.000	0.051	-0.263
-428.617	34.255	-0.173	0.151
-427.603	178.146	0.193	-0.281
-426.588	800.000	-0.052	-0.153
-425.573	-42.656	0.229	0.116
-424.559	-126.892	-0.325	0.048
-423.544	493.048	0.090	0.205
-422.530	-101.656	-0.326	0.079
-421.515	433.121	0.060	-0.130
-420.500	-149.714	-0.420	0.033
-419.486	800.000	-0.048	-0.197
-418.471	800.000	0.002	-0.009
-417.457	-200.000	0.040	0.266
-416.442	-200.000	0.044	0.228
-415.428	633.078	-0.049	0.123
-414.413	70.024	0.093	-0.096
-413.398	115.882	-0.347	0.423
-412.384	141.255	-0.079	-0.105
-411.369	-104.134	0.199	-0.046
-410.355	63.558	-0.031	0.031
-409.340	211.362	0.157	0.246
-408.325	-200.000	-0.058	-0.404
-407.311	-55.200	-0.109	-0.049
-406.296	244.542	-0.060	0.100
-405.282	-200.000	0.035	-0.373
-404.267	-200.000	-0.023	0.365
-403.252	-13.263	0.099	0.064
-402.238	-94.945	0.296	0.080
-401.223	177.196	-0.105	0.152
-400.209	-200.000	0.002	-0.052
-399.194	-8.976	0.125	-0.084
-398.179	5.592	-0.335	-0.247
-397.165	-200.000	-0.029	-0.217
-396.150	460.662	-0.099	0.221
-395.136	717.831	-0.028	0.074
-394.121	116.329	0.237	0.290
-393.106	50.926	0.128	-0.120
-392.092	54.911	0.146	0.140
-391.077	195.983	0.118	-0.179
-390.063	105.645	-0.098	-0.115
-389.048	-200.000	-0.009	0.143
-388.033	-86.665	-0.278	0.085
-387.019	-3.506	-0.260	0.180
-386.004	-200.000	-0.031	0.330
-384.990	20.218	-0.091	-0.073
-383.975	-200.000	-0.011	0.199
-382.960	800.000	0.074	0.286
-381.946	83.166	-0.161	-0.175
-380.931	317.065	0.189	0.356
-379.917	102.689	0.238	0.277
-378.902	-200.000	-0.008	0.363
-377.888	-0.682	-0.238	0.168
-376.873	84.244	-0.132	0.144
-375.858	-93.217	-0.121	-0.033
-374.844	-200.000	0.028	-0.204
-373.829	-85.140	0.169	-0.053
-372.815	-200.000	-0.050	-0.270
-371.800	-74.463	-0.059	0.021
-370.785	800.000	0.027	0.102
-369.771	-169.376	0.147	0.005
-368.756	-112.572	-0.158	0.031
-367.742	-200.000	-0.047	-0.235
-366.727	-71.397	-0.218	-0.081
-365.712	-200.000	0.042	0.190
-364.698	-200.000	0.001	-0.186
-363.683	-82.030	-0.257	0.084
-362.669	-135.156	-0.292	0.035
-361.654	-179.062	0.080	0.002
-360.639	182.131	0.155	0.226
-359.625	-71.582	-0.180	0.067
-358.610	-44.231	0.208	-0.104
-357.596	415.697	-0.082	-0.175
-356.581	-105.643	0.027	-0.006
-355.566	800.000	-0.034	-0.094
-354.552	800.000	-0.085	-0.273
-353.537	-154.301	0.177	0.012
-352.523	9.820	0.265	0.200
-351.508	10.635	0.102	0.078
-350.493	62.528	-0.160	-0.158
-349.479	302.153	-0.246	0.452
-348.464	800.000	-0.051	-0.147
-347.450	-162.121	0.148	-0.007
-346.435	184.518	0.113	0.166
-345.420	-50.036	0.211	-0.099
-344.406	-77.295	0.093	-0.032
-343.391	122.415	-0.071	0.088
-342.377	-159.707	0.199	-0.011
-341.362	800.000	0.123	0.391
-340.348	316.557	0.012	0.023
-339.333	-138.715	-0.325	0.035
-338.318	239.758	0.043	-0.071
-337.304	-200.000	0.017	-0.211
-336.289	-200.000	-0.012	0.142
-335.275	-178.363	-0.178	-0.004
-334.260	800.000	-0.024	-0.080
-333.245	439.231	-0.181	-0.393
-332.231	429.253	-0.044	0.094
-331.216	800.000	-0.118	0.351
-330.202	-105.760	0.217	-0.049
-329.187	-107.516	-0.243	-0.053
-328.172	-44.424	-0.087	-0.043
-327.158	-200.000	-0.011	0.080
-326.143	117.309	-0.054	-0.066
-325.129	-200.000	0.004	0.319
-324.114	-44.358	-0.278	0.138
-323.099	-200.000	0.007	0.194
-322.085	-128.513	0.141	-0.020
-321.070	-41.088	0.114	-0.059
-320.056	-5.272	-0.145	-0.099
-319.041	232.893	0.155	0.253
-318.026	-200.000	0.427	0.000
-317.012	-7.940	0.315	0.211
-315.997	102.347	-0.288	-0.335
-314.983	127.561	0.066	-0.084
-313.968	-78.724	0.188	-0.064
-312.953	-77.742	-0.306	-0.105
-311.939	269.213	-0.048	-0.083
-310.924	-27.164	-0.194	0.112
-309.910	-120.342	-0.111	-0.019
-308.895	-76.863	0.341	0.118
-307.880	157.736	-0.213	-0.293
-306.866	555.989	-0.062	0.149
-305.851	-165.581	-0.202	-0.009
-304.837	76.082	-0.071	0.075
-303.822	800.000	0.030	-0.101
-302.807	215.903	0.111	0.175
-301.793	-62.648	0.114	-0.047
-300.778	800.000	0.052	0.213
-299.764	184.799	0.088	0.129
-298.749	45.861	0.117	-0.108
-297.735	-115.842	-0.208	0.039
-296.720	-77.761	-0.300	-0.103
-295.705	-67.168	0.156	0.061
-294.691	-105.420	0.160	0.036
-293.676	735.127	-0.082	-0.217
-292.662	183.542	0.086	-0.127
-291.647	181.725	-0.139	-0.203
-290.632	-51.824	0.295	-0.136
-289.618	-112.304	-0.137	-0.027
-288.603	-145.101	0.347	0.031
-287.589	-174.411	0.144	-0.004
-286.574	90.067	-0.053	0.059
-285.559	113.527	0.218	0.262
-284.545	82.441	0.081	-0.088
-283.530	174.482	0.163	-0.234
-282.516	-130.260	0.366	-0.049
-281.501	-93.062	-0.085	-0.024
-280.486	8.019	-0.210	0.156
-279.472	-61.112	0.227	0.095
-278.457	90.522	0.072	0.080
-277.443	362.211	-0.049	0.098
-276.428	26.173	-0.146	-0.121
-275.413	800.000	0.133	-0.532
-274.399	223.951	-0.085	-0.136
-273.384	-200.000	-0.044	0.372
-272.370	265.802	0.199	0.344
-271.355	239.439	0.151	0.249
-270.340	-137.869	0.447	-0.050
-269.326	292.634	0.035	-0.063
-268.311	-200.000	-0.027	-0.229
-267.297	800.000	-0.074	0.266
-266.282	800.000	-0.052	-0.199
-265.267	-161.726	0.080	0.004
-264.253	-195.738	0.143	-0.001
-263.238	-200.000	-0.016	-0.265
-262.224	-15.685	0.244	0.154
-261.209	179.631	-0.068	-0.099
-260.195	-171.687	0.268	-0.009
-259.180	-153.096	-0.228	-0.016
-258.165	-67.690	-0.116	0.045
-257.151	-200.000	0.015	-0.468
-256.136	232.111	-0.070	0.113
-255.122	8.862	-0.093	-0.069
-254.107	-54.814	-0.464	0.208
-253.092	563.923	-0.042	0.100
-252.078	-200.000	-0.002	-0.315
-251.063	267.610	-0.139	-0.241
-250.049	188.849	-0.056	-0.083
-249.034	162.555	-0.131	0.182
-248.019	-184.572	0.260	0.004
-247.005	-35.023	-0.296	0.160
-245.990	-46.700	0.132	0.064
-244.976	-75.060	0.055	-0.019
-243.961	1.001	0.136	-0.096
-242.946	-12.779	-0.264	0.170
-241.932	-200.000	0.027	-0.452
-240.917	-200.000	0.004	-0.038
-239.903	-200.000	0.034	0.264
-238.888	-200.000	-0.014	-0.292
-237.873	-81.113	0.394	0.129
-236.859	800.000	0.055	-0.157
-235.844	237.115	0.032	0.053
-234.830	319.742	0.114	0.215
-233.815	-113.598	0.231	-0.045
-232.800	800.000	-0.063	-0.264
-231.786	253.890	-0.153	-0.259
-230.771	800.000	-0.073	0.308
-229.757	-200.000	-0.043	-0.199
-228.742	800.000	0.073	0.287
-227.727	66.625	0.118	0.119
-226.713	108.584	-0.122	-0.144
-225.698	-41.654	-0.365	-0.186
-224.684	392.276	0.133	0.275
-223.669	-142.272	0.088	-0.009
-222.655	465.793	-0.164	-0.363
-221.640	-200.000	-0.043	0.272
-220.625	84.537	0.129	0.140
-219.611	-142.631	-0.046	0.004
-218.596	-57.990	0.039	0.017
-217.582	80.486	-0.038	-0.041
-216.567	-143.542	0.098	0.009
-215.552	-95.603	0.240	0.064
-214.538	56.167	-0.210	-0.201
-213.523	239.095	0.195	0.321
-212.509	-117.590	-0.205	0.037
-211.494	-68.407	-0.167	-0.064
-210.479	-132.170	0.212	0.027
-209.465	-23.119	-0.140	-0.084
-208.450	-95.397	0.314	0.083
-207.436	-200.000	-0.006	0.081
-206.421	-56.415	-0.343	-0.150
-205.406	-200.000	-0.027	0.213
-204.392	-189.963	-0.344	-0.004
-203.377	433.480	0.057	-0.122
-202.363	49.982	0.012	-0.011
-201.348	-193.147	-0.184	-0.002
-200.333	-70.636	0.093	0.035
-199.319	-200.000	0.011	-0.136
-198.304	-1.995	-0.354	0.246
-197.290	66.923	-0.024	0.024
-196.275	-79.769	0.145	-0.048
-195.260	74.767	-0.067	0.069
-194.246	223.163	0.171	0.272
-193.231	138.356	-0.121	0.156
-192.217	-15.038	0.274	0.174
-191.202	800.000	0.077	0.218
-190.187	-16.662	-0.324	-0.203
-189.173	-200.000	-0.003	0.031
-188.158	741.918	0.016	-0.042
-187.144	-94.678	-0.180	0.048
-186.129	265.662	0.009	0.015
-185.114	-129.383	0.339	-0.047
-184.100	136.139	0.185	-0.238
-183.085	-200.000	-0.016	0.115
-182.071	151.757	0.158	0.213
-181.056	22.692	0.050	-0.040
-180.042	170.708	0.241	0.341
-179.027	77.799	-0.192	-0.202
-178.012	-200.000	-0.049	0.231
-176.998	227.146	0.200	0.322
-175.983	800.000	0.098	-0.382
-174.969	-91.513	0.375	0.106
-173.954	-200.000	-0.034	-0.377
-172.939	140.807	0.177	-0.230
-171.925	-189.683	-0.050	-0.001
-170.910	-200.000	0.022	-0.250
-169.896	135.493	0.075	-0.096
-168.881	103.383	-0.340	-0.393
-167.866	-64.000	-0.306	0.123
-166.852	-81.901	0.438	0.141
-165.837	135.799	-0.132	-0.170
-164.823	181.241	-0.070	0.101
-163.808	37.416	0.275	-0.240
-162.793	21.935	0.345	-0.277
-161.779	-126.436	-0.265	-0.039
-160.764	51.165	-0.159	-0.149
-159.750	381.865	0.076	0.154
-158.735	-111.745	-0.300	0.060
-157.720	-152.068	0.254	0.018
-156.706	-110.421	0.567	0.116
-155.691	800.000	0.050	0.192
-154.677	-200.000	0.055	0.338
-153.662	-35.717	0.300	-0.160
-152.647	181.176	0.070	0.101
-151.633	75.484	-0.218	-0.227
-150.618	91.659	-0.220	0.244
-149.604	-115.553	0.221	0.041
-148.589	-70.169	0.059	0.022
-147.574	800.000	-0.087	-0.281
-146.560	-200.000	-0.019	-0.186
-145.545	-109.582	0.192	-0.040
-144.531	800.000	0.022	0.060
-143.516	-135.743	0.262	0.031
-142.502	-103.915	0.466	-0.107
-141.487	-53.789	-0.279	0.126
-140.472	156.113	0.109	-0.148
-139.458	190.478	0.100	-0.148
-138.443	-26.577	0.205	-0.118
-137.429	375.573	0.120	-0.240
-136.414	-103.317	-0.299	-0.070
-135.399	166.600	-0.105	0.147
-134.385	568.283	0.044	-0.105
-133.370	93.060	0.100	-0.111
-132.356	-179.652	0.228	-0.005
-131.341	-117.038	0.329	-0.059
-130.326	-51.582	-0.399	-0.184
-129.312	-52.683	-0.076	0.035
-128.297	303.329	0.120	0.219
-127.283	-184.035	0.155	0.003
-126.268	-122.320	-0.148	-0.024
-125.253	57.764	0.181	0.174
-124.239	504.406	0.099	0.225
-123.224	109.580	-0.120	-0.141
-122.210	-18.301	-0.135	-0.083
