DTS Sentinel unit serial number:	SN413079Multiplexer serial number:	ORYXHardware model number:	OX4-SRSoftware version number:	ORYX F/W v4.00 Oryx Data Collector v3.7.2.0data status	okinstallation	princeton_trtdifferential loss correction	single-endedforward channel	channel 2reverse channel	N/Adate	2019/09/19time	04:55:35forward acquisition time	60.00reverse acquisition time	0.00gamma	496.2192k internal	0.2352k external	0.2352temperature offset calibration	1.0015default loss term (dB/km)	0.3790temperature slope calibration	1.0000multiplexer offset coefficient	1.0000multiplexer slope coefficient	1.0000fibre end	0.00T internal ref (°C)	19.78T ext. ref 1 (°C)	0.61T ext. ref 2 (°C)	13.00length (m)	temperature (°C)	Stokes	anti-Stokes-747.200	-200.000	-0.046	0.360
-746.185	263.125	-0.107	0.185
-745.171	-48.306	0.261	-0.126
-744.156	7.302	-0.107	-0.080
-743.142	53.181	-0.287	0.274
-742.127	-12.114	0.072	0.047
-741.112	618.407	0.051	-0.128
-740.098	-149.971	-0.322	-0.025
-739.083	-134.384	0.069	0.008
-738.069	-90.838	-0.174	-0.050
-737.054	-55.662	0.326	-0.145
-736.039	-69.789	-0.370	-0.141
-735.025	-200.000	0.026	0.197
-734.010	-105.334	-0.171	-0.039
-732.996	-187.857	-0.254	0.003
-731.981	67.063	-0.146	-0.148
-730.966	197.425	0.217	-0.330
-729.952	167.297	-0.187	0.264
-728.937	15.191	-0.315	0.246
-727.923	-36.768	0.085	-0.046
-726.908	800.000	-0.067	-0.257
-725.894	-150.361	-0.159	-0.012
-724.879	51.877	0.028	-0.027
-723.864	-169.951	0.142	-0.005
-722.850	160.814	0.167	0.233
-721.835	-6.731	0.341	0.231
-720.821	-168.637	-0.295	0.011
-719.806	113.315	0.106	0.128
-718.791	-160.303	-0.359	0.019
-717.777	79.474	-0.128	-0.137
-716.762	428.697	0.095	0.205
-715.748	-200.000	-0.033	-0.200
-714.733	-77.676	0.256	0.088
-713.718	322.947	-0.033	-0.063
-712.704	-140.127	0.187	0.020
-711.689	-101.890	0.122	0.029
-710.675	173.659	0.133	-0.192
-709.660	-172.718	-0.196	-0.006
-708.645	-200.000	0.046	0.366
-707.631	-168.057	-0.402	-0.016
-706.616	-64.336	0.327	-0.133
-705.602	534.981	0.060	0.143
-704.587	-200.000	-0.005	-0.117
-703.572	115.732	0.239	-0.291
-702.558	42.582	-0.181	0.164
-701.543	190.965	-0.066	-0.099
-700.529	53.322	0.345	0.330
-699.514	-200.000	-0.006	0.272
-698.499	23.363	0.458	0.375
-697.485	-19.823	0.323	-0.199
-696.470	-68.271	-0.423	-0.164
-695.456	-14.880	0.250	0.159
-694.441	25.805	0.188	0.156
-693.426	206.674	-0.177	-0.274
-692.412	5.597	-0.207	-0.153
-691.397	-24.010	0.205	0.122
-690.383	72.252	0.044	0.045
-689.368	-200.000	-0.040	0.190
-688.354	-2.441	-0.321	0.224
-687.339	87.895	0.171	0.189
-686.324	-200.000	-0.043	-0.239
-685.310	-26.273	-0.228	-0.133
-684.295	-71.316	-0.188	-0.070
-683.281	76.857	-0.239	-0.252
-682.266	28.047	0.109	-0.091
-681.251	-112.225	-0.429	-0.086
-680.237	25.244	0.116	-0.096
-679.222	-200.000	0.014	-0.095
-678.208	800.000	-0.048	-0.143
-677.193	800.000	0.027	-0.096
-676.178	173.268	-0.014	0.020
-675.164	-200.000	0.076	0.426
-674.149	301.530	0.068	0.126
-673.135	-145.500	0.198	-0.018
-672.120	304.482	-0.161	0.297
-671.105	-200.000	0.016	0.091
-670.091	-132.412	0.188	0.024
-669.076	800.000	-0.048	-0.181
-668.062	152.168	0.064	-0.086
-667.047	800.000	0.059	-0.209
-666.032	152.334	-0.122	-0.165
-665.018	-200.000	0.014	0.084
-664.003	81.132	0.097	-0.104
-662.989	-43.324	0.168	-0.085
-661.974	-74.445	-0.178	0.064
-660.959	42.295	0.036	-0.033
-659.945	-35.944	0.106	0.057
-658.930	-150.025	0.221	-0.017
-657.916	-54.625	-0.072	0.033
-656.901	15.460	-0.171	0.134
-655.886	800.000	0.047	-0.134
-654.872	-77.424	-0.147	0.051
-653.857	707.094	-0.130	0.341
-652.843	345.464	-0.074	-0.145
-651.828	-0.085	0.166	-0.117
-650.814	-183.955	-0.212	0.004
-649.799	-82.210	0.388	0.126
-648.784	6.899	-0.094	-0.069
-647.770	-149.333	-0.387	-0.031
-646.755	-62.534	-0.168	0.069
-645.741	229.078	-0.243	0.395
-644.726	183.761	-0.188	-0.276
-643.711	-148.902	-0.133	-0.011
-642.697	800.000	0.075	-0.214
-641.682	288.668	-0.096	0.172
-640.668	-200.000	0.061	0.318
-639.653	-200.000	0.030	-0.275
-638.638	244.316	0.192	0.320
-637.624	23.456	0.126	0.103
-636.609	233.555	0.091	-0.149
-635.595	-68.935	-0.159	0.061
-634.580	-18.227	-0.391	-0.243
-633.565	-127.740	-0.305	-0.044
-632.551	-200.000	0.009	0.039
-631.536	71.513	-0.273	0.281
-630.522	-6.630	0.183	0.124
-629.507	6.534	0.263	-0.194
-628.492	98.477	-0.131	0.149
-627.478	2.186	0.177	-0.127
-626.463	-96.369	0.066	0.017
-625.449	154.526	0.095	0.130
-624.434	13.112	0.231	0.178
-623.419	107.438	-0.114	0.134
-622.405	-26.976	0.248	0.144
-621.390	-173.490	-0.172	-0.005
-620.376	-13.514	-0.253	-0.163
-619.361	-48.462	-0.189	-0.090
-618.346	59.770	-0.288	-0.282
-617.332	-62.828	-0.079	0.033
-616.317	-200.000	0.001	0.287
-615.303	-69.661	0.054	-0.021
-614.288	30.463	0.202	-0.171
-613.273	-41.482	-0.172	-0.088
-612.259	158.793	0.090	-0.123
-611.244	-27.427	-0.076	0.044
-610.230	-59.998	0.146	0.062
-609.215	-73.121	-0.232	0.084
-608.201	34.265	-0.150	-0.130
-607.186	-99.118	-0.241	0.060
-606.171	-39.719	-0.212	-0.110
-605.157	-110.118	-0.585	-0.121
-604.142	-177.471	-0.158	0.004
-603.128	-106.400	-0.184	0.041
-602.113	177.760	0.147	-0.213
-601.098	59.599	-0.150	-0.147
-600.084	290.521	0.083	0.149
-599.069	-152.772	0.209	0.015
-598.055	-125.420	-0.096	0.015
-597.040	474.710	0.024	-0.054
-596.025	22.394	-0.071	0.058
-595.011	-147.843	-0.153	0.013
-593.996	-200.000	-0.042	0.241
-592.982	-200.000	0.008	-0.150
-591.967	140.694	-0.034	0.044
-590.952	464.373	-0.131	0.291
-589.938	19.474	-0.197	0.157
-588.923	99.766	0.101	0.116
-587.909	308.535	0.189	-0.351
-586.894	800.000	0.037	-0.108
-585.879	118.403	0.086	0.105
-584.865	-57.343	-0.232	0.101
-583.850	188.856	0.089	0.132
-582.836	-200.000	0.011	0.195
-581.821	103.717	-0.083	0.096
-580.806	800.000	-0.130	-0.435
-579.792	-19.259	0.201	-0.124
-578.777	-200.000	0.028	-0.137
-577.763	-200.000	0.063	0.348
-576.748	-31.094	-0.196	-0.109
-575.733	449.684	0.113	-0.246
-574.719	-46.271	-0.211	0.103
-573.704	-200.000	-0.042	0.196
-572.690	-124.128	-0.201	-0.031
-571.675	-125.905	-0.082	-0.012
-570.661	186.531	-0.445	-0.657
-569.646	-67.893	-0.348	-0.135
-568.631	566.810	0.148	-0.356
-567.617	423.553	-0.089	-0.189
-566.602	32.784	-0.349	0.299
-565.588	-167.142	0.077	0.003
-564.573	144.341	-0.263	-0.347
-563.558	-200.000	0.014	-0.079
-562.544	800.000	0.060	0.168
-561.529	-48.584	0.109	0.052
-560.515	-77.186	-0.363	0.125
-559.500	800.000	-0.068	0.186
-558.485	-6.738	0.202	0.136
-557.471	-200.000	0.269	-0.001
-556.456	114.418	0.223	-0.269
-555.442	124.310	0.193	0.241
-554.427	78.704	-0.056	-0.059
-553.412	-81.621	-0.109	-0.035
-552.398	390.611	0.074	-0.151
-551.383	219.037	0.196	0.311
-550.369	-200.000	0.006	0.248
-549.354	125.549	0.164	0.204
-548.339	-200.000	-0.017	-0.148
-547.325	490.903	0.053	0.121
-546.310	-159.889	0.221	-0.012
-545.296	357.518	-0.027	-0.053
-544.281	158.212	-0.071	0.097
-543.266	-200.000	-0.006	-0.205
-542.252	67.857	0.201	-0.204
-541.237	800.000	0.040	-0.172
-540.223	-200.000	-0.033	0.242
-539.208	800.000	-0.056	0.186
-538.193	-95.934	0.341	-0.090
-537.179	800.000	-0.038	-0.158
-536.164	-89.405	-0.288	0.084
-535.150	110.800	0.248	0.295
-534.135	123.966	0.096	-0.119
-533.121	99.205	0.181	0.207
-532.106	64.550	0.148	-0.147
-531.091	187.333	-0.127	-0.187
-530.077	-200.000	-0.009	-0.074
-529.062	-200.000	0.037	-0.265
-528.048	-135.126	0.213	0.025
-527.033	-43.517	-0.120	-0.060
-526.018	115.284	-0.247	-0.298
-525.004	-30.295	-0.285	-0.160
-523.989	-31.626	-0.407	-0.226
-522.975	277.452	0.068	0.120
-521.960	245.235	-0.089	0.147
-520.945	800.000	0.185	-0.528
-519.931	100.273	-0.149	0.171
-518.916	467.130	-0.027	-0.060
-517.902	-200.000	-0.008	0.394
-516.887	-122.838	-0.162	-0.026
-515.872	38.070	0.341	0.300
-514.858	456.151	0.124	0.273
-513.843	-140.549	0.441	0.045
-512.829	800.000	0.115	-0.332
-511.814	139.240	-0.116	0.151
-510.799	-135.786	0.268	-0.031
-509.785	-14.614	0.139	-0.088
-508.770	-200.000	-0.027	0.193
-507.756	-8.872	-0.167	0.110
-506.741	-200.000	-0.000	-0.325
-505.726	37.599	0.185	0.162
-504.712	350.538	0.066	0.130
-503.697	-81.130	0.326	0.107
-502.683	604.815	-0.102	-0.252
-501.668	53.665	-0.141	-0.134
-500.653	-121.552	0.230	-0.038
-499.639	-48.648	-0.336	0.159
-498.624	800.000	-0.053	-0.217
-497.610	317.848	-0.017	0.032
-496.595	18.207	0.185	-0.146
-495.581	-125.709	-0.205	0.031
-494.566	-89.621	-0.525	-0.152
-493.551	160.925	0.147	0.202
-492.537	-200.000	0.025	0.413
-491.522	403.853	0.017	-0.035
-490.508	-82.187	-0.090	-0.029
-489.493	95.872	0.269	-0.304
-488.478	-104.172	0.256	0.059
-487.464	169.662	-0.062	-0.088
-486.449	-67.488	0.147	-0.057
-485.435	-71.737	0.169	0.062
-484.420	-178.936	-0.291	0.007
-483.405	-134.453	0.251	-0.030
-482.391	-6.933	0.274	-0.184
-481.376	-200.000	-0.061	-0.535
-480.362	-200.000	0.028	-0.301
-479.347	-200.000	-0.019	0.101
-478.332	56.974	-0.181	-0.174
-477.318	-200.000	-0.001	-0.019
-476.303	91.132	-0.133	-0.148
-475.289	-200.000	-0.049	0.221
-474.274	363.969	-0.124	-0.246
-473.259	48.883	-0.067	0.062
-472.245	-101.262	0.162	-0.039
-471.230	-102.371	-0.385	-0.091
-470.216	-200.000	0.010	-0.089
-469.201	-200.000	0.022	0.139
-468.186	55.767	-0.097	0.093
-467.172	-31.037	-0.174	-0.097
-466.157	-146.937	-0.283	0.024
-465.143	-200.000	-0.020	0.159
-464.128	212.243	-0.065	0.101
-463.113	-43.991	0.087	0.043
-462.099	-93.932	-0.169	0.046
-461.084	444.166	0.164	-0.355
-460.070	-200.000	-0.044	0.211
-459.055	215.007	0.315	0.493
-458.040	-134.184	0.264	-0.032
-457.026	-77.743	-0.412	-0.140
-456.011	-200.000	-0.023	0.236
-454.997	-15.402	0.144	0.091
-453.982	-200.000	0.025	0.172
-452.968	119.949	0.242	-0.296
-451.953	266.109	-0.235	-0.405
-450.938	-200.000	-0.331	0.000
-449.924	317.773	0.105	0.195
-448.909	296.560	0.127	-0.230
-447.895	-144.198	0.058	-0.005
-446.880	98.985	0.104	0.118
-445.865	489.538	0.115	0.259
-444.851	36.552	0.119	0.104
-443.836	-31.351	-0.189	0.105
-442.822	414.088	0.121	0.255
-441.807	-153.100	0.415	0.029
-440.792	333.977	0.103	0.197
-439.778	-95.338	0.395	-0.105
-438.763	-40.769	0.389	0.198
-437.749	539.793	-0.147	-0.345
-436.734	-120.920	-0.147	0.024
-435.719	-118.979	0.284	0.049
-434.705	-81.322	0.091	-0.029
-433.690	-200.000	-0.022	0.109
-432.676	-14.403	0.164	-0.104
-431.661	-200.000	-0.007	0.190
-430.646	-106.724	0.258	0.057
-429.632	-162.637	-0.198	0.010
-428.617	800.000	-0.077	-0.304
-427.603	-172.340	-0.226	0.007
-426.588	88.563	0.157	-0.172
-425.573	-101.834	0.084	0.020
-424.559	712.660	-0.077	-0.200
-423.544	354.775	0.116	0.228
-422.530	-200.000	-0.004	-0.389
-421.515	-200.000	-0.030	-0.223
-420.500	-14.734	-0.150	-0.095
-419.486	-0.549	0.067	0.047
-418.471	-112.956	0.139	0.027
-417.457	-200.000	0.026	0.194
-416.442	128.415	-0.078	-0.097
-415.428	300.602	-0.093	0.169
-414.413	800.000	-0.142	0.418
-413.398	-200.000	-0.028	0.146
-412.384	-62.915	-0.156	0.064
-411.369	-69.662	0.121	-0.046
-410.355	366.077	-0.015	-0.030
-409.340	281.362	-0.133	0.235
-408.325	-62.305	0.216	0.088
-407.311	-63.628	0.210	0.085
-406.296	184.628	0.054	0.078
-405.282	-79.969	0.146	-0.048
-404.267	-200.000	-0.020	-0.397
-403.252	800.000	-0.080	-0.262
-402.238	-142.613	-0.124	-0.012
-401.223	-200.000	-0.007	0.384
-400.209	-12.587	-0.204	-0.131
-399.194	234.873	0.061	-0.099
-398.179	-46.820	-0.264	0.127
-397.165	-90.114	-0.237	0.068
-396.150	-143.961	0.321	0.030
-395.136	26.691	-0.185	-0.152
-394.121	-20.347	-0.067	-0.041
-393.106	108.126	-0.222	-0.261
-392.092	67.018	0.173	0.174
-391.077	-200.000	0.050	0.264
-390.063	-99.649	0.291	-0.072
-389.048	29.661	0.049	-0.041
-388.033	76.520	0.188	-0.196
-387.019	800.000	-0.117	0.321
-386.004	-19.991	0.094	0.057
-384.990	-34.454	-0.251	0.135
-383.975	-200.000	-0.050	0.287
-382.960	800.000	0.044	-0.145
-381.946	800.000	-0.079	-0.214
-380.931	-135.614	0.340	0.040
-379.917	800.000	0.022	0.093
-378.902	-4.279	0.125	0.085
-377.888	800.000	-0.139	0.431
-376.873	574.471	-0.103	0.246
-375.858	-200.000	-0.018	-0.109
-374.844	-52.497	0.123	-0.056
-373.829	12.886	0.220	0.167
-372.815	-150.599	-0.359	0.027
-371.800	240.751	-0.070	0.114
-370.785	-141.111	-0.423	0.043
-369.771	800.000	-0.030	0.101
-368.756	-93.012	0.012	0.003
-367.742	-127.626	0.256	0.036
-366.727	-63.612	-0.134	-0.054
-365.712	-42.640	0.235	-0.117
-364.698	55.635	0.315	0.300
-363.683	-200.000	0.013	0.116
-362.669	-138.878	0.336	-0.036
-361.654	142.258	0.134	-0.175
-360.639	-81.557	-0.345	-0.112
-359.625	800.000	-0.069	-0.245
-358.610	12.298	0.047	-0.035
-357.596	-21.909	-0.253	-0.151
-356.581	4.136	-0.028	-0.020
-355.566	146.461	-0.133	-0.176
-354.552	-136.392	0.138	-0.016
-353.537	800.000	-0.048	-0.171
-352.523	17.343	-0.181	0.141
-351.508	-13.893	0.102	0.065
-350.493	31.521	-0.430	0.363
-349.479	248.093	-0.064	-0.106
-348.464	-200.000	0.014	0.288
-347.450	800.000	0.034	-0.122
-346.435	421.789	0.059	-0.125
-345.420	-40.544	0.481	-0.245
-344.406	190.437	-0.065	0.095
-343.391	-66.519	0.329	-0.128
-342.377	216.336	-0.262	-0.408
-341.362	-84.775	0.247	-0.076
-340.348	210.092	0.079	0.122
-339.333	257.762	0.104	-0.175
-338.318	309.963	0.046	0.084
-337.304	-200.000	0.068	0.413
-336.289	214.592	-0.160	-0.249
-335.275	-180.164	0.105	-0.002
-334.260	-135.481	0.416	0.049
-333.245	-145.316	-0.162	-0.014
-332.231	-103.969	-0.141	0.032
-331.216	800.000	0.059	-0.237
-330.202	-170.643	-0.106	-0.004
-329.187	760.056	-0.040	0.108
-328.172	-17.161	-0.256	-0.159
-327.158	-14.465	0.052	0.033
-326.143	-23.866	0.222	0.130
-325.129	716.652	0.112	0.293
-324.114	800.000	0.062	-0.182
-323.099	800.000	0.115	-0.375
-322.085	-36.024	0.304	-0.161
-321.070	11.453	-0.120	0.091
-320.056	-103.528	-0.131	-0.030
-319.041	-200.000	0.071	-0.311
-318.026	91.890	-0.075	0.083
-317.012	78.621	-0.221	0.232
-315.997	84.908	0.064	0.068
-314.983	485.891	0.096	-0.215
-313.968	-200.000	-0.013	0.092
-312.953	269.961	0.091	0.157
-311.939	266.951	0.227	-0.389
-310.924	-49.699	0.391	0.182
-309.910	-90.222	-0.060	-0.017
-308.895	191.922	0.085	0.125
-307.880	-69.372	-0.317	0.119
-306.866	-160.466	-0.006	0.000
-305.851	-200.000	-0.018	0.309
-304.837	15.303	0.329	0.253
-303.822	-139.014	-0.061	0.007
-302.807	556.577	-0.059	-0.140
-301.793	-168.427	-0.224	0.008
-300.778	186.420	0.045	-0.066
-299.764	-111.688	-0.077	0.015
-298.749	-47.387	0.267	-0.127
-297.735	184.136	0.139	0.201
-296.720	272.297	0.096	0.166
-295.705	-148.572	0.113	-0.009
-294.691	30.832	-0.168	0.141
-293.676	64.193	0.115	-0.114
-292.662	179.480	0.099	-0.142
-291.647	800.000	0.030	0.118
-290.632	-110.533	0.010	0.002
-289.618	800.000	0.080	-0.307
-288.603	238.386	0.066	0.107
-287.589	95.430	-0.116	0.129
-286.574	497.912	0.153	-0.345
-285.559	800.000	0.050	0.155
-284.545	312.217	-0.059	0.108
-283.530	401.819	0.060	0.124
-282.516	266.989	-0.025	-0.042
-281.501	437.931	0.103	0.220
-280.486	800.000	-0.111	0.375
-279.472	76.116	0.344	0.357
-278.457	-67.025	0.276	0.107
-277.443	29.532	-0.066	-0.055
-276.428	390.680	-0.051	0.103
-275.413	800.000	-0.068	-0.265
-274.399	-200.000	0.021	0.122
-273.384	29.037	0.189	0.157
-272.370	-138.880	-0.171	-0.018
-271.355	-95.852	0.342	0.089
-270.340	126.385	0.289	-0.358
-269.326	248.052	-0.121	-0.200
-268.311	-30.108	0.245	-0.136
-267.297	-200.000	0.016	0.132
-266.282	800.000	-0.056	0.236
-265.267	-117.050	-0.221	0.039
-264.253	800.000	-0.081	-0.250
-263.238	205.023	0.111	-0.169
-262.224	7.023	-0.259	-0.189
-261.209	-5.256	0.145	-0.097
-260.195	112.851	-0.068	-0.080
-259.180	39.223	-0.122	-0.107
-258.165	800.000	-0.024	0.085
-257.151	112.972	0.201	-0.239
-256.136	-200.000	-0.032	0.241
-255.122	96.185	-0.038	0.043
-254.107	246.681	-0.144	0.238
-253.092	-116.557	-0.313	-0.056
-252.078	-98.212	-0.113	-0.028
-251.063	-69.571	-0.144	-0.054
-250.049	800.000	-0.069	0.196
-249.034	-200.000	0.020	0.099
-248.019	254.433	0.147	0.246
-247.005	-83.370	0.374	-0.117
-245.990	109.324	-0.058	-0.068
-244.976	-156.866	-0.417	0.025
-243.961	-200.000	-0.001	-0.081
-242.946	-114.808	0.302	-0.056
-241.932	-35.335	0.140	0.074
-240.917	-200.000	-0.280	-0.001
-239.903	-51.893	0.186	0.085
-238.888	-38.236	-0.109	-0.057
-237.873	-200.000	0.007	0.139
-236.859	-41.973	0.408	0.204
-235.844	-70.040	0.315	-0.117
-234.830	-115.652	-0.164	0.030
-233.815	-110.205	0.422	0.086
-232.800	-87.232	-0.261	0.078
-231.786	221.441	-0.079	-0.124
-230.771	104.856	-0.300	0.346
-229.757	-84.014	-0.196	-0.061
-228.742	585.409	-0.104	0.251
-227.727	-200.000	-0.029	0.309
-226.713	102.932	-0.062	0.071
-225.698	134.157	-0.115	0.146
-224.684	-57.060	0.072	-0.031
-223.669	-122.670	0.058	0.009
-222.655	-200.000	-0.009	0.122
-221.640	120.726	-0.253	0.307
-220.625	-200.000	0.009	-0.099
-219.611	-11.812	0.348	-0.223
-218.596	124.978	-0.056	-0.069
-217.582	-93.870	-0.134	-0.036
-216.567	42.210	-0.307	0.273
-215.552	24.432	0.293	-0.236
-214.538	112.654	0.126	-0.149
-213.523	-19.938	-0.199	-0.120
-212.509	376.131	0.026	-0.052
-211.494	624.143	-0.064	0.158
-210.479	-200.000	0.000	0.076
-209.465	21.733	0.228	-0.182
-208.450	624.005	0.074	-0.182
-207.436	-42.517	-0.108	-0.054
-206.421	89.250	0.258	-0.280
-205.406	-4.760	-0.208	0.140
-204.392	-62.493	0.125	0.051
-203.377	95.593	0.173	-0.193
-202.363	-22.433	0.095	0.056
-201.348	-200.000	0.027	0.169
-200.333	-138.191	-0.342	0.037
-199.319	-16.406	-0.500	0.310
-198.304	-76.725	0.033	-0.011
-197.290	-186.468	-0.141	0.002
-196.275	-118.849	0.419	-0.072
-195.260	209.983	0.008	-0.012
-194.246	192.816	0.232	-0.342
-193.231	-200.000	0.055	0.417
-192.217	32.178	0.134	-0.113
-191.202	-92.262	-0.585	-0.161
-190.187	-200.000	-0.019	-0.085
-189.173	55.734	0.283	0.268
-188.158	243.642	0.032	-0.052
-187.144	-200.000	-0.002	0.534
-186.129	187.418	-0.140	-0.204
-185.114	-22.910	-0.090	0.053
-184.100	107.144	0.132	0.153
-183.085	77.896	-0.228	-0.238
-182.071	-61.916	-0.132	-0.054
-181.056	-70.086	-0.011	-0.004
-180.042	138.105	-0.090	-0.115
-179.027	245.961	0.105	-0.173
-178.012	-200.000	0.048	-0.436
-176.998	-200.000	-0.017	0.105
-175.983	800.000	0.134	-0.481
-174.969	800.000	-0.079	0.291
-173.954	-90.487	0.131	0.037
-172.939	31.848	-0.043	0.036
-171.925	220.229	0.228	0.356
-170.910	-200.000	0.003	-0.092
-169.896	-124.329	0.242	0.037
-168.881	-56.323	-0.302	-0.131
-167.866	549.564	-0.042	0.099
-166.852	-200.000	0.002	-0.125
-165.837	58.504	-0.129	-0.123
-164.823	-200.000	0.037	-0.508
-163.808	-64.363	-0.054	-0.021
-162.793	-200.000	-0.021	-0.162
-161.779	261.134	0.071	0.119
-160.764	462.801	0.069	0.151
-159.750	-151.955	-0.175	0.012
-158.735	-45.539	-0.183	-0.088
-157.720	-200.000	-0.019	-0.174
-156.706	69.074	0.242	-0.242
-155.691	116.044	-0.080	-0.096
-154.677	-152.348	0.219	-0.015
-153.662	-186.511	-0.258	-0.004
-152.647	-200.000	0.023	-0.101
-151.633	36.746	-0.136	-0.117
-150.618	-200.000	0.044	0.266
-149.604	-200.000	0.043	0.193
-148.589	-200.000	0.036	0.397
-147.574	-74.371	-0.225	-0.079
-146.560	63.139	-0.240	0.235
-145.545	-87.298	-0.172	0.051
-144.531	-36.530	0.225	-0.118
-143.516	33.450	0.090	0.076
-142.502	795.643	0.101	0.272
-141.487	175.721	-0.137	-0.193
-140.472	16.857	0.071	0.055
-139.458	-53.468	-0.299	0.133
-138.443	-140.541	0.120	-0.012
-137.429	236.862	-0.172	0.277
-136.414	800.000	-0.050	0.201
-135.399	-24.298	0.108	0.063
-134.385	-200.000	-0.018	0.211
-133.370	-147.849	-0.250	-0.020
-132.356	743.893	0.105	-0.274
-131.341	98.538	-0.069	0.078
-130.326	257.442	0.348	-0.583
-129.312	-86.345	0.161	0.048
-128.297	-129.438	0.447	0.060
-127.283	35.064	0.208	-0.178
-126.268	800.000	0.064	0.213
-125.253	112.355	-0.198	-0.233
-124.239	367.537	-0.184	-0.361
-123.224	-24.749	0.248	0.143
-122.210	368.484	0.068	0.134
-121.195	-95.637	0.119	-0.031
