DTS Sentinel unit serial number:	SN413079Multiplexer serial number:	ORYXHardware model number:	OX4-SRSoftware version number:	ORYX F/W v4.00 Oryx Data Collector v3.7.2.0data status	okinstallation	princeton_trtdifferential loss correction	single-endedforward channel	channel 2reverse channel	N/Adate	2019/09/17time	07:11:35forward acquisition time	60.00reverse acquisition time	0.00gamma	496.2192k internal	0.2334k external	0.2334temperature offset calibration	0.9977default loss term (dB/km)	0.3790temperature slope calibration	1.0000multiplexer offset coefficient	1.0000multiplexer slope coefficient	1.0000fibre end	0.00T internal ref (°C)	27.34T ext. ref 1 (°C)	0.12T ext. ref 2 (°C)	21.17length (m)	temperature (°C)	Stokes	anti-Stokes-747.200	-128.585	0.181	0.026
-746.185	32.938	-0.196	-0.171
-745.171	62.753	-0.176	0.177
-744.156	800.000	-0.074	0.263
-743.142	-72.406	-0.124	0.046
-742.127	65.496	-0.165	-0.167
-741.112	-64.596	0.353	-0.144
-740.098	-200.000	0.053	0.262
-739.083	-16.374	0.109	-0.069
-738.069	-200.000	-0.009	0.317
-737.054	385.223	0.105	0.219
-736.039	-80.288	-0.276	0.093
-735.025	-151.077	0.290	0.022
-734.010	800.000	0.023	0.070
-732.996	-64.502	-0.191	0.078
-731.981	457.795	-0.088	0.197
-730.966	-101.372	-0.121	-0.030
-729.952	-143.053	-0.363	-0.035
-728.937	227.920	0.033	-0.054
-727.923	-84.949	-0.321	-0.101
-726.908	169.008	-0.063	-0.090
-725.894	-79.464	0.242	-0.082
-724.879	41.079	-0.091	0.082
-723.864	-100.261	0.090	-0.022
-722.850	-167.039	-0.425	-0.017
-721.835	-200.000	-0.003	0.067
-720.821	213.247	-0.114	0.180
-719.806	96.806	0.205	0.236
-718.791	-200.000	0.007	-0.198
-717.777	-29.734	-0.201	0.115
-716.762	-77.996	0.217	-0.075
-715.748	-104.121	-0.205	-0.048
-714.733	-125.498	-0.213	-0.033
-713.718	800.000	-0.206	-0.629
-712.704	-200.000	0.002	-0.209
-711.689	-200.000	0.005	0.048
-710.675	-173.674	-0.240	0.007
-709.660	34.326	-0.219	0.192
-708.645	798.649	-0.070	0.194
-707.631	800.000	0.091	-0.306
-706.616	800.000	-0.003	-0.013
-705.602	-105.879	-0.158	-0.036
-704.587	-145.547	-0.395	-0.036
-703.572	176.337	-0.109	-0.159
-702.558	-150.591	-0.156	0.012
-701.543	33.832	0.086	-0.075
-700.529	-200.000	-0.010	-0.230
-699.514	107.028	-0.270	0.322
-698.499	154.137	0.143	0.196
-697.485	-200.000	0.050	0.304
-696.470	5.935	-0.420	-0.312
-695.456	98.026	-0.348	0.402
-694.441	800.000	0.080	-0.230
-693.426	-200.000	-0.017	0.259
-692.412	683.443	0.089	0.233
-691.397	-200.000	-0.012	-0.064
-690.383	735.284	-0.020	-0.053
-689.368	40.490	-0.201	-0.181
-688.354	-112.498	-0.376	0.075
-687.339	800.000	0.058	-0.165
-686.324	-78.668	-0.236	-0.081
-685.310	-124.600	-0.088	0.014
-684.295	48.189	0.201	0.189
-683.281	-200.000	-0.033	-0.341
-682.266	-200.000	-0.368	-0.001
-681.251	75.020	0.084	0.089
-680.237	-20.646	-0.092	-0.057
-679.222	-24.232	-0.281	0.168
-678.208	-134.948	-0.183	0.022
-677.193	-148.354	0.053	0.004
-676.178	-117.463	0.122	-0.022
-675.164	-200.000	0.005	0.273
-674.149	106.225	-0.039	-0.046
-673.135	800.000	-0.085	-0.289
-672.120	307.772	-0.152	0.284
-671.105	16.529	0.194	-0.154
-670.091	-200.000	-0.036	0.355
-669.076	134.331	-0.123	-0.160
-668.062	-200.000	0.045	-0.223
-667.047	-2.745	-0.056	0.039
-666.032	157.011	-0.084	-0.116
-665.018	-70.296	0.234	0.089
-664.003	-1.694	-0.401	-0.283
-662.989	-172.901	0.227	0.007
-661.974	190.355	0.104	-0.157
-660.959	363.544	0.100	0.202
-659.945	157.229	-0.113	0.156
-658.930	599.620	0.081	0.202
-657.916	-200.000	0.052	-0.243
-656.901	-200.000	0.004	-0.182
-655.886	17.039	0.129	0.102
-654.872	800.000	-0.031	0.115
-653.857	-114.336	0.230	0.044
-652.843	262.105	-0.113	-0.196
-651.828	297.519	-0.038	0.070
-650.814	-75.839	0.240	0.085
-649.799	391.391	0.126	0.261
-648.784	-118.394	-0.060	-0.011
-647.770	-37.834	0.188	0.100
-646.755	169.702	-0.131	0.188
-645.741	-200.000	-0.044	0.300
-644.726	33.477	-0.140	-0.122
-643.711	-115.125	-0.174	0.033
-642.697	575.145	0.118	-0.288
-641.682	-98.641	0.273	0.070
-640.668	-200.000	-0.013	-0.288
-639.653	82.525	-0.094	-0.102
-638.638	-143.300	-0.134	0.013
-637.624	103.438	0.156	-0.183
-636.609	4.478	-0.101	0.074
-635.595	129.416	0.175	0.223
-634.580	3.562	-0.171	-0.125
-633.565	-200.000	-0.022	0.110
-632.551	-51.238	-0.126	-0.059
-631.536	800.000	0.033	-0.113
-630.522	131.906	-0.134	-0.172
-629.507	-102.554	-0.205	0.049
-628.492	-5.917	-0.118	-0.081
-627.478	-39.889	-0.112	-0.058
-626.463	174.035	-0.028	-0.041
-625.449	-3.111	-0.011	0.008
-624.434	263.272	-0.050	0.086
-623.419	-108.745	-0.174	0.037
-622.405	-167.585	0.434	-0.017
-621.390	-89.248	0.236	-0.070
-620.376	800.000	0.070	-0.230
-619.361	-108.784	0.252	-0.054
-618.346	16.418	-0.081	-0.064
-617.332	768.336	-0.047	0.127
-616.317	-14.488	0.039	-0.025
-615.303	563.438	-0.026	-0.063
-614.288	-200.000	0.007	0.135
-613.273	105.463	-0.142	-0.167
-612.259	-99.674	-0.342	0.086
-611.244	288.283	-0.167	-0.303
-610.230	246.440	0.107	-0.180
-609.215	76.200	0.088	-0.093
-608.201	800.000	0.072	0.249
-607.186	39.715	0.078	0.070
-606.171	-200.000	-0.006	0.147
-605.157	-130.922	-0.321	-0.043
-604.142	147.582	-0.194	-0.262
-603.128	133.211	0.189	-0.244
-602.113	64.912	0.128	0.129
-601.098	191.165	0.106	-0.159
-600.084	-200.000	0.008	-0.053
-599.069	302.831	-0.118	-0.218
-598.055	-200.000	-0.019	0.256
-597.040	-141.090	-0.258	-0.026
-596.025	35.720	-0.198	-0.174
-595.011	-200.000	-0.021	-0.149
-593.996	-146.884	0.341	-0.029
-592.982	117.169	-0.179	-0.219
-591.967	719.778	0.119	-0.317
-590.952	652.729	0.065	0.166
-589.938	501.333	0.104	0.240
-588.923	-9.715	0.085	-0.057
-587.909	10.005	0.069	-0.052
-586.894	116.231	0.172	0.210
-585.879	-127.514	-0.180	0.026
-584.865	-23.438	-0.087	0.052
-583.850	597.653	0.076	-0.187
-582.836	81.869	-0.110	0.119
-581.821	800.000	0.066	0.261
-580.806	227.625	0.096	0.156
-579.792	458.400	0.160	0.356
-578.777	-200.000	0.038	-0.248
-577.763	74.609	0.132	-0.138
-576.748	-62.787	0.123	0.051
-575.733	-102.358	-0.108	0.026
-574.719	-33.652	-0.089	0.049
-573.704	110.512	-0.172	0.207
-572.690	-62.022	0.035	0.015
-571.675	800.000	-0.098	0.295
-570.661	-129.091	0.305	-0.043
-569.646	-200.000	0.040	-0.408
-568.631	-40.470	0.135	0.070
-567.617	85.876	-0.117	0.129
-566.602	-200.000	0.003	0.192
-565.588	-29.024	-0.263	0.151
-564.573	-200.000	0.006	-0.192
-563.558	-2.611	-0.152	-0.106
-562.544	-134.758	-0.127	0.015
-561.529	222.176	-0.026	-0.042
-560.515	232.098	-0.078	-0.128
-559.500	-200.000	-0.154	-0.000
-558.485	-200.000	0.000	0.092
-557.471	-102.560	-0.282	-0.067
-556.456	-140.637	-0.173	0.018
-555.442	293.083	-0.232	-0.421
-554.427	206.718	-0.064	-0.100
-553.412	-166.116	-0.082	-0.003
-552.398	800.000	0.092	-0.315
-551.383	-122.118	0.172	-0.028
-550.369	223.638	0.037	0.060
-549.354	-99.964	-0.134	0.033
-548.339	252.047	0.253	0.430
-547.325	638.072	-0.027	-0.067
-546.310	-200.000	-0.007	-0.060
-545.296	-200.000	0.010	0.189
-544.281	429.298	-0.159	0.343
-543.266	351.932	0.072	0.142
-542.252	-81.398	0.215	0.071
-541.237	195.244	-0.122	-0.185
-540.223	217.533	0.087	0.139
-539.208	-200.000	0.027	0.543
-538.193	-56.163	-0.151	-0.067
-537.179	800.000	0.082	0.313
-536.164	-127.849	0.129	-0.018
-535.150	-200.000	0.008	-0.272
-534.135	273.815	-0.077	0.136
-533.121	-57.767	-0.216	0.094
-532.106	-42.183	-0.192	-0.098
-531.091	-90.484	-0.206	0.060
-530.077	-31.956	0.211	0.118
-529.062	123.227	0.381	-0.476
-528.048	-200.000	-0.107	0.477
-527.033	-200.000	0.029	0.226
-526.018	800.000	-0.081	0.230
-525.004	-40.911	0.248	0.128
-523.989	800.000	0.061	0.175
-522.975	398.541	-0.113	0.236
-521.960	604.711	-0.117	0.290
-520.945	-153.778	0.240	-0.016
-519.931	61.615	0.246	0.244
-518.916	9.820	-0.126	-0.095
-517.902	142.408	0.097	0.128
-516.887	-84.730	-0.188	0.059
-515.872	-200.000	0.039	-0.315
-514.858	-104.517	0.262	-0.060
-513.843	17.680	0.239	-0.189
-512.829	800.000	0.089	0.245
-511.814	-200.000	-0.012	-0.297
-510.799	-200.000	-0.131	-0.640
-509.785	110.937	0.102	-0.122
-508.770	601.914	0.024	-0.059
-507.756	800.000	0.030	-0.087
-506.741	428.180	-0.062	-0.133
-505.726	67.541	0.095	-0.097
-504.712	-47.209	-0.156	0.075
-503.697	800.000	0.035	-0.107
-502.683	443.987	-0.069	-0.151
-501.668	-117.090	-0.252	0.046
-500.653	-199.317	0.180	-0.001
-499.639	163.746	0.124	0.174
-498.624	297.747	-0.156	-0.286
-497.610	-49.028	-0.219	0.104
-496.595	-35.903	0.271	-0.146
-495.581	800.000	-0.065	-0.255
-494.566	25.099	0.442	-0.365
-493.551	94.111	-0.153	-0.173
-492.537	800.000	0.021	0.080
-491.522	-156.379	-0.106	-0.007
-490.508	-200.000	-0.015	-0.257
-489.493	-36.993	0.066	0.035
-488.478	-29.333	-0.207	-0.118
-487.464	-103.826	-0.405	0.094
-486.449	800.000	0.061	-0.173
-485.435	3.717	0.085	-0.062
-484.420	-200.000	0.006	0.148
-483.405	-200.000	-0.024	0.412
-482.391	-98.899	-0.346	0.087
-481.376	15.947	-0.245	-0.192
-480.362	-72.162	0.270	0.100
-479.347	248.522	0.093	-0.157
-478.332	-170.500	0.414	0.014
-477.318	-200.000	0.025	-0.266
-476.303	-200.000	-0.038	-0.341
-475.289	800.000	0.039	-0.127
-474.274	21.795	0.081	-0.066
-473.259	-181.697	0.274	-0.005
-472.245	-62.019	0.255	-0.106
-471.230	-163.689	0.249	-0.012
-470.216	-118.017	-0.086	-0.015
-469.201	109.116	-0.130	-0.155
-468.186	800.000	0.026	-0.072
-467.172	180.235	-0.023	-0.034
-466.157	92.145	0.220	-0.246
-465.143	88.969	-0.159	0.176
-464.128	-91.403	0.174	-0.049
-463.113	-23.544	-0.080	0.048
-462.099	-129.989	-0.167	-0.023
-461.084	-45.441	-0.053	0.026
-460.070	-200.000	-0.015	0.163
-459.055	-14.539	-0.304	-0.194
-458.040	-200.000	-0.050	0.434
-457.026	-140.690	0.137	0.014
-456.011	-120.741	-0.200	0.033
-454.997	-200.000	0.033	-0.377
-453.982	-188.833	0.130	0.002
-452.968	800.000	0.081	-0.295
-451.953	-79.601	0.206	0.069
-450.938	800.000	0.134	-0.369
-449.924	534.946	-0.056	0.131
-448.909	217.312	-0.166	-0.262
-447.895	-200.000	-0.018	0.147
-446.880	61.580	0.156	0.155
-445.865	102.511	-0.127	-0.147
-444.851	-200.000	0.047	-0.288
-443.836	-94.088	-0.151	0.041
-442.822	-200.000	-0.014	0.357
-441.807	-136.115	0.127	0.015
-440.792	-200.000	-0.028	-0.181
-439.778	-188.191	-0.183	0.002
-438.763	100.140	0.044	0.051
-437.749	-106.613	-0.282	-0.062
-436.734	-200.000	0.007	-0.155
-435.719	-81.689	0.183	-0.060
-434.705	52.463	-0.156	-0.148
-433.690	69.102	-0.058	-0.060
-432.676	-200.000	-0.007	0.133
-431.661	-102.223	0.431	0.103
-430.646	354.292	-0.125	0.246
-429.632	-42.226	-0.341	-0.173
-428.617	-200.000	0.044	-0.372
-427.603	560.331	0.091	-0.219
-426.588	27.927	0.146	0.122
-425.573	-107.963	0.355	0.077
-424.559	300.123	-0.097	-0.178
-423.544	-7.509	0.314	0.211
-422.530	347.723	0.047	-0.091
-421.515	-123.575	-0.042	0.007
-420.500	-121.281	-0.179	0.030
-419.486	-200.000	-0.050	0.264
-418.471	558.302	0.135	0.322
-417.457	-87.439	-0.175	-0.053
-416.442	800.000	-0.065	0.188
-415.428	-200.000	0.046	0.460
-414.413	144.069	-0.128	0.169
-413.398	800.000	-0.018	0.071
-412.384	-129.426	-0.127	-0.017
-411.369	-8.175	0.313	0.209
-410.355	-200.000	0.023	0.298
-409.340	-152.219	0.150	0.011
-408.325	-5.718	-0.095	0.065
-407.311	-200.000	-0.001	-0.075
-406.296	-112.432	0.134	0.027
-405.282	15.513	-0.192	-0.150
-404.267	-5.671	0.230	-0.156
-403.252	252.637	0.024	0.041
-402.238	800.000	-0.095	-0.361
-401.223	-50.951	-0.391	-0.182
-400.209	-200.000	-0.035	-0.256
-399.194	-51.848	0.228	-0.105
-398.179	127.209	0.178	-0.224
-397.165	383.083	-0.136	0.277
-396.150	800.000	0.105	0.381
-395.136	-32.119	-0.187	0.104
-394.121	-90.630	0.116	0.033
-393.106	800.000	-0.006	0.021
-392.092	-200.000	0.002	-0.113
-391.077	71.950	-0.102	0.105
-390.063	-3.140	0.028	-0.019
-389.048	-135.201	-0.034	0.004
-388.033	800.000	-0.035	0.097
-387.019	-15.017	0.348	-0.221
-386.004	85.806	-0.099	0.108
-384.990	-29.873	-0.110	0.062
-383.975	-103.969	0.180	0.042
-382.960	596.468	0.045	-0.111
-381.946	-62.573	-0.240	0.099
-380.931	-27.786	-0.185	0.106
-379.917	13.215	-0.126	0.096
-378.902	-149.457	-0.158	0.012
-377.888	-118.096	-0.136	-0.024
-376.873	77.070	-0.058	0.061
-375.858	638.657	-0.077	0.193
-374.844	343.108	0.152	-0.295
-373.829	-200.000	-0.007	-0.083
-372.815	800.000	-0.118	0.356
-371.800	-59.288	-0.262	-0.112
-370.785	140.609	0.147	0.193
-369.771	107.067	-0.262	-0.308
-368.756	37.174	0.051	-0.045
-367.742	800.000	-0.022	0.065
-366.727	224.108	-0.186	-0.298
-365.712	-200.000	-0.000	0.267
-364.698	193.830	-0.156	0.235
-363.683	-60.513	0.176	-0.074
-362.669	-38.806	-0.205	0.107
-361.654	-116.237	-0.219	-0.040
-360.639	72.017	0.107	0.110
-359.625	-200.000	-0.051	-0.280
-358.610	389.372	0.043	-0.088
-357.596	800.000	0.074	-0.299
-356.581	800.000	-0.145	-0.423
-355.566	26.214	-0.072	0.059
-354.552	-180.717	0.247	0.005
-353.537	234.149	-0.203	-0.330
-352.523	26.376	-0.282	0.234
-351.508	47.383	0.225	0.208
-350.493	463.078	0.025	0.056
-349.479	-62.289	0.091	0.037
-348.464	175.520	0.357	0.513
-347.450	27.068	-0.065	-0.054
-346.435	158.797	0.095	0.130
-345.420	261.214	-0.130	0.223
-344.406	145.267	-0.230	0.305
-343.391	230.220	-0.103	0.166
-342.377	-83.444	0.202	-0.064
-341.362	800.000	-0.053	0.185
-340.348	148.369	-0.146	0.195
-339.333	800.000	-0.161	-0.572
-338.318	800.000	0.076	-0.301
-337.304	-1.049	-0.079	-0.055
-336.289	184.971	0.068	0.100
-335.275	-56.488	0.150	-0.066
-334.260	356.796	0.155	0.305
-333.245	-123.581	-0.388	0.061
-332.231	-91.219	-0.070	-0.020
-331.216	-126.928	-0.083	0.012
-330.202	-151.750	0.232	0.017
-329.187	70.403	0.052	-0.053
-328.172	-200.000	0.051	-0.342
-327.158	76.420	-0.209	0.219
-326.143	64.014	0.189	0.188
-325.129	-68.591	0.217	-0.083
-324.114	71.319	0.067	-0.068
-323.099	125.039	-0.220	-0.275
-322.085	740.488	-0.071	0.190
-321.070	-111.516	0.112	0.022
-320.056	757.675	-0.102	-0.273
-319.041	800.000	-0.091	-0.253
-318.026	-200.000	-0.005	0.190
-317.012	3.713	-0.091	-0.066
-315.997	601.974	0.038	0.094
-314.983	136.023	0.218	0.280
-313.968	-200.000	0.008	-0.138
-312.953	-9.066	-0.140	0.093
-311.939	70.096	0.337	-0.344
-310.924	800.000	-0.058	-0.162
-309.910	-110.846	0.193	-0.039
-308.895	-116.709	-0.027	-0.005
-307.880	225.946	0.106	-0.170
-306.866	-167.160	0.239	0.010
-305.851	528.456	-0.181	-0.421
-304.837	-200.000	-0.020	-0.196
-303.822	-200.000	0.066	0.302
-302.807	2.820	-0.118	0.085
-301.793	17.880	-0.371	0.292
-300.778	95.671	0.217	-0.244
-299.764	-123.410	-0.344	0.054
-298.749	127.072	-0.169	0.212
-297.735	800.000	-0.065	0.191
-296.720	9.701	0.202	0.151
-295.705	-102.134	-0.217	-0.052
-294.691	516.423	-0.107	-0.248
-293.676	-200.000	-0.037	-0.186
-292.662	0.517	-0.152	0.107
-291.647	-200.000	-0.006	0.219
-290.632	173.162	-0.052	0.074
-289.618	-100.620	-0.082	-0.020
-288.603	-200.000	-0.030	-0.213
-287.589	-75.339	-0.171	-0.060
-286.574	48.711	-0.202	-0.187
-285.559	800.000	-0.071	0.251
-284.545	-60.011	0.233	0.098
-283.530	11.373	0.159	-0.120
-282.516	54.446	-0.114	-0.109
-281.501	293.852	0.022	-0.040
-280.486	-200.000	0.024	0.179
-279.472	277.178	-0.084	0.148
-278.457	156.716	-0.098	-0.133
-277.443	-128.318	-0.240	0.034
-276.428	146.959	-0.158	-0.210
-275.413	-89.292	0.270	-0.079
-274.399	-7.712	0.150	0.100
-273.384	576.924	0.032	-0.077
-272.370	-200.000	0.025	0.336
-271.355	133.480	0.010	0.012
-270.340	-77.781	-0.093	0.032
-269.326	-96.781	-0.192	0.050
-268.311	630.496	-0.106	-0.266
-267.297	-27.566	0.148	-0.085
-266.282	360.643	-0.097	0.192
-265.267	-121.933	-0.199	0.032
-264.253	78.240	-0.138	-0.145
-263.238	-200.000	0.001	-0.206
-262.224	-90.507	0.383	0.109
-261.209	-167.559	0.103	-0.004
-260.195	-67.820	0.196	0.076
-259.180	40.210	0.130	-0.116
-258.165	800.000	-0.006	0.018
-257.151	800.000	-0.130	-0.515
-256.136	231.632	0.059	0.096
-255.122	-31.233	0.245	-0.136
-254.107	-99.685	-0.056	0.014
-253.092	208.234	-0.079	0.122
-252.078	-200.000	-0.007	0.063
-251.063	19.315	0.439	0.348
-250.049	-37.224	0.126	-0.066
-249.034	-51.052	0.253	-0.117
-248.019	-38.079	0.242	0.126
-247.005	355.969	-0.031	0.061
-245.990	302.287	0.166	0.303
-244.976	355.713	-0.074	-0.146
-243.961	694.925	-0.039	-0.101
-242.946	-23.255	0.081	-0.048
-241.932	800.000	-0.005	0.016
-240.917	-200.000	0.025	0.114
-239.903	206.621	-0.196	-0.300
-238.888	30.685	0.297	0.250
-237.873	-68.736	0.078	0.030
-236.859	-42.389	-0.111	0.056
-235.844	800.000	-0.065	0.201
-234.830	-200.000	0.003	0.055
-233.815	86.582	0.121	0.132
-232.800	-106.674	-0.349	-0.076
-231.786	-59.589	0.123	0.052
-230.771	-134.755	0.281	-0.034
-229.757	119.673	0.085	-0.103
-228.742	171.245	-0.142	-0.201
-227.727	57.207	0.115	0.110
-226.713	54.229	0.132	-0.125
-225.698	107.331	-0.067	0.078
-224.684	800.000	0.135	0.390
-223.669	568.826	0.055	-0.133
-222.655	254.397	0.067	-0.113
-221.640	800.000	0.091	-0.333
-220.625	-140.176	0.234	0.024
-219.611	-133.790	0.181	0.022
-218.596	-35.394	-0.150	0.080
-217.582	-200.000	0.032	0.244
-216.567	-125.369	0.211	-0.032
-215.552	407.454	-0.174	-0.363
-214.538	800.000	-0.056	-0.214
-213.523	31.641	0.276	0.234
-212.509	-200.000	0.026	-0.130
-211.494	-36.253	-0.148	0.079
-210.479	315.719	0.157	0.291
-209.465	800.000	0.050	0.187
-208.450	174.441	0.083	-0.118
-207.436	800.000	0.046	-0.158
-206.421	-94.365	-0.070	-0.019
-205.406	12.006	0.211	0.159
-204.392	-59.023	-0.279	0.119
-203.377	-118.743	0.307	-0.053
-202.363	-200.000	0.045	-0.269
-201.348	800.000	-0.005	-0.021
-200.333	-200.000	-0.022	0.231
-199.319	-136.025	-0.476	0.055
-198.304	20.263	-0.315	0.250
-197.290	206.294	0.261	0.400
-196.275	-200.000	-0.004	0.098
-195.260	-200.000	-0.005	-0.035
-194.246	-83.775	0.077	-0.024
-193.231	143.590	0.329	-0.431
-192.217	-95.889	0.193	0.051
-191.202	-200.000	-0.034	0.668
-190.187	75.156	0.220	-0.228
-189.173	116.434	0.066	0.079
-188.158	-73.864	-0.150	0.054
-187.144	-126.602	-0.113	-0.017
-186.129	-104.845	-0.143	-0.032
-185.114	52.402	0.282	-0.265
-184.100	58.754	0.018	0.017
-183.085	174.557	-0.161	-0.229
-182.071	89.023	-0.104	-0.114
-181.056	93.908	-0.116	0.129
-180.042	67.229	0.166	0.167
-179.027	-87.247	-0.065	0.019
-178.012	-126.590	-0.433	-0.063
-176.998	16.051	0.275	-0.213
-175.983	-146.085	-0.304	0.026
-174.969	-133.095	0.189	0.024
-173.954	-15.500	0.148	-0.093
-172.939	800.000	-0.088	0.342
-171.925	-162.644	-0.303	0.015
-170.910	-12.257	-0.052	-0.034
-169.896	-110.730	-0.243	-0.049
-168.881	-49.051	-0.138	0.065
-167.866	-58.815	0.350	0.149
-166.852	105.007	-0.305	0.354
-165.837	-200.000	0.044	0.244
-164.823	385.356	-0.039	0.079
-163.808	-22.206	0.256	0.152
-162.793	107.178	0.157	0.184
-161.779	34.143	-0.124	-0.106
-160.764	146.912	0.061	0.080
-159.750	432.630	0.085	-0.181
-158.735	161.144	-0.137	0.188
-157.720	800.000	0.016	-0.066
-156.706	-158.158	0.406	-0.023
-155.691	-50.021	-0.147	0.068
-154.677	-38.131	0.122	0.063
-153.662	800.000	0.083	-0.236
-152.647	-178.712	-0.248	0.006
-151.633	351.532	0.144	0.280
-150.618	-200.000	0.004	0.167
-149.604	-149.921	0.339	-0.026
-148.589	529.068	-0.106	0.247
-147.574	532.211	-0.141	0.329
-146.560	-200.000	-0.016	0.094
-145.545	-20.793	-0.099	-0.060
-144.531	29.300	0.142	-0.119
-143.516	800.000	0.203	0.577
-142.502	-200.000	-0.018	0.221
-141.487	800.000	-0.025	-0.068
-140.472	64.701	-0.177	0.175
-139.458	621.992	-0.040	0.099
-138.443	-200.000	0.000	0.079
-137.429	-103.596	-0.238	0.055
-136.414	-29.034	0.327	0.184
-135.399	217.629	-0.227	-0.355
-134.385	6.095	0.126	0.092
-133.370	-200.000	0.002	-0.100
-132.356	800.000	-0.160	0.523
-131.341	337.062	-0.106	0.202
-130.326	128.734	0.138	0.173
-129.312	197.746	-0.025	0.038
-128.297	-200.000	0.010	0.211
-127.283	-10.554	0.120	-0.078
-126.268	-151.830	-0.172	0.012
-125.253	-94.405	-0.292	0.078
-124.239	800.000	0.019	0.055
-123.224	25.130	0.125	0.102
-122.210	53.334	0.164	0.154
