DTS Sentinel unit serial number:	SN413079Multiplexer serial number:	ORYXHardware model number:	OX4-SRSoftware version number:	ORYX F/W v4.00 Oryx Data Collector v3.7.2.0data status	okinstallation	princeton_trtdifferential loss correction	single-endedforward channel	channel 2reverse channel	N/Adate	2019/09/14time	21:15:35forward acquisition time	60.00reverse acquisition time	0.00gamma	496.2192k internal	0.2323k external	0.2323temperature offset calibration	1.0076default loss term (dB/km)	0.3790temperature slope calibration	1.0000multiplexer offset coefficient	1.0000multiplexer slope coefficient	1.0000fibre end	0.00T internal ref (°C)	33.00T ext. ref 1 (°C)	4.76T ext. ref 2 (°C)	27.81length (m)	temperature (°C)	Stokes	anti-Stokes-747.200	223.456	0.158	0.257
-746.185	-33.719	0.215	0.120
-745.171	800.000	-0.053	-0.211
-744.156	532.756	-0.193	0.461
-743.142	162.082	0.048	0.068
-742.127	-200.000	-0.012	0.198
-741.112	800.000	0.099	0.280
-740.098	399.799	-0.060	0.127
-739.083	478.426	0.089	-0.204
-738.069	125.124	0.145	-0.185
-737.054	191.091	0.104	0.158
-736.039	11.277	-0.238	-0.184
-735.025	-163.163	0.258	0.013
-734.010	-89.410	-0.120	0.036
-732.996	-169.376	0.151	-0.006
-731.981	-25.058	-0.108	0.065
-730.966	111.680	-0.207	-0.252
-729.952	28.284	-0.511	-0.436
-728.937	-112.578	0.131	0.026
-727.923	45.660	0.081	0.075
-726.908	-200.000	0.029	-0.422
-725.894	7.109	-0.277	-0.209
-724.879	800.000	0.035	0.145
-723.864	-81.438	-0.426	-0.141
-722.850	79.241	-0.261	-0.282
-721.835	23.240	-0.316	0.261
-720.821	-200.000	0.029	-0.314
-719.806	-167.782	-0.416	0.017
-718.791	-71.752	-0.166	0.062
-717.777	-65.502	0.137	-0.056
-716.762	-97.914	-0.029	-0.008
-715.748	-48.189	0.336	-0.164
-714.733	580.108	-0.057	-0.141
-713.718	-72.622	-0.225	-0.084
-712.704	161.157	-0.163	-0.229
-711.689	-135.404	-0.217	-0.026
-710.675	-131.675	-0.179	-0.024
-709.660	-200.000	-0.003	-0.086
-708.645	712.193	-0.041	-0.109
-707.631	-53.025	0.242	-0.112
-706.616	800.000	0.065	-0.213
-705.602	520.334	-0.095	0.225
-704.587	31.243	0.287	0.248
-703.572	-183.327	-0.501	-0.009
-702.558	800.000	0.045	-0.132
-701.543	-200.000	0.146	-0.000
-700.529	-171.302	-0.335	0.011
-699.514	261.796	0.083	-0.144
-698.499	107.047	0.336	-0.403
-697.485	-124.885	0.169	0.026
-696.470	-163.538	0.105	-0.005
-695.456	-106.761	-0.015	0.003
-694.441	-200.000	0.005	0.052
-693.426	-101.105	0.118	0.029
-692.412	-55.454	0.126	0.057
-691.397	-17.304	0.069	-0.044
-690.383	-4.611	-0.355	-0.247
-689.368	800.000	0.039	0.145
-688.354	-4.001	-0.220	-0.154
-687.339	800.000	-0.112	-0.387
-686.324	472.890	-0.083	0.189
-685.310	-172.602	-0.212	-0.007
-684.295	-148.154	-0.277	0.023
-683.281	331.939	0.143	-0.278
-682.266	-94.872	-0.217	-0.059
-681.251	382.123	0.161	-0.334
-680.237	800.000	-0.054	0.149
-679.222	-192.590	-0.518	0.005
-678.208	-131.419	0.286	0.038
-677.193	-134.701	-0.070	0.009
-676.178	-200.000	-0.004	0.133
-675.164	-47.775	0.245	-0.120
-674.149	4.127	0.012	-0.009
-673.135	78.132	-0.193	0.207
-672.120	367.342	-0.089	-0.180
-671.105	-62.852	-0.164	-0.068
-670.091	203.048	-0.118	0.184
-669.076	-11.452	0.199	-0.132
-668.062	-200.000	0.038	-0.170
-667.047	45.435	0.255	0.237
-666.032	692.231	0.083	-0.218
-665.018	-200.000	-0.195	0.000
-664.003	-200.000	0.004	-0.131
-662.989	168.149	-0.036	0.051
-661.974	-200.000	-0.008	0.419
-660.959	111.445	0.138	-0.167
-659.945	800.000	0.080	0.230
-658.930	2.633	-0.436	0.318
-657.916	606.486	0.055	0.139
-656.901	785.159	-0.121	-0.335
-655.886	-200.000	0.026	-0.119
-654.872	-200.000	-0.017	0.213
-653.857	-200.000	0.022	-0.122
-652.843	45.337	-0.181	0.168
-651.828	-69.209	-0.142	-0.055
-650.814	-48.740	0.277	-0.134
-649.799	-200.000	-0.006	-0.235
-648.784	-0.836	0.095	0.068
-647.770	800.000	-0.065	0.252
-646.755	-15.792	0.266	0.170
-645.741	551.067	-0.153	-0.370
-644.726	-67.294	-0.146	-0.058
-643.711	235.255	0.069	-0.115
-642.697	469.230	0.121	-0.273
-641.682	800.000	-0.081	-0.331
-640.668	277.773	-0.006	-0.010
-639.653	-13.645	0.023	-0.015
-638.638	185.971	-0.098	0.146
-637.624	-200.000	0.055	0.287
-636.609	-36.744	-0.217	-0.117
-635.595	-115.642	-0.110	0.021
-634.580	-200.000	-0.031	0.181
-633.565	-132.207	-0.218	0.028
-632.551	73.784	-0.335	0.353
-631.536	176.180	-0.126	-0.184
-630.522	407.465	-0.144	0.305
-629.507	-9.722	0.143	0.096
-628.492	-117.581	-0.048	0.009
-627.478	150.618	0.054	-0.074
-626.463	-83.359	0.197	0.064
-625.449	-113.018	0.184	-0.037
-624.434	-21.725	0.217	-0.133
-623.419	31.740	-0.163	0.141
-622.405	323.698	0.176	-0.338
-621.390	-200.000	0.017	-0.158
-620.376	-84.437	0.143	0.045
-619.361	38.864	-0.153	-0.137
-618.346	-200.000	-0.016	0.159
-617.332	-103.736	0.587	-0.138
-616.317	9.026	-0.259	0.196
-615.303	244.694	-0.131	-0.221
-614.288	800.000	0.100	0.279
-613.273	15.127	-0.069	0.054
-612.259	-112.922	0.109	-0.022
-611.244	-116.957	0.087	0.016
-610.230	-200.000	0.005	0.212
-609.215	-49.110	0.186	0.090
-608.201	299.088	-0.163	-0.302
-607.186	170.555	0.039	0.056
-606.171	-200.000	0.039	-0.268
-605.157	-200.000	0.020	-0.230
-604.142	-119.237	0.261	0.046
-603.128	-18.129	-0.130	0.082
-602.113	104.561	-0.156	0.184
-601.098	-95.144	0.252	0.068
-600.084	419.436	-0.047	0.100
-599.069	405.324	-0.027	0.058
-598.055	148.382	0.055	0.074
-597.040	240.851	-0.103	0.173
-596.025	208.563	0.006	-0.009
-595.011	-25.228	0.346	-0.206
-593.996	800.000	-0.089	-0.332
-592.982	549.568	-0.064	-0.154
-591.967	-100.361	0.314	0.078
-590.952	-73.053	-0.152	0.056
-589.938	-200.000	-0.005	-0.022
-588.923	-200.000	-0.008	0.125
-587.909	222.851	-0.030	0.049
-586.894	-157.924	-0.276	0.016
-585.879	146.183	0.173	0.232
-584.865	-140.743	0.170	-0.018
-583.850	93.189	-0.105	-0.119
-582.836	51.329	-0.072	0.069
-581.821	-17.914	0.371	0.233
-580.806	115.112	0.178	0.218
-579.792	-99.160	0.152	-0.038
-578.777	-200.000	-0.066	-0.327
-577.763	-44.771	-0.181	0.091
-576.748	-130.002	0.206	0.028
-575.733	81.982	-0.168	-0.183
-574.719	-200.000	0.030	0.242
-573.704	800.000	0.057	0.217
-572.690	-43.133	-0.066	0.034
-571.675	-4.829	-0.114	0.079
-570.661	747.592	0.104	0.280
-569.646	74.488	0.208	-0.219
-568.631	63.085	-0.107	-0.108
-567.617	242.330	-0.029	0.049
-566.602	3.909	0.148	-0.109
-565.588	-41.979	0.272	0.140
-564.573	-82.380	0.192	0.063
-563.558	-124.306	-0.144	0.023
-562.544	49.865	-0.119	-0.112
-561.529	84.741	0.312	-0.342
-560.515	-98.694	-0.209	-0.053
-559.500	-200.000	0.089	0.405
-558.485	232.154	-0.148	0.243
-557.471	-91.483	-0.081	0.023
-556.456	-200.000	-0.002	-0.078
-555.442	-138.048	-0.365	0.041
-554.427	45.472	0.074	0.069
-553.412	-9.306	0.349	0.234
-552.398	800.000	-0.112	-0.352
-551.383	11.189	-0.046	0.035
-550.369	18.848	0.138	-0.110
-549.354	595.361	-0.055	0.136
-548.339	63.763	-0.263	0.265
-547.325	-6.728	-0.081	-0.055
-546.310	-75.392	-0.182	-0.065
-545.296	347.686	-0.156	-0.308
-544.281	33.867	0.053	-0.047
-543.266	91.083	-0.184	0.207
-542.252	800.000	0.061	-0.184
-541.237	155.940	-0.260	0.359
-540.223	613.747	0.069	-0.173
-539.208	-66.568	-0.129	-0.051
-538.193	-200.000	0.516	0.002
-537.179	-200.000	0.011	-0.075
-536.164	-173.287	0.221	0.007
-535.150	66.214	-0.138	0.140
-534.135	78.647	0.071	-0.076
-533.121	-99.227	0.230	0.058
-532.106	-200.000	-0.031	-0.149
-531.091	36.040	-0.109	-0.096
-530.077	57.758	0.181	-0.177
-529.062	-58.999	0.221	0.095
-528.048	-200.000	-0.018	0.096
-527.033	-164.692	-0.179	0.008
-526.018	-200.000	-0.029	0.377
-525.004	-70.197	-0.143	0.054
-523.989	-30.440	0.155	-0.088
-522.975	26.427	-0.130	-0.109
-521.960	800.000	-0.088	-0.273
-520.945	-5.944	-0.128	0.088
-519.931	800.000	-0.037	0.117
-518.916	-200.000	0.037	-0.271
-517.902	-172.614	-0.068	0.002
-516.887	79.542	0.101	0.108
-515.872	512.243	0.039	0.091
-514.858	800.000	-0.067	-0.265
-513.843	-24.786	0.208	0.123
-512.829	92.816	-0.090	-0.101
-511.814	170.793	-0.215	-0.309
-510.799	-16.043	0.095	-0.060
-509.785	-200.000	0.022	0.229
-508.770	800.000	-0.050	-0.166
-507.756	-67.026	-0.142	0.056
-506.741	90.474	0.020	0.023
-505.726	127.299	0.114	-0.145
-504.712	145.838	0.300	-0.402
-503.697	-200.000	0.033	0.148
-502.683	800.000	-0.057	0.205
-501.668	41.434	0.128	-0.116
-500.653	-200.000	0.000	-0.147
-499.639	632.187	-0.106	0.270
-498.624	-200.000	-0.006	-0.139
-497.610	39.928	-0.235	0.211
-496.595	-200.000	0.019	-0.175
-495.581	189.931	-0.127	-0.190
-494.566	87.803	0.294	-0.326
-493.551	-200.000	0.046	-0.245
-492.537	168.401	-0.124	-0.176
-491.522	-188.513	-0.183	0.002
-490.508	-200.000	0.010	-0.236
-489.493	576.876	0.158	-0.386
-488.478	800.000	0.053	0.195
-487.464	123.006	0.105	0.131
-486.449	92.739	0.075	0.085
-485.435	49.433	-0.048	0.045
-484.420	-126.741	-0.282	0.042
-483.405	-29.713	-0.170	0.097
-482.391	-28.567	-0.128	-0.074
-481.376	112.198	0.165	-0.200
-480.362	-200.000	0.004	-0.243
-479.347	57.961	0.209	0.204
-478.332	-200.000	0.028	0.150
-477.318	761.277	0.080	-0.217
-476.303	-200.000	-0.008	-0.322
-475.289	34.041	-0.111	0.097
-474.274	-153.156	0.221	-0.015
-473.259	800.000	-0.061	0.170
-472.245	-88.469	-0.030	0.009
-471.230	48.989	0.097	0.091
-470.216	314.962	0.162	0.305
-469.201	-200.000	0.028	-0.243
-468.186	7.048	0.064	-0.048
-467.172	-83.605	-0.167	0.053
-466.157	21.556	0.172	-0.140
-465.143	-54.958	0.228	0.103
-464.128	76.638	-0.207	0.219
-463.113	-66.825	0.075	0.030
-462.099	298.020	-0.210	-0.385
-461.084	-200.000	0.006	0.273
-460.070	69.688	-0.090	-0.092
-459.055	45.294	-0.329	-0.303
-458.040	51.257	-0.328	0.311
-457.026	49.950	0.110	-0.103
-456.011	-200.000	0.023	-0.189
-454.997	85.853	0.317	0.348
-453.982	577.683	-0.037	0.089
-452.968	74.380	-0.200	-0.210
-451.953	-112.314	0.129	-0.026
-450.938	-115.008	-0.439	0.083
-449.924	498.353	-0.078	0.179
-448.909	439.614	0.081	0.176
-447.895	800.000	0.033	-0.119
-446.880	198.522	-0.126	0.193
-445.865	800.000	-0.096	-0.362
-444.851	-112.330	0.098	-0.020
-443.836	-112.224	0.106	-0.021
-442.822	291.494	-0.165	-0.300
-441.807	437.873	-0.072	-0.157
-440.792	96.728	0.162	0.186
-439.778	61.688	-0.097	-0.097
-438.763	800.000	-0.091	0.352
-437.749	-200.000	-0.066	-0.306
-436.734	-200.000	-0.042	-0.336
-435.719	800.000	-0.023	0.090
-434.705	-200.000	0.001	-0.280
-433.690	-110.801	-0.185	-0.038
-432.676	800.000	0.045	-0.148
-431.661	307.723	0.074	0.138
-430.646	243.052	-0.137	-0.229
-429.632	-29.767	-0.147	-0.084
-428.617	381.079	-0.110	-0.225
-427.603	800.000	-0.097	-0.273
-426.588	774.115	-0.171	0.464
-425.573	68.413	0.195	-0.199
-424.559	-57.637	-0.192	0.084
-423.544	208.078	0.025	0.039
-422.530	-68.135	-0.275	-0.107
-421.515	46.787	-0.096	-0.088
-420.500	-200.000	0.021	0.196
-419.486	-200.000	-0.022	0.407
-418.471	-16.515	0.229	-0.145
-417.457	44.395	0.145	-0.133
-416.442	-104.915	-0.240	-0.055
-415.428	393.284	-0.226	-0.470
-414.413	-200.000	0.005	-0.120
-413.398	359.800	-0.053	0.105
-412.384	-60.097	0.325	-0.138
-411.369	-163.288	0.260	0.012
-410.355	-72.049	0.335	0.124
-409.340	42.750	0.220	-0.200
-408.325	-200.000	0.019	0.245
-407.311	44.527	0.123	0.112
-406.296	-73.220	-0.190	-0.069
-405.282	-82.468	0.460	-0.149
-404.267	800.000	-0.062	0.179
-403.252	106.015	-0.167	-0.196
-402.238	535.398	0.061	-0.145
-401.223	-21.709	0.389	0.236
-400.209	316.141	0.102	0.192
-399.194	-72.001	-0.281	0.104
-398.179	-200.000	-0.048	0.225
-397.165	95.922	-0.057	0.065
-396.150	11.492	0.124	0.095
-395.136	772.589	0.015	-0.040
-394.121	-200.000	0.037	0.282
-393.106	-200.000	0.018	0.150
-392.092	240.236	0.085	-0.142
-391.077	-62.629	-0.263	-0.109
-390.063	68.519	0.144	0.148
-389.048	420.894	0.125	0.266
-388.033	110.820	-0.116	0.139
-387.019	148.191	0.120	-0.161
-386.004	227.402	-0.071	-0.114
-384.990	800.000	0.062	0.199
-383.975	-87.039	0.202	0.061
-382.960	800.000	0.135	0.372
-381.946	-9.725	0.361	0.240
-380.931	-74.942	-0.273	0.098
-379.917	-122.856	-0.107	0.017
-378.902	-79.474	0.252	-0.085
-377.888	718.337	0.107	0.282
-376.873	-130.508	-0.091	-0.012
-375.858	30.110	0.084	-0.071
-374.844	151.183	0.245	-0.332
-373.829	272.766	0.082	-0.144
-372.815	-126.263	0.453	-0.067
-371.800	719.634	0.098	0.260
-370.785	-200.000	-0.049	-0.236
-369.771	144.592	0.145	0.193
-368.756	41.663	0.162	-0.146
-367.742	-159.893	-0.111	-0.006
-366.727	2.412	-0.069	0.049
-365.712	800.000	0.080	0.294
-364.698	141.299	0.193	0.254
-363.683	-111.942	-0.320	-0.064
-362.669	646.014	-0.080	-0.203
-361.654	-49.130	0.193	0.092
-360.639	389.610	0.080	0.164
-359.625	-200.000	-0.038	-0.180
-358.610	2.830	-0.081	-0.059
-357.596	-165.659	0.180	0.008
-356.581	-200.000	0.019	-0.323
-355.566	263.927	-0.007	-0.012
-354.552	-200.000	0.051	0.238
-353.537	-69.232	-0.086	-0.033
-352.523	194.485	-0.202	0.304
-351.508	-30.118	-0.206	0.117
-350.493	-50.439	0.211	0.099
-349.479	-100.145	-0.131	0.033
-348.464	800.000	0.072	0.219
-347.450	153.835	0.093	-0.126
-346.435	391.534	0.249	0.514
-345.420	58.877	0.179	0.175
-344.406	-200.000	-0.006	-0.030
-343.391	101.721	0.089	0.103
-342.377	800.000	-0.078	0.315
-341.362	-18.770	-0.199	-0.123
-340.348	-22.683	0.235	0.141
-339.333	194.932	-0.065	0.098
-338.318	-106.688	-0.195	0.043
-337.304	800.000	-0.056	-0.168
-336.289	-8.470	0.186	-0.124
-335.275	-200.000	0.000	-0.148
-334.260	-116.470	-0.220	-0.040
-333.245	-23.630	0.072	-0.043
-332.231	-165.235	-0.113	-0.005
-331.216	142.048	0.164	0.216
-330.202	800.000	0.111	0.312
-329.187	465.153	0.057	-0.126
-328.172	-102.774	-0.167	0.040
-327.158	-4.508	-0.013	-0.009
-326.143	252.198	0.088	-0.149
-325.129	213.152	-0.143	-0.225
-324.114	-125.094	-0.194	0.030
-323.099	-173.745	0.099	-0.003
-322.085	20.657	0.217	0.174
-321.070	800.000	0.096	0.314
-320.056	-200.000	-0.060	-0.277
-319.041	-180.915	0.160	-0.003
-318.026	-65.227	-0.053	0.021
-317.012	87.528	-0.102	0.112
-315.997	-103.013	-0.245	-0.058
-314.983	-200.000	-0.004	-0.079
-313.968	800.000	-0.041	-0.173
-312.953	-133.765	-0.211	0.026
-311.939	53.296	-0.202	0.193
-310.924	800.000	-0.062	0.195
-309.910	-118.977	-0.333	0.058
-308.895	-200.000	-0.014	-0.080
-307.880	21.063	-0.163	0.132
-306.866	-61.658	0.131	0.055
-305.851	162.518	0.088	-0.123
-304.837	-23.974	-0.194	0.115
-303.822	208.842	-0.197	0.306
-302.807	311.627	-0.163	0.304
-301.793	-137.910	0.163	0.018
-300.778	-99.171	0.287	0.072
-299.764	-61.645	-0.421	-0.175
-298.749	800.000	-0.048	0.175
-297.735	-200.000	0.011	0.051
-296.720	59.547	-0.069	0.067
-295.705	127.386	-0.100	-0.126
-294.691	-110.794	0.168	0.034
-293.676	-47.285	-0.343	0.165
-292.662	40.701	-0.277	-0.247
-291.647	-106.190	0.174	0.039
-290.632	254.089	-0.032	-0.055
-289.618	800.000	-0.033	-0.113
-288.603	800.000	-0.049	-0.199
-287.589	800.000	-0.041	0.171
-286.574	-119.156	0.065	-0.011
-285.559	-86.993	0.166	-0.050
-284.545	153.944	-0.195	-0.265
-283.530	800.000	0.015	0.058
-282.516	92.056	-0.086	-0.095
-281.501	-200.000	0.033	0.183
-280.486	-200.000	-0.007	-0.369
-279.472	341.369	-0.053	-0.102
-278.457	554.777	-0.058	-0.137
-277.443	-160.867	-0.155	0.008
-276.428	241.880	0.062	0.103
-275.413	-152.624	-0.163	0.012
-274.399	-88.667	0.331	0.098
-273.384	-57.179	-0.203	-0.089
-272.370	776.411	-0.068	-0.185
-271.355	800.000	-0.035	0.098
-270.340	800.000	0.052	-0.168
-269.326	-129.143	-0.524	-0.073
-268.311	372.014	-0.093	-0.187
-267.297	39.126	0.026	0.023
-266.282	-100.724	-0.233	-0.057
-265.267	-200.000	0.031	0.276
-264.253	491.697	0.041	-0.093
-263.238	-142.912	0.436	0.042
-262.224	-143.982	-0.308	-0.029
-261.209	-25.877	0.217	-0.127
-260.195	134.187	-0.103	-0.132
-259.180	-63.712	0.421	0.171
-258.165	-21.937	0.083	-0.050
-257.151	-34.043	0.310	-0.169
-256.136	-20.975	0.350	0.212
-255.122	41.147	-0.313	-0.280
-254.107	25.124	0.291	-0.240
-253.092	-200.000	-0.022	0.158
-252.078	-16.658	-0.075	-0.047
-251.063	800.000	0.014	0.046
-250.049	-183.597	0.203	0.003
-249.034	-200.000	-0.041	-0.384
-248.019	682.390	0.112	-0.288
-247.005	-200.000	-0.038	-0.214
-245.990	-200.000	-0.039	-0.390
-244.976	-200.000	-0.012	-0.208
-243.961	-131.443	-0.051	-0.007
-242.946	18.505	0.190	0.150
-241.932	299.198	0.002	0.005
-240.917	124.297	0.118	-0.146
-239.903	-48.593	0.272	0.130
-238.888	800.000	-0.104	0.393
-237.873	26.892	-0.143	0.119
-236.859	639.324	-0.175	-0.440
-235.844	-100.242	-0.228	-0.056
-234.830	-73.113	0.214	-0.078
-233.815	94.275	-0.132	0.148
-232.800	800.000	-0.046	0.130
-231.786	81.359	0.184	0.197
-230.771	81.110	-0.200	0.214
-229.757	106.474	-0.126	0.148
-228.742	-43.685	0.086	-0.043
-227.727	-200.000	0.050	0.239
-226.713	175.669	-0.173	0.249
-225.698	473.591	-0.076	0.169
-224.684	73.689	0.037	-0.038
-223.669	-200.000	-0.124	0.000
-222.655	235.972	0.216	-0.354
-221.640	-98.296	0.085	0.022
-220.625	-69.361	0.097	-0.037
-219.611	-42.424	-0.096	-0.048
-218.596	152.687	0.111	-0.151
-217.582	-64.744	0.193	-0.077
-216.567	73.759	-0.176	0.183
-215.552	-200.000	-0.002	-0.060
-214.538	800.000	0.075	-0.220
-213.523	62.233	-0.282	-0.278
-212.509	2.928	0.097	-0.069
-211.494	28.770	-0.151	0.126
-210.479	149.361	-0.274	-0.367
-209.465	-200.000	0.083	-0.376
-208.450	550.499	0.083	0.197
-207.436	-88.825	-0.211	0.062
-206.421	256.062	0.055	-0.094
-205.406	-140.883	-0.363	-0.037
-204.392	599.707	0.149	-0.367
-203.377	-61.975	0.175	-0.072
-202.363	-28.344	-0.505	0.288
-201.348	-75.975	0.270	-0.094
-200.333	800.000	-0.069	-0.211
-199.319	800.000	0.048	0.190
-198.304	-49.418	-0.163	0.077
-197.290	-6.999	0.202	0.135
-196.275	464.280	-0.098	0.216
-195.260	10.431	-0.213	-0.160
-194.246	-146.984	0.423	0.036
-193.231	-200.000	0.007	0.031
-192.217	-116.247	-0.107	-0.020
-191.202	-176.708	-0.474	-0.012
-190.187	149.547	-0.077	-0.103
-189.173	-200.000	0.014	0.121
-188.158	-146.943	0.177	0.015
-187.144	800.000	-0.034	0.125
-186.129	-164.584	0.042	0.002
-185.114	141.802	-0.102	0.133
-184.100	800.000	0.031	-0.125
-183.085	571.483	0.037	0.090
-182.071	800.000	-0.107	0.309
-181.056	68.201	0.189	0.191
-180.042	-200.000	-0.009	0.087
-179.027	800.000	0.058	-0.247
-178.012	54.876	0.184	-0.176
-176.998	-46.201	0.053	0.026
-175.983	-87.817	-0.139	0.041
-174.969	190.264	-0.047	-0.070
-173.954	709.215	0.147	-0.385
-172.939	294.443	-0.061	0.110
-171.925	-150.661	0.169	0.013
-170.910	233.500	0.115	-0.187
-169.896	139.476	0.195	0.253
-168.881	2.985	-0.182	0.131
-167.866	-92.122	-0.277	-0.077
-166.852	132.964	-0.067	-0.086
-165.837	-200.000	-0.078	0.345
-164.823	-64.678	-0.386	0.155
-163.808	134.603	0.093	0.119
-162.793	188.496	-0.051	0.076
-161.779	348.241	0.044	-0.086
-160.764	-176.107	-0.061	-0.002
-159.750	-200.000	0.057	0.293
-158.735	-24.056	0.236	0.139
-157.720	-134.442	0.120	0.014
-156.706	-200.000	0.034	-0.354
-155.691	36.564	-0.100	0.087
-154.677	199.574	0.152	0.230
-153.662	-190.845	-0.320	-0.003
-152.647	-200.000	0.008	0.275
-151.633	-166.437	0.260	0.011
-150.618	-200.000	-0.021	0.313
-149.604	-107.391	0.283	0.061
-148.589	-95.063	0.254	-0.068
-147.574	800.000	-0.080	0.260
-146.560	251.283	-0.105	0.177
-145.545	-200.000	-0.024	0.146
-144.531	157.110	-0.017	0.023
-143.516	-200.000	0.029	0.260
-142.502	213.723	0.128	0.199
-141.487	4.354	0.239	0.172
-140.472	41.080	0.163	-0.145
-139.458	349.103	-0.084	-0.163
-138.443	-186.005	-0.289	0.004
-137.429	-144.698	-0.257	-0.023
-136.414	-85.326	0.202	0.062
-135.399	-42.884	-0.198	-0.099
-134.385	-30.677	0.139	0.078
-133.370	280.675	-0.085	-0.151
-132.356	-42.335	0.181	0.091
-131.341	-96.539	0.130	-0.034
-130.326	-200.000	-0.006	-0.154
-129.312	498.480	0.149	0.339
-128.297	59.042	-0.146	-0.142
-127.283	588.419	-0.135	0.328
-126.268	-118.333	-0.192	0.034
-125.253	23.151	0.245	0.198
-124.239	-30.678	0.380	-0.212
-123.224	-30.763	-0.043	0.024
-122.210	153.137	0.203	0.274
-121.195	-200.000	-0.083	0.390
