DTS Sentinel unit serial number:	SN413079Multiplexer serial number:	ORYXHardware model number:	OX4-SRSoftware version number:	ORYX F/W v4.00 Oryx Data Collector v3.7.2.0data status	okinstallation	princeton_trtdifferential loss correction	single-endedforward channel	channel 2reverse channel	N/Adate	2019/09/15time	02:11:35forward acquisition time	60.00reverse acquisition time	0.00gamma	496.2192k internal	0.2325k external	0.2325temperature offset calibration	1.0033default loss term (dB/km)	0.3790temperature slope calibration	1.0000multiplexer offset coefficient	1.0000multiplexer slope coefficient	1.0000fibre end	0.00T internal ref (°C)	31.69T ext. ref 1 (°C)	4.55T ext. ref 2 (°C)	26.30length (m)	temperature (°C)	Stokes	anti-Stokes-747.200	206.838	-0.186	0.293
-746.185	-125.400	0.133	0.020
-745.171	-200.000	0.007	-0.157
-744.156	170.412	0.134	-0.193
-743.142	-57.369	0.291	-0.129
-742.127	800.000	0.124	0.357
-741.112	-33.605	0.172	0.096
-740.098	-170.035	-0.365	-0.013
-739.083	30.269	-0.178	-0.154
-738.069	-173.321	-0.182	0.006
-737.054	800.000	0.067	-0.247
-736.039	41.845	-0.189	0.173
-735.025	3.519	-0.250	0.184
-734.010	-50.900	0.134	-0.063
-732.996	-77.505	-0.044	-0.015
-731.981	-194.948	0.065	-0.001
-730.966	-20.723	-0.047	0.029
-729.952	-39.950	-0.237	0.125
-728.937	-200.000	-0.005	-0.280
-727.923	-200.000	0.072	-0.350
-726.908	-200.000	0.004	-0.154
-725.894	-49.321	-0.291	0.140
-724.879	96.182	0.194	-0.224
-723.864	-69.678	-0.158	-0.061
-722.850	800.000	0.107	-0.465
-721.835	-99.284	-0.215	0.055
-720.821	254.776	0.185	-0.319
-719.806	800.000	0.056	-0.181
-718.791	-200.000	0.032	-0.217
-717.777	-200.000	0.024	-0.204
-716.762	-129.834	-0.265	-0.037
-715.748	23.098	-0.178	-0.147
-714.733	-174.153	-0.048	-0.001
-713.718	-18.219	-0.121	0.076
-712.704	5.488	-0.026	-0.020
-711.689	123.224	0.216	-0.273
-710.675	-118.840	-0.146	0.026
-709.660	-131.007	0.098	0.013
-708.645	-200.000	0.011	-0.100
-707.631	-118.534	0.151	0.027
-706.616	324.177	0.035	0.068
-705.602	-60.049	-0.193	-0.083
-704.587	17.035	0.181	-0.145
-703.572	800.000	0.069	-0.296
-702.558	-92.538	0.128	-0.036
-701.543	-119.001	0.093	0.016
-700.529	331.070	-0.068	-0.133
-699.514	-140.518	-0.232	-0.024
-698.499	785.470	0.090	0.249
-697.485	64.553	-0.270	-0.274
-696.470	-200.000	-0.018	-0.110
-695.456	-200.000	0.002	-0.015
-694.441	-200.000	0.019	-0.355
-693.426	680.769	0.043	-0.112
-692.412	407.765	-0.081	0.172
-691.397	143.354	0.199	-0.267
-690.383	-200.000	0.032	-0.155
-689.368	67.966	-0.079	-0.081
-688.354	381.621	-0.018	-0.037
-687.339	65.549	-0.155	0.158
-686.324	133.430	0.081	0.106
-685.310	-120.188	-0.041	-0.007
-684.295	-105.384	0.092	0.021
-683.281	161.136	-0.055	-0.078
-682.266	95.251	-0.088	-0.101
-681.251	16.884	-0.136	-0.108
-680.237	-200.000	-0.037	-0.259
-679.222	-16.224	0.246	-0.157
-678.208	162.974	-0.098	-0.138
-677.193	-200.000	0.003	0.057
-676.178	-200.000	-0.010	0.059
-675.164	350.143	0.106	-0.211
-674.149	-200.000	-0.005	-0.293
-673.135	800.000	0.125	-0.353
-672.120	180.200	-0.061	-0.090
-671.105	-57.662	0.159	0.070
-670.091	-200.000	-0.043	0.464
-669.076	323.317	-0.129	-0.247
-668.062	176.506	-0.110	-0.161
-667.047	800.000	-0.068	-0.291
-666.032	-52.363	-0.253	-0.118
-665.018	-200.000	0.002	0.091
-664.003	-111.917	-0.129	0.026
-662.989	-200.000	0.002	-0.192
-661.974	-187.930	-0.415	-0.005
-660.959	303.467	-0.117	0.218
-659.945	-109.228	0.155	0.033
-658.930	49.905	-0.153	-0.145
-657.916	-33.832	-0.138	0.076
-656.901	680.209	-0.088	-0.231
-655.886	-200.000	-0.012	0.252
-654.872	-200.000	-0.006	-0.123
-653.857	82.608	-0.211	-0.230
-652.843	3.268	-0.193	0.141
-651.828	5.540	0.298	0.221
-650.814	124.635	-0.235	0.298
-649.799	327.526	-0.130	-0.251
-648.784	-107.763	0.115	-0.025
-647.770	-200.000	0.047	-0.296
-646.755	-15.201	-0.203	-0.131
-645.741	-200.000	0.049	-0.434
-644.726	22.743	-0.043	0.035
-643.711	-6.270	-0.277	0.190
-642.697	-129.395	-0.049	-0.007
-641.682	800.000	0.027	-0.091
-640.668	17.839	-0.293	-0.234
-639.653	271.870	0.041	-0.073
-638.638	-200.000	0.058	0.314
-637.624	-110.049	-0.145	0.030
-636.609	107.895	-0.111	0.133
-635.595	-95.836	-0.230	-0.062
-634.580	-45.447	-0.121	0.060
-633.565	-200.000	-0.034	0.255
-632.551	-200.000	0.054	0.289
-631.536	37.518	-0.258	0.230
-630.522	3.637	0.205	-0.150
-629.507	77.126	0.016	-0.017
-628.492	-192.386	-0.183	0.002
-627.478	10.349	0.050	-0.038
-626.463	-200.000	0.027	0.356
-625.449	285.209	-0.174	-0.315
-624.434	-95.824	-0.165	-0.044
-623.419	505.609	-0.114	0.266
-622.405	44.678	0.096	-0.088
-621.390	-158.794	0.112	-0.006
-620.376	-13.914	-0.319	-0.207
-619.361	26.391	0.136	-0.114
-618.346	454.500	-0.151	-0.336
-617.332	-107.318	0.184	0.041
-616.317	209.902	-0.198	0.312
-615.303	-39.401	0.111	0.059
-614.288	-200.000	0.010	0.073
-613.273	800.000	-0.055	-0.179
-612.259	354.897	-0.132	-0.263
-611.244	-113.000	0.024	-0.005
-610.230	323.504	-0.144	-0.275
-609.215	151.987	0.103	-0.141
-608.201	-165.384	0.322	-0.014
-607.186	-80.583	-0.033	-0.011
-606.171	-117.494	-0.108	0.020
-605.157	261.952	0.185	0.322
-604.142	800.000	0.062	0.204
-603.128	171.360	0.069	0.100
-602.113	-200.000	-0.003	-0.486
-601.098	-200.000	-0.050	-0.321
-600.084	534.908	0.158	-0.375
-599.069	630.425	-0.047	-0.121
-598.055	-179.933	0.101	0.002
-597.040	584.506	-0.042	0.104
-596.025	416.462	0.116	0.247
-595.011	-200.000	0.049	-0.302
-593.996	-87.616	0.599	-0.181
-592.982	-37.364	-0.324	-0.174
-591.967	-137.578	0.091	-0.010
-590.952	-71.841	-0.211	-0.079
-589.938	302.104	-0.075	0.139
-588.923	-200.000	0.023	0.137
-587.909	10.615	0.083	0.063
-586.894	-168.425	-0.384	-0.015
-585.879	-101.565	0.546	-0.133
-584.865	-200.000	-0.014	-0.079
-583.850	800.000	0.040	-0.112
-582.836	255.711	-0.172	-0.296
-581.821	800.000	-0.085	-0.244
-580.806	146.044	0.349	-0.469
-579.792	800.000	0.028	0.106
-578.777	-132.642	-0.273	0.035
-577.763	94.738	0.063	-0.072
-576.748	-173.855	0.353	0.010
-575.733	395.381	-0.025	-0.053
-574.719	170.113	-0.111	0.159
-573.704	-4.847	0.321	0.222
-572.690	-200.000	-0.001	-0.202
-571.675	-40.488	-0.306	-0.159
-570.661	1.160	0.239	0.172
-569.646	172.958	-0.222	-0.320
-568.631	-72.583	0.200	-0.074
-567.617	-121.346	0.218	-0.036
-566.602	-96.380	-0.116	-0.031
-565.588	-50.185	-0.379	-0.180
-564.573	-200.000	-0.006	0.163
-563.558	156.635	-0.088	0.121
-562.544	134.831	0.076	0.099
-561.529	-22.828	0.259	0.157
-560.515	-54.272	0.204	0.093
-559.500	204.867	0.130	0.202
-558.485	-56.613	-0.287	0.128
-557.471	51.688	-0.175	0.167
-556.456	-56.240	-0.066	-0.030
-555.442	-168.135	0.189	0.007
-554.427	-21.529	-0.135	0.083
-553.412	-200.000	-0.023	-0.240
-552.398	91.333	0.124	0.140
-551.383	144.191	0.160	-0.214
-550.369	-200.000	0.044	-0.208
-549.354	337.478	0.033	-0.064
-548.339	-200.000	-0.006	0.084
-547.325	465.227	0.103	0.230
-546.310	-200.000	0.017	0.226
-545.296	-168.312	0.059	-0.002
-544.281	-200.000	0.024	0.258
-543.266	34.049	0.110	0.096
-542.252	94.992	0.177	-0.201
-541.237	-91.825	0.077	-0.022
-540.223	-166.400	-0.101	-0.004
-539.208	279.577	-0.146	0.261
-538.193	17.669	-0.036	0.029
-537.179	-200.000	0.051	0.256
-536.164	-125.110	-0.240	-0.037
-535.150	-83.293	0.451	-0.145
-534.135	-48.520	-0.279	0.135
-533.121	-14.036	-0.204	0.132
-532.106	9.090	0.167	0.126
-531.091	196.228	-0.103	-0.157
-530.077	-80.180	0.082	-0.027
-529.062	800.000	-0.040	-0.165
-528.048	-200.000	0.050	-0.219
-527.033	-134.281	0.309	0.038
-526.018	-101.389	0.290	-0.071
-525.004	-120.668	-0.300	0.051
-523.989	-50.295	-0.314	0.149
-522.975	13.451	0.168	-0.130
-521.960	-200.000	0.062	0.476
-520.945	-63.449	-0.238	-0.098
-519.931	98.926	-0.207	0.239
-518.916	-200.000	0.008	-0.059
-517.902	-107.915	-0.365	0.079
-516.887	-20.558	-0.333	0.205
-515.872	800.000	0.075	0.207
-514.858	-23.725	0.218	-0.130
-513.843	-123.570	-0.462	0.073
-512.829	28.700	-0.088	-0.075
-511.814	-200.000	-0.006	-0.137
-510.799	-200.000	-0.010	-0.081
-509.785	183.689	0.070	-0.104
-508.770	375.041	-0.102	0.208
-507.756	33.807	-0.337	-0.293
-506.741	67.089	-0.008	-0.008
-505.726	86.215	-0.083	-0.092
-504.712	-47.878	-0.103	0.050
-503.697	-200.000	-0.019	0.262
-502.683	-56.846	0.280	0.124
-501.668	97.903	-0.211	-0.242
-500.653	-78.913	0.321	-0.109
-499.639	131.519	-0.096	-0.124
-498.624	-200.000	-0.042	-0.232
-497.610	73.630	-0.186	-0.195
-496.595	-200.000	-0.007	0.074
-495.581	800.000	-0.136	-0.438
-494.566	436.844	-0.109	-0.237
-493.551	-200.000	0.006	-0.083
-492.537	800.000	-0.093	0.372
-491.522	-104.312	-0.223	-0.052
-490.508	228.441	-0.084	-0.137
-489.493	-95.967	0.114	-0.030
-488.478	-47.783	-0.170	0.082
-487.464	-154.046	0.250	-0.017
-486.449	-200.000	0.008	0.048
-485.435	205.508	-0.270	-0.420
-484.420	-20.448	0.396	0.243
-483.405	-200.000	-0.002	0.011
-482.391	800.000	-0.078	-0.312
-481.376	-112.564	0.211	-0.042
-480.362	5.201	-0.272	0.200
-479.347	-23.627	0.381	0.228
-478.332	166.609	0.128	0.181
-477.318	-76.829	-0.147	-0.051
-476.303	63.237	0.135	-0.135
-475.289	7.886	-0.102	-0.077
-474.274	79.514	-0.103	0.110
-473.259	-108.671	0.188	-0.040
-472.245	236.519	0.140	0.231
-471.230	-200.000	0.013	-0.186
-470.216	23.598	-0.267	-0.219
-469.201	-15.895	0.005	0.003
-468.186	34.096	0.372	-0.324
-467.172	800.000	0.059	-0.259
-466.157	-200.000	0.022	0.323
-465.143	-42.095	0.458	0.234
-464.128	-200.000	-0.015	-0.080
-463.113	-28.131	0.077	-0.044
-462.099	81.434	-0.081	-0.087
-461.084	-165.541	0.036	0.002
-460.070	-9.396	-0.268	0.178
-459.055	-29.459	-0.296	0.169
-458.040	-187.495	-0.118	0.002
-457.026	43.174	-0.315	-0.287
-456.011	160.645	-0.015	0.021
-454.997	-45.460	-0.105	-0.052
-453.982	-200.000	0.014	-0.107
-452.968	-69.232	0.183	-0.070
-451.953	-134.811	-0.062	-0.007
-450.938	-79.302	0.314	0.106
-449.924	-3.502	-0.111	0.077
-448.909	157.967	-0.114	-0.158
-447.895	-124.149	-0.091	0.014
-446.880	14.555	0.182	-0.142
-445.865	-165.313	-0.144	-0.006
-444.851	-164.296	-0.300	-0.014
-443.836	-200.000	-0.034	0.175
-442.822	-186.892	0.510	0.007
-441.807	54.697	-0.217	0.209
-440.792	164.875	0.137	0.193
-439.778	-125.506	0.171	0.026
-438.763	50.011	-0.083	0.078
-437.749	86.800	-0.145	-0.159
-436.734	92.222	-0.137	0.154
-435.719	489.085	0.038	0.087
-434.705	-82.202	0.051	0.016
-433.690	26.244	-0.144	-0.120
-432.676	-46.580	0.193	0.095
-431.661	-200.000	-0.031	0.202
-430.646	158.158	0.103	-0.142
-429.632	-51.512	0.129	-0.060
-428.617	-155.894	-0.341	-0.022
-427.603	-98.917	-0.014	-0.003
-426.588	-96.193	0.146	0.039
-425.573	800.000	-0.083	-0.265
-424.559	-200.000	-0.037	0.162
-423.544	-5.905	0.177	0.121
-422.530	-144.658	0.268	0.025
-421.515	-200.000	-0.019	-0.168
-420.500	494.018	0.114	-0.262
-419.486	800.000	-0.080	-0.226
-418.471	25.031	0.112	0.093
-417.457	190.096	0.085	-0.127
-416.442	5.186	0.097	-0.071
-415.428	-200.000	0.022	-0.213
-414.413	-200.000	0.014	-0.298
-413.398	497.714	0.030	-0.068
-412.384	-144.702	0.487	0.045
-411.369	102.126	-0.311	-0.362
-410.355	297.883	0.268	0.490
-409.340	-200.000	-0.003	-0.126
-408.325	-130.703	-0.164	0.022
-407.311	-3.586	0.203	-0.141
-406.296	-191.198	0.241	0.002
-405.282	-200.000	-0.026	0.136
-404.267	-80.427	-0.344	0.114
-403.252	-200.000	0.007	0.202
-402.238	89.625	-0.069	-0.077
-401.223	102.164	-0.080	0.092
-400.209	147.558	0.109	0.146
-399.194	-200.000	-0.048	0.292
-398.179	-200.000	0.033	-0.263
-397.165	-56.989	0.168	0.074
-396.150	-117.194	-0.225	-0.041
-395.136	310.120	-0.085	-0.158
-394.121	-5.166	-0.244	0.167
-393.106	-200.000	-0.008	0.051
-392.092	12.567	0.179	-0.138
-391.077	-139.640	0.328	-0.035
-390.063	68.918	-0.132	-0.135
-389.048	-59.456	0.146	0.062
-388.033	800.000	0.059	0.200
-387.019	800.000	-0.078	-0.217
-386.004	-121.137	-0.163	-0.027
-384.990	-17.948	0.167	0.104
-383.975	-200.000	0.032	0.157
-382.960	-144.421	-0.184	0.017
-381.946	800.000	-0.058	-0.172
-380.931	124.696	0.118	0.148
-379.917	151.862	-0.156	0.212
-378.902	236.850	0.038	-0.063
-377.888	-200.000	0.017	0.145
-376.873	18.237	0.147	0.117
-375.858	-125.823	-0.027	-0.004
-374.844	-110.858	-0.121	0.025
-373.829	-68.298	0.124	0.048
-372.815	44.075	-0.179	-0.163
-371.800	-88.212	-0.178	0.053
-370.785	-200.000	0.023	0.169
-369.771	-200.000	-0.029	0.138
-368.756	22.618	-0.219	0.178
-367.742	208.512	0.263	-0.408
-366.727	10.172	0.134	0.101
-365.712	170.119	0.140	-0.199
-364.698	3.103	-0.098	0.071
-363.683	-200.000	-0.032	-0.305
-362.669	-53.080	0.332	-0.152
-361.654	335.805	-0.083	-0.159
-360.639	-146.706	0.087	-0.007
-359.625	380.501	0.156	-0.319
-358.610	-106.469	0.128	-0.028
-357.596	-150.308	-0.193	0.015
-356.581	576.457	-0.085	0.206
-355.566	-200.000	-0.051	0.436
-354.552	-27.369	-0.250	0.145
-353.537	666.103	-0.132	0.340
-352.523	-18.580	-0.398	-0.247
-351.508	-2.648	-0.209	-0.145
-350.493	-200.000	0.038	0.364
-349.479	-26.544	-0.160	-0.093
-348.464	12.938	-0.183	-0.140
-347.450	-97.302	0.026	-0.007
-346.435	-85.232	-0.183	0.057
-345.420	18.711	0.268	-0.213
-344.406	-200.000	0.053	-0.302
-343.391	-48.881	0.154	0.073
-342.377	280.992	0.144	0.256
-341.362	-60.069	0.176	0.075
-340.348	282.181	0.110	0.195
-339.333	-146.761	0.302	-0.026
-338.318	138.319	0.075	-0.098
-337.304	345.962	0.231	0.452
-336.289	800.000	-0.077	-0.297
-335.275	-7.596	-0.277	0.186
-334.260	-86.040	0.248	0.076
-333.245	-200.000	-0.005	-0.172
-332.231	32.797	-0.041	-0.035
-331.216	229.706	0.158	-0.257
-330.202	239.256	0.130	-0.214
-329.187	-200.000	-0.075	0.339
-328.172	800.000	0.091	-0.278
-327.158	189.861	0.021	0.031
-326.143	-80.142	-0.215	-0.072
-325.129	-200.000	0.028	0.214
-324.114	-87.018	-0.481	-0.145
-323.099	40.632	-0.178	0.159
-322.085	-200.000	0.023	-0.170
-321.070	-154.657	0.275	-0.018
-320.056	-1.452	-0.221	-0.155
-319.041	800.000	0.094	-0.289
-318.026	17.205	0.094	-0.074
-317.012	171.705	0.149	0.212
-315.997	-200.000	0.084	0.408
-314.983	119.996	-0.189	-0.232
-313.968	-44.149	-0.224	0.112
-312.953	74.730	-0.171	-0.178
-311.939	-32.190	-0.127	0.070
-310.924	-109.734	-0.259	-0.054
-309.910	343.418	-0.099	-0.192
-308.895	-131.695	0.179	0.023
-307.880	-164.957	0.267	0.012
-306.866	47.195	0.062	-0.057
-305.851	152.324	-0.037	-0.051
-304.837	47.176	0.054	-0.050
-303.822	-95.233	0.015	0.004
-302.807	800.000	-0.067	-0.239
-301.793	6.965	0.127	-0.094
-300.778	-36.934	-0.153	0.081
-299.764	657.385	-0.065	0.166
-298.749	-97.832	0.217	0.056
-297.735	800.000	0.089	-0.263
-296.720	-90.264	-0.085	-0.024
-295.705	800.000	-0.046	0.191
-294.691	-18.761	0.189	0.117
-293.676	800.000	0.057	-0.166
-292.662	-109.034	-0.027	0.006
-291.647	-200.000	0.040	0.291
-290.632	189.069	0.029	0.043
-289.618	-200.000	0.014	-0.214
-288.603	-5.696	0.204	0.138
-287.589	160.104	-0.294	0.407
-286.574	-25.915	0.140	0.082
-285.559	-168.100	0.321	-0.012
-284.545	-200.000	-0.018	0.091
-283.530	-200.000	0.015	-0.154
-282.516	800.000	-0.029	-0.096
-281.501	-67.393	-0.421	-0.164
-280.486	38.429	-0.092	0.081
-279.472	-115.502	-0.355	0.066
-278.457	636.446	-0.134	0.336
-277.443	-160.534	-0.285	0.015
-276.428	-34.347	0.114	-0.062
-275.413	800.000	-0.099	0.314
-274.399	800.000	0.037	-0.150
-273.384	-200.000	0.013	-0.372
-272.370	-200.000	-0.024	0.321
-271.355	-132.254	0.243	0.031
-270.340	-82.340	0.140	0.045
-269.326	-200.000	0.001	0.249
-268.311	-200.000	-0.014	0.135
-267.297	1.670	0.175	0.125
-266.282	40.946	-0.145	-0.129
-265.267	170.756	-0.081	0.114
-264.253	-134.989	-0.305	-0.036
-263.238	51.775	0.157	0.148
-262.224	-200.000	0.024	-0.121
-261.209	498.271	-0.131	0.298
-260.195	-130.470	0.191	0.026
-259.180	-116.384	0.043	-0.008
-258.165	301.656	-0.204	0.373
-257.151	-131.701	-0.066	0.009
-256.136	71.959	0.169	-0.174
-255.122	720.024	-0.058	-0.154
-254.107	-56.893	-0.218	0.095
-253.092	-33.476	0.321	0.176
-252.078	-157.549	0.102	0.006
-251.063	-107.738	0.381	0.082
-250.049	-101.586	-0.163	-0.039
-249.034	-200.000	-0.004	-0.033
-248.019	84.452	-0.228	-0.247
-247.005	22.613	0.174	0.141
-245.990	250.624	0.167	-0.280
-244.976	-68.514	-0.147	0.056
-243.961	39.598	0.237	0.210
-242.946	800.000	0.057	-0.203
-241.932	800.000	0.080	-0.231
-240.917	12.228	0.062	-0.047
-239.903	800.000	-0.032	0.125
-238.888	-200.000	-0.003	-0.225
-237.873	800.000	0.108	0.340
-236.859	117.768	0.172	-0.209
-235.844	137.927	-0.148	0.192
-234.830	800.000	0.029	-0.085
-233.815	59.277	0.183	0.178
-232.800	-16.402	-0.495	0.311
-231.786	-145.480	-0.263	0.023
-230.771	-200.000	0.051	-0.232
-229.757	674.633	-0.056	-0.144
-228.742	-71.585	0.261	-0.096
-227.727	149.288	-0.106	0.141
-226.713	-69.309	0.121	-0.046
-225.698	800.000	-0.111	0.428
-224.684	-54.722	0.168	0.075
-223.669	137.639	-0.114	-0.147
-222.655	-129.390	0.194	-0.027
-221.640	430.472	-0.040	0.085
-220.625	-125.506	-0.227	0.034
-219.611	-200.000	-0.084	-0.392
-218.596	-10.830	0.207	-0.136
-217.582	-200.000	-0.022	0.318
-216.567	-70.167	0.173	0.065
-215.552	162.887	-0.190	0.264
-214.538	-176.553	0.282	-0.007
-213.523	-49.646	0.085	0.040
-212.509	-52.178	0.345	-0.158
-211.494	-200.000	0.044	0.252
-210.479	-200.000	0.020	0.243
-209.465	40.524	0.324	0.289
-208.450	-148.341	0.221	0.018
-207.436	109.823	0.170	0.201
-206.421	-20.754	0.188	-0.114
-205.406	-67.998	0.079	-0.030
-204.392	21.593	-0.236	0.190
-203.377	376.374	-0.039	0.079
-202.363	-200.000	-0.005	0.304
-201.348	-200.000	0.059	-0.266
-200.333	78.169	0.104	0.110
-199.319	20.153	0.194	-0.155
-198.304	487.077	0.023	0.051
-197.290	-156.562	0.362	-0.022
-196.275	-43.364	-0.478	0.239
-195.260	-83.686	-0.121	0.038
-194.246	-200.000	0.001	-0.276
-193.231	103.133	-0.029	0.034
-192.217	800.000	-0.067	0.237
-191.202	-200.000	-0.015	-0.078
-190.187	-200.000	0.006	0.272
-189.173	-200.000	-0.036	0.238
-188.158	0.137	-0.084	0.059
-187.144	-78.985	0.269	-0.090
-186.129	107.143	-0.130	0.153
-185.114	94.186	0.126	0.141
-184.100	216.791	-0.095	-0.149
-183.085	19.784	-0.281	-0.223
-182.071	-200.000	0.006	0.187
-181.056	800.000	0.056	0.227
-180.042	335.094	-0.076	-0.145
-179.027	-63.968	-0.104	-0.042
-178.012	-70.046	0.202	0.076
-176.998	133.537	0.066	-0.084
-175.983	-60.259	0.202	-0.085
-174.969	-91.696	0.126	0.035
-173.954	212.166	-0.085	-0.133
-172.939	-70.902	-0.212	-0.079
-171.925	35.638	-0.038	-0.033
-170.910	-200.000	0.028	0.202
-169.896	416.668	-0.193	-0.407
-168.881	-200.000	0.048	-0.293
-167.866	-189.815	0.018	-0.000
-166.852	452.448	-0.116	0.252
-165.837	-200.000	-0.035	0.154
-164.823	-8.811	0.329	0.218
-163.808	83.622	-0.183	-0.196
-162.793	-106.304	-0.202	0.044
-161.779	-112.880	-0.198	0.039
-160.764	-200.000	-0.039	-0.233
-159.750	-109.210	0.284	0.060
-158.735	-100.417	0.237	0.058
-157.720	-73.591	0.214	0.077
-156.706	-200.000	-0.046	-0.360
-155.691	66.222	-0.115	-0.115
-154.677	12.264	0.227	-0.172
-153.662	-111.954	-0.197	0.039
-152.647	116.644	-0.133	0.161
-151.633	-200.000	-0.061	0.340
-150.618	307.426	-0.076	0.139
-149.604	65.687	-0.236	-0.236
-148.589	26.642	0.302	0.250
-147.574	-200.000	-0.364	0.002
-146.560	12.793	-0.057	-0.043
-145.545	43.944	0.372	-0.336
-144.531	58.499	0.050	-0.048
-143.516	800.000	0.038	0.110
-142.502	21.010	-0.073	0.059
-141.487	800.000	-0.038	0.160
-140.472	800.000	0.110	0.324
-139.458	-98.221	0.176	0.045
-138.443	145.086	-0.114	0.151
-137.429	614.797	-0.032	-0.079
-136.414	473.466	0.074	0.164
-135.399	433.728	0.205	-0.439
-134.385	800.000	0.086	-0.240
-133.370	-200.000	0.039	-0.397
-132.356	362.911	0.086	-0.169
-131.341	800.000	0.011	-0.042
-130.326	126.668	-0.179	0.224
-129.312	169.818	0.106	-0.149
-128.297	-77.361	-0.282	0.097
-127.283	-24.769	-0.244	0.143
-126.268	-23.955	0.488	0.287
-125.253	-15.843	0.079	-0.050
-124.239	-200.000	-0.050	0.248
-123.224	800.000	-0.036	-0.121
-122.210	-71.829	0.377	-0.138
