DTS Sentinel unit serial number:	SN413079Multiplexer serial number:	ORYXHardware model number:	OX4-SRSoftware version number:	ORYX F/W v4.00 Oryx Data Collector v3.7.2.0data status	okinstallation	princeton_trtdifferential loss correction	single-endedforward channel	channel 2reverse channel	N/Adate	2019/09/12time	21:23:34forward acquisition time	60.00reverse acquisition time	0.00gamma	496.2192k internal	0.2328k external	0.2328temperature offset calibration	1.0163default loss term (dB/km)	0.3790temperature slope calibration	1.0000multiplexer offset coefficient	1.0000multiplexer slope coefficient	1.0000fibre end	0.00T internal ref (°C)	30.50T ext. ref 1 (°C)	3.61T ext. ref 2 (°C)	25.17length (m)	temperature (°C)	Stokes	anti-Stokes-747.200	-200.000	-0.014	0.109
-746.185	156.901	-0.040	-0.055
-745.171	311.837	-0.113	-0.213
-744.156	51.317	0.126	0.120
-743.142	-200.000	0.041	-0.211
-742.127	-48.391	0.330	0.160
-741.112	54.594	-0.053	-0.051
-740.098	60.133	-0.096	-0.096
-739.083	759.303	0.063	0.172
-738.069	215.937	-0.110	0.176
-737.054	-200.000	0.012	0.174
-736.039	-200.000	-0.045	-0.248
-735.025	-58.510	-0.117	0.051
-734.010	800.000	-0.044	-0.168
-732.996	162.494	-0.075	-0.106
-731.981	-200.000	-0.045	-0.270
-730.966	-106.697	-0.165	0.037
-729.952	-146.730	-0.097	0.008
-728.937	111.068	0.137	-0.167
-727.923	-72.231	-0.242	-0.090
-726.908	230.218	0.165	-0.271
-725.894	264.284	-0.087	-0.152
-724.879	-200.000	0.004	0.230
-723.864	-200.000	0.001	-0.092
-722.850	-107.887	-0.348	0.076
-721.835	-100.567	-0.138	-0.034
-720.821	211.954	0.171	-0.272
-719.806	800.000	-0.080	-0.307
-718.791	800.000	-0.041	0.120
-717.777	-200.000	-0.026	0.171
-716.762	296.869	-0.066	-0.122
-715.748	-200.000	0.022	-0.118
-714.733	800.000	-0.112	-0.336
-713.718	-2.472	-0.345	-0.243
-712.704	-116.093	-0.113	-0.021
-711.689	7.713	-0.254	0.192
-710.675	119.691	-0.152	-0.189
-709.660	-200.000	0.015	0.089
-708.645	-39.942	-0.083	0.043
-707.631	790.963	0.037	-0.102
-706.616	-38.032	0.137	0.073
-705.602	204.293	0.211	-0.330
-704.587	-143.541	-0.192	0.018
-703.572	437.868	-0.157	-0.344
-702.558	6.633	-0.359	-0.269
-701.543	-127.887	-0.175	0.025
-700.529	94.692	-0.169	0.193
-699.514	-200.000	0.081	-0.386
-698.499	-200.000	-0.045	-0.260
-697.485	30.182	0.189	-0.162
-696.470	14.553	0.142	-0.111
-695.456	-106.890	-0.273	0.061
-694.441	54.725	0.054	0.053
-693.426	-200.000	0.014	-0.241
-692.412	-31.962	-0.195	0.110
-691.397	-173.903	-0.050	0.001
-690.383	75.818	-0.251	-0.267
-689.368	140.305	-0.178	-0.237
-688.354	9.400	0.128	0.097
-687.339	701.398	-0.007	0.017
-686.324	-52.821	-0.061	0.028
-685.310	125.226	0.103	0.130
-684.295	800.000	-0.095	-0.282
-683.281	-85.141	0.198	-0.062
-682.266	-200.000	-0.051	-0.267
-681.251	30.565	-0.019	0.016
-680.237	-200.000	0.027	-0.360
-679.222	53.872	0.111	0.107
-678.208	-200.000	-0.061	-0.282
-677.193	-73.518	-0.115	-0.042
-676.178	125.167	0.138	-0.175
-675.164	-200.000	-0.013	0.193
-674.149	73.019	0.069	-0.072
-673.135	63.453	-0.168	0.170
-672.120	800.000	0.046	0.179
-671.105	55.260	-0.081	-0.079
-670.091	-149.555	-0.083	0.007
-669.076	800.000	0.067	0.258
-668.062	-200.000	0.004	0.162
-667.047	-200.000	0.028	-0.264
-666.032	-111.928	0.115	-0.023
-665.018	-44.354	-0.008	0.004
-664.003	-79.192	0.052	0.018
-662.989	-69.953	-0.301	0.115
-661.974	69.208	-0.152	-0.157
-660.959	344.286	-0.096	-0.188
-659.945	68.208	-0.164	0.169
-658.930	-200.000	0.046	0.244
-657.916	32.610	-0.020	0.017
-656.901	-200.000	0.006	-0.192
-655.886	25.942	-0.112	-0.094
-654.872	483.209	0.091	0.207
-653.857	65.778	-0.173	0.176
-652.843	33.755	-0.194	-0.170
-651.828	96.847	-0.150	-0.173
-650.814	-67.440	0.305	-0.120
-649.799	-7.738	-0.116	-0.079
-648.784	-28.631	-0.108	-0.062
-647.770	212.660	-0.031	0.050
-646.755	-115.187	-0.033	0.006
-645.741	-83.615	-0.281	-0.090
-644.726	800.000	0.040	0.132
-643.711	-30.807	-0.173	0.098
-642.697	-35.163	0.169	-0.093
-641.682	-114.377	-0.099	-0.019
-640.668	-4.909	-0.115	-0.080
-639.653	-154.766	-0.293	0.019
-638.638	-200.000	-0.025	-0.400
-637.624	138.296	-0.259	-0.342
-636.609	800.000	0.039	0.124
-635.595	51.884	-0.103	-0.099
-634.580	401.026	-0.165	0.347
-633.565	208.944	0.252	0.396
-632.551	-200.000	-0.034	0.299
-631.536	800.000	-0.046	0.168
-630.522	9.773	0.193	0.147
-629.507	320.888	-0.084	-0.160
-628.492	71.891	-0.312	-0.326
-627.478	308.548	0.082	-0.153
-626.463	93.338	-0.059	0.067
-625.449	321.229	-0.059	-0.112
-624.434	-144.476	0.258	0.024
-623.419	-200.000	0.007	-0.087
-622.405	-122.385	0.267	-0.044
-621.390	32.772	0.157	0.136
-620.376	682.524	0.108	0.283
-619.361	-176.425	-0.386	-0.010
-618.346	291.434	0.090	0.164
-617.332	504.529	0.148	0.345
-616.317	112.683	0.247	-0.300
-615.303	-200.000	-0.023	0.223
-614.288	-107.838	0.186	0.041
-613.273	197.109	-0.197	-0.301
-612.259	282.316	0.013	-0.024
-611.244	-200.000	0.066	-0.301
-610.230	-200.000	0.045	-0.385
-609.215	-120.262	-0.331	-0.057
-608.201	61.560	-0.196	-0.195
-607.186	-200.000	0.013	-0.120
-606.171	134.749	0.102	0.132
-605.157	-55.075	-0.119	-0.054
-604.142	-57.088	-0.178	-0.078
-603.128	136.561	0.190	0.248
-602.113	800.000	-0.040	-0.169
-601.098	-88.805	-0.437	0.130
-600.084	-25.074	-0.037	-0.022
-599.069	239.407	0.090	0.150
-598.055	-52.715	-0.349	-0.161
-597.040	-7.239	-0.357	-0.242
-596.025	-18.609	-0.146	-0.091
-595.011	62.057	0.294	0.294
-593.996	5.653	0.325	0.241
-592.982	-200.000	0.026	-0.360
-591.967	-55.879	-0.369	0.165
-590.952	-5.654	-0.317	0.218
-589.938	-200.000	0.009	-0.104
-588.923	376.512	0.079	0.161
-587.909	267.312	-0.234	0.410
-586.894	-26.789	0.103	0.060
-585.879	212.703	0.211	0.333
-584.865	800.000	-0.094	-0.293
-583.850	10.033	-0.230	0.175
-582.836	-136.125	-0.221	-0.026
-581.821	-48.261	-0.327	0.158
-580.806	346.587	-0.158	-0.312
-579.792	-127.240	-0.055	-0.008
-578.777	-200.000	0.006	-0.355
-577.763	800.000	-0.097	0.295
-576.748	661.325	-0.044	-0.114
-575.733	-200.000	-0.038	-0.248
-574.719	-154.074	-0.077	0.005
-573.704	761.139	-0.163	0.443
-572.690	-136.873	0.115	0.013
-571.675	-103.042	-0.146	-0.035
-570.661	-3.664	-0.266	0.185
-569.646	-200.000	-0.063	0.315
-568.631	632.730	-0.032	-0.082
-567.617	33.568	0.098	-0.086
-566.602	259.452	0.015	0.026
-565.588	-200.000	-0.006	-0.275
-564.573	181.087	0.075	-0.110
-563.558	-5.928	0.349	-0.239
-562.544	-9.403	-0.081	-0.054
-561.529	-112.961	-0.363	0.072
-560.515	-47.181	-0.058	-0.028
-559.500	-94.311	-0.229	-0.063
-558.485	-96.232	-0.108	-0.029
-557.471	-103.785	-0.002	0.000
-556.456	800.000	0.017	0.063
-555.442	-200.000	0.010	0.144
-554.427	-159.110	-0.141	-0.008
-553.412	299.768	-0.143	-0.264
-552.398	327.895	0.171	-0.329
-551.383	-179.795	-0.173	-0.004
-550.369	46.200	0.372	0.344
-549.354	-75.806	0.120	0.042
-548.339	-107.353	0.231	0.051
-547.325	-3.471	-0.117	-0.081
-546.310	-42.365	-0.376	-0.192
-545.296	-52.079	-0.028	0.013
-544.281	-0.045	0.286	0.204
-543.266	17.874	-0.223	0.178
-542.252	225.665	0.209	0.338
-541.237	-49.316	0.237	0.113
-540.223	547.940	0.040	-0.096
-539.208	-94.413	-0.143	0.039
-538.193	-200.000	-0.003	0.021
-537.179	330.531	0.045	-0.088
-536.164	-191.471	-0.330	0.003
-535.150	715.930	0.056	-0.148
-534.135	-93.181	0.289	0.080
-533.121	259.287	0.191	-0.330
-532.106	146.998	0.032	0.043
-531.091	-167.403	0.189	-0.008
-530.077	646.086	0.093	0.236
-529.062	-120.748	-0.279	-0.047
-528.048	276.078	0.124	0.220
-527.033	-57.324	-0.126	0.055
-526.018	47.424	-0.301	0.280
-525.004	61.311	-0.098	0.097
-523.989	-123.051	-0.343	0.055
-522.975	800.000	-0.067	-0.205
-521.960	-200.000	-0.004	0.362
-520.945	-0.032	-0.237	0.168
-519.931	-101.880	0.099	0.024
-518.916	414.011	-0.023	0.050
-517.902	-96.100	0.065	-0.017
-516.887	-21.326	0.326	-0.199
-515.872	-103.126	0.250	0.059
-514.858	153.438	0.061	-0.084
-513.843	-143.610	0.421	0.040
-512.829	-105.649	-0.494	0.112
-511.814	-48.441	-0.200	-0.096
-510.799	-85.815	-0.111	-0.034
-509.785	800.000	-0.119	-0.333
-508.770	-65.600	0.088	0.035
-507.756	800.000	0.120	-0.342
-506.741	800.000	0.095	0.370
-505.726	-200.000	0.014	0.110
-504.712	81.371	-0.173	0.187
-503.697	800.000	0.030	0.104
-502.683	-53.358	-0.120	0.055
-501.668	-32.341	-0.286	-0.159
-500.653	-200.000	-0.026	0.241
-499.639	-25.898	-0.135	-0.079
-498.624	-1.255	0.126	-0.089
-497.610	-94.213	0.024	-0.007
-496.595	-200.000	0.005	-0.159
-495.581	-42.463	0.267	-0.136
-494.566	-113.852	0.161	-0.031
-493.551	790.767	0.054	0.149
-492.537	243.784	0.063	-0.106
-491.522	-200.000	0.047	-0.244
-490.508	-37.412	0.083	-0.044
-489.493	156.791	0.172	-0.237
-488.478	37.286	-0.071	0.063
-487.464	4.566	0.306	-0.224
-486.449	197.199	-0.236	-0.359
-485.435	-163.167	-0.302	-0.014
-484.420	494.829	-0.008	0.019
-483.405	585.637	-0.059	-0.144
-482.391	125.570	-0.087	-0.110
-481.376	-200.000	0.009	-0.098
-480.362	-200.000	-0.002	-0.094
-479.347	-148.044	0.080	0.007
-478.332	341.725	0.041	0.081
-477.318	321.381	-0.227	0.431
-476.303	-3.898	-0.135	-0.093
-475.289	800.000	-0.031	0.128
-474.274	753.713	-0.064	0.171
-473.259	185.812	-0.124	-0.184
-472.245	-200.000	0.009	0.082
-471.230	-14.998	0.119	0.076
-470.216	20.426	-0.198	0.159
-469.201	36.241	0.112	-0.098
-468.186	-102.486	-0.257	-0.061
-467.172	-122.770	-0.190	0.031
-466.157	25.598	-0.167	-0.138
-465.143	-200.000	0.040	-0.176
-464.128	-12.890	0.200	-0.130
-463.113	39.906	0.233	0.209
-462.099	-200.000	-0.040	-0.320
-461.084	31.676	0.152	-0.130
-460.070	-40.467	0.225	0.116
-459.055	-148.293	-0.306	-0.025
-458.040	414.378	-0.074	0.157
-457.026	800.000	-0.043	-0.151
-456.011	-192.886	0.295	0.003
-454.997	35.161	0.209	-0.182
-453.982	-200.000	-0.025	-0.416
-452.968	373.077	0.075	-0.152
-451.953	169.063	0.078	-0.110
-450.938	-200.000	0.026	0.177
-449.924	800.000	0.005	-0.020
-448.909	-127.636	-0.180	-0.026
-447.895	235.665	0.130	-0.214
-446.880	-200.000	-0.015	-0.200
-445.865	-200.000	-0.016	-0.094
-444.851	-121.420	0.026	0.004
-443.836	330.791	-0.095	-0.183
-442.822	-140.024	0.220	0.023
-441.807	-86.560	-0.123	-0.038
-440.792	-26.003	0.053	-0.031
-439.778	-38.851	-0.451	0.237
-438.763	-22.508	0.174	-0.105
-437.749	-144.563	-0.082	0.008
-436.734	-1.921	0.254	-0.178
-435.719	800.000	0.061	-0.249
-434.705	199.928	0.082	-0.125
-433.690	3.662	0.118	-0.086
-432.676	-200.000	-0.004	-0.062
-431.661	-200.000	0.035	-0.164
-430.646	6.182	-0.210	0.155
-429.632	-30.787	0.247	0.139
-428.617	800.000	-0.069	0.263
-427.603	118.960	-0.072	0.088
-426.588	-87.182	0.193	-0.059
-425.573	-51.051	0.246	0.115
-424.559	21.393	0.145	0.117
-423.544	378.348	0.119	0.243
-422.530	-167.560	0.114	-0.005
-421.515	-11.283	-0.147	0.097
-420.500	800.000	0.030	0.092
-419.486	318.968	0.095	0.179
-418.471	143.537	0.094	-0.124
-417.457	-2.480	0.104	-0.073
-416.442	633.188	-0.196	0.495
-415.428	202.303	-0.113	-0.173
-414.413	-200.000	-0.014	-0.345
-413.398	-200.000	-0.037	-0.162
-412.384	-130.954	0.106	0.014
-411.369	800.000	0.143	-0.427
-410.355	800.000	-0.084	0.248
-409.340	-8.008	0.028	-0.019
-408.325	5.248	-0.081	0.059
-407.311	800.000	-0.053	-0.162
-406.296	115.945	0.154	-0.188
-405.282	742.418	-0.018	0.049
-404.267	-200.000	-0.000	-0.260
-403.252	-200.000	0.007	0.055
-402.238	25.766	0.205	-0.170
-401.223	-75.363	-0.139	-0.049
-400.209	-81.776	0.120	0.039
-399.194	0.743	-0.270	0.192
-398.179	-0.982	0.411	-0.289
-397.165	240.650	-0.111	-0.184
-396.150	23.829	-0.097	-0.079
-395.136	-121.980	-0.124	0.020
-394.121	165.818	-0.095	0.134
-393.106	-200.000	0.070	-0.406
-392.092	357.618	0.177	-0.351
-391.077	-48.419	0.148	0.071
-390.063	-125.164	-0.092	0.014
-389.048	-155.021	0.250	-0.016
-388.033	-200.000	0.033	0.437
-387.019	402.410	-0.085	-0.177
-386.004	-17.224	0.385	0.241
-384.990	-104.764	0.193	-0.044
-383.975	800.000	-0.025	-0.076
-382.960	-200.000	-0.003	-0.063
-381.946	-200.000	0.016	0.119
-380.931	-133.418	0.186	0.023
-379.917	793.314	0.085	0.234
-378.902	-200.000	-0.002	-0.032
-377.888	47.256	-0.046	-0.042
-376.873	-94.971	0.411	0.110
-375.858	4.994	0.018	0.013
-374.844	-61.939	0.198	0.082
-373.829	-108.453	-0.161	-0.034
-372.815	-83.139	-0.038	0.012
-371.800	521.560	0.035	0.082
-370.785	-95.634	-0.151	-0.040
-369.771	492.230	-0.157	0.356
-368.756	-115.587	-0.047	-0.009
-367.742	-200.000	0.042	-0.259
-366.727	-200.000	0.075	0.365
-365.712	-30.336	-0.208	-0.117
-364.698	774.867	-0.089	-0.242
-363.683	-24.829	-0.245	-0.144
-362.669	129.559	0.106	-0.135
-361.654	-200.000	0.006	-0.102
-360.639	-89.093	-0.056	0.016
-359.625	800.000	0.118	0.377
-358.610	136.164	0.132	0.171
-357.596	-1.245	-0.128	0.090
-356.581	-101.129	0.123	-0.030
-355.566	43.069	-0.121	0.110
-354.552	154.987	-0.194	-0.264
-353.537	-90.389	0.231	-0.067
-352.523	156.156	0.216	-0.295
-351.508	-172.902	-0.074	0.002
-350.493	-132.436	-0.334	0.043
-349.479	284.112	-0.231	-0.413
-348.464	7.868	-0.219	0.163
-347.450	-200.000	0.010	-0.193
-346.435	603.938	-0.047	-0.116
-345.420	-200.000	-0.019	-0.128
-344.406	378.164	0.061	0.123
-343.391	-188.879	0.069	-0.001
-342.377	235.223	-0.094	0.154
-341.362	411.254	-0.082	0.172
-340.348	-175.221	-0.244	-0.007
-339.333	104.775	-0.146	0.171
-338.318	-30.955	0.403	0.226
-337.304	-200.000	-0.032	0.343
-336.289	-147.214	0.167	0.014
-335.275	101.586	0.071	0.083
-334.260	478.257	0.150	0.337
-333.245	183.958	0.150	-0.220
-332.231	-200.000	0.009	0.065
-331.216	129.413	-0.111	-0.140
-330.202	-200.000	0.027	-0.241
-329.187	-33.208	-0.172	0.094
-328.172	134.176	-0.279	0.359
-327.158	-130.133	0.132	0.018
-326.143	-200.000	0.033	0.295
-325.129	-40.977	-0.250	0.128
-324.114	-21.555	0.110	0.066
-323.099	252.860	0.113	0.191
-322.085	-53.121	0.417	0.190
-321.070	449.228	-0.191	0.418
-320.056	-200.000	-0.048	0.285
-319.041	420.357	-0.079	-0.169
-318.026	64.798	-0.363	-0.363
-317.012	800.000	-0.030	0.127
-315.997	-38.815	0.173	-0.091
-314.983	-200.000	-0.033	-0.410
-313.968	-52.337	-0.119	0.054
-312.953	282.568	-0.184	0.328
-311.939	690.410	0.169	0.438
-310.924	224.257	-0.035	-0.056
-309.910	800.000	0.090	0.256
-308.895	800.000	0.050	0.190
-307.880	-133.252	0.267	-0.033
-306.866	-2.784	0.127	0.088
-305.851	-198.335	-0.050	0.000
-304.837	-161.933	-0.244	-0.012
-303.822	43.771	0.133	-0.120
-302.807	196.781	-0.095	0.143
-301.793	153.952	0.091	-0.123
-300.778	169.279	0.058	-0.082
-299.764	276.524	-0.157	-0.276
-298.749	-200.000	0.015	-0.126
-297.735	-68.161	-0.164	-0.063
-296.720	-200.000	0.018	0.122
-295.705	509.418	-0.048	0.111
-294.691	-10.437	-0.084	-0.055
-293.676	264.570	0.064	0.110
-292.662	-175.161	-0.202	0.006
-291.647	134.713	-0.090	-0.116
-290.632	65.626	-0.102	-0.102
-289.618	-29.342	0.078	0.044
-288.603	-200.000	-0.040	0.323
-287.589	113.914	-0.208	0.250
-286.574	78.805	-0.231	-0.244
-285.559	296.170	0.093	0.168
-284.545	88.043	-0.077	-0.085
-283.530	49.313	0.106	-0.099
-282.516	800.000	-0.019	0.073
-281.501	59.395	-0.272	-0.266
-280.486	-185.577	0.004	0.000
-279.472	-156.247	-0.248	-0.015
-278.457	-4.872	0.159	0.109
-277.443	-91.848	0.154	-0.043
-276.428	53.981	-0.077	0.073
-275.413	-45.337	0.145	0.071
-274.399	6.288	0.344	-0.253
-273.384	147.191	0.081	0.108
-272.370	652.033	0.051	0.129
-271.355	-127.106	-0.177	-0.026
-270.340	129.210	0.064	0.081
-269.326	321.579	-0.095	-0.180
-268.311	-179.659	-0.142	-0.003
-267.297	-200.000	0.047	0.457
-266.282	800.000	-0.086	-0.364
-265.267	-24.428	0.308	0.182
-264.253	132.582	-0.162	-0.207
-263.238	80.598	-0.267	0.285
-262.224	-93.533	0.410	-0.112
-261.209	-178.948	0.099	0.002
-260.195	-178.328	-0.099	0.002
-259.180	-200.000	-0.002	-0.037
-258.165	98.699	0.082	-0.094
-257.151	17.073	-0.241	-0.189
-256.136	-98.186	0.409	0.104
-255.122	45.101	-0.111	-0.101
-254.107	-4.815	-0.205	-0.140
-253.092	-200.000	-0.006	0.049
-252.078	-125.685	-0.136	0.020
-251.063	-59.970	-0.210	0.089
-250.049	-200.000	-0.008	0.170
-249.034	-100.525	-0.256	-0.063
-248.019	148.294	-0.122	0.163
-247.005	140.475	0.308	-0.402
-245.990	601.120	0.159	0.391
-244.976	17.846	0.318	-0.250
-243.961	57.145	-0.170	0.164
-242.946	-200.000	0.004	-0.081
-241.932	-163.927	-0.362	0.017
-240.917	-200.000	0.037	-0.380
-239.903	-119.574	0.287	-0.049
-238.888	-200.000	0.029	-0.179
-237.873	55.143	-0.122	-0.117
-236.859	21.864	0.168	-0.135
-235.844	-74.815	-0.167	-0.059
-234.830	-37.620	-0.226	-0.119
-233.815	467.332	0.048	-0.107
-232.800	281.650	0.081	-0.143
-231.786	-119.338	0.228	0.039
-230.771	-119.378	0.078	-0.013
-229.757	114.382	-0.167	0.201
-228.742	-200.000	-0.022	-0.254
-227.727	800.000	0.089	-0.366
-226.713	3.710	-0.126	0.091
-225.698	73.408	0.186	0.192
-224.684	150.637	0.178	-0.239
-223.669	800.000	0.039	-0.147
-222.655	150.410	0.165	0.221
-221.640	-164.562	0.300	-0.013
-220.625	800.000	0.031	-0.110
-219.611	800.000	-0.089	0.277
-218.596	357.797	0.125	0.246
-217.582	-42.422	0.281	0.142
-216.567	774.271	-0.104	0.281
-215.552	308.607	-0.078	-0.145
-214.538	-83.399	-0.180	-0.057
-213.523	135.832	0.073	0.094
-212.509	62.204	0.123	0.121
-211.494	-187.857	0.247	0.003
-210.479	-123.293	0.138	-0.022
-209.465	-33.230	0.308	-0.169
-208.450	64.818	-0.129	-0.129
-207.436	-87.030	0.147	0.044
-206.421	73.835	0.220	0.228
-205.406	13.220	0.084	0.064
-204.392	-85.508	0.212	-0.065
-203.377	-45.818	0.331	0.162
-202.363	344.157	-0.096	0.186
-201.348	157.199	-0.024	-0.032
-200.333	319.146	-0.034	0.064
-199.319	-152.644	-0.254	0.018
-198.304	222.745	0.145	0.231
-197.290	-200.000	0.030	0.236
-196.275	-200.000	0.005	0.233
-195.260	-107.598	-0.096	0.021
-194.246	-135.153	-0.223	0.026
-193.231	-200.000	0.004	0.256
-192.217	-103.756	0.123	-0.028
-191.202	293.036	-0.066	0.119
-190.187	106.629	0.138	-0.161
-189.173	-48.786	-0.467	-0.221
-188.158	28.906	-0.268	0.224
-187.144	-74.431	0.271	-0.096
-186.129	-200.000	-0.020	0.089
-185.114	-71.604	0.153	-0.056
-184.100	-75.092	0.025	-0.009
-183.085	302.958	0.124	0.227
-182.071	417.889	0.088	-0.185
-181.056	38.561	0.129	0.113
-180.042	-8.505	-0.219	-0.145
-179.027	278.944	-0.110	-0.193
-178.012	-67.421	-0.140	-0.054
-176.998	800.000	-0.056	0.240
-175.983	-145.741	0.641	-0.056
-174.969	97.639	0.099	-0.112
-173.954	800.000	0.076	0.227
-172.939	-1.809	-0.157	-0.109
-171.925	-31.172	0.344	-0.191
-170.910	-43.560	0.427	0.212
-169.896	33.783	0.212	-0.182
-168.881	-87.938	0.119	0.035
-167.866	266.786	0.120	0.206
-166.852	800.000	-0.038	-0.162
-165.837	-100.614	0.084	-0.020
-164.823	322.645	-0.138	-0.260
-163.808	-130.002	-0.060	0.008
-162.793	-200.000	-0.021	-0.390
-161.779	-30.889	0.093	0.052
-160.764	139.151	0.123	0.159
-159.750	-200.000	-0.063	0.317
-158.735	-200.000	-0.006	0.027
-157.720	-26.847	-0.243	0.140
-156.706	9.421	0.188	-0.140
-155.691	291.535	0.091	-0.162
-154.677	503.821	0.044	-0.101
-153.662	32.180	0.112	0.095
-152.647	118.910	0.096	0.117
-151.633	-97.142	0.195	-0.050
-150.618	800.000	-0.016	0.063
-149.604	418.445	0.072	0.151
-148.589	-162.577	-0.059	0.003
-147.574	-15.050	0.280	0.177
-146.560	-78.725	0.232	0.078
-145.545	71.890	-0.219	0.225
-144.531	5.926	0.204	-0.149
-143.516	-182.290	-0.154	-0.003
-142.502	-68.996	-0.190	0.072
-141.487	118.127	0.166	0.201
-140.472	2.195	-0.162	-0.115
-139.458	128.120	0.073	0.092
-138.443	214.342	0.248	0.386
-137.429	37.124	0.058	-0.051
-136.414	126.954	-0.095	-0.119
-135.399	122.547	0.173	0.213
-134.385	-123.153	0.310	0.049
-133.370	-86.003	0.133	-0.040
-132.356	-200.000	0.023	0.142
-131.341	-153.276	0.322	0.022
-130.326	-108.588	-0.165	-0.035
-129.312	-20.275	0.068	0.041
-128.297	-135.300	-0.164	0.019
-127.283	-112.630	0.361	-0.071
-126.268	2.793	-0.347	0.248
-125.253	-84.933	-0.352	-0.109
-124.239	-169.439	-0.179	0.006
-123.224	-15.089	0.298	-0.188
-122.210	102.118	-0.247	-0.284
-121.195	56.154	-0.147	-0.140
