DTS Sentinel unit serial number:	SN413079Multiplexer serial number:	ORYXHardware model number:	OX4-SRSoftware version number:	ORYX F/W v4.00 Oryx Data Collector v3.7.2.0data status	okinstallation	princeton_trtdifferential loss correction	single-endedforward channel	channel 2reverse channel	N/Adate	2019/09/11time	23:41:11forward acquisition time	60.00reverse acquisition time	0.00gamma	496.2192k internal	0.2325k external	0.2325temperature offset calibration	1.0082default loss term (dB/km)	0.3790temperature slope calibration	1.0000multiplexer offset coefficient	1.0000multiplexer slope coefficient	1.0000fibre end	0.00T internal ref (°C)	34.08T ext. ref 1 (°C)	1.92T ext. ref 2 (°C)	28.17length (m)	temperature (°C)	Stokes	anti-Stokes-747.200	128.186	0.234	-0.300
-746.185	-89.655	-0.291	-0.086
-745.171	207.019	-0.182	0.287
-744.156	-200.000	-0.032	0.262
-743.142	386.145	-0.041	0.086
-742.127	-82.650	0.142	-0.047
-741.112	-200.000	0.021	-0.147
-740.098	-200.000	-0.009	0.424
-739.083	148.031	0.262	0.356
-738.069	46.785	0.164	-0.154
-737.054	432.185	0.062	-0.137
-736.039	116.232	-0.188	-0.233
-735.025	-3.528	-0.140	-0.099
-734.010	-27.579	-0.304	0.178
-732.996	193.805	-0.241	-0.368
-731.981	15.807	0.054	0.043
-730.966	-35.408	-0.363	-0.199
-729.952	300.406	-0.216	0.401
-728.937	-112.852	-0.366	0.073
-727.923	-200.000	-0.047	-0.294
-726.908	28.657	-0.273	-0.233
-725.894	-118.943	-0.252	0.045
-724.879	-200.000	0.030	-0.231
-723.864	-160.268	-0.050	0.003
-722.850	504.234	0.141	-0.328
-721.835	-200.000	0.012	0.178
-720.821	366.318	0.063	0.129
-719.806	48.368	-0.223	-0.210
-718.791	205.311	0.103	0.161
-717.777	800.000	-0.139	-0.405
-716.762	0.583	-0.147	-0.106
-715.748	20.858	0.047	-0.039
-714.733	800.000	-0.043	-0.162
-713.718	-31.065	0.096	0.054
-712.704	-200.000	-0.029	-0.274
-711.689	-163.312	-0.119	-0.006
-710.675	8.902	0.287	-0.218
-709.660	-200.000	0.054	0.304
-708.645	-81.069	0.230	-0.077
-707.631	547.187	0.091	0.219
-706.616	100.014	-0.333	-0.389
-705.602	109.672	-0.070	-0.085
-704.587	-200.000	0.014	0.147
-703.572	800.000	0.149	-0.483
-702.558	-29.707	-0.069	0.040
-701.543	730.050	0.091	0.246
-700.529	74.127	-0.245	0.259
-699.514	-84.372	0.009	-0.003
-698.499	127.991	0.157	-0.201
-697.485	-200.000	-0.002	-0.125
-696.470	-200.000	0.034	0.294
-695.456	-11.717	0.143	0.095
-694.441	3.819	0.133	-0.098
-693.426	-200.000	0.013	0.107
-692.412	197.893	-0.169	-0.260
-691.397	-35.715	0.245	-0.134
-690.383	575.464	0.130	-0.320
-689.368	65.018	0.188	-0.191
-688.354	-95.669	-0.503	-0.136
-687.339	-144.386	-0.157	0.015
-686.324	102.972	0.055	-0.065
-685.310	-115.246	-0.340	-0.065
-684.295	-12.260	0.250	-0.165
-683.281	-26.031	-0.057	0.034
-682.266	311.883	0.108	0.204
-681.251	-76.303	-0.061	-0.022
-680.237	-200.000	-0.005	0.148
-679.222	27.327	0.228	0.193
-678.208	-3.855	-0.188	-0.131
-677.193	-137.708	0.267	-0.030
-676.178	-79.453	0.549	0.187
-675.164	-86.267	-0.269	0.083
-674.149	-200.000	0.039	0.176
-673.135	161.380	-0.146	0.206
-672.120	-40.923	0.130	-0.068
-671.105	-2.353	-0.272	0.192
-670.091	97.785	-0.045	0.053
-669.076	121.987	-0.158	-0.198
-668.062	392.033	-0.135	0.283
-667.047	-200.000	0.016	0.253
-666.032	-148.247	0.218	0.018
-665.018	800.000	0.014	0.058
-664.003	-200.000	-0.031	-0.390
-662.989	75.771	-0.191	0.203
-661.974	-200.000	0.056	-0.255
-660.959	-98.793	-0.074	0.019
-659.945	-200.000	-0.038	-0.212
-658.930	-27.713	0.181	0.105
-657.916	-56.206	0.245	0.110
-656.901	-144.636	-0.328	-0.030
-655.886	50.624	-0.167	-0.158
-654.872	-32.085	0.156	-0.088
-653.857	-25.123	-0.333	0.198
-652.843	-91.235	0.237	0.068
-651.828	-88.423	0.129	-0.039
-650.814	-54.995	0.034	-0.015
-649.799	800.000	0.089	0.287
-648.784	-200.000	-0.021	-0.097
-647.770	-145.429	-0.254	0.023
-646.755	69.741	0.120	0.124
-645.741	39.149	-0.281	0.253
-644.726	-200.000	-0.023	0.150
-643.711	615.900	0.016	0.040
-642.697	-1.659	0.056	0.040
-641.682	11.116	-0.155	-0.119
-640.668	9.519	0.047	-0.036
-639.653	10.866	0.216	-0.166
-638.638	-82.632	0.203	-0.066
-637.624	-200.000	0.076	-0.352
-636.609	-200.000	-0.024	0.202
-635.595	-129.309	-0.287	0.040
-634.580	-103.728	-0.368	0.087
-633.565	800.000	0.024	0.067
-632.551	-84.100	0.113	-0.036
-631.536	696.823	-0.010	-0.027
-630.522	308.663	-0.151	-0.284
-629.507	-95.588	-0.164	-0.044
-628.492	-29.959	-0.263	0.150
-627.478	-200.000	0.044	-0.282
-626.463	514.874	0.088	0.207
-625.449	124.064	-0.143	-0.181
-624.434	-143.388	0.071	-0.007
-623.419	-87.173	0.059	0.018
-622.405	800.000	-0.071	-0.267
-621.390	-92.822	0.074	0.021
-620.376	136.091	-0.312	-0.408
-619.361	107.566	-0.346	-0.413
-618.346	563.825	0.219	-0.533
-617.332	800.000	-0.108	-0.453
-616.317	-30.057	-0.147	0.084
-615.303	19.753	-0.281	-0.227
-614.288	-147.540	-0.092	-0.008
-613.273	378.600	-0.043	-0.088
-612.259	330.718	-0.219	-0.424
-611.244	-18.753	0.334	0.209
-610.230	-72.754	0.071	-0.026
-609.215	-200.000	-0.017	-0.215
-608.201	620.060	0.077	0.194
-607.186	129.875	0.072	0.092
-606.171	402.870	0.082	0.173
-605.157	702.332	-0.035	0.094
-604.142	-145.314	0.206	-0.019
-603.128	-105.600	-0.072	0.016
-602.113	611.012	0.106	0.266
-601.098	-23.738	0.323	0.194
-600.084	-57.291	-0.074	0.033
-599.069	-85.122	-0.438	0.138
-598.055	-169.369	0.212	-0.008
-597.040	448.815	-0.059	0.131
-596.025	-200.000	-0.056	-0.407
-595.011	61.118	0.152	0.152
-593.996	290.009	0.102	0.186
-592.982	51.821	-0.092	0.087
-591.967	384.768	0.082	0.169
-590.952	-132.475	-0.116	0.015
-589.938	58.066	-0.193	0.190
-588.923	81.294	0.025	0.027
-587.909	800.000	-0.132	-0.402
-586.894	-121.184	-0.058	0.010
-585.879	800.000	0.087	0.271
-584.865	-1.805	0.210	0.148
-583.850	400.005	-0.054	0.113
-582.836	230.289	0.097	0.159
-581.821	229.979	-0.117	-0.191
-580.806	-162.699	-0.175	-0.009
-579.792	-200.000	0.033	-0.184
-578.777	224.145	0.037	-0.060
-577.763	-200.000	0.009	-0.179
-576.748	-200.000	0.020	0.099
-575.733	60.845	-0.215	-0.214
-574.719	-116.852	-0.452	-0.083
-573.704	17.590	-0.159	0.127
-572.690	298.310	-0.080	0.148
-571.675	800.000	-0.067	-0.208
-570.661	43.959	0.074	0.068
-569.646	800.000	0.048	-0.140
-568.631	-200.000	0.032	0.153
-567.617	-200.000	0.015	0.237
-566.602	5.337	-0.266	-0.197
-565.588	-200.000	-0.008	-0.038
-564.573	150.911	-0.026	-0.036
-563.558	340.392	-0.054	-0.107
-562.544	311.970	-0.065	-0.122
-561.529	5.502	0.321	-0.237
-560.515	29.934	0.112	-0.096
-559.500	16.933	0.199	-0.158
-558.485	-170.204	-0.406	-0.014
-557.471	531.465	-0.081	0.192
-556.456	280.225	0.152	-0.272
-555.442	230.344	0.214	-0.350
-554.427	-118.274	0.162	0.029
-553.412	800.000	-0.116	-0.463
-552.398	-123.707	-0.061	-0.010
-551.383	181.646	-0.110	-0.162
-550.369	-200.000	-0.009	-0.176
-549.354	-105.754	-0.296	0.067
-548.339	-47.456	-0.205	-0.100
-547.325	-26.578	-0.160	0.094
-546.310	800.000	-0.008	-0.030
-545.296	-200.000	0.034	-0.213
-544.281	-200.000	-0.025	0.170
-543.266	29.813	-0.187	-0.159
-542.252	29.912	-0.079	0.067
-541.237	800.000	0.038	-0.154
-540.223	-109.077	-0.460	0.098
-539.208	800.000	0.126	-0.383
-538.193	-57.318	-0.155	0.068
-537.179	800.000	0.028	0.112
-536.164	-106.870	0.045	-0.010
-535.150	-99.263	0.054	0.014
-534.135	-131.115	0.157	-0.021
-533.121	800.000	-0.123	-0.364
-532.106	-200.000	-0.008	0.105
-531.091	-1.673	0.217	0.153
-530.077	-74.658	-0.105	-0.038
-529.062	-164.225	0.093	-0.004
-528.048	-64.283	0.259	0.106
-527.033	-178.506	-0.107	-0.002
-526.018	-200.000	0.016	-0.181
-525.004	800.000	-0.075	-0.323
-523.989	-53.919	-0.164	-0.075
-522.975	-184.817	0.282	0.004
-521.960	-3.785	0.377	-0.262
-520.945	71.785	-0.214	-0.223
-519.931	-161.142	0.441	0.023
-518.916	800.000	-0.047	0.189
-517.902	800.000	-0.066	0.242
-516.887	-200.000	-0.021	-0.295
-515.872	-91.996	-0.127	-0.036
-514.858	-111.256	0.059	-0.012
-513.843	-191.723	-0.257	0.003
-512.829	-102.971	0.257	-0.061
-511.814	34.847	-0.064	0.056
-510.799	327.147	0.138	-0.265
-509.785	800.000	0.082	-0.244
-508.770	503.708	0.045	0.103
-507.756	115.733	-0.154	-0.188
-506.741	184.751	-0.267	-0.395
-505.726	-200.000	0.012	0.221
-504.712	120.241	0.134	-0.166
-503.697	-200.000	0.032	-0.202
-502.683	-200.000	-0.008	-0.204
-501.668	4.259	0.086	0.063
-500.653	45.517	0.186	-0.171
-499.639	136.595	-0.031	0.040
-498.624	38.754	-0.105	-0.094
-497.610	134.857	0.187	-0.243
-496.595	-11.543	-0.151	0.099
-495.581	707.957	0.117	0.310
-494.566	-200.000	0.027	-0.204
-493.551	194.853	-0.262	-0.397
-492.537	-67.988	0.105	0.041
-491.522	-40.774	-0.164	-0.085
-490.508	-200.000	-0.027	-0.191
-489.493	-98.903	0.064	-0.016
-488.478	62.426	0.192	0.191
-487.464	-94.250	0.229	-0.062
-486.449	-200.000	-0.061	0.448
-485.435	800.000	0.123	-0.439
-484.420	-155.480	0.247	0.016
-483.405	176.804	-0.068	0.098
-482.391	401.738	0.028	0.058
-481.376	-48.239	-0.368	0.178
-480.362	215.283	0.140	0.222
-479.347	800.000	0.066	-0.260
-478.332	39.394	-0.187	-0.168
-477.318	392.189	0.123	-0.256
-476.303	-97.023	0.387	-0.101
-475.289	-116.202	0.299	-0.055
-474.274	96.176	0.140	0.159
-473.259	-69.379	0.179	0.069
-472.245	178.228	0.041	-0.059
-471.230	412.720	0.137	-0.291
-470.216	-168.756	-0.034	-0.001
-469.201	81.287	0.181	-0.195
-468.186	-200.000	-0.025	-0.275
-467.172	-71.908	-0.190	-0.070
-466.157	-18.749	-0.228	0.142
-465.143	-121.366	-0.229	-0.038
-464.128	-127.617	-0.158	0.023
-463.113	-169.642	-0.390	0.014
-462.099	745.793	0.040	0.108
-461.084	357.937	-0.037	0.074
-460.070	-38.245	0.155	-0.082
-459.055	800.000	0.071	0.206
-458.040	-158.284	0.128	0.007
-457.026	-65.763	0.106	-0.042
-456.011	800.000	0.097	0.269
-454.997	717.631	-0.058	0.154
-453.982	211.073	-0.122	-0.191
-452.968	55.988	0.088	0.085
-451.953	156.880	-0.096	0.133
-450.938	-200.000	-0.037	0.227
-449.924	-149.630	-0.083	-0.006
-448.909	-107.590	-0.173	0.038
-447.895	-54.864	-0.390	0.176
-446.880	-73.505	-0.221	0.081
-445.865	655.700	-0.160	0.411
-444.851	279.964	-0.029	0.052
-443.836	-123.680	0.385	-0.061
-442.822	285.667	0.055	-0.099
-441.807	-200.000	-0.026	-0.172
-440.792	-70.906	0.279	0.105
-439.778	-136.896	-0.449	0.051
-438.763	515.100	0.059	-0.138
-437.749	-124.106	-0.113	0.018
-436.734	-200.000	-0.032	0.229
-435.719	-64.407	0.139	-0.057
-434.705	-191.332	-0.525	-0.005
-433.690	-95.689	0.307	0.082
-432.676	144.375	0.178	0.237
-431.661	-119.656	-0.059	-0.010
-430.646	-200.000	-0.015	0.250
-429.632	-109.085	-0.236	-0.050
-428.617	-86.702	-0.299	0.091
-427.603	675.189	-0.064	-0.164
-426.588	29.519	-0.132	-0.112
-425.573	-55.186	0.128	0.057
-424.559	-97.389	0.077	0.020
-423.544	-4.322	-0.201	0.139
-422.530	344.369	-0.102	0.200
-421.515	800.000	0.100	0.359
-420.500	-7.858	0.229	-0.154
-419.486	-58.995	-0.124	-0.053
-418.471	-200.000	-0.016	0.202
-417.457	608.518	-0.065	0.161
-416.442	-55.534	0.261	0.117
-415.428	-200.000	-0.011	0.047
-414.413	-119.000	0.331	0.058
-413.398	307.445	-0.059	0.109
-412.384	11.212	-0.312	0.238
-411.369	-128.158	0.088	-0.013
-410.355	253.237	-0.130	-0.221
-409.340	98.553	-0.062	0.071
-408.325	-179.223	-0.086	-0.002
-407.311	-136.593	0.240	-0.028
-406.296	-200.000	0.020	-0.262
-405.282	34.674	0.131	0.114
-404.267	800.000	-0.103	-0.333
-403.252	-53.264	0.204	-0.093
-402.238	-97.664	0.126	-0.033
-401.223	800.000	-0.065	0.258
-400.209	-49.592	-0.218	-0.103
-399.194	206.730	-0.195	-0.302
-398.179	800.000	-0.039	0.148
-397.165	-138.033	0.407	-0.045
-396.150	154.537	0.077	0.105
-395.136	-99.128	0.248	-0.063
-394.121	75.950	0.228	0.240
-393.106	800.000	-0.083	0.300
-392.092	-113.332	-0.182	0.035
-391.077	31.417	0.113	-0.097
-390.063	-153.736	0.185	0.013
-389.048	37.515	0.196	0.173
-388.033	160.124	0.103	0.143
-387.019	-55.683	0.156	0.070
-386.004	-84.267	-0.116	0.037
-384.990	235.491	-0.092	-0.151
-383.975	800.000	-0.086	0.310
-382.960	51.173	-0.100	0.095
-381.946	129.377	0.162	0.206
-380.931	85.486	0.106	0.116
-379.917	-200.000	0.027	0.238
-378.902	124.099	0.174	-0.218
-377.888	132.555	0.156	-0.200
-376.873	-26.833	-0.254	-0.148
-375.858	-67.086	-0.227	0.089
-374.844	112.426	0.210	0.253
-373.829	72.865	-0.200	0.207
-372.815	-1.641	0.204	0.143
-371.800	-32.728	0.248	0.137
-370.785	24.589	0.045	-0.037
-369.771	-200.000	-0.015	-0.343
-368.756	800.000	0.058	-0.180
-367.742	800.000	0.013	0.052
-366.727	536.727	-0.223	-0.528
-365.712	800.000	0.072	0.202
-364.698	213.759	-0.057	0.089
-363.683	31.532	0.147	-0.126
-362.669	131.933	-0.176	0.225
-361.654	46.134	0.202	0.186
-360.639	-79.782	0.232	-0.078
-359.625	-48.572	0.209	0.100
-358.610	341.918	-0.080	-0.156
-357.596	-136.841	0.227	-0.026
-356.581	800.000	-0.007	0.025
-355.566	-123.093	-0.320	0.051
-354.552	-144.331	0.260	-0.024
-353.537	341.441	0.098	-0.190
-352.523	-200.000	-0.046	-0.437
-351.508	-72.535	-0.219	-0.081
-350.493	-104.358	-0.263	-0.061
-349.479	800.000	0.061	0.168
-348.464	406.651	-0.186	0.390
-347.450	67.430	0.379	0.384
-346.435	-50.082	0.125	-0.059
-345.420	7.167	-0.149	0.111
-344.406	-200.000	0.029	-0.177
-343.391	66.670	-0.205	-0.208
-342.377	-39.241	0.316	0.165
-341.362	-200.000	0.016	-0.201
-340.348	291.707	0.116	-0.210
-339.333	142.839	-0.120	-0.158
-338.318	217.536	-0.154	-0.244
-337.304	479.385	-0.154	0.348
-336.289	-62.317	0.055	0.023
-335.275	-71.602	-0.300	-0.111
-334.260	800.000	-0.052	-0.193
-333.245	-110.852	-0.198	-0.040
-332.231	30.803	0.206	-0.175
-331.216	800.000	-0.034	-0.146
-330.202	222.913	-0.049	0.079
-329.187	800.000	-0.023	-0.087
-328.172	-154.140	-0.197	0.013
-327.158	800.000	0.121	-0.462
-326.143	-131.750	-0.007	0.001
-325.129	-130.400	0.076	-0.010
-324.114	-200.000	0.003	0.092
-323.099	184.515	-0.091	0.134
-322.085	38.177	0.135	0.119
-321.070	277.706	0.142	0.252
-320.056	50.783	-0.218	-0.205
-319.041	-200.000	-0.008	0.342
-318.026	491.030	-0.175	0.399
-317.012	10.484	0.053	0.040
-315.997	-189.061	-0.053	0.001
-314.983	-57.760	-0.070	-0.031
-313.968	479.794	-0.081	0.182
-312.953	-94.977	-0.207	-0.055
-311.939	-200.000	-0.008	0.367
-310.924	-97.394	-0.168	0.043
-309.910	-131.925	-0.161	0.021
-308.895	-61.888	-0.130	-0.054
-307.880	198.515	0.056	-0.084
-306.866	771.695	-0.176	-0.477
-305.851	-200.000	-0.062	-0.287
-304.837	33.917	0.109	-0.094
-303.822	-33.142	-0.337	-0.185
-302.807	-135.797	0.371	0.044
-301.793	-70.221	0.287	-0.108
-300.778	679.596	-0.076	-0.196
-299.764	698.340	0.072	0.188
-298.749	-29.954	-0.087	-0.049
-297.735	-110.582	-0.035	0.007
-296.720	-6.661	-0.215	0.145
-295.705	-200.000	-0.056	0.274
-294.691	-200.000	0.033	0.316
-293.676	-131.908	0.357	0.046
-292.662	-52.308	-0.010	-0.004
-291.647	800.000	0.117	-0.379
-290.632	-200.000	-0.034	0.474
-289.618	-200.000	-0.001	0.104
-288.603	59.041	0.175	-0.170
-287.589	-118.805	0.276	0.048
-286.574	-84.653	0.299	-0.093
-285.559	4.173	-0.203	0.147
-284.545	544.862	-0.033	0.078
-283.530	800.000	0.042	-0.152
-282.516	-79.767	0.086	-0.029
-281.501	-47.359	0.098	-0.047
-280.486	-73.820	0.231	-0.083
-279.472	-41.965	-0.365	-0.185
-278.457	-170.147	0.092	-0.003
-277.443	800.000	0.062	0.212
-276.428	235.427	-0.136	0.222
-275.413	-23.261	-0.076	-0.045
-274.399	-200.000	-0.009	0.282
-273.384	-200.000	-0.046	0.337
-272.370	25.396	0.187	0.154
-271.355	-83.035	0.329	0.105
-270.340	-30.378	-0.097	0.054
-269.326	-149.769	-0.209	-0.016
-268.311	-26.014	0.280	-0.163
-267.297	-200.000	0.003	0.025
-266.282	800.000	0.044	0.149
-265.267	138.753	0.199	0.259
-264.253	126.957	0.185	0.232
-263.238	-70.497	-0.080	0.030
-262.224	-25.917	-0.045	-0.026
-261.209	-200.000	0.001	0.067
-260.195	12.709	-0.228	-0.174
-259.180	-161.245	-0.106	-0.005
-258.165	800.000	0.067	-0.191
-257.151	-7.081	-0.132	-0.089
-256.136	-30.736	-0.010	-0.005
-255.122	3.336	-0.096	0.069
-254.107	800.000	0.048	0.181
-253.092	-30.817	0.385	0.215
-252.078	-130.076	0.196	-0.027
-251.063	406.661	-0.219	0.457
-250.049	0.829	-0.210	0.149
-249.034	-115.879	0.288	0.053
-248.019	800.000	-0.068	0.244
-247.005	-142.815	0.034	0.003
-245.990	9.189	0.348	-0.260
-244.976	-200.000	-0.012	0.141
-243.961	43.455	-0.075	0.067
-242.946	-172.246	-0.039	0.001
-241.932	-13.621	0.372	0.238
-240.917	-106.094	0.099	-0.022
-239.903	-164.048	0.249	-0.011
-238.888	201.815	-0.164	0.250
-237.873	81.885	0.072	-0.078
-236.859	700.377	0.063	0.165
-235.844	-200.000	-0.006	-0.095
-234.830	162.114	-0.181	0.251
-233.815	97.083	0.358	0.407
-232.800	-19.398	-0.112	0.069
-231.786	16.291	0.229	-0.178
-230.771	-200.000	0.028	-0.168
-229.757	73.268	0.270	-0.279
-228.742	123.174	-0.092	-0.114
-227.727	407.612	-0.104	-0.218
-226.713	333.442	0.044	-0.085
-225.698	-28.251	0.086	-0.049
-224.684	151.499	0.264	0.356
-223.669	288.125	0.240	-0.430
-222.655	-200.000	-0.000	0.556
-221.640	800.000	0.075	0.269
-220.625	-36.744	0.106	-0.057
-219.611	451.569	-0.092	-0.200
-218.596	-165.984	-0.270	-0.011
-217.582	-94.125	-0.272	0.074
-216.567	800.000	-0.103	-0.283
-215.552	-51.893	0.289	-0.133
-214.538	-23.559	0.216	0.128
-213.523	37.107	-0.167	0.146
-212.509	800.000	0.054	-0.157
-211.494	-53.795	0.420	0.189
-210.479	220.371	-0.077	-0.122
-209.465	-4.536	-0.125	-0.085
-208.450	-19.022	0.157	0.096
-207.436	-79.214	0.232	-0.078
-206.421	-19.710	0.106	-0.065
-205.406	547.720	-0.054	-0.128
-204.392	171.263	-0.043	0.061
-203.377	800.000	0.034	-0.106
-202.363	88.121	0.247	0.271
-201.348	206.221	-0.103	0.158
-200.333	-109.017	-0.278	-0.058
-199.319	-200.000	0.008	0.050
-198.304	-200.000	-0.023	0.273
-197.290	7.155	0.113	0.083
-196.275	-200.000	-0.034	0.282
-195.260	86.851	-0.089	0.097
-194.246	-165.425	-0.198	-0.009
-193.231	-200.000	0.066	-0.363
-192.217	-100.280	-0.234	0.057
-191.202	30.841	0.084	-0.071
-190.187	5.843	0.208	-0.152
-189.173	-29.568	0.164	-0.092
-188.158	-76.880	0.268	0.093
-187.144	-70.938	0.148	0.055
-186.129	-90.164	-0.275	-0.079
-185.114	776.845	-0.185	-0.500
-184.100	432.268	-0.015	0.032
-183.085	762.517	-0.107	0.287
-182.071	-65.436	0.274	0.109
-181.056	-153.629	-0.231	0.016
-180.042	800.000	-0.037	0.102
-179.027	-57.946	-0.271	0.117
-178.012	-200.000	-0.006	0.112
-176.998	-33.446	0.118	-0.065
-175.983	16.000	-0.058	-0.045
-174.969	-79.900	-0.259	-0.086
-173.954	35.148	-0.420	-0.363
-172.939	-28.596	0.197	-0.112
-171.925	-129.225	0.248	-0.034
-170.910	-123.431	0.185	-0.029
-169.896	-58.570	-0.013	0.006
-168.881	313.407	-0.091	0.169
-167.866	-59.304	-0.255	-0.108
-166.852	-95.122	0.303	-0.081
-165.837	129.768	0.061	0.077
-164.823	-163.401	-0.247	0.012
-163.808	34.542	-0.368	-0.317
-162.793	-97.224	-0.176	-0.045
-161.779	-200.000	-0.004	0.250
-160.764	-84.521	-0.302	-0.094
-159.750	-200.000	0.040	0.288
-158.735	-141.982	0.255	0.025
-157.720	-44.763	-0.174	0.086
-156.706	342.335	0.073	0.142
-155.691	286.369	0.164	0.292
-154.677	39.189	0.287	0.253
-153.662	800.000	-0.087	0.298
-152.647	88.938	0.081	-0.088
-151.633	706.478	-0.061	0.158
-150.618	-95.309	-0.256	0.068
-149.604	280.206	0.219	0.386
-148.589	-200.000	0.039	-0.363
-147.574	-50.002	0.222	-0.104
-146.560	146.539	-0.139	-0.184
-145.545	-124.119	0.178	-0.028
-144.531	800.000	0.091	-0.286
-143.516	-38.839	0.259	0.135
-142.502	220.057	-0.034	0.053
-141.487	89.904	-0.021	0.023
-140.472	-117.451	0.257	-0.046
-139.458	27.024	0.248	-0.205
-138.443	-33.004	-0.306	-0.168
-137.429	-69.061	0.052	0.020
-136.414	-135.043	-0.195	0.023
-135.399	-200.000	0.050	-0.464
-134.385	800.000	0.030	-0.083
-133.370	4.149	-0.097	0.070
-132.356	69.745	0.085	-0.086
-131.341	-77.131	-0.208	-0.071
-130.326	-99.152	0.417	0.104
-129.312	4.287	0.133	0.096
-128.297	-98.172	-0.280	-0.071
-127.283	-200.000	-0.021	0.256
-126.268	-14.498	0.255	-0.161
-125.253	46.542	0.076	-0.070
-124.239	10.104	0.064	-0.048
-123.224	-200.000	-0.043	-0.462
-122.210	-99.725	-0.311	-0.077
-121.195	177.366	-0.202	0.290
