DTS Sentinel unit serial number:	SN413079Multiplexer serial number:	ORYXHardware model number:	OX4-SRSoftware version number:	ORYX F/W v4.00 Oryx Data Collector v3.7.2.0data status	okinstallation	princeton_trtdifferential loss correction	single-endedforward channel	channel 2reverse channel	N/Adate	2019/09/13time	01:15:35forward acquisition time	60.00reverse acquisition time	0.00gamma	496.2192k internal	0.2334k external	0.2334temperature offset calibration	1.0164default loss term (dB/km)	0.3790temperature slope calibration	1.0000multiplexer offset coefficient	1.0000multiplexer slope coefficient	1.0000fibre end	0.00T internal ref (°C)	27.94T ext. ref 1 (°C)	3.69T ext. ref 2 (°C)	22.54length (m)	temperature (°C)	Stokes	anti-Stokes-747.200	283.853	-0.273	-0.494
-746.185	-20.864	-0.122	-0.075
-745.171	6.366	0.182	0.136
-744.156	240.253	0.008	-0.014
-743.142	-200.000	-0.003	-0.087
-742.127	-200.000	0.034	0.203
-741.112	-19.715	-0.179	0.111
-740.098	-114.989	0.333	-0.064
-739.083	-200.000	-0.044	-0.214
-738.069	227.044	-0.083	0.135
-737.054	409.716	0.147	0.312
-736.039	80.455	-0.224	0.242
-735.025	39.729	0.114	0.103
-734.010	-126.175	-0.010	-0.001
-732.996	-1.274	-0.261	-0.185
-731.981	-38.110	-0.218	-0.116
-730.966	-49.777	-0.492	-0.235
-729.952	-17.640	-0.118	-0.075
-728.937	-4.024	-0.103	0.071
-727.923	93.628	-0.094	0.107
-726.908	47.751	-0.366	0.343
-725.894	162.882	0.055	-0.077
-724.879	-8.457	0.156	0.105
-723.864	-124.377	-0.223	0.035
-722.850	137.343	-0.165	-0.217
-721.835	499.741	0.115	-0.266
-720.821	263.673	0.084	-0.146
-719.806	-37.106	0.210	0.113
-718.791	-54.596	0.243	0.110
-717.777	181.216	-0.102	0.151
-716.762	-0.246	-0.228	-0.163
-715.748	101.738	-0.278	-0.326
-714.733	-97.843	-0.391	0.101
-713.718	-200.000	0.003	-0.182
-712.704	-112.962	0.118	0.024
-711.689	-200.000	-0.012	0.286
-710.675	-200.000	-0.070	0.405
-709.660	-80.405	0.437	-0.147
-708.645	-46.150	-0.133	0.066
-707.631	789.785	-0.071	-0.197
-706.616	15.809	0.069	-0.055
-705.602	-86.451	-0.102	-0.031
-704.587	28.897	-0.333	0.283
-703.572	-112.405	-0.145	-0.029
-702.558	164.769	0.119	-0.169
-701.543	77.603	0.106	-0.113
-700.529	-154.313	0.159	-0.011
-699.514	-200.000	0.033	-0.195
-698.499	73.066	-0.301	0.316
-697.485	-200.000	0.010	0.049
-696.470	-4.989	0.190	-0.131
-695.456	800.000	0.033	0.123
-694.441	-200.000	-0.035	-0.197
-693.426	-43.411	-0.329	0.167
-692.412	-200.000	-0.011	-0.175
-691.397	602.387	-0.054	0.133
-690.383	267.208	0.073	0.128
-689.368	431.083	0.146	-0.317
-688.354	-94.141	0.267	-0.073
-687.339	-24.711	-0.170	0.101
-686.324	50.917	-0.158	0.150
-685.310	-155.735	0.448	0.029
-684.295	492.974	-0.192	-0.442
-683.281	-25.146	0.233	0.138
-682.266	321.958	0.155	-0.296
-681.251	-41.828	0.202	-0.104
-680.237	132.305	-0.139	-0.180
-679.222	-38.069	0.105	0.056
-678.208	-29.488	0.038	0.022
-677.193	-5.862	-0.194	0.133
-676.178	23.684	-0.283	-0.234
-675.164	39.885	0.175	-0.158
-674.149	20.750	0.091	0.073
-673.135	-200.000	0.048	0.258
-672.120	652.007	-0.042	0.107
-671.105	107.012	-0.174	-0.208
-670.091	-184.555	-0.252	0.004
-669.076	176.599	0.110	0.160
-668.062	-37.347	-0.213	0.114
-667.047	-113.875	-0.285	0.056
-666.032	-200.000	-0.007	0.166
-665.018	-200.000	-0.017	-0.136
-664.003	-47.315	0.246	0.120
-662.989	79.923	0.202	-0.218
-661.974	-4.025	0.244	0.169
-660.959	102.022	0.160	0.187
-659.945	181.641	0.093	0.138
-658.930	43.994	-0.346	-0.318
-657.916	-31.723	-0.237	-0.133
-656.901	-14.050	0.302	-0.195
-655.886	-200.000	-0.048	0.246
-654.872	-142.938	0.127	-0.012
-653.857	246.898	-0.090	0.153
-652.843	-42.283	0.327	-0.167
-651.828	-35.890	0.119	0.065
-650.814	603.428	-0.083	0.207
-649.799	-106.502	-0.103	-0.023
-648.784	-200.000	0.077	0.369
-647.770	103.842	0.038	0.045
-646.755	63.480	0.335	0.337
-645.741	457.562	-0.093	0.208
-644.726	800.000	-0.108	0.399
-643.711	116.079	-0.131	0.160
-642.697	113.715	-0.157	0.191
-641.682	-200.000	0.006	0.147
-640.668	-28.025	0.090	0.052
-639.653	-185.680	0.016	0.000
-638.638	603.344	0.027	-0.068
-637.624	-30.286	0.257	-0.146
-636.609	-68.565	-0.288	-0.112
-635.595	328.762	0.073	-0.140
-634.580	-200.000	0.057	-0.264
-633.565	-85.302	0.032	-0.010
-632.551	75.762	0.159	-0.168
-631.536	-116.203	0.273	-0.051
-630.522	-151.110	0.061	-0.005
-629.507	-59.010	-0.103	-0.045
-628.492	-200.000	-0.009	-0.153
-627.478	-200.000	0.039	-0.366
-626.463	670.592	-0.035	-0.090
-625.449	145.086	-0.106	-0.142
-624.434	748.418	0.163	0.439
-623.419	-200.000	0.012	-0.134
-622.405	-98.437	0.123	-0.031
-621.390	77.626	0.175	-0.186
-620.376	9.727	0.262	0.199
-619.361	-44.253	-0.353	-0.177
-618.346	-200.000	0.373	0.000
-617.332	150.899	-0.121	-0.164
-616.317	115.588	-0.081	0.099
-615.303	-200.000	-0.002	0.178
-614.288	41.476	0.363	-0.329
-613.273	-200.000	0.023	-0.104
-612.259	-54.610	-0.076	0.035
-611.244	-200.000	-0.007	-0.105
-610.230	25.327	0.100	-0.083
-609.215	-2.692	0.262	-0.183
-608.201	-160.376	0.052	0.003
-607.186	143.562	0.130	0.173
-606.171	20.375	-0.316	0.255
-605.157	-69.903	-0.190	0.072
-604.142	293.719	0.110	-0.200
-603.128	-136.919	0.302	0.035
-602.113	146.240	0.168	0.225
-601.098	267.191	-0.094	-0.165
-600.084	-62.682	0.191	0.079
-599.069	119.967	0.098	-0.122
-598.055	-24.040	-0.333	-0.199
-597.040	-145.360	0.308	-0.028
-596.025	649.772	0.127	0.325
-595.011	-200.000	-0.016	-0.184
-593.996	-200.000	0.064	-0.299
-592.982	-180.974	-0.240	0.005
-591.967	-200.000	0.009	-0.059
-590.952	-95.884	-0.338	0.090
-589.938	56.709	0.369	-0.359
-588.923	-200.000	-0.027	-0.186
-587.909	324.481	-0.132	-0.252
-586.894	50.867	-0.247	0.233
-585.879	-200.000	0.126	-0.000
-584.865	377.084	0.090	0.183
-583.850	94.286	-0.135	-0.153
-582.836	-200.000	-0.013	0.197
-581.821	503.671	0.179	0.413
-580.806	800.000	0.117	0.376
-579.792	-28.891	-0.129	-0.074
-578.777	-200.000	0.005	-0.054
-577.763	-92.974	-0.075	0.021
-576.748	193.226	-0.049	0.075
-575.733	-52.214	-0.098	0.046
-574.719	-48.440	0.157	-0.076
-573.704	750.747	0.018	-0.048
-572.690	-29.837	0.165	-0.094
-571.675	261.831	0.138	-0.238
-570.661	-110.260	-0.065	-0.014
-569.646	-56.426	0.103	-0.046
-568.631	207.646	-0.120	0.187
-567.617	-200.000	-0.005	-0.095
-566.602	13.066	0.212	-0.164
-565.588	29.300	-0.054	-0.046
-564.573	800.000	0.103	0.323
-563.558	-5.962	-0.304	0.208
-562.544	-200.000	-0.013	0.127
-561.529	-200.000	-0.032	0.246
-560.515	178.675	-0.020	0.029
-559.500	-48.625	0.182	-0.088
-558.485	472.288	-0.190	-0.428
-557.471	119.501	-0.151	0.187
-556.456	-200.000	0.020	0.195
-555.442	-78.070	-0.229	-0.079
-554.427	374.061	0.093	-0.189
-553.412	2.496	-0.417	-0.301
-552.398	722.237	-0.081	0.215
-551.383	-200.000	0.002	-0.048
-550.369	-38.225	-0.318	-0.168
-549.354	329.751	0.028	0.054
-548.339	-103.109	0.054	0.013
-547.325	94.223	0.077	0.087
-546.310	-106.638	0.098	-0.022
-545.296	767.066	-0.045	-0.121
-544.281	219.558	-0.162	0.259
-543.266	-200.000	-0.002	0.373
-542.252	246.410	0.015	0.025
-541.237	-189.076	-0.361	-0.004
-540.223	800.000	0.037	0.114
-539.208	90.027	0.031	-0.035
-538.193	70.204	0.089	-0.092
-537.179	7.872	-0.138	0.103
-536.164	129.227	-0.118	0.150
-535.150	99.537	-0.081	0.094
-534.135	450.799	-0.109	0.239
-533.121	-200.000	-0.028	0.156
-532.106	253.117	-0.024	-0.040
-531.091	800.000	0.032	0.096
-530.077	89.054	0.128	-0.142
-529.062	167.271	-0.211	0.298
-528.048	-118.955	0.336	0.059
-527.033	-200.000	0.025	0.220
-526.018	277.408	-0.086	-0.153
-525.004	37.965	0.182	-0.162
-523.989	75.769	-0.206	0.217
-522.975	-150.939	0.227	-0.017
-521.960	-172.441	0.025	-0.001
-520.945	463.365	-0.121	-0.269
-519.931	37.751	0.297	-0.263
-518.916	-157.076	-0.178	0.011
-517.902	800.000	0.047	0.185
-516.887	800.000	0.141	-0.404
-515.872	-200.000	0.038	-0.261
-514.858	-57.639	0.205	0.089
-513.843	231.203	0.160	-0.261
-512.829	-47.395	0.592	-0.287
-511.814	-19.660	0.134	0.082
-510.799	41.080	0.218	-0.196
-509.785	660.530	0.068	-0.173
-508.770	-147.443	-0.484	-0.041
-507.756	288.763	0.115	0.207
-506.741	-200.000	0.006	-0.066
-505.726	-44.384	0.320	-0.159
-504.712	-200.000	0.021	0.176
-503.697	-200.000	0.002	-0.403
-502.683	-200.000	0.042	-0.221
-501.668	81.345	0.086	0.092
-500.653	-0.331	0.203	0.144
-499.639	800.000	-0.045	-0.155
-498.624	287.207	0.032	0.058
-497.610	-200.000	0.009	-0.159
-496.595	52.130	-0.203	0.192
-495.581	-200.000	-0.005	0.107
-494.566	-53.851	-0.246	-0.112
-493.551	-200.000	0.038	0.444
-492.537	628.036	0.098	-0.245
-491.522	-59.963	-0.097	-0.041
-490.508	71.265	0.073	-0.075
-489.493	162.432	0.131	-0.182
-488.478	-200.000	-0.026	-0.185
-487.464	-75.987	-0.121	-0.043
-486.449	-112.610	0.214	-0.042
-485.435	-7.531	0.279	-0.188
-484.420	-200.000	0.080	-0.362
-483.405	-93.492	-0.040	-0.011
-482.391	-125.404	0.416	0.063
-481.376	-39.197	0.021	-0.011
-480.362	-80.369	-0.324	-0.108
-479.347	-200.000	0.024	-0.231
-478.332	-19.820	-0.211	0.130
-477.318	1.094	0.232	-0.166
-476.303	-38.774	-0.284	-0.149
-475.289	-63.048	0.127	0.052
-474.274	-18.381	-0.110	-0.068
-473.259	-200.000	0.062	0.316
-472.245	43.032	-0.137	0.125
-471.230	26.246	-0.212	-0.176
-470.216	-72.844	-0.037	-0.014
-469.201	-74.794	0.378	-0.135
-468.186	95.093	-0.278	-0.315
-467.172	-131.038	-0.135	-0.018
-466.157	229.292	0.129	0.210
-465.143	39.731	0.191	-0.170
-464.128	-86.412	0.360	0.110
-463.113	269.193	0.188	-0.328
-462.099	12.148	0.358	0.274
-461.084	139.924	0.063	0.082
-460.070	160.733	0.190	-0.263
-459.055	-200.000	0.004	0.097
-458.040	-18.631	-0.160	0.099
-457.026	151.600	-0.169	-0.229
-456.011	-92.097	0.121	-0.034
-454.997	-7.114	-0.090	-0.061
-453.982	68.776	-0.140	0.143
-452.968	138.015	0.093	-0.121
-451.953	52.533	0.265	0.251
-450.938	72.922	0.149	0.154
-449.924	104.731	-0.153	0.179
-448.909	84.294	-0.166	-0.181
-447.895	74.608	0.203	0.212
-446.880	800.000	0.076	-0.245
-445.865	-42.173	0.100	0.051
-444.851	23.538	0.121	0.099
-443.836	-200.000	0.082	-0.401
-442.822	112.038	0.094	0.113
-441.807	-200.000	0.023	0.145
-440.792	-192.290	-0.337	-0.003
-439.778	39.168	-0.272	0.241
-438.763	-11.367	-0.092	-0.060
-437.749	-128.098	-0.285	-0.040
-436.734	60.218	0.041	0.040
-435.719	-64.573	0.562	0.227
-434.705	309.488	-0.126	-0.234
-433.690	82.574	-0.221	0.239
-432.676	-74.491	-0.132	-0.047
-431.661	37.004	-0.222	-0.195
-430.646	-200.000	-0.014	0.190
-429.632	231.998	-0.115	-0.187
-428.617	-130.955	0.100	-0.013
-427.603	110.519	-0.210	-0.251
-426.588	-134.391	-0.197	0.024
-425.573	720.923	0.033	0.087
-424.559	163.567	-0.096	-0.134
-423.544	-200.000	-0.011	-0.074
-422.530	28.461	0.368	0.309
-421.515	-200.000	-0.031	-0.198
-420.500	-37.484	-0.074	0.039
-419.486	-200.000	0.018	0.165
-418.471	30.788	-0.110	0.093
-417.457	747.803	0.124	-0.331
-416.442	-156.999	-0.221	0.013
-415.428	-146.314	-0.066	0.006
-414.413	486.504	0.083	-0.187
-413.398	180.465	0.181	-0.264
-412.384	-200.000	-0.004	-0.050
-411.369	210.662	-0.115	0.179
-410.355	38.592	-0.240	0.212
-409.340	800.000	-0.077	0.305
-408.325	-200.000	0.002	0.141
-407.311	-200.000	0.014	0.249
-406.296	-200.000	-0.027	0.162
-405.282	-144.723	0.392	0.036
-404.267	800.000	-0.019	0.071
-403.252	800.000	-0.050	-0.201
-402.238	-37.033	0.375	0.199
-401.223	-51.367	0.373	-0.173
-400.209	346.072	0.063	0.124
-399.194	128.222	0.076	0.096
-398.179	-152.823	-0.142	-0.010
-397.165	-200.000	0.008	-0.076
-396.150	-117.335	0.139	0.025
-395.136	-109.349	0.302	-0.063
-394.121	181.094	0.054	0.079
-393.106	260.351	0.261	-0.447
-392.092	-47.058	0.314	0.152
-391.077	-200.000	0.041	-0.281
-390.063	146.132	-0.097	0.129
-389.048	-168.922	-0.020	0.001
-388.033	-200.000	-0.009	0.182
-387.019	52.625	0.048	0.046
-386.004	135.610	-0.184	0.238
-384.990	52.421	-0.268	-0.254
-383.975	-120.620	-0.086	0.014
-382.960	-200.000	-0.027	-0.229
-381.946	-124.656	0.364	-0.056
-380.931	800.000	0.049	0.195
-379.917	-7.943	0.260	0.174
-378.902	310.212	-0.155	0.287
-377.888	-42.018	-0.290	0.147
-376.873	-200.000	0.053	0.281
-375.858	19.053	0.267	0.212
-374.844	-125.683	-0.441	0.066
-373.829	669.295	-0.020	0.052
-372.815	800.000	-0.036	0.104
-371.800	800.000	-0.087	-0.347
-370.785	80.552	-0.067	-0.071
-369.771	800.000	0.084	-0.249
-368.756	-136.784	0.247	-0.028
-367.742	-98.360	-0.145	-0.037
-366.727	573.027	-0.114	0.275
-365.712	800.000	-0.071	0.281
-364.698	169.642	0.117	-0.166
-363.683	-200.000	0.011	-0.196
-362.669	-28.674	-0.202	-0.115
-361.654	424.542	-0.141	-0.301
-360.639	-62.840	0.009	-0.004
-359.625	58.387	0.247	0.240
-358.610	-128.130	-0.257	0.036
-357.596	-200.000	0.045	-0.420
-356.581	-61.482	-0.099	-0.041
-355.566	519.479	0.069	-0.161
-354.552	98.329	0.411	0.469
-353.537	9.037	-0.201	-0.151
-352.523	-200.000	0.111	0.519
-351.508	72.815	0.092	-0.096
-350.493	145.414	-0.189	-0.250
-349.479	45.517	0.272	-0.249
-348.464	26.559	-0.134	-0.111
-347.450	3.394	-0.207	0.149
-346.435	-15.236	0.029	0.018
-345.420	-200.000	0.010	0.067
-344.406	800.000	0.050	-0.184
-343.391	-147.655	0.081	0.007
-342.377	800.000	-0.040	-0.146
-341.362	-118.854	0.061	-0.011
-340.348	-103.820	-0.260	-0.060
-339.333	-45.584	0.278	0.136
-338.318	42.594	-0.268	-0.241
-337.304	132.730	0.109	0.139
-336.289	800.000	0.031	-0.093
-335.275	-184.058	-0.122	0.002
-334.260	-168.766	-0.230	0.009
-333.245	174.435	-0.139	-0.199
-332.231	-200.000	0.024	-0.123
-331.216	-7.871	0.203	0.136
-330.202	-4.421	-0.237	0.162
-329.187	-44.485	0.067	-0.033
-328.172	275.106	-0.142	-0.249
-327.158	-200.000	-0.022	-0.227
-326.143	89.161	0.311	-0.343
-325.129	-200.000	0.061	-0.502
-324.114	306.147	0.158	-0.290
-323.099	365.369	-0.242	0.483
-322.085	-200.000	-0.041	-0.627
-321.070	23.862	-0.085	-0.069
-320.056	40.193	-0.059	-0.052
-319.041	-38.242	0.212	-0.111
-318.026	175.508	-0.090	0.129
-317.012	29.266	-0.311	0.261
-315.997	-40.065	0.053	-0.027
-314.983	24.273	0.121	0.099
-313.968	-187.271	0.410	-0.005
-312.953	70.380	-0.255	0.261
-311.939	25.123	0.062	-0.051
-310.924	63.101	-0.162	0.160
-309.910	27.637	0.204	0.170
-308.895	144.977	-0.229	0.302
-307.880	-32.868	-0.402	0.221
-306.866	-200.000	-0.049	0.344
-305.851	108.214	0.128	0.151
-304.837	29.931	-0.202	0.170
-303.822	-105.586	0.157	-0.035
-302.807	-200.000	-0.022	-0.221
-301.793	7.802	-0.473	-0.350
-300.778	-29.014	-0.333	-0.189
-299.764	-200.000	-0.009	0.222
-298.749	-25.116	0.052	0.030
-297.735	1.782	-0.274	0.195
-296.720	-148.892	-0.205	-0.016
-295.705	91.585	0.116	-0.128
-294.691	-174.375	0.075	-0.002
-293.676	11.440	-0.253	-0.191
-292.662	-200.000	0.040	0.239
-291.647	-45.394	-0.189	0.092
-290.632	300.938	0.092	-0.167
-289.618	-5.285	-0.080	-0.054
-288.603	800.000	-0.063	-0.208
-287.589	134.258	0.270	-0.345
-286.574	-30.448	0.134	-0.075
-285.559	-5.632	-0.116	0.079
-284.545	-17.852	-0.200	-0.124
-283.530	-132.167	-0.269	0.034
-282.516	-142.221	0.142	-0.014
-281.501	-97.265	0.104	-0.027
-280.486	274.038	-0.175	0.305
-279.472	-92.436	-0.200	-0.056
-278.457	800.000	0.021	-0.062
-277.443	144.477	-0.125	0.165
-276.428	800.000	0.065	0.215
-275.413	306.970	-0.105	-0.194
-274.399	-200.000	-0.014	0.065
-273.384	61.477	-0.263	-0.258
-272.370	-200.000	0.032	0.323
-271.355	800.000	-0.082	0.240
-270.340	800.000	0.103	0.284
-269.326	800.000	-0.029	-0.091
-268.311	-98.917	-0.058	0.015
-267.297	114.587	0.260	0.313
-266.282	-148.530	-0.001	0.000
-265.267	-200.000	0.008	0.140
-264.253	800.000	0.039	-0.114
-263.238	-177.864	-0.420	0.010
-262.224	257.207	0.079	0.133
-261.209	-57.241	-0.176	-0.077
-260.195	-143.934	0.184	-0.017
-259.180	5.893	-0.235	-0.172
-258.165	82.415	0.293	0.314
-257.151	217.647	-0.267	0.420
-256.136	135.392	0.123	-0.157
-255.122	-127.495	-0.153	0.022
-254.107	800.000	-0.088	0.360
-253.092	37.878	-0.129	0.113
-252.078	-2.964	0.110	0.076
-251.063	176.100	0.140	0.201
-250.049	-45.925	-0.243	0.118
-249.034	-37.989	-0.257	-0.135
-248.019	-200.000	-0.088	-0.397
-247.005	-170.042	0.198	0.007
-245.990	306.616	0.159	0.292
-244.976	-56.843	-0.165	0.072
-243.961	211.883	0.048	-0.075
-242.946	43.974	0.316	0.286
-241.932	150.056	-0.103	0.138
-240.917	-200.000	0.011	-0.097
-239.903	-193.421	0.197	-0.002
-238.888	-32.589	0.203	0.111
-237.873	168.593	-0.135	0.190
-236.859	-200.000	0.003	-0.080
-235.844	28.324	-0.073	-0.061
-234.830	111.793	-0.120	-0.143
-233.815	241.813	-0.058	0.095
-232.800	-55.703	-0.101	0.045
-231.786	-65.679	-0.215	0.085
-230.771	84.428	-0.248	0.268
-229.757	20.990	-0.030	-0.024
-228.742	148.386	-0.135	0.180
-227.727	114.856	0.082	-0.098
-226.713	-10.770	0.140	0.091
-225.698	-200.000	0.036	-0.284
-224.684	800.000	0.038	-0.160
-223.669	800.000	-0.142	-0.425
-222.655	159.074	-0.092	0.125
-221.640	76.548	0.088	0.092
-220.625	96.430	0.155	-0.175
-219.611	-71.210	-0.462	0.171
-218.596	160.570	-0.143	-0.197
-217.582	-118.515	0.130	0.023
-216.567	-109.796	0.093	0.019
-215.552	315.599	0.054	-0.100
-214.538	69.395	0.110	-0.111
-213.523	-200.000	0.055	0.274
-212.509	-200.000	0.068	-0.369
-211.494	-74.682	-0.379	0.134
-210.479	38.529	0.069	0.061
-209.465	-101.318	0.247	0.059
-208.450	-200.000	0.006	-0.062
-207.436	-165.731	0.130	-0.006
-206.421	-57.938	0.406	0.174
-205.406	-200.000	0.022	0.112
-204.392	800.000	-0.095	-0.278
-203.377	-18.331	0.095	-0.058
-202.363	800.000	0.157	0.455
-201.348	-85.680	-0.147	0.045
-200.333	-77.651	0.220	0.075
-199.319	-138.032	-0.300	-0.033
-198.304	800.000	0.063	0.227
-197.290	-141.540	-0.422	-0.042
-196.275	488.075	-0.026	-0.059
-195.260	363.195	0.192	0.380
-194.246	-115.716	-0.183	0.034
-193.231	-134.133	0.267	-0.032
-192.217	533.295	0.097	0.226
-191.202	-129.414	0.053	-0.007
-190.187	171.247	-0.061	0.086
-189.173	-12.195	0.124	-0.080
-188.158	-102.098	0.306	-0.072
-187.144	188.966	-0.155	0.229
-186.129	429.739	0.107	-0.227
-185.114	4.046	-0.271	-0.195
-184.100	105.487	0.143	-0.166
-183.085	1.474	0.223	-0.157
-182.071	88.951	-0.096	-0.105
-181.056	-53.792	-0.179	-0.080
-180.042	120.901	0.108	-0.132
-179.027	-165.219	-0.152	0.007
-178.012	-88.394	0.304	0.089
-176.998	-124.173	-0.308	0.047
-175.983	-57.387	-0.174	-0.075
-174.969	-200.000	0.009	-0.140
-173.954	-89.828	0.449	-0.129
-172.939	-14.332	-0.179	0.113
-171.925	800.000	-0.072	0.212
-170.910	643.166	-0.077	-0.193
-169.896	99.649	0.061	0.070
-168.881	329.441	-0.126	0.238
-167.866	-200.000	0.027	0.312
-166.852	-200.000	-0.026	-0.426
-165.837	48.873	0.203	0.187
-164.823	-182.497	-0.110	-0.002
-163.808	-200.000	-0.003	0.300
-162.793	-200.000	-0.006	-0.326
-161.779	65.562	0.121	0.120
-160.764	-200.000	0.011	0.213
-159.750	52.386	-0.164	0.153
-158.735	141.181	0.235	-0.305
-157.720	-53.188	-0.140	-0.063
-156.706	-68.408	-0.086	-0.033
-155.691	162.020	-0.092	-0.127
-154.677	149.689	-0.336	-0.448
-153.662	-45.811	0.010	-0.005
-152.647	111.088	0.150	0.177
-151.633	-4.654	-0.154	0.104
-150.618	-24.202	0.081	0.048
-149.604	9.711	0.207	-0.154
-148.589	-179.754	-0.248	-0.005
-147.574	137.837	-0.154	-0.199
-146.560	-200.000	0.006	0.197
-145.545	-19.019	-0.068	0.041
-144.531	-73.442	-0.312	0.112
-143.516	0.268	0.081	-0.057
-142.502	44.178	0.194	-0.175
-141.487	-148.253	0.020	0.002
-140.472	-28.726	-0.166	-0.094
-139.458	800.000	0.083	0.237
-138.443	-83.434	-0.285	-0.090
-137.429	-130.624	0.260	0.034
-136.414	-18.944	-0.226	-0.138
-135.399	216.789	-0.140	-0.219
-134.385	800.000	-0.115	-0.323
-133.370	-51.976	0.171	-0.078
-132.356	-200.000	0.033	0.199
-131.341	-24.652	0.209	-0.122
-130.326	169.882	-0.165	-0.231
-129.312	800.000	-0.044	0.144
-128.297	-92.035	0.145	0.040
-127.283	129.254	0.107	0.134
-126.268	205.530	0.163	-0.248
-125.253	-200.000	-0.001	0.219
-124.239	-146.427	-0.288	-0.025
-123.224	185.151	0.112	0.163
-122.210	-88.430	0.236	-0.069
-121.195	-85.431	0.426	0.130
-120.180	800.000	-0.113	-0.344
