DTS Sentinel unit serial number:	SN413079Multiplexer serial number:	ORYXHardware model number:	OX4-SRSoftware version number:	ORYX F/W v4.00 Oryx Data Collector v3.7.2.0data status	okinstallation	princeton_trtdifferential loss correction	single-endedforward channel	channel 2reverse channel	N/Adate	2019/09/12time	18:44:49forward acquisition time	15.00reverse acquisition time	0.00gamma	496.2192k internal	0.2324k external	0.2324temperature offset calibration	1.0136default loss term (dB/km)	0.3790temperature slope calibration	1.0000multiplexer offset coefficient	1.0000multiplexer slope coefficient	1.0000fibre end	0.00T internal ref (°C)	33.00T ext. ref 1 (°C)	2.97T ext. ref 2 (°C)	27.52length (m)	temperature (°C)	Stokes	anti-Stokes-747.200	332.629	0.145	0.283
-746.185	255.880	-0.349	-0.604
-745.171	36.929	-0.406	0.363
-744.156	-6.105	0.799	-0.551
-743.142	-200.000	-0.161	0.844
-742.127	800.000	0.200	0.629
-741.112	-19.482	0.424	-0.265
-740.098	82.222	-0.097	-0.106
-739.083	463.450	0.357	0.804
-738.069	-65.166	-0.719	-0.293
-737.054	705.062	0.121	-0.321
-736.039	-103.364	-0.437	0.104
-735.025	-147.888	-0.073	0.006
-734.010	-52.682	-0.412	0.192
-732.996	128.492	-0.386	0.496
-731.981	522.324	-0.091	-0.216
-730.966	105.317	-0.630	-0.750
-729.952	-200.000	-0.063	-0.359
-728.937	-164.684	0.568	0.026
-727.923	185.917	0.543	-0.814
-726.908	138.413	-0.530	-0.701
-725.894	-7.735	-0.505	-0.344
-724.879	-160.306	-0.837	-0.046
-723.864	-72.270	0.930	-0.348
-722.850	-155.189	-0.298	-0.020
-721.835	-200.000	0.003	-0.541
-720.821	-200.000	-0.037	-0.585
-719.806	-200.000	-0.011	-0.311
-718.791	-40.269	0.624	0.327
-717.777	800.000	0.040	-0.159
-716.762	-74.351	0.290	0.106
-715.748	-200.000	-0.238	1.105
-714.733	659.887	0.186	-0.484
-713.718	-200.000	0.075	-1.065
-712.704	-57.791	-0.819	-0.361
-711.689	289.636	0.070	0.129
-710.675	-38.569	0.910	-0.485
-709.660	-128.681	-0.339	0.048
-708.645	-200.000	-0.015	0.462
-707.631	298.278	-0.331	0.613
-706.616	-23.235	-0.030	0.018
-705.602	-200.000	0.046	0.275
-704.587	-152.363	-0.644	0.047
-703.572	-200.000	-0.063	-0.584
-702.558	-40.101	-0.336	-0.177
-701.543	50.719	0.427	-0.408
-700.529	-86.177	-0.481	0.149
-699.514	-43.763	-0.412	0.209
-698.499	800.000	-0.294	1.032
-697.485	186.051	0.696	1.043
-696.470	-134.164	-1.234	-0.153
-695.456	-84.823	-0.457	-0.145
-694.441	-200.000	-0.028	0.147
-693.426	108.353	0.268	0.322
-692.412	86.973	0.163	-0.181
-691.397	-59.524	-0.257	0.111
-690.383	380.779	-0.186	0.385
-689.368	-41.694	0.394	-0.204
-688.354	-131.277	-0.035	-0.005
-687.339	13.901	-0.276	0.217
-686.324	230.253	0.443	-0.730
-685.310	800.000	0.070	-0.238
-684.295	-143.329	0.154	0.015
-683.281	-36.307	-0.671	0.364
-682.266	85.113	0.228	0.252
-681.251	-200.000	0.002	-0.180
-680.237	12.033	0.189	0.146
-679.222	-148.342	0.399	0.033
-678.208	-53.157	-0.541	-0.250
-677.193	-25.129	0.241	-0.144
-676.178	-19.904	-0.411	0.256
-675.164	40.753	0.147	-0.133
-674.149	800.000	0.242	-0.735
-673.135	-101.583	-0.436	0.107
-672.120	-200.000	-0.045	-0.444
-671.105	800.000	0.229	-0.669
-670.091	622.592	0.055	0.138
-669.076	-107.871	0.616	0.135
-668.062	103.249	-0.177	0.209
-667.047	-200.000	0.090	0.674
-666.032	18.865	-0.266	0.214
-665.018	-95.058	-0.199	-0.054
-664.003	-200.000	0.018	-0.619
-662.989	-79.940	0.396	-0.134
-661.974	60.611	0.464	0.462
-660.959	152.151	0.338	-0.463
-659.945	-89.771	0.365	-0.108
-658.930	628.089	0.166	-0.421
-657.916	-59.727	-0.195	0.084
-656.901	-108.059	-0.702	-0.153
-655.886	-200.000	-0.022	0.320
-654.872	-34.470	-0.745	-0.411
-653.857	-73.150	-0.210	0.077
-652.843	313.249	0.356	0.674
-651.828	-49.536	-1.098	0.526
-650.814	330.787	-0.181	-0.351
-649.799	-113.227	-0.807	0.160
-648.784	61.388	0.400	0.400
-647.770	31.399	-0.286	0.247
-646.755	99.741	0.312	-0.364
-645.741	-124.077	0.276	0.044
-644.726	67.504	-0.374	0.384
-643.711	59.275	-0.323	-0.320
-642.697	-200.000	0.023	0.271
-641.682	-78.197	0.827	-0.286
-640.668	130.898	0.353	0.456
-639.653	-56.861	-0.781	0.347
-638.638	97.555	-0.193	-0.223
-637.624	8.252	-0.157	-0.119
-636.609	-200.000	-0.018	-0.197
-635.595	42.236	-0.323	-0.295
-634.580	-66.757	-0.638	-0.254
-633.565	-69.311	0.432	0.167
-632.551	143.853	-0.236	0.317
-631.536	-176.874	1.062	0.027
-630.522	-75.950	-0.432	-0.154
-629.507	259.241	0.356	0.617
-628.492	-93.983	0.274	-0.076
-627.478	-118.005	1.811	0.326
-626.463	39.601	1.234	-1.112
-625.449	-200.000	0.085	0.756
-624.434	-200.000	0.051	-0.353
-623.419	-112.081	-0.529	-0.107
-622.405	-87.906	-0.313	0.095
-621.390	800.000	0.214	-0.600
-620.376	-200.000	0.073	-0.757
-619.361	-124.200	0.276	0.043
-618.346	209.201	-0.353	-0.556
-617.332	800.000	0.182	-0.538
-616.317	23.937	0.846	-0.701
-615.303	-86.926	0.453	-0.139
-614.288	-130.985	0.438	-0.059
-613.273	347.085	-0.352	0.697
-612.259	800.000	-0.214	0.737
-611.244	-86.345	0.783	0.242
-610.230	-37.309	0.306	0.164
-609.215	486.271	0.137	0.313
-608.201	209.806	0.193	-0.303
-607.186	-17.578	-0.543	-0.342
-606.171	41.726	-0.193	0.175
-605.157	20.996	-0.676	0.551
-604.142	193.837	0.421	-0.640
-603.128	475.407	-0.278	0.630
-602.113	295.647	0.082	0.151
-601.098	316.612	-0.505	-0.958
-600.084	176.930	0.185	0.270
-599.069	270.439	-0.182	0.321
-598.055	800.000	0.322	0.900
-597.040	-10.081	0.403	-0.269
-596.025	-200.000	-0.063	-0.953
-595.011	-21.071	-0.662	0.407
-593.996	800.000	0.161	0.703
-592.982	250.879	0.286	-0.487
-591.967	-200.000	-0.050	0.432
-590.952	188.575	0.557	0.837
-589.938	-116.898	0.295	-0.054
-588.923	-200.000	-0.049	0.561
-587.909	85.932	-0.379	0.418
-586.894	800.000	-0.219	0.730
-585.879	651.116	0.381	-0.979
-584.865	-161.532	-0.444	-0.023
-583.850	-114.705	-0.292	-0.056
-582.836	361.097	0.245	0.492
-581.821	-200.000	-0.020	-0.174
-580.806	48.468	0.181	0.170
-579.792	-25.736	-0.370	-0.219
-578.777	800.000	0.091	0.276
-577.763	-149.422	0.405	-0.032
-576.748	265.758	-0.317	-0.555
-575.733	-200.000	0.016	-0.267
-574.719	-62.355	-0.341	0.142
-573.704	115.974	0.442	0.542
-572.690	-68.047	-0.436	0.171
-571.675	576.085	0.074	0.182
-570.661	-200.000	-0.059	-0.606
-569.646	-87.292	-0.375	-0.114
-568.631	-200.000	-0.118	-0.622
-567.617	-200.000	-0.059	0.371
-566.602	-200.000	-0.101	0.529
-565.588	-65.599	0.474	-0.191
-564.573	153.238	0.116	-0.159
-563.558	800.000	-0.135	0.551
-562.544	48.481	-0.279	-0.262
-561.529	-200.000	0.015	-0.999
-560.515	-200.000	-0.011	0.224
-559.500	-194.210	0.653	0.005
-558.485	-55.326	-0.309	0.139
-557.471	-77.759	-0.463	0.160
-556.456	31.515	-0.037	0.032
-555.442	21.690	-0.496	-0.405
-554.427	362.169	-0.234	-0.471
-553.412	-125.229	0.858	0.132
-552.398	-115.167	-0.558	-0.106
-551.383	-147.792	-0.758	-0.064
-550.369	-117.722	0.965	0.174
-549.354	749.331	-0.260	0.703
-548.339	313.942	0.245	-0.461
-547.325	185.570	0.121	-0.180
-546.310	-16.172	-0.299	0.190
-545.296	-200.000	-0.046	-1.103
-544.281	227.177	-0.162	-0.264
-543.266	379.046	0.209	0.430
-542.252	-200.000	-0.124	-0.656
-541.237	389.690	-0.265	0.549
-540.223	-55.277	-0.731	-0.329
-539.208	325.697	-0.195	-0.375
-538.193	-83.049	0.629	-0.203
-537.179	207.075	-0.180	0.282
-536.164	-200.000	-0.063	-0.774
-535.150	-200.000	0.082	0.873
-534.135	383.822	-0.414	-0.854
-533.121	38.292	0.331	-0.295
-532.106	512.101	0.528	1.230
-531.091	-200.000	-0.046	0.723
-530.077	-117.681	-0.523	0.094
-529.062	-32.255	0.677	-0.378
-528.048	-77.148	0.314	-0.110
-527.033	-200.000	-0.017	-0.946
-526.018	-185.368	-1.092	0.017
-525.004	-112.233	-0.593	0.119
-523.989	28.546	-0.497	0.421
-522.975	-126.197	-0.293	0.044
-521.960	42.090	-0.561	-0.509
-520.945	-200.000	-0.013	1.166
-519.931	800.000	0.177	0.513
-518.916	800.000	-0.153	0.517
-517.902	-71.460	0.487	0.182
-516.887	-200.000	0.001	0.677
-515.872	42.137	0.454	-0.413
-514.858	-11.432	-0.241	0.159
-513.843	349.411	-0.045	0.089
-512.829	-200.000	-0.123	0.580
-511.814	530.428	0.098	-0.231
-510.799	437.415	0.235	-0.513
-509.785	-27.970	0.607	-0.352
-508.770	40.860	-0.029	-0.026
-507.756	-61.878	0.138	0.058
-506.741	71.719	-0.199	-0.206
-505.726	-128.833	-0.638	0.090
-504.712	-200.000	0.019	0.388
-503.697	-106.913	1.143	-0.253
-502.683	140.454	-0.162	-0.214
-501.668	104.811	-0.100	-0.118
-500.653	-149.306	0.460	0.037
-499.639	-200.000	0.012	-0.311
-498.624	-149.602	0.329	-0.026
-497.610	9.109	-0.378	-0.286
-496.595	800.000	0.169	-0.512
-495.581	44.080	0.378	-0.347
-494.566	298.148	-0.258	0.474
-493.551	-200.000	-0.058	0.481
-492.537	91.156	0.196	-0.220
-491.522	185.485	0.256	-0.380
-490.508	101.721	-0.711	-0.829
-489.493	800.000	0.031	0.126
-488.478	10.468	0.661	0.503
-487.464	-174.146	-0.681	-0.020
-486.449	-200.000	-0.038	0.218
-485.435	-163.894	1.009	0.047
-484.420	-54.521	-0.128	-0.058
-483.405	-67.287	0.458	-0.180
-482.391	-126.785	0.244	0.036
-481.376	-66.752	-0.354	0.140
-480.362	-69.969	-0.913	-0.348
-479.347	-65.764	-0.303	-0.121
-478.332	-107.197	-0.076	0.017
-477.318	-200.000	-0.052	-0.717
-476.303	285.797	-0.222	-0.399
-475.289	-57.149	0.611	0.269
-474.274	-48.329	0.614	-0.296
-473.259	-200.000	0.002	-0.403
-472.245	-23.082	-0.541	-0.326
-471.230	-155.704	-1.149	0.074
-470.216	-43.158	0.037	-0.019
-469.201	-62.369	-0.392	-0.163
-468.186	-200.000	-0.001	0.039
-467.172	-99.404	-0.359	-0.090
-466.157	-56.445	-0.393	0.174
-465.143	-38.441	-0.238	0.126
-464.128	-40.053	0.489	0.254
-463.113	-156.636	-0.522	-0.032
-462.099	167.361	0.411	0.582
-461.084	380.568	0.511	1.047
-460.070	-8.256	0.799	0.537
-459.055	279.135	-0.087	0.154
-458.040	-200.000	-0.003	0.621
-457.026	-200.000	-0.022	-0.295
-456.011	-172.322	-0.822	0.026
-454.997	-77.973	0.582	-0.200
-453.982	-52.637	-0.521	0.240
-452.968	-11.725	0.519	0.340
-451.953	-110.148	0.376	0.078
-450.938	86.210	-0.253	-0.278
-449.924	-5.667	-0.037	0.026
-448.909	36.120	0.263	0.231
-447.895	-90.262	-0.332	-0.096
-446.880	27.608	-0.435	-0.366
-445.865	222.459	0.218	-0.350
-444.851	-200.000	0.136	-0.850
-443.836	198.897	-0.180	-0.275
-442.822	-64.272	1.121	-0.456
-441.807	-21.204	0.852	-0.519
-440.792	-86.163	0.331	-0.102
-439.778	17.253	0.928	0.735
-438.763	-18.359	-0.974	0.607
-437.749	5.856	0.580	0.428
-436.734	-36.724	-0.595	-0.319
-435.719	-200.000	-0.063	-0.463
-434.705	-164.154	0.428	0.020
-433.690	-81.246	0.098	-0.032
-432.676	-157.869	0.393	0.023
-431.661	-124.499	0.413	-0.064
-430.646	800.000	0.018	0.053
-429.632	800.000	-0.200	-0.763
-428.617	787.459	-0.209	0.572
-427.603	69.995	-0.820	0.844
-426.588	800.000	0.172	0.540
-425.573	-200.000	-0.006	0.171
-424.559	92.682	0.501	0.564
-423.544	64.586	0.034	-0.034
-422.530	800.000	0.177	0.563
-421.515	-26.319	0.226	0.132
-420.500	-200.000	-0.014	-0.130
-419.486	-200.000	-0.030	0.586
-418.471	172.367	0.150	0.215
-417.457	-98.697	0.684	0.174
-416.442	408.771	-0.266	0.562
-415.428	800.000	-0.443	-1.718
-414.413	213.818	0.227	-0.358
-413.398	-17.366	0.553	-0.347
-412.384	-2.340	0.219	-0.153
-411.369	-52.945	0.393	-0.180
-410.355	-200.000	0.014	0.557
-409.340	-77.951	0.764	0.263
-408.325	800.000	0.194	-0.705
-407.311	424.051	-0.319	-0.683
-406.296	2.641	0.343	-0.248
-405.282	-27.657	0.036	-0.021
-404.267	-56.506	-0.221	-0.098
-403.252	800.000	-0.487	-1.380
-402.238	-200.000	-0.060	0.420
-401.223	-130.469	-1.173	-0.158
-400.209	-31.493	0.607	0.340
-399.194	-127.390	-0.542	-0.079
-398.179	-44.281	-0.225	0.112
-397.165	58.470	0.268	0.262
-396.150	157.434	-0.385	0.531
-395.136	480.331	-0.547	-1.236
-394.121	-89.389	-0.201	0.059
-393.106	-169.326	0.448	-0.016
-392.092	135.056	0.495	-0.640
-391.077	21.947	-0.399	-0.324
-390.063	-200.000	-0.104	0.562
-389.048	21.406	-0.628	0.508
-388.033	312.313	0.107	0.199
-387.019	-69.735	0.079	-0.030
-386.004	-116.071	0.399	-0.074
-384.990	-142.015	-0.167	-0.017
-383.975	78.335	-0.582	-0.619
-382.960	21.281	-0.268	0.217
-381.946	-34.714	0.779	0.424
-380.931	800.000	-0.157	0.541
-379.917	-115.741	0.279	0.052
-378.902	535.438	0.448	-1.059
-377.888	300.365	0.543	-0.998
-376.873	-20.471	-0.178	0.109
-375.858	148.391	-0.314	-0.422
-374.844	800.000	0.142	-0.469
-373.829	110.730	-0.556	-0.665
-372.815	266.825	-0.066	-0.115
-371.800	-200.000	-0.013	0.386
-370.785	212.346	-0.156	-0.244
-369.771	-63.058	0.876	0.360
-368.756	-47.783	0.275	0.132
-367.742	227.467	-0.414	0.670
-366.727	11.382	-0.251	-0.191
-365.712	150.326	-0.609	-0.823
-364.698	800.000	0.164	0.515
-363.683	49.472	-0.416	0.390
-362.669	365.621	0.184	-0.368
-361.654	10.715	-0.720	-0.546
-360.639	-200.000	-0.035	-0.752
-359.625	-200.000	0.025	-0.159
-358.610	553.860	0.141	0.338
-357.596	-86.859	-0.603	0.183
-356.581	-31.192	-0.302	0.170
-355.566	800.000	-0.203	-0.593
-354.552	134.384	-0.211	-0.271
-353.537	-140.227	-0.040	0.004
-352.523	-200.000	-0.082	-0.669
-351.508	-104.076	0.502	0.116
-350.493	-200.000	-0.002	0.242
-349.479	-2.816	0.375	-0.261
-348.464	464.552	-0.171	0.379
-347.450	-200.000	-0.119	0.959
-346.435	800.000	0.122	0.458
-345.420	684.334	0.344	0.891
-344.406	555.986	0.214	-0.512
-343.391	-200.000	-0.009	0.641
-342.377	800.000	0.022	0.086
-341.362	800.000	-0.268	-0.886
-340.348	32.884	0.532	-0.458
-339.333	-200.000	-0.005	-0.273
-338.318	-109.002	0.920	-0.195
-337.304	65.829	0.186	-0.187
-336.289	-157.812	0.539	-0.032
-335.275	71.136	-0.545	-0.561
-334.260	-111.768	0.290	0.058
-333.245	264.364	-0.322	0.557
-332.231	54.983	-0.790	0.758
-331.216	87.053	0.083	0.092
-330.202	-117.210	0.269	0.049
-329.187	243.481	0.253	-0.422
-328.172	-140.554	-0.129	0.013
-327.158	-43.469	0.238	-0.119
-326.143	327.917	0.267	0.510
-325.129	-200.000	-0.069	-0.652
-324.114	-200.000	-0.028	0.575
-323.099	-132.091	-0.546	0.071
-322.085	178.217	-0.122	0.177
-321.070	237.465	0.291	0.479
-320.056	-31.886	-0.458	-0.255
-319.041	-200.000	-0.045	-0.493
-318.026	-200.000	-0.107	-0.679
-317.012	723.081	-0.194	-0.513
-315.997	800.000	0.025	-0.093
-314.983	-15.783	-0.380	0.240
-313.968	75.508	-0.222	-0.233
-312.953	286.372	0.452	0.809
-311.939	-200.000	0.078	-0.483
-310.924	621.589	-0.260	-0.648
-309.910	126.497	0.643	0.808
-308.895	-112.056	-0.302	0.060
-307.880	-200.000	-0.957	-0.001
-306.866	101.772	0.142	0.164
-305.851	-200.000	0.096	0.994
-304.837	7.351	-0.387	-0.287
-303.822	-200.000	-0.038	0.501
-302.807	715.944	0.032	0.083
-301.793	-200.000	-0.027	0.307
-300.778	800.000	-0.223	-0.626
-299.764	24.722	-0.615	0.505
-298.749	-174.982	0.352	-0.010
-297.735	-126.621	-0.646	0.095
-296.720	-105.341	-0.756	-0.171
-295.705	-5.961	0.798	-0.542
-294.691	-186.047	0.253	0.004
-293.676	25.105	-0.526	-0.433
-292.662	360.916	0.013	0.025
-291.647	-200.000	-0.019	-0.247
-290.632	9.370	0.581	-0.436
-289.618	-15.777	-0.462	0.292
-288.603	800.000	0.208	0.596
-287.589	-86.753	-0.686	0.208
-286.574	92.678	0.215	-0.241
-285.559	-200.000	-0.086	0.390
-284.545	-200.000	0.082	0.852
-283.530	27.385	-0.235	0.196
-282.516	-29.076	-0.572	0.325
-281.501	-53.515	-0.140	-0.063
-280.486	33.204	0.532	0.457
-279.472	-23.253	0.699	0.417
-278.457	800.000	-0.069	-0.244
-277.443	-61.961	-1.053	0.436
-276.428	-25.770	0.624	0.365
-275.413	-200.000	-0.046	-0.319
-274.399	800.000	-0.205	0.616
-273.384	800.000	0.174	0.549
-272.370	-200.000	0.010	0.071
-271.355	-200.000	-0.023	0.326
-270.340	100.222	0.348	-0.400
-269.326	24.676	-0.216	0.177
-268.311	238.018	-0.546	0.898
-267.297	-200.000	-0.093	0.422
-266.282	80.835	0.377	-0.403
-265.267	-83.136	0.251	-0.080
-264.253	395.484	0.363	0.750
-263.238	-173.495	0.513	0.015
-262.224	-66.618	0.586	-0.230
-261.209	275.178	-0.050	-0.087
-260.195	262.388	-0.201	0.345
-259.180	97.196	-0.084	0.096
-258.165	-84.676	1.256	-0.392
-257.151	-200.000	0.114	0.962
-256.136	162.397	-0.101	0.140
-255.122	-180.576	-0.762	0.016
-254.107	197.159	0.245	-0.371
-253.092	241.394	-0.339	0.561
-252.078	156.155	0.074	-0.101
-251.063	-200.000	0.053	-0.713
-250.049	85.311	-0.325	0.353
-249.034	-126.240	0.618	-0.091
-248.019	-164.277	1.055	0.048
-247.005	-176.204	-0.636	-0.017
-245.990	187.623	0.320	0.473
-244.976	124.772	0.250	0.312
-243.961	-186.801	-0.414	-0.006
-242.946	-144.629	0.633	-0.058
-241.932	-200.000	-0.036	0.310
-240.917	395.264	-0.290	-0.599
-239.903	153.489	-0.368	-0.499
-238.888	52.666	-0.545	0.515
-237.873	269.638	-0.344	-0.598
-236.859	343.299	-0.138	0.267
-235.844	-0.642	-0.457	0.321
-234.830	399.925	-0.269	0.558
-233.815	22.580	0.646	-0.523
-232.800	-91.966	-0.586	-0.164
-231.786	112.354	-0.309	0.369
-230.771	-108.794	0.233	-0.049
-229.757	800.000	-0.053	0.211
-228.742	45.102	-0.494	0.450
-227.727	392.525	-0.712	1.465
-226.713	-200.000	-0.063	-0.671
-225.698	259.519	0.317	-0.541
-224.684	19.574	-0.335	-0.266
-223.669	-122.874	0.942	0.150
-222.655	-175.008	0.404	-0.011
-221.640	-91.994	-0.888	-0.249
-220.625	800.000	0.212	-0.607
-219.611	590.358	-0.442	1.078
-218.596	197.311	-0.319	-0.481
-217.582	-9.119	-1.023	-0.677
-216.567	-6.797	-0.860	0.579
-215.552	7.298	0.147	0.108
-214.538	800.000	-0.184	-0.524
-213.523	74.948	-0.111	0.115
-212.509	30.890	-0.216	-0.183
-211.494	-139.296	-0.499	-0.053
-210.479	800.000	0.357	1.000
-209.465	438.126	0.438	0.944
-208.450	-27.069	-0.087	-0.050
-207.436	88.399	0.397	-0.436
-206.421	24.450	0.347	0.283
-205.406	127.072	-0.119	-0.149
-204.392	-63.860	-0.485	-0.196
-203.377	210.603	-0.128	-0.199
-202.363	50.776	-0.031	-0.029
-201.348	-79.551	0.386	-0.129
-200.333	-200.000	0.007	-0.430
-199.319	399.893	0.158	-0.326
-198.304	-168.711	-0.412	-0.015
-197.290	-200.000	-0.037	-1.296
-196.275	-149.356	-0.721	-0.057
-195.260	462.347	0.045	0.099
-194.246	193.982	0.430	0.643
-193.231	-67.604	1.020	0.395
-192.217	-65.639	-0.789	-0.313
-191.202	54.257	-0.187	-0.178
-190.187	800.000	-0.181	-0.654
-189.173	-158.673	-0.384	-0.022
-188.158	127.406	0.349	0.437
-187.144	-200.000	0.013	0.190
-186.129	3.255	-0.500	0.360
-185.114	-53.170	-0.883	-0.401
-184.100	-82.628	0.849	0.272
-183.085	-65.313	-0.292	0.116
-182.071	800.000	0.195	-0.572
-181.056	-134.998	-0.339	0.040
-180.042	-4.551	0.393	-0.268
-179.027	632.314	0.180	-0.451
-178.012	-47.573	0.766	0.367
-176.998	-73.651	0.186	-0.067
-175.983	29.402	0.277	-0.233
-174.969	-145.120	-0.251	-0.023
-173.954	-200.000	-0.025	0.612
-172.939	-200.000	0.073	-0.606
-171.925	-94.576	0.736	-0.198
-170.910	-200.000	-0.041	-0.583
-169.896	-76.802	0.332	0.115
-168.881	-23.955	0.309	0.182
-167.866	-84.273	-0.341	-0.107
-166.852	-26.618	0.401	0.232
-165.837	39.292	-0.254	-0.224
-164.823	-89.089	-0.166	-0.048
-163.808	-200.000	-0.070	-0.615
-162.793	5.719	-0.634	0.463
-161.779	-0.979	0.097	0.068
-160.764	38.743	-0.709	0.624
-159.750	-106.939	0.678	-0.148
-158.735	-200.000	-0.020	-0.774
-157.720	-42.116	-0.215	0.109
-156.706	31.741	0.282	0.239
-155.691	-97.692	0.872	0.223
-154.677	800.000	-0.149	-0.502
-153.662	-121.055	0.682	0.113
-152.647	-76.558	0.560	-0.194
-151.633	175.623	0.118	-0.169
-150.618	34.087	-0.380	0.327
-149.604	-200.000	-0.092	0.888
-148.589	-38.663	-1.206	0.628
-147.574	12.618	-0.773	0.588
-146.560	-200.000	-0.065	0.516
-145.545	-164.635	0.142	-0.006
-144.531	522.816	-0.240	0.555
-143.516	-99.594	0.750	-0.186
-142.502	-3.040	-0.570	-0.392
-141.487	240.627	-0.436	0.718
-140.472	31.341	-0.535	0.453
-139.458	-158.641	0.470	0.027
-138.443	86.175	-0.311	0.338
-137.429	-28.964	0.715	0.405
-136.414	-0.195	0.154	0.108
-135.399	115.085	-0.405	-0.487
-134.385	-76.912	0.161	-0.055
-133.370	685.687	-0.144	0.372
-132.356	3.331	0.138	0.099
-131.341	197.624	-0.632	-0.951
-130.326	44.869	0.364	-0.330
-129.312	-142.302	-0.053	-0.005
-128.297	-183.156	0.276	0.005
-127.283	-90.619	-0.323	-0.092
-126.268	-79.244	-0.314	-0.105
-125.253	800.000	-0.013	-0.045
-124.239	800.000	0.144	0.551
-123.224	-172.905	-0.045	-0.001
-122.210	29.383	-0.744	0.623
