DTS Sentinel unit serial number:	SN413079Multiplexer serial number:	ORYXHardware model number:	OX4-SRSoftware version number:	ORYX F/W v4.00 Oryx Data Collector v3.7.2.0data status	okinstallation	princeton_trtdifferential loss correction	single-endedforward channel	channel 2reverse channel	N/Adate	2019/09/19time	01:39:34forward acquisition time	60.00reverse acquisition time	0.00gamma	496.2192k internal	0.2354k external	0.2354temperature offset calibration	1.0013default loss term (dB/km)	0.3790temperature slope calibration	1.0000multiplexer offset coefficient	1.0000multiplexer slope coefficient	1.0000fibre end	0.00T internal ref (°C)	21.50T ext. ref 1 (°C)	0.69T ext. ref 2 (°C)	14.88length (m)	temperature (°C)	Stokes	anti-Stokes-747.200	-66.056	-0.158	0.063
-746.185	671.033	0.119	0.307
-745.171	-43.166	0.117	0.059
-744.156	264.106	-0.243	0.422
-743.142	-100.080	0.152	-0.038
-742.127	18.032	-0.270	0.215
-741.112	29.815	-0.073	0.062
-740.098	-200.000	-0.031	0.179
-739.083	477.676	-0.094	-0.212
-738.069	74.474	-0.041	0.043
-737.054	-18.293	0.188	-0.117
-736.039	-57.545	-0.308	-0.134
-735.025	113.753	-0.207	0.251
-734.010	-116.405	-0.515	-0.095
-732.996	-200.000	0.035	0.255
-731.981	92.781	0.236	0.265
-730.966	126.852	-0.273	0.345
-729.952	-200.000	-0.016	-0.168
-728.937	-200.000	-0.002	-0.222
-727.923	-100.887	0.254	0.062
-726.908	98.734	-0.144	-0.165
-725.894	314.826	0.155	-0.292
-724.879	166.500	-0.128	-0.181
-723.864	-14.566	-0.361	0.231
-722.850	-200.000	0.009	-0.072
-721.835	-0.485	0.080	0.057
-720.821	364.354	-0.046	0.092
-719.806	-25.879	0.038	0.022
-718.791	-19.600	0.055	-0.034
-717.777	76.830	-0.233	0.246
-716.762	-137.658	0.294	-0.033
-715.748	-122.310	-0.247	-0.040
-714.733	-42.170	0.030	-0.015
-713.718	-121.561	-0.273	-0.045
-712.704	-124.889	0.137	0.021
-711.689	800.000	0.028	0.092
-710.675	589.607	-0.024	0.059
-709.660	166.193	0.099	-0.139
-708.645	79.721	0.105	-0.113
-707.631	-50.870	-0.267	-0.125
-706.616	-104.104	-0.016	0.004
-705.602	-114.485	0.159	0.030
-704.587	-80.757	-0.043	0.014
-703.572	800.000	-0.063	-0.232
-702.558	-187.915	-0.192	-0.002
-701.543	-90.506	-0.235	-0.068
-700.529	-200.000	-0.038	-0.389
-699.514	325.347	0.181	0.345
-698.499	800.000	0.072	0.225
-697.485	-124.920	-0.117	0.018
-696.470	800.000	0.033	0.096
-695.456	-200.000	0.012	-0.154
-694.441	800.000	-0.057	0.234
-693.426	-200.000	-0.033	0.186
-692.412	-200.000	-0.086	0.399
-691.397	-43.434	0.093	0.047
-690.383	62.939	0.271	-0.270
-689.368	-1.545	0.183	0.128
-688.354	-200.000	0.013	-0.436
-687.339	601.467	0.064	-0.158
-686.324	800.000	-0.051	-0.197
-685.310	800.000	0.041	0.115
-684.295	6.248	-0.106	-0.079
-683.281	800.000	-0.107	-0.316
-682.266	174.027	-0.108	-0.155
-681.251	266.281	-0.026	-0.045
-680.237	9.973	-0.192	0.145
-679.222	-200.000	-0.051	0.296
-678.208	-51.365	-0.397	-0.184
-677.193	-200.000	0.114	0.000
-676.178	738.681	-0.120	-0.320
-675.164	-200.000	0.006	-0.116
-674.149	470.870	0.142	-0.317
-673.135	800.000	-0.106	0.297
-672.120	134.039	-0.186	0.239
-671.105	-81.529	-0.087	0.028
-670.091	-62.679	-0.317	-0.131
-669.076	800.000	-0.075	0.292
-668.062	-143.713	-0.090	0.008
-667.047	-78.238	-0.059	0.020
-666.032	758.271	0.055	-0.148
-665.018	67.352	0.268	-0.272
-664.003	-47.927	-0.196	-0.094
-662.989	244.718	-0.039	-0.065
-661.974	61.065	-0.187	-0.185
-660.959	-184.224	0.192	-0.003
-659.945	-76.478	-0.132	-0.046
-658.930	91.027	0.147	-0.163
-657.916	-200.000	0.002	-0.081
-656.901	537.948	0.092	-0.216
-655.886	-200.000	-0.002	0.085
-654.872	-200.000	0.030	0.215
-653.857	-200.000	0.025	0.130
-652.843	157.254	-0.178	0.244
-651.828	-200.000	-0.039	0.262
-650.814	729.678	0.066	0.175
-649.799	-45.578	-0.049	0.024
-648.784	171.012	0.108	-0.154
-647.770	509.054	-0.066	0.152
-646.755	262.208	0.022	-0.037
-645.741	-145.730	0.200	0.018
-644.726	-200.000	-0.060	-0.384
-643.711	55.204	0.150	0.144
-642.697	59.810	-0.274	0.268
-641.682	119.959	0.228	0.281
-640.668	-200.000	0.060	0.273
-639.653	347.770	-0.023	0.046
-638.638	-66.472	-0.306	-0.120
-637.624	-200.000	0.029	0.145
-636.609	344.047	0.142	-0.276
-635.595	150.976	0.156	-0.211
-634.580	-200.000	0.058	-0.265
-633.565	-193.292	0.073	0.001
-632.551	-117.776	-0.277	0.049
-631.536	800.000	-0.094	0.338
-630.522	-135.541	-0.160	-0.019
-629.507	50.713	0.224	0.210
-628.492	-48.894	-0.350	-0.166
-627.478	-97.551	-0.087	-0.022
-626.463	56.341	0.071	-0.068
-625.449	105.268	0.150	-0.175
-624.434	-71.156	-0.186	-0.069
-623.419	62.268	-0.206	0.204
-622.405	56.219	-0.304	0.293
-621.390	33.183	0.261	0.224
-620.376	423.868	0.138	0.294
-619.361	800.000	-0.061	-0.194
-618.346	64.084	-0.059	0.059
-617.332	-78.269	-0.226	-0.077
-616.317	-200.000	-0.031	-0.256
-615.303	23.759	0.030	-0.025
-614.288	-15.626	-0.167	0.106
-613.273	800.000	-0.050	0.176
-612.259	492.463	-0.133	0.302
-611.244	-24.126	-0.277	0.164
-610.230	800.000	0.019	0.079
-609.215	-200.000	-0.053	0.342
-608.201	-87.376	-0.195	0.059
-607.186	-200.000	-0.013	-0.428
-606.171	-200.000	-0.022	-0.169
-605.157	-200.000	0.065	-0.292
-604.142	-200.000	-0.002	0.307
-603.128	-194.988	0.170	-0.001
-602.113	13.722	-0.153	-0.118
-601.098	-200.000	-0.021	-0.492
-600.084	-200.000	0.325	0.000
-599.069	17.376	-0.281	-0.222
-598.055	794.651	0.180	0.492
-597.040	-93.783	0.150	0.041
-596.025	181.785	-0.083	0.122
-595.011	-26.577	-0.080	0.046
-593.996	-14.170	0.106	0.068
-592.982	-132.701	0.287	0.036
-591.967	-31.213	0.239	-0.134
-590.952	125.069	-0.148	-0.184
-589.938	470.556	-0.136	0.303
-588.923	315.270	0.120	-0.224
-587.909	-13.342	-0.160	-0.103
-586.894	-200.000	-0.020	-0.156
-585.879	-149.965	0.480	-0.037
-584.865	-200.000	-0.009	0.173
-583.850	-61.054	-0.303	-0.127
-582.836	-85.990	0.228	0.070
-581.821	-49.185	-0.401	-0.190
-580.806	-47.750	0.258	0.124
-579.792	-50.155	-0.110	0.051
-578.777	-76.106	-0.320	-0.112
-577.763	-200.000	0.008	-0.207
-576.748	16.620	0.206	-0.161
-575.733	-160.596	0.086	0.005
-574.719	-37.334	0.186	0.098
-573.704	-11.137	0.107	-0.070
-572.690	-38.730	0.294	0.154
-571.675	540.926	-0.051	-0.119
-570.661	-85.098	-0.097	-0.030
-569.646	-160.807	0.115	0.006
-568.631	-200.000	0.049	0.295
-567.617	-111.218	-0.121	0.025
-566.602	-14.890	0.272	-0.173
-565.588	310.875	0.134	-0.248
-564.573	800.000	-0.138	0.384
-563.558	-200.000	-0.057	-0.290
-562.544	-68.088	-0.245	0.095
-561.529	-46.085	0.207	0.101
-560.515	58.579	-0.171	0.166
-559.500	-0.232	0.044	-0.031
-558.485	-200.000	-0.006	-0.195
-557.471	-2.248	0.126	-0.087
-556.456	584.024	0.101	-0.246
-555.442	-200.000	-0.040	-0.217
-554.427	-124.983	-0.104	0.016
-553.412	-137.466	-0.201	0.023
-552.398	193.126	-0.045	0.068
-551.383	85.086	-0.073	-0.079
-550.369	-79.196	0.095	-0.032
-549.354	-167.622	0.218	0.009
-548.339	410.420	-0.142	0.298
-547.325	-200.000	-0.022	-0.154
-546.310	-168.616	-0.121	-0.005
-545.296	-100.886	-0.122	0.030
-544.281	-149.670	0.336	0.026
-543.266	800.000	-0.066	-0.194
-542.252	-200.000	-0.022	-0.417
-541.237	-145.668	0.225	-0.020
-540.223	17.131	0.065	-0.051
-539.208	800.000	0.053	-0.157
-538.193	30.810	0.118	0.100
-537.179	-22.705	-0.226	-0.135
-536.164	-84.080	-0.071	-0.022
-535.150	-200.000	-0.037	0.168
-534.135	-57.610	-0.056	0.024
-533.121	-200.000	-0.006	-0.132
-532.106	-200.000	0.046	-0.271
-531.091	-105.820	-0.188	-0.042
-530.077	-131.990	0.156	-0.020
-529.062	-194.099	0.150	-0.001
-528.048	800.000	-0.084	-0.297
-527.033	221.001	-0.219	-0.347
-526.018	4.668	-0.079	-0.057
-525.004	173.433	-0.076	-0.108
-523.989	-200.000	0.020	0.100
-522.975	-95.676	0.465	0.123
-521.960	207.619	-0.081	0.125
-520.945	262.502	-0.059	-0.101
-519.931	-22.943	0.223	-0.133
-518.916	800.000	-0.111	-0.323
-517.902	62.855	-0.095	-0.094
-516.887	3.289	0.232	-0.167
-515.872	-32.141	-0.358	-0.198
-514.858	-67.790	0.094	-0.036
-513.843	73.446	-0.073	-0.075
-512.829	800.000	-0.062	0.213
-511.814	-83.864	-0.061	0.019
-510.799	12.645	0.225	-0.171
-509.785	-147.218	-0.197	-0.017
-508.770	222.676	0.196	-0.312
-507.756	699.750	0.079	0.206
-506.741	-200.000	0.026	0.135
-505.726	83.468	-0.069	-0.075
-504.712	542.215	-0.035	0.082
-503.697	-2.879	-0.140	0.097
-502.683	-200.000	-0.005	0.124
-501.668	-117.054	-0.266	0.048
-500.653	-84.710	0.132	0.041
-499.639	-0.689	0.146	0.102
-498.624	271.017	0.025	0.044
-497.610	-166.054	-0.202	0.008
-496.595	-200.000	-0.007	0.151
-495.581	134.967	0.098	-0.125
-494.566	317.648	-0.176	-0.329
-493.551	-200.000	0.032	-0.172
-492.537	18.937	-0.095	-0.075
-491.522	-200.000	0.004	-0.181
-490.508	800.000	-0.066	0.273
-489.493	0.815	0.188	-0.133
-488.478	-75.633	0.218	0.076
-487.464	143.884	0.175	-0.230
-486.449	-45.676	-0.131	-0.064
-485.435	-70.949	-0.457	-0.170
-484.420	101.023	-0.298	0.342
-483.405	745.998	-0.025	0.067
-482.391	-121.845	0.162	-0.026
-481.376	-3.584	-0.244	-0.167
-480.362	76.541	0.124	0.130
-479.347	-200.000	-0.012	-0.116
-478.332	-116.741	-0.307	0.056
-477.318	537.211	-0.121	0.284
-476.303	-200.000	0.007	-0.068
-475.289	121.523	0.139	0.171
-474.274	800.000	-0.091	-0.311
-473.259	784.189	0.105	-0.284
-472.245	-200.000	-0.010	0.472
-471.230	-53.585	-0.401	0.181
-470.216	716.411	-0.165	-0.431
-469.201	-200.000	-0.026	-0.239
-468.186	202.755	0.115	0.175
-467.172	-10.372	-0.307	0.200
-466.157	42.839	-0.141	0.127
-465.143	-122.722	0.285	0.045
-464.128	-5.826	0.170	0.115
-463.113	199.454	0.314	-0.475
-462.099	-26.856	0.142	-0.082
-461.084	-200.000	-0.051	0.346
-460.070	22.543	0.345	0.278
-459.055	428.586	0.135	0.287
-458.040	800.000	-0.029	-0.113
-457.026	-149.356	-0.313	-0.025
-456.011	800.000	0.045	-0.143
-454.997	78.643	0.193	-0.204
-453.982	-200.000	-0.009	0.187
-452.968	-96.045	-0.350	-0.092
-451.953	198.787	-0.176	0.266
-450.938	-200.000	-0.040	-0.288
-449.924	-200.000	0.063	0.377
-448.909	-73.804	0.066	0.023
-447.895	-151.646	0.344	0.025
-446.880	-200.000	0.026	-0.276
-445.865	-2.455	-0.084	0.058
-444.851	-150.500	-0.402	-0.030
-443.836	306.237	0.117	-0.214
-442.822	68.468	0.173	0.174
-441.807	77.175	-0.064	0.067
-440.792	800.000	0.119	-0.347
-439.778	61.905	0.048	-0.047
-438.763	-53.569	-0.337	0.152
-437.749	179.144	0.215	0.310
-436.734	104.235	0.263	0.305
-435.719	286.083	-0.045	-0.080
-434.705	233.274	0.221	-0.359
-433.690	-200.000	-0.055	0.271
-432.676	-57.162	0.273	0.118
-431.661	143.804	-0.148	-0.194
-430.646	403.017	0.038	-0.078
-429.632	109.325	-0.121	0.143
-428.617	52.968	-0.308	0.291
-427.603	-16.481	0.198	-0.124
-426.588	263.295	0.208	0.356
-425.573	403.538	0.110	0.228
-424.559	800.000	0.110	0.326
-423.544	-72.895	0.082	-0.030
-422.530	-92.630	-0.147	-0.040
-421.515	-11.797	-0.112	0.072
-420.500	-200.000	-0.018	-0.161
-419.486	93.128	-0.126	-0.140
-418.471	-200.000	-0.023	0.265
-417.457	-113.838	-0.024	0.005
-416.442	-200.000	0.061	0.285
-415.428	175.497	-0.158	-0.225
-414.413	386.292	0.045	0.092
-413.398	-200.000	0.049	0.326
-412.384	-8.016	-0.125	0.083
-411.369	800.000	-0.032	-0.107
-410.355	-4.157	-0.054	-0.037
-409.340	209.689	-0.066	-0.101
-408.325	59.642	0.081	-0.078
-407.311	-32.611	0.233	-0.128
-406.296	-28.051	0.203	-0.116
-405.282	578.501	-0.066	-0.158
-404.267	-113.858	0.008	-0.001
-403.252	-78.803	-0.451	0.151
-402.238	222.016	-0.054	-0.086
-401.223	-123.740	0.223	0.035
-400.209	-200.000	-0.010	0.050
-399.194	7.035	-0.200	-0.146
-398.179	101.500	-0.248	0.285
-397.165	431.468	0.151	-0.321
-396.150	86.783	-0.135	-0.146
-395.136	-200.000	-0.019	-0.447
-394.121	-131.193	-0.171	0.022
-393.106	-112.435	0.261	-0.051
-392.092	-78.285	-0.214	-0.072
-391.077	800.000	-0.072	-0.241
-390.063	-28.914	0.008	-0.004
-389.048	56.801	-0.128	0.122
-388.033	-200.000	-0.015	0.170
-387.019	-89.057	0.108	0.031
-386.004	-19.898	-0.094	0.057
-384.990	9.094	-0.172	-0.127
-383.975	794.768	-0.079	-0.214
-382.960	426.292	0.064	-0.135
-381.946	528.886	0.207	0.480
-380.931	-200.000	-0.068	0.355
-379.917	142.264	0.164	0.213
-378.902	-129.894	0.198	-0.027
-377.888	-200.000	0.001	0.107
-376.873	800.000	-0.150	0.496
-375.858	58.250	0.391	0.377
-374.844	-200.000	0.031	0.189
-373.829	-200.000	0.082	-0.359
-372.815	12.040	0.081	0.061
-371.800	370.152	-0.127	-0.252
-370.785	-176.501	0.060	-0.002
-369.771	-98.332	-0.323	-0.081
-368.756	510.886	-0.015	0.034
-367.742	-154.844	0.150	-0.010
-366.727	269.067	0.116	-0.201
-365.712	132.014	0.032	-0.041
-364.698	-75.934	-0.068	0.024
-363.683	-38.294	-0.115	-0.060
-362.669	800.000	0.132	0.457
-361.654	-76.936	-0.273	0.094
-360.639	58.381	0.195	0.188
-359.625	436.610	0.067	0.144
-358.610	98.071	0.175	-0.198
-357.596	173.583	0.042	0.059
-356.581	0.185	0.145	-0.101
-355.566	-62.929	-0.247	-0.100
-354.552	-90.691	-0.066	0.019
-353.537	23.635	0.352	-0.285
-352.523	45.181	0.069	0.063
-351.508	52.122	-0.113	-0.106
-350.493	117.011	0.135	0.162
-349.479	-132.762	0.356	0.045
-348.464	-154.954	-0.055	0.004
-347.450	-200.000	-0.013	-0.278
-346.435	800.000	-0.051	0.141
-345.420	-46.654	-0.118	0.057
-344.406	800.000	-0.060	0.253
-343.391	-200.000	0.032	-0.214
-342.377	653.561	-0.041	0.104
-341.362	50.433	-0.246	-0.229
-340.348	93.354	-0.131	0.145
-339.333	-80.535	-0.188	0.061
-338.318	-200.000	-0.065	-0.345
-337.304	22.341	-0.077	-0.061
-336.289	87.759	0.060	-0.065
-335.275	-200.000	0.007	0.112
-334.260	-200.000	-0.030	-0.390
-333.245	-184.480	0.161	0.003
-332.231	316.087	0.065	0.120
-331.216	800.000	-0.055	-0.195
-330.202	-120.150	-0.112	0.019
-329.187	66.521	-0.264	-0.263
-328.172	227.238	-0.022	0.035
-327.158	107.765	0.290	0.339
-326.143	-17.741	-0.444	0.273
-325.129	189.995	0.250	0.368
-324.114	14.730	0.133	-0.102
-323.099	469.775	-0.066	0.145
-322.085	-82.364	-0.213	-0.068
-321.070	-91.518	0.441	0.123
-320.056	616.584	-0.063	-0.155
-319.041	-129.180	0.238	0.033
-318.026	13.797	-0.205	-0.156
-317.012	-104.890	-0.037	0.008
-315.997	-64.625	0.196	0.078
-314.983	-56.644	-0.154	0.067
-313.968	360.099	0.159	-0.312
-312.953	234.881	0.081	-0.130
-311.939	117.225	0.177	0.214
-310.924	-67.150	-0.232	-0.089
-309.910	84.301	-0.111	-0.119
-308.895	66.249	-0.174	0.173
-307.880	-7.056	0.155	-0.103
-306.866	47.387	0.054	0.049
-305.851	-22.894	0.262	0.155
-304.837	-1.839	0.240	0.166
-303.822	-200.000	0.017	0.129
-302.807	36.505	0.205	0.177
-301.793	70.902	-0.113	0.114
-300.778	107.819	0.176	0.205
-299.764	85.609	0.187	0.202
-298.749	-149.439	0.389	-0.030
-297.735	-79.022	0.178	0.059
-296.720	-97.085	0.091	0.023
-295.705	6.087	-0.018	0.013
-294.691	-200.000	0.000	0.117
-293.676	-200.000	-0.022	-0.216
-292.662	-200.000	0.066	0.319
-291.647	345.023	0.028	-0.053
-290.632	-200.000	-0.029	-0.234
-289.618	40.297	-0.130	-0.115
-288.603	-143.430	-0.197	0.018
-287.589	69.598	0.269	0.271
-286.574	15.220	-0.052	-0.040
-285.559	409.991	-0.112	0.233
-284.545	331.004	0.080	-0.150
-283.530	-69.967	0.176	-0.066
-282.516	676.810	0.192	0.487
-281.501	-200.000	0.062	-0.300
-280.486	-96.357	-0.267	0.069
-279.472	17.606	-0.230	0.179
-278.457	-125.513	-0.207	-0.031
-277.443	44.921	-0.069	0.062
-276.428	-181.683	-0.383	-0.007
-275.413	-131.540	-0.415	-0.054
-274.399	-43.815	-0.207	0.102
-273.384	99.247	0.085	0.097
-272.370	-34.138	0.110	0.059
-271.355	54.187	-0.092	-0.087
-270.340	-38.311	-0.112	0.058
-269.326	800.000	-0.021	-0.069
-268.311	-103.797	-0.311	0.071
-267.297	-81.728	0.291	-0.093
-266.282	-28.264	-0.068	0.038
-265.267	54.260	0.154	0.145
-264.253	361.411	-0.136	0.266
-263.238	1.463	0.230	0.162
-262.224	392.718	-0.098	-0.199
-261.209	-131.186	-0.546	0.071
-260.195	-200.000	0.049	-0.211
-259.180	107.676	-0.084	-0.097
-258.165	99.258	0.085	-0.096
-257.151	-37.708	0.169	-0.088
-256.136	-88.910	-0.090	0.026
-255.122	-200.000	-0.025	-0.182
-254.107	-77.700	0.365	-0.123
-253.092	451.034	-0.117	-0.252
-252.078	800.000	-0.035	-0.125
-251.063	-40.639	0.098	-0.050
-250.049	228.160	0.074	-0.118
-249.034	256.188	0.009	-0.016
-248.019	800.000	0.087	-0.243
-247.005	105.495	-0.310	0.358
-245.990	612.309	0.023	0.056
-244.976	-77.777	0.093	-0.031
-243.961	-200.000	0.029	-0.394
-242.946	124.092	-0.254	0.312
-241.932	-168.831	-0.110	0.004
-240.917	-68.328	0.129	-0.049
-239.903	-53.932	0.306	0.136
-238.888	27.330	0.188	-0.155
-237.873	96.685	0.129	-0.145
-236.859	-49.764	0.220	-0.102
-235.844	-84.367	-0.137	0.042
-234.830	-200.000	-0.002	0.065
-233.815	24.841	0.247	0.200
-232.800	104.122	0.258	0.297
-231.786	-15.577	-0.105	-0.066
-230.771	15.521	0.077	0.059
-229.757	-8.954	-0.113	0.074
-228.742	-200.000	0.023	0.249
-227.727	-135.195	-0.187	0.022
-226.713	-37.856	-0.271	0.141
-225.698	-200.000	0.023	-0.148
-224.684	-152.998	-0.147	-0.010
-223.669	-57.346	-0.114	-0.049
-222.655	800.000	0.103	-0.305
-221.640	800.000	-0.070	0.221
-220.625	-200.000	-0.047	0.320
-219.611	469.165	0.168	-0.368
-218.596	45.415	-0.117	0.105
-217.582	-200.000	-0.150	-0.000
-216.567	31.744	0.014	0.011
-215.552	11.391	-0.268	-0.201
-214.538	-200.000	0.001	0.035
-213.523	324.695	-0.060	-0.112
-212.509	-112.571	-0.166	-0.032
-211.494	169.598	-0.118	-0.164
-210.479	-200.000	0.391	0.001
-209.465	114.098	-0.151	-0.179
-208.450	41.685	-0.091	0.080
-207.436	-37.663	0.260	0.135
-206.421	800.000	0.053	0.150
-205.406	-172.489	-0.080	-0.002
-204.392	-124.846	0.035	0.005
-203.377	-100.493	-0.217	0.052
-202.363	62.079	-0.104	0.101
-201.348	-200.000	0.007	0.049
-200.333	-127.397	0.156	0.022
-199.319	201.521	0.232	0.349
-198.304	-110.051	0.342	-0.070
-197.290	236.780	-0.180	0.291
-196.275	-121.505	0.248	0.040
-195.260	-24.951	-0.021	0.012
-194.246	85.263	-0.381	0.408
-193.231	-148.651	0.394	-0.031
-192.217	800.000	0.138	-0.493
-191.202	374.804	0.051	0.101
-190.187	-24.878	0.130	0.075
-189.173	-200.000	0.025	-0.480
-188.158	-65.774	-0.096	-0.038
-187.144	709.889	0.074	-0.191
-186.129	-57.687	0.039	0.017
-185.114	557.015	0.137	0.323
-184.100	135.874	0.088	-0.112
-183.085	70.006	0.253	0.254
-182.071	-82.951	-0.333	-0.105
-181.056	-19.018	0.053	-0.032
-180.042	562.114	0.050	-0.119
-179.027	74.930	0.135	0.139
-178.012	-83.478	0.206	0.064
-176.998	-113.467	-0.160	0.031
-175.983	80.037	-0.150	-0.157
-174.969	496.557	-0.052	0.117
-173.954	589.589	-0.107	0.258
-172.939	188.710	0.200	0.291
-171.925	-132.789	0.331	-0.041
-170.910	-38.389	0.186	0.096
-169.896	-200.000	-0.029	-0.213
-168.881	-200.000	-0.023	-0.357
-167.866	800.000	0.023	-0.078
-166.852	483.974	-0.086	0.191
-165.837	-137.344	-0.112	0.012
-164.823	-200.000	0.021	-0.346
-163.808	-44.179	-0.120	-0.059
-162.793	338.300	0.107	-0.203
-161.779	70.329	0.334	-0.336
-160.764	800.000	-0.185	-0.698
-159.750	-77.861	-0.085	-0.029
-158.735	0.494	0.136	0.095
-157.720	800.000	0.064	0.254
-156.706	59.290	0.068	0.065
-155.691	-188.431	-0.191	0.002
-154.677	-109.955	-0.248	-0.051
-153.662	154.642	0.093	-0.124
-152.647	-200.000	0.030	0.282
-151.633	-88.785	-0.172	-0.050
-150.618	-36.432	-0.374	0.196
-149.604	28.186	0.099	-0.082
-148.589	800.000	0.064	0.220
-147.574	358.057	0.214	-0.417
-146.560	-200.000	-0.050	-0.265
-145.545	800.000	0.138	-0.396
-144.531	84.537	0.168	-0.179
-143.516	-111.162	0.410	-0.082
-142.502	-41.059	-0.116	0.058
-141.487	-72.561	-0.086	-0.031
-140.472	-122.729	0.200	0.031
-139.458	33.152	0.454	0.383
-138.443	-166.317	-0.298	0.012
-137.429	-200.000	0.038	-0.256
-136.414	-200.000	-0.030	-0.171
-135.399	180.536	0.105	0.150
-134.385	800.000	0.068	-0.277
-133.370	84.162	0.144	0.153
-132.356	-18.055	-0.240	0.146
-131.341	-115.876	-0.427	-0.078
-130.326	-33.279	0.223	-0.120
-129.312	73.587	0.139	-0.142
-128.297	244.741	0.073	-0.119
-127.283	-128.627	-0.208	-0.029
-126.268	-99.571	-0.326	0.080
-125.253	-200.000	-0.120	0.607
-124.239	571.013	0.207	0.490
-123.224	-6.934	0.008	-0.005
-122.210	-90.198	0.081	-0.023
-121.195	557.575	0.020	0.047
