DTS Sentinel unit serial number:	SN413079Multiplexer serial number:	ORYXHardware model number:	OX4-SRSoftware version number:	ORYX F/W v4.00 Oryx Data Collector v3.7.2.0data status	okinstallation	princeton_trtdifferential loss correction	single-endedforward channel	channel 2reverse channel	N/Adate	2019/09/12time	07:33:11forward acquisition time	60.00reverse acquisition time	0.00gamma	496.2192k internal	0.2323k external	0.2323temperature offset calibration	1.0056default loss term (dB/km)	0.3790temperature slope calibration	1.0000multiplexer offset coefficient	1.0000multiplexer slope coefficient	1.0000fibre end	0.00T internal ref (°C)	32.56T ext. ref 1 (°C)	1.63T ext. ref 2 (°C)	29.16length (m)	temperature (°C)	Stokes	anti-Stokes-747.200	800.000	-0.111	0.323
-746.185	-200.000	0.045	0.203
-745.171	-147.512	-0.111	0.009
-744.156	251.258	0.051	0.088
-743.142	-200.000	0.019	0.184
-742.127	-6.813	0.056	0.039
-741.112	-141.211	-0.237	0.024
-740.098	-46.596	-0.261	0.129
-739.083	334.162	-0.090	-0.177
-738.069	-200.000	-0.034	0.307
-737.054	-29.743	0.258	0.149
-736.039	-104.910	0.195	0.045
-735.025	338.943	0.025	-0.048
-734.010	-200.000	-0.021	-0.306
-732.996	148.440	-0.190	-0.258
-731.981	41.444	0.122	0.111
-730.966	116.290	-0.104	0.128
-729.952	-47.238	0.176	-0.087
-728.937	-74.681	0.160	-0.058
-727.923	800.000	-0.093	0.272
-726.908	384.392	-0.070	0.146
-725.894	-200.000	-0.025	-0.211
-724.879	-24.556	0.145	-0.087
-723.864	85.783	0.011	0.012
-722.850	-22.754	-0.137	-0.083
-721.835	-46.558	-0.310	0.154
-720.821	-108.560	0.110	0.024
-719.806	-200.000	-0.019	-0.404
-718.791	699.020	-0.036	0.095
-717.777	-200.000	0.053	0.253
-716.762	316.219	0.070	0.134
-715.748	-161.356	0.258	0.013
-714.733	22.631	0.081	-0.067
-713.718	104.919	0.102	0.122
-712.704	-150.694	-0.274	0.021
-711.689	-200.000	0.000	0.237
-710.675	92.419	-0.018	0.020
-709.660	188.969	-0.097	0.147
-708.645	258.190	-0.015	-0.025
-707.631	263.226	-0.159	-0.279
-706.616	70.782	0.241	-0.251
-705.602	-200.000	-0.059	0.280
-704.587	-26.371	0.198	0.117
-703.572	-59.729	0.126	0.054
-702.558	153.236	-0.081	0.111
-701.543	118.925	0.073	-0.090
-700.529	768.792	0.088	0.242
-699.514	1.287	0.163	-0.118
-698.499	5.197	0.063	0.047
-697.485	34.166	-0.245	-0.215
-696.470	408.556	-0.045	-0.096
-695.456	35.311	0.170	0.150
-694.441	348.387	0.111	0.221
-693.426	554.729	-0.063	0.152
-692.412	5.715	0.216	0.161
-691.397	366.849	-0.140	-0.284
-690.383	450.974	-0.034	-0.075
-689.368	23.547	0.127	0.105
-688.354	485.038	-0.062	0.143
-687.339	123.220	0.109	0.138
-686.324	102.020	-0.193	-0.227
-685.310	-109.459	0.210	-0.045
-684.295	-51.607	0.101	0.047
-683.281	800.000	0.063	-0.247
-682.266	-156.888	0.126	0.008
-681.251	38.231	-0.156	0.140
-680.237	176.064	-0.213	-0.312
-679.222	517.821	-0.134	-0.316
-678.208	-154.459	-0.210	0.014
-677.193	-39.756	-0.110	0.058
-676.178	800.000	0.128	0.458
-675.164	545.906	-0.086	-0.207
-674.149	-34.166	-0.330	-0.183
-673.135	-4.109	-0.250	-0.174
-672.120	-20.878	-0.162	0.100
-671.105	-152.195	0.429	-0.031
-670.091	-11.252	-0.202	0.134
-669.076	-52.982	-0.159	-0.074
-668.062	-200.000	-0.043	0.192
-667.047	182.179	0.045	0.066
-666.032	-200.000	0.017	-0.082
-665.018	-200.000	0.052	0.285
-664.003	-200.000	-0.010	0.242
-662.989	452.123	-0.130	0.289
-661.974	-37.142	0.083	0.045
-660.959	77.047	0.261	0.279
-659.945	20.085	0.270	0.219
-658.930	-200.000	0.004	-0.023
-657.916	-200.000	0.015	-0.302
-656.901	-121.431	0.270	0.045
-655.886	-108.306	-0.099	-0.021
-654.872	-200.000	-0.061	0.268
-653.857	84.332	-0.299	-0.329
-652.843	629.007	0.071	-0.181
-651.828	-79.026	-0.247	0.084
-650.814	-200.000	0.012	-0.140
-649.799	75.092	0.227	-0.240
-648.784	-109.125	0.193	0.041
-647.770	101.013	-0.182	-0.213
-646.755	-104.549	0.209	0.048
-645.741	-48.613	-0.269	-0.130
-644.726	-81.304	0.408	-0.135
-643.711	-139.822	-0.125	0.013
-642.697	800.000	0.037	0.158
-641.682	-24.983	-0.026	0.015
-640.668	-200.000	0.049	0.373
-639.653	121.713	-0.160	0.201
-638.638	-124.442	-0.547	-0.086
-637.624	-20.836	0.330	0.203
-636.609	610.601	0.106	-0.266
-635.595	-72.595	0.242	-0.090
-634.580	-24.098	0.251	-0.151
-633.565	-200.000	-0.058	-0.378
-632.551	105.304	-0.139	-0.165
-631.536	-92.707	0.447	-0.126
-630.522	-84.692	0.175	0.055
-629.507	-11.628	-0.156	0.103
-628.492	-171.243	-0.128	-0.004
-627.478	800.000	0.031	0.126
-626.463	284.998	-0.107	-0.195
-625.449	800.000	-0.097	-0.291
-624.434	348.286	-0.076	-0.150
-623.419	-59.320	-0.099	0.043
-622.405	-200.000	-0.013	0.074
-621.390	-200.000	0.003	0.034
-620.376	170.107	-0.069	0.099
-619.361	-200.000	-0.006	0.116
-618.346	800.000	-0.045	0.133
-617.332	-106.440	0.144	0.032
-616.317	696.459	-0.106	0.281
-615.303	18.277	-0.030	0.024
-614.288	108.801	0.201	0.241
-613.273	444.759	-0.195	0.429
-612.259	-200.000	-0.009	-0.048
-611.244	-35.218	-0.184	0.101
-610.230	800.000	-0.035	-0.133
-609.215	-200.000	0.026	-0.152
-608.201	-48.595	-0.333	0.161
-607.186	-114.332	-0.335	-0.065
-606.171	800.000	-0.050	-0.212
-605.157	-68.556	-0.240	0.093
-604.142	22.142	0.199	-0.163
-603.128	-200.000	-0.009	-0.148
-602.113	142.201	-0.127	-0.169
-601.098	27.068	-0.234	-0.197
-600.084	222.238	-0.159	0.256
-599.069	238.869	0.113	0.188
-598.055	-47.807	0.161	0.078
-597.040	-84.991	-0.268	-0.084
-596.025	113.324	0.134	0.163
-595.011	-121.706	0.348	0.058
-593.996	83.587	-0.212	-0.232
-592.982	63.883	0.071	-0.072
-591.967	-7.152	0.185	0.126
-590.952	-141.065	0.248	0.025
-589.938	-200.000	0.010	0.101
-588.923	-25.947	-0.224	-0.132
-587.909	-66.052	-0.355	0.142
-586.894	-18.023	-0.106	-0.067
-585.879	288.432	-0.075	-0.136
-584.865	-200.000	-0.044	0.335
-583.850	253.750	-0.103	-0.176
-582.836	60.774	0.067	0.066
-581.821	28.799	-0.105	0.089
-580.806	-79.796	0.113	0.038
-579.792	-190.328	-0.259	-0.003
-578.777	-46.972	-0.035	0.017
-577.763	800.000	-0.056	-0.184
-576.748	-93.593	-0.144	0.040
-575.733	85.608	-0.161	-0.177
-574.719	319.303	-0.159	-0.303
-573.704	-200.000	0.027	0.235
-572.690	800.000	0.060	0.237
-571.675	383.024	-0.015	0.032
-570.661	262.617	0.128	0.223
-569.646	27.370	-0.128	-0.108
-568.631	-143.569	0.351	0.033
-567.617	-131.282	-0.271	-0.036
-566.602	-23.028	-0.253	-0.153
-565.588	-48.947	0.221	0.106
-564.573	-63.812	0.030	0.012
-563.558	559.044	-0.111	-0.270
-562.544	83.896	0.034	-0.037
-561.529	800.000	-0.067	-0.236
-560.515	119.552	-0.239	-0.297
-559.500	-87.221	-0.201	-0.061
-558.485	-153.846	0.303	-0.021
-557.471	-74.988	0.072	0.026
-556.456	-66.305	0.144	-0.057
-555.442	-27.053	-0.213	-0.124
-554.427	-143.585	0.132	0.013
-553.412	-13.460	0.183	-0.119
-552.398	234.236	-0.091	-0.150
-551.383	-65.724	-0.068	-0.027
-550.369	92.672	0.192	-0.217
-549.354	-159.785	0.392	0.022
-548.339	-12.444	0.155	0.102
-547.325	-121.842	-0.350	0.058
-546.310	-77.767	0.280	0.097
-545.296	-150.574	0.236	0.018
-544.281	-200.000	0.008	0.161
-543.266	-41.134	0.215	0.111
-542.252	1.659	-0.150	-0.108
-541.237	328.619	0.025	0.049
-540.223	172.114	0.134	0.193
-539.208	73.896	-0.017	0.017
-538.193	-143.714	-0.165	0.016
-537.179	371.801	-0.046	0.094
-536.164	702.832	-0.018	0.046
-535.150	388.114	-0.051	-0.106
-534.135	59.666	0.398	-0.393
-533.121	-36.654	-0.223	0.120
-532.106	197.549	-0.150	0.229
-531.091	-19.808	0.218	-0.135
-530.077	36.580	-0.171	0.151
-529.062	208.519	0.050	-0.079
-528.048	-200.000	-0.001	0.044
-527.033	800.000	0.069	0.293
-526.018	152.518	-0.146	0.199
-525.004	-200.000	0.007	0.266
-523.989	166.238	-0.105	-0.149
-522.975	-75.828	0.303	-0.107
-521.960	33.162	0.161	-0.139
-520.945	-200.000	0.074	0.348
-519.931	800.000	0.051	-0.146
-518.916	-156.990	0.184	0.011
-517.902	582.750	0.038	0.093
-516.887	143.246	0.073	0.098
-515.872	-200.000	-0.030	0.134
-514.858	570.464	0.048	-0.117
-513.843	-30.007	-0.292	-0.166
-512.829	-200.000	-0.016	-0.115
-511.814	177.240	-0.190	-0.276
-510.799	-133.341	-0.179	-0.023
-509.785	172.834	-0.179	0.258
-508.770	-84.127	-0.335	-0.106
-507.756	-140.652	0.132	-0.014
-506.741	157.467	0.144	0.199
-505.726	591.380	0.037	0.092
-504.712	800.000	0.114	-0.356
-503.697	54.404	-0.108	0.104
-502.683	-129.993	0.220	-0.030
-501.668	-200.000	-0.055	0.323
-500.653	-67.791	-0.211	-0.082
-499.639	800.000	-0.029	-0.098
-498.624	121.494	0.094	0.117
-497.610	-200.000	-0.004	0.096
-496.595	-200.000	0.011	-0.100
-495.581	162.915	-0.013	0.018
-494.566	172.012	-0.147	0.211
-493.551	800.000	-0.008	0.026
-492.537	-111.224	0.157	-0.032
-491.522	-200.000	0.033	0.178
-490.508	-37.861	0.202	-0.107
-489.493	189.010	0.149	0.223
-488.478	51.487	-0.319	0.303
-487.464	-200.000	-0.026	-0.130
-486.449	-148.222	0.239	-0.020
-485.435	-200.000	-0.006	0.119
-484.420	-3.492	0.390	-0.271
-483.405	-200.000	0.009	0.235
-482.391	-108.018	-0.264	0.057
-481.376	178.074	-0.058	-0.085
-480.362	157.987	-0.072	-0.100
-479.347	-200.000	0.032	0.224
-478.332	71.009	0.080	-0.083
-477.318	50.599	0.083	0.078
-476.303	149.624	-0.095	-0.129
-475.289	77.869	-0.055	-0.059
-474.274	-199.786	0.113	0.001
-473.259	124.644	-0.166	0.208
-472.245	-72.218	-0.217	0.081
-471.230	117.874	-0.065	0.080
-470.216	-152.673	-0.373	-0.027
-469.201	302.601	-0.173	-0.320
-468.186	766.463	-0.198	-0.538
-467.172	193.274	0.137	-0.207
-466.157	-85.438	-0.084	-0.026
-465.143	116.233	0.098	0.120
-464.128	151.571	0.155	0.212
-463.113	-129.649	0.174	0.024
-462.099	653.407	-0.065	-0.168
-461.084	-34.888	-0.076	0.041
-460.070	52.945	-0.168	0.160
-459.055	-43.820	-0.176	-0.088
-458.040	270.037	0.081	0.142
-457.026	800.000	0.041	-0.138
-456.011	156.386	0.115	-0.158
-454.997	-22.885	0.168	-0.101
-453.982	-49.284	-0.069	0.033
-452.968	-159.150	0.412	-0.023
-451.953	38.095	-0.109	-0.097
-450.938	800.000	-0.042	-0.165
-449.924	-108.970	0.369	0.079
-448.909	-71.693	0.162	0.060
-447.895	-88.658	0.499	-0.148
-446.880	181.014	-0.093	-0.136
-445.865	55.546	0.164	0.159
-444.851	-200.000	-0.003	0.363
-443.836	-200.000	0.011	0.206
-442.822	-200.000	-0.032	0.161
-441.807	-76.513	-0.270	0.095
-440.792	211.732	0.082	0.130
-439.778	40.365	-0.282	0.253
-438.763	170.961	-0.197	0.282
-437.749	279.374	-0.120	0.213
-436.734	-79.440	-0.096	0.032
-435.719	800.000	0.052	0.188
-434.705	348.380	0.198	0.389
-433.690	33.629	-0.189	0.164
-432.676	-16.447	0.143	0.091
-431.661	-4.262	-0.316	0.218
-430.646	396.045	0.103	-0.215
-429.632	85.825	0.098	0.107
-428.617	-4.552	0.089	0.061
-427.603	-12.172	-0.010	0.007
-426.588	-76.740	0.182	0.064
-425.573	-200.000	0.052	-0.276
-424.559	-19.397	-0.105	0.065
-423.544	-182.645	0.407	0.007
-422.530	-200.000	-0.004	0.192
-421.515	-200.000	-0.054	0.244
-420.500	344.496	0.066	0.129
-419.486	-200.000	-0.067	0.523
-418.471	129.440	0.206	0.262
-417.457	38.895	0.156	-0.139
-416.442	-175.434	0.301	-0.008
-415.428	26.694	-0.149	0.124
-414.413	-200.000	0.006	-0.125
-413.398	-141.477	0.137	-0.014
-412.384	-200.000	-0.010	0.434
-411.369	648.723	0.066	0.169
-410.355	-46.025	-0.021	-0.010
-409.340	128.274	-0.068	0.087
-408.325	-40.033	-0.130	-0.068
-407.311	-86.525	0.166	-0.051
-406.296	-83.151	-0.175	-0.056
-405.282	-200.000	0.036	0.180
-404.267	144.469	-0.085	-0.114
-403.252	-200.000	-0.016	-0.146
-402.238	11.657	-0.148	0.113
-401.223	-6.947	0.341	-0.231
-400.209	-132.809	0.080	0.010
-399.194	800.000	-0.099	-0.397
-398.179	-125.923	0.196	0.029
-397.165	-4.890	0.263	0.180
-396.150	-124.093	-0.079	0.012
-395.136	-100.702	0.422	0.104
-394.121	2.468	0.143	0.103
-393.106	-200.000	-0.020	0.520
-392.092	-200.000	0.015	0.108
-391.077	-24.033	-0.371	-0.221
-390.063	286.594	-0.020	-0.036
-389.048	15.384	-0.135	0.105
-388.033	800.000	-0.084	0.243
-387.019	79.488	-0.187	-0.199
-386.004	-25.913	-0.100	0.059
-384.990	-24.298	-0.326	0.194
-383.975	216.436	-0.141	-0.223
-382.960	174.511	-0.154	-0.221
-381.946	155.184	-0.122	-0.167
-380.931	-200.000	-0.050	-0.518
-379.917	13.147	-0.239	-0.185
-378.902	-200.000	0.009	0.299
-377.888	-200.000	0.012	-0.261
-376.873	-146.871	0.047	-0.004
-375.858	-198.926	-0.199	-0.001
-374.844	-200.000	-0.000	-0.288
-373.829	66.506	-0.189	-0.192
-372.815	43.518	-0.045	-0.041
-371.800	-99.326	-0.331	0.083
-370.785	-200.000	0.015	0.204
-369.771	-73.274	-0.323	-0.118
-368.756	-77.056	-0.287	-0.100
-367.742	-200.000	-0.040	-0.233
-366.727	184.064	-0.011	-0.017
-365.712	-20.760	-0.049	-0.030
-364.698	-148.441	-0.167	0.014
-363.683	51.650	-0.027	-0.025
-362.669	-200.000	-0.009	0.066
-361.654	-200.000	0.000	0.150
-360.639	30.023	-0.188	-0.159
-359.625	153.642	-0.133	-0.182
-358.610	-56.721	0.555	-0.244
-357.596	315.163	-0.121	0.226
-356.581	268.953	0.123	-0.214
-355.566	-200.000	-0.073	0.322
-354.552	695.749	0.085	-0.221
-353.537	-63.387	-0.098	-0.040
-352.523	-102.175	-0.084	-0.020
-351.508	462.596	0.036	-0.080
-350.493	-24.424	-0.171	0.101
-349.479	-82.749	0.262	0.084
-348.464	154.593	0.075	-0.102
-347.450	-51.264	-0.285	-0.133
-346.435	61.727	0.223	0.221
-345.420	-110.564	0.043	-0.009
-344.406	90.511	-0.230	-0.256
-343.391	-44.070	0.252	-0.126
-342.377	44.903	-0.074	0.068
-341.362	130.303	-0.173	-0.221
-340.348	-200.000	-0.024	0.145
-339.333	-200.000	0.005	-0.049
-338.318	-47.735	-0.138	0.066
-337.304	283.979	0.138	-0.246
-336.289	26.967	0.083	-0.069
-335.275	466.232	0.009	-0.021
-334.260	-27.574	0.308	-0.178
-333.245	-2.535	0.105	-0.073
-332.231	773.480	0.087	-0.235
-331.216	-200.000	-0.045	-0.339
-330.202	345.673	-0.098	-0.191
-329.187	-94.160	-0.244	-0.067
-328.172	-16.291	0.269	0.170
-327.158	-23.258	0.130	-0.077
-326.143	-24.803	-0.081	-0.048
-325.129	800.000	0.104	0.305
-324.114	35.767	0.148	0.129
-323.099	-36.751	-0.184	0.098
-322.085	-56.776	-0.206	0.090
-321.070	-123.101	-0.164	-0.026
-320.056	800.000	0.088	-0.277
-319.041	-168.330	-0.222	-0.009
-318.026	381.087	0.031	0.064
-317.012	-162.755	0.282	-0.014
-315.997	6.449	-0.043	0.031
-314.983	-200.000	-0.012	-0.175
-313.968	742.715	-0.099	0.263
-312.953	86.692	0.123	-0.135
-311.939	-78.038	-0.207	-0.071
-310.924	-126.052	0.180	-0.027
-309.910	-52.130	-0.077	0.035
-308.895	-42.769	-0.082	0.041
-307.880	-200.000	-0.009	0.082
-306.866	-149.955	0.101	0.008
-305.851	126.804	-0.149	-0.187
-304.837	110.119	0.079	-0.094
-303.822	-108.141	-0.139	0.030
-302.807	-17.578	0.214	0.134
-301.793	200.904	0.055	0.085
-300.778	495.358	-0.057	-0.131
-299.764	365.397	-0.031	-0.063
-298.749	-194.213	0.104	0.001
-297.735	46.641	-0.061	0.056
-296.720	-200.000	-0.017	-0.139
-295.705	-92.304	0.146	-0.041
-294.691	173.533	0.040	-0.058
-293.676	-157.895	-0.380	-0.022
-292.662	-200.000	-0.003	0.129
-291.647	-80.256	-0.197	-0.065
-290.632	56.190	0.086	0.083
-289.618	132.418	0.039	-0.050
-288.603	-54.342	0.191	-0.086
-287.589	-118.618	-0.103	-0.018
-286.574	-60.613	-0.249	-0.105
-285.559	-83.983	0.263	-0.083
-284.545	635.889	-0.133	-0.335
-283.530	-9.047	0.094	-0.062
-282.516	245.719	-0.151	-0.253
-281.501	152.808	-0.204	0.276
-280.486	-54.824	0.185	0.083
-279.472	-150.769	0.042	-0.003
-278.457	-118.504	-0.116	-0.020
-277.443	38.510	-0.260	-0.230
-276.428	-196.543	0.171	0.001
-275.413	189.675	-0.185	-0.274
-274.399	-200.000	-0.025	-0.130
-273.384	622.467	0.060	-0.150
-272.370	-200.000	-0.003	0.058
-271.355	61.365	0.133	0.131
-270.340	785.288	-0.123	0.336
-269.326	-200.000	-0.002	0.166
-268.311	1.606	0.031	0.022
-267.297	537.647	-0.048	-0.114
-266.282	-39.989	0.325	-0.168
-265.267	96.179	0.170	-0.192
-264.253	40.852	0.128	0.114
-263.238	-1.134	-0.120	0.084
-262.224	415.426	-0.112	-0.238
-261.209	-119.854	0.223	0.038
-260.195	426.337	0.095	0.202
-259.180	443.199	-0.089	-0.193
-258.165	-164.883	0.081	-0.004
-257.151	-167.647	-0.185	-0.007
-256.136	19.506	0.294	0.234
-255.122	-200.000	-0.003	0.096
-254.107	-13.541	0.056	0.036
-253.092	233.680	-0.148	0.241
-252.078	5.723	-0.285	0.209
-251.063	524.585	-0.138	0.322
-250.049	-182.049	0.116	0.002
-249.034	50.566	-0.192	0.180
-248.019	-162.360	-0.219	0.011
-247.005	516.509	-0.056	0.129
-245.990	-20.602	-0.254	0.154
-244.976	-200.000	0.009	-0.136
-243.961	-85.300	-0.074	0.023
-242.946	288.298	-0.068	0.123
-241.932	-87.061	-0.123	0.037
-240.917	11.343	0.098	-0.074
-239.903	387.505	0.133	-0.273
-238.888	-3.534	0.130	0.089
-237.873	800.000	0.102	-0.303
-236.859	-115.652	0.221	-0.041
-235.844	-42.254	-0.149	-0.075
-234.830	36.093	-0.090	-0.079
-233.815	-35.256	0.056	0.030
-232.800	-93.412	0.091	0.025
-231.786	58.967	0.108	0.105
-230.771	36.659	-0.062	-0.055
-229.757	293.890	0.176	0.318
-228.742	-41.442	-0.051	0.026
-227.727	9.382	0.099	0.074
-226.713	286.182	0.140	-0.251
-225.698	-92.753	0.210	0.058
-224.684	-16.346	0.088	-0.056
-223.669	35.795	0.310	-0.270
-222.655	800.000	0.069	-0.257
-221.640	800.000	0.047	0.134
-220.625	20.231	-0.064	0.051
-219.611	141.581	0.176	-0.231
-218.596	-65.851	0.250	-0.099
-217.582	659.593	-0.128	0.325
-216.567	-200.000	-0.039	0.264
-215.552	-73.307	-0.299	-0.108
-214.538	-8.337	0.215	0.143
-213.523	81.043	-0.209	0.224
-212.509	580.768	0.118	0.285
-211.494	-200.000	0.034	-0.161
-210.479	-200.000	-0.021	0.123
-209.465	755.495	-0.120	-0.320
-208.450	-70.105	0.511	0.192
-207.436	419.891	-0.034	-0.073
-206.421	-200.000	0.053	-0.243
-205.406	99.220	-0.220	0.251
-204.392	504.471	-0.083	0.190
-203.377	-106.046	0.133	0.030
-202.363	32.885	0.167	-0.143
-201.348	-200.000	0.186	0.000
-200.333	-200.000	0.028	0.148
-199.319	-148.071	0.267	-0.022
-198.304	64.891	0.227	0.227
-197.290	-102.632	0.237	-0.056
-196.275	-44.987	0.185	-0.091
-195.260	113.656	0.075	-0.090
-194.246	303.505	0.101	-0.185
-193.231	68.887	-0.212	0.216
-192.217	-38.648	0.076	-0.040
-191.202	545.918	0.061	-0.144
-190.187	-125.943	-0.181	0.027
-189.173	-25.041	-0.224	0.132
-188.158	17.157	0.439	0.344
-187.144	800.000	-0.058	-0.181
-186.129	252.832	0.077	0.129
-185.114	800.000	0.091	-0.311
-184.100	-36.969	0.179	-0.095
-183.085	282.050	-0.051	0.091
-182.071	193.511	0.160	-0.239
-181.056	800.000	-0.022	-0.096
-180.042	144.007	0.134	-0.176
-179.027	30.742	0.155	-0.131
-178.012	-115.145	-0.494	-0.092
-176.998	-66.869	0.169	-0.066
-175.983	-32.620	-0.177	-0.097
-174.969	205.634	0.113	0.174
-173.954	305.182	-0.053	0.098
-172.939	-23.040	0.146	-0.087
-171.925	-75.220	0.106	0.038
-170.910	-200.000	0.054	-0.312
-169.896	260.807	0.093	-0.159
-168.881	-55.803	-0.315	0.139
-167.866	31.741	0.130	0.111
-166.852	118.374	-0.169	-0.206
-165.837	-200.000	-0.012	0.113
-164.823	-200.000	0.004	-0.200
-163.808	-77.705	0.076	0.026
-162.793	347.355	-0.150	0.292
-161.779	-118.747	-0.222	0.039
-160.764	137.434	0.169	0.219
-159.750	206.250	-0.225	0.346
-158.735	648.202	-0.087	0.219
-157.720	89.846	0.101	-0.111
-156.706	78.894	-0.146	-0.154
-155.691	483.099	-0.134	-0.300
-154.677	-124.711	0.228	0.035
-153.662	34.367	0.171	0.147
-152.647	346.226	0.039	-0.075
-151.633	800.000	-0.139	-0.406
-150.618	800.000	0.074	0.302
-149.604	259.140	0.220	0.374
-148.589	800.000	-0.028	-0.086
-147.574	275.051	-0.139	-0.244
-146.560	-3.801	0.251	-0.172
-145.545	-134.942	-0.076	0.009
-144.531	61.507	0.144	0.142
-143.516	-200.000	-0.054	0.520
-142.502	304.178	-0.064	-0.116
-141.487	-200.000	-0.023	0.106
-140.472	-200.000	-0.009	0.227
-139.458	-114.663	-0.192	0.036
-138.443	-119.817	0.514	-0.087
-137.429	-200.000	-0.023	0.316
-136.414	-9.079	-0.067	0.044
-135.399	209.333	-0.040	0.062
-134.385	-102.335	0.129	-0.030
-133.370	436.150	-0.115	0.247
-132.356	-50.579	-0.242	0.112
-131.341	-200.000	0.067	-0.337
-130.326	126.783	-0.078	0.098
-129.312	49.126	0.310	0.287
-128.297	210.023	-0.081	-0.126
-127.283	-200.000	0.007	0.212
-126.268	800.000	-0.031	-0.129
-125.253	-98.345	0.315	-0.080
-124.239	277.635	-0.095	0.167
-123.224	221.505	0.119	0.188
-122.210	-31.505	-0.013	0.007
-121.195	-132.082	-0.243	-0.031
