DTS Sentinel unit serial number:	SN413079Multiplexer serial number:	ORYXHardware model number:	OX4-SRSoftware version number:	ORYX F/W v4.00 Oryx Data Collector v3.7.2.0data status	okinstallation	princeton_trtdifferential loss correction	single-endedforward channel	channel 2reverse channel	N/Adate	2019/09/10time	22:17:11forward acquisition time	60.00reverse acquisition time	0.00gamma	496.2192k internal	0.2330k external	0.2330temperature offset calibration	0.9944default loss term (dB/km)	0.3790temperature slope calibration	1.0000multiplexer offset coefficient	1.0000multiplexer slope coefficient	1.0000fibre end	0.00T internal ref (°C)	30.50T ext. ref 1 (°C)	-0.31T ext. ref 2 (°C)	23.93length (m)	temperature (°C)	Stokes	anti-Stokes-747.200	-121.643	0.072	-0.012
-746.185	785.514	0.040	-0.110
-745.171	352.436	0.184	0.366
-744.156	-128.951	-0.012	0.002
-743.142	-125.472	0.196	-0.030
-742.127	-200.000	-0.017	-0.234
-741.112	616.754	-0.099	-0.250
-740.098	800.000	-0.063	0.220
-739.083	-48.419	-0.311	0.151
-738.069	34.614	0.283	-0.249
-737.054	800.000	-0.067	0.268
-736.039	60.368	-0.172	-0.171
-735.025	-155.051	0.300	0.020
-734.010	-41.232	-0.189	-0.098
-732.996	-53.188	-0.259	-0.120
-731.981	-65.812	0.157	0.063
-730.966	-175.454	0.240	-0.007
-729.952	-149.735	-0.214	-0.017
-728.937	146.880	0.065	-0.089
-727.923	-90.165	-0.304	0.089
-726.908	-200.000	-0.007	-0.048
-725.894	673.472	0.068	-0.177
-724.879	56.579	-0.268	0.262
-723.864	-17.003	-0.044	-0.028
-722.850	-81.343	0.279	0.092
-721.835	-200.000	-0.002	0.113
-720.821	-133.416	-0.384	-0.049
-719.806	-138.281	-0.128	-0.014
-718.791	-200.000	-0.010	-0.104
-717.777	800.000	0.050	0.164
-716.762	-14.962	0.243	-0.157
-715.748	146.765	0.014	0.018
-714.733	-150.865	0.174	0.013
-713.718	-86.209	0.152	0.047
-712.704	800.000	0.080	-0.286
-711.689	92.520	-0.077	0.087
-710.675	46.633	0.273	-0.255
-709.660	800.000	-0.006	0.025
-708.645	-20.465	-0.131	0.081
-707.631	-48.383	0.248	-0.120
-706.616	-172.407	-0.128	-0.004
-705.602	227.769	0.060	-0.098
-704.587	-125.697	0.076	0.012
-703.572	3.752	0.204	0.150
-702.558	112.528	0.262	0.319
-701.543	-200.000	0.082	0.421
-700.529	248.422	-0.155	0.264
-699.514	317.041	-0.259	-0.492
-698.499	-200.000	0.115	0.547
-697.485	326.670	0.097	0.186
-696.470	-200.000	0.025	0.264
-695.456	-200.000	-0.011	-0.262
-694.441	52.616	0.301	0.289
-693.426	-200.000	0.002	-0.035
-692.412	-54.620	0.300	0.136
-691.397	77.572	-0.227	0.243
-690.383	800.000	-0.049	0.162
-689.368	-71.977	0.040	0.015
-688.354	800.000	-0.112	0.426
-687.339	-42.363	0.263	0.135
-686.324	-98.709	-0.065	0.017
-685.310	800.000	-0.073	-0.290
-684.295	-125.861	-0.161	0.024
-683.281	342.179	0.066	0.130
-682.266	-200.000	0.009	-0.161
-681.251	-159.138	-0.196	-0.011
-680.237	-29.099	-0.284	0.163
-679.222	-125.607	0.170	0.026
-678.208	-167.384	0.153	-0.006
-677.193	-64.967	0.265	-0.107
-676.178	800.000	-0.053	-0.157
-675.164	8.183	-0.115	-0.087
-674.149	-200.000	-0.008	0.490
-673.135	64.963	-0.133	-0.135
-672.120	800.000	0.031	-0.094
-671.105	44.273	-0.176	-0.163
-670.091	800.000	-0.092	0.302
-669.076	-200.000	0.025	0.118
-668.062	800.000	0.067	-0.251
-667.047	-200.000	0.051	0.223
-666.032	60.566	-0.024	-0.024
-665.018	439.797	0.123	-0.270
-664.003	-200.000	-0.003	-0.221
-662.989	664.413	0.115	0.299
-661.974	-200.000	-0.046	0.221
-660.959	-76.413	-0.223	0.079
-659.945	-75.706	0.080	-0.028
-658.930	-186.594	0.167	0.002
-657.916	558.561	0.028	0.068
-656.901	-114.629	-0.127	-0.024
-655.886	716.073	0.077	0.204
-654.872	294.665	0.111	-0.204
-653.857	-75.225	-0.144	0.052
-652.843	-65.838	0.150	-0.060
-651.828	800.000	-0.119	-0.379
-650.814	-200.000	0.011	-0.119
-649.799	0.759	0.036	-0.026
-648.784	800.000	0.042	-0.148
-647.770	-200.000	-0.009	-0.057
-646.755	-183.848	-0.139	-0.002
-645.741	12.303	0.271	-0.209
-644.726	-200.000	-0.008	-0.279
-643.711	346.006	0.136	-0.268
-642.697	130.000	0.043	0.055
-641.682	-100.250	0.114	-0.028
-640.668	-127.207	-0.046	0.007
-639.653	567.002	-0.023	-0.055
-638.638	-18.942	0.179	0.111
-637.624	800.000	0.133	0.507
-636.609	-200.000	0.053	0.442
-635.595	800.000	-0.074	-0.208
-634.580	-41.524	0.063	0.032
-633.565	-14.384	-0.158	-0.102
-632.551	-175.693	-0.236	0.006
-631.536	238.228	-0.143	-0.239
-630.522	68.965	-0.182	-0.187
-629.507	58.402	0.349	-0.344
-628.492	800.000	-0.046	-0.165
-627.478	-200.000	-0.024	-0.160
-626.463	-45.840	-0.169	-0.083
-625.449	-9.137	-0.395	0.265
-624.434	800.000	-0.056	0.207
-623.419	-200.000	0.004	-0.272
-622.405	800.000	-0.051	-0.180
-621.390	151.635	0.122	-0.167
-620.376	701.713	-0.093	-0.245
-619.361	212.833	-0.209	-0.330
-618.346	147.059	0.084	-0.113
-617.332	164.684	-0.244	-0.345
-616.317	189.739	-0.060	0.090
-615.303	550.464	-0.055	-0.133
-614.288	-150.438	0.146	-0.011
-613.273	-125.229	-0.266	0.041
-612.259	800.000	-0.081	-0.298
-611.244	-200.000	0.007	-0.181
-610.230	115.011	0.318	-0.389
-609.215	13.207	0.288	0.223
-608.201	-73.818	-0.104	0.038
-607.186	-200.000	0.004	-0.040
-606.171	98.837	0.060	-0.069
-605.157	-148.502	0.240	-0.020
-604.142	-200.000	-0.014	0.279
-603.128	711.168	0.154	0.409
-602.113	-136.079	-0.514	-0.060
-601.098	-152.035	-0.450	-0.033
-600.084	26.194	0.094	-0.079
-599.069	433.207	0.070	-0.151
-598.055	-200.000	-0.081	0.369
-597.040	771.261	-0.073	-0.200
-596.025	467.447	-0.067	-0.150
-595.011	-111.862	-0.322	0.065
-593.996	281.677	-0.222	-0.399
-592.982	-14.238	-0.119	-0.077
-591.967	76.537	0.197	-0.209
-590.952	-60.993	0.126	0.053
-589.938	-125.578	-0.210	0.032
-588.923	-65.687	0.091	-0.037
-587.909	31.513	0.226	-0.194
-586.894	-200.000	-0.046	0.248
-585.879	44.269	-0.073	-0.067
-584.865	-200.000	0.070	0.369
-583.850	341.520	-0.035	-0.069
-582.836	750.892	-0.059	0.160
-581.821	-64.897	0.046	-0.019
-580.806	785.070	-0.009	-0.025
-579.792	-200.000	-0.042	-0.448
-578.777	650.088	0.037	-0.094
-577.763	60.871	0.188	0.187
-576.748	-64.480	-0.085	-0.035
-575.733	23.084	-0.084	0.069
-574.719	68.281	-0.162	-0.166
-573.704	151.910	0.115	0.157
-572.690	-200.000	0.023	-0.154
-571.675	-200.000	-0.004	-0.230
-570.661	83.301	0.068	-0.074
-569.646	-200.000	-0.066	0.386
-568.631	122.688	-0.100	0.125
-567.617	-200.000	0.016	0.083
-566.602	-200.000	-0.006	0.038
-565.588	-90.489	-0.243	0.070
-564.573	-20.746	-0.126	-0.077
-563.558	-200.000	0.001	-0.397
-562.544	-127.146	0.285	0.042
-561.529	-138.127	-0.455	-0.051
-560.515	-147.634	0.163	-0.014
-559.500	122.363	0.265	-0.331
-558.485	-200.000	-0.020	-0.458
-557.471	-127.548	0.411	-0.060
-556.456	-200.000	0.016	-0.091
-555.442	-118.142	-0.243	-0.043
-554.427	-200.000	-0.044	0.000
-553.412	238.665	-0.144	-0.239
-552.398	105.372	0.301	0.355
-551.383	-183.410	-0.248	0.004
-550.369	349.739	-0.100	-0.197
-549.354	-40.453	-0.077	0.040
-548.339	-13.237	-0.169	0.109
-547.325	-181.988	-0.266	-0.005
-546.310	35.893	-0.098	-0.086
-545.296	63.002	0.094	0.094
-544.281	800.000	0.094	0.354
-543.266	-161.450	-0.086	-0.004
-542.252	-200.000	-0.025	-0.180
-541.237	91.456	0.228	0.256
-540.223	104.537	-0.127	0.149
-539.208	79.744	-0.097	-0.104
-538.193	-159.179	-0.067	-0.004
-537.179	-200.000	0.027	0.186
-536.164	-35.673	-0.227	0.123
-535.150	-32.101	-0.164	0.092
-534.135	13.781	-0.245	0.190
-533.121	240.880	-0.249	0.415
-532.106	-51.540	0.078	-0.036
-531.091	-42.323	0.031	-0.016
-530.077	638.230	-0.092	-0.234
-529.062	-200.000	-0.001	-0.236
-528.048	376.798	0.187	-0.382
-527.033	-200.000	0.015	0.103
-526.018	177.519	-0.130	-0.189
-525.004	-147.704	0.103	-0.009
-523.989	-39.585	-0.106	0.056
-522.975	108.978	-0.280	-0.334
-521.960	89.973	-0.220	0.245
-520.945	91.186	-0.202	0.226
-519.931	800.000	-0.115	0.319
-518.916	-200.000	-0.032	0.227
-517.902	141.017	-0.216	0.285
-516.887	-200.000	0.024	-0.211
-515.872	128.919	0.107	-0.136
-514.858	196.504	0.167	-0.254
-513.843	-200.000	-0.077	0.558
-512.829	67.200	-0.082	-0.083
-511.814	-79.390	-0.195	-0.066
-510.799	800.000	0.062	-0.222
-509.785	800.000	-0.066	0.216
-508.770	-64.571	-0.131	-0.053
-507.756	-200.000	0.022	-0.271
-506.741	489.318	0.121	0.277
-505.726	183.050	0.192	-0.283
-504.712	800.000	0.074	0.247
-503.697	800.000	0.102	0.342
-502.683	74.094	0.282	0.295
-501.668	322.884	0.047	-0.090
-500.653	-134.239	-0.232	-0.028
-499.639	-70.604	-0.090	0.034
-498.624	44.966	0.023	0.021
-497.610	13.600	0.180	-0.139
-496.595	800.000	-0.062	-0.268
-495.581	-86.166	0.046	-0.014
-494.566	158.343	-0.216	-0.299
-493.551	196.666	-0.101	-0.154
-492.537	-200.000	-0.019	-0.254
-491.522	800.000	0.018	-0.049
-490.508	-119.809	-0.273	-0.047
-489.493	800.000	-0.011	0.042
-488.478	-113.361	0.336	0.066
-487.464	145.750	0.073	0.097
-486.449	112.715	0.140	-0.169
-485.435	-154.889	-0.188	0.012
-484.420	-129.109	-0.095	-0.013
-483.405	-101.942	-0.202	0.049
-482.391	-200.000	-0.006	-0.114
-481.376	800.000	-0.148	-0.419
-480.362	75.443	0.229	0.241
-479.347	-200.000	-0.022	0.519
-478.332	107.505	-0.180	0.214
-477.318	-118.069	-0.086	-0.015
-476.303	-62.496	0.385	0.159
-475.289	-200.000	-0.012	0.086
-474.274	-60.079	-0.264	-0.112
-473.259	-64.834	0.131	0.053
-472.245	554.194	-0.078	-0.188
-471.230	-200.000	-0.018	0.180
-470.216	-45.311	-0.284	0.141
-469.201	-23.358	-0.094	0.056
-468.186	552.095	0.015	0.036
-467.172	81.393	-0.118	-0.127
-466.157	145.984	-0.263	-0.351
-465.143	32.468	0.396	-0.341
-464.128	-144.657	0.320	-0.029
-463.113	446.081	0.073	0.160
-462.099	217.743	0.093	-0.148
-461.084	-200.000	-0.077	0.351
-460.070	300.574	-0.113	-0.207
-459.055	-200.000	-0.017	-0.185
-458.040	-43.164	0.174	0.088
-457.026	-114.875	-0.194	0.037
-456.011	126.475	0.066	0.083
-454.997	504.471	-0.162	-0.373
-453.982	100.262	0.117	-0.135
-452.968	800.000	-0.069	-0.200
-451.953	602.886	0.113	-0.280
-450.938	-137.807	0.108	0.012
-449.924	-129.729	-0.158	0.022
-448.909	-125.629	0.204	0.031
-447.895	-200.000	-0.007	-0.154
-446.880	-1.113	-0.130	-0.092
-445.865	-113.298	0.327	-0.064
-444.851	38.654	-0.270	-0.240
-443.836	800.000	-0.083	-0.311
-442.822	-58.807	0.414	-0.178
-441.807	-200.000	-0.011	-0.059
-440.792	-49.337	0.203	-0.096
-439.778	800.000	0.105	-0.370
-438.763	-54.374	-0.156	0.070
-437.749	-89.046	0.173	0.051
-436.734	34.595	-0.101	-0.088
-435.719	800.000	0.047	-0.144
-434.705	52.033	0.307	-0.291
-433.690	202.998	0.134	-0.206
-432.676	-29.496	-0.261	-0.148
-431.661	-200.000	-0.087	0.380
-430.646	-200.000	-0.099	0.528
-429.632	-54.763	-0.189	0.085
-428.617	298.076	-0.137	0.250
-427.603	-117.471	0.127	-0.023
-426.588	285.641	-0.053	-0.096
-425.573	53.664	-0.089	-0.085
-424.559	298.450	0.093	-0.171
-423.544	-200.000	0.053	0.286
-422.530	-86.440	0.158	-0.048
-421.515	255.013	0.150	-0.256
-420.500	-1.024	-0.239	0.168
-419.486	418.501	-0.058	-0.124
-418.471	665.964	0.089	-0.229
-417.457	-143.708	-0.211	-0.020
-416.442	80.780	-0.080	-0.086
-415.428	631.814	-0.131	-0.329
-414.413	800.000	0.076	-0.255
-413.398	22.408	0.118	0.096
-412.384	428.657	-0.128	-0.275
-411.369	-131.707	0.071	0.009
-410.355	800.000	-0.030	0.123
-409.340	-122.954	0.208	-0.033
-408.325	800.000	0.063	-0.256
-407.311	15.055	0.059	0.046
-406.296	-129.627	-0.255	-0.035
-405.282	-80.557	0.388	0.129
-404.267	-113.735	0.187	-0.036
-403.252	315.485	-0.023	0.043
-402.238	-107.776	0.255	-0.055
-401.223	11.555	0.047	0.035
-400.209	106.050	0.134	-0.157
-399.194	-116.393	-0.239	-0.044
-398.179	-94.728	0.414	0.112
-397.165	-110.316	-0.224	-0.046
-396.150	88.343	-0.026	-0.029
-395.136	-156.158	0.168	0.011
-394.121	214.956	-0.088	-0.139
-393.106	-200.000	0.034	0.316
-392.092	-171.309	-0.216	-0.007
-391.077	-200.000	-0.071	-0.342
-390.063	50.596	-0.160	0.150
-389.048	800.000	-0.079	0.228
-388.033	128.121	0.157	0.198
-387.019	-200.000	0.014	0.185
-386.004	141.530	0.085	-0.112
-384.990	800.000	0.014	0.042
-383.975	-51.935	0.152	-0.070
-382.960	-21.289	-0.158	-0.096
-381.946	-104.493	0.234	0.054
-380.931	-59.374	0.105	0.045
-379.917	-200.000	-0.026	0.412
-378.902	-137.909	-0.143	0.016
-377.888	-137.684	-0.205	0.023
-376.873	-55.178	-0.087	0.039
-375.858	-200.000	-0.043	-0.190
-374.844	-51.722	0.429	-0.199
-373.829	-7.979	-0.067	-0.045
-372.815	800.000	0.068	-0.196
-371.800	800.000	0.045	-0.194
-370.785	633.523	0.087	0.219
-369.771	800.000	-0.106	0.357
-368.756	29.259	-0.173	-0.146
-367.742	800.000	0.087	0.238
-366.727	386.799	-0.201	0.412
-365.712	-77.788	0.212	0.073
-364.698	-200.000	0.012	0.313
-363.683	0.353	-0.157	0.111
-362.669	31.215	-0.170	-0.145
-361.654	800.000	-0.051	-0.175
-360.639	41.895	-0.100	-0.090
-359.625	162.029	0.166	-0.231
-358.610	-200.000	-0.020	0.352
-357.596	-200.000	0.100	0.000
-356.581	-200.000	0.001	-0.121
-355.566	-65.843	0.097	-0.038
-354.552	677.497	-0.132	0.341
-353.537	117.411	0.122	-0.149
-352.523	79.707	-0.011	0.012
-351.508	88.727	-0.104	-0.115
-350.493	-200.000	0.009	0.145
-349.479	521.685	0.077	0.180
-348.464	-11.964	0.400	-0.260
-347.450	-200.000	0.042	-0.224
-346.435	28.328	-0.074	0.062
-345.420	417.410	0.019	0.041
-344.406	-142.111	0.090	-0.009
-343.391	-141.394	0.296	0.030
-342.377	800.000	-0.057	-0.193
-341.362	6.975	0.065	0.048
-340.348	-19.252	0.053	-0.033
-339.333	-200.000	-0.019	0.111
-338.318	75.526	0.119	-0.124
-337.304	337.996	0.053	-0.102
-336.289	800.000	0.078	0.289
-335.275	28.898	-0.392	0.329
-334.260	-113.706	0.224	-0.043
-333.245	298.128	-0.014	0.026
-332.231	223.511	-0.074	-0.119
-331.216	-22.183	0.182	-0.110
-330.202	173.879	-0.146	0.209
-329.187	-200.000	-0.005	0.142
-328.172	67.545	-0.211	-0.214
-327.158	800.000	0.062	0.170
-326.143	39.869	0.331	0.294
-325.129	-9.861	-0.182	-0.120
-324.114	-74.146	0.181	0.065
-323.099	-50.481	-0.197	-0.092
-322.085	602.251	-0.049	0.121
-321.070	-29.233	0.253	0.144
-320.056	-160.113	0.375	-0.020
-319.041	77.761	0.161	-0.170
-318.026	280.509	0.090	0.160
-317.012	1.592	-0.176	-0.126
-315.997	290.262	-0.134	0.240
-314.983	800.000	-0.024	0.074
-313.968	-12.642	-0.132	-0.085
-312.953	-112.023	0.119	0.024
-311.939	-46.171	-0.249	-0.121
-310.924	74.513	0.134	0.139
-309.910	15.905	0.208	0.162
-308.895	-200.000	-0.033	-0.193
-307.880	-54.835	-0.052	-0.023
-306.866	800.000	0.073	-0.282
-305.851	-71.179	-0.098	0.036
-304.837	-154.118	-0.189	-0.013
-303.822	-200.000	0.011	0.175
-302.807	-200.000	0.037	-0.206
-301.793	186.728	0.093	-0.137
-300.778	481.084	-0.158	0.356
-299.764	381.900	0.164	0.334
-298.749	-106.905	0.297	0.065
-297.735	-200.000	-0.013	0.271
-296.720	-200.000	0.019	0.308
-295.705	176.946	-0.143	0.206
-294.691	800.000	0.074	-0.291
-293.676	800.000	-0.023	0.080
-292.662	-50.381	-0.155	0.073
-291.647	3.092	-0.096	-0.069
-290.632	359.542	-0.030	0.060
-289.618	257.096	0.081	0.138
-288.603	132.916	0.112	0.143
-287.589	-152.306	0.218	0.016
-286.574	-95.354	-0.487	-0.130
-285.559	17.865	0.107	-0.084
-284.545	101.962	0.248	-0.286
-283.530	-200.000	-0.041	-0.180
-282.516	-169.282	-0.201	-0.007
-281.501	246.773	0.174	0.291
-280.486	221.046	0.083	-0.132
-279.472	-200.000	0.033	-0.241
-278.457	-200.000	0.001	0.209
-277.443	499.721	-0.103	-0.234
-276.428	-169.321	0.299	0.011
-275.413	-200.000	0.001	-0.032
-274.399	45.236	0.082	0.075
-273.384	256.288	0.150	0.254
-272.370	-200.000	0.011	-0.317
-271.355	-91.297	-0.507	0.144
-270.340	-200.000	0.003	-0.192
-269.326	-200.000	0.025	-0.252
-268.311	41.324	-0.073	-0.065
-267.297	-182.575	0.099	0.002
-266.282	-37.743	0.038	-0.020
-265.267	11.339	-0.108	-0.082
-264.253	-62.583	0.186	0.076
-263.238	-113.206	-0.318	0.062
-262.224	-22.387	0.107	0.064
-261.209	-200.000	0.025	-0.128
-260.195	117.916	-0.199	-0.243
-259.180	-200.000	-0.037	0.359
-258.165	-200.000	0.020	0.095
-257.151	17.877	-0.038	0.030
-256.136	-200.000	-0.041	0.216
-255.122	-21.151	0.116	-0.070
-254.107	233.397	0.128	0.208
-253.092	206.671	0.034	-0.052
-252.078	-83.762	-0.233	0.073
-251.063	-130.994	0.206	-0.027
-250.049	-97.527	0.212	-0.054
-249.034	-200.000	0.013	0.245
-248.019	-125.636	0.058	0.009
-247.005	280.963	-0.120	-0.212
-245.990	128.874	0.233	0.294
-244.976	-200.000	0.020	-0.145
-243.961	-200.000	-0.015	-0.158
-242.946	-59.738	0.067	-0.028
-241.932	-200.000	0.028	0.326
-240.917	-142.457	-0.182	0.018
-239.903	550.576	-0.148	0.350
-238.888	-200.000	-0.012	-0.368
-237.873	198.485	-0.229	0.346
-236.859	384.002	-0.142	0.289
-235.844	-19.977	0.108	-0.066
-234.830	800.000	0.017	0.066
-233.815	-200.000	0.026	-0.260
-232.800	-140.614	0.381	-0.039
-231.786	-15.200	0.236	-0.149
-230.771	-87.668	0.318	0.095
-229.757	-8.411	0.269	0.178
-228.742	-200.000	-0.068	-0.384
-227.727	603.886	-0.030	0.075
-226.713	94.104	0.181	0.203
-225.698	-200.000	-0.007	-0.237
-224.684	675.268	0.153	-0.391
-223.669	-200.000	0.012	0.248
-222.655	-200.000	-0.030	0.305
-221.640	800.000	0.048	0.191
-220.625	-25.017	-0.149	0.087
-219.611	-72.751	0.168	0.061
-218.596	-115.045	0.082	-0.015
-217.582	800.000	-0.007	-0.021
-216.567	-125.007	0.191	0.029
-215.552	-16.157	0.083	0.052
-214.538	159.733	0.024	0.032
-213.523	-119.125	0.326	0.056
-212.509	-52.322	0.147	0.067
-211.494	-200.000	-0.041	-0.356
-210.479	800.000	-0.059	0.218
-209.465	800.000	0.061	-0.255
-208.450	48.391	0.156	-0.144
-207.436	191.870	-0.154	0.229
-206.421	-14.200	-0.078	-0.050
-205.406	-133.840	-0.176	0.022
-204.392	-28.426	-0.278	0.158
-203.377	-88.038	0.332	-0.098
-202.363	-200.000	-0.011	0.405
-201.348	463.057	-0.013	0.029
-200.333	-200.000	-0.001	-0.211
-199.319	101.186	-0.195	0.224
-198.304	791.239	0.088	-0.239
-197.290	-98.470	0.058	0.015
-196.275	-34.093	0.091	-0.049
-195.260	12.361	0.273	0.208
-194.246	43.282	0.133	0.120
-193.231	-0.711	-0.216	-0.151
-192.217	-200.000	-0.087	0.427
-191.202	270.031	0.160	0.278
-190.187	-39.908	-0.123	0.063
-189.173	800.000	0.020	-0.076
-188.158	-96.195	0.099	0.026
-187.144	525.698	-0.093	0.216
-186.129	589.476	-0.051	0.124
-185.114	422.984	-0.038	0.080
-184.100	-142.665	-0.139	0.013
-183.085	-157.507	-0.212	0.013
-182.071	-63.377	-0.224	-0.091
-181.056	162.262	0.178	0.246
-180.042	-118.258	0.113	0.020
-179.027	-52.906	-0.332	-0.151
-178.012	214.251	-0.226	0.352
-176.998	-200.000	0.068	0.471
-175.983	-102.688	-0.193	0.045
-174.969	90.553	-0.092	0.102
-173.954	66.288	0.121	-0.121
-172.939	41.746	-0.188	0.167
-171.925	-200.000	-0.002	0.076
-170.910	167.293	0.220	0.307
-169.896	84.501	0.253	-0.273
-168.881	-153.663	-0.119	0.008
-167.866	-3.069	0.376	0.258
-166.852	243.870	0.076	0.126
-165.837	-200.000	0.028	0.439
-164.823	447.337	-0.035	-0.077
-163.808	-115.417	-0.154	0.029
-162.793	-200.000	0.018	-0.150
-161.779	-113.073	0.350	-0.068
-160.764	64.067	-0.179	0.178
-159.750	-49.653	0.011	-0.005
-158.735	-10.698	0.356	-0.232
-157.720	-111.687	0.256	-0.051
-156.706	-200.000	0.001	0.379
-155.691	800.000	-0.046	0.175
-154.677	800.000	0.022	0.067
-153.662	-60.557	-0.217	0.090
-152.647	48.598	-0.322	-0.297
-151.633	188.306	-0.167	0.246
-150.618	800.000	0.035	-0.142
-149.604	-47.707	-0.153	0.073
-148.589	-200.000	0.084	-0.528
-147.574	114.872	-0.216	-0.259
-146.560	31.433	0.144	-0.122
-145.545	291.491	-0.065	0.116
-144.531	-200.000	0.030	0.249
-143.516	-200.000	0.012	0.195
-142.502	-81.635	0.296	-0.096
-141.487	-144.962	0.074	0.007
-140.472	-14.757	-0.167	0.105
-139.458	52.756	0.195	0.183
-138.443	-138.869	0.195	0.021
-137.429	-85.718	0.086	-0.026
-136.414	734.423	0.066	0.175
-135.399	133.356	-0.193	0.245
-134.385	-200.000	-0.003	0.193
-133.370	272.070	-0.094	-0.164
-132.356	-42.895	-0.347	-0.173
-131.341	36.799	0.364	-0.316
-130.326	-122.107	-0.107	0.017
-129.312	162.944	0.140	0.194
-128.297	800.000	-0.032	-0.095
-127.283	-29.513	-0.175	0.098
-126.268	-27.287	-0.347	-0.199
-125.253	-200.000	-0.024	0.445
-124.239	-161.038	-0.148	0.008
-123.224	51.740	-0.261	-0.244
