DTS Sentinel unit serial number:	SN413079Multiplexer serial number:	ORYXHardware model number:	OX4-SRSoftware version number:	ORYX F/W v4.00 Oryx Data Collector v3.7.2.0data status	okinstallation	princeton_trtdifferential loss correction	single-endedforward channel	channel 2reverse channel	N/Adate	2019/09/14time	05:19:34forward acquisition time	60.00reverse acquisition time	0.00gamma	496.2192k internal	0.2335k external	0.2335temperature offset calibration	1.0130default loss term (dB/km)	0.3790temperature slope calibration	1.0000multiplexer offset coefficient	1.0000multiplexer slope coefficient	1.0000fibre end	0.00T internal ref (°C)	26.92T ext. ref 1 (°C)	3.39T ext. ref 2 (°C)	21.95length (m)	temperature (°C)	Stokes	anti-Stokes-747.200	-200.000	-0.025	0.112
-746.185	-49.640	-0.127	-0.061
-745.171	189.031	-0.105	-0.158
-744.156	117.391	0.097	-0.119
-743.142	-40.712	-0.237	0.123
-742.127	419.348	0.090	0.194
-741.112	646.877	0.087	-0.224
-740.098	39.156	0.080	0.071
-739.083	22.639	-0.140	0.115
-738.069	368.036	0.020	0.041
-737.054	-27.629	0.124	-0.072
-736.039	225.649	0.081	0.131
-735.025	15.226	0.249	0.196
-734.010	-143.512	-0.274	0.026
-732.996	132.077	0.289	-0.373
-731.981	-134.477	0.215	0.026
-730.966	-60.531	-0.233	0.099
-729.952	-200.000	-0.016	-0.074
-728.937	566.931	0.090	0.219
-727.923	84.483	0.076	0.084
-726.908	12.284	0.300	0.232
-725.894	-200.000	0.030	-0.173
-724.879	78.055	0.145	0.156
-723.864	4.980	-0.092	0.068
-722.850	-200.000	0.034	0.288
-721.835	87.605	0.021	0.023
-720.821	177.254	-0.158	0.231
-719.806	10.604	-0.100	0.077
-718.791	800.000	-0.087	-0.248
-717.777	-200.000	-0.007	-0.215
-716.762	-129.469	-0.266	-0.037
-715.748	-200.000	-0.036	0.206
-714.733	467.311	0.103	-0.231
-713.718	-200.000	-0.045	-0.212
-712.704	12.791	-0.065	0.050
-711.689	800.000	-0.102	-0.319
-710.675	2.441	0.249	-0.181
-709.660	800.000	-0.080	-0.292
-708.645	778.482	-0.122	-0.335
-707.631	-76.775	-0.067	-0.024
-706.616	-69.953	0.187	0.071
-705.602	-200.000	0.005	-0.103
-704.587	-157.191	0.386	-0.024
-703.572	-28.829	-0.251	0.145
-702.558	800.000	-0.055	-0.217
-701.543	-200.000	0.014	0.418
-700.529	-33.728	0.053	0.029
-699.514	728.451	-0.092	-0.246
-698.499	42.352	0.168	-0.153
-697.485	315.877	0.130	-0.245
-696.470	-47.104	0.160	0.078
-695.456	800.000	0.087	0.298
-694.441	-80.529	-0.057	-0.019
-693.426	800.000	-0.046	-0.198
-692.412	-21.246	0.130	0.080
-691.397	-23.706	0.059	0.036
-690.383	-200.000	0.017	0.084
-689.368	-121.213	0.127	0.021
-688.354	-200.000	-0.020	0.192
-687.339	44.114	0.177	-0.163
-686.324	-200.000	-0.005	0.053
-685.310	784.609	0.088	0.241
-684.295	800.000	0.040	0.167
-683.281	-200.000	0.050	-0.289
-682.266	800.000	-0.031	-0.086
-681.251	353.707	-0.173	-0.344
-680.237	635.110	-0.055	0.140
-679.222	95.939	-0.118	-0.136
-678.208	-113.463	0.094	-0.018
-677.193	-137.062	0.285	0.033
-676.178	725.176	-0.048	-0.129
-675.164	-120.990	0.311	0.052
-674.149	37.372	0.137	-0.122
-673.135	10.553	0.088	-0.067
-672.120	-106.438	-0.195	-0.044
-671.105	-200.000	-0.068	0.347
-670.091	-41.038	-0.066	0.034
-669.076	-42.895	0.151	0.077
-668.062	-200.000	-0.023	-0.131
-667.047	13.628	-0.047	-0.037
-666.032	-151.757	-0.358	-0.026
-665.018	81.639	0.146	-0.158
-664.003	118.832	0.206	-0.255
-662.989	40.946	0.195	0.176
-661.974	420.501	0.126	0.270
-660.959	-121.364	-0.122	-0.020
-659.945	-65.258	-0.179	0.072
-658.930	-200.000	0.006	-0.129
-657.916	-200.000	0.050	-0.386
-656.901	800.000	0.040	-0.171
-655.886	101.683	0.040	0.047
-654.872	-200.000	-0.048	-0.000
-653.857	-200.000	-0.010	0.092
-652.843	-35.712	-0.204	-0.111
-651.828	319.875	-0.064	-0.122
-650.814	98.869	0.175	-0.202
-649.799	318.167	-0.008	-0.014
-648.784	-200.000	0.017	0.236
-647.770	27.657	0.226	-0.191
-646.755	-97.309	-0.153	0.040
-645.741	-79.975	-0.276	0.093
-644.726	84.945	0.180	-0.197
-643.711	-131.692	-0.186	0.024
-642.697	19.908	-0.096	-0.078
-641.682	127.386	0.257	0.326
-640.668	59.560	0.105	0.103
-639.653	-200.000	0.009	0.173
-638.638	-128.878	0.172	0.024
-637.624	-13.444	-0.041	0.027
-636.609	-108.268	-0.116	-0.025
-635.595	-23.475	0.274	-0.165
-634.580	-0.060	0.221	-0.157
-633.565	116.199	-0.163	-0.200
-632.551	-200.000	-0.046	-0.258
-631.536	524.548	-0.130	0.306
-630.522	86.777	0.215	-0.237
-629.507	-158.341	0.364	-0.021
-628.492	165.719	-0.090	0.127
-627.478	-200.000	0.023	-0.407
-626.463	800.000	0.079	0.296
-625.449	-200.000	-0.002	0.118
-624.434	-200.000	-0.050	-0.279
-623.419	-72.161	-0.087	-0.032
-622.405	-9.943	-0.225	0.150
-621.390	800.000	0.094	-0.272
-620.376	403.915	-0.089	0.188
-619.361	104.754	-0.132	0.155
-618.346	-154.532	-0.298	0.020
-617.332	11.714	-0.093	0.071
-616.317	240.745	-0.119	-0.199
-615.303	800.000	-0.087	-0.246
-614.288	-106.446	-0.130	0.029
-613.273	-124.528	-0.079	-0.012
-612.259	-105.666	-0.157	0.035
-611.244	-70.460	-0.229	-0.087
-610.230	31.978	0.276	-0.238
-609.215	-200.000	0.018	-0.100
-608.201	260.461	0.138	-0.238
-607.186	-200.000	0.076	0.414
-606.171	573.018	-0.031	0.076
-605.157	48.462	-0.264	-0.247
-604.142	-200.000	-0.030	0.255
-603.128	197.123	0.159	-0.242
-602.113	-91.690	-0.340	-0.097
-601.098	25.239	-0.120	-0.099
-600.084	168.043	0.085	0.121
-599.069	-58.962	0.267	0.115
-598.055	569.545	-0.131	0.318
-597.040	173.950	0.077	0.110
-596.025	380.061	0.066	0.135
-595.011	-14.344	-0.470	0.302
-593.996	37.081	0.112	0.099
-592.982	-5.178	0.118	-0.081
-591.967	17.898	-0.177	-0.141
-590.952	201.731	0.090	-0.139
-589.938	-40.962	-0.230	-0.119
-588.923	124.959	-0.131	0.165
-587.909	800.000	-0.080	0.297
-586.894	59.954	0.122	-0.121
-585.879	800.000	0.085	0.287
-584.865	422.651	0.097	-0.207
-583.850	713.822	-0.083	-0.220
-582.836	-80.965	-0.292	0.096
-581.821	190.064	-0.299	0.447
-580.806	-66.321	0.099	-0.039
-579.792	-157.310	0.182	-0.011
-578.777	-10.678	0.258	-0.170
-577.763	-200.000	-0.001	0.048
-576.748	-81.662	0.130	-0.043
-575.733	800.000	0.108	-0.355
-574.719	-135.182	0.021	-0.002
-573.704	-200.000	-0.034	0.154
-572.690	47.264	-0.200	-0.186
-571.675	-169.282	0.177	-0.007
-570.661	800.000	-0.082	0.353
-569.646	122.871	-0.207	-0.259
-568.631	88.689	-0.170	-0.189
-567.617	-60.288	0.154	-0.065
-566.602	395.077	0.236	-0.491
-565.588	17.417	0.260	0.206
-564.573	-106.110	-0.403	-0.090
-563.558	273.662	-0.055	-0.096
-562.544	344.533	-0.130	-0.254
-561.529	265.931	0.091	0.158
-560.515	-135.410	-0.414	-0.049
-559.500	55.364	-0.188	-0.182
-558.485	800.000	-0.069	-0.232
-557.471	-5.141	-0.145	-0.099
-556.456	-200.000	0.037	-0.380
-555.442	-200.000	-0.049	-0.261
-554.427	-56.384	0.386	-0.171
-553.412	621.227	-0.144	0.361
-552.398	45.301	0.127	0.117
-551.383	-142.687	-0.103	-0.010
-550.369	800.000	0.055	-0.157
-549.354	-200.000	0.082	0.421
-548.339	20.876	-0.014	0.011
-547.325	-61.245	-0.221	0.093
-546.310	-200.000	-0.022	0.222
-545.296	415.027	0.111	-0.236
-544.281	-200.000	-0.008	-0.093
-543.266	-200.000	0.046	0.202
-542.252	-96.557	0.228	-0.060
-541.237	381.258	0.080	-0.165
-540.223	12.121	0.138	-0.106
-539.208	44.093	0.132	-0.120
-538.193	-36.071	-0.211	-0.114
-537.179	-154.797	-0.131	0.009
-536.164	-100.279	0.106	-0.026
-535.150	-120.423	-0.249	0.042
-534.135	800.000	-0.038	0.137
-533.121	419.552	0.171	-0.364
-532.106	86.664	0.069	0.076
-531.091	221.874	0.104	0.167
-530.077	-185.798	-0.153	0.002
-529.062	-200.000	-0.012	-0.163
-528.048	-121.236	0.270	-0.045
-527.033	236.405	0.138	0.227
-526.018	202.878	0.022	-0.033
-525.004	41.670	0.060	-0.054
-523.989	-163.535	-0.413	0.019
-522.975	-29.095	0.255	-0.146
-521.960	-200.000	-0.006	-0.205
-520.945	-88.770	-0.079	-0.023
-519.931	-188.550	0.088	0.001
-518.916	23.862	-0.132	0.108
-517.902	126.374	-0.087	-0.110
-516.887	126.434	-0.005	-0.006
-515.872	1.991	0.321	-0.230
-514.858	49.619	-0.173	-0.162
-513.843	485.525	-0.119	0.270
-512.829	-112.596	0.250	-0.050
-511.814	800.000	0.062	0.235
-510.799	-89.311	-0.253	-0.074
-509.785	800.000	0.083	-0.291
-508.770	267.963	0.024	0.042
-507.756	800.000	-0.056	-0.219
-506.741	800.000	0.075	0.306
-505.726	-93.694	0.189	-0.052
-504.712	-85.587	0.083	0.026
-503.697	-200.000	-0.092	0.419
-502.683	390.013	0.134	0.276
-501.668	800.000	0.045	-0.186
-500.653	178.795	-0.048	0.069
-499.639	66.202	0.121	0.122
-498.624	-65.404	0.192	0.077
-497.610	-200.000	-0.012	-0.068
-496.595	115.290	0.134	-0.163
-495.581	38.647	0.198	-0.176
-494.566	-40.310	0.237	0.123
-493.551	-58.075	-0.161	0.070
-492.537	77.996	-0.084	-0.089
-491.522	109.845	-0.164	0.196
-490.508	800.000	-0.065	-0.233
-489.493	540.968	0.052	-0.124
-488.478	-200.000	0.055	0.293
-487.464	-200.000	0.004	-0.149
-486.449	201.430	-0.070	0.107
-485.435	345.063	0.105	-0.204
-484.420	240.708	0.080	0.132
-483.405	24.059	-0.290	-0.238
-482.391	343.942	-0.115	0.223
-481.376	36.403	0.242	0.212
-480.362	7.388	0.117	0.087
-479.347	-193.694	-0.269	0.002
-478.332	401.121	0.102	0.214
-477.318	800.000	0.033	0.129
-476.303	800.000	0.109	-0.362
-475.289	41.895	0.089	-0.081
-474.274	-148.677	-0.376	-0.030
-473.259	69.118	0.131	0.134
-472.245	-158.219	-0.112	-0.007
-471.230	-92.989	-0.148	-0.041
-470.216	-200.000	-0.021	-0.099
-469.201	-200.000	0.004	-0.171
-468.186	800.000	-0.076	-0.228
-467.172	365.472	-0.239	0.479
-466.157	-38.693	-0.280	-0.147
-465.143	-200.000	-0.005	0.112
-464.128	5.680	-0.100	-0.073
-463.113	9.078	0.140	0.105
-462.099	87.112	-0.246	-0.270
-461.084	-200.000	0.035	0.204
-460.070	-200.000	-0.029	-0.135
-459.055	15.892	0.176	-0.137
-458.040	-152.331	-0.081	-0.006
-457.026	-200.000	-0.001	-0.146
-456.011	-147.394	0.190	-0.016
-454.997	800.000	-0.052	-0.195
-453.982	800.000	0.048	-0.163
-452.968	-93.887	-0.454	0.124
-451.953	800.000	0.086	-0.330
-450.938	800.000	-0.016	0.044
-449.924	-88.882	0.133	-0.039
-448.909	648.650	0.075	-0.190
-447.895	800.000	-0.027	-0.076
-446.880	23.246	-0.084	-0.068
-445.865	-114.990	0.040	0.008
-444.851	-200.000	0.016	-0.190
-443.836	-200.000	0.027	-0.207
-442.822	190.200	0.051	0.075
-441.807	-123.741	0.116	0.018
-440.792	-72.992	-0.236	0.086
-439.778	17.333	-0.270	0.213
-438.763	-127.995	-0.138	-0.020
-437.749	766.489	-0.044	0.119
-436.734	380.341	0.069	0.140
-435.719	98.971	0.109	-0.125
-434.705	-5.712	0.044	0.030
-433.690	81.245	-0.196	-0.210
-432.676	38.572	0.262	-0.232
-431.661	-71.703	-0.184	0.068
-430.646	-200.000	-0.067	-0.313
-429.632	3.709	0.197	-0.143
-428.617	800.000	-0.007	0.031
-427.603	261.539	0.158	0.272
-426.588	800.000	-0.034	-0.112
-425.573	-84.092	0.381	0.120
-424.559	0.606	-0.271	-0.192
-423.544	65.826	0.041	0.041
-422.530	800.000	0.080	0.237
-421.515	800.000	-0.104	0.290
-420.500	-155.696	-0.305	-0.019
-419.486	-200.000	0.063	0.351
-418.471	-22.881	0.156	0.093
-417.457	-2.099	-0.226	-0.157
-416.442	70.698	-0.110	-0.113
-415.428	-1.696	-0.177	-0.124
-414.413	60.599	-0.209	0.205
-413.398	47.481	-0.250	0.231
-412.384	-123.662	0.351	0.055
-411.369	11.765	0.355	0.270
-410.355	800.000	-0.057	0.203
-409.340	-24.118	-0.325	-0.192
-408.325	265.800	-0.019	-0.034
-407.311	132.882	0.138	0.176
-406.296	-19.201	0.211	0.130
-405.282	65.190	0.107	0.108
-404.267	-146.272	0.221	-0.019
-403.252	55.172	0.211	0.202
-402.238	128.002	0.144	0.181
-401.223	-61.012	0.181	0.076
-400.209	-148.521	0.311	-0.025
-399.194	-182.385	0.412	-0.008
-398.179	-23.172	-0.193	0.115
-397.165	800.000	0.067	-0.268
-396.150	39.630	-0.133	0.118
-395.136	150.221	0.149	-0.200
-394.121	15.614	-0.085	-0.066
-393.106	-200.000	-0.028	0.152
-392.092	93.529	0.218	0.245
-391.077	800.000	-0.052	0.189
-390.063	-200.000	0.037	-0.230
-389.048	30.503	0.162	-0.138
-388.033	-178.724	0.044	-0.001
-387.019	-200.000	-0.052	-0.404
-386.004	-92.909	-0.065	0.018
-384.990	-200.000	0.014	-0.106
-383.975	246.037	0.134	0.223
-382.960	8.917	-0.105	-0.078
-381.946	92.803	-0.206	0.230
-380.931	228.821	-0.095	0.153
-379.917	-200.000	-0.012	0.122
-378.902	99.844	0.185	0.212
-377.888	86.004	-0.128	-0.140
-376.873	192.777	0.205	-0.307
-375.858	-5.913	0.236	0.160
-374.844	180.415	0.149	0.216
-373.829	168.219	0.117	0.166
-372.815	-129.609	-0.167	-0.023
-371.800	-73.477	0.136	0.049
-370.785	125.859	0.261	0.327
-369.771	-17.805	0.283	-0.176
-368.756	-200.000	-0.005	-0.109
-367.742	-101.873	-0.068	0.016
-366.727	-200.000	-0.003	-0.208
-365.712	-43.529	-0.372	-0.186
-364.698	-200.000	0.020	-0.139
-363.683	755.529	0.062	-0.165
-362.669	4.530	-0.096	-0.070
-361.654	390.072	-0.101	-0.208
-360.639	-146.864	-0.355	-0.030
-359.625	-200.000	-0.024	-0.326
-358.610	-170.015	0.105	-0.004
-357.596	-136.618	0.276	-0.032
-356.581	55.837	0.239	0.229
-355.566	344.313	-0.162	-0.314
-354.552	97.741	-0.113	0.128
-353.537	-200.000	0.033	-0.206
-352.523	-200.000	0.005	0.127
-351.508	-75.870	0.104	0.037
-350.493	800.000	0.066	0.183
-349.479	-192.957	0.172	0.002
-348.464	276.223	0.084	0.148
-347.450	3.596	0.200	0.145
-346.435	259.018	0.034	-0.059
-345.420	-41.538	0.200	-0.102
-344.406	-88.702	-0.359	-0.105
-343.391	-6.382	-0.309	-0.208
-342.377	15.011	-0.220	0.171
-341.362	16.306	0.227	-0.177
-340.348	-187.851	0.300	0.004
-339.333	-29.082	0.042	-0.024
-338.318	-39.573	0.403	-0.208
-337.304	205.675	0.119	-0.183
-336.289	179.314	-0.129	0.186
-335.275	-153.592	0.255	0.017
-334.260	-166.403	0.190	0.008
-333.245	-200.000	0.000	0.026
-332.231	355.509	0.045	0.089
-331.216	-73.115	0.049	0.018
-330.202	-9.422	0.125	-0.083
-329.187	-117.018	-0.129	0.023
-328.172	-41.582	0.223	-0.113
-327.158	-41.800	-0.140	-0.071
-326.143	-6.022	0.094	0.063
-325.129	-22.598	0.175	0.104
-324.114	800.000	0.037	-0.106
-323.099	19.729	0.048	0.038
-322.085	-72.564	0.348	0.127
-321.070	152.994	0.036	0.049
-320.056	41.643	0.073	-0.065
-319.041	153.037	-0.173	0.234
-318.026	-67.251	-0.070	-0.027
-317.012	-146.085	0.390	0.034
-315.997	-71.221	0.286	0.106
-314.983	-125.228	0.062	0.009
-313.968	-200.000	0.004	0.254
-312.953	-90.757	-0.101	0.029
-311.939	238.534	-0.105	-0.173
-310.924	-16.162	-0.292	-0.184
-309.910	50.301	0.132	-0.124
-308.895	800.000	0.134	0.505
-307.880	-108.847	-0.059	-0.012
-306.866	-134.542	0.196	0.024
-305.851	-91.678	-0.176	0.049
-304.837	-200.000	-0.039	-0.292
-303.822	30.947	-0.140	0.119
-302.807	3.129	0.211	-0.152
-301.793	-159.337	-0.279	0.015
-300.778	162.128	0.125	0.173
-299.764	94.723	0.180	0.202
-298.749	-48.548	-0.261	0.124
-297.735	148.097	0.232	0.309
-296.720	800.000	-0.052	0.203
-295.705	-200.000	0.020	-0.332
-294.691	800.000	-0.044	0.175
-293.676	124.673	-0.181	0.225
-292.662	-110.052	-0.202	-0.042
-291.647	-200.000	0.045	0.259
-290.632	-144.298	0.350	-0.032
-289.618	87.325	0.224	-0.245
-288.603	34.169	-0.062	0.054
-287.589	147.854	-0.053	-0.071
-286.574	800.000	-0.054	0.158
-285.559	-200.000	0.029	-0.253
-284.545	67.557	-0.123	0.124
-283.530	-139.016	-0.147	-0.016
-282.516	131.313	0.058	0.073
-281.501	800.000	-0.043	-0.150
-280.486	37.792	0.079	0.069
-279.472	96.248	-0.362	0.408
-278.457	-200.000	0.026	0.249
-277.443	-61.507	0.214	0.089
-276.428	313.840	0.143	0.265
-275.413	-67.329	-0.363	-0.141
-274.399	800.000	-0.027	-0.094
-273.384	-200.000	0.030	-0.237
-272.370	244.622	0.184	-0.306
-271.355	377.029	-0.115	0.231
-270.340	44.711	-0.047	0.043
-269.326	-149.729	0.140	0.011
-268.311	6.936	-0.220	0.162
-267.297	800.000	0.078	-0.330
-266.282	-55.710	-0.404	-0.178
-265.267	3.946	-0.234	-0.169
-264.253	369.939	-0.115	-0.230
-263.238	69.310	0.035	-0.036
-262.224	-200.000	-0.042	0.397
-261.209	-163.058	-0.426	-0.020
-260.195	-94.029	-0.321	0.087
-259.180	-110.490	-0.169	-0.035
-258.165	-11.393	-0.050	0.032
-257.151	-200.000	0.260	0.000
-256.136	-114.697	-0.163	0.031
-255.122	275.114	-0.118	0.207
-254.107	-200.000	0.000	-0.300
-253.092	-200.000	0.028	-0.237
-252.078	800.000	-0.102	0.413
-251.063	-104.976	0.370	-0.083
-250.049	-101.761	-0.238	0.057
-249.034	-127.618	0.132	0.019
-248.019	47.249	0.204	0.187
-247.005	-66.865	-0.337	-0.131
-245.990	-77.419	-0.102	0.035
-244.976	800.000	0.091	0.303
-243.961	-29.472	0.109	0.061
-242.946	33.668	0.088	-0.076
-241.932	-200.000	-0.231	-0.001
-240.917	505.965	0.029	0.066
-239.903	-151.311	-0.239	0.018
-238.888	-13.152	0.191	-0.122
-237.873	800.000	0.026	0.110
-236.859	426.488	0.036	-0.076
-235.844	86.030	0.125	-0.135
-234.830	-100.865	-0.077	0.019
-233.815	-200.000	-0.012	-0.055
-232.800	-140.612	0.208	0.021
-231.786	377.271	-0.092	0.184
-230.771	63.800	0.092	-0.091
-229.757	250.648	-0.023	-0.039
-228.742	31.684	0.115	0.097
-227.727	-190.918	-0.225	-0.002
-226.713	-12.056	-0.106	0.068
-225.698	-200.000	0.055	-0.244
-224.684	-71.477	-0.432	0.159
-223.669	226.572	0.211	0.337
-222.655	-200.000	-0.004	-0.305
-221.640	-200.000	-0.022	0.266
-220.625	-82.973	-0.222	-0.070
-219.611	48.066	-0.028	-0.026
-218.596	-200.000	-0.059	-0.305
-217.582	396.311	0.155	0.319
-216.567	200.954	-0.089	0.134
-215.552	-102.829	0.088	0.021
-214.538	52.246	-0.122	-0.114
-213.523	-200.000	-0.026	-0.117
-212.509	59.063	-0.170	-0.164
-211.494	557.166	-0.138	0.328
-210.479	-83.696	0.114	0.036
-209.465	800.000	-0.105	0.341
-208.450	-200.000	0.041	0.311
-207.436	219.894	0.139	-0.219
-206.421	10.134	-0.243	-0.181
-205.406	-50.192	0.175	-0.082
-204.392	-45.257	-0.171	-0.083
-203.377	-163.176	0.112	-0.005
-202.363	-127.491	-0.231	-0.033
-201.348	-61.381	0.021	0.009
-200.333	-28.881	0.308	0.174
-199.319	-125.226	0.141	-0.021
-198.304	201.388	0.065	0.098
-197.290	-93.956	-0.396	-0.107
-196.275	62.738	0.300	-0.295
-195.260	429.161	-0.019	0.041
-194.246	-191.464	-0.300	0.003
-193.231	-18.064	-0.042	-0.026
-192.217	-124.213	-0.169	-0.026
-191.202	-101.397	0.472	-0.113
-190.187	-94.763	-0.093	-0.025
-189.173	191.311	0.072	-0.107
-188.158	126.654	0.058	-0.073
-187.144	-200.000	0.002	-0.032
-186.129	-50.279	0.039	0.018
-185.114	187.693	-0.149	-0.218
-184.100	268.630	0.036	-0.062
-183.085	-200.000	-0.011	-0.097
-182.071	0.505	-0.058	0.041
-181.056	179.455	0.122	0.176
-180.042	-16.567	-0.156	-0.097
-179.027	-200.000	0.043	0.216
-178.012	48.693	0.048	0.044
-176.998	114.818	-0.170	0.204
-175.983	-39.845	0.069	-0.036
-174.969	-88.216	0.270	0.080
-173.954	-130.583	0.086	0.011
-172.939	800.000	-0.022	-0.082
-171.925	142.544	0.067	0.087
-170.910	734.093	0.101	-0.265
-169.896	-86.665	0.316	-0.095
-168.881	105.391	0.158	0.183
-167.866	497.179	0.152	0.344
-166.852	206.283	-0.131	0.200
-165.837	-89.030	0.179	0.052
-164.823	182.770	-0.133	0.193
-163.808	-200.000	-0.002	0.150
-162.793	58.228	0.169	0.163
-161.779	-200.000	0.045	-0.507
-160.764	42.445	-0.219	0.195
-159.750	-135.551	-0.240	0.028
-158.735	17.638	0.091	-0.071
-157.720	-111.245	-0.291	-0.058
-156.706	493.867	-0.050	-0.113
-155.691	-70.690	-0.218	0.081
-154.677	166.399	0.051	-0.072
-153.662	-63.474	-0.038	0.015
-152.647	-116.226	-0.165	-0.030
-151.633	319.062	0.016	-0.030
-150.618	502.053	-0.088	-0.199
-149.604	-4.246	-0.065	-0.044
-148.589	-200.000	-0.042	-0.256
-147.574	129.404	0.229	-0.287
-146.560	-83.423	-0.165	-0.052
-145.545	-200.000	-0.005	-0.103
-144.531	71.571	0.190	-0.194
-143.516	87.161	-0.178	-0.193
-142.502	-40.530	0.204	0.104
-141.487	565.863	0.119	0.283
-140.472	-124.894	-0.132	0.020
-139.458	142.101	-0.057	-0.075
-138.443	105.645	0.124	0.143
-137.429	-200.000	0.035	0.318
-136.414	277.619	-0.059	-0.102
-135.399	-200.000	0.041	0.209
-134.385	-200.000	-0.015	-0.305
-133.370	800.000	-0.117	-0.348
-132.356	-81.477	-0.206	-0.067
-131.341	800.000	0.039	0.130
-130.326	-29.382	0.099	0.056
-129.312	199.871	0.090	-0.135
-128.297	-120.401	-0.137	0.023
-127.283	-82.668	0.145	0.046
-126.268	-200.000	-0.003	0.027
-125.253	-200.000	0.001	0.330
-124.239	134.977	-0.091	0.116
-123.224	304.004	-0.042	-0.077
-122.210	-66.227	0.016	0.006
-121.195	-145.216	-0.140	0.012
-120.180	616.781	-0.077	-0.189
