DTS Sentinel unit serial number:	SN413079Multiplexer serial number:	ORYXHardware model number:	OX4-SRSoftware version number:	ORYX F/W v4.00 Oryx Data Collector v3.7.2.0data status	okinstallation	princeton_trtdifferential loss correction	single-endedforward channel	channel 2reverse channel	N/Adate	2019/09/12time	09:05:11forward acquisition time	60.00reverse acquisition time	0.00gamma	496.2192k internal	0.2316k external	0.2316temperature offset calibration	1.0065default loss term (dB/km)	0.3790temperature slope calibration	1.0000multiplexer offset coefficient	1.0000multiplexer slope coefficient	1.0000fibre end	0.00T internal ref (°C)	34.41T ext. ref 1 (°C)	1.78T ext. ref 2 (°C)	31.95length (m)	temperature (°C)	Stokes	anti-Stokes-747.200	-200.000	0.002	-0.036
-746.185	-200.000	-0.028	0.241
-745.171	-78.431	-0.198	-0.069
-744.156	372.000	-0.071	-0.146
-743.142	-32.976	0.140	0.079
-742.127	800.000	-0.030	0.109
-741.112	-200.000	-0.014	0.087
-740.098	-200.000	-0.090	0.402
-739.083	428.898	-0.131	-0.287
-738.069	-200.000	0.068	0.612
-737.054	-11.334	-0.254	0.169
-736.039	-200.000	0.020	-0.139
-735.025	17.039	0.116	0.093
-734.010	43.593	0.096	0.089
-732.996	-51.021	0.351	-0.167
-731.981	-200.000	-0.028	-0.403
-730.966	45.680	0.255	0.239
-729.952	-111.560	0.209	0.043
-728.937	-28.532	-0.367	0.214
-727.923	-200.000	0.024	0.458
-726.908	-121.283	0.066	-0.011
-725.894	205.500	-0.180	0.283
-724.879	-105.574	-0.252	-0.058
-723.864	-33.284	-0.229	0.128
-722.850	37.662	-0.058	-0.052
-721.835	498.801	-0.143	0.333
-720.821	135.002	-0.324	-0.427
-719.806	-76.432	-0.260	-0.093
-718.791	-149.566	0.282	-0.023
-717.777	168.273	0.065	0.094
-716.762	-77.811	-0.079	0.028
-715.748	-115.603	-0.444	0.084
-714.733	82.424	-0.194	0.213
-713.718	-45.465	-0.162	0.081
-712.704	289.323	0.064	-0.118
-711.689	-49.552	0.161	-0.078
-710.675	-171.479	-0.110	0.004
-709.660	-47.437	0.267	0.131
-708.645	-26.889	0.282	-0.167
-707.631	-139.264	0.198	-0.022
-706.616	-200.000	-0.037	0.165
-705.602	31.286	-0.466	0.405
-704.587	-200.000	-0.017	0.214
-703.572	-37.213	0.384	0.208
-702.558	-117.845	-0.172	0.031
-701.543	-22.603	0.197	-0.121
-700.529	-200.000	0.039	-0.174
-699.514	-85.398	-0.082	0.026
-698.499	800.000	-0.098	0.344
-697.485	641.154	-0.109	-0.280
-696.470	-155.531	0.296	-0.019
-695.456	194.872	-0.090	-0.138
-694.441	156.841	0.072	0.100
-693.426	800.000	0.100	0.297
-692.412	-94.176	0.236	0.065
-691.397	-151.564	0.086	-0.006
-690.383	800.000	-0.033	-0.141
-689.368	480.885	0.082	0.189
-688.354	-78.922	0.123	-0.042
-687.339	38.082	-0.069	0.062
-686.324	114.318	-0.100	-0.123
-685.310	-200.000	-0.042	0.368
-684.295	800.000	-0.056	0.204
-683.281	0.589	-0.219	-0.158
-682.266	-156.149	-0.105	-0.007
-681.251	-200.000	0.005	0.141
-680.237	-50.643	-0.287	-0.137
-679.222	-85.042	0.092	0.029
-678.208	-200.000	-0.017	-0.199
-677.193	-26.494	0.175	-0.104
-676.178	-200.000	-0.005	-0.262
-675.164	-57.008	0.197	0.088
-674.149	800.000	-0.079	-0.287
-673.135	-54.431	-0.377	0.173
-672.120	-10.187	-0.125	0.084
-671.105	65.025	0.091	-0.093
-670.091	-163.743	0.150	0.007
-669.076	-28.280	-0.167	-0.098
-668.062	-135.867	-0.376	-0.045
-667.047	-44.454	-0.257	-0.130
-666.032	-82.950	-0.075	-0.024
-665.018	33.982	0.128	0.113
-664.003	263.694	0.016	0.027
-662.989	398.430	0.095	0.201
-661.974	-20.997	0.116	0.072
-660.959	14.784	-0.259	-0.204
-659.945	-145.973	-0.294	0.026
-658.930	104.365	0.046	-0.055
-657.916	66.631	0.158	-0.162
-656.901	108.207	0.224	-0.269
-655.886	131.923	0.062	0.081
-654.872	214.937	-0.112	0.179
-653.857	-33.259	-0.203	0.113
-652.843	129.927	0.109	0.140
-651.828	800.000	-0.015	0.058
-650.814	-72.084	0.121	-0.045
-649.799	-127.669	0.249	0.036
-648.784	467.142	-0.095	-0.214
-647.770	89.184	-0.147	0.165
-646.755	-200.000	0.007	-0.113
-645.741	209.946	-0.200	0.317
-644.726	-200.000	0.002	0.030
-643.711	800.000	0.033	-0.133
-642.697	-200.000	-0.003	-0.133
-641.682	627.023	0.010	-0.027
-640.668	323.652	0.118	0.226
-639.653	130.488	-0.204	0.264
-638.638	436.885	-0.055	-0.121
-637.624	116.341	0.057	0.071
-636.609	66.674	0.071	-0.072
-635.595	-125.598	0.118	0.018
-634.580	-200.000	0.031	0.152
-633.565	-200.000	0.013	0.309
-632.551	54.750	0.152	-0.148
-631.536	-200.000	-0.028	-0.292
-630.522	17.407	-0.082	-0.065
-629.507	-56.270	0.070	0.031
-628.492	-99.909	-0.206	0.052
-627.478	-81.155	-0.238	0.079
-626.463	284.266	-0.133	-0.242
-625.449	-108.763	0.088	0.019
-624.434	-34.944	0.367	-0.202
-623.419	-50.297	0.175	-0.084
-622.405	159.157	0.124	0.174
-621.390	-63.685	0.363	-0.150
-620.376	-24.028	0.289	-0.174
-619.361	-147.846	0.184	-0.015
-618.346	54.603	-0.107	-0.104
-617.332	-75.101	-0.102	0.037
-616.317	33.254	0.044	-0.039
-615.303	287.671	-0.121	0.221
-614.288	-200.000	0.012	-0.168
-613.273	23.434	0.153	-0.127
-612.259	80.721	0.159	-0.172
-611.244	-174.310	0.082	-0.002
-610.230	-121.678	0.325	-0.054
-609.215	117.467	0.090	0.111
-608.201	-34.373	0.215	-0.119
-607.186	62.300	0.222	-0.224
-606.171	-200.000	0.026	0.276
-605.157	-28.072	-0.307	0.179
-604.142	295.617	-0.072	-0.132
-603.128	84.246	-0.321	-0.354
-602.113	2.176	-0.174	0.127
-601.098	303.805	-0.062	-0.116
-600.084	-200.000	-0.012	0.144
-599.069	321.813	-0.124	0.238
-598.055	14.096	0.099	-0.078
-597.040	800.000	-0.078	-0.218
-596.025	-153.671	0.193	-0.013
-595.011	-92.306	0.233	0.066
-593.996	-16.460	0.230	0.147
-592.982	222.863	-0.211	0.342
-591.967	96.160	-0.112	0.129
-590.952	602.261	0.051	0.126
-589.938	800.000	0.032	0.101
-588.923	39.133	-0.358	0.323
-587.909	281.386	0.114	0.206
-586.894	523.131	0.026	-0.062
-585.879	-175.049	0.128	-0.004
-584.865	-123.124	-0.278	-0.045
-583.850	-200.000	0.040	-0.180
-582.836	-88.384	-0.157	-0.047
-581.821	-200.000	0.108	0.000
-580.806	-200.000	0.028	-0.310
-579.792	-26.562	-0.174	0.103
-578.777	303.064	-0.086	-0.160
-577.763	-200.000	-0.018	0.384
-576.748	-0.657	0.151	0.108
-575.733	-111.105	-0.297	-0.061
-574.719	144.961	-0.101	-0.135
-573.704	800.000	0.050	-0.162
-572.690	-101.971	-0.274	-0.067
-571.675	77.698	-0.138	-0.148
-570.661	112.643	0.199	0.242
-569.646	-200.000	0.013	0.067
-568.631	800.000	-0.019	-0.061
-567.617	775.842	-0.078	0.213
-566.602	-40.271	0.066	-0.035
-565.588	-200.000	0.057	0.282
-564.573	45.230	-0.131	0.121
-563.558	800.000	-0.087	-0.249
-562.544	-200.000	0.104	-0.579
-561.529	435.307	-0.059	0.130
-560.515	-107.754	-0.165	0.036
-559.500	-103.438	0.143	0.034
-558.485	55.977	-0.213	-0.207
-557.471	800.000	0.043	0.173
-556.456	-14.998	-0.101	-0.065
-555.442	69.918	0.287	0.298
-554.427	-200.000	0.002	-0.047
-553.412	348.672	-0.091	0.181
-552.398	-87.306	-0.168	0.051
-551.383	800.000	-0.023	-0.065
-550.369	-88.889	0.056	0.017
-549.354	-200.000	0.044	0.216
-548.339	69.959	0.098	0.102
-547.325	-49.658	0.236	0.113
-546.310	-50.759	-0.151	0.072
-545.296	-149.708	-0.126	0.010
-544.281	20.435	0.206	-0.167
-543.266	-110.551	0.250	-0.052
-542.252	-200.000	0.007	-0.171
-541.237	-165.782	0.109	0.005
-540.223	-121.593	0.355	-0.059
-539.208	22.957	-0.273	0.225
-538.193	-110.720	0.143	0.030
-537.179	-200.000	-0.004	-0.046
-536.164	257.170	0.036	-0.062
-535.150	-59.017	-0.203	-0.088
-534.135	800.000	-0.078	-0.257
-533.121	-200.000	-0.008	0.039
-532.106	53.657	-0.094	-0.091
-531.091	-5.031	-0.104	0.072
-530.077	-61.690	0.180	-0.076
-529.062	97.062	0.110	0.126
-528.048	-87.766	0.149	-0.045
-527.033	174.008	-0.120	-0.174
-526.018	-200.000	-0.036	-0.285
-525.004	-200.000	-0.043	-0.225
-523.989	-80.852	0.164	-0.055
-522.975	-139.552	-0.151	-0.016
-521.960	800.000	0.035	-0.110
-520.945	421.299	-0.093	-0.200
-519.931	266.179	-0.122	0.214
-518.916	-22.122	-0.078	0.048
-517.902	26.702	-0.101	0.085
-516.887	-117.419	-0.439	0.080
-515.872	-200.000	0.022	-0.377
-514.858	800.000	0.065	0.198
-513.843	800.000	0.084	0.329
-512.829	-200.000	-0.091	-0.498
-511.814	-200.000	0.003	0.051
-510.799	-173.121	-0.155	-0.005
-509.785	334.049	0.173	0.336
-508.770	94.983	0.164	-0.187
-507.756	63.733	-0.061	-0.061
-506.741	161.191	-0.195	-0.273
-505.726	-30.880	0.188	-0.106
-504.712	-200.000	0.215	0.001
-503.697	-200.000	0.057	-0.268
-502.683	-39.737	-0.082	0.043
-501.668	-43.064	-0.312	0.159
-500.653	53.390	0.150	-0.145
-499.639	-173.660	-0.268	-0.008
-498.624	-138.862	0.121	0.013
-497.610	-82.993	-0.256	0.083
-496.595	-122.747	-0.125	0.020
-495.581	373.950	0.076	-0.155
-494.566	-200.000	-0.008	0.481
-493.551	-200.000	0.041	0.224
-492.537	115.661	0.132	0.162
-491.522	-200.000	-0.032	-0.142
-490.508	216.501	-0.102	-0.163
-489.493	-36.705	-0.129	-0.069
-488.478	8.532	0.240	-0.181
-487.464	-129.348	-0.055	-0.008
-486.449	-48.783	-0.092	-0.044
-485.435	-56.736	-0.199	0.088
-484.420	78.881	0.179	0.192
-483.405	154.761	0.245	0.338
-482.391	-38.337	-0.175	-0.093
-481.376	263.297	-0.002	-0.004
-480.362	45.795	-0.313	0.290
-479.347	-104.191	0.298	0.069
-478.332	192.133	-0.121	-0.184
-477.318	727.838	0.066	0.175
-476.303	26.934	-0.267	-0.224
-475.289	-63.790	0.317	-0.130
-474.274	-200.000	0.056	0.333
-473.259	-162.051	-0.053	0.003
-472.245	29.180	-0.172	-0.146
-471.230	-85.138	-0.241	0.076
-470.216	-142.408	0.232	-0.023
-469.201	274.667	0.203	0.360
-468.186	34.339	-0.070	-0.061
-467.172	-49.029	0.246	-0.118
-466.157	525.715	0.142	-0.336
-465.143	-200.000	0.012	-0.266
-464.128	-200.000	0.027	-0.326
-463.113	653.691	-0.067	-0.172
-462.099	-200.000	0.001	-0.126
-461.084	-200.000	-0.038	-0.174
-460.070	-44.496	-0.020	0.010
-459.055	-200.000	-0.005	0.274
-458.040	247.948	0.057	-0.097
-457.026	800.000	-0.035	-0.100
-456.011	-8.687	0.206	-0.138
-454.997	138.508	-0.057	0.075
-453.982	295.964	-0.132	0.243
-452.968	29.145	-0.087	0.074
-451.953	-58.422	-0.324	0.141
-450.938	-200.000	0.016	-0.125
-449.924	-200.000	-0.020	0.137
-448.909	468.359	-0.051	0.115
-447.895	23.570	0.297	0.245
-446.880	-197.098	0.095	-0.001
-445.865	58.637	0.084	-0.083
-444.851	218.600	0.225	0.360
-443.836	-116.027	-0.286	0.053
-442.822	224.830	0.121	0.196
-441.807	-70.201	-0.064	-0.024
-440.792	-200.000	0.038	-0.176
-439.778	-124.707	0.256	0.040
-438.763	-61.606	-0.092	-0.038
-437.749	-161.577	-0.208	0.011
-436.734	223.433	0.028	0.046
-435.719	800.000	0.029	-0.126
-434.705	-75.740	-0.090	-0.032
-433.690	-78.764	0.041	-0.014
-432.676	-52.183	0.096	-0.044
-431.661	-200.000	0.040	-0.178
-430.646	146.920	0.190	0.255
-429.632	800.000	-0.032	0.134
-428.617	-200.000	-0.056	0.352
-427.603	63.384	0.177	0.177
-426.588	-93.273	-0.146	0.041
-425.573	-108.360	-0.317	-0.068
-424.559	-200.000	-0.030	0.372
-423.544	-200.000	-0.001	0.127
-422.530	161.491	-0.121	-0.169
-421.515	-200.000	-0.001	0.060
-420.500	-55.922	0.484	-0.216
-419.486	69.349	-0.014	-0.014
-418.471	106.074	0.233	-0.275
-417.457	273.000	0.021	-0.037
-416.442	-93.260	-0.148	0.041
-415.428	-126.060	0.277	0.042
-414.413	-136.213	-0.315	-0.037
-413.398	-43.564	-0.235	-0.119
-412.384	371.074	-0.171	-0.347
-411.369	-173.982	0.263	-0.008
-410.355	493.098	0.060	0.139
-409.340	-200.000	-0.069	-0.372
-408.325	309.635	-0.147	0.274
-407.311	-127.128	-0.115	-0.017
-406.296	-79.200	-0.115	-0.039
-405.282	386.347	0.051	-0.105
-404.267	58.017	-0.082	-0.080
-403.252	-67.476	-0.341	0.134
-402.238	-77.505	-0.281	0.097
-401.223	120.868	-0.101	-0.126
-400.209	800.000	-0.051	0.213
-399.194	9.733	-0.217	-0.164
-398.179	-149.100	0.174	-0.014
-397.165	-200.000	0.003	-0.219
-396.150	-111.764	0.219	-0.044
-395.136	13.555	-0.300	0.233
-394.121	382.523	0.135	-0.278
-393.106	-73.937	0.128	0.046
-392.092	42.553	0.076	-0.069
-391.077	-154.359	0.405	-0.027
-390.063	800.000	0.079	0.251
-389.048	53.938	-0.163	0.156
-388.033	207.579	-0.115	-0.179
-387.019	-200.000	0.005	-0.302
-386.004	26.984	-0.331	-0.277
-384.990	122.247	0.077	0.097
-383.975	94.705	-0.125	-0.142
-382.960	20.249	-0.237	0.191
-381.946	595.516	0.025	-0.061
-380.931	-121.529	0.075	0.012
-379.917	-200.000	0.054	-0.328
-378.902	-200.000	0.012	0.369
-377.888	-7.876	-0.086	-0.058
-376.873	-129.925	0.280	-0.038
-375.858	300.303	0.199	0.366
-374.844	-200.000	-0.025	-0.217
-373.829	-12.279	0.336	0.220
-372.815	800.000	-0.097	-0.344
-371.800	-75.743	-0.248	0.088
-370.785	-4.861	0.033	0.023
-369.771	-98.989	0.252	-0.064
-368.756	121.454	-0.236	-0.294
-367.742	-200.000	0.047	-0.444
-366.727	85.547	-0.087	-0.095
-365.712	-200.000	0.112	0.000
-364.698	112.209	0.106	-0.128
-363.683	416.256	0.094	0.201
-362.669	-103.067	0.159	0.038
-361.654	518.155	-0.071	0.166
-360.639	201.262	0.093	-0.142
-359.625	-152.650	0.419	-0.030
-358.610	-192.454	-0.252	0.002
-357.596	800.000	-0.072	-0.239
-356.581	-200.000	-0.025	0.111
-355.566	50.773	0.063	-0.059
-354.552	-162.242	0.230	-0.011
-353.537	-8.905	-0.343	-0.230
-352.523	-200.000	-0.082	-0.000
-351.508	-134.842	-0.093	0.011
-350.493	-146.542	-0.262	-0.023
-349.479	-93.325	-0.208	0.057
-348.464	-177.057	-0.143	-0.004
-347.450	800.000	-0.081	0.326
-346.435	-51.605	-0.192	0.090
-345.420	-200.000	-0.024	0.118
-344.406	-99.706	-0.041	0.010
-343.391	143.406	-0.118	0.157
-342.377	96.084	0.198	0.225
-341.362	-173.214	0.254	-0.008
-340.348	-116.496	-0.273	0.050
-339.333	114.138	-0.241	-0.292
-338.318	-74.368	0.284	-0.102
-337.304	-200.000	-0.002	0.034
-336.289	-200.000	0.011	-0.057
-335.275	800.000	0.062	0.237
-334.260	58.069	-0.090	-0.088
-333.245	84.405	0.072	-0.078
-332.231	-48.075	-0.245	-0.118
-331.216	-62.015	-0.085	-0.035
-330.202	-103.676	0.053	0.012
-329.187	-142.104	0.157	0.016
-328.172	-86.477	-0.270	-0.083
-327.158	-153.757	-0.117	0.008
-326.143	800.000	-0.058	0.187
-325.129	-200.000	0.027	-0.148
-324.114	48.366	-0.123	0.115
-323.099	-40.902	-0.182	0.094
-322.085	741.002	0.033	0.090
-321.070	-19.229	-0.192	0.119
-320.056	-97.867	0.380	0.098
-319.041	709.975	-0.062	0.163
-318.026	97.181	-0.087	-0.099
-317.012	-40.006	-0.095	0.049
-315.997	-200.000	-0.062	-0.502
-314.983	119.923	0.221	0.273
-313.968	65.658	-0.138	0.139
-312.953	125.679	0.166	0.208
-311.939	259.484	0.122	-0.209
-310.924	-17.766	0.019	-0.012
-309.910	91.611	0.082	0.092
-308.895	281.716	-0.071	0.126
-307.880	-153.690	-0.295	-0.020
-306.866	800.000	-0.078	-0.218
-305.851	800.000	0.042	0.128
-304.837	800.000	-0.056	0.232
-303.822	171.093	0.167	0.238
-302.807	-26.849	-0.224	0.130
-301.793	800.000	-0.046	-0.189
-300.778	3.380	0.086	-0.062
-299.764	104.087	0.234	0.274
-298.749	-175.056	-0.220	-0.006
-297.735	800.000	0.103	-0.286
-296.720	800.000	-0.002	-0.008
-295.705	800.000	0.074	0.273
-294.691	-200.000	-0.059	-0.435
-293.676	177.731	0.240	0.348
-292.662	-200.000	0.019	-0.218
-291.647	2.141	-0.180	-0.129
-290.632	-49.338	-0.108	-0.052
-289.618	62.624	0.158	-0.157
-288.603	259.291	-0.061	-0.104
-287.589	502.712	-0.130	-0.298
-286.574	-200.000	-0.012	0.314
-285.559	-137.389	0.243	0.027
-284.545	-200.000	0.024	0.239
-283.530	-57.702	-0.287	-0.125
-282.516	-200.000	-0.005	0.178
-281.501	229.359	-0.103	0.167
-280.486	-200.000	0.000	-0.125
-279.472	-86.290	0.331	0.101
-278.457	134.115	0.189	-0.244
-277.443	-135.669	0.232	-0.027
-276.428	800.000	0.080	-0.230
-275.413	-149.041	0.295	0.024
-274.399	282.665	0.214	0.381
-273.384	-200.000	0.020	-0.309
-272.370	422.104	0.046	-0.098
-271.355	168.429	0.171	-0.243
-270.340	-57.510	-0.047	0.020
-269.326	-17.842	-0.280	-0.174
-268.311	519.541	-0.048	0.112
-267.297	24.184	-0.228	-0.187
-266.282	-77.723	0.257	-0.088
-265.267	374.879	-0.121	0.244
-264.253	-16.296	-0.119	-0.075
-263.238	-80.465	0.178	0.059
-262.224	87.403	-0.099	-0.108
-261.209	800.000	0.053	0.201
-260.195	800.000	0.029	0.105
-259.180	527.449	0.079	-0.184
-258.165	-200.000	-0.000	-0.075
-257.151	297.755	-0.067	0.123
-256.136	-137.857	-0.036	-0.004
-255.122	-142.891	0.178	0.017
-254.107	-51.344	-0.105	-0.049
-253.092	258.891	0.182	0.312
-252.078	0.721	-0.394	0.280
-251.063	36.356	0.144	0.126
-250.049	-150.671	-0.228	-0.017
-249.034	27.568	-0.171	0.143
-248.019	-94.491	0.152	-0.041
-247.005	-200.000	-0.017	-0.122
-245.990	482.178	-0.107	-0.241
-244.976	-200.000	0.041	-0.249
-243.961	36.036	0.187	-0.164
-242.946	-54.931	0.150	-0.067
-241.932	-200.000	0.423	0.001
-240.917	4.336	0.073	-0.053
-239.903	-119.854	-0.745	0.127
-238.888	800.000	0.053	0.150
-237.873	-200.000	-0.055	0.452
-236.859	-139.822	0.158	0.017
-235.844	14.124	0.078	0.061
-234.830	-43.847	-0.067	-0.034
-233.815	135.014	-0.221	-0.285
-232.800	-47.539	-0.269	0.130
-231.786	150.890	0.256	-0.346
-230.771	219.376	-0.029	0.046
-229.757	358.180	0.165	-0.328
-228.742	19.638	0.110	0.088
-227.727	-12.626	0.333	0.215
-226.713	-200.000	0.019	0.165
-225.698	-200.000	0.034	0.348
-224.684	42.093	-0.091	0.082
-223.669	389.320	-0.093	0.191
-222.655	-111.587	-0.113	-0.023
-221.640	-200.000	-0.023	-0.151
-220.625	-16.716	-0.222	-0.140
-219.611	116.420	-0.096	-0.117
-218.596	-162.767	0.097	0.005
-217.582	-40.577	-0.152	-0.078
-216.567	151.066	0.095	-0.129
-215.552	-10.413	0.353	-0.232
-214.538	-200.000	0.025	-0.174
-213.523	-136.223	-0.296	0.034
-212.509	800.000	-0.037	0.146
-211.494	-21.539	-0.163	0.098
-210.479	789.669	0.024	0.066
-209.465	29.771	0.242	-0.205
-208.450	141.146	-0.087	0.114
-207.436	-43.102	0.304	0.153
-206.421	321.126	0.173	-0.327
-205.406	510.818	0.071	0.165
-204.392	101.244	0.029	0.034
-203.377	-121.522	-0.027	-0.004
-202.363	454.894	0.108	0.238
-201.348	-200.000	0.069	0.431
-200.333	16.690	-0.110	-0.087
-199.319	-200.000	-0.015	0.157
-198.304	-66.229	0.058	0.023
-197.290	-200.000	0.083	0.365
-196.275	31.307	-0.184	0.157
-195.260	58.013	0.191	-0.185
-194.246	478.307	-0.016	-0.036
-193.231	-200.000	-0.013	-0.342
-192.217	-27.550	0.356	0.205
-191.202	-200.000	-0.024	-0.139
-190.187	-200.000	0.018	0.091
-189.173	-200.000	0.004	0.132
-188.158	-22.736	-0.304	-0.182
-187.144	-135.052	-0.227	0.027
-186.129	800.000	0.112	0.391
-185.114	-200.000	-0.025	-0.251
-184.100	-125.061	0.078	0.012
-183.085	-71.131	0.098	0.037
-182.071	405.574	0.201	0.421
-181.056	-200.000	0.002	-0.032
-180.042	-57.413	-0.134	-0.059
-179.027	-40.890	0.409	-0.210
-178.012	-74.552	-0.353	0.126
-176.998	-19.475	0.237	0.146
-175.983	800.000	-0.037	-0.152
-174.969	-97.092	-0.445	0.115
-173.954	-37.523	0.137	-0.073
-172.939	-97.678	0.112	0.029
-171.925	-33.481	-0.157	0.086
-170.910	120.212	0.255	-0.313
-169.896	21.551	-0.116	-0.093
-168.881	71.964	-0.059	0.061
-167.866	96.172	0.230	-0.261
-166.852	-200.000	-0.012	-0.056
-165.837	800.000	0.091	0.363
-164.823	800.000	0.062	0.201
-163.808	-200.000	0.067	0.314
-162.793	-157.509	0.215	-0.013
-161.779	-152.727	0.059	0.004
-160.764	-91.431	-0.248	0.070
-159.750	-52.143	-0.132	-0.061
-158.735	137.704	-0.076	-0.099
-157.720	-200.000	0.002	-0.046
-156.706	-104.328	0.041	-0.010
-155.691	-155.998	-0.354	0.022
-154.677	-200.000	0.026	-0.164
-153.662	13.628	0.102	-0.079
-152.647	114.866	0.127	-0.154
-151.633	473.931	0.037	0.084
-150.618	57.331	0.155	-0.150
-149.604	-24.884	0.284	0.167
-148.589	572.944	-0.064	-0.154
-147.574	0.867	0.359	0.254
-146.560	8.933	-0.314	0.235
-145.545	22.174	-0.182	-0.147
-144.531	-2.350	0.147	-0.102
-143.516	-58.774	0.078	0.033
-142.502	-89.627	-0.127	-0.037
-141.487	281.844	0.060	0.106
-140.472	281.651	0.124	-0.219
-139.458	-112.133	0.330	0.066
-138.443	118.805	0.259	0.316
-137.429	83.584	0.226	-0.243
-136.414	399.646	0.072	-0.149
-135.399	27.857	0.217	0.181
-134.385	26.611	0.166	-0.137
-133.370	1.867	-0.215	-0.153
-132.356	38.820	-0.123	0.109
-131.341	-200.000	0.006	0.073
-130.326	107.680	0.143	0.169
-129.312	-200.000	-0.028	0.190
-128.297	-200.000	0.000	0.192
-127.283	-37.570	-0.223	-0.117
-126.268	230.038	-0.158	0.255
-125.253	-94.042	-0.488	0.132
-124.239	427.123	-0.066	0.141
-123.224	202.770	0.149	0.228
-122.210	-4.076	-0.053	-0.036
-121.195	36.714	0.096	-0.083
