DTS Sentinel unit serial number:	SN413079Multiplexer serial number:	ORYXHardware model number:	OX4-SRSoftware version number:	ORYX F/W v4.00 Oryx Data Collector v3.7.2.0data status	okinstallation	princeton_trtdifferential loss correction	single-endedforward channel	channel 2reverse channel	N/Adate	2019/09/15time	03:27:34forward acquisition time	60.00reverse acquisition time	0.00gamma	496.2192k internal	0.2326k external	0.2326temperature offset calibration	1.0033default loss term (dB/km)	0.3790temperature slope calibration	1.0000multiplexer offset coefficient	1.0000multiplexer slope coefficient	1.0000fibre end	0.00T internal ref (°C)	31.02T ext. ref 1 (°C)	4.63T ext. ref 2 (°C)	25.79length (m)	temperature (°C)	Stokes	anti-Stokes-747.200	-84.854	-0.249	-0.079
-746.185	216.688	0.232	0.373
-745.171	-144.813	0.123	-0.011
-744.156	-47.361	0.088	0.043
-743.142	-62.938	-0.198	-0.083
-742.127	343.117	-0.048	-0.096
-741.112	-200.000	-0.018	0.125
-740.098	-17.948	0.165	-0.104
-739.083	441.406	0.073	0.160
-738.069	800.000	-0.062	0.175
-737.054	11.556	-0.134	-0.103
-736.039	143.192	-0.042	-0.057
-735.025	800.000	-0.069	0.281
-734.010	-200.000	-0.032	0.158
-732.996	-200.000	0.036	-0.214
-731.981	-128.333	-0.159	-0.023
-730.966	-51.272	0.184	0.087
-729.952	83.133	0.141	-0.155
-728.937	-160.284	-0.155	-0.008
-727.923	-200.000	-0.038	0.506
-726.908	115.731	-0.035	0.043
-725.894	652.993	-0.106	0.273
-724.879	-153.551	-0.247	0.017
-723.864	800.000	-0.029	0.104
-722.850	-90.240	-0.412	-0.121
-721.835	-142.262	-0.181	0.018
-720.821	-50.242	-0.089	0.042
-719.806	213.226	0.243	0.387
-718.791	49.236	0.062	-0.059
-717.777	126.744	-0.301	0.384
-716.762	37.054	0.296	0.264
-715.748	17.002	-0.129	0.103
-714.733	-138.747	0.302	0.033
-713.718	467.296	-0.125	-0.282
-712.704	-200.000	0.038	0.241
-711.689	235.940	0.040	-0.066
-710.675	123.731	0.147	-0.186
-709.660	261.404	0.123	0.215
-708.645	550.625	0.047	-0.114
-707.631	-86.496	0.143	-0.044
-706.616	-95.609	0.363	-0.098
-705.602	130.816	-0.096	0.124
-704.587	-200.000	0.039	-0.196
-703.572	437.771	-0.111	-0.244
-702.558	10.794	0.120	0.093
-701.543	229.253	-0.041	-0.068
-700.529	-175.088	-0.292	0.008
-699.514	224.154	0.125	-0.203
-698.499	800.000	-0.026	-0.081
-697.485	570.306	0.093	0.227
-696.470	-200.000	0.003	0.066
-695.456	-132.821	0.173	-0.022
-694.441	800.000	-0.040	-0.134
-693.426	136.099	0.036	-0.047
-692.412	800.000	0.023	0.082
-691.397	-44.706	-0.283	-0.142
-690.383	-131.350	0.336	0.045
-689.368	-7.779	-0.084	0.057
-688.354	38.888	0.110	0.099
-687.339	-200.000	-0.009	-0.044
-686.324	-2.845	-0.158	-0.111
-685.310	314.691	-0.044	-0.084
-684.295	-16.482	0.095	-0.061
-683.281	-141.328	-0.239	0.024
-682.266	-159.080	-0.383	-0.022
-681.251	175.408	0.131	-0.191
-680.237	-200.000	0.001	-0.128
-679.222	-110.223	0.337	-0.071
-678.208	800.000	-0.019	-0.055
-677.193	-99.789	0.235	0.059
-676.178	-112.693	-0.178	0.036
-675.164	800.000	0.073	-0.273
-674.149	-200.000	-0.005	-0.021
-673.135	-45.052	-0.236	-0.118
-672.120	800.000	0.104	-0.343
-671.105	-3.518	-0.256	0.179
-670.091	-145.206	0.468	-0.043
-669.076	-139.547	-0.223	0.024
-668.062	-41.292	-0.170	0.088
-667.047	-33.467	0.139	-0.077
-666.032	800.000	-0.058	0.254
-665.018	253.148	-0.034	-0.059
-664.003	125.147	0.048	-0.061
-662.989	-200.000	-0.029	0.183
-661.974	90.197	0.102	-0.115
-660.959	-88.371	0.213	0.064
-659.945	-67.672	-0.211	0.083
-658.930	-107.656	-0.275	0.060
-657.916	-180.671	-0.181	0.004
-656.901	291.003	0.151	0.276
-655.886	257.547	-0.219	0.378
-654.872	-200.000	-0.011	0.091
-653.857	-74.036	-0.156	0.057
-652.843	117.754	0.287	-0.355
-651.828	-200.000	0.012	-0.093
-650.814	-200.000	0.052	-0.230
-649.799	6.179	0.175	0.131
-648.784	67.558	-0.026	-0.027
-647.770	-110.433	0.212	0.044
-646.755	30.517	0.073	0.063
-645.741	-174.902	0.094	-0.003
-644.726	255.100	-0.186	0.320
-643.711	143.306	-0.258	-0.345
-642.697	-25.395	0.084	-0.050
-641.682	-95.878	0.160	-0.043
-640.668	-118.454	-0.190	0.034
-639.653	682.315	-0.043	-0.111
-638.638	81.418	0.144	-0.157
-637.624	800.000	-0.069	-0.285
-636.609	-200.000	0.030	0.137
-635.595	-43.566	0.143	0.073
-634.580	-51.285	0.207	-0.097
-633.565	-200.000	0.006	0.132
-632.551	-107.643	0.131	-0.029
-631.536	-60.739	-0.186	0.079
-630.522	29.392	0.190	-0.162
-629.507	-34.257	-0.234	0.129
-628.492	-70.144	-0.260	0.099
-627.478	13.635	-0.131	0.102
-626.463	800.000	-0.026	0.088
-625.449	-67.493	-0.253	-0.100
-624.434	63.219	-0.155	-0.156
-623.419	37.743	-0.090	0.081
-622.405	-31.239	-0.103	0.058
-621.390	-200.000	0.004	-0.160
-620.376	-30.566	-0.090	-0.051
-619.361	18.550	-0.092	0.074
-618.346	258.481	-0.059	0.102
-617.332	-44.613	0.256	0.128
-616.317	142.112	-0.070	-0.093
-615.303	-200.000	-0.040	-0.325
-614.288	-31.819	-0.191	-0.108
-613.273	-127.043	-0.303	0.045
-612.259	-100.094	0.100	0.025
-611.244	800.000	-0.097	-0.270
-610.230	45.218	0.077	0.071
-609.215	800.000	0.029	-0.088
-608.201	-129.370	0.242	0.034
-607.186	-33.531	-0.071	0.039
-606.171	188.832	0.054	0.082
-605.157	-12.639	0.340	0.223
-604.142	-130.279	0.135	-0.018
-603.128	280.590	-0.154	0.277
-602.113	-82.557	-0.223	-0.073
-601.098	-140.286	0.362	-0.038
-600.084	225.667	-0.049	-0.080
-599.069	800.000	0.074	0.258
-598.055	-153.936	0.083	-0.006
-597.040	-200.000	-0.035	-0.394
-596.025	94.450	0.261	-0.298
-595.011	666.876	0.091	0.235
-593.996	-0.619	0.240	0.171
-592.982	105.732	-0.110	0.131
-591.967	13.189	0.022	0.017
-590.952	-59.793	0.099	-0.042
-589.938	363.743	0.103	0.207
-588.923	800.000	-0.066	-0.237
-587.909	-59.355	0.260	-0.112
-586.894	94.891	-0.073	0.083
-585.879	-45.006	0.170	-0.085
-584.865	-97.011	0.090	-0.024
-583.850	-114.674	0.198	-0.038
-582.836	699.558	-0.089	-0.235
-581.821	297.346	0.117	-0.215
-580.806	391.144	-0.148	-0.308
-579.792	641.091	0.041	-0.105
-578.777	800.000	0.037	-0.133
-577.763	100.439	0.174	-0.202
-576.748	-144.774	-0.454	-0.042
-575.733	8.808	0.141	0.106
-574.719	751.233	0.042	-0.113
-573.704	69.193	-0.125	-0.128
-572.690	136.339	0.238	-0.311
-571.675	333.698	-0.123	0.238
-570.661	-200.000	0.034	0.183
-569.646	9.811	-0.018	-0.014
-568.631	433.427	-0.129	0.280
-567.617	-70.211	-0.169	-0.064
-566.602	-36.528	0.038	-0.020
-565.588	252.219	-0.108	-0.184
-564.573	712.315	0.091	-0.242
-563.558	-0.003	-0.075	0.054
-562.544	-53.921	0.067	-0.030
-561.529	-160.017	-0.377	0.021
-560.515	97.512	0.164	-0.189
-559.500	-138.997	0.164	0.018
-558.485	-5.646	-0.088	-0.060
-557.471	-25.728	-0.232	-0.137
-556.456	-162.533	0.216	0.011
-555.442	-200.000	-0.042	0.283
-554.427	191.412	-0.162	0.244
-553.412	208.421	-0.026	-0.040
-552.398	-200.000	-0.037	-0.176
-551.383	-46.074	0.186	0.092
-550.369	-142.075	-0.140	-0.014
-549.354	192.564	0.145	0.219
-548.339	-200.000	-0.011	0.310
-547.325	-200.000	-0.017	-0.194
-546.310	800.000	0.160	-0.639
-545.296	82.238	-0.104	0.113
-544.281	116.747	-0.057	0.069
-543.266	471.966	0.095	0.215
-542.252	-200.000	0.014	-0.068
-541.237	-27.676	0.090	0.052
-540.223	540.381	-0.180	-0.429
-539.208	800.000	-0.074	0.250
-538.193	-200.000	0.004	-0.255
-537.179	587.888	-0.049	0.122
-536.164	-200.000	0.048	0.243
-535.150	530.245	0.167	0.394
-534.135	-200.000	-0.022	-0.160
-533.121	23.578	0.139	0.114
-532.106	-91.271	-0.187	-0.054
-531.091	121.168	0.061	-0.077
-530.077	517.283	-0.160	0.375
-529.062	428.272	0.099	0.214
-528.048	85.960	-0.112	0.123
-527.033	-51.791	0.102	-0.048
-526.018	593.953	-0.076	-0.187
-525.004	800.000	-0.085	0.255
-523.989	-132.249	-0.082	-0.011
-522.975	394.240	-0.020	-0.041
-521.960	-200.000	0.038	0.173
-520.945	175.945	-0.044	0.064
-519.931	-200.000	0.040	0.213
-518.916	-12.759	0.294	0.191
-517.902	-114.839	-0.235	-0.045
-516.887	102.152	-0.222	-0.260
-515.872	163.846	0.133	-0.187
-514.858	152.946	0.293	-0.400
-513.843	117.175	0.062	0.077
-512.829	-147.213	-0.240	0.020
-511.814	-17.320	-0.125	-0.079
-510.799	6.867	0.207	-0.154
-509.785	-200.000	0.011	-0.110
-508.770	-150.720	0.248	-0.019
-507.756	-200.000	-0.032	-0.224
-506.741	173.333	0.121	-0.175
-505.726	283.957	-0.033	0.059
-504.712	-200.000	0.068	-0.366
-503.697	74.994	-0.250	0.263
-502.683	-99.467	-0.075	-0.019
-501.668	423.450	0.082	0.175
-500.653	-127.434	-0.184	-0.027
-499.639	-90.322	-0.125	-0.036
-498.624	223.217	-0.158	0.255
-497.610	506.898	0.021	-0.048
-496.595	-116.235	-0.180	0.033
-495.581	61.666	-0.139	-0.138
-494.566	-183.468	0.198	-0.003
-493.551	-10.466	0.149	0.099
-492.537	380.481	-0.018	0.036
-491.522	-134.723	-0.073	-0.009
-490.508	800.000	0.075	0.291
-489.493	-43.972	0.102	-0.051
-488.478	2.009	0.123	-0.089
-487.464	194.024	-0.304	-0.459
-486.449	346.623	0.050	-0.098
-485.435	-154.985	0.203	-0.013
-484.420	-33.702	0.426	-0.234
-483.405	22.013	-0.264	-0.215
-482.391	-145.591	-0.121	0.011
-481.376	-200.000	-0.008	0.251
-480.362	-101.405	-0.205	-0.050
-479.347	-94.466	-0.425	0.116
-478.332	-200.000	0.025	-0.198
-477.318	373.274	0.070	0.143
-476.303	94.939	-0.155	0.176
-475.289	78.256	-0.160	0.171
-474.274	-200.000	0.012	0.097
-473.259	175.631	-0.126	0.182
-472.245	133.116	0.087	0.112
-471.230	800.000	-0.044	-0.139
-470.216	559.396	-0.130	0.312
-469.201	270.298	0.032	0.057
-468.186	-38.830	-0.168	0.089
-467.172	-88.791	-0.312	0.093
-466.157	800.000	-0.103	0.376
-465.143	-132.428	-0.241	-0.031
-464.128	656.593	-0.027	-0.070
-463.113	-200.000	0.024	0.288
-462.099	-199.820	0.063	-0.000
-461.084	293.028	-0.048	0.087
-460.070	260.779	0.104	0.179
-459.055	102.449	0.210	0.245
-458.040	-148.277	0.346	0.028
-457.026	-130.403	0.276	0.037
-456.011	336.132	0.023	0.045
-454.997	-128.515	-0.192	-0.027
-453.982	221.373	-0.098	-0.156
-452.968	237.078	0.087	0.144
-451.953	133.930	-0.170	-0.219
-450.938	67.665	-0.202	-0.206
-449.924	-42.553	-0.219	-0.111
-448.909	52.047	0.140	-0.133
-447.895	23.432	-0.165	0.136
-446.880	-11.443	0.221	0.145
-445.865	547.807	0.091	-0.218
-444.851	112.276	0.152	-0.183
-443.836	152.376	-0.047	0.064
-442.822	-34.482	-0.031	0.017
-441.807	-100.725	0.122	0.030
-440.792	-76.959	-0.067	0.023
-439.778	-200.000	-0.005	-0.048
-438.763	328.827	-0.181	-0.347
-437.749	80.131	-0.244	-0.262
-436.734	163.773	-0.010	0.014
-435.719	-94.082	-0.211	0.058
-434.705	-200.000	0.044	-0.267
-433.690	-200.000	-0.022	-0.371
-432.676	-200.000	-0.016	-0.085
-431.661	-134.599	0.239	0.029
-430.646	-67.965	0.121	0.047
-429.632	209.667	0.097	0.151
-428.617	-95.100	0.101	-0.027
-427.603	-69.790	-0.201	-0.077
-426.588	-200.000	0.030	0.135
-425.573	-47.051	-0.253	0.123
-424.559	98.344	-0.130	0.150
-423.544	-41.798	-0.122	0.062
-422.530	-100.945	0.127	-0.031
-421.515	226.114	-0.053	0.086
-420.500	-200.000	0.034	-0.196
-419.486	115.336	-0.155	-0.189
-418.471	128.100	0.169	-0.214
-417.457	-52.803	0.210	-0.097
-416.442	708.464	0.036	0.094
-415.428	43.630	0.243	0.221
-414.413	-49.013	-0.107	-0.051
-413.398	-121.190	-0.215	-0.036
-412.384	162.380	0.063	0.087
-411.369	-86.317	0.215	-0.066
-410.355	582.373	-0.086	0.209
-409.340	-200.000	-0.003	-0.045
-408.325	-200.000	-0.008	0.114
-407.311	-141.292	0.072	-0.007
-406.296	-152.936	-0.127	0.009
-405.282	-179.734	-0.047	0.001
-404.267	-2.440	0.150	-0.105
-403.252	-129.445	-0.231	-0.032
-402.238	166.693	0.052	-0.073
-401.223	4.537	-0.376	-0.275
-400.209	-132.439	0.246	-0.032
-399.194	-141.526	-0.251	0.025
-398.179	-200.000	0.025	-0.333
-397.165	-200.000	0.018	0.263
-396.150	-37.554	-0.136	0.072
-395.136	-200.000	0.005	-0.116
-394.121	-148.144	0.373	0.031
-393.106	-155.456	-0.014	-0.001
-392.092	98.395	-0.208	-0.239
-391.077	-141.767	0.456	0.046
-390.063	-200.000	-0.067	0.334
-389.048	-200.000	-0.047	0.272
-388.033	103.756	-0.132	-0.154
-387.019	708.599	0.065	-0.172
-386.004	-200.000	0.123	-0.001
-384.990	-200.000	0.019	0.107
-383.975	709.257	-0.122	0.321
-382.960	-123.708	0.135	0.021
-381.946	390.072	-0.145	0.299
-380.931	93.125	-0.106	-0.119
-379.917	165.333	-0.156	0.219
-378.902	-200.000	0.025	-0.128
-377.888	63.700	-0.261	-0.261
-376.873	23.151	0.263	-0.214
-375.858	-3.462	-0.257	-0.178
-374.844	-200.000	-0.040	0.000
-373.829	154.269	0.037	-0.050
-372.815	-200.000	0.037	-0.225
-371.800	592.064	0.107	0.264
-370.785	-107.377	-0.124	0.027
-369.771	-15.961	0.183	-0.116
-368.756	-62.034	0.170	0.071
-367.742	-200.000	0.014	-0.104
-366.727	-200.000	0.018	0.082
-365.712	-158.223	-0.276	-0.016
-364.698	312.679	0.184	0.343
-363.683	-155.399	-0.127	0.008
-362.669	-92.441	-0.185	-0.052
-361.654	451.251	0.080	0.176
-360.639	-43.369	0.193	0.097
-359.625	-200.000	0.025	0.112
-358.610	174.582	0.052	0.074
-357.596	-159.488	0.196	0.011
-356.581	-11.663	0.083	-0.054
-355.566	2.074	0.207	0.148
-354.552	800.000	0.060	0.217
-353.537	561.509	-0.046	0.112
-352.523	-200.000	-0.022	-0.210
-351.508	-200.000	-0.045	-0.197
-350.493	107.474	-0.129	0.153
-349.479	59.981	-0.105	-0.103
-348.464	-62.523	0.034	0.014
-347.450	-146.183	-0.093	-0.008
-346.435	-23.812	0.198	-0.118
-345.420	-69.907	0.270	-0.102
-344.406	-200.000	-0.035	-0.189
-343.391	-113.964	-0.051	-0.010
-342.377	29.831	0.292	0.247
-341.362	118.816	-0.143	0.175
-340.348	800.000	-0.069	-0.232
-339.333	-3.784	-0.207	-0.143
-338.318	-80.813	0.336	0.111
-337.304	-200.000	0.057	0.285
-336.289	-108.361	-0.227	-0.049
-335.275	-123.046	-0.345	-0.055
-334.260	34.942	0.227	-0.197
-333.245	-200.000	0.002	-0.075
-332.231	-110.840	0.140	-0.029
-331.216	800.000	-0.032	0.133
-330.202	132.825	0.215	0.275
-329.187	285.475	0.150	-0.269
-328.172	-73.533	0.249	-0.090
-327.158	800.000	-0.090	0.283
-326.143	-200.000	-0.041	-0.254
-325.129	174.283	0.131	-0.188
-324.114	-30.393	0.139	0.078
-323.099	32.115	0.333	0.285
-322.085	117.539	-0.246	0.300
-321.070	-102.437	-0.307	0.073
-320.056	-200.000	-0.023	0.207
-319.041	159.841	-0.093	-0.128
-318.026	-76.095	0.214	-0.075
-317.012	3.564	0.198	0.143
-315.997	-200.000	0.011	0.432
-314.983	-188.535	-0.302	0.004
-313.968	90.149	-0.175	-0.194
-312.953	-56.696	0.343	-0.151
-311.939	441.104	0.087	0.188
-310.924	-196.327	-0.346	-0.002
-309.910	-200.000	0.040	0.182
-308.895	-155.297	0.458	0.030
-307.880	182.502	-0.099	-0.145
-306.866	35.959	-0.169	-0.148
-305.851	-200.000	-0.362	0.001
-304.837	283.810	0.115	-0.205
-303.822	-40.600	-0.624	-0.321
-302.807	-200.000	-0.037	0.316
-301.793	-31.014	-0.164	-0.092
-300.778	-50.123	-0.103	-0.048
-299.764	789.577	-0.041	0.112
-298.749	37.085	-0.123	0.108
-297.735	69.990	0.225	-0.230
-296.720	29.077	-0.214	0.180
-295.705	800.000	0.057	0.190
-294.691	-185.239	0.378	0.006
-293.676	266.114	0.030	-0.051
-292.662	-40.984	0.132	-0.067
-291.647	196.677	0.187	-0.282
-290.632	-200.000	-0.029	0.444
-289.618	160.186	0.178	0.246
-288.603	148.826	0.102	-0.136
-287.589	-41.417	0.261	-0.133
-286.574	-115.444	-0.367	0.069
-285.559	748.208	0.080	-0.214
-284.545	-200.000	0.057	-0.374
-283.530	62.719	0.235	0.233
-282.516	-200.000	-0.021	-0.227
-281.501	-16.886	0.307	-0.193
-280.486	-200.000	0.006	0.053
-279.472	-45.476	-0.186	0.091
-278.457	148.483	-0.076	0.102
-277.443	179.291	0.155	0.224
-276.428	221.806	0.054	0.086
-275.413	91.115	0.135	0.150
-274.399	18.073	-0.066	0.052
-273.384	141.791	-0.158	-0.207
-272.370	286.715	0.079	0.141
-271.355	15.380	0.168	0.131
-270.340	-123.782	-0.316	0.049
-269.326	-13.834	0.088	0.057
-268.311	326.985	-0.159	-0.301
-267.297	429.810	0.132	0.282
-266.282	-135.903	0.054	0.006
-265.267	140.528	-0.009	-0.012
-264.253	295.212	0.154	-0.278
-263.238	178.213	-0.201	0.291
-262.224	88.252	0.009	0.010
-261.209	800.000	-0.056	-0.222
-260.195	248.538	-0.169	0.283
-259.180	-103.126	-0.099	-0.023
-258.165	170.488	-0.150	0.213
-257.151	-181.540	0.186	-0.004
-256.136	610.973	-0.105	-0.259
-255.122	-48.899	-0.088	-0.042
-254.107	-94.366	0.206	0.056
-253.092	-58.912	0.187	-0.080
-252.078	-53.767	0.150	-0.068
-251.063	-70.727	0.137	-0.051
-250.049	-117.338	0.230	0.041
-249.034	291.691	-0.076	0.137
-248.019	185.101	-0.100	0.147
-247.005	-154.616	-0.484	-0.032
-245.990	301.772	-0.097	0.177
-244.976	-108.478	0.255	-0.054
-243.961	-200.000	0.028	0.164
-242.946	-200.000	0.020	0.267
-241.932	378.241	-0.076	0.153
-240.917	-200.000	0.022	-0.159
-239.903	-72.224	0.381	0.140
-238.888	-76.109	-0.428	-0.150
-237.873	-130.626	0.126	-0.017
-236.859	-55.118	-0.222	-0.099
-235.844	-160.603	-0.303	-0.016
-234.830	-150.479	-0.264	-0.020
-233.815	-55.886	0.320	0.141
-232.800	-174.946	0.054	-0.002
-231.786	-200.000	0.009	-0.125
-230.771	-200.000	0.014	0.138
-229.757	-42.212	0.321	-0.162
-228.742	117.072	-0.107	-0.130
-227.727	14.145	-0.111	-0.086
-226.713	772.115	0.064	0.172
-225.698	800.000	0.042	0.130
-224.684	35.780	-0.405	-0.352
-223.669	311.327	0.015	0.027
-222.655	-156.481	-0.193	-0.012
-221.640	-33.668	0.240	-0.131
-220.625	-200.000	0.038	0.177
-219.611	54.428	0.030	0.029
-218.596	800.000	0.059	-0.214
-217.582	-78.789	0.099	0.033
-216.567	128.967	-0.172	-0.217
-215.552	-66.009	-0.097	-0.038
-214.538	-157.847	-0.122	-0.007
-213.523	0.146	0.125	0.088
-212.509	-121.721	-0.230	0.038
-211.494	257.828	0.044	0.075
-210.479	323.620	0.065	-0.123
-209.465	-139.706	-0.514	0.054
-208.450	-150.413	0.088	-0.007
-207.436	-105.656	0.123	-0.028
-206.421	-158.061	0.202	-0.012
-205.406	-200.000	0.040	0.290
-204.392	-59.063	-0.142	0.060
-203.377	473.011	0.154	-0.343
-202.363	-1.290	-0.431	-0.300
-201.348	-115.327	0.338	-0.063
-200.333	33.639	-0.074	-0.063
-199.319	-163.145	-0.165	-0.008
-198.304	-63.116	0.140	0.057
-197.290	-175.647	-0.028	0.001
-196.275	-200.000	0.065	-0.370
-195.260	-28.114	0.167	-0.095
-194.246	-49.892	0.160	0.075
-193.231	215.846	-0.115	0.181
-192.217	227.754	-0.053	-0.086
-191.202	-47.627	0.241	0.115
-190.187	7.812	-0.140	0.103
-189.173	-119.138	0.074	-0.013
-188.158	800.000	-0.125	0.528
-187.144	146.122	0.131	-0.173
-186.129	-141.707	-0.632	0.063
-185.114	7.332	0.183	-0.135
-184.100	539.320	-0.107	-0.252
-183.085	179.528	0.120	0.174
-182.071	108.131	-0.089	0.105
-181.056	-98.486	0.322	-0.081
-180.042	202.368	0.091	-0.138
-179.027	-38.379	0.374	0.195
-178.012	-200.000	0.037	-0.191
-176.998	-200.000	0.041	0.210
-175.983	-200.000	0.015	0.138
-174.969	-200.000	-0.008	-0.227
-173.954	9.125	-0.399	0.297
-172.939	57.167	0.412	0.397
-171.925	-200.000	0.043	0.199
-170.910	66.440	-0.060	0.060
-169.896	343.924	0.080	-0.155
-168.881	5.848	0.159	-0.116
-167.866	-59.294	0.292	-0.124
-166.852	-40.900	-0.216	-0.110
-165.837	307.751	-0.210	-0.387
-164.823	13.873	-0.272	0.208
-163.808	151.098	0.196	-0.263
-162.793	-47.374	0.195	-0.094
-161.779	20.218	-0.094	-0.075
-160.764	-131.010	0.056	-0.007
-159.750	-200.000	-0.022	-0.110
-158.735	-170.473	0.091	0.003
-157.720	28.915	-0.121	0.101
-156.706	-200.000	0.153	-0.000
-155.691	-200.000	-0.043	0.275
-154.677	48.577	0.120	0.111
-153.662	-200.000	0.017	0.212
-152.647	116.365	0.073	-0.088
-151.633	178.961	0.036	0.052
-150.618	693.850	-0.030	-0.077
-149.604	540.050	0.036	-0.085
-148.589	-47.353	0.172	-0.082
-147.574	-105.955	-0.179	0.040
-146.560	-85.695	-0.216	-0.066
-145.545	150.676	-0.107	0.144
-144.531	252.571	0.180	0.303
-143.516	-155.651	-0.254	-0.016
-142.502	172.438	0.113	0.160
-141.487	-200.000	-0.001	-0.253
-140.472	233.631	-0.126	0.205
-139.458	-200.000	0.012	-0.236
-138.443	-80.688	0.028	-0.009
-137.429	130.995	-0.130	0.165
-136.414	-82.883	0.115	0.036
-135.399	-50.191	-0.088	-0.041
-134.385	264.575	-0.161	0.276
-133.370	800.000	-0.057	0.181
-132.356	-31.291	0.079	0.044
-131.341	91.918	-0.344	0.381
-130.326	-78.349	0.074	-0.025
-129.312	-133.435	-0.055	0.007
-128.297	222.532	0.214	0.340
-127.283	-200.000	-0.016	-0.100
-126.268	187.972	0.090	0.133
-125.253	197.723	0.099	0.148
-124.239	-127.633	-0.151	0.022
-123.224	-167.365	-0.374	0.015
-122.210	48.684	0.243	0.224
