DTS Sentinel unit serial number:	SN413079Multiplexer serial number:	ORYXHardware model number:	OX4-SRSoftware version number:	ORYX F/W v4.00 Oryx Data Collector v3.7.2.0data status	okinstallation	princeton_trtdifferential loss correction	single-endedforward channel	channel 2reverse channel	N/Adate	2019/09/12time	23:23:34forward acquisition time	60.00reverse acquisition time	0.00gamma	496.2192k internal	0.2332k external	0.2332temperature offset calibration	1.0172default loss term (dB/km)	0.3790temperature slope calibration	1.0000multiplexer offset coefficient	1.0000multiplexer slope coefficient	1.0000fibre end	0.00T internal ref (°C)	29.05T ext. ref 1 (°C)	3.74T ext. ref 2 (°C)	23.73length (m)	temperature (°C)	Stokes	anti-Stokes-747.200	-184.387	0.068	0.001
-746.185	800.000	-0.067	0.223
-745.171	215.653	-0.158	0.253
-744.156	37.664	0.251	0.224
-743.142	79.709	-0.077	-0.083
-742.127	120.959	-0.147	-0.183
-741.112	120.659	0.173	0.216
-740.098	-200.000	0.009	0.135
-739.083	303.036	-0.076	-0.141
-738.069	102.417	-0.330	0.388
-737.054	399.034	-0.116	-0.244
-736.039	-101.571	-0.089	-0.022
-735.025	512.922	-0.094	0.219
-734.010	192.520	-0.103	0.156
-732.996	-39.901	0.178	0.094
-731.981	-200.000	0.021	0.369
-730.966	800.000	-0.104	0.427
-729.952	-6.076	-0.182	0.125
-728.937	-123.192	-0.309	0.050
-727.923	-66.953	-0.042	0.017
-726.908	0.828	-0.253	0.182
-725.894	-80.328	-0.192	-0.064
-724.879	-200.000	-0.421	-0.001
-723.864	-153.776	0.384	0.026
-722.850	106.929	-0.327	-0.390
-721.835	99.313	0.351	0.408
-720.821	1.652	0.258	-0.187
-719.806	-166.214	-0.246	-0.010
-718.791	-120.927	-0.157	0.027
-717.777	-87.441	-0.181	0.055
-716.762	2.692	-0.224	0.163
-715.748	-200.000	-0.031	0.154
-714.733	-200.000	0.023	0.413
-713.718	-200.000	0.003	-0.056
-712.704	126.838	-0.081	0.103
-711.689	15.788	-0.081	0.064
-710.675	800.000	-0.094	-0.284
-709.660	-40.300	0.204	-0.106
-708.645	47.596	0.190	-0.178
-707.631	-117.750	-0.271	0.049
-706.616	194.405	-0.238	-0.363
-705.602	-163.123	-0.246	-0.012
-704.587	-95.052	0.142	0.039
-703.572	-200.000	-0.013	0.121
-702.558	-79.985	-0.226	-0.076
-701.543	-144.543	-0.141	-0.013
-700.529	422.990	0.056	-0.120
-699.514	22.864	-0.176	-0.145
-698.499	182.006	-0.355	-0.525
-697.485	-81.006	-0.019	0.006
-696.470	-108.118	0.364	-0.079
-695.456	-8.226	-0.147	0.099
-694.441	27.012	-0.137	0.115
-693.426	-200.000	-0.033	0.224
-692.412	-200.000	-0.006	-0.035
-691.397	-119.171	0.153	-0.027
-690.383	333.946	-0.055	-0.106
-689.368	-66.265	0.279	-0.112
-688.354	-71.430	-0.111	0.042
-687.339	40.993	0.197	0.178
-686.324	800.000	-0.126	-0.387
-685.310	415.260	-0.133	-0.284
-684.295	-200.000	-0.076	-0.342
-683.281	483.360	0.113	-0.258
-682.266	411.799	0.061	-0.131
-681.251	-200.000	0.042	-0.206
-680.237	755.997	-0.153	-0.415
-679.222	800.000	-0.014	0.060
-678.208	-111.645	-0.271	0.055
-677.193	-29.870	0.141	0.080
-676.178	35.316	0.139	-0.122
-675.164	-141.459	0.175	0.018
-674.149	800.000	-0.129	-0.422
-673.135	67.919	-0.332	-0.341
-672.120	-200.000	-0.021	-0.095
-671.105	494.952	0.102	0.236
-670.091	-200.000	-0.008	-0.485
-669.076	-58.520	-0.227	0.099
-668.062	-25.869	-0.078	-0.046
-667.047	-51.611	0.149	0.070
-666.032	44.977	0.044	0.041
-665.018	-21.907	0.160	0.097
-664.003	-188.498	-0.042	0.001
-662.989	-75.065	0.211	0.076
-661.974	588.503	0.081	-0.201
-660.959	-71.788	-0.315	0.118
-659.945	-200.000	-0.004	0.112
-658.930	89.728	0.322	0.360
-657.916	-200.000	-0.016	-0.185
-656.901	-14.928	-0.302	-0.194
-655.886	-43.242	0.319	0.162
-654.872	-200.000	0.006	0.261
-653.857	-22.792	-0.182	-0.110
-652.843	-136.168	0.193	-0.023
-651.828	383.143	0.101	0.208
-650.814	-79.181	-0.312	0.106
-649.799	192.938	-0.136	-0.206
-648.784	-200.000	-0.032	0.237
-647.770	-41.463	-0.062	0.032
-646.755	-94.059	0.047	-0.013
-645.741	-185.774	-0.272	0.004
-644.726	800.000	0.095	0.265
-643.711	-94.859	-0.019	0.005
-642.697	77.994	-0.101	0.108
-641.682	16.838	-0.275	-0.218
-640.668	-19.166	-0.052	0.032
-639.653	286.824	-0.061	-0.110
-638.638	-183.487	0.183	-0.003
-637.624	-200.000	-0.064	0.328
-636.609	197.304	0.216	0.330
-635.595	100.611	0.129	-0.150
-634.580	15.703	0.061	-0.048
-633.565	-200.000	0.116	-0.664
-632.551	93.962	-0.115	0.131
-631.536	-24.739	0.069	0.041
-630.522	105.482	-0.195	-0.231
-629.507	-82.993	-0.242	-0.078
-628.492	800.000	-0.051	0.183
-627.478	-41.162	-0.266	0.138
-626.463	116.494	-0.095	0.117
-625.449	396.197	-0.074	0.154
-624.434	423.357	0.172	0.370
-623.419	-2.736	-0.141	-0.099
-622.405	366.664	0.161	-0.325
-621.390	509.847	0.066	-0.153
-620.376	-200.000	-0.015	-0.314
-619.361	-200.000	0.017	0.697
-618.346	-111.530	0.110	-0.022
-617.332	176.717	-0.059	0.086
-616.317	351.593	0.018	0.036
-615.303	-148.008	0.181	-0.015
-614.288	800.000	0.023	-0.077
-613.273	-200.000	0.107	-0.528
-612.259	376.924	0.080	0.164
-611.244	800.000	0.069	0.217
-610.230	800.000	0.012	0.041
-609.215	-83.698	-0.204	-0.065
-608.201	258.765	0.112	-0.193
-607.186	81.872	0.102	0.110
-606.171	205.835	0.107	0.166
-605.157	198.515	0.097	0.149
-604.142	-106.082	-0.188	0.042
-603.128	287.708	-0.245	0.443
-602.113	177.032	-0.154	0.225
-601.098	-85.837	-0.060	-0.019
-600.084	-119.868	-0.229	0.039
-599.069	800.000	0.076	-0.220
-598.055	-16.228	-0.385	-0.245
-597.040	-20.236	0.266	-0.164
-596.025	104.437	-0.123	0.145
-595.011	-109.239	-0.012	0.002
-593.996	245.714	0.128	-0.215
-592.982	-200.000	0.030	-0.350
-591.967	-42.616	-0.347	-0.177
-590.952	-14.793	-0.126	0.081
-589.938	-200.000	-0.020	-0.164
-588.923	435.692	-0.037	0.081
-587.909	-139.451	-0.526	0.056
-586.894	-158.746	0.152	0.009
-585.879	-8.417	0.341	0.229
-584.865	130.684	0.133	0.170
-583.850	-97.852	0.209	-0.054
-582.836	-158.599	-0.269	-0.015
-581.821	90.988	-0.217	0.244
-580.806	652.445	-0.027	-0.069
-579.792	-47.116	-0.166	0.081
-578.777	388.777	0.030	-0.063
-577.763	106.332	0.029	0.035
-576.748	800.000	-0.048	-0.135
-575.733	-33.877	-0.269	0.148
-574.719	-100.940	-0.055	0.013
-573.704	-17.896	0.157	0.098
-572.690	-200.000	0.045	-0.410
-571.675	546.964	-0.051	-0.121
-570.661	-117.889	-0.076	0.014
-569.646	-186.331	0.086	-0.001
-568.631	-59.517	0.201	0.086
-567.617	-128.427	-0.355	-0.050
-566.602	800.000	-0.080	0.313
-565.588	9.194	0.215	0.162
-564.573	-72.380	0.154	-0.057
-563.558	-200.000	0.050	-0.257
-562.544	-200.000	0.051	-0.375
-561.529	-67.110	0.084	0.033
-560.515	-75.848	-0.216	0.076
-559.500	-200.000	-0.039	-0.218
-558.485	-200.000	0.009	0.490
-557.471	161.465	0.103	0.143
-556.456	15.822	0.131	-0.103
-555.442	800.000	0.062	0.195
-554.427	198.518	-0.132	0.201
-553.412	517.410	-0.050	0.117
-552.398	-138.302	0.341	0.038
-551.383	42.581	-0.124	-0.113
-550.369	42.452	-0.113	-0.103
-549.354	52.305	-0.235	-0.224
-548.339	-50.479	0.316	-0.149
-547.325	37.372	0.198	-0.175
-546.310	684.495	-0.104	0.270
-545.296	150.998	0.148	-0.201
-544.281	-57.074	0.105	-0.046
-543.266	91.346	-0.119	-0.134
-542.252	-75.796	-0.310	-0.110
-541.237	-129.444	-0.201	-0.028
-540.223	-200.000	0.024	0.217
-539.208	800.000	-0.117	-0.348
-538.193	-200.000	-0.017	-0.099
-537.179	241.186	0.070	0.116
-536.164	-200.000	-0.006	-0.074
-535.150	-19.153	-0.136	0.084
-534.135	-44.035	0.113	0.056
-533.121	-56.673	-0.395	0.175
-532.106	19.660	-0.147	-0.118
-531.091	-200.000	-0.032	-0.258
-530.077	-200.000	0.022	0.274
-529.062	800.000	0.097	0.275
-528.048	-65.090	-0.139	-0.056
-527.033	551.722	0.023	0.055
-526.018	-106.870	0.204	0.045
-525.004	-138.468	0.148	-0.016
-523.989	-76.305	0.413	-0.145
-522.975	22.554	0.248	-0.202
-521.960	-83.177	-0.208	-0.067
-520.945	-31.908	-0.320	-0.179
-519.931	-131.224	-0.442	-0.058
-518.916	-200.000	0.058	-0.556
-517.902	5.018	-0.273	-0.201
-516.887	-68.924	-0.243	-0.093
-515.872	-71.714	0.050	0.019
-514.858	211.391	0.150	0.236
-513.843	-9.858	-0.341	-0.226
-512.829	63.710	0.178	-0.178
-511.814	307.958	0.150	-0.279
-510.799	10.474	0.159	-0.120
-509.785	3.252	-0.253	0.184
-508.770	79.779	-0.171	-0.183
-507.756	-200.000	-0.029	-0.230
-506.741	-33.139	-0.089	-0.049
-505.726	800.000	-0.020	-0.081
-504.712	-147.259	-0.239	0.020
-503.697	800.000	0.045	0.124
-502.683	-9.259	0.150	0.100
-501.668	-200.000	0.004	0.061
-500.653	-129.530	0.067	0.009
-499.639	-200.000	0.009	0.097
-498.624	73.846	-0.157	-0.164
-497.610	17.175	0.179	0.141
-496.595	-200.000	-0.012	-0.189
-495.581	73.625	-0.189	-0.197
-494.566	-82.470	-0.049	-0.016
-493.551	51.401	-0.089	0.084
-492.537	303.582	0.147	-0.271
-491.522	-200.000	0.028	0.174
-490.508	-111.422	0.333	-0.068
-489.493	-73.061	0.496	0.181
-488.478	-200.000	0.131	-0.709
-487.464	-10.035	0.280	-0.185
-486.449	130.902	0.086	0.110
-485.435	-163.616	-0.320	-0.015
-484.420	-200.000	-0.004	0.120
-483.405	159.073	0.144	-0.199
-482.391	-200.000	-0.015	-0.166
-481.376	-200.000	-0.086	0.510
-480.362	800.000	-0.042	-0.155
-479.347	216.339	-0.047	0.074
-478.332	-81.700	-0.235	-0.077
-477.318	-135.241	-0.186	-0.022
-476.303	-200.000	0.084	0.440
-475.289	-200.000	-0.021	0.120
-474.274	47.529	0.083	0.077
-473.259	-2.554	0.279	-0.195
-472.245	-200.000	-0.028	0.176
-471.230	-72.362	0.166	0.061
-470.216	800.000	0.085	-0.363
-469.201	-200.000	-0.030	0.254
-468.186	-51.533	0.317	-0.147
-467.172	-68.840	-0.057	0.022
-466.157	-108.802	0.260	0.055
-465.143	158.562	0.171	-0.236
-464.128	236.565	0.172	0.283
-463.113	800.000	0.070	-0.209
-462.099	330.874	0.122	0.234
-461.084	-200.000	0.072	-0.492
-460.070	-200.000	0.010	-0.170
-459.055	800.000	-0.128	0.410
-458.040	378.727	0.081	-0.165
-457.026	-200.000	-0.049	0.288
-456.011	-200.000	0.085	0.484
-454.997	5.128	-0.240	0.176
-453.982	-200.000	-0.019	-0.240
-452.968	150.289	0.273	-0.368
-451.953	-14.591	0.179	-0.114
-450.938	134.618	-0.167	0.215
-449.924	-18.908	-0.089	0.055
-448.909	-49.645	-0.253	0.120
-447.895	-6.495	0.198	0.134
-446.880	-97.660	0.407	-0.105
-445.865	-28.295	-0.288	0.165
-444.851	-131.714	0.240	-0.031
-443.836	800.000	0.032	0.134
-442.822	192.420	0.086	-0.129
-441.807	-107.700	0.223	-0.048
-440.792	-82.753	-0.214	0.069
-439.778	46.009	-0.120	-0.110
-438.763	-46.039	-0.109	0.053
-437.749	263.080	-0.156	-0.270
-436.734	-200.000	0.012	0.125
-435.719	-70.409	0.340	-0.128
-434.705	-200.000	0.047	0.236
-433.690	-200.000	0.010	0.154
-432.676	25.558	0.123	-0.102
-431.661	3.255	0.311	-0.225
-430.646	-200.000	0.019	-0.120
-429.632	-18.778	0.122	0.076
-428.617	721.389	0.199	0.527
-427.603	147.230	0.104	0.139
-426.588	130.595	0.130	-0.166
-425.573	49.501	0.245	0.230
-424.559	-200.000	-0.004	0.378
-423.544	-55.120	0.121	-0.054
-422.530	284.861	-0.071	0.127
-421.515	-11.892	0.136	0.089
-420.500	71.050	-0.119	0.123
-419.486	-200.000	0.032	-0.184
-418.471	47.801	0.171	-0.158
-417.457	571.815	-0.136	0.330
-416.442	3.985	0.175	0.127
-415.428	271.355	0.086	-0.150
-414.413	379.227	-0.039	0.079
-413.398	-7.891	-0.279	0.187
-412.384	-152.112	-0.281	0.020
-411.369	219.531	0.188	0.299
-410.355	557.993	-0.205	0.491
-409.340	-78.008	0.539	0.185
-408.325	4.266	-0.218	-0.158
-407.311	59.617	0.039	-0.038
-406.296	-20.006	0.134	-0.082
-405.282	800.000	0.042	-0.163
-404.267	8.257	-0.218	-0.162
-403.252	193.043	-0.305	0.458
-402.238	272.314	-0.171	0.299
-401.223	-200.000	0.015	-0.201
-400.209	-39.977	0.254	-0.131
-399.194	-100.161	0.067	0.017
-398.179	-35.196	0.163	-0.088
-397.165	29.901	-0.289	0.244
-396.150	148.090	0.100	0.133
-395.136	174.334	0.099	-0.143
-394.121	169.221	-0.109	-0.155
-393.106	-12.920	-0.071	-0.046
-392.092	354.359	0.072	-0.142
-391.077	278.461	0.086	-0.152
-390.063	43.637	0.101	0.091
-389.048	246.319	-0.134	0.224
-388.033	800.000	-0.024	0.101
-387.019	-110.877	0.148	0.030
-386.004	70.912	0.093	-0.096
-384.990	-114.487	-0.181	0.034
-383.975	-176.447	-0.263	0.007
-382.960	13.721	0.037	0.029
-381.946	503.029	0.067	0.153
-380.931	-146.652	-0.308	0.026
-379.917	800.000	-0.042	-0.150
-378.902	800.000	0.057	-0.161
-377.888	39.442	0.106	0.094
-376.873	-48.665	-0.119	0.057
-375.858	-163.386	-0.281	0.013
-374.844	-88.429	-0.086	-0.025
-373.829	-200.000	-0.042	-0.264
-372.815	-4.610	-0.252	-0.172
-371.800	800.000	-0.117	-0.363
-370.785	-72.585	0.117	-0.043
-369.771	192.620	-0.174	0.260
-368.756	800.000	-0.021	-0.078
-367.742	-3.240	-0.324	-0.224
-366.727	250.111	0.193	-0.324
-365.712	-69.373	0.104	-0.040
-364.698	800.000	0.055	-0.174
-363.683	124.221	-0.166	0.207
-362.669	26.796	0.083	-0.069
-361.654	-200.000	-0.037	0.246
-360.639	500.745	0.120	-0.275
-359.625	55.886	-0.028	-0.027
-358.610	800.000	-0.016	0.058
-357.596	-200.000	0.025	0.162
-356.581	-137.647	-0.289	-0.032
-355.566	-158.178	-0.214	0.012
-354.552	326.639	-0.130	0.247
-353.537	521.130	0.078	0.181
-352.523	-200.000	-0.014	0.451
-351.508	-70.818	0.225	-0.084
-350.493	-200.000	-0.009	-0.191
-349.479	-200.000	-0.011	-0.078
-348.464	-67.489	-0.150	-0.058
-347.450	182.389	-0.129	-0.189
-346.435	-27.555	-0.157	-0.090
-345.420	283.981	0.090	-0.160
-344.406	-191.709	-0.266	0.003
-343.391	-144.750	-0.061	-0.006
-342.377	143.831	-0.145	-0.191
-341.362	617.141	0.147	-0.364
-340.348	484.862	0.061	-0.137
-339.333	-200.000	0.000	0.223
-338.318	-83.382	0.097	0.031
-337.304	-30.985	-0.113	0.063
-336.289	-175.105	0.223	-0.006
-335.275	502.690	-0.143	-0.327
-334.260	-123.164	0.094	-0.015
-333.245	-73.068	0.183	0.066
-332.231	-110.123	-0.354	0.073
-331.216	-200.000	-0.052	0.250
-330.202	800.000	-0.065	0.188
-329.187	-200.000	-0.001	0.115
-328.172	-200.000	-0.006	-0.031
-327.158	-200.000	0.002	-0.212
-326.143	316.811	-0.053	0.099
-325.129	-54.240	-0.165	-0.074
-324.114	-74.845	0.363	0.129
-323.099	224.233	-0.145	0.232
-322.085	-67.341	-0.095	0.037
-321.070	38.860	-0.078	-0.069
-320.056	132.860	-0.134	0.171
-319.041	-39.519	-0.135	0.070
-318.026	-127.320	-0.220	-0.032
-317.012	435.681	-0.059	-0.127
-315.997	800.000	0.128	0.371
-314.983	305.518	-0.035	-0.065
-313.968	-12.645	0.100	-0.065
-312.953	800.000	-0.061	-0.234
-311.939	15.254	0.111	-0.086
-310.924	743.082	0.081	-0.215
-309.910	-33.509	0.203	0.111
-308.895	58.569	0.283	0.275
-307.880	-57.961	-0.161	0.069
-306.866	-200.000	-0.026	-0.367
-305.851	-200.000	0.020	0.183
-304.837	-77.633	0.439	0.150
-303.822	378.158	0.064	-0.129
-302.807	-49.243	-0.107	0.050
-301.793	-200.000	0.002	0.043
-300.778	252.931	0.066	-0.111
-299.764	800.000	-0.089	-0.263
-298.749	671.959	0.075	-0.193
-297.735	-4.337	-0.114	0.078
-296.720	-103.328	-0.151	0.035
-295.705	-118.622	-0.254	0.044
-294.691	4.516	0.235	0.170
-293.676	633.451	0.060	-0.150
-292.662	136.635	0.092	0.118
-291.647	-2.039	-0.395	-0.275
-290.632	28.196	0.197	0.164
-289.618	-96.073	0.162	0.043
-288.603	7.411	0.018	-0.013
-287.589	74.744	-0.079	-0.082
-286.574	-200.000	-0.011	0.101
-285.559	-131.188	0.207	0.027
-284.545	800.000	0.085	-0.362
-283.530	-200.000	-0.000	0.305
-282.516	158.605	-0.052	-0.071
-281.501	-162.978	-0.243	-0.012
-280.486	694.875	0.080	0.208
-279.472	-75.952	-0.390	0.136
-278.457	105.545	-0.130	-0.152
-277.443	800.000	0.051	-0.180
-276.428	-52.390	0.196	0.090
-275.413	-49.135	0.129	-0.061
-274.399	-169.480	0.113	-0.004
-273.384	191.557	0.146	0.217
-272.370	-200.000	0.011	0.239
-271.355	-51.919	0.320	0.147
-270.340	800.000	0.026	0.074
-269.326	562.644	0.048	0.114
-268.311	170.966	-0.217	0.307
-267.297	-49.483	-0.159	-0.075
-266.282	-180.399	-0.293	0.006
-265.267	-200.000	-0.027	0.177
-264.253	-88.401	0.258	-0.076
-263.238	-167.720	-0.400	-0.016
-262.224	453.185	-0.030	0.065
-261.209	-200.000	0.084	-0.472
-260.195	136.196	-0.114	0.146
-259.180	61.558	0.209	0.205
-258.165	800.000	-0.056	0.183
-257.151	324.378	0.087	0.163
-256.136	800.000	0.064	0.245
-255.122	-200.000	-0.036	0.239
-254.107	800.000	-0.080	-0.241
-253.092	180.980	-0.031	0.045
-252.078	351.764	-0.053	-0.103
-251.063	3.741	0.240	0.173
-250.049	15.204	-0.081	0.063
-249.034	288.741	0.158	-0.283
-248.019	-35.702	0.172	0.092
-247.005	-112.881	-0.217	-0.042
-245.990	136.721	0.116	0.149
-244.976	800.000	0.097	-0.385
-243.961	85.313	-0.087	-0.094
-242.946	521.117	-0.020	0.046
-241.932	184.339	-0.157	-0.229
-240.917	-37.769	-0.085	-0.045
-239.903	587.471	0.148	-0.359
-238.888	89.194	0.159	-0.174
-237.873	235.601	0.101	-0.165
-236.859	-182.298	-0.304	0.006
-235.844	-200.000	0.003	-0.128
-234.830	-151.246	-0.204	-0.015
-233.815	287.519	0.102	-0.181
-232.800	140.918	0.137	0.178
-231.786	237.286	-0.109	0.178
-230.771	-104.325	-0.209	0.048
-229.757	-64.952	0.152	-0.061
-228.742	800.000	-0.109	0.392
-227.727	-46.069	0.313	0.152
-226.713	44.296	-0.196	-0.177
-225.698	16.976	0.171	0.134
-224.684	-47.054	0.126	-0.061
-223.669	-191.363	0.214	-0.002
-222.655	-26.950	0.170	0.098
-221.640	156.293	-0.101	0.137
-220.625	800.000	-0.098	0.344
-219.611	-126.840	0.335	-0.049
-218.596	800.000	0.065	0.209
-217.582	-56.203	0.270	-0.118
-216.567	-200.000	-0.022	0.220
-215.552	800.000	0.047	0.196
-214.538	-49.708	0.098	0.046
-213.523	-54.790	-0.175	-0.078
-212.509	-27.458	0.111	0.064
-211.494	444.050	0.102	0.221
-210.479	-97.845	-0.377	-0.096
-209.465	42.095	0.523	-0.468
-208.450	-74.593	-0.285	0.101
-207.436	135.894	-0.185	-0.237
-206.421	533.889	-0.085	-0.197
-205.406	-200.000	-0.137	-0.001
-204.392	136.147	0.141	-0.181
-203.377	-200.000	-0.061	0.324
-202.363	800.000	-0.071	-0.258
-201.348	-6.198	-0.328	0.221
-200.333	101.759	0.210	-0.241
-199.319	-83.094	-0.246	-0.078
-198.304	-77.777	0.016	-0.006
-197.290	-109.460	-0.162	-0.034
-196.275	312.110	-0.037	0.068
-195.260	-105.969	-0.148	-0.033
-194.246	76.173	-0.167	0.174
-193.231	-140.380	-0.027	-0.003
-192.217	142.441	0.066	0.086
-191.202	-32.741	0.295	-0.161
-190.187	27.210	0.177	-0.147
-189.173	-27.295	-0.063	-0.036
-188.158	-114.052	0.203	0.039
-187.144	18.590	-0.133	0.105
-186.129	11.000	0.199	0.150
-185.114	416.182	-0.033	0.068
-184.100	-41.062	0.150	-0.076
-183.085	139.503	-0.091	0.118
-182.071	-40.554	0.117	-0.060
-181.056	170.382	0.110	0.155
-180.042	-200.000	-0.002	-0.274
-179.027	-58.241	-0.254	-0.109
-178.012	26.179	-0.119	0.098
-176.998	-12.066	0.202	-0.130
-175.983	35.694	-0.199	-0.172
-174.969	-189.342	0.468	-0.005
-173.954	-126.360	0.281	-0.041
-172.939	800.000	-0.071	-0.205
-171.925	-48.733	-0.136	0.064
-170.910	291.172	-0.091	-0.164
-169.896	-67.543	-0.113	0.044
-168.881	-200.000	-0.026	0.123
-167.866	-114.572	-0.143	0.027
-166.852	-8.097	-0.114	0.076
-165.837	-14.745	0.056	-0.035
-164.823	800.000	-0.144	-0.459
-163.808	-58.207	0.216	-0.093
-162.793	-22.002	0.194	-0.116
-161.779	-200.000	-0.001	0.106
-160.764	-156.768	0.170	-0.010
-159.750	-113.886	0.132	0.025
-158.735	-200.000	-0.011	0.196
-157.720	-24.102	0.284	-0.167
-156.706	-14.268	-0.193	0.122
-155.691	26.474	-0.341	0.280
-154.677	-134.312	0.186	-0.022
-153.662	-96.523	0.351	0.091
-152.647	-179.740	0.276	0.006
-151.633	-161.589	0.111	0.006
-150.618	800.000	0.123	-0.335
-149.604	37.775	0.161	0.141
-148.589	-2.573	-0.101	0.070
-147.574	-30.075	-0.326	-0.182
-146.560	-200.000	-0.017	-0.081
-145.545	382.500	-0.048	0.096
-144.531	-24.203	-0.277	-0.163
-143.516	582.727	-0.069	0.167
-142.502	-16.872	-0.254	0.158
-141.487	-102.292	-0.073	0.017
-140.472	110.790	-0.107	-0.127
-139.458	415.805	0.165	0.347
-138.443	-200.000	-0.072	0.389
-137.429	-55.309	0.159	0.070
-136.414	233.887	0.129	0.209
-135.399	-157.391	0.174	0.010
-134.385	-200.000	0.053	-0.256
-133.370	800.000	0.051	0.195
-132.356	-39.124	-0.127	-0.066
-131.341	79.260	-0.009	-0.010
-130.326	-92.614	0.205	-0.056
-129.312	249.804	0.132	0.220
-128.297	158.869	0.135	-0.185
-127.283	-113.109	-0.222	0.043
-126.268	797.635	-0.061	-0.166
-125.253	800.000	-0.038	0.102
-124.239	-200.000	0.020	0.186
-123.224	-200.000	-0.029	0.162
-122.210	800.000	0.084	-0.358
-121.195	-19.914	-0.176	-0.107
