DTS Sentinel unit serial number:	SN413079Multiplexer serial number:	ORYXHardware model number:	OX4-SRSoftware version number:	ORYX F/W v4.00 Oryx Data Collector v3.7.2.0data status	okinstallation	princeton_trtdifferential loss correction	single-endedforward channel	channel 2reverse channel	N/Adate	2019/09/11time	09:21:11forward acquisition time	60.00reverse acquisition time	0.00gamma	496.2192k internal	0.2318k external	0.2318temperature offset calibration	0.9966default loss term (dB/km)	0.3790temperature slope calibration	1.0000multiplexer offset coefficient	1.0000multiplexer slope coefficient	1.0000fibre end	0.00T internal ref (°C)	34.52T ext. ref 1 (°C)	0.14T ext. ref 2 (°C)	31.44length (m)	temperature (°C)	Stokes	anti-Stokes-747.200	65.785	-0.046	-0.047
-746.185	-35.482	-0.352	-0.194
-745.171	-128.712	0.174	-0.025
-744.156	31.209	0.245	0.213
-743.142	-200.000	0.031	-0.318
-742.127	381.811	-0.245	0.509
-741.112	198.032	-0.192	-0.297
-740.098	255.758	-0.120	0.208
-739.083	-58.189	-0.050	0.022
-738.069	-200.000	-0.026	0.278
-737.054	297.369	0.014	-0.026
-736.039	-200.000	-0.005	0.170
-735.025	332.200	0.052	0.102
-734.010	-97.980	-0.090	-0.024
-732.996	-78.157	0.201	-0.070
-731.981	-200.000	0.031	0.165
-730.966	259.245	0.086	-0.150
-729.952	28.655	0.145	0.124
-728.937	800.000	-0.070	-0.203
-727.923	192.599	-0.074	-0.113
-726.908	-23.568	-0.335	-0.204
-725.894	-200.000	-0.033	-0.211
-724.879	-64.921	-0.193	-0.079
-723.864	-200.000	0.004	-0.243
-722.850	-200.000	0.005	-0.134
-721.835	-131.391	-0.440	-0.059
-720.821	-200.000	-0.047	-0.318
-719.806	69.962	-0.185	-0.193
-718.791	-200.000	-0.015	-0.090
-717.777	521.861	-0.095	0.225
-716.762	-200.000	-0.068	0.337
-715.748	153.655	-0.026	0.036
-714.733	-200.000	-0.002	0.079
-713.718	41.104	0.065	0.059
-712.704	800.000	-0.088	-0.341
-711.689	-39.237	-0.123	0.065
-710.675	7.713	-0.166	-0.126
-709.660	-28.631	0.254	0.148
-708.645	218.291	0.052	-0.083
-707.631	-68.092	0.292	0.115
-706.616	662.525	-0.066	-0.173
-705.602	800.000	-0.148	0.539
-704.587	-116.300	0.251	0.047
-703.572	-158.073	0.284	-0.017
-702.558	269.698	-0.115	-0.204
-701.543	100.675	0.061	-0.072
-700.529	-36.204	-0.233	-0.127
-699.514	-21.015	0.150	-0.093
-698.499	800.000	-0.063	-0.193
-697.485	-143.121	0.340	0.033
-696.470	-90.024	0.213	-0.063
-695.456	448.239	0.078	0.174
-694.441	-97.277	-0.138	-0.036
-693.426	-116.338	0.134	-0.025
-692.412	258.238	-0.131	-0.227
-691.397	-79.378	-0.208	0.071
-690.383	85.285	0.258	0.286
-689.368	-200.000	0.013	-0.126
-688.354	-36.911	0.375	-0.203
-687.339	-100.268	-0.242	-0.061
-686.324	42.895	0.302	-0.278
-685.310	-200.000	-0.007	-0.312
-684.295	-60.558	-0.123	0.053
-683.281	320.163	0.020	0.039
-682.266	196.694	0.248	-0.382
-681.251	26.977	-0.105	-0.089
-680.237	103.640	0.083	0.099
-679.222	-96.787	-0.387	-0.103
-678.208	-200.000	0.050	0.295
-677.193	-118.352	-0.333	0.060
-676.178	494.293	0.062	-0.143
-675.164	108.702	0.084	0.101
-674.149	-200.000	-0.061	-0.274
-673.135	-151.473	-0.213	0.016
-672.120	-200.000	-0.002	0.112
-671.105	-159.330	0.127	-0.007
-670.091	209.953	0.056	0.089
-669.076	-200.000	0.018	-0.423
-668.062	-66.218	0.105	0.042
-667.047	-92.204	0.108	0.031
-666.032	-200.000	0.012	-0.062
-665.018	-74.465	-0.160	-0.058
-664.003	800.000	0.056	-0.165
-662.989	-189.821	-0.110	-0.001
-661.974	175.503	-0.092	-0.135
-660.959	-63.836	-0.151	0.063
-659.945	-200.000	-0.003	-0.151
-658.930	-31.004	-0.182	-0.104
-657.916	-200.000	0.059	0.522
-656.901	-6.301	0.234	0.161
-655.886	-200.000	-0.094	-0.418
-654.872	105.657	-0.104	-0.124
-653.857	-16.902	-0.140	-0.089
-652.843	-200.000	-0.003	0.092
-651.828	181.456	0.144	-0.214
-650.814	169.664	0.206	0.297
-649.799	-34.241	0.194	0.107
-648.784	-49.843	-0.055	0.026
-647.770	800.000	0.031	-0.130
-646.755	-31.248	0.107	0.061
-645.741	-79.421	-0.221	0.075
-644.726	-58.679	-0.045	-0.020
-643.711	-17.817	-0.138	-0.088
-642.697	-129.000	0.152	0.021
-641.682	-129.965	0.137	-0.019
-640.668	-53.785	0.030	0.014
-639.653	-200.000	0.022	-0.125
-638.638	-162.942	-0.323	-0.016
-637.624	800.000	-0.059	0.174
-636.609	-150.906	0.059	-0.005
-635.595	-200.000	0.006	0.075
-634.580	-132.263	-0.106	0.014
-633.565	-131.034	-0.230	0.031
-632.551	4.870	0.097	0.072
-631.536	136.019	0.071	-0.093
-630.522	492.221	-0.046	0.107
-629.507	350.696	0.075	0.150
-628.492	-75.257	0.111	0.040
-627.478	-5.093	-0.131	-0.091
-626.463	35.466	0.090	0.079
-625.449	-73.708	0.158	-0.058
-624.434	800.000	-0.040	-0.157
-623.419	-94.470	-0.045	0.012
-622.405	-124.209	0.153	-0.024
-621.390	-200.000	0.089	-0.441
-620.376	-47.435	-0.238	0.116
-619.361	197.269	0.165	0.254
-618.346	-88.838	0.161	-0.048
-617.332	-61.527	-0.205	-0.087
-616.317	-90.443	-0.168	0.049
-615.303	-173.485	-0.241	0.007
-614.288	677.245	-0.139	-0.364
-613.273	-158.723	-0.137	0.008
-612.259	800.000	-0.090	0.328
-611.244	21.122	0.321	0.263
-610.230	-33.162	-0.500	-0.279
-609.215	1.851	0.083	-0.060
-608.201	-21.151	0.142	-0.087
-607.186	-200.000	0.004	-0.220
-606.171	-105.294	-0.274	0.063
-605.157	-146.684	0.096	0.008
-604.142	-102.034	-0.309	0.075
-603.128	-111.678	-0.141	-0.029
-602.113	259.182	0.056	-0.098
-601.098	-115.175	-0.214	-0.041
-600.084	472.747	-0.031	0.069
-599.069	319.849	-0.085	-0.162
-598.055	36.789	-0.230	0.204
-597.040	-32.308	-0.264	0.148
-596.025	-136.303	0.292	-0.034
-595.011	-50.501	0.517	-0.246
-593.996	-60.007	0.466	0.200
-592.982	-200.000	-0.002	-0.111
-591.967	-200.000	-0.030	0.166
-590.952	-49.733	0.076	-0.036
-589.938	-82.767	-0.278	-0.091
-588.923	-168.524	0.238	-0.009
-587.909	-51.544	-0.075	-0.035
-586.894	-179.451	-0.258	0.006
-585.879	-200.000	0.000	0.151
-584.865	-95.988	-0.119	0.032
-583.850	-59.500	0.046	-0.020
-582.836	62.697	0.101	0.102
-581.821	-200.000	-0.050	-0.233
-580.806	-134.277	-0.220	0.027
-579.792	800.000	0.092	-0.291
-578.777	-72.370	0.120	-0.045
-577.763	239.844	-0.153	0.256
-576.748	-200.000	-0.069	0.424
-575.733	-149.649	-0.164	0.013
-574.719	-200.000	0.032	0.203
-573.704	-33.647	0.214	0.119
-572.690	800.000	0.019	0.077
-571.675	-51.520	0.275	-0.129
-570.661	241.010	0.211	0.354
-569.646	-194.961	0.221	-0.002
-568.631	800.000	0.069	0.211
-567.617	100.537	-0.209	-0.244
-566.602	205.585	0.033	-0.052
-565.588	87.959	-0.182	-0.203
-564.573	55.426	-0.119	-0.116
-563.558	-200.000	-0.038	-0.191
-562.544	169.519	-0.102	-0.146
-561.529	-42.889	-0.318	-0.162
-560.515	106.544	0.180	-0.214
-559.500	-104.672	0.392	-0.091
-558.485	333.728	-0.217	-0.423
-557.471	2.197	-0.123	0.089
-556.456	-108.979	-0.316	0.068
-555.442	-21.187	0.106	0.065
-554.427	-200.000	-0.088	-0.409
-553.412	-200.000	0.030	0.156
-552.398	-197.680	-0.395	0.002
-551.383	27.846	-0.314	-0.266
-550.369	226.919	-0.120	-0.196
-549.354	-22.196	-0.057	-0.034
-548.339	-200.000	0.075	-0.393
-547.325	800.000	-0.050	-0.163
-546.310	-108.775	0.367	-0.079
-545.296	800.000	-0.057	-0.192
-544.281	-200.000	-0.004	-0.290
-543.266	-89.982	0.115	-0.034
-542.252	-200.000	0.032	0.268
-541.237	98.162	-0.173	0.200
-540.223	-66.532	-0.137	-0.055
-539.208	170.861	0.095	-0.137
-538.193	268.043	-0.160	0.281
-537.179	-200.000	-0.009	0.266
-536.164	80.071	0.156	0.169
-535.150	800.000	0.072	0.276
-534.135	800.000	-0.075	0.215
-533.121	380.605	-0.018	-0.038
-532.106	105.034	-0.195	0.231
-531.091	168.264	0.107	-0.153
-530.077	232.489	0.098	-0.162
-529.062	-109.040	-0.190	0.041
-528.048	-87.406	0.167	-0.051
-527.033	-25.669	0.233	0.138
-526.018	-82.217	-0.300	-0.098
-525.004	-56.457	-0.378	0.168
-523.989	-19.405	0.207	0.129
-522.975	-68.498	-0.166	-0.064
-521.960	-51.357	-0.080	-0.038
-520.945	581.274	0.099	-0.244
-519.931	-200.000	-0.021	0.368
-518.916	118.579	0.146	-0.181
-517.902	-73.899	-0.352	-0.128
-516.887	-97.465	-0.156	-0.041
-515.872	800.000	-0.141	0.521
-514.858	-200.000	-0.009	0.306
-513.843	-87.323	-0.249	0.076
-512.829	800.000	-0.046	-0.165
-511.814	58.031	0.068	0.066
-510.799	339.465	-0.095	0.185
-509.785	-118.532	-0.075	0.013
-508.770	3.646	0.099	-0.073
-507.756	38.623	-0.162	0.145
-506.741	94.920	0.023	0.026
-505.726	-120.343	-0.168	-0.029
-504.712	267.575	-0.036	-0.062
-503.697	663.512	0.062	-0.159
-502.683	-200.000	-0.006	0.241
-501.668	-27.562	0.381	-0.222
-500.653	-58.459	-0.054	0.023
-499.639	800.000	0.048	0.149
-498.624	26.807	0.186	-0.156
-497.610	68.938	0.021	-0.021
-496.595	47.531	0.120	0.112
-495.581	800.000	0.045	-0.167
-494.566	-9.187	0.147	0.098
-493.551	-0.103	-0.508	0.362
-492.537	-200.000	-0.007	-0.132
-491.522	241.479	0.100	-0.168
-490.508	629.873	0.047	-0.119
-489.493	-31.039	0.034	-0.019
-488.478	800.000	-0.010	-0.040
-487.464	339.682	-0.166	0.325
-486.449	-144.897	-0.216	-0.020
-485.435	-163.176	0.273	-0.013
-484.420	-200.000	0.009	-0.062
-483.405	80.778	0.262	0.283
-482.391	-12.443	-0.212	-0.139
-481.376	539.878	-0.130	-0.310
-480.362	53.478	-0.159	-0.153
-479.347	-7.064	-0.137	-0.093
-478.332	-25.205	0.112	-0.066
-477.318	-105.061	-0.245	0.056
-476.303	-47.310	0.152	-0.074
-475.289	-35.244	0.472	0.257
-474.274	-200.000	-0.054	-0.258
-473.259	-153.370	0.003	-0.000
-472.245	144.378	-0.109	-0.146
-471.230	-200.000	-0.016	0.092
-470.216	-70.696	-0.285	0.108
-469.201	-89.456	-0.146	-0.043
-468.186	-200.000	-0.007	-0.329
-467.172	64.564	0.176	-0.178
-466.157	723.972	0.043	-0.115
-465.143	-200.000	0.005	0.225
-464.128	-11.264	0.335	-0.221
-463.113	63.609	-0.325	-0.327
-462.099	86.713	0.225	-0.249
-461.084	44.413	-0.067	0.061
-460.070	-158.509	0.181	0.010
-459.055	-103.451	0.123	-0.029
-458.040	45.758	0.216	-0.200
-457.026	253.489	-0.192	-0.327
-456.011	-200.000	-0.006	-0.149
-454.997	-153.878	-0.079	0.005
-453.982	-91.677	-0.235	0.067
-452.968	800.000	0.066	0.259
-451.953	122.749	0.115	-0.145
-450.938	613.466	-0.049	-0.124
-449.924	-84.962	-0.267	-0.084
-448.909	-200.000	0.004	-0.071
-447.895	800.000	-0.120	0.406
-446.880	580.683	-0.161	0.395
-445.865	-145.703	0.157	-0.014
-444.851	-81.328	0.237	-0.078
-443.836	-52.200	-0.271	0.126
-442.822	-116.269	0.287	-0.053
-441.807	-29.283	-0.144	0.082
-440.792	-140.818	-0.119	-0.012
-439.778	-142.716	0.131	-0.013
-438.763	-71.799	-0.162	0.061
-437.749	80.123	0.137	0.148
-436.734	172.817	0.096	-0.138
-435.719	-157.537	0.226	0.014
-434.705	50.481	-0.120	-0.113
-433.690	-200.000	0.023	0.350
-432.676	43.307	0.027	-0.025
-431.661	-60.536	-0.303	0.128
-430.646	388.159	-0.026	0.055
-429.632	-154.815	0.102	-0.007
-428.617	12.200	0.209	0.161
-427.603	9.499	-0.140	-0.106
-426.588	-200.000	0.006	0.235
-425.573	-103.040	-0.183	-0.043
-424.559	-117.756	0.168	0.030
-423.544	-1.234	0.066	-0.047
-422.530	297.686	0.159	0.292
-421.515	95.454	0.267	-0.304
-420.500	-200.000	0.041	-0.229
-419.486	800.000	0.039	0.170
-418.471	-200.000	-0.062	-0.288
-417.457	199.446	0.176	-0.270
-416.442	-200.000	0.023	0.209
-415.428	-4.378	0.048	0.033
-414.413	-35.818	-0.303	0.164
-413.398	-23.081	0.194	0.117
-412.384	-200.000	-0.054	0.276
-411.369	-2.561	0.082	-0.058
-410.355	31.272	-0.215	0.184
-409.340	-200.000	-0.009	0.067
-408.325	-98.892	0.273	0.069
-407.311	-82.795	-0.072	0.023
-406.296	-93.929	-0.247	0.068
-405.282	-200.000	0.066	-0.395
-404.267	-58.509	-0.122	0.053
-403.252	92.031	-0.151	0.170
-402.238	344.983	0.058	-0.114
-401.223	13.284	-0.090	0.070
-400.209	-143.972	0.213	-0.020
-399.194	-13.244	0.256	0.166
-398.179	800.000	-0.051	0.179
-397.165	-70.328	0.192	-0.073
-396.150	24.731	0.322	0.267
-395.136	-200.000	-0.040	0.221
-394.121	800.000	-0.070	0.292
-393.106	-200.000	-0.043	0.233
-392.092	800.000	0.115	-0.344
-391.077	98.443	-0.169	0.195
-390.063	-200.000	0.002	-0.138
-389.048	-82.761	0.131	-0.042
-388.033	106.602	0.354	0.420
-387.019	-177.559	0.222	0.005
-386.004	102.277	0.198	-0.231
-384.990	-35.562	0.192	-0.104
-383.975	-200.000	0.040	0.279
-382.960	3.105	-0.417	-0.302
-381.946	122.511	-0.313	-0.390
-380.931	800.000	-0.049	0.176
-379.917	800.000	-0.064	-0.200
-378.902	419.880	-0.087	-0.186
-377.888	109.548	-0.153	-0.183
-376.873	-70.168	-0.398	0.151
-375.858	-59.578	0.195	-0.084
-374.844	-16.343	0.158	0.100
-373.829	800.000	-0.045	0.129
-372.815	233.059	-0.117	0.191
-371.800	16.850	-0.174	0.137
-370.785	-157.716	-0.321	0.019
-369.771	-8.105	0.119	0.080
-368.756	-200.000	0.023	0.119
-367.742	15.102	0.374	-0.293
-366.727	-61.753	0.362	0.151
-365.712	-133.916	-0.252	-0.031
-364.698	-200.000	-0.046	-0.316
-363.683	-140.858	-0.151	0.015
-362.669	-120.384	-0.099	0.017
-361.654	-102.003	-0.208	-0.050
-360.639	240.014	-0.115	0.191
-359.625	125.675	-0.069	-0.087
-358.610	68.797	-0.112	0.115
-357.596	-52.756	0.181	-0.083
-356.581	-146.299	0.350	-0.031
-355.566	-45.105	-0.181	-0.090
-354.552	-126.847	-0.493	-0.072
-353.537	-129.752	0.248	-0.034
-352.523	-172.719	-0.292	-0.009
-351.508	800.000	0.018	0.050
-350.493	-16.569	0.073	-0.046
-349.479	-200.000	0.038	-0.255
-348.464	-136.235	0.181	0.021
-347.450	-200.000	0.010	0.054
-346.435	-200.000	0.066	-0.466
-345.420	800.000	-0.114	-0.353
-344.406	-200.000	0.029	0.139
-343.391	270.095	0.139	-0.244
-342.377	-111.671	0.333	-0.067
-341.362	-112.732	0.202	0.040
-340.348	24.733	0.149	-0.123
-339.333	136.249	-0.150	0.195
-338.318	-200.000	-0.001	0.071
-337.304	-135.008	0.297	0.036
-336.289	-106.501	-0.133	0.030
-335.275	466.340	0.092	-0.204
-334.260	-20.357	0.023	0.014
-333.245	-200.000	0.013	0.059
-332.231	-121.866	0.224	-0.037
-331.216	11.245	0.112	-0.086
-330.202	-85.684	0.215	-0.067
-329.187	389.408	0.060	0.123
-328.172	-66.286	0.230	0.091
-327.158	683.841	0.029	0.076
-326.143	-200.000	-0.052	-0.367
-325.129	86.870	-0.098	0.108
-324.114	800.000	0.031	0.106
-323.099	800.000	-0.151	-0.457
-322.085	-200.000	0.005	0.200
-321.070	-150.168	0.306	0.024
-320.056	57.686	-0.173	-0.169
-319.041	-75.970	0.319	0.112
-318.026	-5.621	-0.042	-0.028
-317.012	195.439	0.070	-0.106
-315.997	-31.990	-0.308	-0.172
-314.983	-74.098	-0.275	-0.099
-313.968	-65.019	0.105	-0.042
-312.953	-47.678	0.290	-0.140
-311.939	800.000	-0.042	0.142
-310.924	-200.000	0.025	-0.136
-309.910	-77.609	0.284	-0.098
-308.895	-97.425	-0.120	0.031
-307.880	188.994	-0.117	-0.174
-306.866	-200.000	-0.036	-0.254
-305.851	800.000	0.008	-0.027
-304.837	-72.801	-0.292	-0.107
-303.822	-101.626	-0.147	-0.036
-302.807	327.312	-0.033	0.064
-301.793	-127.156	0.132	-0.019
-300.778	-68.908	0.376	0.144
-299.764	-81.487	-0.140	-0.046
-298.749	15.442	0.033	0.025
-297.735	18.287	0.065	-0.051
-296.720	-107.905	0.091	0.020
-295.705	-90.021	-0.534	-0.155
-294.691	170.457	-0.180	-0.256
-293.676	85.083	0.111	0.122
-292.662	-200.000	0.027	0.158
-291.647	450.187	-0.006	-0.012
-290.632	800.000	0.049	0.164
-289.618	-152.071	0.321	0.023
-288.603	152.193	0.066	0.090
-287.589	-6.408	0.278	0.188
-286.574	131.733	0.146	0.187
-285.559	161.137	0.140	-0.194
-284.545	-62.763	0.085	0.035
-283.530	-200.000	-0.026	0.138
-282.516	57.537	-0.113	-0.110
-281.501	175.649	0.285	-0.411
-280.486	800.000	-0.087	0.300
-279.472	38.961	0.249	0.221
-278.457	800.000	-0.079	0.328
-277.443	800.000	0.090	-0.311
-276.428	-45.495	0.109	-0.054
-275.413	699.587	0.160	0.418
-274.399	-95.008	-0.091	-0.025
-273.384	158.880	-0.132	0.182
-272.370	800.000	-0.060	-0.184
-271.355	-97.961	-0.214	0.055
-270.340	-200.000	-0.001	-0.042
-269.326	149.757	0.312	-0.420
-268.311	33.277	0.198	0.171
-267.297	-200.000	0.016	0.126
-266.282	-94.900	0.150	0.040
-265.267	201.231	-0.147	0.225
-264.253	364.511	-0.097	0.193
-263.238	-142.099	0.376	-0.037
-262.224	-46.111	0.101	0.050
-261.209	-75.789	0.129	0.045
-260.195	-9.803	0.463	-0.306
-259.180	36.708	-0.235	0.206
-258.165	-88.520	-0.091	0.027
-257.151	41.953	0.088	-0.079
-256.136	-53.695	0.203	-0.092
-255.122	-200.000	0.005	-0.062
-254.107	140.598	-0.234	-0.307
-253.092	-200.000	0.041	-0.316
-252.078	-121.330	0.099	0.016
-251.063	-49.756	-0.128	-0.060
-250.049	800.000	-0.026	-0.100
-249.034	72.846	-0.190	0.197
-248.019	-200.000	-0.033	0.194
-247.005	-112.010	0.307	-0.061
-245.990	43.774	-0.101	-0.091
-244.976	-200.000	0.011	-0.079
-243.961	-135.300	-0.062	-0.007
-242.946	-127.787	0.490	-0.070
-241.932	800.000	0.060	-0.220
-240.917	268.263	-0.099	0.173
-239.903	-200.000	0.017	0.099
-238.888	-125.631	0.147	0.022
-237.873	-113.302	0.276	-0.054
-236.859	433.516	0.113	0.244
-235.844	316.562	0.065	-0.122
-234.830	-48.355	-0.372	0.178
-233.815	-54.408	0.220	0.099
-232.800	19.622	0.237	0.189
-231.786	-200.000	-0.081	0.401
-230.771	-151.304	-0.213	-0.016
-229.757	721.429	0.037	0.098
-228.742	486.496	-0.092	0.209
-227.727	52.045	0.043	0.041
-226.713	-0.858	0.062	-0.043
-225.698	66.892	0.339	0.342
-224.684	573.667	0.084	-0.203
-223.669	-200.000	0.014	0.268
-222.655	-200.000	0.010	-0.156
-221.640	-18.733	-0.147	0.091
-220.625	14.126	-0.181	0.139
-219.611	-74.146	0.280	-0.101
-218.596	-127.823	-0.408	-0.058
-217.582	-51.488	0.134	0.062
-216.567	240.599	0.063	0.104
-215.552	121.435	-0.310	-0.383
-214.538	369.054	-0.130	0.260
-213.523	-175.595	-0.173	0.005
-212.509	-130.727	0.413	0.055
-211.494	-200.000	0.001	-0.044
-210.479	-147.365	-0.174	0.015
-209.465	-200.000	0.013	0.082
-208.450	-86.219	0.159	0.049
-207.436	29.683	-0.135	-0.114
-206.421	-177.593	0.040	0.001
-205.406	-87.259	-0.207	-0.062
-204.392	-134.519	0.327	0.040
-203.377	-200.000	-0.057	-0.463
-202.363	45.736	0.182	-0.166
-201.348	125.766	-0.090	-0.113
-200.333	2.651	-0.163	-0.117
-199.319	-111.938	0.106	-0.021
-198.304	-200.000	-0.029	0.315
-197.290	344.716	-0.104	0.201
-196.275	281.702	0.208	-0.370
-195.260	3.286	0.156	-0.113
-194.246	123.220	0.132	0.163
-193.231	161.624	-0.075	-0.104
-192.217	236.754	-0.264	0.433
-191.202	24.199	-0.286	0.234
-190.187	-109.093	-0.512	0.108
-189.173	616.563	0.101	-0.251
-188.158	25.042	0.195	0.160
-187.144	-200.000	0.013	0.191
-186.129	46.589	-0.105	-0.096
-185.114	-166.335	-0.265	0.011
-184.100	369.578	-0.038	0.077
-183.085	-85.081	0.212	-0.066
-182.071	62.542	0.013	0.013
-181.056	-153.464	-0.400	0.027
-180.042	57.652	0.115	0.112
-179.027	800.000	0.032	0.097
-178.012	-200.000	-0.044	0.270
-176.998	179.561	-0.167	-0.242
-175.983	688.050	-0.153	-0.395
-174.969	-46.389	0.222	-0.108
-173.954	-62.231	0.361	-0.149
-172.939	-132.195	0.293	0.038
-171.925	198.249	0.178	0.270
-170.910	-19.086	0.051	-0.031
-169.896	23.323	0.252	0.205
-168.881	-200.000	-0.021	0.237
-167.866	-200.000	0.003	-0.445
-166.852	800.000	-0.066	0.185
-165.837	-44.505	-0.492	0.244
-164.823	-107.385	-0.119	0.026
-163.808	216.412	0.036	-0.057
-162.793	106.937	-0.178	-0.209
-161.779	-61.112	-0.173	0.072
-160.764	127.719	0.058	-0.073
-159.750	499.712	0.027	0.061
-158.735	-52.371	0.089	0.041
-157.720	-148.973	-0.280	-0.022
-156.706	-165.703	0.157	0.007
-155.691	445.092	-0.139	0.302
-154.677	138.219	-0.279	0.362
-153.662	-14.704	-0.121	0.077
-152.647	769.245	-0.123	-0.331
-151.633	271.999	0.126	0.220
-150.618	488.358	-0.111	0.252
-149.604	166.158	0.151	-0.212
-148.589	-111.922	-0.171	-0.034
-147.574	65.220	-0.068	0.068
-146.560	24.597	-0.324	-0.265
-145.545	465.409	-0.046	-0.102
-144.531	-6.887	0.224	-0.151
-143.516	-26.766	-0.254	-0.147
-142.502	-200.000	0.020	-0.284
-141.487	800.000	-0.015	-0.059
-140.472	231.723	0.224	-0.362
-139.458	-200.000	0.077	0.819
-138.443	106.046	-0.105	0.123
-137.429	-200.000	0.040	-0.217
-136.414	-149.772	0.131	-0.010
-135.399	474.508	0.131	0.293
-134.385	3.169	0.253	0.182
-133.370	-106.461	0.078	0.017
-132.356	-200.000	0.011	0.072
-131.341	59.216	-0.061	0.059
-130.326	-11.343	0.262	-0.170
-129.312	-200.000	-0.003	0.167
-128.297	430.772	-0.157	-0.336
-127.283	102.374	0.124	0.143
-126.268	800.000	-0.054	0.201
-125.253	65.656	-0.189	-0.189
-124.239	-184.960	-0.241	0.004
-123.224	100.970	0.225	0.259
-122.210	800.000	0.096	0.372
