DTS Sentinel unit serial number:	SN413079Multiplexer serial number:	ORYXHardware model number:	OX4-SRSoftware version number:	ORYX F/W v4.00 Oryx Data Collector v3.7.2.0data status	okinstallation	princeton_trtdifferential loss correction	single-endedforward channel	channel 2reverse channel	N/Adate	2019/09/10time	15:41:11forward acquisition time	60.00reverse acquisition time	0.00gamma	496.2192k internal	0.2308k external	0.2308temperature offset calibration	0.9937default loss term (dB/km)	0.3790temperature slope calibration	1.0000multiplexer offset coefficient	1.0000multiplexer slope coefficient	1.0000fibre end	0.00T internal ref (°C)	38.05T ext. ref 1 (°C)	-0.27T ext. ref 2 (°C)	31.43length (m)	temperature (°C)	Stokes	anti-Stokes-747.200	-200.000	-0.008	-0.230
-746.185	800.000	0.007	0.020
-745.171	111.574	0.082	-0.100
-744.156	-59.303	-0.155	0.068
-743.142	-28.017	-0.292	0.171
-742.127	800.000	0.057	0.167
-741.112	800.000	0.088	-0.303
-740.098	-82.606	-0.103	-0.034
-739.083	-200.000	-0.019	0.140
-738.069	-200.000	-0.010	0.203
-737.054	-42.530	-0.149	0.077
-736.039	-87.462	-0.322	-0.099
-735.025	-65.093	-0.249	0.102
-734.010	230.163	0.102	-0.170
-732.996	-7.085	-0.295	-0.204
-731.981	388.663	-0.146	-0.307
-730.966	-110.671	-0.146	0.031
-729.952	-107.585	-0.230	-0.051
-728.937	-95.661	-0.354	-0.096
-727.923	-120.030	-0.088	0.015
-726.908	87.079	-0.277	-0.311
-725.894	25.961	-0.229	-0.194
-724.879	-5.459	-0.194	-0.135
-723.864	-70.780	0.364	0.140
-722.850	309.285	-0.075	-0.143
-721.835	414.654	-0.108	-0.233
-720.821	800.000	0.041	0.171
-719.806	-200.000	0.009	-0.160
-718.791	-77.646	-0.110	-0.039
-717.777	-152.692	-0.390	0.028
-716.762	72.281	-0.353	-0.374
-715.748	-200.000	0.034	-0.242
-714.733	169.346	0.229	0.332
-713.718	-90.770	0.044	-0.013
-712.704	-165.206	-0.214	-0.010
-711.689	40.196	0.276	-0.252
-710.675	90.137	-0.082	0.093
-709.660	-78.362	0.178	-0.062
-708.645	800.000	-0.008	0.034
-707.631	728.450	0.090	-0.243
-706.616	97.846	0.177	0.207
-705.602	-200.000	-0.003	-0.124
-704.587	-16.548	-0.144	0.093
-703.572	455.645	0.068	0.154
-702.558	-200.000	0.008	0.059
-701.543	-200.000	0.033	-0.233
-700.529	800.000	-0.118	-0.408
-699.514	-144.508	0.055	-0.005
-698.499	39.577	0.178	0.162
-697.485	15.492	-0.120	0.096
-696.470	12.777	-0.037	-0.029
-695.456	42.976	-0.110	0.101
-694.441	271.660	-0.041	-0.073
-693.426	800.000	0.140	-0.415
-692.412	-99.201	-0.142	0.036
-691.397	192.968	0.167	-0.256
-690.383	426.068	0.100	0.219
-689.368	505.714	-0.065	-0.152
-688.354	244.597	0.147	0.250
-687.339	148.835	0.114	0.156
-686.324	144.257	-0.114	-0.154
-685.310	90.256	0.199	-0.226
-684.295	389.723	0.052	-0.109
-683.281	-130.407	0.197	-0.027
-682.266	800.000	0.036	0.156
-681.251	-119.766	-0.214	-0.037
-680.237	-163.505	0.239	-0.012
-679.222	64.118	0.127	-0.130
-678.208	83.317	-0.130	-0.144
-677.193	-148.146	-0.315	0.026
-676.178	102.159	-0.021	0.025
-675.164	19.173	-0.262	-0.213
-674.149	-21.698	0.055	-0.034
-673.135	-141.687	0.034	-0.003
-672.120	277.331	0.131	-0.235
-671.105	-200.000	0.011	-0.113
-670.091	129.500	0.206	-0.267
-669.076	553.425	0.071	-0.172
-668.062	-200.000	-0.012	0.070
-667.047	65.845	-0.286	0.294
-666.032	-200.000	-0.013	0.068
-665.018	-200.000	-0.011	0.189
-664.003	-200.000	-0.018	0.211
-662.989	-50.209	-0.023	-0.011
-661.974	-183.594	-0.234	0.004
-660.959	-140.391	0.282	0.030
-659.945	276.760	-0.169	-0.305
-658.930	-19.454	-0.236	-0.148
-657.916	-63.711	0.110	0.045
-656.901	224.847	0.104	-0.170
-655.886	-96.391	-0.261	-0.070
-654.872	63.464	-0.135	-0.137
-653.857	208.505	-0.163	-0.259
-652.843	-101.025	-0.238	-0.059
-651.828	-68.904	-0.424	-0.166
-650.814	800.000	-0.019	-0.080
-649.799	-154.011	-0.105	-0.007
-648.784	55.929	0.107	-0.105
-647.770	124.297	0.024	0.031
-646.755	-137.551	0.165	0.019
-645.741	800.000	-0.089	0.308
-644.726	-200.000	0.030	-0.304
-643.711	141.505	-0.214	-0.287
-642.697	-200.000	-0.007	-0.037
-641.682	-200.000	-0.018	0.161
-640.668	183.378	0.058	0.087
-639.653	-200.000	0.032	-0.323
-638.638	-18.811	0.132	0.083
-637.624	36.905	-0.123	0.110
-636.609	187.797	0.273	0.412
-635.595	-83.086	-0.058	0.019
-634.580	96.793	-0.265	-0.307
-633.565	402.465	-0.179	-0.380
-632.551	-119.358	-0.169	-0.030
-631.536	800.000	-0.019	-0.075
-630.522	460.379	-0.030	0.068
-629.507	-101.123	0.386	0.096
-628.492	-111.359	0.089	-0.018
-627.478	-49.016	0.201	0.097
-626.463	12.535	0.204	0.159
-625.449	-200.000	0.010	-0.087
-624.434	-24.766	-0.121	-0.073
-623.419	83.748	0.301	0.333
-622.405	68.009	0.192	-0.198
-621.390	63.326	0.121	-0.123
-620.376	-200.000	-0.010	0.121
-619.361	800.000	0.061	0.231
-618.346	320.598	-0.022	0.042
-617.332	-200.000	-0.000	-0.060
-616.317	-127.511	-0.249	0.037
-615.303	642.853	-0.077	-0.198
-614.288	-200.000	-0.010	0.258
-613.273	-35.801	0.397	-0.218
-612.259	257.484	-0.162	-0.282
-611.244	-72.571	-0.442	-0.165
-610.230	57.557	-0.191	0.188
-609.215	519.059	0.122	0.289
-608.201	44.913	-0.129	-0.120
-607.186	204.409	0.071	-0.111
-606.171	-64.496	0.420	-0.172
-605.157	-200.000	0.042	0.296
-604.142	673.765	-0.041	-0.107
-603.128	399.121	0.087	0.184
-602.113	800.000	0.035	0.100
-601.098	-200.000	0.010	0.118
-600.084	-61.095	-0.094	-0.040
-599.069	-164.463	-0.240	0.011
-598.055	-178.160	-0.292	0.007
-597.040	-52.907	0.333	-0.155
-596.025	215.115	0.025	-0.040
-595.011	-66.333	-0.178	-0.071
-593.996	-200.000	0.031	0.230
-592.982	800.000	0.145	0.481
-591.967	-126.110	-0.087	0.013
-590.952	682.264	0.041	-0.109
-589.938	-74.053	-0.233	-0.085
-588.923	-200.000	0.014	-0.303
-587.909	-200.000	-0.317	0.001
-586.894	-55.751	-0.239	-0.108
-585.879	-114.910	-0.293	0.056
-584.865	188.257	-0.079	0.119
-583.850	-200.000	-0.180	-0.000
-582.836	-67.051	-0.266	0.106
-581.821	-120.782	0.126	-0.022
-580.806	-200.000	-0.021	0.182
-579.792	-200.000	-0.019	-0.192
-578.777	-156.101	0.348	-0.022
-577.763	-153.627	-0.162	0.011
-576.748	374.167	0.077	-0.157
-575.733	16.982	-0.387	-0.309
-574.719	-200.000	-0.020	-0.118
-573.704	-29.116	0.119	0.069
-572.690	20.658	0.080	-0.065
-571.675	231.529	-0.082	0.136
-570.661	-39.537	0.148	-0.078
-569.646	-200.000	-0.009	0.057
-568.631	-81.247	-0.169	-0.056
-567.617	800.000	0.015	-0.045
-566.602	-96.131	0.190	0.051
-565.588	219.709	-0.040	-0.065
-564.573	98.751	0.149	0.174
-563.558	-137.778	0.235	0.027
-562.544	-28.431	0.107	0.063
-561.529	800.000	-0.029	0.090
-560.515	-122.152	-0.011	0.002
-559.500	800.000	-0.117	-0.356
-558.485	-101.174	0.078	-0.019
-557.471	800.000	0.021	-0.086
-556.456	-200.000	-0.014	0.118
-555.442	-152.265	0.181	-0.013
-554.427	-42.235	-0.190	0.098
-553.412	271.988	0.105	-0.187
-552.398	194.211	0.119	0.181
-551.383	-87.019	0.201	0.062
-550.369	-200.000	-0.020	0.206
-549.354	800.000	-0.152	-0.482
-548.339	800.000	-0.016	-0.063
-547.325	249.908	0.142	0.243
-546.310	-200.000	0.009	-0.045
-545.296	34.434	-0.048	0.042
-544.281	-200.000	0.011	0.207
-543.266	-163.402	0.303	-0.015
-542.252	-33.039	-0.218	-0.122
-541.237	-50.539	0.269	-0.128
-540.223	-13.322	-0.151	-0.099
-539.208	-200.000	0.020	-0.471
-538.193	-19.380	-0.122	-0.076
-537.179	5.578	-0.227	-0.169
-536.164	506.775	0.141	0.329
-535.150	-115.157	-0.256	-0.049
-534.135	800.000	-0.096	0.306
-533.121	-122.089	0.249	0.041
-532.106	472.526	-0.088	-0.200
-531.091	-54.358	0.173	0.079
-530.077	-32.318	0.292	0.165
-529.062	-20.103	-0.256	0.159
-528.048	260.497	-0.093	-0.161
-527.033	-80.541	-0.151	0.051
-526.018	151.946	-0.104	-0.144
-525.004	354.731	-0.019	-0.038
-523.989	55.438	0.170	-0.166
-522.975	328.747	0.075	0.146
-521.960	2.905	0.174	0.127
-520.945	67.344	-0.321	-0.330
-519.931	800.000	0.066	-0.190
-518.916	800.000	0.106	-0.297
-517.902	-75.291	-0.049	-0.017
-516.887	800.000	-0.058	0.202
-515.872	494.043	-0.044	0.103
-514.858	-200.000	0.020	-0.224
-513.843	159.659	0.138	-0.194
-512.829	343.585	-0.273	-0.538
-511.814	-123.859	0.171	0.027
-510.799	-31.268	-0.283	0.161
-509.785	-169.116	-0.371	-0.014
-508.770	-48.692	-0.243	0.118
-507.756	78.377	-0.066	-0.071
-506.741	-67.621	0.074	-0.029
-505.726	-27.797	0.057	0.033
-504.712	91.435	0.212	0.240
-503.697	54.039	0.316	0.306
-502.683	-21.581	-0.160	-0.098
-501.668	-35.526	-0.126	-0.069
-500.653	93.882	0.271	-0.309
-499.639	-56.392	0.292	0.130
-498.624	-200.000	0.023	0.136
-497.610	274.961	-0.099	0.176
-496.595	-200.000	-0.027	0.245
-495.581	-25.154	-0.157	0.094
-494.566	-119.318	-0.291	0.051
-493.551	-11.918	0.067	-0.044
-492.537	-41.520	-0.099	0.051
-491.522	-172.603	0.110	-0.004
-490.508	62.760	-0.106	-0.107
-489.493	-69.832	0.114	-0.044
-488.478	-170.811	-0.378	-0.013
-487.464	503.785	0.058	0.134
-486.449	800.000	0.049	-0.182
-485.435	67.038	0.010	-0.010
-484.420	473.832	0.074	-0.167
-483.405	103.202	0.145	0.171
-482.391	-24.105	0.077	-0.046
-481.376	73.527	-0.156	0.165
-480.362	159.615	0.060	0.084
-479.347	264.020	-0.155	0.271
-478.332	35.621	0.090	0.080
-477.318	337.693	0.190	-0.372
-476.303	113.874	-0.142	0.174
-475.289	15.061	0.116	-0.092
-474.274	215.865	0.069	-0.110
-473.259	-92.805	0.234	-0.066
-472.245	800.000	-0.045	0.142
-471.230	156.822	-0.042	-0.058
-470.216	800.000	-0.043	-0.146
-469.201	235.879	-0.152	-0.253
-468.186	-57.663	0.096	-0.042
-467.172	13.308	-0.227	0.177
-466.157	-91.414	-0.291	-0.084
-465.143	-87.451	-0.321	-0.098
-464.128	-85.815	0.109	-0.034
-463.113	442.131	0.096	0.210
-462.099	-200.000	0.002	-0.211
-461.084	-200.000	-0.002	-0.358
-460.070	-52.424	0.331	0.154
-459.055	-8.245	0.121	0.082
-458.040	105.980	-0.103	-0.123
-457.026	145.451	0.038	0.051
-456.011	8.053	0.311	0.234
-454.997	-81.237	0.184	0.061
-453.982	217.129	0.147	0.235
-452.968	-152.877	-0.235	-0.017
-451.953	117.880	-0.071	-0.088
-450.938	-200.000	0.058	-0.267
-449.924	-120.699	-0.144	0.024
-448.909	43.319	0.087	-0.080
-447.895	-118.842	-0.210	-0.037
-446.880	800.000	0.136	0.415
-445.865	-104.238	-0.235	0.055
-444.851	800.000	-0.053	-0.198
-443.836	222.928	-0.059	0.096
-442.822	-80.276	-0.183	-0.062
-441.807	740.787	0.026	-0.069
-440.792	-200.000	-0.010	-0.111
-439.778	-118.367	-0.076	-0.014
-438.763	476.651	0.076	-0.173
-437.749	36.967	-0.173	-0.154
-436.734	-107.123	-0.135	0.030
-435.719	-101.595	-0.161	0.039
-434.705	249.916	0.146	-0.249
-433.690	-74.814	-0.189	0.068
-432.676	-106.671	-0.225	-0.050
-431.661	13.424	0.115	0.089
-430.646	800.000	0.094	0.350
-429.632	278.217	0.061	-0.110
-428.617	393.244	-0.097	-0.203
-427.603	-200.000	-0.024	-0.116
-426.588	208.579	0.132	0.207
-425.573	232.009	0.213	0.351
-424.559	86.851	-0.158	-0.175
-423.544	-15.325	-0.286	0.184
-422.530	-200.000	-0.006	-0.203
-421.515	-117.304	0.101	0.018
-420.500	-102.357	-0.063	-0.015
-419.486	-166.367	-0.095	-0.004
-418.471	34.593	-0.224	-0.196
-417.457	-109.215	0.343	-0.073
-416.442	646.964	-0.051	-0.130
-415.428	40.303	0.107	-0.096
-414.413	-85.843	-0.274	-0.085
-413.398	355.060	-0.185	0.370
-412.384	800.000	-0.058	0.181
-411.369	-58.894	0.208	-0.090
-410.355	-122.378	0.107	0.018
-409.340	-137.141	0.230	0.026
-408.325	-68.741	0.415	0.161
-407.311	28.367	-0.178	0.151
-406.296	-40.923	0.047	0.024
-405.282	610.603	0.081	-0.203
-404.267	-200.000	0.029	-0.149
-403.252	638.848	-0.061	0.156
-402.238	200.124	-0.079	0.121
-401.223	694.123	-0.022	-0.059
-400.209	-126.088	0.008	0.001
-399.194	-82.465	0.222	-0.072
-398.179	138.383	0.139	0.183
-397.165	149.351	-0.090	0.122
-396.150	-69.094	-0.193	-0.074
-395.136	-200.000	0.048	0.215
-394.121	-200.000	0.034	0.181
-393.106	-200.000	0.010	0.071
-392.092	-198.547	0.142	0.001
-391.077	-200.000	-0.002	-0.135
-390.063	-80.224	-0.107	-0.036
-389.048	800.000	-0.076	0.262
-388.033	-200.000	-0.043	-0.384
-387.019	331.595	-0.037	-0.071
-386.004	-118.109	-0.277	0.050
-384.990	29.272	0.172	0.147
-383.975	266.013	0.145	-0.253
-382.960	759.647	0.090	0.246
-381.946	454.588	-0.060	-0.132
-380.931	160.414	-0.147	0.205
-379.917	-200.000	0.033	0.411
-378.902	69.116	0.189	0.194
-377.888	800.000	-0.013	-0.052
-376.873	-200.000	0.007	-0.323
-375.858	54.084	-0.141	-0.136
-374.844	-200.000	-0.022	-0.139
-373.829	137.285	0.310	0.406
-372.815	-67.972	-0.057	-0.022
-371.800	716.871	-0.016	0.041
-370.785	-130.268	-0.248	-0.034
-369.771	-200.000	-0.012	-0.108
-368.756	339.091	-0.072	0.141
-367.742	-62.464	0.142	0.059
-366.727	91.491	-0.158	0.178
-365.712	588.594	0.078	-0.193
-364.698	-17.864	0.441	0.277
-363.683	-48.634	0.290	0.139
-362.669	5.956	-0.314	0.233
-361.654	267.395	-0.255	0.446
-360.639	134.104	0.074	0.096
-359.625	-89.577	0.261	0.077
-358.610	-62.474	0.279	-0.116
-357.596	-8.646	-0.166	0.112
-356.581	800.000	0.010	-0.035
-355.566	-200.000	-0.034	0.178
-354.552	409.556	0.076	0.161
-353.537	-98.651	0.179	0.046
-352.523	123.751	0.207	0.261
-351.508	-111.686	-0.081	0.016
-350.493	-30.840	-0.094	-0.053
-349.479	-52.952	-0.281	-0.129
-348.464	-82.902	0.263	0.085
-347.450	-94.614	-0.314	-0.086
-346.435	-200.000	0.090	-0.426
-345.420	-67.230	-0.074	0.029
-344.406	122.331	-0.196	-0.245
-343.391	78.304	0.077	0.082
-342.377	24.653	-0.093	0.077
-341.362	-200.000	0.032	-0.294
-340.348	-84.824	0.112	-0.035
-339.333	-117.138	-0.267	-0.049
-338.318	-158.654	0.077	0.004
-337.304	520.645	-0.063	-0.148
-336.289	800.000	-0.060	0.188
-335.275	-19.215	0.168	-0.104
-334.260	-19.458	0.456	-0.283
-333.245	486.592	-0.071	0.162
-332.231	-99.349	0.189	-0.048
-331.216	-140.653	0.095	-0.010
-330.202	-200.000	-0.046	0.219
-329.187	113.861	-0.122	0.148
-328.172	-200.000	-0.002	0.459
-327.158	280.783	-0.112	-0.201
-326.143	800.000	-0.029	-0.117
-325.129	-23.718	0.109	0.065
-324.114	192.990	-0.035	-0.053
-323.099	-108.924	-0.328	0.070
-322.085	-45.064	0.250	-0.124
-321.070	-96.589	0.348	0.092
-320.056	65.191	-0.108	-0.109
-319.041	-55.277	-0.072	0.032
-318.026	-200.000	0.050	0.364
-317.012	-56.140	0.290	-0.129
-315.997	-110.914	-0.320	-0.066
-314.983	-106.812	-0.221	0.049
-313.968	36.068	-0.130	-0.115
-312.953	144.060	-0.017	0.023
-311.939	-22.613	0.139	-0.084
-310.924	91.756	-0.119	-0.134
-309.910	800.000	-0.064	0.180
-308.895	302.710	-0.080	-0.147
-307.880	-34.780	0.197	-0.108
-306.866	-161.336	0.363	-0.019
-305.851	197.753	0.302	0.460
-304.837	-120.896	-0.232	0.039
-303.822	200.725	0.039	-0.059
-302.807	31.827	-0.107	0.092
-301.793	27.629	-0.035	0.029
-300.778	-42.268	0.190	-0.097
-299.764	3.415	0.228	-0.166
-298.749	-2.947	0.375	0.262
-297.735	-52.237	0.180	-0.083
-296.720	-116.474	-0.247	-0.046
-295.705	79.056	0.058	0.062
-294.691	-200.000	0.050	0.276
-293.676	800.000	-0.026	0.084
-292.662	-27.493	-0.102	-0.059
-291.647	64.617	-0.144	-0.145
-290.632	-13.834	-0.077	0.050
-289.618	-30.560	0.097	0.055
-288.603	287.350	0.085	-0.154
-287.589	130.187	0.155	-0.198
-286.574	-98.032	-0.083	-0.021
-285.559	100.756	0.237	-0.275
-284.545	772.926	-0.102	-0.277
-283.530	98.432	-0.196	0.225
-282.516	-27.132	-0.069	0.040
-281.501	37.362	0.159	-0.141
-280.486	530.638	0.016	-0.038
-279.472	273.665	-0.110	0.193
-278.457	323.262	0.095	-0.182
-277.443	650.145	-0.101	0.257
-276.428	-149.571	0.102	0.008
-275.413	-67.233	0.134	-0.053
-274.399	-101.173	-0.169	-0.041
-273.384	322.126	-0.085	-0.162
-272.370	269.323	0.178	-0.312
-271.355	-136.444	-0.091	0.011
-270.340	78.134	-0.093	0.099
-269.326	-200.000	-0.018	0.112
-268.311	-172.579	-0.134	0.004
-267.297	-200.000	0.012	-0.055
-266.282	-150.274	-0.301	0.023
-265.267	6.026	-0.097	-0.072
-264.253	-49.912	-0.176	0.083
-263.238	-58.103	0.166	-0.072
-262.224	-132.302	-0.109	0.014
-261.209	422.431	0.159	0.341
-260.195	-200.000	0.004	0.199
-259.180	-200.000	-0.120	-0.648
-258.165	-48.009	0.088	0.043
-257.151	-33.953	0.217	0.119
-256.136	800.000	-0.113	-0.378
-255.122	247.124	0.157	0.265
-254.107	523.120	-0.060	0.141
-253.092	-84.378	0.192	-0.060
-252.078	-106.851	0.378	0.084
-251.063	800.000	0.095	0.297
-250.049	-187.540	0.275	-0.004
-249.034	148.419	0.062	0.083
-248.019	-200.000	0.018	0.187
-247.005	-200.000	-0.271	-0.000
-245.990	-39.728	-0.055	0.029
-244.976	-72.836	0.262	-0.096
-243.961	-200.000	0.030	-0.215
-242.946	-200.000	-0.017	-0.113
-241.932	86.892	0.073	0.080
-240.917	21.126	-0.218	-0.177
-239.903	77.267	0.101	0.107
-238.888	54.245	-0.194	0.186
-237.873	-92.295	-0.287	0.081
-236.859	-77.705	0.197	-0.068
-235.844	-91.622	0.266	-0.075
-234.830	800.000	-0.038	-0.145
-233.815	-200.000	0.009	0.127
-232.800	-200.000	0.010	-0.046
-231.786	-117.364	0.015	-0.003
-230.771	-82.393	-0.100	-0.032
-229.757	-200.000	0.032	0.146
-228.742	-200.000	-0.065	0.329
-227.727	-177.024	-0.199	-0.005
-226.713	800.000	0.053	-0.230
-225.698	76.460	0.001	0.001
-224.684	-200.000	-0.041	0.383
-223.669	490.927	0.115	0.262
-222.655	-200.000	0.043	-0.215
-221.640	0.794	-0.028	0.020
-220.625	-68.403	0.412	0.159
-219.611	-55.347	0.130	-0.058
-218.596	626.731	0.040	0.101
-217.582	-59.938	0.329	0.140
-216.567	61.930	0.071	0.071
-215.552	-155.633	0.233	0.015
-214.538	-139.521	0.227	-0.024
-213.523	-76.620	-0.236	0.083
-212.509	-200.000	-0.060	0.274
-211.494	-132.683	-0.310	-0.040
-210.479	304.290	-0.033	0.060
-209.465	-29.268	-0.074	0.042
-208.450	-72.736	0.141	-0.052
-207.436	-95.931	0.292	0.078
-206.421	-125.081	0.292	0.045
-205.406	188.468	0.029	-0.044
-204.392	252.996	-0.084	0.143
-203.377	-28.664	-0.268	0.154
-202.363	-53.295	-0.160	0.073
-201.348	-48.037	0.259	0.124
-200.333	-200.000	0.002	0.035
-199.319	409.080	0.048	-0.102
-198.304	-127.729	0.326	0.047
-197.290	-198.968	-0.262	-0.001
-196.275	800.000	-0.051	-0.187
-195.260	122.811	-0.049	0.061
-194.246	-7.772	-0.098	0.066
-193.231	-141.276	-0.358	0.036
-192.217	-100.923	-0.213	0.052
-191.202	-87.209	-0.292	0.088
-190.187	5.486	-0.099	0.073
-189.173	511.455	-0.015	0.034
-188.158	-67.979	-0.210	-0.082
-187.144	-64.996	-0.286	-0.115
-186.129	-54.942	-0.307	0.137
-185.114	181.566	0.148	-0.217
-184.100	-71.121	-0.139	0.052
-183.085	-45.779	0.563	-0.277
-182.071	-104.254	-0.130	-0.030
-181.056	-200.000	-0.004	-0.042
-180.042	512.300	0.009	-0.020
-179.027	-88.413	-0.097	-0.029
-178.012	-200.000	-0.034	-0.268
-176.998	-31.440	-0.273	-0.152
-175.983	-124.583	0.194	-0.030
-174.969	-143.080	0.225	0.022
-173.954	12.052	-0.227	0.174
-172.939	-200.000	0.028	0.295
-171.925	235.989	-0.143	-0.235
-170.910	209.981	0.227	-0.354
-169.896	800.000	-0.107	-0.322
-168.881	-200.000	-0.289	0.001
-167.866	47.699	0.128	-0.119
-166.852	800.000	0.034	0.098
-165.837	-11.293	-0.185	-0.121
-164.823	578.180	0.072	-0.176
-163.808	-89.421	-0.235	-0.069
-162.793	-107.146	-0.516	0.113
-161.779	800.000	0.019	-0.063
-160.764	62.557	0.337	-0.335
-159.750	-161.652	-0.117	-0.006
-158.735	-46.018	-0.096	0.047
-157.720	-200.000	-0.044	0.289
-156.706	-96.838	0.390	-0.102
-155.691	5.927	0.183	-0.135
-154.677	-47.808	-0.300	-0.144
-153.662	-86.825	0.387	-0.117
-152.647	-200.000	0.057	-0.325
-151.633	-161.746	0.041	-0.002
-150.618	-65.652	0.207	-0.083
-149.604	-37.106	-0.292	0.155
-148.589	513.081	-0.105	0.243
-147.574	37.267	-0.197	0.173
-146.560	30.950	-0.279	0.238
-145.545	461.112	-0.078	-0.172
-144.531	800.000	0.020	-0.063
-143.516	-200.000	0.011	-0.310
-142.502	269.368	-0.059	-0.102
-141.487	-94.402	-0.118	-0.032
-140.472	-200.000	-0.006	-0.156
-139.458	800.000	-0.124	-0.344
-138.443	-200.000	-0.000	-0.110
-137.429	-200.000	-0.002	0.180
-136.414	800.000	-0.100	0.308
-135.399	800.000	0.040	0.148
-134.385	-20.435	-0.380	0.232
-133.370	-200.000	0.202	0.001
-132.356	-200.000	-0.041	-0.322
-131.341	-81.554	0.304	-0.099
-130.326	230.373	0.095	0.155
-129.312	-113.351	-0.243	-0.047
-128.297	290.227	-0.082	0.148
-127.283	-99.570	-0.171	-0.043
-126.268	292.999	-0.091	0.165
-125.253	-160.144	-0.171	0.009
-124.239	-66.792	0.170	-0.067
-123.224	134.797	0.061	0.079
