DTS Sentinel unit serial number:	SN413079Multiplexer serial number:	ORYXHardware model number:	OX4-SRSoftware version number:	ORYX F/W v4.00 Oryx Data Collector v3.7.2.0data status	okinstallation	princeton_trtdifferential loss correction	single-endedforward channel	channel 2reverse channel	N/Adate	2019/09/10time	18:09:10forward acquisition time	60.00reverse acquisition time	0.00gamma	496.2192k internal	0.2315k external	0.2315temperature offset calibration	0.9942default loss term (dB/km)	0.3790temperature slope calibration	1.0000multiplexer offset coefficient	1.0000multiplexer slope coefficient	1.0000fibre end	0.00T internal ref (°C)	36.78T ext. ref 1 (°C)	-0.31T ext. ref 2 (°C)	28.94length (m)	temperature (°C)	Stokes	anti-Stokes-747.200	800.000	0.057	0.180
-746.185	-33.478	0.123	0.069
-745.171	-142.046	-0.475	0.048
-744.156	-152.831	-0.435	0.031
-743.142	-200.000	0.068	0.329
-742.127	296.476	-0.228	0.423
-741.112	-41.130	0.222	0.116
-740.098	248.973	0.108	0.186
-739.083	207.158	0.143	0.225
-738.069	246.015	-0.145	0.247
-737.054	-125.677	0.293	-0.045
-736.039	145.338	-0.257	-0.348
-735.025	-155.443	-0.193	0.013
-734.010	-85.565	-0.332	-0.105
-732.996	227.016	-0.100	-0.165
-731.981	354.935	0.027	-0.054
-730.966	236.321	0.147	-0.246
-729.952	-145.914	-0.181	0.016
-728.937	-82.320	-0.112	-0.037
-727.923	-33.886	0.459	0.256
-726.908	800.000	-0.078	0.250
-725.894	-86.233	-0.204	-0.064
-724.879	152.610	0.112	0.155
-723.864	-57.668	-0.049	-0.022
-722.850	-200.000	-0.043	-0.367
-721.835	-135.096	0.117	-0.014
-720.821	-36.195	-0.154	-0.084
-719.806	86.235	-0.204	-0.227
-718.791	-84.814	0.369	-0.117
-717.777	-200.000	-0.028	0.130
-716.762	262.756	-0.184	-0.323
-715.748	800.000	0.051	0.164
-714.733	-150.969	-0.186	-0.014
-713.718	760.000	-0.052	-0.143
-712.704	-61.804	-0.098	-0.041
-711.689	115.866	-0.021	-0.026
-710.675	599.644	-0.081	-0.204
-709.660	-113.313	0.122	0.024
-708.645	-128.771	0.274	0.039
-707.631	-148.935	0.159	0.013
-706.616	-200.000	-0.030	0.249
-705.602	-187.331	-0.093	0.001
-704.587	800.000	-0.062	-0.251
-703.572	-200.000	0.006	-0.132
-702.558	149.843	0.154	-0.211
-701.543	399.671	0.009	-0.020
-700.529	-200.000	0.001	-0.086
-699.514	-80.750	-0.122	-0.041
-698.499	-82.065	-0.326	0.108
-697.485	-200.000	-0.007	-0.119
-696.470	-100.864	0.141	0.035
-695.456	20.683	0.106	0.087
-694.441	-2.747	0.249	-0.176
-693.426	568.574	-0.065	0.160
-692.412	161.373	0.132	0.187
-691.397	101.210	-0.078	0.092
-690.383	-36.084	-0.266	0.146
-689.368	3.207	-0.281	-0.207
-688.354	15.521	-0.230	-0.183
-687.339	236.412	-0.071	-0.119
-686.324	-185.108	0.327	-0.005
-685.310	-137.643	-0.220	0.025
-684.295	-200.000	0.012	-0.057
-683.281	-12.368	-0.265	-0.175
-682.266	-200.000	-0.001	0.163
-681.251	-200.000	0.012	0.339
-680.237	-86.746	-0.249	0.077
-679.222	59.594	0.091	-0.091
-678.208	-17.063	-0.139	-0.089
-677.193	-162.146	0.361	-0.018
-676.178	-26.652	-0.253	0.150
-675.164	-200.000	-0.015	-0.111
-674.149	-200.000	0.002	-0.087
-673.135	699.342	0.048	-0.127
-672.120	-51.042	-0.196	-0.093
-671.105	98.970	-0.088	-0.103
-670.091	454.872	-0.205	-0.459
-669.076	-156.545	-0.096	0.006
-668.062	-84.796	-0.251	-0.080
-667.047	-200.000	-0.049	0.229
-666.032	29.114	-0.099	-0.085
-665.018	-108.057	0.048	0.011
-664.003	-43.542	0.270	0.138
-662.989	-36.441	0.183	-0.100
-661.974	176.625	0.074	-0.108
-660.959	-56.021	-0.077	0.034
-659.945	-8.965	-0.295	-0.200
-658.930	396.235	0.114	-0.241
-657.916	-117.352	-0.465	0.085
-656.901	-84.152	-0.163	0.052
-655.886	277.745	-0.032	0.057
-654.872	16.589	0.355	0.283
-653.857	-200.000	-0.025	-0.122
-652.843	-200.000	0.048	-0.310
-651.828	-104.214	-0.251	-0.059
-650.814	-200.000	-0.266	0.001
-649.799	615.584	0.090	-0.227
-648.784	127.843	-0.041	0.052
-647.770	-5.876	-0.129	0.089
-646.755	800.000	0.013	-0.048
-645.741	-138.478	0.421	0.047
-644.726	-81.498	0.263	0.087
-643.711	46.164	0.334	-0.312
-642.697	105.205	0.197	-0.235
-641.682	-200.000	-0.008	0.170
-640.668	79.663	-0.157	-0.170
-639.653	546.777	-0.182	-0.439
-638.638	238.393	-0.170	-0.284
-637.624	800.000	-0.026	-0.090
-636.609	443.427	-0.105	0.231
-635.595	10.448	0.219	0.168
-634.580	800.000	-0.081	0.255
-633.565	-127.072	-0.258	-0.038
-632.551	54.335	0.135	-0.131
-631.536	-39.574	0.089	-0.047
-630.522	157.275	-0.052	0.073
-629.507	84.836	0.100	-0.111
-628.492	-28.628	0.186	-0.108
-627.478	-200.000	-0.051	-0.234
-626.463	485.581	0.076	-0.176
-625.449	-113.467	-0.311	0.061
-624.434	-85.273	0.242	0.076
-623.419	-5.120	-0.193	0.134
-622.405	-118.933	0.083	0.015
-621.390	196.602	0.186	0.286
-620.376	-200.000	-0.038	0.243
-619.361	73.671	-0.118	0.125
-618.346	0.199	-0.027	0.019
-617.332	355.866	0.037	0.075
-616.317	-200.000	-0.022	-0.179
-615.303	-66.976	-0.426	0.170
-614.288	800.000	-0.082	0.253
-613.273	-102.518	-0.187	-0.045
-612.259	789.175	0.024	0.065
-611.244	-200.000	-0.026	-0.201
-610.230	-16.610	-0.158	-0.101
-609.215	800.000	0.019	0.073
-608.201	370.526	0.068	-0.138
-607.186	800.000	0.093	-0.285
-606.171	215.862	0.079	0.127
-605.157	-61.786	-0.177	-0.075
-604.142	-145.815	-0.239	-0.021
-603.128	-200.000	0.005	0.171
-602.113	800.000	0.077	0.217
-601.098	-200.000	0.002	-0.103
-600.084	800.000	0.038	0.134
-599.069	31.138	0.268	0.232
-598.055	-69.242	0.185	-0.072
-597.040	284.840	-0.092	-0.167
-596.025	-121.847	-0.206	0.034
-595.011	179.892	-0.023	-0.033
-593.996	-200.000	0.043	0.476
-592.982	-33.924	0.190	0.105
-591.967	151.555	0.175	0.240
-590.952	-200.000	-0.019	0.157
-589.938	-129.958	0.184	0.025
-588.923	800.000	-0.044	0.129
-587.909	187.490	0.074	0.111
-586.894	-141.682	-0.069	-0.007
-585.879	35.140	0.343	0.302
-584.865	-120.061	-0.255	0.044
-583.850	113.936	0.128	-0.156
-582.836	80.275	-0.058	-0.063
-581.821	-101.124	-0.280	0.069
-580.806	800.000	0.102	0.289
-579.792	-111.604	-0.115	0.024
-578.777	492.891	0.198	0.458
-577.763	15.137	0.076	-0.060
-576.748	85.677	0.109	0.121
-575.733	170.675	-0.166	-0.240
-574.719	-150.242	0.214	0.017
-573.704	-60.925	-0.044	-0.019
-572.690	-48.726	0.093	-0.045
-571.675	241.245	-0.142	0.239
-570.661	-55.062	0.110	0.050
-569.646	-36.500	-0.280	-0.152
-568.631	800.000	-0.068	0.226
-567.617	150.393	-0.079	0.108
-566.602	455.171	0.070	0.156
-565.588	187.297	0.073	0.109
-564.573	-135.166	-0.317	0.038
-563.558	-200.000	-0.061	0.386
-562.544	150.807	-0.141	0.193
-561.529	75.694	0.146	0.156
-560.515	-200.000	0.048	-0.292
-559.500	102.500	-0.062	-0.073
-558.485	116.683	-0.215	0.265
-557.471	-60.698	-0.263	-0.112
-556.456	6.095	0.141	0.105
-555.442	-200.000	-0.019	-0.403
-554.427	573.936	0.115	0.283
-553.412	-65.522	-0.237	-0.096
-552.398	-113.941	-0.194	0.038
-551.383	191.487	0.054	0.083
-550.369	131.983	0.193	0.249
-549.354	800.000	0.056	-0.182
-548.339	-123.960	-0.219	0.035
-547.325	-68.515	-0.305	-0.119
-546.310	-200.000	0.040	-0.303
-545.296	-53.223	0.149	0.069
-544.281	-200.000	-0.035	0.161
-543.266	7.655	0.311	-0.234
-542.252	49.015	0.144	0.136
-541.237	-72.708	0.156	0.058
-540.223	107.675	0.037	-0.044
-539.208	-200.000	0.030	0.243
-538.193	-110.920	-0.078	-0.016
-537.179	182.545	-0.186	-0.275
-536.164	-16.411	-0.169	0.108
-535.150	57.380	0.245	0.240
-534.135	800.000	-0.036	0.142
-533.121	800.000	-0.046	0.159
-532.106	-83.936	0.161	-0.051
-531.091	55.817	-0.235	0.229
-530.077	-97.572	-0.093	-0.024
-529.062	16.272	0.187	0.148
-528.048	542.920	-0.082	-0.197
-527.033	444.635	0.059	-0.130
-526.018	53.203	-0.190	-0.183
-525.004	-76.748	-0.350	0.123
-523.989	107.852	0.232	-0.277
-522.975	-97.031	-0.210	0.055
-521.960	-129.538	-0.309	-0.043
-520.945	-122.370	0.006	-0.001
-519.931	333.637	0.094	-0.183
-518.916	63.052	0.127	-0.128
-517.902	28.523	-0.199	0.169
-516.887	-200.000	-0.048	0.402
-515.872	-200.000	0.028	-0.219
-514.858	-200.000	0.030	-0.200
-513.843	207.741	0.267	-0.419
-512.829	-69.212	-0.250	0.097
-511.814	-5.789	-0.057	0.039
-510.799	-200.000	0.046	-0.238
-509.785	27.578	-0.189	-0.159
-508.770	25.136	0.235	0.196
-507.756	-30.469	-0.209	-0.119
-506.741	152.670	0.186	-0.255
-505.726	-72.236	0.298	-0.111
-504.712	97.771	-0.115	0.133
-503.697	800.000	-0.045	0.156
-502.683	800.000	-0.025	-0.074
-501.668	244.816	0.297	-0.500
-500.653	-200.000	-0.072	-0.419
-499.639	-121.297	-0.113	0.019
-498.624	148.342	-0.335	-0.454
-497.610	-73.498	-0.218	0.080
-496.595	-71.782	0.120	0.045
-495.581	16.013	-0.248	0.196
-494.566	-6.489	-0.171	-0.117
-493.551	-51.996	0.136	-0.064
-492.537	-150.446	0.236	-0.018
-491.522	52.834	-0.427	0.409
-490.508	-98.073	-0.431	-0.111
-489.493	-200.000	-0.010	0.131
-488.478	105.319	-0.059	0.069
-487.464	84.740	0.149	-0.164
-486.449	-118.679	0.027	-0.005
-485.435	185.306	-0.104	0.155
-484.420	339.683	-0.069	-0.134
-483.405	-118.243	-0.302	0.054
-482.391	-200.000	0.005	-0.220
-481.376	-175.985	-0.361	-0.010
-480.362	-200.000	-0.011	0.052
-479.347	557.760	-0.094	-0.227
-478.332	33.175	0.210	-0.183
-477.318	33.582	0.203	-0.177
-476.303	-164.613	0.233	-0.011
-475.289	-189.299	-0.203	0.002
-474.274	321.440	-0.023	0.044
-473.259	800.000	0.045	0.154
-472.245	-200.000	-0.042	0.196
-471.230	-26.108	-0.102	-0.060
-470.216	172.618	0.076	-0.110
-469.201	-90.422	0.158	-0.046
-468.186	-101.976	0.258	0.063
-467.172	-19.473	0.093	-0.058
-466.157	-200.000	-0.033	0.227
-465.143	54.538	0.150	0.145
-464.128	-56.054	0.160	0.072
-463.113	171.935	0.091	0.131
-462.099	392.343	0.049	0.102
-461.084	-59.486	-0.168	-0.072
-460.070	131.961	-0.292	0.376
-459.055	112.965	0.163	-0.198
-458.040	-97.135	-0.304	0.080
-457.026	-17.254	0.119	0.075
-456.011	-79.417	-0.266	-0.090
-454.997	71.370	0.109	-0.113
-453.982	98.228	-0.099	-0.115
-452.968	141.597	-0.126	-0.167
-451.953	-14.888	-0.237	0.152
-450.938	490.464	0.160	-0.368
-449.924	-200.000	0.030	-0.139
-448.909	-87.236	-0.354	-0.108
-447.895	800.000	0.065	-0.202
-446.880	471.412	-0.130	0.292
-445.865	727.082	0.062	-0.165
-444.851	6.765	-0.049	0.037
-443.836	-140.601	-0.076	0.008
-442.822	191.549	0.120	0.181
-441.807	58.929	0.067	0.066
-440.792	-50.639	0.373	0.176
-439.778	-33.400	0.092	-0.051
-438.763	-39.176	0.414	-0.218
-437.749	-200.000	-0.015	0.324
-436.734	800.000	0.066	-0.222
-435.719	-113.304	0.229	-0.045
-434.705	634.151	0.064	-0.163
-433.690	220.313	0.181	-0.290
-432.676	67.237	0.187	-0.190
-431.661	67.655	0.026	-0.027
-430.646	66.495	-0.345	-0.351
-429.632	800.000	0.081	0.228
-428.617	222.416	-0.139	-0.223
-427.603	-10.705	0.204	-0.135
-426.588	5.136	0.355	0.262
-425.573	-200.000	-0.065	0.543
-424.559	-88.875	-0.155	-0.046
-423.544	12.042	0.183	-0.141
-422.530	-7.749	0.199	0.135
-421.515	800.000	-0.049	-0.199
-420.500	31.533	-0.384	-0.330
-419.486	671.002	0.064	-0.165
-418.471	-149.858	-0.540	0.042
-417.457	-157.889	-0.167	0.010
-416.442	-48.207	0.255	0.123
-415.428	40.904	-0.229	0.206
-414.413	800.000	0.045	-0.168
-413.398	70.330	-0.146	-0.151
-412.384	800.000	0.069	-0.195
-411.369	280.191	-0.137	-0.245
-410.355	41.081	-0.260	-0.235
-409.340	631.558	-0.085	0.215
-408.325	800.000	-0.084	-0.359
-407.311	167.266	-0.095	0.135
-406.296	-66.570	0.295	0.117
-405.282	800.000	0.102	-0.350
-404.267	-89.113	0.067	0.020
-403.252	-82.994	0.183	0.059
-402.238	21.725	-0.029	-0.024
-401.223	-190.908	0.402	-0.004
-400.209	-68.090	-0.130	0.050
-399.194	-61.463	-0.369	-0.155
-398.179	-100.136	0.123	0.031
-397.165	-141.754	0.089	0.009
-396.150	-115.497	-0.251	-0.047
-395.136	168.522	-0.072	-0.102
-394.121	-31.685	0.440	0.247
-393.106	-28.079	-0.007	-0.004
-392.092	-200.000	0.002	0.095
-391.077	89.051	0.178	-0.198
-390.063	167.746	0.100	0.142
-389.048	93.157	0.089	0.101
-388.033	84.264	-0.182	-0.199
-387.019	-170.888	-0.453	0.016
-386.004	348.165	0.118	0.233
-384.990	-19.011	-0.134	0.083
-383.975	345.822	0.043	-0.085
-382.960	-55.219	0.146	-0.066
-381.946	235.401	-0.079	-0.130
-380.931	21.998	0.164	-0.134
-379.917	-106.748	0.165	0.037
-378.902	671.812	-0.009	-0.022
-377.888	-31.186	0.350	-0.197
-376.873	-61.998	0.096	-0.040
-375.858	129.607	-0.169	-0.216
-374.844	186.978	0.034	0.051
-373.829	200.837	0.267	0.409
-372.815	419.839	-0.091	0.194
-371.800	800.000	0.055	0.186
-370.785	-200.000	0.018	0.093
-369.771	239.660	-0.093	-0.155
-368.756	-79.107	-0.095	0.032
-367.742	-179.524	-0.144	0.003
-366.727	-89.013	0.374	0.110
-365.712	78.766	0.225	-0.241
-364.698	515.674	-0.160	0.374
-363.683	-200.000	0.027	0.222
-362.669	64.518	0.219	-0.220
-361.654	-200.000	-0.011	0.100
-360.639	-200.000	0.031	-0.181
-359.625	0.417	-0.293	-0.209
-358.610	800.000	0.044	-0.144
-357.596	-93.265	-0.234	0.065
-356.581	-200.000	-0.022	-0.110
-355.566	-57.793	0.246	-0.107
-354.552	75.702	-0.046	0.049
-353.537	-200.000	0.004	0.058
-352.523	236.131	0.167	0.276
-351.508	800.000	0.032	-0.092
-350.493	-200.000	0.018	0.088
-349.479	-106.734	0.247	0.055
-348.464	11.536	-0.173	0.132
-347.450	800.000	-0.042	0.143
-346.435	307.704	0.055	-0.102
-345.420	-150.706	0.496	0.038
-344.406	-47.619	0.147	0.071
-343.391	-20.726	-0.197	-0.121
-342.377	119.793	-0.237	-0.293
-341.362	-200.000	0.005	0.098
-340.348	-200.000	0.001	0.037
-339.333	-63.285	-0.313	-0.129
-338.318	-200.000	0.033	-0.457
-337.304	772.128	0.063	0.170
-336.289	-181.313	-0.170	0.003
-335.275	98.188	0.018	0.021
-334.260	20.174	0.042	0.034
-333.245	-1.362	-0.164	0.115
-332.231	-164.955	-0.272	0.012
-331.216	-56.751	-0.235	-0.103
-330.202	-5.142	0.257	-0.176
-329.187	239.869	-0.197	0.327
-328.172	7.425	0.207	-0.154
-327.158	-19.542	-0.294	-0.181
-326.143	541.006	-0.145	0.344
-325.129	250.081	0.041	0.070
-324.114	-4.672	0.178	-0.123
-323.099	-138.344	0.098	-0.011
-322.085	-117.908	-0.279	-0.050
-321.070	465.124	0.049	-0.110
-320.056	-39.996	0.197	0.102
-319.041	-148.169	-0.214	-0.018
-318.026	89.132	0.108	-0.120
-317.012	123.781	-0.202	-0.253
-315.997	395.290	-0.052	-0.108
-314.983	-82.175	-0.248	-0.080
-313.968	800.000	-0.079	0.263
-312.953	197.932	0.048	-0.073
-311.939	800.000	0.006	0.018
-310.924	-169.050	-0.264	0.010
-309.910	222.272	-0.120	0.192
-308.895	800.000	0.098	0.368
-307.880	-15.699	0.111	-0.070
-306.866	-25.370	0.160	0.094
-305.851	196.076	0.102	0.155
-304.837	-20.152	-0.133	-0.082
-303.822	-138.427	-0.255	0.028
-302.807	-200.000	0.010	-0.251
-301.793	-21.645	0.093	-0.056
-300.778	183.636	0.249	0.366
-299.764	-58.355	-0.111	0.048
-298.749	709.640	-0.111	-0.292
-297.735	324.639	-0.061	-0.117
-296.720	-76.533	0.211	0.074
-295.705	-43.409	0.176	-0.089
-294.691	161.499	0.074	0.103
-293.676	464.589	0.166	0.369
-292.662	155.766	-0.194	0.267
-291.647	97.836	0.196	-0.224
-290.632	-88.955	-0.153	-0.045
-289.618	403.234	0.160	-0.335
-288.603	733.142	-0.073	0.196
-287.589	-125.379	-0.237	-0.036
-286.574	-200.000	-0.022	-0.232
-285.559	-110.400	0.376	0.078
-284.545	800.000	0.072	0.271
-283.530	-21.368	-0.079	0.048
-282.516	-180.978	-0.058	-0.001
-281.501	800.000	-0.039	-0.160
-280.486	240.734	0.155	-0.257
-279.472	-69.157	-0.240	-0.092
-278.457	800.000	-0.076	-0.254
-277.443	800.000	-0.089	0.289
-276.428	-59.124	-0.067	0.029
-275.413	712.271	-0.045	-0.120
-274.399	146.616	-0.116	0.155
-273.384	-200.000	-0.026	0.119
-272.370	800.000	-0.016	0.058
-271.355	-156.392	-0.307	0.019
-270.340	199.634	-0.187	-0.285
-269.326	-176.827	0.067	-0.002
-268.311	425.903	0.031	0.066
-267.297	65.242	-0.215	-0.216
-266.282	188.466	-0.100	-0.149
-265.267	-1.909	-0.095	0.066
-264.253	-173.518	0.189	0.006
-263.238	-11.750	0.126	0.082
-262.224	20.406	0.027	-0.022
-261.209	800.000	-0.013	-0.042
-260.195	800.000	-0.088	0.273
-259.180	-23.506	0.197	-0.118
-258.165	350.436	0.080	-0.157
-257.151	99.473	0.076	0.088
-256.136	-100.967	0.658	0.160
-255.122	571.953	-0.110	-0.266
-254.107	23.326	0.170	-0.139
-253.092	5.532	0.265	0.194
-252.078	-200.000	0.045	-0.387
-251.063	-133.800	-0.192	0.024
-250.049	-84.240	-0.142	-0.045
-249.034	10.403	0.191	-0.145
-248.019	-200.000	0.017	-0.145
-247.005	490.859	-0.048	0.110
-245.990	21.531	0.453	-0.366
-244.976	800.000	-0.137	0.388
-243.961	5.211	0.399	0.292
-242.946	247.059	0.095	-0.159
-241.932	800.000	-0.156	-0.482
-240.917	116.984	-0.154	0.188
-239.903	94.183	-0.227	0.256
-238.888	151.178	-0.117	-0.158
-237.873	355.329	0.022	-0.044
-236.859	-58.048	-0.105	-0.046
-235.844	800.000	-0.081	-0.250
-234.830	-8.106	-0.237	-0.158
-233.815	477.061	-0.013	-0.030
-232.800	129.407	0.141	-0.179
-231.786	800.000	0.143	0.502
-230.771	-169.842	0.334	-0.012
-229.757	-55.333	0.299	0.133
-228.742	-12.690	0.066	-0.042
-227.727	-60.912	0.159	0.067
-226.713	158.696	0.084	-0.116
-225.698	-59.336	0.113	-0.048
-224.684	-76.870	0.253	-0.088
-223.669	603.858	-0.075	-0.185
-222.655	162.762	0.114	-0.159
-221.640	-74.286	-0.300	0.108
-220.625	140.197	-0.108	0.142
-219.611	800.000	0.120	0.366
-218.596	-200.000	0.005	-0.235
-217.582	-156.544	-0.141	-0.009
-216.567	242.289	0.015	0.025
-215.552	-0.780	0.082	-0.058
-214.538	-17.163	-0.318	0.199
-213.523	-21.006	0.307	0.187
-212.509	-23.550	-0.048	-0.028
-211.494	-1.374	0.245	-0.172
-210.479	-183.250	-0.302	0.005
-209.465	-200.000	-0.017	0.218
-208.450	-73.489	0.106	-0.038
-207.436	791.134	0.037	-0.100
-206.421	285.367	-0.033	-0.058
-205.406	9.614	-0.194	0.146
-204.392	315.205	0.046	0.086
-203.377	167.278	0.139	-0.196
-202.363	-200.000	0.040	0.261
-201.348	-177.335	0.211	-0.005
-200.333	-4.538	0.319	-0.219
-199.319	171.474	0.199	0.283
-198.304	143.824	-0.094	0.124
-197.290	800.000	0.088	0.256
-196.275	647.727	-0.068	-0.173
-195.260	20.892	-0.055	-0.044
-194.246	603.079	0.054	-0.133
-193.231	-200.000	0.015	-0.163
-192.217	-86.842	0.217	0.066
-191.202	-19.246	-0.050	-0.031
-190.187	800.000	-0.039	0.161
-189.173	-54.405	-0.057	0.026
-188.158	-30.595	0.209	0.117
-187.144	-200.000	0.013	-0.083
-186.129	16.649	0.239	-0.188
-185.114	-102.087	0.316	-0.075
-184.100	-93.051	0.298	-0.082
-183.085	-200.000	0.012	-0.107
-182.071	-200.000	0.027	-0.229
-181.056	-200.000	-0.012	0.454
-180.042	291.925	-0.085	0.153
-179.027	105.108	-0.070	0.082
-178.012	-103.052	-0.153	0.036
-176.998	-154.843	0.141	0.009
-175.983	-89.082	0.185	0.054
-174.969	186.829	-0.130	0.191
-173.954	-166.221	0.150	-0.006
-172.939	-58.094	0.238	0.103
-171.925	10.750	-0.064	-0.048
-170.910	-88.102	-0.477	0.142
-169.896	18.501	-0.254	0.201
-168.881	800.000	-0.039	-0.123
-167.866	-200.000	-0.414	0.002
-166.852	-149.349	-0.108	0.008
-165.837	800.000	-0.085	0.261
-164.823	140.057	-0.086	0.113
-163.808	166.363	0.102	0.142
-162.793	172.340	0.077	-0.110
-161.779	43.284	0.157	-0.142
-160.764	-200.000	0.033	0.371
-159.750	800.000	-0.135	-0.375
-158.735	-200.000	-0.043	-0.234
-157.720	-102.502	0.134	0.032
-156.706	-144.530	-0.212	-0.019
-155.691	-115.443	0.269	0.050
-154.677	44.818	0.034	0.031
-153.662	516.600	-0.146	0.337
-152.647	-200.000	-0.066	0.293
-151.633	-52.255	-0.340	0.156
-150.618	-200.000	0.002	0.270
-149.604	-200.000	0.006	0.101
-148.589	-97.092	0.142	0.037
-147.574	-29.093	0.074	-0.042
-146.560	112.465	-0.034	-0.041
-145.545	-58.392	-0.074	-0.032
-144.531	-172.082	0.180	-0.006
-143.516	-118.199	0.089	0.016
-142.502	-98.307	-0.454	-0.115
-141.487	-200.000	0.017	0.185
-140.472	773.005	0.073	-0.198
-139.458	122.706	0.224	-0.277
-138.443	-154.529	-0.438	0.029
-137.429	800.000	0.102	0.354
-136.414	106.012	0.159	0.186
-135.399	-87.383	-0.122	0.037
-134.385	148.655	-0.206	0.275
-133.370	-200.000	-0.010	-0.292
-132.356	-61.381	0.347	0.144
-131.341	-144.038	-0.039	-0.004
-130.326	25.454	-0.019	0.016
-129.312	354.897	-0.043	-0.084
-128.297	158.563	0.276	0.379
-127.283	-200.000	0.069	0.394
-126.268	207.408	-0.160	-0.246
-125.253	-68.456	0.118	-0.045
-124.239	-16.733	-0.163	0.102
-123.224	-81.486	-0.074	0.024
-122.210	698.487	0.039	-0.102
-121.195	-84.542	0.072	-0.022
