DTS Sentinel unit serial number:	SN413079Multiplexer serial number:	ORYXHardware model number:	OX4-SRSoftware version number:	ORYX F/W v4.00 Oryx Data Collector v3.7.2.0data status	okinstallation	princeton_trtdifferential loss correction	single-endedforward channel	channel 2reverse channel	N/Adate	2019/09/11time	15:13:10forward acquisition time	60.00reverse acquisition time	0.00gamma	496.2192k internal	0.2289k external	0.2289temperature offset calibration	1.0013default loss term (dB/km)	0.3790temperature slope calibration	1.0000multiplexer offset coefficient	1.0000multiplexer slope coefficient	1.0000fibre end	0.00T internal ref (°C)	42.98T ext. ref 1 (°C)	0.98T ext. ref 2 (°C)	36.61length (m)	temperature (°C)	Stokes	anti-Stokes-747.200	659.885	0.010	0.028
-746.185	800.000	0.090	0.354
-745.171	-200.000	-0.045	0.335
-744.156	229.615	-0.105	0.175
-743.142	800.000	0.120	0.500
-742.127	-200.000	0.063	0.412
-741.112	-91.911	-0.263	0.077
-740.098	539.591	-0.032	0.077
-739.083	680.219	-0.096	0.257
-738.069	-200.000	0.002	0.532
-737.054	-55.216	-0.246	0.113
-736.039	40.138	0.209	-0.192
-735.025	51.957	0.216	0.211
-734.010	-200.000	0.014	-0.072
-732.996	40.549	-0.208	-0.192
-731.981	-106.335	-0.094	-0.022
-730.966	-200.000	0.064	0.385
-729.952	-117.072	-0.273	-0.051
-728.937	-57.957	-0.450	0.201
-727.923	-118.964	-0.101	0.018
-726.908	23.636	-0.211	-0.178
-725.894	-5.071	-0.071	-0.050
-724.879	44.045	0.127	-0.119
-723.864	-74.840	-0.335	-0.123
-722.850	-200.000	0.067	-0.356
-721.835	-3.324	0.123	0.088
-720.821	-81.786	-0.261	-0.087
-719.806	-91.942	0.074	-0.022
-718.791	59.354	-0.268	-0.271
-717.777	-131.252	-0.170	0.023
-716.762	-41.184	-0.274	-0.145
-715.748	-74.642	0.092	0.034
-714.733	-57.627	-0.119	-0.053
-713.718	-92.840	-0.242	-0.069
-712.704	800.000	-0.070	-0.205
-711.689	326.416	0.121	-0.237
-710.675	521.953	0.058	-0.141
-709.660	-92.575	-0.081	0.023
-708.645	-54.312	0.047	0.022
-707.631	2.922	0.103	-0.077
-706.616	-5.030	-0.206	0.145
-705.602	-164.162	-0.474	-0.022
-704.587	-200.000	-0.027	0.147
-703.572	31.831	0.147	0.130
-702.558	-200.000	0.009	-0.313
-701.543	446.147	0.129	-0.290
-700.529	-32.931	-0.194	-0.110
-699.514	-65.605	0.021	-0.009
-698.499	412.836	0.013	0.028
-697.485	158.830	-0.150	-0.213
-696.470	583.221	0.017	0.043
-695.456	137.193	-0.128	0.171
-694.441	311.593	-0.101	0.193
-693.426	86.080	0.200	0.226
-692.412	356.154	-0.063	-0.128
-691.397	800.000	-0.045	-0.172
-690.383	396.394	-0.034	-0.072
-689.368	122.526	0.079	-0.101
-688.354	-114.527	-0.365	-0.072
-687.339	-124.028	-0.170	-0.027
-686.324	-72.949	-0.223	0.084
-685.310	136.982	-0.194	-0.260
-684.295	-111.555	-0.249	-0.052
-683.281	-200.000	0.008	0.070
-682.266	-28.445	-0.057	-0.033
-681.251	-128.750	-0.384	0.055
-680.237	336.988	0.109	0.217
-679.222	349.020	0.115	-0.233
-678.208	-146.209	-0.464	0.042
-677.193	-200.000	-0.042	-0.198
-676.178	800.000	-0.058	0.257
-675.164	120.459	-0.136	-0.172
-674.149	-129.101	0.209	0.030
-673.135	-86.820	0.129	-0.040
-672.120	371.752	-0.071	-0.147
-671.105	-88.184	0.524	0.160
-670.091	123.544	0.252	-0.323
-669.076	-10.020	0.044	-0.030
-668.062	39.940	0.065	-0.060
-667.047	-122.912	-0.329	-0.054
-666.032	800.000	0.072	0.314
-665.018	256.892	0.021	-0.037
-664.003	38.933	0.184	0.168
-662.989	62.261	0.173	-0.176
-661.974	377.814	0.058	0.122
-660.959	81.653	-0.066	0.073
-659.945	295.338	0.093	0.175
-658.930	41.082	-0.209	-0.193
-657.916	-119.505	-0.327	-0.058
-656.901	154.963	0.087	-0.122
-655.886	800.000	-0.049	-0.188
-654.872	800.000	0.039	-0.121
-653.857	800.000	0.039	0.166
-652.843	47.538	-0.406	0.386
-651.828	-200.000	0.058	-0.309
-650.814	-200.000	-0.019	0.117
-649.799	-200.000	-0.034	-0.187
-648.784	-200.000	0.002	0.131
-647.770	-82.218	-0.230	-0.076
-646.755	88.171	0.128	0.145
-645.741	-137.073	-0.349	0.041
-644.726	-47.258	0.064	0.032
-643.711	-200.000	-0.011	0.266
-642.697	71.164	-0.098	0.104
-641.682	-90.034	0.090	0.027
-640.668	57.404	0.206	0.206
-639.653	-147.890	-0.175	0.015
-638.638	-200.000	-0.004	-0.022
-637.624	800.000	0.092	-0.299
-636.609	-200.000	-0.039	-0.255
-635.595	47.434	-0.079	-0.075
-634.580	-7.289	-0.222	0.153
-633.565	-140.276	-0.360	0.038
-632.551	800.000	-0.095	-0.323
-631.536	-90.866	-0.159	-0.047
-630.522	-100.059	0.200	0.051
-629.507	700.408	0.123	0.330
-628.492	-72.905	0.188	-0.071
-627.478	-30.311	-0.146	0.085
-626.463	-94.874	-0.446	0.123
-625.449	49.126	-0.107	-0.103
-624.434	-77.428	0.294	-0.104
-623.419	667.133	-0.049	0.130
-622.405	-200.000	0.018	-0.426
-621.390	-39.204	0.139	0.074
-620.376	225.263	-0.083	0.138
-619.361	-62.527	0.139	-0.059
-618.346	-112.594	0.297	-0.060
-617.332	-40.446	0.065	-0.035
-616.317	179.947	-0.054	-0.081
-615.303	-68.200	-0.196	-0.078
-614.288	800.000	-0.098	-0.308
-613.273	69.625	-0.103	0.108
-612.259	325.604	-0.055	0.107
-611.244	173.911	0.141	0.208
-610.230	800.000	-0.089	-0.322
-609.215	5.931	0.269	0.203
-608.201	800.000	-0.046	0.206
-607.186	800.000	0.087	-0.276
-606.171	-15.792	0.266	0.173
-605.157	800.000	-0.087	-0.336
-604.142	-34.358	0.272	-0.152
-603.128	-127.272	-0.460	-0.069
-602.113	-53.649	-0.180	0.084
-601.098	189.337	-0.201	0.307
-600.084	-200.000	0.032	-0.152
-599.069	-138.978	0.231	0.026
-598.055	-75.920	-0.089	-0.032
-597.040	800.000	0.032	-0.105
-596.025	-93.471	-0.025	-0.007
-595.011	800.000	-0.057	-0.210
-593.996	193.298	-0.091	0.141
-592.982	-200.000	0.018	0.238
-591.967	-149.294	0.075	-0.006
-590.952	-127.931	0.273	-0.040
-589.938	462.425	-0.035	-0.079
-588.923	-96.784	-0.180	0.048
-587.909	800.000	0.081	-0.293
-586.894	-102.225	0.380	0.093
-585.879	72.368	-0.091	0.097
-584.865	800.000	-0.085	-0.370
-583.850	-122.384	-0.177	-0.029
-582.836	-46.062	-0.100	0.050
-581.821	74.266	0.027	0.029
-580.806	298.146	0.081	-0.152
-579.792	-83.802	-0.221	-0.072
-578.777	353.729	-0.165	0.335
-577.763	404.039	-0.072	-0.154
-576.748	-121.080	0.446	-0.076
-575.733	95.695	0.213	-0.247
-574.719	471.016	0.043	-0.098
-573.704	288.330	0.085	0.158
-572.690	-35.904	0.313	-0.172
-571.675	-138.948	-0.308	0.034
-570.661	144.342	0.277	0.376
-569.646	24.248	0.158	0.133
-568.631	293.714	-0.107	-0.200
-567.617	-200.000	-0.013	-0.133
-566.602	81.748	-0.146	0.160
-565.588	139.490	0.203	0.271
-564.573	-44.140	-0.392	0.200
-563.558	242.388	0.106	0.180
-562.544	389.542	0.082	0.172
-561.529	-26.703	-0.154	0.092
-560.515	239.920	-0.060	0.102
-559.500	-200.000	-0.012	-0.107
-558.485	6.272	-0.160	0.121
-557.471	-71.234	-0.341	0.130
-556.456	-78.322	-0.165	-0.058
-555.442	-200.000	-0.004	0.019
-554.427	466.278	0.086	-0.195
-553.412	800.000	-0.061	0.207
-552.398	24.956	-0.137	-0.116
-551.383	190.897	-0.074	-0.114
-550.369	-39.409	0.288	-0.154
-549.354	-131.875	-0.044	0.006
-548.339	-22.512	0.214	-0.132
-547.325	24.180	0.147	-0.124
-546.310	356.837	-0.117	-0.238
-545.296	-53.694	0.119	-0.055
-544.281	-83.052	-0.223	0.073
-543.266	26.815	-0.377	-0.321
-542.252	492.962	0.165	-0.384
-541.237	-200.000	0.004	-0.282
-540.223	800.000	-0.039	0.139
-539.208	-200.000	0.001	0.168
-538.193	376.815	0.016	-0.033
-537.179	-8.030	-0.470	0.322
-536.164	-200.000	0.013	-0.254
-535.150	-88.647	-0.128	-0.039
-534.135	-200.000	-0.013	-0.107
-533.121	-124.405	-0.342	-0.054
-532.106	-56.932	0.305	-0.137
-531.091	-200.000	-0.029	-0.156
-530.077	-64.781	-0.152	-0.063
-529.062	258.324	0.093	0.163
-528.048	23.573	0.326	0.273
-527.033	580.003	-0.019	-0.048
-526.018	107.860	-0.135	0.164
-525.004	-165.668	-0.158	0.007
-523.989	-42.231	-0.352	-0.183
-522.975	-200.000	0.010	-0.083
-521.960	-35.893	-0.091	0.050
-520.945	86.625	0.122	0.137
-519.931	-200.000	0.007	-0.235
-518.916	-20.324	0.237	0.148
-517.902	-200.000	-0.003	0.237
-516.887	444.959	0.088	0.196
-515.872	-39.224	0.007	0.004
-514.858	-200.000	0.018	0.173
-513.843	-200.000	0.012	-0.095
-512.829	-200.000	0.001	-0.027
-511.814	-127.226	0.320	-0.047
-510.799	-166.617	0.264	-0.011
-509.785	125.589	0.094	0.120
-508.770	114.141	-0.185	-0.228
-507.756	-200.000	0.018	-0.538
-506.741	-119.231	0.363	-0.064
-505.726	58.073	0.062	-0.061
-504.712	12.765	-0.183	0.144
-503.697	-148.047	0.043	-0.004
-502.683	800.000	0.062	-0.219
-501.668	800.000	0.018	0.063
-500.653	-200.000	0.005	0.165
-499.639	104.927	0.076	-0.091
-498.624	81.045	0.281	-0.308
-497.610	-59.727	0.253	-0.110
-496.595	-149.850	-0.241	-0.019
-495.581	-200.000	-0.004	-0.111
-494.566	191.211	0.104	-0.159
-493.551	-200.000	-0.009	-0.284
-492.537	-197.852	-0.046	0.000
-491.522	800.000	-0.156	-0.511
-490.508	-28.762	-0.283	-0.165
-489.493	-112.390	0.195	0.039
-488.478	339.418	-0.123	0.243
-487.464	-200.000	0.016	0.145
-486.449	-33.471	-0.222	-0.124
-485.435	24.617	-0.482	0.405
-484.420	-160.754	-0.195	0.011
-483.405	800.000	-0.023	-0.081
-482.391	-167.019	0.494	-0.020
-481.376	-200.000	-0.006	-0.091
-480.362	800.000	-0.015	0.066
-479.347	-124.295	0.172	-0.027
-478.332	-200.000	0.077	-0.403
-477.318	800.000	-0.060	0.174
-476.303	24.149	0.108	0.090
-475.289	34.434	-0.094	0.083
-474.274	-3.614	-0.143	0.101
-473.259	-5.120	0.228	-0.159
-472.245	-178.034	-0.325	0.008
-471.230	-200.000	0.004	-0.171
-470.216	-164.218	-0.276	0.013
-469.201	160.362	0.061	0.086
-468.186	800.000	0.105	-0.327
-467.172	-7.255	0.257	-0.177
-466.157	-137.107	-0.176	0.020
-465.143	311.716	0.130	-0.247
-464.128	680.044	0.150	0.395
-463.113	-96.284	0.114	-0.031
-462.099	-200.000	0.007	0.046
-461.084	192.381	-0.057	-0.087
-460.070	-96.311	0.101	-0.027
-459.055	407.795	0.023	-0.049
-458.040	-139.888	-0.115	-0.012
-457.026	353.078	-0.227	-0.457
-456.011	-200.000	0.015	-0.110
-454.997	264.583	0.018	-0.032
-453.982	-106.036	-0.289	-0.066
-452.968	-200.000	0.032	0.267
-451.953	294.030	0.064	-0.118
-450.938	-200.000	0.048	0.307
-449.924	-200.000	0.005	-0.031
-448.909	-106.771	0.396	0.089
-447.895	319.599	0.098	0.187
-446.880	-88.763	0.101	-0.030
-445.865	-132.558	0.140	0.018
-444.851	-200.000	0.022	-0.280
-443.836	800.000	0.053	0.184
-442.822	23.873	0.204	0.170
-441.807	-20.038	0.013	0.008
-440.792	-119.675	0.285	0.050
-439.778	97.641	0.151	0.175
-438.763	-1.809	0.234	0.167
-437.749	-200.000	0.056	0.329
-436.734	-176.661	-0.191	0.005
-435.719	-200.000	0.031	-0.278
-434.705	-19.651	0.197	0.124
-433.690	-28.417	0.091	0.053
-432.676	139.009	0.168	0.224
-431.661	-77.385	-0.344	-0.121
-430.646	66.645	-0.099	-0.102
-429.632	317.647	0.091	-0.175
-428.617	27.766	0.027	-0.023
-427.603	-200.000	-0.019	-0.093
-426.588	-55.689	0.287	-0.130
-425.573	117.515	-0.137	0.171
-424.559	-200.000	0.028	0.165
-423.544	-200.000	0.000	-0.142
-422.530	-67.247	-0.115	-0.046
-421.515	-169.021	0.094	0.004
-420.500	-200.000	-0.038	-0.255
-419.486	216.602	-0.197	0.317
-418.471	387.380	0.159	0.333
-417.457	-33.695	0.124	0.069
-416.442	-200.000	-0.019	-0.240
-415.428	-107.742	-0.262	-0.058
-414.413	-83.038	0.150	-0.049
-413.398	-119.946	0.407	0.071
-412.384	47.309	-0.312	-0.294
-411.369	-200.000	0.025	0.249
-410.355	-48.573	0.290	0.141
-409.340	56.360	-0.108	0.106
-408.325	11.476	0.306	0.237
-407.311	-49.906	0.269	0.129
-406.296	86.751	0.042	-0.047
-405.282	-101.183	0.297	0.073
-404.267	645.967	-0.094	0.242
-403.252	-157.810	0.029	0.002
-402.238	-54.250	0.198	-0.091
-401.223	-200.000	-0.010	-0.192
-400.209	800.000	-0.033	0.119
-399.194	313.700	-0.085	-0.162
-398.179	-189.420	-0.194	0.002
-397.165	-200.000	-0.075	0.368
-396.150	-22.047	0.328	0.201
-395.136	800.000	0.041	-0.157
-394.121	-18.763	-0.147	0.093
-393.106	-35.705	-0.319	-0.175
-392.092	-116.899	0.194	-0.036
-391.077	355.360	-0.063	0.127
-390.063	-167.850	-0.251	0.010
-389.048	207.792	0.092	-0.146
-388.033	53.565	-0.216	-0.210
-387.019	52.775	0.080	0.077
-386.004	58.901	-0.117	-0.116
-384.990	-52.783	0.129	0.060
-383.975	289.117	-0.174	0.319
-382.960	-137.864	-0.118	0.013
-381.946	-141.649	-0.296	-0.030
-380.931	-57.290	0.195	0.087
-379.917	66.695	0.188	0.193
-378.902	15.148	0.231	0.183
-377.888	-29.669	0.174	-0.100
-376.873	-180.676	0.099	0.002
-375.858	-105.922	0.527	0.120
-374.844	-4.895	0.073	0.051
-373.829	99.715	-0.051	0.059
-372.815	-56.996	0.136	0.060
-371.800	-84.098	0.413	-0.132
-370.785	-24.373	0.043	0.026
-369.771	253.513	-0.191	-0.330
-368.756	27.574	-0.076	0.065
-367.742	-71.350	-0.147	-0.055
-366.727	-72.235	-0.229	0.086
-365.712	-200.000	0.040	0.184
-364.698	470.068	0.094	0.213
-363.683	-103.693	-0.346	0.082
-362.669	-127.435	0.078	-0.011
-361.654	44.958	-0.074	-0.069
-360.639	-129.488	0.178	0.025
-359.625	280.404	-0.123	-0.223
-358.610	-200.000	0.028	-0.130
-357.596	33.643	-0.090	-0.079
-356.581	800.000	-0.088	0.327
-355.566	-200.000	-0.019	0.084
-354.552	584.786	0.182	-0.450
-353.537	-50.123	0.134	0.064
-352.523	-75.873	-0.085	0.030
-351.508	-200.000	0.002	-0.226
-350.493	-31.664	-0.293	-0.166
-349.479	-97.989	-0.107	0.028
-348.464	-200.000	-0.042	0.239
-347.450	-51.296	0.181	0.086
-346.435	-125.527	-0.267	0.041
-345.420	-200.000	0.062	0.288
-344.406	-111.668	0.345	0.071
-343.391	800.000	-0.010	-0.042
-342.377	135.208	0.068	-0.089
-341.362	800.000	0.071	0.230
-340.348	-200.000	-0.014	0.153
-339.333	69.838	0.029	-0.030
-338.318	88.427	-0.060	0.067
-337.304	-159.536	0.363	0.020
-336.289	-1.538	0.156	0.111
-335.275	263.966	0.094	-0.165
-334.260	-81.992	0.130	-0.043
-333.245	258.918	-0.162	-0.282
-332.231	-76.888	-0.029	-0.010
-331.216	-200.000	-0.004	0.047
-330.202	128.850	0.215	-0.277
-329.187	-200.000	-0.014	0.066
-328.172	-200.000	-0.056	-0.309
-327.158	4.712	-0.187	-0.138
-326.143	-90.616	0.132	0.038
-325.129	-200.000	0.001	-0.123
-324.114	-123.358	0.306	-0.049
-323.099	-74.221	-0.155	0.056
-322.085	407.773	-0.117	-0.250
-321.070	-53.608	0.172	-0.079
-320.056	-121.622	0.184	0.031
-319.041	-124.913	-0.051	0.008
-318.026	-86.394	0.136	0.042
-317.012	74.126	-0.072	0.076
-315.997	-29.729	0.090	0.052
-314.983	-21.436	-0.242	-0.149
-313.968	222.210	-0.104	0.169
-312.953	-200.000	0.024	0.208
-311.939	-200.000	0.016	0.172
-310.924	-200.000	0.024	0.307
-309.910	-200.000	0.063	-0.388
-308.895	235.488	0.169	-0.282
-307.880	-59.275	-0.271	0.118
-306.866	-41.605	-0.301	0.156
-305.851	62.324	0.196	0.197
-304.837	103.429	0.262	-0.309
-303.822	669.533	-0.124	-0.322
-302.807	-122.723	-0.139	-0.023
-301.793	-200.000	-0.033	0.176
-300.778	-35.405	-0.157	-0.086
-299.764	118.015	0.128	0.159
-298.749	-36.778	0.037	0.020
-297.735	-200.000	-0.001	0.175
-296.720	800.000	0.043	0.183
-295.705	-200.000	-0.056	-0.271
-294.691	274.085	0.139	0.248
-293.676	-8.065	-0.152	0.103
-292.662	136.065	-0.230	0.302
-291.647	385.665	-0.134	-0.277
-290.632	-126.468	0.070	0.010
-289.618	-200.000	0.024	-0.165
-288.603	800.000	0.009	0.039
-287.589	85.381	-0.219	0.242
-286.574	163.339	-0.138	-0.195
-285.559	-200.000	-0.049	-0.225
-284.545	-95.283	0.304	-0.082
-283.530	-102.364	-0.295	-0.071
-282.516	-59.969	-0.202	0.087
-281.501	800.000	-0.012	0.037
-280.486	-200.000	-0.027	-0.131
-279.472	-84.437	0.189	0.060
-278.457	-200.000	0.006	0.250
-277.443	566.104	-0.047	0.115
-276.428	155.236	-0.213	0.295
-275.413	-200.000	-0.045	-0.207
-274.399	-83.868	0.217	-0.070
-273.384	-93.079	-0.215	0.060
-272.370	-55.263	0.125	0.057
-271.355	-44.189	0.126	-0.064
-270.340	-70.603	0.178	0.068
-269.326	-200.000	-0.006	0.151
-268.311	-79.030	0.213	-0.073
-267.297	-8.451	-0.114	-0.077
-266.282	126.002	0.051	-0.064
-265.267	-58.601	-0.103	-0.045
-264.253	-200.000	0.037	0.174
-263.238	708.019	0.087	-0.232
-262.224	657.077	-0.102	0.265
-261.209	-95.172	0.221	0.060
-260.195	609.548	-0.051	-0.127
-259.180	96.664	0.197	-0.227
-258.165	-83.227	0.429	-0.139
-257.151	-74.656	0.227	0.082
-256.136	-178.361	0.262	-0.006
-255.122	-6.126	-0.100	-0.069
-254.107	-200.000	0.016	-0.367
-253.092	800.000	0.095	0.266
-252.078	84.023	0.136	0.149
-251.063	-53.421	0.244	-0.112
-250.049	-200.000	0.023	-0.130
-249.034	151.492	0.059	-0.081
-248.019	800.000	-0.085	0.274
-247.005	800.000	-0.005	0.017
-245.990	33.816	-0.460	0.403
-244.976	56.821	0.171	0.168
-243.961	-200.000	-0.057	-0.328
-242.946	187.412	0.055	0.083
-241.932	6.403	0.083	-0.062
-240.917	115.372	-0.098	-0.121
-239.903	-113.884	-0.226	0.044
-238.888	-200.000	-0.058	-0.419
-237.873	800.000	0.043	0.147
-236.859	72.428	-0.021	0.023
-235.844	800.000	-0.103	-0.400
-234.830	-70.470	-0.195	-0.074
-233.815	309.808	0.085	0.159
-232.800	800.000	-0.060	0.217
-231.786	-140.538	0.194	-0.020
-230.771	-157.690	-0.267	0.016
-229.757	-200.000	0.013	-0.099
-228.742	-200.000	0.015	0.162
-227.727	-108.939	-0.380	-0.082
-226.713	144.554	-0.119	-0.159
-225.698	477.463	-0.102	0.232
-224.684	122.072	0.041	0.051
-223.669	632.150	0.085	0.217
-222.655	619.376	0.048	0.122
-221.640	-11.524	-0.191	0.126
-220.625	-200.000	-0.031	-0.221
-219.611	-58.287	-0.226	-0.099
-218.596	58.612	0.233	-0.230
-217.582	-200.000	-0.052	-0.231
-216.567	-70.268	0.053	0.020
-215.552	108.276	-0.122	0.146
-214.538	172.996	0.101	-0.146
-213.523	49.685	-0.268	0.254
-212.509	315.883	-0.156	0.296
-211.494	48.718	-0.169	0.159
-210.479	492.353	0.070	0.161
-209.465	-199.669	-0.274	-0.001
-208.450	-0.973	-0.285	0.203
-207.436	-165.403	-0.339	-0.015
-206.421	-79.852	-0.158	0.053
-205.406	-46.931	-0.290	0.142
-204.392	-200.000	0.375	0.002
-203.377	-74.026	0.325	0.118
-202.363	127.284	0.085	0.109
-201.348	-100.684	0.206	-0.051
-200.333	-147.758	-0.215	-0.018
-199.319	-145.156	-0.163	-0.015
-198.304	289.047	0.135	0.246
-197.290	-200.000	0.052	0.298
-196.275	-2.303	0.278	0.195
-195.260	-55.438	-0.027	0.012
-194.246	-200.000	0.006	-0.182
-193.231	-26.324	0.289	-0.170
-192.217	434.646	0.185	0.404
-191.202	-47.427	-0.215	-0.105
-190.187	-200.000	-0.031	0.172
-189.173	-200.000	-0.001	0.132
-188.158	-76.104	-0.230	-0.082
-187.144	118.881	0.033	0.041
-186.129	4.874	0.156	0.115
-185.114	264.054	-0.074	-0.130
-184.100	243.737	0.119	-0.200
-183.085	-13.601	-0.150	0.097
-182.071	237.505	-0.106	0.177
-181.056	-7.952	0.370	0.250
-180.042	-158.761	0.201	0.012
-179.027	-61.193	-0.194	0.082
-178.012	-200.000	0.016	0.115
-176.998	740.502	0.046	-0.124
-175.983	-200.000	0.061	0.336
-174.969	-6.307	-0.070	0.048
-173.954	-52.485	0.143	0.066
-172.939	-152.269	0.193	-0.014
-171.925	-4.977	0.199	-0.137
-170.910	348.598	0.142	-0.281
-169.896	-200.000	0.151	0.000
-168.881	-200.000	0.016	0.119
-167.866	-200.000	0.003	0.204
-166.852	-134.625	-0.542	-0.066
-165.837	140.436	-0.253	-0.335
-164.823	-200.000	-0.019	-0.136
-163.808	38.046	-0.162	-0.144
-162.793	4.643	-0.300	0.221
-161.779	207.249	-0.183	-0.286
-160.764	56.937	-0.068	-0.066
-159.750	-81.557	-0.129	0.042
-158.735	800.000	-0.088	-0.323
-157.720	90.007	0.055	-0.061
-156.706	-15.411	0.028	-0.018
-155.691	87.002	-0.195	-0.215
-154.677	-200.000	-0.010	0.278
-153.662	-84.451	-0.189	-0.060
-152.647	-200.000	-0.068	0.348
-151.633	-27.363	-0.213	-0.124
-150.618	212.943	0.078	0.124
-149.604	-200.000	0.049	0.252
-148.589	455.536	-0.043	0.097
-147.574	-114.691	-0.433	-0.083
-146.560	800.000	0.108	0.302
-145.545	-3.036	0.258	0.181
-144.531	506.913	0.083	0.192
-143.516	-61.467	-0.134	0.056
-142.502	74.713	0.218	0.230
-141.487	774.217	-0.119	0.326
-140.472	313.744	-0.028	-0.053
-139.458	-49.525	-0.248	0.118
-138.443	96.270	0.054	-0.062
-137.429	25.178	0.305	0.253
-136.414	240.379	0.093	0.154
-135.399	440.397	0.167	-0.366
-134.385	188.351	0.128	-0.192
-133.370	-121.705	-0.075	-0.012
-132.356	800.000	0.057	0.212
-131.341	-31.449	0.027	0.015
-130.326	33.532	-0.214	0.186
-129.312	190.394	-0.073	-0.109
-128.297	800.000	-0.077	0.297
-127.283	-200.000	0.014	0.228
-126.268	-91.356	0.127	-0.036
-125.253	-139.494	-0.359	-0.038
-124.239	105.415	-0.095	0.112
-123.224	57.975	-0.064	-0.063
-122.210	248.926	-0.040	-0.068
-121.195	23.831	0.128	0.105
