DTS Sentinel unit serial number:	SN413079Multiplexer serial number:	ORYXHardware model number:	OX4-SRSoftware version number:	ORYX F/W v4.00 Oryx Data Collector v3.7.2.0data status	okinstallation	princeton_trtdifferential loss correction	single-endedforward channel	channel 2reverse channel	N/Adate	2019/09/18time	15:31:35forward acquisition time	60.00reverse acquisition time	0.00gamma	496.2192k internal	0.2314k external	0.2314temperature offset calibration	1.0007default loss term (dB/km)	0.3790temperature slope calibration	1.0000multiplexer offset coefficient	1.0000multiplexer slope coefficient	1.0000fibre end	0.00T internal ref (°C)	36.25T ext. ref 1 (°C)	0.77T ext. ref 2 (°C)	32.85length (m)	temperature (°C)	Stokes	anti-Stokes-747.200	284.936	-0.097	-0.177
-746.185	304.656	0.050	-0.093
-745.171	-200.000	0.000	-0.474
-744.156	295.923	-0.112	0.208
-743.142	-155.427	0.331	-0.022
-742.127	-35.128	-0.062	-0.034
-741.112	-200.000	0.052	-0.494
-740.098	-200.000	-0.048	-0.261
-739.083	218.971	-0.133	0.215
-738.069	15.146	-0.174	0.138
-737.054	274.288	0.088	-0.157
-736.039	-170.730	-0.244	0.009
-735.025	-0.875	0.263	0.189
-734.010	135.617	0.107	-0.142
-732.996	-46.850	-0.080	0.040
-731.981	800.000	-0.055	0.209
-730.966	-192.426	-0.181	0.002
-729.952	-139.072	-0.148	0.016
-728.937	4.309	0.248	-0.184
-727.923	202.059	-0.117	-0.183
-726.908	789.742	-0.065	-0.182
-725.894	236.588	-0.154	-0.258
-724.879	-200.000	0.023	0.160
-723.864	-16.440	-0.184	-0.118
-722.850	800.000	-0.091	-0.297
-721.835	-33.920	-0.196	-0.109
-720.821	-158.557	-0.255	0.015
-719.806	-123.960	-0.172	-0.027
-718.791	310.866	-0.219	0.416
-717.777	-106.919	0.343	-0.077
-716.762	800.000	-0.055	0.164
-715.748	800.000	0.087	-0.258
-714.733	-100.224	0.182	0.046
-713.718	-151.955	-0.075	-0.006
-712.704	-93.663	0.352	0.098
-711.689	77.893	-0.086	-0.093
-710.675	-86.170	-0.113	0.035
-709.660	-71.684	0.384	0.145
-708.645	-102.785	-0.064	-0.015
-707.631	47.089	0.218	0.205
-706.616	144.666	-0.090	-0.122
-705.602	-107.777	0.256	0.056
-704.587	-17.433	0.118	0.075
-703.572	-200.000	0.011	0.274
-702.558	433.102	0.170	-0.373
-701.543	-25.751	-0.190	-0.113
-700.529	800.000	-0.072	0.283
-699.514	-136.068	0.041	-0.005
-698.499	55.575	-0.385	-0.377
-697.485	-41.597	-0.124	-0.064
-696.470	113.496	-0.063	0.078
-695.456	131.804	0.092	-0.120
-694.441	-118.265	-0.051	-0.009
-693.426	-59.699	-0.190	-0.083
-692.412	-67.849	0.375	0.148
-691.397	273.603	0.142	-0.254
-690.383	-92.072	-0.234	-0.067
-689.368	201.625	-0.149	0.233
-688.354	-200.000	0.006	-0.038
-687.339	520.972	0.018	0.044
-686.324	510.442	-0.111	0.261
-685.310	44.025	-0.126	-0.117
-684.295	-200.000	0.033	-0.419
-683.281	-119.690	-0.410	-0.072
-682.266	553.257	-0.012	-0.029
-681.251	-200.000	-0.015	-0.084
-680.237	800.000	0.048	-0.185
-679.222	-200.000	0.052	0.267
-678.208	-200.000	-0.029	-0.238
-677.193	113.893	-0.218	0.268
-676.178	45.688	-0.076	0.071
-675.164	-200.000	-0.016	-0.240
-674.149	-84.885	-0.299	-0.095
-673.135	-170.426	-0.157	0.006
-672.120	83.025	-0.093	-0.102
-671.105	-121.425	-0.105	0.018
-670.091	268.372	-0.192	0.340
-669.076	574.728	0.075	-0.185
-668.062	-200.000	0.058	-0.281
-667.047	331.341	0.117	-0.229
-666.032	-114.150	-0.238	0.047
-665.018	-157.216	-0.091	-0.006
-664.003	-23.158	0.221	-0.134
-662.989	-200.000	-0.033	-0.245
-661.974	97.349	0.031	-0.036
-660.959	800.000	-0.076	0.300
-659.945	92.184	-0.079	0.090
-658.930	-11.678	-0.165	0.110
-657.916	12.985	-0.102	-0.079
-656.901	800.000	-0.059	-0.168
-655.886	25.671	-0.199	0.167
-654.872	-76.866	0.209	-0.074
-653.857	-130.455	0.551	-0.075
-652.843	-83.462	-0.186	-0.060
-651.828	-145.335	0.339	-0.031
-650.814	-200.000	0.013	-0.352
-649.799	-38.268	-0.318	-0.170
-648.784	-200.000	0.031	0.305
-647.770	138.711	0.162	-0.215
-646.755	112.433	-0.158	-0.193
-645.741	475.658	-0.173	0.396
-644.726	800.000	-0.113	-0.326
-643.711	-200.000	-0.014	-0.216
-642.697	13.204	0.123	0.097
-641.682	270.929	0.107	-0.190
-640.668	254.885	-0.075	0.130
-639.653	-113.150	0.217	0.043
-638.638	-35.570	0.085	-0.046
-637.624	-79.744	0.185	-0.063
-636.609	-79.425	-0.257	-0.088
-635.595	107.593	-0.205	0.246
-634.580	-59.416	-0.204	0.089
-633.565	-16.377	-0.284	-0.182
-632.551	-48.667	-0.160	-0.077
-631.536	-36.088	-0.242	-0.132
-630.522	68.178	-0.141	0.146
-629.507	-39.644	0.330	0.174
-628.492	288.644	0.098	-0.179
-627.478	-181.110	0.211	0.004
-626.463	-92.322	-0.348	0.099
-625.449	-89.213	-0.205	0.061
-624.434	-136.113	0.170	0.020
-623.419	-131.636	0.101	0.013
-622.405	-9.046	-0.055	-0.037
-621.390	-200.000	0.001	-0.022
-620.376	573.967	0.112	0.275
-619.361	-118.036	0.428	-0.077
-618.346	308.406	0.097	-0.183
-617.332	45.732	0.298	0.278
-616.317	-200.000	-0.034	0.578
-615.303	260.114	0.063	-0.109
-614.288	-114.814	0.309	0.060
-613.273	-200.000	0.065	-0.336
-612.259	-200.000	-0.011	-0.109
-611.244	38.932	0.043	-0.039
-610.230	-58.109	0.324	-0.143
-609.215	64.278	-0.081	-0.082
-608.201	191.365	-0.110	0.167
-607.186	468.308	0.055	-0.126
-606.171	-57.761	0.371	-0.164
-605.157	-53.420	-0.238	-0.110
-604.142	-41.589	-0.128	-0.067
-603.128	248.583	-0.162	0.276
-602.113	12.509	0.158	-0.123
-601.098	33.554	-0.173	0.151
-600.084	800.000	-0.074	0.215
-599.069	-36.321	0.121	0.066
-598.055	584.535	0.007	-0.017
-597.040	108.871	-0.294	-0.354
-596.025	-58.927	-0.211	0.092
-595.011	-2.341	-0.109	0.077
-593.996	102.588	0.116	0.137
-592.982	800.000	0.043	0.172
-591.967	62.864	-0.158	-0.160
-590.952	204.451	-0.106	-0.165
-589.938	182.839	-0.084	-0.125
-588.923	85.620	-0.117	-0.129
-587.909	130.763	-0.071	-0.091
-586.894	148.943	-0.136	0.186
-585.879	-200.000	0.001	0.078
-584.865	800.000	-0.025	-0.078
-583.850	-84.101	0.214	0.068
-582.836	-7.826	0.106	-0.072
-581.821	84.601	-0.104	-0.115
-580.806	6.582	-0.153	-0.114
-579.792	13.968	-0.129	-0.101
-578.777	485.520	-0.137	-0.315
-577.763	800.000	-0.085	-0.309
-576.748	800.000	0.138	-0.387
-575.733	92.390	0.122	0.139
-574.719	30.673	-0.182	0.157
-573.704	-200.000	-0.058	0.358
-572.690	800.000	0.055	0.178
-571.675	202.954	0.102	0.159
-570.661	39.251	0.139	0.125
-569.646	-152.660	0.174	0.013
-568.631	519.269	0.059	0.140
-567.617	-88.857	0.352	-0.105
-566.602	-154.433	-0.188	-0.013
-565.588	529.852	0.146	0.347
-564.573	800.000	0.085	0.246
-563.558	-78.637	-0.293	0.101
-562.544	-124.963	0.101	-0.016
-561.529	152.610	-0.119	-0.164
-560.515	-4.343	-0.393	-0.273
-559.500	-98.160	0.283	0.073
-558.485	-142.457	0.133	-0.013
-557.471	-167.738	-0.364	-0.014
-556.456	-200.000	-0.015	-0.086
-555.442	0.205	-0.157	-0.113
-554.427	-200.000	0.088	0.489
-553.412	-16.536	0.401	-0.256
-552.398	-122.897	-0.281	-0.046
-551.383	-64.371	0.247	-0.101
-550.369	109.625	-0.126	-0.152
-549.354	214.465	-0.042	-0.067
-548.339	-200.000	-0.037	-0.240
-547.325	-91.308	0.296	0.085
-546.310	-95.387	0.134	0.036
-545.296	-14.882	-0.463	-0.299
-544.281	178.898	-0.093	0.136
-543.266	35.231	0.195	0.172
-542.252	-16.737	0.407	0.259
-541.237	143.796	-0.140	-0.188
-540.223	-137.395	0.282	-0.032
-539.208	53.773	-0.109	-0.105
-538.193	359.143	-0.148	-0.298
-537.179	120.529	-0.061	0.076
-536.164	-200.000	-0.071	0.392
-535.150	266.379	-0.120	0.210
-534.135	272.960	0.085	-0.150
-533.121	-66.665	0.266	0.106
-532.106	796.757	-0.048	-0.134
-531.091	71.548	-0.054	-0.056
-530.077	-46.054	-0.324	0.161
-529.062	134.436	-0.089	0.116
-528.048	-32.056	-0.207	0.116
-527.033	800.000	-0.030	-0.112
-526.018	-200.000	-0.018	-0.098
-525.004	380.168	-0.057	-0.118
-523.989	163.313	-0.060	0.085
-522.975	800.000	-0.075	-0.267
-521.960	800.000	0.049	0.208
-520.945	-200.000	-0.008	0.241
-519.931	344.230	-0.172	0.340
-518.916	800.000	0.073	-0.294
-517.902	-20.870	-0.203	0.125
-516.887	300.145	0.073	0.136
-515.872	-9.773	0.223	-0.149
-514.858	-101.926	0.301	-0.073
-513.843	-200.000	0.027	0.225
-512.829	669.587	0.064	0.167
-511.814	527.192	0.078	-0.184
-510.799	-35.016	0.419	0.229
-509.785	-200.000	-0.064	-0.382
-508.770	734.420	-0.091	0.246
-507.756	-126.779	-0.071	0.010
-506.741	-95.947	-0.118	0.032
-505.726	346.916	0.139	0.275
-504.712	88.278	0.174	0.194
-503.697	61.657	0.220	0.220
-502.683	-8.444	0.262	-0.177
-501.668	-40.336	-0.086	-0.045
-500.653	280.048	0.039	0.071
-499.639	141.587	-0.069	-0.092
-498.624	-200.000	0.002	-0.193
-497.610	221.522	0.150	0.243
-496.595	-43.980	0.429	0.217
-495.581	47.046	-0.316	-0.295
-494.566	-200.000	-0.028	-0.155
-493.551	-200.000	-0.009	0.374
-492.537	226.638	-0.081	0.132
-491.522	32.697	-0.084	0.073
-490.508	102.631	-0.231	0.272
-489.493	-112.845	0.218	0.043
-488.478	745.853	-0.093	0.252
-487.464	-32.903	-0.116	-0.065
-486.449	4.572	-0.081	0.059
-485.435	122.063	0.140	0.175
-484.420	-87.137	-0.137	-0.042
-483.405	-43.852	-0.129	-0.065
-482.391	-100.637	-0.083	-0.021
-481.376	-77.204	-0.382	-0.133
-480.362	-148.806	0.255	-0.021
-479.347	68.096	-0.287	-0.295
-478.332	-94.833	0.057	0.016
-477.318	-112.135	-0.142	0.029
-476.303	-200.000	-0.061	-0.275
-475.289	-93.216	0.129	0.036
-474.274	31.546	0.250	-0.216
-473.259	-200.000	0.027	-0.276
-472.245	-90.368	-0.205	0.060
-471.230	-89.252	-0.108	-0.032
-470.216	-25.754	0.319	-0.189
-469.201	-102.601	0.239	0.057
-468.186	88.240	-0.093	0.103
-467.172	595.390	0.074	0.184
-466.157	-200.000	-0.018	0.088
-465.143	-200.000	-0.021	0.210
-464.128	334.184	-0.140	0.272
-463.113	-30.005	0.070	0.040
-462.099	215.580	-0.040	-0.064
-461.084	90.965	0.120	-0.134
-460.070	396.541	0.064	0.133
-459.055	-150.476	-0.213	0.016
-458.040	800.000	0.064	0.252
-457.026	-182.185	0.115	0.002
-456.011	50.645	0.223	0.212
-454.997	-200.000	-0.035	-0.230
-453.982	800.000	-0.047	0.155
-452.968	295.279	0.134	0.246
-451.953	0.369	0.019	0.014
-450.938	89.416	0.224	-0.250
-449.924	800.000	-0.117	-0.450
-448.909	94.476	-0.269	-0.306
-447.895	282.381	-0.126	0.227
-446.880	-35.459	-0.172	-0.094
-445.865	-200.000	0.001	-0.099
-444.851	-12.877	-0.132	0.086
-443.836	63.538	0.181	0.182
-442.822	-49.723	0.133	-0.063
-441.807	-200.000	0.008	0.154
-440.792	-11.042	0.171	0.113
-439.778	287.958	0.130	0.235
-438.763	58.216	0.119	0.116
-437.749	424.821	-0.152	0.329
-436.734	-82.533	0.419	-0.136
-435.719	44.272	-0.234	0.215
-434.705	-200.000	-0.008	0.236
-433.690	100.018	-0.067	0.078
-432.676	-78.194	-0.281	-0.097
-431.661	800.000	0.079	0.286
-430.646	-200.000	0.010	0.216
-429.632	-190.853	0.233	-0.002
-428.617	280.336	0.065	0.116
-427.603	-41.960	-0.076	0.039
-426.588	172.333	0.020	-0.029
-425.573	-200.000	0.009	0.196
-424.559	800.000	-0.033	0.092
-423.544	-200.000	-0.035	-0.229
-422.530	-38.004	0.144	-0.077
-421.515	-124.710	-0.316	0.049
-420.500	-14.975	-0.163	-0.104
-419.486	800.000	-0.091	-0.301
-418.471	-51.276	-0.115	0.054
-417.457	43.941	-0.242	-0.222
-416.442	121.623	0.082	0.103
-415.428	-151.319	-0.043	0.003
-414.413	-200.000	-0.052	-0.415
-413.398	-152.483	-0.264	-0.019
-412.384	-30.341	-0.097	-0.055
-411.369	13.745	-0.210	0.164
-410.355	-200.000	-0.101	-0.536
-409.340	582.159	-0.156	0.384
-408.325	800.000	-0.052	0.171
-407.311	45.021	0.057	-0.052
-406.296	321.339	-0.106	-0.202
-405.282	280.976	-0.064	0.115
-404.267	-131.823	-0.176	-0.023
-403.252	-14.504	0.113	0.073
-402.238	800.000	0.053	0.188
-401.223	3.461	-0.033	0.024
-400.209	-98.410	-0.099	0.025
-399.194	-200.000	0.060	-0.267
-398.179	91.018	0.117	-0.132
-397.165	74.336	-0.035	0.036
-396.150	800.000	-0.080	0.233
-395.136	294.338	-0.149	-0.273
-394.121	128.466	-0.109	0.139
-393.106	-111.067	0.147	-0.030
-392.092	-200.000	0.045	0.318
-391.077	800.000	0.039	0.151
-390.063	269.534	0.208	0.366
-389.048	-200.000	-0.005	0.218
-388.033	124.782	0.055	0.069
-387.019	-136.650	0.115	-0.013
-386.004	374.342	0.089	-0.180
-384.990	-83.308	-0.355	0.114
-383.975	-107.452	0.191	-0.042
-382.960	312.332	-0.064	-0.121
-381.946	244.299	-0.143	0.240
-380.931	31.238	0.312	0.268
-379.917	800.000	-0.081	0.290
-378.902	-27.898	-0.378	0.219
-377.888	197.236	-0.013	0.020
-376.873	-200.000	-0.003	-0.174
-375.858	-200.000	0.027	0.460
-374.844	98.590	-0.189	0.217
-373.829	-200.000	0.030	-0.210
-372.815	125.538	-0.218	-0.275
-371.800	-200.000	0.017	-0.135
-370.785	-127.756	0.320	-0.046
-369.771	800.000	-0.073	-0.202
-368.756	-200.000	0.034	-0.167
-367.742	341.484	0.186	0.363
-366.727	-52.925	0.384	0.177
-365.712	109.745	-0.156	-0.186
-364.698	333.652	-0.041	0.079
-363.683	800.000	0.028	-0.092
-362.669	-200.000	-0.008	-0.218
-361.654	-81.256	-0.281	-0.093
-360.639	101.912	-0.115	0.134
-359.625	-68.644	0.207	0.080
-358.610	-23.382	0.119	-0.071
-357.596	-90.756	0.131	-0.038
-356.581	-36.720	0.278	-0.149
-355.566	-32.633	0.057	0.032
-354.552	-61.847	-0.301	0.126
-353.537	-200.000	0.018	-0.090
-352.523	18.354	-0.162	0.129
-351.508	-200.000	0.038	0.317
-350.493	211.103	-0.114	-0.179
-349.479	30.201	-0.027	0.023
-348.464	-76.674	-0.283	-0.099
-347.450	61.607	-0.282	-0.280
-346.435	100.442	0.107	-0.124
-345.420	28.376	0.328	-0.277
-344.406	-200.000	0.007	0.092
-343.391	76.456	0.245	0.260
-342.377	-128.330	-0.126	-0.018
-341.362	333.670	-0.080	0.154
-340.348	-135.812	0.261	-0.031
-339.333	82.693	0.212	0.230
-338.318	634.844	-0.026	0.067
-337.304	-175.160	-0.261	0.007
-336.289	134.712	0.175	-0.227
-335.275	-200.000	-0.003	-0.023
-334.260	59.502	-0.101	0.099
-333.245	93.530	0.249	-0.281
-332.231	-200.000	-0.024	-0.125
-331.216	-200.000	0.032	-0.148
-330.202	-136.458	0.186	-0.022
-329.187	627.609	-0.038	-0.095
-328.172	800.000	-0.006	-0.024
-327.158	-200.000	0.014	0.209
-326.143	-73.996	0.299	0.108
-325.129	-47.695	-0.214	0.103
-324.114	-200.000	0.003	0.236
-323.099	800.000	0.108	-0.328
-322.085	-200.000	-0.034	0.283
-321.070	123.085	-0.227	-0.284
-320.056	-54.874	0.165	-0.074
-319.041	-75.045	-0.295	0.105
-318.026	129.528	0.185	-0.235
-317.012	63.872	-0.030	-0.030
-315.997	-198.642	-0.228	-0.001
-314.983	89.827	0.158	-0.175
-313.968	177.026	-0.095	-0.139
-312.953	-152.234	-0.332	-0.024
-311.939	800.000	-0.037	-0.136
-310.924	19.382	-0.272	0.217
-309.910	-200.000	-0.035	0.292
-308.895	70.019	0.148	0.152
-307.880	650.543	0.056	0.143
-306.866	-87.655	0.229	-0.069
-305.851	-134.924	0.086	-0.010
-304.837	-200.000	0.006	0.212
-303.822	-109.786	0.273	-0.057
-302.807	-30.475	-0.137	-0.077
-301.793	-91.888	-0.060	-0.017
-300.778	-135.142	-0.279	-0.033
-299.764	-138.210	0.143	-0.016
-298.749	800.000	-0.092	-0.265
-297.735	-2.685	-0.183	0.127
-296.720	-98.618	0.423	-0.108
-295.705	-70.234	-0.155	0.059
-294.691	-86.961	0.180	-0.055
-293.676	-200.000	0.011	-0.159
-292.662	-200.000	-0.019	-0.147
-291.647	210.733	0.334	-0.523
-290.632	-200.000	-0.014	-0.347
-289.618	-200.000	-0.011	-0.126
-288.603	5.773	-0.115	-0.084
-287.589	800.000	0.043	0.150
-286.574	-175.449	0.184	0.005
-285.559	-5.410	-0.156	0.107
-284.545	18.331	-0.060	0.048
-283.530	-127.377	-0.124	-0.018
-282.516	-28.930	0.226	-0.129
-281.501	-18.949	0.131	0.081
-280.486	561.503	-0.062	0.150
-279.472	-200.000	0.082	-0.365
-278.457	800.000	0.073	-0.282
-277.443	-67.091	0.206	-0.081
-276.428	118.206	-0.084	-0.104
-275.413	800.000	-0.050	-0.215
-274.399	143.122	0.137	0.181
-273.384	83.278	-0.145	0.157
-272.370	183.021	-0.065	0.095
-271.355	14.925	-0.168	-0.131
-270.340	800.000	0.096	-0.312
-269.326	45.278	-0.175	0.161
-268.311	-200.000	0.006	0.070
-267.297	-55.642	0.099	0.044
-266.282	-200.000	-0.020	-0.184
-265.267	356.287	-0.111	-0.220
-264.253	-108.656	-0.176	0.038
-263.238	-145.660	-0.149	-0.013
-262.224	-48.313	0.167	0.080
-261.209	-7.625	0.073	-0.049
-260.195	-64.266	-0.046	-0.018
-259.180	800.000	-0.100	-0.384
-258.165	349.354	0.184	0.362
-257.151	-200.000	0.030	0.218
-256.136	43.228	0.061	-0.055
-255.122	-37.216	-0.237	0.126
-254.107	-3.263	-0.264	-0.183
-253.092	-200.000	0.046	-0.291
-252.078	-200.000	0.017	0.075
-251.063	719.387	-0.049	-0.130
-250.049	800.000	-0.068	0.190
-249.034	800.000	0.029	0.087
-248.019	-131.660	-0.036	0.005
-247.005	800.000	0.043	-0.130
-245.990	-200.000	0.028	0.519
-244.976	285.048	0.115	-0.206
-243.961	-16.997	0.084	0.053
-242.946	70.738	0.139	-0.143
-241.932	-61.734	-0.161	0.067
-240.917	279.163	0.103	-0.183
-239.903	-96.665	0.221	0.058
-238.888	-11.512	0.286	-0.187
-237.873	-200.000	0.058	0.305
-236.859	-63.697	0.072	-0.029
-235.844	96.206	-0.113	0.128
-234.830	-29.784	0.139	0.079
-233.815	-36.098	-0.040	-0.021
-232.800	-88.953	-0.236	0.069
-231.786	800.000	0.071	-0.209
-230.771	139.256	0.176	-0.231
-229.757	-41.579	-0.029	0.015
-228.742	302.821	-0.008	-0.014
-227.727	-143.420	0.110	-0.010
-226.713	-73.832	-0.220	-0.079
-225.698	91.967	0.084	-0.094
-224.684	18.397	0.205	0.163
-223.669	-200.000	0.024	0.208
-222.655	75.866	0.222	-0.233
-221.640	307.254	0.084	-0.156
-220.625	-97.384	-0.379	0.098
-219.611	221.924	-0.134	-0.214
-218.596	-200.000	0.007	0.076
-217.582	-60.346	0.234	-0.099
-216.567	-200.000	0.023	-0.102
-215.552	68.803	-0.126	0.129
-214.538	-109.035	0.306	0.065
-213.523	-75.082	0.352	-0.125
-212.509	54.489	0.210	0.201
-211.494	249.412	0.070	0.118
-210.479	-200.000	0.002	0.053
-209.465	-4.166	0.157	0.108
-208.450	227.242	-0.135	0.218
-207.436	-57.592	-0.343	0.150
-206.421	-155.785	0.142	-0.009
-205.406	35.139	0.270	-0.235
-204.392	-127.864	-0.068	0.010
-203.377	452.749	-0.085	0.186
-202.363	261.773	0.170	-0.292
-201.348	-5.215	0.215	0.147
-200.333	-200.000	-0.023	-0.102
-199.319	-158.476	-0.102	-0.006
-198.304	-64.680	0.316	-0.127
-197.290	379.969	0.027	-0.056
-196.275	9.192	-0.120	-0.090
-195.260	88.976	0.246	0.272
-194.246	27.533	-0.260	-0.217
-193.231	-64.547	0.092	0.037
-192.217	223.819	0.036	-0.057
-191.202	34.106	0.268	0.232
-190.187	-29.232	-0.120	-0.068
-189.173	556.404	-0.172	-0.411
-188.158	23.337	0.080	0.065
-187.144	49.496	-0.088	0.082
-186.129	-148.424	0.076	-0.006
-185.114	148.284	0.106	-0.141
-184.100	-200.000	-0.016	0.134
-183.085	-69.947	-0.232	-0.088
-182.071	282.615	0.109	0.195
-181.056	800.000	0.101	-0.279
-180.042	109.506	-0.280	0.333
-179.027	221.339	0.081	0.130
-178.012	-165.437	-0.491	-0.021
-176.998	134.204	-0.088	0.113
-175.983	133.143	-0.074	-0.095
-174.969	-200.000	0.011	-0.404
-173.954	167.758	-0.143	-0.202
-172.939	-71.587	-0.274	0.102
-171.925	-200.000	0.000	-0.160
-170.910	93.495	0.105	-0.118
-169.896	395.314	-0.080	-0.166
-168.881	-77.961	0.081	0.028
-167.866	-200.000	0.028	-0.208
-166.852	60.198	0.146	0.143
-165.837	-161.301	-0.307	0.016
-164.823	106.780	0.165	-0.194
-163.808	32.391	-0.085	-0.073
-162.793	-28.557	0.271	0.155
-161.779	-56.088	0.329	0.145
-160.764	-32.084	0.167	0.093
-159.750	-200.000	-0.045	-0.209
-158.735	616.332	-0.107	-0.265
-157.720	-58.158	-0.268	-0.116
-156.706	-160.413	0.138	-0.007
-155.691	273.013	0.199	0.349
-154.677	-66.716	-0.232	0.091
-153.662	800.000	-0.022	-0.092
-152.647	-109.934	-0.243	0.050
-151.633	-79.076	0.041	0.014
-150.618	800.000	0.047	0.190
-149.604	78.151	-0.172	-0.182
-148.589	74.162	0.095	0.099
-147.574	-34.981	0.091	0.049
-146.560	39.969	0.286	0.254
-145.545	93.100	0.124	-0.139
-144.531	11.467	-0.027	-0.021
-143.516	-9.074	0.128	-0.085
-142.502	-200.000	-0.046	-0.273
-141.487	166.540	0.233	-0.328
-140.472	-200.000	0.054	0.444
-139.458	-175.689	-0.070	-0.002
-138.443	387.061	0.121	0.247
-137.429	-111.345	0.386	0.078
-136.414	130.113	0.161	-0.204
-135.399	105.433	-0.099	0.115
-134.385	-200.000	0.015	0.184
-133.370	-109.783	-0.098	-0.020
-132.356	27.840	-0.361	0.301
-131.341	505.142	-0.071	-0.163
-130.326	462.278	0.056	0.123
-129.312	800.000	0.028	0.079
-128.297	-200.000	0.448	0.000
-127.283	-88.658	0.130	0.038
-126.268	91.357	0.225	-0.251
-125.253	800.000	-0.032	-0.127
-124.239	-200.000	0.005	-0.333
-123.224	-43.654	0.256	0.128
-122.210	26.125	-0.239	0.197
