DTS Sentinel unit serial number:	SN413079Multiplexer serial number:	ORYXHardware model number:	OX4-SRSoftware version number:	ORYX F/W v4.00 Oryx Data Collector v3.7.2.0data status	okinstallation	princeton_trtdifferential loss correction	single-endedforward channel	channel 2reverse channel	N/Adate	2019/09/10time	19:13:10forward acquisition time	60.00reverse acquisition time	0.00gamma	496.2192k internal	0.2324k external	0.2324temperature offset calibration	0.9944default loss term (dB/km)	0.3790temperature slope calibration	1.0000multiplexer offset coefficient	1.0000multiplexer slope coefficient	1.0000fibre end	0.00T internal ref (°C)	34.05T ext. ref 1 (°C)	-0.31T ext. ref 2 (°C)	26.30length (m)	temperature (°C)	Stokes	anti-Stokes-747.200	414.432	0.087	0.187
-746.185	-200.000	0.080	0.358
-745.171	-50.880	0.166	-0.079
-744.156	-59.201	-0.266	0.116
-743.142	-77.150	0.290	-0.102
-742.127	-200.000	0.007	0.196
-741.112	-76.088	0.191	-0.068
-740.098	-125.802	-0.251	-0.038
-739.083	-108.259	-0.141	0.031
-738.069	800.000	-0.079	0.277
-737.054	-57.079	-0.125	-0.056
-736.039	365.219	-0.104	0.211
-735.025	5.306	-0.322	0.240
-734.010	-24.869	-0.174	0.104
-732.996	-132.780	-0.619	-0.080
-731.981	8.495	-0.107	-0.081
-730.966	-86.889	0.333	0.103
-729.952	15.610	0.081	0.064
-728.937	19.432	-0.202	0.164
-727.923	293.425	-0.050	-0.092
-726.908	-200.000	0.034	0.301
-725.894	-20.239	-0.076	0.047
-724.879	-133.106	-0.195	0.025
-723.864	192.276	-0.067	-0.101
-722.850	800.000	-0.025	0.073
-721.835	88.512	0.187	-0.209
-720.821	45.164	-0.286	0.266
-719.806	-76.832	-0.283	-0.100
-718.791	-15.342	-0.204	-0.132
-717.777	-107.061	-0.535	-0.119
-716.762	-7.093	0.065	-0.045
-715.748	-200.000	-0.012	-0.183
-714.733	-4.680	0.153	-0.106
-713.718	271.570	0.083	-0.148
-712.704	157.824	-0.151	0.211
-711.689	-200.000	-0.003	0.055
-710.675	-9.471	0.279	0.188
-709.660	41.865	-0.173	0.158
-708.645	-32.356	-0.341	-0.192
-707.631	40.359	0.091	-0.083
-706.616	262.353	0.033	0.058
-705.602	-26.325	0.126	0.075
-704.587	-144.300	0.091	0.009
-703.572	-159.368	-0.246	0.014
-702.558	-31.229	-0.147	-0.084
-701.543	206.195	0.163	-0.256
-700.529	800.000	0.094	-0.387
-699.514	-4.306	0.088	-0.061
-698.499	610.809	-0.135	-0.340
-697.485	-200.000	0.009	-0.126
-696.470	-200.000	-0.012	-0.100
-695.456	-96.252	-0.118	-0.032
-694.441	179.279	-0.052	-0.077
-693.426	-200.000	0.011	-0.157
-692.412	-200.000	0.020	-0.222
-691.397	-100.545	-0.404	0.101
-690.383	800.000	0.046	0.202
-689.368	347.735	-0.159	0.317
-688.354	-129.237	0.201	0.028
-687.339	313.402	-0.178	-0.337
-686.324	44.241	0.099	0.092
-685.310	-75.779	-0.155	-0.056
-684.295	182.340	-0.171	0.254
-683.281	87.214	-0.102	-0.114
-682.266	-200.000	0.018	0.245
-681.251	-181.852	-0.135	-0.003
-680.237	-21.919	0.391	-0.239
-679.222	74.874	-0.187	-0.198
-678.208	-125.566	-0.126	0.019
-677.193	152.445	-0.208	-0.286
-676.178	-159.856	0.177	-0.010
-675.164	-134.051	-0.267	-0.033
-674.149	65.517	-0.013	-0.013
-673.135	-200.000	-0.009	0.220
-672.120	-45.998	-0.268	-0.133
-671.105	-53.170	-0.242	-0.112
-670.091	25.490	0.066	0.055
-669.076	-200.000	0.014	-0.261
-668.062	-116.564	-0.136	-0.025
-667.047	94.860	-0.111	-0.128
-666.032	65.526	-0.108	-0.110
-665.018	-104.691	-0.074	0.017
-664.003	68.850	0.117	0.121
-662.989	-18.751	-0.330	0.207
-661.974	-6.423	-0.256	0.176
-660.959	-139.711	0.119	0.013
-659.945	-79.820	0.226	-0.077
-658.930	231.998	0.243	-0.401
-657.916	9.313	0.183	-0.139
-656.901	-67.907	-0.530	0.208
-655.886	800.000	-0.037	0.106
-654.872	-110.113	-0.429	-0.090
-653.857	44.891	-0.212	0.196
-652.843	-137.910	0.111	-0.013
-651.828	-90.027	-0.123	0.036
-650.814	123.116	0.148	0.187
-649.799	-131.050	-0.330	-0.044
-648.784	-200.000	-0.014	-0.210
-647.770	59.653	0.182	0.180
-646.755	410.083	0.081	0.172
-645.741	-59.759	0.285	0.123
-644.726	54.474	0.086	-0.084
-643.711	-81.554	-0.073	-0.024
-642.697	-26.610	0.153	-0.090
-641.682	-109.250	0.255	-0.054
-640.668	-18.815	0.192	0.120
-639.653	101.861	0.257	-0.301
-638.638	-200.000	-0.017	-0.356
-637.624	-200.000	-0.067	-0.467
-636.609	800.000	0.030	0.115
-635.595	-200.000	0.051	-0.441
-634.580	223.949	-0.110	-0.178
-633.565	-100.180	-0.283	0.071
-632.551	281.413	-0.157	-0.282
-631.536	-43.613	-0.121	0.061
-630.522	17.923	0.193	-0.155
-629.507	-10.291	0.264	-0.176
-628.492	-100.476	-0.125	0.031
-627.478	143.327	-0.186	0.248
-626.463	334.405	0.119	0.231
-625.449	-33.418	-0.159	0.088
-624.434	-81.946	-0.205	0.067
-623.419	-67.449	0.552	0.218
-622.405	-119.283	0.159	0.028
-621.390	-103.189	-0.107	0.025
-620.376	-121.199	0.158	0.026
-619.361	-53.443	0.108	-0.050
-618.346	-89.829	-0.253	-0.074
-617.332	22.954	0.318	0.262
-616.317	602.262	0.087	0.218
-615.303	-153.762	0.120	0.008
-614.288	-69.482	0.174	0.067
-613.273	469.531	0.151	0.341
-612.259	245.246	-0.003	0.005
-611.244	71.101	0.078	-0.081
-610.230	552.085	-0.041	-0.098
-609.215	49.807	-0.267	-0.253
-608.201	-200.000	-0.003	-0.061
-607.186	375.963	-0.065	-0.133
-606.171	-85.146	0.232	0.073
-605.157	800.000	-0.042	0.162
-604.142	-35.879	-0.276	0.150
-603.128	334.029	-0.111	0.216
-602.113	-200.000	-0.021	0.150
-601.098	-39.228	-0.131	0.069
-600.084	800.000	0.082	-0.349
-599.069	-200.000	0.007	-0.055
-598.055	157.904	-0.067	0.093
-597.040	235.002	-0.124	-0.205
-596.025	362.025	-0.028	-0.057
-595.011	-83.369	0.229	-0.074
-593.996	-200.000	0.011	-0.107
-592.982	124.009	-0.114	0.143
-591.967	-77.851	-0.387	-0.134
-590.952	-75.787	-0.108	-0.038
-589.938	-32.295	-0.109	-0.061
-588.923	106.065	0.125	-0.149
-587.909	-61.985	0.097	-0.041
-586.894	800.000	-0.043	0.125
-585.879	29.270	0.387	0.330
-584.865	-130.558	-0.129	0.017
-583.850	800.000	0.058	0.165
-582.836	-54.589	-0.107	-0.048
-581.821	-79.613	-0.067	-0.023
-580.806	-49.059	-0.081	0.039
-579.792	67.488	0.111	0.114
-578.777	145.593	0.111	-0.149
-577.763	-61.545	-0.066	-0.028
-576.748	98.257	0.120	0.138
-575.733	-138.818	-0.132	0.014
-574.719	-200.000	0.128	-0.594
-573.704	-136.240	0.249	0.029
-572.690	-127.715	-0.213	-0.031
-571.675	151.559	0.203	-0.277
-570.661	-200.000	-0.022	0.418
-569.646	-54.598	0.251	-0.114
-568.631	643.086	0.012	0.031
-567.617	-173.740	0.231	-0.007
-566.602	41.443	0.114	-0.104
-565.588	-4.434	-0.236	0.164
-564.573	-200.000	0.042	0.210
-563.558	-82.323	-0.067	0.022
-562.544	153.044	-0.059	-0.080
-561.529	-85.915	-0.269	0.083
-560.515	-29.284	-0.143	0.082
-559.500	246.960	0.095	0.161
-558.485	254.236	-0.054	0.092
-557.471	-114.432	-0.128	0.025
-556.456	800.000	0.082	0.319
-555.442	-86.914	0.048	0.015
-554.427	149.874	0.089	0.121
-553.412	244.628	0.066	0.111
-552.398	295.817	0.218	-0.400
-551.383	-157.219	-0.248	0.015
-550.369	-38.121	0.083	0.044
-549.354	-134.513	0.082	0.010
-548.339	559.698	0.038	0.093
-547.325	444.892	-0.082	0.180
-546.310	-157.985	-0.268	0.016
-545.296	188.639	0.191	0.286
-544.281	717.777	-0.119	-0.316
-543.266	-147.723	0.133	0.011
-542.252	-84.803	-0.235	0.074
-541.237	-175.284	0.207	-0.006
-540.223	-163.806	-0.120	-0.006
-539.208	-65.049	-0.137	0.056
-538.193	-59.603	0.154	0.066
-537.179	150.749	0.246	0.335
-536.164	-99.786	-0.110	-0.028
-535.150	-200.000	-0.036	-0.226
-534.135	800.000	0.074	0.268
-533.121	5.083	-0.150	-0.110
-532.106	104.757	-0.114	-0.135
-531.091	179.334	0.014	-0.021
-530.077	-112.335	0.250	0.050
-529.062	-95.062	-0.267	0.072
-528.048	12.707	-0.166	0.129
-527.033	-200.000	-0.024	0.159
-526.018	-91.834	-0.181	0.051
-525.004	-71.420	-0.189	-0.071
-523.989	340.785	-0.015	-0.030
-522.975	52.629	-0.135	-0.129
-521.960	-70.971	-0.219	-0.082
-520.945	-63.975	-0.112	0.046
-519.931	-0.053	0.169	-0.121
-518.916	-200.000	-0.049	-0.242
-517.902	-40.167	0.321	0.167
-516.887	800.000	0.081	-0.224
-515.872	761.097	-0.119	-0.322
-514.858	-200.000	-0.073	-0.322
-513.843	-79.960	0.095	0.032
-512.829	-186.826	0.250	0.003
-511.814	-30.676	0.230	0.130
-510.799	-200.000	-0.023	0.244
-509.785	-95.795	-0.126	0.034
-508.770	8.952	0.392	0.296
-507.756	-17.864	0.325	-0.204
-506.741	-146.633	-0.249	0.022
-505.726	-43.876	0.445	0.224
-504.712	-20.064	0.108	0.066
-503.697	44.020	-0.127	0.117
-502.683	214.612	-0.100	-0.158
-501.668	116.429	0.252	0.309
-500.653	279.276	0.110	-0.196
-499.639	107.187	0.128	0.152
-498.624	229.918	-0.124	0.203
-497.610	800.000	0.120	0.351
-496.595	-40.371	0.070	0.036
-495.581	-200.000	0.036	0.241
-494.566	122.945	0.134	0.168
-493.551	-29.966	-0.368	-0.210
-492.537	-44.055	0.544	-0.273
-491.522	44.132	-0.216	-0.198
-490.508	-150.840	-0.162	0.012
-489.493	381.699	0.044	0.091
-488.478	-81.637	0.355	0.116
-487.464	62.028	-0.218	-0.217
-486.449	-113.370	-0.553	0.108
-485.435	37.675	-0.257	0.228
-484.420	-113.022	0.190	-0.038
-483.405	-83.861	0.033	0.010
-482.391	-134.332	-0.235	0.029
-481.376	-160.488	-0.150	-0.008
-480.362	-72.479	-0.391	0.144
-479.347	-66.350	-0.214	-0.085
-478.332	-40.176	-0.068	-0.035
-477.318	120.614	-0.094	-0.116
-476.303	755.341	0.061	0.164
-475.289	-200.000	-0.047	-0.254
-474.274	800.000	0.020	-0.065
-473.259	30.625	0.372	-0.318
-472.245	191.266	0.160	0.240
-471.230	-200.000	0.022	0.095
-470.216	50.107	-0.101	-0.095
-469.201	-85.235	-0.218	0.068
-468.186	-116.081	-0.378	-0.070
-467.172	-200.000	-0.015	-0.203
-466.157	-200.000	-0.011	-0.104
-465.143	-122.394	-0.247	0.040
-464.128	-200.000	0.002	0.036
-463.113	800.000	-0.091	0.317
-462.099	414.718	0.037	0.078
-461.084	-200.000	0.024	-0.197
-460.070	-200.000	-0.031	0.150
-459.055	-22.472	-0.345	-0.208
-458.040	29.753	0.169	-0.144
-457.026	387.864	-0.115	0.237
-456.011	-37.877	-0.233	-0.124
-454.997	-200.000	-0.015	-0.083
-453.982	164.321	-0.114	0.160
-452.968	138.445	0.098	0.128
-451.953	17.341	-0.190	0.150
-450.938	-200.000	0.012	-0.186
-449.924	-200.000	0.035	-0.531
-448.909	247.669	-0.081	-0.136
-447.895	-68.619	-0.259	-0.100
-446.880	-152.787	-0.191	-0.014
-445.865	281.059	0.238	0.425
-444.851	195.093	-0.074	-0.112
-443.836	-200.000	0.045	-0.371
-442.822	88.778	0.206	-0.229
-441.807	183.396	0.094	0.138
-440.792	48.724	-0.153	0.143
-439.778	-41.488	-0.161	0.082
-438.763	-140.480	-0.253	-0.026
-437.749	-117.364	-0.078	0.014
-436.734	-23.014	-0.323	-0.194
-435.719	-200.000	0.000	-0.106
-434.705	169.709	-0.089	0.126
-433.690	233.305	0.177	0.291
-432.676	116.364	-0.188	0.230
-431.661	-19.216	0.051	-0.031
-430.646	90.360	-0.136	0.152
-429.632	-104.086	0.173	0.040
-428.617	457.405	-0.023	-0.051
-427.603	-84.662	0.236	0.074
-426.588	367.746	-0.084	0.169
-425.573	800.000	-0.040	-0.128
-424.559	170.539	-0.140	-0.200
-423.544	-58.462	0.441	0.191
-422.530	-200.000	-0.039	-0.304
-421.515	251.022	0.040	-0.067
-420.500	-54.990	-0.113	-0.051
-419.486	-23.648	-0.400	-0.239
-418.471	-146.800	0.322	0.028
-417.457	158.934	0.178	0.246
-416.442	31.631	-0.135	0.115
-415.428	-119.872	0.418	-0.072
-414.413	-31.767	-0.116	0.065
-413.398	800.000	-0.030	0.113
-412.384	114.036	0.126	0.153
-411.369	204.252	-0.203	0.314
-410.355	69.478	-0.157	0.161
-409.340	465.363	-0.071	0.158
-408.325	25.758	0.132	-0.110
-407.311	-34.780	0.239	-0.130
-406.296	524.524	-0.085	-0.200
-405.282	-200.000	0.005	0.084
-404.267	800.000	0.049	0.147
-403.252	-106.505	-0.016	0.004
-402.238	324.001	0.116	-0.220
-401.223	-82.679	-0.108	0.035
-400.209	102.276	-0.242	-0.282
-399.194	-108.757	-0.232	-0.049
-398.179	31.455	-0.234	-0.200
-397.165	800.000	0.094	0.369
-396.150	-200.000	-0.021	0.238
-395.136	800.000	-0.094	-0.305
-394.121	800.000	-0.041	-0.124
-393.106	-101.941	-0.049	-0.012
-392.092	-200.000	-0.007	0.217
-391.077	-24.183	0.158	-0.094
-390.063	-200.000	-0.296	0.000
-389.048	-200.000	-0.023	-0.156
-388.033	-83.309	-0.194	-0.062
-387.019	-145.191	0.280	-0.025
-386.004	70.728	-0.228	-0.235
-384.990	0.989	-0.183	-0.131
-383.975	-188.342	0.250	-0.003
-382.960	72.213	-0.012	-0.013
-381.946	-105.742	-0.059	-0.013
-380.931	-111.242	0.112	0.023
-379.917	639.558	0.125	-0.316
-378.902	271.405	0.065	0.113
-377.888	-78.279	0.166	0.057
-376.873	-34.579	0.231	0.126
-375.858	107.575	-0.036	-0.043
-374.844	-65.400	0.078	-0.031
-373.829	-101.293	0.267	0.065
-372.815	-200.000	-0.024	0.144
-371.800	-76.937	-0.160	0.056
-370.785	-200.000	0.018	-0.236
-369.771	-200.000	0.000	0.225
-368.756	-163.301	0.226	-0.011
-367.742	-200.000	-0.043	0.310
-366.727	-58.759	0.347	0.149
-365.712	91.550	-0.086	0.096
-364.698	-68.446	-0.427	-0.165
-363.683	121.764	0.109	0.136
-362.669	269.755	-0.062	0.109
-361.654	276.021	0.111	-0.195
-360.639	-62.453	-0.415	0.172
-359.625	-91.368	0.133	-0.038
-358.610	-105.333	-0.415	-0.094
-357.596	58.801	-0.171	-0.167
-356.581	-185.024	0.109	-0.002
-355.566	254.861	0.104	-0.177
-354.552	-34.340	0.496	0.270
-353.537	-59.343	0.384	0.164
-352.523	-200.000	-0.024	0.203
-351.508	57.559	0.190	0.185
-350.493	4.627	-0.212	-0.155
-349.479	-25.489	-0.175	-0.103
-348.464	6.041	-0.340	-0.250
-347.450	-75.445	0.227	-0.080
-346.435	296.644	0.085	0.155
-345.420	-200.000	0.023	-0.195
-344.406	10.437	0.125	-0.095
-343.391	-200.000	-0.040	0.228
-342.377	-117.907	-0.215	0.038
-341.362	418.385	-0.066	-0.140
-340.348	-27.921	0.205	-0.118
-339.333	-72.965	-0.250	0.091
-338.318	-200.000	-0.050	-0.248
-337.304	11.149	0.107	-0.081
-336.289	800.000	0.157	-0.440
-335.275	256.669	0.078	-0.133
-334.260	-100.410	0.190	-0.047
-333.245	-98.547	0.087	-0.022
-332.231	94.259	-0.155	0.174
-331.216	-165.145	0.290	-0.013
-330.202	237.045	-0.175	-0.288
-329.187	-200.000	0.094	0.479
-328.172	14.794	-0.270	-0.210
-327.158	-43.905	-0.035	-0.017
-326.143	-70.940	-0.050	-0.019
-325.129	-200.000	-0.021	-0.162
-324.114	22.114	-0.204	0.165
-323.099	-130.034	0.127	0.017
-322.085	-200.000	0.013	-0.166
-321.070	12.375	0.190	-0.145
-320.056	800.000	-0.038	-0.148
-319.041	800.000	0.157	-0.453
-318.026	-200.000	0.057	0.257
-317.012	-106.532	0.225	-0.050
-315.997	-162.385	0.209	0.010
-314.983	800.000	0.097	0.280
-313.968	-200.000	0.018	0.114
-312.953	258.654	-0.027	-0.046
-311.939	-150.669	0.295	0.022
-310.924	800.000	-0.062	0.232
-309.910	-60.906	-0.101	-0.042
-308.895	800.000	-0.047	0.139
-307.880	-97.540	-0.205	0.053
-306.866	-26.696	-0.130	0.075
-305.851	42.781	-0.147	0.133
-304.837	88.164	0.178	-0.196
-303.822	385.909	0.228	-0.467
-302.807	152.574	-0.024	0.033
-301.793	-200.000	-0.032	0.282
-300.778	74.865	0.190	0.199
-299.764	490.998	-0.041	-0.093
-298.749	257.766	0.188	-0.321
-297.735	15.431	0.110	-0.086
-296.720	581.309	0.103	-0.250
-295.705	-103.921	0.134	-0.031
-294.691	-52.603	-0.292	-0.134
-293.676	3.308	-0.112	-0.081
-292.662	250.506	-0.250	0.422
-291.647	-137.231	-0.298	0.034
-290.632	-200.000	0.015	0.154
-289.618	800.000	0.015	0.055
-288.603	158.540	-0.049	-0.067
-287.589	-126.632	-0.318	0.047
-286.574	800.000	-0.038	-0.155
-285.559	-9.588	0.263	0.174
-284.545	518.278	0.095	0.221
-283.530	-200.000	-0.030	0.207
-282.516	-185.073	0.199	0.003
-281.501	-124.189	-0.237	0.037
-280.486	-84.551	-0.141	0.044
-279.472	-45.970	0.051	-0.025
-278.457	-25.518	0.439	-0.257
-277.443	636.031	-0.071	-0.179
-276.428	0.010	0.193	-0.137
-275.413	526.096	-0.087	0.203
-274.399	800.000	-0.046	0.159
-273.384	-200.000	0.387	-0.000
-272.370	345.285	0.014	0.028
-271.355	800.000	0.012	-0.041
-270.340	-167.236	0.178	-0.007
-269.326	-10.205	-0.136	-0.090
-268.311	-53.547	0.409	0.185
-267.297	-71.319	-0.139	-0.052
-266.282	62.378	0.075	-0.074
-265.267	32.523	0.150	0.128
-264.253	-200.000	-0.019	-0.296
-263.238	-28.162	0.213	0.122
-262.224	28.610	-0.077	-0.065
-261.209	-146.946	-0.287	0.024
-260.195	36.039	-0.093	0.081
-259.180	-200.000	-0.048	0.353
-258.165	-37.010	0.247	0.131
-257.151	-200.000	0.054	0.309
-256.136	161.811	0.085	-0.118
-255.122	-73.294	0.127	-0.046
-254.107	-41.512	0.179	-0.091
-253.092	-14.089	0.193	-0.123
-252.078	130.688	-0.175	-0.222
-251.063	373.013	-0.086	-0.174
-250.049	504.872	0.040	0.093
-249.034	125.194	-0.140	-0.174
-248.019	-112.610	-0.105	-0.021
-247.005	-148.877	0.179	0.014
-245.990	22.966	-0.074	0.060
-244.976	327.636	0.083	-0.158
-243.961	-63.028	-0.156	-0.064
-242.946	800.000	0.069	-0.192
-241.932	-200.000	-0.006	0.126
-240.917	18.946	-0.046	-0.036
-239.903	-52.464	-0.119	0.054
-238.888	-76.482	-0.017	-0.006
-237.873	102.847	-0.168	0.194
-236.859	-200.000	0.003	0.017
-235.844	-138.679	-0.222	-0.024
-234.830	426.262	-0.026	-0.056
-233.815	-61.755	0.312	-0.129
-232.800	443.483	-0.083	-0.180
-231.786	-200.000	0.030	0.246
-230.771	185.887	-0.087	-0.128
-229.757	-37.311	0.097	-0.051
-228.742	-101.116	0.323	0.078
-227.727	-110.077	-0.382	0.079
-226.713	-83.376	0.166	-0.053
-225.698	-71.984	-0.143	-0.053
-224.684	-200.000	-0.001	0.145
-223.669	239.291	-0.207	-0.341
-222.655	88.925	0.172	-0.189
-221.640	-130.716	0.272	-0.036
-220.625	157.015	0.040	-0.054
-219.611	-39.975	0.173	0.089
-218.596	117.903	-0.097	-0.118
-217.582	800.000	-0.027	-0.096
-216.567	15.977	-0.246	0.192
-215.552	-139.038	-0.151	0.016
-214.538	-118.888	0.124	-0.022
-213.523	497.685	0.163	0.370
-212.509	-163.378	-0.118	-0.006
-211.494	-200.000	0.021	-0.210
-210.479	-104.655	0.104	0.024
-209.465	117.992	0.097	0.118
-208.450	-200.000	0.034	-0.169
-207.436	334.956	0.125	0.239
-206.421	83.729	0.026	-0.028
-205.406	800.000	0.051	-0.206
-204.392	-200.000	0.003	-0.035
-203.377	-67.760	-0.504	-0.195
-202.363	-200.000	-0.024	-0.177
-201.348	51.176	-0.194	0.182
-200.333	-141.602	-0.144	-0.014
-199.319	-98.317	-0.239	-0.061
-198.304	-200.000	-0.019	0.221
-197.290	-74.201	-0.302	0.108
-196.275	332.997	-0.033	-0.064
-195.260	633.176	0.046	-0.116
-194.246	-132.986	-0.139	-0.017
-193.231	-28.925	-0.257	0.146
-192.217	-200.000	-0.031	-0.252
-191.202	-200.000	-0.013	-0.087
-190.187	-62.571	-0.225	0.092
-189.173	-175.430	0.241	0.007
-188.158	508.978	-0.143	0.329
-187.144	-200.000	-0.033	0.266
-186.129	223.609	0.225	-0.359
-185.114	179.337	-0.130	0.187
-184.100	800.000	-0.080	-0.317
-183.085	57.552	-0.129	-0.124
-182.071	249.930	-0.156	0.261
-181.056	105.376	0.050	0.059
-180.042	262.849	0.086	0.147
-179.027	-59.022	0.376	0.160
-178.012	-155.372	-0.260	-0.017
-176.998	-7.156	0.341	-0.228
-175.983	-200.000	-0.019	-0.298
-174.969	-7.907	0.145	0.096
-173.954	106.789	0.181	0.212
-172.939	-84.530	-0.041	-0.013
-171.925	-200.000	-0.007	-0.157
-170.910	800.000	-0.071	0.254
-169.896	-181.924	0.060	0.001
-168.881	-200.000	-0.023	-0.204
-167.866	354.763	-0.139	-0.272
-166.852	15.513	0.029	-0.023
-165.837	617.059	-0.038	0.095
-164.823	-137.160	-0.289	0.032
-163.808	114.797	0.206	-0.248
-162.793	-181.697	0.350	0.007
-161.779	-200.000	-0.052	0.272
-160.764	-156.589	0.172	-0.011
-159.750	17.769	0.068	-0.054
-158.735	240.432	-0.132	-0.218
-157.720	184.665	0.192	0.281
-156.706	-90.411	-0.077	0.022
-155.691	-92.871	-0.277	-0.076
-154.677	90.033	0.399	0.440
-153.662	227.698	-0.081	0.130
-152.647	13.980	0.078	0.060
-151.633	-200.000	0.057	0.309
-150.618	-25.545	0.166	0.097
-149.604	800.000	-0.021	0.057
-148.589	-200.000	-0.001	-0.035
-147.574	-97.528	-0.366	0.094
-146.560	800.000	0.112	0.323
-145.545	180.036	0.088	-0.127
-144.531	-36.957	-0.208	0.110
-143.516	263.467	0.067	0.115
-142.502	-200.000	0.000	0.456
-141.487	-40.524	0.241	-0.123
-140.472	-149.213	-0.126	0.010
-139.458	-139.978	-0.301	-0.031
-138.443	118.265	0.090	0.110
-137.429	353.727	0.030	-0.059
-136.414	-167.532	-0.343	-0.014
-135.399	800.000	0.042	-0.124
-134.385	-32.347	0.045	0.025
-133.370	-59.110	0.067	0.028
-132.356	4.934	-0.154	-0.112
-131.341	-180.841	0.108	0.002
-130.326	112.600	0.089	0.106
-129.312	-138.530	0.321	0.035
-128.297	-127.490	0.268	0.038
-127.283	-200.000	-0.046	-0.322
-126.268	393.074	0.127	-0.261
-125.253	-200.000	0.002	-0.226
-124.239	800.000	0.059	0.170
-123.224	-200.000	-0.003	0.099
-122.210	-200.000	0.031	-0.206
