DTS Sentinel unit serial number:	SN413079Multiplexer serial number:	ORYXHardware model number:	OX4-SRSoftware version number:	ORYX F/W v4.00 Oryx Data Collector v3.7.2.0data status	okinstallation	princeton_trtdifferential loss correction	single-endedforward channel	channel 2reverse channel	N/Adate	2019/09/12time	20:43:34forward acquisition time	60.00reverse acquisition time	0.00gamma	496.2192k internal	0.2327k external	0.2327temperature offset calibration	1.0167default loss term (dB/km)	0.3790temperature slope calibration	1.0000multiplexer offset coefficient	1.0000multiplexer slope coefficient	1.0000fibre end	0.00T internal ref (°C)	31.06T ext. ref 1 (°C)	3.57T ext. ref 2 (°C)	25.62length (m)	temperature (°C)	Stokes	anti-Stokes-747.200	18.204	0.239	-0.192
-746.185	735.086	-0.058	-0.156
-745.171	21.904	0.081	0.067
-744.156	37.394	0.243	0.217
-743.142	800.000	-0.042	0.130
-742.127	800.000	-0.115	0.389
-741.112	-35.984	-0.269	0.147
-740.098	-200.000	0.031	0.415
-739.083	-123.941	-0.243	0.039
-738.069	-200.000	0.000	0.303
-737.054	169.553	-0.217	-0.313
-736.039	-191.076	-0.449	-0.005
-735.025	-53.782	0.322	0.148
-734.010	800.000	-0.063	0.192
-732.996	-59.943	-0.390	0.168
-731.981	76.552	0.146	0.156
-730.966	654.752	0.061	0.157
-729.952	-0.163	-0.122	-0.088
-728.937	-76.521	-0.195	-0.069
-727.923	-101.244	-0.558	0.138
-726.908	102.081	0.146	-0.172
-725.894	-8.544	0.175	-0.119
-724.879	800.000	-0.051	0.205
-723.864	123.669	-0.092	-0.116
-722.850	247.850	0.055	0.094
-721.835	305.661	-0.038	-0.071
-720.821	-50.514	0.249	0.118
-719.806	-19.719	-0.057	-0.035
-718.791	18.098	-0.020	0.016
-717.777	429.165	-0.119	0.259
-716.762	-45.429	0.215	-0.108
-715.748	524.237	-0.054	-0.127
-714.733	-86.860	-0.229	-0.070
-713.718	-13.092	-0.447	-0.293
-712.704	800.000	0.059	-0.195
-711.689	-165.315	-0.366	0.016
-710.675	-200.000	0.057	0.281
-709.660	65.244	-0.152	-0.154
-708.645	-85.015	0.096	0.030
-707.631	366.177	0.115	0.234
-706.616	-111.870	0.173	0.035
-705.602	-111.408	0.412	-0.085
-704.587	439.926	0.077	0.169
-703.572	-111.747	-0.499	-0.102
-702.558	-150.311	0.090	-0.007
-701.543	9.741	0.094	-0.072
-700.529	165.181	0.193	0.274
-699.514	-142.089	0.169	0.017
-698.499	-141.752	-0.091	0.009
-697.485	-138.695	-0.490	-0.054
-696.470	49.619	-0.336	-0.319
-695.456	-200.000	-0.065	-0.354
-694.441	-200.000	0.008	0.113
-693.426	-98.518	0.224	-0.058
-692.412	-79.791	-0.528	0.179
-691.397	-109.857	-0.137	0.029
-690.383	-11.644	0.106	-0.070
-689.368	-33.490	-0.086	-0.048
-688.354	-54.599	0.471	0.214
-687.339	-57.410	-0.346	-0.153
-686.324	116.319	-0.207	-0.255
-685.310	-184.949	-0.165	-0.003
-684.295	-200.000	0.049	-0.221
-683.281	696.930	0.131	0.346
-682.266	-49.020	-0.205	-0.099
-681.251	-52.393	0.288	-0.134
-680.237	-44.237	-0.122	-0.061
-679.222	800.000	0.027	-0.076
-678.208	-109.653	-0.213	-0.045
-677.193	113.760	0.195	-0.239
-676.178	-122.087	0.305	-0.050
-675.164	34.358	-0.052	0.045
-674.149	-52.653	-0.254	-0.118
-673.135	0.379	0.101	-0.073
-672.120	3.311	-0.309	-0.226
-671.105	-20.712	0.368	-0.227
-670.091	-2.695	-0.225	-0.158
-669.076	224.085	-0.152	-0.247
-668.062	408.855	0.120	0.256
-667.047	38.302	-0.138	-0.124
-666.032	-46.706	-0.307	-0.151
-665.018	-89.427	0.321	-0.095
-664.003	-200.000	0.026	-0.252
-662.989	-83.372	0.260	0.084
-661.974	800.000	-0.096	-0.353
-660.959	-115.742	-0.211	0.040
-659.945	-67.551	-0.276	0.109
-658.930	800.000	0.075	-0.265
-657.916	-200.000	0.015	-0.287
-656.901	800.000	0.050	0.160
-655.886	-200.000	-0.017	-0.200
-654.872	-34.718	0.175	0.096
-653.857	469.999	-0.065	0.146
-652.843	-18.554	-0.202	0.127
-651.828	-61.030	-0.034	0.015
-650.814	-146.015	-0.148	-0.013
-649.799	-163.988	-0.153	-0.007
-648.784	-113.871	-0.393	-0.077
-647.770	-38.189	0.205	-0.109
-646.755	716.645	-0.132	0.352
-645.741	-156.941	-0.247	0.015
-644.726	218.716	0.112	-0.179
-643.711	800.000	-0.026	-0.096
-642.697	-200.000	-0.018	0.125
-641.682	-101.656	-0.276	0.067
-640.668	-152.960	-0.026	0.002
-639.653	-84.067	-0.284	-0.091
-638.638	-58.337	-0.052	0.023
-637.624	-149.743	-0.116	0.009
-636.609	682.636	0.095	-0.250
-635.595	-91.643	-0.250	-0.072
-634.580	-146.750	0.398	-0.035
-633.565	800.000	0.087	0.269
-632.551	-138.861	0.153	-0.017
-631.536	22.080	-0.104	0.085
-630.522	800.000	0.085	-0.346
-629.507	800.000	0.053	-0.198
-628.492	-180.477	-0.304	-0.006
-627.478	96.211	0.197	-0.226
-626.463	486.455	-0.015	0.034
-625.449	27.250	0.040	-0.034
-624.434	-200.000	0.053	-0.361
-623.419	-32.853	0.225	0.125
-622.405	800.000	-0.048	-0.198
-621.390	-69.475	-0.274	0.105
-620.376	-107.121	-0.221	-0.049
-619.361	282.894	0.059	-0.107
-618.346	-200.000	0.044	-0.372
-617.332	-200.000	0.019	-0.180
-616.317	800.000	-0.043	-0.132
-615.303	267.874	-0.158	0.277
-614.288	49.531	-0.314	-0.296
-613.273	-200.000	0.040	-0.299
-612.259	-83.148	0.250	-0.081
-611.244	298.735	-0.103	-0.189
-610.230	-43.073	-0.075	0.038
-609.215	530.999	0.032	0.076
-608.201	-200.000	-0.002	0.230
-607.186	-27.912	-0.083	-0.048
-606.171	-200.000	0.001	-0.052
-605.157	88.480	0.173	-0.192
-604.142	101.964	0.147	-0.172
-603.128	-73.550	-0.254	-0.093
-602.113	-81.211	0.181	-0.060
-601.098	119.667	-0.083	-0.103
-600.084	800.000	0.047	0.149
-599.069	100.474	0.185	-0.216
-598.055	-73.500	0.052	-0.019
-597.040	-138.069	-0.220	0.025
-596.025	800.000	-0.077	-0.223
-595.011	-200.000	0.010	-0.091
-593.996	499.410	0.193	0.446
-592.982	-59.785	0.065	-0.028
-591.967	0.894	-0.267	0.192
-590.952	800.000	0.096	0.369
-589.938	292.594	-0.191	-0.348
-588.923	37.600	0.285	0.254
-587.909	-33.189	-0.145	-0.081
-586.894	60.059	-0.137	0.136
-585.879	574.201	0.060	0.147
-584.865	213.053	0.348	-0.550
-583.850	429.343	-0.141	-0.306
-582.836	-34.445	-0.300	-0.165
-581.821	55.770	-0.153	0.149
-580.806	-200.000	-0.064	0.415
-579.792	-171.739	0.296	-0.010
-578.777	82.616	-0.078	0.084
-577.763	414.355	0.022	0.046
-576.748	-200.000	0.015	-0.348
-575.733	190.008	-0.195	-0.293
-574.719	-133.075	0.194	-0.025
-573.704	225.518	0.053	0.086
-572.690	-200.000	-0.289	-0.001
-571.675	800.000	-0.049	-0.165
-570.661	253.633	0.146	0.250
-569.646	-200.000	-0.025	0.200
-568.631	-106.765	-0.126	0.028
-567.617	-111.438	-0.389	-0.079
-566.602	195.205	-0.142	-0.216
-565.588	-177.153	-0.259	-0.006
-564.573	-35.055	-0.111	0.061
-563.558	-108.379	0.297	-0.064
-562.544	-200.000	-0.039	-0.262
-561.529	472.703	-0.069	-0.155
-560.515	24.399	-0.238	0.197
-559.500	-149.193	-0.156	0.013
-558.485	103.677	0.194	0.228
-557.471	-57.658	0.275	0.121
-556.456	50.843	-0.180	0.171
-555.442	209.478	0.118	0.185
-554.427	75.500	0.063	-0.066
-553.412	-96.710	0.035	-0.009
-552.398	1.404	-0.422	-0.303
-551.383	118.195	0.198	-0.245
-550.369	-126.857	-0.072	-0.011
-549.354	202.171	0.251	0.388
-548.339	54.057	-0.197	-0.190
-547.325	-200.000	0.030	-0.392
-546.310	136.164	0.143	0.186
-545.296	-200.000	-0.086	0.462
-544.281	-139.325	-0.287	-0.031
-543.266	-66.806	0.218	0.086
-542.252	-57.791	-0.270	-0.118
-541.237	-119.422	0.119	0.021
-540.223	-178.063	0.077	-0.002
-539.208	58.442	-0.142	0.139
-538.193	91.309	0.300	-0.337
-537.179	4.259	-0.318	0.233
-536.164	-94.401	0.436	-0.119
-535.150	36.900	-0.152	-0.134
-534.135	-200.000	-0.025	-0.234
-533.121	320.207	-0.083	-0.157
-532.106	-122.286	-0.169	0.028
-531.091	-103.277	0.088	-0.021
-530.077	-31.532	-0.195	0.110
-529.062	601.427	-0.108	-0.269
-528.048	-101.091	0.162	-0.040
-527.033	-163.055	0.234	0.011
-526.018	48.249	0.110	0.103
-525.004	100.361	0.125	-0.145
-523.989	-200.000	0.009	-0.054
-522.975	626.849	0.146	-0.369
-521.960	28.632	-0.138	0.116
-520.945	124.066	0.069	0.087
-519.931	-96.524	0.421	-0.111
-518.916	-200.000	0.012	0.116
-517.902	800.000	-0.050	-0.145
-516.887	464.358	-0.082	0.184
-515.872	-200.000	0.019	-0.170
-514.858	278.476	0.073	0.130
-513.843	-200.000	0.017	0.093
-512.829	-57.610	-0.144	0.063
-511.814	-30.816	0.305	0.172
-510.799	-83.943	-0.433	0.138
-509.785	48.530	-0.084	-0.079
-508.770	-111.010	-0.196	-0.040
-507.756	150.889	0.277	0.376
-506.741	-200.000	0.052	-0.378
-505.726	-200.000	-0.024	0.117
-504.712	247.166	0.088	0.149
-503.697	166.579	0.059	0.084
-502.683	7.374	-0.207	-0.155
-501.668	37.176	0.271	0.239
-500.653	774.697	-0.083	0.225
-499.639	146.565	0.131	-0.176
-498.624	-58.847	0.223	-0.096
-497.610	5.773	-0.144	-0.107
-496.595	48.869	0.107	-0.100
-495.581	-200.000	0.061	-0.677
-494.566	-43.797	0.047	0.024
-493.551	-110.597	0.273	-0.056
-492.537	800.000	-0.056	0.167
-491.522	771.880	0.051	-0.139
-490.508	-200.000	-0.304	0.001
-489.493	-38.617	-0.100	0.053
-488.478	-200.000	-0.028	0.140
-487.464	731.221	0.027	-0.073
-486.449	42.300	0.112	-0.102
-485.435	407.721	-0.095	0.200
-484.420	-200.000	-0.022	-0.149
-483.405	-200.000	-0.034	-0.193
-482.391	-200.000	-0.024	0.117
-481.376	51.938	0.251	-0.239
-480.362	-137.402	-0.272	-0.031
-479.347	-200.000	-0.048	-0.344
-478.332	22.471	0.087	0.071
-477.318	4.721	-0.223	0.164
-476.303	445.862	-0.143	0.313
-475.289	57.576	0.148	0.144
-474.274	-6.597	-0.146	0.099
-473.259	64.832	-0.513	0.517
-472.245	16.308	0.219	0.172
-471.230	-111.432	-0.065	-0.013
-470.216	34.793	-0.118	0.103
-469.201	207.010	-0.189	-0.293
-468.186	-105.042	-0.330	0.075
-467.172	90.473	-0.114	-0.128
-466.157	232.138	-0.042	-0.069
-465.143	-91.929	0.328	-0.093
-464.128	16.178	-0.207	-0.163
-463.113	-200.000	0.032	-0.300
-462.099	300.350	-0.097	-0.179
-461.084	183.322	0.190	0.280
-460.070	-65.972	-0.097	0.038
-459.055	101.367	-0.134	0.156
-458.040	-99.725	-0.238	0.060
-457.026	187.076	0.129	-0.191
-456.011	-25.539	0.232	0.136
-454.997	-174.503	-0.298	-0.009
-453.982	110.886	0.065	-0.078
-452.968	-38.972	0.045	-0.024
-451.953	677.966	-0.062	-0.160
-450.938	109.792	-0.086	-0.103
-449.924	-200.000	0.038	0.184
-448.909	419.781	0.072	0.153
-447.895	-83.440	-0.276	-0.088
-446.880	-200.000	-0.013	0.083
-445.865	-200.000	0.019	0.174
-444.851	-0.546	-0.194	0.138
-443.836	46.864	-0.194	-0.180
-442.822	-79.685	0.261	0.088
-441.807	800.000	0.042	0.131
-440.792	108.689	0.140	-0.167
-439.778	437.504	0.140	-0.303
-438.763	8.530	0.209	0.156
-437.749	472.528	0.074	0.166
-436.734	195.733	-0.162	0.246
-435.719	-177.659	-0.047	-0.001
-434.705	-200.000	-0.014	0.082
-433.690	180.495	-0.149	0.218
-432.676	256.402	0.165	-0.282
-431.661	800.000	0.082	0.251
-430.646	-72.444	0.257	0.095
-429.632	-200.000	-0.002	-0.074
-428.617	800.000	-0.115	0.329
-427.603	-134.629	-0.022	0.003
-426.588	-28.234	0.224	-0.129
-425.573	2.808	0.224	0.162
-424.559	426.245	-0.080	0.171
-423.544	-200.000	-0.008	0.055
-422.530	-105.139	-0.179	-0.041
-421.515	0.387	-0.060	0.043
-420.500	800.000	0.036	0.110
-419.486	-17.164	0.163	0.102
-418.471	432.390	0.066	-0.142
-417.457	-26.910	0.186	0.108
-416.442	-80.031	-0.107	-0.036
-415.428	253.534	0.119	-0.202
-414.413	556.939	0.146	-0.350
-413.398	800.000	-0.095	-0.274
-412.384	-200.000	-0.002	-0.303
-411.369	-200.000	-0.004	0.114
-410.355	-4.704	0.084	-0.058
-409.340	-92.834	-0.154	-0.043
-408.325	71.813	-0.132	-0.136
-407.311	195.321	0.125	0.189
-406.296	800.000	-0.041	-0.140
-405.282	800.000	-0.072	0.224
-404.267	29.598	0.157	-0.133
-403.252	-78.370	-0.225	0.077
-402.238	-133.819	-0.415	-0.051
-401.223	-32.640	0.178	-0.099
-400.209	7.874	-0.298	0.223
-399.194	-36.084	-0.193	0.104
-398.179	639.030	-0.097	-0.244
-397.165	62.623	-0.229	0.228
-396.150	-25.306	-0.034	-0.020
-395.136	-117.886	0.053	-0.009
-394.121	44.765	-0.185	0.169
-393.106	-70.249	-0.167	0.063
-392.092	-200.000	-0.062	0.297
-391.077	-68.805	-0.092	-0.035
-390.063	159.882	-0.219	0.304
-389.048	-21.556	0.118	0.072
-388.033	-163.842	0.068	-0.003
-387.019	-118.624	0.376	0.066
-386.004	-1.658	-0.348	-0.244
-384.990	170.721	0.063	-0.090
-383.975	-87.828	0.241	0.072
-382.960	-200.000	0.038	0.415
-381.946	-200.000	0.007	0.263
-380.931	537.550	0.074	0.175
-379.917	18.960	0.077	0.061
-378.902	-19.901	0.284	-0.174
-377.888	-19.798	0.066	0.041
-376.873	800.000	-0.059	0.194
-375.858	-200.000	0.064	0.295
-374.844	-200.000	0.058	-0.391
-373.829	-10.494	-0.203	-0.134
-372.815	22.775	-0.167	0.136
-371.800	-95.151	-0.178	-0.048
-370.785	72.091	0.084	0.087
-369.771	116.426	0.110	0.134
-368.756	-102.672	0.075	-0.018
-367.742	-94.953	0.411	-0.111
-366.727	151.886	-0.132	0.179
-365.712	-176.171	0.379	0.010
-364.698	800.000	-0.062	0.244
-363.683	-200.000	0.009	0.074
-362.669	-93.175	-0.315	-0.087
-361.654	-200.000	0.007	0.259
-360.639	-200.000	-0.043	0.247
-359.625	-179.994	-0.178	-0.004
-358.610	414.234	-0.093	-0.196
-357.596	-36.495	-0.329	0.176
-356.581	6.426	0.037	0.027
-355.566	-200.000	0.042	-0.202
-354.552	-20.653	-0.123	0.075
-353.537	14.731	0.102	0.079
-352.523	-132.948	0.263	0.033
-351.508	-38.461	0.280	-0.147
-350.493	355.479	0.074	-0.147
-349.479	-200.000	-0.003	0.087
-348.464	800.000	0.057	0.241
-347.450	-72.106	0.037	-0.014
-346.435	488.984	0.194	0.439
-345.420	-200.000	0.009	-0.333
-344.406	-200.000	0.010	-0.069
-343.391	0.769	0.148	-0.105
-342.377	-200.000	-0.011	-0.148
-341.362	-26.635	-0.341	-0.198
-340.348	602.365	0.114	-0.282
-339.333	-200.000	0.008	-0.042
-338.318	-200.000	-0.030	0.304
-337.304	-15.718	-0.202	-0.128
-336.289	52.372	0.333	-0.315
-335.275	-24.918	-0.235	-0.138
-334.260	-200.000	-0.032	0.263
-333.245	5.459	0.165	-0.121
-332.231	-68.636	-0.314	-0.121
-331.216	-34.422	0.217	-0.118
-330.202	-50.806	0.078	0.037
-329.187	-125.618	0.251	0.038
-328.172	-37.674	0.075	0.040
-327.158	57.583	0.189	0.183
-326.143	-72.226	-0.253	0.093
-325.129	-7.816	-0.031	0.021
-324.114	-113.558	0.289	-0.056
-323.099	-63.423	-0.333	-0.136
-322.085	-26.261	0.246	-0.143
-321.070	25.018	0.205	0.169
-320.056	800.000	0.098	0.281
-319.041	-200.000	-0.017	0.320
-318.026	800.000	0.048	-0.203
-317.012	-158.330	-0.276	-0.016
-315.997	-17.154	-0.212	0.133
-314.983	201.536	0.192	0.293
-313.968	-86.424	-0.435	-0.132
-312.953	116.732	0.140	-0.171
-311.939	31.127	0.129	-0.110
-310.924	172.428	-0.226	0.322
-309.910	800.000	-0.034	-0.142
-308.895	-200.000	0.007	-0.247
-307.880	-150.872	0.229	-0.017
-306.866	800.000	-0.111	0.328
-305.851	-70.604	0.043	-0.016
-304.837	54.977	-0.264	-0.253
-303.822	606.745	-0.038	0.093
-302.807	776.200	0.075	0.203
-301.793	-60.826	-0.193	-0.081
-300.778	0.215	0.192	0.135
-299.764	800.000	-0.065	-0.196
-298.749	-67.443	-0.227	0.088
-297.735	800.000	0.025	0.097
-296.720	224.060	0.135	0.216
-295.705	-14.003	-0.107	0.068
-294.691	588.749	0.103	0.252
-293.676	152.626	-0.080	0.109
-292.662	266.820	-0.081	0.140
-291.647	-104.168	0.146	0.034
-290.632	170.156	-0.114	0.161
-289.618	17.631	0.301	-0.237
-288.603	22.100	-0.179	0.144
-287.589	-143.577	0.241	0.023
-286.574	194.894	0.089	0.134
-285.559	215.659	0.217	0.341
-284.545	48.507	-0.247	-0.229
-283.530	-200.000	0.032	-0.257
-282.516	61.531	0.028	0.028
-281.501	-200.000	-0.076	0.339
-280.486	270.667	0.097	0.170
-279.472	-200.000	0.040	-0.177
-278.457	800.000	0.042	0.128
-277.443	256.346	-0.025	-0.042
-276.428	-165.854	0.315	-0.013
-275.413	-200.000	0.014	0.545
-274.399	-36.102	-0.316	0.169
-273.384	-200.000	-0.024	-0.244
-272.370	-21.082	0.063	-0.038
-271.355	270.662	-0.135	-0.235
-270.340	100.929	0.278	-0.320
-269.326	-200.000	0.031	-0.217
-268.311	111.386	-0.191	-0.228
-267.297	60.563	0.250	-0.245
-266.282	145.213	0.143	0.189
-265.267	-97.578	-0.153	0.039
-264.253	63.406	0.176	0.175
-263.238	-108.336	0.260	0.056
-262.224	-200.000	0.008	0.302
-261.209	-66.588	-0.125	-0.049
-260.195	612.959	0.166	0.412
-259.180	51.819	-0.030	0.028
-258.165	-200.000	0.009	0.050
-257.151	-65.921	-0.151	0.060
-256.136	-85.654	0.195	-0.060
-255.122	510.566	0.107	-0.246
-254.107	-200.000	-0.041	-0.286
-253.092	715.584	-0.106	-0.278
-252.078	800.000	-0.053	-0.174
-251.063	800.000	0.056	0.240
-250.049	-8.500	-0.262	-0.174
-249.034	-105.062	0.213	-0.048
-248.019	581.591	0.095	-0.231
-247.005	26.002	-0.154	0.127
-245.990	800.000	0.025	-0.077
-244.976	-20.975	-0.082	0.050
-243.961	-124.389	0.316	0.049
-242.946	-200.000	-0.037	-0.236
-241.932	-107.227	-0.077	0.017
-240.917	-74.663	0.289	-0.103
-239.903	-157.878	0.136	0.008
-238.888	187.096	-0.143	0.210
-237.873	-48.000	0.270	-0.129
-236.859	-71.906	-0.224	0.083
-235.844	-85.520	0.249	0.077
-234.830	-78.834	0.235	0.079
-233.815	-84.850	-0.248	0.077
-232.800	32.073	0.131	0.112
-231.786	470.863	0.116	0.259
-230.771	-200.000	0.000	0.185
-229.757	-111.710	0.131	-0.026
-228.742	252.726	0.086	0.145
-227.727	-179.173	0.123	-0.003
-226.713	-200.000	-0.017	0.273
-225.698	494.016	-0.099	-0.225
-224.684	71.674	0.087	-0.090
-223.669	115.073	0.084	0.101
-222.655	-200.000	0.044	-0.369
-221.640	-112.790	-0.131	0.026
-220.625	-99.245	-0.219	0.055
-219.611	-135.191	-0.137	-0.016
-218.596	-200.000	-0.022	0.352
-217.582	55.639	-0.329	0.315
-216.567	88.293	0.190	0.208
-215.552	66.200	-0.221	0.221
-214.538	327.448	0.064	0.121
-213.523	-178.834	0.062	-0.001
-212.509	-3.813	0.316	-0.217
-211.494	-200.000	-0.024	0.181
-210.479	-200.000	0.030	-0.158
-209.465	144.952	-0.066	-0.087
-208.450	-45.690	0.147	0.072
-207.436	12.528	0.214	0.163
-206.421	-66.127	-0.152	0.060
-205.406	-128.294	-0.217	0.031
-204.392	33.082	0.178	-0.152
-203.377	305.936	-0.011	-0.019
-202.363	-200.000	-0.079	-0.382
-201.348	-8.822	0.345	-0.228
-200.333	-25.205	0.176	-0.103
-199.319	-200.000	-0.004	0.136
-198.304	4.780	-0.122	0.088
-197.290	-118.088	0.197	-0.035
-196.275	-119.919	-0.124	-0.021
-195.260	800.000	-0.123	-0.428
-194.246	60.193	0.266	-0.260
-193.231	-117.176	0.099	0.018
-192.217	-120.953	0.097	-0.016
-191.202	18.042	-0.056	-0.044
-190.187	693.854	-0.100	0.260
-189.173	800.000	-0.064	0.226
-188.158	-200.000	-0.027	0.167
-187.144	265.757	-0.114	0.196
-186.129	103.062	0.042	0.049
-185.114	-60.908	0.256	-0.107
-184.100	-118.108	0.220	-0.039
-183.085	-37.079	-0.171	-0.090
-182.071	-81.799	-0.122	-0.040
-181.056	-101.266	0.261	0.063
-180.042	-44.209	0.134	-0.066
-179.027	294.958	0.070	0.126
-178.012	666.685	0.108	0.276
-176.998	-71.558	0.148	-0.054
-175.983	212.489	-0.113	-0.175
-174.969	-200.000	0.015	-0.066
-173.954	-183.786	0.440	-0.007
-172.939	800.000	0.086	0.331
-171.925	16.587	-0.131	-0.102
-170.910	-200.000	-0.011	-0.154
-169.896	-29.493	-0.068	0.038
-168.881	800.000	0.036	0.137
-167.866	-27.542	0.026	0.015
-166.852	-35.842	0.055	-0.030
-165.837	-200.000	0.046	-0.323
-164.823	-116.647	0.067	0.012
-163.808	800.000	0.103	-0.313
-162.793	481.924	0.100	-0.223
-161.779	-200.000	-0.021	-0.198
-160.764	-28.130	-0.052	-0.030
-159.750	-111.224	0.045	-0.009
-158.735	-13.208	-0.147	0.094
-157.720	-75.588	-0.134	-0.047
-156.706	-14.647	0.258	0.163
-155.691	-8.640	-0.230	-0.152
-154.677	-117.366	-0.283	0.051
-153.662	-200.000	-0.005	0.241
-152.647	-200.000	0.052	-0.347
-151.633	-143.353	-0.215	-0.020
-150.618	264.892	-0.134	0.229
-149.604	-121.287	-0.192	-0.032
-148.589	-65.432	0.163	-0.065
-147.574	82.140	-0.176	-0.188
-146.560	420.731	0.126	-0.266
-145.545	-200.000	0.015	0.189
-144.531	-200.000	0.032	-0.423
-143.516	0.604	-0.043	0.030
-142.502	-80.839	0.104	-0.034
-141.487	-22.741	-0.061	0.036
-140.472	-46.162	-0.157	0.076
-139.458	-200.000	0.042	0.220
-138.443	51.625	-0.181	0.170
-137.429	70.427	-0.135	0.137
-136.414	800.000	0.144	-0.521
-135.399	492.582	-0.066	-0.149
-134.385	451.664	-0.062	0.135
-133.370	-109.566	0.317	-0.066
-132.356	800.000	-0.081	0.287
-131.341	186.763	-0.143	0.209
-130.326	800.000	0.033	0.099
-129.312	108.759	0.068	0.081
-128.297	800.000	0.037	0.131
-127.283	-1.198	0.076	-0.053
-126.268	800.000	-0.031	0.097
-125.253	476.461	-0.066	-0.146
-124.239	-200.000	-0.019	0.086
-123.224	343.610	-0.252	0.485
-122.210	-114.975	-0.120	-0.022
-121.195	-155.053	-0.247	0.016
