DTS Sentinel unit serial number:	SN413079Multiplexer serial number:	ORYXHardware model number:	OX4-SRSoftware version number:	ORYX F/W v4.00 Oryx Data Collector v3.7.2.0data status	okinstallation	princeton_trtdifferential loss correction	single-endedforward channel	channel 2reverse channel	N/Adate	2019/09/11time	13:25:11forward acquisition time	60.00reverse acquisition time	0.00gamma	496.2192k internal	0.2293k external	0.2293temperature offset calibration	1.0007default loss term (dB/km)	0.3790temperature slope calibration	1.0000multiplexer offset coefficient	1.0000multiplexer slope coefficient	1.0000fibre end	0.00T internal ref (°C)	41.94T ext. ref 1 (°C)	0.81T ext. ref 2 (°C)	36.71length (m)	temperature (°C)	Stokes	anti-Stokes-747.200	559.646	-0.083	0.204
-746.185	-14.301	-0.111	0.073
-745.171	58.749	0.147	0.148
-744.156	45.317	-0.248	0.234
-743.142	188.152	0.118	-0.180
-742.127	121.551	0.281	0.358
-741.112	317.136	0.138	0.268
-740.098	-22.008	-0.041	-0.025
-739.083	-12.029	0.082	0.055
-738.069	29.840	0.124	0.108
-737.054	-130.719	-0.141	-0.019
-736.039	800.000	-0.082	-0.238
-735.025	-112.577	0.466	0.095
-734.010	800.000	0.042	0.158
-732.996	19.396	-0.059	-0.048
-731.981	134.550	-0.234	-0.311
-730.966	52.812	0.046	-0.045
-729.952	800.000	-0.013	-0.038
-728.937	-140.533	-0.285	0.030
-727.923	-43.649	0.041	-0.021
-726.908	683.160	-0.114	-0.304
-725.894	800.000	0.027	0.119
-724.879	90.224	-0.062	0.071
-723.864	213.710	-0.040	-0.064
-722.850	-95.063	-0.305	0.084
-721.835	-110.662	-0.319	0.067
-720.821	-67.547	-0.241	-0.097
-719.806	-200.000	-0.066	-0.414
-718.791	-200.000	-0.014	0.133
-717.777	12.927	0.159	-0.126
-716.762	2.280	-0.279	-0.206
-715.748	671.449	-0.096	0.255
-714.733	113.107	-0.072	0.090
-713.718	514.317	-0.039	-0.094
-712.704	541.600	0.091	0.223
-711.689	14.870	0.230	-0.184
-710.675	-200.000	0.013	0.172
-709.660	-200.000	0.001	0.063
-708.645	800.000	-0.014	-0.052
-707.631	178.875	0.074	0.111
-706.616	-200.000	-0.008	0.131
-705.602	-62.090	-0.354	-0.151
-704.587	127.125	0.077	-0.100
-703.572	-92.377	-0.070	0.020
-702.558	800.000	0.085	0.251
-701.543	-105.799	0.069	0.016
-700.529	61.765	0.046	0.047
-699.514	407.199	-0.040	0.086
-698.499	-91.384	0.313	0.091
-697.485	-32.163	-0.263	-0.150
-696.470	-200.000	0.025	-0.172
-695.456	-96.575	0.082	-0.022
-694.441	-200.000	-0.010	-0.228
-693.426	42.344	0.102	-0.095
-692.412	-118.868	-0.263	-0.047
-691.397	279.820	0.071	0.129
-690.383	56.039	-0.073	-0.072
-689.368	507.328	0.050	-0.119
-688.354	-35.335	0.201	0.111
-687.339	800.000	0.050	0.183
-686.324	-102.699	0.328	-0.080
-685.310	734.196	-0.063	0.172
-684.295	320.750	-0.136	0.265
-683.281	140.327	-0.257	-0.346
-682.266	2.772	0.234	0.173
-681.251	-76.521	0.275	0.099
-680.237	-184.074	0.260	-0.004
-679.222	647.909	-0.116	-0.302
-678.208	54.158	0.137	0.134
-677.193	50.055	0.204	0.196
-676.178	26.884	0.097	-0.083
-675.164	-56.154	-0.099	0.045
-674.149	-141.006	0.381	-0.040
-673.135	54.577	-0.079	0.078
-672.120	-200.000	0.010	-0.326
-671.105	352.133	0.171	-0.347
-670.091	59.666	-0.148	-0.149
-669.076	-75.156	0.086	0.031
-668.062	13.514	0.337	-0.267
-667.047	-113.560	0.065	-0.013
-666.032	21.544	0.172	0.143
-665.018	-200.000	0.011	0.153
-664.003	229.660	0.091	-0.152
-662.989	-64.467	0.170	-0.071
-661.974	-200.000	-0.030	0.264
-660.959	800.000	-0.044	0.187
-659.945	-2.268	-0.127	-0.091
-658.930	-12.957	0.263	0.175
-657.916	742.576	-0.192	0.527
-656.901	46.844	-0.104	-0.098
-655.886	800.000	0.127	-0.418
-654.872	1.077	0.244	0.179
-653.857	-83.097	-0.124	0.041
-652.843	32.909	0.203	-0.179
-651.828	269.556	0.063	0.112
-650.814	800.000	0.052	-0.209
-649.799	-93.592	-0.109	0.031
-648.784	-200.000	-0.039	-0.254
-647.770	-200.000	-0.119	0.000
-646.755	-34.640	-0.167	0.093
-645.741	-59.760	-0.205	0.089
-644.726	61.963	0.061	0.062
-643.711	692.050	-0.064	-0.170
-642.697	-50.521	0.213	-0.102
-641.682	-94.369	0.284	-0.079
-640.668	-200.000	0.029	-0.145
-639.653	91.122	0.179	0.205
-638.638	-127.435	-0.221	0.033
-637.624	-200.000	0.156	0.000
-636.609	-45.205	0.194	0.098
-635.595	71.457	0.119	0.126
-634.580	92.585	0.152	0.175
-633.565	-200.000	0.019	-0.206
-632.551	99.701	0.302	-0.356
-631.536	-63.145	0.062	0.026
-630.522	35.949	0.124	-0.111
-629.507	-200.000	0.063	-0.295
-628.492	-200.000	0.027	-0.128
-627.478	-57.886	-0.036	-0.016
-626.463	800.000	0.049	-0.140
-625.449	194.235	0.135	-0.208
-624.434	-76.730	0.099	-0.035
-623.419	21.720	-0.239	0.198
-622.405	800.000	-0.057	-0.219
-621.390	-16.479	-0.155	-0.100
-620.376	-200.000	-0.021	0.408
-619.361	-200.000	0.042	0.191
-618.346	201.157	0.086	0.134
-617.332	-96.489	-0.142	0.038
-616.317	-91.824	-0.161	0.046
-615.303	723.658	-0.060	-0.162
-614.288	-87.813	0.175	-0.054
-613.273	-53.669	0.307	0.143
-612.259	-200.000	-0.031	-0.261
-611.244	-4.768	0.128	0.090
-610.230	-147.003	0.165	0.014
-609.215	-200.000	-0.037	-0.205
-608.201	-200.000	0.009	-0.219
-607.186	-200.000	-0.021	-0.234
-606.171	-30.785	-0.294	0.170
-605.157	32.931	-0.081	0.072
-604.142	207.459	-0.135	0.214
-603.128	-87.375	0.058	0.018
-602.113	92.234	-0.222	0.254
-601.098	-163.440	0.189	-0.009
-600.084	-35.434	-0.134	0.074
-599.069	101.203	-0.212	-0.251
-598.055	121.587	0.260	-0.330
-597.040	104.741	0.125	0.150
-596.025	-91.875	-0.149	0.043
-595.011	95.722	0.068	0.080
-593.996	109.062	-0.184	-0.223
-592.982	705.086	0.036	0.096
-591.967	-200.000	-0.049	0.363
-590.952	-70.517	0.191	-0.074
-589.938	394.650	0.055	-0.116
-588.923	-200.000	-0.429	-0.001
-587.909	238.882	0.021	-0.035
-586.894	6.909	0.180	-0.136
-585.879	800.000	0.056	-0.194
-584.865	41.508	-0.209	0.193
-583.850	407.812	0.011	0.024
-582.836	70.518	0.245	-0.257
-581.821	230.834	-0.203	-0.338
-580.806	-200.000	0.001	-0.196
-579.792	-200.000	0.034	-0.224
-578.777	-200.000	-0.015	0.095
-577.763	800.000	0.041	0.121
-576.748	40.956	0.164	-0.150
-575.733	349.209	-0.059	0.118
-574.719	-95.169	-0.209	-0.057
-573.704	616.592	-0.008	-0.019
-572.690	193.397	0.095	0.146
-571.675	-141.244	-0.310	-0.032
-570.661	137.346	0.204	0.271
-569.646	-70.753	-0.231	0.089
-568.631	131.709	-0.231	0.302
-567.617	-34.620	-0.212	0.118
-566.602	679.814	0.103	0.273
-565.588	-130.064	0.299	0.042
-564.573	800.000	0.087	-0.260
-563.558	800.000	-0.081	-0.275
-562.544	-96.427	0.211	0.057
-561.529	-12.182	-0.095	0.063
-560.515	433.948	-0.125	-0.276
-559.500	382.174	0.075	-0.156
-558.485	202.735	-0.026	-0.040
-557.471	6.996	-0.244	-0.185
-556.456	350.058	0.191	0.383
-555.442	-120.417	0.208	0.036
-554.427	-157.589	0.420	-0.025
-553.412	-14.707	0.229	0.150
-552.398	-200.000	0.016	0.126
-551.383	-142.305	-0.194	-0.019
-550.369	421.207	0.066	-0.144
-549.354	-55.234	0.246	-0.112
-548.339	-88.995	-0.261	-0.079
-547.325	-200.000	-0.031	0.197
-546.310	-114.758	-0.155	0.030
-545.296	-62.377	0.218	-0.092
-544.281	82.350	-0.167	-0.184
-543.266	42.964	-0.139	0.129
-542.252	19.985	0.147	0.120
-541.237	-1.805	0.059	-0.042
-540.223	-10.063	-0.181	-0.122
-539.208	431.147	-0.082	-0.180
-538.193	-31.924	-0.110	0.063
-537.179	125.260	0.078	-0.100
-536.164	-26.749	0.162	-0.096
-535.150	-16.782	0.050	0.032
-534.135	800.000	0.103	0.416
-533.121	72.793	0.213	-0.226
-532.106	139.166	0.169	-0.226
-531.091	272.438	-0.223	0.400
-530.077	800.000	0.037	-0.107
-529.062	123.242	0.113	0.144
-528.048	-73.622	0.100	-0.037
-527.033	-95.014	-0.051	-0.014
-526.018	-50.028	-0.190	0.092
-525.004	-157.703	0.390	-0.024
-523.989	-200.000	0.004	0.064
-522.975	-57.819	0.134	0.059
-521.960	540.438	0.091	-0.220
-520.945	-200.000	-0.003	-0.115
-519.931	-58.171	0.277	0.122
-518.916	155.727	0.097	-0.135
-517.902	42.382	0.326	-0.300
-516.887	-125.600	0.248	-0.038
-515.872	-67.294	0.227	-0.091
-514.858	-125.762	0.035	0.005
-513.843	0.434	-0.143	-0.103
-512.829	-25.306	0.082	-0.049
-511.814	-200.000	0.001	-0.300
-510.799	800.000	-0.096	0.316
-509.785	3.917	0.086	-0.064
-508.770	403.622	-0.210	-0.448
-507.756	709.254	-0.012	0.032
-506.741	-164.676	-0.210	0.010
-505.726	108.034	-0.186	0.225
-504.712	-99.157	-0.044	-0.011
-503.697	199.314	-0.070	-0.109
-502.683	37.873	0.178	-0.161
-501.668	-200.000	0.023	-0.229
-500.653	-122.105	-0.059	0.010
-499.639	164.513	0.157	0.224
-498.624	386.100	0.044	-0.092
-497.610	800.000	0.095	0.351
-496.595	-78.171	-0.187	0.065
-495.581	11.362	-0.119	0.092
-494.566	27.690	-0.163	-0.139
-493.551	376.252	-0.049	0.102
-492.537	-45.776	-0.243	0.121
-491.522	6.453	-0.106	-0.080
-490.508	211.724	0.122	-0.195
-489.493	-123.194	0.043	-0.007
-488.478	37.109	-0.196	0.176
-487.464	-131.550	-0.095	-0.013
-486.449	-70.788	0.109	0.042
-485.435	331.154	-0.077	-0.151
-484.420	-200.000	-0.127	0.000
-483.405	-17.298	-0.144	0.092
-482.391	-143.690	0.202	-0.019
-481.376	-107.079	-0.057	0.013
-480.362	-12.310	-0.444	0.294
-479.347	79.537	-0.171	0.186
-478.332	305.029	0.149	0.281
-477.318	800.000	0.053	-0.166
-476.303	-176.705	-0.121	-0.003
-475.289	322.555	-0.062	-0.119
-474.274	172.920	0.020	0.030
-473.259	800.000	-0.115	-0.378
-472.245	-7.555	-0.205	0.140
-471.230	800.000	-0.045	0.196
-470.216	15.383	-0.157	-0.125
-469.201	-194.880	-0.154	0.001
-468.186	76.929	-0.070	0.075
-467.172	79.411	-0.252	-0.274
-466.157	-128.659	-0.101	-0.014
-465.143	-161.711	0.482	-0.025
-464.128	800.000	-0.031	-0.089
-463.113	-122.330	0.061	-0.010
-462.099	-200.000	-0.035	-0.266
-461.084	60.580	0.184	-0.184
-460.070	-11.461	-0.214	-0.142
-459.055	-188.386	0.258	0.003
-458.040	794.700	-0.148	0.411
-457.026	-161.516	0.143	0.007
-456.011	-200.000	-0.017	-0.098
-454.997	106.755	-0.267	0.320
-453.982	-63.513	0.021	0.009
-452.968	62.486	-0.054	0.055
-451.953	49.798	-0.133	0.127
-450.938	-200.000	0.022	0.202
-449.924	-125.447	0.192	-0.030
-448.909	-74.297	0.308	0.113
-447.895	245.927	0.102	0.174
-446.880	375.926	0.041	0.085
-445.865	-200.000	-0.015	-0.122
-444.851	-112.244	-0.376	0.076
-443.836	-200.000	0.054	-0.275
-442.822	-37.500	0.234	-0.126
-441.807	-89.309	0.278	0.083
-440.792	-89.719	-0.182	-0.054
-439.778	-7.588	-0.397	-0.271
-438.763	124.655	-0.301	0.383
-437.749	-94.040	0.078	-0.022
-436.734	1.168	0.085	0.062
-435.719	352.598	0.174	-0.349
-434.705	793.974	-0.066	0.183
-433.690	561.223	0.065	0.159
-432.676	800.000	-0.013	0.044
-431.661	-108.782	0.278	0.060
-430.646	-105.552	-0.054	-0.012
-429.632	-200.000	0.005	-0.167
-428.617	800.000	0.025	0.074
-427.603	99.880	-0.156	0.183
-426.588	609.178	-0.123	0.311
-425.573	-200.000	-0.036	-0.259
-424.559	203.719	0.144	0.226
-423.544	-132.103	0.400	0.052
-422.530	-200.000	0.048	0.290
-421.515	43.532	-0.294	0.272
-420.500	-110.600	-0.049	-0.010
-419.486	-97.942	-0.262	-0.068
-418.471	131.012	0.067	0.087
-417.457	4.557	0.164	-0.122
-416.442	800.000	0.034	0.145
-415.428	800.000	-0.036	0.140
-414.413	-42.540	-0.214	-0.110
-413.398	279.068	0.055	-0.100
-412.384	-200.000	-0.003	-0.282
-411.369	565.146	-0.091	0.223
-410.355	-109.724	0.176	0.037
-409.340	-7.601	0.167	0.114
-408.325	60.320	0.184	-0.184
-407.311	-93.195	-0.046	0.013
-406.296	345.102	0.064	0.127
-405.282	-200.000	0.007	-0.129
-404.267	303.509	-0.059	0.111
-403.252	-79.003	0.337	-0.116
-402.238	-200.000	-0.052	0.263
-401.223	47.819	-0.183	0.173
-400.209	45.879	-0.153	0.143
-399.194	287.133	-0.087	0.159
-398.179	25.682	0.174	-0.146
-397.165	-46.055	-0.073	-0.036
-396.150	72.178	0.021	0.023
-395.136	316.880	-0.053	-0.101
-394.121	104.191	0.114	0.136
-393.106	19.936	0.097	0.079
-392.092	800.000	-0.017	0.065
-391.077	-45.629	0.441	0.220
-390.063	296.964	-0.086	0.160
-389.048	-15.857	0.192	0.123
-388.033	-200.000	0.021	0.236
-387.019	233.845	-0.118	0.197
-386.004	516.416	-0.096	-0.227
-384.990	366.078	-0.098	0.200
-383.975	142.666	-0.176	0.236
-382.960	20.560	-0.048	0.039
-381.946	660.646	0.073	0.189
-380.931	-200.000	0.018	0.302
-379.917	242.110	-0.036	0.061
-378.902	17.720	0.257	0.206
-377.888	-89.210	0.331	-0.098
-376.873	266.042	-0.130	-0.228
-375.858	-130.742	-0.166	-0.023
-374.844	317.455	0.012	-0.024
-373.829	-53.185	-0.388	-0.180
-372.815	-160.715	-0.153	-0.008
-371.800	800.000	0.041	-0.175
-370.785	380.192	0.058	-0.119
-369.771	-126.591	-0.170	0.025
-368.756	-83.622	0.145	0.047
-367.742	-19.722	-0.383	-0.239
-366.727	108.786	0.139	0.167
-365.712	238.779	-0.103	0.172
-364.698	51.748	-0.144	-0.138
-363.683	200.434	0.052	-0.080
-362.669	-142.802	0.181	-0.018
-361.654	467.174	-0.081	0.184
-360.639	-54.102	-0.273	0.125
-359.625	-120.457	0.166	0.028
-358.610	800.000	0.034	0.129
-357.596	88.080	0.044	0.050
-356.581	470.399	0.096	-0.217
-355.566	-200.000	0.013	0.197
-354.552	-15.896	-0.220	-0.141
-353.537	294.725	0.103	-0.189
-352.523	195.681	-0.127	-0.195
-351.508	-200.000	-0.009	0.236
-350.493	273.724	0.069	0.122
-349.479	-52.526	-0.075	-0.035
-348.464	110.364	0.099	0.120
-347.450	-200.000	0.011	-0.325
-346.435	-52.509	-0.179	-0.083
-345.420	93.240	-0.154	0.176
-344.406	800.000	-0.158	0.459
-343.391	396.315	-0.078	0.165
-342.377	195.359	-0.221	0.339
-341.362	213.272	0.156	-0.249
-340.348	5.691	-0.179	0.133
-339.333	-21.497	0.142	0.087
-338.318	570.556	0.074	0.182
-337.304	532.553	0.116	-0.277
-336.289	524.232	0.083	0.198
-335.275	800.000	0.037	-0.138
-334.260	-65.844	-0.168	-0.068
-333.245	108.253	-0.053	0.064
-332.231	-21.559	-0.344	0.211
-331.216	-95.616	-0.373	0.101
-330.202	-86.106	-0.114	0.035
-329.187	8.223	0.148	-0.112
-328.172	-22.799	-0.123	-0.075
-327.158	-87.588	-0.224	0.068
-326.143	800.000	0.017	0.068
-325.129	-10.814	-0.336	0.223
-324.114	-4.609	-0.232	-0.161
-323.099	-162.775	-0.142	0.007
-322.085	-200.000	-0.070	-0.337
-321.070	-88.542	-0.169	-0.051
-320.056	97.111	-0.163	-0.188
-319.041	800.000	-0.088	0.269
-318.026	-140.711	0.172	0.018
-317.012	12.897	-0.186	-0.145
-315.997	-181.094	0.414	-0.008
-314.983	13.045	0.101	-0.079
-313.968	-200.000	0.060	-0.532
-312.953	246.524	-0.170	-0.288
-311.939	-59.047	0.202	0.088
-310.924	487.562	0.082	0.188
-309.910	-200.000	-0.004	-0.092
-308.895	-164.553	-0.272	-0.012
-307.880	800.000	0.134	-0.374
-306.866	525.169	0.054	-0.128
-305.851	-200.000	-0.044	0.350
-304.837	91.187	0.258	-0.291
-303.822	50.638	0.233	0.221
-302.807	-150.221	0.105	0.008
-301.793	-200.000	-0.004	0.079
-300.778	324.535	0.078	0.149
-299.764	32.252	-0.332	0.288
-298.749	-0.407	-0.157	0.112
-297.735	194.253	-0.034	0.052
-296.720	246.503	-0.146	-0.247
-295.705	-98.262	0.332	0.086
-294.691	-127.601	-0.217	0.032
-293.676	-200.000	-0.045	0.225
-292.662	-200.000	-0.000	-0.079
-291.647	246.961	0.190	-0.322
-290.632	-5.272	0.157	-0.108
-289.618	-200.000	-0.040	-0.255
-288.603	800.000	0.092	-0.329
-287.589	800.000	0.135	0.400
-286.574	-42.701	0.268	-0.137
-285.559	-72.370	0.157	-0.058
-284.545	73.062	-0.097	0.102
-283.530	-200.000	0.001	0.047
-282.516	157.825	-0.210	0.293
-281.501	800.000	0.112	-0.315
-280.486	-200.000	-0.005	-0.128
-279.472	2.216	0.140	0.102
-278.457	-113.010	-0.075	0.015
-277.443	-170.060	0.067	-0.002
-276.428	-200.000	-0.011	0.602
-275.413	-68.991	0.176	0.068
-274.399	-200.000	-0.034	-0.364
-273.384	-62.017	-0.154	-0.065
-272.370	17.070	0.277	-0.221
-271.355	-200.000	0.047	0.277
-270.340	104.897	-0.194	-0.230
-269.326	-200.000	-0.026	0.153
-268.311	117.781	0.133	-0.164
-267.297	102.678	-0.131	0.153
-266.282	83.230	0.259	0.283
-265.267	80.030	-0.138	-0.150
-264.253	101.929	0.049	0.058
-263.238	42.365	0.307	-0.280
-262.224	-134.443	0.105	0.013
-261.209	-200.000	0.017	-0.405
-260.195	135.977	-0.148	-0.194
-259.180	-200.000	-0.020	-0.332
-258.165	-145.105	-0.200	0.018
-257.151	-154.112	-0.031	-0.002
-256.136	-103.854	-0.434	-0.102
-255.122	-200.000	-0.026	0.221
-254.107	174.868	0.118	-0.171
-253.092	30.177	0.184	-0.157
-252.078	23.114	-0.186	-0.154
-251.063	10.771	-0.189	-0.144
-250.049	-200.000	0.008	0.166
-249.034	-177.172	-0.201	0.005
-248.019	-58.697	0.213	-0.093
-247.005	-118.454	0.384	0.068
-245.990	-200.000	-0.020	0.284
-244.976	-180.409	-0.220	0.005
-243.961	-200.000	-0.037	-0.278
-242.946	-130.141	-0.282	-0.039
-241.932	-200.000	0.004	-0.040
-240.917	-200.000	0.069	-0.397
-239.903	-161.113	0.138	-0.007
-238.888	-87.231	0.030	-0.009
-237.873	83.996	-0.134	-0.147
-236.859	6.456	-0.291	-0.217
-235.844	-25.283	0.323	0.191
-234.830	-9.789	0.366	0.245
-233.815	-116.949	-0.103	-0.019
-232.800	-200.000	-0.001	-0.145
-231.786	12.374	-0.214	0.166
-230.771	18.783	-0.117	-0.094
-229.757	-19.636	-0.239	-0.149
-228.742	273.133	-0.055	0.098
-227.727	-108.450	0.169	0.037
-226.713	-57.846	0.110	0.048
-225.698	800.000	-0.124	-0.345
-224.684	-15.555	-0.104	-0.067
-223.669	-123.708	0.171	-0.027
-222.655	-200.000	0.060	0.532
-221.640	-3.419	0.275	-0.192
-220.625	-123.293	-0.142	0.023
-219.611	-20.079	-0.019	0.012
-218.596	73.001	-0.220	0.230
-217.582	-83.208	0.493	-0.159
-216.567	684.110	0.118	0.309
-215.552	-42.022	0.214	-0.110
-214.538	21.853	0.101	0.082
-213.523	51.967	-0.271	0.259
-212.509	-200.000	-0.006	0.240
-211.494	18.223	0.240	-0.192
-210.479	-129.549	0.290	0.040
-209.465	-139.347	0.324	0.035
-208.450	140.931	0.082	-0.108
-207.436	-200.000	-0.005	-0.230
-206.421	248.739	0.066	0.112
-205.406	322.927	-0.032	0.061
-204.392	-200.000	0.033	-0.183
-203.377	510.499	0.136	0.318
-202.363	-200.000	-0.014	0.289
-201.348	800.000	0.028	0.095
-200.333	-151.391	-0.320	0.024
-199.319	800.000	0.066	-0.247
-198.304	-3.981	0.287	0.199
-197.290	-200.000	0.061	0.383
-196.275	-200.000	0.009	-0.155
-195.260	-126.729	-0.243	0.036
-194.246	15.184	-0.198	-0.156
-193.231	10.837	0.225	0.172
-192.217	-53.887	0.111	-0.051
-191.202	633.367	0.023	0.057
-190.187	800.000	-0.054	0.207
-189.173	-53.116	0.186	-0.085
-188.158	468.760	-0.129	-0.289
-187.144	132.124	-0.015	0.020
-186.129	57.473	-0.179	-0.175
-185.114	-7.015	-0.233	0.158
-184.100	-108.370	0.278	-0.060
-183.085	-200.000	0.015	-0.461
-182.071	-51.647	0.075	0.035
-181.056	227.766	-0.101	-0.165
-180.042	-159.084	-0.100	-0.006
-179.027	-17.515	-0.253	0.159
-178.012	-200.000	0.012	-0.207
-176.998	34.257	-0.252	0.220
-175.983	252.061	0.056	-0.096
-174.969	-124.135	-0.296	-0.046
-173.954	-200.000	0.014	0.109
-172.939	423.027	-0.053	0.114
-171.925	-126.609	0.216	-0.032
-170.910	-200.000	-0.065	0.332
-169.896	72.638	0.222	-0.232
-168.881	250.946	0.065	-0.110
-167.866	-59.857	-0.131	0.056
-166.852	-200.000	-0.005	0.137
-165.837	-135.101	0.336	-0.040
-164.823	26.755	0.226	0.189
-163.808	11.594	0.191	-0.147
-162.793	85.317	-0.089	-0.097
-161.779	299.476	-0.132	0.243
-160.764	-49.282	0.229	-0.109
-159.750	0.041	0.211	0.150
-158.735	-130.503	0.284	-0.038
-157.720	-200.000	-0.029	0.151
-156.706	-117.066	-0.239	-0.044
-155.691	176.477	-0.128	-0.186
-154.677	800.000	-0.050	-0.206
-153.662	7.226	-0.130	-0.097
-152.647	729.409	0.031	-0.083
-151.633	-84.563	-0.324	0.102
-150.618	-117.277	0.190	0.034
-149.604	123.566	0.062	0.078
-148.589	234.046	0.093	0.152
-147.574	-29.180	-0.357	-0.205
-146.560	-157.041	0.282	-0.017
-145.545	92.762	-0.073	0.082
-144.531	-190.616	-0.348	0.004
-143.516	113.513	0.209	-0.253
-142.502	162.276	-0.088	-0.123
-141.487	336.337	-0.090	0.174
-140.472	6.741	0.088	-0.065
-139.458	-18.592	0.228	-0.142
-138.443	-60.265	-0.265	0.113
-137.429	14.913	-0.125	0.098
-136.414	28.053	0.062	-0.052
-135.399	-61.702	-0.106	0.044
-134.385	140.755	-0.189	0.250
-133.370	-200.000	0.011	0.214
-132.356	-200.000	-0.002	-0.094
-131.341	-200.000	-0.017	0.462
-130.326	-35.540	0.202	-0.109
-129.312	-18.661	0.270	-0.168
-128.297	246.861	0.023	0.038
-127.283	563.124	-0.102	0.248
-126.268	800.000	-0.101	0.307
-125.253	180.605	-0.092	0.135
-124.239	389.598	0.247	-0.511
-123.224	-200.000	-0.003	0.048
-122.210	-78.372	-0.228	-0.078
-121.195	5.929	-0.141	-0.105
-120.180	49.602	0.194	-0.182
