DTS Sentinel unit serial number:	SN413079Multiplexer serial number:	ORYXHardware model number:	OX4-SRSoftware version number:	ORYX F/W v4.00 Oryx Data Collector v3.7.2.0data status	okinstallation	princeton_trtdifferential loss correction	single-endedforward channel	channel 2reverse channel	N/Adate	2019/09/12time	16:13:11forward acquisition time	60.00reverse acquisition time	0.00gamma	496.2192k internal	0.2313k external	0.2313temperature offset calibration	1.0109default loss term (dB/km)	0.3790temperature slope calibration	1.0000multiplexer offset coefficient	1.0000multiplexer slope coefficient	1.0000fibre end	0.00T internal ref (°C)	38.31T ext. ref 1 (°C)	2.53T ext. ref 2 (°C)	31.15length (m)	temperature (°C)	Stokes	anti-Stokes-747.200	-200.000	0.220	-0.000
-746.185	-200.000	0.034	0.579
-745.171	-6.053	-0.173	0.120
-744.156	-200.000	-0.017	0.299
-743.142	-100.356	0.350	-0.088
-742.127	134.981	0.035	0.046
-741.112	39.998	0.201	-0.183
-740.098	-200.000	-0.095	0.614
-739.083	35.657	0.205	-0.182
-738.069	-200.000	0.011	0.195
-737.054	-136.576	-0.176	-0.021
-736.039	-108.268	-0.099	-0.022
-735.025	54.213	0.296	0.289
-734.010	-66.906	-0.064	0.026
-732.996	516.066	0.056	0.133
-731.981	12.340	-0.350	-0.273
-730.966	-110.496	-0.247	0.052
-729.952	-186.173	-0.036	-0.001
-728.937	-190.032	-0.189	0.002
-727.923	-200.000	-0.011	0.354
-726.908	-200.000	0.040	0.325
-725.894	-24.681	0.476	0.287
-724.879	800.000	0.071	0.207
-723.864	-200.000	-0.050	-0.440
-722.850	800.000	0.058	-0.164
-721.835	-145.826	0.154	-0.014
-720.821	-119.567	-0.363	-0.064
-719.806	230.498	0.094	-0.156
-718.791	760.113	0.139	0.381
-717.777	265.731	-0.091	-0.160
-716.762	156.634	0.129	0.181
-715.748	-40.173	-0.216	0.114
-714.733	-200.000	0.026	0.426
-713.718	103.093	-0.152	0.181
-712.704	125.346	-0.082	0.105
-711.689	-200.000	-0.019	-0.108
-710.675	800.000	0.089	-0.257
-709.660	71.464	-0.100	-0.106
-708.645	-89.794	0.251	0.074
-707.631	-190.935	0.415	-0.004
-706.616	272.090	-0.139	0.248
-705.602	-52.013	0.189	0.089
-704.587	-96.772	0.222	-0.059
-703.572	432.224	-0.071	-0.155
-702.558	126.281	0.248	0.318
-701.543	3.065	-0.045	-0.033
-700.529	-51.650	-0.183	0.086
-699.514	-98.620	-0.101	0.026
-698.499	-64.201	-0.266	-0.110
-697.485	-114.562	0.156	-0.030
-696.470	188.769	0.057	-0.087
-695.456	-165.947	0.218	-0.009
-694.441	-168.097	-0.236	-0.009
-693.426	100.739	-0.130	-0.153
-692.412	-74.639	-0.144	0.052
-691.397	-200.000	0.018	-0.117
-690.383	-200.000	-0.007	0.173
-689.368	133.997	-0.112	0.146
-688.354	-11.272	-0.362	-0.241
-687.339	-67.422	-0.222	-0.088
-686.324	344.017	-0.018	-0.036
-685.310	-200.000	-0.015	-0.110
-684.295	279.216	0.114	0.205
-683.281	-56.389	-0.457	-0.205
-682.266	139.109	0.114	-0.152
-681.251	-200.000	-0.018	-0.191
-680.237	-91.869	0.130	0.037
-679.222	-107.003	0.388	0.087
-678.208	-71.995	-0.200	0.075
-677.193	225.120	-0.054	-0.088
-676.178	301.166	-0.237	-0.442
-675.164	-158.233	0.272	0.016
-674.149	152.752	-0.220	0.304
-673.135	-99.898	-0.420	0.106
-672.120	-7.064	0.163	0.112
-671.105	-98.443	0.428	-0.111
-670.091	800.000	-0.078	-0.282
-669.076	800.000	0.075	-0.326
-668.062	13.646	0.251	-0.197
-667.047	-56.032	0.440	-0.198
-666.032	174.008	-0.182	-0.265
-665.018	430.984	0.104	-0.227
-664.003	-200.000	-0.020	-0.291
-662.989	-26.555	0.209	0.124
-661.974	-168.063	0.194	-0.008
-660.959	-54.630	0.048	0.022
-659.945	-200.000	0.006	0.092
-658.930	221.375	0.013	0.022
-657.916	4.429	0.070	0.052
-656.901	800.000	0.020	0.058
-655.886	544.875	-0.046	-0.110
-654.872	-63.532	0.169	-0.070
-653.857	-39.003	0.177	-0.094
-652.843	288.996	0.102	-0.187
-651.828	-139.132	0.138	-0.015
-650.814	-82.106	-0.078	0.026
-649.799	76.234	-0.049	-0.052
-648.784	137.258	-0.219	-0.289
-647.770	800.000	0.022	-0.078
-646.755	-200.000	-0.064	-0.285
-645.741	557.115	-0.099	0.241
-644.726	800.000	-0.033	0.145
-643.711	-200.000	0.036	-0.283
-642.697	-156.539	-0.095	0.006
-641.682	-98.075	-0.423	-0.110
-640.668	146.019	-0.097	0.131
-639.653	-200.000	-0.007	0.054
-638.638	131.610	-0.051	-0.066
-637.624	800.000	-0.037	-0.118
-636.609	-83.745	0.192	-0.062
-635.595	30.570	-0.081	0.070
-634.580	-75.027	0.300	0.109
-633.565	-104.208	-0.326	0.077
-632.551	-107.856	0.205	0.045
-631.536	169.572	0.218	0.314
-630.522	-66.522	-0.307	0.123
-629.507	-79.630	-0.123	-0.042
-628.492	470.046	-0.113	-0.257
-627.478	800.000	0.034	0.115
-626.463	-9.945	0.125	0.084
-625.449	-105.065	-0.361	0.083
-624.434	60.086	-0.138	-0.138
-623.419	800.000	0.069	-0.216
-622.405	347.347	-0.120	-0.239
-621.390	-200.000	-0.019	-0.116
-620.376	86.911	-0.065	-0.072
-619.361	54.357	-0.043	-0.042
-618.346	503.704	-0.049	-0.114
-617.332	108.533	0.076	-0.091
-616.317	-54.033	-0.098	-0.045
-615.303	-52.058	0.249	0.117
-614.288	800.000	-0.014	0.041
-613.273	800.000	-0.055	-0.193
-612.259	316.994	-0.215	0.411
-611.244	52.342	-0.210	0.203
-610.230	-69.872	-0.052	-0.020
-609.215	157.069	-0.121	-0.169
-608.201	15.436	0.052	-0.042
-607.186	70.114	-0.175	0.182
-606.171	-190.838	-0.330	-0.004
-605.157	-136.184	-0.357	-0.042
-604.142	-23.277	0.065	0.040
-603.128	615.143	0.108	-0.272
-602.113	-118.433	-0.111	0.020
-601.098	-200.000	-0.010	-0.232
-600.084	800.000	0.072	-0.244
-599.069	663.323	-0.103	-0.267
-598.055	-200.000	0.007	0.221
-597.040	-32.020	-0.048	-0.027
-596.025	11.970	-0.050	-0.039
-595.011	-76.232	-0.132	-0.047
-593.996	167.239	-0.051	0.073
-592.982	496.770	-0.128	0.296
-591.967	113.088	0.052	-0.064
-590.952	41.248	0.090	0.082
-589.938	-165.449	0.375	0.017
-588.923	5.408	-0.220	-0.163
-587.909	-50.642	0.262	-0.124
-586.894	-122.095	0.122	0.020
-585.879	-11.139	0.281	0.187
-584.865	-61.061	0.061	-0.026
-583.850	198.505	0.052	0.080
-582.836	-53.622	0.155	-0.071
-581.821	215.561	0.171	-0.273
-580.806	92.735	0.082	-0.094
-579.792	191.187	0.192	0.291
-578.777	789.285	0.055	-0.152
-577.763	-186.364	-0.280	0.004
-576.748	78.803	0.082	0.089
-575.733	58.357	0.171	0.169
-574.719	345.502	0.142	-0.281
-573.704	485.145	0.020	-0.047
-572.690	-47.434	-0.159	0.078
-571.675	381.740	0.033	-0.069
-570.661	800.000	-0.033	-0.107
-569.646	-91.970	-0.112	-0.032
-568.631	-158.208	-0.210	0.012
-567.617	-64.317	0.143	-0.058
-566.602	800.000	-0.136	0.382
-565.588	800.000	-0.122	-0.347
-564.573	68.534	-0.090	0.093
-563.558	146.232	-0.090	0.121
-562.544	-200.000	-0.024	0.314
-561.529	-20.814	0.194	-0.120
-560.515	435.679	0.062	-0.137
-559.500	-98.612	0.210	0.054
-558.485	164.109	0.128	0.181
-557.471	201.848	-0.112	0.174
-556.456	-63.635	0.461	-0.190
-555.442	-200.000	0.185	0.000
-554.427	-58.265	0.112	0.049
-553.412	-200.000	-0.015	-0.202
-552.398	232.967	-0.264	0.437
-551.383	-89.357	0.086	0.025
-550.369	6.434	0.339	0.253
-549.354	-80.469	-0.258	0.086
-548.339	-143.623	-0.395	0.038
-547.325	-200.000	-0.034	0.303
-546.310	163.653	-0.131	-0.186
-545.296	92.526	-0.211	0.239
-544.281	305.024	-0.141	-0.264
-543.266	-200.000	-0.007	-0.135
-542.252	-84.777	0.090	0.029
-541.237	-200.000	0.041	-0.332
-540.223	378.676	-0.073	0.150
-539.208	67.506	-0.015	-0.016
-538.193	265.819	-0.167	-0.293
-537.179	-90.579	0.057	-0.017
-536.164	-135.257	0.285	0.034
-535.150	-68.685	-0.296	0.115
-534.135	218.738	0.224	-0.361
-533.121	-46.225	-0.145	0.072
-532.106	800.000	-0.132	0.396
-531.091	-80.007	0.056	-0.019
-530.077	4.077	0.349	-0.257
-529.062	-87.770	0.069	0.021
-528.048	134.977	0.066	-0.086
-527.033	-149.760	-0.055	0.004
-526.018	29.377	-0.204	-0.174
-525.004	-148.357	-0.371	0.031
-523.989	82.630	0.183	-0.200
-522.975	-71.400	-0.106	-0.040
-521.960	-200.000	0.066	0.344
-520.945	800.000	0.061	-0.207
-519.931	-56.866	-0.399	-0.177
-518.916	424.459	-0.153	0.331
-517.902	350.199	0.034	0.067
-516.887	728.143	0.067	0.179
-515.872	-200.000	0.031	0.237
-514.858	461.656	0.103	0.232
-513.843	350.098	-0.139	-0.276
-512.829	491.448	-0.209	0.482
-511.814	-143.910	0.167	0.016
-510.799	800.000	0.024	-0.100
-509.785	-200.000	-0.051	0.000
-508.770	-98.400	0.205	-0.053
-507.756	-1.445	0.357	-0.253
-506.741	-86.861	-0.330	-0.101
-505.726	-200.000	0.086	-0.534
-504.712	77.563	0.054	0.058
-503.697	-154.264	0.141	0.010
-502.683	-85.099	-0.175	0.055
-501.668	40.338	0.061	0.056
-500.653	272.375	0.068	-0.120
-499.639	-149.791	0.048	-0.004
-498.624	-200.000	0.011	-0.203
-497.610	-13.370	-0.294	-0.192
-496.595	-46.422	0.167	0.083
-495.581	-118.848	0.221	-0.039
-494.566	653.940	-0.035	-0.090
-493.551	-77.202	0.313	0.109
-492.537	-98.458	-0.073	0.019
-491.522	249.090	-0.144	0.245
-490.508	-200.000	0.011	-0.126
-489.493	-149.148	-0.018	-0.001
-488.478	155.114	0.131	0.180
-487.464	58.883	0.236	0.233
-486.449	326.861	0.140	-0.269
-485.435	550.453	-0.049	0.118
-484.420	-152.093	0.284	0.021
-483.405	-68.004	-0.189	-0.074
-482.391	-26.716	-0.140	0.082
-481.376	-31.092	0.257	0.145
-480.362	381.942	-0.016	0.033
-479.347	-66.946	-0.076	0.030
-478.332	-64.663	-0.086	0.035
-477.318	-58.259	0.191	-0.083
-476.303	-50.144	-0.129	0.061
-475.289	-200.000	0.004	0.065
-474.274	-200.000	-0.002	0.310
-473.259	82.196	0.167	0.182
-472.245	54.368	-0.194	-0.188
-471.230	-144.926	0.287	-0.026
-470.216	318.125	-0.046	0.088
-469.201	479.312	0.066	-0.150
-468.186	-64.206	-0.020	0.008
-467.172	-87.836	-0.437	-0.132
-466.157	268.768	-0.217	-0.382
-465.143	66.600	-0.043	-0.044
-464.128	-200.000	0.018	-0.146
-463.113	-31.236	0.073	0.041
-462.099	-85.013	-0.281	0.088
-461.084	-63.093	0.314	0.130
-460.070	516.526	0.087	-0.204
-459.055	-91.572	0.269	0.077
-458.040	45.472	0.115	-0.106
-457.026	-200.000	-0.019	-0.150
-456.011	-6.506	0.157	0.108
-454.997	-200.000	0.019	0.304
-453.982	-81.216	-0.198	-0.066
-452.968	-89.699	0.378	0.111
-451.953	-200.000	-0.075	0.368
-450.938	61.414	-0.146	-0.145
-449.924	-27.826	-0.158	0.092
-448.909	-200.000	0.057	-0.423
-447.895	47.720	0.273	-0.255
-446.880	494.931	0.081	0.186
-445.865	20.076	0.114	-0.092
-444.851	163.131	0.129	0.182
-443.836	800.000	0.110	-0.380
-442.822	19.105	0.212	-0.171
-441.807	115.011	0.044	0.054
-440.792	-160.596	0.177	-0.009
-439.778	-128.647	-0.179	0.025
-438.763	-200.000	0.070	0.357
-437.749	-200.000	0.044	-0.210
-436.734	-107.488	0.122	-0.027
-435.719	16.752	0.529	0.419
-434.705	-104.978	0.245	0.056
-433.690	-136.954	-0.234	-0.027
-432.676	-197.087	-0.266	-0.002
-431.661	685.745	-0.107	-0.281
-430.646	189.498	0.153	-0.230
-429.632	800.000	0.048	0.202
-428.617	800.000	0.023	0.075
-427.603	554.249	0.151	-0.363
-426.588	-10.969	0.125	-0.083
-425.573	234.568	-0.194	0.320
-424.559	30.885	0.099	0.085
-423.544	-108.284	0.389	0.084
-422.530	800.000	0.055	0.214
-421.515	344.945	-0.083	-0.163
-420.500	40.289	-0.065	-0.058
-419.486	-200.000	-0.017	0.259
-418.471	466.712	0.094	-0.211
-417.457	800.000	-0.035	0.122
-416.442	38.232	-0.161	-0.144
-415.428	34.660	0.071	0.062
-414.413	-111.907	0.339	0.069
-413.398	-19.840	0.238	0.147
-412.384	66.922	-0.127	0.130
-411.369	-200.000	0.024	0.566
-410.355	-147.649	-0.283	-0.024
-409.340	-200.000	0.014	0.100
-408.325	-45.777	-0.283	0.140
-407.311	-200.000	-0.024	-0.343
-406.296	-112.866	-0.126	-0.025
-405.282	-90.254	-0.240	0.070
-404.267	-141.636	-0.191	0.019
-403.252	392.855	-0.022	-0.045
-402.238	-200.000	0.041	-0.194
-401.223	-143.278	-0.035	0.003
-400.209	-97.966	0.374	-0.096
-399.194	-138.582	-0.091	0.010
-398.179	-185.903	0.066	-0.001
-397.165	-118.368	0.036	0.006
-396.150	170.482	0.084	-0.120
-395.136	174.355	0.137	-0.198
-394.121	-48.587	-0.038	0.018
-393.106	127.507	-0.083	-0.106
-392.092	69.660	0.079	0.081
-391.077	-41.116	-0.047	-0.024
-390.063	222.123	-0.024	0.038
-389.048	76.707	-0.145	0.154
-388.033	16.694	-0.055	0.043
-387.019	800.000	-0.087	-0.302
-386.004	-179.287	-0.051	-0.001
-384.990	800.000	0.030	0.107
-383.975	-176.821	0.125	0.003
-382.960	-25.153	-0.108	0.064
-381.946	150.593	0.208	-0.283
-380.931	349.493	-0.052	-0.103
-379.917	-200.000	0.039	0.264
-378.902	-62.384	-0.261	0.109
-377.888	25.757	0.102	0.085
-376.873	87.458	-0.107	-0.119
-375.858	-74.714	-0.025	-0.009
-374.844	-200.000	-0.017	-0.210
-373.829	-143.906	-0.128	0.012
-372.815	-58.852	0.224	0.097
-371.800	-200.000	0.000	-0.339
-370.785	-23.869	0.126	0.075
-369.771	-200.000	0.036	-0.224
-368.756	800.000	-0.006	-0.020
-367.742	137.121	-0.184	0.240
-366.727	393.326	-0.059	0.123
-365.712	-200.000	-0.044	0.222
-364.698	-200.000	-0.031	0.165
-363.683	175.033	-0.087	0.126
-362.669	-200.000	-0.005	-0.110
-361.654	339.198	-0.161	-0.313
-360.639	-48.306	0.212	0.102
-359.625	800.000	-0.099	0.283
-358.610	-135.065	-0.276	0.033
-357.596	60.648	0.140	-0.139
-356.581	23.254	-0.139	-0.114
-355.566	800.000	-0.074	-0.222
-354.552	-147.480	-0.018	0.002
-353.537	-200.000	-0.011	0.323
-352.523	30.270	0.311	0.265
-351.508	385.333	0.055	-0.114
-350.493	205.428	-0.173	-0.269
-349.479	168.791	-0.086	0.122
-348.464	101.030	0.098	-0.114
-347.450	180.220	0.078	-0.114
-346.435	-103.407	0.231	-0.054
-345.420	-103.398	0.115	-0.027
-344.406	357.068	0.108	0.215
-343.391	78.274	-0.135	0.144
-342.377	-200.000	-0.020	-0.384
-341.362	165.409	-0.212	0.299
-340.348	800.000	-0.057	-0.168
-339.333	348.901	-0.102	-0.202
-338.318	-17.192	0.136	-0.085
-337.304	190.434	0.103	0.155
-336.289	-62.097	0.127	-0.053
-335.275	-200.000	0.002	-0.134
-334.260	-94.445	0.105	-0.028
-333.245	184.927	0.158	-0.234
-332.231	-68.755	-0.376	0.145
-331.216	-173.725	-0.332	-0.010
-330.202	518.548	0.020	0.047
-329.187	-85.560	0.268	-0.083
-328.172	-78.185	-0.164	-0.056
-327.158	-3.410	-0.183	-0.127
-326.143	190.504	-0.134	0.201
-325.129	64.358	0.072	-0.073
-324.114	-200.000	-0.014	-0.491
-323.099	213.326	0.192	-0.302
-322.085	28.578	-0.285	-0.240
-321.070	-31.811	0.172	-0.096
-320.056	257.458	0.056	0.097
-319.041	103.792	0.188	0.220
-318.026	402.462	-0.177	-0.371
-317.012	157.686	-0.013	0.018
-315.997	23.719	-0.145	-0.119
-314.983	800.000	-0.150	-0.528
-313.968	-89.144	0.472	-0.139
-312.953	800.000	0.093	0.317
-311.939	60.512	0.103	0.102
-310.924	-108.104	0.071	-0.015
-309.910	-36.927	-0.154	0.082
-308.895	-178.708	-0.088	-0.002
-307.880	-90.369	0.206	-0.059
-306.866	-200.000	-0.040	0.220
-305.851	-1.177	-0.153	-0.108
-304.837	35.468	-0.106	0.093
-303.822	88.561	-0.222	-0.245
-302.807	324.849	-0.073	-0.139
-301.793	18.090	-0.031	0.025
-300.778	218.135	-0.201	0.319
-299.764	-200.000	-0.023	0.135
-298.749	100.911	-0.222	0.257
-297.735	-45.962	-0.267	-0.131
-296.720	-45.934	-0.086	-0.042
-295.705	41.641	-0.096	-0.087
-294.691	-123.168	-0.245	-0.039
-293.676	134.734	0.048	-0.062
-292.662	27.979	0.127	-0.107
-291.647	-200.000	0.002	-0.099
-290.632	155.456	0.075	-0.103
-289.618	118.144	0.126	0.154
-288.603	209.008	0.147	0.230
-287.589	111.697	0.099	-0.120
-286.574	110.207	-0.315	0.377
-285.559	42.348	0.196	0.177
-284.545	-200.000	0.030	0.221
-283.530	-51.467	0.077	-0.036
-282.516	-75.218	0.306	0.109
-281.501	324.309	-0.289	0.549
-280.486	-117.568	0.276	-0.050
-279.472	182.216	0.044	-0.064
-278.457	-11.929	0.171	-0.112
-277.443	87.764	0.096	-0.105
-276.428	800.000	-0.109	0.310
-275.413	-200.000	-0.005	-0.318
-274.399	-81.448	-0.223	-0.073
-273.384	-200.000	-0.031	-0.303
-272.370	800.000	-0.040	0.159
-271.355	344.464	-0.175	0.342
-270.340	707.553	0.097	-0.254
-269.326	-200.000	0.021	0.351
-268.311	6.381	-0.225	0.166
-267.297	198.414	0.073	0.111
-266.282	-200.000	-0.026	-0.299
-265.267	77.498	0.061	0.064
-264.253	-92.112	0.291	-0.082
-263.238	442.817	-0.022	0.048
-262.224	-66.650	-0.257	-0.101
-261.209	458.848	0.124	-0.274
-260.195	-200.000	0.035	-0.234
-259.180	-200.000	0.011	0.066
-258.165	-105.062	-0.330	-0.075
-257.151	-42.720	-0.305	0.154
-256.136	189.284	-0.161	-0.239
-255.122	13.451	0.197	-0.152
-254.107	800.000	-0.045	-0.141
-253.092	348.696	0.212	-0.416
-252.078	64.514	0.192	-0.192
-251.063	82.813	0.119	0.129
-250.049	60.359	-0.135	0.133
-249.034	54.788	-0.201	0.193
-248.019	126.228	-0.160	-0.202
-247.005	800.000	0.015	0.059
-245.990	-122.252	0.066	-0.011
-244.976	-188.341	0.185	-0.002
-243.961	-157.449	-0.078	-0.005
-242.946	49.003	-0.324	0.302
-241.932	-106.215	0.259	-0.058
-240.917	465.081	-0.100	-0.224
-239.903	-71.236	-0.328	0.122
-238.888	-147.186	-0.015	-0.001
-237.873	-30.069	0.132	-0.075
-236.859	-66.386	-0.271	0.107
-235.844	66.463	-0.266	0.269
-234.830	-200.000	-0.003	-0.071
-233.815	-176.159	-0.162	0.004
-232.800	158.088	0.244	-0.336
-231.786	109.735	-0.069	0.082
-230.771	783.239	-0.155	0.423
-229.757	-199.795	0.368	0.002
-228.742	-25.708	0.173	0.101
-227.727	-200.000	0.062	-0.278
-226.713	-180.325	0.246	0.005
-225.698	755.965	0.133	0.359
-224.684	-189.625	0.073	-0.001
-223.669	-93.075	-0.525	-0.145
-222.655	262.593	-0.136	0.234
-221.640	796.503	-0.037	0.102
-220.625	36.210	-0.258	0.226
-219.611	74.889	-0.211	0.221
-218.596	48.379	-0.353	0.329
-217.582	800.000	-0.097	0.370
-216.567	732.748	0.061	0.161
-215.552	308.240	0.138	-0.256
-214.538	111.668	-0.192	-0.230
-213.523	-91.235	0.164	-0.047
-212.509	800.000	0.023	0.095
-211.494	-129.992	-0.280	0.038
-210.479	57.555	-0.187	-0.182
-209.465	739.719	-0.028	-0.074
-208.450	-200.000	0.001	0.189
-207.436	243.213	0.101	0.168
-206.421	38.204	0.169	0.149
-205.406	269.498	-0.060	0.104
-204.392	-200.000	0.001	0.239
-203.377	-147.425	0.163	0.014
-202.363	-65.208	0.478	-0.191
-201.348	679.905	0.106	0.274
-200.333	-138.255	-0.148	-0.016
-199.319	-200.000	0.013	0.362
-198.304	35.713	-0.208	-0.182
-197.290	-200.000	0.002	-0.188
-196.275	-40.877	-0.167	-0.086
-195.260	-177.557	-0.181	-0.004
-194.246	-102.049	0.154	0.037
-193.231	-200.000	-0.012	-0.357
-192.217	-81.771	-0.048	0.015
-191.202	119.596	0.080	-0.098
-190.187	280.163	-0.050	0.089
-189.173	99.207	-0.181	0.207
-188.158	-200.000	-0.028	0.129
-187.144	180.543	0.177	-0.258
-186.129	269.828	0.046	0.081
-185.114	21.249	-0.131	0.105
-184.100	-66.047	0.127	0.050
-183.085	42.122	-0.323	-0.291
-182.071	-23.230	0.137	0.082
-181.056	94.205	0.242	0.272
-180.042	-179.285	0.207	-0.005
-179.027	-7.788	0.184	0.123
-178.012	55.367	0.097	-0.093
-176.998	-0.145	-0.177	-0.125
-175.983	800.000	0.095	-0.414
-174.969	-137.127	-0.235	0.027
-173.954	35.446	0.091	0.079
-172.939	-63.952	-0.375	0.152
-171.925	-95.194	0.303	0.081
-170.910	-160.895	-0.090	-0.005
-169.896	800.000	-0.034	0.121
-168.881	236.974	0.195	0.320
-167.866	-200.000	-0.025	-0.197
-166.852	-200.000	0.032	0.228
-165.837	800.000	0.115	0.364
-164.823	17.904	0.045	0.036
-163.808	-200.000	0.005	-0.234
-162.793	-111.467	0.164	0.033
-161.779	-59.522	-0.144	-0.061
-160.764	-200.000	0.137	-0.000
-159.750	-74.704	0.347	-0.123
-158.735	398.617	0.099	0.206
-157.720	-152.970	0.343	0.024
-156.706	475.865	0.118	-0.265
-155.691	-184.920	0.356	-0.006
-154.677	-68.280	0.184	0.071
-153.662	31.135	0.040	-0.034
-152.647	-37.315	0.282	-0.149
-151.633	-0.901	0.313	0.220
-150.618	-73.335	-0.185	0.067
-149.604	-200.000	0.009	0.134
-148.589	-112.960	-0.178	-0.035
-147.574	560.786	-0.027	0.065
-146.560	-84.795	0.556	-0.173
-145.545	-200.000	-0.009	0.196
-144.531	-7.784	-0.147	0.098
-143.516	-111.045	-0.327	0.066
-142.502	-146.634	-0.105	-0.009
-141.487	222.907	0.081	-0.129
-140.472	108.564	0.125	-0.147
-139.458	-200.000	0.029	0.171
-138.443	-200.000	0.001	0.058
-137.429	-200.000	0.000	-0.309
-136.414	396.952	-0.086	-0.178
-135.399	-109.209	-0.079	-0.017
-134.385	-19.240	-0.143	-0.088
-133.370	-200.000	0.034	0.208
-132.356	138.502	0.116	-0.151
-131.341	3.131	0.189	0.136
-130.326	343.207	-0.047	0.090
-129.312	800.000	-0.099	0.317
-128.297	69.447	-0.076	-0.078
-127.283	-200.000	0.037	-0.244
-126.268	-51.409	-0.334	-0.154
-125.253	84.486	-0.142	0.154
-124.239	57.526	0.094	0.091
-123.224	100.339	0.165	-0.190
-122.210	152.139	-0.189	-0.256
-121.195	-67.549	-0.203	-0.079
