DTS Sentinel unit serial number:	SN413079Multiplexer serial number:	ORYXHardware model number:	OX4-SRSoftware version number:	ORYX F/W v4.00 Oryx Data Collector v3.7.2.0data status	okinstallation	princeton_trtdifferential loss correction	single-endedforward channel	channel 2reverse channel	N/Adate	2019/09/19time	06:35:35forward acquisition time	60.00reverse acquisition time	0.00gamma	496.2192k internal	0.2350k external	0.2350temperature offset calibration	1.0017default loss term (dB/km)	0.3790temperature slope calibration	1.0000multiplexer offset coefficient	1.0000multiplexer slope coefficient	1.0000fibre end	0.00T internal ref (°C)	19.02T ext. ref 1 (°C)	0.56T ext. ref 2 (°C)	12.80length (m)	temperature (°C)	Stokes	anti-Stokes-747.200	84.607	0.294	0.321
-746.185	33.225	-0.440	0.381
-745.171	-200.000	-0.023	0.269
-744.156	-122.715	-0.380	-0.061
-743.142	384.108	-0.125	-0.257
-742.127	-200.000	-0.032	0.198
-741.112	-122.570	0.214	0.035
-740.098	800.000	-0.057	0.194
-739.083	62.250	-0.174	-0.173
-738.069	31.616	-0.174	0.149
-737.054	434.484	0.100	0.216
-736.039	312.043	-0.074	-0.139
-735.025	800.000	0.135	0.472
-734.010	83.768	0.141	-0.154
-732.996	1.502	-0.028	0.020
-731.981	-80.262	-0.323	-0.108
-730.966	38.443	0.048	0.042
-729.952	-8.651	0.143	-0.096
-728.937	-200.000	-0.004	0.019
-727.923	154.258	-0.044	-0.061
-726.908	6.840	0.257	0.191
-725.894	-36.629	0.246	0.132
-724.879	-200.000	-0.015	0.228
-723.864	-200.000	0.001	-0.513
-722.850	-79.217	-0.199	-0.067
-721.835	-200.000	-0.009	-0.194
-720.821	620.491	-0.087	0.219
-719.806	276.866	-0.160	-0.285
-718.791	-37.086	-0.235	0.126
-717.777	35.287	-0.114	0.100
-716.762	-39.623	-0.304	0.158
-715.748	-155.281	-0.300	0.019
-714.733	-4.013	0.272	-0.188
-713.718	205.340	0.067	0.103
-712.704	-29.476	0.126	-0.072
-711.689	-41.279	0.299	-0.154
-710.675	126.595	-0.150	0.190
-709.660	-20.039	0.013	-0.008
-708.645	2.810	0.143	-0.103
-707.631	-46.041	-0.238	0.117
-706.616	10.507	-0.451	0.342
-705.602	-99.918	0.255	-0.064
-704.587	-140.451	-0.537	0.056
-703.572	-200.000	0.426	-0.001
-702.558	-70.379	-0.191	0.072
-701.543	146.206	-0.176	0.235
-700.529	-117.816	-0.448	-0.080
-699.514	800.000	0.054	-0.232
-698.499	-96.198	0.223	0.059
-697.485	-143.783	-0.277	0.026
-696.470	-48.582	-0.296	0.142
-695.456	-200.000	-0.042	-0.211
-694.441	-51.219	0.302	0.141
-693.426	79.800	0.191	0.205
-692.412	257.837	0.066	-0.114
-691.397	452.766	0.210	-0.464
-690.383	518.169	-0.122	-0.284
-689.368	113.177	0.105	-0.127
-688.354	-79.092	-0.041	-0.014
-687.339	-200.000	0.011	-0.295
-686.324	116.012	-0.231	-0.281
-685.310	-62.318	-0.149	-0.062
-684.295	-168.243	0.161	-0.006
-683.281	800.000	-0.030	0.097
-682.266	-145.546	-0.277	-0.025
-681.251	67.934	0.045	0.046
-680.237	166.805	0.030	0.042
-679.222	-94.978	0.238	-0.064
-678.208	92.001	-0.154	-0.172
-677.193	30.343	-0.064	0.055
-676.178	-176.502	-0.151	0.004
-675.164	-200.000	0.021	0.111
-674.149	-84.768	-0.034	0.011
-673.135	800.000	-0.036	-0.099
-672.120	800.000	-0.060	-0.179
-671.105	-75.168	0.534	0.190
-670.091	-99.913	-0.116	-0.029
-669.076	-200.000	-0.030	-0.164
-668.062	419.896	0.105	-0.224
-667.047	-88.276	0.086	-0.026
-666.032	380.106	-0.045	-0.092
-665.018	207.857	0.034	-0.053
-664.003	800.000	-0.059	-0.218
-662.989	-82.963	-0.182	0.058
-661.974	800.000	0.067	-0.272
-660.959	-76.451	0.184	0.065
-659.945	-200.000	-0.035	-0.184
-658.930	445.595	0.125	-0.272
-657.916	-2.490	-0.161	-0.112
-656.901	-26.193	-0.098	0.057
-655.886	131.135	-0.094	-0.120
-654.872	-37.995	-0.436	0.231
-653.857	800.000	0.008	-0.034
-652.843	-53.414	-0.154	-0.070
-651.828	618.861	0.104	-0.260
-650.814	-120.528	0.120	-0.020
-649.799	500.087	-0.063	-0.144
-648.784	-200.000	0.013	0.071
-647.770	-41.032	0.149	-0.076
-646.755	119.998	-0.182	-0.224
-645.741	105.260	-0.116	0.137
-644.726	-39.305	0.191	0.100
-643.711	-94.522	0.216	-0.058
-642.697	-200.000	-0.013	0.329
-641.682	-54.812	0.122	-0.055
-640.668	800.000	-0.059	-0.194
-639.653	-200.000	-0.030	-0.305
-638.638	-137.451	-0.469	-0.053
-637.624	-3.608	-0.044	0.031
-636.609	800.000	-0.080	0.301
-635.595	170.293	-0.025	-0.036
-634.580	-38.264	-0.400	-0.210
-633.565	-86.696	-0.539	0.164
-632.551	-47.546	0.370	-0.179
-631.536	433.862	-0.043	-0.093
-630.522	-175.788	-0.312	0.008
-629.507	-32.094	0.259	0.144
-628.492	607.218	-0.049	0.123
-627.478	-200.000	0.046	-0.309
-626.463	-200.000	-0.001	-0.087
-625.449	-103.341	0.174	-0.041
-624.434	-84.421	0.291	0.091
-623.419	800.000	-0.086	-0.252
-622.405	94.602	0.162	-0.183
-621.390	-200.000	0.030	-0.210
-620.376	-161.635	-0.306	-0.016
-619.361	-200.000	-0.015	0.227
-618.346	162.971	0.097	0.135
-617.332	-9.606	-0.092	-0.061
-616.317	-89.229	0.174	-0.051
-615.303	-46.173	-0.330	0.162
-614.288	52.808	0.211	-0.200
-613.273	-200.000	0.065	-0.323
-612.259	-45.616	0.222	0.109
-611.244	-41.835	0.307	-0.156
-610.230	-200.000	0.051	-0.262
-609.215	161.351	-0.056	0.078
-608.201	312.182	-0.057	-0.107
-607.186	2.323	-0.274	-0.197
-606.171	-78.731	-0.179	0.061
-605.157	-64.743	-0.304	-0.122
-604.142	454.296	0.144	-0.318
-603.128	200.514	-0.118	0.180
-602.113	-200.000	0.029	0.251
-601.098	800.000	-0.104	0.389
-600.084	176.529	-0.086	0.124
-599.069	-142.839	-0.361	-0.035
-598.055	-163.632	0.380	0.018
-597.040	-35.180	0.254	-0.137
-596.025	194.034	0.137	-0.206
-595.011	-31.992	-0.019	-0.011
-593.996	800.000	-0.066	-0.185
-592.982	-39.684	0.091	0.047
-591.967	601.273	0.075	0.184
-590.952	38.519	-0.115	0.102
-589.938	-110.097	0.042	-0.009
-588.923	800.000	0.032	-0.136
-587.909	-200.000	0.003	-0.305
-586.894	-200.000	-0.054	-0.303
-585.879	61.831	-0.072	0.071
-584.865	-102.779	0.195	-0.046
-583.850	-11.516	0.242	0.158
-582.836	-117.096	-0.129	-0.023
-581.821	147.064	0.169	-0.226
-580.806	139.057	0.108	-0.141
-579.792	63.218	-0.096	-0.095
-578.777	62.099	0.110	-0.109
-577.763	180.150	0.134	-0.195
-576.748	35.293	0.167	-0.146
-575.733	238.221	-0.142	-0.233
-574.719	237.543	0.141	-0.231
-573.704	-19.930	0.125	0.077
-572.690	-69.401	-0.326	-0.124
-571.675	37.715	0.128	0.113
-570.661	-157.657	0.135	-0.008
-569.646	800.000	-0.075	-0.306
-568.631	511.960	-0.106	-0.245
-567.617	488.156	0.062	-0.142
-566.602	-155.404	0.280	0.018
-565.588	158.950	0.058	-0.080
-564.573	-200.000	-0.001	-0.075
-563.558	-68.374	-0.162	-0.062
-562.544	631.614	0.073	-0.183
-561.529	-200.000	-0.031	0.159
-560.515	49.183	0.163	-0.152
-559.500	228.352	-0.127	-0.205
-558.485	12.785	0.135	0.103
-557.471	-60.326	-0.249	-0.105
-556.456	-112.859	-0.147	0.029
-555.442	-159.306	-0.272	0.015
-554.427	220.187	0.055	-0.087
-553.412	-114.241	-0.142	-0.027
-552.398	450.705	-0.104	0.228
-551.383	-131.524	0.426	-0.056
-550.369	37.177	-0.304	0.267
-549.354	785.680	-0.064	-0.174
-548.339	14.372	-0.153	-0.118
-547.325	174.052	0.034	-0.048
-546.310	11.077	0.224	0.170
-545.296	39.493	0.119	0.106
-544.281	-162.632	-0.188	-0.009
-543.266	-115.719	0.193	-0.036
-542.252	-119.404	-0.357	0.061
-541.237	800.000	0.078	-0.214
-540.223	12.163	-0.284	0.217
-539.208	360.271	0.023	-0.046
-538.193	-170.812	-0.156	-0.005
-537.179	631.016	-0.028	-0.071
-536.164	8.379	0.166	-0.124
-535.150	-71.998	0.175	-0.065
-534.135	139.452	-0.180	-0.234
-533.121	60.752	0.197	-0.194
-532.106	-73.208	-0.085	-0.031
-531.091	-200.000	-0.042	0.295
-530.077	-114.132	0.180	-0.034
-529.062	800.000	-0.035	0.111
-528.048	800.000	0.079	0.276
-527.033	254.826	0.043	0.073
-526.018	800.000	0.062	0.265
-525.004	92.858	0.222	0.248
-523.989	-200.000	0.047	0.216
-522.975	-150.738	-0.168	0.013
-521.960	-65.804	0.149	-0.059
-520.945	531.067	0.049	-0.114
-519.931	-115.452	0.161	-0.030
-518.916	-200.000	-0.005	-0.059
-517.902	273.997	0.131	-0.229
-516.887	-200.000	-0.006	-0.181
-515.872	307.998	0.106	-0.195
-514.858	-15.502	0.198	0.125
-513.843	-60.054	-0.223	0.094
-512.829	420.150	-0.138	0.292
-511.814	-81.704	0.137	0.045
-510.799	23.297	-0.157	0.128
-509.785	323.768	0.141	-0.266
-508.770	315.561	-0.065	-0.121
-507.756	-10.701	0.129	-0.084
-506.741	-64.282	0.115	-0.046
-505.726	33.085	-0.016	-0.014
-504.712	10.233	-0.410	0.309
-503.697	-78.554	0.203	0.069
-502.683	-200.000	0.003	-0.199
-501.668	-200.000	0.030	-0.206
-500.653	262.094	0.073	-0.125
-499.639	-200.000	-0.025	0.182
-498.624	283.047	-0.114	0.202
-497.610	44.730	-0.209	-0.190
-496.595	-19.133	0.076	-0.047
-495.581	-43.725	0.099	0.050
-494.566	-126.315	-0.428	0.063
-493.551	-137.172	0.145	0.016
-492.537	-104.118	-0.252	-0.058
-491.522	574.205	-0.027	0.065
-490.508	45.571	-0.223	0.204
-489.493	313.015	0.088	0.163
-488.478	-200.000	-0.002	0.075
-487.464	-198.394	-0.240	0.001
-486.449	-107.143	-0.085	0.019
-485.435	57.576	0.151	0.146
-484.420	33.227	0.168	-0.144
-483.405	41.111	0.164	0.147
-482.391	171.596	0.108	0.153
-481.376	-200.000	0.071	0.381
-480.362	800.000	0.024	0.081
-479.347	-41.425	-0.216	-0.110
-478.332	-154.496	0.150	0.010
-477.318	-151.210	-0.109	0.008
-476.303	284.982	0.124	0.221
-475.289	-28.702	0.222	0.126
-474.274	-200.000	0.017	-0.100
-473.259	-200.000	-0.009	-0.221
-472.245	75.467	-0.161	-0.167
-471.230	-96.840	-0.205	-0.053
-470.216	257.533	0.037	0.063
-469.201	-68.614	0.252	-0.096
-468.186	415.861	0.118	-0.248
-467.172	-30.594	0.184	0.103
-466.157	433.666	-0.044	-0.094
-465.143	-107.682	-0.187	-0.040
-464.128	-200.000	-0.034	0.252
-463.113	415.880	-0.077	0.161
-462.099	-200.000	-0.066	-0.353
-461.084	155.331	0.095	-0.130
-460.070	-36.905	0.145	0.077
-459.055	57.856	-0.141	0.136
-458.040	277.210	0.091	0.160
-457.026	-73.134	-0.353	-0.128
-456.011	-200.000	-0.070	0.414
-454.997	58.728	-0.081	-0.078
-453.982	401.477	0.108	0.225
-452.968	-14.140	0.316	0.201
-451.953	-200.000	0.018	0.115
-450.938	-50.321	0.049	-0.023
-449.924	16.892	-0.135	-0.105
-448.909	-199.084	0.190	-0.001
-447.895	6.042	0.037	0.027
-446.880	36.847	0.301	-0.263
-445.865	68.743	-0.062	0.063
-444.851	-87.498	-0.264	0.079
-443.836	-21.012	-0.066	0.040
-442.822	-68.101	0.570	0.219
-441.807	-91.451	-0.068	0.019
-440.792	159.356	0.167	-0.229
-439.778	-165.927	-0.232	-0.010
-438.763	113.737	0.040	0.048
-437.749	438.308	0.116	-0.250
-436.734	13.631	0.146	0.112
-435.719	800.000	-0.039	0.167
-434.705	800.000	0.039	0.127
-433.690	-134.787	0.165	0.020
-432.676	-31.069	-0.251	0.140
-431.661	77.557	0.195	0.205
-430.646	-56.422	-0.280	-0.122
-429.632	26.220	0.241	-0.198
-428.617	-158.841	-0.056	0.003
-427.603	-3.663	0.218	0.150
-426.588	74.364	0.205	-0.213
-425.573	-18.243	0.122	0.076
-424.559	574.012	-0.016	0.038
-423.544	-159.151	-0.203	0.011
-422.530	-84.814	-0.232	0.072
-421.515	-57.910	0.304	-0.131
-420.500	242.328	-0.171	-0.283
-419.486	-59.715	0.070	-0.030
-418.471	-60.221	0.207	0.087
-417.457	-105.893	0.177	-0.039
-416.442	-88.287	0.164	0.048
-415.428	-52.773	-0.118	0.054
-414.413	-22.479	-0.118	-0.070
-413.398	-200.000	-0.003	-0.021
-412.384	-166.053	-0.174	0.007
-411.369	392.977	0.155	0.317
-410.355	-8.087	0.294	0.195
-409.340	800.000	0.031	-0.107
-408.325	159.500	-0.166	-0.227
-407.311	-58.296	-0.484	0.207
-406.296	800.000	-0.041	-0.118
-405.282	-175.569	-0.345	0.009
-404.267	-56.505	-0.160	0.070
-403.252	266.042	0.198	0.341
-402.238	-90.088	0.140	0.040
-401.223	-125.701	-0.172	-0.026
-400.209	-200.000	0.026	0.165
-399.194	349.790	0.239	-0.464
-398.179	-140.797	-0.145	0.015
-397.165	-200.000	-0.009	0.123
-396.150	52.995	-0.096	0.090
-395.136	-200.000	0.010	-0.108
-394.121	19.757	-0.103	0.081
-393.106	400.505	0.050	-0.104
-392.092	526.530	-0.050	-0.115
-391.077	432.192	-0.031	-0.067
-390.063	357.824	-0.134	0.263
-389.048	-92.883	-0.209	0.058
-388.033	-133.770	0.258	0.032
-387.019	-200.000	-0.047	-0.255
-386.004	176.364	0.180	0.258
-384.990	-136.538	0.170	0.019
-383.975	800.000	-0.034	0.112
-382.960	375.010	0.056	-0.112
-381.946	48.861	0.193	-0.178
-380.931	-11.162	-0.235	0.153
-379.917	-11.468	-0.178	0.115
-378.902	-97.473	0.201	0.051
-377.888	21.881	-0.334	-0.268
-376.873	800.000	-0.088	-0.264
-375.858	47.788	0.102	-0.094
-374.844	115.958	-0.117	0.141
-373.829	-200.000	-0.004	-0.464
-372.815	-146.281	-0.120	0.010
-371.800	-103.254	-0.135	-0.031
-370.785	380.127	0.046	0.094
-369.771	-8.548	-0.173	-0.114
-368.756	578.231	-0.159	0.382
-367.742	-200.000	-0.002	0.165
-366.727	-36.978	-0.302	-0.159
-365.712	800.000	-0.025	0.076
-364.698	77.101	-0.178	-0.186
-363.683	-11.601	0.196	0.127
-362.669	406.471	0.119	0.246
-361.654	55.627	0.286	-0.272
-360.639	-101.088	-0.127	-0.031
-359.625	176.539	0.135	-0.194
-358.610	800.000	0.058	-0.194
-357.596	-200.000	-0.022	0.105
-356.581	-53.119	-0.053	0.024
-355.566	33.929	0.027	0.023
-354.552	-200.000	-0.006	0.475
-353.537	-104.925	-0.350	0.079
-352.523	-200.000	0.001	0.309
-351.508	437.474	0.163	-0.350
-350.493	-200.000	-0.006	-0.046
-349.479	-200.000	-0.008	0.120
-348.464	-8.529	-0.065	0.043
-347.450	-46.512	-0.192	-0.092
-346.435	0.248	-0.231	-0.162
-345.420	-7.980	-0.120	0.080
-344.406	-26.357	-0.207	0.120
-343.391	-200.000	-0.011	-0.079
-342.377	113.870	0.004	0.005
-341.362	-4.529	-0.381	0.259
-340.348	800.000	-0.038	0.156
-339.333	-200.000	-0.016	0.104
-338.318	-40.295	-0.288	0.147
-337.304	-126.053	0.130	-0.019
-336.289	-200.000	-0.033	0.267
-335.275	-200.000	-0.012	0.082
-334.260	132.759	0.152	-0.192
-333.245	800.000	0.097	0.333
-332.231	-112.401	-0.303	-0.060
-331.216	-36.873	-0.042	-0.022
-330.202	-143.840	-0.166	-0.015
-329.187	189.924	0.146	0.215
-328.172	-200.000	0.019	0.315
-327.158	-87.547	0.477	-0.142
-326.143	-200.000	-0.034	-0.188
-325.129	9.870	-0.255	-0.190
-324.114	-115.832	-0.387	0.071
-323.099	236.093	-0.132	0.215
-322.085	-122.223	0.124	0.020
-321.070	-46.534	-0.189	-0.091
-320.056	-76.139	0.136	-0.047
-319.041	-4.609	-0.270	0.183
-318.026	-200.000	0.074	-0.321
-317.012	-200.000	0.002	-0.112
-315.997	-50.269	0.283	-0.132
-314.983	-200.000	-0.002	0.154
-313.968	81.827	0.098	0.104
-312.953	24.214	-0.290	0.235
-311.939	32.628	-0.156	0.132
-310.924	-156.667	0.660	0.040
-309.910	42.251	0.060	-0.053
-308.895	-48.313	0.198	0.094
-307.880	88.696	-0.150	0.164
-306.866	45.322	-0.046	-0.042
-305.851	391.250	0.017	-0.034
-304.837	132.115	-0.208	0.263
-303.822	-133.980	-0.368	0.045
-302.807	270.451	-0.174	-0.300
-301.793	-200.000	0.013	-0.241
-300.778	-78.837	0.461	-0.154
-299.764	-11.940	0.094	0.061
-298.749	-200.000	0.010	-0.232
-297.735	-200.000	0.018	-0.112
-296.720	792.402	0.100	0.271
-295.705	261.434	0.171	-0.290
-294.691	800.000	-0.139	-0.397
-293.676	442.119	0.056	0.119
-292.662	-35.427	-0.218	0.116
-291.647	-159.925	0.437	0.023
-290.632	31.422	0.067	0.056
-289.618	92.688	-0.217	-0.240
-288.603	516.939	0.111	-0.254
-287.589	-16.707	0.240	0.149
-286.574	22.380	0.179	0.144
-285.559	-123.808	-0.077	0.012
-284.545	-144.357	0.216	-0.020
-283.530	53.892	-0.094	0.089
-282.516	545.247	0.132	-0.310
-281.501	-105.921	0.207	-0.046
-280.486	5.420	-0.291	-0.211
-279.472	800.000	0.092	-0.383
-278.457	30.516	0.157	0.132
-277.443	800.000	-0.100	0.367
-276.428	-7.149	0.276	-0.183
-275.413	-121.549	-0.342	0.056
-274.399	-200.000	-0.019	0.095
-273.384	-200.000	-0.089	0.500
-272.370	-200.000	0.000	-0.031
-271.355	-73.540	-0.195	-0.070
-270.340	-63.010	0.453	0.183
-269.326	-47.836	0.189	-0.090
-268.311	-200.000	-0.059	-0.311
-267.297	385.359	-0.068	0.138
-266.282	0.513	0.190	0.133
-265.267	61.329	-0.049	0.048
-264.253	440.077	-0.022	0.046
-263.238	103.915	0.110	-0.127
-262.224	-157.371	-0.095	-0.006
-261.209	101.255	-0.108	0.123
-260.195	-77.091	-0.406	-0.139
-259.180	-146.498	0.266	0.023
-258.165	800.000	-0.088	-0.292
-257.151	469.531	0.122	-0.267
-256.136	292.976	-0.181	-0.324
-255.122	-80.296	0.326	-0.107
-254.107	-78.468	0.315	-0.106
-253.092	105.340	0.065	0.075
-252.078	2.205	0.366	0.259
-251.063	-200.000	-0.036	0.168
-250.049	40.558	-0.129	-0.114
-249.034	-34.622	-0.255	-0.136
-248.019	40.471	0.239	0.211
-247.005	62.317	-0.176	-0.172
-245.990	-173.040	0.058	-0.002
-244.976	117.795	0.136	0.164
-243.961	-10.924	0.099	-0.064
-242.946	-85.738	0.073	-0.022
-241.932	800.000	0.141	0.458
-240.917	35.680	-0.133	0.115
-239.903	159.412	-0.085	0.116
-238.888	800.000	-0.033	0.117
-237.873	307.351	-0.280	0.511
-236.859	-200.000	0.010	-0.075
-235.844	564.675	-0.139	0.330
-234.830	272.058	-0.088	-0.152
-233.815	165.026	0.179	-0.247
-232.800	-23.928	0.300	-0.176
-231.786	-200.000	0.010	0.108
-230.771	800.000	-0.066	0.180
-229.757	800.000	0.040	0.124
-228.742	536.739	0.117	-0.271
-227.727	-130.486	-0.145	0.019
-226.713	-10.308	0.018	0.012
-225.698	800.000	-0.100	0.291
-224.684	342.662	0.167	-0.320
-223.669	-200.000	-0.012	0.283
-222.655	800.000	0.110	0.380
-221.640	-107.414	0.140	0.030
-220.625	90.624	-0.125	0.137
-219.611	-200.000	0.003	-0.055
-218.596	6.931	-0.161	-0.117
-217.582	-2.617	0.146	-0.100
-216.567	-149.646	0.440	-0.034
-215.552	87.021	0.114	-0.124
-214.538	800.000	-0.099	0.385
-213.523	-64.519	0.176	0.070
-212.509	189.743	0.027	0.039
-211.494	-63.346	0.259	-0.104
-210.479	696.154	-0.087	0.224
-209.465	7.942	-0.408	0.299
-208.450	-200.000	0.012	0.056
-207.436	-44.955	-0.090	0.044
-206.421	-74.255	0.124	-0.044
-205.406	306.948	0.265	0.483
-204.392	772.942	-0.111	-0.296
-203.377	-200.000	-0.078	0.371
-202.363	-74.932	-0.064	-0.023
-201.348	84.867	-0.118	-0.127
-200.333	-163.650	-0.277	-0.013
-199.319	34.587	-0.108	0.092
-198.304	-26.933	0.292	-0.167
-197.290	493.597	-0.062	0.140
-196.275	476.221	-0.070	0.155
-195.260	-200.000	-0.103	0.510
-194.246	-37.345	-0.106	0.055
-193.231	179.585	0.040	-0.058
-192.217	-200.000	0.001	-0.535
-191.202	70.301	0.220	-0.222
-190.187	800.000	-0.055	0.158
-189.173	241.056	-0.094	0.153
-188.158	800.000	-0.149	-0.409
-187.144	315.437	0.101	-0.187
-186.129	-71.901	-0.180	-0.065
-185.114	-7.552	0.388	-0.257
-184.100	-38.732	0.211	0.109
-183.085	31.656	-0.113	0.095
-182.071	-16.069	0.208	-0.129
-181.056	-9.088	-0.117	0.076
-180.042	-200.000	0.025	-0.371
-179.027	-167.280	0.105	-0.004
-178.012	19.629	-0.115	0.091
-176.998	63.912	-0.206	-0.202
-175.983	-53.118	0.162	-0.073
-174.969	-83.193	0.237	0.074
-173.954	245.793	-0.120	0.198
-172.939	-144.828	-0.310	-0.028
-171.925	9.210	0.073	0.054
-170.910	50.214	-0.005	-0.004
-169.896	152.604	0.130	0.174
-168.881	11.175	0.188	-0.140
-167.866	410.800	0.037	0.076
-166.852	287.277	-0.166	0.293
-165.837	-200.000	0.012	0.159
-164.823	21.339	0.108	0.086
-163.808	12.919	0.293	0.221
-162.793	-108.583	-0.318	-0.067
-161.779	-41.754	0.130	-0.065
-160.764	-200.000	0.050	-0.451
-159.750	282.699	-0.233	0.409
-158.735	167.628	-0.217	-0.302
-157.720	25.211	0.042	0.034
-156.706	103.668	-0.363	0.416
-155.691	150.605	-0.029	0.038
-154.677	-86.532	-0.123	-0.037
-153.662	-200.000	-0.047	-0.275
-152.647	1.214	-0.276	-0.193
-151.633	-31.231	0.268	-0.147
-150.618	-11.712	0.140	-0.090
-149.604	-118.394	0.226	0.039
-148.589	67.209	-0.142	0.141
-147.574	-57.322	0.094	0.040
-146.560	6.788	0.102	0.074
-145.545	486.455	-0.034	-0.076
-144.531	-109.136	-0.172	-0.036
-143.516	333.664	-0.096	-0.181
-142.502	800.000	0.136	0.471
-141.487	-32.476	-0.033	0.018
-140.472	-65.518	0.294	0.115
-139.458	-69.903	-0.157	0.058
-138.443	-141.303	0.329	-0.033
-137.429	-51.767	0.460	0.209
-136.414	-166.706	0.251	0.010
-135.399	800.000	0.060	0.170
-134.385	68.088	0.039	0.039
-133.370	-87.322	0.144	-0.043
-132.356	233.017	-0.174	-0.279
-131.341	-87.842	0.320	0.094
-130.326	-88.627	-0.197	-0.057
-129.312	-200.000	0.008	-0.074
-128.297	-71.714	0.067	0.024
-127.283	-200.000	-0.012	-0.199
-126.268	-200.000	-0.008	-0.060
-125.253	19.597	0.354	0.277
-124.239	-63.987	-0.060	0.024
-123.224	375.369	-0.203	0.403
-122.210	141.471	0.106	-0.137
-121.195	248.165	-0.068	-0.112
-120.180	-153.795	-0.322	0.022
