DTS Sentinel unit serial number:	SN413079Multiplexer serial number:	ORYXHardware model number:	OX4-SRSoftware version number:	ORYX F/W v4.00 Oryx Data Collector v3.7.2.0data status	okinstallation	princeton_trtdifferential loss correction	single-endedforward channel	channel 2reverse channel	N/Adate	2019/09/15time	11:59:35forward acquisition time	60.00reverse acquisition time	0.00gamma	496.2192k internal	0.2315k external	0.2315temperature offset calibration	1.0019default loss term (dB/km)	0.3790temperature slope calibration	1.0000multiplexer offset coefficient	1.0000multiplexer slope coefficient	1.0000fibre end	0.00T internal ref (°C)	34.42T ext. ref 1 (°C)	5.07T ext. ref 2 (°C)	30.24length (m)	temperature (°C)	Stokes	anti-Stokes-747.200	-200.000	-0.062	-0.336
-746.185	286.975	-0.132	0.241
-745.171	-23.580	-0.048	-0.029
-744.156	437.842	-0.192	0.425
-743.142	666.432	-0.036	-0.094
-742.127	-200.000	0.023	0.113
-741.112	800.000	0.058	0.223
-740.098	800.000	-0.092	0.278
-739.083	449.372	-0.260	-0.580
-738.069	-200.000	-0.025	0.118
-737.054	-200.000	0.001	0.110
-736.039	1.742	-0.146	-0.107
-735.025	288.711	-0.048	-0.089
-734.010	759.713	-0.094	-0.259
-732.996	197.312	-0.154	0.238
-731.981	75.074	-0.125	-0.134
-730.966	-53.720	-0.370	0.171
-729.952	-91.548	-0.415	0.120
-728.937	-188.217	0.230	-0.003
-727.923	-200.000	0.052	-0.253
-726.908	-74.190	-0.100	0.037
-725.894	73.658	0.185	0.196
-724.879	696.007	0.031	0.083
-723.864	-73.165	-0.131	0.048
-722.850	-84.354	-0.281	0.090
-721.835	26.520	0.386	0.327
-720.821	-36.953	-0.232	0.126
-719.806	55.137	0.082	0.081
-718.791	32.104	0.126	-0.110
-717.777	-200.000	-0.010	0.257
-716.762	-20.752	-0.243	0.151
-715.748	138.961	0.078	0.104
-714.733	57.546	0.175	-0.173
-713.718	-110.253	-0.263	0.055
-712.704	695.883	-0.005	0.012
-711.689	-93.518	-0.254	-0.071
-710.675	254.633	-0.083	0.144
-709.660	68.135	0.188	-0.195
-708.645	34.814	0.195	-0.172
-707.631	-108.266	-0.151	0.033
-706.616	263.022	-0.046	-0.080
-705.602	312.547	-0.049	0.093
-704.587	-200.000	0.070	-0.375
-703.572	149.060	0.143	-0.196
-702.558	44.718	-0.287	-0.267
-701.543	-167.398	0.311	-0.013
-700.529	479.189	-0.108	-0.247
-699.514	-113.677	0.093	0.018
-698.499	-62.251	0.224	0.095
-697.485	108.683	-0.324	-0.391
-696.470	-200.000	-0.007	-0.108
-695.456	-43.874	-0.268	-0.136
-694.441	-200.000	0.008	0.059
-693.426	-200.000	0.012	-0.138
-692.412	90.818	0.092	0.105
-691.397	-19.036	-0.138	-0.087
-690.383	111.140	-0.100	-0.121
-689.368	48.155	0.117	0.111
-688.354	-94.075	0.132	0.037
-687.339	-27.659	-0.313	0.184
-686.324	-167.644	-0.399	0.016
-685.310	-200.000	0.028	0.184
-684.295	-25.533	-0.199	-0.119
-683.281	-53.832	-0.303	0.140
-682.266	-200.000	0.063	0.285
-681.251	-52.653	0.123	0.057
-680.237	81.274	0.121	-0.132
-679.222	76.813	0.075	-0.080
-678.208	-5.964	0.157	-0.108
-677.193	-26.412	-0.272	-0.161
-676.178	495.670	-0.039	0.091
-675.164	-200.000	0.001	-0.054
-674.149	756.169	0.110	0.300
-673.135	146.634	-0.058	0.078
-672.120	543.721	0.113	-0.272
-671.105	170.469	-0.101	-0.146
-670.091	-109.343	-0.176	-0.038
-669.076	48.232	-0.114	-0.108
-668.062	95.319	-0.144	-0.165
-667.047	34.454	0.172	0.152
-666.032	766.265	0.097	-0.267
-665.018	-19.328	0.270	0.169
-664.003	-200.000	-0.000	-0.030
-662.989	-150.597	-0.114	-0.009
-661.974	475.182	-0.022	-0.051
-660.959	-122.915	-0.381	0.062
-659.945	70.200	0.252	0.263
-658.930	-132.838	-0.097	-0.013
-657.916	-83.975	-0.250	-0.080
-656.901	-116.001	0.068	0.013
-655.886	-170.915	0.155	0.005
-654.872	111.984	0.138	0.168
-653.857	154.426	-0.202	-0.280
-652.843	-29.460	-0.111	-0.064
-651.828	-200.000	0.007	-0.089
-650.814	-123.103	0.072	0.012
-649.799	-200.000	-0.053	-0.272
-648.784	-138.810	0.242	0.027
-647.770	73.461	-0.129	-0.137
-646.755	-134.008	-0.201	-0.025
-645.741	12.435	0.104	-0.081
-644.726	-200.000	-0.000	0.021
-643.711	21.699	-0.190	0.156
-642.697	279.164	0.173	-0.311
-641.682	344.470	0.087	0.171
-640.668	800.000	-0.112	0.339
-639.653	70.812	-0.065	0.068
-638.638	-38.118	-0.130	-0.070
-637.624	73.287	-0.058	-0.061
-636.609	300.081	-0.046	-0.086
-635.595	-165.575	-0.193	0.008
-634.580	1.118	0.157	-0.114
-633.565	436.843	-0.064	0.141
-632.551	-192.142	-0.087	0.001
-631.536	800.000	-0.097	-0.322
-630.522	-4.263	0.253	0.177
-629.507	-133.747	-0.223	0.028
-628.492	136.624	-0.215	-0.283
-627.478	38.549	-0.182	-0.164
-626.463	-98.531	0.086	0.022
-625.449	-200.000	-0.047	-0.221
-624.434	469.032	0.100	0.228
-623.419	-200.000	-0.019	-0.161
-622.405	100.672	-0.184	-0.215
-621.390	-164.540	-0.343	0.016
-620.376	167.744	0.184	0.263
-619.361	-107.630	0.279	0.062
-618.346	-200.000	0.025	0.248
-617.332	738.008	0.087	-0.234
-616.317	89.803	-0.151	-0.170
-615.303	-108.658	0.190	0.041
-614.288	50.248	-0.278	-0.264
-613.273	-39.738	0.140	0.074
-612.259	-133.904	0.196	-0.025
-611.244	-200.000	0.012	0.256
-610.230	-60.989	0.242	-0.103
-609.215	-136.613	0.182	-0.021
-608.201	54.208	-0.177	0.171
-607.186	-37.333	0.256	-0.138
-606.171	-200.000	-0.044	-0.272
-605.157	662.624	-0.071	0.185
-604.142	-40.392	0.424	-0.222
-603.128	-18.111	0.262	-0.165
-602.113	800.000	-0.120	0.476
-601.098	-77.390	-0.213	0.074
-600.084	376.500	-0.125	0.256
-599.069	-200.000	-0.006	0.149
-598.055	-34.680	0.102	-0.056
-597.040	72.594	-0.098	-0.103
-596.025	-61.833	-0.141	0.060
-595.011	10.972	-0.052	-0.040
-593.996	-103.497	0.160	-0.038
-592.982	-200.000	0.030	-0.309
-591.967	-200.000	0.023	-0.176
-590.952	800.000	0.013	-0.054
-589.938	106.537	-0.261	-0.311
-588.923	800.000	-0.027	0.109
-587.909	800.000	-0.031	-0.128
-586.894	-200.000	-0.011	0.358
-585.879	258.927	-0.073	-0.127
-584.865	-72.053	0.107	0.040
-583.850	159.565	0.255	0.357
-582.836	-97.071	0.147	0.039
-581.821	260.448	0.176	0.306
-580.806	-200.000	-0.002	-0.096
-579.792	-101.846	-0.219	-0.053
-578.777	-112.170	-0.072	-0.015
-577.763	14.955	-0.117	-0.092
-576.748	720.718	-0.180	-0.482
-575.733	-89.247	-0.289	-0.086
-574.719	-200.000	0.024	0.274
-573.704	-142.542	-0.372	0.037
-572.690	-200.000	-0.029	-0.269
-571.675	176.093	-0.234	-0.341
-570.661	-200.000	0.032	-0.216
-569.646	-200.000	-0.013	0.192
-568.631	-40.244	-0.254	-0.133
-567.617	-63.579	0.165	0.068
-566.602	-200.000	-0.016	-0.188
-565.588	-168.536	-0.350	0.013
-564.573	-46.116	-0.239	0.119
-563.558	710.274	-0.062	0.166
-562.544	738.899	0.098	0.263
-561.529	82.885	-0.057	-0.062
-560.515	-200.000	-0.009	0.160
-559.500	267.203	-0.090	-0.158
-558.485	379.021	-0.091	0.187
-557.471	-120.153	-0.278	0.048
-556.456	800.000	-0.024	-0.093
-555.442	-200.000	-0.038	-0.266
-554.427	-61.924	-0.368	-0.155
-553.412	40.231	0.076	0.069
-552.398	160.212	-0.117	0.164
-551.383	6.399	-0.051	0.038
-550.369	-44.395	-0.351	0.177
-549.354	-200.000	0.018	0.173
-548.339	800.000	-0.066	0.272
-547.325	-200.000	0.014	0.415
-546.310	-190.625	-0.082	-0.001
-545.296	60.512	0.244	0.243
-544.281	-74.849	-0.150	-0.054
-543.266	-36.182	-0.092	0.050
-542.252	332.063	-0.029	-0.056
-541.237	800.000	-0.093	-0.267
-540.223	-32.059	-0.063	0.035
-539.208	-3.558	-0.253	0.177
-538.193	-15.820	0.344	-0.220
-537.179	-200.000	0.060	0.272
-536.164	-37.935	0.057	0.031
-535.150	79.059	-0.153	-0.165
-534.135	-83.995	0.128	0.041
-533.121	392.109	0.103	0.214
-532.106	-200.000	0.007	-0.361
-531.091	-91.025	-0.042	0.012
-530.077	-101.633	-0.383	-0.094
-529.062	591.666	-0.090	0.223
-528.048	-40.323	-0.118	0.062
-527.033	422.084	0.047	0.101
-526.018	230.250	-0.070	-0.114
-525.004	-153.941	-0.270	0.018
-523.989	-200.000	0.006	-0.130
-522.975	556.726	0.078	0.188
-521.960	-200.000	0.005	-0.091
-520.945	13.922	0.170	-0.133
-519.931	-200.000	0.054	-0.264
-518.916	-200.000	-0.015	0.498
-517.902	-84.358	-0.086	0.027
-516.887	353.653	0.150	-0.298
-515.872	-24.462	-0.111	-0.066
-514.858	529.052	0.055	0.130
-513.843	11.806	0.124	-0.096
-512.829	-200.000	0.030	0.343
-511.814	-84.139	-0.316	0.101
-510.799	-54.490	-0.115	0.052
-509.785	800.000	0.055	-0.158
-508.770	30.022	0.084	-0.072
-507.756	381.909	-0.136	-0.281
-506.741	85.621	-0.174	-0.191
-505.726	137.261	0.160	0.210
-504.712	-82.657	0.155	-0.050
-503.697	-116.013	-0.129	-0.024
-502.683	1.311	-0.146	-0.105
-501.668	800.000	0.043	0.175
-500.653	112.125	0.177	0.214
-499.639	-200.000	-0.029	0.152
-498.624	30.847	-0.116	-0.100
-497.610	-91.921	-0.315	-0.090
-496.595	-200.000	-0.001	0.105
-495.581	171.309	0.120	-0.173
-494.566	-131.193	-0.133	0.018
-493.551	95.560	0.134	0.153
-492.537	77.598	0.060	-0.064
-491.522	-200.000	0.060	-0.267
-490.508	57.908	0.149	0.146
-489.493	-81.202	-0.260	0.086
-488.478	800.000	-0.018	-0.058
-487.464	-200.000	0.052	0.255
-486.449	165.625	0.091	-0.128
-485.435	128.457	0.092	-0.118
-484.420	800.000	-0.022	0.065
-483.405	54.276	-0.101	-0.097
-482.391	-175.958	0.286	-0.008
-481.376	130.390	0.075	0.096
-480.362	-138.078	-0.069	0.008
-479.347	-200.000	0.027	0.348
-478.332	-43.875	0.076	0.038
-477.318	230.919	-0.242	0.397
-476.303	448.944	0.107	-0.236
-475.289	545.589	-0.194	0.465
-474.274	-200.000	0.033	0.210
-473.259	800.000	0.068	0.295
-472.245	51.085	-0.076	-0.072
-471.230	42.660	-0.305	-0.278
-470.216	-200.000	0.010	-0.297
-469.201	800.000	-0.105	-0.308
-468.186	272.955	-0.109	-0.194
-467.172	-103.017	-0.062	-0.015
-466.157	-200.000	-0.024	0.318
-465.143	-88.290	0.180	-0.054
-464.128	-137.899	-0.063	-0.007
-463.113	-200.000	-0.437	0.000
-462.099	-75.048	0.028	-0.010
-461.084	104.024	-0.170	0.200
-460.070	-128.356	0.081	0.012
-459.055	-200.000	0.017	-0.175
-458.040	73.119	-0.222	0.233
-457.026	-95.068	-0.500	-0.135
-456.011	-31.324	-0.091	-0.051
-454.997	-119.346	-0.133	0.023
-453.982	-103.460	-0.305	-0.072
-452.968	183.726	0.106	0.157
-451.953	-200.000	0.039	-0.280
-450.938	-200.000	0.011	-0.169
-449.924	-56.377	0.201	0.089
-448.909	95.047	0.149	-0.170
-447.895	-0.367	0.188	-0.134
-446.880	-44.585	0.256	-0.128
-445.865	-93.359	0.223	0.062
-444.851	117.205	-0.106	-0.131
-443.836	-200.000	-0.082	-0.536
-442.822	-126.105	0.256	-0.038
-441.807	20.931	-0.366	-0.297
-440.792	379.144	-0.104	0.214
-439.778	800.000	-0.062	0.204
-438.763	-130.249	-0.040	-0.005
-437.749	-61.248	-0.296	0.125
-436.734	-70.900	-0.267	-0.101
-435.719	215.932	0.218	-0.347
-434.705	-137.377	-0.273	-0.031
-433.690	-200.000	0.006	-0.206
-432.676	269.352	0.139	0.244
-431.661	-138.414	0.134	0.015
-430.646	445.743	-0.143	0.315
-429.632	-7.583	-0.078	-0.053
-428.617	23.056	0.175	-0.144
-427.603	291.995	-0.030	-0.056
-426.588	-69.632	-0.156	-0.060
-425.573	0.780	-0.081	0.058
-424.559	338.296	0.237	0.461
-423.544	-145.918	0.370	-0.033
-422.530	-200.000	-0.005	-0.114
-421.515	-133.706	-0.129	-0.016
-420.500	-53.866	-0.009	-0.004
-419.486	-200.000	-0.004	-0.159
-418.471	-123.106	0.158	-0.025
-417.457	-101.711	-0.075	-0.018
-416.442	-94.554	-0.095	-0.026
-415.428	-200.000	-0.025	-0.174
-414.413	800.000	-0.041	0.144
-413.398	8.814	0.091	-0.068
-412.384	105.805	-0.181	-0.214
-411.369	558.801	-0.166	0.400
-410.355	30.243	-0.193	0.165
-409.340	-200.000	0.001	0.086
-408.325	-97.536	0.192	0.050
-407.311	-169.527	0.217	-0.008
-406.296	-163.636	-0.188	-0.009
-405.282	-42.486	-0.161	-0.082
-404.267	121.768	0.101	0.126
-403.252	99.049	0.104	-0.120
-402.238	21.566	0.090	0.074
-401.223	102.796	-0.140	0.164
-400.209	-52.400	-0.226	-0.104
-399.194	304.559	-0.303	-0.562
-398.179	311.845	0.119	0.222
-397.165	3.372	0.371	0.270
-396.150	159.185	-0.067	0.093
-395.136	107.720	0.026	0.031
-394.121	100.616	0.085	0.099
-393.106	-63.402	0.160	-0.066
-392.092	416.456	0.110	-0.235
-391.077	-50.949	0.359	0.169
-390.063	-11.688	0.353	0.232
-389.048	157.989	0.165	-0.229
-388.033	-144.191	0.218	0.020
-387.019	52.402	-0.264	0.252
-386.004	-145.144	0.338	-0.031
-384.990	-99.875	0.168	0.042
-383.975	-74.518	0.091	0.033
-382.960	-138.575	0.397	-0.043
-381.946	451.816	0.020	-0.045
-380.931	-59.453	0.417	0.179
-379.917	-200.000	0.044	0.450
-378.902	109.810	-0.101	-0.121
-377.888	53.351	-0.235	0.225
-376.873	196.890	-0.140	0.213
-375.858	800.000	-0.059	0.205
-374.844	800.000	-0.043	-0.130
-373.829	800.000	-0.017	-0.071
-372.815	447.271	-0.084	-0.184
-371.800	-191.004	0.213	-0.002
-370.785	-6.117	0.131	-0.089
-369.771	273.504	0.140	0.247
-368.756	445.419	-0.134	-0.293
-367.742	-200.000	0.038	-0.185
-366.727	61.019	-0.211	0.209
-365.712	-200.000	0.008	-0.105
-364.698	-100.467	-0.401	0.099
-363.683	-200.000	-0.043	0.208
-362.669	-135.024	0.252	0.030
-361.654	-152.352	0.200	-0.014
-360.639	-200.000	0.031	0.254
-359.625	-8.167	-0.309	0.208
-358.610	114.146	0.125	0.152
-357.596	-78.060	0.186	-0.064
-356.581	-200.000	0.065	-0.287
-355.566	-200.000	0.035	-0.303
-354.552	74.175	-0.291	-0.305
-353.537	-118.067	0.189	-0.034
-352.523	198.865	-0.106	0.161
-351.508	800.000	0.046	-0.184
-350.493	-94.124	-0.023	-0.006
-349.479	-200.000	-0.027	0.127
-348.464	10.951	0.168	0.128
-347.450	-110.205	-0.113	-0.023
-346.435	800.000	-0.070	0.216
-345.420	7.203	0.100	-0.075
-344.406	-200.000	0.006	-0.157
-343.391	800.000	-0.021	0.080
-342.377	283.905	-0.073	-0.131
-341.362	-95.842	0.291	-0.078
-340.348	-113.472	-0.400	0.078
-339.333	-184.853	-0.216	0.003
-338.318	24.677	0.254	-0.210
-337.304	-2.962	-0.210	0.146
-336.289	-38.965	0.035	0.018
-335.275	-95.516	-0.244	0.065
-334.260	732.959	0.023	-0.062
-333.245	-53.523	0.567	0.259
-332.231	780.547	-0.020	-0.055
-331.216	-52.938	0.161	-0.074
-330.202	-104.958	-0.159	0.036
-329.187	-101.816	-0.096	-0.023
-328.172	87.300	-0.098	-0.108
-327.158	-200.000	-0.009	-0.187
-326.143	800.000	0.047	-0.132
-325.129	232.412	-0.166	0.272
-324.114	40.492	0.100	0.090
-323.099	-142.232	0.225	-0.022
-322.085	20.995	0.195	0.158
-321.070	-136.757	0.174	0.020
-320.056	160.583	-0.110	0.153
-319.041	44.425	0.140	0.128
-318.026	-62.339	0.020	0.008
-317.012	-45.030	0.233	0.116
-315.997	-4.384	0.230	-0.159
-314.983	-109.892	0.216	0.045
-313.968	398.551	0.099	-0.206
-312.953	609.821	-0.095	0.237
-311.939	-9.288	0.069	0.046
-310.924	-12.868	0.136	0.088
-309.910	-200.000	-0.033	0.221
-308.895	-130.276	0.131	-0.018
-307.880	-9.760	0.265	0.176
-306.866	800.000	0.045	-0.171
-305.851	194.507	-0.058	0.087
-304.837	162.946	0.134	0.187
-303.822	79.626	-0.043	-0.046
-302.807	800.000	0.063	-0.183
-301.793	-74.578	-0.365	0.131
-300.778	-77.138	-0.081	-0.028
-299.764	183.336	-0.030	-0.044
-298.749	-97.977	0.136	-0.035
-297.735	7.989	0.166	-0.124
-296.720	692.484	-0.052	-0.135
-295.705	2.092	0.113	-0.081
-294.691	93.142	-0.206	-0.232
-293.676	66.931	-0.161	0.163
-292.662	-113.497	0.261	0.051
-291.647	219.970	0.147	0.234
-290.632	-15.980	0.218	-0.138
-289.618	-200.000	0.006	0.207
-288.603	-130.397	0.174	-0.023
-287.589	-153.594	0.303	-0.021
-286.574	-200.000	0.004	-0.137
-285.559	-14.791	-0.246	0.157
-284.545	-200.000	0.012	0.120
-283.530	-28.566	0.239	-0.137
-282.516	-105.660	0.204	0.046
-281.501	-200.000	-0.021	0.117
-280.486	-200.000	-0.003	-0.015
-279.472	82.454	-0.290	-0.313
-278.457	800.000	0.188	-0.537
-277.443	800.000	0.029	-0.099
-276.428	-200.000	-0.017	0.359
-275.413	800.000	-0.186	0.624
-274.399	-30.888	0.466	-0.262
-273.384	121.529	0.123	0.153
-272.370	157.317	0.153	-0.211
-271.355	91.149	-0.386	-0.431
-270.340	-89.138	0.462	0.136
-269.326	-85.935	0.197	-0.061
-268.311	6.441	-0.166	-0.123
-267.297	-60.382	0.364	-0.154
-266.282	71.572	0.118	0.122
-265.267	-29.197	0.051	-0.029
-264.253	-18.955	0.077	-0.048
-263.238	800.000	-0.067	0.256
-262.224	-38.614	-0.187	0.098
-261.209	-98.655	-0.209	0.053
-260.195	43.974	0.345	0.315
-259.180	99.244	0.094	-0.108
-258.165	431.968	-0.171	0.369
-257.151	800.000	0.075	-0.289
-256.136	-200.000	-0.047	-0.256
-255.122	-200.000	0.031	0.209
-254.107	22.793	0.108	-0.088
-253.092	-76.075	0.319	-0.112
-252.078	29.486	-0.042	-0.036
-251.063	800.000	-0.041	-0.114
-250.049	177.109	0.126	-0.182
-249.034	3.597	0.171	-0.124
-248.019	-104.157	-0.110	0.025
-247.005	-200.000	-0.021	0.141
-245.990	-130.031	-0.543	0.074
-244.976	-200.000	-0.042	-0.247
-243.961	206.119	-0.182	-0.281
-242.946	-95.128	0.116	-0.031
-241.932	-40.259	0.270	-0.140
-240.917	-200.000	-0.027	0.132
-239.903	28.465	0.209	0.176
-238.888	-148.443	0.161	-0.013
-237.873	-200.000	0.041	-0.408
-236.859	-17.865	-0.199	0.124
-235.844	16.287	-0.288	-0.226
-234.830	189.500	-0.046	0.069
-233.815	-151.325	0.322	0.024
-232.800	189.644	-0.189	-0.281
-231.786	111.928	0.077	-0.093
-230.771	-115.117	0.424	0.080
-229.757	274.005	0.139	0.245
-228.742	56.851	-0.169	-0.163
-227.727	207.593	0.091	-0.141
-226.713	-34.168	0.364	-0.199
-225.698	-95.023	0.202	-0.054
-224.684	326.783	0.087	-0.165
-223.669	-60.728	-0.175	0.074
-222.655	-109.026	-0.312	0.066
-221.640	800.000	0.110	0.333
-220.625	800.000	-0.026	0.090
-219.611	-200.000	-0.070	-0.335
-218.596	23.453	0.139	0.113
-217.582	-72.933	-0.074	0.027
-216.567	585.084	-0.109	0.266
-215.552	-39.234	-0.117	0.061
-214.538	235.358	0.092	0.151
-213.523	171.172	0.246	-0.350
-212.509	-81.034	-0.180	0.059
-211.494	90.529	0.162	0.180
-210.479	-28.754	-0.173	-0.099
-209.465	-35.318	-0.130	0.070
-208.450	-87.894	-0.229	0.068
-207.436	-44.013	0.266	-0.133
-206.421	-60.172	0.232	0.098
-205.406	164.208	-0.068	0.095
-204.392	39.494	-0.101	0.090
-203.377	-143.963	-0.135	0.013
-202.363	-200.000	0.021	-0.161
-201.348	-110.198	-0.294	0.061
-200.333	14.665	0.194	0.150
-199.319	217.300	-0.080	0.126
-198.304	-105.064	0.151	0.034
-197.290	-60.206	0.105	0.044
-196.275	-200.000	0.045	0.275
-195.260	-117.086	-0.135	-0.024
-194.246	-200.000	0.056	-0.434
-193.231	-86.514	0.212	0.065
-192.217	-48.877	-0.142	0.068
-191.202	-111.756	0.207	0.042
-190.187	-112.087	-0.111	-0.022
-189.173	-200.000	0.006	0.300
-188.158	16.509	-0.330	-0.258
-187.144	-127.504	-0.364	-0.052
-186.129	244.002	-0.057	0.094
-185.114	579.276	0.141	-0.343
-184.100	543.890	0.093	0.220
-183.085	800.000	0.041	0.147
-182.071	800.000	0.070	0.275
-181.056	241.337	-0.135	0.224
-180.042	-82.903	-0.308	-0.098
-179.027	-55.459	-0.187	-0.083
-178.012	80.781	-0.199	0.213
-176.998	710.596	0.061	0.161
-175.983	-200.000	0.051	-0.376
-174.969	123.262	-0.196	-0.243
-173.954	57.599	-0.052	-0.051
-172.939	-153.935	0.235	-0.016
-171.925	-108.041	0.476	0.102
-170.910	577.078	-0.213	0.515
-169.896	-52.019	0.114	-0.053
-168.881	-140.888	0.113	-0.012
-167.866	212.328	0.052	-0.081
-166.852	-26.062	0.225	-0.131
-165.837	19.052	0.193	0.154
-164.823	-28.211	-0.008	0.005
-163.808	-29.315	0.323	-0.183
-162.793	325.087	-0.090	-0.171
-161.779	-50.772	-0.301	-0.140
-160.764	-200.000	-0.045	0.237
-159.750	443.889	0.150	0.326
-158.735	-200.000	0.029	-0.164
-157.720	-27.878	-0.440	-0.252
-156.706	-200.000	-0.014	-0.166
-155.691	-76.280	0.276	-0.096
-154.677	-200.000	-0.034	-0.198
-153.662	-105.291	0.130	-0.029
-152.647	-106.374	-0.241	0.053
-151.633	-100.722	0.115	-0.028
-150.618	-200.000	0.029	0.130
-149.604	327.045	-0.080	-0.153
-148.589	-200.000	-0.006	0.103
-147.574	-123.409	-0.081	0.013
-146.560	189.030	0.243	-0.360
-145.545	281.206	0.021	0.036
-144.531	69.409	0.088	-0.090
-143.516	-200.000	-0.015	-0.130
-142.502	358.237	0.022	0.043
-141.487	-108.305	0.162	-0.035
-140.472	681.769	0.074	-0.191
-139.458	800.000	-0.077	-0.331
-138.443	800.000	-0.030	-0.085
-137.429	-111.714	0.156	0.031
-136.414	241.555	-0.110	-0.182
-135.399	97.790	0.189	0.215
-134.385	-123.879	0.311	-0.048
-133.370	-200.000	-0.057	-0.495
-132.356	-200.000	0.032	0.200
-131.341	184.286	0.069	-0.101
-130.326	-68.140	-0.242	0.093
-129.312	32.359	0.194	-0.165
-128.297	252.789	0.117	-0.198
-127.283	12.727	-0.150	0.115
-126.268	-200.000	-0.012	-0.118
-125.253	-27.970	-0.111	-0.064
-124.239	73.839	-0.051	-0.053
-123.224	-200.000	-0.032	0.364
-122.210	215.113	-0.226	0.354
