DTS Sentinel unit serial number:	SN413079Multiplexer serial number:	ORYXHardware model number:	OX4-SRSoftware version number:	ORYX F/W v4.00 Oryx Data Collector v3.7.2.0data status	okinstallation	princeton_trtdifferential loss correction	single-endedforward channel	channel 2reverse channel	N/Adate	2019/09/19time	00:11:35forward acquisition time	60.00reverse acquisition time	0.00gamma	496.2192k internal	0.2352k external	0.2352temperature offset calibration	1.0017default loss term (dB/km)	0.3790temperature slope calibration	1.0000multiplexer offset coefficient	1.0000multiplexer slope coefficient	1.0000fibre end	0.00T internal ref (°C)	22.86T ext. ref 1 (°C)	0.75T ext. ref 2 (°C)	15.85length (m)	temperature (°C)	Stokes	anti-Stokes-747.200	-142.317	-0.281	-0.028
-746.185	-50.457	-0.312	-0.147
-745.171	46.654	0.270	0.250
-744.156	-96.150	-0.202	0.054
-743.142	-146.973	-0.092	0.008
-742.127	800.000	-0.150	0.424
-741.112	-70.676	-0.173	0.065
-740.098	141.182	-0.222	0.293
-739.083	-200.000	-0.017	0.117
-738.069	-12.251	-0.128	0.083
-737.054	164.406	0.287	-0.403
-736.039	124.752	0.210	-0.264
-735.025	66.413	0.284	-0.288
-734.010	-200.000	-0.048	-0.221
-732.996	91.349	-0.166	-0.186
-731.981	8.063	-0.170	-0.127
-730.966	-200.000	0.009	-0.180
-729.952	101.952	-0.099	0.116
-728.937	-182.621	-0.236	-0.004
-727.923	172.495	0.185	0.265
-726.908	-97.846	-0.190	-0.049
-725.894	-200.000	0.034	0.170
-724.879	199.398	-0.096	-0.147
-723.864	-68.611	-0.201	-0.078
-722.850	800.000	-0.015	-0.054
-721.835	49.236	-0.259	0.243
-720.821	-200.000	-0.043	0.222
-719.806	-151.126	-0.084	0.006
-718.791	-56.207	-0.115	0.051
-717.777	-77.409	0.222	-0.077
-716.762	86.754	-0.073	-0.080
-715.748	-200.000	0.024	-0.111
-714.733	-40.743	0.279	0.144
-713.718	-104.908	-0.138	0.032
-712.704	-83.312	-0.221	0.071
-711.689	22.849	0.207	0.169
-710.675	-77.367	-0.060	0.021
-709.660	-36.837	0.278	-0.149
-708.645	-81.266	-0.172	-0.057
-707.631	-120.397	-0.246	0.042
-706.616	352.032	-0.058	0.115
-705.602	-118.769	-0.140	-0.025
-704.587	800.000	0.067	-0.250
-703.572	264.191	-0.143	0.248
-702.558	-102.435	-0.168	-0.040
-701.543	800.000	0.031	0.135
-700.529	-47.456	-0.149	-0.072
-699.514	-34.245	-0.246	-0.135
-698.499	394.463	-0.044	-0.092
-697.485	403.120	-0.163	-0.341
-696.470	164.520	-0.070	-0.098
-695.456	49.706	-0.176	0.165
-694.441	251.034	0.069	-0.117
-693.426	225.042	0.099	-0.159
-692.412	71.990	0.065	0.068
-691.397	333.023	-0.214	-0.412
-690.383	70.044	-0.109	-0.112
-689.368	-0.652	-0.400	0.282
-688.354	-200.000	-0.014	0.124
-687.339	-70.414	0.165	0.062
-686.324	-20.370	0.229	-0.140
-685.310	-4.603	-0.159	-0.109
-684.295	160.471	-0.033	0.046
-683.281	-11.355	-0.077	-0.050
-682.266	16.463	0.184	0.144
-681.251	-78.351	0.235	0.080
-680.237	-29.318	-0.318	-0.181
-679.222	-200.000	0.045	-0.206
-678.208	800.000	0.026	-0.078
-677.193	-131.122	-0.378	0.050
-676.178	56.892	-0.269	0.261
-675.164	-200.000	-0.005	0.023
-674.149	-200.000	-0.007	-0.102
-673.135	586.370	-0.084	0.205
-672.120	31.899	0.152	0.131
-671.105	800.000	0.018	0.058
-670.091	800.000	-0.069	0.198
-669.076	-85.035	0.171	-0.053
-668.062	497.602	-0.101	-0.232
-667.047	-64.142	-0.354	0.144
-666.032	431.670	0.102	-0.219
-665.018	218.524	0.081	0.128
-664.003	-132.548	0.181	0.023
-662.989	-135.137	0.073	-0.009
-661.974	180.159	-0.188	-0.274
-660.959	800.000	-0.043	0.150
-659.945	800.000	-0.021	-0.058
-658.930	92.756	-0.137	0.153
-657.916	180.813	-0.050	0.074
-656.901	117.195	-0.068	0.083
-655.886	-68.035	-0.264	0.102
-654.872	57.310	0.149	-0.145
-653.857	-100.354	-0.236	-0.058
-652.843	98.926	0.231	0.265
-651.828	-200.000	-0.045	-0.565
-650.814	800.000	0.032	0.092
-649.799	-27.691	-0.393	0.227
-648.784	248.865	-0.117	-0.196
-647.770	800.000	0.048	-0.167
-646.755	576.401	0.103	0.249
-645.741	-200.000	0.016	-0.168
-644.726	-35.160	-0.080	0.043
-643.711	149.206	-0.240	0.322
-642.697	-30.736	0.219	0.123
-641.682	800.000	0.017	-0.051
-640.668	-146.764	-0.362	-0.031
-639.653	-172.251	-0.294	0.009
-638.638	-79.308	0.249	0.084
-637.624	82.097	-0.153	0.165
-636.609	-165.289	-0.395	0.017
-635.595	-200.000	-0.043	-0.380
-634.580	800.000	-0.097	-0.400
-633.565	-200.000	-0.011	-0.089
-632.551	-106.185	-0.161	0.036
-631.536	-52.996	0.116	-0.053
-630.522	278.534	0.119	-0.211
-629.507	-41.203	-0.219	0.112
-628.492	-200.000	-0.000	0.168
-627.478	-200.000	-0.042	0.234
-626.463	-30.713	0.133	-0.075
-625.449	-124.188	-0.380	-0.059
-624.434	179.087	-0.064	0.093
-623.419	342.265	-0.107	0.207
-622.405	-22.375	0.182	0.109
-621.390	317.015	-0.057	-0.107
-620.376	206.464	0.114	-0.176
-619.361	-200.000	-0.045	0.223
-618.346	-200.000	0.046	0.377
-617.332	-31.869	-0.119	0.066
-616.317	27.830	-0.239	-0.200
-615.303	-200.000	-0.027	-0.153
-614.288	-200.000	-0.015	-0.125
-613.273	-200.000	0.024	-0.152
-612.259	-52.943	-0.211	0.096
-611.244	-130.938	-0.364	0.048
-610.230	576.491	0.013	0.032
-609.215	-200.000	0.005	0.121
-608.201	14.777	0.321	0.249
-607.186	-200.000	0.031	-0.268
-606.171	-90.664	-0.163	0.047
-605.157	-15.323	0.050	0.031
-604.142	367.987	-0.064	-0.128
-603.128	-91.170	0.262	-0.075
-602.113	800.000	-0.009	0.036
-601.098	-153.058	-0.183	-0.013
-600.084	-31.395	0.109	0.061
-599.069	568.503	-0.054	-0.131
-598.055	15.739	0.099	-0.077
-597.040	-200.000	-0.010	0.112
-596.025	98.652	0.073	0.084
-595.011	0.082	0.142	-0.100
-593.996	-200.000	0.018	-0.224
-592.982	28.289	-0.173	0.145
-591.967	42.101	-0.165	-0.149
-590.952	-56.839	-0.187	-0.082
-589.938	-41.750	-0.077	-0.039
-588.923	130.131	-0.079	-0.100
-587.909	114.873	-0.099	0.120
-586.894	-78.721	0.381	-0.129
-585.879	-101.670	0.275	0.066
-584.865	800.000	-0.048	0.164
-583.850	104.441	0.162	-0.189
-582.836	79.759	-0.042	-0.044
-581.821	202.074	-0.208	-0.318
-580.806	508.098	0.243	0.559
-579.792	-132.020	0.313	0.040
-578.777	-5.488	0.295	0.200
-577.763	-128.243	0.144	-0.020
-576.748	-115.767	0.292	-0.054
-575.733	-43.025	-0.177	-0.089
-574.719	-102.742	-0.165	-0.039
-573.704	292.962	0.020	0.036
-572.690	213.221	-0.026	0.041
-571.675	48.345	-0.119	0.111
-570.661	404.191	-0.127	0.266
-569.646	-7.568	0.211	0.141
-568.631	23.237	-0.114	-0.093
-567.617	-71.345	0.377	-0.140
-566.602	-200.000	0.027	-0.178
-565.588	96.629	-0.123	0.140
-564.573	-79.263	0.133	-0.045
-563.558	-127.913	-0.167	-0.024
-562.544	-161.042	0.312	0.016
-561.529	-73.204	-0.461	0.167
-560.515	94.507	0.049	-0.055
-559.500	-144.471	0.345	0.032
-558.485	-94.129	-0.046	0.012
-557.471	624.065	0.114	-0.285
-556.456	-200.000	-0.000	0.057
-555.442	-30.096	-0.105	-0.059
-554.427	164.477	-0.042	-0.058
-553.412	254.355	-0.132	-0.224
-552.398	350.669	0.151	-0.296
-551.383	-107.470	0.185	-0.040
-550.369	-118.680	0.109	0.019
-549.354	-200.000	0.073	-0.345
-548.339	17.609	0.310	0.244
-547.325	-118.200	-0.217	-0.038
-546.310	-14.933	0.186	-0.118
-545.296	24.125	0.134	-0.110
-544.281	-200.000	-0.066	0.356
-543.266	-41.524	0.382	0.194
-542.252	33.094	0.158	0.135
-541.237	-3.154	0.357	-0.247
-540.223	-1.830	-0.179	-0.124
-539.208	-139.143	-0.224	0.024
-538.193	-64.619	-0.302	0.121
-537.179	268.382	-0.144	0.250
-536.164	-200.000	-0.031	-0.197
-535.150	-49.585	-0.225	0.106
-534.135	-30.617	0.351	-0.197
-533.121	-67.388	-0.121	0.047
-532.106	312.647	-0.077	0.143
-531.091	800.000	-0.065	0.219
-530.077	725.575	-0.110	-0.289
-529.062	-44.142	-0.141	-0.070
-528.048	-200.000	0.258	-0.001
-527.033	-93.795	-0.157	0.043
-526.018	52.515	-0.173	-0.163
-525.004	-108.244	-0.221	-0.047
-523.989	-121.538	-0.135	0.022
-522.975	-200.000	0.020	0.218
-521.960	161.170	0.100	-0.138
-520.945	-200.000	0.004	0.144
-519.931	-200.000	0.005	0.050
-518.916	-22.293	0.104	-0.062
-517.902	-200.000	0.011	0.177
-516.887	-128.208	0.202	-0.029
-515.872	-17.716	0.216	0.134
-514.858	-96.360	-0.358	-0.094
-513.843	-50.442	0.092	0.043
-512.829	-200.000	-0.006	-0.358
-511.814	-88.162	0.207	0.061
-510.799	198.634	-0.153	0.232
-509.785	-200.000	0.011	-0.168
-508.770	-200.000	0.010	-0.070
-507.756	365.243	0.041	-0.082
-506.741	210.198	-0.215	0.334
-505.726	-83.771	0.195	-0.061
-504.712	-200.000	0.027	0.318
-503.697	240.601	-0.106	0.175
-502.683	47.811	-0.066	0.061
-501.668	-120.980	0.430	-0.071
-500.653	-156.345	-0.109	-0.007
-499.639	-200.000	-0.016	-0.191
-498.624	-43.557	-0.145	-0.072
-497.610	46.363	0.221	0.203
-496.595	263.694	0.138	-0.236
-495.581	-123.011	0.122	-0.019
-494.566	800.000	0.063	-0.253
-493.551	-29.277	0.148	-0.084
-492.537	-200.000	-0.033	-0.198
-491.522	-111.642	0.211	0.042
-490.508	800.000	0.066	0.259
-489.493	129.333	-0.168	-0.211
-488.478	137.719	-0.080	0.103
-487.464	-109.328	-0.382	0.080
-486.449	-40.392	-0.382	0.196
-485.435	800.000	-0.134	-0.437
-484.420	549.859	-0.173	-0.411
-483.405	56.569	-0.075	-0.072
-482.391	-67.109	0.262	0.102
-481.376	-51.163	0.301	0.139
-480.362	-2.707	-0.209	-0.144
-479.347	-38.688	0.237	-0.124
-478.332	-45.077	-0.140	0.069
-477.318	-200.000	-0.011	0.098
-476.303	-101.480	-0.239	-0.057
-475.289	787.593	0.007	-0.018
-474.274	48.491	0.326	-0.302
-473.259	-60.734	-0.176	-0.074
-472.245	26.277	-0.141	0.116
-471.230	355.923	-0.074	0.145
-470.216	-59.381	0.095	0.040
-469.201	-40.362	0.170	0.087
-468.186	95.519	-0.098	-0.110
-467.172	-200.000	0.053	0.421
-466.157	-31.887	0.158	-0.087
-465.143	506.171	0.072	-0.165
-464.128	-143.659	0.344	-0.032
-463.113	-68.483	-0.124	0.047
-462.099	127.990	0.138	-0.173
-461.084	800.000	-0.015	-0.047
-460.070	-200.000	0.030	-0.178
-459.055	11.739	0.242	-0.183
-458.040	-200.000	0.038	-0.438
-457.026	-200.000	-0.024	-0.104
-456.011	-96.694	0.310	0.080
-454.997	-8.387	-0.172	-0.114
-453.982	-35.074	-0.249	0.134
-452.968	-168.081	-0.282	0.011
-451.953	-8.919	-0.200	0.132
-450.938	-77.032	-0.243	-0.083
-449.924	281.189	-0.065	0.115
-448.909	-39.332	-0.068	-0.035
-447.895	-200.000	-0.011	0.289
-446.880	800.000	0.054	0.189
-445.865	800.000	-0.041	-0.121
-444.851	-200.000	-0.049	0.289
-443.836	182.676	-0.139	-0.202
-442.822	-200.000	0.001	-0.043
-441.807	65.086	-0.122	-0.121
-440.792	-200.000	0.032	-0.190
-439.778	-117.846	-0.379	-0.067
-438.763	33.800	-0.044	0.038
-437.749	800.000	0.031	0.106
-436.734	-40.292	-0.479	-0.245
-435.719	-162.044	-0.285	-0.014
-434.705	-17.014	0.093	0.058
-433.690	-200.000	0.036	-0.296
-432.676	-121.890	-0.197	-0.032
-431.661	-3.001	-0.123	0.085
-430.646	-57.775	-0.434	-0.187
-429.632	520.835	0.143	0.332
-428.617	-118.293	0.347	0.061
-427.603	-200.000	-0.064	0.313
-426.588	-120.245	-0.145	-0.024
-425.573	160.601	-0.196	0.270
-424.559	-0.510	0.247	0.173
-423.544	-12.391	0.241	0.155
-422.530	-133.010	-0.119	0.015
-421.515	800.000	0.074	-0.209
-420.500	-200.000	-0.050	-0.234
-419.486	201.435	0.119	0.180
-418.471	-120.518	-0.044	-0.007
-417.457	-99.539	0.341	-0.084
-416.442	-111.596	0.096	0.019
-415.428	-9.089	-0.321	-0.212
-414.413	-47.962	0.221	-0.105
-413.398	-76.603	0.037	0.013
-412.384	110.889	0.186	-0.221
-411.369	-51.581	0.380	0.174
-410.355	-179.892	-0.197	0.004
-409.340	256.402	-0.044	-0.074
-408.325	797.916	-0.126	-0.343
-407.311	-65.262	-0.058	-0.023
-406.296	-101.373	0.114	-0.027
-405.282	-30.304	-0.120	-0.067
-404.267	-200.000	0.015	-0.100
-403.252	-200.000	0.045	-0.239
-402.238	-158.171	0.239	-0.014
-401.223	-126.509	-0.204	-0.030
-400.209	800.000	0.013	-0.037
-399.194	225.250	0.039	-0.062
-398.179	322.083	-0.018	0.034
-397.165	-136.375	0.311	-0.036
-396.150	106.274	0.154	-0.180
-395.136	168.136	0.079	0.111
-394.121	102.094	-0.184	-0.212
-393.106	-200.000	0.003	0.094
-392.092	71.462	-0.243	-0.248
-391.077	-74.410	-0.123	0.044
-390.063	158.027	0.182	0.248
-389.048	-106.557	0.033	-0.007
-388.033	-200.000	0.054	0.244
-387.019	-64.889	0.069	-0.028
-386.004	800.000	0.131	0.473
-384.990	151.989	0.325	0.435
-383.975	265.704	-0.092	0.157
-382.960	-200.000	0.020	0.324
-381.946	-52.626	0.301	-0.137
-380.931	502.979	-0.048	-0.108
-379.917	-186.798	-0.204	-0.003
-378.902	33.909	0.170	-0.145
-377.888	3.607	0.022	0.016
-376.873	364.644	-0.197	-0.391
-375.858	43.008	0.309	-0.277
-374.844	156.385	0.314	-0.426
-373.829	626.398	-0.019	-0.048
-372.815	800.000	0.034	-0.103
-371.800	-41.690	-0.215	-0.108
-370.785	35.835	0.237	0.205
-369.771	-55.412	0.152	0.067
-368.756	331.106	-0.042	0.080
-367.742	19.698	0.131	0.104
-366.727	-74.324	0.183	-0.065
-365.712	-99.760	0.214	0.053
-364.698	-122.145	-0.223	-0.036
-363.683	-200.000	-0.018	0.140
-362.669	113.004	0.024	-0.029
-361.654	-200.000	0.024	0.175
-360.639	-19.472	-0.338	-0.206
-359.625	624.247	-0.067	-0.165
-358.610	-6.057	-0.207	-0.139
-357.596	-72.884	-0.286	-0.103
-356.581	-125.324	0.234	0.035
-355.566	-200.000	-0.001	-0.109
-354.552	800.000	0.070	-0.236
-353.537	249.831	0.212	-0.353
-352.523	-200.000	0.019	-0.229
-351.508	-200.000	-0.033	0.223
-350.493	-100.753	0.201	-0.049
-349.479	-141.619	-0.133	-0.013
-348.464	-20.862	0.139	-0.083
-347.450	49.171	-0.159	0.147
-346.435	287.172	0.214	0.380
-345.420	-47.873	-0.127	-0.060
-344.406	-104.061	0.419	0.096
-343.391	800.000	0.009	-0.035
-342.377	129.281	0.168	0.211
-341.362	540.651	0.090	0.211
-340.348	-122.425	0.188	-0.030
-339.333	800.000	-0.055	-0.161
-338.318	-83.588	0.061	0.019
-337.304	-43.222	-0.273	-0.136
-336.289	-200.000	-0.027	0.267
-335.275	18.775	0.192	0.151
-334.260	-94.149	-0.200	0.054
-333.245	800.000	0.127	-0.492
-332.231	567.137	0.118	-0.281
-331.216	525.770	0.067	-0.155
-330.202	-107.470	0.063	-0.014
-329.187	-200.000	-0.038	0.281
-328.172	24.334	0.107	0.087
-327.158	-200.000	0.010	0.207
-326.143	-113.988	-0.224	-0.043
-325.129	-79.588	0.057	-0.019
-324.114	-87.964	-0.354	-0.104
-323.099	-76.835	0.156	-0.054
-322.085	194.184	-0.188	0.279
-321.070	-140.225	0.231	-0.024
-320.056	-171.061	-0.029	0.001
-319.041	87.399	-0.186	0.202
-318.026	136.872	0.150	0.192
-317.012	-14.374	0.146	0.092
-315.997	-200.000	-0.036	0.209
-314.983	-93.709	0.325	-0.088
-313.968	-75.811	-0.164	-0.057
-312.953	800.000	-0.092	-0.361
-311.939	-180.125	0.075	-0.002
-310.924	124.211	-0.098	0.120
-309.910	-94.311	0.164	-0.044
-308.895	-23.990	0.078	0.046
-307.880	-200.000	0.003	-0.259
-306.866	209.359	0.117	0.179
-305.851	-67.577	-0.497	-0.191
-304.837	-169.009	-0.053	0.002
-303.822	-76.677	-0.360	0.124
-302.807	118.786	-0.180	-0.218
-301.793	-42.262	-0.022	0.011
-300.778	-141.973	-0.100	0.010
-299.764	-200.000	-0.109	0.484
-298.749	-3.521	-0.184	0.125
-297.735	800.000	0.102	0.341
-296.720	-200.000	0.003	-0.215
-295.705	-59.624	0.206	-0.087
-294.691	118.899	0.055	-0.067
-293.676	-170.746	0.094	0.003
-292.662	800.000	-0.055	0.236
-291.647	171.739	0.076	-0.107
-290.632	-51.982	-0.286	0.130
-289.618	-200.000	-0.013	0.246
-288.603	-0.040	0.176	-0.123
-287.589	81.947	-0.168	0.178
-286.574	-200.000	0.372	0.002
-285.559	301.111	0.067	-0.121
-284.545	-69.106	0.147	0.056
-283.530	228.229	0.106	-0.170
-282.516	137.663	0.123	0.158
-281.501	12.146	0.133	-0.100
-280.486	-8.759	-0.163	-0.107
-279.472	225.921	-0.100	-0.159
-278.457	-40.391	-0.175	0.089
-277.443	-54.169	-0.154	-0.068
-276.428	-200.000	0.012	-0.414
-275.413	-129.455	-0.337	0.046
-274.399	-200.000	-0.017	0.194
-273.384	36.523	0.218	-0.189
-272.370	-104.665	-0.043	-0.010
-271.355	-122.610	0.203	-0.032
-270.340	159.552	-0.107	0.146
-269.326	-200.000	0.017	0.079
-268.311	-75.087	-0.430	0.151
-267.297	81.899	-0.090	0.096
-266.282	156.798	-0.109	-0.147
-265.267	245.608	0.139	-0.229
-264.253	800.000	0.109	0.389
-263.238	185.548	0.095	0.138
-262.224	297.054	0.068	-0.121
-261.209	-109.466	-0.223	-0.046
-260.195	-42.258	-0.283	-0.141
-259.180	-107.142	-0.078	0.017
-258.165	-200.000	0.031	0.152
-257.151	800.000	-0.006	-0.018
-256.136	11.227	0.186	-0.140
-255.122	130.147	-0.249	-0.312
-254.107	-84.272	0.121	0.037
-253.092	-120.275	0.165	-0.028
-252.078	-10.234	-0.262	0.170
-251.063	3.350	0.226	-0.161
-250.049	-13.707	-0.189	0.120
-249.034	-200.000	0.016	0.183
-248.019	651.129	0.068	-0.169
-247.005	-18.213	-0.097	-0.059
-245.990	728.520	0.131	-0.343
-244.976	374.407	-0.055	0.110
-243.961	-185.240	-0.322	-0.005
-242.946	-142.678	0.266	0.025
-241.932	-67.404	0.236	0.091
-240.917	-30.893	0.433	0.239
-239.903	27.047	-0.045	0.037
-238.888	-200.000	0.002	0.089
-237.873	457.095	0.110	0.239
-236.859	-112.448	0.302	-0.059
-235.844	162.063	-0.037	0.050
-234.830	-141.917	-0.063	0.006
-233.815	370.185	-0.130	-0.258
-232.800	-84.267	0.389	-0.120
-231.786	64.017	0.091	0.089
-230.771	325.096	-0.191	0.358
-229.757	-200.000	-0.023	0.116
-228.742	287.443	-0.090	0.159
-227.727	-49.184	0.336	-0.157
-226.713	318.353	0.018	-0.033
-225.698	-200.000	-0.030	-0.158
-224.684	9.853	0.067	0.050
-223.669	-37.751	-0.037	-0.019
-222.655	30.010	-0.405	0.338
-221.640	-2.422	0.314	-0.215
-220.625	-200.000	-0.009	0.224
-219.611	-200.000	-0.026	0.206
-218.596	-112.347	-0.396	-0.077
-217.582	21.100	-0.137	0.109
-216.567	-19.160	-0.395	0.240
-215.552	404.217	0.016	-0.034
-214.538	-102.950	-0.156	0.036
-213.523	-107.825	-0.221	0.047
-212.509	-101.802	0.292	-0.069
-211.494	-23.862	-0.135	0.079
-210.479	-27.732	0.143	-0.081
-209.465	281.155	-0.068	-0.118
-208.450	-200.000	-0.024	-0.299
-207.436	-8.106	-0.324	0.213
-206.421	-86.920	0.177	-0.053
-205.406	-35.132	0.140	0.075
-204.392	-72.722	-0.146	0.053
-203.377	-200.000	0.012	-0.282
-202.363	-200.000	-0.018	0.161
-201.348	-200.000	-0.025	0.205
-200.333	93.695	0.060	0.067
-199.319	800.000	-0.141	0.385
-198.304	-105.584	-0.119	-0.026
-197.290	89.199	-0.117	0.127
-196.275	754.829	-0.019	0.051
-195.260	-200.000	0.011	0.318
-194.246	-98.761	-0.099	0.025
-193.231	23.824	-0.159	0.128
-192.217	-200.000	-0.014	-0.150
-191.202	-105.948	0.340	-0.075
-190.187	-143.385	0.298	-0.028
-189.173	717.276	0.063	-0.163
-188.158	368.356	-0.150	0.296
-187.144	54.063	0.095	-0.089
-186.129	446.029	-0.064	-0.138
-185.114	83.608	-0.178	-0.190
-184.100	103.939	-0.162	-0.186
-183.085	7.134	0.122	-0.089
-182.071	-200.000	0.010	-0.141
-181.056	-65.630	0.027	-0.011
-180.042	-15.398	-0.204	-0.127
-179.027	-43.860	-0.211	0.104
-178.012	146.127	0.130	-0.170
-176.998	800.000	0.141	0.389
-175.983	-172.524	-0.166	0.005
-174.969	-200.000	0.039	-0.224
-173.954	-182.126	0.335	0.006
-172.939	800.000	0.115	-0.341
-171.925	22.410	-0.229	0.182
-170.910	174.324	-0.172	0.242
-169.896	-200.000	-0.001	0.049
-168.881	-81.544	-0.117	-0.038
-167.866	96.222	-0.041	0.046
-166.852	39.213	0.243	0.212
-165.837	-200.000	0.040	-0.379
-164.823	139.159	-0.166	0.213
-163.808	-61.286	0.412	0.169
-162.793	-56.982	0.217	-0.094
-161.779	-124.296	0.217	-0.033
-160.764	-200.000	-0.042	0.242
-159.750	115.137	0.150	0.178
-158.735	-76.353	-0.315	-0.108
-157.720	328.621	0.114	0.214
-156.706	-28.164	0.233	0.131
-155.691	50.336	-0.356	0.328
-154.677	-109.658	0.485	0.100
-153.662	168.066	0.162	-0.225
-152.647	800.000	-0.027	-0.075
-151.633	-89.025	0.176	0.051
-150.618	800.000	-0.074	0.270
-149.604	233.276	0.090	0.144
-148.589	-119.492	-0.072	-0.012
-147.574	254.114	-0.107	-0.179
-146.560	93.807	0.092	0.102
-145.545	-200.000	0.005	0.274
-144.531	800.000	-0.031	-0.127
-143.516	-108.595	0.502	-0.105
-142.502	-100.972	-0.065	-0.016
-141.487	30.828	0.101	0.084
-140.472	14.628	0.126	-0.096
-139.458	171.222	0.171	0.238
-138.443	78.806	-0.204	-0.213
-137.429	-200.000	-0.016	0.142
-136.414	-82.565	0.280	0.089
-135.399	-20.527	0.071	-0.043
-134.385	558.301	0.157	0.369
-133.370	182.362	0.180	0.259
-132.356	340.816	0.081	-0.154
-131.341	-154.197	0.168	0.011
-130.326	-98.714	-0.130	0.032
-129.312	380.955	0.093	-0.187
-128.297	-200.000	-0.033	-0.218
-127.283	47.863	0.034	-0.031
-126.268	-200.000	-0.011	-0.168
-125.253	-68.387	0.097	-0.037
-124.239	-45.537	0.073	-0.035
-123.224	54.128	-0.103	0.097
