DTS Sentinel unit serial number:	SN413079Multiplexer serial number:	ORYXHardware model number:	OX4-SRSoftware version number:	ORYX F/W v4.00 Oryx Data Collector v3.7.2.0data status	okinstallation	princeton_trtdifferential loss correction	single-endedforward channel	channel 2reverse channel	N/Adate	2019/09/17time	04:51:35forward acquisition time	60.00reverse acquisition time	0.00gamma	496.2192k internal	0.2328k external	0.2328temperature offset calibration	0.9977default loss term (dB/km)	0.3790temperature slope calibration	1.0000multiplexer offset coefficient	1.0000multiplexer slope coefficient	1.0000fibre end	0.00T internal ref (°C)	29.56T ext. ref 1 (°C)	0.14T ext. ref 2 (°C)	23.99length (m)	temperature (°C)	Stokes	anti-Stokes-747.200	105.931	-0.312	-0.372
-746.185	-102.333	-0.222	0.054
-745.171	89.816	-0.097	-0.109
-744.156	366.923	0.025	0.050
-743.142	-200.000	0.055	0.251
-742.127	81.154	-0.145	0.158
-741.112	29.573	-0.184	0.158
-740.098	-200.000	0.015	0.350
-739.083	101.710	0.120	-0.141
-738.069	104.968	0.203	0.241
-737.054	-200.000	-0.029	0.265
-736.039	800.000	0.023	-0.071
-735.025	86.680	0.281	0.312
-734.010	92.615	-0.166	0.189
-732.996	186.375	-0.024	0.036
-731.981	-200.000	0.078	0.405
-730.966	80.266	0.143	0.155
-729.952	185.219	-0.170	-0.254
-728.937	-132.378	-0.259	0.034
-727.923	799.960	0.126	0.351
-726.908	-35.373	-0.112	-0.061
-725.894	800.000	-0.021	0.075
-724.879	-200.000	0.009	0.074
-723.864	-71.424	-0.468	-0.176
-722.850	274.499	-0.095	0.170
-721.835	68.925	0.213	0.220
-720.821	65.497	-0.188	0.192
-719.806	139.639	-0.188	0.249
-718.791	-85.908	-0.294	-0.092
-717.777	-90.325	-0.216	0.063
-716.762	-183.212	0.119	0.002
-715.748	800.000	-0.099	-0.344
-714.733	-200.000	0.000	0.131
-713.718	156.744	-0.103	-0.143
-712.704	127.896	0.166	-0.212
-711.689	-200.000	0.042	-0.199
-710.675	-200.000	-0.044	-0.310
-709.660	129.991	0.197	-0.254
-708.645	-141.527	-0.269	0.027
-707.631	77.022	0.227	-0.243
-706.616	386.349	0.164	0.341
-705.602	125.718	-0.130	-0.166
-704.587	-51.181	0.373	0.176
-703.572	-169.695	-0.139	-0.005
-702.558	11.365	0.240	0.185
-701.543	26.960	0.093	0.078
-700.529	-75.324	0.138	-0.050
-699.514	209.246	-0.048	-0.076
-698.499	93.525	-0.168	-0.191
-697.485	49.253	-0.178	-0.168
-696.470	10.368	0.159	0.122
-695.456	97.794	0.081	-0.094
-694.441	-200.000	-0.010	-0.083
-693.426	14.004	-0.266	-0.209
-692.412	-200.000	0.000	-0.104
-691.397	182.591	0.192	0.284
-690.383	45.757	0.356	0.331
-689.368	-200.000	0.013	0.218
-688.354	133.134	0.161	0.209
-687.339	-200.000	0.018	0.087
-686.324	-150.762	-0.339	-0.026
-685.310	85.403	0.197	0.218
-684.295	-88.061	0.470	0.142
-683.281	800.000	0.041	-0.134
-682.266	-200.000	0.012	0.141
-681.251	90.215	-0.139	-0.157
-680.237	295.636	0.049	0.089
-679.222	-122.085	0.269	0.044
-678.208	88.161	0.245	-0.273
-677.193	-188.910	-0.197	-0.002
-676.178	35.473	0.089	0.079
-675.164	-0.128	0.076	0.055
-674.149	266.003	-0.005	0.008
-673.135	78.522	-0.108	-0.116
-672.120	-153.988	0.260	0.018
-671.105	212.269	0.145	0.230
-670.091	670.886	0.055	0.144
-669.076	-133.783	-0.385	0.048
-668.062	421.429	0.069	-0.148
-667.047	-176.430	-0.218	-0.006
-666.032	800.000	0.058	-0.222
-665.018	125.764	-0.163	-0.206
-664.003	-200.000	-0.001	0.123
-662.989	166.481	-0.055	-0.079
-661.974	-104.903	-0.180	-0.041
-660.959	135.224	-0.120	-0.157
-659.945	-73.913	0.086	-0.031
-658.930	-186.964	-0.318	0.004
-657.916	81.381	-0.113	0.123
-656.901	-3.175	-0.113	0.079
-655.886	60.239	0.176	0.175
-654.872	59.829	-0.184	0.183
-653.857	84.427	-0.151	0.166
-652.843	403.360	-0.127	-0.267
-651.828	546.955	-0.044	-0.105
-650.814	-32.947	0.369	-0.206
-649.799	168.510	-0.178	-0.254
-648.784	-200.000	0.006	-0.089
-647.770	108.815	-0.059	-0.071
-646.755	492.969	0.112	0.258
-645.741	161.356	-0.151	-0.212
-644.726	197.282	-0.113	0.173
-643.711	-23.628	0.334	-0.201
-642.697	-82.265	-0.205	0.067
-641.682	-49.392	0.260	-0.125
-640.668	-50.974	0.142	0.067
-639.653	-36.986	0.279	-0.150
-638.638	2.494	-0.101	-0.073
-637.624	200.268	-0.035	0.054
-636.609	530.953	-0.130	0.309
-635.595	55.794	0.141	0.137
-634.580	-200.000	0.091	0.413
-633.565	380.142	-0.081	-0.166
-632.551	-70.075	-0.158	-0.060
-631.536	-175.993	-0.222	-0.006
-630.522	61.251	0.176	0.175
-629.507	47.492	-0.199	-0.187
-628.492	40.155	-0.132	-0.119
-627.478	47.104	-0.181	-0.169
-626.463	41.571	0.046	-0.042
-625.449	114.117	-0.109	0.132
-624.434	275.412	0.069	0.122
-623.419	-200.000	0.040	-0.515
-622.405	28.148	0.331	-0.280
-621.390	-141.163	-0.229	-0.023
-620.376	-31.788	0.201	-0.113
-619.361	206.458	0.136	0.213
-618.346	462.404	-0.031	-0.069
-617.332	800.000	-0.066	-0.249
-616.317	-54.715	0.227	-0.103
-615.303	-200.000	0.020	0.435
-614.288	93.917	-0.251	-0.286
-613.273	-200.000	-0.070	-0.351
-612.259	102.505	0.178	-0.208
-611.244	85.313	-0.182	-0.200
-610.230	-19.483	-0.288	0.179
-609.215	602.862	-0.083	0.207
-608.201	33.956	-0.098	-0.086
-607.186	800.000	-0.099	0.382
-606.171	41.155	-0.185	0.168
-605.157	-200.000	-0.009	0.074
-604.142	-200.000	0.069	0.399
-603.128	-200.000	0.012	0.148
-602.113	65.116	0.170	-0.173
-601.098	800.000	-0.080	-0.314
-600.084	-200.000	-0.005	0.071
-599.069	-200.000	-0.021	-0.422
-598.055	-32.908	-0.134	-0.074
-597.040	17.221	0.114	0.091
-596.025	-200.000	0.014	0.181
-595.011	800.000	0.017	-0.052
-593.996	-6.003	0.243	-0.166
-592.982	-35.281	-0.141	-0.077
-591.967	800.000	-0.053	-0.198
-590.952	224.353	0.109	-0.176
-589.938	-153.002	-0.095	-0.007
-588.923	-70.362	-0.048	0.018
-587.909	262.644	0.151	0.263
-586.894	570.824	-0.048	-0.118
-585.879	101.129	-0.248	-0.289
-584.865	-95.373	0.040	0.011
-583.850	149.820	0.168	-0.228
-582.836	800.000	-0.008	0.034
-581.821	-200.000	-0.032	-0.166
-580.806	136.753	0.173	0.226
-579.792	-97.379	-0.143	-0.037
-578.777	-114.184	-0.409	-0.079
-577.763	-200.000	0.011	-0.070
-576.748	-135.562	-0.105	0.012
-575.733	800.000	-0.115	-0.490
-574.719	20.073	0.140	-0.113
-573.704	-200.000	0.038	-0.208
-572.690	-5.606	0.281	-0.193
-571.675	13.192	-0.092	-0.071
-570.661	235.176	-0.168	0.278
-569.646	285.616	-0.095	-0.172
-568.631	105.769	-0.183	-0.217
-567.617	-200.000	-0.021	0.309
-566.602	-10.388	0.305	-0.202
-565.588	-200.000	-0.052	-0.284
-564.573	87.724	0.127	0.141
-563.558	245.479	-0.066	0.111
-562.544	7.625	0.144	0.108
-561.529	159.000	0.142	0.198
-560.515	-200.000	-0.018	-0.223
-559.500	-200.000	0.030	-0.153
-558.485	147.073	-0.181	-0.244
-557.471	-200.000	-0.019	-0.192
-556.456	155.409	0.175	0.242
-555.442	63.887	-0.184	-0.185
-554.427	800.000	-0.017	0.063
-553.412	800.000	-0.104	-0.415
-552.398	-88.539	-0.479	0.143
-551.383	-137.197	0.321	0.037
-550.369	800.000	-0.143	-0.526
-549.354	-41.706	0.268	-0.138
-548.339	69.335	0.111	-0.114
-547.325	67.980	0.075	-0.076
-546.310	-98.550	-0.114	0.029
-545.296	-200.000	-0.017	-0.135
-544.281	-96.769	-0.500	0.131
-543.266	222.642	0.064	-0.104
-542.252	800.000	-0.015	0.060
-541.237	33.039	0.195	-0.169
-540.223	-124.743	0.223	0.034
-539.208	800.000	0.109	0.310
-538.193	154.683	-0.101	-0.139
-537.179	616.006	0.107	0.268
-536.164	-200.000	0.036	0.162
-535.150	8.493	-0.248	0.187
-534.135	-137.237	0.092	0.010
-533.121	40.302	0.143	-0.129
-532.106	-147.546	-0.426	-0.036
-531.091	-39.141	-0.305	0.160
-530.077	800.000	-0.058	-0.184
-529.062	553.396	-0.110	-0.263
-528.048	175.325	-0.027	-0.039
-527.033	800.000	0.033	-0.113
-526.018	154.420	0.066	-0.090
-525.004	613.220	0.032	-0.080
-523.989	-111.418	-0.330	0.067
-522.975	41.933	-0.055	0.050
-521.960	137.048	-0.226	-0.294
-520.945	-200.000	-0.045	0.248
-519.931	-110.302	0.301	-0.063
-518.916	585.735	-0.073	0.180
-517.902	450.104	-0.204	-0.451
-516.887	-47.058	-0.194	0.095
-515.872	74.106	-0.087	0.091
-514.858	-37.485	-0.075	0.040
-513.843	-102.894	0.189	-0.045
-512.829	-61.709	0.199	0.083
-511.814	-200.000	-0.002	0.008
-510.799	16.822	0.235	-0.186
-509.785	-21.217	0.204	0.125
-508.770	800.000	-0.036	0.116
-507.756	-200.000	-0.018	-0.223
-506.741	-117.749	0.121	0.022
-505.726	-61.616	0.273	0.115
-504.712	660.549	-0.109	0.280
-503.697	-57.309	-0.202	0.089
-502.683	-83.732	0.307	-0.098
-501.668	481.064	0.122	0.277
-500.653	-200.000	-0.022	-0.229
-499.639	-17.006	-0.068	-0.043
-498.624	-200.000	-0.049	0.255
-497.610	153.909	-0.066	-0.091
-496.595	800.000	0.043	-0.185
-495.581	24.951	-0.197	-0.163
-494.566	259.822	-0.103	0.177
-493.551	36.233	0.474	0.417
-492.537	-200.000	-0.010	0.070
-491.522	-200.000	0.007	-0.154
-490.508	-148.136	-0.111	0.009
-489.493	198.916	-0.092	0.140
-488.478	-102.722	0.402	-0.096
-487.464	800.000	0.091	0.253
-486.449	139.720	0.087	0.115
-485.435	369.441	0.175	0.354
-484.420	375.132	-0.134	0.273
-483.405	184.129	-0.105	-0.155
-482.391	-16.711	0.044	-0.028
-481.376	103.393	0.118	-0.138
-480.362	216.595	0.088	-0.139
-479.347	-12.149	-0.155	-0.101
-478.332	-200.000	0.021	-0.327
-477.318	-108.179	-0.176	-0.038
-476.303	-108.447	-0.234	0.050
-475.289	-40.215	-0.104	-0.054
-474.274	-59.620	0.058	-0.025
-473.259	-43.579	0.132	-0.067
-472.245	-200.000	-0.033	0.174
-471.230	120.562	0.201	0.249
-470.216	-78.862	-0.294	0.100
-469.201	-12.355	0.275	0.179
-468.186	103.113	0.117	0.137
-467.172	-169.604	-0.126	-0.005
-466.157	49.292	-0.287	-0.269
-465.143	12.390	0.143	0.110
-464.128	-169.982	-0.422	-0.015
-463.113	800.000	0.024	-0.073
-462.099	116.080	-0.182	0.222
-461.084	-96.384	-0.420	-0.111
-460.070	87.260	0.209	0.231
-459.055	-111.369	-0.245	0.050
-458.040	-168.498	0.176	-0.007
-457.026	-200.000	-0.030	-0.218
-456.011	-200.000	-0.032	-0.143
-454.997	800.000	-0.099	0.340
-453.982	75.801	0.018	-0.019
-452.968	268.871	0.064	0.112
-451.953	21.851	0.181	0.147
-450.938	-88.209	-0.184	-0.055
-449.924	-200.000	0.026	0.154
-448.909	117.291	-0.092	-0.113
-447.895	-38.957	-0.139	-0.073
-446.880	-1.468	0.225	-0.158
-445.865	74.661	-0.147	0.154
-444.851	-92.494	0.204	0.057
-443.836	124.327	-0.326	0.409
-442.822	90.530	0.159	-0.178
-441.807	-47.996	0.114	-0.055
-440.792	800.000	0.111	0.307
-439.778	187.801	0.268	0.398
-438.763	-43.534	0.203	0.102
-437.749	1.625	0.195	-0.140
-436.734	363.089	-0.111	-0.222
-435.719	-71.707	-0.357	-0.132
-434.705	77.850	-0.058	-0.062
-433.690	432.319	-0.139	0.300
-432.676	671.841	0.096	-0.248
-431.661	51.596	0.092	-0.087
-430.646	-200.000	0.013	0.170
-429.632	101.094	0.115	0.134
-428.617	-200.000	0.003	-0.064
-427.603	-161.976	-0.136	-0.007
-426.588	-200.000	-0.004	0.053
-425.573	-58.057	0.215	0.093
-424.559	-167.026	0.193	-0.008
-423.544	162.033	-0.179	-0.250
-422.530	-115.818	0.401	-0.075
-421.515	-66.626	0.253	-0.100
-420.500	-200.000	0.072	0.525
-419.486	-33.538	0.010	0.006
-418.471	-156.821	-0.331	-0.020
-417.457	-152.552	0.080	-0.006
-416.442	800.000	0.059	0.203
-415.428	122.816	0.199	-0.248
-414.413	-200.000	-0.025	0.184
-413.398	800.000	-0.091	0.277
-412.384	9.351	-0.352	-0.265
-411.369	3.303	0.053	-0.038
-410.355	14.175	0.055	-0.043
-409.340	588.222	0.042	0.102
-408.325	-66.563	0.313	0.123
-407.311	35.679	0.194	0.169
-406.296	-200.000	0.011	-0.153
-405.282	-170.181	-0.077	-0.003
-404.267	-200.000	0.028	-0.248
-403.252	-200.000	-0.009	0.087
-402.238	-129.928	0.221	-0.030
-401.223	343.751	-0.048	-0.094
-400.209	-83.940	-0.269	-0.085
-399.194	-200.000	-0.015	0.415
-398.179	-123.778	0.115	-0.018
-397.165	57.683	0.142	0.138
-396.150	15.199	-0.015	0.012
-395.136	4.989	0.186	0.136
-394.121	48.738	-0.210	0.195
-393.106	-73.062	-0.346	0.126
-392.092	-138.100	0.195	0.022
-391.077	14.544	0.061	-0.047
-390.063	-16.218	0.124	0.078
-389.048	-100.020	-0.304	-0.075
-388.033	-200.000	0.164	-0.000
-387.019	190.191	-0.027	-0.040
-386.004	14.549	0.183	0.142
-384.990	388.693	-0.132	0.272
-383.975	-66.455	-0.126	-0.050
-382.960	-200.000	-0.052	-0.300
-381.946	-66.579	-0.153	-0.060
-380.931	-69.035	-0.088	0.034
-379.917	-200.000	0.351	-0.001
-378.902	-77.982	0.032	0.011
-377.888	-46.791	0.056	-0.027
-376.873	800.000	-0.108	-0.332
-375.858	-37.342	-0.262	0.139
-374.844	-164.739	0.261	0.012
-373.829	800.000	0.047	-0.132
-372.815	-200.000	-0.033	0.200
-371.800	-61.615	-0.209	0.087
-370.785	23.417	0.148	-0.121
-369.771	518.293	0.153	0.356
-368.756	-52.956	0.286	0.131
-367.742	-200.000	-0.017	-0.091
-366.727	-200.000	0.001	-0.277
-365.712	449.632	-0.098	0.215
-364.698	-200.000	-0.021	-0.219
-363.683	-82.233	0.142	0.046
-362.669	-200.000	-0.006	-0.044
-361.654	-107.674	-0.360	-0.078
-360.639	274.329	0.182	-0.320
-359.625	401.526	0.103	-0.214
-358.610	800.000	0.047	-0.203
-357.596	-200.000	-0.183	-0.000
-356.581	-44.770	0.247	0.122
-355.566	-52.198	0.233	0.107
-354.552	-200.000	0.032	-0.235
-353.537	113.355	-0.105	0.126
-352.523	150.701	0.111	-0.150
-351.508	-76.902	0.370	0.128
-350.493	47.909	-0.101	0.093
-349.479	-200.000	-0.016	0.295
-348.464	-200.000	-0.066	0.338
-347.450	-200.000	0.034	-0.206
-346.435	-6.794	-0.303	0.204
-345.420	-73.584	0.114	-0.041
-344.406	-200.000	0.018	0.160
-343.391	11.341	0.106	-0.081
-342.377	-200.000	0.006	0.230
-341.362	156.468	0.280	0.383
-340.348	-94.657	0.109	0.029
-339.333	-110.513	0.078	0.016
-338.318	14.683	0.251	-0.194
-337.304	-8.409	-0.173	0.115
-336.289	-170.154	-0.274	0.010
-335.275	-123.249	-0.255	-0.040
-334.260	-0.133	0.138	0.097
-333.245	53.704	-0.188	0.179
-332.231	50.261	-0.302	0.283
-331.216	188.789	0.107	0.159
-330.202	-200.000	-0.013	-0.275
-329.187	91.219	-0.147	0.164
-328.172	-200.000	-0.009	0.073
-327.158	-200.000	0.048	-0.276
-326.143	-90.919	-0.171	-0.049
-325.129	-95.749	0.229	-0.061
-324.114	-200.000	-0.042	-0.320
-323.099	401.429	-0.060	-0.125
-322.085	800.000	0.069	-0.206
-321.070	-200.000	0.099	0.458
-320.056	-47.434	-0.058	-0.028
-319.041	228.483	-0.278	-0.449
-318.026	-140.913	0.106	0.011
-317.012	-167.370	0.585	0.023
-315.997	195.039	0.078	0.118
-314.983	-4.244	0.060	-0.041
-313.968	288.137	-0.003	-0.006
-312.953	-200.000	-0.005	0.025
-311.939	-30.278	-0.249	0.140
-310.924	220.240	-0.028	0.044
-309.910	800.000	0.074	-0.265
-308.895	-200.000	-0.010	0.084
-307.880	-119.343	0.257	0.044
-306.866	-176.004	-0.411	-0.011
-305.851	-115.078	-0.303	-0.057
-304.837	-25.896	0.202	0.118
-303.822	-53.268	0.132	-0.060
-302.807	19.929	0.098	0.079
-301.793	-200.000	-0.186	-0.001
-300.778	-184.359	0.282	-0.005
-299.764	-192.386	0.267	0.002
-298.749	-98.201	0.376	-0.096
-297.735	-93.664	-0.194	-0.053
-296.720	260.959	-0.170	-0.291
-295.705	139.936	0.101	-0.132
-294.691	-148.601	-0.314	-0.025
-293.676	800.000	0.063	-0.178
-292.662	-69.073	-0.131	-0.050
-291.647	13.829	-0.135	0.104
-290.632	32.633	0.418	-0.358
-289.618	800.000	0.051	0.168
-288.603	-200.000	0.051	0.314
-287.589	-156.398	0.207	-0.013
-286.574	117.527	-0.076	0.092
-285.559	-83.570	-0.262	0.083
-284.545	-48.231	-0.117	0.056
-283.530	226.343	0.057	-0.092
-282.516	-75.765	-0.111	0.039
-281.501	-200.000	-0.045	-0.304
-280.486	77.241	-0.168	-0.176
-279.472	-117.770	0.190	0.034
-278.457	800.000	-0.048	-0.190
-277.443	-200.000	0.007	0.199
-276.428	10.883	0.180	0.136
-275.413	800.000	0.065	-0.238
-274.399	-20.803	-0.183	-0.111
-273.384	-200.000	-0.011	-0.261
-272.370	-95.382	-0.190	-0.051
-271.355	-31.880	0.115	0.064
-270.340	800.000	0.062	0.226
-269.326	-179.221	0.181	0.004
-268.311	172.790	0.102	0.145
-267.297	-67.103	0.330	-0.129
-266.282	800.000	-0.064	0.219
-265.267	-32.839	0.109	-0.060
-264.253	138.125	0.008	0.010
-263.238	118.166	-0.202	0.247
-262.224	11.352	-0.146	0.111
-261.209	-12.570	0.485	0.313
-260.195	-142.711	0.183	-0.018
-259.180	-168.979	-0.290	-0.011
-258.165	7.623	-0.114	0.084
-257.151	128.502	-0.166	0.209
-256.136	-50.656	0.166	0.077
-255.122	-12.678	-0.223	0.144
-254.107	-200.000	-0.004	0.128
-253.092	-122.186	0.474	-0.077
-252.078	-99.457	0.248	-0.062
-251.063	26.310	0.076	-0.063
-250.049	210.303	0.074	0.116
-249.034	244.419	0.104	-0.172
-248.019	-109.084	0.302	0.063
-247.005	578.223	-0.197	-0.477
-245.990	800.000	-0.112	0.317
-244.976	-200.000	0.006	0.185
-243.961	-83.955	0.171	0.054
-242.946	-51.344	0.126	0.058
-241.932	-11.775	0.016	0.010
-240.917	-101.584	0.234	-0.056
-239.903	397.395	-0.076	0.156
-238.888	27.613	0.105	-0.087
-237.873	800.000	0.024	-0.067
-236.859	-93.584	0.088	0.024
-235.844	462.029	0.072	-0.160
-234.830	800.000	0.034	0.124
-233.815	230.409	0.133	-0.215
-232.800	-21.071	0.226	0.137
-231.786	-124.090	-0.074	-0.012
-230.771	-42.737	-0.521	0.262
-229.757	134.806	0.334	0.428
-228.742	270.788	0.118	-0.205
-227.727	-82.507	-0.278	-0.089
-226.713	-13.719	0.171	0.109
-225.698	-127.943	-0.378	0.054
-224.684	800.000	-0.038	-0.164
-223.669	265.762	-0.150	0.258
-222.655	-5.338	0.039	0.027
-221.640	79.631	0.174	0.184
-220.625	800.000	0.095	-0.305
-219.611	-163.677	0.373	-0.017
-218.596	-116.750	-0.294	-0.053
-217.582	296.993	0.151	-0.274
-216.567	-63.352	-0.441	-0.179
-215.552	108.615	-0.026	-0.030
-214.538	-200.000	-0.035	0.228
-213.523	-200.000	0.041	0.244
-212.509	-171.005	-0.224	0.008
-211.494	-9.132	-0.270	-0.178
-210.479	-192.264	-0.187	0.002
-209.465	-53.974	-0.069	-0.031
-208.450	26.494	-0.123	0.101
-207.436	156.741	-0.069	-0.095
-206.421	-200.000	-0.010	-0.124
-205.406	456.985	-0.083	0.183
-204.392	-18.211	0.177	0.109
-203.377	-70.940	0.335	0.125
-202.363	572.792	-0.079	-0.190
-201.348	-200.000	0.033	0.380
-200.333	40.651	-0.333	0.296
-199.319	322.661	0.179	-0.336
-198.304	-158.175	-0.214	-0.012
-197.290	-98.640	0.058	0.015
-196.275	800.000	0.034	0.106
-195.260	-146.266	-0.305	0.026
-194.246	-168.836	-0.185	-0.007
-193.231	16.973	0.242	0.189
-192.217	119.042	-0.309	0.377
-191.202	154.001	-0.141	0.190
-190.187	44.098	-0.127	-0.115
-189.173	-17.930	-0.176	0.109
-188.158	-12.505	-0.064	0.041
-187.144	62.732	-0.135	0.133
-186.129	82.113	0.156	0.166
-185.114	0.561	0.277	0.195
-184.100	299.499	0.042	-0.076
-183.085	800.000	-0.038	-0.113
-182.071	661.349	0.071	-0.181
-181.056	-65.208	-0.178	-0.071
-180.042	205.760	-0.069	0.106
-179.027	423.774	-0.153	-0.325
-178.012	415.260	0.146	-0.307
-176.998	-200.000	-0.046	0.365
-175.983	76.686	0.314	0.328
-174.969	800.000	-0.098	-0.364
-173.954	-96.704	-0.122	0.032
-172.939	-143.552	-0.244	0.023
-171.925	-44.757	0.091	-0.045
-170.910	94.722	0.264	-0.296
-169.896	-71.222	-0.196	0.073
-168.881	-200.000	0.007	0.053
-167.866	-200.000	0.012	-0.248
-166.852	136.522	-0.107	-0.137
-165.837	-200.000	0.030	0.299
-164.823	-83.538	-0.276	0.087
-163.808	217.654	-0.095	-0.149
-162.793	-200.000	-0.023	0.155
-161.779	168.951	0.103	0.145
-160.764	4.862	-0.261	-0.189
-159.750	-44.677	0.299	0.147
-158.735	-200.000	0.059	-0.318
-157.720	153.050	-0.148	-0.199
-156.706	179.656	-0.048	-0.069
-155.691	-112.265	-0.355	-0.070
-154.677	-93.456	0.181	0.049
-153.662	173.990	0.032	-0.045
-152.647	-38.587	0.196	-0.102
-151.633	-123.344	0.352	-0.055
-150.618	-200.000	-0.020	0.278
-149.604	-200.000	-0.001	0.111
-148.589	-83.740	-0.472	0.148
-147.574	-66.357	-0.055	0.022
-146.560	9.486	0.120	-0.089
-145.545	590.254	-0.097	0.236
-144.531	-83.267	-0.148	-0.047
-143.516	-96.053	-0.223	0.058
-142.502	28.652	-0.149	0.124
-141.487	242.976	-0.074	0.123
-140.472	-200.000	-0.028	0.203
-139.458	341.018	-0.103	0.198
-138.443	-50.464	-0.110	0.051
-137.429	-129.179	-0.111	-0.015
-136.414	139.603	-0.178	-0.231
-135.399	-168.742	0.131	0.005
-134.385	-200.000	0.022	0.253
-133.370	800.000	0.039	0.123
-132.356	4.335	-0.361	0.260
-131.341	-33.626	-0.148	-0.080
-130.326	265.854	-0.046	0.080
-129.312	-200.000	0.008	-0.038
-128.297	-68.446	0.306	0.117
-127.283	-40.869	-0.092	0.047
-126.268	-165.440	0.242	0.010
-125.253	-1.463	-0.163	-0.113
-124.239	-200.000	-0.021	-0.290
-123.224	800.000	0.048	0.181
-122.210	-104.143	-0.471	-0.108
-121.195	-104.133	0.254	-0.058
