DTS Sentinel unit serial number:	SN413079Multiplexer serial number:	ORYXHardware model number:	OX4-SRSoftware version number:	ORYX F/W v4.00 Oryx Data Collector v3.7.2.0data status	okinstallation	princeton_trtdifferential loss correction	single-endedforward channel	channel 2reverse channel	N/Adate	2019/09/15time	23:03:35forward acquisition time	60.00reverse acquisition time	0.00gamma	496.2192k internal	0.2335k external	0.2335temperature offset calibration	0.9952default loss term (dB/km)	0.3790temperature slope calibration	1.0000multiplexer offset coefficient	1.0000multiplexer slope coefficient	1.0000fibre end	0.00T internal ref (°C)	28.50T ext. ref 1 (°C)	8.98T ext. ref 2 (°C)	22.20length (m)	temperature (°C)	Stokes	anti-Stokes-747.200	-72.617	-0.208	0.077
-746.185	-200.000	-0.061	0.298
-745.171	-18.941	0.185	0.116
-744.156	800.000	-0.030	-0.083
-743.142	-7.125	0.208	0.142
-742.127	-120.456	-0.158	0.027
-741.112	-167.340	-0.405	-0.016
-740.098	-200.000	-0.007	0.149
-739.083	-100.285	0.336	0.084
-738.069	-200.000	0.007	0.322
-737.054	-173.481	0.140	-0.004
-736.039	203.304	-0.146	0.227
-735.025	-76.891	0.273	0.096
-734.010	-122.196	-0.283	0.047
-732.996	173.734	0.227	-0.329
-731.981	-95.301	-0.199	-0.054
-730.966	800.000	0.102	0.379
-729.952	-65.147	0.109	0.044
-728.937	-200.000	-0.011	-0.104
-727.923	76.069	-0.151	-0.160
-726.908	33.077	-0.262	0.228
-725.894	192.390	-0.137	0.207
-724.879	-200.000	0.000	-0.133
-723.864	-151.640	-0.262	-0.019
-722.850	43.690	0.056	0.051
-721.835	29.694	-0.039	0.033
-720.821	-89.851	-0.321	0.094
-719.806	81.175	-0.162	-0.175
-718.791	800.000	-0.031	-0.096
-717.777	-181.951	0.117	0.002
-716.762	291.615	0.092	-0.168
-715.748	800.000	0.023	0.071
-714.733	-45.217	-0.149	0.074
-713.718	-200.000	0.021	0.273
-712.704	-8.392	-0.083	0.056
-711.689	-10.729	0.280	-0.186
-710.675	13.988	0.097	0.075
-709.660	-91.983	-0.396	-0.112
-708.645	769.169	-0.067	0.184
-707.631	-41.953	0.247	0.127
-706.616	-56.250	-0.114	0.051
-705.602	121.294	0.175	-0.219
-704.587	800.000	0.027	0.100
-703.572	151.976	0.063	-0.087
-702.558	-60.460	0.175	-0.075
-701.543	-25.117	0.152	0.090
-700.529	6.796	-0.149	-0.111
-699.514	769.611	-0.020	-0.054
-698.499	-84.044	-0.307	-0.098
-697.485	-42.016	-0.223	-0.115
-696.470	-191.392	-0.211	0.002
-695.456	66.057	0.148	0.151
-694.441	-181.835	-0.491	0.009
-693.426	248.690	-0.100	-0.171
-692.412	-167.297	0.402	-0.016
-691.397	-5.291	-0.291	0.200
-690.383	47.704	0.087	-0.081
-689.368	800.000	-0.071	0.234
-688.354	764.541	-0.078	0.212
-687.339	115.038	0.257	0.315
-686.324	-163.124	-0.336	0.016
-685.310	139.440	0.114	0.150
-684.295	-155.368	-0.118	-0.008
-683.281	17.712	-0.210	-0.167
-682.266	-200.000	0.070	-0.000
-681.251	800.000	0.054	-0.207
-680.237	-200.000	-0.008	0.117
-679.222	800.000	0.054	0.197
-678.208	535.973	0.092	0.219
-677.193	-62.984	0.140	-0.058
-676.178	-109.390	-0.029	-0.006
-675.164	800.000	-0.064	0.182
-674.149	22.536	-0.305	0.250
-673.135	-200.000	-0.043	0.280
-672.120	800.000	0.060	-0.227
-671.105	-82.406	-0.230	0.075
-670.091	-79.225	0.027	-0.009
-669.076	800.000	-0.103	-0.348
-668.062	-154.470	0.269	-0.018
-667.047	476.310	0.024	0.053
-666.032	-89.546	0.183	0.054
-665.018	81.920	-0.068	0.073
-664.003	-25.588	-0.296	-0.175
-662.989	-61.319	0.053	0.023
-661.974	514.919	0.061	-0.143
-660.959	800.000	-0.036	-0.121
-659.945	-200.000	-0.013	-0.228
-658.930	101.253	0.105	-0.122
-657.916	25.097	-0.355	0.295
-656.901	-27.753	-0.209	-0.121
-655.886	-166.269	0.283	-0.012
-654.872	492.880	0.155	-0.356
-653.857	124.290	-0.214	-0.269
-652.843	-85.875	-0.030	0.009
-651.828	610.995	-0.086	-0.215
-650.814	-31.570	-0.188	0.105
-649.799	42.144	-0.234	0.212
-648.784	-189.435	0.419	0.005
-647.770	207.316	-0.106	0.165
-646.755	-108.887	-0.067	-0.014
-645.741	82.584	0.043	-0.047
-644.726	-200.000	-0.013	-0.106
-643.711	-67.984	0.540	-0.211
-642.697	800.000	-0.112	0.364
-641.682	800.000	0.125	-0.410
-640.668	-62.713	0.077	-0.032
-639.653	6.248	0.098	-0.072
-638.638	31.707	0.104	0.090
-637.624	-99.876	0.223	0.056
-636.609	130.475	-0.130	0.166
-635.595	-198.562	0.067	-0.000
-634.580	293.409	0.138	0.252
-633.565	-106.720	0.198	0.044
-632.551	4.038	0.435	-0.318
-631.536	-25.701	0.214	0.126
-630.522	-200.000	-0.015	-0.077
-629.507	-34.091	-0.140	-0.077
-628.492	-9.570	-0.180	-0.120
-627.478	-27.620	0.112	-0.065
-626.463	584.945	0.055	-0.134
-625.449	-200.000	-0.016	0.115
-624.434	10.029	-0.237	-0.180
-623.419	-200.000	0.045	0.298
-622.405	-200.000	0.002	-0.120
-621.390	27.430	0.217	-0.183
-620.376	-14.462	0.115	0.074
-619.361	44.077	-0.257	0.236
-618.346	445.920	-0.085	-0.187
-617.332	-66.442	-0.313	-0.124
-616.317	234.002	-0.062	-0.101
-615.303	-118.455	0.485	-0.086
-614.288	150.092	0.293	0.397
-613.273	-94.222	-0.321	0.088
-612.259	-200.000	0.003	-0.048
-611.244	59.499	-0.104	-0.103
-610.230	-200.000	-0.014	0.165
-609.215	308.740	-0.118	0.220
-608.201	-146.857	0.026	-0.002
-607.186	800.000	-0.113	-0.318
-606.171	458.386	0.112	-0.249
-605.157	96.194	0.220	-0.251
-604.142	800.000	-0.063	0.242
-603.128	55.573	0.254	-0.246
-602.113	311.028	-0.202	-0.378
-601.098	113.132	-0.132	-0.160
-600.084	-176.448	0.160	-0.004
-599.069	183.278	-0.072	-0.107
-598.055	3.244	0.174	-0.126
-597.040	-58.927	-0.252	-0.109
-596.025	143.432	-0.123	0.164
-595.011	-29.431	0.104	0.059
-593.996	-86.081	-0.228	0.070
-592.982	51.192	0.160	-0.152
-591.967	800.000	0.096	-0.278
-590.952	-200.000	-0.040	-0.259
-589.938	184.008	0.289	-0.427
-588.923	2.073	0.146	-0.105
-587.909	-33.515	0.161	0.089
-586.894	-101.053	-0.246	-0.060
-585.879	-129.597	0.178	0.025
-584.865	-161.031	0.132	-0.007
-583.850	-66.305	0.146	-0.058
-582.836	-170.772	0.110	0.004
-581.821	57.079	0.288	0.281
-580.806	-55.627	0.302	-0.135
-579.792	-200.000	0.007	0.194
-578.777	528.594	0.070	0.165
-577.763	-104.336	-0.247	0.057
-576.748	-11.483	-0.294	0.193
-575.733	-145.399	0.358	0.032
-574.719	800.000	0.109	-0.340
-573.704	-200.000	-0.007	-0.043
-572.690	202.030	0.086	0.133
-571.675	258.128	-0.051	0.088
-570.661	-200.000	0.016	-0.228
-569.646	800.000	0.060	-0.215
-568.631	490.977	-0.117	0.268
-567.617	-38.392	-0.416	-0.220
-566.602	130.923	-0.126	-0.161
-565.588	86.013	-0.043	0.048
-564.573	800.000	0.076	0.231
-563.558	-63.068	-0.219	-0.090
-562.544	62.914	-0.125	-0.125
-561.529	172.651	-0.238	0.341
-560.515	-200.000	-0.001	0.158
-559.500	-6.269	-0.375	0.255
-558.485	-80.998	-0.157	0.052
-557.471	-199.704	0.147	0.001
-556.456	-36.234	0.062	-0.033
-555.442	-80.754	-0.398	-0.132
-554.427	800.000	-0.098	0.272
-553.412	-38.826	0.258	0.136
-552.398	217.407	-0.075	-0.120
-551.383	18.406	-0.182	-0.145
-550.369	1.425	-0.082	-0.059
-549.354	18.788	-0.128	0.102
-548.339	-43.728	-0.165	-0.083
-547.325	46.225	-0.079	-0.073
-546.310	43.364	-0.004	0.004
-545.296	175.728	0.045	-0.066
-544.281	-39.778	0.063	0.033
-543.266	264.294	0.139	-0.241
-542.252	-102.818	0.226	0.054
-541.237	120.925	-0.057	0.071
-540.223	136.331	0.065	0.085
-539.208	269.276	-0.095	0.165
-538.193	-85.696	-0.263	0.081
-537.179	65.394	-0.065	0.066
-536.164	-200.000	-0.040	0.256
-535.150	-76.080	0.351	0.123
-534.135	-200.000	0.064	-0.405
-533.121	-122.119	0.120	-0.020
-532.106	51.596	-0.038	0.036
-531.091	57.939	0.045	0.044
-530.077	292.516	-0.078	0.142
-529.062	-79.460	-0.390	-0.131
-528.048	-10.527	0.237	0.156
-527.033	519.324	0.116	0.272
-526.018	-14.096	-0.222	0.143
-525.004	-200.000	-0.001	-0.151
-523.989	16.211	-0.246	0.194
-522.975	800.000	-0.089	-0.326
-521.960	40.039	0.155	0.139
-520.945	-200.000	0.010	-0.098
-519.931	62.551	0.080	-0.080
-518.916	-105.751	-0.359	-0.081
-517.902	-24.341	0.039	0.023
-516.887	-138.784	0.220	0.024
-515.872	800.000	0.075	0.275
-514.858	-56.217	-0.211	0.093
-513.843	-120.632	-0.064	0.011
-512.829	13.790	0.089	0.069
-511.814	-145.017	0.269	-0.024
-510.799	77.752	-0.185	-0.196
-509.785	-200.000	-0.090	-0.395
-508.770	800.000	-0.013	0.053
-507.756	800.000	0.143	-0.570
-506.741	-54.256	0.297	0.134
-505.726	0.683	0.213	0.151
-504.712	800.000	0.062	-0.207
-503.697	-141.665	-0.082	0.008
-502.683	147.125	-0.080	-0.108
-501.668	140.180	-0.113	0.148
-500.653	566.928	-0.038	0.091
-499.639	62.754	-0.262	-0.261
-498.624	800.000	0.076	0.283
-497.610	800.000	0.024	0.074
-496.595	-26.825	-0.104	0.061
-495.581	457.952	-0.106	0.234
-494.566	-51.084	-0.263	0.123
-493.551	241.281	-0.206	-0.343
-492.537	-144.662	0.213	-0.020
-491.522	13.308	-0.212	0.163
-490.508	24.617	0.131	-0.108
-489.493	-200.000	-0.006	0.237
-488.478	-200.000	-0.008	-0.113
-487.464	437.211	0.131	0.285
-486.449	-102.668	0.091	0.022
-485.435	-55.743	-0.213	0.095
-484.420	-9.849	0.404	0.268
-483.405	-6.424	0.071	-0.048
-482.391	-31.195	-0.042	-0.024
-481.376	3.878	-0.174	0.126
-480.362	747.424	0.179	-0.479
-479.347	-29.684	-0.102	-0.058
-478.332	318.277	-0.069	0.130
-477.318	171.726	-0.135	-0.193
-476.303	-200.000	0.016	-0.194
-475.289	17.961	0.198	0.157
-474.274	22.761	-0.211	-0.172
-473.259	800.000	0.038	0.117
-472.245	-200.000	-0.035	0.165
-471.230	-95.545	0.326	0.087
-470.216	-66.584	0.193	-0.076
-469.201	-200.000	-0.004	0.224
-468.186	-131.291	-0.239	-0.031
-467.172	-63.096	-0.055	-0.023
-466.157	-200.000	0.004	0.245
-465.143	-128.615	0.315	0.044
-464.128	37.263	-0.134	-0.118
-463.113	-70.264	-0.375	-0.142
-462.099	20.088	-0.344	0.276
-461.084	-107.427	0.279	-0.061
-460.070	-123.820	-0.114	0.018
-459.055	181.125	-0.210	0.307
-458.040	-164.387	-0.075	0.003
-457.026	-80.977	0.407	-0.134
-456.011	-200.000	0.060	-0.265
-454.997	-3.911	0.198	-0.137
-453.982	800.000	-0.111	0.332
-452.968	73.771	0.048	-0.050
-451.953	-8.294	-0.087	-0.058
-450.938	57.049	-0.105	0.102
-449.924	51.721	-0.226	0.214
-448.909	-200.000	0.032	0.251
-447.895	432.485	-0.063	-0.135
-446.880	6.311	0.283	-0.209
-445.865	189.740	-0.150	-0.224
-444.851	-116.350	-0.192	-0.035
-443.836	77.452	0.100	-0.106
-442.822	259.731	0.045	0.077
-441.807	-53.385	-0.206	-0.094
-440.792	-126.244	-0.170	-0.025
-439.778	-12.057	0.155	-0.101
-438.763	52.719	-0.117	-0.111
-437.749	120.934	-0.004	0.005
-436.734	-200.000	-0.002	-0.160
-435.719	-200.000	-0.020	-0.170
-434.705	-141.178	-0.443	0.045
-433.690	-89.032	-0.148	-0.043
-432.676	-108.424	0.122	0.026
-431.661	-93.137	0.072	-0.020
-430.646	341.262	0.136	-0.263
-429.632	-36.778	-0.100	-0.054
-428.617	94.295	0.162	-0.182
-427.603	-150.649	-0.361	0.027
-426.588	65.967	-0.292	-0.294
-425.573	27.993	0.174	-0.146
-424.559	-41.509	-0.100	0.051
-423.544	140.712	-0.095	0.124
-422.530	180.156	0.033	-0.049
-421.515	-31.447	-0.066	0.037
-420.500	24.117	-0.240	0.197
-419.486	-86.158	0.203	0.062
-418.471	13.631	0.224	-0.172
-417.457	47.688	-0.090	0.084
-416.442	27.836	0.230	0.192
-415.428	-14.665	-0.234	-0.149
-414.413	-34.895	0.138	-0.075
-413.398	-174.484	-0.235	0.007
-412.384	-57.455	-0.189	-0.082
-411.369	800.000	-0.181	0.520
-410.355	33.957	0.113	-0.097
-409.340	800.000	-0.094	0.316
-408.325	595.839	-0.050	0.122
-407.311	-79.918	0.252	-0.084
-406.296	43.833	0.053	0.048
-405.282	790.897	0.048	0.132
-404.267	-40.073	-0.217	0.112
-403.252	-200.000	0.015	0.141
-402.238	-135.593	0.027	0.003
-401.223	-77.896	0.308	0.105
-400.209	317.671	0.067	-0.127
-399.194	157.922	0.074	0.102
-398.179	217.698	-0.250	0.394
-397.165	-200.000	-0.024	-0.146
-396.150	-7.128	-0.085	-0.057
-395.136	500.908	-0.067	0.154
-394.121	-200.000	0.016	-0.176
-393.106	47.874	0.115	-0.106
-392.092	-200.000	0.012	-0.095
-391.077	222.198	0.196	0.313
-390.063	-182.380	0.312	-0.006
-389.048	109.067	0.152	0.180
-388.033	-5.869	0.207	0.140
-387.019	-51.479	0.133	0.061
-386.004	320.812	0.072	0.135
-384.990	-200.000	0.022	0.307
-383.975	-123.399	-0.258	0.041
-382.960	-154.712	-0.210	-0.014
-381.946	113.669	0.043	-0.051
-380.931	-200.000	0.040	0.232
-379.917	31.814	0.068	-0.058
-378.902	-61.216	-0.104	0.044
-377.888	800.000	-0.042	-0.153
-376.873	-8.746	-0.097	0.064
-375.858	280.247	-0.154	-0.272
-374.844	-64.536	-0.041	-0.017
-373.829	-200.000	0.007	-0.167
-372.815	105.169	0.237	0.277
-371.800	800.000	0.019	-0.064
-370.785	199.493	-0.109	0.165
-369.771	-76.096	-0.298	0.104
-368.756	-97.089	0.230	0.059
-367.742	131.372	0.118	-0.150
-366.727	366.593	-0.042	-0.084
-365.712	750.174	0.147	-0.393
-364.698	21.971	-0.353	-0.285
-363.683	-55.614	-0.298	-0.132
-362.669	-8.524	-0.204	-0.136
-361.654	800.000	0.088	0.241
-360.639	-200.000	-0.063	-0.308
-359.625	800.000	0.083	-0.251
-358.610	140.295	-0.147	-0.192
-357.596	800.000	-0.067	0.261
-356.581	524.500	0.174	0.405
-355.566	800.000	0.055	0.182
-354.552	-78.507	-0.278	-0.094
-353.537	98.312	0.293	-0.334
-352.523	-78.267	0.119	0.040
-351.508	396.605	0.148	0.305
-350.493	30.519	-0.150	0.127
-349.479	-156.135	0.084	0.005
-348.464	322.161	0.027	0.051
-347.450	328.001	0.079	0.150
-346.435	800.000	0.149	-0.409
-345.420	-200.000	0.039	0.253
-344.406	-50.763	0.160	0.074
-343.391	10.150	-0.186	-0.140
-342.377	-184.971	0.086	0.001
-341.362	-15.963	0.300	-0.189
-340.348	180.041	-0.030	0.043
-339.333	-195.353	0.090	0.001
-338.318	321.712	-0.042	-0.080
-337.304	47.314	-0.198	0.182
-336.289	-22.711	0.248	-0.148
-335.275	85.000	0.133	-0.144
-334.260	-113.776	0.260	0.050
-333.245	-74.078	-0.329	-0.118
-332.231	-73.022	0.156	-0.056
-331.216	274.825	0.219	-0.383
-330.202	70.445	-0.186	-0.190
-329.187	-77.577	0.115	-0.040
-328.172	641.791	0.118	-0.298
-327.158	-35.298	-0.464	0.250
-326.143	-200.000	0.004	-0.081
-325.129	-128.353	0.310	0.044
-324.114	-200.000	0.022	0.106
-323.099	123.061	-0.254	0.314
-322.085	34.071	-0.234	-0.202
-321.070	-200.000	0.003	0.159
-320.056	67.646	0.177	-0.179
-319.041	800.000	0.046	-0.177
-318.026	42.391	0.175	-0.157
-317.012	-200.000	-0.003	-0.056
-315.997	-10.727	-0.054	0.036
-314.983	-16.567	-0.182	0.114
-313.968	-61.538	0.281	-0.117
-312.953	-0.600	0.141	-0.099
-311.939	-99.427	-0.097	0.024
-310.924	234.304	0.221	0.360
-309.910	-43.459	0.191	-0.095
-308.895	52.690	-0.077	-0.073
-307.880	25.205	0.156	-0.128
-306.866	168.507	-0.082	0.115
-305.851	8.208	-0.293	0.217
-304.837	17.741	0.110	0.086
-303.822	-21.337	-0.261	0.157
-302.807	-52.539	0.068	-0.031
-301.793	101.860	0.130	-0.150
-300.778	-41.374	0.138	-0.070
-299.764	426.442	-0.110	0.234
-298.749	-111.083	-0.245	0.050
-297.735	-112.496	-0.195	0.038
-296.720	-200.000	0.024	0.482
-295.705	-169.416	0.312	0.011
-294.691	59.416	0.151	0.147
-293.676	-63.386	-0.284	0.115
-292.662	-200.000	0.000	-0.041
-291.647	33.634	0.131	0.113
-290.632	359.190	-0.106	0.210
-289.618	-151.420	0.188	-0.014
-288.603	-200.000	0.010	0.081
-287.589	-144.899	-0.273	0.025
-286.574	8.864	-0.236	-0.175
-285.559	-68.020	0.076	0.029
-284.545	-200.000	-0.004	0.228
-283.530	800.000	-0.079	0.264
-282.516	197.516	-0.063	-0.096
-281.501	285.859	-0.022	0.039
-280.486	-128.918	0.342	-0.047
-279.472	-95.038	-0.276	-0.074
-278.457	412.744	0.022	-0.046
-277.443	343.251	0.104	-0.201
-276.428	-5.592	-0.316	-0.214
-275.413	-59.518	0.179	-0.076
-274.399	-126.249	0.322	0.048
-273.384	25.126	0.266	-0.218
-272.370	276.240	-0.109	-0.190
-271.355	209.505	0.091	-0.140
-270.340	-200.000	0.001	0.019
-269.326	247.129	0.063	-0.105
-268.311	-39.454	-0.067	-0.034
-267.297	19.889	0.103	-0.082
-266.282	-200.000	-0.003	-0.105
-265.267	755.496	-0.009	0.024
-264.253	-27.143	0.155	0.089
-263.238	-72.769	-0.278	-0.101
-262.224	-200.000	-0.030	0.347
-261.209	-115.190	0.114	-0.021
-260.195	33.966	-0.073	-0.062
-259.180	-139.084	0.392	-0.042
-258.165	95.728	-0.106	-0.120
-257.151	800.000	0.046	0.191
-256.136	-120.503	-0.329	0.055
-255.122	-172.965	0.243	-0.007
-254.107	14.915	0.178	0.137
-253.092	-44.645	-0.207	-0.102
-252.078	-71.612	-0.089	0.033
-251.063	-96.019	-0.139	0.036
-250.049	-133.458	-0.112	-0.014
-249.034	775.796	-0.098	0.264
-248.019	-200.000	-0.007	0.199
-247.005	-200.000	0.007	-0.309
-245.990	-121.250	0.137	0.023
-244.976	-103.498	-0.422	-0.098
-243.961	133.836	0.139	-0.177
-242.946	3.674	-0.158	0.114
-241.932	24.731	0.106	-0.087
-240.917	-200.000	-0.001	-0.030
-239.903	132.371	-0.243	0.308
-238.888	788.208	0.106	0.286
-237.873	-21.747	0.304	0.182
-236.859	15.025	-0.357	0.275
-235.844	-162.268	-0.170	0.008
-234.830	137.704	-0.054	-0.070
-233.815	336.771	0.047	0.091
-232.800	-81.196	-0.120	-0.039
-231.786	-200.000	-0.008	-0.069
-230.771	-200.000	0.002	-0.230
-229.757	114.057	-0.098	-0.117
-228.742	105.027	0.098	0.113
-227.727	5.638	0.325	-0.236
-226.713	0.812	0.070	-0.050
-225.698	-31.469	0.148	-0.082
-224.684	-83.787	0.098	0.031
-223.669	54.429	0.034	0.032
-222.655	759.285	0.070	-0.188
-221.640	800.000	-0.040	-0.122
-220.625	416.606	-0.011	0.023
-219.611	132.569	0.241	0.306
-218.596	-200.000	0.023	0.205
-217.582	800.000	-0.098	-0.287
-216.567	-48.798	0.221	-0.104
-215.552	-200.000	0.012	0.229
-214.538	370.200	0.077	0.153
-213.523	-37.940	0.136	-0.071
-212.509	-37.926	-0.434	-0.227
-211.494	-72.034	0.256	-0.094
-210.479	-172.260	-0.362	-0.011
-209.465	-176.630	0.185	0.005
-208.450	800.000	0.053	-0.148
-207.436	-200.000	-0.015	-0.223
-206.421	131.106	0.133	0.168
-205.406	30.801	-0.206	0.174
-204.392	21.807	0.254	-0.204
-203.377	577.345	-0.031	0.074
-202.363	30.352	0.158	0.133
-201.348	-94.310	-0.479	0.129
-200.333	-22.740	0.245	-0.145
-199.319	101.157	-0.083	-0.095
-198.304	211.851	-0.227	-0.351
-197.290	-200.000	0.013	-0.114
-196.275	42.850	0.212	-0.190
-195.260	-144.810	0.229	-0.021
-194.246	-58.159	-0.196	0.084
-193.231	660.664	-0.027	0.068
-192.217	-153.840	0.205	0.014
-191.202	-200.000	-0.021	-0.464
-190.187	-75.700	0.165	-0.058
-189.173	-2.852	0.042	0.029
-188.158	-163.125	0.078	-0.004
-187.144	701.630	-0.123	0.319
-186.129	0.372	-0.106	0.074
-185.114	-105.992	-0.468	-0.104
-184.100	-200.000	-0.152	0.000
-183.085	-145.872	-0.286	-0.025
-182.071	-52.629	0.102	-0.046
-181.056	284.743	0.054	-0.095
-180.042	-200.000	0.072	0.415
-179.027	336.565	-0.246	0.469
-178.012	-200.000	0.017	0.254
-176.998	-200.000	0.021	-0.322
-175.983	800.000	-0.020	-0.066
-174.969	305.132	-0.028	-0.051
-173.954	-51.537	-0.105	-0.048
-172.939	205.545	-0.156	0.238
-171.925	800.000	-0.036	-0.108
-170.910	800.000	-0.040	-0.149
-169.896	13.153	-0.115	0.087
-168.881	-29.606	-0.157	-0.088
-167.866	673.345	-0.010	0.024
-166.852	800.000	-0.049	0.173
-165.837	-1.621	0.216	0.149
-164.823	385.126	0.084	0.169
-163.808	-73.113	0.150	0.054
-162.793	-32.453	-0.100	-0.055
-161.779	64.553	-0.036	-0.036
-160.764	-200.000	0.026	0.147
-159.750	634.081	0.083	-0.206
-158.735	-151.298	0.127	-0.009
-157.720	2.902	0.192	-0.137
-156.706	131.056	0.094	-0.118
-155.691	800.000	0.034	0.141
-154.677	-200.000	0.010	0.157
-153.662	800.000	0.090	0.283
-152.647	150.170	0.119	-0.158
-151.633	319.377	-0.077	0.143
-150.618	-200.000	0.024	0.137
-149.604	-200.000	-0.005	-0.063
-148.589	-200.000	0.040	-0.300
-147.574	-75.934	0.159	-0.055
-146.560	-153.719	0.272	-0.018
-145.545	139.070	0.142	-0.183
-144.531	-48.298	0.189	0.089
-143.516	380.231	-0.076	-0.153
-142.502	165.311	0.189	-0.261
-141.487	-172.520	0.172	0.005
-140.472	115.738	-0.169	0.203
-139.458	-14.467	-0.167	-0.105
-138.443	-30.615	0.186	0.103
-137.429	-155.666	-0.233	0.015
-136.414	-200.000	0.013	-0.091
-135.399	-75.338	-0.032	0.011
-134.385	800.000	-0.066	-0.189
-133.370	800.000	0.033	0.118
-132.356	-7.659	0.105	-0.070
-131.341	800.000	-0.115	-0.410
-130.326	11.396	0.169	0.127
-129.312	-76.157	0.314	-0.109
-128.297	96.411	-0.159	0.178
-127.283	800.000	0.050	0.208
-126.268	-4.027	0.211	-0.144
-125.253	-200.000	0.029	-0.165
-124.239	-153.286	0.129	-0.009
-123.224	800.000	0.036	-0.132
-122.210	13.093	-0.166	0.126
-121.195	-150.508	0.284	-0.021
-120.180	800.000	0.076	-0.270
