DTS Sentinel unit serial number:	SN413079Multiplexer serial number:	ORYXHardware model number:	OX4-SRSoftware version number:	ORYX F/W v4.00 Oryx Data Collector v3.7.2.0data status	okinstallation	princeton_trtdifferential loss correction	single-endedforward channel	channel 2reverse channel	N/Adate	2019/09/11time	10:21:11forward acquisition time	60.00reverse acquisition time	0.00gamma	496.2192k internal	0.2312k external	0.2312temperature offset calibration	0.9966default loss term (dB/km)	0.3790temperature slope calibration	1.0000multiplexer offset coefficient	1.0000multiplexer slope coefficient	1.0000fibre end	0.00T internal ref (°C)	36.12T ext. ref 1 (°C)	0.16T ext. ref 2 (°C)	32.86length (m)	temperature (°C)	Stokes	anti-Stokes-747.200	-200.000	0.006	0.109
-746.185	18.750	0.103	-0.084
-745.171	-160.442	0.487	0.027
-744.156	-200.000	-0.013	-0.263
-743.142	800.000	0.047	0.151
-742.127	588.028	-0.035	0.087
-741.112	-200.000	-0.017	-0.120
-740.098	190.706	0.193	0.294
-739.083	5.204	0.315	0.235
-738.069	-30.710	-0.137	0.079
-737.054	78.910	-0.227	-0.246
-736.039	-98.420	-0.141	0.037
-735.025	8.621	-0.128	0.098
-734.010	-194.568	-0.417	0.003
-732.996	-58.720	-0.379	0.166
-731.981	62.818	0.137	-0.139
-730.966	-200.000	0.054	0.270
-729.952	217.744	0.190	0.308
-728.937	-162.215	-0.182	-0.009
-727.923	122.229	0.051	0.064
-726.908	71.776	-0.188	0.198
-725.894	281.653	-0.129	-0.234
-724.879	-138.380	0.020	0.002
-723.864	-137.155	0.334	0.039
-722.850	-33.202	-0.014	-0.008
-721.835	-200.000	-0.013	-0.113
-720.821	98.726	-0.126	-0.147
-719.806	-132.939	-0.166	-0.021
-718.791	49.987	-0.129	-0.123
-717.777	94.773	-0.146	0.168
-716.762	67.065	-0.082	-0.084
-715.748	57.163	-0.079	-0.078
-714.733	162.542	0.123	-0.176
-713.718	-200.000	-0.035	-0.380
-712.704	-55.053	0.171	-0.078
-711.689	-200.000	-0.013	-0.198
-710.675	-23.056	0.044	0.027
-709.660	18.925	0.111	-0.090
-708.645	-126.628	0.203	0.031
-707.631	-19.004	-0.129	0.081
-706.616	169.535	-0.138	0.199
-705.602	-200.000	0.023	0.370
-704.587	360.126	0.075	-0.152
-703.572	-200.000	-0.038	-0.322
-702.558	-57.436	-0.160	0.071
-701.543	-131.891	0.106	0.014
-700.529	209.973	-0.132	0.210
-699.514	-200.000	0.008	0.142
-698.499	-200.000	0.234	0.001
-697.485	-200.000	0.050	0.400
-696.470	800.000	0.096	0.312
-695.456	-2.493	-0.092	0.066
-694.441	-200.000	-0.003	-0.251
-693.426	480.892	-0.079	-0.182
-692.412	78.582	-0.141	-0.152
-691.397	800.000	0.018	-0.059
-690.383	-200.000	-0.009	-0.083
-689.368	211.833	0.188	-0.300
-688.354	-90.836	0.235	0.069
-687.339	-200.000	-0.021	-0.283
-686.324	172.721	0.135	0.197
-685.310	130.203	-0.047	-0.061
-684.295	-39.330	0.316	-0.168
-683.281	396.237	0.145	0.306
-682.266	-82.131	-0.218	0.072
-681.251	620.870	-0.099	-0.253
-680.237	254.280	-0.113	0.195
-679.222	-4.634	0.062	0.043
-678.208	-146.547	-0.347	0.031
-677.193	144.133	0.135	-0.182
-676.178	437.538	-0.133	-0.294
-675.164	-112.903	-0.172	-0.034
-674.149	-200.000	0.003	0.339
-673.135	137.939	-0.255	0.338
-672.120	-200.000	-0.019	0.098
-671.105	-200.000	-0.013	0.093
-670.091	-200.000	0.003	-0.113
-669.076	-156.150	0.234	-0.015
-668.062	592.181	-0.139	0.349
-667.047	-200.000	-0.009	0.295
-666.032	-200.000	0.053	0.242
-665.018	32.765	0.036	0.031
-664.003	-18.555	-0.147	-0.093
-662.989	218.943	-0.141	-0.228
-661.974	-32.442	-0.235	-0.133
-660.959	-200.000	0.038	0.409
-659.945	800.000	0.114	-0.420
-658.930	63.013	-0.232	-0.235
-657.916	-200.000	-0.043	-0.242
-656.901	-133.707	0.138	0.017
-655.886	-200.000	0.022	-0.249
-654.872	-200.000	-0.018	-0.400
-653.857	22.610	-0.203	0.168
-652.843	-104.040	0.095	-0.022
-651.828	-200.000	0.100	-0.636
-650.814	113.022	-0.245	-0.301
-649.799	-200.000	0.058	0.262
-648.784	79.858	0.137	-0.149
-647.770	45.596	-0.209	0.196
-646.755	-39.565	-0.078	0.041
-645.741	196.859	0.141	-0.217
-644.726	800.000	-0.030	-0.106
-643.711	-200.000	0.016	0.193
-642.697	-82.249	0.161	-0.053
-641.682	196.681	-0.056	-0.086
-640.668	11.157	-0.063	-0.049
-639.653	-200.000	-0.076	-0.397
-638.638	-89.532	-0.243	-0.072
-637.624	-100.283	0.306	-0.077
-636.609	-81.685	0.072	-0.024
-635.595	23.405	-0.164	-0.136
-634.580	-200.000	-0.012	0.158
-633.565	-110.596	0.470	0.098
-632.551	12.141	-0.182	-0.142
-631.536	-96.356	0.151	-0.040
-630.522	-200.000	-0.008	-0.208
-629.507	-107.765	-0.320	-0.071
-628.492	-92.703	-0.263	0.074
-627.478	130.064	0.044	0.057
-626.463	266.998	-0.059	0.104
-625.449	-200.000	-0.045	-0.300
-624.434	81.665	0.164	-0.179
-623.419	-200.000	0.009	0.197
-622.405	-200.000	0.005	-0.189
-621.390	384.185	-0.164	0.341
-620.376	-200.000	0.009	0.383
-619.361	-30.372	-0.263	0.151
-618.346	145.396	0.246	-0.332
-617.332	607.239	0.094	-0.237
-616.317	-200.000	-0.039	-0.247
-615.303	-200.000	-0.023	0.234
-614.288	-200.000	0.017	0.346
-613.273	59.373	0.195	-0.194
-612.259	800.000	0.104	0.344
-611.244	235.012	0.078	0.130
-610.230	105.368	-0.358	-0.427
-609.215	-16.478	-0.377	0.241
-608.201	-106.370	0.159	0.036
-607.186	-200.000	-0.010	-0.124
-606.171	-200.000	-0.019	-0.372
-605.157	36.606	-0.258	0.230
-604.142	-63.208	-0.268	-0.112
-603.128	-170.299	-0.039	-0.001
-602.113	-94.601	-0.157	0.043
-601.098	72.837	0.053	-0.056
-600.084	107.919	-0.107	0.129
-599.069	215.075	0.112	-0.179
-598.055	432.559	-0.052	0.113
-597.040	800.000	-0.017	-0.059
-596.025	243.543	-0.053	0.089
-595.011	-200.000	0.003	-0.075
-593.996	-71.753	0.251	0.095
-592.982	-200.000	-0.017	0.297
-591.967	-129.190	-0.187	-0.026
-590.952	1.233	0.208	0.151
-589.938	-89.592	-0.114	0.034
-588.923	-40.419	-0.201	-0.106
-587.909	-46.530	0.108	0.053
-586.894	-200.000	-0.011	0.117
-585.879	-78.487	-0.137	0.047
-584.865	665.219	0.038	0.099
-583.850	281.977	-0.124	0.223
-582.836	-200.000	-0.007	0.290
-581.821	177.961	-0.173	0.254
-580.806	-200.000	-0.044	0.343
-579.792	-76.749	-0.186	0.066
-578.777	571.460	-0.118	-0.291
-577.763	-200.000	0.003	0.045
-576.748	-200.000	0.009	0.159
-575.733	316.463	0.097	0.185
-574.719	-39.960	-0.315	0.166
-573.704	-13.793	-0.185	0.121
-572.690	-42.729	0.201	0.103
-571.675	-200.000	-0.007	-0.095
-570.661	-116.021	-0.247	-0.046
-569.646	46.880	0.106	-0.100
-568.631	-135.987	-0.087	-0.010
-567.617	139.425	-0.040	0.053
-566.602	-159.231	-0.230	0.013
-565.588	-27.268	-0.304	-0.178
-564.573	-49.532	-0.125	-0.060
-563.558	-200.000	0.006	-0.087
-562.544	42.141	-0.035	0.032
-561.529	-99.300	-0.167	-0.042
-560.515	-200.000	0.015	-0.483
-559.500	-200.000	0.002	0.072
-558.485	41.939	-0.021	0.019
-557.471	-200.000	-0.101	-0.461
-556.456	194.628	0.096	-0.146
-555.442	17.178	0.362	-0.289
-554.427	-172.493	0.287	0.009
-553.412	257.537	-0.139	0.242
-552.398	-26.430	-0.216	0.127
-551.383	-87.249	0.447	-0.137
-550.369	-200.000	0.044	0.233
-549.354	-24.422	0.244	0.146
-548.339	-83.320	0.260	-0.084
-547.325	-200.000	-0.014	-0.176
-546.310	-103.665	0.463	-0.109
-545.296	67.809	-0.242	-0.249
-544.281	7.175	-0.206	-0.155
-543.266	-179.179	-0.115	-0.003
-542.252	-78.967	-0.142	-0.049
-541.237	-59.829	-0.501	-0.216
-540.223	-50.142	-0.269	-0.128
-539.208	-200.000	-0.016	0.290
-538.193	310.478	-0.095	-0.179
-537.179	-180.242	0.340	-0.007
-536.164	-200.000	0.026	0.232
-535.150	14.458	0.121	0.095
-534.135	800.000	-0.060	-0.184
-533.121	276.933	0.082	0.146
-532.106	115.718	0.198	0.243
-531.091	800.000	0.097	0.315
-530.077	-52.782	-0.170	-0.079
-529.062	178.952	-0.129	0.190
-528.048	-96.485	-0.319	-0.085
-527.033	171.453	0.169	0.244
-526.018	-57.256	0.330	-0.146
-525.004	176.895	-0.073	0.107
-523.989	157.084	0.035	0.049
-522.975	32.259	0.241	0.209
-521.960	576.487	-0.150	0.369
-520.945	-48.086	-0.214	0.104
-519.931	99.671	0.194	0.226
-518.916	-111.315	-0.443	0.091
-517.902	125.634	-0.115	-0.146
-516.887	-44.745	-0.057	-0.028
-515.872	-159.696	-0.258	0.014
-514.858	-200.000	-0.019	-0.093
-513.843	-7.105	0.169	0.116
-512.829	408.153	-0.010	0.022
-511.814	269.576	0.162	-0.287
-510.799	-77.774	-0.081	0.028
-509.785	-87.669	-0.359	-0.109
-508.770	800.000	-0.065	0.253
-507.756	800.000	0.073	-0.205
-506.741	241.136	-0.099	0.166
-505.726	52.277	0.115	-0.110
-504.712	-200.000	-0.017	0.087
-503.697	287.331	-0.136	-0.248
-502.683	227.453	0.093	0.151
-501.668	-42.262	-0.233	0.120
-500.653	178.035	0.117	0.172
-499.639	-200.000	-0.020	0.166
-498.624	-30.980	0.199	0.113
-497.610	185.327	0.044	-0.065
-496.595	-200.000	0.005	-0.095
-495.581	24.947	0.043	-0.036
-494.566	-44.170	0.107	-0.054
-493.551	405.350	0.082	-0.175
-492.537	70.810	-0.100	0.104
-491.522	-72.796	-0.065	0.024
-490.508	-64.615	-0.090	-0.037
-489.493	144.923	-0.163	-0.220
-488.478	-87.858	0.283	0.086
-487.464	28.535	0.189	0.161
-486.449	800.000	-0.031	-0.099
-485.435	168.462	0.020	-0.029
-484.420	519.668	0.060	0.140
-483.405	37.952	-0.121	0.108
-482.391	358.905	-0.039	0.078
-481.376	-34.779	-0.154	-0.084
-480.362	324.087	0.021	0.041
-479.347	-143.699	-0.326	-0.031
-478.332	-167.762	0.189	0.008
-477.318	442.697	0.099	-0.217
-476.303	-200.000	-0.002	0.297
-475.289	-93.128	0.172	-0.048
-474.274	83.300	-0.174	-0.191
-473.259	-200.000	-0.054	-0.274
-472.245	-141.323	-0.366	-0.037
-471.230	767.268	0.091	-0.250
-470.216	284.821	0.123	0.223
-469.201	358.809	-0.067	0.135
-468.186	-117.146	0.237	-0.043
-467.172	-26.333	-0.021	-0.012
-466.157	-200.000	0.016	-0.161
-465.143	-59.268	-0.280	0.121
-464.128	-140.267	0.050	0.005
-463.113	138.074	0.052	-0.069
-462.099	-200.000	0.032	0.249
-461.084	-23.766	0.161	-0.097
-460.070	217.707	-0.153	0.244
-459.055	800.000	-0.049	0.172
-458.040	800.000	0.071	-0.244
-457.026	-200.000	0.130	0.000
-456.011	-200.000	0.028	-0.370
-454.997	800.000	-0.125	0.439
-453.982	76.353	0.157	-0.167
-452.968	-70.926	0.250	-0.095
-451.953	-150.482	-0.307	-0.024
-450.938	-200.000	-0.028	0.134
-449.924	203.069	-0.132	-0.204
-448.909	-173.876	0.209	0.006
-447.895	119.371	0.088	-0.109
-446.880	320.274	-0.126	-0.240
-445.865	-179.617	-0.222	0.005
-444.851	97.941	-0.112	0.130
-443.836	-200.000	-0.001	0.221
-442.822	39.397	0.192	-0.173
-441.807	-200.000	0.101	0.509
-440.792	-93.941	-0.348	-0.096
-439.778	26.824	0.032	-0.027
-438.763	34.288	-0.057	0.050
-437.749	160.968	0.158	0.221
-436.734	-132.951	-0.326	-0.042
-435.719	134.905	-0.013	-0.017
-434.705	-200.000	0.007	0.039
-433.690	-72.004	0.227	-0.084
-432.676	-62.733	0.218	-0.091
-431.661	-200.000	-0.024	-0.230
-430.646	-23.491	0.187	-0.113
-429.632	-200.000	-0.051	-0.383
-428.617	402.954	-0.021	-0.044
-427.603	-35.402	-0.215	0.117
-426.588	-97.332	-0.179	-0.047
-425.573	-125.049	0.073	-0.011
-424.559	-110.093	-0.080	-0.017
-423.544	359.277	0.205	0.411
-422.530	-200.000	0.027	0.245
-421.515	-113.954	0.132	-0.026
-420.500	-57.974	0.201	0.088
-419.486	-200.000	-0.001	0.129
-418.471	800.000	-0.060	-0.233
-417.457	246.940	-0.261	-0.442
-416.442	75.229	0.044	0.046
-415.428	-107.921	-0.147	-0.032
-414.413	180.833	0.082	0.121
-413.398	-167.818	-0.367	0.014
-412.384	22.339	-0.469	0.384
-411.369	-6.697	-0.058	-0.039
-410.355	247.076	0.157	0.266
-409.340	-162.857	-0.384	-0.019
-408.325	-160.135	0.283	0.015
-407.311	171.066	0.015	0.021
-406.296	560.701	0.082	-0.198
-405.282	164.018	0.149	-0.210
-404.267	-200.000	-0.002	-0.123
-403.252	60.460	0.162	-0.160
-402.238	-172.077	0.214	0.007
-401.223	-133.101	-0.170	0.022
-400.209	-200.000	-0.005	-0.042
-399.194	-25.409	-0.292	-0.173
-398.179	-135.044	-0.199	-0.024
-397.165	173.938	0.062	0.089
-396.150	-37.828	0.184	0.098
-395.136	145.417	-0.207	-0.278
-394.121	469.964	-0.082	-0.184
-393.106	264.146	0.114	-0.198
-392.092	-61.766	0.302	-0.127
-391.077	-27.143	-0.048	-0.028
-390.063	67.990	-0.122	0.125
-389.048	91.408	-0.176	-0.197
-388.033	392.941	0.114	-0.238
-387.019	-85.995	0.248	0.077
-386.004	152.363	-0.136	0.186
-384.990	-200.000	-0.056	-0.322
-383.975	-25.183	0.103	0.061
-382.960	-81.019	-0.101	-0.033
-381.946	-95.956	-0.142	-0.038
-380.931	-117.364	0.409	0.074
-379.917	-33.483	-0.264	-0.146
-378.902	333.612	-0.190	-0.368
-377.888	800.000	0.030	-0.121
-376.873	354.033	0.078	0.154
-375.858	290.447	-0.153	0.278
-374.844	31.776	0.118	-0.101
-373.829	273.980	0.098	0.174
-372.815	-200.000	0.021	-0.406
-371.800	-200.000	-0.000	0.007
-370.785	-146.359	0.179	0.016
-369.771	-200.000	0.017	-0.174
-368.756	51.325	0.180	0.171
-367.742	599.134	-0.032	0.080
-366.727	-84.083	-0.512	0.163
-365.712	-153.479	-0.402	0.028
-364.698	-71.119	-0.042	0.016
-363.683	-93.015	0.139	0.039
-362.669	-200.000	-0.050	-0.272
-361.654	-135.102	-0.071	0.009
-360.639	-51.550	-0.220	-0.102
-359.625	-200.000	0.024	-0.136
-358.610	76.325	-0.280	0.297
-357.596	-200.000	0.010	-0.407
-356.581	-200.000	0.001	0.015
-355.566	248.565	0.077	-0.131
-354.552	3.260	0.201	0.147
-353.537	-200.000	-0.038	0.263
-352.523	-200.000	0.006	-0.260
-351.508	221.870	0.058	-0.094
-350.493	-91.112	0.193	-0.055
-349.479	-104.488	-0.398	-0.092
-348.464	-63.988	0.159	-0.065
-347.450	595.430	-0.083	-0.206
-346.435	-25.615	0.119	-0.070
-345.420	-200.000	-0.106	-0.498
-344.406	584.583	0.117	-0.288
-343.391	70.194	0.230	-0.237
-342.377	800.000	-0.143	0.397
-341.362	800.000	0.077	-0.324
-340.348	-200.000	0.027	0.381
-339.333	429.912	0.074	-0.160
-338.318	-114.666	0.059	0.011
-337.304	-13.693	0.384	0.248
-336.289	-58.153	0.192	-0.084
-335.275	22.829	0.206	-0.168
-334.260	397.049	-0.109	-0.227
-333.245	-131.525	-0.332	-0.044
-332.231	285.445	0.090	0.163
-331.216	-93.029	-0.100	0.028
-330.202	-200.000	0.031	0.154
-329.187	800.000	-0.044	0.155
-328.172	68.617	0.134	0.137
-327.158	286.378	-0.080	0.144
-326.143	544.976	-0.012	0.028
-325.129	268.344	-0.211	-0.370
-324.114	221.522	0.095	0.152
-323.099	97.880	-0.180	0.207
-322.085	-84.198	0.449	0.142
-321.070	-64.250	-0.173	0.070
-320.056	-123.593	-0.228	0.036
-319.041	-57.454	0.237	0.104
-318.026	800.000	0.025	0.096
-317.012	-106.972	-0.090	-0.020
-315.997	216.176	0.094	-0.148
-314.983	-36.171	0.158	-0.085
-313.968	386.202	0.079	-0.163
-312.953	-68.704	0.087	-0.034
-311.939	-200.000	-0.003	-0.116
-310.924	70.623	0.111	-0.115
-309.910	-68.577	0.257	0.100
-308.895	151.174	-0.156	0.211
-307.880	-189.514	0.289	0.003
-306.866	573.546	-0.056	-0.135
-305.851	-163.533	0.109	0.005
-304.837	44.674	0.102	-0.094
-303.822	427.253	-0.068	-0.146
-302.807	-200.000	0.030	0.276
-301.793	-168.033	-0.322	0.013
-300.778	26.337	0.261	0.217
-299.764	117.406	0.109	-0.134
-298.749	93.618	-0.082	-0.092
-297.735	-98.211	0.400	-0.103
-296.720	-63.048	0.181	-0.074
-295.705	95.129	-0.343	0.389
-294.691	170.159	0.157	0.224
-293.676	-200.000	0.132	-0.646
-292.662	-91.856	0.285	-0.081
-291.647	61.668	-0.294	-0.292
-290.632	-173.524	0.207	0.006
-289.618	-91.988	-0.249	-0.070
-288.603	-200.000	-0.061	0.304
-287.589	111.108	0.075	-0.090
-286.574	-79.903	0.066	0.022
-285.559	-127.904	0.293	0.042
-284.545	691.331	0.093	0.243
-283.530	-148.978	-0.315	-0.025
-282.516	-146.505	-0.159	-0.014
-281.501	-89.902	-0.350	-0.102
-280.486	-56.087	0.210	-0.093
-279.472	-135.545	0.024	-0.003
-278.457	-74.621	0.410	-0.147
-277.443	658.260	0.031	-0.080
-276.428	-5.745	-0.216	-0.147
-275.413	194.649	-0.102	-0.154
-274.399	382.769	0.227	0.465
-273.384	196.700	-0.056	-0.085
-272.370	651.814	0.050	0.127
-271.355	203.820	-0.142	0.219
-270.340	-200.000	0.048	-0.213
-269.326	141.419	0.052	-0.069
-268.311	-38.608	0.166	-0.087
-267.297	-165.845	0.148	0.006
-266.282	-200.000	-0.029	0.229
-265.267	571.749	-0.025	0.062
-264.253	12.997	-0.190	0.147
-263.238	-40.467	-0.024	-0.012
-262.224	-42.486	-0.305	0.155
-261.209	180.278	-0.020	0.030
-260.195	-58.839	-0.244	0.105
-259.180	-200.000	0.006	0.143
-258.165	1.255	-0.237	0.169
-257.151	30.843	-0.398	0.339
-256.136	65.493	0.042	-0.042
-255.122	-118.676	-0.245	-0.043
-254.107	-200.000	0.034	0.265
-253.092	800.000	-0.105	0.318
-252.078	61.433	0.121	0.120
-251.063	-93.501	-0.155	-0.043
-250.049	-200.000	0.015	0.072
-249.034	-37.512	0.221	0.118
-248.019	-146.117	-0.210	-0.018
-247.005	188.661	0.102	0.152
-245.990	-19.301	0.106	0.066
-244.976	226.273	0.013	-0.022
-243.961	800.000	0.024	-0.092
-242.946	53.731	0.070	0.067
-241.932	800.000	0.012	0.033
-240.917	-106.181	0.228	-0.051
-239.903	670.390	0.047	0.120
-238.888	-200.000	0.036	-0.244
-237.873	59.540	-0.189	0.186
-236.859	67.892	-0.187	-0.191
-235.844	-47.518	-0.266	-0.129
-234.830	169.798	-0.067	0.096
-233.815	791.113	0.169	0.462
-232.800	240.989	0.092	0.152
-231.786	-76.850	0.114	-0.040
-230.771	34.376	-0.165	0.143
-229.757	-79.070	0.399	-0.135
-228.742	-200.000	0.017	-0.117
-227.727	800.000	-0.067	0.240
-226.713	-56.257	-0.434	0.192
-225.698	213.566	0.200	0.315
-224.684	-200.000	0.032	0.261
-223.669	5.034	-0.206	-0.151
-222.655	53.888	0.180	0.172
-221.640	30.959	0.102	0.087
-220.625	-200.000	-0.026	0.162
-219.611	800.000	0.079	-0.324
-218.596	-200.000	0.000	-0.178
-217.582	-200.000	-0.032	0.234
-216.567	192.193	0.168	0.252
-215.552	42.421	0.106	0.095
-214.538	41.345	0.306	0.275
-213.523	-200.000	0.009	0.121
-212.509	-111.706	0.129	0.026
-211.494	-32.500	0.073	-0.041
-210.479	-111.689	-0.072	0.014
-209.465	147.244	0.140	0.187
-208.450	-50.638	0.130	-0.061
-207.436	35.413	-0.085	0.074
-206.421	-200.000	-0.003	0.083
-205.406	-101.862	-0.183	0.044
-204.392	-125.962	0.306	0.046
-203.377	-149.627	-0.384	0.030
-202.363	126.941	0.040	-0.050
-201.348	-82.329	0.207	-0.067
-200.333	-8.519	-0.125	0.084
-199.319	162.349	0.057	0.079
-198.304	-114.262	0.226	0.043
-197.290	-14.409	0.474	0.303
-196.275	35.405	0.169	0.147
-195.260	-200.000	0.046	-0.258
-194.246	247.646	0.226	-0.379
-193.231	446.770	-0.026	-0.057
-192.217	340.711	-0.132	-0.256
-191.202	68.408	-0.147	0.150
-190.187	48.375	-0.110	-0.102
-189.173	2.008	-0.364	-0.261
-188.158	-35.442	0.338	-0.182
-187.144	800.000	0.011	-0.032
-186.129	-84.917	0.054	-0.017
-185.114	613.367	-0.065	-0.161
-184.100	629.722	0.086	0.216
-183.085	-139.706	-0.337	0.036
-182.071	-48.076	0.263	-0.126
-181.056	-91.586	0.181	-0.051
-180.042	81.661	0.055	-0.060
-179.027	146.722	0.103	-0.137
-178.012	-70.230	0.236	-0.089
-176.998	38.913	0.200	-0.178
-175.983	-5.633	-0.229	0.156
-174.969	-200.000	-0.002	-0.151
-173.954	-200.000	-0.024	0.141
-172.939	351.398	0.108	-0.213
-171.925	-24.714	0.233	0.137
-170.910	174.143	0.149	-0.213
-169.896	-89.013	-0.350	0.103
-168.881	-200.000	0.265	0.001
-167.866	-93.570	0.193	0.053
-166.852	273.099	0.223	-0.391
-165.837	-146.089	0.531	-0.047
-164.823	-200.000	0.023	-0.291
-163.808	-57.089	-0.166	0.073
-162.793	31.221	0.188	0.160
-161.779	-10.813	0.097	0.064
-160.764	-200.000	0.035	0.330
-159.750	-200.000	0.004	-0.101
-158.735	-160.985	-0.296	0.015
-157.720	16.752	0.201	-0.158
-156.706	58.476	-0.046	0.044
-155.691	387.784	0.197	-0.405
-154.677	274.211	0.120	-0.210
-153.662	-138.121	-0.254	-0.028
-152.647	-105.325	0.260	0.059
-151.633	-200.000	0.015	-0.157
-150.618	-200.000	0.011	0.124
-149.604	51.732	-0.224	0.211
-148.589	-65.024	0.137	0.055
-147.574	43.141	0.147	0.133
-146.560	-83.659	0.099	-0.031
-145.545	-74.733	0.121	0.043
-144.531	499.075	-0.036	-0.081
-143.516	3.991	-0.190	0.137
-142.502	-200.000	-0.029	-0.180
-141.487	-200.000	0.047	-0.316
-140.472	47.446	-0.290	-0.268
-139.458	228.208	0.060	0.097
-138.443	800.000	-0.118	-0.351
-137.429	800.000	0.066	-0.259
-136.414	-29.044	-0.119	-0.068
-135.399	-77.265	-0.280	-0.097
-134.385	-28.809	0.315	-0.180
-133.370	-69.601	-0.156	0.059
-132.356	-50.303	0.243	-0.114
-131.341	-200.000	-0.024	0.127
-130.326	-106.943	-0.264	0.058
-129.312	-122.291	-0.250	0.040
-128.297	-24.673	0.041	-0.024
-127.283	36.301	0.071	-0.062
-126.268	442.538	-0.273	-0.592
-125.253	-114.057	0.297	0.057
-124.239	-19.206	0.225	0.138
-123.224	663.077	0.175	0.447
-122.210	-200.000	-0.007	-0.104
