DTS Sentinel unit serial number:	SN413079Multiplexer serial number:	ORYXHardware model number:	OX4-SRSoftware version number:	ORYX F/W v4.00 Oryx Data Collector v3.7.2.0data status	okinstallation	princeton_trtdifferential loss correction	single-endedforward channel	channel 2reverse channel	N/Adate	2019/09/11time	03:29:11forward acquisition time	60.00reverse acquisition time	0.00gamma	496.2192k internal	0.2329k external	0.2329temperature offset calibration	0.9938default loss term (dB/km)	0.3790temperature slope calibration	1.0000multiplexer offset coefficient	1.0000multiplexer slope coefficient	1.0000fibre end	0.00T internal ref (°C)	29.44T ext. ref 1 (°C)	-0.29T ext. ref 2 (°C)	24.15length (m)	temperature (°C)	Stokes	anti-Stokes-747.200	-94.620	0.256	0.070
-746.185	-200.000	-0.009	0.089
-745.171	437.535	0.094	0.206
-744.156	800.000	-0.118	0.375
-743.142	800.000	-0.023	-0.099
-742.127	-72.471	-0.202	0.075
-741.112	-14.084	0.218	0.142
-740.098	46.132	-0.330	0.308
-739.083	800.000	0.048	-0.173
-738.069	-200.000	-0.027	-0.268
-737.054	-91.121	0.026	0.007
-736.039	-200.000	-0.065	-0.291
-735.025	-50.039	-0.096	-0.046
-734.010	800.000	-0.080	-0.250
-732.996	2.013	-0.043	-0.031
-731.981	532.311	-0.181	0.430
-730.966	-164.477	-0.214	-0.010
-729.952	-200.000	0.010	-0.087
-728.937	-104.050	0.109	-0.026
-727.923	1.239	0.132	-0.096
-726.908	-52.250	-0.075	0.035
-725.894	248.868	-0.059	-0.101
-724.879	114.002	-0.144	-0.176
-723.864	445.626	0.117	0.259
-722.850	140.101	0.110	0.145
-721.835	-200.000	-0.047	0.573
-720.821	-120.271	0.084	0.014
-719.806	-29.198	0.045	-0.026
-718.791	244.076	0.159	-0.268
-717.777	-200.000	0.003	0.205
-716.762	163.241	0.169	0.238
-715.748	-2.385	-0.301	-0.212
-714.733	4.397	-0.208	-0.153
-713.718	-200.000	-0.024	0.119
-712.704	-152.323	0.326	0.024
-711.689	768.916	0.136	-0.373
-710.675	319.743	-0.030	0.057
-709.660	800.000	-0.042	-0.137
-708.645	83.897	0.113	0.124
-707.631	-181.269	-0.256	-0.005
-706.616	-44.803	-0.388	0.195
-705.602	557.457	-0.089	0.216
-704.587	488.389	0.075	-0.173
-703.572	124.206	-0.297	0.376
-702.558	250.164	0.042	-0.071
-701.543	-68.874	0.193	0.075
-700.529	-80.725	0.379	-0.127
-699.514	-200.000	-0.042	-0.232
-698.499	171.753	-0.287	-0.414
-697.485	-179.727	-0.106	0.002
-696.470	-96.512	-0.135	-0.036
-695.456	-200.000	0.008	0.196
-694.441	-83.740	-0.055	0.018
-693.426	-200.000	-0.001	0.445
-692.412	-1.529	-0.281	-0.199
-691.397	113.267	-0.141	0.172
-690.383	-200.000	0.036	-0.178
-689.368	-31.914	-0.262	-0.147
-688.354	-133.635	0.162	-0.020
-687.339	123.255	-0.205	0.258
-686.324	-25.936	0.323	0.191
-685.310	446.471	-0.143	0.317
-684.295	-200.000	0.035	0.172
-683.281	33.804	-0.146	-0.128
-682.266	-157.480	0.274	-0.017
-681.251	-200.000	0.019	-0.203
-680.237	426.323	0.078	0.168
-679.222	-137.718	-0.152	0.017
-678.208	-37.361	-0.080	-0.043
-677.193	-13.605	-0.110	-0.072
-676.178	-31.888	-0.173	0.097
-675.164	58.801	-0.244	-0.241
-674.149	553.054	0.076	0.184
-673.135	-200.000	0.046	0.206
-672.120	67.228	0.121	0.124
-671.105	-200.000	-0.012	-0.191
-670.091	-110.726	0.240	0.050
-669.076	-200.000	0.045	-0.327
-668.062	-200.000	0.000	-0.026
-667.047	-108.956	0.230	-0.049
-666.032	243.675	-0.078	0.131
-665.018	54.451	0.095	-0.092
-664.003	414.862	0.092	0.196
-662.989	35.626	-0.102	-0.090
-661.974	-153.064	0.221	-0.016
-660.959	-136.937	0.320	-0.037
-659.945	473.603	0.126	0.285
-658.930	683.188	0.067	-0.176
-657.916	-200.000	0.054	-0.480
-656.901	-30.945	0.149	-0.084
-655.886	-200.000	0.063	0.340
-654.872	12.090	-0.169	-0.130
-653.857	-41.107	-0.296	-0.153
-652.843	126.111	-0.052	-0.066
-651.828	-27.580	-0.161	-0.094
-650.814	800.000	-0.108	0.376
-649.799	-9.591	0.208	0.139
-648.784	-151.893	0.143	0.010
-647.770	27.115	-0.190	0.160
-646.755	-124.354	-0.410	0.064
-645.741	-174.711	-0.273	-0.008
-644.726	144.444	0.098	-0.131
-643.711	-4.994	-0.098	0.068
-642.697	-120.345	0.275	-0.047
-641.682	253.352	-0.126	-0.216
-640.668	-97.134	0.225	-0.059
-639.653	-200.000	-0.033	0.213
-638.638	-25.900	-0.136	-0.080
-637.624	-182.045	-0.441	-0.008
-636.609	-144.663	-0.208	0.019
-635.595	186.796	0.277	-0.414
-634.580	-118.086	0.126	0.022
-633.565	800.000	0.090	-0.278
-632.551	197.395	0.060	0.092
-631.536	192.405	0.191	0.290
-630.522	180.006	0.072	-0.106
-629.507	-64.445	-0.122	0.050
-628.492	-1.112	0.175	-0.124
-627.478	28.622	-0.358	0.303
-626.463	-196.429	0.270	-0.002
-625.449	-200.000	0.001	0.132
-624.434	-75.804	-0.220	0.078
-623.419	-28.537	0.135	0.078
-622.405	-134.227	-0.087	-0.011
-621.390	800.000	0.055	0.210
-620.376	800.000	0.107	0.358
-619.361	800.000	-0.073	-0.222
-618.346	-72.545	0.307	-0.114
-617.332	48.407	0.086	-0.081
-616.317	-70.267	0.251	0.095
-615.303	-99.243	0.150	0.038
-614.288	158.319	0.169	-0.235
-613.273	126.802	-0.102	-0.129
-612.259	56.802	-0.110	0.108
-611.244	28.192	-0.353	0.298
-610.230	800.000	0.043	-0.132
-609.215	-18.449	0.126	0.079
-608.201	-132.767	0.235	0.030
-607.186	-12.347	-0.233	0.153
-606.171	-140.988	0.235	0.024
-605.157	193.493	-0.020	0.031
-604.142	18.349	-0.281	-0.225
-603.128	7.313	0.110	-0.082
-602.113	-147.537	0.366	0.031
-601.098	242.968	0.084	-0.141
-600.084	-136.504	0.367	-0.043
-599.069	-153.428	0.261	-0.018
-598.055	498.416	0.067	0.154
-597.040	-126.801	0.204	0.030
-596.025	-144.463	-0.176	-0.016
-595.011	176.483	-0.082	-0.119
-593.996	-200.000	-0.037	-0.206
-592.982	-74.364	-0.216	0.078
-591.967	-200.000	0.028	-0.153
-590.952	33.193	0.286	-0.248
-589.938	-33.358	-0.248	-0.137
-588.923	-67.816	-0.238	-0.093
-587.909	59.051	0.037	0.037
-586.894	89.835	0.153	0.171
-585.879	332.362	-0.041	-0.080
-584.865	-14.998	0.289	-0.186
-583.850	-67.563	0.050	0.020
-582.836	1.146	-0.107	0.077
-581.821	-55.021	-0.059	0.027
-580.806	371.084	0.014	0.028
-579.792	270.681	-0.217	-0.382
-578.777	-82.727	-0.145	-0.047
-577.763	-99.076	-0.247	-0.062
-576.748	253.320	0.088	0.150
-575.733	-44.958	0.140	0.070
-574.719	108.284	-0.229	0.273
-573.704	24.335	0.087	-0.072
-572.690	-200.000	-0.040	-0.405
-571.675	-200.000	0.081	0.396
-570.661	-33.413	-0.056	0.031
-569.646	-82.310	0.319	0.104
-568.631	23.682	-0.133	0.110
-567.617	38.418	-0.195	0.174
-566.602	-200.000	-0.003	-0.028
-565.588	71.986	-0.313	-0.326
-564.573	36.676	0.255	-0.225
-563.558	-73.612	-0.115	-0.042
-562.544	-200.000	-0.048	0.217
-561.529	-7.493	-0.199	0.135
-560.515	102.337	-0.232	0.271
-559.500	239.616	-0.092	-0.154
-558.485	127.878	0.088	-0.112
-557.471	800.000	-0.029	-0.083
-556.456	-100.112	-0.063	-0.016
-555.442	58.212	-0.252	-0.247
-554.427	-114.756	-0.281	-0.054
-553.412	-200.000	-0.025	0.144
-552.398	155.733	0.139	0.191
-551.383	157.264	0.123	0.170
-550.369	358.992	-0.049	-0.099
-549.354	37.806	0.391	-0.347
-548.339	-200.000	-0.011	0.151
-547.325	-132.883	-0.265	-0.034
-546.310	78.398	-0.216	-0.230
-545.296	800.000	0.112	-0.369
-544.281	-124.301	-0.179	-0.028
-543.266	-63.294	0.350	0.144
-542.252	-29.462	-0.196	-0.112
-541.237	-98.798	-0.288	-0.073
-540.223	120.806	-0.082	-0.102
-539.208	-200.000	0.022	-0.300
-538.193	-129.684	-0.101	0.014
-537.179	-7.707	0.340	0.230
-536.164	-200.000	0.036	-0.165
-535.150	800.000	-0.041	-0.114
-534.135	-61.697	0.163	0.068
-533.121	-28.341	-0.242	0.139
-532.106	-124.560	0.344	0.053
-531.091	487.003	-0.067	0.152
-530.077	-7.414	0.406	-0.274
-529.062	-65.150	0.339	0.136
-528.048	800.000	-0.036	0.113
-527.033	190.962	-0.015	0.023
-526.018	95.327	-0.043	0.048
-525.004	238.861	0.130	0.215
-523.989	94.387	-0.116	-0.132
-522.975	131.540	-0.122	-0.156
-521.960	-142.366	-0.335	0.033
-520.945	-200.000	0.005	-0.158
-519.931	-32.822	-0.085	-0.047
-518.916	19.422	-0.215	0.173
-517.902	26.147	-0.204	-0.170
-516.887	72.449	-0.077	0.080
-515.872	-157.585	0.289	-0.017
-514.858	159.299	-0.133	0.185
-513.843	-180.931	-0.042	0.001
-512.829	692.977	0.047	0.123
-511.814	-200.000	-0.055	0.248
-510.799	-0.677	-0.294	-0.208
-509.785	177.488	0.242	0.352
-508.770	800.000	-0.075	-0.230
-507.756	-79.604	-0.248	0.083
-506.741	34.000	-0.282	0.245
-505.726	-75.538	0.213	0.076
-504.712	79.485	0.188	0.201
-503.697	800.000	-0.016	-0.049
-502.683	263.697	0.059	0.103
-501.668	-54.641	0.195	0.088
-500.653	-73.508	0.030	0.011
-499.639	-104.859	0.165	0.038
-498.624	-156.642	0.349	-0.022
-497.610	139.942	0.109	0.144
-496.595	-107.947	0.292	-0.063
-495.581	800.000	-0.006	0.022
-494.566	414.748	-0.048	-0.102
-493.551	-55.674	0.336	0.150
-492.537	623.475	0.040	-0.099
-491.522	29.219	-0.120	-0.101
-490.508	-108.913	-0.294	-0.063
-489.493	-115.158	-0.112	0.021
-488.478	-45.439	-0.180	-0.089
-487.464	800.000	-0.068	0.203
-486.449	-25.441	-0.125	-0.073
-485.435	-69.210	0.165	-0.063
-484.420	37.600	-0.109	0.097
-483.405	42.627	-0.136	-0.123
-482.391	-90.807	-0.360	0.103
-481.376	-30.908	0.166	-0.094
-480.362	-94.281	-0.389	0.106
-479.347	-11.430	0.078	-0.051
-478.332	-184.346	-0.169	0.003
-477.318	243.690	-0.191	-0.320
-476.303	-20.510	0.089	0.054
-475.289	97.630	-0.096	0.109
-474.274	491.210	-0.189	-0.431
-473.259	-99.282	-0.252	0.063
-472.245	70.517	-0.258	0.266
-471.230	-140.940	0.239	0.024
-470.216	-93.881	-0.152	0.042
-469.201	-21.002	-0.180	0.110
-468.186	103.238	-0.106	-0.123
-467.172	-170.544	0.264	0.009
-466.157	14.809	-0.183	-0.142
-465.143	-60.940	-0.314	0.132
-464.128	80.645	-0.103	0.110
-463.113	-89.016	0.127	0.037
-462.099	673.506	0.014	-0.036
-461.084	305.175	0.088	-0.163
-460.070	39.875	-0.122	0.109
-459.055	-78.323	0.199	0.068
-458.040	90.972	-0.194	-0.216
-457.026	-200.000	-0.005	0.039
-456.011	127.909	-0.115	0.146
-454.997	-200.000	-0.012	-0.085
-453.982	-8.298	0.043	0.029
-452.968	-70.930	-0.137	-0.052
-451.953	800.000	0.042	0.132
-450.938	800.000	-0.063	0.232
-449.924	800.000	-0.033	-0.104
-448.909	98.497	0.148	-0.170
-447.895	-200.000	-0.028	0.384
-446.880	-18.950	-0.084	-0.052
-445.865	-200.000	-0.007	-0.043
-444.851	25.517	0.247	-0.205
-443.836	800.000	0.022	-0.083
-442.822	588.398	-0.032	-0.077
-441.807	-48.917	-0.143	0.068
-440.792	-200.000	-0.016	-0.280
-439.778	800.000	-0.026	0.091
-438.763	-126.398	-0.582	0.086
-437.749	-105.626	0.549	-0.124
-436.734	-91.420	-0.304	0.086
-435.719	-156.429	-0.505	-0.031
-434.705	800.000	0.059	-0.176
-433.690	-126.258	-0.132	0.020
-432.676	76.193	0.138	0.146
-431.661	145.603	0.225	0.299
-430.646	410.545	0.155	-0.326
-429.632	800.000	-0.132	-0.409
-428.617	-56.179	0.094	0.042
-427.603	-104.662	0.147	0.034
-426.588	-106.001	0.228	0.051
-425.573	-174.773	0.167	0.005
-424.559	63.011	-0.136	-0.136
-423.544	75.415	0.155	-0.163
-422.530	35.531	-0.167	0.145
-421.515	-30.365	-0.375	-0.212
-420.500	-48.535	-0.215	0.103
-419.486	586.646	0.117	0.286
-418.471	-135.321	-0.427	-0.051
-417.457	-42.087	-0.044	-0.022
-416.442	-66.311	0.192	-0.076
-415.428	800.000	0.018	0.066
-414.413	-200.000	-0.019	-0.162
-413.398	140.025	-0.098	0.128
-412.384	198.064	-0.241	0.367
-411.369	232.116	-0.088	-0.144
-410.355	85.654	0.152	0.166
-409.340	345.688	0.014	-0.028
-408.325	-200.000	0.008	0.180
-407.311	94.468	0.577	-0.652
-406.296	-143.851	0.461	0.043
-405.282	-200.000	-0.015	0.187
-404.267	800.000	-0.079	-0.321
-403.252	800.000	0.120	0.369
-402.238	-43.456	0.062	-0.031
-401.223	-24.543	-0.177	0.105
-400.209	-200.000	-0.018	0.106
-399.194	675.298	0.080	0.208
-398.179	-144.847	0.167	-0.015
-397.165	291.356	0.095	0.172
-396.150	-41.350	0.223	-0.114
-395.136	341.141	-0.040	-0.077
-394.121	800.000	0.031	-0.117
-393.106	-22.997	-0.219	0.131
-392.092	129.686	0.074	0.094
-391.077	164.307	-0.069	0.097
-390.063	-200.000	-0.023	-0.195
-389.048	381.638	-0.024	0.049
-388.033	29.493	-0.081	0.069
-387.019	273.712	0.086	-0.151
-386.004	336.789	-0.128	0.247
-384.990	-146.149	0.272	0.024
-383.975	-200.000	-0.045	-0.229
-382.960	-200.000	-0.043	-0.194
-381.946	7.529	0.155	-0.115
-380.931	-8.179	-0.120	-0.080
-379.917	-51.144	-0.106	-0.049
-378.902	-130.928	0.383	-0.051
-377.888	-200.000	-0.012	-0.261
-376.873	764.344	0.068	-0.183
-375.858	-120.439	0.131	0.022
-374.844	153.225	-0.071	-0.096
-373.829	-200.000	0.013	-0.082
-372.815	800.000	0.040	-0.110
-371.800	119.021	0.012	0.014
-370.785	-9.932	0.020	-0.013
-369.771	-85.695	-0.043	0.013
-368.756	-109.608	-0.197	-0.041
-367.742	800.000	0.064	-0.247
-366.727	58.891	0.220	-0.214
-365.712	-37.581	0.192	0.102
-364.698	77.998	0.125	0.133
-363.683	14.772	-0.238	-0.185
-362.669	4.052	-0.085	0.062
-361.654	-32.691	0.143	-0.079
-360.639	-200.000	0.014	0.310
-359.625	34.807	-0.162	0.141
-358.610	-29.405	0.108	0.061
-357.596	-200.000	-0.035	0.259
-356.581	305.273	0.047	-0.086
-355.566	-98.364	0.188	-0.048
-354.552	77.782	0.149	-0.157
-353.537	60.374	0.280	-0.275
-352.523	800.000	0.093	0.309
-351.508	33.895	0.259	-0.224
-350.493	75.913	0.095	0.099
-349.479	-95.711	-0.035	-0.009
-348.464	91.180	0.251	-0.279
-347.450	26.945	-0.125	0.104
-346.435	-200.000	-0.018	0.080
-345.420	-13.218	-0.214	0.138
-344.406	-47.778	0.172	0.083
-343.391	-37.170	0.132	0.070
-342.377	-118.647	-0.180	-0.031
-341.362	-134.031	0.374	0.046
-340.348	166.677	0.072	0.102
-339.333	22.028	-0.083	-0.068
-338.318	800.000	0.034	-0.103
-337.304	-113.185	0.084	-0.016
-336.289	-92.476	0.069	-0.019
-335.275	800.000	-0.041	-0.174
-334.260	-80.485	0.260	0.086
-333.245	-153.525	-0.133	-0.009
-332.231	800.000	-0.047	-0.150
-331.216	-66.865	-0.153	-0.060
-330.202	-121.895	0.285	-0.046
-329.187	-115.677	0.269	-0.050
-328.172	110.055	-0.199	-0.236
-327.158	118.349	0.146	-0.178
-326.143	-200.000	0.015	-0.143
-325.129	800.000	-0.037	-0.112
-324.114	-39.937	-0.140	-0.072
-323.099	-33.853	-0.179	-0.098
-322.085	-200.000	0.037	-0.233
-321.070	-111.147	-0.238	0.048
-320.056	-200.000	-0.002	0.313
-319.041	-200.000	-0.004	0.197
-318.026	294.910	0.153	-0.276
-317.012	-200.000	0.004	-0.058
-315.997	-66.104	-0.251	0.099
-314.983	-200.000	0.008	-0.191
-313.968	-138.180	-0.194	-0.021
-312.953	682.140	0.108	-0.278
-311.939	800.000	-0.071	0.228
-310.924	164.509	0.146	-0.204
-309.910	-29.393	-0.186	-0.105
-308.895	193.683	0.089	0.134
-307.880	-14.437	-0.036	0.023
-306.866	800.000	0.117	0.452
-305.851	88.004	0.194	0.213
-304.837	-106.490	-0.127	-0.028
-303.822	800.000	0.100	0.418
-302.807	-46.343	-0.161	-0.078
-301.793	-108.750	-0.337	-0.071
-300.778	-200.000	0.079	-0.417
-299.764	-157.115	0.353	0.021
-298.749	800.000	-0.107	0.391
-297.735	-200.000	0.034	0.219
-296.720	800.000	0.045	-0.135
-295.705	516.647	0.047	-0.108
-294.691	429.985	0.078	0.166
-293.676	-199.862	-0.376	0.002
-292.662	304.081	-0.116	0.212
-291.647	-102.027	0.101	0.024
-290.632	-184.371	0.159	-0.003
-289.618	-8.045	-0.160	-0.107
-288.603	0.141	-0.207	0.146
-287.589	-120.829	-0.160	-0.027
-286.574	103.595	0.165	0.192
-285.559	103.266	-0.094	0.109
-284.545	20.129	0.041	0.033
-283.530	23.678	-0.212	-0.173
-282.516	640.341	-0.040	-0.100
-281.501	-20.243	0.128	-0.078
-280.486	-146.178	0.258	-0.022
-279.472	800.000	-0.047	0.152
-278.457	58.958	0.247	-0.240
-277.443	67.339	-0.228	-0.230
-276.428	-200.000	0.017	0.133
-275.413	-17.938	0.009	0.005
-274.399	-92.204	0.105	-0.029
-273.384	75.566	0.181	-0.189
-272.370	41.469	-0.153	-0.137
-271.355	57.434	-0.078	0.075
-270.340	268.317	-0.167	0.290
-269.326	93.173	-0.128	0.143
-268.311	329.908	0.109	-0.207
-267.297	-48.958	-0.066	0.031
-266.282	494.798	0.084	0.191
-265.267	57.708	0.146	0.141
-264.253	101.625	-0.205	0.236
-263.238	88.416	-0.092	-0.101
-262.224	247.890	-0.161	-0.269
-261.209	-200.000	0.024	-0.266
-260.195	-93.878	-0.125	0.034
-259.180	270.652	-0.122	-0.213
-258.165	-72.338	-0.202	-0.074
-257.151	-200.000	0.003	-0.196
-256.136	533.155	-0.135	-0.317
-255.122	-23.160	0.213	0.127
-254.107	-123.852	-0.037	0.006
-253.092	-13.642	0.144	-0.092
-252.078	50.826	0.163	-0.153
-251.063	-18.612	0.119	0.073
-250.049	-72.353	0.202	0.074
-249.034	-124.779	-0.154	0.024
-248.019	-148.742	0.164	0.013
-247.005	-120.058	0.304	0.051
-245.990	769.945	0.042	0.112
-244.976	-179.911	0.340	-0.007
-243.961	-98.797	0.134	0.034
-242.946	800.000	-0.074	0.286
-241.932	-130.219	-0.080	-0.011
-240.917	19.038	0.188	0.149
-239.903	-73.397	0.171	-0.062
-238.888	148.500	0.145	0.194
-237.873	-200.000	0.050	0.260
-236.859	-117.431	-0.182	-0.033
-235.844	-200.000	-0.013	0.075
-234.830	-140.643	0.233	0.024
-233.815	-42.665	-0.102	0.051
-232.800	128.262	0.193	0.243
-231.786	250.842	0.106	-0.178
-230.771	-18.450	-0.033	0.020
-229.757	-1.266	-0.353	-0.246
-228.742	92.107	-0.139	-0.155
-227.727	-46.671	-0.386	0.187
-226.713	-35.987	0.309	-0.165
-225.698	-65.820	0.178	0.070
-224.684	132.441	-0.139	0.177
-223.669	-34.809	0.279	0.150
-222.655	74.011	-0.247	0.256
-221.640	397.895	0.061	-0.126
-220.625	-139.104	0.161	0.017
-219.611	-74.987	-0.420	-0.148
-218.596	42.777	0.188	-0.169
-217.582	-100.319	-0.333	0.082
-216.567	761.705	-0.175	0.469
-215.552	-143.051	0.187	-0.018
-214.538	-200.000	0.040	-0.281
-213.523	363.677	0.081	0.160
-212.509	204.370	-0.154	0.236
-211.494	-200.000	0.007	0.098
-210.479	355.759	-0.087	0.172
-209.465	-88.333	0.161	-0.047
-208.450	-0.507	-0.155	-0.108
-207.436	-36.851	-0.118	0.062
-206.421	-52.432	-0.075	0.034
-205.406	-96.163	0.554	-0.145
-204.392	-200.000	0.019	0.000
-203.377	-127.019	-0.197	-0.029
-202.363	-200.000	-0.012	-0.064
-201.348	-200.000	-0.054	-0.298
-200.333	-86.511	-0.266	-0.080
-199.319	800.000	0.097	-0.414
-198.304	-17.379	0.231	0.144
-197.290	701.651	-0.082	-0.213
-196.275	-200.000	-0.026	-0.117
-195.260	-200.000	-0.041	-0.194
-194.246	800.000	0.057	-0.203
-193.231	7.508	0.077	-0.056
-192.217	605.589	-0.073	-0.180
-191.202	726.666	-0.103	0.271
-190.187	33.473	0.201	0.172
-189.173	-92.542	0.206	0.057
-188.158	-200.000	-0.024	0.304
-187.144	-200.000	0.027	0.365
-186.129	94.340	0.145	-0.162
-185.114	352.352	0.130	0.255
-184.100	-116.008	-0.194	0.036
-183.085	323.890	-0.061	0.115
-182.071	-140.785	-0.446	-0.045
-181.056	-8.223	-0.238	-0.158
-180.042	-113.069	0.364	-0.071
-179.027	-15.037	0.070	0.044
-178.012	13.765	-0.301	0.230
-176.998	-36.659	0.240	0.127
-175.983	387.882	0.074	0.151
-174.969	-75.845	-0.117	0.041
-173.954	37.899	0.164	0.144
-172.939	-200.000	0.021	0.207
-171.925	-195.972	0.098	0.001
-170.910	89.389	0.221	0.242
-169.896	800.000	0.022	-0.076
-168.881	-180.483	-0.121	0.002
-167.866	162.437	0.100	-0.138
-166.852	39.283	-0.082	0.072
-165.837	134.136	-0.223	0.285
-164.823	-200.000	-0.000	0.098
-163.808	257.097	0.163	-0.275
-162.793	-31.088	-0.024	-0.013
-161.779	663.607	-0.109	0.276
-160.764	531.868	-0.067	0.157
-159.750	-200.000	0.026	-0.159
-158.735	-166.801	-0.090	0.004
-157.720	38.172	-0.103	-0.090
-156.706	268.004	-0.172	-0.297
-155.691	-200.000	-0.004	0.091
-154.677	-200.000	-0.039	0.286
-153.662	-200.000	0.033	-0.146
-152.647	77.572	0.189	0.198
-151.633	60.255	0.116	0.113
-150.618	-6.621	0.324	0.217
-149.604	54.632	0.286	0.272
-148.589	-32.545	0.312	-0.171
-147.574	800.000	-0.081	0.321
-146.560	-109.346	0.178	-0.037
-145.545	800.000	-0.090	-0.258
-144.531	-200.000	-0.023	-0.270
-143.516	-200.000	0.023	-0.330
-142.502	48.634	0.220	0.203
-141.487	-74.248	-0.123	-0.044
-140.472	737.798	-0.096	0.254
-139.458	194.465	0.096	0.143
-138.443	-200.000	-0.024	0.118
-137.429	49.843	-0.169	0.157
-136.414	-35.864	0.383	0.204
-135.399	-50.629	-0.135	-0.063
-134.385	-89.836	-0.058	-0.017
-133.370	-89.043	0.489	-0.142
-132.356	-115.528	0.139	-0.026
-131.341	800.000	0.019	0.081
-130.326	-139.972	-0.355	0.037
-129.312	-200.000	0.046	-0.202
-128.297	81.431	-0.055	-0.058
-127.283	43.588	0.210	0.189
-126.268	-36.197	-0.090	0.048
-125.253	-136.581	-0.132	0.015
-124.239	370.211	-0.224	0.446
-123.224	63.256	0.130	0.128
-122.210	-115.573	0.192	0.035
-121.195	-200.000	-0.032	0.395
