DTS Sentinel unit serial number:	SN413079Multiplexer serial number:	ORYXHardware model number:	OX4-SRSoftware version number:	ORYX F/W v4.00 Oryx Data Collector v3.7.2.0data status	okinstallation	princeton_trtdifferential loss correction	single-endedforward channel	channel 2reverse channel	N/Adate	2019/09/11time	23:49:11forward acquisition time	60.00reverse acquisition time	0.00gamma	496.2192k internal	0.2325k external	0.2325temperature offset calibration	1.0084default loss term (dB/km)	0.3790temperature slope calibration	1.0000multiplexer offset coefficient	1.0000multiplexer slope coefficient	1.0000fibre end	0.00T internal ref (°C)	33.94T ext. ref 1 (°C)	1.97T ext. ref 2 (°C)	27.39length (m)	temperature (°C)	Stokes	anti-Stokes-747.200	86.349	0.254	-0.282
-746.185	12.399	-0.199	0.154
-745.171	-86.005	0.256	-0.080
-744.156	20.106	-0.019	0.015
-743.142	36.247	-0.179	0.159
-742.127	156.261	0.239	0.333
-741.112	38.539	0.130	0.117
-740.098	-69.615	0.236	0.091
-739.083	800.000	-0.044	0.163
-738.069	114.256	0.153	0.188
-737.054	63.015	-0.403	0.408
-736.039	-191.398	-0.155	0.002
-735.025	85.258	0.278	0.307
-734.010	487.937	-0.029	0.068
-732.996	-200.000	0.018	0.130
-731.981	58.714	0.116	-0.115
-730.966	-31.288	-0.178	-0.101
-729.952	-122.770	0.012	0.002
-728.937	-200.000	0.025	0.332
-727.923	-72.638	-0.125	0.047
-726.908	216.016	0.147	-0.236
-725.894	102.578	0.120	0.141
-724.879	-128.345	-0.216	-0.031
-723.864	800.000	-0.074	-0.218
-722.850	104.125	0.089	0.106
-721.835	-81.766	-0.108	-0.036
-720.821	473.768	0.105	0.239
-719.806	684.272	-0.021	0.056
-718.791	-115.254	-0.145	0.028
-717.777	401.398	0.094	0.198
-716.762	-36.709	-0.213	0.115
-715.748	-132.505	-0.032	0.004
-714.733	85.641	-0.033	-0.037
-713.718	-115.777	-0.078	0.015
-712.704	-200.000	0.034	-0.258
-711.689	-43.911	-0.318	-0.161
-710.675	418.189	-0.037	0.079
-709.660	-87.710	0.198	0.060
-708.645	407.621	0.082	0.175
-707.631	-200.000	-0.004	-0.084
-706.616	-15.864	-0.163	-0.105
-705.602	-28.918	0.165	0.096
-704.587	17.427	0.122	0.097
-703.572	-100.823	0.234	-0.058
-702.558	800.000	0.053	0.177
-701.543	211.314	-0.193	0.306
-700.529	-149.816	0.287	0.023
-699.514	-19.736	0.047	-0.029
-698.499	38.981	0.190	-0.171
-697.485	38.014	0.158	-0.142
-696.470	-95.172	-0.298	-0.081
-695.456	-133.471	-0.214	-0.027
-694.441	81.977	-0.165	-0.180
-693.426	-77.471	0.109	-0.038
-692.412	-4.916	-0.194	-0.134
-691.397	-100.937	0.206	0.051
-690.383	24.476	-0.361	-0.300
-689.368	715.208	0.068	-0.182
-688.354	-151.269	-0.394	-0.030
-687.339	-176.864	-0.479	-0.012
-686.324	800.000	0.089	-0.290
-685.310	21.272	0.203	0.166
-684.295	120.005	0.132	-0.165
-683.281	153.657	-0.080	-0.110
-682.266	800.000	0.055	-0.222
-681.251	-200.000	0.018	0.091
-680.237	-157.180	-0.184	-0.011
-679.222	18.812	0.152	-0.122
-678.208	-94.970	0.126	-0.034
-677.193	-64.015	-0.337	0.138
-676.178	-200.000	-0.039	0.196
-675.164	204.659	0.154	0.241
-674.149	-105.840	-0.016	-0.004
-673.135	191.465	0.187	0.284
-672.120	69.311	0.194	0.201
-671.105	-48.717	-0.310	-0.150
-670.091	-2.960	-0.526	0.370
-669.076	800.000	0.062	0.178
-668.062	-56.308	-0.139	-0.062
-667.047	-115.500	-0.500	0.095
-666.032	-200.000	0.337	-0.001
-665.018	622.045	0.096	0.242
-664.003	-17.142	0.077	-0.049
-662.989	3.043	0.154	-0.113
-661.974	236.059	0.145	-0.241
-660.959	76.190	0.115	0.122
-659.945	-183.282	-0.354	0.006
-658.930	-109.306	-0.203	-0.043
-657.916	800.000	-0.139	-0.430
-656.901	800.000	0.071	-0.280
-655.886	229.024	0.085	-0.139
-654.872	18.168	-0.175	-0.140
-653.857	46.890	0.179	0.167
-652.843	182.595	-0.178	-0.265
-651.828	57.056	-0.171	0.167
-650.814	95.624	-0.192	0.220
-649.799	314.025	-0.048	0.090
-648.784	67.426	0.057	0.059
-647.770	-46.733	-0.169	-0.083
-646.755	-200.000	-0.029	0.215
-645.741	277.305	0.083	0.148
-644.726	-119.974	-0.171	0.029
-643.711	-200.000	0.043	-0.368
-642.697	8.947	-0.070	0.053
-641.682	-86.035	0.319	-0.099
-640.668	-106.408	0.083	-0.019
-639.653	-17.740	0.050	-0.032
-638.638	-129.237	-0.285	-0.040
-637.624	195.857	0.149	0.227
-636.609	-110.912	-0.218	-0.045
-635.595	25.834	-0.181	0.152
-634.580	-181.933	0.254	0.005
-633.565	-137.780	-0.212	0.024
-632.551	-15.297	0.082	-0.053
-631.536	-68.041	0.220	0.086
-630.522	42.919	-0.286	0.262
-629.507	-12.116	-0.102	0.067
-628.492	30.569	0.097	-0.083
-627.478	-200.000	0.002	-0.165
-626.463	-68.951	0.063	-0.024
-625.449	-127.723	0.240	0.035
-624.434	-152.948	-0.319	0.023
-623.419	39.726	-0.094	0.085
-622.405	142.708	-0.038	-0.051
-621.390	343.471	0.170	0.334
-620.376	84.689	0.067	0.074
-619.361	23.711	0.047	0.039
-618.346	-86.549	0.313	-0.096
-617.332	-88.147	0.098	-0.030
-616.317	-102.349	0.213	0.051
-615.303	90.885	-0.323	-0.363
-614.288	306.154	0.161	-0.301
-613.273	19.638	0.214	-0.173
-612.259	42.302	0.078	-0.071
-611.244	-88.069	-0.343	0.103
-610.230	4.092	0.018	-0.013
-609.215	-103.490	-0.084	0.020
-608.201	249.144	0.154	0.262
-607.186	19.475	0.262	-0.211
-606.171	-200.000	0.023	-0.288
-605.157	-62.981	0.178	-0.074
-604.142	13.763	0.203	-0.158
-603.128	454.470	-0.182	-0.405
-602.113	800.000	-0.046	0.160
-601.098	-10.113	-0.393	0.262
-600.084	-140.989	-0.123	-0.013
-599.069	-200.000	0.006	-0.067
-598.055	239.059	-0.156	0.260
-597.040	82.795	-0.071	-0.077
-596.025	-35.465	0.252	0.137
-595.011	-109.118	0.127	0.027
-593.996	-200.000	0.059	-0.401
-592.982	327.694	-0.062	-0.120
-591.967	800.000	0.040	0.155
-590.952	8.075	-0.143	-0.107
-589.938	614.364	0.121	0.304
-588.923	-22.822	-0.303	-0.183
-587.909	-24.337	-0.229	-0.137
-586.894	15.508	-0.077	0.060
-585.879	-115.538	-0.124	-0.023
-584.865	-105.684	0.265	0.060
-583.850	-200.000	0.051	-0.307
-582.836	-200.000	0.006	-0.253
-581.821	-6.442	0.214	0.146
-580.806	-200.000	-0.075	-0.404
-579.792	45.446	-0.115	0.106
-578.777	-92.515	-0.290	-0.082
-577.763	-200.000	-0.026	-0.148
-576.748	-118.420	-0.098	-0.017
-575.733	-60.146	-0.222	-0.095
-574.719	-69.289	0.237	-0.091
-573.704	12.210	-0.105	-0.081
-572.690	-100.804	-0.120	0.030
-571.675	-200.000	-0.042	0.220
-570.661	800.000	-0.048	0.193
-569.646	800.000	0.030	-0.115
-568.631	-118.266	0.304	0.054
-567.617	-191.189	-0.163	-0.002
-566.602	-32.504	-0.174	-0.097
-565.588	-200.000	-0.012	-0.078
-564.573	400.214	-0.034	-0.072
-563.558	37.948	-0.264	-0.236
-562.544	215.344	-0.155	0.246
-561.529	359.335	-0.033	-0.066
-560.515	800.000	0.023	0.095
-559.500	203.532	0.181	0.280
-558.485	-200.000	-0.018	-0.151
-557.471	30.369	0.077	0.066
-556.456	-54.517	-0.079	0.036
-555.442	-74.603	-0.152	-0.055
-554.427	170.780	0.087	0.125
-553.412	653.015	-0.076	-0.196
-552.398	-190.124	-0.386	-0.004
-551.383	-66.282	0.184	0.073
-550.369	-200.000	0.006	0.110
-549.354	269.400	-0.085	-0.149
-548.339	-22.022	0.217	0.132
-547.325	71.901	0.124	-0.130
-546.310	-107.667	0.031	-0.007
-545.296	-94.673	-0.196	0.053
-544.281	-200.000	0.012	0.098
-543.266	-117.347	-0.106	0.019
-542.252	-153.180	0.222	-0.016
-541.237	167.067	-0.165	-0.234
-540.223	620.285	0.042	0.106
-539.208	183.465	0.101	-0.150
-538.193	-102.106	0.095	0.023
-537.179	-200.000	-0.026	0.197
-536.164	80.260	0.139	0.149
-535.150	-85.747	-0.191	0.059
-534.135	-66.331	-0.281	0.112
-533.121	162.761	0.206	0.290
-532.106	135.515	0.128	-0.167
-531.091	-84.012	-0.227	0.072
-530.077	308.214	0.166	-0.309
-529.062	103.661	-0.119	-0.140
-528.048	41.492	0.170	-0.154
-527.033	-48.316	0.079	-0.038
-526.018	115.253	-0.088	-0.108
-525.004	-96.569	0.230	-0.061
-523.989	800.000	0.059	0.189
-522.975	709.020	-0.022	-0.057
-521.960	800.000	-0.107	-0.322
-520.945	-57.942	-0.126	-0.055
-519.931	-200.000	-0.050	0.277
-518.916	800.000	-0.036	-0.110
-517.902	-200.000	-0.051	0.255
-516.887	-200.000	0.024	0.243
-515.872	399.586	0.105	0.221
-514.858	-200.000	-0.020	0.239
-513.843	-200.000	0.011	-0.177
-512.829	-200.000	0.027	-0.276
-511.814	196.397	0.160	0.243
-510.799	-122.496	0.204	0.033
-509.785	-87.847	-0.165	0.050
-508.770	-200.000	-0.018	0.216
-507.756	-200.000	-0.029	-0.317
-506.741	-0.377	-0.149	-0.106
-505.726	800.000	-0.034	-0.127
-504.712	-14.221	0.449	0.289
-503.697	76.737	-0.064	0.068
-502.683	800.000	-0.089	0.265
-501.668	-10.938	-0.100	0.066
-500.653	247.388	0.115	-0.195
-499.639	6.216	0.220	0.163
-498.624	-45.595	-0.299	-0.148
-497.610	121.411	0.140	0.175
-496.595	-200.000	0.036	-0.300
-495.581	4.149	-0.223	0.163
-494.566	25.026	0.260	0.216
-493.551	66.132	0.178	-0.180
-492.537	21.677	-0.167	0.135
-491.522	-163.633	0.462	-0.022
-490.508	-200.000	0.087	-0.419
-489.493	-173.830	-0.196	0.006
-488.478	744.284	-0.138	-0.372
-487.464	-83.321	-0.186	-0.059
-486.449	59.039	0.230	0.226
-485.435	-200.000	-0.029	-0.295
-484.420	-64.854	0.358	-0.145
-483.405	-200.000	0.035	-0.217
-482.391	-13.579	0.143	0.093
-481.376	126.828	0.154	-0.195
-480.362	-200.000	0.011	0.232
-479.347	800.000	0.058	0.229
-478.332	-82.941	-0.420	-0.135
-477.318	42.127	0.075	-0.068
-476.303	-200.000	0.014	-0.230
-475.289	-31.734	0.086	0.048
-474.274	-26.948	-0.246	0.143
-473.259	-44.791	0.219	0.109
-472.245	-200.000	0.066	-0.377
-471.230	116.541	0.128	-0.156
-470.216	800.000	0.055	-0.173
-469.201	425.911	0.100	0.216
-468.186	-148.454	0.209	-0.017
-467.172	218.059	-0.165	0.262
-466.157	250.025	-0.077	0.130
-465.143	-161.757	-0.324	-0.016
-464.128	-101.363	-0.077	0.019
-463.113	-200.000	-0.059	-0.271
-462.099	97.038	0.203	0.233
-461.084	100.147	0.072	0.083
-460.070	-200.000	-0.010	-0.193
-459.055	-200.000	-0.029	0.147
-458.040	7.107	-0.309	0.230
-457.026	237.131	0.031	0.051
-456.011	-130.894	-0.146	-0.019
-454.997	-27.528	0.140	0.081
-453.982	-200.000	0.069	-0.400
-452.968	129.508	-0.122	-0.155
-451.953	-200.000	0.006	0.052
-450.938	800.000	-0.087	-0.250
-449.924	392.900	0.046	0.096
-448.909	-200.000	0.027	-0.185
-447.895	427.624	0.102	-0.220
-446.880	-130.409	-0.261	0.035
-445.865	5.622	0.181	0.134
-444.851	534.447	0.149	0.353
-443.836	-112.816	0.396	-0.078
-442.822	77.171	-0.263	0.279
-441.807	-93.427	0.134	-0.037
-440.792	-76.207	-0.171	0.060
-439.778	-200.000	0.016	-0.123
-438.763	170.343	0.082	-0.116
-437.749	-72.215	-0.077	-0.029
-436.734	-200.000	0.034	-0.278
-435.719	-200.000	-0.019	-0.127
-434.705	76.163	-0.240	-0.253
-433.690	-200.000	0.032	0.178
-432.676	712.234	-0.110	0.292
-431.661	-183.642	0.231	0.004
-430.646	48.298	0.033	0.031
-429.632	-18.599	0.186	-0.116
-428.617	101.823	-0.078	0.090
-427.603	-85.278	-0.108	0.034
-426.588	-46.550	-0.210	-0.103
-425.573	-200.000	-0.019	0.163
-424.559	-58.415	-0.104	0.045
-423.544	800.000	-0.128	0.352
-422.530	579.608	-0.057	-0.139
-421.515	-200.000	0.015	0.210
-420.500	397.080	-0.091	0.190
-419.486	-110.667	0.231	-0.048
-418.471	-94.790	0.316	0.085
-417.457	-130.061	-0.116	-0.016
-416.442	-11.765	-0.179	0.117
-415.428	333.117	0.034	-0.065
-414.413	-200.000	-0.081	-0.409
-413.398	68.847	-0.231	0.236
-412.384	241.034	-0.064	-0.107
-411.369	-32.657	0.150	0.083
-410.355	-0.351	0.502	-0.355
-409.340	-112.395	0.106	-0.021
-408.325	800.000	0.087	-0.265
-407.311	-200.000	-0.016	-0.268
-406.296	-50.807	-0.086	-0.040
-405.282	-34.488	-0.155	0.084
-404.267	-5.508	-0.099	-0.068
-403.252	238.085	0.159	-0.263
-402.238	-10.444	0.314	0.207
-401.223	204.941	-0.147	0.228
-400.209	363.607	0.139	0.277
-399.194	-162.911	-0.209	-0.010
-398.179	-200.000	0.020	0.233
-397.165	800.000	-0.083	-0.276
-396.150	99.566	-0.088	0.101
-395.136	10.887	0.179	0.136
-394.121	-200.000	0.000	0.190
-393.106	20.149	-0.099	-0.079
-392.092	-60.676	0.133	-0.056
-391.077	-110.534	-0.216	0.044
-390.063	-192.971	0.281	-0.003
-389.048	800.000	0.045	-0.137
-388.033	777.764	-0.045	0.121
-387.019	-32.613	0.193	0.107
-386.004	125.729	-0.114	0.143
-384.990	-200.000	-0.037	0.230
-383.975	171.435	0.049	0.069
-382.960	58.230	0.049	-0.048
-381.946	74.656	0.191	-0.200
-380.931	-200.000	-0.030	-0.286
-379.917	-132.307	0.312	-0.040
-378.902	-68.608	0.368	-0.142
-377.888	800.000	0.126	0.388
-376.873	-76.834	0.363	0.126
-375.858	147.394	-0.098	-0.131
-374.844	800.000	0.035	-0.112
-373.829	-200.000	0.043	-0.232
-372.815	-8.586	-0.148	0.099
-371.800	242.113	-0.144	0.240
-370.785	-29.943	0.203	0.115
-369.771	47.516	-0.148	0.137
-368.756	800.000	0.048	0.159
-367.742	113.225	0.101	0.122
-366.727	-143.413	0.258	0.025
-365.712	-200.000	0.024	0.162
-364.698	0.602	-0.114	0.081
-363.683	-100.635	-0.065	-0.016
-362.669	-200.000	-0.200	0.000
-361.654	-105.048	-0.239	-0.054
-360.639	800.000	-0.020	0.059
-359.625	113.337	-0.286	-0.346
-358.610	3.106	-0.223	0.161
-357.596	-13.846	0.203	-0.130
-356.581	-62.244	0.049	-0.020
-355.566	-26.959	-0.204	-0.119
-354.552	-52.353	-0.100	-0.046
-353.537	-81.934	-0.024	-0.008
-352.523	-116.282	0.266	0.049
-351.508	800.000	0.067	0.201
-350.493	800.000	-0.095	0.277
-349.479	604.083	0.042	-0.105
-348.464	-29.019	-0.069	-0.039
-347.450	800.000	-0.088	0.376
-346.435	-200.000	-0.052	0.297
-345.420	-188.095	0.059	0.001
-344.406	-79.479	0.110	0.037
-343.391	-98.489	-0.234	0.059
-342.377	-174.782	-0.252	0.007
-341.362	-115.964	-0.175	-0.032
-340.348	-81.987	-0.126	-0.041
-339.333	-33.317	-0.091	0.050
-338.318	46.060	-0.263	-0.242
-337.304	-108.230	0.351	0.075
-336.289	-19.934	-0.163	-0.100
-335.275	25.593	-0.116	-0.096
-334.260	-200.000	0.020	-0.277
-333.245	-73.269	-0.257	-0.093
-332.231	800.000	0.022	0.085
-331.216	-81.738	-0.144	0.047
-330.202	-26.782	-0.365	-0.212
-329.187	-183.515	-0.311	-0.005
-328.172	-177.710	-0.233	0.006
-327.158	-95.010	0.168	0.045
-326.143	363.690	0.177	0.354
-325.129	565.046	0.089	0.215
-324.114	142.887	-0.093	0.123
-323.099	-6.177	0.091	-0.062
-322.085	341.806	0.129	0.249
-321.070	139.836	-0.087	0.114
-320.056	139.431	-0.113	0.148
-319.041	148.681	0.087	-0.117
-318.026	-7.591	-0.037	0.025
-317.012	-17.587	-0.184	-0.115
-315.997	219.998	0.209	0.333
-314.983	-200.000	-0.021	0.159
-313.968	-35.638	-0.234	0.126
-312.953	-133.970	-0.221	-0.027
-311.939	545.647	-0.097	0.231
-310.924	-169.716	-0.355	-0.013
-309.910	800.000	0.046	0.199
-308.895	-46.354	0.194	0.095
-307.880	38.325	-0.115	0.102
-306.866	-131.560	0.123	0.016
-305.851	-200.000	0.011	0.149
-304.837	125.823	0.121	-0.152
-303.822	-160.584	-0.173	0.009
-302.807	800.000	-0.080	0.305
-301.793	51.103	-0.161	0.152
-300.778	151.926	-0.144	-0.194
-299.764	-104.041	-0.230	-0.053
-298.749	800.000	0.071	-0.298
-297.735	1.087	0.235	0.167
-296.720	800.000	0.057	0.166
-295.705	100.242	-0.032	0.037
-294.691	-102.133	0.189	0.045
-293.676	-200.000	0.012	-0.100
-292.662	136.578	0.264	-0.342
-291.647	-200.000	0.016	-0.238
-290.632	-34.184	-0.079	0.043
-289.618	800.000	-0.095	0.332
-288.603	800.000	0.104	0.359
-287.589	314.793	0.109	0.204
-286.574	80.504	0.175	-0.187
-285.559	781.662	0.095	-0.259
-284.545	78.803	-0.118	-0.126
-283.530	-200.000	-0.009	0.160
-282.516	126.045	0.132	-0.165
-281.501	521.781	-0.176	-0.408
-280.486	-10.323	0.397	-0.261
-279.472	-200.000	0.016	0.233
-278.457	68.205	0.080	-0.081
-277.443	-75.946	0.179	0.063
-276.428	-98.609	-0.130	-0.033
-275.413	-154.763	-0.236	0.016
-274.399	-189.052	0.162	-0.002
-273.384	83.532	-0.179	-0.193
-272.370	800.000	0.077	-0.221
-271.355	800.000	-0.025	-0.083
-270.340	800.000	0.062	-0.212
-269.326	-179.125	0.109	-0.002
-268.311	-61.207	0.060	-0.025
-267.297	-200.000	-0.062	-0.470
-266.282	-151.440	0.298	0.022
-265.267	89.095	0.200	-0.221
-264.253	14.504	0.135	0.105
-263.238	-14.400	0.246	-0.157
-262.224	232.060	0.183	-0.297
-261.209	800.000	-0.031	0.113
-260.195	-80.199	0.337	0.112
-259.180	172.590	-0.149	0.212
-258.165	-64.560	-0.245	0.098
-257.151	-200.000	-0.020	0.115
-256.136	-107.776	0.056	-0.012
-255.122	28.397	-0.033	-0.027
-254.107	800.000	-0.118	-0.328
-253.092	200.076	-0.194	-0.295
-252.078	56.036	-0.104	0.100
-251.063	575.090	-0.029	0.069
-250.049	-53.309	0.191	-0.087
-249.034	-200.000	-0.011	-0.057
-248.019	524.379	-0.011	-0.024
-247.005	-148.506	-0.120	0.010
-245.990	-48.270	-0.110	0.053
-244.976	-49.372	0.093	-0.044
-243.961	436.409	-0.066	0.141
-242.946	-131.276	-0.083	0.011
-241.932	800.000	-0.068	-0.207
-240.917	-200.000	0.023	0.288
-239.903	52.318	-0.126	-0.119
-238.888	763.374	0.073	-0.197
-237.873	800.000	0.014	0.054
-236.859	800.000	0.050	-0.205
-235.844	160.244	0.006	-0.008
-234.830	800.000	-0.035	-0.113
-233.815	83.551	0.159	-0.172
-232.800	-45.631	-0.311	-0.152
-231.786	171.726	0.066	0.094
-230.771	-74.383	-0.089	-0.032
-229.757	-127.531	-0.359	-0.051
-228.742	-148.576	0.088	0.007
-227.727	-43.384	0.077	-0.038
-226.713	-46.196	0.033	-0.016
-225.698	-18.719	-0.203	0.125
-224.684	581.261	-0.135	0.328
-223.669	39.563	-0.117	-0.104
-222.655	800.000	-0.060	-0.181
-221.640	133.819	-0.096	0.123
-220.625	-5.598	-0.205	-0.139
-219.611	-200.000	0.034	-0.201
-218.596	-34.289	-0.155	0.084
-217.582	238.996	-0.075	0.124
-216.567	-125.919	0.282	0.042
-215.552	92.366	0.028	0.032
-214.538	235.087	0.109	0.177
-213.523	52.867	0.108	-0.102
-212.509	166.828	-0.248	-0.348
-211.494	127.213	-0.313	0.392
-210.479	-21.023	0.304	0.184
-209.465	-200.000	-0.001	-0.327
-208.450	127.710	-0.175	-0.220
-207.436	219.431	0.131	0.207
-206.421	-27.967	-0.117	0.067
-205.406	-200.000	-0.029	0.382
-204.392	-147.312	0.332	0.028
-203.377	149.045	-0.200	0.268
-202.363	85.800	-0.152	0.165
-201.348	-200.000	-0.020	-0.092
-200.333	-78.198	0.043	0.014
-199.319	517.852	0.121	0.280
-198.304	800.000	0.078	-0.263
-197.290	-4.315	0.053	-0.036
-196.275	-200.000	0.032	-0.143
-195.260	-200.000	0.084	0.525
-194.246	-93.842	0.256	-0.070
-193.231	-33.295	0.188	0.103
-192.217	-200.000	0.058	0.383
-191.202	386.998	-0.119	0.244
-190.187	393.849	-0.071	-0.146
-189.173	-112.200	-0.150	-0.030
-188.158	-200.000	-0.027	0.207
-187.144	-200.000	0.027	-0.299
-186.129	217.950	0.100	0.157
-185.114	800.000	-0.102	-0.336
-184.100	-20.746	0.169	-0.102
-183.085	-144.366	0.344	0.032
-182.071	-200.000	0.011	0.222
-181.056	171.548	0.097	-0.137
-180.042	-42.927	-0.146	0.073
-179.027	1.948	0.117	0.084
-178.012	800.000	-0.072	-0.265
-176.998	-7.837	-0.195	-0.130
-175.983	65.152	-0.110	-0.110
-174.969	-200.000	-0.011	-0.187
-173.954	-43.350	0.066	-0.033
-172.939	800.000	-0.086	0.246
-171.925	-200.000	0.009	0.056
-170.910	-200.000	-0.039	0.216
-169.896	80.050	0.178	0.189
-168.881	-53.593	-0.251	0.113
-167.866	-0.807	0.230	-0.161
-166.852	-15.756	-0.157	-0.099
-165.837	11.162	0.281	-0.212
-164.823	16.643	-0.146	0.114
-163.808	-130.787	0.267	0.035
-162.793	-116.495	0.230	0.042
-161.779	-200.000	0.021	-0.175
-160.764	-124.670	0.420	-0.064
-159.750	-19.018	0.192	0.118
-158.735	-183.396	-0.225	0.004
-157.720	-36.169	-0.133	0.071
-156.706	-200.000	0.009	-0.345
-155.691	135.182	-0.095	-0.122
-154.677	686.107	0.132	0.341
-153.662	-200.000	0.010	0.068
-152.647	-200.000	-0.047	0.223
-151.633	15.408	0.161	-0.125
-150.618	-171.527	-0.122	-0.004
-149.604	-133.091	-0.209	-0.026
-148.589	27.539	-0.070	-0.058
-147.574	138.138	-0.116	0.150
-146.560	-69.743	-0.219	0.082
-145.545	567.266	0.109	0.261
-144.531	-55.653	0.338	0.149
-143.516	-26.035	0.456	0.264
-142.502	800.000	-0.108	0.345
-141.487	-200.000	0.029	0.190
-140.472	-37.576	0.119	-0.063
-139.458	-130.693	-0.461	-0.061
-138.443	-76.957	0.333	0.115
-137.429	142.280	0.206	0.269
-136.414	35.255	0.181	0.156
-135.399	-99.162	0.322	0.080
-134.385	93.525	-0.201	0.224
-133.370	-129.037	-0.380	-0.052
-132.356	800.000	0.065	0.219
-131.341	111.237	0.245	0.291
-130.326	-82.142	-0.323	-0.104
-129.312	65.092	0.093	0.093
-128.297	332.097	-0.060	-0.113
-127.283	-200.000	-0.035	0.173
-126.268	78.898	-0.159	-0.168
-125.253	-179.472	-0.142	0.003
-124.239	800.000	0.042	0.158
-123.224	800.000	-0.038	0.140
-122.210	-200.000	-0.036	0.274
-121.195	190.981	-0.151	-0.223
