DTS Sentinel unit serial number:	SN413079Multiplexer serial number:	ORYXHardware model number:	OX4-SRSoftware version number:	ORYX F/W v4.00 Oryx Data Collector v3.7.2.0data status	okinstallation	princeton_trtdifferential loss correction	single-endedforward channel	channel 2reverse channel	N/Adate	2019/09/15time	08:31:35forward acquisition time	60.00reverse acquisition time	0.00gamma	496.2192k internal	0.2323k external	0.2323temperature offset calibration	1.0021default loss term (dB/km)	0.3790temperature slope calibration	1.0000multiplexer offset coefficient	1.0000multiplexer slope coefficient	1.0000fibre end	0.00T internal ref (°C)	31.62T ext. ref 1 (°C)	4.97T ext. ref 2 (°C)	28.69length (m)	temperature (°C)	Stokes	anti-Stokes-747.200	212.955	-0.200	-0.318
-746.185	38.746	-0.176	0.159
-745.171	-200.000	0.014	0.175
-744.156	-93.957	-0.313	-0.087
-743.142	578.528	-0.061	-0.151
-742.127	53.822	-0.369	0.358
-741.112	76.774	0.104	-0.112
-740.098	48.618	-0.232	0.219
-739.083	-200.000	-0.001	-0.260
-738.069	-81.976	0.066	-0.022
-737.054	-200.000	0.031	-0.194
-736.039	34.646	-0.175	0.154
-735.025	-98.482	0.156	-0.040
-734.010	-13.483	0.100	-0.065
-732.996	-200.000	0.015	-0.090
-731.981	27.106	-0.026	0.022
-730.966	323.204	0.031	-0.059
-729.952	175.460	-0.108	-0.158
-728.937	-52.716	0.247	-0.115
-727.923	-124.861	0.161	-0.025
-726.908	-200.000	-0.021	-0.137
-725.894	-142.114	-0.436	0.044
-724.879	-90.069	-0.389	0.115
-723.864	800.000	0.060	0.189
-722.850	3.762	-0.174	0.128
-721.835	-200.000	-0.016	-0.391
-720.821	275.819	0.114	0.204
-719.806	800.000	-0.072	0.217
-718.791	282.241	0.145	-0.262
-717.777	-200.000	0.033	-0.234
-716.762	21.340	0.218	0.179
-715.748	61.363	-0.065	0.066
-714.733	745.878	-0.045	0.121
-713.718	-117.540	-0.097	0.018
-712.704	800.000	0.054	-0.226
-711.689	-200.000	0.021	-0.478
-710.675	-200.000	0.017	0.105
-709.660	278.943	0.097	-0.174
-708.645	-27.311	0.083	-0.049
-707.631	-200.000	0.024	0.176
-706.616	300.161	0.067	0.125
-705.602	41.157	-0.105	-0.096
-704.587	35.029	-0.157	0.139
-703.572	-46.628	-0.262	-0.129
-702.558	-125.776	-0.155	0.024
-701.543	-200.000	0.011	-0.087
-700.529	-33.439	0.303	-0.169
-699.514	-190.613	0.256	0.003
-698.499	168.855	0.114	-0.164
-697.485	-141.613	-0.203	0.021
-696.470	-200.000	-0.004	-0.135
-695.456	2.137	-0.187	-0.136
-694.441	39.585	-0.263	0.238
-693.426	800.000	0.050	-0.144
-692.412	-200.000	-0.023	0.273
-691.397	-98.017	0.051	0.013
-690.383	69.536	0.134	0.139
-689.368	-145.146	-0.233	0.021
-688.354	-200.000	-0.032	-0.499
-687.339	66.268	-0.133	-0.136
-686.324	-97.517	-0.049	0.013
-685.310	69.369	-0.229	-0.238
-684.295	3.383	0.135	-0.099
-683.281	789.512	0.136	0.375
-682.266	-200.000	0.024	-0.195
-681.251	85.722	-0.110	-0.122
-680.237	140.018	-0.088	0.116
-679.222	-43.878	-0.320	-0.162
-678.208	241.611	-0.212	-0.356
-677.193	434.280	-0.161	-0.352
-676.178	-65.055	-0.170	0.069
-675.164	143.953	0.084	-0.113
-674.149	69.536	0.112	0.116
-673.135	-200.000	-0.052	-0.450
-672.120	9.622	0.185	-0.141
-671.105	800.000	-0.121	-0.432
-670.091	-200.000	0.105	-0.476
-669.076	443.727	-0.181	0.400
-668.062	800.000	-0.081	-0.241
-667.047	382.897	0.046	0.095
-666.032	-116.920	0.399	0.073
-665.018	800.000	0.026	-0.102
-664.003	-200.000	-0.059	-0.371
-662.989	-200.000	-0.017	0.090
-661.974	66.400	-0.163	-0.167
-660.959	156.827	-0.013	-0.018
-659.945	-142.313	-0.046	0.005
-658.930	5.973	0.230	-0.171
-657.916	269.424	-0.115	0.203
-656.901	800.000	0.035	0.132
-655.886	-200.000	-0.065	-0.331
-654.872	800.000	-0.083	0.306
-653.857	254.697	-0.102	0.176
-652.843	-138.577	0.284	-0.031
-651.828	5.648	-0.130	0.096
-650.814	244.888	-0.132	0.224
-649.799	800.000	-0.090	0.298
-648.784	800.000	-0.061	0.198
-647.770	800.000	-0.061	-0.186
-646.755	-200.000	0.002	0.034
-645.741	-124.766	-0.121	-0.019
-644.726	131.046	-0.110	-0.143
-643.711	-135.420	0.110	-0.013
-642.697	-200.000	-0.006	-0.119
-641.682	-11.112	0.154	-0.102
-640.668	800.000	0.033	-0.125
-639.653	229.138	0.204	0.334
-638.638	800.000	-0.033	0.097
-637.624	25.943	-0.019	0.016
-636.609	565.833	-0.110	0.269
-635.595	-200.000	-0.018	-0.103
-634.580	-101.265	0.271	-0.067
-633.565	249.986	0.169	-0.288
-632.551	618.916	0.108	-0.272
-631.536	-200.000	0.077	0.374
-630.522	22.248	0.235	-0.193
-629.507	304.095	-0.116	-0.217
-628.492	46.922	0.261	-0.244
-627.478	-121.407	0.091	-0.015
-626.463	800.000	-0.070	-0.221
-625.449	305.522	0.097	0.181
-624.434	377.270	-0.065	-0.133
-623.419	-56.004	-0.256	-0.115
-622.405	-167.215	-0.169	-0.007
-621.390	-2.531	-0.014	0.010
-620.376	800.000	0.087	-0.330
-619.361	86.785	0.055	-0.061
-618.346	231.905	-0.200	-0.330
-617.332	757.314	-0.086	-0.234
-616.317	-200.000	0.017	0.210
-615.303	103.709	0.068	-0.080
-614.288	-94.780	0.316	0.086
-613.273	-116.062	0.192	0.036
-612.259	-110.722	-0.360	0.075
-611.244	-75.761	-0.146	0.052
-610.230	-75.438	0.036	0.013
-609.215	-14.250	0.292	-0.189
-608.201	21.306	-0.189	-0.154
-607.186	-89.032	-0.490	-0.146
-606.171	91.978	-0.327	-0.370
-605.157	-200.000	0.000	-0.366
-604.142	-51.643	0.204	0.096
-603.128	-39.273	0.111	0.059
-602.113	-46.826	-0.170	0.083
-601.098	28.674	0.240	0.204
-600.084	-164.580	-0.243	0.011
-599.069	778.930	0.063	0.174
-598.055	42.019	0.207	-0.189
-597.040	67.064	-0.225	-0.230
-596.025	-22.735	-0.061	-0.037
-595.011	302.305	0.079	-0.146
-593.996	-8.873	0.187	-0.126
-592.982	43.111	0.206	-0.189
-591.967	-149.855	0.371	0.029
-590.952	-127.882	0.194	-0.028
-589.938	-72.895	0.069	0.025
-588.923	-200.000	0.184	0.001
-587.909	-55.372	0.105	-0.047
-586.894	-85.165	-0.075	0.023
-585.879	800.000	0.040	0.157
-584.865	40.779	-0.183	-0.165
-583.850	800.000	0.094	-0.320
-582.836	721.515	-0.077	-0.205
-581.821	-78.457	0.364	-0.125
-580.806	800.000	0.056	0.168
-579.792	-112.652	-0.174	-0.035
-578.777	-200.000	0.013	0.123
-577.763	36.345	0.246	-0.217
-576.748	595.292	0.123	-0.306
-575.733	-11.454	0.066	-0.044
-574.719	-200.000	-0.056	0.394
-573.704	38.517	-0.230	0.206
-572.690	35.394	0.183	-0.161
-571.675	-3.906	0.093	-0.065
-570.661	253.641	0.072	0.124
-569.646	-88.521	-0.122	-0.036
-568.631	800.000	0.042	-0.127
-567.617	-5.952	-0.189	0.130
-566.602	30.379	-0.104	0.089
-565.588	-200.000	-0.199	-0.000
-564.573	288.646	0.209	0.380
-563.558	-200.000	-0.012	0.181
-562.544	800.000	-0.066	-0.199
-561.529	-165.235	-0.179	-0.008
-560.515	247.573	0.049	0.084
-559.500	-200.000	-0.000	0.012
-558.485	-27.649	-0.280	0.163
-557.471	-88.514	0.220	0.066
-556.456	86.655	0.174	0.192
-555.442	-23.540	0.080	-0.048
-554.427	-165.143	-0.133	0.006
-553.412	107.901	0.210	0.251
-552.398	173.628	-0.181	-0.262
-551.383	-45.998	-0.353	-0.174
-550.369	-47.860	-0.258	0.125
-549.354	-7.344	0.142	0.097
-548.339	151.625	-0.306	-0.418
-547.325	-136.062	-0.166	-0.019
-546.310	252.412	-0.041	0.070
-545.296	-131.843	0.322	0.042
-544.281	-141.505	0.321	0.032
-543.266	-107.529	-0.147	-0.032
-542.252	800.000	0.075	-0.261
-541.237	-1.225	-0.261	-0.185
-540.223	-200.000	0.006	-0.120
-539.208	-127.107	-0.323	0.047
-538.193	-200.000	-0.049	-0.217
-537.179	2.637	0.314	0.228
-536.164	206.133	0.028	-0.044
-535.150	484.550	-0.080	0.182
-534.135	552.131	-0.088	-0.211
-533.121	800.000	-0.083	0.269
-532.106	-117.479	-0.225	-0.041
-531.091	800.000	-0.054	-0.160
-530.077	9.245	-0.194	0.147
-529.062	-17.651	0.240	-0.151
-528.048	186.050	0.098	-0.146
-527.033	-82.933	0.146	0.047
-526.018	800.000	0.020	-0.083
-525.004	-57.054	0.235	0.104
-523.989	635.850	-0.158	-0.402
-522.975	-114.050	-0.179	-0.035
-521.960	800.000	-0.074	-0.223
-520.945	-46.922	-0.070	0.034
-519.931	800.000	-0.055	0.161
-518.916	197.943	0.118	-0.181
-517.902	42.123	-0.124	-0.112
-516.887	169.773	-0.066	0.095
-515.872	800.000	0.055	-0.153
-514.858	800.000	0.031	-0.095
-513.843	-21.176	0.312	0.191
-512.829	-180.878	-0.122	0.002
-511.814	530.368	-0.078	-0.184
-510.799	0.853	-0.240	0.172
-509.785	37.887	0.192	0.170
-508.770	2.080	0.072	-0.052
-507.756	36.008	-0.209	0.184
-506.741	-200.000	-0.014	0.323
-505.726	-78.309	-0.230	0.079
-504.712	175.854	0.081	0.118
-503.697	331.270	-0.135	-0.260
-502.683	141.612	-0.036	-0.047
-501.668	-200.000	-0.026	0.301
-500.653	-185.367	0.061	-0.001
-499.639	-136.663	0.230	-0.027
-498.624	182.357	-0.156	0.230
-497.610	7.455	0.186	0.139
-496.595	-101.920	0.299	0.072
-495.581	-121.933	0.138	-0.023
-494.566	-98.407	-0.115	-0.029
-493.551	-174.848	0.264	-0.007
-492.537	140.284	0.214	-0.282
-491.522	-101.506	-0.262	-0.064
-490.508	661.539	-0.097	-0.251
-489.493	-108.626	-0.247	0.053
-488.478	95.456	-0.206	-0.234
-487.464	-23.195	-0.206	-0.124
-486.449	106.673	-0.179	-0.213
-485.435	43.176	-0.344	-0.314
-484.420	-200.000	0.042	-0.241
-483.405	776.927	-0.040	0.109
-482.391	-200.000	-0.047	0.215
-481.376	-107.787	0.259	0.056
-480.362	172.376	-0.119	-0.171
-479.347	-173.713	0.209	0.006
-478.332	-200.000	0.036	-0.178
-477.318	800.000	0.069	-0.275
-476.303	-200.000	-0.001	-0.198
-475.289	-97.543	0.154	-0.040
-474.274	9.819	-0.179	-0.136
-473.259	-89.509	-0.279	-0.082
-472.245	333.686	0.142	-0.274
-471.230	-200.000	-0.020	0.248
-470.216	-69.051	0.242	0.093
-469.201	540.924	0.025	0.060
-468.186	-93.496	0.164	-0.045
-467.172	-163.119	-0.511	0.025
-466.157	55.597	0.136	0.131
-465.143	-111.049	0.356	-0.073
-464.128	-78.840	-0.373	0.127
-463.113	-5.501	-0.088	-0.060
-462.099	-89.686	-0.025	-0.007
-461.084	800.000	0.057	-0.195
-460.070	800.000	-0.012	0.038
-459.055	800.000	-0.082	0.229
-458.040	12.483	-0.229	-0.176
-457.026	41.593	-0.113	-0.102
-456.011	-32.544	-0.198	0.110
-454.997	-60.067	0.240	0.102
-453.982	-68.742	-0.250	0.097
-452.968	-108.750	0.089	0.019
-451.953	314.859	0.153	-0.288
-450.938	-200.000	-0.000	0.160
-449.924	102.211	-0.066	0.077
-448.909	315.502	0.118	-0.223
-447.895	-72.722	-0.157	0.058
-446.880	-182.224	-0.200	-0.004
-445.865	800.000	0.040	0.164
-444.851	-144.164	0.213	0.020
-443.836	-12.484	-0.299	0.195
-442.822	800.000	-0.055	0.229
-441.807	-91.132	0.173	-0.049
-440.792	63.395	-0.153	0.153
-439.778	-81.030	0.272	0.090
-438.763	173.619	0.148	0.213
-437.749	-134.180	0.454	-0.056
-436.734	-63.847	0.167	0.068
-435.719	115.779	0.094	0.114
-434.705	-149.061	-0.039	-0.003
-433.690	-156.916	-0.130	0.008
-432.676	-200.000	-0.014	0.298
-431.661	-27.687	-0.063	-0.037
-430.646	800.000	-0.005	-0.017
-429.632	65.641	0.090	0.091
-428.617	188.135	-0.287	-0.427
-427.603	442.680	0.130	-0.285
-426.588	761.356	0.072	0.194
-425.573	226.776	-0.111	-0.179
-424.559	70.407	0.122	-0.125
-423.544	76.875	-0.099	0.105
-422.530	-200.000	0.058	0.266
-421.515	255.936	-0.188	-0.321
-420.500	-38.129	0.175	-0.093
-419.486	-76.347	-0.407	0.143
-418.471	164.856	0.279	0.393
-417.457	140.757	0.058	-0.076
-416.442	208.623	-0.105	-0.163
-415.428	-200.000	0.003	-0.146
-414.413	-141.695	0.166	0.017
-413.398	115.901	-0.039	0.048
-412.384	38.272	-0.214	-0.190
-411.369	800.000	0.056	0.232
-410.355	-36.791	-0.234	0.125
-409.340	65.392	-0.056	0.057
-408.325	-110.555	-0.294	0.061
-407.311	281.923	0.091	0.163
-406.296	-200.000	0.016	0.264
-405.282	-22.738	-0.365	0.220
-404.267	-115.450	0.201	0.038
-403.252	56.167	-0.036	0.035
-402.238	549.200	0.161	-0.384
-401.223	-149.679	-0.169	-0.013
-400.209	-76.073	-0.099	-0.035
-399.194	800.000	0.017	-0.059
-398.179	479.488	0.095	0.215
-397.165	-200.000	0.009	-0.172
-396.150	-131.466	-0.218	0.029
-395.136	-171.986	0.162	-0.005
-394.121	190.489	-0.095	0.142
-393.106	800.000	0.031	0.091
-392.092	-200.000	0.040	0.243
-391.077	-200.000	0.006	-0.090
-390.063	42.383	-0.050	0.046
-389.048	-200.000	0.022	-0.162
-388.033	800.000	-0.062	-0.235
-387.019	81.275	-0.156	-0.168
-386.004	677.335	0.006	0.016
-384.990	298.779	0.085	-0.156
-383.975	-60.247	0.250	0.106
-382.960	-200.000	0.009	0.261
-381.946	-50.902	0.154	0.072
-380.931	-168.906	-0.228	-0.009
-379.917	97.679	-0.030	-0.034
-378.902	-59.312	0.330	0.141
-377.888	-200.000	-0.022	-0.140
-376.873	431.018	0.061	0.131
-375.858	-113.880	-0.120	0.023
-374.844	-66.194	0.191	-0.076
-373.829	514.366	-0.157	-0.366
-372.815	-47.002	0.059	0.029
-371.800	126.642	-0.098	0.123
-370.785	65.673	0.164	-0.165
-369.771	179.151	-0.064	0.093
-368.756	79.063	0.208	0.222
-367.742	168.317	-0.196	0.278
-366.727	68.262	0.126	0.128
-365.712	44.836	-0.251	-0.230
-364.698	203.064	0.063	-0.098
-363.683	-125.238	-0.078	0.012
-362.669	80.861	-0.175	0.188
-361.654	-99.464	-0.229	-0.057
-360.639	-22.674	-0.082	-0.049
-359.625	92.928	0.022	-0.024
-358.610	-26.483	0.111	-0.065
-357.596	-35.903	-0.349	0.188
-356.581	-200.000	-0.028	-0.141
-355.566	71.203	0.147	-0.152
-354.552	-161.948	-0.364	-0.018
-353.537	190.465	0.062	0.092
-352.523	-52.094	-0.122	-0.056
-351.508	632.595	0.094	0.237
-350.493	-200.000	0.014	0.112
-349.479	-147.705	0.171	0.014
-348.464	-200.000	-0.022	-0.112
-347.450	51.541	0.178	0.168
-346.435	31.821	-0.104	-0.089
-345.420	-110.353	-0.192	-0.040
-344.406	-200.000	-0.101	0.615
-343.391	189.415	0.029	0.043
-342.377	-12.018	-0.164	0.107
-341.362	30.952	-0.083	-0.071
-340.348	-200.000	0.031	-0.146
-339.333	-59.781	-0.372	0.158
-338.318	-74.957	-0.042	-0.015
-337.304	-8.366	0.182	-0.121
-336.289	-150.462	-0.164	-0.013
-335.275	576.022	0.116	-0.281
-334.260	-180.130	0.132	0.003
-333.245	-35.717	0.357	-0.192
-332.231	800.000	-0.043	-0.159
-331.216	-71.801	-0.247	0.092
-330.202	15.091	-0.069	-0.054
-329.187	-12.126	0.050	-0.033
-328.172	-96.592	-0.203	0.053
-327.158	-74.455	0.314	0.112
-326.143	94.962	-0.108	0.122
-325.129	-146.799	0.083	0.007
-324.114	59.413	-0.148	-0.145
-323.099	-200.000	0.014	0.075
-322.085	252.289	0.166	0.280
-321.070	-200.000	-0.044	0.302
-320.056	-106.515	-0.067	0.015
-319.041	57.038	0.042	0.041
-318.026	-146.283	0.282	0.025
-317.012	-120.775	0.095	-0.016
-315.997	800.000	0.107	0.354
-314.983	-200.000	0.059	0.389
-313.968	-200.000	0.050	0.278
-312.953	35.444	0.160	-0.139
-311.939	800.000	-0.080	-0.278
-310.924	-27.979	-0.275	-0.158
-309.910	768.470	-0.041	0.111
-308.895	157.615	0.196	-0.270
-307.880	105.869	0.172	-0.203
-306.866	161.262	0.112	-0.156
-305.851	-200.000	-0.014	-0.109
-304.837	294.734	-0.047	-0.085
-303.822	-62.367	-0.097	0.040
-302.807	-200.000	-0.023	0.360
-301.793	122.497	-0.063	0.078
-300.778	116.682	-0.214	-0.261
-299.764	49.466	0.140	-0.130
-298.749	-200.000	0.010	0.148
-297.735	35.806	0.305	0.266
-296.720	482.489	0.017	-0.038
-295.705	402.254	-0.032	-0.066
-294.691	103.228	0.042	0.049
-293.676	-50.708	-0.061	0.029
-292.662	-58.550	0.131	-0.056
-291.647	-156.447	0.160	0.010
-290.632	-86.170	-0.130	0.040
-289.618	-58.578	-0.161	0.069
-288.603	671.402	-0.079	-0.203
-287.589	-166.189	-0.122	0.005
-286.574	-103.431	0.313	0.073
-285.559	-190.297	0.377	0.004
-284.545	-161.062	-0.260	-0.014
-283.530	52.992	0.242	-0.229
-282.516	-200.000	0.012	-0.112
-281.501	-200.000	0.022	0.232
-280.486	-22.870	0.195	0.116
-279.472	-200.000	-0.023	0.364
-278.457	-120.928	0.106	-0.018
-277.443	134.407	-0.110	0.142
-276.428	-114.758	0.074	0.014
-275.413	-81.331	0.096	0.031
-274.399	3.101	-0.129	0.093
-273.384	-24.902	0.121	0.071
-272.370	-115.324	0.242	0.045
-271.355	168.868	0.095	0.135
-270.340	-106.003	-0.039	0.009
-269.326	800.000	-0.014	-0.051
-268.311	-14.435	-0.209	0.133
-267.297	800.000	-0.071	0.210
-266.282	-123.043	-0.118	-0.019
-265.267	-19.236	-0.360	0.221
-264.253	637.745	-0.060	-0.151
-263.238	107.422	-0.171	-0.201
-262.224	-200.000	-0.036	-0.228
-261.209	485.795	-0.071	0.161
-260.195	-200.000	-0.006	0.274
-259.180	-101.825	0.131	-0.031
-258.165	-50.418	0.145	0.068
-257.151	-31.995	-0.352	0.195
-256.136	199.207	0.163	0.248
-255.122	634.250	-0.060	0.150
-254.107	800.000	-0.072	-0.281
-253.092	-200.000	0.036	-0.383
-252.078	800.000	-0.092	-0.323
-251.063	-85.602	-0.433	0.133
-250.049	-200.000	0.016	-0.333
-249.034	78.434	0.043	-0.046
-248.019	92.124	0.102	-0.114
-247.005	-142.153	0.116	0.011
-245.990	47.470	0.156	0.144
-244.976	-200.000	-0.008	0.051
-243.961	45.196	0.237	0.216
-242.946	-146.205	0.122	0.011
-241.932	-170.177	0.034	0.001
-240.917	305.497	-0.105	0.194
-239.903	568.008	0.176	0.423
-238.888	15.425	-0.062	0.048
-237.873	-115.719	-0.255	-0.047
-236.859	-10.637	0.218	0.143
-235.844	-200.000	-0.030	0.161
-234.830	800.000	-0.027	0.117
-233.815	800.000	-0.031	-0.110
-232.800	-31.422	-0.089	-0.050
-231.786	377.979	0.120	-0.243
-230.771	-153.372	0.205	-0.014
-229.757	-18.362	-0.310	-0.191
-228.742	-200.000	-0.027	-0.178
-227.727	-66.286	0.237	-0.093
-226.713	-200.000	-0.042	0.233
-225.698	280.386	0.175	0.309
-224.684	-19.166	0.104	0.064
-223.669	383.734	-0.213	0.434
-222.655	39.418	-0.184	-0.163
-221.640	610.505	-0.121	-0.299
-220.625	-200.000	0.000	0.212
-219.611	211.486	-0.026	0.040
-218.596	-21.577	0.162	-0.098
-217.582	25.168	0.072	-0.059
-216.567	-97.912	0.521	-0.133
-215.552	-65.339	-0.212	0.085
-214.538	668.728	0.034	-0.088
-213.523	800.000	0.060	0.180
-212.509	154.652	-0.204	0.277
-211.494	-84.005	-0.273	-0.086
-210.479	-86.862	0.124	0.037
-209.465	-92.364	0.074	0.021
-208.450	18.583	-0.086	0.068
-207.436	800.000	-0.082	0.232
-206.421	582.105	-0.071	-0.173
-205.406	344.446	-0.064	-0.125
-204.392	341.880	0.067	0.130
-203.377	-96.330	0.431	-0.113
-202.363	-87.162	-0.229	-0.069
-201.348	299.397	0.112	0.205
-200.333	249.124	0.088	-0.147
-199.319	800.000	0.101	0.334
-198.304	-63.695	0.133	0.054
-197.290	800.000	-0.076	0.300
-196.275	183.775	0.081	-0.119
-195.260	800.000	-0.090	-0.295
-194.246	311.331	0.108	-0.201
-193.231	23.258	-0.237	-0.193
-192.217	-52.489	0.081	-0.037
-191.202	-20.861	0.155	-0.094
-190.187	-97.442	0.153	-0.039
-189.173	-200.000	-0.055	0.396
-188.158	-37.395	0.105	0.055
-187.144	117.397	0.032	0.039
-186.129	-154.810	-0.216	-0.014
-185.114	-87.139	0.197	-0.059
-184.100	18.137	-0.228	-0.179
-183.085	23.398	0.186	0.151
-182.071	297.323	-0.192	-0.349
-181.056	-75.163	-0.106	-0.037
-180.042	800.000	0.115	0.333
-179.027	-140.800	0.138	0.014
-178.012	-2.337	0.376	0.261
-176.998	-66.150	-0.102	-0.040
-175.983	239.442	-0.121	0.199
-174.969	117.171	0.206	-0.250
-173.954	-200.000	-0.038	-0.229
-172.939	-157.626	-0.483	0.028
-171.925	23.828	-0.224	0.182
-170.910	539.873	-0.116	-0.272
-169.896	800.000	0.032	0.093
-168.881	-108.179	-0.070	-0.015
-167.866	-16.507	0.170	-0.106
-166.852	800.000	-0.031	-0.089
-165.837	104.107	0.125	-0.145
-164.823	800.000	0.122	0.337
-163.808	-54.846	-0.162	0.072
-162.793	312.886	-0.046	0.086
-161.779	-13.038	0.159	0.102
-160.764	-77.526	0.375	-0.128
-159.750	-200.000	0.005	0.199
-158.735	-200.000	0.002	0.080
-157.720	167.813	0.106	0.149
-156.706	-42.483	0.145	0.073
-155.691	114.646	0.279	-0.335
-154.677	431.533	0.028	0.060
-153.662	-200.000	0.002	0.022
-152.647	-123.768	-0.236	0.037
-151.633	141.184	0.147	-0.192
-150.618	-99.482	-0.310	-0.077
-149.604	503.663	0.020	-0.045
-148.589	-200.000	-0.000	-0.019
-147.574	83.659	0.163	0.175
-146.560	633.373	0.108	0.270
-145.545	-160.667	-0.163	0.009
-144.531	-56.699	0.098	-0.043
-143.516	575.601	0.016	0.039
-142.502	-94.325	0.417	0.112
-141.487	227.649	0.130	-0.208
-140.472	23.711	-0.123	0.100
-139.458	148.006	0.074	0.099
-138.443	243.542	-0.045	0.074
-137.429	-58.049	0.030	0.013
-136.414	-80.822	-0.147	-0.048
-135.399	-200.000	-0.050	-0.000
-134.385	-115.967	-0.346	0.064
-133.370	-16.964	0.390	-0.243
-132.356	-14.314	-0.105	-0.067
-131.341	-117.418	0.147	-0.026
-130.326	-170.886	-0.277	-0.009
-129.312	-71.028	-0.169	-0.063
-128.297	-175.504	0.077	0.002
-127.283	93.444	0.144	-0.160
-126.268	201.342	-0.138	-0.210
-125.253	-200.000	-0.035	0.155
-124.239	-87.362	-0.148	0.044
-123.224	54.560	-0.337	0.320
-122.210	-2.448	-0.081	-0.056
-121.195	366.939	0.083	0.165
