DTS Sentinel unit serial number:	SN413079Multiplexer serial number:	ORYXHardware model number:	OX4-SRSoftware version number:	ORYX F/W v4.00 Oryx Data Collector v3.7.2.0data status	okinstallation	princeton_trtdifferential loss correction	single-endedforward channel	channel 2reverse channel	N/Adate	2019/09/13time	16:07:34forward acquisition time	60.00reverse acquisition time	0.00gamma	496.2192k internal	0.2314k external	0.2314temperature offset calibration	1.0211default loss term (dB/km)	0.3790temperature slope calibration	1.0000multiplexer offset coefficient	1.0000multiplexer slope coefficient	1.0000fibre end	0.00T internal ref (°C)	34.70T ext. ref 1 (°C)	4.84T ext. ref 2 (°C)	31.56length (m)	temperature (°C)	Stokes	anti-Stokes-747.200	22.316	0.256	-0.212
-746.185	88.917	0.212	0.239
-745.171	-13.053	-0.106	0.070
-744.156	-200.000	0.044	0.319
-743.142	-108.513	-0.425	0.093
-742.127	293.048	-0.172	0.317
-741.112	-56.799	-0.138	-0.062
-740.098	77.598	-0.320	0.346
-739.083	46.856	0.094	-0.089
-738.069	41.072	0.188	0.172
-737.054	-12.465	-0.501	-0.331
-736.039	190.891	0.027	0.041
-735.025	800.000	-0.049	0.136
-734.010	83.076	0.131	0.145
-732.996	770.397	-0.036	0.098
-731.981	40.708	-0.113	-0.103
-730.966	-160.276	-0.428	-0.023
-729.952	-127.992	0.115	0.017
-728.937	-200.000	0.069	-0.336
-727.923	-200.000	0.010	0.291
-726.908	-152.864	-0.346	0.025
-725.894	800.000	0.036	-0.125
-724.879	269.647	-0.144	-0.257
-723.864	-200.000	-0.027	-0.261
-722.850	142.544	-0.101	-0.136
-721.835	-112.473	0.108	0.022
-720.821	187.545	0.062	0.093
-719.806	-63.033	0.344	0.144
-718.791	-47.380	-0.161	0.080
-717.777	216.822	0.109	-0.176
-716.762	-101.177	0.169	-0.042
-715.748	-56.135	-0.379	0.171
-714.733	578.432	-0.043	-0.106
-713.718	800.000	-0.012	-0.037
-712.704	13.046	-0.104	-0.082
-711.689	50.991	-0.026	0.025
-710.675	-200.000	0.005	-0.222
-709.660	-83.779	0.265	0.086
-708.645	-160.976	0.532	-0.028
-707.631	800.000	0.106	0.302
-706.616	47.140	0.178	0.167
-705.602	-49.803	0.311	0.149
-704.587	18.486	0.024	0.020
-703.572	-27.648	-0.167	-0.098
-702.558	-112.528	0.067	-0.014
-701.543	358.929	0.078	0.159
-700.529	186.689	-0.119	0.180
-699.514	-200.000	-0.048	0.245
-698.499	-92.467	-0.138	-0.039
-697.485	-84.965	-0.197	-0.062
-696.470	-120.821	0.114	-0.019
-695.456	-200.000	-0.059	0.453
-694.441	224.327	-0.090	0.148
-693.426	800.000	0.041	0.152
-692.412	-37.315	-0.190	0.103
-691.397	126.852	-0.141	-0.181
-690.383	20.870	-0.060	-0.049
-689.368	-83.059	-0.298	-0.097
-688.354	-27.345	0.253	-0.149
-687.339	-87.944	0.432	-0.131
-686.324	-200.000	0.014	-0.110
-685.310	-130.779	0.057	-0.008
-684.295	63.519	-0.214	-0.217
-683.281	41.420	0.147	0.134
-682.266	317.430	-0.050	0.095
-681.251	-51.247	-0.208	0.098
-680.237	96.127	0.038	-0.044
-679.222	-1.239	-0.316	-0.226
-678.208	-72.248	-0.115	-0.043
-677.193	80.393	0.144	-0.157
-676.178	138.902	0.176	0.234
-675.164	353.621	0.082	0.165
-674.149	-200.000	0.010	0.101
-673.135	507.120	-0.181	0.425
-672.120	73.690	-0.232	-0.245
-671.105	-80.558	0.470	0.158
-670.091	800.000	-0.118	-0.385
-669.076	16.996	0.086	0.069
-668.062	258.346	0.043	-0.074
-667.047	204.199	0.096	-0.150
-666.032	-39.403	0.119	-0.063
-665.018	-200.000	-0.001	-0.316
-664.003	800.000	-0.118	-0.516
-662.989	-115.782	-0.295	-0.056
-661.974	-200.000	-0.007	0.129
-660.959	-150.834	0.113	-0.009
-659.945	-200.000	-0.025	-0.336
-658.930	-200.000	0.031	0.340
-657.916	262.057	0.275	0.482
-656.901	-196.987	-0.094	-0.001
-655.886	487.499	0.101	-0.232
-654.872	178.418	-0.159	-0.234
-653.857	-24.264	-0.087	-0.052
-652.843	-13.264	0.025	-0.017
-651.828	125.382	-0.173	-0.220
-650.814	-200.000	-0.004	-0.076
-649.799	-48.567	-0.242	-0.118
-648.784	-21.290	0.295	-0.182
-647.770	-164.447	-0.189	-0.009
-646.755	-58.484	-0.211	0.093
-645.741	-152.167	-0.421	-0.031
-644.726	202.057	0.101	-0.158
-643.711	86.737	-0.194	-0.216
-642.697	408.956	-0.030	0.064
-641.682	-80.975	-0.300	-0.101
-640.668	800.000	-0.059	0.242
-639.653	553.269	-0.095	-0.230
-638.638	51.493	0.135	0.130
-637.624	-117.873	-0.052	-0.009
-636.609	200.210	-0.259	0.401
-635.595	-200.000	-0.005	0.678
-634.580	-9.846	0.044	0.030
-633.565	411.909	-0.030	-0.065
-632.551	69.688	0.266	0.277
-631.536	30.852	0.144	0.124
-630.522	59.321	0.079	0.078
-629.507	-118.476	-0.316	0.057
-628.492	-78.112	0.240	-0.083
-627.478	800.000	0.040	-0.112
-626.463	-17.187	-0.294	0.187
-625.449	74.398	-0.274	-0.290
-624.434	800.000	-0.069	-0.293
-623.419	30.628	-0.112	-0.097
-622.405	97.244	0.178	0.207
-621.390	-159.088	0.200	-0.011
-620.376	82.695	-0.221	0.242
-619.361	800.000	-0.045	-0.132
-618.346	-128.404	0.156	-0.022
-617.332	-87.757	0.066	0.020
-616.317	-200.000	-0.020	-0.198
-615.303	-2.150	-0.091	0.064
-614.288	800.000	0.049	-0.170
-613.273	-139.837	-0.302	-0.032
-612.259	38.448	0.161	-0.145
-611.244	164.625	-0.054	0.077
-610.230	-200.000	-0.018	-0.218
-609.215	11.758	0.178	0.137
-608.201	-2.279	0.183	-0.129
-607.186	800.000	-0.038	-0.149
-606.171	800.000	-0.008	-0.026
-605.157	166.214	0.208	0.297
-604.142	7.831	-0.182	-0.138
-603.128	582.656	0.072	-0.179
-602.113	-20.245	-0.225	0.140
-601.098	-95.662	0.277	0.075
-600.084	97.166	0.129	-0.149
-599.069	-94.549	0.231	0.063
-598.055	-200.000	-0.022	-0.210
-597.040	-200.000	-0.013	0.078
-596.025	129.749	0.144	-0.186
-595.011	-31.715	-0.252	0.142
-593.996	84.402	0.071	0.078
-592.982	-64.492	0.251	-0.103
-591.967	629.162	-0.104	0.266
-590.952	-68.316	-0.150	0.059
-589.938	504.779	-0.039	0.090
-588.923	83.416	-0.044	0.048
-587.909	126.030	0.056	0.071
-586.894	-24.211	-0.338	-0.203
-585.879	-38.060	-0.230	0.123
-584.865	-200.000	-0.014	-0.146
-583.850	80.103	0.164	-0.178
-582.836	-10.848	-0.149	-0.099
-581.821	-32.247	0.283	-0.159
-580.806	1.699	0.291	0.211
-579.792	-200.000	-0.066	-0.349
-578.777	38.611	-0.213	0.192
-577.763	-105.298	0.099	0.023
-576.748	-200.000	0.071	0.318
-575.733	3.391	0.147	-0.108
-574.719	88.472	0.090	-0.101
-573.704	782.506	-0.103	0.285
-572.690	-54.017	0.191	-0.087
-571.675	1.133	0.204	0.147
-570.661	-101.486	-0.153	0.037
-569.646	-18.842	0.171	0.107
-568.631	-26.718	-0.131	0.077
-567.617	-200.000	0.014	0.094
-566.602	800.000	-0.043	-0.169
-565.588	-138.726	0.259	-0.028
-564.573	62.869	0.187	-0.188
-563.558	-161.219	-0.284	-0.015
-562.544	-145.135	0.350	-0.032
-561.529	-200.000	0.039	0.177
-560.515	-48.323	-0.134	-0.065
-559.500	79.718	0.186	0.200
-558.485	-54.553	0.047	-0.021
-557.471	-77.260	-0.184	0.064
-556.456	-89.394	0.187	-0.055
-555.442	-77.137	0.261	0.092
-554.427	-73.573	0.168	-0.062
-553.412	-195.508	0.244	-0.002
-552.398	800.000	0.021	-0.065
-551.383	-200.000	0.013	-0.065
-550.369	800.000	0.016	0.070
-549.354	782.243	0.088	-0.243
-548.339	179.284	-0.159	-0.235
-547.325	17.866	-0.262	0.210
-546.310	119.173	-0.037	0.046
-545.296	-200.000	-0.032	0.402
-544.281	24.923	-0.044	-0.037
-543.266	53.983	-0.075	-0.073
-542.252	-35.362	0.171	-0.094
-541.237	274.779	-0.132	-0.234
-540.223	611.621	0.092	-0.231
-539.208	44.230	0.106	0.098
-538.193	119.764	-0.280	-0.350
-537.179	-200.000	0.071	-0.345
-536.164	43.115	-0.290	-0.266
-535.150	-118.307	-0.357	0.064
-534.135	743.910	0.037	0.100
-533.121	-61.332	0.367	-0.155
-532.106	648.881	0.078	-0.200
-531.091	85.970	0.083	-0.091
-530.077	28.112	0.049	0.042
-529.062	-45.100	0.223	0.112
-528.048	-200.000	-0.024	-0.114
-527.033	-200.000	0.018	0.193
-526.018	800.000	-0.102	0.322
-525.004	-135.115	-0.110	0.013
-523.989	412.556	0.057	0.121
-522.975	-200.000	0.009	0.210
-521.960	800.000	0.069	0.196
-520.945	587.743	-0.062	-0.153
-519.931	111.541	0.081	-0.098
-518.916	-32.673	-0.124	-0.070
-517.902	19.609	0.101	-0.082
-516.887	413.324	0.100	-0.214
-515.872	-90.798	-0.302	0.087
-514.858	800.000	0.077	-0.228
-513.843	-39.363	0.252	-0.133
-512.829	42.936	0.099	0.091
-511.814	-114.013	-0.287	0.056
-510.799	-200.000	0.009	0.069
-509.785	-15.822	-0.243	0.156
-508.770	-200.000	-0.029	0.169
-507.756	-2.673	-0.192	-0.135
-506.741	50.570	-0.056	-0.053
-505.726	-58.909	-0.233	-0.101
-504.712	-68.336	-0.207	0.081
-503.697	-34.870	-0.320	-0.175
-502.683	800.000	-0.025	-0.099
-501.668	-44.803	-0.290	0.145
-500.653	-83.044	0.092	0.030
-499.639	-162.547	-0.132	0.007
-498.624	-66.200	0.263	-0.105
-497.610	137.758	-0.069	-0.091
-496.595	8.684	0.020	0.015
-495.581	-49.021	0.363	-0.175
-494.566	392.575	0.061	-0.128
-493.551	-105.863	0.195	0.044
-492.537	-200.000	0.011	0.054
-491.522	800.000	-0.137	0.400
-490.508	-13.719	-0.446	0.290
-489.493	-82.476	0.211	0.069
-488.478	36.512	-0.036	0.032
-487.464	28.861	-0.295	0.251
-486.449	-50.946	-0.079	-0.037
-485.435	59.996	-0.268	-0.266
-484.420	-65.623	0.077	0.031
-483.405	-200.000	-0.044	0.199
-482.391	-200.000	0.011	0.163
-481.376	-86.961	-0.168	-0.051
-480.362	175.981	-0.183	0.267
-479.347	109.609	-0.157	-0.188
-478.332	-184.463	0.389	0.006
-477.318	353.026	0.134	0.268
-476.303	800.000	0.063	0.196
-475.289	-1.162	-0.323	-0.229
-474.274	-178.496	-0.197	0.005
-473.259	-65.338	-0.253	0.102
-472.245	68.464	-0.211	-0.217
-471.230	99.324	0.101	-0.118
-470.216	80.281	-0.098	-0.105
-469.201	117.373	-0.220	0.271
-468.186	137.314	0.113	0.148
-467.172	-16.414	-0.262	0.167
-466.157	123.789	0.071	-0.090
-465.143	-180.858	0.242	0.005
-464.128	-200.000	0.013	0.219
-463.113	-200.000	-0.036	0.261
-462.099	-200.000	-0.086	0.529
-461.084	-146.269	-0.244	-0.021
-460.070	-94.474	0.114	-0.031
-459.055	-118.999	0.220	-0.039
-458.040	184.007	-0.133	-0.197
-457.026	800.000	-0.040	0.173
-456.011	-98.313	-0.044	0.011
-454.997	-86.920	-0.190	0.058
-453.982	-194.953	-0.369	-0.003
-452.968	800.000	0.078	-0.305
-451.953	126.271	-0.219	-0.277
-450.938	800.000	0.071	-0.199
-449.924	-51.265	-0.295	-0.138
-448.909	202.610	-0.101	-0.157
-447.895	-143.343	0.110	-0.011
-446.880	-42.104	0.177	-0.091
-445.865	-145.685	0.118	-0.011
-444.851	800.000	0.046	0.156
-443.836	-49.145	-0.114	0.055
-442.822	-200.000	-0.027	0.195
-441.807	-126.790	-0.433	0.064
-440.792	-200.000	-0.000	0.114
-439.778	-20.821	0.065	0.040
-438.763	800.000	-0.052	-0.219
-437.749	-119.881	-0.212	0.036
-436.734	81.719	-0.172	-0.187
-435.719	-70.304	0.099	-0.038
-434.705	-81.144	0.330	-0.109
-433.690	345.012	-0.105	-0.206
-432.676	-200.000	-0.005	0.067
-431.661	217.015	0.123	0.196
-430.646	-33.624	0.095	0.053
-429.632	35.541	-0.044	0.039
-428.617	-87.948	-0.136	0.041
-427.603	-32.907	-0.187	0.104
-426.588	-200.000	0.071	0.366
-425.573	56.903	0.278	0.271
-424.559	305.786	0.165	0.307
-423.544	-176.263	0.176	-0.005
-422.530	657.911	0.020	0.052
-421.515	-18.313	0.204	-0.127
-420.500	94.046	0.042	-0.047
-419.486	800.000	-0.108	0.473
-418.471	249.977	0.264	0.448
-417.457	-117.569	-0.235	0.043
-416.442	-85.016	0.355	0.111
-415.428	423.041	-0.199	0.428
-414.413	-9.095	-0.132	-0.088
-413.398	416.699	0.201	-0.430
-412.384	-164.201	-0.134	-0.006
-411.369	-39.697	-0.308	0.161
-410.355	38.256	0.081	-0.072
-409.340	-165.959	-0.420	-0.018
-408.325	502.377	-0.183	-0.424
-407.311	-200.000	-0.077	-0.409
-406.296	-142.413	0.213	-0.021
-405.282	-46.782	0.097	-0.047
-404.267	-200.000	-0.006	0.114
-403.252	-10.822	0.207	-0.137
-402.238	800.000	0.064	0.273
-401.223	-11.106	-0.179	0.118
-400.209	176.851	-0.193	0.280
-399.194	800.000	0.020	0.064
-398.179	-200.000	0.037	-0.221
-397.165	170.890	-0.128	-0.184
-396.150	-43.468	-0.089	0.045
-395.136	472.626	-0.121	-0.273
-394.121	-200.000	-0.000	0.323
-393.106	-102.062	0.175	0.042
-392.092	-200.000	0.018	-0.275
-391.077	-10.271	0.128	-0.085
-390.063	46.015	-0.017	-0.016
-389.048	609.424	0.090	0.224
-388.033	-104.392	-0.143	0.033
-387.019	-58.923	0.080	0.035
-386.004	-200.000	0.043	0.285
-384.990	268.450	0.142	-0.249
-383.975	-66.319	0.378	0.150
-382.960	173.173	0.126	0.182
-381.946	-200.000	0.048	-0.317
-380.931	-200.000	-0.007	0.198
-379.917	-200.000	-0.007	-0.211
-378.902	-114.169	0.242	-0.047
-377.888	-200.000	-0.045	-0.243
-376.873	-200.000	-0.032	-0.162
-375.858	-78.506	0.265	-0.091
-374.844	-112.011	-0.188	0.038
-373.829	232.491	-0.246	-0.404
-372.815	304.373	-0.063	0.117
-371.800	-200.000	-0.027	-0.145
-370.785	-200.000	-0.009	-0.199
-369.771	235.881	-0.193	-0.319
-368.756	82.579	-0.337	0.366
-367.742	800.000	0.128	-0.482
-366.727	393.261	-0.068	-0.142
-365.712	679.813	-0.109	0.283
-364.698	-200.000	-0.024	-0.133
-363.683	-200.000	0.028	-0.275
-362.669	135.550	0.145	0.188
-361.654	477.035	-0.082	-0.186
-360.639	35.931	0.068	-0.060
-359.625	-200.000	-0.040	-0.263
-358.610	175.183	0.142	-0.206
-357.596	346.476	-0.076	0.150
-356.581	800.000	-0.068	-0.274
-355.566	-136.130	-0.120	-0.014
-354.552	-161.782	0.129	-0.007
-353.537	26.842	-0.117	0.098
-352.523	-200.000	0.004	0.109
-351.508	-177.145	0.198	0.005
-350.493	800.000	-0.027	0.101
-349.479	-200.000	0.009	0.127
-348.464	-200.000	-0.023	-0.247
-347.450	67.328	0.237	-0.241
-346.435	-200.000	-0.005	-0.049
-345.420	-99.020	0.154	-0.039
-344.406	-112.063	-0.092	-0.019
-343.391	-200.000	-0.034	-0.379
-342.377	800.000	-0.049	0.160
-341.362	60.463	-0.051	0.050
-340.348	9.870	-0.259	0.196
-339.333	68.137	0.389	-0.397
-338.318	-33.338	0.457	-0.253
-337.304	-71.285	-0.161	0.060
-336.289	-200.000	-0.006	0.131
-335.275	99.132	-0.228	0.263
-334.260	148.605	0.133	0.179
-333.245	-200.000	0.027	-0.212
-332.231	-200.000	0.006	-0.090
-331.216	800.000	0.015	-0.058
-330.202	-78.694	0.098	-0.033
-329.187	74.519	0.098	-0.103
-328.172	132.848	0.138	-0.178
-327.158	800.000	0.025	0.096
-326.143	-92.290	-0.175	-0.049
-325.129	-23.724	0.160	0.096
-324.114	-156.821	-0.326	0.020
-323.099	-200.000	-0.004	-0.081
-322.085	800.000	-0.042	-0.153
-321.070	-38.232	0.154	-0.081
-320.056	800.000	0.054	-0.227
-319.041	-19.052	-0.084	0.052
-318.026	48.221	0.070	-0.065
-317.012	-15.893	0.150	0.095
-315.997	-41.440	-0.095	0.049
-314.983	-200.000	-0.011	0.160
-313.968	157.853	0.113	-0.156
-312.953	-35.239	-0.348	0.189
-311.939	-200.000	0.036	0.416
-310.924	642.969	0.090	0.228
-309.910	-136.859	-0.018	0.002
-308.895	800.000	0.112	0.399
-307.880	29.605	-0.082	-0.069
-306.866	-148.024	-0.209	-0.017
-305.851	800.000	0.056	-0.177
-304.837	-115.577	-0.319	0.060
-303.822	395.193	-0.084	0.174
-302.807	125.757	-0.134	0.169
-301.793	-152.179	0.150	-0.011
-300.778	-200.000	-0.000	0.115
-299.764	186.487	-0.255	-0.378
-298.749	129.327	0.263	-0.335
-297.735	656.404	0.092	0.236
-296.720	-200.000	0.038	0.209
-295.705	126.311	-0.094	-0.118
-294.691	-66.115	-0.280	0.111
-293.676	136.299	0.158	-0.206
-292.662	300.094	0.073	-0.134
-291.647	-200.000	-0.007	0.201
-290.632	-200.000	0.025	0.113
-289.618	-200.000	-0.009	-0.078
-288.603	328.777	-0.097	-0.186
-287.589	190.462	-0.050	-0.075
-286.574	42.760	-0.218	-0.197
-285.559	119.313	-0.127	0.157
-284.545	422.892	0.118	-0.253
-283.530	126.945	-0.125	-0.158
-282.516	-108.145	0.147	-0.032
-281.501	-23.328	-0.090	0.054
-280.486	-93.150	0.295	0.082
-279.472	87.995	0.098	0.109
-278.457	129.072	-0.130	0.164
-277.443	23.431	-0.038	-0.031
-276.428	77.358	0.072	0.076
-275.413	-116.453	-0.135	0.025
-274.399	-108.110	0.216	-0.047
-273.384	158.820	0.142	-0.197
-272.370	-175.939	-0.184	-0.005
-271.355	800.000	0.022	0.062
-270.340	-173.358	-0.276	0.008
-269.326	-84.633	-0.206	-0.065
-268.311	0.042	0.153	-0.109
-267.297	-88.736	-0.353	-0.104
-266.282	69.249	-0.130	-0.133
-265.267	-92.818	0.327	-0.091
-264.253	-29.926	0.260	0.147
-263.238	131.044	0.058	-0.075
-262.224	-39.026	-0.210	-0.110
-261.209	-200.000	-0.031	-0.257
-260.195	800.000	0.087	0.292
-259.180	-200.000	0.038	0.339
-258.165	541.527	0.115	0.272
-257.151	47.600	-0.236	0.219
-256.136	1.140	-0.329	-0.235
-255.122	-70.611	0.276	-0.104
-254.107	113.755	0.177	0.214
-253.092	300.667	0.135	-0.247
-252.078	319.404	0.024	0.044
-251.063	-200.000	-0.003	-0.165
-250.049	-77.461	0.058	-0.020
-249.034	-113.794	-0.168	0.033
-248.019	-32.509	-0.148	-0.082
-247.005	33.072	0.136	0.117
-245.990	-200.000	0.251	0.001
-244.976	-52.429	0.212	-0.098
-243.961	64.491	0.045	0.045
-242.946	800.000	0.118	0.471
-241.932	430.651	0.060	0.130
-240.917	-105.068	0.170	0.039
-239.903	-33.811	0.137	-0.075
-238.888	-183.973	0.197	-0.003
-237.873	65.478	0.090	0.091
-236.859	-164.251	0.111	-0.005
-235.844	151.182	0.142	0.192
-234.830	800.000	-0.083	0.280
-233.815	182.081	0.076	-0.112
-232.800	-200.000	0.040	-0.425
-231.786	-47.916	0.284	0.136
-230.771	0.485	-0.142	0.101
-229.757	-45.038	0.304	-0.150
-228.742	222.125	0.195	-0.311
-227.727	-200.000	0.002	-0.063
-226.713	67.249	0.092	-0.093
-225.698	-183.070	0.225	-0.004
-224.684	-136.231	0.274	0.032
-223.669	581.360	-0.106	-0.258
-222.655	19.565	0.082	-0.066
-221.640	-137.754	0.165	0.018
-220.625	-73.429	0.448	0.163
-219.611	-128.818	-0.089	0.012
-218.596	-96.097	-0.143	0.038
-217.582	-71.699	-0.077	-0.029
-216.567	55.671	-0.120	-0.116
-215.552	-200.000	-0.025	0.226
-214.538	-41.619	-0.176	-0.090
-213.523	102.153	0.183	0.212
-212.509	319.556	-0.077	-0.145
-211.494	-168.427	-0.192	0.007
-210.479	791.341	0.084	0.230
-209.465	115.126	0.061	0.073
-208.450	509.112	-0.113	0.260
-207.436	-200.000	-0.001	0.008
-206.421	118.318	0.105	-0.128
-205.406	-200.000	-0.013	-0.217
-204.392	-76.510	-0.150	0.052
-203.377	-81.312	0.421	-0.138
-202.363	-94.502	0.079	0.021
-201.348	86.377	0.355	0.389
-200.333	56.417	0.222	-0.214
-199.319	-163.547	0.389	0.018
-198.304	-200.000	0.059	-0.279
-197.290	187.597	-0.238	0.353
-196.275	496.032	-0.041	-0.093
-195.260	142.921	0.163	-0.215
-194.246	-45.829	0.124	-0.061
-193.231	133.251	0.220	-0.282
-192.217	800.000	-0.090	-0.274
-191.202	412.800	0.018	0.037
-190.187	366.361	0.039	-0.079
-189.173	782.684	0.109	0.295
-188.158	-200.000	-0.041	0.241
-187.144	15.224	-0.045	0.035
-186.129	217.284	-0.045	0.071
-185.114	800.000	0.029	0.090
-184.100	43.988	0.239	0.218
-183.085	-117.295	0.241	-0.043
-182.071	-200.000	-0.007	-0.278
-181.056	-114.963	-0.092	0.017
-180.042	17.274	-0.173	0.136
-179.027	-71.771	-0.247	0.091
-178.012	-161.707	0.097	-0.005
-176.998	565.169	0.087	-0.210
-175.983	800.000	-0.029	0.093
-174.969	-84.771	-0.064	-0.020
-173.954	-200.000	0.002	-0.063
-172.939	-119.109	0.371	0.064
-171.925	-200.000	-0.019	0.243
-170.910	-108.270	0.013	0.003
-169.896	-47.120	-0.221	0.107
-168.881	130.170	0.166	0.210
-167.866	-200.000	0.013	0.215
-166.852	56.666	-0.243	0.234
-165.837	800.000	0.089	-0.248
-164.823	-24.255	0.294	0.174
-163.808	577.028	-0.101	-0.244
-162.793	-70.949	0.056	-0.021
-161.779	-136.181	-0.320	0.037
-160.764	86.637	-0.100	-0.109
-159.750	-150.165	-0.334	0.026
-158.735	-57.322	0.053	-0.023
-157.720	-25.676	-0.026	0.015
-156.706	-25.927	0.028	0.016
-155.691	-200.000	-0.008	-0.106
-154.677	800.000	-0.034	-0.139
-153.662	800.000	-0.024	0.093
-152.647	413.010	-0.091	0.191
-151.633	99.693	-0.121	0.139
-150.618	-61.926	0.083	-0.034
-149.604	42.508	0.174	-0.156
-148.589	79.945	0.070	0.075
-147.574	284.398	0.140	0.250
-146.560	-123.849	-0.185	-0.029
-145.545	112.572	-0.135	0.162
-144.531	264.188	0.174	0.300
-143.516	546.068	-0.061	0.143
-142.502	146.140	-0.148	0.196
-141.487	378.078	0.227	0.459
-140.472	-92.613	0.412	0.115
-139.458	-91.079	-0.405	-0.115
-138.443	-200.000	-0.007	-0.131
-137.429	158.025	-0.092	0.127
-136.414	-70.365	0.115	-0.043
-135.399	-200.000	-0.101	-0.458
-134.385	394.141	0.143	-0.295
-133.370	-90.526	0.219	0.063
-132.356	-116.270	-0.106	0.019
-131.341	-200.000	-0.017	0.088
-130.326	-200.000	-0.001	-0.269
-129.312	-63.442	-0.020	-0.008
-128.297	-71.280	-0.241	0.089
-127.283	-100.453	0.292	-0.072
-126.268	30.639	-0.276	0.234
-125.253	800.000	0.075	0.312
-124.239	800.000	0.068	0.189
-123.224	-152.671	-0.196	-0.014
-122.210	-11.797	-0.181	0.118
-121.195	-200.000	0.049	-0.388
