DTS Sentinel unit serial number:	SN413079Multiplexer serial number:	ORYXHardware model number:	OX4-SRSoftware version number:	ORYX F/W v4.00 Oryx Data Collector v3.7.2.0data status	okinstallation	princeton_trtdifferential loss correction	single-endedforward channel	channel 2reverse channel	N/Adate	2019/09/15time	07:23:35forward acquisition time	60.00reverse acquisition time	0.00gamma	496.2192k internal	0.2325k external	0.2325temperature offset calibration	1.0031default loss term (dB/km)	0.3790temperature slope calibration	1.0000multiplexer offset coefficient	1.0000multiplexer slope coefficient	1.0000fibre end	0.00T internal ref (°C)	30.56T ext. ref 1 (°C)	4.86T ext. ref 2 (°C)	25.83length (m)	temperature (°C)	Stokes	anti-Stokes-747.200	-58.253	0.161	-0.071
-746.185	9.044	0.193	0.147
-745.171	124.195	0.016	0.021
-744.156	-113.350	-0.140	0.028
-743.142	-118.919	0.281	0.050
-742.127	800.000	0.082	0.302
-741.112	-42.678	0.155	0.080
-740.098	-200.000	0.010	0.175
-739.083	-84.290	0.118	-0.038
-738.069	-35.707	0.100	0.055
-737.054	-30.717	0.193	0.110
-736.039	-3.374	-0.120	-0.085
-735.025	800.000	-0.070	0.269
-734.010	-132.080	-0.103	0.013
-732.996	-101.525	0.191	0.047
-731.981	-200.000	0.064	-0.314
-730.966	-117.324	-0.233	0.043
-729.952	182.707	-0.148	-0.220
-728.937	-59.247	-0.262	0.114
-727.923	-200.000	0.031	-0.177
-726.908	-200.000	-0.017	-0.159
-725.894	-200.000	-0.006	-0.121
-724.879	41.948	-0.283	-0.259
-723.864	-133.502	-0.160	-0.020
-722.850	-62.243	0.200	-0.084
-721.835	-54.410	0.046	-0.021
-720.821	-200.000	0.025	-0.194
-719.806	-114.907	0.142	0.027
-718.791	-200.000	-0.005	0.054
-717.777	-93.643	0.220	-0.061
-716.762	-49.431	-0.172	-0.083
-715.748	-126.503	-0.344	0.051
-714.733	-81.519	-0.314	0.104
-713.718	-200.000	-0.012	0.199
-712.704	-200.000	0.009	-0.115
-711.689	-22.032	0.218	-0.133
-710.675	-96.927	-0.154	-0.041
-709.660	-48.009	-0.185	-0.090
-708.645	279.858	-0.096	-0.173
-707.631	237.687	0.163	-0.272
-706.616	56.393	0.175	-0.171
-705.602	-79.279	-0.334	-0.114
-704.587	-200.000	0.021	-0.178
-703.572	647.260	-0.164	-0.421
-702.558	258.776	-0.101	0.176
-701.543	40.866	0.265	-0.241
-700.529	247.326	-0.040	0.068
-699.514	800.000	0.024	0.095
-698.499	-200.000	0.048	-0.225
-697.485	-133.554	0.256	-0.032
-696.470	-121.915	0.318	-0.053
-695.456	-29.472	0.340	-0.196
-694.441	35.156	0.123	-0.109
-693.426	800.000	-0.103	-0.358
-692.412	-0.413	0.362	0.259
-691.397	-8.689	0.196	-0.133
-690.383	-200.000	-0.034	-0.162
-689.368	212.444	-0.114	-0.181
-688.354	-53.285	0.264	0.122
-687.339	82.358	0.263	0.287
-686.324	-59.496	-0.176	0.076
-685.310	800.000	-0.058	0.236
-684.295	12.741	-0.192	-0.149
-683.281	800.000	-0.041	-0.144
-682.266	104.711	-0.123	-0.146
-681.251	32.504	0.019	-0.017
-680.237	429.584	0.064	-0.139
-679.222	-200.000	0.226	0.001
-678.208	310.971	-0.132	-0.249
-677.193	-200.000	0.022	-0.125
-676.178	800.000	0.038	-0.114
-675.164	86.740	0.221	0.245
-674.149	47.286	-0.039	-0.036
-673.135	108.317	-0.080	0.096
-672.120	139.645	-0.063	-0.083
-671.105	-153.163	0.302	-0.021
-670.091	800.000	-0.053	0.169
-669.076	-84.468	-0.337	0.107
-668.062	-143.860	-0.267	-0.025
-667.047	454.985	-0.094	0.209
-666.032	-200.000	0.025	0.164
-665.018	-143.751	0.305	-0.029
-664.003	-104.110	0.220	-0.051
-662.989	260.918	0.112	-0.194
-661.974	-93.538	-0.376	-0.105
-660.959	-119.016	0.193	-0.034
-659.945	23.911	0.107	-0.089
-658.930	58.078	-0.023	-0.023
-657.916	22.908	0.070	-0.057
-656.901	20.586	0.162	0.132
-655.886	475.212	0.103	-0.234
-654.872	-84.642	-0.066	0.021
-653.857	-200.000	-0.008	-0.177
-652.843	-200.000	0.019	-0.442
-651.828	-84.765	-0.105	-0.033
-650.814	195.841	0.126	0.193
-649.799	-200.000	-0.048	-0.386
-648.784	-200.000	0.039	-0.420
-647.770	-200.000	-0.052	-0.255
-646.755	274.875	0.108	0.192
-645.741	68.079	-0.313	-0.322
-644.726	48.001	-0.252	0.237
-643.711	-52.166	0.238	0.111
-642.697	704.869	0.070	-0.186
-641.682	-200.000	0.020	-0.115
-640.668	-200.000	0.005	0.154
-639.653	-86.648	-0.560	0.172
-638.638	-7.266	0.219	-0.149
-637.624	476.698	0.052	0.119
-636.609	-65.288	0.189	-0.076
-635.595	-74.847	0.079	0.028
-634.580	-90.726	-0.048	0.014
-633.565	800.000	0.089	0.341
-632.551	9.898	-0.230	-0.175
-631.536	-200.000	-0.002	0.351
-630.522	-200.000	0.050	0.262
-629.507	58.512	-0.195	0.193
-628.492	-123.093	-0.282	-0.046
-627.478	-114.646	-0.115	0.022
-626.463	91.339	0.085	0.096
-625.449	-147.572	-0.145	0.012
-624.434	307.044	0.211	-0.394
-623.419	-45.365	-0.077	-0.038
-622.405	-153.137	-0.296	-0.021
-621.390	585.971	0.119	0.293
-620.376	-200.000	0.011	0.169
-619.361	-200.000	-0.072	-0.331
-618.346	-200.000	-0.021	0.206
-617.332	-200.000	-0.012	-0.114
-616.317	-87.430	0.140	-0.043
-615.303	127.566	0.240	0.306
-614.288	-200.000	0.006	-0.170
-613.273	381.905	0.076	-0.156
-612.259	-14.565	0.152	-0.098
-611.244	-4.666	-0.216	0.150
-610.230	-118.435	-0.269	-0.048
-609.215	-123.951	-0.335	-0.053
-608.201	117.451	0.238	-0.294
-607.186	-44.792	-0.095	0.048
-606.171	-144.707	-0.313	-0.029
-605.157	14.253	-0.238	-0.186
-604.142	129.957	-0.042	0.054
-603.128	48.659	0.224	0.211
-602.113	-132.002	0.046	-0.006
-601.098	-122.025	0.332	-0.055
-600.084	-200.000	0.011	-0.331
-599.069	-113.502	0.248	-0.049
-598.055	-30.228	0.153	-0.087
-597.040	-137.290	-0.250	-0.028
-596.025	-146.852	-0.077	0.007
-595.011	-161.164	-0.299	0.016
-593.996	-48.403	-0.229	-0.111
-592.982	-200.000	-0.018	-0.286
-591.967	-77.963	-0.077	-0.027
-590.952	-200.000	0.014	0.083
-589.938	2.367	-0.249	-0.181
-588.923	779.366	-0.056	-0.153
-587.909	38.592	-0.203	-0.182
-586.894	-200.000	-0.007	-0.058
-585.879	77.339	-0.011	0.012
-584.865	289.257	0.061	-0.112
-583.850	-38.365	-0.307	0.163
-582.836	420.511	-0.061	0.132
-581.821	34.485	-0.176	0.154
-580.806	800.000	-0.172	0.529
-579.792	107.235	0.102	-0.122
-578.777	-149.088	-0.040	0.003
-577.763	681.302	-0.032	-0.084
-576.748	-110.838	-0.273	-0.056
-575.733	-200.000	0.018	-0.290
-574.719	-146.612	-0.054	-0.005
-573.704	22.343	0.230	0.189
-572.690	800.000	0.034	0.119
-571.675	-117.521	-0.111	0.020
-570.661	-135.311	0.363	-0.044
-569.646	409.711	0.106	-0.225
-568.631	-110.617	0.329	-0.068
-567.617	546.564	-0.054	0.130
-566.602	48.481	-0.352	-0.330
-565.588	-200.000	-0.027	-0.126
-564.573	142.703	-0.175	-0.233
-563.558	-55.644	0.133	-0.060
-562.544	-153.383	-0.093	0.006
-561.529	420.193	-0.049	-0.105
-560.515	88.025	-0.254	-0.282
-559.500	391.117	-0.069	-0.144
-558.485	-25.482	-0.373	0.221
-557.471	384.052	0.031	0.064
-556.456	235.209	-0.143	0.237
-555.442	-200.000	0.002	0.050
-554.427	-127.701	-0.302	-0.044
-553.412	-164.154	-0.175	-0.008
-552.398	-123.443	-0.288	-0.046
-551.383	-55.610	0.132	0.059
-550.369	-127.749	0.064	-0.009
-549.354	-200.000	0.013	0.308
-548.339	98.919	0.115	0.133
-547.325	-107.728	0.196	0.043
-546.310	111.808	-0.171	-0.207
-545.296	800.000	0.035	-0.144
-544.281	-53.640	-0.208	0.095
-543.266	800.000	-0.006	0.023
-542.252	-30.699	0.311	-0.176
-541.237	137.829	-0.041	0.054
-540.223	467.772	-0.131	0.293
-539.208	32.413	-0.356	0.308
-538.193	-117.568	0.203	-0.037
-537.179	800.000	0.043	-0.148
-536.164	-200.000	-0.024	-0.332
-535.150	58.720	-0.177	0.174
-534.135	48.926	0.329	-0.309
-533.121	800.000	-0.045	0.184
-532.106	-65.760	0.230	0.092
-531.091	397.701	0.188	-0.393
-530.077	-150.371	0.398	-0.031
-529.062	-141.555	0.212	-0.021
-528.048	202.077	-0.181	0.279
-527.033	-95.561	-0.119	-0.032
-526.018	649.585	0.073	0.187
-525.004	-53.008	-0.087	-0.040
-523.989	-196.800	0.347	0.002
-522.975	-145.048	0.232	0.021
-521.960	657.504	0.059	0.153
-520.945	-12.558	0.111	-0.073
-519.931	-113.761	0.275	0.054
-518.916	-134.664	0.234	0.028
-517.902	800.000	-0.102	-0.285
-516.887	-87.713	0.188	0.057
-515.872	-74.785	-0.214	-0.077
-514.858	-23.320	-0.245	-0.147
-513.843	-200.000	-0.033	-0.175
-512.829	-91.348	-0.173	-0.049
-511.814	800.000	0.013	-0.039
-510.799	14.597	0.206	0.161
-509.785	-77.480	-0.176	0.061
-508.770	-127.756	-0.397	-0.057
-507.756	-200.000	0.010	-0.105
-506.741	45.408	0.140	-0.129
-505.726	-94.570	0.319	0.087
-504.712	195.918	-0.158	0.241
-503.697	293.231	0.091	-0.166
-502.683	-169.102	0.054	0.002
-501.668	78.806	-0.256	-0.274
-500.653	-90.617	0.210	0.061
-499.639	230.593	0.269	0.440
-498.624	-14.573	0.232	0.149
-497.610	-55.108	0.062	0.028
-496.595	173.131	0.032	0.046
-495.581	17.212	-0.094	0.075
-494.566	143.061	-0.288	-0.383
-493.551	352.197	0.054	-0.106
-492.537	263.480	-0.248	0.431
-491.522	50.800	0.195	0.184
-490.508	-113.205	-0.051	-0.010
-489.493	-17.194	-0.228	-0.143
-488.478	800.000	-0.104	0.311
-487.464	-157.418	-0.295	0.018
-486.449	-200.000	0.018	-0.124
-485.435	-73.896	0.076	0.028
-484.420	-92.942	-0.166	-0.046
-483.405	143.719	-0.130	-0.172
-482.391	23.280	-0.299	-0.245
-481.376	1.551	0.025	0.018
-480.362	-54.904	0.023	0.010
-479.347	-131.952	-0.123	-0.016
-478.332	1.212	0.068	0.049
-477.318	183.694	0.067	0.098
-476.303	170.573	0.205	0.293
-475.289	800.000	-0.076	0.228
-474.274	33.347	-0.033	-0.028
-473.259	-39.453	-0.158	0.083
-472.245	800.000	-0.044	0.146
-471.230	800.000	0.022	0.083
-470.216	7.015	-0.152	0.113
-469.201	179.556	0.187	-0.273
-468.186	43.092	0.228	-0.207
-467.172	-200.000	0.013	0.257
-466.157	-163.977	0.162	0.008
-465.143	101.135	-0.023	-0.027
-464.128	-171.846	-0.162	0.005
-463.113	-149.977	0.350	-0.027
-462.099	182.614	-0.101	0.148
-461.084	-97.029	-0.321	0.084
-460.070	-5.659	0.174	-0.119
-459.055	800.000	-0.032	0.115
-458.040	-200.000	0.063	-0.374
-457.026	800.000	-0.029	0.093
-456.011	-31.250	0.245	0.138
-454.997	-200.000	-0.005	0.028
-453.982	-200.000	0.011	-0.302
-452.968	68.998	-0.176	-0.180
-451.953	69.324	-0.241	0.248
-450.938	80.694	0.009	-0.010
-449.924	-200.000	-0.001	0.305
-448.909	-41.582	-0.281	-0.144
-447.895	-143.176	0.172	-0.017
-446.880	-200.000	0.010	0.164
-445.865	-200.000	-0.030	-0.218
-444.851	198.052	0.171	0.261
-443.836	-173.427	-0.052	0.002
-442.822	-100.021	0.128	-0.032
-441.807	-124.888	-0.255	-0.039
-440.792	-183.384	0.450	-0.008
-439.778	201.836	-0.334	0.514
-438.763	-120.285	-0.135	0.023
-437.749	800.000	-0.008	0.031
-436.734	800.000	-0.066	0.267
-435.719	-200.000	-0.016	-0.248
-434.705	-138.652	-0.187	0.020
-433.690	800.000	0.109	0.375
-432.676	800.000	-0.103	-0.396
-431.661	800.000	0.076	-0.233
-430.646	25.112	-0.061	-0.050
-429.632	-52.583	0.100	-0.046
-428.617	-95.378	0.300	-0.080
-427.603	-29.730	-0.195	0.111
-426.588	64.928	-0.180	-0.181
-425.573	-200.000	0.022	0.159
-424.559	-200.000	-0.007	0.100
-423.544	-200.000	-0.094	-0.416
-422.530	-133.048	-0.237	0.030
-421.515	-60.675	-0.247	0.104
-420.500	131.545	0.186	0.239
-419.486	-137.252	0.128	0.014
-418.471	-200.000	-0.002	-0.040
-417.457	-200.000	-0.015	0.379
-416.442	-56.547	0.318	0.140
-415.428	-147.344	0.101	0.009
-414.413	800.000	-0.016	0.053
-413.398	-200.000	-0.204	-0.001
-412.384	-200.000	0.010	-0.140
-411.369	-105.565	-0.046	-0.010
-410.355	-141.567	0.474	0.048
-409.340	24.688	0.088	0.072
-408.325	800.000	-0.026	0.073
-407.311	286.944	0.007	-0.012
-406.296	136.634	0.076	0.099
-405.282	-115.891	0.298	-0.055
-404.267	747.809	-0.060	-0.162
-403.252	222.934	-0.082	-0.132
-402.238	57.543	0.226	-0.220
-401.223	-200.000	-0.016	-0.096
-400.209	-79.251	0.225	-0.076
-399.194	441.433	-0.047	-0.103
-398.179	-200.000	0.014	0.147
-397.165	85.031	0.272	-0.297
-396.150	-200.000	-0.018	0.192
-395.136	113.060	0.154	-0.186
-394.121	343.984	-0.164	-0.320
-393.106	-51.692	-0.063	0.029
-392.092	-200.000	-0.017	0.254
-391.077	-51.728	0.148	0.068
-390.063	-20.455	-0.294	-0.180
-389.048	800.000	0.038	0.131
-388.033	-77.044	-0.178	-0.062
-387.019	-19.083	-0.335	0.207
-386.004	317.762	-0.231	0.435
-384.990	-200.000	-0.018	-0.086
-383.975	-76.119	-0.325	-0.114
-382.960	-63.332	-0.079	0.032
-381.946	800.000	0.015	-0.052
-380.931	-166.281	0.189	-0.008
-379.917	-133.125	0.083	0.010
-378.902	15.597	0.058	0.046
-377.888	800.000	0.082	0.257
-376.873	271.320	0.074	0.130
-375.858	-147.922	0.053	0.004
-374.844	-49.175	-0.074	0.035
-373.829	215.830	0.180	-0.284
-372.815	-7.595	-0.100	-0.067
-371.800	507.035	0.136	-0.315
-370.785	184.178	-0.216	0.318
-369.771	0.734	0.188	0.134
-368.756	474.299	-0.079	-0.177
-367.742	71.876	0.082	-0.084
-366.727	800.000	0.017	0.049
-365.712	-106.722	0.165	0.036
-364.698	348.626	-0.122	-0.239
-363.683	215.543	-0.057	-0.090
-362.669	-200.000	0.574	0.001
-361.654	800.000	-0.025	0.089
-360.639	201.341	-0.150	-0.230
-359.625	-200.000	0.042	-0.372
-358.610	-110.328	-0.130	-0.027
-357.596	-200.000	-0.016	-0.156
-356.581	7.560	-0.095	0.071
-355.566	222.535	0.143	0.229
-354.552	-79.088	0.383	-0.129
-353.537	-131.365	-0.352	0.046
-352.523	-147.637	0.165	0.014
-351.508	54.108	0.152	-0.145
-350.493	-200.000	0.005	-0.050
-349.479	475.387	-0.047	-0.105
-348.464	-200.000	-0.040	-0.251
-347.450	-200.000	0.028	-0.319
-346.435	-131.095	-0.108	0.014
-345.420	-200.000	0.005	0.059
-344.406	-15.769	0.252	-0.160
-343.391	800.000	0.050	-0.215
-342.377	-200.000	-0.001	-0.089
-341.362	-159.508	0.149	0.008
-340.348	645.249	-0.079	0.201
-339.333	-200.000	0.016	0.126
-338.318	-62.114	-0.258	0.107
-337.304	146.569	-0.037	-0.049
-336.289	-200.000	0.002	-0.254
-335.275	-200.000	-0.029	-0.160
-334.260	273.371	-0.078	0.137
-333.245	-18.350	-0.123	-0.076
-332.231	-54.253	0.377	-0.170
-331.216	-200.000	-0.006	-0.126
-330.202	-200.000	-0.064	-0.315
-329.187	20.267	-0.049	0.039
-328.172	162.346	0.011	0.015
-327.158	70.531	0.116	-0.119
-326.143	-100.750	0.605	-0.148
-325.129	17.870	0.149	0.117
-324.114	-55.698	0.410	-0.182
-323.099	-200.000	0.009	0.138
-322.085	63.217	-0.064	-0.064
-321.070	62.651	-0.198	-0.196
-320.056	-33.061	0.319	0.176
-319.041	-15.603	0.081	0.051
-318.026	-11.525	-0.222	0.145
-317.012	-200.000	0.021	-0.150
-315.997	-200.000	0.009	-0.160
-314.983	3.189	0.287	-0.207
-313.968	-115.823	0.415	-0.077
-312.953	-110.458	-0.086	-0.018
-311.939	-56.976	0.077	0.034
-310.924	193.470	0.134	-0.201
-309.910	-200.000	-0.006	-0.209
-308.895	800.000	0.064	0.213
-307.880	380.053	0.157	0.319
-306.866	-200.000	0.005	0.166
-305.851	-118.975	0.090	-0.016
-304.837	-180.803	-0.276	0.006
-303.822	-114.869	-0.058	-0.011
-302.807	133.194	-0.106	0.136
-301.793	-200.000	-0.066	-0.459
-300.778	55.694	0.101	0.097
-299.764	-15.590	-0.145	-0.092
-298.749	250.682	-0.087	0.147
-297.735	-57.981	0.055	0.024
-296.720	-95.583	0.204	0.054
-295.705	800.000	0.053	0.198
-294.691	-178.741	0.240	-0.005
-293.676	185.757	-0.200	-0.295
-292.662	-96.422	0.011	-0.003
-291.647	30.735	-0.040	0.034
-290.632	66.746	0.249	-0.251
-289.618	-133.899	-0.245	-0.030
-288.603	45.754	-0.194	-0.178
-287.589	-200.000	-0.003	0.018
-286.574	-200.000	-0.006	0.109
-285.559	-56.184	-0.131	-0.058
-284.545	28.682	0.190	-0.160
-283.530	-200.000	0.004	-0.052
-282.516	42.490	0.093	0.084
-281.501	348.077	-0.073	0.142
-280.486	52.123	0.217	-0.205
-279.472	-127.623	0.197	-0.028
-278.457	-61.041	0.444	0.186
-277.443	-200.000	0.009	0.277
-276.428	-110.288	0.263	0.054
-275.413	800.000	-0.044	-0.131
-274.399	-40.155	0.197	-0.102
-273.384	-108.461	-0.023	0.005
-272.370	168.115	-0.078	0.111
-271.355	-200.000	-0.009	0.084
-270.340	143.786	0.069	0.091
-269.326	-200.000	0.019	-0.222
-268.311	-200.000	-0.000	-0.126
-267.297	-118.096	-0.211	0.037
-266.282	-200.000	0.052	0.492
-265.267	51.683	-0.093	-0.087
-264.253	-39.965	-0.126	-0.065
-263.238	-200.000	-0.022	-0.115
-262.224	800.000	0.034	-0.143
-261.209	-200.000	0.003	0.147
-260.195	416.396	-0.100	0.210
-259.180	370.079	-0.082	0.165
-258.165	-111.258	-0.139	0.028
-257.151	-119.566	-0.400	-0.069
-256.136	-81.137	0.156	-0.051
-255.122	-130.988	0.034	0.005
-254.107	-200.000	-0.001	0.315
-253.092	800.000	-0.046	0.141
-252.078	141.143	-0.129	0.169
-251.063	-108.752	0.168	0.036
-250.049	49.209	0.112	0.104
-249.034	619.339	-0.200	0.497
-248.019	-65.582	-0.304	-0.121
-247.005	-65.633	-0.368	0.146
-245.990	800.000	-0.061	0.244
-244.976	256.279	-0.076	-0.130
-243.961	-131.613	-0.342	-0.044
-242.946	-200.000	-0.063	0.319
-241.932	79.862	-0.199	0.212
-240.917	-127.091	-0.430	0.062
-239.903	-61.194	0.227	0.095
-238.888	-200.000	-0.004	0.064
-237.873	-30.301	0.091	0.051
-236.859	331.963	0.170	-0.324
-235.844	66.857	0.010	0.010
-234.830	-25.419	-0.008	-0.005
-233.815	800.000	0.029	0.099
-232.800	-56.358	0.337	0.148
-231.786	125.809	-0.096	-0.120
-230.771	86.765	-0.100	0.110
-229.757	372.735	0.042	-0.084
-228.742	-9.899	-0.145	0.095
-227.727	-97.681	0.326	-0.084
-226.713	105.845	-0.249	0.292
-225.698	-200.000	-0.015	0.081
-224.684	-200.000	-0.010	-0.063
-223.669	-200.000	-0.003	-0.111
-222.655	-3.517	-0.385	-0.265
-221.640	-61.379	-0.222	0.092
-220.625	-176.506	-0.154	-0.004
-219.611	164.425	0.167	-0.233
-218.596	-41.370	-0.273	0.139
-217.582	-2.100	-0.174	-0.121
-216.567	400.063	0.084	-0.174
-215.552	-200.000	-0.005	0.091
-214.538	26.050	0.101	-0.084
-213.523	-200.000	0.036	-0.181
-212.509	-36.505	-0.138	0.074
-211.494	-126.502	-0.100	0.015
-210.479	-124.461	0.206	0.032
-209.465	-56.248	0.151	0.066
-208.450	-74.048	0.139	0.050
-207.436	0.624	0.309	-0.218
-206.421	31.540	-0.058	-0.050
-205.406	-142.583	-0.176	0.017
-204.392	-200.000	-0.019	-0.148
-203.377	-22.752	-0.080	0.048
-202.363	800.000	0.034	-0.109
-201.348	-200.000	-0.030	-0.305
-200.333	-112.607	0.120	-0.024
-199.319	-13.313	0.223	0.143
-198.304	116.364	0.081	-0.097
-197.290	-42.984	-0.254	0.127
-196.275	-135.524	0.219	0.026
-195.260	17.460	0.286	-0.225
-194.246	-200.000	0.023	0.419
-193.231	800.000	-0.062	0.212
-192.217	453.025	0.065	-0.142
-191.202	27.947	0.093	-0.078
-190.187	800.000	-0.081	0.327
-189.173	800.000	0.044	-0.127
-188.158	-200.000	0.031	0.289
-187.144	-58.506	0.099	0.042
-186.129	-200.000	0.004	0.271
-185.114	-56.261	0.259	-0.114
-184.100	-200.000	-0.003	0.054
-183.085	-200.000	-0.001	0.032
-182.071	-94.532	0.149	-0.040
-181.056	-142.234	-0.467	0.046
-180.042	-34.990	0.214	-0.115
-179.027	-200.000	-0.043	0.242
-178.012	29.633	0.120	0.101
-176.998	11.148	-0.341	0.257
-175.983	352.564	0.136	0.266
-174.969	800.000	-0.027	-0.081
-173.954	-200.000	-0.023	0.280
-172.939	-85.332	0.151	0.047
-171.925	497.235	0.206	0.468
-170.910	-91.697	0.195	-0.055
-169.896	-200.000	-0.006	-0.150
-168.881	-192.578	-0.055	0.001
-167.866	-200.000	-0.007	-0.226
-166.852	54.279	-0.081	-0.077
-165.837	-85.154	0.200	-0.062
-164.823	-41.952	-0.114	-0.057
-163.808	103.918	-0.209	0.242
-162.793	-85.911	0.063	0.019
-161.779	-43.691	0.309	0.154
-160.764	223.611	-0.168	0.267
-159.750	-66.877	0.252	0.098
-158.735	-26.293	0.178	-0.103
-157.720	800.000	0.068	0.252
-156.706	-200.000	-0.000	-0.069
-155.691	-200.000	0.000	-0.084
-154.677	292.910	-0.023	0.042
-153.662	80.596	0.258	-0.274
-152.647	282.859	-0.150	0.265
-151.633	14.339	0.238	-0.183
-150.618	-155.264	0.036	-0.002
-149.604	-164.988	0.265	-0.012
-148.589	800.000	-0.030	0.110
-147.574	-67.302	-0.067	0.026
-146.560	800.000	0.098	-0.369
-145.545	-200.000	0.013	-0.280
-144.531	-200.000	-0.033	0.149
-143.516	-5.575	0.063	-0.042
-142.502	148.650	-0.072	-0.096
-141.487	25.100	0.310	0.253
-140.472	492.366	0.075	0.168
-139.458	650.643	-0.139	0.350
-138.443	800.000	0.060	0.183
-137.429	55.162	0.177	-0.169
-136.414	-162.883	0.095	-0.005
-135.399	-150.700	0.149	-0.011
-134.385	-112.558	-0.108	0.021
-133.370	-200.000	0.001	0.260
-132.356	-82.188	0.057	-0.018
-131.341	101.289	-0.088	0.101
-130.326	237.610	-0.053	-0.087
-129.312	-53.949	0.133	0.060
-128.297	148.762	0.012	0.016
-127.283	28.602	0.083	-0.069
-126.268	144.877	0.187	-0.247
-125.253	-99.017	0.238	0.059
-124.239	374.635	0.064	0.129
-123.224	515.805	0.026	0.059
