DTS Sentinel unit serial number:	SN413079Multiplexer serial number:	ORYXHardware model number:	OX4-SRSoftware version number:	ORYX F/W v4.00 Oryx Data Collector v3.7.2.0data status	okinstallation	princeton_trtdifferential loss correction	single-endedforward channel	channel 2reverse channel	N/Adate	2019/09/16time	18:31:35forward acquisition time	60.00reverse acquisition time	0.00gamma	496.2192k internal	0.2322k external	0.2322temperature offset calibration	1.0050default loss term (dB/km)	0.3790temperature slope calibration	1.0000multiplexer offset coefficient	1.0000multiplexer slope coefficient	1.0000fibre end	0.00T internal ref (°C)	36.58T ext. ref 1 (°C)	20.14T ext. ref 2 (°C)	30.95length (m)	temperature (°C)	Stokes	anti-Stokes-747.200	800.000	0.008	-0.023
-746.185	-73.919	0.213	0.078
-745.171	-67.231	-0.214	-0.085
-744.156	-200.000	0.057	0.254
-743.142	777.672	0.064	0.177
-742.127	283.575	-0.133	0.242
-741.112	-32.917	0.220	-0.123
-740.098	-32.239	-0.297	0.168
-739.083	139.961	-0.203	0.270
-738.069	-60.667	-0.175	-0.075
-737.054	-11.967	-0.226	0.150
-736.039	-200.000	0.042	-0.257
-735.025	-72.822	0.083	0.031
-734.010	-20.949	-0.265	-0.164
-732.996	319.301	0.042	-0.080
-731.981	-112.122	-0.330	-0.067
-730.966	-39.065	-0.097	0.052
-729.952	474.556	-0.081	0.185
-728.937	-34.999	-0.350	0.193
-727.923	-119.721	-0.098	0.017
-726.908	-67.394	-0.327	-0.130
-725.894	-149.886	0.167	-0.013
-724.879	-109.179	-0.540	0.116
-723.864	164.094	0.110	-0.156
-722.850	254.695	-0.167	-0.289
-721.835	-161.654	-0.470	-0.024
-720.821	609.274	-0.088	-0.222
-719.806	347.905	0.067	0.133
-718.791	-129.583	-0.419	0.058
-717.777	-75.993	0.311	-0.111
-716.762	-117.451	0.075	-0.014
-715.748	152.429	-0.103	0.142
-714.733	234.619	-0.129	0.214
-713.718	-100.103	0.150	0.038
-712.704	-87.269	0.407	0.125
-711.689	-139.724	0.196	0.021
-710.675	-26.942	-0.396	-0.233
-709.660	-70.937	-0.265	0.101
-708.645	800.000	0.095	0.293
-707.631	-79.599	0.263	0.090
-706.616	800.000	-0.014	-0.047
-705.602	-171.901	0.385	0.013
-704.587	29.589	-0.110	-0.094
-703.572	591.248	0.134	0.334
-702.558	-29.498	0.283	-0.163
-701.543	-30.696	0.155	0.088
-700.529	502.375	0.026	-0.060
-699.514	800.000	-0.090	0.260
-698.499	162.103	0.152	-0.215
-697.485	-90.659	0.139	-0.041
-696.470	-103.624	0.187	-0.044
-695.456	36.453	-0.034	0.031
-694.441	-200.000	0.008	0.165
-693.426	-43.731	0.373	0.189
-692.412	63.448	0.264	-0.267
-691.397	129.592	-0.186	-0.240
-690.383	-200.000	0.025	0.258
-689.368	-8.891	0.457	0.309
-688.354	-91.543	-0.390	0.112
-687.339	-200.000	-0.043	-0.223
-686.324	72.998	-0.126	0.132
-685.310	-97.158	-0.270	-0.071
-684.295	60.651	0.132	0.132
-683.281	534.167	0.068	0.163
-682.266	200.292	0.161	0.250
-681.251	800.000	-0.081	-0.300
-680.237	10.968	-0.345	-0.266
-679.222	-43.014	-0.378	-0.193
-678.208	-117.409	-0.154	-0.028
-677.193	-43.116	0.095	0.048
-676.178	27.811	-0.386	0.328
-675.164	-36.977	-0.248	-0.134
-674.149	-114.146	-0.287	0.056
-673.135	-131.309	0.504	0.067
-672.120	-43.301	0.051	0.026
-671.105	-58.286	-0.166	-0.073
-670.091	-127.111	0.534	-0.079
-669.076	50.991	0.173	-0.165
-668.062	6.575	0.148	0.111
-667.047	-38.741	0.214	0.114
-666.032	34.035	-0.180	-0.158
-665.018	421.396	-0.087	0.189
-664.003	258.198	0.052	0.091
-662.989	-200.000	-0.063	0.295
-661.974	-200.000	-0.018	-0.187
-660.959	686.180	0.103	-0.271
-659.945	-36.648	0.129	-0.070
-658.930	-76.622	0.265	0.094
-657.916	63.083	0.200	-0.202
-656.901	-43.877	-0.103	-0.052
-655.886	-82.866	0.289	-0.094
-654.872	-200.000	0.020	0.330
-653.857	-32.563	-0.278	0.156
-652.843	800.000	0.031	-0.106
-651.828	486.046	0.077	0.177
-650.814	-62.768	-0.198	-0.083
-649.799	91.922	0.301	0.341
-648.784	30.890	0.141	0.122
-647.770	-100.255	-0.458	-0.114
-646.755	-200.000	-0.034	0.211
-645.741	12.113	0.400	-0.310
-644.726	-86.005	0.339	-0.105
-643.711	22.923	0.132	0.109
-642.697	800.000	-0.012	0.035
-641.682	-200.000	-0.016	0.236
-640.668	523.573	0.177	0.418
-639.653	151.779	0.180	-0.247
-638.638	-43.426	0.059	0.030
-637.624	-41.880	-0.282	-0.146
-636.609	-107.677	-0.233	0.051
-635.595	-200.000	0.020	0.151
-634.580	93.163	0.279	-0.317
-633.565	-79.745	-0.328	-0.111
-632.551	238.994	-0.064	-0.107
-631.536	-200.000	-0.016	0.178
-630.522	-155.973	-0.111	-0.007
-629.507	-200.000	-0.024	-0.127
-628.492	372.094	0.127	-0.259
-627.478	-200.000	0.029	-0.229
-626.463	-200.000	0.098	-0.494
-625.449	399.603	0.154	0.324
-624.434	-200.000	0.026	0.134
-623.419	-61.652	-0.391	-0.165
-622.405	-20.392	0.254	-0.157
-621.390	211.489	0.110	-0.174
-620.376	79.577	0.092	0.100
-619.361	-35.458	-0.264	-0.144
-618.346	15.519	-0.150	0.119
-617.332	82.136	-0.177	0.193
-616.317	-128.971	0.331	-0.047
-615.303	800.000	-0.075	-0.230
-614.288	531.039	0.098	-0.232
-613.273	-76.446	-0.161	0.057
-612.259	-146.344	-0.227	-0.020
-611.244	387.134	0.119	-0.247
-610.230	-159.409	0.160	-0.009
-609.215	-43.231	-0.412	0.210
-608.201	128.624	-0.211	-0.270
-607.186	-123.237	-0.183	0.029
-606.171	13.398	-0.204	0.159
-605.157	-200.000	0.072	-0.318
-604.142	-187.985	0.370	0.005
-603.128	98.258	0.079	0.092
-602.113	33.651	-0.291	0.254
-601.098	124.829	0.114	-0.144
-600.084	-200.000	0.030	-0.218
-599.069	-65.047	0.171	-0.070
-598.055	-144.620	-0.121	-0.011
-597.040	-153.328	-0.139	-0.010
-596.025	256.405	-0.168	-0.290
-595.011	445.877	0.118	-0.261
-593.996	-14.532	0.282	0.182
-592.982	356.268	-0.284	-0.568
-591.967	-48.084	-0.262	-0.127
-590.952	800.000	-0.062	-0.190
-589.938	149.859	-0.122	-0.166
-588.923	-118.494	0.191	0.034
-587.909	138.937	-0.140	-0.185
-586.894	72.481	0.344	0.360
-585.879	84.094	-0.241	0.264
-584.865	220.600	0.110	0.178
-583.850	117.498	-0.193	0.238
-582.836	800.000	-0.003	-0.010
-581.821	2.309	-0.231	0.168
-580.806	763.140	-0.101	-0.275
-579.792	145.251	0.103	-0.139
-578.777	-200.000	-0.099	-0.557
-577.763	-43.990	0.166	-0.084
-576.748	30.815	-0.169	0.145
-575.733	26.927	-0.088	0.074
-574.719	-137.593	0.161	-0.018
-573.704	250.673	-0.053	0.090
-572.690	138.544	0.121	0.160
-571.675	-139.307	0.385	-0.042
-570.661	-83.440	-0.136	-0.044
-569.646	-176.381	0.059	0.002
-568.631	-136.908	0.107	0.012
-567.617	-114.765	-0.175	0.033
-566.602	-79.732	-0.218	-0.074
-565.588	69.208	-0.124	-0.128
-564.573	-200.000	-0.063	0.371
-563.558	-100.885	-0.204	0.050
-562.544	-105.084	0.104	-0.024
-561.529	-81.455	-0.178	-0.059
-560.515	-97.818	-0.151	0.039
-559.500	65.943	0.131	0.133
-558.485	-59.704	-0.071	0.031
-557.471	-160.109	-0.113	0.006
-556.456	-96.477	-0.120	0.032
-555.442	78.397	-0.089	-0.095
-554.427	-154.259	-0.284	0.019
-553.412	800.000	0.065	0.224
-552.398	105.684	-0.240	0.284
-551.383	184.074	-0.103	-0.153
-550.369	-43.829	-0.237	-0.119
-549.354	-63.701	0.062	-0.025
-548.339	-39.045	0.077	0.041
-547.325	-26.305	0.084	0.049
-546.310	48.309	-0.154	-0.145
-545.296	126.125	-0.056	-0.071
-544.281	-120.048	-0.203	0.035
-543.266	800.000	0.080	-0.260
-542.252	104.801	-0.141	-0.167
-541.237	174.976	0.180	-0.262
-540.223	-132.530	-0.095	0.012
-539.208	-68.244	-0.102	-0.040
-538.193	-148.083	0.177	-0.015
-537.179	13.128	0.202	-0.157
-536.164	293.576	-0.063	0.115
-535.150	800.000	0.091	0.377
-534.135	800.000	-0.063	0.186
-533.121	77.307	-0.123	0.131
-532.106	284.030	0.082	0.148
-531.091	-67.492	-0.387	0.152
-530.077	106.603	-0.101	-0.120
-529.062	720.693	0.068	-0.180
-528.048	247.428	-0.136	-0.231
-527.033	-200.000	0.021	0.152
-526.018	397.939	0.080	0.167
-525.004	-85.279	-0.314	-0.098
-523.989	-74.628	-0.112	0.040
-522.975	-133.094	-0.425	0.054
-521.960	-200.000	-0.013	-0.168
-520.945	197.310	0.138	-0.211
-519.931	675.673	-0.182	0.472
-518.916	-81.481	0.121	-0.040
-517.902	-200.000	-0.007	-0.079
-516.887	186.267	-0.275	-0.409
-515.872	-129.980	-0.122	-0.017
-514.858	-200.000	0.039	-0.227
-513.843	686.229	0.135	0.354
-512.829	-6.110	-0.141	0.097
-511.814	-30.628	-0.127	-0.072
-510.799	800.000	0.030	-0.101
-509.785	-11.683	0.029	0.019
-508.770	-108.092	0.425	0.092
-507.756	-23.882	0.043	-0.026
-506.741	378.797	0.074	-0.152
-505.726	33.758	0.189	-0.164
-504.712	33.549	-0.056	-0.049
-503.697	50.808	-0.091	0.086
-502.683	72.586	-0.228	-0.238
-501.668	800.000	0.137	-0.505
-500.653	-3.238	-0.187	-0.131
-499.639	-97.244	-0.426	-0.111
-498.624	-200.000	0.045	-0.237
-497.610	73.341	-0.038	-0.039
-496.595	-75.680	0.155	-0.055
-495.581	-44.029	0.153	0.077
-494.566	383.738	0.085	0.175
-493.551	142.040	-0.244	-0.324
-492.537	680.300	-0.092	0.241
-491.522	-147.221	-0.121	0.010
-490.508	234.491	0.152	0.251
-489.493	593.532	0.058	-0.144
-488.478	-200.000	-0.021	-0.194
-487.464	180.802	-0.175	0.258
-486.449	45.129	-0.005	0.005
-485.435	-138.092	-0.275	0.031
-484.420	-24.931	0.217	0.129
-483.405	-26.640	-0.284	0.166
-482.391	164.708	0.301	-0.425
-481.376	800.000	0.067	0.226
-480.362	72.288	0.196	0.204
-479.347	127.220	-0.220	-0.279
-478.332	-121.989	0.125	-0.021
-477.318	-58.902	0.291	0.126
-476.303	800.000	0.028	0.107
-475.289	426.756	0.070	-0.152
-474.274	800.000	-0.087	-0.304
-473.259	-200.000	0.023	-0.111
-472.245	-200.000	-0.013	-0.151
-471.230	521.391	0.047	0.109
-470.216	-85.563	0.168	-0.052
-469.201	376.599	0.147	0.300
-468.186	-117.349	0.211	0.038
-467.172	588.341	-0.083	0.206
-466.157	-114.504	0.220	0.042
-465.143	-7.690	0.246	0.166
-464.128	-64.344	0.136	0.055
-463.113	-15.620	0.367	-0.234
-462.099	-200.000	-0.045	-0.249
-461.084	-106.583	0.206	-0.046
-460.070	-54.341	0.080	0.036
-459.055	489.414	-0.038	-0.087
-458.040	76.414	0.077	0.081
-457.026	-135.052	0.294	0.035
-456.011	-15.621	0.085	0.054
-454.997	-200.000	-0.002	0.011
-453.982	-71.744	-0.421	0.157
-452.968	-104.020	-0.063	-0.015
-451.953	-143.032	-0.042	-0.004
-450.938	800.000	-0.037	-0.104
-449.924	-184.250	-0.084	0.001
-448.909	-200.000	0.009	0.100
-447.895	171.533	0.064	-0.092
-446.880	-46.680	-0.139	0.068
-445.865	-200.000	0.092	-0.571
-444.851	800.000	0.075	0.316
-443.836	-200.000	0.021	-0.099
-442.822	-200.000	-0.001	-0.074
-441.807	800.000	-0.095	-0.273
-440.792	-49.580	0.131	0.062
-439.778	69.443	-0.078	-0.080
-438.763	95.684	-0.151	0.173
-437.749	-31.292	-0.259	0.145
-436.734	-66.788	-0.332	0.131
-435.719	-89.444	-0.117	0.034
-434.705	-145.099	-0.307	0.028
-433.690	-31.579	-0.169	0.095
-432.676	-9.660	0.113	0.075
-431.661	-55.325	-0.155	0.070
-430.646	11.872	-0.134	-0.103
-429.632	29.447	-0.216	-0.183
-428.617	800.000	0.104	0.335
-427.603	-118.624	0.073	0.013
-426.588	28.996	-0.107	0.090
-425.573	-200.000	0.010	0.242
-424.559	-38.528	0.243	-0.128
-423.544	-58.748	0.043	-0.019
-422.530	-14.368	-0.322	0.207
-421.515	-200.000	-0.010	0.313
-420.500	-200.000	-0.031	0.218
-419.486	-146.321	0.322	0.028
-418.471	756.939	-0.123	-0.333
-417.457	800.000	-0.036	0.138
-416.442	-185.614	0.112	-0.002
-415.428	78.404	0.293	-0.313
-414.413	38.841	-0.199	-0.177
-413.398	-16.789	0.133	-0.084
-412.384	-27.102	-0.270	0.157
-411.369	800.000	0.031	0.133
-410.355	-86.059	0.263	0.081
-409.340	79.306	0.222	-0.238
-408.325	12.664	0.170	-0.131
-407.311	-140.470	0.085	0.009
-406.296	-99.415	0.211	-0.053
-405.282	34.089	0.291	0.253
-404.267	-151.529	-0.291	0.021
-403.252	-50.154	0.233	-0.110
-402.238	171.263	0.202	0.289
-401.223	-105.504	0.180	-0.041
-400.209	53.160	0.027	-0.026
-399.194	344.026	0.173	-0.337
-398.179	-3.319	-0.070	-0.049
-397.165	-200.000	-0.015	-0.170
-396.150	-97.267	0.234	0.061
-395.136	10.730	0.228	0.173
-394.121	-200.000	-0.024	0.156
-393.106	-200.000	0.022	0.134
-392.092	474.755	0.149	-0.335
-391.077	-72.247	-0.155	-0.057
-390.063	-57.719	0.303	0.132
-389.048	140.632	-0.155	0.204
-388.033	800.000	0.134	-0.462
-387.019	-14.225	-0.194	-0.124
-386.004	-200.000	0.017	0.140
-384.990	232.606	0.047	-0.077
-383.975	800.000	-0.049	-0.140
-382.960	800.000	-0.096	-0.283
-381.946	-129.772	-0.289	0.040
-380.931	-200.000	0.039	0.432
-379.917	-54.646	-0.181	-0.082
-378.902	296.723	-0.047	-0.087
-377.888	18.251	0.043	0.034
-376.873	207.987	-0.293	0.455
-375.858	352.550	0.087	-0.172
-374.844	-53.485	-0.218	-0.099
-373.829	439.028	-0.104	-0.225
-372.815	-200.000	0.023	0.199
-371.800	-132.153	0.322	0.042
-370.785	405.582	-0.064	0.135
-369.771	504.431	0.047	0.109
-368.756	-200.000	-0.001	0.179
-367.742	206.735	0.218	0.338
-366.727	800.000	0.019	-0.080
-365.712	-94.470	-0.236	0.064
-364.698	-44.456	-0.029	-0.014
-363.683	136.865	-0.142	-0.185
-362.669	-83.508	0.256	-0.082
-361.654	-23.776	0.122	-0.073
-360.639	-200.000	0.029	-0.253
-359.625	57.700	0.191	-0.186
-358.610	-150.657	-0.214	0.016
-357.596	800.000	0.065	0.210
-356.581	422.848	-0.077	-0.165
-355.566	47.924	0.210	-0.195
-354.552	-76.329	-0.186	0.065
-353.537	-200.000	-0.006	0.224
-352.523	-151.790	0.133	-0.010
-351.508	27.175	-0.142	-0.118
-350.493	353.442	0.081	0.160
-349.479	247.116	-0.083	0.140
-348.464	-200.000	0.012	-0.147
-347.450	-200.000	-0.066	0.366
-346.435	-200.000	0.033	-0.154
-345.420	-142.518	0.145	0.014
-344.406	276.988	-0.073	-0.130
-343.391	36.781	0.169	0.149
-342.377	-113.978	-0.311	-0.060
-341.362	302.268	0.027	0.050
-340.348	126.922	0.228	0.288
-339.333	-48.115	0.197	-0.095
-338.318	-53.612	0.130	-0.059
-337.304	62.845	0.189	-0.188
-336.289	-78.140	0.046	0.016
-335.275	-69.678	-0.101	-0.038
-334.260	209.773	0.068	0.106
-333.245	100.872	-0.084	-0.097
-332.231	511.673	-0.092	-0.212
-331.216	178.268	-0.072	-0.105
-330.202	301.601	0.080	0.147
-329.187	58.556	0.174	-0.170
-328.172	-49.820	0.088	-0.041
-327.158	-139.853	0.137	-0.014
-326.143	15.625	-0.390	-0.305
-325.129	-66.924	0.190	0.075
-324.114	603.452	0.170	0.421
-323.099	-127.109	-0.319	0.046
-322.085	-144.660	0.245	0.022
-321.070	548.555	-0.055	0.130
-320.056	-154.501	-0.267	0.018
-319.041	-200.000	-0.004	0.133
-318.026	319.200	-0.099	0.187
-317.012	131.273	0.226	0.288
-315.997	-200.000	0.010	-0.246
-314.983	395.784	0.134	-0.277
-313.968	-200.000	0.021	-0.103
-312.953	10.566	-0.242	0.183
-311.939	118.339	-0.207	-0.254
-310.924	-80.073	0.166	0.055
-309.910	716.302	-0.065	-0.170
-308.895	74.485	0.064	0.067
-307.880	800.000	0.035	0.107
-306.866	288.554	-0.169	-0.304
-305.851	507.976	0.039	-0.089
-304.837	-200.000	-0.005	0.125
-303.822	269.895	0.052	0.091
-302.807	119.323	-0.183	0.225
-301.793	-200.000	0.050	0.288
-300.778	260.001	-0.140	-0.239
-299.764	-87.852	0.047	0.014
-298.749	-200.000	-0.010	-0.188
-297.735	-21.708	0.318	0.192
-296.720	43.596	0.219	-0.199
-295.705	159.118	0.174	-0.241
-294.691	-108.410	-0.102	0.022
-293.676	782.905	-0.148	-0.403
-292.662	-200.000	-0.045	0.307
-291.647	-42.432	-0.239	-0.121
-290.632	405.997	-0.170	-0.356
-289.618	-67.281	0.079	0.031
-288.603	-157.720	0.293	0.017
-287.589	-200.000	0.010	-0.371
-286.574	-10.898	-0.272	-0.178
-285.559	133.691	0.146	0.188
-284.545	-30.956	-0.064	-0.036
-283.530	800.000	0.061	0.171
-282.516	-200.000	0.038	0.255
-281.501	298.506	0.077	0.141
-280.486	11.100	0.158	-0.120
-279.472	-143.143	0.157	0.015
-278.457	-65.352	0.125	-0.050
-277.443	-200.000	-0.013	0.218
-276.428	-103.035	-0.177	0.042
-275.413	-200.000	-0.085	0.658
-274.399	539.847	-0.166	0.393
-273.384	443.614	-0.046	0.100
-272.370	-200.000	-0.069	-0.323
-271.355	128.892	0.092	0.116
-270.340	-49.277	-0.155	0.074
-269.326	95.415	-0.262	0.296
-268.311	343.702	0.052	0.101
-267.297	146.648	0.160	-0.213
-266.282	158.610	0.180	0.248
-265.267	78.866	-0.105	0.112
-264.253	189.686	0.119	0.178
-263.238	-69.230	0.354	0.135
-262.224	320.370	0.086	-0.162
-261.209	-200.000	-0.295	-0.001
-260.195	482.095	0.056	0.125
-259.180	-106.688	-0.338	0.075
-258.165	531.053	0.032	0.074
-257.151	-91.103	0.430	0.122
-256.136	453.419	-0.096	0.211
-255.122	-200.000	-0.004	-0.082
-254.107	-115.020	0.490	-0.092
-253.092	4.534	-0.325	0.236
-252.078	-153.028	-0.033	0.002
-251.063	-116.962	0.276	0.050
-250.049	417.503	0.173	0.366
-249.034	67.132	0.294	0.297
-248.019	42.119	0.492	-0.443
-247.005	-200.000	-0.005	-0.104
-245.990	-109.275	-0.146	-0.031
-244.976	-19.171	-0.170	0.104
-243.961	354.146	0.176	0.347
-242.946	-62.921	-0.067	0.027
-241.932	-200.000	0.042	0.214
-240.917	-200.000	-0.009	0.072
-239.903	232.505	0.116	-0.189
-238.888	-68.884	0.122	0.047
-237.873	-200.000	-0.020	-0.160
-236.859	-116.274	0.147	0.027
-235.844	-59.765	0.211	-0.090
-234.830	-47.539	0.131	0.063
-233.815	-195.316	-0.087	-0.001
-232.800	-200.000	-0.022	0.218
-231.786	22.782	-0.122	0.099
-230.771	-200.000	-0.004	-0.159
-229.757	-109.083	-0.435	-0.092
-228.742	-125.818	0.163	-0.024
-227.727	186.828	-0.096	0.141
-226.713	181.226	0.016	0.023
-225.698	-14.968	0.061	0.039
-224.684	472.113	0.073	0.163
-223.669	-60.190	0.170	0.072
-222.655	-200.000	-0.010	0.070
-221.640	-1.082	0.368	0.257
-220.625	757.643	-0.106	-0.283
-219.611	-58.342	-0.197	-0.085
-218.596	-35.005	0.224	-0.121
-217.582	653.816	-0.131	0.332
-216.567	108.385	-0.160	0.189
-215.552	-200.000	-0.008	0.250
-214.538	-200.000	-0.009	-0.369
-213.523	-48.232	0.340	-0.162
-212.509	-13.734	-0.100	-0.064
-211.494	598.637	-0.112	-0.276
-210.479	-38.248	-0.361	0.189
-209.465	-132.131	0.062	0.008
-208.450	-64.375	-0.058	0.023
-207.436	-79.781	-0.289	0.096
-206.421	-60.601	-0.161	0.068
-205.406	-200.000	0.024	-0.141
-204.392	282.744	-0.113	0.201
-203.377	800.000	-0.146	-0.482
-202.363	-200.000	0.029	-0.243
-201.348	49.493	-0.176	0.164
-200.333	-69.053	-0.174	0.066
-199.319	-200.000	0.000	0.088
-198.304	239.041	0.148	0.243
-197.290	800.000	-0.041	-0.122
-196.275	-146.494	-0.190	0.016
-195.260	800.000	0.082	-0.284
-194.246	340.463	-0.154	-0.297
-193.231	-200.000	0.006	-0.350
-192.217	800.000	-0.046	-0.195
-191.202	67.486	0.308	-0.311
-190.187	224.795	-0.036	0.057
-189.173	-123.658	0.176	0.028
-188.158	-15.109	0.112	0.071
-187.144	443.369	-0.103	0.223
-186.129	752.282	0.070	0.186
-185.114	800.000	0.070	-0.222
-184.100	-44.170	-0.264	0.131
-183.085	-40.691	0.259	-0.133
-182.071	-98.186	-0.263	0.067
-181.056	308.068	0.124	-0.228
-180.042	-59.673	-0.168	-0.071
-179.027	-38.373	-0.068	-0.036
-178.012	128.011	0.208	0.262
-176.998	-38.124	0.324	-0.170
-175.983	260.049	0.059	-0.101
-174.969	-200.000	0.018	0.194
-173.954	-195.579	-0.321	-0.002
-172.939	285.991	0.172	0.306
-171.925	66.877	0.348	0.350
-170.910	21.196	0.181	-0.145
-169.896	-200.000	-0.001	0.138
-168.881	-18.590	-0.078	0.048
-167.866	109.069	0.229	0.270
-166.852	22.451	0.266	0.215
-165.837	274.473	-0.204	-0.357
-164.823	15.231	-0.201	0.155
-163.808	-4.525	-0.400	0.273
-162.793	234.588	0.120	-0.195
-161.779	-200.000	-0.017	0.397
-160.764	51.782	0.310	0.292
-159.750	-25.639	0.437	-0.255
-158.735	800.000	-0.096	-0.342
-157.720	-159.449	-0.152	0.008
-156.706	-96.089	0.128	0.034
-155.691	-106.348	-0.241	0.053
-154.677	800.000	-0.015	0.047
-153.662	38.007	0.209	-0.183
-152.647	80.741	-0.429	0.456
-151.633	740.206	-0.041	-0.107
-150.618	62.062	0.142	0.140
-149.604	-200.000	-0.017	0.127
-148.589	50.851	-0.328	-0.306
-147.574	-13.955	0.152	-0.097
-146.560	3.751	0.321	0.232
-145.545	111.733	0.133	0.158
-144.531	37.410	0.120	-0.105
-143.516	-141.662	-0.132	0.013
-142.502	245.760	-0.074	0.123
-141.487	-178.226	0.094	-0.002
-140.472	405.782	-0.195	-0.405
-139.458	800.000	0.043	0.135
-138.443	-82.244	0.180	-0.058
-137.429	524.036	-0.014	-0.033
-136.414	800.000	0.059	-0.238
-135.399	800.000	0.030	-0.089
-134.385	-166.829	-0.199	-0.008
-133.370	-200.000	0.015	0.148
-132.356	10.852	0.168	0.127
-131.341	800.000	-0.029	0.118
-130.326	-83.242	-0.140	-0.044
-129.312	-102.472	0.201	0.048
-128.297	575.103	-0.126	0.304
-127.283	-115.952	-0.339	0.062
-126.268	800.000	0.102	-0.317
-125.253	-107.883	0.262	0.056
-124.239	-200.000	0.027	0.306
-123.224	-67.372	0.069	-0.027
-122.210	-200.000	0.024	-0.156
-121.195	157.097	-0.157	-0.214
