DTS Sentinel unit serial number:	SN413079Multiplexer serial number:	ORYXHardware model number:	OX4-SRSoftware version number:	ORYX F/W v4.00 Oryx Data Collector v3.7.2.0data status	okinstallation	princeton_trtdifferential loss correction	single-endedforward channel	channel 2reverse channel	N/Adate	2019/09/15time	18:55:34forward acquisition time	60.00reverse acquisition time	0.00gamma	496.2192k internal	0.2294k external	0.2294temperature offset calibration	0.9924default loss term (dB/km)	0.3790temperature slope calibration	1.0000multiplexer offset coefficient	1.0000multiplexer slope coefficient	1.0000fibre end	0.00T internal ref (°C)	42.59T ext. ref 1 (°C)	6.98T ext. ref 2 (°C)	32.73length (m)	temperature (°C)	Stokes	anti-Stokes-747.200	-195.590	-0.106	-0.001
-746.185	68.392	0.308	0.322
-745.171	-8.721	-0.460	-0.315
-744.156	-122.626	-0.341	0.057
-743.142	-200.000	0.004	-0.378
-742.127	-200.000	0.028	0.227
-741.112	-200.000	0.047	0.287
-740.098	800.000	-0.105	0.313
-739.083	-38.245	0.471	-0.255
-738.069	31.946	0.123	-0.108
-737.054	800.000	-0.013	-0.056
-736.039	-200.000	-0.049	-0.225
-735.025	710.102	-0.059	-0.160
-734.010	-65.840	0.187	0.077
-732.996	-138.903	-0.137	0.015
-731.981	-20.493	-0.227	-0.142
-730.966	-200.000	0.071	0.371
-729.952	-52.408	0.082	0.039
-728.937	-200.000	0.036	-0.174
-727.923	-172.682	-0.313	-0.010
-726.908	-150.584	-0.218	0.017
-725.894	137.663	0.123	0.165
-724.879	253.273	-0.100	-0.174
-723.864	-148.582	-0.028	-0.002
-722.850	74.872	-0.025	0.027
-721.835	3.611	0.043	0.032
-720.821	227.915	-0.103	-0.171
-719.806	800.000	0.052	-0.225
-718.791	69.215	0.085	-0.090
-717.777	12.559	-0.171	-0.135
-716.762	397.289	-0.073	-0.156
-715.748	187.713	-0.066	-0.101
-714.733	38.111	-0.078	0.071
-713.718	-8.536	-0.102	0.070
-712.704	126.488	0.105	-0.136
-711.689	800.000	-0.088	-0.348
-710.675	215.410	-0.107	-0.174
-709.660	800.000	0.041	0.131
-708.645	-93.145	0.162	-0.046
-707.631	42.162	0.041	-0.038
-706.616	-120.080	-0.331	0.058
-705.602	-48.736	0.289	-0.142
-704.587	-200.000	-0.007	0.184
-703.572	-86.424	0.221	0.069
-702.558	684.489	-0.028	-0.075
-701.543	96.902	-0.048	0.056
-700.529	158.625	0.147	0.208
-699.514	332.147	0.097	-0.192
-698.499	46.928	-0.199	-0.189
-697.485	12.444	-0.203	-0.160
-696.470	-142.432	0.286	0.029
-695.456	-200.000	-0.065	0.327
-694.441	-200.000	0.019	0.170
-693.426	25.738	-0.098	-0.083
-692.412	-41.978	-0.260	0.136
-691.397	-30.854	-0.250	-0.144
-690.383	800.000	0.144	0.416
-689.368	-170.002	-0.211	-0.008
-688.354	-67.433	-0.132	-0.053
-687.339	47.808	-0.098	0.093
-686.324	-124.374	-0.236	0.038
-685.310	557.958	-0.065	-0.161
-684.295	-53.591	0.229	-0.107
-683.281	800.000	-0.090	-0.381
-682.266	-1.212	0.131	-0.095
-681.251	800.000	0.026	0.084
-680.237	-106.121	0.404	0.093
-679.222	-3.001	0.208	-0.148
-678.208	-70.355	-0.216	-0.084
-677.193	-200.000	-0.027	0.211
-676.178	800.000	-0.106	0.326
-675.164	-12.363	0.085	0.057
-674.149	-15.169	-0.281	0.183
-673.135	-3.553	-0.055	-0.039
-672.120	-121.205	0.376	-0.064
-671.105	800.000	-0.038	-0.134
-670.091	43.198	0.284	0.264
-669.076	-118.062	0.433	-0.079
-668.062	-35.288	-0.186	-0.103
-667.047	-108.162	0.236	0.052
-666.032	800.000	-0.061	0.180
-665.018	775.157	-0.092	-0.255
-664.003	-200.000	-0.015	0.226
-662.989	198.897	0.097	0.151
-661.974	294.025	0.064	-0.118
-660.959	143.493	0.121	0.164
-659.945	-93.469	0.247	-0.070
-658.930	-54.268	-0.084	-0.039
-657.916	-156.676	-0.215	-0.014
-656.901	21.828	0.278	0.230
-655.886	-107.207	-0.083	-0.019
-654.872	358.083	0.083	0.168
-653.857	800.000	0.057	-0.186
-652.843	-34.802	0.039	0.022
-651.828	20.229	-0.259	-0.213
-650.814	-164.513	0.226	-0.010
-649.799	425.254	0.098	0.216
-648.784	-200.000	-0.018	0.348
-647.770	-20.217	-0.263	-0.165
-646.755	526.687	-0.055	0.133
-645.741	-135.166	-0.334	0.041
-644.726	-200.000	-0.008	-0.237
-643.711	-52.537	0.200	0.094
-642.697	800.000	-0.065	0.205
-641.682	178.941	-0.059	-0.088
-640.668	236.572	0.213	-0.359
-639.653	800.000	0.075	-0.314
-638.638	-43.642	-0.055	-0.028
-637.624	32.993	-0.105	-0.093
-636.609	-200.000	-0.004	-0.521
-635.595	-113.356	-0.411	-0.082
-634.580	-71.033	-0.183	0.070
-633.565	800.000	0.055	0.190
-632.551	-10.159	-0.259	-0.175
-631.536	235.875	-0.095	-0.159
-630.522	-200.000	-0.004	0.105
-629.507	437.513	-0.110	-0.243
-628.492	-170.878	-0.155	0.005
-627.478	6.622	-0.149	-0.113
-626.463	-15.481	0.183	0.119
-625.449	-48.204	0.329	0.162
-624.434	236.127	-0.227	-0.382
-623.419	-81.534	-0.341	-0.114
-622.405	-145.149	0.278	0.026
-621.390	-160.840	-0.159	0.009
-620.376	-4.250	0.237	-0.167
-619.361	62.697	-0.081	-0.082
-618.346	-168.303	-0.320	-0.013
-617.332	-200.000	-0.014	0.086
-616.317	52.182	-0.290	-0.281
-615.303	193.639	0.053	0.082
-614.288	-77.655	-0.018	-0.006
-613.273	143.485	-0.030	0.040
-612.259	-151.976	0.059	0.004
-611.244	81.799	0.065	-0.071
-610.230	-118.701	0.112	-0.020
-609.215	-200.000	0.030	-0.157
-608.201	-87.231	0.131	0.041
-607.186	-194.979	0.089	0.001
-606.171	89.112	-0.042	0.048
-605.157	-200.000	0.004	0.067
-604.142	-106.851	0.165	0.037
-603.128	340.467	-0.156	0.310
-602.113	474.119	-0.072	-0.166
-601.098	-19.927	-0.128	-0.080
-600.084	144.361	-0.097	-0.132
-599.069	-116.312	0.154	0.029
-598.055	83.325	0.247	-0.274
-597.040	-200.000	0.045	0.269
-596.025	-200.000	0.028	0.235
-595.011	-200.000	-0.011	-0.157
-593.996	61.411	-0.059	-0.060
-592.982	123.928	-0.110	0.140
-591.967	-119.470	-0.131	0.023
-590.952	-133.365	-0.255	0.033
-589.938	-127.028	-0.324	-0.048
-588.923	61.121	-0.329	-0.332
-587.909	-6.163	-0.203	-0.141
-586.894	-24.334	0.083	-0.050
-585.879	552.592	0.126	0.308
-584.865	203.765	-0.126	0.198
-583.850	-89.651	-0.216	0.064
-582.836	69.581	-0.152	0.159
-581.821	10.215	0.183	0.141
-580.806	-47.916	-0.265	0.131
-579.792	96.462	-0.058	0.068
-578.777	-200.000	-0.011	0.052
-577.763	-200.000	-0.007	0.256
-576.748	-172.878	-0.345	-0.011
-575.733	242.115	-0.219	0.372
-574.719	-108.521	0.143	0.031
-573.704	-142.560	-0.377	0.038
-572.690	347.515	-0.016	0.032
-571.675	-95.014	0.126	-0.035
-570.661	-56.881	0.262	-0.118
-569.646	-3.859	0.205	-0.144
-568.631	-104.775	-0.147	0.034
-567.617	142.959	-0.089	-0.120
-566.602	800.000	0.148	0.469
-565.588	-48.459	0.306	0.150
-564.573	91.409	-0.169	0.192
-563.558	79.401	-0.135	0.147
-562.544	272.158	0.053	-0.094
-561.529	-135.096	-0.249	0.030
-560.515	124.791	0.120	0.153
-559.500	-46.224	0.291	0.145
-558.485	245.247	-0.097	-0.166
-557.471	800.000	0.079	-0.349
-556.456	673.851	0.034	-0.090
-555.442	-163.470	-0.110	-0.005
-554.427	-200.000	0.024	-0.289
-553.412	465.784	-0.050	-0.114
-552.398	-200.000	-0.077	0.550
-551.383	251.228	0.116	-0.200
-550.369	297.127	0.030	0.056
-549.354	1.063	0.248	-0.180
-548.339	-119.617	-0.338	0.059
-547.325	-139.873	0.271	0.029
-546.310	-68.378	0.379	-0.149
-545.296	-200.000	0.004	0.139
-544.281	-166.955	0.338	0.014
-543.266	-200.000	-0.184	-0.000
-542.252	-166.372	-0.389	0.017
-541.237	14.646	-0.025	0.020
-540.223	-200.000	0.035	0.299
-539.208	149.826	0.136	-0.187
-538.193	-10.117	0.177	-0.119
-537.179	800.000	0.121	0.470
-536.164	-104.265	-0.057	-0.013
-535.150	73.682	-0.076	-0.081
-534.135	78.788	0.076	0.082
-533.121	-4.688	-0.209	-0.146
-532.106	13.718	-0.090	-0.071
-531.091	168.103	-0.117	0.169
-530.077	-1.656	-0.090	-0.064
-529.062	676.354	-0.260	-0.684
-528.048	-79.347	0.123	-0.042
-527.033	-200.000	0.027	-0.124
-526.018	-80.493	-0.054	-0.018
-525.004	109.163	-0.223	0.270
-523.989	22.748	-0.118	-0.098
-522.975	84.321	-0.124	-0.137
-521.960	235.753	0.063	-0.105
-520.945	-78.462	0.151	0.052
-519.931	45.159	-0.259	-0.242
-518.916	-117.336	-0.301	-0.055
-517.902	-78.591	0.327	-0.113
-516.887	-200.000	-0.007	0.393
-515.872	62.123	0.088	0.089
-514.858	104.164	0.093	-0.111
-513.843	152.368	-0.300	-0.415
-512.829	-112.652	0.174	0.035
-511.814	-168.826	0.106	-0.004
-510.799	168.324	0.085	-0.122
-509.785	-90.425	0.124	-0.036
-508.770	-179.825	-0.291	-0.006
-507.756	-172.907	0.304	-0.010
-506.741	162.677	0.183	0.260
-505.726	145.627	-0.101	-0.137
-504.712	26.186	-0.211	-0.178
-503.697	-40.317	-0.087	0.046
-502.683	800.000	-0.102	0.335
-501.668	-50.518	-0.342	0.163
-500.653	-79.874	0.456	-0.155
-499.639	28.845	0.205	-0.176
-498.624	454.368	0.014	-0.031
-497.610	-27.415	0.329	-0.194
-496.595	-141.750	0.430	-0.044
-495.581	-200.000	-0.257	0.001
-494.566	437.162	-0.186	0.411
-493.551	-22.437	-0.216	0.132
-492.537	231.397	0.101	0.168
-491.522	-105.585	0.225	-0.052
-490.508	-51.155	-0.384	-0.182
-489.493	-32.468	-0.030	-0.017
-488.478	315.483	0.143	-0.273
-487.464	-26.165	0.023	-0.014
-486.449	800.000	0.039	-0.109
-485.435	-150.667	-0.267	0.021
-484.420	-166.952	0.198	0.008
-483.405	35.489	0.206	-0.183
-482.391	270.170	-0.072	-0.128
-481.376	-149.642	0.172	0.014
-480.362	-156.504	-0.116	0.007
-479.347	-65.930	0.195	-0.079
-478.332	-63.806	0.094	0.039
-477.318	642.903	0.048	-0.124
-476.303	218.044	0.100	0.161
-475.289	-119.338	-0.324	0.057
-474.274	710.384	0.049	0.132
-473.259	-51.771	0.102	-0.048
-472.245	-78.402	0.291	-0.101
-471.230	-133.898	0.502	0.063
-470.216	-112.912	0.510	0.102
-469.201	800.000	0.051	-0.194
-468.186	-177.717	-0.338	-0.008
-467.172	162.355	0.097	0.137
-466.157	-58.152	0.236	-0.104
-465.143	800.000	-0.082	-0.255
-464.128	-200.000	0.010	-0.134
-463.113	-3.268	-0.304	-0.214
-462.099	-125.017	-0.189	-0.029
-461.084	59.027	-0.148	0.147
-460.070	428.209	0.028	0.060
-459.055	-200.000	-0.058	-0.319
-458.040	14.464	-0.204	-0.161
-457.026	-51.644	0.068	0.032
-456.011	-76.549	-0.217	0.077
-454.997	-200.000	0.037	-0.213
-453.982	-103.437	-0.075	0.018
-452.968	-112.050	0.043	0.009
-451.953	800.000	0.011	-0.035
-450.938	54.230	0.310	0.302
-449.924	-84.788	-0.053	0.017
-448.909	-200.000	0.017	-0.147
-447.895	-116.083	-0.104	-0.020
-446.880	-200.000	-0.019	0.093
-445.865	-98.254	0.265	0.069
-444.851	276.067	-0.234	0.419
-443.836	-45.461	-0.165	-0.083
-442.822	362.201	0.065	0.132
-441.807	455.413	0.119	-0.266
-440.792	-41.580	0.145	0.075
-439.778	68.007	0.218	0.225
-438.763	800.000	-0.030	0.089
-437.749	-142.512	-0.080	-0.008
-436.734	396.803	-0.099	-0.209
-435.719	108.203	-0.177	0.214
-434.705	-122.127	-0.160	0.027
-433.690	165.621	0.213	-0.305
-432.676	-200.000	0.027	0.122
-431.661	-45.726	0.261	-0.130
-430.646	34.656	-0.063	0.056
-429.632	-200.000	-0.038	0.367
-428.617	-200.000	0.008	0.437
-427.603	-5.148	0.176	-0.122
-426.588	246.562	0.046	0.078
-425.573	356.744	0.222	0.447
-424.559	162.132	-0.121	0.171
-423.544	800.000	-0.085	-0.318
-422.530	104.856	0.044	0.052
-421.515	1.545	0.106	-0.077
-420.500	117.366	-0.087	-0.108
-419.486	-58.378	-0.118	-0.052
-418.471	-80.911	0.162	-0.054
-417.457	99.856	0.120	-0.140
-416.442	-51.598	-0.058	0.027
-415.428	-200.000	-0.007	0.220
-414.413	800.000	-0.011	0.042
-413.398	-74.347	-0.079	-0.029
-412.384	-21.789	-0.182	-0.112
-411.369	15.625	-0.098	0.077
-410.355	-105.903	-0.195	0.044
-409.340	-111.756	-0.259	0.053
-408.325	501.122	0.088	-0.205
-407.311	-39.989	0.126	0.067
-406.296	-84.833	0.522	-0.166
-405.282	280.811	0.125	-0.225
-404.267	800.000	0.060	0.238
-403.252	-20.365	0.147	0.091
-402.238	-1.835	0.105	0.074
-401.223	157.388	-0.154	0.215
-400.209	-104.047	-0.484	-0.114
-399.194	-173.174	-0.181	-0.006
-398.179	-200.000	-0.033	-0.232
-397.165	-37.337	-0.324	-0.174
-396.150	-63.072	-0.127	0.053
-395.136	90.581	-0.079	0.089
-394.121	45.836	-0.135	0.126
-393.106	255.705	-0.217	0.375
-392.092	-200.000	-0.050	0.230
-391.077	89.419	-0.089	0.100
-390.063	-200.000	-0.069	-0.367
-389.048	197.386	0.039	-0.060
-388.033	800.000	-0.047	-0.181
-387.019	-200.000	0.058	0.331
-386.004	83.936	-0.167	0.184
-384.990	-200.000	-0.064	0.362
-383.975	-113.462	-0.284	0.056
-382.960	-173.099	-0.032	-0.001
-381.946	-123.403	0.404	-0.065
-380.931	-200.000	-0.072	0.348
-379.917	-43.041	-0.255	0.130
-378.902	34.347	0.171	-0.151
-377.888	65.268	0.124	-0.126
-376.873	-41.285	0.325	-0.169
-375.858	-200.000	-0.041	-0.223
-374.844	-127.471	-0.185	-0.027
-373.829	-178.224	0.271	-0.006
-372.815	-105.592	-0.196	-0.045
-371.800	-138.806	-0.329	0.036
-370.785	89.189	0.100	0.112
-369.771	-102.684	0.313	-0.075
-368.756	-103.480	-0.042	-0.010
-367.742	-159.705	0.314	0.017
-366.727	780.041	0.047	0.130
-365.712	-89.014	0.220	-0.066
-364.698	-161.976	-0.123	0.006
-363.683	-200.000	0.048	0.218
-362.669	-200.000	0.011	-0.147
-361.654	800.000	0.035	0.150
-360.639	-72.426	-0.136	0.050
-359.625	-200.000	0.006	-0.042
-358.610	29.063	-0.099	0.085
-357.596	31.318	0.143	0.124
-356.581	24.228	0.140	0.116
-355.566	108.108	0.037	0.045
-354.552	5.464	-0.306	-0.228
-353.537	47.924	0.189	0.178
-352.523	-47.742	-0.057	-0.028
-351.508	-57.754	-0.332	0.146
-350.493	55.112	-0.158	-0.154
-349.479	221.342	0.061	-0.099
-348.464	-112.543	0.108	-0.022
-347.450	175.403	0.091	-0.133
-346.435	-127.019	-0.147	0.022
-345.420	-164.008	0.278	0.013
-344.406	16.212	0.278	0.221
-343.391	-200.000	0.017	-0.274
-342.377	-200.000	-0.030	-0.252
-341.362	-160.954	0.117	0.006
-340.348	-95.294	0.183	-0.050
-339.333	-88.330	-0.360	-0.108
-338.318	144.417	-0.123	0.166
-337.304	190.512	-0.090	0.137
-336.289	476.670	-0.075	-0.172
-335.275	-200.000	0.068	0.449
-334.260	-142.361	-0.222	0.022
-333.245	-200.000	-0.030	-0.321
-332.231	-51.229	-0.088	-0.041
-331.216	-19.644	0.076	0.047
-330.202	800.000	0.067	-0.260
-329.187	-81.840	-0.100	-0.033
-328.172	800.000	-0.094	0.389
-327.158	-200.000	-0.001	0.097
-326.143	-200.000	-0.045	0.316
-325.129	-181.023	0.201	-0.004
-324.114	-9.677	-0.151	0.101
-323.099	-200.000	0.018	-0.156
-322.085	-69.694	0.168	0.065
-321.070	800.000	-0.070	-0.301
-320.056	-200.000	0.009	-0.297
-319.041	-166.082	-0.188	-0.008
-318.026	39.146	0.343	-0.308
-317.012	-66.851	0.258	-0.102
-315.997	-73.172	0.051	-0.019
-314.983	-65.401	-0.150	0.061
-313.968	800.000	-0.066	0.211
-312.953	-200.000	-0.012	-0.139
-311.939	800.000	-0.081	-0.270
-310.924	800.000	-0.065	0.192
-309.910	-153.910	0.189	0.013
-308.895	133.251	-0.070	-0.091
-307.880	-131.869	-0.210	-0.028
-306.866	74.686	-0.074	0.079
-305.851	260.859	-0.098	0.171
-304.837	34.236	-0.105	0.092
-303.822	8.783	-0.063	0.047
-302.807	608.829	0.102	0.255
-301.793	-126.560	0.260	0.039
-300.778	16.741	0.067	-0.053
-299.764	-200.000	-0.010	-0.179
-298.749	303.553	0.030	-0.056
-297.735	248.624	-0.214	0.364
-296.720	-200.000	0.018	-0.149
-295.705	-39.411	0.049	-0.026
-294.691	-90.538	-0.109	0.032
-293.676	-200.000	-0.042	0.194
-292.662	416.912	0.071	-0.152
-291.647	-20.130	-0.060	-0.037
-290.632	-200.000	0.003	0.066
-289.618	443.935	-0.051	0.113
-288.603	508.131	-0.022	-0.052
-287.589	61.981	0.137	-0.137
-286.574	75.248	0.252	0.266
-285.559	800.000	0.032	0.130
-284.545	193.024	0.086	0.130
-283.530	-140.177	0.185	-0.020
-282.516	-76.420	0.183	0.065
-281.501	-183.283	0.104	0.002
-280.486	800.000	0.154	0.549
-279.472	283.568	-0.085	-0.154
-278.457	800.000	0.068	-0.216
-277.443	495.759	-0.042	0.097
-276.428	255.934	-0.056	-0.097
-275.413	-7.145	-0.093	-0.064
-274.399	658.223	-0.163	-0.422
-273.384	236.400	-0.089	-0.148
-272.370	-131.535	-0.111	0.015
-271.355	-200.000	-0.048	-0.233
-270.340	-62.341	-0.148	-0.062
-269.326	800.000	0.053	0.161
-268.311	-34.528	0.116	-0.064
-267.297	-122.306	-0.086	0.014
-266.282	-121.929	0.593	-0.098
-265.267	-81.995	-0.132	-0.043
-264.253	111.506	-0.090	0.109
-263.238	-200.000	-0.021	-0.114
-262.224	447.444	0.191	-0.423
-261.209	643.022	0.069	0.176
-260.195	241.287	0.060	0.100
-259.180	173.255	0.053	-0.077
-258.165	7.204	0.191	0.143
-257.151	800.000	-0.094	-0.353
-256.136	6.896	0.379	-0.283
-255.122	-27.510	0.067	0.039
-254.107	407.873	-0.066	-0.140
-253.092	-200.000	-0.011	0.084
-252.078	17.500	0.149	0.119
-251.063	-100.753	0.087	-0.021
-250.049	-117.595	0.166	-0.030
-249.034	452.509	-0.149	0.330
-248.019	-152.113	0.168	-0.012
-247.005	503.237	0.053	0.122
-245.990	-51.979	-0.347	0.162
-244.976	-6.992	0.164	0.112
-243.961	450.651	-0.108	0.240
-242.946	-200.000	0.009	0.113
-241.932	-132.513	0.227	-0.029
-240.917	800.000	0.022	0.084
-239.903	319.090	0.109	-0.207
-238.888	-200.000	-0.030	-0.258
-237.873	-87.387	0.175	0.053
-236.859	-28.034	0.353	-0.205
-235.844	-106.828	0.407	-0.091
-234.830	800.000	-0.191	-0.655
-233.815	95.881	0.146	-0.167
-232.800	-200.000	0.063	-0.284
-231.786	348.224	-0.062	0.122
-230.771	-123.836	-0.323	-0.051
-229.757	800.000	0.043	-0.155
-228.742	-106.608	0.237	-0.053
-227.727	29.300	0.100	-0.085
-226.713	-56.203	-0.348	-0.155
-225.698	-20.088	-0.285	0.176
-224.684	-133.116	0.222	-0.028
-223.669	-200.000	0.007	0.046
-222.655	-96.716	-0.069	-0.018
-221.640	71.504	-0.088	0.091
-220.625	-38.196	-0.131	0.070
-219.611	-133.947	0.383	-0.048
-218.596	-47.722	0.345	-0.167
-217.582	800.000	-0.035	0.140
-216.567	-200.000	-0.053	0.278
-215.552	-200.000	0.033	0.212
-214.538	-200.000	-0.025	-0.129
-213.523	-69.626	0.309	-0.118
-212.509	38.306	0.099	-0.088
-211.494	9.886	-0.275	-0.209
-210.479	-200.000	0.060	-0.298
-209.465	-117.480	0.032	-0.006
-208.450	172.289	0.093	0.134
-207.436	-200.000	-0.031	0.177
-206.421	-103.035	0.301	-0.071
-205.406	247.571	-0.150	-0.254
-204.392	301.820	0.132	-0.244
-203.377	-110.677	-0.300	0.062
-202.363	-200.000	-0.044	0.275
-201.348	79.702	-0.136	0.147
-200.333	134.133	-0.120	0.155
-199.319	-200.000	0.020	-0.381
-198.304	60.339	-0.167	-0.166
-197.290	80.385	0.075	0.081
-196.275	-3.565	0.109	0.076
-195.260	-43.025	-0.054	0.027
-194.246	-140.197	0.181	-0.019
-193.231	800.000	0.055	0.218
-192.217	-41.599	0.135	0.069
-191.202	15.148	0.127	0.100
-190.187	628.486	0.092	-0.232
-189.173	476.353	-0.103	0.232
-188.158	-200.000	0.022	0.137
-187.144	-72.321	-0.206	0.077
-186.129	59.794	0.267	0.263
-185.114	33.642	-0.105	-0.092
-184.100	93.928	0.267	-0.303
-183.085	377.716	0.112	-0.229
-182.071	-31.514	-0.371	0.209
-181.056	-43.975	-0.093	0.047
-180.042	800.000	-0.076	0.298
-179.027	224.907	0.141	0.228
-178.012	-22.573	0.259	-0.157
-176.998	19.965	-0.159	-0.128
-175.983	800.000	0.023	0.072
-174.969	672.204	0.052	0.136
-173.954	800.000	0.036	0.147
-172.939	29.794	-0.194	-0.166
-171.925	193.032	-0.081	0.123
-170.910	-93.450	-0.200	0.055
-169.896	330.555	-0.074	-0.143
-168.881	140.008	0.055	0.072
-167.866	397.191	-0.101	-0.211
-166.852	-79.419	-0.125	0.042
-165.837	800.000	0.055	0.169
-164.823	-22.855	-0.149	-0.090
-163.808	-148.597	0.286	0.023
-162.793	-200.000	-0.047	0.227
-161.779	164.977	-0.178	0.250
-160.764	-131.664	0.348	0.046
-159.750	-200.000	-0.039	0.240
-158.735	-200.000	-0.011	0.127
-157.720	-36.831	0.163	0.088
-156.706	-200.000	-0.003	-0.058
-155.691	800.000	-0.099	0.291
-154.677	72.832	0.089	-0.093
-153.662	-57.068	0.172	-0.076
-152.647	410.017	-0.105	0.222
-151.633	800.000	0.044	-0.135
-150.618	-44.601	-0.245	0.123
-149.604	-36.686	-0.352	0.189
-148.589	-73.230	0.141	-0.052
-147.574	99.839	-0.126	0.146
-146.560	-70.697	0.141	0.053
-145.545	-63.135	0.246	0.101
-144.531	380.326	0.038	0.077
-143.516	127.710	0.191	-0.243
-142.502	-56.133	0.071	-0.031
-141.487	26.181	-0.287	-0.239
-140.472	-49.383	0.115	-0.055
-139.458	-112.847	-0.343	0.068
-138.443	534.788	0.037	0.087
-137.429	-200.000	-0.017	0.219
-136.414	173.847	-0.008	0.011
-135.399	-200.000	0.014	0.095
-134.385	800.000	0.076	-0.210
-133.370	-33.521	0.118	0.065
-132.356	-121.841	-0.072	-0.012
-131.341	29.357	0.204	0.173
-130.326	164.842	0.141	-0.198
-129.312	-124.914	0.236	-0.036
-128.297	62.877	0.216	0.215
-127.283	23.662	0.326	-0.268
-126.268	117.778	-0.100	0.123
-125.253	-195.348	0.254	-0.002
-124.239	-83.094	-0.221	-0.071
-123.224	53.616	0.073	-0.070
-122.210	800.000	-0.078	-0.235
