DTS Sentinel unit serial number:	SN413079Multiplexer serial number:	ORYXHardware model number:	OX4-SRSoftware version number:	ORYX F/W v4.00 Oryx Data Collector v3.7.2.0data status	okinstallation	princeton_trtdifferential loss correction	single-endedforward channel	channel 2reverse channel	N/Adate	2019/09/12time	03:33:10forward acquisition time	60.00reverse acquisition time	0.00gamma	496.2192k internal	0.2326k external	0.2326temperature offset calibration	1.0096default loss term (dB/km)	0.3790temperature slope calibration	1.0000multiplexer offset coefficient	1.0000multiplexer slope coefficient	1.0000fibre end	0.00T internal ref (°C)	32.17T ext. ref 1 (°C)	2.14T ext. ref 2 (°C)	27.21length (m)	temperature (°C)	Stokes	anti-Stokes-747.200	378.103	-0.121	0.250
-746.185	643.714	0.105	0.270
-745.171	-34.436	-0.110	-0.061
-744.156	425.421	0.073	0.158
-743.142	-64.438	0.472	-0.193
-742.127	-34.044	0.459	0.255
-741.112	162.085	-0.195	0.276
-740.098	35.640	-0.186	0.165
-739.083	-108.219	-0.131	-0.029
-738.069	168.399	-0.106	0.152
-737.054	94.314	-0.066	-0.075
-736.039	-111.633	-0.437	0.089
-735.025	691.864	0.053	-0.140
-734.010	29.648	-0.345	-0.296
-732.996	40.310	-0.136	0.124
-731.981	800.000	-0.074	-0.318
-730.966	-33.305	0.151	-0.084
-729.952	-41.215	-0.191	-0.099
-728.937	174.284	-0.192	-0.280
-727.923	-200.000	0.022	0.188
-726.908	38.995	0.064	0.058
-725.894	376.915	0.093	0.191
-724.879	-200.000	0.038	-0.269
-723.864	211.197	0.082	0.129
-722.850	241.233	-0.139	0.234
-721.835	169.047	-0.076	0.109
-720.821	70.350	-0.019	-0.019
-719.806	-200.000	0.068	0.363
-718.791	-79.318	-0.304	0.104
-717.777	42.223	-0.144	-0.131
-716.762	-155.079	-0.205	-0.014
-715.748	-70.402	0.264	0.101
-714.733	227.366	-0.022	-0.036
-713.718	-56.999	-0.156	-0.069
-712.704	-200.000	-0.015	-0.266
-711.689	800.000	-0.061	-0.174
-710.675	536.869	-0.037	0.088
-709.660	-144.027	0.255	0.024
-708.645	2.631	0.204	0.149
-707.631	-200.000	0.012	0.109
-706.616	511.724	-0.171	0.402
-705.602	-200.000	0.000	-0.139
-704.587	-94.536	-0.596	-0.163
-703.572	17.260	0.282	0.225
-702.558	800.000	0.058	0.191
-701.543	-129.778	-0.209	-0.029
-700.529	305.038	-0.118	0.221
-699.514	46.101	-0.191	0.178
-698.499	294.284	0.089	-0.164
-697.485	-200.000	-0.066	-0.326
-696.470	149.791	0.164	-0.224
-695.456	-200.000	0.026	0.219
-694.441	-43.237	0.297	-0.151
-693.426	-43.842	0.211	-0.107
-692.412	242.244	0.104	0.175
-691.397	-200.000	-0.037	-0.525
-690.383	800.000	0.072	-0.228
-689.368	-169.177	0.414	-0.015
-688.354	-118.091	0.155	-0.028
-687.339	-165.867	-0.569	0.025
-686.324	42.124	0.227	-0.208
-685.310	282.394	-0.150	-0.270
-684.295	-200.000	-0.039	-0.234
-683.281	800.000	0.125	-0.487
-682.266	-20.206	-0.429	-0.266
-681.251	318.094	-0.094	-0.178
-680.237	800.000	-0.107	0.366
-679.222	790.066	0.122	-0.336
-678.208	800.000	-0.102	0.304
-677.193	-33.447	-0.378	-0.210
-676.178	214.390	-0.071	0.113
-675.164	207.736	-0.032	0.051
-674.149	144.076	-0.189	-0.254
-673.135	-157.300	0.243	0.015
-672.120	149.924	-0.115	-0.156
-671.105	-200.000	0.041	-0.348
-670.091	49.313	0.086	-0.081
-669.076	70.864	0.163	-0.170
-668.062	94.239	0.107	-0.122
-667.047	-131.855	0.160	-0.021
-666.032	95.905	0.128	-0.147
-665.018	-117.079	-0.215	-0.039
-664.003	32.246	-0.053	0.046
-662.989	-150.560	0.152	0.012
-661.974	184.282	0.059	0.088
-660.959	41.330	0.106	0.096
-659.945	105.549	0.191	0.227
-658.930	303.290	0.226	-0.421
-657.916	254.250	-0.114	-0.196
-656.901	87.850	-0.134	-0.149
-655.886	226.444	-0.035	0.057
-654.872	-42.371	-0.469	-0.241
-653.857	235.222	0.102	-0.169
-652.843	187.921	-0.039	-0.059
-651.828	-89.289	-0.196	-0.058
-650.814	-92.963	-0.317	-0.089
-649.799	-200.000	-0.043	-0.487
-648.784	-51.664	0.057	0.027
-647.770	-147.998	0.123	-0.010
-646.755	78.607	-0.368	0.395
-645.741	143.062	0.138	0.184
-644.726	107.079	0.362	-0.432
-643.711	-200.000	0.059	-0.309
-642.697	254.122	-0.032	-0.055
-641.682	8.866	-0.172	-0.130
-640.668	800.000	0.045	-0.172
-639.653	800.000	-0.036	-0.105
-638.638	-200.000	-0.003	-0.276
-637.624	39.225	-0.118	0.106
-636.609	116.751	-0.193	-0.238
-635.595	800.000	-0.052	0.224
-634.580	-59.908	-0.128	0.055
-633.565	147.437	-0.030	-0.040
-632.551	-200.000	-0.017	0.093
-631.536	-124.509	0.270	0.042
-630.522	-68.573	-0.333	-0.130
-629.507	800.000	0.029	0.095
-628.492	-200.000	-0.052	0.236
-627.478	-98.880	-0.155	0.040
-626.463	-65.503	0.432	0.174
-625.449	-200.000	0.002	0.363
-624.434	123.842	-0.187	-0.236
-623.419	461.683	-0.066	-0.149
-622.405	250.251	0.052	-0.088
-621.390	-153.262	-0.367	0.026
-620.376	-74.486	-0.202	-0.073
-619.361	49.745	0.042	-0.040
-618.346	72.846	-0.155	-0.162
-617.332	55.478	0.188	-0.183
-616.317	-161.859	0.207	-0.011
-615.303	22.230	0.127	0.104
-614.288	-141.501	0.286	0.029
-613.273	-200.000	-0.016	0.105
-612.259	-200.000	-0.001	-0.065
-611.244	-30.996	0.274	0.155
-610.230	-200.000	-0.042	-0.357
-609.215	-139.704	0.112	0.012
-608.201	114.706	-0.298	-0.365
-607.186	168.513	0.237	0.339
-606.171	62.623	-0.050	-0.050
-605.157	699.882	0.047	-0.124
-604.142	800.000	0.043	0.172
-603.128	-114.063	-0.381	-0.074
-602.113	-200.000	0.004	-0.034
-601.098	-200.000	0.005	-0.172
-600.084	-116.928	0.271	0.050
-599.069	-200.000	0.008	0.351
-598.055	50.161	-0.043	0.041
-597.040	496.713	-0.178	-0.411
-596.025	93.698	-0.269	0.306
-595.011	98.357	-0.186	0.215
-593.996	-200.000	0.036	-0.170
-592.982	-153.560	-0.339	0.024
-591.967	-94.764	-0.118	0.032
-590.952	72.819	0.155	0.163
-589.938	-137.008	0.311	0.036
-588.923	327.204	0.116	-0.223
-587.909	800.000	0.095	-0.299
-586.894	-75.326	0.300	-0.107
-585.879	123.315	-0.191	0.240
-584.865	800.000	-0.164	0.464
-583.850	-18.828	-0.152	-0.095
-582.836	235.380	-0.239	-0.396
-581.821	-119.363	0.395	-0.069
-580.806	636.515	0.056	-0.143
-579.792	-200.000	0.086	0.399
-578.777	-188.298	0.335	0.004
-577.763	98.677	-0.209	-0.242
-576.748	663.126	-0.015	-0.038
-575.733	-200.000	0.057	-0.414
-574.719	-200.000	-0.002	0.069
-573.704	-34.508	0.322	-0.177
-572.690	800.000	0.033	0.093
-571.675	239.868	0.057	0.096
-570.661	-70.227	0.245	0.093
-569.646	35.859	0.367	0.323
-568.631	-200.000	0.050	-0.433
-567.617	-22.824	-0.119	0.072
-566.602	190.246	-0.163	0.245
-565.588	54.074	0.072	0.069
-564.573	-103.052	-0.215	-0.051
-563.558	-187.813	0.202	0.003
-562.544	-200.000	0.030	0.196
-561.529	237.924	0.115	-0.192
-560.515	-180.924	0.216	-0.004
-559.500	125.694	0.192	0.243
-558.485	-109.868	-0.466	0.098
-557.471	-200.000	-0.033	0.273
-556.456	360.656	0.025	-0.050
-555.442	-68.320	0.039	-0.015
-554.427	-0.195	-0.143	0.102
-553.412	715.198	-0.062	0.164
-552.398	-44.559	-0.110	-0.055
-551.383	-79.074	0.144	0.049
-550.369	278.024	-0.177	-0.316
-549.354	-200.000	-0.070	-0.328
-548.339	-180.585	0.168	-0.003
-547.325	30.609	-0.428	-0.366
-546.310	21.785	0.027	0.022
-545.296	44.940	-0.178	0.164
-544.281	-82.768	-0.384	-0.124
-543.266	-17.702	-0.250	0.157
-542.252	366.652	-0.122	0.246
-541.237	97.526	0.191	-0.220
-540.223	71.971	0.213	-0.221
-539.208	3.376	0.209	0.152
-538.193	-115.799	0.037	-0.007
-537.179	-200.000	-0.027	0.174
-536.164	169.106	0.157	0.224
-535.150	128.125	-0.232	-0.295
-534.135	-200.000	0.004	0.121
-533.121	0.196	-0.120	-0.085
-532.106	-12.718	-0.122	-0.079
-531.091	-173.280	-0.204	0.006
-530.077	-11.611	-0.335	0.220
-529.062	-74.524	-0.279	-0.101
-528.048	-200.000	-0.006	0.269
-527.033	-200.000	-0.012	0.270
-526.018	18.016	0.100	-0.080
-525.004	153.032	-0.098	-0.133
-523.989	-175.666	0.185	0.005
-522.975	515.097	0.148	0.346
-521.960	74.867	0.200	0.210
-520.945	-117.632	-0.323	-0.058
-519.931	147.031	0.206	-0.277
-518.916	-87.585	0.114	0.035
-517.902	-77.704	-0.185	0.064
-516.887	-22.562	-0.274	-0.166
-515.872	-200.000	0.027	0.454
-514.858	88.037	0.086	0.096
-513.843	-192.210	-0.130	-0.001
-512.829	800.000	0.021	-0.063
-511.814	310.010	0.053	-0.098
-510.799	-200.000	-0.049	0.387
-509.785	7.862	0.162	0.122
-508.770	685.874	0.068	-0.176
-507.756	-115.817	0.196	0.037
-506.741	-200.000	0.007	-0.168
-505.726	-170.696	0.114	0.004
-504.712	68.605	-0.176	0.181
-503.697	-94.356	0.490	0.134
-502.683	-123.769	0.167	0.026
-501.668	-139.690	-0.244	0.026
-500.653	-67.546	0.227	0.089
-499.639	-15.617	0.109	0.069
-498.624	-200.000	-0.021	-0.238
-497.610	-5.257	-0.233	0.160
-496.595	9.080	-0.230	0.174
-495.581	-198.570	-0.279	0.002
-494.566	-200.000	-0.020	-0.204
-493.551	101.479	0.172	0.200
-492.537	514.528	-0.145	0.338
-491.522	511.662	0.108	-0.250
-490.508	129.775	-0.117	0.149
-489.493	-121.381	0.691	0.115
-488.478	-200.000	-0.042	0.216
-487.464	800.000	0.025	0.107
-486.449	-158.787	0.123	-0.007
-485.435	-112.082	0.284	0.057
-484.420	-200.000	-0.012	0.077
-483.405	-200.000	0.003	0.166
-482.391	-200.000	0.013	-0.087
-481.376	-97.643	0.349	0.090
-480.362	-200.000	0.055	-0.239
-479.347	352.175	-0.040	-0.080
-478.332	-154.239	-0.064	-0.004
-477.318	-118.560	0.158	0.028
-476.303	582.452	-0.074	0.182
-475.289	-26.731	-0.668	0.390
-474.274	123.453	-0.144	0.180
-473.259	84.583	0.186	-0.203
-472.245	302.091	0.153	0.282
-471.230	-132.100	-0.365	-0.047
-470.216	-200.000	0.024	-0.366
-469.201	-96.449	0.293	-0.077
-468.186	35.344	-0.140	-0.123
-467.172	5.666	-0.372	0.274
-466.157	19.920	-0.134	0.107
-465.143	451.856	-0.096	-0.211
-464.128	-200.000	0.027	-0.287
-463.113	62.456	-0.273	-0.272
-462.099	-39.851	0.212	-0.110
-461.084	-92.912	-0.123	-0.034
-460.070	155.147	-0.192	-0.263
-459.055	173.843	0.342	-0.493
-458.040	-45.229	-0.218	0.108
-457.026	-200.000	0.005	0.035
-456.011	-200.000	-0.070	0.313
-454.997	-200.000	-0.093	0.443
-453.982	282.514	0.137	0.244
-452.968	641.328	0.019	-0.047
-451.953	129.303	-0.113	-0.144
-450.938	36.024	0.047	0.042
-449.924	-200.000	0.001	0.344
-448.909	-58.379	-0.190	-0.082
-447.895	-120.566	-0.175	0.030
-446.880	-65.949	-0.362	0.144
-445.865	800.000	-0.097	0.405
-444.851	-9.289	-0.041	0.027
-443.836	-200.000	-0.048	0.277
-442.822	114.572	0.069	0.084
-441.807	-41.719	0.299	0.153
-440.792	58.264	0.316	0.309
-439.778	173.616	-0.073	0.105
-438.763	182.445	-0.147	-0.216
-437.749	-160.983	0.271	0.014
-436.734	-200.000	0.013	-0.162
-435.719	495.945	0.125	0.286
-434.705	300.666	-0.240	0.440
-433.690	800.000	0.077	0.284
-432.676	191.542	0.201	-0.301
-431.661	-37.557	-0.241	0.128
-430.646	202.378	-0.129	-0.199
-429.632	-133.096	-0.151	0.019
-428.617	213.235	-0.065	-0.102
-427.603	10.289	0.032	-0.024
-426.588	-200.000	0.012	-0.072
-425.573	-200.000	0.017	-0.143
-424.559	229.056	-0.132	-0.214
-423.544	34.487	0.101	0.088
-422.530	235.154	0.214	0.352
-421.515	27.926	0.126	0.105
-420.500	-136.352	0.107	-0.012
-419.486	700.223	0.065	0.171
-418.471	135.150	-0.021	0.028
-417.457	-126.039	-0.070	-0.010
-416.442	-179.875	-0.155	-0.003
-415.428	-24.975	0.150	0.088
-414.413	-127.728	0.109	-0.016
-413.398	-196.092	-0.337	0.002
-412.384	-200.000	0.012	0.243
-411.369	555.241	-0.132	-0.316
-410.355	-200.000	0.001	0.172
-409.340	-90.670	0.357	-0.103
-408.325	-162.207	0.321	0.016
-407.311	-153.789	0.241	0.016
-406.296	-200.000	-0.041	0.302
-405.282	-119.038	-0.220	0.038
-404.267	-83.356	0.226	-0.072
-403.252	-200.000	-0.012	-0.150
-402.238	800.000	-0.095	-0.299
-401.223	-200.000	-0.033	0.404
-400.209	-2.462	-0.246	-0.172
-399.194	218.047	0.173	0.275
-398.179	118.819	-0.053	0.065
-397.165	551.156	0.127	0.304
-396.150	7.786	-0.288	0.215
-395.136	184.315	-0.162	-0.239
-394.121	800.000	0.061	0.170
-393.106	178.234	-0.102	0.148
-392.092	800.000	0.122	-0.403
-391.077	-106.418	0.143	0.032
-390.063	-30.231	-0.253	0.143
-389.048	-200.000	0.130	0.000
-388.033	-129.463	0.212	-0.029
-387.019	-89.781	0.275	0.080
-386.004	752.044	0.049	0.133
-384.990	-14.735	0.091	-0.058
-383.975	207.192	0.198	-0.307
-382.960	-200.000	0.008	0.266
-381.946	-163.216	-0.225	-0.011
-380.931	573.809	0.085	0.205
-379.917	-200.000	-0.007	0.133
-378.902	-125.165	-0.183	-0.028
-377.888	314.357	-0.169	-0.316
-376.873	103.107	0.211	0.245
-375.858	65.737	0.239	-0.241
-374.844	-200.000	-0.067	-0.297
-373.829	-63.471	0.269	-0.110
-372.815	139.701	-0.057	-0.074
-371.800	-109.509	0.063	-0.013
-370.785	-126.486	-0.272	-0.040
-369.771	-200.000	-0.029	-0.177
-368.756	1.690	0.169	0.121
-367.742	-133.755	-0.245	0.030
-366.727	34.660	-0.121	0.105
-365.712	-200.000	-0.056	0.264
-364.698	-200.000	0.004	-0.041
-363.683	144.367	0.370	-0.490
-362.669	-165.612	0.193	-0.008
-361.654	19.532	-0.080	-0.064
-360.639	-200.000	-0.003	-0.134
-359.625	-139.669	0.151	0.016
-358.610	-87.861	0.265	0.079
-357.596	-37.740	-0.227	0.120
-356.581	258.427	0.055	-0.093
-355.566	371.872	-0.011	0.022
-354.552	-158.503	0.150	-0.009
-353.537	560.328	-0.035	-0.084
-352.523	800.000	0.019	-0.064
-351.508	191.973	0.070	-0.104
-350.493	724.731	-0.077	-0.205
-349.479	-77.076	0.373	0.129
-348.464	800.000	0.102	0.313
-347.450	-104.217	-0.602	-0.139
-346.435	-135.357	0.160	-0.019
-345.420	25.944	0.199	-0.165
-344.406	240.801	0.087	-0.144
-343.391	-16.905	-0.128	-0.081
-342.377	-71.568	-0.034	-0.013
-341.362	-200.000	0.009	-0.070
-340.348	-94.803	0.195	-0.053
-339.333	420.434	0.108	0.229
-338.318	220.247	0.160	0.254
-337.304	303.664	-0.156	-0.288
-336.289	575.101	0.041	-0.100
-335.275	26.908	0.276	-0.229
-334.260	214.102	0.022	0.034
-333.245	-104.760	-0.076	0.017
-332.231	-101.803	0.437	0.105
-331.216	-200.000	-0.008	0.038
-330.202	4.541	0.167	0.122
-329.187	493.611	0.063	-0.144
-328.172	24.674	0.024	-0.019
-327.158	77.044	0.134	-0.141
-326.143	178.712	0.229	0.332
-325.129	112.907	-0.137	0.164
-324.114	-109.632	0.195	-0.041
-323.099	-26.129	0.232	0.135
-322.085	510.096	0.056	-0.129
-321.070	-148.794	0.122	-0.010
-320.056	-42.570	-0.175	0.089
-319.041	800.000	0.069	-0.190
-318.026	-50.116	-0.036	0.017
-317.012	-62.120	-0.064	0.026
-315.997	-200.000	-0.001	0.209
-314.983	436.615	-0.079	-0.170
-313.968	-138.392	-0.233	0.025
-312.953	-27.522	-0.108	0.062
-311.939	-31.396	-0.287	-0.160
-310.924	-128.445	-0.048	-0.007
-309.910	-200.000	-0.012	0.128
-308.895	-195.632	0.095	0.001
-307.880	35.445	-0.320	-0.278
-306.866	206.302	-0.183	-0.282
-305.851	-200.000	0.014	-0.091
-304.837	-101.055	-0.168	0.041
-303.822	80.713	-0.104	-0.111
-302.807	-200.000	-0.021	0.334
-301.793	85.756	0.176	-0.192
-300.778	516.973	-0.086	0.199
-299.764	10.729	-0.029	-0.022
-298.749	2.617	-0.051	-0.037
-297.735	-66.832	0.155	0.061
-296.720	-107.961	0.045	0.010
-295.705	-200.000	-0.003	-0.040
-294.691	6.302	0.207	0.152
-293.676	-15.860	0.231	-0.146
-292.662	93.045	0.124	0.138
-291.647	335.421	-0.021	-0.041
-290.632	-135.216	0.215	0.026
-289.618	167.783	0.126	-0.178
-288.603	172.983	-0.157	0.225
-287.589	105.742	-0.117	-0.137
-286.574	-104.637	-0.276	-0.063
-285.559	-200.000	0.002	-0.174
-284.545	-189.531	0.353	-0.004
-283.530	-200.000	0.010	-0.271
-282.516	113.426	-0.142	-0.171
-281.501	58.823	0.197	-0.192
-280.486	-20.613	-0.009	0.005
-279.472	-172.736	-0.039	-0.001
-278.457	353.689	-0.082	0.161
-277.443	-26.745	-0.202	-0.117
-276.428	800.000	0.032	0.111
-275.413	-126.893	-0.057	-0.008
-274.399	-173.784	0.214	-0.006
-273.384	-200.000	-0.008	0.102
-272.370	800.000	0.026	-0.095
-271.355	180.894	0.044	0.065
-270.340	-71.630	-0.292	-0.108
-269.326	385.097	0.132	0.269
-268.311	-200.000	0.020	-0.205
-267.297	27.910	0.321	-0.268
-266.282	251.835	-0.159	0.267
-265.267	268.945	0.122	-0.211
-264.253	34.526	0.085	-0.073
-263.238	-167.266	-0.307	0.012
-262.224	20.974	0.209	0.168
-261.209	-61.775	-0.097	0.040
-260.195	334.868	-0.082	-0.158
-259.180	64.092	-0.049	0.049
-258.165	800.000	0.020	0.072
-257.151	-96.594	-0.360	-0.094
-256.136	-86.355	0.108	-0.033
-255.122	-174.032	0.025	0.001
-254.107	26.412	-0.166	-0.138
-253.092	174.771	0.096	0.137
-252.078	41.524	0.145	0.130
-251.063	-78.778	-0.136	-0.046
-250.049	253.935	0.048	-0.081
-249.034	-117.079	-0.169	0.031
-248.019	-96.149	0.073	0.019
-247.005	-84.200	-0.182	-0.057
-245.990	58.839	-0.157	0.153
-244.976	-133.690	0.472	0.058
-243.961	-200.000	0.002	0.186
-242.946	12.412	-0.238	-0.182
-241.932	-200.000	0.003	-0.471
-240.917	68.161	0.174	-0.176
-239.903	-49.695	0.187	-0.088
-238.888	-200.000	0.066	-0.293
-237.873	70.988	0.156	-0.159
-236.859	-177.264	-0.413	-0.010
-235.844	231.474	0.178	-0.288
-234.830	240.200	0.199	-0.327
-233.815	331.960	-0.066	-0.126
-232.800	800.000	-0.106	0.347
-231.786	-200.000	0.008	-0.042
-230.771	-62.220	-0.206	-0.085
-229.757	-98.048	0.160	0.041
-228.742	454.712	0.145	-0.318
-227.727	-90.289	-0.372	0.107
-226.713	203.315	-0.170	0.259
-225.698	-200.000	-0.048	0.291
-224.684	-21.570	-0.165	0.099
-223.669	103.996	0.102	-0.119
-222.655	-74.235	-0.054	0.019
-221.640	800.000	0.117	0.502
-220.625	-131.978	0.622	0.080
-219.611	206.665	0.221	-0.341
-218.596	53.209	-0.126	0.119
-217.582	-129.873	0.105	-0.014
-216.567	155.063	0.033	0.044
-215.552	800.000	-0.050	0.154
-214.538	-75.919	0.172	-0.060
-213.523	-200.000	-0.008	-0.245
-212.509	167.431	0.160	0.224
-211.494	-21.304	0.231	0.140
-210.479	127.735	0.113	-0.142
-209.465	23.577	-0.099	0.080
-208.450	-180.856	-0.090	-0.002
-207.436	420.230	-0.148	0.313
-206.421	-114.848	0.166	-0.031
-205.406	-41.980	-0.254	-0.128
-204.392	-69.758	0.266	0.100
-203.377	-70.072	0.260	-0.098
-202.363	-54.185	-0.079	0.035
-201.348	-164.267	-0.433	-0.020
-200.333	57.613	-0.094	-0.090
-199.319	-9.774	0.126	0.083
-198.304	103.299	0.086	-0.100
-197.290	221.344	-0.106	0.168
-196.275	-118.325	-0.346	0.061
-195.260	-66.284	-0.150	0.059
-194.246	-117.577	0.173	0.031
-193.231	28.651	-0.076	-0.063
-192.217	-200.000	-0.430	-0.001
-191.202	-200.000	-0.030	-0.179
-190.187	452.436	-0.025	0.055
-189.173	-95.423	-0.117	-0.031
-188.158	233.722	-0.127	0.207
-187.144	690.767	-0.133	0.343
-186.129	-117.416	0.079	0.014
-185.114	73.670	-0.040	-0.042
-184.100	115.891	0.060	-0.072
-183.085	196.030	-0.319	-0.478
-182.071	-95.983	-0.265	-0.070
-181.056	0.607	-0.072	0.051
-180.042	462.199	-0.096	-0.210
-179.027	506.331	-0.085	-0.195
-178.012	135.588	-0.064	-0.082
-176.998	81.303	0.045	0.048
-175.983	-154.754	-0.285	0.019
-174.969	-200.000	0.005	-0.057
-173.954	482.751	-0.051	-0.115
-172.939	-119.214	0.149	-0.026
-171.925	-200.000	-0.040	-0.584
-170.910	35.533	0.097	0.084
-169.896	-200.000	-0.005	-0.131
-168.881	-200.000	0.003	0.144
-167.866	800.000	0.039	0.156
-166.852	118.546	-0.082	0.099
-165.837	-200.000	-0.020	-0.234
-164.823	-200.000	-0.060	-0.295
-163.808	-189.446	0.183	-0.002
-162.793	-139.925	-0.156	0.016
-161.779	39.346	-0.054	-0.048
-160.764	-104.440	0.215	-0.049
-159.750	-87.338	0.016	-0.005
-158.735	-90.972	-0.163	-0.046
-157.720	-85.484	-0.082	-0.025
-156.706	-200.000	-0.010	-0.072
-155.691	169.089	-0.034	-0.047
-154.677	357.900	-0.048	0.095
-153.662	-200.000	-0.004	0.152
-152.647	-192.877	0.272	-0.002
-151.633	641.881	0.059	0.149
-150.618	-34.601	-0.231	-0.125
-149.604	-53.255	-0.211	0.095
-148.589	45.273	0.134	-0.122
-147.574	-52.140	0.106	0.048
-146.560	-14.484	-0.224	-0.142
-145.545	-45.468	0.335	-0.164
-144.531	133.581	-0.149	0.190
-143.516	800.000	-0.043	0.184
-142.502	-128.433	0.227	0.032
-141.487	675.829	-0.031	0.078
-140.472	-158.248	-0.187	-0.011
-139.458	-178.747	0.094	-0.002
-138.443	-42.510	0.330	0.166
-137.429	-194.571	-0.319	0.002
-136.414	-200.000	0.011	-0.272
-135.399	-33.900	-0.218	0.118
-134.385	-55.471	0.236	0.104
-133.370	-200.000	0.024	-0.142
-132.356	-89.825	-0.152	-0.044
-131.341	23.228	0.313	-0.253
-130.326	-166.968	-0.168	0.007
-129.312	-200.000	0.015	-0.112
-128.297	175.964	0.148	-0.211
-127.283	10.674	-0.062	0.046
-126.268	78.177	0.140	-0.147
-125.253	-185.747	-0.263	-0.004
-124.239	21.379	0.145	-0.116
-123.224	-156.322	0.064	0.004
-122.210	1.074	0.105	0.074
