DTS Sentinel unit serial number:	SN413079Multiplexer serial number:	ORYXHardware model number:	OX4-SRSoftware version number:	ORYX F/W v4.00 Oryx Data Collector v3.7.2.0data status	okinstallation	princeton_trtdifferential loss correction	single-endedforward channel	channel 2reverse channel	N/Adate	2019/09/12time	22:55:35forward acquisition time	60.00reverse acquisition time	0.00gamma	496.2192k internal	0.2332k external	0.2332temperature offset calibration	1.0172default loss term (dB/km)	0.3790temperature slope calibration	1.0000multiplexer offset coefficient	1.0000multiplexer slope coefficient	1.0000fibre end	0.00T internal ref (°C)	29.39T ext. ref 1 (°C)	3.73T ext. ref 2 (°C)	23.95length (m)	temperature (°C)	Stokes	anti-Stokes-747.200	-200.000	-0.016	-0.072
-746.185	-106.130	-0.277	0.063
-745.171	-83.448	0.318	0.103
-744.156	72.373	-0.286	-0.300
-743.142	800.000	-0.037	-0.110
-742.127	-200.000	0.012	0.159
-741.112	-5.952	0.083	0.057
-740.098	-200.000	0.003	0.289
-739.083	197.054	-0.172	-0.264
-738.069	99.578	0.046	-0.054
-737.054	38.352	-0.284	0.255
-736.039	-200.000	-0.280	0.001
-735.025	29.273	0.060	0.051
-734.010	-200.000	-0.009	-0.098
-732.996	-139.231	-0.231	-0.025
-731.981	-200.000	0.022	-0.124
-730.966	669.017	0.034	-0.089
-729.952	651.920	-0.047	0.122
-728.937	-200.000	-0.025	-0.182
-727.923	-123.890	-0.241	-0.038
-726.908	-103.631	-0.366	-0.086
-725.894	574.305	0.068	-0.167
-724.879	-200.000	0.007	-0.031
-723.864	-106.209	-0.143	0.032
-722.850	-74.738	-0.106	-0.038
-721.835	-127.549	-0.204	-0.030
-720.821	-72.773	0.374	-0.139
-719.806	-68.998	0.197	-0.076
-718.791	800.000	-0.101	-0.398
-717.777	800.000	-0.052	-0.165
-716.762	-99.716	-0.053	-0.013
-715.748	19.070	-0.125	0.101
-714.733	538.860	-0.059	0.141
-713.718	-82.659	0.337	0.110
-712.704	183.766	0.184	0.273
-711.689	86.413	-0.257	-0.285
-710.675	-65.062	0.192	0.078
-709.660	28.597	0.088	0.075
-708.645	-48.037	-0.084	-0.041
-707.631	-117.232	-0.207	0.038
-706.616	-90.019	-0.207	-0.061
-705.602	497.440	0.109	-0.253
-704.587	518.963	-0.055	0.129
-703.572	222.242	0.201	-0.325
-702.558	114.955	-0.122	0.149
-701.543	33.631	0.173	-0.151
-700.529	220.133	-0.206	-0.332
-699.514	-80.287	0.161	-0.054
-698.499	251.147	-0.161	-0.274
-697.485	-46.639	-0.131	-0.064
-696.470	36.963	0.178	-0.158
-695.456	-200.000	-0.006	-0.029
-694.441	-97.921	-0.105	0.027
-693.426	-24.269	0.226	-0.136
-692.412	-200.000	-0.019	0.188
-691.397	-71.028	-0.111	-0.042
-690.383	39.790	-0.499	-0.450
-689.368	-200.000	-0.010	0.223
-688.354	93.964	0.111	-0.127
-687.339	427.446	-0.015	0.033
-686.324	384.287	0.153	0.317
-685.310	15.598	0.427	0.337
-684.295	800.000	-0.074	0.292
-683.281	-45.578	0.271	0.135
-682.266	-200.000	0.001	-0.012
-681.251	-74.334	0.456	-0.165
-680.237	-200.000	0.019	-0.114
-679.222	8.612	-0.128	0.096
-678.208	119.607	0.085	-0.105
-677.193	-106.814	0.336	0.075
-676.178	800.000	-0.061	-0.197
-675.164	800.000	-0.088	0.252
-674.149	25.189	0.281	-0.234
-673.135	165.430	0.186	-0.263
-672.120	-41.340	-0.061	0.032
-671.105	800.000	0.086	-0.312
-670.091	-11.404	-0.186	0.122
-669.076	-178.489	-0.124	-0.003
-668.062	220.284	-0.183	-0.295
-667.047	800.000	0.044	-0.154
-666.032	23.240	0.125	0.103
-665.018	721.386	-0.083	0.222
-664.003	42.565	0.129	0.118
-662.989	166.619	0.143	0.204
-661.974	95.448	0.188	-0.215
-660.959	-98.879	0.319	-0.081
-659.945	800.000	0.055	0.162
-658.930	-66.165	0.184	-0.074
-657.916	-90.178	0.024	-0.007
-656.901	658.973	0.112	0.289
-655.886	-130.452	-0.290	0.039
-654.872	-61.014	-0.329	0.139
-653.857	82.320	0.063	-0.068
-652.843	203.324	0.015	-0.024
-651.828	23.788	0.165	-0.137
-650.814	-200.000	0.006	0.100
-649.799	-200.000	0.035	-0.227
-648.784	-102.728	-0.093	-0.022
-647.770	800.000	-0.117	-0.325
-646.755	269.940	-0.197	-0.347
-645.741	-200.000	-0.316	-0.001
-644.726	324.381	0.034	-0.066
-643.711	117.818	0.061	-0.075
-642.697	374.865	0.032	0.066
-641.682	-81.460	0.101	-0.033
-640.668	-200.000	-0.007	-0.098
-639.653	21.544	0.144	0.117
-638.638	128.627	-0.097	0.124
-637.624	-48.076	-0.170	-0.082
-636.609	-50.910	0.061	0.029
-635.595	800.000	0.097	-0.334
-634.580	-162.531	-0.223	-0.011
-633.565	464.781	-0.086	0.193
-632.551	-200.000	-0.039	-0.281
-631.536	800.000	-0.125	-0.360
-630.522	15.926	0.137	0.108
-629.507	-64.573	-0.144	0.059
-628.492	63.006	-0.086	-0.086
-627.478	451.922	0.114	-0.252
-626.463	-79.224	0.533	-0.181
-625.449	-98.177	-0.225	0.058
-624.434	22.072	0.055	0.045
-623.419	245.155	-0.198	-0.334
-622.405	-123.393	0.443	-0.071
-621.390	-47.660	0.251	0.122
-620.376	213.592	0.101	-0.160
-619.361	385.634	-0.119	0.247
-618.346	53.440	-0.128	-0.122
-617.332	-94.332	0.198	-0.054
-616.317	635.299	-0.057	-0.144
-615.303	-200.000	0.002	-0.079
-614.288	-0.028	-0.202	-0.144
-613.273	-7.308	0.195	-0.132
-612.259	6.873	0.106	-0.079
-611.244	-77.267	-0.222	0.077
-610.230	297.342	0.132	-0.242
-609.215	-86.927	-0.309	-0.094
-608.201	34.569	-0.232	0.203
-607.186	-50.312	0.247	0.117
-606.171	160.586	-0.199	0.278
-605.157	758.091	-0.098	-0.266
-604.142	-49.007	0.186	-0.089
-603.128	-32.705	0.491	-0.274
-602.113	-21.217	0.219	0.134
-601.098	-62.331	-0.085	-0.036
-600.084	173.569	0.068	-0.098
-599.069	119.435	0.121	0.150
-598.055	-77.082	0.436	-0.152
-597.040	20.182	0.020	-0.016
-596.025	74.042	0.150	-0.157
-595.011	-135.720	0.294	-0.035
-593.996	-200.000	-0.005	0.262
-592.982	4.729	-0.230	0.169
-591.967	-32.125	-0.144	-0.081
-590.952	57.876	0.188	0.184
-589.938	-76.863	0.233	0.081
-588.923	800.000	-0.031	-0.097
-587.909	-200.000	0.010	0.050
-586.894	-146.690	-0.111	-0.010
-585.879	219.007	-0.106	-0.170
-584.865	538.132	-0.145	-0.345
-583.850	220.054	0.057	-0.091
-582.836	7.045	0.071	0.053
-581.821	-200.000	-0.005	-0.106
-580.806	-80.899	0.058	-0.019
-579.792	157.631	-0.048	-0.066
-578.777	142.228	0.227	0.301
-577.763	-125.967	-0.290	-0.044
-576.748	-115.933	-0.150	-0.028
-575.733	-175.856	-0.225	0.006
-574.719	-25.327	-0.261	0.154
-573.704	57.090	0.302	0.295
-572.690	-23.977	0.535	0.320
-571.675	460.834	0.121	-0.269
-570.661	240.697	-0.158	-0.263
-569.646	-63.835	0.079	0.032
-568.631	391.011	0.130	-0.270
-567.617	113.530	0.080	-0.097
-566.602	239.088	0.192	-0.319
-565.588	-149.617	-0.228	-0.018
-564.573	-200.000	-0.058	0.528
-563.558	-200.000	-0.029	-0.358
-562.544	-200.000	-0.072	-0.355
-561.529	-200.000	0.005	0.151
-560.515	-32.862	-0.194	0.108
-559.500	59.579	0.157	-0.154
-558.485	754.375	-0.170	-0.460
-557.471	-45.571	-0.146	0.072
-556.456	-200.000	0.059	0.334
-555.442	800.000	-0.074	0.211
-554.427	-9.298	-0.210	-0.140
-553.412	-157.601	0.006	0.000
-552.398	-22.854	0.072	0.044
-551.383	-27.739	-0.050	0.029
-550.369	150.985	0.127	0.172
-549.354	-200.000	-0.003	-0.388
-548.339	-19.938	-0.128	0.079
-547.325	-12.074	-0.249	-0.163
-546.310	478.354	0.106	0.240
-545.296	-90.178	-0.310	-0.090
-544.281	-130.415	-0.318	-0.043
-543.266	-82.001	0.283	-0.092
-542.252	687.797	-0.075	-0.195
-541.237	62.351	-0.233	-0.232
-540.223	107.249	0.093	-0.110
-539.208	118.510	-0.078	0.096
-538.193	-96.818	0.222	0.058
-537.179	-200.000	0.009	0.123
-536.164	-169.221	0.277	-0.010
-535.150	-58.019	-0.420	-0.183
-534.135	24.844	-0.163	0.135
-533.121	-147.954	-0.160	0.013
-532.106	195.941	-0.049	0.074
-531.091	800.000	0.007	-0.023
-530.077	-111.269	0.291	0.059
-529.062	-137.281	-0.563	-0.064
-528.048	-123.549	-0.381	-0.060
-527.033	144.315	0.099	0.132
-526.018	-163.057	-0.046	0.002
-525.004	800.000	-0.062	-0.222
-523.989	-141.244	-0.174	-0.018
-522.975	59.842	0.086	-0.084
-521.960	508.323	0.143	-0.331
-520.945	-200.000	-0.004	0.222
-519.931	-28.305	0.236	0.136
-518.916	-167.160	-0.350	0.014
-517.902	415.920	-0.119	-0.253
-516.887	800.000	-0.071	-0.297
-515.872	54.792	0.125	0.121
-514.858	476.635	0.176	-0.396
-513.843	800.000	0.076	-0.216
-512.829	-8.247	-0.076	0.051
-511.814	-200.000	-0.033	0.285
-510.799	800.000	-0.076	0.264
-509.785	21.645	0.263	-0.213
-508.770	-200.000	-0.057	-0.279
-507.756	14.057	-0.406	-0.315
-506.741	-70.709	-0.268	-0.101
-505.726	800.000	-0.051	-0.198
-504.712	575.809	0.035	-0.086
-503.697	33.148	0.163	0.141
-502.683	-200.000	-0.031	-0.237
-501.668	46.562	-0.093	-0.086
-500.653	27.314	-0.194	-0.162
-499.639	-97.704	0.241	-0.062
-498.624	707.648	-0.092	0.241
-497.610	-98.243	-0.272	0.070
-496.595	8.256	0.100	0.075
-495.581	174.760	0.223	-0.322
-494.566	-200.000	0.003	0.020
-493.551	-200.000	0.040	-0.353
-492.537	-3.931	0.103	-0.071
-491.522	-46.637	0.126	-0.062
-490.508	-142.016	-0.297	0.029
-489.493	-200.000	-0.064	0.286
-488.478	70.271	0.216	0.222
-487.464	-180.689	0.225	-0.005
-486.449	-11.581	0.066	-0.043
-485.435	-200.000	0.018	0.159
-484.420	-67.594	-0.247	-0.097
-483.405	-200.000	-0.002	-0.057
-482.391	366.074	0.114	-0.230
-481.376	177.347	0.163	-0.236
-480.362	-156.231	0.354	0.022
-479.347	800.000	0.064	0.190
-478.332	25.913	-0.062	0.052
-477.318	-89.801	-0.121	0.035
-476.303	49.698	0.325	0.305
-475.289	-98.957	0.197	0.050
-474.274	219.213	-0.061	0.097
-473.259	-183.385	-0.333	-0.006
-472.245	-102.679	0.440	-0.104
-471.230	-155.130	-0.442	0.029
-470.216	-39.049	-0.351	-0.184
-469.201	-200.000	-0.021	0.144
-468.186	222.725	0.238	0.381
-467.172	800.000	0.082	-0.352
-466.157	68.403	-0.101	0.103
-465.143	-95.134	-0.150	-0.040
-464.128	182.126	-0.098	-0.143
-463.113	-131.542	-0.110	0.014
-462.099	19.910	-0.097	0.078
-461.084	-122.619	-0.051	0.008
-460.070	800.000	-0.052	-0.174
-459.055	5.295	0.198	-0.145
-458.040	-128.013	0.349	0.050
-457.026	11.126	-0.066	-0.051
-456.011	253.030	0.098	0.166
-454.997	-110.525	-0.253	-0.052
-453.982	106.947	0.036	0.043
-452.968	51.885	-0.023	-0.021
-451.953	29.654	0.099	0.084
-450.938	-112.771	-0.082	0.016
-449.924	132.496	0.192	0.246
-448.909	17.562	-0.345	-0.273
-447.895	286.869	-0.042	-0.075
-446.880	-132.608	0.218	-0.028
-445.865	-39.228	-0.332	0.174
-444.851	217.152	-0.145	0.230
-443.836	-200.000	0.004	-0.125
-442.822	-200.000	0.021	0.270
-441.807	130.973	-0.044	-0.056
-440.792	-89.492	0.142	-0.042
-439.778	-83.341	-0.211	-0.067
-438.763	-17.459	-0.252	0.157
-437.749	800.000	-0.092	-0.263
-436.734	-168.343	-0.147	0.006
-435.719	-88.074	-0.223	-0.067
-434.705	326.305	-0.039	0.073
-433.690	130.469	0.115	-0.146
-432.676	-14.517	-0.279	0.179
-431.661	-148.943	-0.166	0.013
-430.646	359.443	0.154	-0.306
-429.632	26.405	-0.202	0.168
-428.617	-156.635	0.092	0.006
-427.603	-200.000	-0.001	-0.143
-426.588	-200.000	-0.003	0.111
-425.573	-38.201	0.074	0.039
-424.559	582.958	0.081	0.196
-423.544	-60.012	0.305	-0.130
-422.530	-98.176	-0.475	0.121
-421.515	-175.920	-0.132	-0.003
-420.500	127.509	-0.206	0.260
-419.486	-164.902	0.235	0.010
-418.471	273.957	-0.018	0.032
-417.457	800.000	0.053	-0.157
-416.442	-22.160	0.222	0.134
-415.428	-200.000	0.004	-0.081
-414.413	-52.718	0.213	-0.098
-413.398	-159.993	-0.212	-0.011
-412.384	116.702	0.385	-0.469
-411.369	243.260	0.067	-0.112
-410.355	-200.000	-0.020	-0.129
-409.340	0.188	0.126	-0.089
-408.325	-198.123	-0.204	0.001
-407.311	-28.806	-0.084	-0.048
-406.296	-200.000	0.001	0.030
-405.282	770.744	0.021	0.056
-404.267	144.546	0.046	0.060
-403.252	192.451	0.034	-0.051
-402.238	131.587	-0.044	-0.056
-401.223	385.040	-0.082	0.168
-400.209	-135.219	-0.325	0.039
-399.194	560.144	-0.055	0.132
-398.179	-200.000	0.087	-0.420
-397.165	-2.017	0.160	0.112
-396.150	15.749	0.224	0.175
-395.136	406.565	0.039	0.081
-394.121	431.529	0.095	0.204
-393.106	800.000	0.036	0.125
-392.092	-90.778	-0.275	0.079
-391.077	20.963	0.307	0.247
-390.063	-167.471	-0.064	0.003
-389.048	-38.177	0.113	-0.059
-388.033	-64.565	0.264	-0.106
-387.019	665.001	0.101	0.258
-386.004	-200.000	0.024	-0.211
-384.990	800.000	-0.012	0.043
-383.975	110.322	0.125	0.148
-382.960	91.532	-0.229	0.256
-381.946	-47.498	0.269	-0.130
-380.931	-200.000	0.014	0.465
-379.917	-200.000	-0.040	0.198
-378.902	-92.519	-0.359	0.100
-377.888	-200.000	-0.037	0.160
-376.873	4.629	0.166	-0.121
-375.858	-134.041	0.183	0.022
-374.844	-81.873	0.321	0.104
-373.829	-200.000	0.040	0.500
-372.815	-137.351	-0.192	0.022
-371.800	-52.719	0.279	-0.128
-370.785	-138.852	-0.322	-0.035
-369.771	-200.000	0.080	0.408
-368.756	90.231	0.150	0.167
-367.742	-200.000	0.008	-0.252
-366.727	55.075	0.020	0.019
-365.712	154.942	0.144	0.197
-364.698	89.067	0.030	0.034
-363.683	-149.142	0.356	-0.028
-362.669	-178.307	-0.080	-0.002
-361.654	-200.000	-0.015	0.098
-360.639	-1.486	0.243	0.170
-359.625	-33.617	-0.097	-0.053
-358.610	-200.000	0.004	0.078
-357.596	302.977	-0.046	0.084
-356.581	-200.000	0.003	0.099
-355.566	567.884	0.030	0.072
-354.552	-200.000	0.047	-0.412
-353.537	121.449	0.197	0.243
-352.523	6.901	-0.139	-0.103
-351.508	649.622	0.096	0.244
-350.493	-200.000	0.005	-0.264
-349.479	77.072	-0.104	-0.109
-348.464	-200.000	-0.204	0.000
-347.450	458.689	0.026	0.057
-346.435	800.000	0.007	0.032
-345.420	-200.000	0.049	-0.442
-344.406	-139.790	0.428	0.045
-343.391	230.925	-0.302	-0.490
-342.377	99.352	-0.212	0.243
-341.362	0.219	-0.276	0.195
-340.348	800.000	-0.098	0.356
-339.333	-147.037	-0.052	-0.004
-338.318	-61.794	-0.217	0.090
-337.304	800.000	0.109	-0.353
-336.289	800.000	-0.079	0.268
-335.275	-200.000	0.050	-0.241
-334.260	370.855	-0.208	0.419
-333.245	145.406	0.071	-0.094
-332.231	-117.720	0.277	-0.049
-331.216	800.000	0.124	-0.402
-330.202	-200.000	0.002	-0.012
-329.187	-94.372	-0.336	-0.091
-328.172	-200.000	0.025	0.278
-327.158	360.428	-0.116	0.229
-326.143	-98.146	-0.335	-0.085
-325.129	66.908	-0.166	0.168
-324.114	52.127	0.174	0.165
-323.099	-200.000	0.021	0.315
-322.085	335.389	0.051	0.098
-321.070	-200.000	0.038	-0.198
-320.056	163.792	-0.050	-0.070
-319.041	800.000	0.009	0.030
-318.026	146.989	-0.055	-0.073
-317.012	-15.881	0.277	0.174
-315.997	491.793	-0.016	-0.035
-314.983	-158.719	-0.076	0.004
-313.968	109.104	-0.095	-0.112
-312.953	-200.000	-0.018	-0.127
-311.939	358.571	-0.193	0.382
-310.924	246.693	0.170	-0.284
-309.910	-200.000	-0.013	-0.370
-308.895	-200.000	-0.028	-0.267
-307.880	-18.741	-0.280	0.173
-306.866	-200.000	-0.015	0.087
-305.851	-200.000	0.041	-0.208
-304.837	40.323	-0.200	-0.178
-303.822	506.017	0.047	0.107
-302.807	800.000	-0.032	0.137
-301.793	116.016	0.103	-0.125
-300.778	-98.843	0.213	0.054
-299.764	-23.351	-0.104	0.062
-298.749	-50.053	0.087	-0.041
-297.735	333.081	-0.118	0.226
-296.720	-200.000	0.048	0.262
-295.705	184.307	-0.177	-0.259
-294.691	-103.951	-0.195	0.045
-293.676	120.301	0.030	-0.036
-292.662	172.705	-0.046	0.065
-291.647	-36.771	0.271	-0.144
-290.632	33.564	-0.303	-0.260
-289.618	800.000	-0.070	-0.249
-288.603	181.303	-0.085	-0.123
-287.589	34.971	0.212	-0.184
-286.574	20.887	0.032	-0.026
-285.559	800.000	-0.108	0.309
-284.545	-92.832	0.075	-0.021
-283.530	189.940	0.168	0.249
-282.516	-157.195	0.364	0.022
-281.501	130.325	0.182	-0.230
-280.486	-106.091	-0.343	0.076
-279.472	235.636	0.157	0.256
-278.457	26.970	-0.188	0.156
-277.443	-92.111	0.187	-0.052
-276.428	-200.000	-0.020	0.253
-275.413	38.383	0.143	-0.126
-274.399	-145.477	0.481	-0.043
-273.384	37.133	0.205	0.180
-272.370	-37.783	-0.136	0.071
-271.355	-57.566	-0.222	-0.096
-270.340	63.728	-0.150	0.149
-269.326	-61.019	0.040	-0.017
-268.311	-123.134	-0.195	-0.031
-267.297	800.000	-0.050	0.155
-266.282	539.269	-0.073	0.172
-265.267	-160.867	-0.295	0.015
-264.253	-93.989	-0.060	0.016
-263.238	-200.000	0.002	-0.074
-262.224	-11.925	0.219	0.142
-261.209	133.902	-0.031	-0.040
-260.195	364.703	-0.141	-0.279
-259.180	-28.500	0.133	-0.076
-258.165	-67.299	0.394	0.153
-257.151	148.453	0.115	-0.153
-256.136	-47.488	-0.172	0.083
-255.122	-32.181	0.201	0.111
-254.107	509.648	0.011	0.024
-253.092	-76.828	-0.061	0.021
-252.078	-61.698	0.435	0.180
-251.063	800.000	0.037	0.154
-250.049	-63.818	0.369	0.149
-249.034	-123.722	-0.177	-0.028
-248.019	-40.827	-0.088	-0.045
-247.005	-28.605	-0.141	0.080
-245.990	12.440	0.173	0.132
-244.976	172.139	0.144	0.204
-243.961	-64.725	0.164	-0.065
-242.946	14.573	-0.191	0.147
-241.932	-200.000	0.007	0.136
-240.917	226.955	0.075	-0.120
-239.903	84.625	-0.089	-0.096
-238.888	96.545	0.187	0.212
-237.873	350.233	-0.051	0.099
-236.859	276.390	0.045	-0.079
-235.844	-198.280	0.258	-0.001
-234.830	-200.000	0.010	-0.106
-233.815	-136.728	-0.227	0.026
-232.800	165.445	0.110	-0.153
-231.786	-200.000	-0.043	0.250
-230.771	-130.239	0.272	-0.037
-229.757	17.003	-0.139	-0.109
-228.742	-200.000	-0.046	-0.245
-227.727	800.000	-0.049	0.154
-226.713	-66.221	-0.114	0.045
-225.698	-200.000	-0.109	0.000
-224.684	-65.534	0.140	0.056
-223.669	800.000	-0.105	0.298
-222.655	-38.978	-0.149	0.077
-221.640	22.432	0.074	-0.060
-220.625	43.189	0.269	0.242
-219.611	-200.000	-0.016	0.181
-218.596	56.419	0.194	0.186
-217.582	-42.821	0.269	0.135
-216.567	21.797	0.118	0.095
-215.552	-144.133	-0.447	-0.041
-214.538	-200.000	0.050	0.280
-213.523	12.266	0.335	0.254
-212.509	-37.801	0.396	0.208
-211.494	-10.192	-0.310	0.203
-210.479	-44.343	0.373	0.184
-209.465	-101.257	0.200	-0.048
-208.450	134.228	0.204	-0.261
-207.436	-200.000	-0.094	-0.524
-206.421	780.566	0.022	0.059
-205.406	-24.732	0.446	0.261
-204.392	-200.000	-0.005	0.069
-203.377	-92.826	-0.160	0.044
-202.363	-0.580	-0.208	0.145
-201.348	6.995	-0.244	0.179
-200.333	33.150	-0.222	0.189
-199.319	800.000	0.063	-0.170
-198.304	-200.000	-0.009	0.197
-197.290	-200.000	-0.020	-0.111
-196.275	-87.942	-0.345	0.102
-195.260	-10.212	0.282	-0.184
-194.246	-51.578	0.136	0.063
-193.231	662.249	0.039	0.100
-192.217	-200.000	-0.036	-0.178
-191.202	800.000	0.111	0.409
-190.187	251.894	0.121	0.203
-189.173	63.472	0.084	0.083
-188.158	483.095	0.078	-0.176
-187.144	15.994	-0.264	0.205
-186.129	333.067	0.053	0.101
-185.114	800.000	0.056	0.240
-184.100	-21.089	0.112	-0.068
-183.085	-70.856	-0.339	-0.126
-182.071	39.577	-0.017	0.015
-181.056	-200.000	0.023	0.289
-180.042	487.909	-0.127	0.286
-179.027	-82.853	0.246	-0.078
-178.012	-200.000	-0.043	-0.201
-176.998	-200.000	-0.015	-0.097
-175.983	219.648	-0.061	0.096
-174.969	-200.000	0.020	0.234
-173.954	800.000	0.015	-0.064
-172.939	314.461	0.067	-0.125
-171.925	-68.893	0.273	-0.104
-170.910	800.000	-0.101	0.285
-169.896	-32.766	-0.133	0.073
-168.881	-86.520	0.085	0.026
-167.866	152.661	-0.223	-0.299
-166.852	455.037	-0.155	-0.338
-165.837	800.000	-0.091	0.279
-164.823	332.252	0.122	-0.231
-163.808	357.700	-0.151	-0.297
-162.793	145.928	-0.089	0.118
-161.779	-98.429	-0.213	-0.054
-160.764	-164.211	0.134	-0.006
-159.750	-43.965	0.189	-0.093
-158.735	-143.701	-0.078	-0.007
-157.720	-200.000	-0.074	-0.411
-156.706	800.000	-0.104	0.354
-155.691	750.155	0.065	0.172
-154.677	237.727	-0.171	-0.279
-153.662	222.580	-0.048	-0.076
-152.647	-109.734	-0.165	-0.034
-151.633	-200.000	0.037	-0.213
-150.618	-18.789	0.168	-0.103
-149.604	800.000	0.038	0.148
-148.589	800.000	-0.054	0.213
-147.574	-33.990	0.232	-0.125
-146.560	67.569	-0.112	-0.112
-145.545	-32.759	0.172	0.094
-144.531	-200.000	-0.043	-0.389
-143.516	124.494	0.348	0.431
-142.502	-200.000	0.007	-0.047
-141.487	800.000	-0.053	0.216
-140.472	800.000	-0.029	0.125
-139.458	800.000	-0.076	-0.219
-138.443	-72.519	0.230	0.084
-137.429	-160.750	-0.041	0.002
-136.414	800.000	-0.069	-0.200
-135.399	-20.208	0.032	-0.019
-134.385	-120.101	-0.338	0.057
-133.370	148.041	0.190	0.252
-132.356	-98.024	0.180	0.046
-131.341	-66.345	0.187	0.073
-130.326	-41.579	-0.135	0.068
-129.312	4.705	-0.068	-0.049
-128.297	-200.000	-0.001	-0.005
-127.283	727.792	-0.068	0.180
-126.268	195.085	0.168	0.250
-125.253	529.970	-0.074	-0.171
-124.239	397.262	0.085	-0.174
-123.224	-24.680	-0.280	0.163
-122.210	-33.259	0.246	-0.134
-121.195	-43.939	-0.331	-0.163
