DTS Sentinel unit serial number:	SN413079Multiplexer serial number:	ORYXHardware model number:	OX4-SRSoftware version number:	ORYX F/W v4.00 Oryx Data Collector v3.7.2.0data status	okinstallation	princeton_trtdifferential loss correction	single-endedforward channel	channel 2reverse channel	N/Adate	2019/09/16time	08:39:35forward acquisition time	60.00reverse acquisition time	0.00gamma	496.2192k internal	0.2326k external	0.2326temperature offset calibration	0.9977default loss term (dB/km)	0.3790temperature slope calibration	1.0000multiplexer offset coefficient	1.0000multiplexer slope coefficient	1.0000fibre end	0.00T internal ref (°C)	29.59T ext. ref 1 (°C)	11.94T ext. ref 2 (°C)	26.43length (m)	temperature (°C)	Stokes	anti-Stokes-747.200	234.170	-0.165	-0.274
-746.185	58.128	0.126	0.125
-745.171	242.346	0.202	0.341
-744.156	636.857	0.090	0.230
-743.142	-99.340	-0.077	-0.020
-742.127	20.127	0.018	0.015
-741.112	-87.740	-0.220	-0.067
-740.098	14.477	-0.175	0.138
-739.083	-66.876	0.160	0.064
-738.069	53.224	-0.192	0.185
-737.054	-110.793	0.278	-0.058
-736.039	-42.919	0.126	0.065
-735.025	-66.012	0.132	0.053
-734.010	-70.155	-0.476	0.182
-732.996	-80.585	-0.116	0.039
-731.981	-200.000	-0.004	0.142
-730.966	-53.400	0.290	0.134
-729.952	29.450	-0.161	-0.138
-728.937	205.888	-0.075	-0.117
-727.923	-126.036	-0.295	-0.045
-726.908	517.299	-0.059	0.139
-725.894	-200.000	-0.033	-0.336
-724.879	1.742	0.274	0.199
-723.864	84.499	0.160	0.177
-722.850	-66.368	-0.344	-0.138
-721.835	800.000	-0.084	-0.238
-720.821	-102.668	-0.184	0.044
-719.806	-200.000	-0.020	0.151
-718.791	-21.657	-0.094	-0.058
-717.777	-148.943	0.174	0.014
-716.762	360.342	0.141	-0.284
-715.748	278.005	-0.020	-0.037
-714.733	65.195	-0.170	0.173
-713.718	-200.000	-0.009	-0.352
-712.704	-179.330	0.157	-0.004
-711.689	-32.353	-0.288	-0.162
-710.675	475.430	-0.116	-0.264
-709.660	103.256	0.080	-0.094
-708.645	9.367	-0.325	0.248
-707.631	-200.000	0.055	-0.339
-706.616	-142.388	-0.356	0.035
-705.602	-167.132	0.284	0.012
-704.587	-131.300	0.135	-0.018
-703.572	-23.008	-0.194	0.118
-702.558	37.294	0.369	-0.329
-701.543	14.015	-0.107	-0.084
-700.529	10.615	-0.121	-0.093
-699.514	247.392	-0.133	-0.227
-698.499	-94.038	-0.196	0.054
-697.485	516.267	-0.056	-0.131
-696.470	61.698	-0.155	-0.155
-695.456	186.823	-0.277	-0.415
-694.441	-18.148	-0.196	-0.123
-693.426	-75.023	-0.369	0.133
-692.412	382.263	0.148	-0.305
-691.397	164.781	0.104	-0.147
-690.383	133.745	-0.147	-0.192
-689.368	78.407	0.203	-0.218
-688.354	-123.992	0.329	0.052
-687.339	183.493	-0.285	0.424
-686.324	24.076	-0.184	0.153
-685.310	13.015	-0.037	0.029
-684.295	30.981	-0.169	0.146
-683.281	212.757	0.187	-0.298
-682.266	-200.000	-0.040	-0.239
-681.251	800.000	0.073	0.276
-680.237	-26.591	-0.226	-0.133
-679.222	-83.049	0.207	-0.067
-678.208	-200.000	0.017	-0.206
-677.193	61.629	-0.031	-0.031
-676.178	-86.634	-0.254	-0.078
-675.164	800.000	-0.095	-0.308
-674.149	800.000	-0.035	0.150
-673.135	-20.543	-0.201	0.124
-672.120	-130.168	0.371	-0.051
-671.105	24.344	0.159	-0.132
-670.091	257.235	-0.148	-0.256
-669.076	-200.000	0.039	-0.240
-668.062	800.000	0.057	0.225
-667.047	-200.000	0.001	-0.192
-666.032	-200.000	-0.019	-0.095
-665.018	-200.000	-0.033	-0.162
-664.003	36.978	0.203	-0.181
-662.989	-200.000	-0.020	0.109
-661.974	-142.262	-0.128	-0.013
-660.959	708.291	-0.134	-0.356
-659.945	273.619	-0.027	-0.048
-658.930	-126.754	0.116	-0.017
-657.916	569.843	0.055	0.135
-656.901	-138.422	0.177	0.020
-655.886	-59.400	0.286	0.123
-654.872	-200.000	-0.010	0.075
-653.857	18.987	-0.150	0.121
-652.843	106.722	0.229	-0.272
-651.828	2.764	0.166	0.121
-650.814	800.000	0.091	-0.264
-649.799	-200.000	-0.077	-0.356
-648.784	-107.241	0.344	-0.076
-647.770	-200.000	0.029	-0.575
-646.755	-200.000	0.007	-0.112
-645.741	546.082	-0.123	-0.295
-644.726	45.146	0.062	0.058
-643.711	-151.322	0.138	-0.010
-642.697	464.572	0.113	-0.253
-641.682	-200.000	-0.018	0.093
-640.668	-99.679	0.129	-0.033
-639.653	-78.241	-0.116	-0.040
-638.638	156.745	-0.144	0.200
-637.624	14.997	-0.178	0.140
-636.609	-87.875	-0.311	0.094
-635.595	-43.666	0.117	-0.059
-634.580	-31.911	-0.169	0.095
-633.565	193.269	0.101	-0.154
-632.551	281.853	-0.226	-0.407
-631.536	-98.447	-0.338	-0.087
-630.522	-70.467	0.119	-0.045
-629.507	-133.801	-0.287	-0.036
-628.492	-2.669	-0.162	0.114
-627.478	800.000	-0.044	-0.179
-626.463	-200.000	0.016	-0.501
-625.449	357.392	0.108	0.216
-624.434	-200.000	-0.007	0.218
-623.419	147.008	0.006	-0.009
-622.405	800.000	0.112	-0.341
-621.390	132.175	0.163	0.210
-620.376	38.235	-0.210	-0.188
-619.361	772.567	0.053	0.144
-618.346	-200.000	0.011	0.067
-617.332	-127.969	-0.116	-0.017
-616.317	-200.000	0.040	-0.274
-615.303	569.215	-0.110	0.268
-614.288	124.550	0.198	-0.249
-613.273	303.823	-0.095	-0.176
-612.259	800.000	-0.033	-0.127
-611.244	-131.864	-0.298	-0.039
-610.230	-12.096	-0.317	-0.208
-609.215	-173.218	0.161	0.005
-608.201	199.670	0.092	0.142
-607.186	-42.442	0.376	0.192
-606.171	800.000	-0.077	0.250
-605.157	-156.884	-0.177	0.011
-604.142	226.413	0.040	-0.066
-603.128	800.000	-0.035	-0.151
-602.113	-43.958	-0.088	0.044
-601.098	17.889	-0.255	0.204
-600.084	-135.927	0.352	0.042
-599.069	9.375	0.082	0.063
-598.055	155.199	0.009	-0.013
-597.040	-11.136	0.124	-0.082
-596.025	60.042	-0.189	-0.187
-595.011	-49.662	-0.142	-0.068
-593.996	-57.144	0.081	-0.036
-592.982	800.000	0.090	0.343
-591.967	800.000	-0.046	-0.148
-590.952	165.809	-0.167	0.236
-589.938	-200.000	0.004	-0.048
-588.923	-86.555	-0.342	-0.105
-587.909	-96.426	-0.291	0.077
-586.894	-61.465	-0.316	0.133
-585.879	-131.981	0.190	0.025
-584.865	101.134	0.069	-0.080
-583.850	-26.048	-0.192	0.113
-582.836	-20.031	0.202	-0.125
-581.821	-200.000	-0.035	-0.296
-580.806	-200.000	0.072	-0.436
-579.792	120.098	0.154	-0.191
-578.777	399.754	0.076	0.161
-577.763	-180.258	0.129	0.003
-576.748	471.363	0.041	0.093
-575.733	-200.000	-0.006	0.127
-574.719	-1.650	-0.347	0.245
-573.704	-200.000	-0.039	0.231
-572.690	-200.000	-0.002	-0.358
-571.675	207.779	-0.112	0.176
-570.661	71.624	-0.127	0.133
-569.646	45.005	0.165	0.152
-568.631	800.000	0.026	-0.109
-567.617	20.425	0.188	-0.152
-566.602	36.495	0.173	0.153
-565.588	-118.113	0.088	0.016
-564.573	-4.478	-0.193	0.134
-563.558	210.388	-0.123	0.193
-562.544	-88.388	0.237	0.071
-561.529	-200.000	-0.031	-0.285
-560.515	58.232	0.142	-0.139
-559.500	-163.716	-0.286	-0.013
-558.485	800.000	-0.102	-0.286
-557.471	-200.000	0.016	-0.085
-556.456	106.876	-0.048	0.057
-555.442	81.089	0.293	-0.317
-554.427	-52.341	-0.167	-0.078
-553.412	31.391	0.009	0.007
-552.398	-141.461	-0.463	0.047
-551.383	-200.000	0.010	0.183
-550.369	-200.000	0.027	0.257
-549.354	-73.252	-0.432	0.158
-548.339	593.726	-0.066	-0.164
-547.325	-58.268	-0.513	-0.224
-546.310	37.469	-0.249	-0.221
-545.296	-95.366	0.261	0.070
-544.281	227.739	-0.120	0.195
-543.266	-200.000	-0.018	0.140
-542.252	109.615	-0.180	-0.216
-541.237	-98.566	-0.205	0.052
-540.223	-16.280	0.224	0.142
-539.208	5.555	-0.082	0.061
-538.193	93.450	-0.155	-0.175
-537.179	-146.683	0.327	0.028
-536.164	-24.918	-0.009	0.005
-535.150	-44.068	0.290	0.145
-534.135	-115.059	0.075	0.014
-533.121	31.032	-0.205	-0.176
-532.106	-200.000	-0.002	0.040
-531.091	29.198	0.024	-0.021
-530.077	-118.809	-0.154	0.027
-529.062	-84.756	0.161	-0.051
-528.048	160.191	-0.076	0.105
-527.033	-149.807	-0.117	-0.009
-526.018	-18.747	0.464	-0.289
-525.004	800.000	0.054	-0.189
-523.989	-45.124	0.044	0.022
-522.975	-200.000	0.035	0.255
-521.960	800.000	0.063	-0.207
-520.945	91.585	0.107	-0.120
-519.931	337.170	-0.038	0.074
-518.916	-133.853	-0.064	-0.008
-517.902	-101.895	-0.295	-0.071
-516.887	590.263	-0.068	0.168
-515.872	135.426	0.040	0.051
-514.858	351.841	-0.100	0.199
-513.843	-200.000	0.007	-0.256
-512.829	-88.401	0.141	0.042
-511.814	-156.436	-0.179	0.011
-510.799	800.000	-0.103	0.328
-509.785	-115.628	0.166	0.031
-508.770	-9.884	-0.089	0.059
-507.756	-200.000	0.014	0.164
-506.741	128.135	0.272	-0.345
-505.726	-200.000	0.012	-0.115
-504.712	-63.564	-0.091	0.037
-503.697	-10.949	0.103	0.068
-502.683	-165.166	0.123	-0.005
-501.668	-200.000	0.003	-0.054
-500.653	-126.243	-0.198	-0.030
-499.639	-34.197	0.019	0.010
-498.624	-40.284	0.284	0.148
-497.610	-200.000	0.008	0.340
-496.595	-200.000	-0.009	0.221
-495.581	-200.000	0.001	-0.093
-494.566	3.877	0.164	-0.120
-493.551	159.761	-0.079	0.110
-492.537	-102.985	-0.389	0.092
-491.522	-200.000	-0.017	-0.188
-490.508	-200.000	-0.027	0.177
-489.493	-181.170	0.117	-0.002
-488.478	-70.234	-0.319	-0.121
-487.464	-14.396	-0.220	-0.141
-486.449	-28.999	-0.193	-0.110
-485.435	800.000	0.035	0.126
-484.420	-24.384	0.204	0.122
-483.405	-123.642	0.305	-0.048
-482.391	800.000	-0.056	0.226
-481.376	76.016	0.260	0.275
-480.362	656.380	0.136	-0.348
-479.347	25.730	0.087	-0.072
-478.332	161.904	-0.228	-0.319
-477.318	-63.108	0.258	0.106
-476.303	404.277	-0.032	-0.066
-475.289	92.488	-0.098	-0.111
-474.274	13.852	0.060	0.046
-473.259	331.530	-0.045	0.086
-472.245	82.412	0.087	-0.094
-471.230	-200.000	-0.009	0.083
-470.216	-157.398	0.191	0.011
-469.201	800.000	0.049	0.197
-468.186	-200.000	-0.006	0.146
-467.172	-120.869	0.232	0.039
-466.157	-103.539	0.049	-0.011
-465.143	-200.000	0.013	-0.431
-464.128	1.467	-0.013	0.010
-463.113	-63.515	0.044	-0.018
-462.099	-7.437	-0.131	0.089
-461.084	762.805	-0.050	0.136
-460.070	-109.471	0.114	-0.024
-459.055	-200.000	0.007	0.105
-458.040	-133.881	0.123	-0.015
-457.026	197.482	0.222	0.337
-456.011	145.325	-0.054	0.072
-454.997	-11.484	0.226	0.148
-453.982	726.562	-0.092	0.245
-452.968	-200.000	0.062	-0.319
-451.953	109.688	0.191	-0.228
-450.938	32.503	-0.268	0.231
-449.924	-23.069	0.427	-0.257
-448.909	-200.000	-0.018	0.158
-447.895	800.000	-0.036	-0.155
-446.880	64.577	-0.238	0.239
-445.865	199.113	-0.191	0.292
-444.851	298.010	-0.131	-0.240
-443.836	-200.000	0.012	-0.229
-442.822	-128.718	-0.153	-0.021
-441.807	-200.000	-0.030	-0.186
-440.792	75.992	-0.195	-0.206
-439.778	483.943	-0.125	0.282
-438.763	-36.951	0.409	0.218
-437.749	-200.000	-0.009	-0.308
-436.734	16.385	-0.327	-0.257
-435.719	-129.796	0.077	-0.010
-434.705	-8.810	-0.107	-0.071
-433.690	34.937	-0.182	0.159
-432.676	800.000	0.045	-0.154
-431.661	-56.235	-0.249	0.110
-430.646	18.041	0.130	0.103
-429.632	54.850	0.093	0.089
-428.617	-142.414	-0.206	0.020
-427.603	-142.280	0.342	-0.034
-426.588	-147.045	0.220	0.019
-425.573	-200.000	-0.046	-0.212
-424.559	-5.922	0.102	0.069
-423.544	724.537	-0.074	0.196
-422.530	81.549	0.164	0.176
-421.515	-62.726	0.085	0.035
-420.500	142.170	-0.100	0.132
-419.486	-79.585	-0.286	-0.096
-418.471	-153.141	-0.445	0.031
-417.457	-180.460	0.149	-0.003
-416.442	-156.561	-0.145	-0.009
-415.428	104.175	-0.171	0.200
-414.413	37.544	0.177	-0.157
-413.398	64.330	0.138	-0.139
-412.384	-150.578	0.318	0.024
-411.369	800.000	0.094	0.338
-410.355	-200.000	0.001	-0.165
-409.340	67.843	-0.031	0.032
-408.325	270.240	-0.060	0.106
-407.311	-90.921	0.187	0.054
-406.296	-10.457	-0.253	-0.167
-405.282	-200.000	-0.029	0.204
-404.267	-65.738	-0.242	-0.097
-403.252	-176.215	-0.311	-0.008
-402.238	-102.879	-0.181	-0.043
-401.223	800.000	-0.108	-0.360
-400.209	157.723	0.044	-0.061
-399.194	72.677	0.122	-0.127
-398.179	41.630	-0.186	0.168
-397.165	-45.584	-0.207	0.102
-396.150	-122.181	0.357	-0.058
-395.136	-69.787	-0.043	-0.016
-394.121	-200.000	-0.036	0.356
-393.106	141.317	0.044	0.057
-392.092	-98.112	-0.251	-0.064
-391.077	800.000	0.053	0.175
-390.063	-145.071	0.213	-0.019
-389.048	-18.981	0.126	0.078
-388.033	-123.750	-0.236	0.037
-387.019	-19.895	0.229	0.141
-386.004	-76.667	-0.050	-0.017
-384.990	-113.630	-0.139	0.027
-383.975	-124.202	-0.198	-0.031
-382.960	493.279	-0.100	-0.228
-381.946	-92.215	-0.052	-0.015
-380.931	409.037	0.171	-0.360
-379.917	800.000	-0.035	0.121
-378.902	90.663	-0.151	-0.168
-377.888	-200.000	-0.017	0.267
-376.873	-103.521	-0.330	0.077
-375.858	25.254	0.250	-0.206
-374.844	793.420	-0.022	-0.061
-373.829	-145.419	0.147	-0.013
-372.815	800.000	0.099	0.291
-371.800	97.271	-0.201	0.230
-370.785	363.127	0.065	0.131
-369.771	-44.410	0.151	-0.075
-368.756	-94.047	0.253	-0.069
-367.742	-75.899	0.082	0.029
-366.727	128.235	-0.049	-0.062
-365.712	237.903	0.036	0.060
-364.698	786.337	0.088	-0.241
-363.683	-28.090	-0.259	0.149
-362.669	-200.000	-0.034	0.150
-361.654	537.596	0.156	-0.368
-360.639	-200.000	-0.007	-0.111
-359.625	-200.000	0.009	0.153
-358.610	-200.000	-0.007	0.168
-357.596	32.940	-0.096	0.082
-356.581	51.690	-0.184	-0.174
-355.566	328.949	-0.063	0.120
-354.552	-136.147	0.215	0.025
-353.537	-51.354	0.053	-0.024
-352.523	107.750	-0.239	0.282
-351.508	-200.000	0.000	-0.031
-350.493	-200.000	-0.011	-0.189
-349.479	-3.712	0.302	0.208
-348.464	69.257	0.100	-0.102
-347.450	-200.000	0.009	-0.144
-346.435	-29.290	0.104	0.059
-345.420	-200.000	0.056	-0.388
-344.406	111.411	-0.157	0.188
-343.391	800.000	-0.064	-0.197
-342.377	-200.000	-0.007	-0.140
-341.362	-126.921	-0.358	-0.052
-340.348	321.930	-0.202	0.381
-339.333	328.524	-0.148	-0.282
-338.318	-187.816	0.169	-0.002
-337.304	-200.000	0.024	-0.121
-336.289	-118.811	-0.271	0.047
-335.275	-200.000	0.040	0.256
-334.260	351.645	-0.029	0.057
-333.245	-91.708	0.400	-0.113
-332.231	-125.467	0.099	0.015
-331.216	-200.000	0.017	-0.159
-330.202	-130.452	0.249	0.033
-329.187	-123.028	0.232	-0.037
-328.172	423.846	0.017	0.037
-327.158	-1.258	-0.323	-0.226
-326.143	58.147	-0.362	0.352
-325.129	187.038	0.035	-0.051
-324.114	139.629	0.282	0.368
-323.099	252.416	-0.118	0.199
-322.085	15.145	0.227	0.176
-321.070	-56.503	0.096	0.042
-320.056	-180.073	0.235	0.005
-319.041	-200.000	-0.026	0.237
-318.026	234.092	-0.089	-0.146
-317.012	-52.678	-0.353	-0.161
-315.997	-50.089	0.118	0.055
-314.983	24.747	0.034	-0.028
-313.968	-108.948	-0.324	0.069
-312.953	-150.752	0.385	-0.029
-311.939	-181.974	0.105	0.002
-310.924	-108.869	-0.149	-0.032
-309.910	-9.344	0.084	-0.056
-308.895	-120.005	0.287	0.049
-307.880	515.985	0.043	-0.099
-306.866	198.311	-0.074	0.112
-305.851	-59.258	0.284	-0.121
-304.837	-84.130	0.111	0.035
-303.822	-131.764	-0.063	-0.008
-302.807	93.166	0.225	0.252
-301.793	-200.000	0.002	0.197
-300.778	-80.617	-0.169	-0.056
-299.764	-3.810	-0.108	0.074
-298.749	-200.000	0.015	-0.124
-297.735	484.932	-0.164	-0.370
-296.720	-26.114	0.484	-0.282
-295.705	-200.000	0.022	-0.105
-294.691	58.123	-0.097	0.094
-293.676	130.440	0.138	-0.176
-292.662	392.641	-0.179	-0.368
-291.647	29.876	-0.052	-0.044
-290.632	-7.245	0.071	-0.048
-289.618	-36.929	-0.274	0.145
-288.603	743.596	-0.052	-0.138
-287.589	-120.039	0.188	-0.032
-286.574	-200.000	0.097	0.000
-285.559	401.721	-0.050	0.104
-284.545	-89.761	0.048	0.014
-283.530	292.729	-0.044	0.080
-282.516	800.000	0.057	0.199
-281.501	800.000	-0.152	0.437
-280.486	-96.061	-0.058	0.015
-279.472	-200.000	-0.005	0.175
-278.457	800.000	-0.015	-0.046
-277.443	389.056	0.030	0.062
-276.428	623.082	-0.126	-0.314
-275.413	165.449	-0.034	0.048
-274.399	-91.932	-0.280	-0.079
-273.384	90.674	-0.213	0.237
-272.370	-140.020	0.331	-0.035
-271.355	800.000	-0.005	-0.013
-270.340	-200.000	-0.029	0.177
-269.326	800.000	-0.007	0.031
-268.311	67.675	0.091	0.092
-267.297	800.000	0.147	-0.432
-266.282	800.000	0.114	-0.345
-265.267	-15.266	-0.138	-0.087
-264.253	182.021	0.122	0.178
-263.238	-162.174	-0.077	-0.004
-262.224	52.441	0.010	-0.010
-261.209	44.976	-0.073	-0.067
-260.195	29.901	-0.152	0.128
-259.180	800.000	-0.045	-0.133
-258.165	-92.922	0.083	0.023
-257.151	-43.875	-0.069	0.034
-256.136	466.521	0.072	-0.159
-255.122	-124.209	0.325	-0.050
-254.107	7.957	-0.174	0.129
-253.092	683.368	-0.067	-0.174
-252.078	319.201	0.123	-0.230
-251.063	-142.946	0.472	0.045
-250.049	-200.000	0.041	0.384
-249.034	-116.848	0.314	0.057
-248.019	-70.661	-0.198	-0.074
-247.005	-200.000	-0.023	-0.166
-245.990	297.070	-0.168	0.305
-244.976	-0.083	0.201	0.142
-243.961	-35.399	-0.130	-0.070
-242.946	-123.447	0.387	-0.061
-241.932	-200.000	0.070	0.377
-240.917	800.000	-0.075	0.292
-239.903	-49.241	0.404	0.191
-238.888	-200.000	0.058	-0.311
-237.873	800.000	0.038	0.113
-236.859	-123.601	0.164	-0.026
-235.844	-200.000	-0.025	0.126
-234.830	137.864	0.132	-0.171
-233.815	171.238	-0.193	-0.273
-232.800	-95.556	0.268	-0.071
-231.786	-177.493	0.078	-0.002
-230.771	63.485	-0.103	-0.102
-229.757	-200.000	-0.107	-0.482
-228.742	-151.376	0.305	0.022
-227.727	-96.826	-0.124	-0.032
-226.713	190.778	-0.069	0.102
-225.698	41.048	0.046	0.041
-224.684	-52.901	0.099	-0.045
-223.669	-100.977	0.307	0.075
-222.655	-125.756	0.209	0.031
-221.640	13.699	0.328	0.252
-220.625	-83.393	-0.200	-0.063
-219.611	-131.494	0.057	0.007
-218.596	-60.340	-0.050	-0.021
-217.582	-127.915	0.237	0.034
-216.567	184.553	0.169	-0.248
-215.552	-125.292	-0.472	-0.071
-214.538	-200.000	0.011	0.057
-213.523	-85.589	-0.086	0.026
-212.509	92.750	-0.089	0.099
-211.494	-175.406	-0.200	0.005
-210.479	601.825	0.022	-0.054
-209.465	82.167	-0.134	0.143
-208.450	-5.426	0.100	0.068
-207.436	-46.399	-0.182	0.088
-206.421	725.347	-0.014	0.037
-205.406	-124.965	-0.039	0.006
-204.392	-123.416	-0.371	-0.058
-203.377	79.689	-0.113	0.120
-202.363	196.368	0.158	0.237
-201.348	-84.291	0.453	0.142
-200.333	-200.000	0.027	0.291
-199.319	800.000	0.111	0.307
-198.304	679.934	0.087	0.222
-197.290	-200.000	-0.027	0.172
-196.275	-65.636	0.120	-0.048
-195.260	-20.644	-0.225	-0.136
-194.246	-200.000	-0.039	0.281
-193.231	800.000	-0.026	0.075
-192.217	800.000	0.131	0.426
-191.202	800.000	-0.022	0.086
-190.187	-200.000	0.024	-0.400
-189.173	-200.000	-0.009	-0.109
-188.158	-108.345	-0.353	0.075
-187.144	-25.179	0.155	-0.090
-186.129	-95.704	-0.066	-0.017
-185.114	800.000	-0.030	-0.095
-184.100	42.878	-0.216	-0.194
-183.085	-83.524	-0.094	-0.030
-182.071	68.103	0.165	0.166
-181.056	359.547	-0.232	-0.457
-180.042	79.901	-0.231	-0.245
-179.027	304.779	-0.111	0.204
-178.012	800.000	-0.077	-0.241
-176.998	-121.229	0.049	-0.008
-175.983	-114.318	-0.016	0.003
-174.969	63.428	-0.123	-0.122
-173.954	20.046	-0.197	0.157
-172.939	244.318	0.076	-0.127
-171.925	-39.750	-0.350	-0.180
-170.910	-23.806	0.202	0.119
-169.896	-166.671	-0.306	0.012
-168.881	-200.000	0.418	-0.000
-167.866	-57.013	0.154	-0.067
-166.852	-154.730	0.344	-0.022
-165.837	-116.020	-0.363	0.067
-164.823	-5.305	0.320	0.217
-163.808	61.591	0.172	0.169
-162.793	-200.000	-0.002	0.052
-161.779	55.240	0.181	0.172
-160.764	35.038	0.239	-0.207
-159.750	-42.514	-0.031	-0.016
-158.735	186.480	0.319	0.468
-157.720	-21.853	-0.097	-0.058
-156.706	22.116	0.169	-0.136
-155.691	30.618	0.147	0.124
-154.677	-68.709	0.152	-0.058
-153.662	492.676	0.013	-0.030
-152.647	364.192	0.070	0.138
-151.633	800.000	0.050	-0.150
-150.618	-200.000	0.038	-0.376
-149.604	187.295	-0.131	0.193
-148.589	483.863	-0.019	-0.042
-147.574	-200.000	-0.050	0.342
-146.560	-200.000	0.021	0.292
-145.545	66.409	0.121	0.121
-144.531	-67.452	0.203	0.079
-143.516	-17.765	0.248	0.153
-142.502	326.370	0.104	0.195
-141.487	800.000	0.021	-0.085
-140.472	424.739	-0.045	0.095
-139.458	-41.209	-0.130	-0.066
-138.443	670.304	0.052	-0.133
-137.429	46.478	0.074	0.068
-136.414	800.000	0.088	-0.357
-135.399	128.454	0.219	0.274
-134.385	51.989	0.079	0.074
-133.370	800.000	0.129	0.370
-132.356	71.612	0.327	-0.334
-131.341	-121.056	0.312	-0.052
-130.326	-73.970	-0.063	-0.022
-129.312	-74.634	-0.202	0.072
-128.297	-61.276	0.320	0.133
-127.283	80.326	0.117	0.124
-126.268	-75.746	0.270	-0.094
-125.253	-87.470	0.279	0.083
-124.239	27.690	0.037	0.031
-123.224	79.032	-0.065	0.069
-122.210	453.057	-0.078	0.170
-121.195	138.567	-0.147	-0.190
