DTS Sentinel unit serial number:	SN413079Multiplexer serial number:	ORYXHardware model number:	OX4-SRSoftware version number:	ORYX F/W v4.00 Oryx Data Collector v3.7.2.0data status	okinstallation	princeton_trtdifferential loss correction	single-endedforward channel	channel 2reverse channel	N/Adate	2019/09/18time	06:23:35forward acquisition time	60.00reverse acquisition time	0.00gamma	496.2192k internal	0.2348k external	0.2348temperature offset calibration	0.9984default loss term (dB/km)	0.3790temperature slope calibration	1.0000multiplexer offset coefficient	1.0000multiplexer slope coefficient	1.0000fibre end	0.00T internal ref (°C)	23.25T ext. ref 1 (°C)	0.19T ext. ref 2 (°C)	17.71length (m)	temperature (°C)	Stokes	anti-Stokes-747.200	-200.000	-0.040	0.186
-746.185	-29.878	-0.122	-0.069
-745.171	800.000	0.048	0.192
-744.156	-135.490	-0.276	-0.033
-743.142	-200.000	0.004	-0.132
-742.127	-25.403	0.191	-0.113
-741.112	-200.000	0.035	0.346
-740.098	-200.000	0.018	0.173
-739.083	-30.747	0.214	-0.121
-738.069	390.252	-0.195	-0.404
-737.054	41.678	-0.280	0.253
-736.039	82.200	-0.265	0.287
-735.025	-96.854	0.190	0.050
-734.010	-200.000	0.014	-0.210
-732.996	-74.112	-0.274	-0.099
-731.981	-200.000	-0.030	-0.137
-730.966	-70.266	-0.060	0.023
-729.952	-200.000	-0.091	-0.543
-728.937	274.710	0.164	0.290
-727.923	-76.546	0.307	0.107
-726.908	-200.000	-0.026	0.313
-725.894	800.000	0.102	0.352
-724.879	-68.655	-0.221	-0.085
-723.864	-200.000	0.002	0.172
-722.850	143.256	-0.081	-0.107
-721.835	84.339	0.185	-0.202
-720.821	-200.000	0.034	-0.208
-719.806	121.849	-0.201	0.251
-718.791	-47.564	0.164	0.080
-717.777	-200.000	-0.003	-0.217
-716.762	59.692	-0.114	-0.112
-715.748	-90.619	0.143	-0.041
-714.733	-150.719	0.244	0.019
-713.718	-34.814	-0.162	-0.089
-712.704	-116.758	-0.176	-0.032
-711.689	-0.669	-0.190	-0.135
-710.675	-171.024	0.084	0.003
-709.660	-39.823	-0.059	0.031
-708.645	-200.000	-0.037	-0.252
-707.631	-200.000	-0.003	-0.337
-706.616	-200.000	-0.050	0.272
-705.602	120.790	0.265	-0.329
-704.587	-173.498	-0.346	0.010
-703.572	-200.000	0.022	-0.299
-702.558	-53.245	-0.346	-0.159
-701.543	-200.000	-0.002	-0.104
-700.529	-123.472	-0.276	-0.044
-699.514	-116.699	0.235	-0.043
-698.499	-72.141	0.152	-0.056
-697.485	-111.591	-0.242	-0.049
-696.470	-69.838	-0.382	0.145
-695.456	268.178	0.154	0.269
-694.441	800.000	-0.056	-0.198
-693.426	-200.000	-0.005	-0.077
-692.412	800.000	0.032	0.118
-691.397	-200.000	-0.017	-0.307
-690.383	-23.049	-0.098	-0.059
-689.368	-73.395	0.085	0.031
-688.354	-84.437	-0.208	0.065
-687.339	242.938	-0.120	0.201
-686.324	550.275	0.163	0.389
-685.310	-200.000	0.012	-0.277
-684.295	-200.000	-0.005	-0.191
-683.281	-200.000	-0.032	-0.192
-682.266	-61.231	0.166	-0.070
-681.251	-200.000	0.100	0.448
-680.237	-91.667	0.077	-0.022
-679.222	-144.228	0.217	-0.020
-678.208	121.951	-0.250	-0.311
-677.193	65.565	-0.050	0.051
-676.178	-53.155	-0.146	0.067
-675.164	-188.123	-0.346	0.004
-674.149	6.445	0.108	0.080
-673.135	17.386	0.118	0.094
-672.120	800.000	0.064	0.231
-671.105	-21.228	-0.105	0.064
-670.091	75.095	-0.456	-0.479
-669.076	-86.886	-0.164	-0.050
-668.062	0.784	0.092	-0.066
-667.047	-142.043	-0.058	0.006
-666.032	-34.675	-0.285	0.155
-665.018	-62.073	0.099	-0.041
-664.003	800.000	-0.038	0.119
-662.989	728.235	0.120	-0.320
-661.974	-120.091	-0.379	-0.065
-660.959	-200.000	-0.004	-0.154
-659.945	-134.165	0.117	0.014
-658.930	-13.974	0.210	0.135
-657.916	172.723	0.108	0.154
-656.901	-20.475	-0.026	0.016
-655.886	-98.146	-0.331	-0.085
-654.872	800.000	-0.072	0.210
-653.857	-46.843	-0.126	0.061
-652.843	-130.967	-0.116	0.015
-651.828	-200.000	0.031	-0.179
-650.814	222.407	0.134	-0.215
-649.799	186.909	-0.064	0.095
-648.784	264.153	-0.094	-0.162
-647.770	-149.337	-0.187	-0.015
-646.755	-38.119	0.284	-0.150
-645.741	-200.000	0.007	0.257
-644.726	265.317	-0.129	0.223
-643.711	-73.191	-0.318	0.116
-642.697	800.000	-0.067	-0.271
-641.682	764.333	-0.074	0.199
-640.668	800.000	-0.067	-0.230
-639.653	180.814	-0.279	-0.408
-638.638	-200.000	-0.067	-0.292
-637.624	-70.304	0.121	-0.046
-636.609	800.000	0.180	-0.506
-635.595	800.000	0.049	0.192
-634.580	37.309	0.165	0.145
-633.565	40.790	0.291	0.261
-632.551	-54.315	-0.104	0.047
-631.536	-63.507	-0.443	-0.181
-630.522	580.294	-0.110	0.268
-629.507	-200.000	0.014	-0.139
-628.492	-200.000	-0.036	0.216
-627.478	-148.272	-0.218	0.018
-626.463	-200.000	0.093	-0.448
-625.449	78.697	-0.202	-0.214
-624.434	178.270	-0.208	-0.302
-623.419	321.511	-0.119	-0.226
-622.405	99.826	-0.186	0.214
-621.390	645.206	-0.094	0.239
-620.376	-26.574	-0.145	-0.084
-619.361	54.209	0.135	-0.129
-618.346	123.573	0.186	0.232
-617.332	435.068	-0.084	0.182
-616.317	-99.662	-0.164	0.041
-615.303	-69.985	-0.568	-0.215
-614.288	800.000	0.031	-0.101
-613.273	-33.501	-0.325	0.179
-612.259	512.634	-0.018	-0.041
-611.244	-182.918	0.135	0.002
-610.230	-150.709	-0.326	-0.025
-609.215	-6.506	0.240	0.162
-608.201	800.000	-0.099	0.281
-607.186	23.081	-0.141	-0.115
-606.171	-200.000	0.012	-0.132
-605.157	-200.000	0.019	0.201
-604.142	800.000	0.061	-0.200
-603.128	279.584	-0.072	-0.129
-602.113	203.715	0.098	0.150
-601.098	45.845	-0.244	0.224
-600.084	663.917	0.097	-0.248
-599.069	800.000	-0.045	-0.165
-598.055	616.934	-0.012	0.029
-597.040	-11.619	0.219	-0.143
-596.025	287.976	0.165	-0.296
-595.011	-90.025	-0.203	-0.059
-593.996	128.395	-0.128	-0.162
-592.982	-102.623	0.171	0.041
-591.967	800.000	0.063	-0.217
-590.952	195.365	-0.121	0.183
-589.938	-95.930	-0.448	0.119
-588.923	-49.252	0.166	-0.079
-587.909	64.976	-0.217	0.217
-586.894	249.490	-0.051	0.085
-585.879	-155.234	-0.079	-0.005
-584.865	131.757	-0.062	0.079
-583.850	94.588	-0.173	0.196
-582.836	203.702	-0.206	0.317
-581.821	-182.816	0.230	0.004
-580.806	246.209	0.070	-0.117
-579.792	183.700	-0.075	-0.111
-578.777	-181.270	0.256	-0.005
-577.763	203.870	-0.059	-0.091
-576.748	-122.008	-0.165	-0.027
-575.733	-200.000	0.005	-0.151
-574.719	27.786	-0.192	-0.160
-573.704	-103.346	0.202	0.047
-572.690	153.303	0.114	-0.155
-571.675	-200.000	-0.056	0.391
-570.661	-29.438	-0.073	0.042
-569.646	348.684	0.013	0.026
-568.631	37.831	0.112	0.098
-567.617	107.104	0.156	-0.184
-566.602	694.262	0.067	-0.175
-565.588	-71.954	-0.266	-0.098
-564.573	-123.136	-0.191	-0.030
-563.558	-62.824	0.066	-0.027
-562.544	435.608	0.108	0.234
-561.529	201.878	0.063	0.096
-560.515	64.104	0.080	0.080
-559.500	-183.581	-0.298	-0.005
-558.485	-200.000	0.044	-0.281
-557.471	-52.549	-0.244	-0.112
-556.456	186.249	-0.179	-0.264
-555.442	452.574	0.065	0.142
-554.427	-22.467	0.135	0.081
-553.412	-33.489	-0.187	-0.102
-552.398	226.823	0.163	-0.263
-551.383	-200.000	-0.194	-0.001
-550.369	-183.233	0.470	0.008
-549.354	188.755	-0.180	0.267
-548.339	-140.093	0.079	-0.008
-547.325	-200.000	0.087	0.526
-546.310	356.629	0.041	-0.081
-545.296	356.707	-0.161	0.319
-544.281	-37.017	-0.183	0.097
-543.266	-200.000	-0.045	0.239
-542.252	-176.195	0.320	0.008
-541.237	530.153	0.039	0.091
-540.223	-69.502	0.407	0.155
-539.208	-200.000	-0.009	0.258
-538.193	120.804	0.154	-0.190
-537.179	35.237	0.037	-0.032
-536.164	108.466	0.138	-0.164
-535.150	-38.622	0.240	-0.125
-534.135	800.000	-0.088	-0.280
-533.121	-200.000	0.006	-0.214
-532.106	-29.475	-0.092	0.052
-531.091	-10.312	-0.268	-0.176
-530.077	783.369	0.039	0.105
-529.062	-100.044	-0.287	-0.071
-528.048	270.682	-0.044	-0.076
-527.033	-10.021	-0.109	0.072
-526.018	216.157	-0.136	0.214
-525.004	71.951	-0.288	0.297
-523.989	-83.000	0.388	0.124
-522.975	408.192	0.313	-0.655
-521.960	-200.000	0.071	-0.349
-520.945	-200.000	-0.023	-0.219
-519.931	-43.281	-0.283	-0.142
-518.916	-200.000	-0.063	-0.292
-517.902	102.712	0.160	0.185
-516.887	-54.783	-0.194	0.087
-515.872	746.045	-0.076	-0.203
-514.858	55.368	-0.241	-0.231
-513.843	115.339	0.127	0.153
-512.829	118.943	-0.065	-0.080
-511.814	-34.420	0.043	0.024
-510.799	492.142	-0.088	-0.199
-509.785	374.721	-0.104	-0.209
-508.770	-40.327	-0.100	-0.051
-507.756	-200.000	0.033	-0.185
-506.741	20.999	0.217	-0.174
-505.726	-200.000	0.003	-0.032
-504.712	312.900	-0.175	0.325
-503.697	-200.000	0.026	0.300
-502.683	-82.634	-0.259	-0.083
-501.668	-200.000	0.002	-0.060
-500.653	-133.281	-0.162	-0.020
-499.639	800.000	0.048	-0.200
-498.624	205.173	0.169	0.259
-497.610	-27.161	-0.216	0.125
-496.595	-20.855	0.195	-0.118
-495.581	444.629	-0.080	0.174
-494.566	-86.830	-0.222	0.067
-493.551	-106.937	0.198	-0.043
-492.537	54.031	0.166	0.157
-491.522	449.538	-0.145	0.316
-490.508	-118.378	-0.260	-0.046
-489.493	318.404	0.161	0.301
-488.478	800.000	-0.102	0.289
-487.464	475.974	-0.083	-0.184
-486.449	111.174	-0.218	0.259
-485.435	-37.556	0.153	-0.081
-484.420	-200.000	0.121	-0.538
-483.405	-200.000	-0.056	0.487
-482.391	29.472	-0.215	0.181
-481.376	-106.159	-0.154	0.034
-480.362	-112.217	0.225	-0.045
-479.347	71.059	-0.301	-0.308
-478.332	-200.000	0.058	0.390
-477.318	163.905	-0.096	-0.134
-476.303	-34.044	0.218	-0.118
-475.289	279.099	-0.133	-0.234
-474.274	800.000	0.060	0.253
-473.259	36.214	-0.111	0.097
-472.245	-20.929	-0.126	0.076
-471.230	-140.306	-0.215	-0.022
-470.216	-94.465	-0.363	0.098
-469.201	10.174	-0.173	0.130
-468.186	-48.993	0.318	-0.151
-467.172	64.375	0.306	-0.305
-466.157	-51.296	-0.123	0.057
-465.143	-200.000	-0.057	-0.252
-464.128	125.378	0.087	-0.108
-463.113	-200.000	0.015	-0.107
-462.099	-66.379	0.123	0.048
-461.084	589.447	-0.064	-0.156
-460.070	18.541	0.064	-0.050
-459.055	244.040	0.231	-0.383
-458.040	-200.000	-0.020	0.106
-457.026	-200.000	0.002	-0.150
-456.011	800.000	0.042	-0.135
-454.997	39.422	0.088	-0.078
-453.982	525.480	0.160	-0.372
-452.968	354.408	-0.133	-0.261
-451.953	194.723	-0.075	-0.113
-450.938	150.606	0.155	0.208
-449.924	277.545	-0.111	-0.195
-448.909	-139.050	-0.233	0.025
-447.895	70.783	-0.067	0.068
-446.880	-45.228	0.208	-0.102
-445.865	-69.529	0.023	0.009
-444.851	-127.660	0.195	0.028
-443.836	-200.000	-0.084	0.550
-442.822	60.604	0.179	-0.175
-441.807	9.696	0.203	-0.152
-440.792	88.529	0.094	-0.103
-439.778	10.598	-0.303	0.228
-438.763	63.619	0.135	0.133
-437.749	229.575	0.051	0.083
-436.734	192.027	0.055	0.081
-435.719	280.639	-0.055	0.098
-434.705	-105.444	0.147	0.033
-433.690	-0.526	-0.072	-0.050
-432.676	144.168	-0.132	-0.173
-431.661	495.301	-0.078	-0.176
-430.646	286.726	0.032	0.056
-429.632	-72.290	-0.171	-0.062
-428.617	-156.976	0.224	0.014
-427.603	-200.000	0.018	-0.190
-426.588	-142.105	0.183	0.018
-425.573	685.610	0.078	-0.201
-424.559	645.228	0.171	-0.430
-423.544	15.014	0.207	-0.160
-422.530	208.980	-0.368	0.569
-421.515	-88.684	0.060	0.017
-420.500	-174.260	-0.025	-0.001
-419.486	800.000	-0.049	0.139
-418.471	-6.747	0.216	0.145
-417.457	-66.132	0.224	-0.088
-416.442	-45.691	0.354	-0.173
-415.428	-88.331	0.187	-0.055
-414.413	-47.121	0.097	0.047
-413.398	89.123	-0.215	-0.236
-412.384	142.339	0.074	-0.097
-411.369	47.683	0.252	0.231
-410.355	800.000	0.051	0.180
-409.340	-10.841	0.083	0.054
-408.325	484.858	0.147	-0.331
-407.311	-200.000	0.032	-0.169
-406.296	237.264	-0.045	-0.074
-405.282	178.417	-0.109	0.156
-404.267	335.555	0.157	0.299
-403.252	0.497	0.284	-0.200
-402.238	-115.132	-0.185	0.035
-401.223	-200.000	-0.009	-0.053
-400.209	-130.043	0.284	0.038
-399.194	-66.700	0.145	-0.057
-398.179	199.040	-0.065	-0.098
-397.165	120.885	0.174	0.214
-396.150	800.000	-0.041	-0.133
-395.136	-0.480	0.029	0.021
-394.121	-200.000	0.001	0.268
-393.106	-0.158	0.180	-0.126
-392.092	-121.892	-0.199	-0.032
-391.077	-178.453	-0.028	-0.001
-390.063	-24.769	0.062	0.036
-389.048	-118.101	0.213	-0.037
-388.033	-148.197	0.190	0.015
-387.019	-30.231	-0.347	0.194
-386.004	-200.000	0.052	0.457
-384.990	-195.624	0.171	-0.001
-383.975	-124.726	-0.168	-0.026
-382.960	512.479	-0.062	0.141
-381.946	102.876	-0.075	0.086
-380.931	21.066	-0.068	0.054
-379.917	-66.555	0.312	-0.122
-378.902	-120.143	-0.242	0.041
-377.888	699.216	0.021	-0.055
-376.873	145.950	0.151	-0.200
-375.858	-147.417	-0.115	-0.010
-374.844	-93.647	-0.050	-0.014
-373.829	-162.602	-0.354	-0.017
-372.815	-115.593	0.250	-0.046
-371.800	6.529	-0.023	0.017
-370.785	285.556	-0.135	0.239
-369.771	-47.310	-0.288	0.138
-368.756	-129.739	0.181	-0.025
-367.742	15.258	-0.206	0.159
-366.727	301.863	-0.102	-0.186
-365.712	24.141	-0.168	-0.137
-364.698	-161.526	-0.122	0.006
-363.683	360.333	0.057	0.113
-362.669	140.264	0.117	0.153
-361.654	20.628	0.102	0.081
-360.639	581.801	0.037	0.088
-359.625	-137.726	-0.082	0.009
-358.610	-84.073	0.306	0.096
-357.596	-166.746	-0.390	-0.016
-356.581	-51.916	0.253	0.116
-355.566	150.414	-0.164	-0.219
-354.552	-98.919	0.089	0.022
-353.537	38.716	0.061	0.054
-352.523	-200.000	-0.020	0.235
-351.508	-98.343	-0.215	-0.054
-350.493	-192.771	0.227	0.002
-349.479	-200.000	-0.038	-0.269
-348.464	-60.130	0.157	-0.066
-347.450	-71.064	-0.197	0.073
-346.435	128.399	-0.280	0.351
-345.420	-102.674	0.016	0.004
-344.406	-30.183	0.248	-0.139
-343.391	-155.904	0.128	-0.008
-342.377	-165.756	0.123	-0.005
-341.362	-200.000	-0.023	0.123
-340.348	-65.618	0.210	0.083
-339.333	-97.880	-0.394	0.100
-338.318	-83.495	-0.162	-0.051
-337.304	269.973	0.101	0.175
-336.289	59.721	-0.129	0.125
-335.275	-118.756	0.121	0.021
-334.260	565.188	0.146	0.348
-333.245	354.085	0.205	0.401
-332.231	41.587	0.210	0.187
-331.216	0.530	-0.173	0.122
-330.202	-200.000	0.038	0.390
-329.187	-183.120	0.146	0.003
-328.172	63.189	-0.167	0.164
-327.158	152.167	0.144	0.194
-326.143	-175.573	-0.285	-0.008
-325.129	76.869	0.168	0.175
-324.114	-105.599	-0.242	-0.054
-323.099	642.750	0.044	0.110
-322.085	-31.184	0.189	0.105
-321.070	416.474	0.071	-0.149
-320.056	800.000	0.046	-0.163
-319.041	250.023	-0.137	0.229
-318.026	552.072	-0.073	-0.173
-317.012	113.218	0.078	-0.093
-315.997	-62.098	0.212	-0.087
-314.983	83.661	-0.080	0.086
-313.968	-125.362	-0.349	-0.052
-312.953	-138.462	-0.111	-0.012
-311.939	95.054	-0.099	0.111
-310.924	-63.895	0.211	-0.085
-309.910	-160.719	0.294	-0.015
-308.895	800.000	0.039	-0.138
-307.880	282.399	-0.129	0.227
-306.866	43.141	0.079	0.071
-305.851	-159.608	0.182	0.010
-304.837	36.871	-0.190	-0.165
-303.822	29.845	-0.141	-0.118
-302.807	6.316	-0.146	-0.106
-301.793	38.241	0.310	-0.271
-300.778	-71.207	-0.056	-0.021
-299.764	-200.000	-0.022	0.315
-298.749	-118.307	-0.372	0.065
-297.735	800.000	-0.009	0.032
-296.720	6.846	0.157	-0.115
-295.705	59.971	0.135	0.131
-294.691	420.346	0.087	-0.183
-293.676	-129.034	-0.085	0.012
-292.662	800.000	0.029	0.104
-291.647	157.385	-0.034	0.047
-290.632	30.196	0.232	0.194
-289.618	-200.000	-0.058	-0.394
-288.603	61.981	0.126	-0.123
-287.589	-200.000	0.006	-0.321
-286.574	-5.114	-0.164	0.111
-285.559	-200.000	-0.020	0.126
-284.545	-200.000	-0.028	0.199
-283.530	35.243	-0.096	-0.082
-282.516	-200.000	0.010	-0.178
-281.501	-200.000	-0.001	0.025
-280.486	-87.480	-0.205	-0.061
-279.472	-168.871	-0.210	-0.008
-278.457	107.329	0.150	0.174
-277.443	-200.000	-0.008	-0.084
-276.428	-200.000	-0.069	-0.602
-275.413	-200.000	-0.019	0.192
-274.399	18.457	0.141	0.111
-273.384	-15.873	0.244	-0.152
-272.370	-156.546	-0.239	0.015
-271.355	81.829	0.089	-0.094
-270.340	-37.691	0.163	0.085
-269.326	-111.208	0.355	0.071
-268.311	-116.129	-0.466	0.085
-267.297	-11.070	0.219	-0.142
-266.282	-142.623	0.245	-0.024
-265.267	-162.014	-0.221	0.011
-264.253	77.009	0.239	-0.249
-263.238	-117.779	-0.274	0.048
-262.224	-35.364	-0.110	-0.059
-261.209	-75.690	-0.166	0.058
-260.195	25.582	0.061	0.050
-259.180	800.000	-0.022	-0.059
-258.165	-115.798	0.192	0.035
-257.151	-200.000	0.020	0.087
-256.136	-54.281	0.184	-0.082
-255.122	-77.759	-0.239	0.081
-254.107	26.548	-0.196	0.161
-253.092	75.392	-0.235	0.243
-252.078	213.432	0.075	0.117
-251.063	248.605	0.097	-0.160
-250.049	714.554	0.058	0.151
-249.034	800.000	0.051	-0.150
-248.019	8.916	0.122	-0.090
-247.005	325.757	0.106	0.199
-245.990	38.040	-0.343	-0.299
-244.976	-200.000	-0.028	0.350
-243.961	-200.000	0.012	0.444
-242.946	-63.261	0.192	0.078
-241.932	800.000	-0.055	-0.179
-240.917	14.248	0.083	-0.064
-239.903	-84.721	-0.269	0.083
-238.888	497.934	-0.118	-0.266
-237.873	56.780	0.184	-0.176
-236.859	-200.000	-0.006	-0.123
-235.844	289.888	0.029	0.051
-234.830	-92.567	0.189	0.052
-233.815	-9.736	0.161	-0.105
-232.800	3.841	-0.073	0.052
-231.786	419.511	-0.045	0.093
-230.771	22.638	0.147	-0.118
-229.757	-89.008	-0.415	-0.120
-228.742	-52.020	-0.146	-0.067
-227.727	185.785	0.106	-0.154
-226.713	-90.975	0.498	-0.140
-225.698	-47.523	0.377	0.179
-224.684	-52.184	-0.120	-0.054
-223.669	-148.055	-0.166	0.014
-222.655	248.890	0.056	0.093
-221.640	578.469	0.168	-0.401
-220.625	-2.922	0.136	0.093
-219.611	-33.545	0.116	-0.063
-218.596	-200.000	-0.016	-0.226
-217.582	133.749	-0.160	0.203
-216.567	36.185	-0.152	-0.131
-215.552	81.861	-0.225	0.238
-214.538	91.904	0.264	-0.291
-213.523	-8.110	0.108	-0.071
-212.509	-200.000	0.049	-0.274
-211.494	344.650	0.141	-0.270
-210.479	-85.075	-0.267	0.082
-209.465	117.540	-0.161	0.193
-208.450	-66.452	0.418	0.162
-207.436	-71.261	-0.253	-0.093
-206.421	401.808	0.075	-0.154
-205.406	-49.867	0.404	0.187
-204.392	159.182	-0.075	0.101
-203.377	-200.000	-0.052	0.298
-202.363	-200.000	0.018	0.161
-201.348	274.288	0.218	0.377
-200.333	-85.295	0.138	0.042
-199.319	205.246	0.065	0.099
-198.304	-200.000	-0.004	0.027
-197.290	-73.078	-0.155	-0.056
-196.275	-200.000	0.035	0.188
-195.260	-200.000	0.005	0.063
-194.246	-86.982	-0.097	0.029
-193.231	-200.000	-0.019	-0.125
-192.217	207.586	-0.201	0.307
-191.202	-20.274	-0.043	0.026
-190.187	12.704	0.084	0.064
-189.173	706.679	-0.046	0.118
-188.158	-200.000	-0.023	0.144
-187.144	-126.403	0.431	0.063
-186.129	1.679	0.219	-0.154
-185.114	555.801	-0.043	-0.102
-184.100	-77.855	0.175	-0.059
-183.085	188.572	0.038	0.056
-182.071	-200.000	0.045	0.217
-181.056	-200.000	-0.032	0.327
-180.042	245.679	0.040	0.065
-179.027	-200.000	-0.034	-0.352
-178.012	61.545	0.051	0.049
-176.998	-3.043	0.175	-0.119
-175.983	111.233	-0.061	0.072
-174.969	37.842	0.136	0.118
-173.954	-139.450	0.131	0.014
-172.939	135.094	-0.169	0.214
-171.925	56.060	0.271	-0.257
-170.910	-30.681	0.181	0.100
-169.896	-59.390	0.411	0.172
-168.881	-56.741	0.107	-0.046
-167.866	-88.803	0.127	0.037
-166.852	3.797	-0.397	-0.283
-165.837	56.936	-0.069	-0.066
-164.823	179.833	0.175	0.251
-163.808	-5.029	-0.187	-0.126
-162.793	14.196	0.181	-0.138
-161.779	-138.436	-0.296	0.032
-160.764	-112.864	0.296	0.057
-159.750	85.576	0.251	-0.269
-158.735	66.760	0.175	-0.174
-157.720	257.176	-0.070	0.118
-156.706	800.000	0.034	0.093
-155.691	200.432	-0.162	-0.243
-154.677	-189.276	-0.204	-0.002
-153.662	-18.587	-0.111	0.067
-152.647	144.770	-0.117	-0.153
-151.633	135.775	0.058	0.073
-150.618	800.000	-0.054	-0.202
-149.604	16.693	-0.069	-0.053
-148.589	-128.715	0.308	-0.042
-147.574	-200.000	-0.079	-0.415
-146.560	687.794	-0.087	0.221
-145.545	-200.000	-0.018	0.104
-144.531	114.006	-0.072	-0.085
-143.516	-36.982	-0.154	-0.081
-142.502	-65.196	-0.186	0.073
-141.487	343.056	-0.036	0.069
-140.472	736.791	0.053	0.139
-139.458	-83.150	-0.169	0.053
-138.443	-200.000	-0.051	-0.267
-137.429	-46.802	0.058	-0.028
-136.414	6.821	-0.173	-0.126
-135.399	-200.000	0.019	0.095
-134.385	-34.263	0.207	0.111
-133.370	-5.054	0.153	0.103
-132.356	-20.904	-0.356	0.213
-131.341	469.926	-0.076	-0.168
-130.326	-49.549	0.081	-0.037
-129.312	800.000	0.015	0.055
-128.297	-45.284	0.298	-0.144
-127.283	-200.000	0.024	-0.142
-126.268	800.000	-0.010	0.028
-125.253	-43.071	0.325	0.160
-124.239	-90.942	-0.227	0.064
-123.224	-122.741	0.313	-0.049
-122.210	-200.000	0.029	-0.184
-121.195	800.000	0.045	-0.181
