DTS Sentinel unit serial number:	SN413079Multiplexer serial number:	ORYXHardware model number:	OX4-SRSoftware version number:	ORYX F/W v4.00 Oryx Data Collector v3.7.2.0data status	okinstallation	princeton_trtdifferential loss correction	single-endedforward channel	channel 2reverse channel	N/Adate	2019/09/14time	03:47:35forward acquisition time	60.00reverse acquisition time	0.00gamma	496.2192k internal	0.2337k external	0.2337temperature offset calibration	1.0123default loss term (dB/km)	0.3790temperature slope calibration	1.0000multiplexer offset coefficient	1.0000multiplexer slope coefficient	1.0000fibre end	0.00T internal ref (°C)	26.69T ext. ref 1 (°C)	3.30T ext. ref 2 (°C)	21.71length (m)	temperature (°C)	Stokes	anti-Stokes-747.200	47.912	0.169	0.158
-746.185	-97.716	-0.327	0.085
-745.171	417.187	0.111	0.237
-744.156	-15.504	0.276	0.177
-743.142	-128.445	0.298	-0.042
-742.127	-43.761	0.218	-0.110
-741.112	800.000	0.033	0.132
-740.098	171.748	-0.193	0.279
-739.083	73.904	0.243	0.256
-738.069	-46.579	-0.128	-0.063
-737.054	-200.000	-0.021	-0.228
-736.039	196.850	-0.130	-0.199
-735.025	250.304	0.198	0.338
-734.010	-101.408	0.257	0.063
-732.996	12.951	-0.275	-0.213
-731.981	174.996	0.102	0.149
-730.966	-181.283	-0.332	-0.007
-729.952	-83.044	0.228	-0.074
-728.937	-22.812	-0.250	-0.151
-727.923	800.000	-0.071	-0.248
-726.908	72.013	-0.435	-0.454
-725.894	-200.000	-0.024	-0.217
-724.879	111.656	-0.044	0.054
-723.864	93.063	-0.144	0.163
-722.850	-138.618	0.594	-0.065
-721.835	-200.000	-0.049	-0.318
-720.821	600.127	-0.145	0.360
-719.806	800.000	0.055	-0.205
-718.791	31.487	-0.282	-0.243
-717.777	-99.253	-0.192	0.049
-716.762	-95.984	0.233	-0.062
-715.748	-60.361	-0.275	-0.117
-714.733	-130.660	0.130	-0.018
-713.718	-62.412	-0.267	0.112
-712.704	-103.861	-0.107	0.025
-711.689	-57.023	0.168	0.074
-710.675	800.000	0.084	-0.286
-709.660	-13.962	0.142	-0.092
-708.645	179.646	0.109	-0.160
-707.631	-200.000	0.000	-0.051
-706.616	-200.000	0.007	0.320
-705.602	800.000	0.108	-0.362
-704.587	-200.000	-0.014	0.303
-703.572	76.843	0.161	-0.172
-702.558	681.013	0.089	-0.232
-701.543	-22.118	0.202	-0.123
-700.529	-12.657	0.308	0.201
-699.514	65.161	0.042	0.043
-698.499	-63.954	0.022	0.009
-697.485	-200.000	0.005	0.113
-696.470	-8.016	-0.140	0.095
-695.456	-200.000	-0.007	-0.038
-694.441	128.513	-0.090	-0.114
-693.426	-200.000	0.014	-0.186
-692.412	800.000	0.078	-0.249
-691.397	55.957	-0.424	-0.412
-690.383	800.000	-0.070	-0.263
-689.368	-84.375	-0.210	0.066
-688.354	-11.835	0.410	-0.270
-687.339	-200.000	0.031	-0.240
-686.324	-200.000	0.028	-0.314
-685.310	-200.000	-0.002	-0.043
-684.295	-104.823	-0.553	-0.127
-683.281	-23.782	0.187	-0.112
-682.266	35.490	-0.095	0.083
-681.251	800.000	-0.028	0.085
-680.237	-200.000	-0.006	-0.301
-679.222	-73.810	-0.107	-0.039
-678.208	123.868	0.065	-0.081
-677.193	800.000	0.026	0.089
-676.178	-200.000	-0.011	0.184
-675.164	18.438	-0.209	-0.167
-674.149	-14.446	-0.181	0.116
-673.135	-17.447	0.195	-0.123
-672.120	43.180	0.420	0.384
-671.105	-150.659	-0.322	-0.025
-670.091	43.662	-0.221	-0.202
-669.076	-200.000	0.051	0.242
-668.062	-200.000	0.011	-0.238
-667.047	-68.360	-0.133	-0.052
-666.032	468.377	-0.048	-0.107
-665.018	431.451	-0.094	0.205
-664.003	-115.738	0.164	0.031
-662.989	-126.664	0.264	0.039
-661.974	-100.154	-0.090	0.022
-660.959	-200.000	0.039	-0.180
-659.945	453.951	-0.081	-0.180
-658.930	-114.611	-0.185	0.035
-657.916	99.106	0.150	-0.173
-656.901	-104.268	-0.102	-0.024
-655.886	-45.791	0.288	-0.142
-654.872	-107.190	0.583	0.128
-653.857	-92.048	0.138	0.039
-652.843	180.002	0.084	-0.124
-651.828	-83.443	0.233	-0.075
-650.814	69.769	-0.156	0.161
-649.799	-200.000	-0.002	-0.070
-648.784	236.059	-0.084	-0.138
-647.770	-147.209	-0.215	-0.018
-646.755	-200.000	0.022	0.176
-645.741	-67.915	-0.126	0.049
-644.726	73.162	-0.269	-0.281
-643.711	-91.865	-0.367	-0.104
-642.697	-21.067	-0.294	-0.180
-641.682	70.598	0.161	-0.166
-640.668	14.956	0.184	0.144
-639.653	-148.112	-0.329	-0.027
-638.638	254.397	0.083	0.142
-637.624	-103.102	-0.275	-0.065
-636.609	-30.467	0.157	0.089
-635.595	800.000	0.049	0.209
-634.580	18.146	0.168	0.134
-633.565	-66.276	0.141	-0.056
-632.551	-120.662	-0.386	-0.065
-631.536	-200.000	-0.032	-0.143
-630.522	-131.425	0.251	-0.033
-629.507	123.652	-0.128	-0.161
-628.492	91.643	-0.092	-0.103
-627.478	485.130	0.088	0.200
-626.463	-32.770	-0.374	0.208
-625.449	492.817	-0.029	0.067
-624.434	26.551	-0.122	0.102
-623.419	-10.686	0.120	0.079
-622.405	-37.579	0.137	-0.073
-621.390	124.598	-0.079	-0.099
-620.376	212.994	-0.211	-0.332
-619.361	-83.079	0.532	-0.171
-618.346	-200.000	-0.031	0.140
-617.332	77.186	0.215	0.228
-616.317	-200.000	0.051	0.445
-615.303	52.649	0.274	0.262
-614.288	259.085	0.128	0.221
-613.273	154.854	0.123	0.168
-612.259	-108.541	0.349	0.075
-611.244	-137.429	0.187	0.021
-610.230	748.786	0.085	-0.228
-609.215	297.031	0.081	0.148
-608.201	527.995	-0.005	-0.011
-607.186	16.360	0.180	0.142
-606.171	-200.000	-0.006	-0.168
-605.157	622.345	0.030	-0.075
-604.142	147.928	-0.075	-0.101
-603.128	749.116	0.077	0.207
-602.113	-200.000	-0.003	0.048
-601.098	-55.719	0.287	0.128
-600.084	-200.000	-0.041	-0.186
-599.069	-64.091	-0.251	0.102
-598.055	-4.342	0.116	-0.080
-597.040	571.248	0.072	-0.176
-596.025	-52.563	-0.079	0.036
-595.011	-200.000	0.008	-0.375
-593.996	321.401	-0.281	-0.532
-592.982	-200.000	0.026	-0.257
-591.967	183.403	0.264	-0.390
-590.952	-137.226	-0.326	-0.037
-589.938	162.862	-0.193	0.271
-588.923	-142.133	0.305	-0.030
-587.909	-94.271	-0.192	-0.052
-586.894	304.992	0.119	-0.221
-585.879	578.363	-0.104	-0.253
-584.865	-142.903	-0.235	-0.023
-583.850	-150.957	0.019	-0.001
-582.836	-87.994	0.151	-0.045
-581.821	118.546	-0.245	-0.302
-580.806	643.862	0.143	-0.363
-579.792	418.704	0.166	-0.354
-578.777	147.787	-0.191	-0.256
-577.763	-139.863	-0.195	-0.021
-576.748	-79.520	0.215	0.072
-575.733	466.720	0.096	-0.215
-574.719	-95.248	-0.275	0.074
-573.704	800.000	-0.053	-0.162
-572.690	800.000	0.045	-0.197
-571.675	800.000	-0.077	-0.231
-570.661	-200.000	0.003	-0.051
-569.646	82.110	0.207	0.224
-568.631	42.258	-0.137	-0.124
-567.617	-200.000	0.009	-0.188
-566.602	95.601	0.174	-0.198
-565.588	-108.400	0.126	0.027
-564.573	-4.707	-0.258	-0.177
-563.558	-82.091	-0.296	0.096
-562.544	164.459	0.090	0.126
-561.529	800.000	0.049	-0.187
-560.515	63.322	0.172	-0.171
-559.500	800.000	-0.023	0.074
-558.485	424.394	-0.140	0.301
-557.471	-200.000	0.023	0.262
-556.456	-83.994	0.105	-0.033
-555.442	-89.977	-0.241	0.070
-554.427	-123.194	0.209	0.033
-553.412	800.000	-0.166	-0.497
-552.398	54.943	0.190	0.183
-551.383	-200.000	0.001	-0.026
-550.369	674.489	-0.079	-0.204
-549.354	-109.937	0.099	-0.021
-548.339	-5.882	-0.168	0.114
-547.325	-200.000	-0.020	0.448
-546.310	-200.000	-0.025	0.144
-545.296	-112.733	-0.100	-0.020
-544.281	800.000	0.088	0.295
-543.266	82.197	0.187	0.202
-542.252	-9.036	-0.368	-0.246
-541.237	450.865	0.139	-0.307
-540.223	-200.000	-0.064	0.468
-539.208	-146.095	-0.064	-0.006
-538.193	327.621	0.013	0.025
-537.179	172.724	0.063	0.090
-536.164	-200.000	0.045	0.203
-535.150	57.909	-0.259	-0.253
-534.135	-24.444	0.206	0.122
-533.121	-106.706	0.106	0.023
-532.106	-23.105	-0.023	0.014
-531.091	-140.666	-0.144	-0.015
-530.077	129.135	-0.164	-0.208
-529.062	32.627	0.211	-0.182
-528.048	800.000	-0.118	0.387
-527.033	-200.000	0.034	0.155
-526.018	800.000	0.025	0.094
-525.004	-0.384	0.225	-0.159
-523.989	-42.692	-0.169	0.086
-522.975	800.000	-0.032	-0.113
-521.960	0.339	-0.190	-0.135
-520.945	800.000	0.020	0.080
-519.931	338.091	-0.088	0.170
-518.916	58.718	0.265	0.259
-517.902	-67.491	-0.243	-0.095
-516.887	-200.000	-0.033	-0.155
-515.872	800.000	-0.128	-0.423
-514.858	50.796	-0.199	0.187
-513.843	800.000	-0.053	-0.155
-512.829	-200.000	-0.019	0.446
-511.814	150.221	0.094	0.127
-510.799	93.070	-0.064	-0.072
-509.785	144.667	0.270	-0.359
-508.770	-200.000	0.019	0.117
-507.756	-200.000	0.017	0.201
-506.741	-133.079	-0.173	0.022
-505.726	-200.000	0.004	0.059
-504.712	129.622	-0.132	0.167
-503.697	681.624	-0.070	-0.182
-502.683	-144.151	0.182	-0.017
-501.668	-7.724	-0.137	0.092
-500.653	-106.648	0.362	-0.080
-499.639	-151.354	-0.245	-0.018
-498.624	-98.370	-0.165	-0.042
-497.610	5.677	0.405	0.298
-496.595	-84.416	-0.209	-0.066
-495.581	569.885	0.024	0.057
-494.566	393.591	-0.150	0.310
-493.551	-15.477	-0.207	-0.131
-492.537	91.113	-0.133	-0.148
-491.522	-76.153	0.058	0.020
-490.508	154.602	-0.101	0.138
-489.493	94.539	-0.093	0.105
-488.478	19.500	0.071	0.057
-487.464	-8.196	0.483	-0.323
-486.449	800.000	-0.042	-0.123
-485.435	800.000	0.054	0.205
-484.420	-53.400	0.264	-0.120
-483.405	116.331	0.249	-0.303
-482.391	8.445	0.113	0.084
-481.376	-151.786	0.261	-0.019
-480.362	-92.928	0.098	-0.027
-479.347	197.442	-0.180	0.273
-478.332	287.446	0.091	0.163
-477.318	289.903	0.041	0.073
-476.303	-186.833	0.052	-0.001
-475.289	144.144	0.252	0.334
-474.274	245.757	0.083	0.139
-473.259	-25.272	-0.255	0.150
-472.245	-48.094	0.080	-0.038
-471.230	-200.000	-0.018	0.339
-470.216	47.214	0.176	-0.163
-469.201	327.892	0.013	-0.024
-468.186	236.295	0.142	-0.233
-467.172	106.109	0.103	0.121
-466.157	-200.000	-0.007	-0.233
-465.143	800.000	0.052	0.147
-464.128	208.740	0.142	-0.220
-463.113	-200.000	0.020	-0.114
-462.099	-200.000	-0.037	0.164
-461.084	106.392	-0.186	-0.219
-460.070	-200.000	-0.048	-0.224
-459.055	-119.112	-0.029	-0.005
-458.040	178.616	-0.195	0.283
-457.026	-117.834	-0.099	-0.018
-456.011	-56.232	-0.168	0.074
-454.997	-200.000	0.006	0.257
-453.982	-200.000	-0.090	-0.475
-452.968	-60.945	-0.073	0.031
-451.953	-200.000	-0.011	0.118
-450.938	65.325	-0.149	-0.150
-449.924	384.334	0.202	0.413
-448.909	-138.193	0.199	-0.022
-447.895	-200.000	0.035	-0.207
-446.880	-137.616	-0.351	-0.039
-445.865	309.495	-0.174	-0.323
-444.851	800.000	0.019	0.067
-443.836	0.297	-0.204	0.145
-442.822	800.000	-0.137	-0.376
-441.807	-188.192	0.295	0.004
-440.792	-146.437	-0.105	-0.009
-439.778	60.308	0.162	0.159
-438.763	50.493	-0.228	-0.214
-437.749	34.888	0.258	0.223
-436.734	-200.000	-0.242	0.000
-435.719	-42.286	-0.168	0.085
-434.705	-104.650	-0.159	-0.036
-433.690	208.028	0.234	0.363
-432.676	115.968	0.089	-0.108
-431.661	800.000	0.070	0.213
-430.646	-200.000	0.057	0.276
-429.632	-196.971	0.232	0.001
-428.617	50.786	0.230	0.216
-427.603	-29.391	-0.287	-0.163
-426.588	264.060	-0.074	-0.127
-425.573	-200.000	-0.037	0.298
-424.559	-4.986	0.335	-0.229
-423.544	18.571	-0.258	-0.204
-422.530	359.480	-0.083	0.164
-421.515	240.081	0.118	0.195
-420.500	478.985	-0.192	-0.430
-419.486	28.450	0.092	0.077
-418.471	-0.399	0.215	-0.151
-417.457	71.066	0.057	-0.058
-416.442	800.000	0.036	-0.131
-415.428	10.626	-0.213	-0.161
-414.413	-100.741	0.322	-0.079
-413.398	-200.000	-0.008	0.201
-412.384	240.623	-0.208	0.344
-411.369	0.250	-0.301	-0.213
-410.355	729.686	0.017	0.044
-409.340	280.593	-0.049	0.086
-408.325	-200.000	0.054	0.300
-407.311	-200.000	0.015	0.187
-406.296	-19.038	0.283	-0.174
-405.282	374.483	-0.155	0.312
-404.267	-200.000	0.019	-0.108
-403.252	-29.111	0.035	-0.020
-402.238	-39.091	-0.371	0.193
-401.223	256.888	-0.151	0.256
-400.209	800.000	0.072	-0.209
-399.194	-100.136	0.213	0.053
-398.179	136.316	0.053	-0.068
-397.165	800.000	-0.144	-0.411
-396.150	-200.000	0.022	-0.110
-395.136	152.066	0.141	0.191
-394.121	-120.464	-0.126	-0.021
-393.106	138.214	0.268	0.347
-392.092	800.000	-0.024	-0.081
-391.077	-71.607	-0.100	0.037
-390.063	800.000	-0.034	-0.124
-389.048	382.752	-0.025	0.051
-388.033	63.029	0.252	-0.250
-387.019	-12.392	0.282	-0.182
-386.004	564.103	-0.057	-0.137
-384.990	800.000	0.079	-0.287
-383.975	800.000	0.067	0.222
-382.960	37.124	-0.056	-0.049
-381.946	-200.000	-0.072	0.328
-380.931	-200.000	0.034	0.215
-379.917	-161.210	-0.344	-0.018
-378.902	518.292	0.129	-0.299
-377.888	84.390	0.179	0.194
-376.873	-67.405	-0.421	0.164
-375.858	800.000	0.045	0.137
-374.844	84.781	0.359	-0.389
-373.829	-86.408	0.280	0.085
-372.815	-26.372	0.313	0.181
-371.800	-30.027	0.306	-0.173
-370.785	-17.708	-0.092	-0.057
-369.771	10.707	0.385	-0.291
-368.756	2.087	-0.158	-0.113
-367.742	22.940	-0.162	-0.131
-366.727	-200.000	0.033	-0.159
-365.712	74.285	0.009	0.009
-364.698	365.457	-0.042	-0.084
-363.683	-200.000	0.044	-0.329
-362.669	170.988	-0.134	0.190
-361.654	800.000	0.070	0.303
-360.639	800.000	0.037	0.126
-359.625	800.000	0.063	-0.209
-358.610	800.000	0.068	0.221
-357.596	-200.000	0.005	0.067
-356.581	379.162	-0.109	0.221
-355.566	-65.586	0.092	-0.037
-354.552	284.131	-0.018	0.032
-353.537	10.410	-0.055	0.042
-352.523	-28.037	0.274	0.156
-351.508	800.000	0.037	-0.146
-350.493	18.757	-0.155	0.123
-349.479	105.942	0.029	-0.034
-348.464	-86.555	-0.158	-0.048
-347.450	-87.742	-0.272	-0.081
-346.435	800.000	0.093	0.370
-345.420	800.000	-0.151	0.450
-344.406	800.000	-0.188	0.703
-343.391	196.399	0.151	-0.227
-342.377	-30.786	-0.293	0.164
-341.362	-40.752	0.193	0.099
-340.348	-200.000	-0.007	-0.127
-339.333	95.445	-0.135	0.152
-338.318	-139.713	-0.207	-0.022
-337.304	238.802	0.055	-0.090
-336.289	233.936	-0.095	0.155
-335.275	800.000	-0.057	0.245
-334.260	800.000	-0.038	0.148
-333.245	55.779	0.073	-0.070
-332.231	4.406	-0.233	-0.168
-331.216	-200.000	0.010	-0.100
-330.202	32.643	0.259	0.221
-329.187	-105.875	0.185	-0.041
-328.172	83.305	-0.170	0.183
-327.158	-200.000	-0.004	-0.120
-326.143	-62.677	0.313	0.128
-325.129	13.551	-0.387	0.297
-324.114	97.755	0.082	0.093
-323.099	-58.878	-0.144	-0.061
-322.085	-53.035	-0.188	0.085
-321.070	133.464	-0.213	0.272
-320.056	-9.968	-0.274	-0.180
-319.041	-46.674	0.219	-0.106
-318.026	89.036	0.083	-0.091
-317.012	143.950	0.081	-0.106
-315.997	618.977	-0.092	-0.228
-314.983	-200.000	-0.057	-0.365
-313.968	-200.000	-0.003	0.088
-312.953	-200.000	0.020	0.115
-311.939	187.907	-0.042	-0.062
-310.924	800.000	0.081	0.229
-309.910	-99.202	-0.064	-0.016
-308.895	-128.224	-0.020	0.003
-307.880	326.338	0.024	-0.046
-306.866	107.899	-0.110	0.130
-305.851	304.607	0.123	0.226
-304.837	207.915	0.100	0.153
-303.822	-31.163	-0.163	-0.090
-302.807	-71.622	-0.272	-0.100
-301.793	-20.133	0.182	-0.111
-300.778	-91.566	0.184	0.052
-299.764	-39.341	-0.116	0.060
-298.749	262.740	0.161	-0.276
-297.735	-10.050	0.083	0.054
-296.720	393.320	-0.076	0.157
-295.705	-33.827	-0.117	0.064
-294.691	170.268	-0.207	-0.292
-293.676	-200.000	0.020	-0.116
-292.662	-92.225	-0.072	-0.020
-291.647	335.253	0.050	-0.096
-290.632	-200.000	0.004	0.346
-289.618	-107.217	0.290	-0.063
-288.603	-148.023	0.546	0.045
-287.589	-44.865	0.159	0.078
-286.574	268.733	-0.123	-0.212
-285.559	197.279	-0.152	-0.229
-284.545	37.441	-0.152	-0.133
-283.530	-46.000	0.052	-0.025
-282.516	16.357	-0.233	-0.181
-281.501	-33.905	-0.174	0.095
-280.486	-200.000	-0.024	0.173
-279.472	387.773	0.047	0.095
-278.457	20.038	0.146	-0.116
-277.443	39.701	-0.274	0.243
-276.428	-200.000	-0.005	0.347
-275.413	-110.470	-0.093	0.019
-274.399	-134.949	0.364	-0.043
-273.384	88.354	0.170	-0.187
-272.370	-94.234	-0.209	0.056
-271.355	127.912	-0.252	0.316
-270.340	290.684	0.062	-0.111
-269.326	-29.954	-0.386	0.217
-268.311	-22.832	0.170	-0.101
-267.297	84.957	0.163	0.176
-266.282	262.733	-0.073	-0.124
-265.267	37.583	0.324	-0.283
-264.253	24.202	-0.050	0.041
-263.238	-200.000	-0.025	0.216
-262.224	15.243	-0.174	0.134
-261.209	419.192	0.097	0.204
-260.195	-151.707	-0.154	0.011
-259.180	800.000	0.054	-0.181
-258.165	20.452	-0.301	-0.240
-257.151	45.449	-0.131	0.119
-256.136	-200.000	0.009	-0.315
-255.122	131.908	-0.065	0.083
-254.107	276.244	-0.141	-0.247
-253.092	74.090	0.232	-0.240
-252.078	-200.000	-0.065	0.314
-251.063	-54.885	-0.075	0.033
-250.049	4.985	-0.290	0.210
-249.034	127.134	-0.032	-0.040
-248.019	-200.000	-0.010	0.211
-247.005	571.299	-0.074	0.176
-245.990	70.725	0.174	-0.177
-244.976	-200.000	-0.009	-0.302
-243.961	-104.661	0.155	-0.035
-242.946	-63.718	-0.220	0.089
-241.932	428.762	-0.138	0.294
-240.917	33.256	-0.338	-0.288
-239.903	50.998	0.079	0.074
-238.888	4.488	-0.169	0.122
-237.873	800.000	0.142	0.391
-236.859	323.631	-0.119	-0.223
-235.844	-2.016	-0.062	0.043
-234.830	-66.329	0.171	0.067
-233.815	800.000	-0.061	-0.176
-232.800	179.221	0.242	-0.348
-231.786	24.556	0.099	-0.080
-230.771	331.279	0.069	0.130
-229.757	-200.000	0.006	-0.201
-228.742	74.319	0.104	-0.107
-227.727	-200.000	0.014	-0.127
-226.713	-123.477	0.229	0.036
-225.698	800.000	-0.088	-0.242
-224.684	-124.440	0.463	0.071
-223.669	-1.973	-0.244	0.169
-222.655	800.000	0.084	0.341
-221.640	70.241	0.123	-0.125
-220.625	-106.673	0.060	-0.013
-219.611	-57.357	-0.319	-0.138
-218.596	79.760	0.236	-0.250
-217.582	-44.073	0.122	0.060
-216.567	118.481	0.076	0.092
-215.552	601.403	-0.076	-0.186
-214.538	684.782	-0.093	-0.238
-213.523	185.056	-0.058	-0.084
-212.509	-200.000	-0.006	-0.215
-211.494	-89.992	0.158	0.045
-210.479	-114.003	-0.120	-0.023
-209.465	-200.000	0.024	-0.307
-208.450	-147.701	0.277	0.023
-207.436	-43.645	0.143	-0.071
-206.421	800.000	0.056	0.240
-205.406	-35.126	0.131	-0.070
-204.392	240.370	0.198	-0.324
-203.377	-150.311	-0.204	-0.015
-202.363	-200.000	-0.005	-0.059
-201.348	800.000	-0.026	0.072
-200.333	-48.995	0.076	0.036
-199.319	771.465	0.111	0.298
-198.304	-46.156	-0.158	-0.077
-197.290	142.365	0.130	0.169
-196.275	-200.000	0.007	-0.178
-195.260	800.000	0.029	0.095
-194.246	321.313	0.114	-0.212
-193.231	800.000	0.026	-0.085
-192.217	-200.000	0.031	0.242
-191.202	-126.230	-0.075	-0.011
-190.187	224.112	0.245	0.389
-189.173	53.104	0.191	0.180
-188.158	586.044	0.107	-0.258
-187.144	-200.000	0.000	0.105
-186.129	105.442	0.189	0.220
-185.114	0.964	-0.024	-0.017
-184.100	37.308	0.066	-0.057
-183.085	-189.873	0.274	0.003
-182.071	21.051	-0.351	-0.280
-181.056	-13.368	0.125	0.080
-180.042	-200.000	-0.032	-0.167
-179.027	-146.909	0.045	-0.004
-178.012	71.086	0.205	-0.208
-176.998	-200.000	-0.024	-0.364
-175.983	63.651	0.089	-0.088
-174.969	145.049	-0.143	-0.188
-173.954	800.000	-0.068	-0.198
-172.939	88.969	-0.278	0.304
-171.925	-117.570	0.116	0.020
-170.910	800.000	0.137	0.397
-169.896	333.468	0.027	0.052
-168.881	800.000	-0.037	-0.106
-167.866	-200.000	-0.037	-0.215
-166.852	-96.325	-0.149	0.039
-165.837	-200.000	-0.015	-0.185
-164.823	-91.819	0.318	0.088
-163.808	-1.596	-0.242	-0.167
-162.793	-200.000	-0.003	-0.066
-161.779	-200.000	0.031	0.209
-160.764	-59.816	-0.312	-0.131
-159.750	-11.080	0.230	0.149
-158.735	800.000	0.073	0.224
-157.720	-68.759	-0.235	0.089
-156.706	767.907	-0.122	0.327
-155.691	127.118	0.121	0.150
-154.677	38.987	0.114	0.100
-153.662	800.000	-0.121	-0.380
-152.647	-76.785	-0.330	0.113
-151.633	800.000	-0.059	0.175
-150.618	-50.527	-0.177	0.082
-149.604	345.494	-0.004	-0.008
-148.589	-39.170	0.192	0.099
-147.574	-115.406	0.218	0.040
-146.560	-200.000	0.000	-0.181
-145.545	190.044	-0.249	-0.367
-144.531	2.922	0.254	-0.181
-143.516	209.443	0.129	-0.198
-142.502	-200.000	0.016	-0.242
-141.487	-161.934	0.167	-0.008
-140.472	50.649	0.269	-0.249
-139.458	321.699	0.124	-0.232
-138.443	-12.428	-0.162	-0.104
-137.429	-99.710	0.174	0.043
-136.414	520.962	-0.111	-0.255
-135.399	15.846	0.325	0.251
-134.385	800.000	0.017	0.050
-133.370	261.801	-0.059	0.099
-132.356	-120.575	0.271	0.045
-131.341	-66.411	-0.207	-0.081
-130.326	-103.022	0.111	0.026
-129.312	675.305	0.066	-0.167
-128.297	8.257	0.443	0.326
-127.283	-101.332	-0.139	-0.033
-126.268	107.253	0.036	0.042
-125.253	-27.057	0.131	0.075
-124.239	-122.403	0.105	0.017
-123.224	314.659	0.210	-0.388
-122.210	41.640	-0.084	0.075
-121.195	59.016	0.059	-0.057
-120.180	-200.000	0.046	-0.246
