DTS Sentinel unit serial number:	SN413079Multiplexer serial number:	ORYXHardware model number:	OX4-SRSoftware version number:	ORYX F/W v4.00 Oryx Data Collector v3.7.2.0data status	okinstallation	princeton_trtdifferential loss correction	single-endedforward channel	channel 2reverse channel	N/Adate	2019/09/11time	18:49:11forward acquisition time	60.00reverse acquisition time	0.00gamma	496.2192k internal	0.2291k external	0.2291temperature offset calibration	1.0031default loss term (dB/km)	0.3790temperature slope calibration	1.0000multiplexer offset coefficient	1.0000multiplexer slope coefficient	1.0000fibre end	0.00T internal ref (°C)	42.98T ext. ref 1 (°C)	1.24T ext. ref 2 (°C)	35.03length (m)	temperature (°C)	Stokes	anti-Stokes-747.200	53.301	0.159	0.156
-746.185	268.119	0.318	0.570
-745.171	-67.540	0.244	-0.098
-744.156	383.615	0.062	0.131
-743.142	29.481	-0.248	0.216
-742.127	116.978	-0.246	0.309
-741.112	-16.994	-0.202	-0.131
-740.098	-200.000	-0.003	0.149
-739.083	226.039	-0.094	0.157
-738.069	83.341	0.206	0.230
-737.054	-13.074	0.017	0.011
-736.039	509.100	-0.198	0.470
-735.025	23.184	0.141	0.119
-734.010	-132.755	-0.173	-0.023
-732.996	-1.691	-0.216	-0.155
-731.981	306.863	-0.139	-0.265
-730.966	-200.000	-0.047	0.320
-729.952	-4.071	-0.104	-0.074
-728.937	-52.309	0.085	-0.040
-727.923	-44.381	-0.082	-0.042
-726.908	800.000	0.057	-0.182
-725.894	-200.000	0.042	-0.285
-724.879	-200.000	-0.015	0.331
-723.864	157.312	0.169	-0.239
-722.850	-37.636	0.217	-0.119
-721.835	179.465	-0.129	-0.193
-720.821	43.405	0.259	0.242
-719.806	106.303	-0.101	0.122
-718.791	-200.000	-0.011	-0.295
-717.777	800.000	-0.021	-0.070
-716.762	-92.705	-0.111	-0.032
-715.748	184.953	0.079	0.120
-714.733	-62.759	-0.159	-0.067
-713.718	25.564	-0.185	0.157
-712.704	800.000	-0.075	-0.335
-711.689	-163.060	-0.355	0.018
-710.675	-200.000	-0.010	0.173
-709.660	-91.023	0.316	-0.093
-708.645	-121.342	0.401	-0.068
-707.631	-200.000	-0.011	-0.082
-706.616	-54.169	0.120	0.056
-705.602	-28.025	-0.102	-0.061
-704.587	-77.829	-0.256	0.090
-703.572	800.000	-0.060	0.191
-702.558	137.494	0.277	-0.371
-701.543	55.042	0.110	-0.108
-700.529	800.000	-0.009	0.042
-699.514	-200.000	-0.056	-0.441
-698.499	-60.002	0.157	-0.069
-697.485	-200.000	-0.016	0.096
-696.470	800.000	-0.026	0.095
-695.456	525.845	0.109	-0.262
-694.441	-102.384	-0.090	0.022
-693.426	-23.603	0.105	-0.064
-692.412	-62.082	-0.187	0.080
-691.397	770.363	0.036	0.101
-690.383	195.939	-0.040	0.063
-689.368	-63.402	-0.110	-0.046
-688.354	141.923	0.275	0.373
-687.339	144.247	-0.075	-0.102
-686.324	109.747	-0.079	-0.097
-685.310	-163.562	-0.212	0.010
-684.295	800.000	-0.054	-0.196
-683.281	164.196	-0.069	-0.099
-682.266	-200.000	-0.008	0.105
-681.251	-33.882	-0.137	0.077
-680.237	174.410	-0.023	0.034
-679.222	800.000	0.070	-0.229
-678.208	-64.771	-0.020	-0.008
-677.193	800.000	-0.125	-0.559
-676.178	759.180	0.079	-0.219
-675.164	800.000	-0.097	-0.324
-674.149	211.855	-0.128	0.205
-673.135	-148.227	0.130	-0.011
-672.120	-91.252	-0.274	0.080
-671.105	-31.185	-0.087	0.050
-670.091	20.282	-0.289	-0.238
-669.076	244.673	0.052	0.089
-668.062	-7.623	-0.232	0.160
-667.047	-72.712	-0.026	-0.010
-666.032	15.446	0.335	0.269
-665.018	-22.425	-0.174	0.108
-664.003	-120.932	-0.038	0.007
-662.989	-1.670	-0.306	0.220
-661.974	-200.000	-0.027	0.225
-660.959	-31.140	0.050	-0.029
-659.945	25.527	-0.327	-0.278
-658.930	310.829	-0.072	-0.138
-657.916	103.976	0.141	0.169
-656.901	-89.369	0.218	-0.065
-655.886	-105.295	0.084	-0.020
-654.872	-63.958	0.106	-0.044
-653.857	-95.778	-0.093	-0.025
-652.843	434.602	0.038	-0.084
-651.828	358.342	-0.046	-0.093
-650.814	-16.629	-0.204	-0.132
-649.799	641.398	0.025	-0.065
-648.784	-139.586	-0.314	0.034
-647.770	-77.002	0.260	-0.093
-646.755	-25.960	-0.173	-0.104
-645.741	152.319	0.107	0.149
-644.726	-126.796	-0.401	-0.060
-643.711	-200.000	-0.011	0.216
-642.697	505.794	0.061	0.145
-641.682	-111.236	0.187	-0.039
-640.668	-153.605	0.027	-0.002
-639.653	-89.648	-0.215	-0.064
-638.638	-10.168	0.044	-0.030
-637.624	800.000	0.074	-0.275
-636.609	43.202	0.178	-0.166
-635.595	-100.968	-0.219	0.055
-634.580	-200.000	0.006	-0.266
-633.565	388.902	0.009	0.018
-632.551	-87.468	0.155	-0.048
-631.536	130.486	-0.137	-0.179
-630.522	-32.419	-0.235	-0.134
-629.507	627.689	-0.092	0.237
-628.492	-126.911	0.165	0.025
-627.478	800.000	-0.056	0.243
-626.463	-38.544	-0.102	0.055
-625.449	-200.000	0.005	-0.166
-624.434	-10.830	-0.229	0.154
-623.419	244.535	-0.030	0.051
-622.405	800.000	-0.090	0.264
-621.390	-51.078	-0.063	-0.030
-620.376	255.277	0.023	0.041
-619.361	-200.000	0.015	-0.126
-618.346	-11.006	0.105	-0.070
-617.332	123.597	0.024	-0.031
-616.317	60.118	-0.130	0.131
-615.303	15.820	0.209	-0.168
-614.288	-29.465	-0.260	0.151
-613.273	230.114	0.043	-0.072
-612.259	186.867	-0.045	-0.069
-611.244	-71.045	-0.495	-0.190
-610.230	191.347	0.056	-0.086
-609.215	-105.859	-0.271	0.062
-608.201	-124.054	0.257	-0.041
-607.186	-111.939	-0.280	-0.057
-606.171	-200.000	-0.138	-0.000
-605.157	97.940	0.082	0.096
-604.142	-109.056	0.172	-0.037
-603.128	104.160	-0.188	-0.225
-602.113	-12.230	-0.208	0.138
-601.098	800.000	0.040	-0.156
-600.084	-74.967	0.228	-0.083
-599.069	-163.586	0.110	0.005
-598.055	-115.038	-0.134	-0.026
-597.040	-33.496	-0.279	-0.157
-596.025	800.000	0.116	-0.407
-595.011	-50.895	-0.156	-0.075
-593.996	-21.896	0.152	-0.094
-592.982	1.337	0.127	0.093
-591.967	-16.943	0.114	0.073
-590.952	-57.785	-0.117	0.052
-589.938	84.278	0.235	-0.262
-588.923	-200.000	-0.014	-0.172
-587.909	483.530	-0.039	0.091
-586.894	-80.994	-0.144	-0.048
-585.879	-200.000	-0.003	0.085
-584.865	71.125	-0.148	-0.157
-583.850	646.573	0.132	0.343
-582.836	-200.000	-0.012	-0.094
-581.821	63.428	-0.229	-0.234
-580.806	-163.063	0.074	0.004
-579.792	55.840	0.228	0.225
-578.777	-119.353	0.302	0.053
-577.763	-4.981	-0.065	-0.046
-576.748	-104.985	0.130	0.030
-575.733	-200.000	-0.003	-0.416
-574.719	27.424	-0.189	-0.162
-573.704	201.397	0.249	-0.390
-572.690	800.000	0.051	-0.183
-571.675	-78.662	0.376	0.131
-570.661	-107.675	0.014	0.003
-569.646	-200.000	-0.013	0.178
-568.631	86.324	0.141	-0.158
-567.617	-66.111	-0.205	-0.083
-566.602	800.000	0.023	0.101
-565.588	-127.160	0.357	-0.053
-564.573	243.421	0.070	0.119
-563.558	-200.000	-0.052	0.541
-562.544	-61.446	-0.177	0.076
-561.529	248.240	-0.239	0.411
-560.515	-15.529	0.411	-0.267
-559.500	800.000	-0.022	0.068
-558.485	326.690	-0.162	-0.316
-557.471	-200.000	0.003	-0.256
-556.456	-93.230	-0.284	-0.080
-555.442	-147.032	0.279	-0.024
-554.427	-98.711	0.131	0.034
-553.412	151.846	-0.133	-0.185
-552.398	800.000	-0.129	-0.448
-551.383	82.703	0.229	0.253
-550.369	-64.171	0.220	0.091
-549.354	-73.703	-0.248	-0.092
-548.339	42.780	0.122	-0.113
-547.325	800.000	-0.063	-0.196
-546.310	168.192	-0.188	-0.272
-545.296	-167.321	-0.336	-0.014
-544.281	46.882	0.061	-0.058
-543.266	13.483	0.144	0.114
-542.252	-200.000	0.001	0.316
-541.237	-23.904	-0.294	-0.179
-540.223	800.000	0.032	-0.117
-539.208	194.502	-0.068	-0.104
-538.193	168.319	-0.026	-0.037
-537.179	-125.534	0.122	0.019
-536.164	-14.512	-0.279	0.182
-535.150	20.955	-0.245	0.202
-534.135	227.684	-0.112	-0.186
-533.121	800.000	-0.041	-0.168
-532.106	100.865	-0.272	-0.321
-531.091	800.000	0.031	0.138
-530.077	-56.932	0.059	0.027
-529.062	-51.993	0.226	0.107
-528.048	-111.074	0.166	0.035
-527.033	-123.669	-0.106	0.017
-526.018	177.138	0.046	-0.067
-525.004	-200.000	0.020	-0.092
-523.989	-160.653	-0.141	-0.008
-522.975	-15.016	-0.179	0.116
-521.960	-200.000	0.008	-0.116
-520.945	178.300	0.290	0.430
-519.931	-71.239	-0.032	-0.012
-518.916	90.505	0.195	-0.221
-517.902	-74.926	0.529	0.192
-516.887	-46.306	0.098	-0.049
-515.872	-151.753	0.100	0.007
-514.858	454.361	0.078	-0.174
-513.843	520.516	0.087	0.207
-512.829	-76.124	0.328	0.118
-511.814	-27.550	-0.121	0.071
-510.799	-53.858	-0.042	-0.020
-509.785	170.038	0.210	-0.304
-508.770	800.000	-0.011	-0.037
-507.756	-154.081	-0.189	0.013
-506.741	-50.628	-0.248	0.118
-505.726	-200.000	-0.041	0.351
-504.712	-38.142	-0.167	-0.090
-503.697	-29.504	-0.063	0.036
-502.683	37.276	-0.136	0.122
-501.668	-72.183	-0.182	0.069
-500.653	-200.000	-0.059	-0.418
-499.639	327.188	0.127	-0.247
-498.624	58.042	0.223	-0.222
-497.610	-33.888	-0.150	-0.084
-496.595	581.136	0.127	-0.316
-495.581	-22.198	-0.261	-0.161
-494.566	154.251	0.077	-0.107
-493.551	-192.716	-0.152	0.001
-492.537	69.987	-0.145	0.152
-491.522	36.011	0.183	0.164
-490.508	-96.019	0.119	-0.032
-489.493	-200.000	-0.005	0.173
-488.478	-136.920	0.245	-0.028
-487.464	-200.000	0.032	-0.277
-486.449	-82.928	0.028	-0.009
-485.435	-16.853	0.180	-0.116
-484.420	54.671	-0.117	0.114
-483.405	-20.334	-0.091	-0.057
-482.391	267.479	0.030	-0.053
-481.376	200.529	-0.096	-0.149
-480.362	-55.042	0.078	0.035
-479.347	-70.620	-0.142	-0.054
-478.332	800.000	-0.055	-0.206
-477.318	-40.963	0.219	-0.115
-476.303	-88.672	0.241	-0.073
-475.289	-136.605	0.459	0.054
-474.274	-55.503	-0.207	-0.094
-473.259	-200.000	-0.003	-0.285
-472.245	-200.000	-0.015	-0.142
-471.230	800.000	-0.084	-0.339
-470.216	800.000	0.118	-0.358
-469.201	-200.000	-0.003	0.249
-468.186	589.361	0.043	0.107
-467.172	-134.127	-0.046	-0.006
-466.157	69.998	-0.198	0.207
-465.143	1.448	-0.183	-0.133
-464.128	24.218	-0.035	0.029
-463.113	-118.304	0.114	0.021
-462.099	62.880	-0.069	0.070
-461.084	29.361	0.142	-0.123
-460.070	5.172	-0.198	0.148
-459.055	800.000	0.081	0.277
-458.040	-47.897	-0.192	0.094
-457.026	56.047	0.145	0.142
-456.011	-39.997	-0.115	-0.061
-454.997	-79.257	0.446	-0.153
-453.982	-23.748	-0.231	0.140
-452.968	-84.564	-0.345	0.110
-451.953	-4.395	-0.282	0.197
-450.938	-10.658	0.360	0.241
-449.924	359.752	-0.119	-0.241
-448.909	23.108	-0.181	0.151
-447.895	-200.000	0.007	0.067
-446.880	-65.076	-0.247	-0.101
-445.865	-66.248	0.080	-0.032
-444.851	-136.443	-0.067	-0.008
-443.836	800.000	-0.029	-0.124
-442.822	69.207	-0.142	-0.148
-441.807	-200.000	0.068	0.467
-440.792	-200.000	0.015	-0.186
-439.778	181.913	-0.121	0.180
-438.763	800.000	0.056	-0.160
-437.749	-124.360	0.267	0.042
-436.734	-2.477	-0.017	0.012
-435.719	-200.000	0.021	0.185
-434.705	335.608	-0.103	-0.201
-433.690	622.504	0.048	-0.122
-432.676	-35.177	0.285	0.157
-431.661	231.269	-0.084	-0.140
-430.646	241.871	-0.165	0.279
-429.632	-57.529	-0.077	-0.034
-428.617	-85.810	-0.062	0.019
-427.603	800.000	0.039	0.128
-426.588	411.370	0.062	0.134
-425.573	-116.721	-0.046	0.008
-424.559	110.464	-0.137	0.167
-423.544	-8.738	0.095	0.065
-422.530	-62.975	-0.152	0.064
-421.515	94.682	-0.114	-0.131
-420.500	-96.231	0.259	-0.069
-419.486	-200.000	-0.056	0.302
-418.471	-10.763	-0.275	0.184
-417.457	82.215	0.066	-0.072
-416.442	14.126	-0.146	0.115
-415.428	345.848	0.071	-0.141
-414.413	640.732	0.073	0.189
-413.398	-82.875	-0.053	-0.017
-412.384	78.564	0.042	-0.046
-411.369	-97.996	-0.135	-0.035
-410.355	-200.000	0.045	-0.356
-409.340	-200.000	-0.014	-0.229
-408.325	102.556	0.135	0.160
-407.311	89.413	-0.215	0.242
-406.296	800.000	0.034	-0.144
-405.282	-93.142	0.128	-0.036
-404.267	181.825	-0.121	0.180
-403.252	-79.538	0.473	0.162
-402.238	-200.000	0.001	-0.086
-401.223	-136.700	0.178	-0.021
-400.209	53.688	-0.153	-0.148
-399.194	-55.782	0.137	-0.062
-398.179	-127.290	0.068	-0.010
-397.165	800.000	-0.074	-0.220
-396.150	-73.369	-0.070	-0.026
-395.136	-186.461	-0.388	-0.006
-394.121	-1.314	-0.042	-0.030
-393.106	127.309	-0.133	0.171
-392.092	-114.148	0.360	0.070
-391.077	-11.329	-0.217	-0.144
-390.063	-200.000	0.009	0.074
-389.048	-200.000	-0.026	-0.164
-388.033	-18.593	0.193	-0.122
-387.019	-200.000	0.024	0.190
-386.004	-200.000	0.039	0.208
-384.990	273.757	0.054	-0.097
-383.975	800.000	0.038	0.146
-382.960	-13.917	-0.132	-0.086
-381.946	-200.000	-0.015	-0.273
-380.931	-21.973	-0.151	0.092
-379.917	90.549	0.229	-0.259
-378.902	49.783	-0.098	-0.093
-377.888	-91.672	-0.074	-0.021
-376.873	-101.341	0.170	0.042
-375.858	88.650	-0.377	-0.423
-374.844	-97.466	-0.291	-0.076
-373.829	-6.458	-0.150	-0.103
-372.815	-44.314	-0.137	0.069
-371.800	253.114	0.034	-0.059
-370.785	21.503	0.180	-0.148
-369.771	-200.000	0.018	0.240
-368.756	-78.573	-0.178	-0.062
-367.742	-168.206	-0.256	0.010
-366.727	-200.000	-0.028	0.183
-365.712	-28.966	-0.360	0.208
-364.698	-200.000	-0.012	0.242
-363.683	-200.000	0.005	0.099
-362.669	-200.000	-0.009	0.168
-361.654	-113.185	0.326	-0.065
-360.639	800.000	0.039	0.112
-359.625	163.548	-0.090	0.127
-358.610	-200.000	-0.008	-0.294
-357.596	258.186	-0.024	-0.042
-356.581	-200.000	0.014	0.150
-355.566	-136.328	0.329	0.039
-354.552	-122.215	0.447	-0.074
-353.537	-6.760	0.207	0.142
-352.523	-57.109	0.104	0.046
-351.508	19.619	-0.189	-0.153
-350.493	570.183	0.069	0.170
-349.479	-124.700	-0.279	-0.044
-348.464	-200.000	-0.002	-0.180
-347.450	-127.523	0.163	-0.024
-346.435	-91.759	0.342	0.098
-345.420	166.056	0.122	0.173
-344.406	800.000	0.069	-0.292
-343.391	-18.485	0.357	-0.225
-342.377	181.076	0.209	0.310
-341.362	103.192	0.077	-0.091
-340.348	228.621	-0.013	-0.021
-339.333	-110.758	0.208	-0.043
-338.318	800.000	0.049	0.142
-337.304	788.714	0.066	0.182
-336.289	-60.406	-0.099	-0.042
-335.275	-200.000	-0.015	0.115
-334.260	800.000	-0.024	0.088
-333.245	199.171	0.120	0.186
-332.231	-83.115	0.302	0.098
-331.216	-61.435	-0.138	-0.059
-330.202	-173.057	-0.063	0.002
-329.187	-200.000	0.025	0.218
-328.172	-111.495	-0.083	0.017
-327.158	-115.229	-0.070	-0.013
-326.143	-45.994	0.302	-0.150
-325.129	-60.683	0.247	0.106
-324.114	-114.267	-0.211	-0.041
-323.099	470.724	-0.142	0.322
-322.085	-166.182	-0.152	-0.006
-321.070	-200.000	0.010	0.162
-320.056	136.529	-0.089	-0.117
-319.041	800.000	-0.070	-0.230
-318.026	-176.133	-0.060	-0.002
-317.012	200.475	0.072	-0.112
-315.997	-186.877	0.150	0.002
-314.983	-200.000	0.078	-0.502
-313.968	363.125	-0.237	-0.478
-312.953	800.000	0.101	0.340
-311.939	366.158	-0.094	-0.191
-310.924	58.783	-0.040	0.040
-309.910	-180.715	0.138	0.003
-308.895	-148.575	0.259	0.021
-307.880	-56.951	0.209	0.093
-306.866	800.000	0.152	-0.441
-305.851	181.955	0.136	-0.202
-304.837	-175.695	-0.244	0.007
-303.822	177.793	-0.171	0.251
-302.807	-46.191	0.038	0.019
-301.793	-17.092	0.013	0.008
-300.778	-35.228	-0.404	-0.221
-299.764	800.000	0.137	0.469
-298.749	385.068	0.074	-0.154
-297.735	-80.153	-0.166	-0.056
-296.720	540.917	0.034	-0.082
-295.705	-44.605	0.151	-0.076
-294.691	100.358	0.134	-0.157
-293.676	249.523	-0.064	-0.109
-292.662	800.000	0.012	0.052
-291.647	187.514	0.100	-0.150
-290.632	41.341	0.225	0.205
-289.618	-19.410	-0.218	-0.136
-288.603	-117.186	0.489	0.090
-287.589	-128.432	0.161	0.023
-286.574	129.483	0.156	-0.201
-285.559	-188.772	-0.255	0.003
-284.545	-106.238	0.212	-0.048
-283.530	64.346	0.267	0.271
-282.516	222.721	-0.145	-0.234
-281.501	227.461	-0.176	0.288
-280.486	-61.898	0.175	0.074
-279.472	-200.000	0.001	-0.012
-278.457	85.822	-0.125	-0.138
-277.443	237.681	0.109	-0.182
-276.428	-146.352	-0.245	0.022
-275.413	-98.766	0.242	0.062
-274.399	322.139	0.128	0.245
-273.384	19.742	-0.172	0.140
-272.370	590.460	-0.105	0.261
-271.355	381.342	-0.191	-0.395
-270.340	-23.723	-0.219	0.132
-269.326	412.810	-0.053	-0.114
-268.311	-62.487	0.235	0.098
-267.297	254.658	0.192	0.330
-266.282	-148.235	-0.339	0.028
-265.267	-35.709	-0.205	0.112
-264.253	119.262	0.041	0.051
-263.238	111.969	0.214	-0.260
-262.224	-86.807	0.088	0.027
-261.209	-200.000	0.020	0.249
-260.195	174.473	-0.226	0.328
-259.180	-55.023	-0.141	-0.064
-258.165	-200.000	-0.087	0.496
-257.151	115.050	0.271	0.332
-256.136	107.416	0.136	0.163
-255.122	39.434	-0.028	-0.025
-254.107	-200.000	-0.060	0.324
-253.092	-15.763	0.113	0.072
-252.078	401.121	-0.076	0.161
-251.063	800.000	-0.032	0.093
-250.049	-43.505	-0.310	0.157
-249.034	408.073	-0.198	0.420
-248.019	-93.521	0.102	-0.028
-247.005	-42.308	0.562	-0.288
-245.990	-200.000	0.047	0.209
-244.976	714.428	-0.064	-0.171
-243.961	55.242	-0.157	0.153
-242.946	-200.000	0.046	-0.455
-241.932	-138.583	-0.075	-0.008
-240.917	-34.957	-0.170	-0.093
-239.903	-12.237	-0.150	0.099
-238.888	-200.000	0.030	0.141
-237.873	-200.000	0.005	0.403
-236.859	-108.678	-0.340	0.073
-235.844	120.234	-0.107	0.133
-234.830	-200.000	0.032	-0.210
-233.815	-47.366	-0.138	-0.067
-232.800	-173.869	0.196	0.006
-231.786	-139.637	0.293	-0.031
-230.771	-115.518	-0.255	0.048
-229.757	-70.311	0.137	0.052
-228.742	72.342	0.244	0.255
-227.727	-159.318	0.091	0.005
-226.713	-146.590	0.133	0.012
-225.698	800.000	-0.082	0.247
-224.684	800.000	-0.058	-0.173
-223.669	-71.443	0.099	0.037
-222.655	-65.351	-0.083	0.033
-221.640	74.008	0.279	0.294
-220.625	229.064	-0.009	-0.014
-219.611	40.126	0.118	0.106
-218.596	-48.314	-0.237	0.115
-217.582	-89.080	-0.091	0.027
-216.567	1.958	0.025	0.018
-215.552	-200.000	0.024	-0.171
-214.538	-118.930	-0.074	-0.013
-213.523	-62.851	0.210	0.087
-212.509	-139.228	-0.339	-0.037
-211.494	800.000	0.014	0.053
-210.479	-200.000	-0.025	-0.120
-209.465	21.370	-0.256	-0.208
-208.450	104.818	-0.175	0.206
-207.436	272.743	-0.066	0.117
-206.421	376.315	0.047	-0.097
-205.406	364.045	0.069	0.138
-204.392	307.722	-0.127	0.237
-203.377	-200.000	0.076	-0.419
-202.363	-200.000	-0.044	0.296
-201.348	-144.577	-0.116	-0.011
-200.333	-9.254	0.143	0.096
-199.319	-30.176	0.207	0.118
-198.304	-40.448	-0.189	-0.099
-197.290	-200.000	-0.042	0.329
-196.275	355.171	0.030	-0.059
-195.260	-41.713	-0.013	0.007
-194.246	-200.000	-0.009	-0.160
-193.231	8.949	0.330	0.249
-192.217	158.914	-0.064	0.090
-191.202	99.057	0.152	0.176
-190.187	-124.251	-0.156	0.024
-189.173	-78.039	-0.249	0.086
-188.158	-200.000	-0.004	0.252
-187.144	-200.000	0.038	-0.248
-186.129	-137.679	-0.156	-0.018
-185.114	238.497	-0.314	0.523
-184.100	2.078	0.423	0.306
-183.085	684.747	-0.052	0.137
-182.071	-5.560	-0.283	-0.194
-181.056	-168.482	0.234	-0.009
-180.042	242.580	-0.137	0.230
-179.027	-200.000	0.038	-0.214
-178.012	-62.290	0.358	0.150
-176.998	69.269	0.064	-0.065
-175.983	-4.307	0.101	0.070
-174.969	79.191	0.163	0.174
-173.954	-76.355	0.252	0.089
-172.939	-120.501	0.217	-0.037
-171.925	-200.000	0.012	-0.138
-170.910	-108.707	-0.125	-0.027
-169.896	-200.000	0.011	-0.067
-168.881	-200.000	-0.041	-0.320
-167.866	462.262	0.118	-0.264
-166.852	-63.197	-0.362	-0.150
-165.837	-200.000	-0.022	-0.310
-164.823	800.000	-0.046	-0.141
-163.808	28.737	0.143	-0.121
-162.793	-1.126	0.237	0.168
-161.779	-21.314	0.194	-0.118
-160.764	-99.532	0.154	0.039
-159.750	23.752	0.199	0.164
-158.735	-80.752	-0.197	-0.066
-157.720	-42.744	0.128	0.065
-156.706	93.782	0.099	0.112
-155.691	800.000	0.046	-0.160
-154.677	-43.107	-0.402	-0.204
-153.662	800.000	-0.078	0.228
-152.647	-42.387	-0.272	-0.139
-151.633	111.977	-0.151	-0.182
-150.618	-200.000	0.457	-0.001
-149.604	55.612	0.104	0.101
-148.589	800.000	0.105	0.341
-147.574	800.000	0.070	-0.200
-146.560	-48.678	-0.230	-0.111
-145.545	-37.363	0.298	-0.159
-144.531	-76.436	0.387	-0.136
-143.516	677.541	-0.106	-0.277
-142.502	224.162	-0.059	0.095
-141.487	-200.000	0.057	-0.355
-140.472	-200.000	0.003	-0.220
-139.458	239.877	0.078	0.130
-138.443	-81.418	0.298	-0.098
-137.429	800.000	-0.066	-0.194
-136.414	82.954	0.036	0.039
-135.399	668.354	-0.074	0.191
-134.385	-121.802	0.228	-0.038
-133.370	-29.005	0.190	0.109
-132.356	-43.706	0.129	0.065
-131.341	39.294	0.174	-0.156
-130.326	-200.000	-0.081	0.383
-129.312	249.826	-0.003	-0.005
-128.297	69.320	-0.068	-0.070
-127.283	620.926	-0.072	0.181
-126.268	-200.000	-0.126	0.000
-125.253	-56.248	0.146	-0.065
-124.239	-200.000	0.019	-0.127
-123.224	337.771	-0.205	-0.399
-122.210	93.039	-0.065	-0.074
