DTS Sentinel unit serial number:	SN413079Multiplexer serial number:	ORYXHardware model number:	OX4-SRSoftware version number:	ORYX F/W v4.00 Oryx Data Collector v3.7.2.0data status	okinstallation	princeton_trtdifferential loss correction	single-endedforward channel	channel 2reverse channel	N/Adate	2019/09/12time	17:45:11forward acquisition time	60.00reverse acquisition time	0.00gamma	496.2192k internal	0.2324k external	0.2324temperature offset calibration	1.0136default loss term (dB/km)	0.3790temperature slope calibration	1.0000multiplexer offset coefficient	1.0000multiplexer slope coefficient	1.0000fibre end	0.00T internal ref (°C)	34.19T ext. ref 1 (°C)	2.90T ext. ref 2 (°C)	28.36length (m)	temperature (°C)	Stokes	anti-Stokes-747.200	125.538	-0.100	-0.127
-746.185	-200.000	0.060	0.669
-745.171	607.669	0.011	-0.027
-744.156	222.278	0.228	0.370
-743.142	-121.775	0.451	0.075
-742.127	259.398	-0.136	0.238
-741.112	-200.000	0.013	0.183
-740.098	-46.964	0.081	0.040
-739.083	271.989	0.282	0.501
-738.069	-69.039	0.208	0.081
-737.054	292.333	0.095	0.175
-736.039	26.954	-0.053	0.045
-735.025	274.901	0.088	0.157
-734.010	-44.983	-0.057	0.029
-732.996	-144.435	-0.231	0.022
-731.981	200.734	-0.085	-0.131
-730.966	167.756	-0.135	0.194
-729.952	800.000	0.026	0.103
-728.937	413.103	0.084	0.181
-727.923	77.532	0.074	0.080
-726.908	800.000	0.014	-0.057
-725.894	-70.796	-0.407	-0.155
-724.879	146.265	-0.306	-0.415
-723.864	-200.000	0.018	-0.118
-722.850	542.016	0.002	0.006
-721.835	205.484	-0.152	-0.238
-720.821	-110.196	-0.230	-0.048
-719.806	-200.000	-0.015	0.200
-718.791	-88.828	0.172	-0.052
-717.777	-163.757	-0.256	-0.012
-716.762	-155.833	-0.229	-0.015
-715.748	-133.166	-0.219	-0.028
-714.733	-71.525	0.082	0.031
-713.718	-51.091	0.264	0.125
-712.704	-157.910	0.226	0.013
-711.689	-200.000	-0.032	0.225
-710.675	-200.000	-0.035	0.409
-709.660	-109.326	-0.230	0.049
-708.645	175.730	-0.117	-0.171
-707.631	-25.524	0.184	0.109
-706.616	40.595	0.225	0.205
-705.602	4.484	-0.074	0.054
-704.587	-53.181	0.216	0.100
-703.572	-42.978	-0.107	-0.055
-702.558	800.000	-0.049	-0.175
-701.543	-132.748	-0.156	-0.020
-700.529	-1.164	-0.284	-0.203
-699.514	-113.185	0.058	-0.012
-698.499	-18.537	-0.063	0.040
-697.485	-154.093	-0.291	0.020
-696.470	86.217	0.066	-0.073
-695.456	84.103	-0.165	-0.181
-694.441	-99.831	0.207	-0.052
-693.426	800.000	-0.010	0.027
-692.412	-200.000	0.004	0.030
-691.397	76.424	0.236	-0.252
-690.383	224.267	0.121	-0.197
-689.368	408.181	-0.167	-0.355
-688.354	-200.000	0.015	0.099
-687.339	166.650	-0.194	-0.277
-686.324	-22.037	-0.210	-0.128
-685.310	-114.493	-0.239	0.046
-684.295	800.000	0.053	0.224
-683.281	269.366	0.057	0.101
-682.266	-119.113	0.394	0.069
-681.251	-175.421	-0.451	-0.012
-680.237	-200.000	0.021	0.166
-679.222	-92.081	-0.176	-0.050
-678.208	800.000	0.064	-0.194
-677.193	-38.489	-0.212	-0.113
-676.178	-142.749	0.186	0.018
-675.164	56.904	-0.243	-0.238
-674.149	-169.727	0.366	0.013
-673.135	485.276	-0.009	-0.021
-672.120	53.893	-0.223	0.216
-671.105	213.992	0.022	-0.035
-670.091	99.208	-0.147	0.171
-669.076	-30.199	-0.039	0.022
-668.062	-74.280	-0.349	-0.127
-667.047	800.000	-0.051	-0.149
-666.032	-18.790	-0.294	-0.184
-665.018	296.176	-0.051	-0.095
-664.003	338.295	-0.138	-0.271
-662.989	736.544	0.068	0.183
-661.974	-36.897	0.383	-0.207
-660.959	40.350	-0.060	-0.054
-659.945	21.169	0.170	0.139
-658.930	259.264	0.093	0.162
-657.916	212.647	-0.087	0.137
-656.901	147.789	-0.073	-0.099
-655.886	-109.784	0.184	-0.039
-654.872	-154.698	0.115	-0.008
-653.857	-38.616	0.161	-0.086
-652.843	100.025	0.149	-0.173
-651.828	-35.677	0.172	0.094
-650.814	-200.000	-0.049	0.232
-649.799	-200.000	-0.068	0.318
-648.784	-1.300	0.219	0.156
-647.770	-43.430	-0.077	-0.039
-646.755	108.030	-0.351	0.421
-645.741	248.975	-0.200	0.341
-644.726	-123.359	0.049	-0.008
-643.711	-53.319	-0.101	0.047
-642.697	-99.261	0.227	0.058
-641.682	-200.000	0.102	-0.462
-640.668	-57.710	-0.138	-0.061
-639.653	-200.000	0.007	-0.105
-638.638	58.080	-0.053	0.052
-637.624	126.542	-0.190	-0.242
-636.609	-48.472	0.224	0.108
-635.595	-166.952	-0.392	0.016
-634.580	167.682	0.197	-0.281
-633.565	-134.218	0.086	0.011
-632.551	-151.364	-0.298	0.022
-631.536	55.402	0.072	0.070
-630.522	162.868	-0.095	-0.134
-629.507	29.302	-0.143	0.122
-628.492	-200.000	0.032	-0.218
-627.478	-200.000	0.066	0.295
-626.463	-58.159	-0.088	0.039
-625.449	69.566	-0.124	-0.129
-624.434	-200.000	0.007	0.188
-623.419	-58.203	0.265	0.116
-622.405	-80.675	0.043	-0.014
-621.390	800.000	0.030	-0.106
-620.376	800.000	0.085	0.314
-619.361	-11.341	-0.116	-0.077
-618.346	-22.909	-0.239	-0.145
-617.332	-4.413	0.337	-0.234
-616.317	-61.717	-0.254	0.107
-615.303	-200.000	0.044	-0.255
-614.288	-114.552	-0.127	-0.024
-613.273	800.000	-0.026	-0.088
-612.259	101.406	0.094	-0.110
-611.244	-200.000	0.014	0.193
-610.230	800.000	-0.111	-0.391
-609.215	800.000	-0.113	-0.315
-608.201	-74.366	-0.066	0.024
-607.186	777.219	0.096	0.262
-606.171	131.975	-0.094	-0.121
-605.157	-108.330	-0.069	-0.015
-604.142	286.162	0.070	0.127
-603.128	-125.384	0.190	0.029
-602.113	800.000	-0.048	-0.139
-601.098	-125.519	0.051	0.008
-600.084	365.851	-0.153	-0.310
-599.069	669.752	0.017	0.045
-598.055	394.285	-0.099	-0.208
-597.040	402.337	-0.142	-0.301
-596.025	712.403	-0.130	-0.346
-595.011	-11.843	-0.230	0.151
-593.996	-200.000	0.020	0.230
-592.982	-60.363	-0.314	-0.134
-591.967	-76.687	0.139	0.049
-590.952	-200.000	0.017	-0.085
-589.938	800.000	-0.069	0.213
-588.923	-117.446	0.132	-0.024
-587.909	-135.926	0.076	-0.009
-586.894	-33.796	-0.148	0.082
-585.879	740.638	0.066	0.177
-584.865	-139.217	-0.225	0.024
-583.850	-200.000	-0.015	0.098
-582.836	-116.475	0.386	-0.071
-581.821	-135.159	0.184	-0.022
-580.806	6.688	-0.260	0.194
-579.792	-200.000	-0.006	-0.070
-578.777	-81.438	-0.198	-0.065
-577.763	800.000	0.109	0.437
-576.748	-104.506	-0.328	-0.076
-575.733	454.023	0.019	0.042
-574.719	-125.851	0.599	0.091
-573.704	-200.000	0.025	-0.182
-572.690	204.964	0.130	-0.202
-571.675	-51.092	0.523	0.246
-570.661	105.009	-0.061	-0.072
-569.646	37.474	-0.263	-0.233
-568.631	90.148	-0.167	-0.187
-567.617	-200.000	-0.006	0.274
-566.602	-69.547	0.071	0.027
-565.588	-62.674	-0.407	0.169
-564.573	-200.000	0.012	-0.322
-563.558	-200.000	-0.038	0.326
-562.544	-0.881	0.310	0.220
-561.529	-73.885	-0.232	-0.084
-560.515	8.012	-0.293	-0.220
-559.500	-41.582	0.250	0.129
-558.485	490.528	-0.147	0.337
-557.471	800.000	-0.087	0.279
-556.456	-117.201	0.265	-0.048
-555.442	23.925	-0.232	0.191
-554.427	800.000	-0.115	0.396
-553.412	-2.846	-0.126	-0.088
-552.398	149.369	-0.098	0.133
-551.383	88.101	0.028	0.031
-550.369	800.000	0.040	0.118
-549.354	-200.000	-0.001	0.136
-548.339	800.000	-0.048	0.165
-547.325	295.347	0.088	0.162
-546.310	169.188	-0.242	-0.347
-545.296	-40.719	0.235	0.122
-544.281	178.426	0.111	0.162
-543.266	386.126	-0.110	-0.227
-542.252	-200.000	-0.001	-0.114
-541.237	-54.807	-0.161	0.073
-540.223	605.839	0.118	-0.293
-539.208	-83.068	0.097	-0.031
-538.193	-139.886	0.587	0.062
-537.179	800.000	0.029	-0.100
-536.164	126.404	-0.084	0.106
-535.150	800.000	-0.026	0.074
-534.135	13.924	0.147	0.115
-533.121	424.458	-0.085	-0.183
-532.106	-111.265	-0.214	0.044
-531.091	70.687	0.175	-0.181
-530.077	-103.948	0.106	0.025
-529.062	-44.519	-0.064	-0.032
-528.048	-66.656	-0.355	0.141
-527.033	31.917	-0.154	0.133
-526.018	-68.912	0.303	0.117
-525.004	33.281	0.162	0.141
-523.989	315.971	0.023	-0.043
-522.975	38.293	-0.145	-0.129
-521.960	-87.485	0.233	-0.071
-520.945	-200.000	0.015	0.324
-519.931	-26.883	-0.124	0.073
-518.916	-20.100	0.172	-0.106
-517.902	800.000	-0.112	0.319
-516.887	-177.923	0.147	-0.004
-515.872	800.000	-0.086	-0.241
-514.858	-47.324	0.123	0.060
-513.843	237.365	-0.108	0.179
-512.829	-43.937	-0.181	-0.091
-511.814	-200.000	0.003	0.208
-510.799	-74.042	-0.090	-0.033
-509.785	274.093	-0.099	0.174
-508.770	214.869	0.083	-0.131
-507.756	800.000	-0.069	-0.195
-506.741	-200.000	0.031	0.341
-505.726	574.719	0.059	0.144
-504.712	45.531	-0.047	0.044
-503.697	-200.000	0.043	-0.235
-502.683	51.009	-0.103	-0.098
-501.668	-112.899	0.237	-0.047
-500.653	-146.023	0.180	0.016
-499.639	-200.000	0.021	-0.192
-498.624	-200.000	0.022	0.254
-497.610	800.000	-0.018	0.061
-496.595	-200.000	-0.029	0.185
-495.581	49.871	0.138	0.130
-494.566	132.314	0.022	-0.028
-493.551	-8.809	0.099	-0.066
-492.537	-93.881	0.206	0.057
-491.522	0.911	-0.152	-0.109
-490.508	-120.771	-0.182	-0.031
-489.493	-13.123	-0.111	0.072
-488.478	-141.504	-0.138	0.014
-487.464	404.301	0.082	-0.172
-486.449	218.083	0.040	0.064
-485.435	-55.654	0.195	0.087
-484.420	51.281	0.150	0.142
-483.405	-130.344	-0.157	-0.021
-482.391	-200.000	0.012	-0.180
-481.376	14.390	0.089	0.069
-480.362	-138.291	0.084	-0.009
-479.347	-119.288	0.077	-0.013
-478.332	136.116	-0.110	-0.143
-477.318	-191.703	0.132	0.001
-476.303	-185.016	-0.220	0.003
-475.289	800.000	-0.076	0.220
-474.274	800.000	-0.051	-0.175
-473.259	-167.473	-0.171	-0.007
-472.245	137.349	-0.364	-0.475
-471.230	-44.987	0.260	0.129
-470.216	-200.000	0.014	0.198
-469.201	51.395	-0.066	0.063
-468.186	380.408	-0.074	-0.152
-467.172	-166.373	-0.533	0.022
-466.157	-153.400	-0.174	0.012
-465.143	-37.881	0.084	-0.045
-464.128	800.000	0.046	-0.154
-463.113	-200.000	-0.010	-0.086
-462.099	-134.206	-0.144	-0.018
-461.084	-7.186	-0.126	0.086
-460.070	-200.000	0.008	0.046
-459.055	-4.973	-0.040	-0.027
-458.040	400.117	0.031	-0.064
-457.026	130.957	-0.225	-0.289
-456.011	800.000	0.108	0.395
-454.997	-179.135	-0.291	0.006
-453.982	120.610	-0.056	0.069
-452.968	-136.400	0.116	0.013
-451.953	-6.272	-0.246	-0.167
-450.938	26.957	0.235	-0.197
-449.924	46.041	-0.164	-0.151
-448.909	676.038	-0.079	-0.206
-447.895	6.569	0.059	-0.044
-446.880	136.424	0.166	0.217
-445.865	-188.454	-0.044	-0.001
-444.851	-47.531	-0.059	0.029
-443.836	-200.000	0.059	-0.304
-442.822	-42.660	-0.100	-0.051
-441.807	-200.000	-0.003	0.127
-440.792	-72.226	-0.112	0.041
-439.778	-153.339	-0.317	0.022
-438.763	192.983	0.078	-0.118
-437.749	-137.109	0.213	-0.024
-436.734	152.390	0.097	0.132
-435.719	-168.785	0.190	0.007
-434.705	27.100	0.280	0.234
-433.690	-150.137	0.330	0.026
-432.676	92.967	-0.162	0.183
-431.661	-173.345	0.051	0.002
-430.646	-144.295	-0.233	0.022
-429.632	61.295	-0.040	0.040
-428.617	388.852	0.151	-0.311
-427.603	-200.000	-0.011	0.260
-426.588	265.820	-0.098	0.170
-425.573	382.295	0.146	-0.298
-424.559	105.582	0.040	0.047
-423.544	670.039	-0.122	-0.314
-422.530	-200.000	0.215	0.001
-421.515	-200.000	-0.056	0.275
-420.500	-70.817	0.301	-0.113
-419.486	-75.087	0.509	-0.182
-418.471	-7.295	-0.172	0.116
-417.457	13.022	-0.243	0.188
-416.442	723.545	0.092	0.244
-415.428	-30.602	0.287	0.162
-414.413	94.356	0.262	-0.297
-413.398	800.000	0.085	0.292
-412.384	-99.713	-0.098	0.025
-411.369	203.172	-0.038	-0.059
-410.355	131.930	0.214	0.275
-409.340	800.000	-0.117	-0.330
-408.325	-48.526	0.261	-0.125
-407.311	16.949	0.053	0.042
-406.296	647.714	0.087	0.221
-405.282	-62.264	0.162	0.067
-404.267	332.714	0.130	0.251
-403.252	-149.772	-0.397	-0.031
-402.238	-80.077	0.316	-0.105
-401.223	22.299	-0.286	-0.233
-400.209	-200.000	0.009	-0.039
-399.194	358.827	0.078	0.154
-398.179	-200.000	-0.030	0.170
-397.165	-80.254	-0.235	0.078
-396.150	-33.933	-0.419	0.230
-395.136	-200.000	0.052	0.351
-394.121	-75.411	0.128	-0.045
-393.106	-200.000	0.005	0.209
-392.092	47.931	-0.072	0.067
-391.077	84.959	-0.230	0.251
-390.063	161.282	0.213	-0.296
-389.048	-200.000	-0.005	-0.047
-388.033	-13.592	-0.021	0.013
-387.019	10.286	-0.200	-0.151
-386.004	83.889	0.231	-0.251
-384.990	-51.419	0.194	0.090
-383.975	-128.568	-0.348	0.049
-382.960	800.000	0.103	0.325
-381.946	-200.000	-0.011	-0.213
-380.931	-4.252	-0.185	-0.128
-379.917	-166.430	0.241	0.010
-378.902	-93.271	-0.317	-0.088
-377.888	-200.000	-0.054	-0.338
-376.873	-8.614	-0.048	0.032
-375.858	-23.143	0.213	0.127
-374.844	-67.039	0.196	-0.077
-373.829	-74.510	0.161	-0.058
-372.815	-97.615	-0.151	-0.039
-371.800	800.000	-0.076	-0.220
-370.785	-157.741	-0.089	-0.005
-369.771	291.806	-0.088	-0.160
-368.756	-57.078	0.167	0.073
-367.742	800.000	0.044	-0.186
-366.727	800.000	-0.049	-0.167
-365.712	-161.833	0.194	-0.010
-364.698	-170.545	0.160	0.006
-363.683	55.389	-0.134	0.129
-362.669	-74.829	-0.099	-0.035
-361.654	-200.000	0.020	-0.201
-360.639	800.000	-0.083	0.258
-359.625	48.276	-0.122	0.113
-358.610	260.808	0.215	0.370
-357.596	613.762	-0.074	-0.185
-356.581	394.121	0.130	-0.268
-355.566	-160.250	-0.342	0.018
-354.552	-152.942	-0.238	-0.017
-353.537	800.000	-0.049	-0.181
-352.523	37.036	0.169	0.148
-351.508	-38.710	0.094	-0.049
-350.493	-129.684	0.247	-0.034
-349.479	-115.364	0.367	-0.069
-348.464	-200.000	-0.003	-0.095
-347.450	-200.000	-0.011	-0.102
-346.435	-108.108	-0.098	0.021
-345.420	92.280	-0.077	-0.086
-344.406	451.731	0.064	-0.140
-343.391	-200.000	-0.020	0.223
-342.377	8.481	-0.076	-0.057
-341.362	-41.739	-0.202	-0.103
-340.348	-107.070	0.251	0.055
-339.333	4.492	-0.099	0.072
-338.318	-200.000	0.003	-0.039
-337.304	-141.672	0.503	0.050
-336.289	-200.000	-0.010	0.212
-335.275	800.000	0.058	0.173
-334.260	337.606	-0.061	-0.117
-333.245	-200.000	0.022	-0.295
-332.231	-189.259	0.181	0.002
-331.216	-155.902	-0.230	0.015
-330.202	-66.835	-0.244	-0.096
-329.187	28.851	0.034	-0.028
-328.172	-9.076	0.211	0.140
-327.158	-137.414	0.213	-0.024
-326.143	-24.425	0.088	0.052
-325.129	-53.902	-0.273	0.123
-324.114	-43.788	0.099	-0.049
-323.099	-200.000	0.054	0.286
-322.085	337.204	0.166	-0.321
-321.070	-101.237	-0.195	0.047
-320.056	164.462	-0.052	-0.073
-319.041	-200.000	-0.029	-0.259
-318.026	111.925	-0.108	0.130
-317.012	-25.710	0.422	0.247
-315.997	800.000	-0.086	-0.368
-314.983	277.910	-0.039	-0.069
-313.968	69.724	-0.268	-0.275
-312.953	196.230	0.272	-0.410
-311.939	-143.312	-0.096	-0.009
-310.924	-200.000	0.028	0.194
-309.910	-200.000	0.021	-0.284
-308.895	285.194	-0.254	-0.455
-307.880	-18.139	-0.236	-0.146
-306.866	-54.330	-0.229	-0.103
-305.851	-200.000	-0.020	-0.332
-304.837	-200.000	-0.036	0.266
-303.822	-200.000	0.020	0.178
-302.807	-54.904	-0.097	-0.043
-301.793	-41.208	0.009	0.005
-300.778	-120.960	0.162	-0.027
-299.764	294.779	-0.220	0.399
-298.749	520.487	-0.087	-0.202
-297.735	39.966	-0.200	-0.178
-296.720	-139.368	-0.165	0.018
-295.705	5.099	0.168	-0.122
-294.691	-200.000	0.012	0.445
-293.676	317.425	0.043	-0.080
-292.662	-15.395	0.125	0.079
-291.647	-200.000	0.034	-0.215
-290.632	312.628	0.176	0.327
-289.618	-79.596	-0.191	-0.064
-288.603	273.678	0.096	0.168
-287.589	78.636	0.195	0.206
-286.574	13.685	0.260	-0.200
-285.559	-200.000	0.025	0.157
-284.545	800.000	-0.141	0.510
-283.530	37.713	-0.133	-0.117
-282.516	140.893	0.195	-0.255
-281.501	-105.263	0.122	-0.028
-280.486	266.220	-0.072	0.125
-279.472	729.701	-0.017	0.045
-278.457	93.060	-0.135	-0.151
-277.443	16.664	0.069	-0.054
-276.428	-200.000	0.110	-0.551
-275.413	-28.960	-0.237	0.135
-274.399	201.966	-0.094	-0.143
-273.384	800.000	-0.017	0.053
-272.370	-82.100	-0.116	0.038
-271.355	-55.060	0.074	0.033
-270.340	-51.905	-0.310	-0.143
-269.326	-27.769	0.379	-0.218
-268.311	182.205	-0.196	-0.286
-267.297	-5.874	-0.036	0.025
-266.282	-189.138	-0.103	-0.001
-265.267	6.729	0.304	0.224
-264.253	77.069	0.123	0.130
-263.238	67.374	-0.183	0.185
-262.224	-102.942	-0.239	0.056
-261.209	-57.772	-0.062	-0.027
-260.195	81.197	0.156	0.167
-259.180	678.869	-0.082	-0.211
-258.165	-92.926	0.303	0.084
-257.151	-52.678	0.269	-0.123
-256.136	-200.000	-0.015	-0.071
-255.122	-116.029	0.135	0.025
-254.107	-200.000	-0.085	0.369
-253.092	-200.000	0.056	-0.254
-252.078	94.249	-0.319	0.358
-251.063	800.000	0.024	0.093
-250.049	225.471	0.082	-0.132
-249.034	-37.587	-0.330	0.174
-248.019	86.749	0.150	-0.164
-247.005	-21.486	-0.093	0.056
-245.990	710.902	-0.121	-0.317
-244.976	-200.000	-0.062	0.283
-243.961	232.082	-0.177	-0.287
-242.946	800.000	0.098	0.274
-241.932	-53.667	-0.206	-0.093
-240.917	568.111	0.107	-0.258
-239.903	-200.000	-0.039	0.234
-238.888	8.544	0.089	-0.066
-237.873	408.848	-0.071	-0.149
-236.859	-200.000	0.010	0.094
-235.844	777.625	0.040	0.108
-234.830	800.000	0.054	-0.204
-233.815	-38.100	0.211	0.111
-232.800	20.281	0.225	0.180
-231.786	-49.496	0.176	-0.083
-230.771	69.275	-0.132	-0.134
-229.757	-39.217	-0.307	0.160
-228.742	62.152	-0.103	-0.102
-227.727	800.000	0.099	-0.289
-226.713	-105.034	-0.232	-0.053
-225.698	261.238	-0.027	-0.046
-224.684	5.786	0.039	0.029
-223.669	-200.000	0.061	-0.289
-222.655	-29.745	-0.303	-0.171
-221.640	-200.000	-0.002	0.018
-220.625	-200.000	0.002	0.308
-219.611	-44.613	-0.032	-0.016
-218.596	720.494	0.114	-0.300
-217.582	-45.702	-0.179	-0.088
-216.567	-130.637	0.147	0.020
-215.552	387.750	0.163	0.333
-214.538	-171.328	-0.343	-0.011
-213.523	-30.063	-0.241	-0.136
-212.509	-136.927	0.254	0.029
-211.494	-200.000	-0.041	0.308
-210.479	-200.000	-0.001	-0.287
-209.465	-79.829	-0.230	0.076
-208.450	-36.046	0.119	-0.064
-207.436	-200.000	0.028	-0.413
-206.421	44.156	-0.276	0.250
-205.406	-200.000	-0.032	0.357
-204.392	85.697	-0.080	-0.087
-203.377	434.052	-0.130	0.279
-202.363	-129.515	0.086	-0.012
-201.348	22.936	0.144	0.117
-200.333	800.000	0.113	0.398
-199.319	-200.000	-0.019	0.210
-198.304	324.123	0.198	-0.374
-197.290	123.005	-0.181	0.224
-196.275	407.208	0.048	-0.099
-195.260	-87.650	-0.224	0.067
-194.246	12.861	0.227	-0.173
-193.231	-121.670	0.089	-0.015
-192.217	-200.000	0.016	0.110
-191.202	800.000	-0.083	0.234
-190.187	800.000	0.035	-0.106
-189.173	-80.504	0.071	0.023
-188.158	86.308	-0.097	-0.106
-187.144	204.792	0.083	0.127
-186.129	102.233	0.205	0.237
-185.114	800.000	-0.083	0.244
-184.100	18.904	-0.087	0.069
-183.085	141.443	-0.118	-0.155
-182.071	176.407	0.240	-0.344
-181.056	84.995	-0.072	0.078
-180.042	-49.808	-0.099	-0.047
-179.027	366.181	0.041	0.082
-178.012	-200.000	0.022	-0.106
-176.998	-39.904	0.055	0.028
-175.983	-200.000	0.039	-0.193
-174.969	108.275	0.269	-0.317
-173.954	-200.000	0.031	0.317
-172.939	17.379	-0.132	0.103
-171.925	-200.000	-0.008	-0.068
-170.910	438.026	-0.077	0.165
-169.896	-73.787	0.219	0.079
-168.881	-105.642	0.377	-0.084
-167.866	-90.731	0.027	0.008
-166.852	78.263	0.199	-0.210
-165.837	-131.157	0.171	-0.022
-164.823	7.005	-0.258	-0.190
-163.808	-158.505	0.188	0.011
-162.793	-119.665	-0.167	0.028
-161.779	-200.000	0.325	0.001
-160.764	72.321	0.220	0.226
-159.750	-140.470	0.192	0.020
-158.735	-121.181	0.348	-0.057
-157.720	28.917	-0.183	0.153
-156.706	41.822	0.104	-0.093
-155.691	90.999	0.148	-0.164
-154.677	24.473	0.250	-0.204
-153.662	800.000	-0.035	0.142
-152.647	8.536	-0.085	0.063
-151.633	301.897	0.126	-0.230
-150.618	-123.501	0.258	-0.041
-149.604	800.000	0.061	0.196
-148.589	39.730	0.324	-0.287
-147.574	800.000	0.008	0.022
-146.560	800.000	0.061	0.222
-145.545	44.767	0.085	0.077
-144.531	-200.000	0.004	-0.062
-143.516	151.708	-0.071	0.095
-142.502	-200.000	0.030	0.268
-141.487	96.405	-0.196	0.221
-140.472	-164.884	-0.087	0.004
-139.458	-200.000	0.015	-0.163
-138.443	-101.680	0.254	-0.061
-137.429	800.000	0.040	0.143
-136.414	-200.000	-0.027	-0.326
-135.399	276.686	-0.102	0.178
-134.385	165.088	0.135	-0.187
-133.370	-74.382	0.154	-0.055
-132.356	3.977	0.115	-0.083
-131.341	12.783	0.110	-0.084
-130.326	227.166	-0.152	-0.244
-129.312	-96.998	0.332	0.086
-128.297	141.435	0.272	0.355
-127.283	58.299	0.235	-0.227
-126.268	429.537	-0.049	-0.105
-125.253	-105.828	-0.158	0.035
-124.239	800.000	0.041	-0.141
-123.224	80.626	-0.181	0.192
-122.210	800.000	0.056	0.192
-121.195	-200.000	-0.014	0.142
