DTS Sentinel unit serial number:	SN413079Multiplexer serial number:	ORYXHardware model number:	OX4-SRSoftware version number:	ORYX F/W v4.00 Oryx Data Collector v3.7.2.0data status	okinstallation	princeton_trtdifferential loss correction	single-endedforward channel	channel 2reverse channel	N/Adate	2019/09/14time	15:59:35forward acquisition time	60.00reverse acquisition time	0.00gamma	496.2192k internal	0.2305k external	0.2305temperature offset calibration	1.0137default loss term (dB/km)	0.3790temperature slope calibration	1.0000multiplexer offset coefficient	1.0000multiplexer slope coefficient	1.0000fibre end	0.00T internal ref (°C)	38.56T ext. ref 1 (°C)	5.11T ext. ref 2 (°C)	32.92length (m)	temperature (°C)	Stokes	anti-Stokes-747.200	371.596	-0.164	-0.338
-746.185	516.090	-0.074	0.177
-745.171	-7.254	-0.267	0.184
-744.156	204.824	-0.189	0.298
-743.142	-22.900	0.019	0.011
-742.127	-69.622	-0.089	-0.034
-741.112	-200.000	0.015	0.183
-740.098	4.207	-0.389	0.290
-739.083	3.814	-0.094	-0.070
-738.069	251.526	0.197	0.341
-737.054	-200.000	0.027	0.272
-736.039	-89.672	-0.356	-0.106
-735.025	-76.315	0.231	0.083
-734.010	-15.736	-0.202	0.131
-732.996	54.143	0.378	0.370
-731.981	-74.193	-0.353	0.130
-730.966	353.181	-0.208	-0.419
-729.952	-200.000	-0.028	-0.391
-728.937	800.000	0.162	-0.527
-727.923	105.551	-0.242	0.291
-726.908	199.396	-0.083	-0.129
-725.894	34.389	-0.224	-0.198
-724.879	-62.139	-0.535	-0.227
-723.864	-200.000	0.064	-0.538
-722.850	112.191	-0.198	-0.243
-721.835	725.380	-0.053	-0.144
-720.821	-28.981	-0.082	-0.048
-719.806	33.670	0.205	0.181
-718.791	800.000	-0.084	-0.289
-717.777	162.427	0.122	-0.174
-716.762	38.461	-0.080	-0.072
-715.748	462.410	0.064	0.146
-714.733	-69.982	-0.146	-0.056
-713.718	-94.824	0.165	0.046
-712.704	-200.000	-0.025	-0.316
-711.689	175.995	0.102	-0.150
-710.675	-73.898	-0.146	0.054
-709.660	-75.374	0.049	0.018
-708.645	-20.873	-0.112	-0.070
-707.631	51.888	0.220	0.213
-706.616	-1.491	0.219	0.157
-705.602	33.536	-0.039	-0.034
-704.587	-111.688	0.234	0.048
-703.572	80.977	-0.170	0.186
-702.558	-77.898	-0.224	-0.078
-701.543	-200.000	-0.075	0.346
-700.529	468.132	-0.151	0.345
-699.514	-200.000	-0.051	0.349
-698.499	81.042	-0.230	-0.252
-697.485	18.399	0.136	-0.110
-696.470	-92.556	0.169	-0.048
-695.456	-163.460	-0.333	0.016
-694.441	-200.000	0.030	0.136
-693.426	-200.000	0.053	0.439
-692.412	209.356	-0.163	0.260
-691.397	255.111	0.023	0.040
-690.383	344.704	0.117	0.232
-689.368	-200.000	-0.018	0.109
-688.354	-110.365	-0.296	-0.063
-687.339	-200.000	0.022	-0.215
-686.324	13.444	0.192	0.151
-685.310	-50.237	0.289	0.139
-684.295	-53.963	-0.195	-0.090
-683.281	800.000	-0.054	-0.232
-682.266	-65.733	-0.147	0.060
-681.251	-47.571	0.073	0.036
-680.237	38.289	-0.304	-0.274
-679.222	750.620	-0.012	0.032
-678.208	-200.000	-0.016	-0.233
-677.193	-84.353	-0.123	0.040
-676.178	15.864	-0.244	-0.195
-675.164	-185.383	-0.157	-0.002
-674.149	-21.818	-0.179	-0.110
-673.135	85.546	-0.155	-0.173
-672.120	-40.464	-0.091	-0.048
-671.105	407.374	0.068	0.147
-670.091	-83.192	0.156	-0.051
-669.076	-117.938	-0.341	0.062
-668.062	800.000	0.043	-0.182
-667.047	-126.818	0.352	0.053
-666.032	-93.260	-0.134	0.038
-665.018	800.000	-0.033	0.104
-664.003	-200.000	0.046	0.409
-662.989	262.716	0.146	0.257
-661.974	800.000	-0.068	-0.300
-660.959	-155.613	0.108	-0.007
-659.945	-200.000	-0.014	-0.492
-658.930	374.361	-0.080	-0.166
-657.916	39.237	-0.180	0.163
-656.901	800.000	-0.032	-0.105
-655.886	48.204	0.010	0.010
-654.872	-200.000	-0.007	-0.056
-653.857	-35.830	0.107	0.059
-652.843	407.661	0.117	0.251
-651.828	-8.252	-0.221	-0.151
-650.814	-200.000	0.021	-0.423
-649.799	-200.000	-0.011	-0.421
-648.784	36.470	0.048	-0.043
-647.770	-114.468	0.174	0.034
-646.755	5.578	0.125	0.094
-645.741	184.980	-0.157	0.235
-644.726	-118.606	0.080	0.014
-643.711	58.626	0.130	-0.129
-642.697	-200.000	0.078	-0.365
-641.682	-80.410	-0.447	0.151
-640.668	-184.750	0.151	0.002
-639.653	800.000	-0.095	0.341
-638.638	-157.108	-0.112	0.007
-637.624	-114.917	-0.182	0.035
-636.609	-73.690	-0.171	0.063
-635.595	96.167	-0.147	-0.170
-634.580	-134.151	0.257	0.032
-633.565	-143.159	-0.254	0.025
-632.551	-200.000	-0.022	-0.220
-631.536	95.085	-0.230	-0.266
-630.522	-200.000	0.052	-0.424
-629.507	-43.041	0.079	-0.041
-628.492	-98.347	0.356	-0.092
-627.478	219.771	-0.039	-0.064
-626.463	7.921	-0.081	-0.062
-625.449	-200.000	-0.008	0.226
-624.434	342.541	0.121	0.240
-623.419	205.161	0.143	-0.225
-622.405	800.000	-0.033	-0.100
-621.390	388.275	-0.117	0.246
-620.376	-42.761	0.094	-0.049
-619.361	518.073	-0.088	-0.207
-618.346	87.946	-0.207	-0.232
-617.332	-20.255	0.126	0.079
-616.317	92.340	0.283	-0.323
-615.303	32.188	-0.188	-0.164
-614.288	-51.613	0.279	0.132
-613.273	90.500	0.130	0.148
-612.259	103.712	0.142	0.169
-611.244	-200.000	-0.002	-0.370
-610.230	25.560	-0.248	0.209
-609.215	-12.923	0.129	-0.085
-608.201	204.981	-0.155	-0.244
-607.186	6.654	-0.121	0.091
-606.171	800.000	-0.090	-0.370
-605.157	-200.000	0.005	-0.113
-604.142	243.208	-0.105	-0.179
-603.128	126.937	-0.033	-0.042
-602.113	-66.455	0.235	0.095
-601.098	-52.903	0.197	-0.092
-600.084	119.753	-0.137	0.172
-599.069	23.629	0.185	0.154
-598.055	303.638	-0.147	0.276
-597.040	-181.013	-0.049	-0.001
-596.025	230.234	-0.103	-0.171
-595.011	25.130	0.044	-0.037
-593.996	636.030	0.090	-0.232
-592.982	-200.000	-0.033	-0.302
-591.967	596.019	0.052	-0.131
-590.952	-89.375	-0.054	-0.016
-589.938	-37.598	-0.348	-0.188
-588.923	659.629	-0.039	0.102
-587.909	98.248	-0.203	-0.237
-586.894	282.698	-0.148	0.268
-585.879	-6.666	-0.090	0.062
-584.865	-200.000	0.007	-0.229
-583.850	-97.373	0.275	-0.072
-582.836	-200.000	-0.019	0.100
-581.821	-3.930	-0.135	-0.095
-580.806	-29.271	0.358	-0.208
-579.792	-106.478	0.210	0.047
-578.777	174.478	0.082	0.120
-577.763	800.000	-0.006	-0.025
-576.748	615.769	0.171	-0.433
-575.733	93.077	0.195	-0.223
-574.719	-1.161	-0.209	0.149
-573.704	800.000	-0.053	0.183
-572.690	76.618	0.019	0.021
-571.675	336.525	-0.086	0.168
-570.661	-45.788	-0.335	0.167
-569.646	214.814	0.062	0.099
-568.631	-93.460	0.127	0.035
-567.617	174.067	0.048	0.070
-566.602	-53.386	-0.198	0.092
-565.588	-38.773	0.321	0.171
-564.573	453.589	0.038	-0.084
-563.558	-94.618	0.408	0.112
-562.544	43.805	-0.079	0.073
-561.529	-96.857	-0.252	-0.067
-560.515	261.436	0.150	-0.263
-559.500	-79.563	-0.314	-0.107
-558.485	-120.031	0.404	0.070
-557.471	46.695	0.109	-0.102
-556.456	800.000	-0.050	-0.145
-555.442	124.449	-0.134	0.171
-554.427	-200.000	-0.019	0.134
-553.412	37.073	0.208	0.186
-552.398	800.000	0.114	-0.425
-551.383	-3.133	0.089	0.062
-550.369	-143.839	0.069	0.007
-549.354	-84.051	0.085	-0.027
-548.339	-32.838	0.066	-0.037
-547.325	-116.971	0.091	-0.017
-546.310	608.003	-0.139	0.350
-545.296	-20.364	0.130	0.081
-544.281	405.386	0.145	0.309
-543.266	800.000	0.062	-0.221
-542.252	79.567	-0.058	-0.063
-541.237	530.873	-0.179	-0.426
-540.223	-200.000	-0.002	-0.083
-539.208	-83.282	-0.132	0.043
-538.193	102.656	0.059	0.070
-537.179	-86.251	-0.253	-0.079
-536.164	-18.057	0.044	-0.028
-535.150	124.177	-0.090	0.114
-534.135	-39.130	-0.260	-0.138
-533.121	-200.000	0.019	0.148
-532.106	-151.636	0.338	-0.025
-531.091	-109.139	0.375	0.080
-530.077	119.945	-0.113	-0.141
-529.062	14.145	0.081	0.064
-528.048	-200.000	0.007	0.433
-527.033	-38.723	-0.313	-0.167
-526.018	99.572	0.159	-0.186
-525.004	331.552	0.070	-0.136
-523.989	799.336	-0.113	-0.316
-522.975	800.000	-0.043	-0.134
-521.960	85.702	0.024	0.026
-520.945	178.055	-0.098	-0.144
-519.931	-17.133	0.072	-0.046
-518.916	-87.310	-0.314	0.096
-517.902	800.000	-0.073	0.226
-516.887	800.000	0.050	0.164
-515.872	-200.000	-0.026	0.140
-514.858	-200.000	-0.019	0.109
-513.843	-122.807	-0.287	0.047
-512.829	-200.000	0.013	-0.219
-511.814	800.000	-0.127	-0.388
-510.799	800.000	0.029	0.096
-509.785	-27.535	0.183	-0.107
-508.770	525.157	-0.051	0.122
-507.756	203.030	-0.329	-0.513
-506.741	800.000	-0.055	-0.241
-505.726	70.989	-0.218	-0.227
-504.712	-142.572	-0.158	0.016
-503.697	99.491	0.114	0.132
-502.683	-148.868	0.065	0.005
-501.668	800.000	0.066	-0.249
-500.653	-127.266	0.344	-0.051
-499.639	30.302	-0.243	-0.209
-498.624	-126.154	0.137	0.021
-497.610	-3.664	-0.172	0.120
-496.595	-124.948	0.319	0.049
-495.581	-146.497	-0.206	0.018
-494.566	220.785	-0.158	0.255
-493.551	-112.889	0.252	-0.050
-492.537	228.061	0.156	-0.256
-491.522	-125.458	-0.085	-0.013
-490.508	-41.551	0.184	-0.095
-489.493	-200.000	0.003	-0.053
-488.478	-60.692	0.090	0.039
-487.464	-39.449	-0.188	-0.099
-486.449	-200.000	-0.008	-0.063
-485.435	-174.882	0.046	-0.001
-484.420	462.562	-0.066	-0.149
-483.405	-200.000	0.124	-0.000
-482.391	198.707	-0.097	0.150
-481.376	211.309	0.071	-0.113
-480.362	781.461	-0.133	0.366
-479.347	800.000	-0.066	0.208
-478.332	-200.000	-0.022	-0.139
-477.318	28.063	-0.249	-0.212
-476.303	-122.104	-0.169	-0.028
-475.289	-34.379	-0.069	0.038
-474.274	800.000	0.034	-0.108
-473.259	800.000	-0.093	-0.356
-472.245	123.577	0.131	-0.166
-471.230	800.000	0.098	0.276
-470.216	-58.354	-0.425	-0.186
-469.201	800.000	0.136	-0.449
-468.186	-164.512	-0.261	-0.012
-467.172	463.742	-0.121	-0.272
-466.157	-15.840	-0.236	0.151
-465.143	-141.017	-0.305	0.031
-464.128	-9.391	-0.221	-0.149
-463.113	-46.274	-0.261	-0.129
-462.099	-59.125	-0.134	0.058
-461.084	-110.517	0.101	0.021
-460.070	800.000	-0.103	-0.304
-459.055	-25.420	0.143	0.085
-458.040	17.439	0.074	-0.059
-457.026	800.000	-0.028	-0.093
-456.011	549.245	0.108	0.260
-454.997	163.591	0.011	0.015
-453.982	66.151	-0.100	-0.102
-452.968	-89.903	-0.193	-0.057
-451.953	-200.000	-0.034	0.195
-450.938	34.573	-0.164	0.144
-449.924	-168.467	-0.248	-0.010
-448.909	-157.102	0.176	-0.011
-447.895	20.375	0.260	0.212
-446.880	246.894	-0.160	-0.271
-445.865	-25.836	-0.058	0.035
-444.851	617.782	0.096	-0.243
-443.836	199.800	0.069	0.106
-442.822	-152.150	0.224	0.016
-441.807	-16.306	-0.228	0.145
-440.792	800.000	-0.078	-0.342
-439.778	-200.000	-0.004	-0.090
-438.763	364.336	-0.093	-0.188
-437.749	-16.116	0.232	0.149
-436.734	-200.000	-0.014	-0.085
-435.719	-42.318	0.245	-0.126
-434.705	63.720	0.307	0.310
-433.690	-200.000	0.047	0.206
-432.676	187.739	0.002	0.003
-431.661	-115.498	-0.428	-0.081
-430.646	380.960	0.157	0.324
-429.632	25.309	0.114	-0.095
-428.617	-149.904	-0.240	0.019
-427.603	389.890	0.088	-0.183
-426.588	-200.000	0.038	0.289
-425.573	800.000	-0.044	-0.178
-424.559	155.597	-0.055	-0.076
-423.544	13.717	-0.137	0.107
-422.530	-44.329	-0.369	0.186
-421.515	180.164	-0.180	0.265
-420.500	-35.371	-0.313	-0.171
-419.486	-135.820	0.058	0.007
-418.471	-200.000	-0.144	-0.000
-417.457	205.250	0.144	-0.224
-416.442	-200.000	-0.022	0.173
-415.428	207.782	0.030	0.048
-414.413	-200.000	0.050	0.315
-413.398	59.774	-0.062	0.061
-412.384	-200.000	-0.022	0.198
-411.369	-200.000	0.003	0.217
-410.355	283.756	0.074	0.134
-409.340	-112.674	-0.236	0.047
-408.325	-23.969	-0.064	0.039
-407.311	-200.000	0.012	-0.222
-406.296	-200.000	0.066	-0.426
-405.282	-24.643	0.187	0.112
-404.267	-25.060	0.230	-0.137
-403.252	219.870	0.071	-0.115
-402.238	457.101	0.146	-0.325
-401.223	-200.000	0.048	-0.354
-400.209	432.583	0.110	-0.240
-399.194	520.356	-0.106	-0.249
-398.179	-19.825	-0.145	0.090
-397.165	41.798	-0.151	0.137
-396.150	-131.353	0.116	-0.015
-395.136	394.731	-0.092	-0.193
-394.121	200.410	0.124	0.191
-393.106	-94.096	-0.430	-0.118
-392.092	-200.000	-0.025	0.169
-391.077	-196.208	-0.074	-0.001
-390.063	-200.000	-0.025	0.176
-389.048	800.000	0.042	0.174
-388.033	-200.000	0.002	0.031
-387.019	-200.000	-0.005	0.257
-386.004	-200.000	-0.039	-0.518
-384.990	16.353	0.188	-0.149
-383.975	-200.000	0.025	0.163
-382.960	800.000	0.067	-0.198
-381.946	-109.581	0.383	0.081
-380.931	-200.000	0.006	-0.128
-379.917	-200.000	-0.015	0.186
-378.902	800.000	0.051	0.158
-377.888	-200.000	0.026	0.116
-376.873	-200.000	0.030	-0.386
-375.858	-75.878	-0.112	0.040
-374.844	-82.527	0.085	-0.028
-373.829	800.000	0.107	0.345
-372.815	-123.179	-0.207	-0.033
-371.800	-58.352	0.177	0.077
-370.785	436.028	-0.050	0.109
-369.771	35.930	0.182	0.161
-368.756	-190.064	0.086	-0.001
-367.742	-33.643	-0.241	-0.133
-366.727	266.591	0.132	0.231
-365.712	-62.369	-0.090	-0.038
-364.698	-54.717	-0.201	0.091
-363.683	-123.762	0.270	0.043
-362.669	800.000	0.097	-0.329
-361.654	800.000	0.143	0.433
-360.639	-122.228	0.397	-0.065
-359.625	800.000	0.026	0.084
-358.610	-50.191	-0.130	-0.062
-357.596	-69.986	-0.033	0.013
-356.581	194.806	0.163	0.248
-355.566	57.273	0.358	0.350
-354.552	-85.345	-0.107	-0.033
-353.537	76.198	0.140	0.148
-352.523	323.456	0.190	0.363
-351.508	-111.956	-0.148	-0.030
-350.493	-200.000	0.383	0.001
-349.479	-35.195	0.308	-0.168
-348.464	-200.000	0.080	0.471
-347.450	-16.706	-0.241	0.153
-346.435	-109.305	-0.185	0.039
-345.420	-105.120	-0.262	0.060
-344.406	-15.590	0.172	0.110
-343.391	800.000	0.079	-0.329
-342.377	110.238	-0.219	-0.264
-341.362	-156.584	0.203	0.013
-340.348	192.846	-0.106	0.160
-339.333	-119.950	0.365	0.063
-338.318	76.695	0.070	-0.074
-337.304	-73.453	0.149	-0.054
-336.289	-79.448	-0.227	-0.077
-335.275	-52.097	-0.090	0.042
-334.260	-97.745	-0.076	-0.020
-333.245	51.963	0.178	0.170
-332.231	-48.756	0.111	0.053
-331.216	-32.217	-0.161	0.090
-330.202	256.573	0.050	0.087
-329.187	311.222	0.017	0.033
-328.172	-20.148	-0.257	0.159
-327.158	-12.630	0.092	-0.060
-326.143	-200.000	-0.001	-0.267
-325.129	-65.039	0.185	-0.075
-324.114	-51.382	-0.149	-0.070
-323.099	-146.719	0.073	-0.006
-322.085	-200.000	-0.001	0.030
-321.070	800.000	-0.052	-0.174
-320.056	-72.864	0.175	0.065
-319.041	424.071	0.087	-0.187
-318.026	558.304	0.121	-0.292
-317.012	800.000	-0.010	-0.037
-315.997	306.446	-0.181	-0.337
-314.983	-60.463	0.213	0.090
-313.968	416.544	0.037	-0.079
-312.953	-31.517	-0.190	0.107
-311.939	-117.955	0.091	-0.016
-310.924	239.802	-0.087	-0.145
-309.910	800.000	0.044	-0.130
-308.895	-20.543	-0.029	-0.018
-307.880	-101.928	-0.129	0.031
-306.866	-1.316	-0.156	0.110
-305.851	-16.077	-0.091	-0.058
-304.837	-169.206	-0.207	-0.008
-303.822	14.204	0.382	0.297
-302.807	-101.070	0.402	0.099
-301.793	-200.000	-0.031	-0.319
-300.778	-200.000	-0.009	0.124
-299.764	18.752	-0.207	-0.166
-298.749	87.253	-0.211	0.234
-297.735	-103.391	-0.051	0.012
-296.720	-200.000	-0.025	-0.304
-295.705	74.574	0.211	0.222
-294.691	-173.698	0.125	0.004
-293.676	14.286	-0.149	-0.116
-292.662	-95.423	0.460	-0.124
-291.647	800.000	0.108	0.375
-290.632	-200.000	0.014	0.124
-289.618	800.000	-0.112	-0.310
-288.603	104.859	-0.111	0.131
-287.589	164.807	-0.078	-0.110
-286.574	-58.161	-0.109	0.047
-285.559	-71.489	-0.208	0.078
-284.545	-102.500	0.398	0.095
-283.530	-31.385	-0.070	-0.039
-282.516	607.321	-0.084	0.209
-281.501	180.464	0.095	0.139
-280.486	-66.919	-0.169	-0.067
-279.472	-200.000	-0.025	-0.159
-278.457	160.172	0.305	0.425
-277.443	800.000	-0.088	0.332
-276.428	16.066	-0.220	-0.173
-275.413	55.156	-0.076	-0.073
-274.399	215.736	-0.010	-0.016
-273.384	-149.608	0.266	-0.021
-272.370	673.623	-0.046	-0.118
-271.355	282.809	0.072	0.129
-270.340	95.770	0.202	0.231
-269.326	-124.887	-0.276	0.042
-268.311	-93.247	0.322	0.089
-267.297	-200.000	-0.338	-0.001
-266.282	-52.897	-0.099	0.046
-265.267	-140.273	0.138	0.014
-264.253	74.573	0.250	-0.263
-263.238	167.044	0.103	-0.146
-262.224	-30.421	-0.169	0.096
-261.209	-122.996	0.232	0.037
-260.195	-140.002	-0.194	-0.020
-259.180	116.786	0.154	0.189
-258.165	252.385	0.141	0.241
-257.151	23.565	-0.035	-0.028
-256.136	51.396	-0.192	0.182
-255.122	-32.271	0.204	-0.114
-254.107	-137.628	-0.241	-0.027
-253.092	52.132	-0.081	0.077
-252.078	-89.279	0.122	-0.036
-251.063	-200.000	0.021	0.366
-250.049	-200.000	0.022	-0.198
-249.034	-88.227	-0.095	-0.029
-248.019	610.683	0.089	0.222
-247.005	553.420	0.110	0.264
-245.990	758.351	0.060	0.162
-244.976	-173.777	-0.142	-0.004
-243.961	1.416	0.270	0.194
-242.946	104.357	-0.031	0.036
-241.932	-133.753	-0.217	0.027
-240.917	-200.000	-0.011	-0.090
-239.903	-1.633	-0.223	-0.157
-238.888	263.556	0.072	0.125
-237.873	-21.165	-0.090	0.055
-236.859	-115.411	0.238	0.045
-235.844	-12.879	-0.081	-0.053
-234.830	-150.551	-0.038	-0.003
-233.815	35.699	-0.203	0.178
-232.800	-200.000	0.015	0.231
-231.786	271.167	0.153	-0.269
-230.771	12.205	0.245	0.188
-229.757	-0.114	-0.099	0.070
-228.742	95.626	-0.225	0.256
-227.727	84.581	0.015	-0.016
-226.713	10.653	-0.070	-0.053
-225.698	-156.853	-0.099	-0.006
-224.684	-200.000	-0.003	-0.056
-223.669	-179.434	-0.292	0.006
-222.655	800.000	0.068	0.229
-221.640	800.000	-0.047	-0.142
-220.625	-103.387	0.199	-0.047
-219.611	205.527	-0.090	0.140
-218.596	-154.056	-0.185	0.013
-217.582	-59.254	0.234	0.101
-216.567	-3.507	0.287	0.199
-215.552	-184.244	0.092	0.002
-214.538	290.011	0.155	0.281
-213.523	-8.299	-0.041	0.027
-212.509	800.000	-0.052	-0.154
-211.494	55.782	0.129	0.125
-210.479	283.901	0.138	0.248
-209.465	-200.000	-0.000	0.233
-208.450	20.706	-0.288	-0.233
-207.436	-118.288	-0.108	0.019
-206.421	410.150	-0.097	0.205
-205.406	-200.000	0.043	-0.225
-204.392	-103.593	0.235	0.055
-203.377	800.000	-0.111	0.307
-202.363	-25.388	0.118	0.070
-201.348	-200.000	0.014	0.197
-200.333	-137.753	0.181	-0.020
-199.319	-56.440	0.072	0.032
-198.304	-171.091	0.327	-0.011
-197.290	367.944	0.100	0.201
-196.275	-200.000	-0.015	0.181
-195.260	11.656	-0.206	0.158
-194.246	-106.941	-0.291	0.064
-193.231	487.313	0.092	-0.209
-192.217	-200.000	-0.049	-0.298
-191.202	-52.623	0.182	0.084
-190.187	-0.101	-0.376	-0.267
-189.173	-38.561	0.042	-0.022
-188.158	-13.610	-0.346	-0.223
-187.144	169.042	0.121	0.172
-186.129	293.704	0.115	-0.209
-185.114	-186.257	0.244	-0.004
-184.100	-200.000	0.032	0.464
-183.085	-93.567	-0.432	-0.119
-182.071	-200.000	0.018	-0.124
-181.056	462.185	-0.085	-0.188
-180.042	-200.000	-0.000	0.197
-179.027	-48.184	-0.082	-0.040
-178.012	-146.083	0.298	0.026
-176.998	236.458	0.216	0.355
-175.983	-16.032	-0.029	-0.018
-174.969	190.064	-0.159	-0.238
-173.954	31.512	-0.112	-0.096
-172.939	-200.000	0.030	-0.264
-171.925	-36.952	0.456	0.243
-170.910	24.252	-0.239	-0.196
-169.896	-62.033	-0.212	0.088
-168.881	119.777	0.121	0.149
-167.866	-188.485	-0.496	0.006
-166.852	800.000	-0.066	0.207
-165.837	-29.030	0.250	0.143
-164.823	-26.902	0.228	-0.133
-163.808	-200.000	-0.024	0.323
-162.793	-13.334	-0.239	-0.154
-161.779	-156.929	0.171	-0.010
-160.764	161.998	-0.104	0.145
-159.750	-29.749	-0.231	0.131
-158.735	-101.323	0.391	0.095
-157.720	-64.385	0.152	-0.062
-156.706	-194.167	0.259	0.002
-155.691	-52.531	-0.340	0.156
-154.677	800.000	-0.074	-0.321
-153.662	-99.763	-0.193	0.048
-152.647	394.647	-0.061	0.127
-151.633	-114.316	0.323	-0.062
-150.618	28.934	-0.024	0.021
-149.604	-200.000	0.015	0.218
-148.589	23.519	0.088	0.072
-147.574	81.798	0.292	-0.315
-146.560	-126.823	0.298	-0.044
-145.545	268.277	-0.034	-0.060
-144.531	-200.000	0.004	0.113
-143.516	-76.975	0.070	0.024
-142.502	800.000	0.101	-0.279
-141.487	-160.121	0.235	0.013
-140.472	20.377	-0.089	0.071
-139.458	-200.000	0.080	-0.383
-138.443	-200.000	0.018	0.108
-137.429	-60.634	0.309	0.130
-136.414	800.000	-0.046	-0.158
-135.399	72.481	-0.129	0.134
-134.385	-200.000	0.027	-0.127
-133.370	-171.930	0.530	0.017
-132.356	-143.820	-0.307	0.029
-131.341	140.626	-0.111	0.146
-130.326	718.707	-0.017	-0.044
-129.312	65.792	-0.183	0.184
-128.297	193.626	0.174	-0.262
-127.283	191.364	0.082	0.122
-126.268	-40.887	0.201	0.103
-125.253	800.000	-0.142	0.472
-124.239	-14.080	-0.238	0.153
-123.224	378.982	-0.073	-0.148
-122.210	45.335	-0.176	-0.161
-121.195	-58.849	-0.308	0.132
