DTS Sentinel unit serial number:	SN413079Multiplexer serial number:	ORYXHardware model number:	OX4-SRSoftware version number:	ORYX F/W v4.00 Oryx Data Collector v3.7.2.0data status	okinstallation	princeton_trtdifferential loss correction	single-endedforward channel	channel 2reverse channel	N/Adate	2019/09/15time	05:27:34forward acquisition time	60.00reverse acquisition time	0.00gamma	496.2192k internal	0.2326k external	0.2326temperature offset calibration	1.0034default loss term (dB/km)	0.3790temperature slope calibration	1.0000multiplexer offset coefficient	1.0000multiplexer slope coefficient	1.0000fibre end	0.00T internal ref (°C)	30.58T ext. ref 1 (°C)	4.76T ext. ref 2 (°C)	25.68length (m)	temperature (°C)	Stokes	anti-Stokes-747.200	406.639	0.148	-0.316
-746.185	275.597	-0.105	0.188
-745.171	800.000	0.055	-0.155
-744.156	133.806	-0.073	-0.095
-743.142	-138.506	-0.111	0.012
-742.127	-154.013	-0.349	0.024
-741.112	81.341	-0.156	-0.170
-740.098	-55.752	-0.089	-0.040
-739.083	-48.247	-0.111	0.054
-738.069	6.186	-0.214	0.160
-737.054	-200.000	0.100	-0.452
-736.039	144.837	0.096	0.130
-735.025	800.000	0.028	0.094
-734.010	-200.000	-0.001	0.145
-732.996	67.838	-0.184	0.189
-731.981	-200.000	-0.007	-0.152
-730.966	-200.000	-0.034	0.162
-729.952	-200.000	-0.019	-0.255
-728.937	-200.000	-0.024	0.127
-727.923	-200.000	-0.112	-0.560
-726.908	-41.209	-0.133	0.069
-725.894	-90.833	0.175	0.051
-724.879	-200.000	0.048	0.329
-723.864	-151.967	-0.229	0.017
-722.850	36.500	0.156	-0.139
-721.835	-46.879	-0.264	-0.130
-720.821	-90.576	-0.148	-0.043
-719.806	25.887	-0.184	0.154
-718.791	3.567	0.110	-0.081
-717.777	276.296	-0.153	-0.274
-716.762	-26.896	-0.223	0.131
-715.748	562.589	0.088	-0.215
-714.733	-0.296	-0.196	-0.140
-713.718	-200.000	0.001	0.039
-712.704	-181.642	-0.269	-0.005
-711.689	438.690	-0.054	0.120
-710.675	-200.000	0.026	0.123
-709.660	-200.000	-0.050	-0.281
-708.645	-172.016	0.338	-0.011
-707.631	-41.232	-0.290	-0.151
-706.616	29.041	0.192	0.164
-705.602	763.079	-0.065	0.178
-704.587	245.930	0.153	0.260
-703.572	-7.761	-0.106	0.072
-702.558	-200.000	-0.005	0.036
-701.543	-26.054	-0.256	0.152
-700.529	144.959	-0.138	0.186
-699.514	800.000	0.058	-0.194
-698.499	-200.000	0.020	0.117
-697.485	-90.142	0.056	-0.017
-696.470	23.707	0.212	-0.176
-695.456	642.598	-0.051	-0.130
-694.441	56.022	-0.102	0.100
-693.426	-78.354	-0.178	0.061
-692.412	-112.815	-0.183	-0.037
-691.397	317.324	0.146	0.277
-690.383	1.754	0.165	0.120
-689.368	123.454	-0.268	0.339
-688.354	-121.341	0.277	0.047
-687.339	-69.589	0.114	-0.044
-686.324	-200.000	0.001	0.145
-685.310	-51.048	0.318	0.150
-684.295	-40.586	0.410	-0.214
-683.281	760.255	0.035	-0.096
-682.266	-52.772	-0.265	-0.123
-681.251	152.101	0.210	-0.289
-680.237	800.000	0.044	0.161
-679.222	800.000	-0.048	-0.143
-678.208	132.483	0.251	-0.326
-677.193	-32.680	0.454	-0.254
-676.178	-128.549	0.041	0.006
-675.164	-25.766	0.225	0.134
-674.149	-14.156	-0.416	-0.270
-673.135	-120.772	0.231	0.039
-672.120	157.524	-0.331	0.461
-671.105	800.000	0.085	0.249
-670.091	-120.736	0.167	0.028
-669.076	-200.000	0.012	-0.064
-668.062	347.814	-0.109	0.216
-667.047	800.000	0.037	-0.123
-666.032	-99.896	-0.206	0.052
-665.018	800.000	-0.089	-0.275
-664.003	800.000	-0.023	-0.068
-662.989	-80.283	0.211	-0.071
-661.974	-163.039	-0.179	0.009
-660.959	-9.820	-0.423	-0.283
-659.945	-125.768	-0.202	-0.031
-658.930	-200.000	0.005	-0.076
-657.916	590.701	0.163	-0.403
-656.901	-200.000	0.012	-0.144
-655.886	-117.681	0.362	0.065
-654.872	800.000	0.016	-0.070
-653.857	-148.860	0.437	-0.035
-652.843	-87.815	-0.147	0.044
-651.828	-145.951	0.175	-0.016
-650.814	56.889	-0.180	-0.177
-649.799	-151.077	-0.010	-0.001
-648.784	-200.000	-0.015	-0.196
-647.770	-135.715	-0.571	0.068
-646.755	81.562	-0.306	0.332
-645.741	-107.135	-0.366	-0.081
-644.726	-200.000	0.079	-0.354
-643.711	-194.917	0.179	-0.001
-642.697	-4.326	-0.208	0.145
-641.682	26.443	0.216	-0.181
-640.668	800.000	-0.015	0.059
-639.653	19.102	-0.079	-0.064
-638.638	38.046	-0.265	-0.237
-637.624	1.629	-0.113	-0.081
-636.609	-10.034	-0.181	0.121
-635.595	-200.000	-0.027	-0.119
-634.580	531.831	0.063	0.151
-633.565	703.052	-0.055	0.146
-632.551	42.783	-0.201	-0.184
-631.536	298.714	-0.020	0.037
-630.522	182.626	0.075	-0.111
-629.507	73.945	0.280	0.295
-628.492	800.000	0.053	-0.164
-627.478	132.213	-0.091	0.118
-626.463	-200.000	-0.010	0.204
-625.449	800.000	-0.092	0.289
-624.434	341.770	0.065	0.127
-623.419	-18.357	-0.253	0.158
-622.405	20.973	0.254	0.206
-621.390	-89.344	0.111	-0.033
-620.376	800.000	-0.009	0.039
-619.361	125.876	-0.128	0.163
-618.346	143.858	0.079	-0.106
-617.332	800.000	0.120	-0.468
-616.317	139.418	0.245	-0.323
-615.303	-92.781	0.368	-0.103
-614.288	27.620	-0.182	0.153
-613.273	800.000	-0.087	-0.319
-612.259	-31.962	-0.422	0.237
-611.244	-30.484	-0.206	-0.117
-610.230	-200.000	-0.043	-0.334
-609.215	549.161	0.073	-0.176
-608.201	800.000	0.054	-0.217
-607.186	-8.682	0.178	-0.120
-606.171	-200.000	-0.041	0.249
-605.157	-78.390	-0.268	-0.092
-604.142	157.477	0.089	-0.124
-603.128	-18.119	0.081	0.051
-602.113	-151.342	-0.181	-0.014
-601.098	-30.491	-0.062	-0.035
-600.084	-200.000	-0.016	0.225
-599.069	-96.062	0.088	0.023
-598.055	87.958	-0.111	0.123
-597.040	144.569	-0.166	0.222
-596.025	-113.606	-0.045	-0.009
-595.011	-103.126	0.195	-0.046
-593.996	42.613	-0.179	0.163
-592.982	-48.500	0.294	-0.142
-591.967	104.055	-0.138	-0.163
-590.952	-72.964	-0.183	-0.067
-589.938	16.758	0.201	0.159
-588.923	-200.000	-0.026	-0.166
-587.909	605.787	0.061	-0.152
-586.894	234.890	0.074	-0.123
-585.879	800.000	-0.092	0.285
-584.865	-53.035	0.200	-0.092
-583.850	-117.522	-0.285	0.052
-582.836	29.736	-0.203	-0.174
-581.821	-76.279	-0.220	0.078
-580.806	203.111	-0.099	0.153
-579.792	-125.978	-0.079	0.012
-578.777	-27.962	0.275	0.159
-577.763	270.029	-0.052	-0.092
-576.748	-3.231	0.157	-0.109
-575.733	-57.121	-0.149	0.066
-574.719	-90.341	-0.201	-0.058
-573.704	199.762	0.173	-0.266
-572.690	121.549	-0.176	-0.220
-571.675	242.121	-0.118	-0.198
-570.661	-87.608	-0.379	-0.115
-569.646	265.832	-0.197	0.344
-568.631	-3.645	-0.342	0.238
-567.617	-114.285	-0.128	0.025
-566.602	-200.000	0.044	-0.256
-565.588	140.258	0.164	0.216
-564.573	69.800	-0.145	-0.149
-563.558	141.898	-0.217	-0.288
-562.544	3.694	-0.091	0.067
-561.529	-104.394	-0.103	-0.024
-560.515	800.000	0.058	0.249
-559.500	-75.563	-0.104	0.037
-558.485	-55.780	0.042	0.019
-557.471	82.348	-0.075	0.082
-556.456	-200.000	-0.031	-0.246
-555.442	-200.000	-0.006	0.032
-554.427	-131.707	-0.203	0.027
-553.412	87.279	0.111	-0.123
-552.398	129.598	0.100	-0.128
-551.383	-108.123	0.186	-0.040
-550.369	-60.379	0.221	0.094
-549.354	-92.559	0.074	0.021
-548.339	18.145	-0.250	0.200
-547.325	58.871	0.168	0.165
-546.310	489.414	-0.072	0.164
-545.296	214.115	-0.140	-0.221
-544.281	-54.175	-0.132	0.060
-543.266	-200.000	0.011	0.089
-542.252	-16.854	-0.136	0.086
-541.237	22.404	0.138	0.113
-540.223	655.043	0.058	-0.148
-539.208	-142.801	0.457	-0.045
-538.193	103.741	-0.348	-0.409
-537.179	-3.253	-0.169	0.118
-536.164	-200.000	0.008	0.132
-535.150	-200.000	-0.026	-0.166
-534.135	365.746	0.073	-0.147
-533.121	585.729	-0.022	-0.055
-532.106	-41.357	0.207	-0.107
-531.091	744.841	-0.078	0.209
-530.077	757.189	-0.131	0.356
-529.062	-112.166	0.238	0.048
-528.048	-124.162	0.091	0.014
-527.033	678.255	0.087	0.226
-526.018	117.735	0.061	-0.075
-525.004	-54.894	-0.016	-0.007
-523.989	-72.575	-0.396	-0.146
-522.975	800.000	-0.081	-0.238
-521.960	61.082	0.338	-0.335
-520.945	-152.374	-0.407	0.029
-519.931	800.000	-0.060	-0.205
-518.916	162.926	-0.049	0.069
-517.902	-200.000	-0.041	0.219
-516.887	121.680	0.176	-0.219
-515.872	800.000	0.111	0.375
-514.858	572.849	-0.027	-0.066
-513.843	-16.195	0.087	-0.055
-512.829	665.426	-0.057	0.147
-511.814	800.000	-0.123	-0.346
-510.799	465.299	0.151	0.338
-509.785	133.590	0.130	0.169
-508.770	800.000	0.063	0.175
-507.756	800.000	0.077	-0.248
-506.741	-58.022	0.260	-0.113
-505.726	-29.347	-0.039	0.022
-504.712	-29.977	-0.377	0.215
-503.697	-124.368	0.152	0.024
-502.683	-126.853	-0.324	-0.048
-501.668	-200.000	0.008	0.040
-500.653	-200.000	0.048	0.215
-499.639	121.426	-0.275	-0.342
-498.624	-200.000	-0.012	-0.392
-497.610	-81.134	0.416	0.137
-496.595	113.350	0.056	-0.068
-495.581	104.305	-0.225	-0.264
-494.566	56.101	-0.217	-0.210
-493.551	-44.925	0.206	0.103
-492.537	-55.246	-0.056	0.025
-491.522	-93.372	0.386	-0.107
-490.508	-161.792	0.162	-0.008
-489.493	-112.014	-0.102	-0.021
-488.478	613.101	0.112	-0.279
-487.464	-200.000	-0.040	-0.220
-486.449	77.408	0.154	-0.163
-485.435	-106.723	0.064	-0.014
-484.420	-87.444	0.056	-0.017
-483.405	113.756	0.047	-0.057
-482.391	-39.527	-0.234	0.122
-481.376	-0.782	0.070	0.049
-480.362	-200.000	0.028	-0.264
-479.347	-0.644	0.153	0.108
-478.332	31.759	-0.118	-0.102
-477.318	-100.086	0.241	-0.060
-476.303	-200.000	-0.028	-0.434
-475.289	377.395	0.158	-0.322
-474.274	-75.913	0.134	0.047
-473.259	-177.538	-0.095	0.002
-472.245	-59.161	0.143	0.061
-471.230	133.810	-0.031	0.039
-470.216	121.262	0.187	-0.233
-469.201	-200.000	0.030	-0.317
-468.186	210.287	-0.127	0.199
-467.172	-137.681	0.219	-0.025
-466.157	-149.323	0.234	0.019
-465.143	-87.697	0.330	-0.099
-464.128	619.467	0.113	0.283
-463.113	-77.112	0.157	-0.055
-462.099	-200.000	0.030	-0.212
-461.084	800.000	0.136	0.381
-460.070	-200.000	0.059	-0.485
-459.055	-127.873	0.159	0.023
-458.040	-177.246	-0.320	-0.008
-457.026	-31.970	-0.064	-0.035
-456.011	-200.000	0.006	-0.065
-454.997	113.928	0.148	-0.179
-453.982	-200.000	0.008	0.195
-452.968	-200.000	-0.015	-0.178
-451.953	68.194	0.343	-0.350
-450.938	-200.000	-0.028	0.152
-449.924	765.632	-0.015	0.041
-448.909	-15.197	0.194	0.124
-447.895	-142.588	0.268	-0.026
-446.880	-149.790	0.240	-0.019
-445.865	-92.399	-0.357	0.100
-444.851	-136.703	0.226	-0.026
-443.836	439.611	0.077	-0.169
-442.822	162.214	-0.196	-0.274
-441.807	49.242	0.224	0.210
-440.792	-200.000	0.045	-0.244
-439.778	5.422	0.217	-0.160
-438.763	-200.000	-0.057	0.463
-437.749	-135.248	0.048	-0.006
-436.734	-6.657	0.189	-0.128
-435.719	-84.174	0.123	0.039
-434.705	-200.000	0.005	-0.079
-433.690	17.645	0.125	-0.099
-432.676	92.289	0.147	0.165
-431.661	-80.577	0.227	-0.075
-430.646	-128.252	0.079	0.011
-429.632	-200.000	-0.025	0.188
-428.617	800.000	0.065	-0.207
-427.603	-61.794	-0.094	0.039
-426.588	-107.627	0.171	-0.037
-425.573	-200.000	-0.031	0.273
-424.559	356.079	0.029	-0.058
-423.544	69.877	-0.162	0.167
-422.530	-123.062	-0.256	-0.041
-421.515	113.211	-0.207	0.250
-420.500	437.644	0.186	0.403
-419.486	206.261	0.244	-0.378
-418.471	-69.391	0.236	-0.090
-417.457	114.274	0.092	0.112
-416.442	-200.000	-0.031	-0.165
-415.428	93.010	-0.070	0.078
-414.413	148.276	0.240	0.322
-413.398	622.440	0.043	-0.108
-412.384	-131.382	0.089	0.012
-411.369	-146.851	0.267	0.023
-410.355	310.428	-0.084	0.157
-409.340	800.000	-0.055	0.182
-408.325	-111.017	-0.285	-0.058
-407.311	3.827	0.221	0.161
-406.296	-200.000	-0.015	-0.096
-405.282	-29.299	0.144	-0.082
-404.267	-72.618	0.073	0.027
-403.252	344.064	-0.139	0.270
-402.238	-76.042	-0.125	0.044
-401.223	-69.144	0.063	-0.024
-400.209	95.707	-0.055	-0.063
-399.194	-83.320	0.183	0.059
-398.179	-17.964	-0.050	-0.031
-397.165	225.454	-0.114	-0.184
-396.150	-200.000	-0.028	0.391
-395.136	-200.000	0.031	0.213
-394.121	800.000	0.158	0.549
-393.106	94.346	0.392	0.443
-392.092	-200.000	-0.001	-0.369
-391.077	-125.646	0.264	-0.040
-390.063	-49.499	-0.270	-0.128
-389.048	-80.302	0.239	0.080
-388.033	-93.673	-0.021	-0.006
-387.019	-55.235	0.177	-0.079
-386.004	251.167	-0.235	-0.397
-384.990	-103.386	-0.228	0.053
-383.975	-144.192	-0.419	-0.039
-382.960	-92.691	-0.281	0.078
-381.946	-83.305	-0.180	0.057
-380.931	800.000	-0.084	-0.259
-379.917	-96.895	-0.225	0.059
-378.902	253.980	0.221	0.376
-377.888	105.131	-0.136	0.160
-376.873	-200.000	0.030	0.213
-375.858	91.684	0.163	0.182
-374.844	351.925	0.142	-0.280
-373.829	-113.071	0.260	0.051
-372.815	-169.912	-0.297	-0.011
-371.800	102.170	-0.221	0.257
-370.785	800.000	-0.067	-0.235
-369.771	-58.697	0.239	-0.103
-368.756	43.201	0.199	0.180
-367.742	4.710	0.167	0.122
-366.727	98.480	0.132	0.151
-365.712	-159.836	-0.140	-0.008
-364.698	-200.000	0.010	-0.178
-363.683	-114.760	-0.177	-0.034
-362.669	-112.624	0.369	0.073
-361.654	512.110	-0.117	0.271
-360.639	391.120	0.132	-0.272
-359.625	-200.000	-0.048	-0.281
-358.610	-137.206	-0.455	-0.052
-357.596	800.000	0.093	-0.379
-356.581	-123.159	-0.169	0.027
-355.566	-72.417	-0.040	-0.015
-354.552	-50.096	-0.145	0.068
-353.537	-80.738	-0.149	0.049
-352.523	241.852	0.086	0.143
-351.508	324.642	-0.117	0.221
-350.493	-120.418	-0.079	-0.013
-349.479	480.769	-0.053	-0.119
-348.464	-77.875	-0.268	-0.092
-347.450	-185.427	-0.211	0.003
-346.435	35.391	0.192	-0.167
-345.420	-56.540	0.171	-0.075
-344.406	16.638	-0.238	0.187
-343.391	-65.028	-0.112	-0.045
-342.377	800.000	0.136	-0.412
-341.362	485.710	0.037	0.083
-340.348	-67.477	0.222	0.087
-339.333	28.236	0.218	0.183
-338.318	52.586	0.309	0.293
-337.304	-100.360	0.124	-0.031
-336.289	-93.864	-0.204	-0.056
-335.275	46.925	-0.356	-0.328
-334.260	800.000	-0.050	-0.140
-333.245	800.000	0.092	0.340
-332.231	59.758	0.149	-0.146
-331.216	192.160	0.074	-0.110
-330.202	-200.000	-0.003	-0.115
-329.187	760.486	-0.073	0.196
-328.172	410.059	-0.112	0.235
-327.158	153.365	0.193	0.262
-326.143	-200.000	0.000	0.002
-325.129	-200.000	-0.004	0.414
-324.114	-77.431	0.343	0.118
-323.099	347.177	0.074	-0.144
-322.085	42.156	-0.077	0.069
-321.070	-109.726	0.140	0.029
-320.056	-200.000	0.037	0.243
-319.041	-5.104	-0.224	0.153
-318.026	118.453	-0.086	0.105
-317.012	-200.000	-0.017	0.247
-315.997	77.639	-0.393	0.415
-314.983	16.043	0.228	0.178
-313.968	260.953	0.058	0.100
-312.953	-130.385	-0.023	0.003
-311.939	-200.000	-0.041	-0.299
-310.924	56.657	0.062	0.060
-309.910	-60.586	0.121	0.051
-308.895	-78.058	-0.100	-0.034
-307.880	-30.928	-0.266	0.149
-306.866	92.832	0.090	0.100
-305.851	-200.000	-0.016	0.215
-304.837	100.493	-0.131	0.150
-303.822	-200.000	0.048	-0.409
-302.807	-143.316	0.407	0.039
-301.793	-59.528	-0.243	-0.104
-300.778	185.467	-0.110	0.162
-299.764	798.587	-0.039	0.105
-298.749	168.883	0.126	0.178
-297.735	138.086	0.101	0.132
-296.720	267.120	-0.102	-0.176
-295.705	3.305	-0.034	-0.025
-294.691	800.000	0.075	-0.276
-293.676	-157.675	0.282	-0.017
-292.662	-146.954	-0.332	-0.028
-291.647	800.000	0.046	0.152
-290.632	-200.000	-0.011	0.136
-289.618	-200.000	-0.009	-0.332
-288.603	-200.000	-0.025	-0.268
-287.589	-15.138	0.307	-0.195
-286.574	177.316	-0.103	0.148
-285.559	800.000	0.047	0.167
-284.545	-167.041	-0.256	0.010
-283.530	-200.000	0.017	-0.084
-282.516	-200.000	0.015	0.187
-281.501	-200.000	-0.005	0.195
-280.486	286.905	-0.057	0.102
-279.472	800.000	-0.047	-0.146
-278.457	11.096	0.347	0.263
-277.443	386.750	-0.252	-0.516
-276.428	-82.474	-0.165	0.053
-275.413	-86.808	0.204	0.062
-274.399	-200.000	0.039	-0.174
-273.384	-138.305	0.625	-0.068
-272.370	-113.816	0.023	-0.004
-271.355	118.948	-0.114	0.140
-270.340	64.057	-0.047	-0.047
-269.326	146.787	-0.071	-0.095
-268.311	800.000	-0.060	-0.233
-267.297	201.633	0.036	0.055
-266.282	-195.959	-0.332	0.002
-265.267	-42.748	0.367	0.185
-264.253	60.559	-0.161	-0.158
-263.238	219.561	0.253	0.400
-262.224	-200.000	-0.021	-0.187
-261.209	478.329	0.052	0.116
-260.195	-200.000	0.015	0.202
-259.180	132.910	-0.209	-0.267
-258.165	363.307	0.074	0.148
-257.151	-74.014	0.247	0.088
-256.136	-200.000	0.014	-0.100
-255.122	686.471	0.082	-0.212
-254.107	-93.898	-0.157	-0.043
-253.092	-130.821	-0.407	-0.054
-252.078	-200.000	0.003	0.024
-251.063	-200.000	-0.012	-0.138
-250.049	-164.815	0.458	-0.020
-249.034	-112.298	0.063	0.012
-248.019	-51.600	-0.328	0.151
-247.005	-79.458	-0.335	-0.112
-245.990	-22.958	0.182	0.109
-244.976	8.352	-0.134	-0.100
-243.961	-84.348	-0.052	0.016
-242.946	288.757	-0.172	-0.308
-241.932	-54.452	-0.408	0.183
-240.917	-200.000	-0.064	-0.298
-239.903	-32.014	0.081	0.045
-238.888	-125.288	-0.094	0.014
-237.873	543.880	-0.107	-0.254
-236.859	252.555	0.238	0.401
-235.844	-184.660	0.221	0.004
-234.830	800.000	0.051	0.195
-233.815	155.724	-0.123	0.168
-232.800	-59.732	0.089	-0.038
-231.786	-200.000	-0.065	-0.483
-230.771	800.000	-0.098	0.345
-229.757	-152.870	-0.199	0.014
-228.742	-139.708	0.036	0.004
-227.727	71.722	0.155	0.159
-226.713	800.000	-0.156	0.542
-225.698	-200.000	0.032	0.269
-224.684	-103.717	0.182	-0.042
-223.669	119.881	0.074	-0.091
-222.655	-60.420	-0.255	0.107
-221.640	-200.000	-0.025	0.359
-220.625	-200.000	0.013	-0.098
-219.611	-173.567	0.192	-0.006
-218.596	-84.127	0.242	-0.076
-217.582	-118.329	-0.182	-0.032
-216.567	-79.607	0.268	0.089
-215.552	-101.732	-0.026	-0.006
-214.538	226.639	-0.055	-0.088
-213.523	-115.630	0.096	0.018
-212.509	800.000	-0.056	-0.225
-211.494	-28.842	-0.455	-0.259
-210.479	-148.607	0.069	-0.006
-209.465	6.614	-0.248	-0.182
-208.450	800.000	-0.040	0.154
-207.436	-188.528	0.342	-0.004
-206.421	-200.000	-0.065	0.324
-205.406	-153.409	0.197	-0.014
-204.392	-38.424	-0.336	-0.176
-203.377	201.345	-0.099	0.151
-202.363	692.566	0.043	0.112
-201.348	642.602	-0.109	0.275
-200.333	37.721	-0.043	-0.038
-199.319	127.965	0.248	0.312
-198.304	-164.052	-0.167	0.008
-197.290	800.000	0.017	0.072
-196.275	-80.880	-0.100	-0.033
-195.260	-30.090	-0.254	-0.143
-194.246	-200.000	-0.007	0.106
-193.231	197.515	0.243	0.366
-192.217	-64.566	0.246	0.099
-191.202	-109.821	-0.181	-0.037
-190.187	-200.000	-0.046	-0.282
-189.173	-200.000	-0.026	-0.221
-188.158	4.432	-0.172	-0.124
-187.144	-119.556	0.354	-0.061
-186.129	-83.128	-0.056	0.018
-185.114	484.893	-0.105	-0.235
-184.100	121.276	0.127	-0.157
-183.085	-12.945	0.136	0.087
-182.071	85.709	0.187	-0.202
-181.056	-200.000	-0.027	0.168
-180.042	-106.916	-0.156	-0.034
-179.027	-84.982	0.176	-0.054
-178.012	2.336	0.180	-0.129
-176.998	119.305	-0.024	-0.029
-175.983	-200.000	-0.007	0.073
-174.969	223.743	0.122	0.194
-173.954	288.618	0.073	-0.130
-172.939	-200.000	0.063	0.297
-171.925	66.867	-0.241	0.242
-170.910	-200.000	0.019	0.121
-169.896	89.256	-0.078	0.085
-168.881	285.609	0.102	-0.182
-167.866	-123.328	0.166	0.026
-166.852	230.401	0.163	-0.263
-165.837	-62.610	0.093	-0.038
-164.823	800.000	0.060	0.185
-163.808	-112.967	-0.261	0.051
-162.793	-176.368	-0.287	0.007
-161.779	150.602	-0.117	0.157
-160.764	49.753	0.077	-0.072
-159.750	-200.000	-0.019	-0.399
-158.735	-200.000	-0.010	-0.326
-157.720	-200.000	0.050	-0.225
-156.706	-60.000	0.122	-0.051
-155.691	-200.000	-0.006	-0.134
-154.677	-33.583	-0.045	-0.025
-153.662	-112.097	-0.315	0.062
-152.647	-200.000	0.044	0.286
-151.633	55.407	-0.142	-0.136
-150.618	-82.811	-0.307	0.098
-149.604	366.153	0.026	0.052
-148.589	-116.158	-0.339	0.062
-147.574	149.718	-0.159	0.212
-146.560	800.000	-0.035	-0.112
-145.545	185.335	0.117	-0.171
-144.531	-150.060	-0.079	0.006
-143.516	-45.725	0.129	0.063
-142.502	30.806	0.196	0.165
-141.487	-200.000	0.050	-0.263
-140.472	5.633	-0.254	-0.185
-139.458	-93.494	0.257	0.070
-138.443	109.694	-0.057	-0.068
-137.429	2.300	0.282	-0.201
-136.414	-146.990	0.169	-0.014
-135.399	-16.213	0.113	-0.070
-134.385	440.276	0.055	0.118
-133.370	-200.000	0.001	0.092
-132.356	-200.000	0.026	0.127
-131.341	-200.000	-0.075	-0.496
-130.326	-97.562	0.239	-0.061
-129.312	311.716	-0.175	-0.323
-128.297	242.715	0.192	-0.316
-127.283	38.459	0.150	-0.131
-126.268	88.251	-0.114	0.124
-125.253	30.971	-0.290	-0.245
-124.239	-200.000	0.045	-0.483
-123.224	15.959	-0.032	0.025
-122.210	298.829	-0.080	0.145
