DTS Sentinel unit serial number:	SN413079Multiplexer serial number:	ORYXHardware model number:	OX4-SRSoftware version number:	ORYX F/W v4.00 Oryx Data Collector v3.7.2.0data status	okinstallation	princeton_trtdifferential loss correction	single-endedforward channel	channel 2reverse channel	N/Adate	2019/09/14time	13:15:35forward acquisition time	60.00reverse acquisition time	0.00gamma	496.2192k internal	0.2306k external	0.2306temperature offset calibration	1.0156default loss term (dB/km)	0.3790temperature slope calibration	1.0000multiplexer offset coefficient	1.0000multiplexer slope coefficient	1.0000fibre end	0.00T internal ref (°C)	38.00T ext. ref 1 (°C)	4.90T ext. ref 2 (°C)	33.85length (m)	temperature (°C)	Stokes	anti-Stokes-747.200	-200.000	0.006	-0.393
-746.185	-200.000	-0.022	-0.190
-745.171	800.000	0.018	-0.066
-744.156	-17.324	0.196	0.125
-743.142	231.763	-0.076	0.127
-742.127	655.035	0.130	0.340
-741.112	85.211	-0.251	-0.280
-740.098	722.047	-0.103	0.279
-739.083	123.090	0.084	-0.107
-738.069	284.898	-0.189	-0.345
-737.054	-31.690	0.152	0.087
-736.039	191.396	-0.228	-0.349
-735.025	516.704	0.054	0.127
-734.010	-200.000	-0.026	0.167
-732.996	83.421	-0.267	-0.296
-731.981	-196.252	-0.299	0.002
-730.966	108.521	-0.135	0.164
-729.952	800.000	-0.066	-0.253
-728.937	-139.978	-0.328	0.035
-727.923	-68.849	-0.349	-0.137
-726.908	-200.000	0.020	0.391
-725.894	-36.799	0.148	-0.081
-724.879	-200.000	-0.032	-0.295
-723.864	87.640	0.172	0.194
-722.850	83.043	-0.097	-0.108
-721.835	-143.724	-0.222	0.021
-720.821	800.000	-0.094	0.310
-719.806	-200.000	-0.006	0.130
-718.791	212.678	-0.123	-0.197
-717.777	-140.067	-0.093	-0.010
-716.762	-40.947	-0.266	-0.140
-715.748	-41.080	0.260	0.137
-714.733	62.112	0.114	-0.116
-713.718	-200.000	-0.069	-0.354
-712.704	72.315	-0.137	-0.146
-711.689	800.000	0.049	-0.167
-710.675	-200.000	-0.018	0.185
-709.660	800.000	-0.049	0.205
-708.645	-140.295	0.093	-0.010
-707.631	-200.000	-0.006	0.145
-706.616	87.691	-0.301	0.338
-705.602	-100.513	-0.140	0.035
-704.587	-145.447	-0.260	-0.024
-703.572	-108.987	0.191	-0.041
-702.558	127.084	0.263	-0.338
-701.543	80.582	0.201	-0.220
-700.529	-69.372	0.016	-0.006
-699.514	-49.769	0.054	-0.026
-698.499	-115.767	0.416	-0.079
-697.485	-138.243	0.203	-0.023
-696.470	-36.886	-0.311	-0.169
-695.456	-103.710	-0.127	-0.030
-694.441	61.139	0.184	-0.186
-693.426	-13.121	0.140	0.093
-692.412	246.301	0.074	-0.127
-691.397	-200.000	-0.055	-0.288
-690.383	113.933	-0.115	-0.142
-689.368	91.338	-0.132	0.150
-688.354	-22.040	0.100	0.062
-687.339	448.590	-0.054	-0.120
-686.324	-200.000	-0.025	-0.264
-685.310	10.167	-0.150	-0.116
-684.295	-9.878	0.100	-0.068
-683.281	-200.000	-0.003	0.191
-682.266	-40.779	-0.192	-0.101
-681.251	-160.446	0.033	0.002
-680.237	78.162	-0.201	0.218
-679.222	-180.511	-0.254	-0.005
-678.208	31.165	0.220	-0.192
-677.193	-137.985	-0.135	0.015
-676.178	-67.661	0.373	0.148
-675.164	74.463	0.090	-0.097
-674.149	-171.623	-0.200	0.007
-673.135	289.070	0.085	0.157
-672.120	-98.868	-0.194	-0.050
-671.105	-79.865	-0.252	0.086
-670.091	-200.000	-0.018	-0.248
-669.076	-113.249	-0.142	0.028
-668.062	443.001	0.078	-0.173
-667.047	-11.432	0.131	-0.087
-666.032	-94.188	0.258	0.072
-665.018	-56.019	0.251	0.114
-664.003	-132.611	0.106	0.014
-662.989	-200.000	-0.036	0.323
-661.974	800.000	-0.047	-0.166
-660.959	-56.421	-0.400	-0.180
-659.945	123.883	-0.188	-0.240
-658.930	800.000	-0.048	0.135
-657.916	800.000	0.040	0.167
-656.901	800.000	-0.008	0.033
-655.886	-200.000	0.001	-0.054
-654.872	389.138	0.044	-0.091
-653.857	119.208	-0.098	-0.123
-652.843	389.575	-0.077	0.163
-651.828	-200.000	-0.006	0.190
-650.814	-26.302	-0.435	-0.259
-649.799	-30.845	0.196	-0.112
-648.784	-67.311	0.124	0.049
-647.770	-19.673	-0.128	0.081
-646.755	-22.055	-0.203	-0.125
-645.741	800.000	-0.043	-0.184
-644.726	302.855	0.205	-0.385
-643.711	12.254	-0.484	-0.378
-642.697	320.599	-0.112	-0.216
-641.682	518.786	0.126	0.300
-640.668	40.787	0.264	0.242
-639.653	-35.437	0.133	0.073
-638.638	-200.000	0.010	0.057
-637.624	-84.045	0.567	-0.182
-636.609	-23.723	-0.093	0.057
-635.595	800.000	-0.052	0.167
-634.580	146.358	0.134	0.182
-633.565	800.000	-0.066	0.202
-632.551	119.411	0.145	0.182
-631.536	143.301	-0.114	0.154
-630.522	-92.640	-0.205	0.058
-629.507	-98.902	0.296	-0.076
-628.492	-200.000	-0.012	0.118
-627.478	154.490	0.117	-0.163
-626.463	343.971	0.153	-0.304
-625.449	-92.561	0.311	-0.088
-624.434	-200.000	0.007	-0.095
-623.419	-73.165	-0.103	0.038
-622.405	-5.377	-0.146	-0.102
-621.390	200.408	0.055	0.086
-620.376	-200.000	-0.048	0.267
-619.361	-31.814	-0.199	-0.113
-618.346	60.542	-0.185	0.186
-617.332	-200.000	-0.046	-0.423
-616.317	-200.000	0.007	-0.183
-615.303	-35.139	0.244	0.134
-614.288	-63.853	-0.071	0.030
-613.273	22.620	0.091	0.076
-612.259	553.427	0.090	-0.218
-611.244	-197.087	-0.157	-0.001
-610.230	-200.000	0.031	0.264
-609.215	-34.235	-0.165	0.092
-608.201	-135.911	-0.344	-0.041
-607.186	-200.000	-0.001	0.227
-606.171	-146.744	-0.099	0.009
-605.157	-94.907	-0.156	0.043
-604.142	22.411	-0.234	-0.193
-603.128	42.669	0.182	-0.168
-602.113	-48.627	-0.116	0.056
-601.098	283.145	0.099	-0.180
-600.084	-167.733	0.370	-0.015
-599.069	77.584	0.170	-0.184
-598.055	-101.067	-0.164	0.041
-597.040	-96.342	-0.138	0.037
-596.025	136.274	0.165	-0.217
-595.011	-47.907	-0.174	0.085
-593.996	16.081	-0.154	0.123
-592.982	-200.000	-0.018	-0.217
-591.967	-108.250	0.091	-0.020
-590.952	-200.000	-0.032	0.212
-589.938	-200.000	0.048	0.331
-588.923	-82.465	-0.181	0.059
-587.909	-62.250	-0.101	0.042
-586.894	667.528	0.108	0.281
-585.879	105.886	0.103	-0.123
-584.865	-112.183	0.097	0.020
-583.850	800.000	-0.057	-0.216
-582.836	28.223	0.135	-0.115
-581.821	146.387	0.042	-0.057
-580.806	241.340	-0.102	0.171
-579.792	-143.269	0.248	-0.024
-578.777	-44.532	0.105	0.053
-577.763	1.878	-0.144	0.105
-576.748	-200.000	-0.313	0.000
-575.733	103.821	0.149	-0.177
-574.719	800.000	0.060	0.204
-573.704	-121.504	0.072	0.012
-572.690	-66.071	0.106	-0.043
-571.675	308.818	-0.030	0.056
-570.661	392.101	-0.120	-0.252
-569.646	-41.269	0.234	0.122
-568.631	227.316	-0.132	-0.217
-567.617	10.662	-0.233	-0.180
-566.602	-200.000	-0.007	-0.080
-565.588	-155.872	0.353	-0.023
-564.573	-178.379	0.207	-0.005
-563.558	-35.136	-0.140	-0.077
-562.544	208.278	0.107	-0.169
-561.529	-102.729	-0.173	-0.042
-560.515	-138.090	0.174	-0.020
-559.500	800.000	0.074	-0.241
-558.485	-159.160	-0.324	0.018
-557.471	-200.000	0.004	-0.140
-556.456	224.946	0.194	0.316
-555.442	426.195	0.076	0.166
-554.427	-124.051	0.224	-0.035
-553.412	-53.801	0.268	-0.123
-552.398	-31.595	-0.174	-0.099
-551.383	18.139	-0.154	-0.124
-550.369	800.000	0.032	0.095
-549.354	47.345	0.219	-0.206
-548.339	791.285	-0.068	0.188
-547.325	-40.315	-0.156	0.082
-546.310	-12.140	-0.200	-0.132
-545.296	-113.858	0.407	-0.080
-544.281	-182.212	0.338	-0.006
-543.266	-142.707	-0.176	-0.017
-542.252	-104.610	-0.115	0.027
-541.237	116.799	-0.024	0.030
-540.223	-92.061	0.177	-0.050
-539.208	12.197	-0.161	-0.125
-538.193	216.770	-0.158	-0.254
-537.179	370.018	0.123	0.251
-536.164	94.543	-0.309	-0.354
-535.150	800.000	0.055	0.174
-534.135	251.387	0.116	0.200
-533.121	-200.000	-0.020	-0.309
-532.106	-200.000	0.014	-0.285
-531.091	-73.653	-0.055	0.020
-530.077	458.339	-0.090	0.203
-529.062	-141.302	-0.050	-0.005
-528.048	-118.468	-0.164	-0.029
-527.033	225.099	0.131	0.214
-526.018	-83.342	-0.300	-0.097
-525.004	800.000	0.179	-0.549
-523.989	26.377	-0.218	-0.184
-522.975	-200.000	-0.040	0.345
-521.960	-91.331	0.265	-0.076
-520.945	163.204	-0.175	-0.248
-519.931	67.225	0.243	0.250
-518.916	798.900	0.048	0.134
-517.902	-132.840	-0.292	0.038
-516.887	-130.725	0.231	-0.031
-515.872	241.148	-0.106	-0.178
-514.858	-71.091	0.263	0.100
-513.843	-103.930	0.408	-0.096
-512.829	210.677	-0.091	-0.145
-511.814	249.198	0.019	0.032
-510.799	-200.000	0.008	-0.093
-509.785	12.041	-0.142	0.110
-508.770	-45.900	0.360	0.179
-507.756	-101.866	-0.096	0.023
-506.741	-200.000	-0.033	-0.208
-505.726	231.418	-0.098	0.162
-504.712	-128.836	-0.058	-0.008
-503.697	-107.834	-0.329	-0.072
-502.683	-128.795	-0.255	-0.036
-501.668	-109.951	-0.187	-0.039
-500.653	-200.000	0.068	-0.493
-499.639	-32.610	0.188	0.105
-498.624	-71.439	-0.155	-0.059
-497.610	-200.000	-0.026	0.140
-496.595	-172.979	0.309	-0.010
-495.581	-126.869	0.086	-0.013
-494.566	532.615	0.087	-0.208
-493.551	-200.000	-0.017	0.088
-492.537	-200.000	0.007	0.087
-491.522	-45.239	0.148	0.074
-490.508	-57.659	-0.056	0.025
-489.493	-25.380	-0.340	0.202
-488.478	-169.897	-0.374	-0.013
-487.464	-30.919	0.093	-0.053
-486.449	399.708	-0.088	0.186
-485.435	-70.576	-0.202	0.077
-484.420	-66.121	-0.144	-0.058
-483.405	85.825	0.256	-0.284
-482.391	-141.421	0.178	0.018
-481.376	-146.255	-0.056	0.005
-480.362	91.909	0.133	0.150
-479.347	161.837	-0.143	-0.201
-478.332	37.161	0.128	-0.114
-477.318	3.212	-0.291	0.213
-476.303	-55.858	-0.101	0.045
-475.289	-55.581	0.226	0.102
-474.274	-70.148	-0.274	0.105
-473.259	169.914	-0.066	-0.095
-472.245	-145.649	-0.588	0.053
-471.230	-102.682	-0.161	0.039
-470.216	7.344	-0.214	-0.161
-469.201	-200.000	-0.024	0.322
-468.186	-200.000	-0.071	-0.447
-467.172	-200.000	0.014	-0.148
-466.157	-106.990	0.387	0.086
-465.143	-53.850	-0.188	0.086
-464.128	-102.371	-0.251	0.061
-463.113	-13.770	0.244	0.159
-462.099	10.049	-0.059	-0.045
-461.084	64.511	-0.195	0.198
-460.070	507.492	0.059	-0.138
-459.055	-111.898	-0.338	0.069
-458.040	48.967	-0.075	-0.071
-457.026	133.750	0.034	-0.044
-456.011	1.674	-0.067	0.048
-454.997	24.010	-0.136	0.113
-453.982	114.098	-0.118	0.144
-452.968	-200.000	0.018	0.243
-451.953	131.524	0.036	-0.047
-450.938	-12.197	0.422	0.278
-449.924	-200.000	-0.039	0.189
-448.909	-55.998	0.202	0.091
-447.895	-200.000	-0.019	0.134
-446.880	655.797	0.020	0.053
-445.865	362.734	-0.173	-0.350
-444.851	-200.000	0.005	0.375
-443.836	122.811	-0.228	0.287
-442.822	191.827	0.021	-0.032
-441.807	-11.099	-0.169	-0.112
-440.792	61.145	-0.330	0.329
-439.778	345.584	-0.105	0.207
-438.763	800.000	0.077	0.223
-437.749	242.939	-0.230	0.387
-436.734	-99.337	-0.148	-0.037
-435.719	102.664	-0.294	-0.346
-434.705	-43.821	0.263	-0.133
-433.690	371.602	0.098	-0.200
-432.676	195.284	0.045	-0.069
-431.661	173.158	0.208	-0.302
-430.646	-29.132	0.260	0.150
-429.632	-200.000	-0.032	0.340
-428.617	-42.257	0.276	0.142
-427.603	356.418	0.125	0.250
-426.588	-194.937	-0.213	0.002
-425.573	800.000	-0.023	-0.103
-424.559	-97.141	0.291	0.077
-423.544	-31.965	0.201	0.113
-422.530	800.000	-0.047	0.187
-421.515	-47.506	-0.173	0.084
-420.500	-91.530	0.163	0.047
-419.486	-69.723	-0.096	0.037
-418.471	-16.869	0.153	-0.097
-417.457	168.715	-0.157	0.224
-416.442	800.000	0.058	0.218
-415.428	208.335	-0.151	-0.236
-414.413	800.000	0.026	0.110
-413.398	339.352	-0.029	0.057
-412.384	750.815	-0.017	0.047
-411.369	132.000	-0.072	0.093
-410.355	71.991	-0.134	-0.140
-409.340	369.875	-0.050	-0.101
-408.325	800.000	-0.064	-0.219
-407.311	354.171	-0.038	0.075
-406.296	-25.448	-0.055	0.032
-405.282	47.436	0.197	-0.185
-404.267	156.588	-0.136	0.188
-403.252	-200.000	0.009	-0.059
-402.238	130.419	0.188	-0.241
-401.223	-103.902	-0.265	0.062
-400.209	716.429	-0.051	0.136
-399.194	152.807	-0.166	0.228
-398.179	82.083	-0.155	0.168
-397.165	-4.445	0.036	0.025
-396.150	111.690	0.083	-0.101
-395.136	-153.331	-0.209	0.015
-394.121	-23.283	-0.242	0.146
-393.106	800.000	0.041	-0.127
-392.092	-121.811	-0.264	0.044
-391.077	800.000	0.006	-0.022
-390.063	-200.000	0.047	-0.329
-389.048	800.000	-0.007	0.021
-388.033	428.705	-0.054	-0.117
-387.019	800.000	-0.022	0.073
-386.004	-30.052	-0.334	0.191
-384.990	757.090	-0.082	0.221
-383.975	-139.922	-0.272	0.029
-382.960	25.282	0.144	0.120
-381.946	-113.288	0.234	0.046
-380.931	-28.398	-0.213	0.123
-379.917	-89.999	0.222	-0.065
-378.902	761.803	-0.048	0.130
-377.888	800.000	-0.060	0.190
-376.873	8.693	0.159	0.120
-375.858	-64.867	-0.190	0.077
-374.844	209.479	-0.087	-0.136
-373.829	37.772	0.029	-0.026
-372.815	-36.936	0.081	0.044
-371.800	-131.148	-0.062	0.008
-370.785	-200.000	0.004	-0.091
-369.771	-78.128	-0.123	0.042
-368.756	-166.880	0.192	0.008
-367.742	135.667	-0.061	0.079
-366.727	154.028	-0.330	-0.454
-365.712	-23.234	-0.114	-0.069
-364.698	51.349	-0.175	0.166
-363.683	756.557	0.113	-0.306
-362.669	87.902	0.029	-0.032
-361.654	800.000	0.113	0.326
-360.639	-57.061	0.238	0.105
-359.625	-47.999	-0.270	-0.131
-358.610	74.517	0.099	0.105
-357.596	98.925	0.175	0.203
-356.581	81.400	-0.124	0.134
-355.566	-200.000	0.010	0.208
-354.552	202.712	0.112	0.173
-353.537	-138.787	0.169	0.018
-352.523	-120.911	-0.460	-0.078
-351.508	-97.391	-0.491	-0.128
-350.493	201.819	0.173	-0.267
-349.479	21.701	0.156	-0.127
-348.464	139.505	0.012	0.016
-347.450	-200.000	0.004	0.142
-346.435	-200.000	-0.002	0.295
-345.420	503.571	-0.043	0.100
-344.406	-200.000	-0.029	0.189
-343.391	-67.219	-0.238	0.094
-342.377	-16.488	0.280	-0.178
-341.362	40.118	0.035	-0.032
-340.348	-90.391	0.306	0.089
-339.333	-200.000	0.011	-0.323
-338.318	39.424	0.276	-0.248
-337.304	124.236	-0.076	0.096
-336.289	183.982	-0.138	0.205
-335.275	-155.281	0.117	0.008
-334.260	28.633	-0.112	0.094
-333.245	10.684	0.062	0.048
-332.231	800.000	0.065	0.228
-331.216	66.349	0.084	0.085
-330.202	-6.509	-0.083	0.057
-329.187	79.009	0.204	0.219
-328.172	-11.077	0.125	-0.082
-327.158	70.172	-0.210	-0.217
-326.143	800.000	0.028	0.119
-325.129	800.000	0.093	-0.345
-324.114	44.267	-0.129	-0.119
-323.099	-126.148	0.095	-0.014
-322.085	91.856	0.099	-0.111
-321.070	54.052	-0.156	-0.150
-320.056	-102.776	0.202	-0.048
-319.041	34.100	0.028	0.025
-318.026	-200.000	0.029	-0.142
-317.012	114.385	0.187	-0.227
-315.997	-121.287	-0.228	-0.038
-314.983	43.994	0.145	0.133
-313.968	-120.952	0.427	-0.072
-312.953	3.153	-0.205	0.149
-311.939	-12.112	0.085	-0.055
-310.924	-13.198	-0.247	-0.161
-309.910	-143.495	0.291	-0.028
-308.895	800.000	0.087	0.269
-307.880	-200.000	-0.043	0.463
-306.866	97.327	0.107	0.123
-305.851	-35.799	-0.142	0.077
-304.837	-97.459	0.200	-0.052
-303.822	-200.000	0.016	-0.142
-302.807	514.173	-0.154	-0.359
-301.793	94.521	0.146	-0.165
-300.778	332.344	-0.160	0.310
-299.764	63.745	-0.172	-0.173
-298.749	440.939	-0.016	0.035
-297.735	108.692	0.213	0.254
-296.720	461.144	-0.073	-0.163
-295.705	490.458	-0.216	-0.495
-294.691	-200.000	-0.006	-0.133
-293.676	178.364	-0.133	-0.194
-292.662	347.028	-0.134	-0.264
-291.647	-200.000	-0.001	-0.340
-290.632	746.549	0.126	-0.340
-289.618	-200.000	0.028	-0.152
-288.603	-200.000	0.035	-0.261
-287.589	800.000	0.012	0.039
-286.574	-200.000	0.032	0.179
-285.559	206.762	0.023	-0.036
-284.545	-200.000	-0.002	-0.250
-283.530	71.951	0.122	-0.127
-282.516	-200.000	-0.079	0.396
-281.501	-200.000	-0.041	0.191
-280.486	151.483	0.134	-0.182
-279.472	-19.899	0.120	-0.074
-278.457	-86.924	0.092	-0.028
-277.443	-3.864	-0.117	-0.081
-276.428	-5.895	-0.159	-0.109
-275.413	-149.283	0.044	-0.004
-274.399	-104.104	0.298	0.069
-273.384	800.000	0.141	0.391
-272.370	-92.847	0.057	-0.016
-271.355	-93.955	-0.269	0.074
-270.340	237.227	0.199	0.329
-269.326	64.360	-0.061	0.061
-268.311	-57.440	0.162	-0.071
-267.297	98.731	0.111	0.128
-266.282	800.000	0.086	-0.284
-265.267	-71.281	0.206	0.077
-264.253	153.867	0.231	0.317
-263.238	-27.704	0.209	0.121
-262.224	60.612	0.104	-0.103
-261.209	289.843	-0.140	-0.254
-260.195	-65.255	-0.264	0.106
-259.180	163.045	-0.084	0.118
-258.165	-200.000	-0.032	-0.221
-257.151	7.479	-0.037	0.027
-256.136	-200.000	-0.041	-0.215
-255.122	-99.655	0.032	0.008
-254.107	-36.993	0.221	0.118
-253.092	118.815	0.089	0.110
-252.078	-42.061	0.285	-0.146
-251.063	-200.000	0.012	0.151
-250.049	-145.198	0.231	-0.021
-249.034	86.088	0.316	0.347
-248.019	-96.329	0.050	-0.013
-247.005	-145.248	-0.261	-0.024
-245.990	600.814	-0.137	-0.340
-244.976	-15.223	0.268	-0.171
-243.961	-200.000	-0.060	-0.364
-242.946	-1.889	0.230	-0.162
-241.932	-104.336	0.174	0.040
-240.917	-200.000	0.010	0.264
-239.903	256.722	0.242	0.415
-238.888	800.000	0.011	-0.038
-237.873	-200.000	0.059	-0.307
-236.859	81.603	-0.127	0.137
-235.844	125.800	-0.094	0.118
-234.830	-60.115	-0.201	0.085
-233.815	800.000	0.050	0.181
-232.800	-17.905	0.097	0.061
-231.786	60.456	-0.169	0.166
-230.771	-12.614	0.258	0.168
-229.757	-33.351	-0.080	0.044
-228.742	246.552	0.100	0.169
-227.727	39.588	-0.052	0.047
-226.713	800.000	-0.125	0.368
-225.698	-132.291	-0.312	0.040
-224.684	19.177	0.215	-0.172
-223.669	-14.407	-0.152	-0.098
-222.655	393.865	-0.012	-0.026
-221.640	-134.487	0.318	0.039
-220.625	42.978	-0.172	0.157
-219.611	-200.000	-0.024	0.107
-218.596	37.946	-0.049	-0.044
-217.582	-131.193	-0.188	-0.025
-216.567	-18.694	0.248	-0.154
-215.552	-53.478	0.337	-0.154
-214.538	-89.260	-0.099	-0.029
-213.523	-1.797	-0.180	0.126
-212.509	33.397	0.131	0.114
-211.494	-110.349	-0.033	0.007
-210.479	800.000	-0.066	0.269
-209.465	508.067	0.175	-0.406
-208.450	225.770	-0.130	-0.210
-207.436	-80.127	-0.307	-0.103
-206.421	-74.264	-0.109	0.039
-205.406	-121.031	0.308	-0.052
-204.392	-9.393	0.163	0.108
-203.377	138.072	0.388	0.507
-202.363	-200.000	-0.008	0.286
-201.348	505.884	0.097	0.224
-200.333	800.000	0.122	-0.363
-199.319	48.217	-0.308	-0.287
-198.304	-200.000	-0.006	-0.411
-197.290	29.702	-0.091	0.077
-196.275	-149.720	0.416	0.033
-195.260	307.551	0.103	-0.190
-194.246	800.000	0.027	-0.077
-193.231	112.381	-0.169	-0.203
-192.217	-9.766	-0.082	-0.054
-191.202	-131.352	0.166	-0.022
-190.187	15.265	-0.084	0.065
-189.173	-55.390	-0.221	0.099
-188.158	201.200	0.055	-0.084
-187.144	180.203	0.175	-0.256
-186.129	-26.148	0.272	0.159
-185.114	800.000	0.054	-0.184
-184.100	-157.344	-0.116	-0.007
-183.085	-200.000	0.010	0.094
-182.071	-57.049	-0.129	0.057
-181.056	-65.848	-0.196	0.078
-180.042	-200.000	0.033	0.320
-179.027	60.031	-0.149	-0.146
-178.012	800.000	-0.052	0.210
-176.998	-115.801	-0.071	-0.013
-175.983	-97.538	-0.290	-0.075
-174.969	576.854	-0.065	0.157
-173.954	-20.713	-0.191	-0.116
-172.939	-106.380	-0.160	-0.036
-171.925	-200.000	0.006	-0.037
-170.910	6.405	-0.202	-0.149
-169.896	173.811	0.112	-0.161
-168.881	-91.183	0.246	-0.070
-167.866	238.540	0.158	-0.261
-166.852	-67.834	0.091	-0.035
-165.837	-113.420	-0.285	-0.056
-164.823	11.737	0.414	-0.316
-163.808	153.817	-0.081	-0.110
-162.793	85.282	0.149	0.162
-161.779	464.961	0.135	0.299
-160.764	4.679	0.204	-0.149
-159.750	-200.000	0.015	-0.194
-158.735	-200.000	-0.013	-0.316
-157.720	16.796	-0.297	0.234
-156.706	767.514	-0.125	0.338
-155.691	-70.370	0.246	-0.093
-154.677	-89.511	-0.270	0.079
-153.662	7.573	0.256	0.191
-152.647	390.136	0.080	-0.164
-151.633	6.039	-0.123	-0.091
-150.618	-98.231	-0.190	-0.049
-149.604	367.812	0.066	0.132
-148.589	-200.000	-0.056	-0.303
-147.574	800.000	0.134	0.428
-146.560	-114.348	-0.511	-0.098
-145.545	71.000	-0.102	0.105
-144.531	-68.131	-0.102	-0.040
-143.516	800.000	-0.098	0.292
-142.502	154.073	0.187	-0.255
-141.487	-200.000	-0.006	-0.146
-140.472	800.000	-0.097	0.295
-139.458	-200.000	-0.001	-0.217
-138.443	-200.000	-0.012	0.076
-137.429	583.972	-0.150	-0.366
-136.414	16.303	0.352	-0.276
-135.399	219.677	-0.173	-0.275
-134.385	-17.040	0.123	-0.077
-133.370	-200.000	-0.052	-0.527
-132.356	-6.192	0.299	-0.203
-131.341	28.784	0.011	0.010
-130.326	-30.389	-0.199	0.112
-129.312	800.000	0.114	0.485
-128.297	-200.000	0.038	0.202
-127.283	-200.000	0.021	-0.287
-126.268	730.981	-0.103	0.273
-125.253	-16.717	-0.047	0.029
-124.239	116.240	0.019	0.023
-123.224	800.000	0.052	0.173
-122.210	28.250	-0.282	0.236
-121.195	800.000	0.046	-0.147
