DTS Sentinel unit serial number:	SN413079Multiplexer serial number:	ORYXHardware model number:	OX4-SRSoftware version number:	ORYX F/W v4.00 Oryx Data Collector v3.7.2.0data status	okinstallation	princeton_trtdifferential loss correction	single-endedforward channel	channel 2reverse channel	N/Adate	2019/09/11time	01:33:10forward acquisition time	60.00reverse acquisition time	0.00gamma	496.2192k internal	0.2331k external	0.2331temperature offset calibration	0.9943default loss term (dB/km)	0.3790temperature slope calibration	1.0000multiplexer offset coefficient	1.0000multiplexer slope coefficient	1.0000fibre end	0.00T internal ref (°C)	29.12T ext. ref 1 (°C)	-0.29T ext. ref 2 (°C)	23.42length (m)	temperature (°C)	Stokes	anti-Stokes-747.200	-200.000	-0.023	-0.208
-746.185	-101.750	-0.199	-0.049
-745.171	110.999	0.123	0.149
-744.156	468.779	0.102	0.231
-743.142	-27.098	-0.243	0.143
-742.127	-157.249	-0.332	-0.020
-741.112	-147.509	0.311	-0.026
-740.098	-200.000	-0.030	-0.313
-739.083	-132.743	-0.180	0.023
-738.069	800.000	0.119	0.440
-737.054	735.410	0.074	0.200
-736.039	800.000	-0.049	-0.213
-735.025	277.749	0.189	0.338
-734.010	-114.679	-0.176	-0.034
-732.996	800.000	-0.038	0.128
-731.981	800.000	-0.067	-0.206
-730.966	136.943	0.134	0.176
-729.952	228.760	-0.212	-0.348
-728.937	-53.323	-0.227	-0.105
-727.923	800.000	-0.060	-0.259
-726.908	-139.289	0.304	0.033
-725.894	-200.000	-0.075	0.507
-724.879	56.896	-0.351	0.344
-723.864	119.148	0.102	0.127
-722.850	193.638	-0.066	-0.100
-721.835	-126.427	0.267	0.040
-720.821	800.000	0.041	0.140
-719.806	-200.000	-0.003	0.193
-718.791	-85.356	0.119	0.037
-717.777	63.263	0.166	-0.167
-716.762	-200.000	-0.003	-0.089
-715.748	43.362	-0.138	-0.127
-714.733	-65.575	-0.267	0.108
-713.718	-200.000	0.005	0.052
-712.704	-200.000	0.004	-0.093
-711.689	110.518	-0.053	0.064
-710.675	-200.000	0.008	0.136
-709.660	83.990	-0.112	0.123
-708.645	-200.000	0.010	0.134
-707.631	-200.000	0.030	-0.196
-706.616	800.000	-0.078	0.262
-705.602	99.874	0.228	0.265
-704.587	-49.911	-0.249	0.119
-703.572	-200.000	-0.004	0.169
-702.558	-129.300	0.156	-0.022
-701.543	-62.054	-0.164	-0.069
-700.529	130.587	0.141	-0.181
-699.514	-29.643	0.070	0.040
-698.499	800.000	-0.032	-0.135
-697.485	-6.308	-0.372	-0.255
-696.470	100.045	0.090	0.105
-695.456	483.215	-0.173	-0.396
-694.441	-66.619	0.294	-0.117
-693.426	389.640	-0.102	0.212
-692.412	8.466	-0.052	0.039
-691.397	77.137	-0.025	0.027
-690.383	-200.000	-0.298	-0.001
-689.368	800.000	0.047	0.145
-688.354	-97.735	0.361	-0.094
-687.339	-150.800	-0.147	0.011
-686.324	-106.987	-0.194	-0.043
-685.310	223.490	-0.168	0.272
-684.295	26.305	0.086	-0.073
-683.281	-154.358	-0.281	0.019
-682.266	696.740	-0.197	-0.519
-681.251	194.619	0.139	0.211
-680.237	800.000	0.037	0.151
-679.222	271.374	-0.055	-0.098
-678.208	-129.829	0.156	-0.021
-677.193	250.709	0.211	0.360
-676.178	-49.939	0.165	-0.078
-675.164	-22.442	-0.260	0.158
-674.149	-154.679	0.287	-0.019
-673.135	800.000	-0.112	-0.446
-672.120	-200.000	-0.038	-0.246
-671.105	-147.658	0.113	-0.010
-670.091	-45.065	0.367	-0.183
-669.076	800.000	0.049	-0.210
-668.062	-8.521	0.137	0.093
-667.047	-200.000	0.019	-0.098
-666.032	-131.855	0.260	-0.034
-665.018	800.000	0.040	-0.150
-664.003	-200.000	-0.077	0.389
-662.989	800.000	0.073	-0.280
-661.974	-200.000	-0.003	0.054
-660.959	184.701	-0.087	-0.129
-659.945	106.814	0.191	-0.227
-658.930	112.944	0.054	0.066
-657.916	-8.631	-0.223	0.150
-656.901	102.639	0.104	-0.122
-655.886	-93.378	0.138	0.038
-654.872	-143.816	-0.201	0.019
-653.857	360.862	-0.029	0.058
-652.843	473.982	0.065	-0.147
-651.828	-113.562	0.094	0.018
-650.814	-114.528	-0.214	-0.041
-649.799	-46.145	0.125	0.062
-648.784	-111.006	0.316	0.065
-647.770	-200.000	0.025	0.117
-646.755	307.784	0.092	0.172
-645.741	-200.000	-0.001	-0.060
-644.726	56.251	0.166	-0.162
-643.711	-33.179	0.225	-0.125
-642.697	-41.237	-0.154	0.080
-641.682	-92.828	-0.347	0.097
-640.668	-200.000	0.065	-0.346
-639.653	123.861	-0.033	0.042
-638.638	140.097	0.083	-0.110
-637.624	745.946	0.099	-0.266
-636.609	7.737	-0.103	-0.077
-635.595	-8.598	-0.199	0.134
-634.580	167.243	-0.171	-0.244
-633.565	417.478	0.094	0.200
-632.551	-63.615	0.038	-0.015
-631.536	-4.295	-0.162	0.112
-630.522	-154.618	0.133	0.009
-629.507	-75.666	0.064	-0.023
-628.492	-200.000	-0.002	0.096
-627.478	33.473	-0.179	0.156
-626.463	31.942	-0.156	-0.135
-625.449	-102.445	0.143	-0.034
-624.434	88.362	0.189	0.210
-623.419	-200.000	0.040	-0.232
-622.405	-89.613	-0.215	-0.063
-621.390	-89.401	0.290	0.086
-620.376	-26.516	0.138	0.081
-619.361	-200.000	0.028	-0.169
-618.346	800.000	-0.044	0.157
-617.332	-97.077	0.355	-0.093
-616.317	-200.000	0.056	0.292
-615.303	-156.661	-0.383	0.024
-614.288	-200.000	-0.038	-0.250
-613.273	800.000	-0.025	0.090
-612.259	-79.395	-0.181	0.061
-611.244	628.483	-0.054	-0.138
-610.230	-200.000	0.001	0.071
-609.215	-163.452	-0.252	-0.012
-608.201	-189.288	0.393	-0.005
-607.186	-90.833	-0.135	0.039
-606.171	-120.042	-0.223	-0.038
-605.157	800.000	-0.044	-0.132
-604.142	110.613	0.157	-0.189
-603.128	-200.000	-0.011	0.075
-602.113	-30.193	0.310	-0.177
-601.098	-13.501	-0.015	-0.010
-600.084	8.380	0.342	-0.257
-599.069	-200.000	0.028	-0.256
-598.055	-16.123	-0.259	0.164
-597.040	314.579	-0.052	-0.098
-596.025	-200.000	0.025	0.160
-595.011	-198.321	-0.229	-0.001
-593.996	176.394	-0.172	0.250
-592.982	108.059	-0.162	0.194
-591.967	-47.384	0.168	0.082
-590.952	-200.000	0.013	0.161
-589.938	-200.000	-0.000	-0.093
-588.923	147.570	-0.093	0.125
-587.909	-108.797	0.291	-0.062
-586.894	-52.786	-0.118	0.054
-585.879	-181.779	-0.211	-0.004
-584.865	102.024	-0.218	-0.254
-583.850	313.326	-0.136	0.256
-582.836	30.638	-0.101	-0.086
-581.821	-47.322	0.191	-0.093
-580.806	450.303	-0.057	-0.126
-579.792	212.664	-0.108	0.171
-578.777	-162.042	-0.283	-0.014
-577.763	147.700	0.051	0.068
-576.748	-141.217	-0.221	-0.023
-575.733	-32.124	-0.273	0.153
-574.719	163.559	-0.259	-0.364
-573.704	536.826	-0.201	-0.476
-572.690	-115.898	0.316	0.059
-571.675	-24.044	-0.584	0.349
-570.661	-103.679	0.440	-0.103
-569.646	-117.694	0.468	-0.084
-568.631	-148.381	-0.177	0.015
-567.617	4.063	-0.230	0.168
-566.602	434.967	-0.133	-0.290
-565.588	-117.336	-0.322	0.058
-564.573	609.051	0.090	-0.225
-563.558	73.934	-0.280	-0.294
-562.544	104.086	0.050	-0.059
-561.529	-107.849	-0.173	-0.038
-560.515	-200.000	-0.038	-0.222
-559.500	-27.790	0.194	-0.113
-558.485	-66.183	0.232	-0.092
-557.471	800.000	-0.042	-0.120
-556.456	-200.000	-0.027	0.141
-555.442	-86.665	-0.053	-0.016
-554.427	510.861	0.092	-0.214
-553.412	-149.598	0.255	0.020
-552.398	-200.000	-0.005	0.231
-551.383	242.674	0.092	-0.154
-550.369	-198.925	-0.328	0.002
-549.354	312.012	0.133	-0.249
-548.339	800.000	-0.183	-0.517
-547.325	-200.000	-0.029	-0.234
-546.310	207.327	0.128	-0.199
-545.296	-59.417	0.281	0.121
-544.281	-109.075	0.126	0.027
-543.266	-137.009	-0.316	0.036
-542.252	-200.000	-0.027	-0.220
-541.237	-127.088	0.267	-0.039
-540.223	-50.057	0.263	0.125
-539.208	498.705	-0.095	0.217
-538.193	-48.756	0.084	0.040
-537.179	-43.205	0.188	0.095
-536.164	-130.315	-0.338	-0.046
-535.150	141.689	-0.041	0.054
-534.135	-113.346	0.247	0.049
-533.121	502.569	-0.069	0.158
-532.106	353.256	0.215	0.426
-531.091	-200.000	0.024	-0.328
-530.077	-122.223	0.147	-0.024
-529.062	-67.625	0.148	-0.058
-528.048	800.000	0.056	0.174
-527.033	-82.915	0.090	0.029
-526.018	-89.184	0.209	-0.062
-525.004	-145.012	-0.120	0.011
-523.989	264.300	-0.064	-0.112
-522.975	242.280	0.033	0.056
-521.960	220.204	0.147	0.235
-520.945	33.266	-0.092	-0.079
-519.931	333.725	0.029	-0.056
-518.916	-200.000	-0.011	0.088
-517.902	-200.000	-0.012	-0.062
-516.887	424.468	-0.151	-0.324
-515.872	109.092	0.150	0.179
-514.858	143.387	-0.081	0.107
-513.843	-124.299	-0.273	0.043
-512.829	-84.535	-0.200	-0.063
-511.814	-200.000	0.025	0.377
-510.799	-200.000	0.001	-0.170
-509.785	215.472	-0.110	-0.174
-508.770	-200.000	-0.003	-0.440
-507.756	526.915	-0.059	-0.139
-506.741	113.864	0.080	-0.097
-505.726	-174.151	0.322	0.009
-504.712	-5.482	0.134	-0.092
-503.697	800.000	0.108	0.351
-502.683	81.193	0.161	0.173
-501.668	-200.000	-0.030	-0.139
-500.653	-42.587	-0.283	0.144
-499.639	-200.000	-0.012	-0.053
-498.624	800.000	0.021	0.061
-497.610	-200.000	-0.004	0.124
-496.595	-200.000	-0.017	-0.100
-495.581	-200.000	-0.023	-0.241
-494.566	800.000	-0.040	-0.175
-493.551	-140.849	0.142	0.015
-492.537	336.512	0.077	-0.150
-491.522	45.549	-0.183	-0.168
-490.508	-200.000	-0.043	0.247
-489.493	800.000	-0.066	-0.267
-488.478	-172.208	-0.057	-0.002
-487.464	262.375	0.080	-0.138
-486.449	-140.312	-0.366	-0.038
-485.435	49.574	0.007	-0.007
-484.420	800.000	-0.011	-0.041
-483.405	84.879	-0.205	-0.224
-482.391	-79.706	0.244	0.082
-481.376	800.000	-0.015	-0.049
-480.362	127.071	0.163	0.206
-479.347	-69.901	0.250	-0.095
-478.332	800.000	0.042	0.160
-477.318	-121.008	0.199	-0.033
-476.303	-67.617	0.372	0.145
-475.289	-200.000	0.006	-0.067
-474.274	310.918	-0.160	-0.299
-473.259	-157.816	0.518	0.031
-472.245	-136.280	-0.276	-0.032
-471.230	395.439	0.043	-0.089
-470.216	800.000	0.022	-0.065
-469.201	-148.188	0.317	0.026
-468.186	-49.776	0.207	0.098
-467.172	131.490	0.146	-0.187
-466.157	-200.000	0.055	-0.326
-465.143	146.441	-0.104	-0.139
-464.128	-24.867	-0.277	-0.164
-463.113	157.770	-0.100	-0.138
-462.099	-128.168	0.138	0.020
-461.084	270.918	-0.031	-0.054
-460.070	-25.352	0.310	0.183
-459.055	800.000	0.043	-0.173
-458.040	29.684	0.063	0.053
-457.026	-193.199	0.269	-0.002
-456.011	-157.640	-0.298	-0.018
-454.997	-106.028	0.123	0.027
-453.982	-185.107	-0.041	-0.001
-452.968	-5.301	0.292	0.200
-451.953	71.526	-0.082	0.085
-450.938	332.204	-0.168	0.323
-449.924	318.762	0.154	0.291
-448.909	56.442	0.253	-0.244
-447.895	-91.634	0.399	0.113
-446.880	5.257	-0.096	0.070
-445.865	800.000	-0.085	0.260
-444.851	-60.451	-0.266	0.112
-443.836	38.340	-0.329	0.291
-442.822	8.911	0.119	0.089
-441.807	6.874	-0.170	-0.126
-440.792	110.159	0.090	-0.108
-439.778	328.160	0.089	0.170
-438.763	800.000	-0.102	0.323
-437.749	619.193	-0.009	0.023
-436.734	-60.768	0.074	0.031
-435.719	-200.000	-0.016	0.131
-434.705	236.148	0.142	-0.234
-433.690	15.765	0.114	-0.089
-432.676	800.000	-0.011	-0.039
-431.661	424.504	-0.186	0.398
-430.646	198.827	-0.068	-0.104
-429.632	70.914	-0.250	-0.258
-428.617	33.470	0.136	-0.117
-427.603	-47.316	0.023	-0.011
-426.588	440.766	-0.162	0.351
-425.573	-200.000	0.012	-0.158
-424.559	218.766	-0.190	-0.301
-423.544	-23.497	0.128	0.076
-422.530	364.853	0.091	-0.183
-421.515	260.402	-0.073	-0.125
-420.500	-33.339	-0.015	0.008
-419.486	-130.343	0.456	-0.061
-418.471	416.273	0.094	0.198
-417.457	-200.000	0.041	-0.322
-416.442	372.578	-0.020	-0.041
-415.428	-200.000	-0.003	-0.251
-414.413	800.000	0.105	0.299
-413.398	73.562	0.127	-0.132
-412.384	3.781	-0.296	-0.215
-411.369	-200.000	0.070	0.326
-410.355	-48.757	-0.043	-0.020
-409.340	-125.187	-0.171	-0.026
-408.325	-200.000	-0.001	-0.067
-407.311	84.310	0.176	-0.191
-406.296	390.442	-0.108	0.222
-405.282	338.337	0.244	0.472
-404.267	-132.721	0.222	-0.028
-403.252	-92.365	0.410	0.115
-402.238	-20.325	-0.281	-0.172
-401.223	173.216	0.100	0.143
-400.209	53.643	0.060	-0.057
-399.194	-136.248	0.153	-0.018
-398.179	76.101	0.074	-0.077
-397.165	-21.515	-0.107	0.065
-396.150	44.609	0.369	0.337
-395.136	-200.000	-0.003	0.077
-394.121	77.911	0.258	-0.273
-393.106	-200.000	0.011	0.114
-392.092	-14.931	0.121	-0.077
-391.077	-26.205	0.134	0.078
-390.063	36.549	-0.485	-0.425
-389.048	-59.137	0.293	-0.126
-388.033	261.130	-0.082	0.140
-387.019	569.908	-0.053	0.129
-386.004	118.368	0.160	-0.196
-384.990	-200.000	0.034	0.469
-383.975	443.657	-0.194	0.422
-382.960	800.000	-0.031	0.101
-381.946	231.940	0.035	0.057
-380.931	-31.662	-0.166	0.092
-379.917	-115.692	-0.169	0.031
-378.902	66.402	0.184	0.186
-377.888	113.018	-0.240	0.289
-376.873	10.654	-0.257	0.195
-375.858	-200.000	-0.006	-0.106
-374.844	-200.000	0.014	-0.142
-373.829	-52.354	-0.244	0.112
-372.815	596.462	0.130	-0.319
-371.800	51.125	-0.326	-0.307
-370.785	-134.862	-0.251	-0.030
-369.771	37.889	-0.144	0.127
-368.756	-80.356	0.278	0.092
-367.742	362.750	0.194	-0.386
-366.727	63.875	-0.027	0.027
-365.712	-33.323	0.288	0.158
-364.698	155.847	-0.131	0.179
-363.683	-4.338	-0.059	0.040
-362.669	134.547	0.137	-0.176
-361.654	488.076	-0.076	0.173
-360.639	-200.000	-0.042	0.295
-359.625	-152.400	-0.090	0.006
-358.610	-200.000	0.003	-0.113
-357.596	485.769	0.062	-0.139
-356.581	-141.058	0.267	0.027
-355.566	-110.751	-0.049	-0.010
-354.552	20.482	0.126	-0.101
-353.537	40.655	-0.174	0.155
-352.523	711.151	0.049	0.128
-351.508	-200.000	-0.054	0.385
-350.493	95.374	0.214	0.242
-349.479	80.755	-0.145	0.155
-348.464	-53.173	0.254	-0.115
-347.450	54.560	0.122	-0.116
-346.435	-200.000	-0.000	0.286
-345.420	-200.000	0.010	0.273
-344.406	-161.441	0.144	0.007
-343.391	668.753	-0.170	0.435
-342.377	-159.225	-0.348	0.019
-341.362	633.802	-0.112	0.282
-340.348	258.288	-0.075	0.127
-339.333	-65.209	-0.135	0.054
-338.318	-112.950	0.142	0.028
-337.304	122.766	0.077	-0.095
-336.289	-27.999	0.209	-0.120
-335.275	45.640	0.052	0.047
-334.260	-72.827	0.229	-0.084
-333.245	53.801	0.045	0.043
-332.231	800.000	-0.146	-0.463
-331.216	7.509	-0.183	0.136
-330.202	596.095	-0.038	0.094
-329.187	-50.496	0.207	0.097
-328.172	-97.891	0.119	0.030
-327.158	753.321	-0.081	0.217
-326.143	-135.897	0.247	-0.029
-325.129	800.000	0.013	0.056
-324.114	-78.776	0.096	0.032
-323.099	-25.926	0.273	0.159
-322.085	-58.633	-0.381	-0.163
-321.070	-200.000	0.059	0.328
-320.056	259.302	-0.171	-0.292
-319.041	-200.000	-0.003	0.128
-318.026	800.000	0.113	-0.347
-317.012	-68.812	-0.216	-0.083
-315.997	-119.257	0.304	0.052
-314.983	202.700	-0.070	0.107
-313.968	39.412	0.081	-0.072
-312.953	-200.000	0.014	-0.134
-311.939	39.137	-0.043	0.038
-310.924	138.628	-0.200	0.260
-309.910	-158.222	-0.163	0.009
-308.895	-150.328	0.206	0.016
-307.880	-67.259	-0.211	-0.082
-306.866	800.000	-0.032	0.135
-305.851	240.779	0.098	0.162
-304.837	1.223	0.121	0.086
-303.822	-42.421	0.130	-0.066
-302.807	800.000	0.078	0.321
-301.793	-143.321	-0.084	0.008
-300.778	800.000	-0.048	-0.176
-299.764	624.343	0.060	-0.151
-298.749	-115.201	-0.066	-0.012
-297.735	595.889	-0.090	0.220
-296.720	-43.046	-0.189	-0.095
-295.705	-111.834	0.065	-0.013
-294.691	377.307	-0.100	0.202
-293.676	666.512	-0.027	0.068
-292.662	-173.915	0.224	0.007
-291.647	-54.320	0.087	-0.039
-290.632	73.584	0.197	-0.204
-289.618	148.964	-0.173	-0.231
-288.603	-112.831	0.252	0.049
-287.589	-43.320	0.195	-0.097
-286.574	-30.614	0.117	-0.065
-285.559	-200.000	-0.006	0.081
-284.545	-0.292	-0.105	-0.074
-283.530	-200.000	0.017	-0.126
-282.516	163.522	-0.082	0.115
-281.501	-100.039	-0.015	0.004
-280.486	794.877	0.125	0.339
-279.472	-200.000	-0.009	-0.052
-278.457	-82.683	-0.189	-0.060
-277.443	11.066	-0.042	-0.032
-276.428	12.434	0.130	-0.099
-275.413	186.820	-0.104	-0.153
-274.399	235.225	0.032	-0.053
-273.384	132.642	0.051	0.065
-272.370	-132.883	-0.304	0.038
-271.355	704.136	0.132	0.344
-270.340	-121.024	0.340	-0.056
-269.326	800.000	0.144	0.420
-268.311	355.668	-0.145	0.285
-267.297	177.977	0.079	-0.114
-266.282	-121.198	0.224	0.037
-265.267	-118.396	-0.172	0.030
-264.253	-115.162	0.183	0.034
-263.238	800.000	-0.085	-0.302
-262.224	800.000	0.042	0.143
-261.209	-162.251	-0.228	0.011
-260.195	-200.000	0.012	0.066
-259.180	173.106	0.202	0.287
-258.165	125.687	0.165	-0.205
-257.151	200.084	-0.045	-0.068
-256.136	305.563	0.032	-0.059
-255.122	371.694	-0.157	0.314
-254.107	-2.294	-0.172	0.119
-253.092	87.769	-0.294	-0.322
-252.078	80.762	-0.131	0.140
-251.063	-72.370	0.223	-0.081
-250.049	-35.628	-0.220	0.118
-249.034	-93.005	-0.213	-0.059
-248.019	-101.982	-0.307	0.073
-247.005	453.203	0.055	0.120
-245.990	-133.416	-0.255	-0.032
-244.976	84.522	-0.137	-0.148
-243.961	-17.679	0.249	-0.155
-242.946	-65.858	-0.357	0.141
-241.932	52.687	-0.185	-0.174
-240.917	175.050	-0.183	0.262
-239.903	30.767	-0.119	0.100
-238.888	-127.144	-0.390	-0.056
-237.873	800.000	-0.150	0.436
-236.859	-195.753	-0.173	-0.001
-235.844	-20.150	0.192	-0.117
-234.830	-137.514	-0.117	0.013
-233.815	800.000	0.111	-0.309
-232.800	95.138	-0.109	-0.123
-231.786	-200.000	0.113	-0.000
-230.771	-21.618	-0.193	-0.116
-229.757	255.603	-0.013	0.022
-228.742	-200.000	0.027	0.170
-227.727	800.000	0.110	0.335
-226.713	-200.000	0.031	-0.167
-225.698	-0.358	-0.110	0.077
-224.684	-152.379	0.114	0.008
-223.669	-200.000	-0.001	-0.124
-222.655	-200.000	-0.051	0.360
-221.640	-106.971	0.188	0.041
-220.625	-55.331	0.066	-0.029
-219.611	60.931	0.060	-0.059
-218.596	390.861	-0.142	0.291
-217.582	-138.105	-0.126	-0.014
-216.567	29.100	0.173	-0.145
-215.552	800.000	0.009	0.039
-214.538	800.000	-0.054	-0.185
-213.523	-112.642	0.221	-0.043
-212.509	245.825	-0.064	-0.106
-211.494	-77.770	0.023	0.008
-210.479	-200.000	0.008	0.079
-209.465	800.000	-0.082	0.274
-208.450	-34.180	0.328	0.177
-207.436	-9.482	0.178	-0.117
-206.421	-65.896	-0.319	-0.126
-205.406	-200.000	0.005	0.031
-204.392	-107.216	-0.238	0.052
-203.377	-94.821	0.097	-0.026
-202.363	17.873	-0.119	-0.093
-201.348	-200.000	-0.012	0.284
-200.333	-60.784	-0.295	0.123
-199.319	318.868	0.063	-0.118
-198.304	800.000	-0.014	-0.056
-197.290	12.269	0.128	0.097
-196.275	800.000	-0.037	0.115
-195.260	800.000	-0.044	-0.130
-194.246	203.775	0.194	-0.296
-193.231	141.496	-0.046	0.060
-192.217	121.361	-0.152	-0.186
-191.202	800.000	0.084	-0.273
-190.187	-48.684	0.052	-0.025
-189.173	29.927	-0.145	0.122
-188.158	-88.753	-0.082	-0.024
-187.144	-44.473	0.070	-0.035
-186.129	286.639	0.090	-0.159
-185.114	-13.582	-0.308	-0.197
-184.100	161.427	0.233	0.321
-183.085	285.972	-0.115	-0.205
-182.071	-42.115	-0.068	-0.034
-181.056	-42.820	-0.216	-0.108
-180.042	-200.000	-0.026	0.298
-179.027	-39.653	-0.247	0.127
-178.012	28.374	0.256	-0.213
-176.998	3.437	0.079	0.057
-175.983	632.746	0.079	-0.196
-174.969	-86.378	-0.402	0.122
-173.954	122.569	-0.107	-0.132
-172.939	389.424	0.172	-0.351
-171.925	300.835	-0.052	-0.094
-170.910	-100.755	-0.090	-0.022
-169.896	-46.407	0.174	0.084
-168.881	477.373	-0.025	0.055
-167.866	130.313	-0.204	0.257
-166.852	-200.000	-0.030	-0.172
-165.837	59.840	0.098	0.095
-164.823	-24.484	-0.106	0.062
-163.808	-104.266	-0.127	0.029
-162.793	60.585	0.075	-0.073
-161.779	365.990	-0.116	-0.229
-160.764	401.298	0.071	-0.147
-159.750	-111.759	-0.164	0.033
-158.735	37.768	0.122	-0.106
-157.720	-33.153	-0.167	-0.091
-156.706	-51.226	0.420	-0.193
-155.691	-21.841	-0.155	0.093
-154.677	100.834	-0.009	0.011
-153.662	-200.000	0.023	-0.239
-152.647	800.000	0.066	-0.185
-151.633	-30.510	0.121	-0.068
-150.618	-112.874	0.065	-0.013
-149.604	-111.718	0.231	0.046
-148.589	-101.439	-0.065	-0.016
-147.574	28.759	0.380	-0.317
-146.560	-200.000	0.012	-0.244
-145.545	-132.260	0.207	0.026
-144.531	20.677	0.294	0.234
-143.516	-60.089	0.107	-0.045
-142.502	178.886	0.091	0.130
-141.487	-114.775	-0.149	-0.028
-140.472	110.952	0.163	-0.193
-139.458	-152.383	0.527	-0.037
-138.443	-200.000	0.027	0.287
-137.429	-137.551	-0.174	-0.019
-136.414	-41.888	0.240	-0.121
-135.399	288.727	-0.143	-0.255
-134.385	9.464	-0.199	0.148
-133.370	7.259	0.271	-0.199
-132.356	800.000	0.098	0.350
-131.341	800.000	0.108	-0.357
-130.326	-200.000	0.043	-0.291
-129.312	-96.921	0.175	0.045
-128.297	-75.495	0.120	0.042
-127.283	800.000	0.080	0.274
-126.268	800.000	0.122	-0.455
-125.253	-49.176	0.144	-0.068
-124.239	-47.932	-0.048	0.023
-123.224	-135.967	0.077	-0.009
-122.210	-14.726	0.328	0.207
