DTS Sentinel unit serial number:	SN413079Multiplexer serial number:	ORYXHardware model number:	OX4-SRSoftware version number:	ORYX F/W v4.00 Oryx Data Collector v3.7.2.0data status	okinstallation	princeton_trtdifferential loss correction	single-endedforward channel	channel 2reverse channel	N/Adate	2019/09/19time	06:31:35forward acquisition time	60.00reverse acquisition time	0.00gamma	496.2192k internal	0.2350k external	0.2350temperature offset calibration	1.0010default loss term (dB/km)	0.3790temperature slope calibration	1.0000multiplexer offset coefficient	1.0000multiplexer slope coefficient	1.0000fibre end	0.00T internal ref (°C)	19.05T ext. ref 1 (°C)	0.57T ext. ref 2 (°C)	12.81length (m)	temperature (°C)	Stokes	anti-Stokes-747.200	-6.134	0.265	-0.180
-746.185	-88.243	0.055	-0.016
-745.171	146.372	0.160	0.214
-744.156	147.744	-0.170	0.228
-743.142	144.492	0.187	-0.249
-742.127	18.701	-0.206	0.164
-741.112	57.426	0.141	-0.138
-740.098	121.042	-0.103	0.128
-739.083	76.777	0.158	-0.167
-738.069	70.512	0.139	0.144
-737.054	76.096	-0.138	-0.146
-736.039	-120.788	-0.308	0.052
-735.025	50.382	-0.130	-0.122
-734.010	-200.000	0.007	-0.096
-732.996	373.702	-0.234	-0.476
-731.981	800.000	-0.024	0.079
-730.966	-126.569	-0.183	0.027
-729.952	-42.296	-0.266	0.135
-728.937	-34.637	-0.152	-0.083
-727.923	32.181	0.212	0.182
-726.908	800.000	-0.021	-0.084
-725.894	-66.968	-0.170	-0.067
-724.879	82.550	0.054	-0.058
-723.864	102.935	0.317	0.371
-722.850	-59.852	-0.293	0.125
-721.835	-200.000	-0.014	0.089
-720.821	47.334	-0.235	0.218
-719.806	84.284	0.040	0.043
-718.791	491.625	0.039	-0.090
-717.777	-179.029	0.087	0.002
-716.762	-103.986	-0.230	-0.054
-715.748	59.927	0.030	-0.030
-714.733	-200.000	-0.046	0.284
-713.718	-0.749	-0.072	0.051
-712.704	-17.071	-0.127	-0.080
-711.689	85.946	0.019	0.020
-710.675	-200.000	-0.002	0.298
-709.660	-16.454	0.185	-0.117
-708.645	40.891	-0.144	0.129
-707.631	485.851	0.051	0.117
-706.616	216.685	0.202	-0.320
-705.602	-65.888	-0.206	-0.082
-704.587	-120.003	0.289	-0.049
-703.572	120.049	-0.177	-0.219
-702.558	-131.433	-0.170	0.022
-701.543	311.953	0.054	-0.100
-700.529	125.662	0.360	0.452
-699.514	-79.672	-0.065	-0.022
-698.499	-80.490	-0.033	0.011
-697.485	620.205	0.023	0.057
-696.470	800.000	-0.054	-0.231
-695.456	219.932	0.106	-0.169
-694.441	-128.327	0.231	-0.033
-693.426	-100.273	0.211	-0.052
-692.412	17.514	0.235	-0.186
-691.397	594.316	-0.122	-0.301
-690.383	-72.686	0.144	0.053
-689.368	-19.358	0.074	-0.046
-688.354	210.444	0.111	-0.174
-687.339	5.410	0.507	0.373
-686.324	-62.978	0.086	0.035
-685.310	241.711	0.080	-0.133
-684.295	550.759	-0.094	-0.224
-683.281	11.117	0.208	-0.158
-682.266	-200.000	-0.055	0.266
-681.251	137.402	-0.130	-0.169
-680.237	-98.595	-0.380	0.097
-679.222	-200.000	-0.031	0.396
-678.208	-47.409	0.143	0.069
-677.193	152.480	-0.041	0.056
-676.178	-72.123	0.238	0.088
-675.164	-200.000	-0.058	-0.341
-674.149	-117.662	-0.183	0.033
-673.135	-200.000	0.032	0.231
-672.120	131.228	0.120	-0.153
-671.105	-200.000	-0.013	-0.287
-670.091	229.621	0.062	0.101
-669.076	-54.125	0.176	-0.079
-668.062	336.170	0.035	0.068
-667.047	332.688	0.120	0.231
-666.032	-200.000	0.018	-0.383
-665.018	-15.505	-0.119	-0.075
-664.003	800.000	0.045	0.142
-662.989	-200.000	0.017	0.105
-661.974	87.097	-0.134	0.147
-660.959	800.000	-0.081	-0.290
-659.945	27.753	-0.148	0.124
-658.930	-200.000	-0.051	0.263
-657.916	-63.379	0.163	-0.067
-656.901	95.891	-0.309	0.351
-655.886	170.725	-0.165	0.234
-654.872	-15.896	-0.291	-0.184
-653.857	138.047	0.108	0.141
-652.843	800.000	0.029	-0.125
-651.828	539.003	-0.042	-0.100
-650.814	-86.617	-0.247	0.075
-649.799	800.000	-0.040	0.116
-648.784	-80.415	0.239	-0.079
-647.770	-125.026	0.160	0.025
-646.755	-53.768	0.308	0.140
-645.741	416.650	-0.035	-0.075
-644.726	-14.455	-0.250	0.160
-643.711	528.240	-0.060	0.140
-642.697	800.000	-0.040	0.147
-641.682	-81.584	-0.208	0.068
-640.668	-200.000	-0.051	-0.239
-639.653	-143.324	0.158	-0.015
-638.638	-200.000	0.024	-0.258
-637.624	-200.000	0.036	-0.311
-636.609	-99.940	0.268	-0.066
-635.595	34.415	-0.150	0.131
-634.580	37.835	-0.210	0.185
-633.565	64.689	-0.189	-0.190
-632.551	-200.000	0.016	-0.105
-631.536	-200.000	0.017	-0.126
-630.522	-200.000	-0.058	0.261
-629.507	114.603	-0.188	-0.227
-628.492	800.000	-0.019	-0.052
-627.478	800.000	-0.192	-0.566
-626.463	-200.000	0.075	0.457
-625.449	800.000	-0.088	0.261
-624.434	800.000	-0.044	-0.164
-623.419	-7.122	-0.083	-0.056
-622.405	-200.000	0.006	0.215
-621.390	232.307	-0.170	0.277
-620.376	-200.000	0.001	-0.331
-619.361	-123.455	-0.200	-0.032
-618.346	-111.930	0.110	0.022
-617.332	-200.000	-0.084	0.369
-616.317	-137.701	-0.137	0.015
-615.303	390.163	-0.296	0.609
-614.288	-23.895	-0.037	-0.022
-613.273	-200.000	0.018	-0.152
-612.259	800.000	-0.043	0.148
-611.244	597.696	0.092	0.227
-610.230	-83.076	-0.170	0.054
-609.215	28.018	0.190	-0.159
-608.201	367.661	0.125	-0.251
-607.186	162.674	0.128	-0.178
-606.171	268.790	-0.149	0.260
-605.157	-82.273	0.222	-0.072
-604.142	-21.131	0.139	-0.085
-603.128	264.377	-0.156	-0.270
-602.113	-200.000	-0.034	-0.199
-601.098	671.822	0.025	0.063
-600.084	94.495	0.105	0.118
-599.069	-50.101	-0.176	-0.083
-598.055	-200.000	-0.001	-0.061
-597.040	209.065	0.219	0.341
-596.025	-132.028	0.221	0.028
-595.011	-185.226	-0.108	0.002
-593.996	20.366	-0.365	0.293
-592.982	283.311	-0.045	0.080
-591.967	50.203	0.185	-0.173
-590.952	-84.084	-0.257	0.081
-589.938	-200.000	0.002	-0.033
-588.923	-121.403	0.279	-0.046
-587.909	-126.417	-0.207	-0.031
-586.894	141.551	-0.217	0.285
-585.879	273.775	0.048	0.085
-584.865	800.000	-0.081	-0.260
-583.850	-200.000	-0.058	-0.289
-582.836	507.452	-0.117	0.268
-581.821	-19.202	0.192	-0.118
-580.806	-200.000	-0.002	-0.073
-579.792	35.571	0.027	-0.023
-578.777	0.189	0.068	-0.048
-577.763	-71.812	0.216	-0.080
-576.748	301.170	-0.109	-0.200
-575.733	-2.269	-0.217	0.151
-574.719	-200.000	0.003	-0.169
-573.704	186.297	-0.180	0.265
-572.690	800.000	-0.171	-0.495
-571.675	-200.000	-0.042	0.200
-570.661	800.000	-0.073	0.248
-569.646	303.740	-0.212	-0.390
-568.631	27.478	0.291	-0.243
-567.617	174.037	0.154	-0.221
-566.602	800.000	0.070	-0.225
-565.588	-18.402	-0.086	0.054
-564.573	357.678	0.082	0.162
-563.558	-200.000	0.012	-0.119
-562.544	296.981	0.110	-0.201
-561.529	-55.960	0.296	-0.131
-560.515	-7.960	0.204	-0.137
-559.500	-43.381	-0.228	0.114
-558.485	-200.000	-0.032	-0.220
-557.471	-17.082	0.159	0.099
-556.456	-76.912	-0.193	-0.067
-555.442	-84.509	0.047	0.015
-554.427	-153.053	-0.287	-0.020
-553.412	800.000	-0.069	0.289
-552.398	24.149	0.187	-0.153
-551.383	-4.879	-0.181	-0.124
-550.369	800.000	-0.133	0.384
-549.354	-60.530	0.143	-0.060
-548.339	64.483	-0.055	-0.055
-547.325	232.289	-0.214	-0.349
-546.310	800.000	0.045	-0.153
-545.296	-82.276	0.079	-0.025
-544.281	-33.193	0.270	0.148
-543.266	-186.340	0.071	-0.001
-542.252	158.738	0.153	0.210
-541.237	-46.183	0.093	0.045
-540.223	324.508	-0.078	-0.148
-539.208	50.615	-0.182	0.170
-538.193	107.267	-0.099	0.116
-537.179	403.498	-0.033	-0.069
-536.164	-200.000	0.029	-0.186
-535.150	279.630	-0.204	-0.360
-534.135	-126.651	0.150	0.022
-533.121	483.788	-0.073	-0.164
-532.106	-171.323	-0.106	-0.004
-531.091	-114.417	-0.200	-0.038
-530.077	47.469	-0.232	-0.214
-529.062	800.000	-0.087	-0.369
-528.048	-8.293	-0.207	0.138
-527.033	790.632	-0.018	0.049
-526.018	110.503	0.187	0.223
-525.004	-25.946	0.021	-0.012
-523.989	-200.000	0.004	0.339
-522.975	-200.000	-0.028	-0.255
-521.960	150.121	0.155	-0.208
-520.945	-73.559	0.085	-0.031
-519.931	-200.000	0.027	0.263
-518.916	-73.893	-0.158	-0.057
-517.902	15.476	0.207	-0.161
-516.887	-200.000	0.004	0.026
-515.872	125.321	-0.088	-0.109
-514.858	397.508	-0.022	0.045
-513.843	37.255	-0.046	-0.041
-512.829	-16.904	0.403	0.252
-511.814	800.000	-0.033	0.128
-510.799	205.432	0.220	0.338
-509.785	-151.727	0.450	-0.033
-508.770	303.154	-0.042	-0.077
-507.756	51.228	0.145	-0.136
-506.741	-75.461	-0.221	0.078
-505.726	-49.661	-0.420	0.198
-504.712	22.945	0.286	-0.232
-503.697	-7.318	-0.185	0.124
-502.683	587.129	0.118	0.288
-501.668	-7.598	-0.094	0.063
-500.653	144.218	0.059	0.077
-499.639	-200.000	-0.054	-0.281
-498.624	-8.099	0.059	0.040
-497.610	-17.326	-0.224	-0.139
-496.595	-176.641	-0.106	0.003
-495.581	800.000	-0.012	0.033
-494.566	-79.421	-0.061	0.020
-493.551	-12.346	-0.171	0.111
-492.537	5.440	-0.200	0.146
-491.522	521.038	-0.055	-0.128
-490.508	374.863	-0.211	0.426
-489.493	-166.924	-0.180	0.007
-488.478	-30.790	0.153	0.085
-487.464	-113.519	0.039	0.007
-486.449	131.461	-0.049	0.063
-485.435	685.716	-0.109	-0.281
-484.420	-23.179	0.167	0.099
-483.405	-40.430	0.131	0.068
-482.391	-113.384	0.198	-0.038
-481.376	-31.840	-0.153	0.085
-480.362	0.705	0.147	-0.104
-479.347	478.588	-0.098	0.220
-478.332	-105.402	-0.312	0.070
-477.318	76.570	0.276	0.289
-476.303	-108.371	-0.116	-0.025
-475.289	77.094	0.176	-0.185
-474.274	-60.717	-0.146	-0.061
-473.259	436.343	-0.036	0.077
-472.245	800.000	-0.111	0.346
-471.230	9.795	0.199	-0.149
-470.216	190.846	-0.116	0.172
-469.201	192.714	0.084	-0.125
-468.186	-200.000	0.046	-0.227
-467.172	-78.506	0.042	0.014
-466.157	-93.141	-0.490	0.135
-465.143	-146.351	-0.234	0.020
-464.128	250.541	0.178	-0.298
-463.113	4.517	-0.166	0.120
-462.099	69.297	0.317	-0.323
-461.084	-74.783	-0.131	0.046
-460.070	89.918	-0.110	0.121
-459.055	-200.000	0.040	-0.193
-458.040	-200.000	-0.012	-0.098
-457.026	-92.377	0.165	0.046
-456.011	426.281	-0.166	0.353
-454.997	-76.274	-0.103	0.036
-453.982	-25.358	0.151	0.088
-452.968	-200.000	-0.041	0.181
-451.953	-200.000	-0.014	0.075
-450.938	-151.881	-0.434	0.031
-449.924	-200.000	-0.081	-0.349
-448.909	-2.888	-0.194	-0.134
-447.895	555.640	0.076	0.181
-446.880	263.774	-0.030	0.051
-445.865	800.000	0.033	0.096
-444.851	36.310	0.099	-0.086
-443.836	-37.651	-0.177	0.093
-442.822	800.000	-0.023	0.082
-441.807	-200.000	0.024	-0.199
-440.792	-94.564	-0.167	0.045
-439.778	-11.325	0.021	0.014
-438.763	709.024	-0.125	-0.327
-437.749	-200.000	0.040	0.210
-436.734	-60.043	-0.170	0.072
-435.719	800.000	-0.136	0.443
-434.705	-153.402	0.083	0.006
-433.690	152.171	0.230	-0.310
-432.676	460.678	-0.180	-0.396
-431.661	-49.295	0.235	-0.111
-430.646	215.060	0.199	0.312
-429.632	-142.253	0.123	-0.012
-428.617	-123.703	-0.441	-0.069
-427.603	-68.474	0.311	-0.119
-426.588	267.577	-0.093	0.160
-425.573	-200.000	-0.052	0.233
-424.559	-200.000	-0.052	-0.322
-423.544	-19.369	-0.047	-0.029
-422.530	-158.928	0.132	-0.007
-421.515	-144.853	0.167	-0.015
-420.500	800.000	-0.096	0.409
-419.486	-200.000	-0.068	-0.544
-418.471	-26.691	0.203	0.117
-417.457	-200.000	-0.001	0.069
-416.442	-79.600	0.270	0.090
-415.428	800.000	-0.083	-0.349
-414.413	134.240	-0.076	-0.097
-413.398	383.230	-0.095	-0.192
-412.384	23.313	0.071	0.058
-411.369	-10.043	-0.234	-0.153
-410.355	53.276	0.235	0.222
-409.340	411.779	-0.193	0.404
-408.325	306.281	-0.149	0.274
-407.311	-200.000	0.019	0.137
-406.296	560.691	-0.046	-0.109
-405.282	140.280	0.050	-0.066
-404.267	-200.000	-0.027	0.206
-403.252	-8.718	-0.205	0.136
-402.238	30.547	0.061	-0.051
-401.223	-100.695	-0.170	0.041
-400.209	800.000	0.057	-0.163
-399.194	800.000	-0.102	-0.317
-398.179	409.995	0.126	-0.264
-397.165	-131.443	0.310	0.040
-396.150	67.604	-0.221	0.222
-395.136	163.244	0.082	0.113
-394.121	800.000	-0.020	0.082
-393.106	-51.978	-0.222	-0.101
-392.092	330.963	-0.098	0.186
-391.077	-77.262	0.280	0.096
-390.063	-200.000	0.042	-0.252
-389.048	-142.771	0.133	0.013
-388.033	800.000	0.081	-0.259
-387.019	-200.000	0.001	-0.290
-386.004	47.381	-0.048	-0.044
-384.990	20.403	-0.281	0.224
-383.975	-200.000	-0.041	0.319
-382.960	121.427	0.204	-0.251
-381.946	573.686	0.149	0.357
-380.931	-200.000	0.034	0.266
-379.917	-100.349	-0.110	0.027
-378.902	-161.844	0.288	-0.014
-377.888	-43.147	0.063	0.031
-376.873	198.107	-0.123	-0.185
-375.858	-1.446	0.124	0.086
-374.844	355.576	0.146	-0.286
-373.829	-200.000	-0.071	-0.449
-372.815	-200.000	0.031	0.148
-371.800	102.071	0.216	-0.249
-370.785	0.844	0.155	0.109
-369.771	-32.646	-0.106	-0.058
-368.756	78.968	0.120	0.127
-367.742	-155.711	0.385	-0.024
-366.727	-32.365	0.342	-0.188
-365.712	167.295	0.098	-0.136
-364.698	-127.398	0.325	0.047
-363.683	800.000	0.087	0.365
-362.669	800.000	0.010	0.027
-361.654	-20.167	0.130	-0.079
-360.639	-200.000	0.001	-0.167
-359.625	800.000	0.003	-0.009
-358.610	179.175	-0.028	0.040
-357.596	144.241	-0.103	0.135
-356.581	138.941	0.028	-0.036
-355.566	53.728	-0.148	-0.139
-354.552	152.161	0.138	-0.185
-353.537	-110.301	0.363	0.074
-352.523	800.000	0.023	-0.093
-351.508	-36.012	0.259	-0.138
-350.493	744.691	-0.007	-0.019
-349.479	-98.198	-0.239	-0.060
-348.464	96.021	0.186	0.209
-347.450	-37.315	0.264	-0.138
-346.435	-112.728	0.029	-0.006
-345.420	295.103	0.135	0.242
-344.406	-200.000	-0.038	-0.268
-343.391	62.772	0.253	-0.249
-342.377	-200.000	-0.013	-0.103
-341.362	427.888	0.144	-0.306
-340.348	212.269	-0.129	-0.199
-339.333	-200.000	-0.011	0.131
-338.318	-109.221	0.233	0.049
-337.304	800.000	-0.017	-0.064
-336.289	-75.630	-0.170	0.059
-335.275	-139.529	0.233	0.025
-334.260	-200.000	-0.056	-0.313
-333.245	101.834	0.163	0.187
-332.231	-82.576	0.324	-0.103
-331.216	-132.181	0.359	-0.046
-330.202	-85.219	0.236	0.072
-329.187	158.229	0.168	-0.229
-328.172	793.095	0.067	0.180
-327.158	-84.704	0.055	0.017
-326.143	-104.294	-0.323	-0.074
-325.129	-200.000	0.025	-0.168
-324.114	-200.000	0.002	0.317
-323.099	-7.240	-0.190	-0.126
-322.085	1.528	0.090	-0.064
-321.070	800.000	0.049	-0.166
-320.056	380.160	0.094	0.190
-319.041	7.552	-0.277	-0.203
-318.026	57.065	-0.178	-0.171
-317.012	-167.967	0.177	-0.007
-315.997	154.469	0.158	-0.213
-314.983	579.301	0.080	0.193
-313.968	-152.251	-0.165	-0.012
-312.953	-148.423	-0.238	0.019
-311.939	-14.973	0.164	-0.103
-310.924	800.000	-0.012	-0.048
-309.910	-76.032	-0.303	-0.105
-308.895	-200.000	0.026	0.238
-307.880	1.102	-0.153	0.108
-306.866	-200.000	-0.001	-0.154
-305.851	64.815	-0.154	0.153
-304.837	-22.521	0.257	-0.153
-303.822	-45.907	-0.257	-0.124
-302.807	168.388	0.100	0.140
-301.793	-120.872	0.197	0.032
-300.778	-91.586	0.130	0.036
-299.764	-129.998	0.451	0.061
-298.749	-200.000	0.008	-0.273
-297.735	11.946	-0.226	-0.171
-296.720	469.130	0.131	0.290
-295.705	-132.881	-0.106	0.013
-294.691	581.717	-0.167	0.403
-293.676	-28.623	-0.332	0.187
-292.662	-77.215	-0.103	-0.035
-291.647	-133.785	0.189	-0.023
-290.632	-199.636	-0.331	0.002
-289.618	222.144	0.074	-0.117
-288.603	-200.000	-0.036	0.251
-287.589	-7.417	0.139	0.092
-286.574	-71.657	0.250	-0.091
-285.559	178.779	-0.164	-0.234
-284.545	174.053	-0.299	0.424
-283.530	-200.000	-0.080	0.412
-282.516	-200.000	0.030	-0.187
-281.501	-84.316	-0.257	0.080
-280.486	166.745	-0.082	0.113
-279.472	124.018	-0.280	-0.345
-278.457	545.173	0.055	0.129
-277.443	800.000	0.040	0.167
-276.428	392.036	0.056	0.113
-275.413	-89.639	0.253	-0.073
-274.399	800.000	-0.066	-0.215
-273.384	-50.502	-0.177	0.082
-272.370	146.305	0.090	-0.119
-271.355	-114.688	-0.252	0.047
-270.340	742.110	0.133	-0.350
-269.326	-104.550	-0.276	0.062
-268.311	-44.486	0.137	-0.067
-267.297	-200.000	0.011	-0.110
-266.282	29.762	-0.209	-0.175
-265.267	-119.955	0.262	-0.044
-264.253	-37.421	-0.132	-0.069
-263.238	800.000	-0.084	-0.264
-262.224	-2.380	0.281	0.193
-261.209	220.643	-0.129	-0.203
-260.195	184.531	0.086	-0.125
-259.180	-200.000	0.044	-0.227
-258.165	677.904	-0.094	0.238
-257.151	96.487	-0.263	0.295
-256.136	-166.424	0.236	0.010
-255.122	-43.648	-0.137	-0.068
-254.107	-120.310	0.427	-0.071
-253.092	-83.793	0.179	-0.056
-252.078	-200.000	-0.053	0.392
-251.063	-200.000	0.028	-0.268
-250.049	98.173	0.070	0.079
-249.034	32.956	0.266	0.226
-248.019	-200.000	-0.013	-0.145
-247.005	-3.030	-0.166	0.114
-245.990	16.031	0.155	0.119
-244.976	-85.287	0.101	-0.031
-243.961	-97.824	-0.259	0.066
-242.946	293.130	-0.055	0.098
-241.932	256.845	-0.100	-0.168
-240.917	-200.000	0.051	0.243
-239.903	-200.000	-0.071	-0.370
-238.888	1.026	0.142	-0.100
-237.873	35.810	0.070	-0.060
-236.859	89.998	-0.155	-0.169
-235.844	-60.073	0.255	-0.107
-234.830	179.628	-0.019	0.027
-233.815	-200.000	0.035	-0.151
-232.800	800.000	0.014	0.048
-231.786	247.706	0.140	0.232
-230.771	-200.000	0.038	0.316
-229.757	800.000	0.048	0.174
-228.742	-52.538	0.246	0.111
-227.727	-200.000	-0.036	-0.194
-226.713	104.107	0.157	-0.180
-225.698	-4.787	-0.115	-0.078
-224.684	-2.800	0.117	0.080
-223.669	800.000	0.016	-0.044
-222.655	-200.000	0.024	-0.175
-221.640	420.090	-0.080	0.168
-220.625	-159.765	-0.077	-0.004
-219.611	800.000	0.032	0.133
-218.596	24.402	-0.344	-0.278
-217.582	54.510	0.176	0.166
-216.567	800.000	-0.109	0.417
-215.552	3.672	-0.189	0.135
-214.538	146.721	-0.245	0.323
-213.523	-200.000	0.055	-0.375
-212.509	69.199	-0.055	0.055
-211.494	40.300	-0.228	0.201
-210.479	-200.000	-0.045	0.220
-209.465	800.000	0.063	0.209
-208.450	-66.462	-0.085	0.033
-207.436	-86.466	0.196	-0.059
-206.421	486.973	0.132	-0.295
-205.406	21.608	0.063	0.050
-204.392	-16.919	0.106	0.066
-203.377	28.645	0.257	-0.212
-202.363	800.000	0.101	0.324
-201.348	596.045	-0.033	-0.079
-200.333	74.444	-0.158	0.162
-199.319	-131.038	-0.370	0.048
-198.304	-86.918	0.051	0.015
-197.290	169.624	-0.180	-0.252
-196.275	-200.000	0.237	0.001
-195.260	318.951	-0.111	0.205
-194.246	107.916	-0.142	0.165
-193.231	231.484	0.054	-0.086
-192.217	-200.000	-0.062	0.285
-191.202	358.694	0.151	0.295
-190.187	26.032	0.216	0.176
-189.173	75.349	0.054	-0.055
-188.158	70.142	0.068	-0.068
-187.144	141.842	0.115	0.149
-186.129	800.000	-0.009	-0.026
-185.114	-78.133	0.251	-0.084
-184.100	263.279	0.206	-0.349
-183.085	-127.128	-0.300	-0.043
-182.071	195.277	0.192	0.285
-181.056	192.698	-0.188	0.277
-180.042	8.967	-0.028	0.020
-179.027	-96.771	-0.234	0.060
-178.012	800.000	0.017	-0.063
-176.998	-166.830	0.357	-0.014
-175.983	282.342	0.130	-0.227
-174.969	-40.195	-0.063	0.032
-173.954	-100.970	0.163	-0.039
-172.939	254.950	0.262	0.437
-171.925	101.265	0.186	-0.211
-170.910	28.660	0.081	0.067
-169.896	800.000	0.054	0.198
-168.881	62.502	0.251	-0.245
-167.866	209.951	-0.067	-0.103
-166.852	-126.998	-0.123	0.018
-165.837	-137.627	-0.475	-0.052
-164.823	-135.617	0.300	0.035
-163.808	-53.818	-0.078	-0.035
-162.793	-156.959	-0.194	0.012
-161.779	-200.000	0.027	0.214
-160.764	68.591	-0.225	-0.225
-159.750	174.551	0.141	-0.198
-158.735	-9.198	-0.171	-0.112
-157.720	175.957	-0.176	-0.249
-156.706	-46.345	-0.108	0.052
-155.691	800.000	-0.055	0.195
-154.677	90.164	-0.228	0.249
-153.662	530.701	-0.102	0.236
-152.647	-94.133	-0.121	-0.032
-151.633	584.612	-0.085	0.203
-150.618	415.024	0.075	-0.156
-149.604	-62.105	0.284	0.116
-148.589	-47.775	0.212	-0.100
-147.574	800.000	0.027	0.101
-146.560	128.997	-0.152	0.190
-145.545	309.356	-0.127	-0.231
-144.531	106.802	0.297	0.344
-143.516	-12.777	-0.140	0.089
-142.502	800.000	-0.043	0.160
-141.487	-200.000	-0.036	0.442
-140.472	-133.380	0.012	-0.001
-139.458	-60.122	0.224	-0.093
-138.443	-73.737	0.078	-0.028
-137.429	132.441	-0.011	-0.014
-136.414	-95.676	-0.219	-0.057
-135.399	-62.568	0.279	0.113
-134.385	72.043	-0.310	-0.315
-133.370	353.360	0.113	0.218
-132.356	-200.000	-0.146	0.000
-131.341	-179.614	0.434	0.009
-130.326	-200.000	0.045	0.331
-129.312	26.910	0.220	0.180
-128.297	261.045	-0.106	0.178
-127.283	-200.000	-0.094	-0.439
-126.268	613.244	0.155	-0.379
-125.253	-56.944	-0.180	0.078
-124.239	113.676	0.176	0.208
-123.224	-124.458	-0.241	-0.037
-122.210	-200.000	-0.011	0.187
-121.195	6.156	-0.114	-0.082
-120.180	-10.512	-0.243	0.157
