DTS Sentinel unit serial number:	SN413079Multiplexer serial number:	ORYXHardware model number:	OX4-SRSoftware version number:	ORYX F/W v4.00 Oryx Data Collector v3.7.2.0data status	okinstallation	princeton_trtdifferential loss correction	single-endedforward channel	channel 2reverse channel	N/Adate	2019/09/14time	22:15:34forward acquisition time	60.00reverse acquisition time	0.00gamma	496.2192k internal	0.2323k external	0.2323temperature offset calibration	1.0063default loss term (dB/km)	0.3790temperature slope calibration	1.0000multiplexer offset coefficient	1.0000multiplexer slope coefficient	1.0000fibre end	0.00T internal ref (°C)	32.62T ext. ref 1 (°C)	4.70T ext. ref 2 (°C)	27.62length (m)	temperature (°C)	Stokes	anti-Stokes-747.200	-31.941	0.151	0.085
-746.185	-200.000	0.027	0.283
-745.171	115.742	-0.210	0.259
-744.156	-8.436	-0.129	0.088
-743.142	-200.000	-0.023	-0.292
-742.127	208.337	-0.142	0.225
-741.112	106.666	0.188	0.225
-740.098	-200.000	0.040	0.258
-739.083	-200.000	0.017	0.229
-738.069	800.000	-0.038	0.159
-737.054	-118.861	0.464	-0.082
-736.039	800.000	0.041	-0.121
-735.025	-39.453	0.431	0.228
-734.010	181.767	-0.215	-0.320
-732.996	241.098	-0.126	-0.212
-731.981	734.590	-0.096	0.260
-730.966	-189.718	-0.086	-0.001
-729.952	42.724	-0.234	0.215
-728.937	-54.897	-0.253	-0.115
-727.923	-77.097	-0.152	0.053
-726.908	115.553	0.100	0.123
-725.894	-200.000	0.019	-0.292
-724.879	800.000	-0.085	-0.262
-723.864	-200.000	-0.024	-0.144
-722.850	-200.000	0.016	-0.257
-721.835	-200.000	-0.024	-0.230
-720.821	-34.627	-0.338	-0.186
-719.806	-127.368	-0.132	-0.019
-718.791	-200.000	-0.007	-0.247
-717.777	-200.000	-0.011	0.197
-716.762	-200.000	-0.005	0.088
-715.748	127.165	-0.133	0.170
-714.733	32.250	0.144	0.126
-713.718	-42.913	0.263	0.134
-712.704	-83.488	-0.144	0.047
-711.689	800.000	-0.097	-0.280
-710.675	78.108	0.094	-0.101
-709.660	90.571	0.138	0.156
-708.645	759.149	-0.096	-0.263
-707.631	-86.830	0.257	0.079
-706.616	-200.000	0.015	-0.123
-705.602	-180.318	0.269	-0.006
-704.587	-125.463	-0.254	0.039
-703.572	45.899	0.160	-0.149
-702.558	419.436	0.046	0.100
-701.543	-145.415	0.178	0.016
-700.529	-91.719	-0.205	-0.059
-699.514	800.000	-0.065	0.208
-698.499	-74.665	-0.199	-0.072
-697.485	339.506	-0.020	0.039
-696.470	614.159	-0.083	0.209
-695.456	-103.379	-0.475	0.113
-694.441	682.791	0.032	0.084
-693.426	34.715	0.270	-0.238
-692.412	-162.155	0.204	0.010
-691.397	-200.000	-0.036	-0.344
-690.383	-176.117	-0.086	0.002
-689.368	800.000	-0.142	0.426
-688.354	55.412	0.173	0.169
-687.339	-42.801	-0.179	0.092
-686.324	98.720	-0.286	0.332
-685.310	-200.000	0.036	-0.597
-684.295	104.999	0.129	-0.154
-683.281	-147.080	-0.403	-0.035
-682.266	235.540	-0.138	0.229
-681.251	-77.645	-0.201	-0.070
-680.237	-200.000	0.045	-0.204
-679.222	-118.296	-0.205	0.037
-678.208	500.144	-0.097	-0.226
-677.193	-11.167	-0.139	-0.093
-676.178	89.828	0.144	-0.162
-675.164	-68.452	-0.243	0.095
-674.149	-112.728	-0.212	-0.042
-673.135	191.341	0.038	0.058
-672.120	194.867	-0.242	-0.370
-671.105	-200.000	-0.026	-0.201
-670.091	787.751	-0.169	-0.466
-669.076	-200.000	-0.003	-0.328
-668.062	458.175	0.106	-0.238
-667.047	88.585	-0.277	0.310
-666.032	-164.116	-0.224	0.010
-665.018	-68.880	-0.146	-0.057
-664.003	-118.854	-0.194	0.034
-662.989	-61.639	0.390	0.165
-661.974	6.751	-0.085	0.063
-660.959	-200.000	0.036	-0.197
-659.945	-86.517	0.156	-0.048
-658.930	-130.183	-0.188	0.026
-657.916	66.077	-0.120	-0.123
-656.901	-32.463	0.153	0.086
-655.886	86.396	-0.187	0.208
-654.872	-200.000	-0.003	-0.016
-653.857	89.939	-0.077	-0.086
-652.843	-140.048	0.203	0.021
-651.828	24.027	0.194	0.161
-650.814	140.882	0.244	0.325
-649.799	-39.297	0.055	-0.029
-648.784	86.705	0.113	0.126
-647.770	-8.280	-0.048	-0.033
-646.755	-94.055	0.169	0.047
-645.741	297.617	0.037	0.068
-644.726	-200.000	-0.002	0.067
-643.711	-176.763	-0.170	0.004
-642.697	202.525	-0.115	-0.179
-641.682	162.436	0.076	-0.107
-640.668	110.492	0.047	-0.056
-639.653	-15.798	-0.189	0.121
-638.638	701.358	0.063	0.167
-637.624	408.161	-0.073	-0.156
-636.609	125.517	0.045	-0.058
-635.595	-85.027	0.170	0.053
-634.580	242.158	0.033	-0.055
-633.565	800.000	-0.080	0.283
-632.551	800.000	-0.104	0.432
-631.536	-58.539	0.126	0.055
-630.522	-200.000	-0.049	0.256
-629.507	-200.000	-0.037	0.351
-628.492	-200.000	-0.052	-0.279
-627.478	-36.013	-0.079	0.043
-626.463	194.317	-0.037	-0.057
-625.449	148.502	0.108	0.147
-624.434	-65.327	0.175	0.071
-623.419	-200.000	0.012	-0.094
-622.405	-92.317	-0.355	-0.101
-621.390	-119.915	-0.360	-0.062
-620.376	-129.575	0.107	-0.015
-619.361	-200.000	0.003	-0.212
-618.346	189.491	-0.293	-0.442
-617.332	800.000	-0.041	-0.156
-616.317	-117.237	0.186	0.034
-615.303	-46.754	-0.233	0.115
-614.288	68.043	-0.211	-0.217
-613.273	152.540	-0.120	-0.165
-612.259	84.683	-0.078	0.086
-611.244	-197.181	-0.216	0.001
-610.230	-2.707	-0.175	-0.123
-609.215	269.018	0.338	-0.596
-608.201	800.000	-0.051	0.164
-607.186	800.000	0.026	0.086
-606.171	-18.958	-0.158	-0.099
-605.157	197.637	-0.139	0.213
-604.142	-200.000	0.008	-0.111
-603.128	-200.000	-0.023	0.387
-602.113	66.139	0.120	-0.122
-601.098	-200.000	0.010	-0.190
-600.084	268.783	-0.116	-0.205
-599.069	65.231	-0.120	-0.121
-598.055	-72.194	-0.196	0.073
-597.040	84.127	-0.191	0.210
-596.025	146.577	-0.207	0.280
-595.011	-39.775	0.262	0.137
-593.996	-7.955	-0.041	0.028
-592.982	370.159	0.063	0.128
-591.967	-109.810	-0.324	-0.068
-590.952	-200.000	0.023	-0.184
-589.938	-161.285	0.560	0.029
-588.923	-175.224	0.186	-0.005
-587.909	-111.631	0.209	0.043
-586.894	257.061	0.116	-0.200
-585.879	-200.000	-0.047	0.284
-584.865	91.809	-0.016	0.018
-583.850	194.980	0.176	0.268
-582.836	524.674	-0.080	0.188
-581.821	-60.137	-0.089	0.038
-580.806	103.981	0.094	0.111
-579.792	-143.729	0.109	0.010
-578.777	46.043	-0.029	0.027
-577.763	-22.363	-0.298	-0.181
-576.748	-50.674	-0.344	0.162
-575.733	-200.000	0.035	0.227
-574.719	51.382	-0.128	-0.122
-573.704	-23.273	-0.050	-0.030
-572.690	800.000	-0.064	-0.231
-571.675	-67.148	-0.073	0.029
-570.661	74.396	0.130	-0.137
-569.646	115.265	-0.062	-0.076
-568.631	-107.744	-0.257	-0.056
-567.617	-101.508	0.416	0.101
-566.602	50.565	-0.309	-0.293
-565.588	28.919	0.190	-0.162
-564.573	-45.555	0.082	0.041
-563.558	1.395	0.159	-0.115
-562.544	484.265	0.133	-0.302
-561.529	22.173	0.181	0.148
-560.515	-129.553	-0.158	0.022
-559.500	-200.000	-0.001	-0.223
-558.485	107.340	0.178	0.212
-557.471	61.184	-0.136	-0.135
-556.456	-3.386	0.244	0.170
-555.442	-99.516	-0.627	-0.158
-554.427	-111.458	-0.043	-0.009
-553.412	800.000	-0.017	0.064
-552.398	-200.000	-0.024	0.205
-551.383	152.804	-0.073	-0.100
-550.369	-200.000	-0.076	-0.419
-549.354	0.364	-0.338	0.242
-548.339	42.396	0.108	-0.099
-547.325	9.617	0.441	-0.335
-546.310	105.739	0.315	0.373
-545.296	301.001	0.138	-0.256
-544.281	-36.850	0.171	-0.092
-543.266	-125.191	0.109	0.017
-542.252	243.159	-0.132	-0.221
-541.237	-52.764	-0.251	0.116
-540.223	421.748	0.104	-0.224
-539.208	85.556	0.134	-0.147
-538.193	-200.000	-0.293	-0.000
-537.179	141.967	0.011	-0.015
-536.164	-124.479	0.212	-0.033
-535.150	334.570	0.146	0.284
-534.135	-126.686	-0.319	0.047
-533.121	-77.166	0.229	-0.080
-532.106	-200.000	-0.002	0.064
-531.091	467.578	0.086	-0.194
-530.077	76.871	-0.101	0.107
-529.062	-141.031	-0.472	0.048
-528.048	194.956	0.182	-0.277
-527.033	-18.244	0.247	-0.154
-526.018	72.723	-0.110	-0.115
-525.004	250.054	-0.100	-0.169
-523.989	28.699	-0.111	-0.094
-522.975	-133.861	-0.198	-0.025
-521.960	330.120	-0.113	0.217
-520.945	-200.000	-0.006	0.191
-519.931	-49.736	0.212	-0.101
-518.916	-72.254	0.074	-0.027
-517.902	68.090	-0.098	-0.101
-516.887	800.000	0.034	0.098
-515.872	-200.000	-0.018	0.090
-514.858	800.000	0.072	0.220
-513.843	330.249	-0.120	-0.231
-512.829	-196.497	0.115	-0.001
-511.814	-123.551	0.037	-0.006
-510.799	158.321	-0.137	0.191
-509.785	-200.000	-0.008	0.198
-508.770	-200.000	-0.012	-0.062
-507.756	158.250	0.212	0.294
-506.741	-200.000	0.013	0.208
-505.726	-200.000	0.007	0.083
-504.712	-200.000	0.014	0.276
-503.697	-50.758	-0.139	-0.066
-502.683	-157.568	0.264	0.016
-501.668	-3.250	-0.046	0.032
-500.653	-200.000	-0.005	0.227
-499.639	-200.000	0.041	-0.292
-498.624	206.646	0.122	-0.190
-497.610	-84.859	-0.295	-0.093
-496.595	14.288	-0.051	0.040
-495.581	258.988	-0.161	-0.277
-494.566	800.000	-0.037	-0.119
-493.551	800.000	-0.068	-0.192
-492.537	-61.124	-0.299	0.126
-491.522	412.361	0.057	-0.121
-490.508	-200.000	-0.042	0.241
-489.493	-27.754	0.177	-0.103
-488.478	141.035	0.090	0.119
-487.464	5.863	-0.210	-0.155
-486.449	-200.000	0.043	-0.253
-485.435	-200.000	0.008	0.269
-484.420	-117.498	-0.194	0.035
-483.405	-66.986	-0.123	-0.049
-482.391	-66.505	-0.072	0.028
-481.376	-200.000	-0.090	0.492
-480.362	-200.000	0.074	0.332
-479.347	353.908	-0.176	-0.350
-478.332	-12.065	0.165	-0.108
-477.318	800.000	0.024	-0.089
-476.303	582.497	-0.093	0.228
-475.289	-200.000	-0.024	-0.229
-474.274	-200.000	-0.030	-0.135
-473.259	369.154	-0.105	0.212
-472.245	37.635	-0.215	-0.190
-471.230	159.893	0.169	0.235
-470.216	-148.216	-0.275	0.023
-469.201	-28.314	0.074	-0.043
-468.186	-91.382	-0.056	-0.016
-467.172	-19.067	-0.307	-0.191
-466.157	-138.822	-0.297	-0.032
-465.143	-200.000	-0.025	0.140
-464.128	227.717	-0.085	0.139
-463.113	524.695	0.166	0.391
-462.099	-169.937	0.223	0.008
-461.084	-20.888	0.020	0.012
-460.070	325.532	0.147	-0.281
-459.055	-126.543	0.267	-0.040
-458.040	192.518	-0.261	0.393
-457.026	-33.428	-0.337	-0.186
-456.011	-70.593	0.070	-0.027
-454.997	-200.000	-0.046	-0.268
-453.982	-83.621	-0.279	-0.089
-452.968	7.047	-0.169	-0.126
-451.953	162.168	-0.223	0.312
-450.938	-136.708	-0.257	0.030
-449.924	-121.759	-0.185	0.031
-448.909	-29.387	0.143	0.082
-447.895	800.000	0.060	0.204
-446.880	-200.000	0.041	-0.316
-445.865	-99.932	0.085	-0.021
-444.851	-200.000	-0.028	0.241
-443.836	52.915	0.247	-0.235
-442.822	-200.000	-0.011	-0.220
-441.807	126.089	0.176	0.222
-440.792	-200.000	-0.058	-0.410
-439.778	-200.000	0.013	-0.247
-438.763	-200.000	0.008	0.327
-437.749	-150.322	-0.343	0.026
-436.734	-53.655	0.210	0.096
-435.719	107.015	-0.123	-0.146
-434.705	-124.113	0.062	-0.010
-433.690	338.809	0.054	0.105
-432.676	225.706	0.046	0.074
-431.661	-32.957	-0.054	-0.030
-430.646	22.996	-0.196	0.160
-429.632	618.132	-0.071	-0.177
-428.617	-76.995	-0.244	-0.085
-427.603	-165.300	-0.109	-0.005
-426.588	69.439	-0.116	0.119
-425.573	-130.465	0.084	0.011
-424.559	239.232	0.221	0.367
-423.544	-58.517	0.142	-0.061
-422.530	-200.000	0.055	0.243
-421.515	82.935	0.186	0.202
-420.500	9.672	-0.163	-0.123
-419.486	-200.000	0.031	-0.210
-418.471	37.049	-0.042	0.037
-417.457	192.293	-0.174	0.261
-416.442	-74.228	-0.179	-0.065
-415.428	20.974	-0.056	0.045
-414.413	800.000	-0.081	0.252
-413.398	-200.000	0.005	-0.061
-412.384	800.000	0.070	-0.261
-411.369	-134.593	0.411	0.050
-410.355	426.716	0.067	-0.145
-409.340	-13.758	-0.340	0.219
-408.325	208.486	-0.154	0.240
-407.311	-128.517	0.432	-0.061
-406.296	-14.384	-0.172	0.110
-405.282	-200.000	-0.065	-0.288
-404.267	-200.000	0.068	0.329
-403.252	-83.124	0.227	0.073
-402.238	485.200	0.135	-0.307
-401.223	-34.617	0.088	-0.048
-400.209	225.900	0.071	-0.115
-399.194	800.000	0.110	0.408
-398.179	312.328	0.180	-0.336
-397.165	-57.401	-0.206	-0.090
-396.150	-200.000	0.018	0.359
-395.136	349.446	0.122	-0.240
-394.121	279.859	-0.102	-0.182
-393.106	43.028	0.053	-0.048
-392.092	185.638	-0.152	0.225
-391.077	246.028	0.084	-0.141
-390.063	-52.648	-0.292	0.134
-389.048	249.532	-0.022	-0.036
-388.033	-69.202	0.259	-0.099
-387.019	488.440	-0.122	0.278
-386.004	-23.542	-0.111	-0.066
-384.990	-79.483	0.179	0.060
-383.975	-69.085	0.151	-0.058
-382.960	-86.254	0.235	-0.072
-381.946	-200.000	-0.065	0.352
-380.931	-70.851	0.110	-0.041
-379.917	-77.920	-0.091	0.031
-378.902	114.721	-0.074	-0.090
-377.888	230.140	0.126	0.205
-376.873	-200.000	-0.000	-0.042
-375.858	104.428	-0.052	0.061
-374.844	76.405	-0.131	-0.138
-373.829	297.591	0.151	-0.276
-372.815	-23.124	0.102	0.061
-371.800	119.051	-0.122	-0.151
-370.785	800.000	-0.091	-0.277
-369.771	-200.000	0.047	-0.577
-368.756	-200.000	0.306	0.000
-367.742	-200.000	-0.031	-0.209
-366.727	-40.049	-0.187	-0.097
-365.712	-17.889	0.095	-0.059
-364.698	-200.000	0.028	0.421
-363.683	800.000	-0.158	0.446
-362.669	-33.486	-0.076	-0.042
-361.654	-150.094	0.483	-0.037
-360.639	397.184	-0.037	-0.077
-359.625	-200.000	0.021	0.284
-358.610	20.469	-0.305	0.245
-357.596	-200.000	0.007	0.116
-356.581	-38.650	-0.340	0.179
-355.566	65.569	-0.089	-0.090
-354.552	-65.385	0.068	-0.027
-353.537	-34.024	0.254	-0.139
-352.523	-84.557	0.258	0.081
-351.508	-55.190	-0.300	0.134
-350.493	800.000	0.121	0.367
-349.479	249.457	-0.163	0.274
-348.464	81.666	-0.140	0.150
-347.450	38.240	-0.164	-0.145
-346.435	-69.057	0.155	0.059
-345.420	39.998	0.149	0.133
-344.406	152.260	-0.025	-0.034
-343.391	17.617	0.117	-0.093
-342.377	-200.000	-0.001	0.227
-341.362	-200.000	-0.019	0.096
-340.348	800.000	-0.061	-0.210
-339.333	-74.396	-0.022	0.008
-338.318	-161.537	-0.191	0.010
-337.304	38.949	0.042	-0.037
-336.289	-81.889	0.158	-0.051
-335.275	-90.458	0.422	0.122
-334.260	-100.753	0.213	0.052
-333.245	370.412	0.136	-0.274
-332.231	-24.822	-0.165	-0.098
-331.216	214.567	0.060	-0.094
-330.202	178.217	0.148	0.215
-329.187	800.000	-0.026	0.076
-328.172	-27.034	0.098	0.057
-327.158	98.409	0.068	-0.078
-326.143	-34.219	0.132	-0.072
-325.129	-200.000	-0.017	0.268
-324.114	-24.540	0.119	0.070
-323.099	198.899	-0.043	0.065
-322.085	4.411	0.103	0.075
-321.070	-84.416	-0.274	0.086
-320.056	-57.844	0.228	0.099
-319.041	-23.811	0.276	0.164
-318.026	114.550	-0.125	-0.151
-317.012	96.702	0.066	0.075
-315.997	-144.111	0.060	0.006
-314.983	-39.726	-0.193	-0.100
-313.968	268.522	0.032	-0.056
-312.953	336.101	0.141	0.272
-311.939	-200.000	0.017	0.359
-310.924	-27.142	-0.353	-0.204
-309.910	-127.332	0.140	0.020
-308.895	7.518	-0.078	0.058
-307.880	-200.000	-0.016	-0.160
-306.866	800.000	0.168	-0.510
-305.851	39.449	-0.221	-0.196
-304.837	39.035	0.200	-0.177
-303.822	-9.766	-0.170	-0.112
-302.807	386.286	-0.092	0.188
-301.793	-83.755	-0.493	0.156
-300.778	-61.400	0.118	0.049
-299.764	548.538	0.080	0.191
-298.749	800.000	0.070	-0.195
-297.735	800.000	0.061	-0.217
-296.720	75.011	0.246	-0.257
-295.705	-13.292	-0.272	-0.175
-294.691	-200.000	-0.016	0.115
-293.676	2.585	0.072	0.052
-292.662	-77.013	0.212	0.073
-291.647	78.616	-0.189	-0.200
-290.632	-46.966	0.150	-0.073
-289.618	-90.130	0.139	-0.040
-288.603	67.140	0.082	-0.083
-287.589	88.735	0.247	-0.272
-286.574	15.387	-0.047	-0.037
-285.559	23.942	0.109	0.089
-284.545	800.000	0.053	-0.172
-283.530	168.070	-0.089	-0.125
-282.516	-200.000	0.041	0.205
-281.501	595.922	-0.055	-0.136
-280.486	188.359	-0.025	0.036
-279.472	-33.626	0.286	-0.157
-278.457	237.933	-0.106	-0.174
-277.443	44.167	0.062	0.057
-276.428	725.715	-0.173	0.458
-275.413	-200.000	-0.019	-0.210
-274.399	-28.654	-0.081	0.046
-273.384	109.282	-0.087	-0.104
-272.370	-200.000	0.035	-0.291
-271.355	16.773	0.114	0.090
-270.340	134.897	-0.152	0.196
-269.326	17.426	0.097	-0.077
-268.311	-132.886	-0.186	-0.024
-267.297	-72.250	0.059	0.022
-266.282	-49.066	-0.149	0.071
-265.267	-84.215	0.156	0.049
-264.253	55.961	0.181	0.174
-263.238	-200.000	-0.076	-0.345
-262.224	-147.647	0.334	-0.028
-261.209	-200.000	0.007	0.279
-260.195	-162.595	0.208	0.010
-259.180	18.531	0.095	0.075
-258.165	-200.000	-0.036	-0.344
-257.151	270.654	-0.041	-0.071
-256.136	-41.292	0.113	0.058
-255.122	-73.059	-0.211	-0.077
-254.107	-200.000	-0.015	-0.124
-253.092	166.038	0.073	0.102
-252.078	0.340	0.285	-0.201
-251.063	87.878	0.130	-0.142
-250.049	-200.000	0.011	-0.245
-249.034	-34.476	-0.136	0.074
-248.019	800.000	-0.153	0.420
-247.005	195.638	-0.170	0.255
-245.990	257.050	0.054	-0.092
-244.976	800.000	0.078	-0.288
-243.961	421.443	-0.067	-0.142
-242.946	247.291	0.087	0.145
-241.932	-5.698	-0.126	0.085
-240.917	213.891	-0.166	0.259
-239.903	-166.032	0.468	0.020
-238.888	-85.175	-0.027	0.008
-237.873	-90.918	-0.184	-0.052
-236.859	-91.120	0.203	0.058
-235.844	-41.004	0.185	-0.095
-234.830	-52.773	-0.139	-0.063
-233.815	-200.000	0.043	0.187
-232.800	192.999	0.152	0.228
-231.786	800.000	-0.035	0.113
-230.771	-109.050	0.143	0.030
-229.757	-200.000	0.036	-0.241
-228.742	44.739	-0.223	-0.203
-227.727	-200.000	0.055	0.248
-226.713	280.222	-0.122	0.216
-225.698	-200.000	0.053	-0.255
-224.684	-103.498	0.248	0.058
-223.669	300.847	-0.057	-0.103
-222.655	147.568	-0.108	-0.144
-221.640	-200.000	-0.023	0.252
-220.625	-200.000	0.023	0.284
-219.611	-47.364	-0.150	0.072
-218.596	-0.610	-0.215	0.151
-217.582	-101.430	-0.021	0.005
-216.567	800.000	0.094	0.322
-215.552	84.680	0.361	0.391
-214.538	185.759	-0.094	-0.138
-213.523	-156.745	-0.412	-0.025
-212.509	406.864	-0.175	-0.365
-211.494	-90.931	0.407	0.116
-210.479	-46.460	-0.309	-0.150
-209.465	-200.000	-0.020	0.455
-208.450	-31.290	0.347	-0.193
-207.436	245.997	-0.131	-0.219
-206.421	-163.972	-0.165	-0.008
-205.406	68.539	0.023	-0.023
-204.392	50.618	-0.123	0.115
-203.377	180.982	0.086	-0.125
-202.363	-200.000	-0.012	-0.133
-201.348	218.365	-0.146	0.231
-200.333	110.812	0.132	0.156
-199.319	298.251	0.113	0.205
-198.304	22.155	-0.351	-0.283
-197.290	-200.000	0.065	0.322
-196.275	495.828	0.026	0.060
-195.260	397.651	0.035	-0.072
-194.246	-128.698	0.156	0.022
-193.231	800.000	-0.098	0.315
-192.217	800.000	0.023	-0.091
-191.202	-35.280	0.230	-0.124
-190.187	561.411	0.100	0.240
-189.173	-200.000	0.009	0.179
-188.158	-200.000	-0.002	0.098
-187.144	314.494	-0.082	-0.153
-186.129	-66.833	0.156	0.061
-185.114	9.319	0.142	-0.106
-184.100	728.866	0.097	-0.255
-183.085	-200.000	-0.004	-0.255
-182.071	-200.000	-0.010	0.290
-181.056	-81.792	-0.248	-0.080
-180.042	30.784	-0.104	0.088
-179.027	800.000	0.114	0.342
-178.012	28.007	0.011	-0.009
-176.998	450.755	-0.107	-0.233
-175.983	-200.000	0.090	-0.539
-174.969	98.224	0.144	-0.164
-173.954	570.524	0.080	0.193
-172.939	800.000	0.046	-0.134
-171.925	60.210	0.224	-0.218
-170.910	-143.333	-0.278	-0.026
-169.896	219.598	-0.112	-0.178
-168.881	-32.410	0.195	0.107
-167.866	-40.626	-0.355	-0.182
-166.852	694.666	-0.067	0.173
-165.837	-107.993	0.124	0.027
-164.823	800.000	0.016	-0.054
-163.808	215.364	-0.093	-0.145
-162.793	-75.859	0.138	-0.048
-161.779	0.042	0.114	0.080
-160.764	-111.496	0.257	0.052
-159.750	-40.325	0.189	-0.097
-158.735	731.153	0.107	-0.281
-157.720	560.706	0.110	-0.263
-156.706	336.214	-0.049	-0.095
-155.691	18.379	0.159	0.125
-154.677	349.092	0.135	0.263
-153.662	15.515	-0.060	-0.046
-152.647	105.760	0.027	0.032
-151.633	-44.836	0.359	-0.177
-150.618	130.421	-0.145	0.183
-149.604	309.180	-0.052	0.096
-148.589	-132.509	-0.276	0.035
-147.574	-76.731	-0.258	0.089
-146.560	-29.007	-0.160	-0.091
-145.545	-160.949	0.152	-0.008
-144.531	13.595	0.184	-0.141
-143.516	-20.355	-0.047	0.028
-142.502	-97.894	-0.073	-0.019
-141.487	-65.691	-0.143	-0.057
-140.472	-4.615	-0.136	0.092
-139.458	665.873	0.053	0.135
-138.443	-200.000	0.048	0.453
-137.429	85.425	0.328	0.355
-136.414	-200.000	0.002	0.199
-135.399	-200.000	-0.012	-0.237
-134.385	-164.667	-0.024	0.001
-133.370	-200.000	0.039	-0.289
-132.356	-200.000	-0.024	-0.208
-131.341	-22.096	-0.278	-0.166
-130.326	800.000	0.128	0.429
-129.312	93.627	-0.176	0.197
-128.297	247.291	-0.246	0.409
-127.283	-23.215	0.174	0.103
-126.268	-9.533	-0.262	0.173
-125.253	800.000	0.013	-0.054
-124.239	800.000	0.051	0.162
-123.224	-46.351	-0.117	0.057
-122.210	-200.000	-0.028	0.181
-121.195	800.000	-0.052	0.169
