DTS Sentinel unit serial number:	SN413079Multiplexer serial number:	ORYXHardware model number:	OX4-SRSoftware version number:	ORYX F/W v4.00 Oryx Data Collector v3.7.2.0data status	okinstallation	princeton_trtdifferential loss correction	single-endedforward channel	channel 2reverse channel	N/Adate	2019/09/11time	12:33:11forward acquisition time	60.00reverse acquisition time	0.00gamma	496.2192k internal	0.2297k external	0.2297temperature offset calibration	0.9967default loss term (dB/km)	0.3790temperature slope calibration	1.0000multiplexer offset coefficient	1.0000multiplexer slope coefficient	1.0000fibre end	0.00T internal ref (°C)	40.61T ext. ref 1 (°C)	0.23T ext. ref 2 (°C)	37.90length (m)	temperature (°C)	Stokes	anti-Stokes-747.200	100.840	0.211	-0.250
-746.185	-25.844	-0.316	0.190
-745.171	11.155	0.214	-0.167
-744.156	-134.831	0.111	-0.014
-743.142	-107.527	0.394	0.088
-742.127	-200.000	0.050	0.348
-741.112	276.552	0.192	0.348
-740.098	372.816	-0.120	0.250
-739.083	800.000	-0.080	-0.301
-738.069	66.893	0.183	0.190
-737.054	-40.136	-0.094	-0.050
-736.039	-52.896	-0.186	-0.088
-735.025	-63.129	0.215	0.090
-734.010	87.590	-0.045	-0.051
-732.996	13.420	-0.240	-0.190
-731.981	-45.313	-0.221	-0.112
-730.966	56.955	0.155	0.154
-729.952	33.916	-0.118	-0.105
-728.937	592.904	0.070	0.178
-727.923	-200.000	0.014	0.225
-726.908	84.829	-0.098	-0.110
-725.894	393.846	0.099	0.210
-724.879	-169.392	-0.283	-0.011
-723.864	-200.000	-0.037	-0.520
-722.850	680.393	-0.073	-0.194
-721.835	-169.192	-0.187	0.007
-720.821	109.222	0.169	-0.207
-719.806	6.454	-0.341	0.258
-718.791	-153.667	-0.351	0.025
-717.777	188.573	0.099	-0.151
-716.762	-150.715	0.213	-0.017
-715.748	-2.910	0.070	-0.050
-714.733	225.926	0.104	0.172
-713.718	-39.204	0.025	0.013
-712.704	-136.316	-0.373	0.044
-711.689	-200.000	-0.015	0.219
-710.675	87.668	0.046	-0.052
-709.660	-134.297	-0.477	0.060
-708.645	192.656	-0.214	0.330
-707.631	-31.261	0.285	0.164
-706.616	165.138	0.152	-0.219
-705.602	-121.676	-0.199	0.034
-704.587	-1.713	0.339	0.243
-703.572	140.274	0.194	0.262
-702.558	39.408	0.215	0.196
-701.543	125.298	-0.264	-0.340
-700.529	-30.989	-0.224	-0.129
-699.514	-29.764	0.224	-0.131
-698.499	-74.727	-0.375	-0.137
-697.485	-200.000	0.032	-0.283
-696.470	-41.824	0.275	-0.144
-695.456	-144.043	0.119	0.011
-694.441	232.283	0.147	0.246
-693.426	117.476	0.059	0.074
-692.412	-20.974	-0.178	-0.111
-691.397	800.000	-0.052	-0.162
-690.383	727.562	0.099	-0.268
-689.368	-74.289	-0.251	0.092
-688.354	-200.000	0.052	-0.257
-687.339	133.398	0.120	-0.158
-686.324	67.459	0.032	-0.033
-685.310	318.982	-0.065	-0.125
-684.295	-200.000	-0.007	0.340
-683.281	-190.501	-0.319	0.004
-682.266	33.969	-0.206	-0.183
-681.251	800.000	-0.042	-0.183
-680.237	29.093	0.124	0.107
-679.222	-200.000	-0.011	0.304
-678.208	184.498	0.060	0.090
-677.193	448.667	0.095	0.213
-676.178	125.323	-0.135	0.173
-675.164	800.000	0.092	0.313
-674.149	-200.000	-0.002	0.012
-673.135	-84.062	-0.185	0.060
-672.120	207.735	0.087	-0.139
-671.105	544.533	-0.029	0.071
-670.091	206.896	-0.081	-0.128
-669.076	-138.052	-0.299	0.034
-668.062	-200.000	-0.024	-0.135
-667.047	-24.377	-0.070	0.042
-666.032	449.847	0.071	0.160
-665.018	-167.964	-0.228	-0.009
-664.003	-200.000	0.009	-0.198
-662.989	-88.311	0.128	-0.039
-661.974	-172.247	-0.220	-0.007
-660.959	-57.071	0.061	0.027
-659.945	79.540	0.044	-0.048
-658.930	-200.000	0.073	-0.366
-657.916	76.364	-0.159	-0.172
-656.901	33.718	-0.057	0.050
-655.886	800.000	0.005	0.022
-654.872	344.914	-0.071	-0.142
-653.857	164.300	-0.094	-0.134
-652.843	201.752	-0.160	-0.251
-651.828	326.804	0.042	0.082
-650.814	800.000	-0.077	-0.217
-649.799	84.462	-0.131	0.146
-648.784	-200.000	0.088	-0.000
-647.770	-124.802	-0.303	0.048
-646.755	-66.900	0.359	0.144
-645.741	-15.644	-0.267	-0.174
-644.726	-200.000	-0.006	-0.249
-643.711	-200.000	0.008	0.472
-642.697	-49.395	0.228	0.110
-641.682	-200.000	0.009	0.074
-640.668	342.922	0.060	0.120
-639.653	800.000	0.144	-0.521
-638.638	-88.444	-0.068	-0.021
-637.624	-200.000	-0.030	0.136
-636.609	-200.000	-0.002	-0.112
-635.595	-200.000	-0.036	0.216
-634.580	800.000	0.024	0.098
-633.565	57.315	-0.201	-0.200
-632.551	-15.693	-0.235	-0.152
-631.536	75.802	-0.137	-0.147
-630.522	-77.532	0.086	-0.030
-629.507	-1.172	0.272	0.195
-628.492	-200.000	0.034	-0.268
-627.478	-200.000	0.071	-0.425
-626.463	406.319	0.087	-0.186
-625.449	800.000	-0.163	0.514
-624.434	-200.000	-0.028	0.169
-623.419	-43.087	0.087	-0.045
-622.405	-183.583	0.257	-0.004
-621.390	-22.275	0.311	-0.192
-620.376	-97.619	-0.113	-0.030
-619.361	303.366	-0.118	-0.223
-618.346	29.091	-0.068	-0.059
-617.332	307.311	-0.170	0.321
-616.317	-200.000	-0.060	0.280
-615.303	-55.278	0.260	-0.119
-614.288	415.745	0.103	-0.224
-613.273	200.883	0.109	0.170
-612.259	-200.000	0.002	-0.266
-611.244	-82.791	-0.270	0.089
-610.230	-122.825	-0.111	-0.018
-609.215	-21.987	0.176	0.109
-608.201	-48.113	0.346	-0.170
-607.186	150.179	0.128	0.176
-606.171	-70.467	-0.119	0.046
-605.157	-200.000	0.017	0.267
-604.142	258.818	-0.065	-0.114
-603.128	800.000	0.039	-0.140
-602.113	343.451	0.081	0.162
-601.098	-145.233	-0.288	0.026
-600.084	-200.000	0.023	0.121
-599.069	-127.525	0.233	0.034
-598.055	208.428	0.163	0.259
-597.040	-36.172	-0.140	0.077
-596.025	18.311	0.212	0.172
-595.011	29.523	0.121	0.104
-593.996	-58.813	-0.292	-0.128
-592.982	-200.000	-0.012	-0.392
-591.967	800.000	-0.103	-0.316
-590.952	310.569	-0.284	0.540
-589.938	-200.000	-0.103	-0.000
-588.923	52.001	-0.485	-0.469
-587.909	-109.671	-0.211	0.045
-586.894	131.624	-0.238	0.311
-585.879	687.878	0.146	-0.387
-584.865	-1.031	0.120	0.086
-583.850	-32.144	0.059	0.034
-582.836	-200.000	-0.012	0.164
-581.821	-167.405	-0.297	0.012
-580.806	236.275	-0.117	-0.197
-579.792	-143.021	-0.182	-0.018
-578.777	800.000	0.041	-0.141
-577.763	723.610	-0.031	0.084
-576.748	65.502	-0.051	0.052
-575.733	-138.222	0.110	0.012
-574.719	520.319	-0.171	-0.407
-573.704	-131.900	-0.138	-0.018
-572.690	-200.000	-0.021	-0.241
-571.675	-200.000	0.021	-0.181
-570.661	-141.679	0.194	-0.020
-569.646	-200.000	0.020	-0.525
-568.631	406.584	-0.052	-0.112
-567.617	15.146	-0.099	0.079
-566.602	800.000	-0.059	0.170
-565.588	-200.000	-0.002	0.094
-564.573	-200.000	-0.001	0.386
-563.558	156.743	0.178	0.249
-562.544	-200.000	0.078	-0.553
-561.529	-200.000	0.007	0.073
-560.515	-17.468	-0.284	-0.181
-559.500	800.000	-0.127	0.549
-558.485	-45.328	-0.107	-0.054
-557.471	227.543	-0.061	0.101
-556.456	-112.626	-0.077	-0.016
-555.442	-67.502	-0.146	-0.058
-554.427	-37.871	-0.102	0.055
-553.412	-12.318	-0.220	0.146
-552.398	-66.783	-0.096	-0.039
-551.383	-200.000	0.037	-0.267
-550.369	-107.557	0.034	-0.008
-549.354	-42.038	-0.549	-0.285
-548.339	53.047	-0.342	0.332
-547.325	564.339	0.083	-0.205
-546.310	-14.055	0.095	0.062
-545.296	-73.237	-0.158	0.059
-544.281	227.513	-0.170	0.281
-543.266	-200.000	0.019	0.178
-542.252	-200.000	0.004	0.099
-541.237	1.365	-0.108	0.079
-540.223	800.000	0.056	-0.220
-539.208	-84.695	-0.268	0.086
-538.193	-21.904	-0.063	0.039
-537.179	61.251	-0.092	0.092
-536.164	638.418	-0.046	-0.118
-535.150	800.000	-0.027	-0.114
-534.135	800.000	0.056	-0.168
-533.121	228.012	0.170	0.281
-532.106	296.802	-0.118	0.220
-531.091	342.252	0.108	0.214
-530.077	800.000	-0.050	-0.143
-529.062	9.726	-0.166	-0.127
-528.048	-150.543	0.233	0.018
-527.033	689.467	-0.086	-0.229
-526.018	47.019	0.057	0.054
-525.004	-200.000	-0.065	-0.442
-523.989	-199.882	-0.071	-0.000
-522.975	-76.883	-0.301	-0.107
-521.960	255.339	-0.088	-0.153
-520.945	78.725	-0.087	-0.094
-519.931	-70.607	0.202	0.077
-518.916	-54.336	-0.212	-0.097
-517.902	-55.111	-0.340	0.155
-516.887	-127.641	-0.088	0.013
-515.872	-141.899	-0.423	0.043
-514.858	40.169	0.221	0.201
-513.843	-6.247	-0.088	0.061
-512.829	800.000	-0.046	-0.157
-511.814	103.572	0.067	-0.079
-510.799	434.407	0.162	0.356
-509.785	253.316	0.027	-0.046
-508.770	-78.228	0.259	0.090
-507.756	492.351	0.028	0.065
-506.741	13.319	0.119	0.093
-505.726	-200.000	0.025	-0.160
-504.712	-88.942	0.215	-0.064
-503.697	611.892	0.126	-0.320
-502.683	800.000	0.018	-0.052
-501.668	-200.000	-0.024	-0.221
-500.653	800.000	-0.087	-0.357
-499.639	-22.699	0.275	-0.168
-498.624	440.972	0.078	-0.173
-497.610	219.667	-0.136	0.220
-496.595	-185.425	0.198	0.003
-495.581	-200.000	-0.006	0.285
-494.566	-60.657	0.122	0.052
-493.551	800.000	0.102	0.293
-492.537	-37.412	0.180	0.097
-491.522	139.580	-0.174	-0.231
-490.508	-69.319	-0.260	-0.101
-489.493	231.670	0.086	-0.143
-488.478	159.358	-0.033	0.046
-487.464	-53.370	-0.205	-0.095
-486.449	451.556	0.029	0.065
-485.435	40.081	0.012	-0.011
-484.420	-200.000	0.007	0.059
-483.405	192.923	-0.177	-0.271
-482.391	92.383	-0.058	-0.066
-481.376	800.000	-0.054	-0.203
-480.362	238.741	0.165	-0.278
-479.347	31.519	-0.328	-0.285
-478.332	227.418	0.119	-0.196
-477.318	-200.000	0.022	-0.165
-476.303	-44.881	0.357	-0.180
-475.289	800.000	-0.043	0.168
-474.274	-136.389	-0.332	-0.039
-473.259	800.000	-0.019	-0.068
-472.245	-200.000	-0.003	0.192
-471.230	-200.000	-0.004	0.068
-470.216	-102.280	0.039	0.009
-469.201	-200.000	0.001	0.088
-468.186	-200.000	0.022	-0.356
-467.172	53.103	0.028	0.028
-466.157	-60.350	0.265	0.114
-465.143	-47.012	-0.159	-0.079
-464.128	56.882	0.086	-0.085
-463.113	-200.000	0.014	0.354
-462.099	22.664	0.203	0.168
-461.084	-62.826	-0.069	0.029
-460.070	-19.328	-0.169	0.106
-459.055	58.848	0.173	0.171
-458.040	800.000	0.039	-0.147
-457.026	-200.000	0.024	-0.180
-456.011	800.000	0.151	0.450
-454.997	-49.141	-0.309	0.149
-453.982	-135.373	0.294	0.036
-452.968	800.000	-0.055	0.242
-451.953	-200.000	-0.053	0.321
-450.938	-43.731	0.093	-0.048
-449.924	35.281	-0.270	-0.239
-448.909	-111.030	-0.208	-0.043
-447.895	125.123	0.170	-0.216
-446.880	291.218	-0.042	0.078
-445.865	165.507	0.107	-0.152
-444.851	-27.602	-0.252	-0.148
-443.836	-83.603	-0.496	0.160
-442.822	-138.941	0.122	-0.013
-441.807	264.792	-0.022	0.038
-440.792	800.000	0.060	0.247
-439.778	152.444	-0.246	0.339
-438.763	-128.332	0.199	-0.029
-437.749	181.384	0.062	0.091
-436.734	96.201	-0.122	-0.140
-435.719	-193.648	0.126	-0.001
-434.705	-200.000	0.026	-0.167
-433.690	38.943	0.178	0.160
-432.676	800.000	-0.064	-0.180
-431.661	-99.509	-0.031	0.008
-430.646	12.845	0.177	0.138
-429.632	-84.549	-0.196	0.062
-428.617	71.220	-0.068	0.071
-427.603	-200.000	0.070	-0.359
-426.588	-200.000	0.015	-0.191
-425.573	219.988	-0.115	0.186
-424.559	-200.000	-0.001	-0.246
-423.544	749.638	0.062	-0.169
-422.530	-59.067	0.144	-0.063
-421.515	-92.210	-0.182	-0.052
-420.500	-200.000	0.013	-0.159
-419.486	-25.393	-0.140	-0.084
-418.471	-200.000	0.004	-0.034
-417.457	166.116	0.151	-0.216
-416.442	-9.466	-0.205	0.138
-415.428	-62.482	-0.226	0.095
-414.413	-117.214	0.280	0.051
-413.398	71.193	0.101	0.106
-412.384	-58.586	-0.090	-0.040
-411.369	-76.497	0.400	-0.142
-410.355	-18.316	0.216	0.136
-409.340	-200.000	0.041	-0.430
-408.325	-200.000	0.026	0.129
-407.311	-104.816	-0.409	0.095
-406.296	17.961	-0.193	0.155
-405.282	-111.384	-0.235	-0.048
-404.267	-85.275	-0.137	0.043
-403.252	230.935	-0.174	0.287
-402.238	133.876	-0.012	0.016
-401.223	-200.000	0.009	0.147
-400.209	-101.291	0.203	0.050
-399.194	800.000	-0.115	0.396
-398.179	304.246	0.116	0.217
-397.165	-200.000	-0.030	0.223
-396.150	81.248	0.062	0.067
-395.136	-81.034	0.098	-0.033
-394.121	202.596	0.062	0.097
-393.106	-72.996	-0.253	0.094
-392.092	253.845	-0.202	-0.349
-391.077	-59.161	0.110	-0.048
-390.063	-200.000	-0.034	-0.215
-389.048	27.562	-0.119	0.100
-388.033	-65.187	0.424	0.172
-387.019	-200.000	0.002	-0.404
-386.004	-128.856	0.084	-0.012
-384.990	275.063	-0.120	0.215
-383.975	-110.076	0.185	-0.039
-382.960	-108.234	0.342	0.075
-381.946	146.669	-0.185	-0.250
-380.931	118.635	-0.074	0.092
-379.917	239.136	-0.046	0.077
-378.902	153.638	0.143	-0.197
-377.888	800.000	0.071	-0.205
-376.873	-200.000	0.022	-0.157
-375.858	-10.079	0.150	0.100
-374.844	129.553	0.111	0.143
-373.829	264.906	-0.072	0.126
-372.815	-82.672	-0.071	-0.023
-371.800	-58.050	0.258	0.113
-370.785	-104.630	-0.070	0.016
-369.771	-114.758	0.121	-0.023
-368.756	-200.000	0.010	0.153
-367.742	18.776	0.150	0.121
-366.727	25.652	0.110	-0.092
-365.712	-200.000	0.012	0.297
-364.698	-76.694	0.062	-0.022
-363.683	-194.814	-0.217	-0.002
-362.669	5.961	-0.092	0.068
-361.654	800.000	0.031	-0.128
-360.639	-126.891	0.294	0.044
-359.625	-54.978	-0.352	0.160
-358.610	136.751	0.081	-0.107
-357.596	-44.975	0.248	0.124
-356.581	-200.000	-0.003	-0.156
-355.566	352.546	0.137	0.274
-354.552	75.065	-0.072	0.076
-353.537	59.233	0.098	0.097
-352.523	-200.000	-0.039	0.254
-351.508	-200.000	0.013	-0.097
-350.493	800.000	-0.022	-0.093
-349.479	-146.723	-0.081	-0.007
-348.464	20.453	-0.107	0.087
-347.450	-112.020	0.481	-0.097
-346.435	71.603	-0.156	0.163
-345.420	-86.588	0.086	-0.026
-344.406	146.075	-0.160	0.216
-343.391	16.099	-0.115	0.091
-342.377	158.534	0.048	0.067
-341.362	-22.598	-0.331	0.201
-340.348	-38.084	0.381	0.204
-339.333	-200.000	0.009	0.239
-338.318	-39.353	-0.151	0.079
-337.304	794.227	-0.066	-0.182
-336.289	800.000	0.111	0.327
-335.275	169.378	0.107	0.153
-334.260	47.169	0.080	0.075
-333.245	168.507	-0.044	-0.064
-332.231	-23.748	-0.170	-0.102
-331.216	-29.031	0.124	0.071
-330.202	-200.000	-0.021	0.159
-329.187	-200.000	0.019	-0.469
-328.172	7.154	0.028	-0.021
-327.158	-150.027	0.685	0.054
-326.143	800.000	0.056	0.181
-325.129	-27.869	0.118	0.069
-324.114	-103.803	-0.198	0.047
-323.099	214.301	-0.218	0.346
-322.085	16.794	-0.242	0.192
-321.070	-156.839	-0.054	0.003
-320.056	106.760	-0.093	0.110
-319.041	40.040	0.094	-0.084
-318.026	-10.345	0.092	0.061
-317.012	-77.729	-0.299	-0.104
-315.997	-47.551	-0.104	-0.051
-314.983	190.286	0.067	0.101
-313.968	-200.000	0.049	-0.225
-312.953	-39.794	0.036	-0.019
-311.939	305.928	-0.078	-0.146
-310.924	-64.025	-0.066	-0.027
-309.910	-85.801	0.136	0.042
-308.895	-33.246	-0.029	-0.016
-307.880	-200.000	-0.006	0.038
-306.866	-127.903	0.214	0.031
-305.851	-200.000	-0.044	0.312
-304.837	-114.480	0.206	-0.040
-303.822	-104.686	0.299	0.069
-302.807	85.550	-0.288	-0.318
-301.793	-200.000	0.010	0.334
-300.778	-200.000	0.104	0.640
-299.764	514.897	0.102	-0.238
-298.749	-200.000	0.008	-0.166
-297.735	117.275	0.134	-0.166
-296.720	800.000	-0.063	-0.211
-295.705	-200.000	0.010	-0.176
-294.691	-21.051	-0.126	-0.077
-293.676	-132.378	0.320	0.041
-292.662	-200.000	-0.029	0.333
-291.647	-13.697	0.060	0.039
-290.632	-132.275	0.305	-0.040
-289.618	484.533	-0.113	-0.259
-288.603	574.982	-0.082	0.200
-287.589	-200.000	0.034	-0.226
-286.574	-98.615	0.177	-0.045
-285.559	-200.000	-0.011	-0.245
-284.545	-200.000	0.056	-0.294
-283.530	-178.642	0.034	-0.001
-282.516	800.000	0.062	0.176
-281.501	456.414	0.080	-0.178
-280.486	800.000	-0.136	-0.463
-279.472	137.322	-0.245	-0.321
-278.457	49.872	-0.070	-0.067
-277.443	445.001	-0.114	0.251
-276.428	-127.815	-0.220	-0.032
-275.413	14.090	-0.185	-0.144
-274.399	-200.000	-0.003	0.124
-273.384	-33.166	-0.099	-0.055
-272.370	800.000	0.071	-0.305
-271.355	68.654	0.143	-0.147
-270.340	-156.714	0.279	0.017
-269.326	800.000	-0.027	0.090
-268.311	-35.449	0.466	-0.254
-267.297	58.473	0.111	-0.109
-266.282	552.651	0.045	0.107
-265.267	521.754	-0.068	-0.160
-264.253	132.606	0.072	-0.093
-263.238	92.371	-0.111	-0.126
-262.224	578.988	0.088	-0.216
-261.209	800.000	0.049	0.192
-260.195	-152.695	0.132	-0.009
-259.180	-38.465	-0.330	0.175
-258.165	392.335	-0.119	0.249
-257.151	-69.805	-0.038	-0.015
-256.136	-49.063	0.359	-0.172
-255.122	-63.482	0.332	0.137
-254.107	-59.445	-0.310	0.134
-253.092	-77.659	0.049	-0.017
-252.078	-200.000	0.042	0.204
-251.063	352.527	0.126	-0.250
-250.049	-98.282	-0.259	-0.067
-249.034	-200.000	-0.009	0.077
-248.019	-200.000	0.101	-0.466
-247.005	253.269	0.110	-0.188
-245.990	-200.000	-0.078	-0.426
-244.976	73.619	-0.271	0.284
-243.961	21.186	0.153	-0.124
-242.946	247.313	-0.167	-0.283
-241.932	-200.000	0.031	-0.376
-240.917	-3.394	0.145	0.101
-239.903	57.959	-0.187	0.184
-238.888	-200.000	0.011	-0.168
-237.873	-107.973	0.158	-0.034
-236.859	-52.528	-0.189	-0.088
-235.844	16.426	-0.360	-0.284
-234.830	-126.896	0.036	-0.005
-233.815	800.000	0.035	0.125
-232.800	-107.660	-0.196	-0.043
-231.786	-156.223	0.204	0.013
-230.771	17.188	0.168	-0.133
-229.757	55.689	0.051	-0.050
-228.742	-16.469	-0.378	-0.240
-227.727	17.904	-0.282	0.225
-226.713	165.335	-0.167	-0.237
-225.698	210.527	-0.023	0.036
-224.684	-84.014	-0.129	0.041
-223.669	-107.237	-0.242	-0.053
-222.655	-36.027	0.253	0.137
-221.640	800.000	0.120	-0.456
-220.625	-139.765	0.319	0.034
-219.611	-26.231	0.114	-0.067
-218.596	-165.746	0.061	0.003
-217.582	420.000	-0.043	-0.091
-216.567	40.126	0.122	0.110
-215.552	-99.435	0.255	0.064
-214.538	-200.000	-0.004	0.050
-213.523	38.387	0.279	0.249
-212.509	-170.985	0.206	-0.007
-211.494	495.753	0.109	-0.250
-210.479	-105.493	-0.267	-0.061
-209.465	-200.000	0.003	0.222
-208.450	65.003	-0.217	0.220
-207.436	536.658	-0.113	-0.269
-206.421	-200.000	-0.005	0.104
-205.406	-200.000	0.059	0.270
-204.392	324.174	-0.040	0.076
-203.377	19.170	0.289	0.232
-202.363	35.732	0.039	0.034
-201.348	800.000	0.099	0.335
-200.333	712.259	0.044	0.117
-199.319	-5.937	0.081	-0.056
-198.304	-119.195	-0.040	0.007
-197.290	211.520	-0.046	-0.072
-196.275	800.000	0.036	-0.121
-195.260	-13.426	0.321	0.208
-194.246	-135.604	-0.087	-0.010
-193.231	-75.970	0.280	0.099
-192.217	38.086	-0.016	-0.015
-191.202	-63.932	-0.091	-0.037
-190.187	176.947	0.042	0.061
-189.173	-10.627	-0.144	-0.096
-188.158	29.538	0.385	0.328
-187.144	185.534	0.130	0.193
-186.129	-26.606	-0.184	0.108
-185.114	800.000	-0.045	-0.132
-184.100	800.000	-0.100	-0.277
-183.085	25.444	0.185	-0.153
-182.071	254.102	0.232	0.396
-181.056	-123.618	0.110	-0.017
-180.042	83.675	-0.142	-0.154
-179.027	-5.967	-0.086	0.059
-178.012	493.625	0.012	0.028
-176.998	-70.815	0.173	-0.065
-175.983	-38.382	0.263	0.139
-174.969	800.000	-0.043	-0.150
-173.954	470.727	-0.138	-0.310
-172.939	-200.000	0.074	0.454
-171.925	98.737	0.198	-0.228
-170.910	-131.790	-0.308	-0.040
-169.896	148.754	0.090	0.121
-168.881	161.050	-0.082	-0.115
-167.866	800.000	0.026	0.084
-166.852	-200.000	0.006	0.050
-165.837	-105.709	0.275	-0.062
-164.823	-22.146	0.133	-0.081
-163.808	157.609	0.088	-0.122
-162.793	14.059	0.249	0.193
-161.779	-200.000	-0.036	0.181
-160.764	57.077	-0.110	0.107
-159.750	-96.505	0.223	-0.059
-158.735	618.604	-0.060	0.151
-157.720	-200.000	0.052	0.306
-156.706	284.136	-0.065	0.117
-155.691	175.729	0.043	0.062
-154.677	800.000	-0.115	0.398
-153.662	448.604	0.087	0.191
-152.647	-88.529	-0.259	-0.077
-151.633	-79.627	-0.154	-0.052
-150.618	92.036	-0.133	-0.150
-149.604	397.998	0.126	-0.263
-148.589	-168.990	0.110	0.004
-147.574	-200.000	-0.004	-0.016
-146.560	-200.000	0.039	-0.202
-145.545	-64.807	0.110	-0.045
-144.531	-92.575	0.268	0.075
-143.516	-200.000	-0.004	0.053
-142.502	152.639	0.115	0.157
-141.487	392.912	0.036	-0.075
-140.472	800.000	-0.048	-0.151
-139.458	800.000	0.055	-0.156
-138.443	-200.000	-0.025	0.169
-137.429	-143.392	-0.297	-0.028
-136.414	75.250	0.142	-0.149
-135.399	332.065	-0.037	-0.072
-134.385	800.000	0.085	0.239
-133.370	381.825	-0.043	-0.089
-132.356	-15.814	0.228	-0.145
-131.341	800.000	0.015	0.043
-130.326	-200.000	0.044	0.270
-129.312	30.024	-0.022	-0.019
-128.297	-100.755	-0.017	0.004
-127.283	800.000	-0.078	-0.251
-126.268	-123.354	0.142	0.023
-125.253	41.618	-0.138	-0.125
-124.239	-17.233	0.192	0.121
-123.224	422.365	0.111	-0.239
-122.210	-43.528	0.190	0.096
-121.195	155.110	-0.107	0.147
