DTS Sentinel unit serial number:	SN413079Multiplexer serial number:	ORYXHardware model number:	OX4-SRSoftware version number:	ORYX F/W v4.00 Oryx Data Collector v3.7.2.0data status	okinstallation	princeton_trtdifferential loss correction	single-endedforward channel	channel 2reverse channel	N/Adate	2019/09/14time	01:07:35forward acquisition time	60.00reverse acquisition time	0.00gamma	496.2192k internal	0.2338k external	0.2338temperature offset calibration	1.0125default loss term (dB/km)	0.3790temperature slope calibration	1.0000multiplexer offset coefficient	1.0000multiplexer slope coefficient	1.0000fibre end	0.00T internal ref (°C)	26.37T ext. ref 1 (°C)	3.17T ext. ref 2 (°C)	21.43length (m)	temperature (°C)	Stokes	anti-Stokes-747.200	11.057	-0.160	0.123
-746.185	-80.783	-0.394	0.131
-745.171	48.714	-0.102	-0.096
-744.156	782.068	0.115	0.315
-743.142	108.290	0.089	-0.107
-742.127	-38.954	-0.186	0.099
-741.112	-200.000	-0.008	-0.085
-740.098	-200.000	-0.027	0.320
-739.083	57.050	0.112	-0.110
-738.069	-12.334	0.196	0.128
-737.054	97.027	-0.158	0.182
-736.039	-41.806	-0.240	0.123
-735.025	-9.990	0.056	0.037
-734.010	800.000	-0.048	-0.137
-732.996	-200.000	0.002	-0.225
-731.981	-107.794	-0.249	0.054
-730.966	75.762	-0.165	-0.174
-729.952	-39.663	-0.043	-0.023
-728.937	-42.534	-0.330	-0.169
-727.923	-118.275	-0.220	0.039
-726.908	-109.387	-0.237	0.050
-725.894	176.892	0.078	-0.114
-724.879	-200.000	0.026	-0.204
-723.864	-200.000	0.002	-0.194
-722.850	-49.360	-0.114	0.055
-721.835	18.883	-0.143	-0.115
-720.821	131.111	-0.105	0.135
-719.806	-81.706	0.207	0.068
-718.791	50.648	-0.129	-0.122
-717.777	537.487	0.168	-0.400
-716.762	65.593	0.123	-0.125
-715.748	184.144	0.154	-0.228
-714.733	513.382	0.151	-0.352
-713.718	56.723	0.131	0.128
-712.704	-36.698	-0.250	-0.135
-711.689	-79.137	0.196	0.067
-710.675	800.000	-0.050	-0.156
-709.660	-200.000	-0.017	0.140
-708.645	191.226	-0.195	0.293
-707.631	-28.157	-0.165	0.096
-706.616	-116.398	0.237	0.044
-705.602	-9.345	0.175	-0.117
-704.587	-122.177	0.510	0.084
-703.572	-200.000	-0.015	0.085
-702.558	-200.000	0.029	-0.194
-701.543	72.649	0.179	-0.187
-700.529	569.810	0.034	-0.082
-699.514	56.487	0.048	0.047
-698.499	800.000	0.046	-0.153
-697.485	120.360	0.089	-0.110
-696.470	395.062	-0.059	0.124
-695.456	769.618	-0.021	0.056
-694.441	142.644	0.101	0.135
-693.426	-200.000	0.040	-0.323
-692.412	172.611	-0.088	-0.126
-691.397	800.000	0.055	-0.201
-690.383	-46.846	0.182	0.089
-689.368	62.669	-0.046	0.046
-688.354	-78.344	-0.250	-0.086
-687.339	61.124	-0.251	0.249
-686.324	56.820	0.074	-0.073
-685.310	-15.683	0.240	0.153
-684.295	-128.668	-0.178	0.025
-683.281	-79.922	-0.118	0.040
-682.266	-200.000	-0.030	0.311
-681.251	675.325	0.137	-0.357
-680.237	742.023	-0.093	-0.251
-679.222	-85.400	0.178	0.055
-678.208	-96.225	0.100	0.027
-677.193	-155.815	-0.193	-0.012
-676.178	-44.058	-0.356	-0.179
-675.164	-100.957	0.109	0.027
-674.149	800.000	0.066	0.274
-673.135	-49.163	0.205	0.098
-672.120	-41.580	-0.138	0.071
-671.105	-200.000	0.009	-0.213
-670.091	-77.088	-0.280	0.098
-669.076	8.291	0.170	-0.128
-668.062	-200.000	-0.044	0.281
-667.047	-45.083	-0.082	-0.041
-666.032	13.362	-0.174	-0.135
-665.018	-200.000	-0.028	-0.166
-664.003	-100.962	0.255	0.063
-662.989	-41.234	-0.207	-0.107
-661.974	-92.559	0.073	0.021
-660.959	-7.734	-0.053	-0.036
-659.945	800.000	0.012	-0.037
-658.930	-200.000	-0.049	0.221
-657.916	800.000	-0.058	-0.186
-656.901	97.344	0.086	0.098
-655.886	92.771	0.313	0.354
-654.872	163.129	-0.034	-0.048
-653.857	-200.000	0.005	-0.276
-652.843	54.813	-0.075	0.072
-651.828	-200.000	-0.008	-0.044
-650.814	-118.164	-0.288	0.051
-649.799	-110.905	-0.167	0.034
-648.784	-97.364	0.288	0.075
-647.770	688.164	0.210	-0.550
-646.755	-30.411	-0.262	0.149
-645.741	-127.625	-0.199	-0.029
-644.726	140.293	0.140	0.185
-643.711	104.369	-0.225	-0.265
-642.697	800.000	0.059	0.202
-641.682	800.000	0.009	0.038
-640.668	422.119	0.201	0.430
-639.653	201.872	0.180	-0.278
-638.638	-200.000	-0.044	0.253
-637.624	-31.574	-0.248	0.139
-636.609	290.604	0.047	0.086
-635.595	-127.497	-0.157	-0.023
-634.580	-200.000	-0.007	-0.295
-633.565	628.709	-0.015	-0.037
-632.551	-200.000	0.037	-0.190
-631.536	-32.362	0.267	-0.149
-630.522	-127.642	0.384	-0.055
-629.507	-129.658	-0.229	-0.032
-628.492	-200.000	0.024	0.156
-627.478	-54.833	0.140	-0.063
-626.463	-98.283	-0.185	-0.047
-625.449	195.560	-0.126	-0.191
-624.434	8.658	-0.175	0.131
-623.419	800.000	0.059	0.174
-622.405	7.564	-0.322	-0.241
-621.390	128.409	-0.251	0.320
-620.376	-144.133	0.322	0.030
-619.361	-56.300	0.088	-0.039
-618.346	93.656	0.170	-0.193
-617.332	-200.000	-0.030	-0.308
-616.317	-200.000	0.019	-0.154
-615.303	-58.167	0.186	0.081
-614.288	44.144	0.096	-0.088
-613.273	-116.811	-0.257	0.047
-612.259	270.455	-0.093	-0.164
-611.244	797.062	-0.074	0.203
-610.230	48.118	-0.140	0.130
-609.215	51.889	-0.181	-0.172
-608.201	-200.000	0.007	0.321
-607.186	283.823	-0.057	0.103
-606.171	319.165	-0.047	-0.089
-605.157	78.815	0.233	0.248
-604.142	-200.000	-0.006	-0.374
-603.128	38.810	0.186	0.166
-602.113	-135.387	-0.279	-0.033
-601.098	-120.469	-0.187	0.032
-600.084	-132.940	0.176	-0.022
-599.069	183.285	0.049	-0.072
-598.055	40.199	-0.151	-0.136
-597.040	-122.914	0.469	-0.075
-596.025	179.790	0.068	0.100
-595.011	541.351	-0.029	-0.069
-593.996	-54.328	-0.283	0.128
-592.982	184.104	-0.032	-0.047
-591.967	-155.024	-0.279	0.018
-590.952	-200.000	-0.006	-0.115
-589.938	711.240	-0.044	-0.117
-588.923	800.000	0.070	-0.278
-587.909	-113.502	-0.116	-0.023
-586.894	71.576	-0.253	0.262
-585.879	-103.009	-0.244	0.058
-584.865	-200.000	0.028	-0.241
-583.850	411.585	0.227	-0.481
-582.836	-52.717	0.440	-0.202
-581.821	634.339	0.069	0.175
-580.806	143.962	0.306	0.407
-579.792	-88.914	0.142	0.042
-578.777	800.000	0.049	-0.171
-577.763	69.109	-0.187	-0.192
-576.748	462.659	-0.140	-0.311
-575.733	-122.946	0.510	0.082
-574.719	172.119	0.106	0.151
-573.704	-63.641	-0.093	-0.038
-572.690	-200.000	0.001	-0.263
-571.675	84.863	0.120	-0.131
-570.661	-63.859	0.253	0.103
-569.646	78.999	-0.131	0.140
-568.631	244.538	-0.153	-0.257
-567.617	-43.010	-0.058	0.029
-566.602	397.949	0.059	0.122
-565.588	-180.814	0.278	0.006
-564.573	-1.289	-0.266	-0.187
-563.558	-30.845	0.347	-0.195
-562.544	-129.878	-0.316	-0.043
-561.529	-13.679	-0.235	0.152
-560.515	-200.000	0.024	0.394
-559.500	17.349	-0.147	0.117
-558.485	27.797	-0.015	0.013
-557.471	-200.000	-0.005	0.092
-556.456	-200.000	-0.006	-0.154
-555.442	106.257	-0.180	0.212
-554.427	800.000	0.039	0.168
-553.412	-125.826	-0.077	0.012
-552.398	406.226	-0.159	-0.334
-551.383	19.445	-0.436	-0.349
-550.369	-63.368	0.236	0.097
-549.354	-200.000	0.003	0.086
-548.339	294.055	0.130	-0.237
-547.325	-200.000	-0.013	0.157
-546.310	623.011	-0.056	-0.140
-545.296	362.110	-0.220	-0.439
-544.281	55.647	0.241	-0.232
-543.266	-68.059	-0.304	0.118
-542.252	-200.000	0.010	0.206
-541.237	-76.938	-0.321	0.112
-540.223	13.901	-0.097	0.075
-539.208	-140.689	-0.279	0.029
-538.193	40.656	0.069	-0.062
-537.179	553.176	-0.057	0.137
-536.164	303.855	-0.051	0.095
-535.150	61.183	0.214	-0.212
-534.135	98.468	-0.211	-0.242
-533.121	-161.788	0.132	0.007
-532.106	-200.000	-0.016	-0.236
-531.091	-200.000	0.058	0.410
-530.077	125.040	-0.234	0.293
-529.062	-141.394	0.387	0.039
-528.048	-200.000	0.024	-0.175
-527.033	-3.758	-0.002	-0.001
-526.018	-144.837	-0.191	0.017
-525.004	66.688	0.176	0.178
-523.989	-72.008	-0.204	-0.075
-522.975	3.384	-0.136	-0.098
-521.960	800.000	0.052	-0.204
-520.945	120.670	-0.153	0.190
-519.931	75.050	-0.063	0.066
-518.916	520.172	-0.111	0.259
-517.902	-200.000	0.045	0.195
-516.887	348.444	0.022	-0.044
-515.872	142.430	-0.172	0.227
-514.858	-73.443	0.307	-0.112
-513.843	-200.000	0.018	-0.138
-512.829	189.878	0.088	0.131
-511.814	70.285	-0.138	-0.142
-510.799	482.824	0.038	-0.087
-509.785	-200.000	0.004	-0.325
-508.770	334.555	-0.062	0.120
-507.756	-102.796	-0.425	-0.101
-506.741	-116.705	0.088	-0.016
-505.726	-184.764	0.407	-0.006
-504.712	-116.165	-0.330	-0.061
-503.697	-34.564	-0.058	0.032
-502.683	-200.000	0.007	-0.050
-501.668	-66.227	0.204	-0.081
-500.653	350.567	-0.235	0.462
-499.639	-200.000	-0.014	-0.314
-498.624	307.138	0.242	0.449
-497.610	161.930	0.085	0.119
-496.595	-49.726	0.320	0.151
-495.581	-149.273	0.164	-0.013
-494.566	101.651	-0.145	-0.168
-493.551	39.067	-0.243	-0.216
-492.537	-32.122	-0.147	0.082
-491.522	27.091	0.100	-0.084
-490.508	149.416	0.189	-0.255
-489.493	123.559	-0.072	0.090
-488.478	800.000	0.030	-0.112
-487.464	800.000	-0.091	-0.268
-486.449	-84.293	-0.407	-0.128
-485.435	-200.000	0.014	-0.294
-484.420	-25.288	-0.172	0.101
-483.405	-200.000	-0.008	-0.066
-482.391	-65.705	0.191	0.076
-481.376	154.571	-0.100	0.136
-480.362	5.098	-0.240	-0.175
-479.347	297.344	0.045	-0.082
-478.332	151.288	0.068	-0.092
-477.318	-200.000	0.020	0.220
-476.303	-27.101	-0.089	0.052
-475.289	-130.017	-0.338	-0.046
-474.274	608.979	0.039	-0.096
-473.259	-135.609	-0.233	-0.028
-472.245	295.000	0.130	-0.236
-471.230	-99.450	-0.176	0.044
-470.216	71.233	-0.107	-0.110
-469.201	800.000	0.068	-0.227
-468.186	329.016	-0.091	-0.173
-467.172	-84.645	-0.191	-0.060
-466.157	800.000	-0.081	0.269
-465.143	-94.665	-0.335	0.090
-464.128	-200.000	-0.023	-0.118
-463.113	715.501	-0.046	-0.121
-462.099	-57.316	-0.387	-0.169
-461.084	62.282	-0.086	-0.085
-460.070	328.419	0.134	-0.255
-459.055	-136.052	-0.091	-0.011
-458.040	-200.000	-0.002	0.152
-457.026	-119.818	-0.118	-0.020
-456.011	-112.507	0.160	0.032
-454.997	-67.329	0.211	-0.082
-453.982	-120.973	0.123	0.020
-452.968	-200.000	0.002	0.025
-451.953	152.268	-0.044	0.060
-450.938	144.179	0.151	-0.201
-449.924	800.000	-0.046	0.137
-448.909	81.268	0.247	0.265
-447.895	-85.867	0.273	-0.084
-446.880	86.451	-0.082	0.089
-445.865	395.993	-0.073	-0.152
-444.851	171.815	0.136	0.194
-443.836	134.715	-0.056	0.073
-442.822	632.542	0.130	0.325
-441.807	19.433	0.155	-0.124
-440.792	-121.711	0.182	0.030
-439.778	126.648	-0.062	0.077
-438.763	-111.271	-0.295	0.060
-437.749	-6.745	0.202	-0.136
-436.734	165.145	0.117	-0.164
-435.719	47.830	-0.051	0.047
-434.705	-200.000	-0.004	0.316
-433.690	25.827	0.244	0.201
-432.676	75.568	0.223	0.233
-431.661	2.235	-0.258	0.185
-430.646	3.910	-0.256	-0.185
-429.632	-87.154	0.173	0.052
-428.617	800.000	-0.073	0.271
-427.603	72.731	0.110	-0.114
-426.588	-81.947	-0.362	0.117
-425.573	347.808	0.078	0.153
-424.559	693.196	0.079	0.205
-423.544	800.000	0.073	0.202
-422.530	-50.508	0.178	0.083
-421.515	-22.625	-0.158	0.095
-420.500	37.712	-0.233	-0.205
-419.486	800.000	-0.058	-0.243
-418.471	438.747	-0.050	-0.108
-417.457	-60.133	0.347	0.146
-416.442	800.000	0.120	0.373
-415.428	86.168	-0.064	0.070
-414.413	101.046	0.134	0.154
-413.398	574.139	0.093	-0.226
-412.384	502.091	-0.104	-0.238
-411.369	-2.778	0.193	0.134
-410.355	-73.505	0.161	-0.058
-409.340	-19.814	0.304	0.186
-408.325	-44.902	-0.127	0.063
-407.311	-24.132	-0.141	0.084
-406.296	-106.009	0.376	0.084
-405.282	-200.000	-0.022	0.108
-404.267	-97.610	-0.279	0.072
-403.252	432.140	0.006	-0.014
-402.238	-66.356	0.077	-0.031
-401.223	84.172	-0.196	-0.212
-400.209	-200.000	-0.076	0.426
-399.194	71.279	-0.117	0.120
-398.179	54.361	-0.104	0.099
-397.165	-83.883	0.129	-0.041
-396.150	125.696	-0.306	0.383
-395.136	26.286	0.170	0.141
-394.121	9.743	-0.272	0.204
-393.106	-27.852	-0.214	-0.123
-392.092	-43.617	0.304	0.152
-391.077	344.894	-0.136	0.265
-390.063	279.664	0.073	-0.129
-389.048	800.000	0.085	-0.268
-388.033	106.746	-0.059	0.069
-387.019	-95.877	0.186	0.049
-386.004	-132.289	-0.294	-0.038
-384.990	153.917	-0.250	-0.339
-383.975	-66.128	0.189	0.074
-382.960	105.019	0.165	0.192
-381.946	-104.291	-0.115	-0.026
-380.931	-20.017	0.264	-0.161
-379.917	-31.146	0.226	-0.126
-378.902	-7.960	0.165	0.110
-377.888	-70.220	0.099	-0.037
-376.873	-186.394	-0.323	0.005
-375.858	53.088	-0.094	-0.089
-374.844	-10.266	-0.097	-0.063
-373.829	-47.436	0.211	0.101
-372.815	-200.000	0.014	0.214
-371.800	-200.000	-0.034	0.192
-370.785	-44.558	-0.194	0.096
-369.771	-55.514	-0.161	-0.071
-368.756	-5.973	-0.034	0.023
-367.742	24.141	-0.238	0.194
-366.727	156.794	0.121	-0.165
-365.712	-200.000	0.011	0.128
-364.698	-200.000	0.056	-0.269
-363.683	297.306	-0.023	-0.041
-362.669	38.840	0.117	-0.103
-361.654	742.904	-0.079	0.211
-360.639	-149.467	-0.098	-0.008
-359.625	20.650	0.092	0.074
-358.610	150.590	-0.132	0.177
-357.596	-200.000	0.018	0.149
-356.581	-60.076	0.279	-0.118
-355.566	268.934	-0.030	0.053
-354.552	800.000	-0.132	-0.379
-353.537	800.000	0.025	-0.080
-352.523	77.645	0.132	-0.139
-351.508	119.794	0.217	0.266
-350.493	83.768	0.128	0.138
-349.479	-141.611	-0.122	-0.012
-348.464	-174.985	0.129	0.004
-347.450	169.830	0.097	0.136
-346.435	-200.000	0.026	0.140
-345.420	184.418	0.104	0.152
-344.406	-30.645	-0.256	0.143
-343.391	476.820	-0.114	0.255
-342.377	-98.780	0.172	-0.043
-341.362	-200.000	-0.112	-0.543
-340.348	-58.489	0.177	-0.076
-339.333	-200.000	0.027	0.225
-338.318	-52.127	0.186	-0.085
-337.304	-124.794	0.262	-0.040
-336.289	-32.272	-0.182	0.100
-335.275	-24.462	-0.096	0.057
-334.260	236.868	-0.029	-0.047
-333.245	-99.645	-0.258	0.064
-332.231	-132.590	-0.101	-0.013
-331.216	291.239	-0.081	0.146
-330.202	151.369	0.128	0.172
-329.187	-200.000	0.022	0.173
-328.172	25.469	-0.096	0.079
-327.158	-54.387	-0.223	-0.100
-326.143	151.735	0.026	-0.036
-325.129	392.471	-0.128	0.263
-324.114	174.176	-0.071	-0.102
-323.099	-94.921	0.164	-0.044
-322.085	16.282	-0.450	-0.350
-321.070	-70.199	-0.348	0.130
-320.056	800.000	-0.017	-0.060
-319.041	-131.416	0.185	-0.024
-318.026	-200.000	0.006	-0.132
-317.012	318.271	0.134	-0.250
-315.997	13.184	0.098	0.075
-314.983	-200.000	-0.024	-0.136
-313.968	-45.733	-0.071	0.035
-312.953	-200.000	0.035	-0.325
-311.939	249.767	0.055	0.092
-310.924	-200.000	0.029	0.256
-309.910	-153.186	0.077	-0.005
-308.895	-112.337	-0.130	0.026
-307.880	49.121	-0.259	-0.240
-306.866	349.935	-0.235	-0.459
-305.851	800.000	0.034	0.114
-304.837	116.311	-0.207	-0.250
-303.822	-183.609	-0.236	0.004
-302.807	-0.675	0.150	0.105
-301.793	476.522	0.100	0.224
-300.778	-27.318	-0.174	0.100
-299.764	800.000	-0.063	-0.189
-298.749	318.795	0.011	-0.020
-297.735	-65.321	0.197	-0.078
-296.720	-200.000	-0.001	-0.061
-295.705	800.000	0.037	0.122
-294.691	-153.044	0.281	-0.020
-293.676	595.032	0.098	-0.239
-292.662	-119.515	0.085	0.015
-291.647	283.100	0.037	0.065
-290.632	800.000	0.041	0.157
-289.618	-119.318	0.219	-0.038
-288.603	-200.000	0.002	0.180
-287.589	419.548	-0.079	0.167
-286.574	-98.950	-0.222	-0.055
-285.559	258.556	-0.107	0.182
-284.545	60.441	-0.052	0.051
-283.530	-181.803	0.078	0.001
-282.516	1.577	-0.073	0.052
-281.501	-33.089	-0.356	0.195
-280.486	800.000	-0.076	0.297
-279.472	-104.927	-0.196	0.044
-278.457	-117.668	0.347	-0.062
-277.443	112.995	0.256	-0.306
-276.428	5.061	-0.142	-0.103
-275.413	6.980	-0.135	0.099
-274.399	-104.639	0.174	0.040
-273.384	200.428	-0.075	-0.114
-272.370	-134.150	0.278	-0.034
-271.355	-130.146	-0.101	-0.014
-270.340	41.518	0.205	0.183
-269.326	67.937	-0.105	0.106
-268.311	-81.928	-0.108	-0.035
-267.297	-94.372	-0.109	-0.029
-266.282	-200.000	0.003	-0.224
-265.267	317.717	0.053	0.099
-264.253	-200.000	0.009	0.244
-263.238	-85.637	-0.376	0.115
-262.224	112.660	-0.069	0.082
-261.209	-200.000	-0.007	0.058
-260.195	483.698	0.145	-0.325
-259.180	-97.383	0.249	-0.064
-258.165	-159.536	0.227	-0.012
-257.151	-121.674	-0.127	0.021
-256.136	800.000	0.072	-0.236
-255.122	-88.048	-0.272	-0.080
-254.107	800.000	0.061	0.248
-253.092	203.767	0.061	0.093
-252.078	-57.237	-0.229	0.099
-251.063	-200.000	-0.033	0.284
-250.049	-56.818	-0.437	-0.190
-249.034	-200.000	0.029	-0.276
-248.019	335.529	0.092	-0.175
-247.005	279.476	0.256	0.450
-245.990	285.869	0.210	0.373
-244.976	-138.726	-0.188	0.020
-243.961	-200.000	0.036	-0.182
-242.946	-131.817	0.210	-0.027
-241.932	-9.540	0.131	-0.086
-240.917	-96.179	0.049	-0.013
-239.903	-200.000	0.061	0.353
-238.888	-51.402	0.225	0.104
-237.873	197.743	0.054	-0.081
-236.859	-38.419	-0.276	0.143
-235.844	-129.780	-0.216	0.029
-234.830	141.100	0.241	-0.314
-233.815	39.324	-0.115	-0.101
-232.800	174.004	-0.101	-0.143
-231.786	-152.268	0.110	0.008
-230.771	22.721	0.347	-0.279
-229.757	-200.000	0.020	0.183
-228.742	-200.000	-0.056	-0.355
-227.727	223.327	0.211	0.335
-226.713	58.292	-0.090	0.087
-225.698	276.315	0.107	0.187
-224.684	-200.000	0.002	-0.034
-223.669	800.000	0.063	-0.215
-222.655	-200.000	0.029	0.161
-221.640	371.080	0.089	-0.178
-220.625	374.003	0.161	-0.322
-219.611	133.362	0.153	-0.194
-218.596	86.825	-0.166	-0.180
-217.582	121.585	0.036	-0.044
-216.567	-102.431	0.294	-0.069
-215.552	197.528	-0.185	-0.278
-214.538	128.525	0.207	-0.260
-213.523	62.892	0.323	0.318
-212.509	86.327	-0.135	0.146
-211.494	800.000	-0.039	-0.141
-210.479	45.657	0.106	-0.096
-209.465	-74.151	-0.210	0.075
-208.450	308.951	-0.088	0.161
-207.436	-71.526	0.240	0.088
-206.421	800.000	0.123	0.430
-205.406	-8.026	0.300	-0.199
-204.392	800.000	-0.141	0.421
-203.377	-172.043	-0.404	-0.013
-202.363	159.787	0.090	-0.123
-201.348	-142.728	0.202	0.019
-200.333	-19.291	0.185	0.113
-199.319	35.343	0.104	0.089
-198.304	151.357	-0.216	0.289
-197.290	800.000	-0.131	0.395
-196.275	-102.578	0.223	-0.052
-195.260	220.568	-0.176	-0.277
-194.246	571.691	-0.104	-0.248
-193.231	-167.136	-0.262	-0.010
-192.217	72.058	0.318	0.326
-191.202	187.480	-0.145	-0.213
-190.187	99.251	-0.050	0.057
-189.173	73.735	0.079	-0.081
-188.158	-97.901	0.163	0.041
-187.144	-200.000	-0.021	0.256
-186.129	100.398	0.087	-0.099
-185.114	48.209	0.179	0.165
-184.100	-126.867	-0.283	-0.041
-183.085	-22.511	0.275	-0.164
-182.071	-139.888	-0.093	0.010
-181.056	66.665	-0.163	-0.163
-180.042	264.070	0.045	-0.076
-179.027	-140.279	0.155	-0.016
-178.012	119.174	0.357	-0.434
-176.998	65.749	0.177	-0.176
-175.983	-101.582	0.240	0.057
-174.969	800.000	-0.134	-0.543
-173.954	-200.000	-0.016	-0.084
-172.939	780.978	0.103	0.277
-171.925	29.173	0.254	-0.212
-170.910	-134.003	0.184	0.022
-169.896	-200.000	-0.020	0.165
-168.881	-154.542	0.255	0.017
-167.866	800.000	-0.087	-0.367
-166.852	-71.441	0.339	-0.125
-165.837	-87.354	-0.321	-0.095
-164.823	-36.452	0.335	0.177
-163.808	-200.000	-0.013	-0.148
-162.793	224.824	-0.065	0.103
-161.779	-102.015	-0.115	0.027
-160.764	-26.550	-0.073	-0.042
-159.750	-134.225	-0.096	0.012
-158.735	-158.895	0.307	0.017
-157.720	649.718	-0.059	-0.147
-156.706	-156.308	-0.291	0.018
-155.691	-81.598	-0.110	0.035
-154.677	-49.830	0.498	0.232
-153.662	-200.000	-0.043	0.223
-152.647	-67.385	-0.082	0.032
-151.633	-95.164	0.187	-0.049
-150.618	27.508	0.097	-0.080
-149.604	30.776	-0.069	-0.058
-148.589	49.395	0.187	0.172
-147.574	-74.047	0.152	-0.054
-146.560	498.810	0.108	-0.243
-145.545	-56.898	0.119	0.051
-144.531	-108.410	0.206	0.044
-143.516	-60.351	0.118	-0.049
-142.502	231.174	0.147	-0.236
-141.487	74.292	0.063	-0.065
-140.472	-200.000	-0.018	0.326
-139.458	-122.636	0.215	0.034
-138.443	429.722	0.132	-0.280
-137.429	279.714	0.046	0.081
-136.414	561.728	-0.030	0.072
-135.399	13.109	-0.325	-0.247
-134.385	16.099	-0.057	-0.044
-133.370	13.185	-0.152	-0.115
-132.356	-103.202	0.528	0.122
-131.341	137.755	-0.198	-0.254
-130.326	-174.303	-0.081	0.002
-129.312	18.956	-0.215	0.169
-128.297	-200.000	0.029	-0.174
-127.283	376.331	0.178	0.356
-126.268	-85.662	-0.117	0.036
-125.253	-26.596	0.222	-0.128
-124.239	-54.307	-0.406	-0.181
-123.224	-200.000	0.010	0.151
-122.210	-113.056	0.359	0.070
-121.195	177.668	0.077	0.110
-120.180	305.498	-0.139	0.253
