DTS Sentinel unit serial number:	SN413079Multiplexer serial number:	ORYXHardware model number:	OX4-SRSoftware version number:	ORYX F/W v4.00 Oryx Data Collector v3.7.2.0data status	okinstallation	princeton_trtdifferential loss correction	single-endedforward channel	channel 2reverse channel	N/Adate	2019/09/11time	01:05:11forward acquisition time	60.00reverse acquisition time	0.00gamma	496.2192k internal	0.2332k external	0.2332temperature offset calibration	0.9943default loss term (dB/km)	0.3790temperature slope calibration	1.0000multiplexer offset coefficient	1.0000multiplexer slope coefficient	1.0000fibre end	0.00T internal ref (°C)	29.12T ext. ref 1 (°C)	-0.31T ext. ref 2 (°C)	23.02length (m)	temperature (°C)	Stokes	anti-Stokes-747.200	80.072	0.201	0.217
-746.185	800.000	-0.067	0.212
-745.171	250.704	-0.151	-0.258
-744.156	169.043	-0.015	-0.021
-743.142	800.000	0.034	0.113
-742.127	31.778	0.256	0.221
-741.112	-200.000	-0.009	0.233
-740.098	158.992	-0.161	0.225
-739.083	-2.124	-0.236	-0.167
-738.069	212.215	-0.101	0.160
-737.054	-200.000	0.013	-0.096
-736.039	103.692	0.256	0.303
-735.025	-76.231	-0.212	-0.075
-734.010	5.689	-0.329	-0.245
-732.996	174.994	0.119	-0.174
-731.981	-131.030	-0.144	-0.019
-730.966	33.464	-0.121	0.106
-729.952	68.801	0.092	0.094
-728.937	-2.242	0.170	-0.120
-727.923	57.222	-0.178	0.175
-726.908	-200.000	-0.045	0.345
-725.894	341.129	-0.185	-0.363
-724.879	-200.000	-0.023	0.115
-723.864	-25.472	-0.451	0.268
-722.850	178.159	-0.168	-0.246
-721.835	22.963	0.079	-0.065
-720.821	-199.621	-0.336	-0.002
-719.806	-151.913	0.146	0.011
-718.791	-23.910	-0.291	0.175
-717.777	800.000	0.108	-0.395
-716.762	-52.738	-0.176	-0.081
-715.748	181.881	0.082	0.121
-714.733	-120.799	-0.113	0.019
-713.718	800.000	0.098	-0.283
-712.704	213.516	-0.102	-0.162
-711.689	-35.028	-0.372	0.204
-710.675	-144.378	0.291	0.027
-709.660	209.517	0.115	0.181
-708.645	192.666	-0.156	-0.237
-707.631	-125.351	-0.092	-0.014
-706.616	392.557	0.080	-0.167
-705.602	96.108	0.083	-0.095
-704.587	-61.094	0.258	0.109
-703.572	715.128	-0.174	-0.464
-702.558	-98.029	-0.148	-0.038
-701.543	91.727	-0.149	-0.168
-700.529	-107.553	-0.456	-0.100
-699.514	-16.080	-0.137	-0.088
-698.499	-32.932	-0.114	-0.064
-697.485	-68.769	0.060	0.023
-696.470	-105.808	-0.150	-0.034
-695.456	-200.000	0.011	0.235
-694.441	-84.558	-0.149	0.047
-693.426	439.904	-0.072	-0.158
-692.412	-120.766	-0.175	0.030
-691.397	-99.665	0.204	0.051
-690.383	-59.996	-0.330	0.141
-689.368	113.091	-0.177	-0.215
-688.354	-101.444	0.125	-0.031
-687.339	115.669	0.190	0.233
-686.324	-150.496	-0.334	0.026
-685.310	-146.877	0.038	-0.003
-684.295	318.579	0.165	-0.314
-683.281	-200.000	-0.002	0.012
-682.266	-42.289	-0.424	0.217
-681.251	71.716	-0.187	0.195
-680.237	92.349	-0.129	0.146
-679.222	57.870	-0.064	0.063
-678.208	-70.334	0.333	-0.127
-677.193	800.000	0.034	0.118
-676.178	-200.000	0.048	-0.218
-675.164	441.157	0.054	-0.120
-674.149	-200.000	0.041	0.278
-673.135	800.000	0.087	-0.244
-672.120	-109.520	-0.185	-0.039
-671.105	-200.000	-0.005	0.025
-670.091	800.000	0.065	0.250
-669.076	-97.863	0.139	-0.036
-668.062	-62.768	0.116	-0.048
-667.047	54.586	-0.099	-0.095
-666.032	78.377	0.167	-0.179
-665.018	-132.992	-0.311	-0.040
-664.003	-200.000	-0.009	0.220
-662.989	-200.000	-0.040	-0.262
-661.974	-200.000	-0.042	-0.391
-660.959	-51.410	0.522	-0.245
-659.945	-31.214	0.098	-0.055
-658.930	772.637	-0.080	-0.219
-657.916	41.911	0.221	0.201
-656.901	55.761	0.158	0.154
-655.886	-98.010	-0.177	-0.046
-654.872	109.428	-0.082	-0.098
-653.857	-200.000	0.047	-0.245
-652.843	-200.000	-0.001	0.433
-651.828	123.257	0.057	0.072
-650.814	-64.696	0.117	-0.048
-649.799	-90.699	0.133	-0.039
-648.784	-141.612	-0.103	-0.010
-647.770	-53.472	0.235	0.108
-646.755	-89.027	0.060	-0.018
-645.741	-200.000	-0.046	-0.279
-644.726	247.016	0.166	-0.281
-643.711	77.388	-0.047	-0.050
-642.697	88.628	0.048	-0.053
-641.682	-108.732	-0.258	0.055
-640.668	-35.056	-0.256	-0.140
-639.653	-200.000	0.029	0.280
-638.638	-166.079	-0.115	0.005
-637.624	-56.189	0.356	0.159
-636.609	800.000	0.093	0.287
-635.595	-2.260	-0.310	-0.218
-634.580	800.000	-0.079	-0.319
-633.565	132.221	-0.103	-0.132
-632.551	247.376	-0.194	-0.329
-631.536	-21.166	0.143	-0.088
-630.522	-200.000	-0.076	-0.349
-629.507	800.000	-0.049	-0.160
-628.492	-51.974	-0.143	0.067
-627.478	-135.333	0.319	-0.038
-626.463	-37.789	-0.344	-0.184
-625.449	800.000	-0.013	0.056
-624.434	-111.804	-0.202	-0.041
-623.419	-15.066	-0.257	0.165
-622.405	-131.432	-0.244	-0.032
-621.390	-92.495	0.331	-0.093
-620.376	800.000	-0.070	-0.232
-619.361	-19.686	-0.246	0.152
-618.346	58.612	0.029	-0.028
-617.332	348.354	-0.176	-0.348
-616.317	206.777	0.077	0.119
-615.303	-200.000	0.037	-0.200
-614.288	57.516	0.272	-0.266
-613.273	734.639	-0.130	-0.348
-612.259	80.323	0.153	-0.165
-611.244	-122.145	-0.042	-0.007
-610.230	-200.000	0.023	-0.446
-609.215	192.822	0.259	-0.391
-608.201	44.288	0.277	0.254
-607.186	82.609	-0.112	0.122
-606.171	-8.181	0.170	0.115
-605.157	630.353	0.122	0.308
-604.142	-25.185	-0.170	0.101
-603.128	-198.284	0.043	-0.000
-602.113	-200.000	-0.002	-0.281
-601.098	-138.150	-0.265	0.029
-600.084	-194.314	-0.240	0.002
-599.069	800.000	-0.066	0.227
-598.055	447.532	-0.102	0.224
-597.040	707.753	-0.225	0.594
-596.025	9.285	0.087	-0.066
-595.011	-181.322	0.389	-0.008
-593.996	31.710	0.089	0.077
-592.982	-79.953	0.224	-0.075
-591.967	-29.322	0.099	-0.056
-590.952	-70.591	-0.139	0.053
-589.938	139.176	0.190	0.249
-588.923	38.958	0.163	0.146
-587.909	800.000	-0.016	-0.055
-586.894	124.406	0.293	-0.369
-585.879	352.248	0.034	0.067
-584.865	71.784	0.110	-0.115
-583.850	800.000	0.056	-0.210
-582.836	502.985	0.114	0.263
-581.821	41.275	0.047	-0.042
-580.806	-71.203	-0.399	-0.150
-579.792	800.000	0.046	0.145
-578.777	-56.459	0.253	0.112
-577.763	371.784	0.126	0.256
-576.748	41.858	0.239	-0.216
-575.733	800.000	-0.050	0.140
-574.719	634.522	-0.127	0.322
-573.704	440.303	-0.175	0.382
-572.690	-47.383	0.230	0.112
-571.675	-187.796	0.387	0.005
-570.661	145.145	0.051	-0.068
-569.646	-137.546	0.179	-0.020
-568.631	-157.905	0.104	0.006
-567.617	-95.796	-0.185	0.049
-566.602	-58.120	-0.236	0.103
-565.588	-104.200	0.103	0.024
-564.573	114.480	-0.166	0.203
-563.558	-200.000	0.014	-0.065
-562.544	-200.000	-0.034	-0.184
-561.529	435.879	-0.077	0.168
-560.515	-199.111	-0.229	0.001
-559.500	-200.000	-0.026	-0.237
-558.485	-93.623	-0.301	-0.083
-557.471	174.113	0.134	-0.193
-556.456	235.934	0.011	-0.018
-555.442	32.286	-0.104	-0.090
-554.427	-112.818	0.362	0.072
-553.412	26.341	0.107	-0.089
-552.398	-200.000	0.038	-0.276
-551.383	-94.242	-0.228	0.062
-550.369	-72.988	0.057	0.021
-549.354	65.290	-0.258	-0.261
-548.339	-200.000	0.045	0.200
-547.325	138.274	0.065	0.085
-546.310	225.993	-0.120	-0.194
-545.296	77.311	0.086	0.092
-544.281	97.283	-0.242	-0.277
-543.266	16.060	-0.201	-0.158
-542.252	-78.596	-0.224	0.076
-541.237	-45.384	-0.197	-0.098
-540.223	-119.713	-0.079	0.014
-539.208	53.556	-0.238	-0.228
-538.193	225.758	-0.127	0.206
-537.179	-90.072	0.106	0.031
-536.164	-116.697	-0.316	-0.058
-535.150	-87.866	0.157	0.047
-534.135	218.063	0.023	-0.036
-533.121	58.523	0.139	-0.136
-532.106	202.535	-0.149	0.230
-531.091	31.600	-0.093	-0.080
-530.077	159.122	-0.130	-0.180
-529.062	-200.000	-0.034	-0.193
-528.048	-100.430	-0.269	-0.067
-527.033	800.000	-0.107	0.351
-526.018	40.571	0.204	0.183
-525.004	-87.235	-0.300	-0.091
-523.989	-65.526	0.176	0.070
-522.975	-66.573	-0.466	-0.184
-521.960	-52.876	0.284	0.131
-520.945	194.917	-0.137	0.208
-519.931	29.006	0.290	0.246
-518.916	156.125	0.177	0.243
-517.902	0.250	0.065	0.046
-516.887	-200.000	-0.036	-0.270
-515.872	67.005	-0.177	-0.180
-514.858	-200.000	0.053	0.321
-513.843	59.956	-0.132	0.130
-512.829	-200.000	0.016	0.094
-511.814	-58.589	0.114	-0.049
-510.799	-161.138	-0.180	0.009
-509.785	-177.639	0.255	-0.006
-508.770	-200.000	0.055	0.256
-507.756	800.000	-0.063	-0.259
-506.741	-200.000	-0.015	-0.112
-505.726	-165.784	0.263	0.011
-504.712	800.000	-0.157	0.499
-503.697	15.167	0.182	0.142
-502.683	-100.917	-0.350	-0.086
-501.668	624.020	0.069	-0.173
-500.653	-84.832	0.443	-0.139
-499.639	194.328	-0.135	-0.204
-498.624	365.723	-0.171	0.343
-497.610	-15.494	-0.212	-0.135
-496.595	800.000	0.010	0.041
-495.581	-152.695	-0.099	0.007
-494.566	-132.945	-0.212	0.027
-493.551	148.147	0.210	0.282
-492.537	-200.000	0.040	-0.355
-491.522	-128.825	0.258	0.036
-490.508	-165.311	-0.116	0.005
-489.493	9.980	-0.300	-0.227
-488.478	38.895	0.049	0.043
-487.464	106.608	0.221	-0.261
-486.449	-85.072	0.300	0.094
-485.435	256.426	0.305	-0.522
-484.420	264.094	-0.167	-0.289
-483.405	-156.906	-0.378	-0.023
-482.391	269.586	-0.156	0.272
-481.376	479.180	-0.036	0.081
-480.362	0.808	0.295	0.210
-479.347	-200.000	-0.055	-0.802
-478.332	-161.650	0.201	0.010
-477.318	-200.000	-0.003	0.253
-476.303	536.786	0.109	-0.257
-475.289	-93.695	-0.341	-0.094
-474.274	-128.827	0.126	0.018
-473.259	158.483	-0.127	0.175
-472.245	-95.024	-0.180	0.049
-471.230	-88.919	-0.264	-0.078
-470.216	-42.832	-0.294	-0.149
-469.201	-51.731	0.268	-0.124
-468.186	170.482	-0.106	0.151
-467.172	-55.524	0.213	-0.095
-466.157	43.421	-0.206	0.187
-465.143	-22.301	-0.228	0.137
-464.128	194.463	-0.180	0.271
-463.113	-56.024	-0.463	0.205
-462.099	-23.730	0.161	-0.096
-461.084	-119.202	0.165	0.029
-460.070	-143.311	0.303	-0.029
-459.055	117.810	-0.253	-0.310
-458.040	79.481	-0.143	-0.153
-457.026	-200.000	0.008	-0.087
-456.011	-89.336	0.192	-0.056
-454.997	-81.291	-0.161	0.053
-453.982	552.962	-0.166	-0.396
-452.968	-200.000	-0.006	0.045
-451.953	-200.000	0.017	-0.089
-450.938	-200.000	0.029	-0.281
-449.924	-200.000	0.030	-0.286
-448.909	73.741	-0.098	-0.102
-447.895	271.053	0.103	-0.180
-446.880	800.000	0.034	0.115
-445.865	800.000	0.023	0.081
-444.851	158.819	-0.182	0.252
-443.836	90.727	-0.058	0.064
-442.822	728.966	-0.107	-0.284
-441.807	-100.417	-0.226	-0.056
-440.792	-200.000	0.032	0.175
-439.778	79.522	-0.174	0.186
-438.763	25.965	-0.084	-0.070
-437.749	178.653	0.043	-0.063
-436.734	-200.000	-0.008	-0.200
-435.719	-96.329	0.198	-0.052
-434.705	21.033	-0.335	0.270
-433.690	-200.000	0.019	0.296
-432.676	-111.716	0.089	0.018
-431.661	-82.467	-0.049	0.016
-430.646	-163.152	0.131	0.006
-429.632	-200.000	0.042	-0.231
-428.617	-200.000	0.055	0.244
-427.603	-200.000	-0.023	0.135
-426.588	800.000	-0.059	0.187
-425.573	-67.561	0.348	0.136
-424.559	-116.093	-0.213	-0.039
-423.544	731.066	-0.197	-0.524
-422.530	71.804	-0.274	-0.283
-421.515	-77.338	0.223	0.077
-420.500	115.809	-0.041	0.050
-419.486	-200.000	-0.031	0.190
-418.471	98.951	-0.072	-0.082
-417.457	31.231	0.167	0.142
-416.442	-98.262	0.208	0.053
-415.428	-200.000	-0.025	0.113
-414.413	296.780	0.130	-0.237
-413.398	-12.596	-0.201	-0.130
-412.384	-5.348	0.059	-0.040
-411.369	-10.607	-0.310	0.204
-410.355	14.992	0.120	-0.093
-409.340	644.832	0.079	0.200
-408.325	-135.354	-0.306	0.036
-407.311	-28.389	-0.162	0.093
-406.296	-148.914	0.147	-0.012
-405.282	-200.000	-0.019	0.285
-404.267	-31.622	0.018	0.010
-403.252	-96.186	0.431	0.113
-402.238	-31.822	-0.132	-0.074
-401.223	-126.822	-0.335	0.049
-400.209	43.420	-0.196	0.177
-399.194	17.255	0.393	-0.309
-398.179	-154.093	-0.054	-0.004
-397.165	800.000	-0.009	0.031
-396.150	51.575	0.099	-0.093
-395.136	800.000	0.090	0.283
-394.121	800.000	0.017	0.069
-393.106	-74.347	-0.262	-0.094
-392.092	108.678	0.064	-0.076
-391.077	404.984	0.048	0.101
-390.063	-32.645	0.071	0.039
-389.048	30.956	-0.062	-0.053
-388.033	-200.000	-0.025	0.178
-387.019	-47.183	-0.311	0.150
-386.004	780.021	0.127	0.345
-384.990	-76.850	-0.212	-0.074
-383.975	145.477	0.022	-0.030
-382.960	800.000	-0.063	0.175
-381.946	132.692	0.184	0.235
-380.931	-172.125	-0.046	-0.001
-379.917	-200.000	0.070	-0.426
-378.902	287.232	-0.180	0.323
-377.888	800.000	0.045	0.135
-376.873	800.000	-0.064	-0.260
-375.858	-174.964	-0.087	0.002
-374.844	-22.090	-0.171	-0.103
-373.829	800.000	-0.062	-0.178
-372.815	-60.224	0.283	0.120
-371.800	-54.219	0.059	0.027
-370.785	800.000	0.030	-0.104
-369.771	-144.914	0.158	0.014
-368.756	-200.000	0.019	0.318
-367.742	222.505	0.127	-0.203
-366.727	800.000	-0.032	0.103
-365.712	-80.592	-0.151	0.050
-364.698	-10.385	0.125	0.082
-363.683	-171.020	0.377	-0.013
-362.669	-86.696	-0.480	0.145
-361.654	191.997	-0.060	0.089
-360.639	-170.218	0.318	0.011
-359.625	-170.838	0.089	0.003
-358.610	800.000	0.060	-0.222
-357.596	587.618	-0.028	-0.069
-356.581	800.000	0.050	-0.182
-355.566	-200.000	-0.047	-0.211
-354.552	209.082	0.142	0.220
-353.537	411.375	-0.098	0.206
-352.523	800.000	0.083	-0.307
-351.508	339.582	0.076	-0.146
-350.493	800.000	0.068	-0.267
-349.479	-200.000	0.028	-0.169
-348.464	-135.890	-0.471	0.055
-347.450	77.422	-0.216	0.228
-346.435	4.749	0.161	0.117
-345.420	-159.838	0.149	-0.008
-344.406	800.000	-0.085	0.234
-343.391	661.340	0.070	0.179
-342.377	-133.962	-0.141	-0.017
-341.362	-200.000	0.039	-0.301
-340.348	651.862	-0.059	0.149
-339.333	156.448	0.148	-0.202
-338.318	143.178	-0.063	0.083
-337.304	-63.374	-0.092	0.038
-336.289	536.326	-0.075	-0.175
-335.275	800.000	-0.078	-0.323
-334.260	111.284	-0.335	-0.400
-333.245	-59.429	0.050	-0.021
-332.231	-60.061	0.219	0.093
-331.216	-200.000	-0.006	0.402
-330.202	-153.027	0.232	-0.016
-329.187	89.792	-0.229	0.253
-328.172	-49.176	0.080	0.038
-327.158	-109.065	0.232	0.049
-326.143	-200.000	-0.047	-0.292
-325.129	216.168	0.150	0.236
-324.114	656.514	-0.034	-0.086
-323.099	-41.699	0.021	0.011
-322.085	-51.182	-0.113	-0.052
-321.070	429.803	0.163	0.349
-320.056	27.072	0.112	-0.093
-319.041	79.466	0.073	-0.078
-318.026	458.790	0.110	-0.241
-317.012	-173.694	0.089	-0.003
-315.997	800.000	-0.095	-0.270
-314.983	60.770	0.241	0.236
-313.968	-200.000	-0.044	0.516
-312.953	800.000	-0.052	0.213
-311.939	42.404	0.169	-0.152
-310.924	257.338	-0.223	0.379
-309.910	198.531	-0.284	-0.429
-308.895	418.737	-0.038	-0.080
-307.880	35.939	0.149	-0.130
-306.866	-37.906	-0.117	-0.062
-305.851	203.362	-0.108	-0.165
-304.837	800.000	0.019	-0.074
-303.822	251.511	0.061	-0.102
-302.807	365.512	0.083	0.166
-301.793	-69.690	0.100	0.038
-300.778	-93.255	-0.127	0.035
-299.764	-66.834	0.058	0.023
-298.749	-141.774	0.521	-0.052
-297.735	662.002	0.179	-0.457
-296.720	-77.402	0.166	0.057
-295.705	-86.592	-0.149	0.045
-294.691	-147.898	-0.073	-0.006
-293.676	-37.441	0.260	0.137
-292.662	68.728	0.225	0.228
-291.647	800.000	0.091	0.318
-290.632	-68.910	-0.128	0.049
-289.618	-200.000	-0.001	-0.185
-288.603	138.588	-0.056	-0.073
-287.589	18.897	0.087	0.069
-286.574	104.791	0.130	-0.151
-285.559	-88.745	-0.176	0.052
-284.545	-112.049	-0.179	-0.036
-283.530	12.623	0.108	0.082
-282.516	-8.269	0.083	0.055
-281.501	265.521	0.062	-0.107
-280.486	-136.500	0.123	0.014
-279.472	-63.588	0.360	0.146
-278.457	276.166	-0.152	-0.266
-277.443	0.104	0.338	-0.238
-276.428	3.640	0.150	-0.108
-275.413	-89.105	-0.076	-0.022
-274.399	-200.000	-0.007	0.049
-273.384	122.996	0.093	-0.115
-272.370	17.330	0.164	-0.129
-271.355	76.894	0.262	0.275
-270.340	492.272	-0.057	0.129
-269.326	162.642	-0.198	-0.274
-268.311	-200.000	-0.045	0.249
-267.297	-149.298	-0.219	0.017
-266.282	776.297	-0.060	-0.163
-265.267	-200.000	-0.026	-0.251
-264.253	800.000	0.062	-0.178
-263.238	-200.000	0.016	0.194
-262.224	-84.698	-0.131	-0.041
-261.209	171.934	-0.253	0.359
-260.195	47.205	0.128	0.118
-259.180	200.701	0.129	-0.196
-258.165	-111.715	0.164	-0.033
-257.151	-200.000	0.027	0.204
-256.136	-42.993	0.288	-0.144
-255.122	-200.000	-0.046	-0.240
-254.107	-155.637	0.163	-0.010
-253.092	800.000	0.115	-0.417
-252.078	-143.317	0.156	0.015
-251.063	178.008	-0.293	0.421
-250.049	-50.368	0.118	-0.055
-249.034	-99.418	0.326	0.081
-248.019	-24.987	0.253	0.148
-247.005	-200.000	-0.022	-0.202
-245.990	241.905	-0.168	-0.276
-244.976	481.245	0.137	0.306
-243.961	-200.000	0.087	0.397
-242.946	545.036	-0.161	0.379
-241.932	-102.770	0.284	-0.067
-240.917	-57.804	-0.189	0.082
-239.903	800.000	-0.082	-0.225
-238.888	-200.000	-0.011	-0.102
-237.873	-200.000	-0.046	0.277
-236.859	-141.567	-0.110	0.011
-235.844	800.000	-0.032	-0.133
-234.830	206.619	-0.083	0.128
-233.815	800.000	0.025	-0.084
-232.800	800.000	-0.048	0.173
-231.786	-57.031	-0.169	-0.074
-230.771	-26.216	0.218	0.126
-229.757	154.062	0.144	0.195
-228.742	18.017	0.304	-0.239
-227.727	-200.000	0.007	-0.286
-226.713	80.000	0.166	0.176
-225.698	97.066	-0.268	-0.303
-224.684	-53.487	-0.193	-0.087
-223.669	-200.000	0.021	0.106
-222.655	-53.371	-0.162	0.073
-221.640	49.780	0.044	0.041
-220.625	244.923	-0.152	-0.252
-219.611	-11.145	-0.335	0.218
-218.596	7.833	0.055	0.041
-217.582	24.681	0.023	0.018
-216.567	-200.000	-0.007	0.117
-215.552	64.858	0.046	-0.046
-214.538	204.584	0.143	-0.218
-213.523	-200.000	0.054	0.233
-212.509	800.000	0.100	0.318
-211.494	-200.000	0.025	0.293
-210.479	-101.505	0.287	0.069
-209.465	21.102	0.166	-0.133
-208.450	-200.000	-0.084	0.394
-207.436	-21.718	-0.130	0.078
-206.421	296.643	0.090	-0.163
-205.406	-80.081	-0.223	-0.074
-204.392	148.420	0.301	-0.401
-203.377	-200.000	-0.093	-0.469
-202.363	-200.000	-0.046	-0.324
-201.348	-200.000	-0.054	0.295
-200.333	282.264	-0.084	-0.148
-199.319	-200.000	-0.017	-0.340
-198.304	-200.000	-0.085	0.462
-197.290	-91.270	0.215	0.061
-196.275	-89.211	-0.272	-0.079
-195.260	-115.848	-0.218	-0.040
-194.246	800.000	0.108	0.295
-193.231	237.300	0.171	0.279
-192.217	219.111	0.102	-0.160
-191.202	-17.855	-0.028	-0.017
-190.187	800.000	-0.109	-0.363
-189.173	800.000	0.071	0.208
-188.158	324.298	-0.171	0.322
-187.144	157.286	0.098	0.133
-186.129	-74.528	0.483	-0.171
-185.114	-8.955	-0.178	0.117
-184.100	-12.444	-0.194	0.125
-183.085	-12.296	-0.022	-0.014
-182.071	-200.000	-0.011	0.222
-181.056	6.607	-0.220	0.161
-180.042	-200.000	0.048	-0.238
-179.027	-161.780	0.343	-0.017
-178.012	-146.307	0.296	-0.025
-176.998	573.163	-0.048	0.116
-175.983	-8.918	0.066	0.044
-174.969	376.022	-0.137	0.276
-173.954	341.022	0.148	0.285
-172.939	129.507	-0.160	0.201
-171.925	90.784	0.204	0.225
-170.910	75.275	-0.126	-0.131
-169.896	-97.294	0.305	0.078
-168.881	-200.000	0.036	-0.236
-167.866	-138.288	-0.175	0.019
-166.852	303.310	-0.124	0.225
-165.837	112.179	0.074	0.088
-164.823	300.175	-0.063	-0.115
-163.808	138.079	0.188	0.242
-162.793	-94.035	-0.427	0.115
-161.779	126.487	-0.232	0.289
-160.764	-200.000	0.013	0.078
-159.750	-4.099	-0.224	0.153
-158.735	9.488	0.187	0.139
-157.720	-141.675	0.431	0.043
-156.706	-184.974	-0.332	-0.005
-155.691	176.340	0.165	-0.236
-154.677	-200.000	-0.021	-0.273
-153.662	-45.630	0.134	-0.065
-152.647	-122.269	0.161	-0.026
-151.633	199.963	-0.046	0.070
-150.618	205.244	0.085	-0.130
-149.604	13.881	-0.048	-0.037
-148.589	-87.522	-0.227	-0.068
-147.574	-29.808	-0.486	0.272
-146.560	-152.701	0.347	-0.024
-145.545	-200.000	-0.013	0.261
-144.531	316.511	0.049	-0.092
-143.516	-84.127	0.281	0.088
-142.502	-200.000	0.025	-0.156
-141.487	-22.109	0.212	-0.126
-140.472	-200.000	0.018	-0.079
-139.458	-120.151	0.170	0.028
-138.443	-65.992	-0.299	-0.117
-137.429	800.000	-0.037	-0.127
-136.414	800.000	0.055	-0.187
-135.399	-47.133	0.156	0.075
-134.385	-200.000	-0.002	0.338
-133.370	-45.712	-0.351	0.170
-132.356	81.470	-0.179	-0.190
-131.341	-103.596	-0.285	-0.066
-130.326	-60.123	0.217	0.091
-129.312	-32.232	0.424	-0.233
-128.297	-103.573	-0.356	0.082
-127.283	-200.000	-0.009	0.482
-126.268	45.980	-0.078	-0.071
-125.253	38.286	-0.086	-0.075
-124.239	-124.656	0.181	0.027
-123.224	471.220	0.097	0.214
-122.210	188.684	-0.059	0.087
-121.195	333.945	-0.122	0.232
