DTS Sentinel unit serial number:	SN413079Multiplexer serial number:	ORYXHardware model number:	OX4-SRSoftware version number:	ORYX F/W v4.00 Oryx Data Collector v3.7.2.0data status	okinstallation	princeton_trtdifferential loss correction	single-endedforward channel	channel 2reverse channel	N/Adate	2019/09/11time	12:41:10forward acquisition time	60.00reverse acquisition time	0.00gamma	496.2192k internal	0.2295k external	0.2295temperature offset calibration	0.9964default loss term (dB/km)	0.3790temperature slope calibration	1.0000multiplexer offset coefficient	1.0000multiplexer slope coefficient	1.0000fibre end	0.00T internal ref (°C)	40.87T ext. ref 1 (°C)	0.23T ext. ref 2 (°C)	38.68length (m)	temperature (°C)	Stokes	anti-Stokes-747.200	28.551	0.192	0.166
-746.185	84.303	0.068	-0.076
-745.171	-112.237	0.097	0.020
-744.156	-20.380	-0.356	0.224
-743.142	419.266	0.069	0.150
-742.127	12.574	-0.111	0.087
-741.112	128.516	-0.122	-0.158
-740.098	800.000	-0.087	0.268
-739.083	-55.298	0.380	0.174
-738.069	-29.209	-0.229	0.134
-737.054	1.590	-0.273	0.201
-736.039	800.000	-0.043	-0.167
-735.025	800.000	-0.057	0.181
-734.010	23.739	-0.265	0.223
-732.996	6.287	-0.277	0.210
-731.981	-70.277	-0.448	-0.174
-730.966	-105.047	-0.177	-0.041
-729.952	391.267	0.160	-0.339
-728.937	-44.578	-0.227	0.116
-727.923	-175.955	-0.305	-0.008
-726.908	800.000	-0.032	-0.103
-725.894	5.911	0.140	0.106
-724.879	402.090	0.023	-0.050
-723.864	-56.963	0.098	-0.044
-722.850	-14.923	-0.074	0.048
-721.835	-200.000	-0.050	-0.266
-720.821	87.721	-0.128	-0.145
-719.806	75.483	-0.176	-0.190
-718.791	116.364	-0.172	-0.215
-717.777	-200.000	0.037	-0.327
-716.762	308.952	-0.143	-0.274
-715.748	-60.091	0.093	-0.041
-714.733	727.461	0.142	-0.386
-713.718	-77.815	0.299	-0.105
-712.704	-45.902	0.053	0.027
-711.689	-126.392	0.093	-0.014
-710.675	800.000	-0.094	0.373
-709.660	-58.611	-0.049	0.022
-708.645	38.648	-0.114	0.104
-707.631	-12.130	0.240	-0.160
-706.616	634.256	-0.102	-0.264
-705.602	-127.797	-0.211	0.031
-704.587	-62.865	-0.340	0.144
-703.572	-200.000	-0.013	-0.102
-702.558	15.700	-0.188	0.151
-701.543	800.000	0.045	0.181
-700.529	-200.000	-0.022	0.153
-699.514	-111.554	0.126	0.026
-698.499	-200.000	-0.016	-0.233
-697.485	-26.063	-0.120	-0.072
-696.470	-67.021	-0.049	-0.020
-695.456	163.502	0.102	0.147
-694.441	137.999	0.213	-0.284
-693.426	473.420	-0.022	-0.049
-692.412	-19.850	-0.086	-0.054
-691.397	168.941	-0.065	-0.095
-690.383	800.000	0.099	-0.298
-689.368	47.959	-0.221	-0.211
-688.354	-131.512	-0.124	-0.017
-687.339	133.612	0.227	-0.299
-686.324	-200.000	0.005	-0.243
-685.310	-116.045	0.070	-0.013
-684.295	-200.000	-0.102	0.457
-683.281	183.466	0.092	0.139
-682.266	-200.000	0.024	-0.174
-681.251	-48.362	-0.037	-0.018
-680.237	415.940	-0.076	0.166
-679.222	-90.167	-0.135	-0.040
-678.208	-200.000	-0.040	0.230
-677.193	-52.165	0.029	0.014
-676.178	197.995	-0.121	-0.189
-675.164	61.402	-0.152	0.154
-674.149	68.421	-0.217	-0.227
-673.135	575.430	-0.183	0.456
-672.120	25.544	0.146	-0.124
-671.105	70.618	-0.179	-0.189
-670.091	-126.598	-0.150	0.023
-669.076	164.819	0.061	0.088
-668.062	-37.721	-0.310	-0.168
-667.047	-200.000	-0.035	0.166
-666.032	172.551	-0.252	-0.370
-665.018	-200.000	0.038	-0.374
-664.003	24.580	0.154	0.130
-662.989	187.423	0.121	0.185
-661.974	-138.238	0.354	-0.040
-660.959	444.469	0.038	0.085
-659.945	-76.194	-0.087	-0.031
-658.930	-165.918	0.285	0.012
-657.916	154.926	0.049	0.069
-656.901	-31.706	0.177	0.101
-655.886	122.596	-0.087	-0.111
-654.872	-89.941	-0.258	-0.077
-653.857	-16.458	-0.086	0.056
-652.843	-10.273	-0.219	-0.148
-651.828	800.000	-0.153	-0.485
-650.814	428.556	0.196	-0.431
-649.799	-26.754	-0.086	-0.051
-648.784	-142.581	0.207	0.021
-647.770	-40.570	-0.095	0.050
-646.755	-169.122	-0.188	0.007
-645.741	-72.466	0.072	-0.027
-644.726	14.470	0.126	0.100
-643.711	-200.000	0.064	-0.391
-642.697	-200.000	-0.041	-0.264
-641.682	-131.564	-0.020	-0.003
-640.668	-155.472	-0.381	0.025
-639.653	230.648	-0.086	-0.144
-638.638	-19.073	-0.261	-0.165
-637.624	10.561	0.166	-0.129
-636.609	60.665	-0.255	0.257
-635.595	-129.303	-0.328	-0.046
-634.580	66.157	-0.281	-0.290
-633.565	-47.150	0.123	0.061
-632.551	-107.134	-0.346	-0.078
-631.536	107.904	-0.104	-0.126
-630.522	-114.795	0.136	0.026
-629.507	800.000	0.077	-0.320
-628.492	-7.910	-0.153	0.105
-627.478	276.316	-0.017	-0.031
-626.463	175.704	-0.078	0.115
-625.449	48.802	-0.219	-0.209
-624.434	209.052	0.089	-0.142
-623.419	-143.813	-0.139	0.013
-622.405	-114.354	-0.071	0.014
-621.390	-105.636	-0.307	0.071
-620.376	-79.208	-0.300	0.103
-619.361	-179.750	-0.285	0.006
-618.346	7.093	-0.054	0.041
-617.332	-172.506	-0.379	0.012
-616.317	800.000	-0.071	0.244
-615.303	-11.506	-0.229	-0.153
-614.288	-200.000	0.009	0.113
-613.273	31.987	0.056	-0.049
-612.259	-200.000	-0.037	0.445
-611.244	-26.730	0.243	0.145
-610.230	-11.413	0.168	-0.113
-609.215	-56.074	-0.110	0.050
-608.201	-48.448	0.267	-0.131
-607.186	-85.270	0.381	0.121
-606.171	15.437	0.248	-0.198
-605.157	-200.000	0.005	-0.072
-604.142	-132.133	-0.178	-0.024
-603.128	658.739	0.063	-0.164
-602.113	243.428	0.039	-0.067
-601.098	27.305	0.053	-0.045
-600.084	-69.870	-0.155	0.060
-599.069	-19.216	0.221	0.139
-598.055	-200.000	0.033	0.163
-597.040	-29.077	-0.225	0.131
-596.025	73.304	-0.044	0.047
-595.011	147.415	0.308	-0.421
-593.996	45.315	0.068	-0.064
-592.982	-18.624	-0.062	-0.039
-591.967	120.080	0.117	-0.148
-590.952	50.620	-0.082	-0.079
-589.938	-36.779	-0.372	-0.203
-588.923	342.960	0.055	-0.109
-587.909	170.141	-0.155	-0.225
-586.894	-200.000	-0.007	0.266
-585.879	7.396	0.147	0.111
-584.865	-1.780	-0.034	0.024
-583.850	-33.878	0.033	-0.018
-582.836	120.148	-0.164	0.207
-581.821	-14.853	0.285	0.186
-580.806	384.014	-0.062	-0.130
-579.792	226.879	-0.102	-0.168
-578.777	-24.073	0.143	-0.086
-577.763	-84.355	0.126	-0.041
-576.748	-2.096	0.042	-0.030
-575.733	-33.507	-0.343	-0.192
-574.719	-200.000	0.035	-0.230
-573.704	56.039	-0.214	0.211
-572.690	19.017	0.212	0.173
-571.675	-200.000	-0.001	0.119
-570.661	-200.000	-0.006	-0.217
-569.646	0.798	0.319	-0.232
-568.631	-100.515	0.036	-0.009
-567.617	493.460	0.117	0.273
-566.602	151.599	-0.082	0.114
-565.588	-32.394	-0.144	0.082
-564.573	-110.515	0.310	0.065
-563.558	-164.876	0.248	0.011
-562.544	225.920	-0.085	-0.139
-561.529	800.000	0.076	0.291
-560.515	-200.000	-0.036	0.172
-559.500	141.789	-0.160	-0.215
-558.485	19.159	0.042	-0.034
-557.471	147.820	-0.106	0.145
-556.456	102.223	-0.177	0.210
-555.442	76.300	-0.158	-0.170
-554.427	-200.000	0.054	0.410
-553.412	-200.000	0.060	-0.282
-552.398	206.194	-0.068	-0.107
-551.383	-103.663	0.270	0.064
-550.369	800.000	0.044	0.149
-549.354	800.000	-0.032	0.114
-548.339	-31.249	0.118	-0.067
-547.325	-98.983	0.218	-0.056
-546.310	-118.526	-0.372	-0.067
-545.296	-182.843	0.040	-0.001
-544.281	-200.000	-0.040	0.208
-543.266	800.000	-0.031	0.122
-542.252	-200.000	-0.042	0.210
-541.237	-19.440	0.197	0.124
-540.223	-84.025	0.107	0.034
-539.208	-35.742	-0.098	-0.054
-538.193	-200.000	0.073	0.368
-537.179	-110.313	-0.204	-0.043
-536.164	33.981	-0.176	-0.156
-535.150	175.712	0.227	0.333
-534.135	-170.674	-0.299	-0.010
-533.121	-200.000	-0.003	-0.052
-532.106	800.000	-0.134	0.429
-531.091	243.398	0.175	0.298
-530.077	800.000	-0.077	0.238
-529.062	-128.734	0.329	0.047
-528.048	136.662	0.228	-0.301
-527.033	-172.973	-0.076	0.002
-526.018	-133.809	0.376	-0.047
-525.004	-179.592	0.053	-0.001
-523.989	75.717	-0.151	0.162
-522.975	61.721	-0.112	-0.113
-521.960	-126.794	-0.229	0.034
-520.945	-68.233	0.085	-0.034
-519.931	-35.684	0.123	-0.067
-518.916	-200.000	-0.019	-0.250
-517.902	428.866	-0.120	0.264
-516.887	-200.000	-0.014	0.261
-515.872	144.454	0.102	-0.137
-514.858	-91.415	0.069	0.020
-513.843	-58.091	-0.194	0.086
-512.829	-200.000	0.016	0.108
-511.814	-200.000	0.024	0.248
-510.799	118.399	-0.227	-0.283
-509.785	566.712	0.027	0.067
-508.770	-192.720	-0.318	-0.003
-507.756	-200.000	0.064	0.322
-506.741	-56.280	-0.122	0.055
-505.726	800.000	0.060	0.199
-504.712	92.863	0.300	-0.344
-503.697	-200.000	-0.000	-0.084
-502.683	800.000	-0.024	-0.094
-501.668	-146.912	0.277	-0.024
-500.653	-81.435	0.158	-0.053
-499.639	-200.000	0.033	0.223
-498.624	41.370	-0.296	-0.271
-497.610	800.000	-0.100	-0.292
-496.595	7.784	0.325	-0.246
-495.581	-200.000	0.025	0.189
-494.566	28.218	0.180	-0.154
-493.551	-200.000	-0.001	0.262
-492.537	18.652	-0.169	0.137
-491.522	297.546	-0.168	0.312
-490.508	-158.704	-0.363	0.021
-489.493	-200.000	0.057	0.258
-488.478	-111.426	0.350	-0.072
-487.464	216.259	0.093	0.149
-486.449	-93.054	-0.301	-0.085
-485.435	494.701	0.056	-0.131
-484.420	150.726	0.093	0.127
-483.405	64.060	0.155	0.157
-482.391	300.274	0.060	-0.112
-481.376	-200.000	-0.018	-0.216
-480.362	-200.000	-0.037	-0.391
-479.347	800.000	-0.077	0.321
-478.332	125.483	-0.120	-0.153
-477.318	561.193	-0.112	0.275
-476.303	-157.065	-0.320	0.020
-475.289	800.000	0.032	-0.096
-474.274	100.167	-0.142	-0.167
-473.259	800.000	0.064	-0.240
-472.245	-85.055	0.127	0.040
-471.230	-0.233	-0.031	-0.022
-470.216	-92.019	0.288	0.082
-469.201	143.846	0.171	0.231
-468.186	-137.368	0.097	0.011
-467.172	-200.000	-0.016	-0.225
-466.157	-140.243	0.150	-0.016
-465.143	-46.510	-0.145	-0.072
-464.128	38.293	-0.144	0.130
-463.113	11.476	0.169	-0.131
-462.099	800.000	0.041	0.180
-461.084	96.792	0.079	0.092
-460.070	81.728	0.219	-0.240
-459.055	-42.744	-0.150	0.077
-458.040	-171.654	-0.307	0.010
-457.026	44.538	0.188	0.175
-456.011	677.133	0.097	0.255
-454.997	-200.000	0.085	0.514
-453.982	262.430	0.098	-0.172
-452.968	94.732	-0.163	0.187
-451.953	-200.000	0.053	0.244
-450.938	-200.000	0.023	0.202
-449.924	-138.350	-0.240	-0.027
-448.909	16.099	0.071	0.056
-447.895	800.000	-0.070	0.282
-446.880	40.031	-0.248	-0.225
-445.865	800.000	0.052	-0.153
-444.851	-32.986	-0.005	0.003
-443.836	800.000	-0.067	-0.247
-442.822	218.003	0.236	-0.381
-441.807	1.754	-0.142	-0.104
-440.792	-89.159	-0.162	-0.048
-439.778	195.408	-0.114	-0.174
-438.763	-95.435	-0.260	0.071
-437.749	119.520	-0.107	-0.134
-436.734	348.617	0.101	0.200
-435.719	800.000	0.023	0.069
-434.705	-119.783	-0.121	-0.021
-433.690	800.000	-0.017	0.054
-432.676	-131.673	0.047	0.006
-431.661	-194.754	0.093	-0.001
-430.646	91.368	-0.146	0.166
-429.632	-145.136	-0.058	0.005
-428.617	325.348	-0.091	-0.176
-427.603	-125.668	0.350	0.053
-426.588	469.769	-0.070	-0.160
-425.573	188.345	0.230	-0.347
-424.559	-134.871	0.179	0.022
-423.544	165.465	0.144	0.205
-422.530	-20.992	0.251	-0.155
-421.515	58.487	0.137	-0.135
-420.500	-61.779	0.074	-0.031
-419.486	257.504	0.047	0.082
-418.471	28.148	0.175	0.149
-417.457	-200.000	0.045	0.210
-416.442	174.233	0.112	-0.164
-415.428	-172.805	-0.522	-0.016
-414.413	386.396	0.108	-0.226
-413.398	-200.000	-0.017	-0.467
-412.384	47.699	0.305	0.287
-411.369	485.289	0.136	0.311
-410.355	-200.000	-0.011	0.229
-409.340	-200.000	0.062	-0.324
-408.325	206.750	0.080	-0.125
-407.311	-124.567	0.220	-0.035
-406.296	-29.959	0.393	0.226
-405.282	-200.000	0.022	0.133
-404.267	48.165	-0.153	-0.144
-403.252	-200.000	-0.049	0.402
-402.238	-112.759	-0.137	-0.028
-401.223	-70.853	0.172	-0.065
-400.209	-107.878	-0.386	0.085
-399.194	-200.000	-0.014	-0.156
-398.179	-30.668	-0.096	0.055
-397.165	123.255	-0.070	-0.089
-396.150	42.406	0.132	-0.121
-395.136	45.011	0.153	-0.142
-394.121	-200.000	0.012	-0.279
-393.106	-99.961	0.222	-0.056
-392.092	-122.625	0.167	-0.027
-391.077	-62.079	0.265	0.112
-390.063	-97.245	0.199	-0.052
-389.048	800.000	0.046	0.191
-388.033	-200.000	-0.051	0.287
-387.019	3.016	-0.246	0.180
-386.004	-200.000	-0.020	-0.279
-384.990	98.162	0.100	0.116
-383.975	-101.819	-0.038	-0.009
-382.960	-13.025	0.081	0.053
-381.946	-116.181	0.343	-0.064
-380.931	160.506	0.156	0.219
-379.917	-200.000	-0.046	0.424
-378.902	-69.621	-0.221	-0.085
-377.888	770.178	0.043	-0.119
-376.873	-0.350	-0.228	-0.163
-375.858	68.909	0.085	-0.088
-374.844	-90.355	0.385	0.113
-373.829	-156.883	-0.348	0.022
-372.815	-77.792	0.258	-0.090
-371.800	683.752	-0.104	0.272
-370.785	-200.000	0.045	0.234
-369.771	-104.318	-0.144	-0.034
-368.756	67.259	0.127	0.130
-367.742	-80.799	0.174	0.058
-366.727	800.000	-0.073	-0.248
-365.712	33.287	0.179	-0.156
-364.698	-71.040	-0.302	-0.114
-363.683	411.590	-0.047	0.101
-362.669	260.720	0.041	0.071
-361.654	-200.000	-0.013	0.081
-360.639	-122.682	-0.267	0.044
-359.625	-76.241	-0.114	-0.041
-358.610	800.000	0.063	0.175
-357.596	30.883	-0.258	0.223
-356.581	800.000	-0.079	0.233
-355.566	-200.000	-0.104	-0.510
-354.552	8.938	0.114	-0.087
-353.537	169.341	0.247	-0.355
-352.523	-200.000	0.039	-0.232
-351.508	-8.509	0.198	-0.134
-350.493	114.905	-0.132	-0.162
-349.479	-89.844	-0.073	-0.022
-348.464	35.442	0.057	-0.050
-347.450	18.297	-0.309	-0.248
-346.435	-22.574	-0.245	-0.149
-345.420	-200.000	-0.019	0.256
-344.406	209.562	-0.059	-0.093
-343.391	-200.000	-0.053	0.289
-342.377	182.484	0.061	-0.090
-341.362	-37.214	-0.185	0.100
-340.348	136.079	-0.124	0.163
-339.333	153.282	0.067	-0.092
-338.318	-95.023	-0.259	0.070
-337.304	-66.441	0.266	0.106
-336.289	120.535	-0.043	-0.054
-335.275	-200.000	-0.015	0.099
-334.260	416.731	0.108	0.231
-333.245	94.640	0.092	-0.105
-332.231	-200.000	-0.028	-0.246
-331.216	24.028	0.209	0.174
-330.202	-200.000	0.021	0.269
-329.187	82.854	-0.169	-0.185
-328.172	4.137	-0.184	0.135
-327.158	490.664	-0.037	-0.084
-326.143	5.368	-0.121	-0.090
-325.129	51.697	0.316	-0.302
-324.114	48.285	-0.151	-0.142
-323.099	-200.000	-0.016	-0.281
-322.085	298.615	0.087	0.161
-321.070	51.366	-0.176	0.168
-320.056	-23.215	-0.149	0.090
-319.041	800.000	0.102	-0.373
-318.026	-0.583	-0.072	-0.052
-317.012	-177.238	0.070	-0.002
-315.997	-200.000	-0.021	0.106
-314.983	-144.438	0.398	0.037
-313.968	-39.766	0.390	0.205
-312.953	-103.828	-0.356	-0.084
-311.939	-200.000	-0.013	0.076
-310.924	-102.400	-0.029	-0.007
-309.910	-75.427	0.177	-0.063
-308.895	122.248	-0.108	-0.135
-307.880	218.311	0.238	-0.382
-306.866	65.105	-0.292	0.296
-305.851	217.396	0.183	-0.292
-304.837	-146.511	0.279	-0.024
-303.822	-200.000	-0.014	0.150
-302.807	-153.227	0.221	-0.016
-301.793	295.710	-0.110	0.202
-300.778	347.976	-0.137	-0.271
-299.764	391.738	-0.057	-0.119
-298.749	23.118	-0.046	-0.038
-297.735	-200.000	-0.049	0.339
-296.720	-110.294	-0.181	0.038
-295.705	-14.212	0.323	0.209
-294.691	-36.902	-0.097	0.052
-293.676	-200.000	0.001	-0.052
-292.662	-17.329	0.152	-0.096
-291.647	102.738	-0.144	0.169
-290.632	-142.367	0.157	-0.016
-289.618	77.652	0.060	-0.064
-288.603	152.594	0.170	0.233
-287.589	-42.496	-0.132	0.067
-286.574	-73.530	-0.100	0.037
-285.559	-78.998	-0.525	-0.179
-284.545	36.729	0.026	0.023
-283.530	800.000	0.045	0.135
-282.516	-200.000	-0.005	-0.112
-281.501	272.517	0.239	-0.423
-280.486	-34.342	-0.380	-0.209
-279.472	14.996	-0.022	0.017
-278.457	-5.267	-0.229	0.158
-277.443	-43.249	-0.381	0.194
-276.428	76.341	-0.160	0.170
-275.413	-200.000	-0.007	0.148
-274.399	-83.514	0.053	0.017
-273.384	96.994	0.397	-0.456
-272.370	-99.728	-0.018	-0.005
-271.355	159.398	0.030	0.042
-270.340	-200.000	-0.041	0.258
-269.326	-119.200	0.146	0.025
-268.311	-127.611	-0.472	0.069
-267.297	-200.000	0.022	-0.113
-266.282	-26.182	-0.260	-0.153
-265.267	-85.663	-0.082	0.025
-264.253	0.199	0.268	-0.192
-263.238	-33.619	-0.164	0.091
-262.224	577.718	0.097	-0.238
-261.209	-111.744	0.147	0.030
-260.195	-159.100	-0.376	-0.021
-259.180	-33.582	-0.209	0.116
-258.165	220.861	-0.045	-0.073
-257.151	-200.000	-0.005	-0.115
-256.136	172.776	0.082	-0.118
-255.122	220.353	-0.284	0.457
-254.107	167.631	0.040	-0.057
-253.092	-112.684	0.077	0.015
-252.078	131.920	0.163	-0.210
-251.063	-135.302	0.316	0.038
-250.049	153.506	-0.158	-0.217
-249.034	48.638	0.159	0.150
-248.019	138.172	-0.091	0.120
-247.005	-193.835	0.140	-0.001
-245.990	-74.824	0.292	-0.105
-244.976	-96.019	0.036	-0.009
-243.961	429.202	-0.099	-0.214
-242.946	-32.687	0.365	-0.203
-241.932	-139.221	-0.280	0.030
-240.917	475.153	-0.069	0.155
-239.903	-200.000	0.007	-0.048
-238.888	-27.052	0.195	-0.114
-237.873	-200.000	0.010	0.259
-236.859	-200.000	0.019	-0.189
-235.844	-200.000	-0.001	-0.295
-234.830	-43.642	0.189	0.096
-233.815	800.000	0.046	0.192
-232.800	-68.339	0.429	-0.167
-231.786	-200.000	0.015	-0.253
-230.771	-24.573	-0.064	-0.038
-229.757	-157.293	0.199	0.012
-228.742	-194.801	0.096	0.001
-227.727	196.033	-0.028	0.042
-226.713	-74.353	0.175	-0.063
-225.698	-4.670	-0.249	-0.172
-224.684	70.212	-0.305	-0.315
-223.669	800.000	-0.058	-0.180
-222.655	-200.000	-0.002	-0.126
-221.640	316.918	0.218	-0.412
-220.625	113.892	-0.144	-0.175
-219.611	331.739	0.072	0.140
-218.596	-120.462	-0.374	-0.064
-217.582	35.437	0.098	0.086
-216.567	-46.179	-0.259	0.128
-215.552	-94.076	0.241	0.066
-214.538	-51.107	0.106	-0.050
-213.523	43.863	-0.158	-0.145
-212.509	-88.882	-0.290	0.086
-211.494	12.153	0.126	-0.097
-210.479	-200.000	-0.028	0.335
-209.465	95.008	-0.131	-0.150
-208.450	130.543	0.147	0.188
-207.436	-200.000	0.009	-0.406
-206.421	-59.304	-0.336	0.145
-205.406	-127.071	0.388	-0.057
-204.392	-31.037	0.087	-0.049
-203.377	-200.000	-0.058	-0.267
-202.363	-103.711	-0.123	-0.029
-201.348	155.740	0.156	0.214
-200.333	61.011	-0.089	0.088
-199.319	800.000	-0.005	-0.016
-198.304	-200.000	-0.012	-0.282
-197.290	800.000	0.073	-0.258
-196.275	211.004	-0.072	-0.114
-195.260	654.808	0.100	0.256
-194.246	-200.000	0.040	-0.244
-193.231	-136.978	0.580	0.066
-192.217	561.026	0.134	0.324
-191.202	-47.413	-0.124	-0.061
-190.187	-10.230	-0.109	0.073
-189.173	-74.653	-0.187	-0.067
-188.158	-88.611	-0.260	0.077
-187.144	512.870	-0.064	0.148
-186.129	-20.185	-0.273	0.168
-185.114	-44.763	-0.188	-0.094
-184.100	25.223	0.028	-0.023
-183.085	263.628	0.034	-0.060
-182.071	-153.034	0.272	0.019
-181.056	-200.000	0.044	0.257
-180.042	-15.628	-0.145	-0.092
-179.027	-107.614	-0.104	0.023
-178.012	57.948	0.394	0.385
-176.998	384.804	0.026	0.054
-175.983	-51.353	-0.017	-0.008
-174.969	51.433	-0.058	0.055
-173.954	346.820	0.052	-0.103
-172.939	-118.760	-0.112	0.020
-171.925	-141.068	0.161	0.016
-170.910	800.000	0.155	0.453
-169.896	-87.814	0.177	-0.053
-168.881	800.000	-0.156	0.434
-167.866	8.132	-0.191	-0.143
-166.852	136.011	-0.088	-0.114
-165.837	153.403	0.277	0.379
-164.823	-103.942	-0.176	0.041
-163.808	180.729	0.188	-0.276
-162.793	-40.955	-0.163	0.084
-161.779	800.000	-0.052	0.165
-160.764	-110.368	0.246	0.051
-159.750	75.713	-0.082	-0.087
-158.735	17.818	0.295	-0.234
-157.720	114.648	-0.097	0.118
-156.706	37.670	-0.061	-0.054
-155.691	41.586	-0.172	0.156
-154.677	551.839	0.059	0.142
-153.662	-80.713	0.347	-0.115
-152.647	-128.742	0.429	-0.060
-151.633	-200.000	-0.015	0.073
-150.618	-147.175	0.400	-0.034
-149.604	-76.318	0.276	0.097
-148.589	-200.000	-0.010	-0.102
-147.574	800.000	-0.059	-0.164
-146.560	-69.008	-0.262	0.101
-145.545	249.066	-0.146	-0.247
-144.531	-25.930	0.129	0.076
-143.516	-4.594	-0.159	-0.110
-142.502	800.000	-0.013	0.048
-141.487	-26.212	-0.171	0.100
-140.472	800.000	0.065	0.247
-139.458	94.292	0.157	0.178
-138.443	-171.725	-0.414	-0.014
-137.429	-200.000	0.033	-0.484
-136.414	-44.970	0.179	0.089
-135.399	-200.000	-0.018	0.258
-134.385	65.072	-0.099	-0.100
-133.370	24.924	0.102	-0.084
-132.356	-24.496	0.309	-0.184
-131.341	98.534	0.042	-0.049
-130.326	101.133	0.232	0.269
-129.312	-36.241	-0.026	-0.014
-128.297	142.360	-0.019	-0.026
-127.283	137.218	0.243	-0.317
-126.268	-15.142	-0.137	-0.087
-125.253	-84.752	0.261	-0.082
-124.239	800.000	-0.040	0.155
-123.224	447.343	-0.116	-0.254
-122.210	245.329	0.103	0.174
