DTS Sentinel unit serial number:	SN413079Multiplexer serial number:	ORYXHardware model number:	OX4-SRSoftware version number:	ORYX F/W v4.00 Oryx Data Collector v3.7.2.0data status	okinstallation	princeton_trtdifferential loss correction	single-endedforward channel	channel 2reverse channel	N/Adate	2019/09/11time	06:29:10forward acquisition time	60.00reverse acquisition time	0.00gamma	496.2192k internal	0.2328k external	0.2328temperature offset calibration	0.9932default loss term (dB/km)	0.3790temperature slope calibration	1.0000multiplexer offset coefficient	1.0000multiplexer slope coefficient	1.0000fibre end	0.00T internal ref (°C)	29.62T ext. ref 1 (°C)	-0.17T ext. ref 2 (°C)	24.25length (m)	temperature (°C)	Stokes	anti-Stokes-747.200	-44.887	-0.116	0.058
-746.185	72.315	-0.223	0.234
-745.171	-85.921	0.105	-0.033
-744.156	464.956	-0.148	0.333
-743.142	800.000	0.042	0.144
-742.127	482.322	-0.206	0.471
-741.112	800.000	-0.040	-0.152
-740.098	105.682	0.134	-0.160
-739.083	-92.281	-0.291	-0.083
-738.069	-59.382	-0.196	-0.085
-737.054	78.582	-0.095	0.102
-736.039	9.326	-0.148	0.113
-735.025	-115.220	-0.274	-0.052
-734.010	-7.598	0.167	-0.114
-732.996	800.000	0.085	-0.244
-731.981	220.950	0.155	0.251
-730.966	800.000	-0.040	-0.144
-729.952	588.945	-0.210	-0.521
-728.937	320.801	0.071	0.135
-727.923	-200.000	0.034	-0.382
-726.908	98.763	-0.131	-0.152
-725.894	-200.000	0.002	0.091
-724.879	-101.915	0.223	0.054
-723.864	-65.842	0.201	-0.081
-722.850	-128.775	0.100	0.014
-721.835	-200.000	-0.033	-0.249
-720.821	-1.533	0.219	-0.155
-719.806	-172.110	0.378	-0.012
-718.791	-30.662	-0.090	0.051
-717.777	271.945	-0.162	-0.288
-716.762	270.889	0.073	-0.130
-715.748	-117.312	-0.290	-0.053
-714.733	113.628	0.083	0.101
-713.718	800.000	0.031	0.095
-712.704	-188.181	-0.112	-0.001
-711.689	-135.199	-0.401	-0.048
-710.675	142.718	-0.247	-0.330
-709.660	-89.997	0.274	0.080
-708.645	20.913	0.157	0.128
-707.631	800.000	0.072	-0.294
-706.616	800.000	-0.082	0.232
-705.602	-134.403	0.364	-0.045
-704.587	726.324	0.130	-0.348
-703.572	-61.338	-0.203	0.086
-702.558	106.418	0.126	-0.151
-701.543	-191.572	0.356	0.004
-700.529	-136.280	0.152	0.018
-699.514	-63.564	0.149	0.061
-698.499	188.594	-0.143	-0.215
-697.485	393.218	-0.014	0.030
-696.470	-186.531	-0.045	0.001
-695.456	-145.581	-0.382	-0.034
-694.441	69.839	-0.037	0.038
-693.426	-120.355	0.309	-0.053
-692.412	-182.202	-0.168	0.003
-691.397	58.907	0.065	-0.064
-690.383	-110.044	-0.099	-0.021
-689.368	422.064	0.205	0.443
-688.354	800.000	-0.048	0.212
-687.339	62.039	-0.259	0.259
-686.324	-37.412	-0.207	0.111
-685.310	-173.787	-0.234	0.007
-684.295	800.000	0.024	0.098
-683.281	800.000	-0.056	-0.174
-682.266	203.506	-0.098	0.153
-681.251	-85.329	0.307	0.096
-680.237	28.918	0.096	-0.082
-679.222	-125.284	-0.450	-0.069
-678.208	83.677	0.375	-0.411
-677.193	96.212	-0.253	0.291
-676.178	632.234	-0.193	0.491
-675.164	-10.827	-0.223	0.148
-674.149	1.518	-0.066	-0.047
-673.135	-85.497	-0.033	-0.010
-672.120	24.512	0.316	-0.263
-671.105	-130.411	0.169	0.023
-670.091	800.000	-0.128	0.360
-669.076	159.907	0.030	0.042
-668.062	-65.071	0.043	0.018
-667.047	-134.579	-0.183	0.022
-666.032	-32.814	-0.212	0.118
-665.018	24.271	-0.200	-0.166
-664.003	-24.750	-0.208	0.124
-662.989	-14.702	0.233	-0.150
-661.974	53.042	-0.069	0.066
-660.959	-98.124	0.207	0.054
-659.945	-118.673	-0.215	0.038
-658.930	-80.311	-0.305	-0.102
-657.916	63.575	-0.039	0.039
-656.901	-200.000	0.024	0.191
-655.886	224.232	-0.124	-0.200
-654.872	-200.000	-0.029	-0.326
-653.857	-89.019	-0.253	0.075
-652.843	370.101	0.123	-0.250
-651.828	800.000	-0.091	0.330
-650.814	-65.623	-0.149	-0.060
-649.799	-200.000	0.067	-0.378
-648.784	17.511	-0.185	-0.148
-647.770	-84.366	-0.066	0.021
-646.755	-53.979	-0.154	-0.071
-645.741	45.771	-0.046	-0.043
-644.726	218.291	0.003	-0.005
-643.711	344.407	0.090	-0.177
-642.697	122.361	-0.082	-0.102
-641.682	-129.442	-0.300	0.042
-640.668	-81.648	0.095	0.031
-639.653	80.720	-0.349	-0.378
-638.638	335.742	-0.017	0.033
-637.624	8.444	-0.154	0.116
-636.609	-74.982	0.157	-0.056
-635.595	-64.415	0.346	-0.141
-634.580	80.650	-0.088	0.095
-633.565	567.525	0.053	-0.129
-632.551	0.440	-0.245	-0.175
-631.536	800.000	-0.073	0.237
-630.522	-200.000	0.006	0.158
-629.507	-106.483	0.242	-0.054
-628.492	199.167	0.098	0.150
-627.478	369.722	0.044	-0.089
-626.463	646.468	0.151	0.386
-625.449	374.071	-0.118	0.241
-624.434	-66.153	0.054	-0.022
-623.419	-200.000	-0.028	0.143
-622.405	800.000	-0.039	0.121
-621.390	102.647	-0.314	0.368
-620.376	112.992	-0.180	0.218
-619.361	-66.359	-0.021	-0.008
-618.346	-4.363	-0.113	-0.079
-617.332	14.067	0.334	0.261
-616.317	-200.000	-0.022	0.176
-615.303	-105.910	-0.296	-0.067
-614.288	351.059	0.105	0.208
-613.273	-200.000	-0.021	0.236
-612.259	200.736	0.061	-0.094
-611.244	-200.000	0.009	0.195
-610.230	151.882	-0.257	-0.351
-609.215	177.617	0.167	0.244
-608.201	76.911	0.157	-0.167
-607.186	-46.568	-0.377	0.185
-606.171	93.036	0.119	0.135
-605.157	321.997	0.046	-0.088
-604.142	800.000	0.051	-0.177
-603.128	358.323	0.115	0.230
-602.113	681.226	-0.069	-0.179
-601.098	330.795	-0.079	0.153
-600.084	34.443	-0.089	0.078
-599.069	128.407	0.193	0.247
-598.055	82.993	-0.090	-0.099
-597.040	14.086	0.056	-0.044
-596.025	71.903	-0.170	0.177
-595.011	800.000	-0.073	-0.295
-593.996	-200.000	-0.001	-0.145
-592.982	-67.951	0.141	-0.055
-591.967	-64.081	-0.244	0.100
-590.952	-109.425	-0.409	-0.087
-589.938	-167.241	-0.231	0.009
-588.923	-200.000	0.002	0.054
-587.909	-130.434	0.151	0.020
-586.894	200.922	0.134	-0.206
-585.879	-12.226	0.206	0.135
-584.865	-142.262	-0.275	-0.027
-583.850	56.525	0.072	0.070
-582.836	80.646	0.247	0.266
-581.821	200.840	-0.274	-0.422
-580.806	-163.255	-0.163	-0.008
-579.792	11.969	0.278	0.214
-578.777	-162.408	-0.139	-0.007
-577.763	-200.000	-0.026	0.115
-576.748	-200.000	-0.004	0.185
-575.733	-127.178	-0.306	0.045
-574.719	800.000	0.077	0.265
-573.704	225.903	0.130	-0.210
-572.690	167.617	-0.213	0.304
-571.675	-162.170	0.222	0.011
-570.661	51.947	-0.225	-0.215
-569.646	20.989	0.091	0.074
-568.631	541.572	0.063	-0.151
-567.617	-84.933	0.341	0.107
-566.602	503.418	0.104	0.241
-565.588	739.014	-0.085	-0.228
-564.573	35.536	0.076	-0.067
-563.558	-200.000	0.063	0.409
-562.544	-112.612	0.172	0.034
-561.529	-97.188	-0.314	-0.082
-560.515	32.164	0.082	-0.071
-559.500	-104.669	0.105	-0.024
-558.485	-109.656	-0.123	-0.026
-557.471	127.324	0.094	-0.119
-556.456	-200.000	-0.000	0.077
-555.442	-163.336	-0.257	-0.012
-554.427	66.163	-0.098	0.100
-553.412	-179.316	0.234	-0.005
-552.398	-200.000	0.008	-0.236
-551.383	5.228	0.234	0.173
-550.369	18.178	-0.138	-0.110
-549.354	155.325	0.132	0.181
-548.339	43.747	-0.179	-0.164
-547.325	-13.021	0.221	0.144
-546.310	141.362	0.133	-0.175
-545.296	800.000	0.037	-0.152
-544.281	-200.000	-0.002	-0.209
-543.266	46.833	-0.280	-0.260
-542.252	230.294	0.209	-0.342
-541.237	17.546	0.221	0.176
-540.223	20.092	-0.166	0.134
-539.208	-23.141	-0.258	0.155
-538.193	429.479	-0.020	-0.044
-537.179	-75.868	0.059	0.021
-536.164	-39.137	-0.293	-0.154
-535.150	800.000	-0.056	0.184
-534.135	-89.325	-0.292	-0.086
-533.121	623.243	0.066	-0.167
-532.106	800.000	-0.113	-0.347
-531.091	-61.272	-0.282	0.119
-530.077	-133.057	0.260	0.033
-529.062	-31.107	0.119	-0.067
-528.048	514.530	0.065	-0.152
-527.033	-106.344	-0.253	-0.056
-526.018	-87.678	0.236	0.071
-525.004	-102.023	-0.109	-0.026
-523.989	-200.000	0.008	-0.185
-522.975	-44.557	-0.497	-0.248
-521.960	323.509	0.077	0.147
-520.945	-128.355	-0.216	-0.031
-519.931	167.024	0.097	-0.137
-518.916	566.197	-0.140	-0.340
-517.902	-81.336	-0.269	-0.088
-516.887	36.171	0.081	-0.072
-515.872	54.572	-0.196	-0.189
-514.858	-9.146	-0.133	-0.089
-513.843	202.077	0.139	-0.214
-512.829	-22.324	-0.240	-0.145
-511.814	259.092	0.110	-0.189
-510.799	125.358	0.088	0.110
-509.785	109.204	0.110	-0.131
-508.770	-64.224	-0.078	-0.032
-507.756	216.512	-0.133	-0.212
-506.741	-200.000	0.031	0.260
-505.726	-200.000	-0.017	0.269
-504.712	85.381	0.191	0.209
-503.697	-160.597	0.355	0.019
-502.683	-56.083	-0.385	-0.171
-501.668	-200.000	0.075	-0.350
-500.653	-129.027	0.269	0.038
-499.639	800.000	0.085	0.295
-498.624	21.268	-0.256	-0.208
-497.610	459.134	-0.158	-0.350
-496.595	256.043	0.126	0.215
-495.581	271.065	0.091	-0.159
-494.566	-200.000	0.001	-0.078
-493.551	2.527	-0.139	-0.101
-492.537	412.678	0.143	-0.303
-491.522	-59.180	0.206	-0.088
-490.508	-9.083	-0.184	-0.123
-489.493	-200.000	0.065	0.359
-488.478	20.340	0.046	0.037
-487.464	-75.701	-0.136	-0.048
-486.449	-64.289	0.127	-0.052
-485.435	126.312	-0.197	0.249
-484.420	-57.579	-0.074	0.032
-483.405	800.000	0.032	-0.093
-482.391	124.260	0.213	-0.267
-481.376	-200.000	-0.000	-0.109
-480.362	75.349	-0.056	-0.059
-479.347	-91.202	-0.395	-0.113
-478.332	128.985	0.177	0.226
-477.318	254.112	0.065	-0.111
-476.303	-200.000	0.018	-0.210
-475.289	-129.090	-0.267	0.037
-474.274	5.818	0.201	-0.148
-473.259	-13.832	-0.178	0.115
-472.245	528.012	-0.051	0.121
-471.230	800.000	-0.101	-0.313
-470.216	104.504	0.113	0.132
-469.201	22.311	-0.201	-0.164
-468.186	265.861	0.059	-0.102
-467.172	-58.851	-0.330	-0.142
-466.157	469.025	-0.029	0.064
-465.143	-200.000	0.041	0.241
-464.128	111.657	0.144	0.173
-463.113	25.959	-0.108	-0.089
-462.099	-44.786	-0.274	0.136
-461.084	-85.234	-0.224	0.070
-460.070	-7.910	0.154	0.104
-459.055	-102.390	0.257	0.061
-458.040	-65.594	-0.051	0.020
-457.026	560.158	-0.112	-0.269
-456.011	76.892	-0.247	0.261
-454.997	-143.863	-0.164	-0.015
-453.982	-199.112	-0.253	0.001
-452.968	-87.949	0.252	0.076
-451.953	-26.407	0.290	0.170
-450.938	-174.462	0.396	0.011
-449.924	166.318	0.278	-0.393
-448.909	800.000	-0.061	-0.168
-447.895	655.795	0.017	-0.044
-446.880	16.556	0.100	-0.078
-445.865	-79.011	-0.282	-0.095
-444.851	800.000	-0.088	-0.356
-443.836	-83.056	0.170	0.055
-442.822	-87.251	0.406	-0.123
-441.807	-13.362	0.116	0.075
-440.792	-200.000	0.074	0.353
-439.778	-43.056	-0.388	0.196
-438.763	386.569	0.018	0.037
-437.749	-151.154	0.202	-0.015
-436.734	273.938	-0.036	0.064
-435.719	800.000	-0.036	0.138
-434.705	-200.000	0.014	0.163
-433.690	488.125	-0.161	0.366
-432.676	-3.227	-0.094	0.065
-431.661	-200.000	-0.006	0.064
-430.646	-72.826	0.252	0.092
-429.632	-103.115	0.181	-0.043
-428.617	159.859	-0.147	-0.204
-427.603	-82.810	-0.251	-0.081
-426.588	42.339	-0.282	-0.255
-425.573	-121.663	0.206	-0.034
-424.559	170.658	0.139	0.198
-423.544	713.020	0.056	0.147
-422.530	800.000	0.052	0.150
-421.515	-5.826	0.159	0.108
-420.500	72.603	0.328	0.340
-419.486	-169.920	-0.180	0.006
-418.471	308.832	-0.069	-0.128
-417.457	236.878	0.061	-0.101
-416.442	21.971	0.315	0.255
-415.428	68.763	-0.118	-0.121
-414.413	78.354	0.281	-0.299
-413.398	8.561	-0.167	-0.125
-412.384	-200.000	-0.051	0.298
-411.369	-185.466	0.213	-0.003
-410.355	-200.000	-0.042	0.224
-409.340	90.284	0.091	-0.101
-408.325	267.682	-0.125	0.217
-407.311	-54.173	0.177	0.080
-406.296	-69.517	-0.249	0.095
-405.282	58.288	-0.395	0.385
-404.267	58.140	-0.066	-0.064
-403.252	119.767	-0.178	-0.219
-402.238	-114.022	0.078	0.015
-401.223	-200.000	0.044	-0.285
-400.209	-35.709	0.018	-0.010
-399.194	751.314	0.048	0.130
-398.179	-200.000	-0.014	0.072
-397.165	-129.685	0.134	0.018
-396.150	-93.497	-0.044	0.012
-395.136	609.730	-0.059	-0.145
-394.121	-55.848	-0.166	0.074
-393.106	-152.827	-0.294	-0.021
-392.092	58.954	-0.241	0.235
-391.077	64.335	-0.195	0.195
-390.063	2.874	-0.234	-0.169
-389.048	-200.000	0.044	-0.221
-388.033	8.640	0.441	0.330
-387.019	84.243	0.116	0.126
-386.004	-169.668	-0.456	-0.016
-384.990	-82.362	-0.258	0.083
-383.975	-18.102	0.047	0.029
-382.960	-171.535	-0.125	-0.004
-381.946	-169.238	0.130	0.005
-380.931	-41.211	0.194	0.100
-379.917	80.549	-0.150	0.161
-378.902	131.750	-0.067	0.085
-377.888	-45.837	-0.254	0.125
-376.873	-46.242	0.079	-0.039
-375.858	94.056	0.190	0.214
-374.844	-30.173	0.161	0.091
-373.829	-154.342	0.376	0.025
-372.815	-200.000	-0.011	-0.488
-371.800	-21.067	0.109	0.066
-370.785	800.000	0.066	0.253
-369.771	-200.000	-0.039	-0.218
-368.756	-65.996	0.542	-0.215
-367.742	-20.397	-0.113	-0.069
-366.727	-12.641	0.174	0.112
-365.712	-138.269	-0.437	-0.048
-364.698	-9.707	-0.128	0.085
-363.683	-129.508	0.132	0.018
-362.669	224.852	-0.050	0.081
-361.654	-200.000	0.062	-0.292
-360.639	75.235	0.178	-0.186
-359.625	77.859	-0.137	-0.145
-358.610	82.144	0.133	-0.143
-357.596	-59.762	0.092	-0.039
-356.581	39.750	-0.140	-0.124
-355.566	660.579	-0.098	-0.250
-354.552	-200.000	0.053	0.268
-353.537	-44.978	-0.285	-0.141
-352.523	-64.988	-0.107	-0.043
-351.508	90.338	-0.243	0.269
-350.493	-200.000	0.043	0.646
-349.479	800.000	0.062	0.243
-348.464	20.992	0.048	0.038
-347.450	-90.993	0.483	-0.138
-346.435	276.517	-0.174	-0.306
-345.420	-112.279	-0.352	-0.070
-344.406	48.188	0.075	0.070
-343.391	-92.387	-0.189	0.053
-342.377	800.000	0.017	0.048
-341.362	-200.000	-0.062	0.379
-340.348	-99.347	-0.120	-0.030
-339.333	52.163	-0.281	-0.265
-338.318	701.668	-0.167	0.436
-337.304	-200.000	0.020	-0.139
-336.289	171.827	0.046	-0.066
-335.275	-200.000	-0.030	0.146
-334.260	448.807	-0.082	0.179
-333.245	-100.106	-0.245	-0.060
-332.231	-16.027	-0.235	-0.148
-331.216	-200.000	0.055	0.256
-330.202	-140.447	-0.016	-0.002
-329.187	-200.000	0.017	0.120
-328.172	212.348	0.147	0.229
-327.158	-47.268	-0.059	-0.029
-326.143	-21.999	0.348	-0.210
-325.129	-105.728	-0.281	0.063
-324.114	666.203	0.047	-0.120
-323.099	-143.301	-0.139	0.013
-322.085	531.724	0.116	-0.273
-321.070	47.860	0.176	0.163
-320.056	55.454	0.064	0.062
-319.041	-40.971	-0.225	-0.115
-318.026	-200.000	-0.031	0.320
-317.012	-94.597	0.273	-0.074
-315.997	-49.617	-0.077	-0.036
-314.983	285.626	0.137	0.244
-313.968	274.467	0.076	0.133
-312.953	-131.646	0.177	0.023
-311.939	-51.815	0.253	0.117
-310.924	19.878	0.124	-0.099
-309.910	-5.013	0.247	0.168
-308.895	318.070	0.183	-0.342
-307.880	-200.000	-0.039	0.197
-306.866	-156.568	-0.182	0.011
-305.851	-66.113	-0.347	-0.137
-304.837	800.000	0.093	0.391
-303.822	800.000	0.079	0.248
-302.807	4.910	-0.084	-0.061
-301.793	-200.000	-0.005	-0.047
-300.778	-159.512	-0.475	0.026
-299.764	-75.005	0.418	-0.148
-298.749	120.840	0.146	0.180
-297.735	-119.274	-0.292	-0.050
-296.720	800.000	0.046	-0.127
-295.705	-3.013	-0.165	-0.114
-294.691	-2.360	0.361	0.251
-293.676	-90.977	0.230	-0.065
-292.662	-151.637	-0.388	0.028
-291.647	-16.882	0.287	0.179
-290.632	800.000	-0.108	0.351
-289.618	168.767	-0.036	-0.051
-288.603	172.242	0.221	0.315
-287.589	-200.000	0.034	0.249
-286.574	-129.616	-0.021	0.003
-285.559	-88.639	-0.336	0.099
-284.545	266.855	-0.080	0.138
-283.530	-200.000	0.057	0.504
-282.516	-27.538	0.101	-0.058
-281.501	-60.000	-0.137	-0.058
-280.486	-139.112	0.115	0.012
-279.472	44.349	0.186	-0.169
-278.457	10.390	0.485	-0.365
-277.443	5.970	0.152	-0.111
-276.428	-13.606	0.115	0.074
-275.413	-126.294	0.192	-0.028
-274.399	-200.000	0.015	-0.087
-273.384	800.000	-0.020	0.075
-272.370	167.059	0.229	0.321
-271.355	318.139	0.167	-0.313
-270.340	392.861	0.169	-0.347
-269.326	65.259	-0.140	0.140
-268.311	223.690	-0.123	0.197
-267.297	-149.588	-0.125	-0.010
-266.282	-189.544	-0.164	-0.002
-265.267	-179.276	-0.303	-0.007
-264.253	166.420	0.077	-0.108
-263.238	-124.560	-0.193	-0.030
-262.224	2.560	-0.223	-0.160
-261.209	51.577	0.190	-0.178
-260.195	-40.339	-0.117	-0.060
-259.180	-82.283	0.087	-0.028
-258.165	703.104	-0.111	0.290
-257.151	567.739	-0.158	-0.378
-256.136	175.607	-0.130	0.187
-255.122	-41.805	0.393	0.199
-254.107	371.557	0.028	-0.057
-253.092	-74.130	0.068	0.024
-252.078	800.000	0.216	-0.600
-251.063	-200.000	-0.011	-0.119
-250.049	317.539	0.082	0.153
-249.034	309.242	0.159	-0.293
-248.019	-103.121	0.093	0.022
-247.005	107.305	-0.129	-0.152
-245.990	9.496	0.250	-0.187
-244.976	307.038	-0.177	0.326
-243.961	-200.000	0.017	0.263
-242.946	-4.830	0.215	-0.146
-241.932	-84.802	-0.435	-0.135
-240.917	-200.000	0.004	-0.044
-239.903	-7.553	0.079	-0.053
-238.888	-97.761	-0.464	-0.119
-237.873	-179.234	0.205	0.004
-236.859	0.819	0.199	0.140
-235.844	-200.000	0.013	0.082
-234.830	331.829	-0.038	0.072
-233.815	100.295	0.144	0.165
-232.800	510.383	-0.071	0.164
-231.786	-25.171	-0.148	-0.087
-230.771	-200.000	0.018	-0.328
-229.757	-200.000	-0.048	-0.377
-228.742	68.929	0.065	0.066
-227.727	-200.000	0.020	0.378
-226.713	800.000	0.126	-0.377
-225.698	464.250	-0.038	0.084
-224.684	-200.000	0.007	-0.043
-223.669	-200.000	-0.041	0.373
-222.655	800.000	0.034	-0.096
-221.640	-108.665	0.526	-0.111
-220.625	-175.359	-0.176	0.005
-219.611	800.000	-0.048	-0.149
-218.596	-153.607	0.389	-0.027
-217.582	-200.000	0.000	0.105
-216.567	-88.366	0.256	-0.076
-215.552	-104.068	0.207	0.047
-214.538	-159.303	-0.538	-0.030
-213.523	118.538	0.206	-0.251
-212.509	-99.630	0.120	-0.030
-211.494	579.493	0.104	-0.251
-210.479	-10.796	-0.417	-0.272
-209.465	525.722	0.141	-0.328
-208.450	29.961	-0.251	0.211
-207.436	-74.049	0.006	0.002
-206.421	121.297	0.196	-0.241
-205.406	-200.000	0.013	0.206
-204.392	-200.000	-0.033	-0.282
-203.377	-99.198	-0.350	0.087
-202.363	-200.000	0.010	-0.252
-201.348	-155.711	0.086	-0.005
-200.333	800.000	0.118	-0.413
-199.319	-200.000	0.084	0.365
-198.304	-28.458	0.200	0.114
-197.290	42.124	-0.210	0.188
-196.275	167.603	-0.062	-0.086
-195.260	-63.147	0.284	-0.115
-194.246	521.174	-0.083	0.191
-193.231	-75.487	0.233	0.082
-192.217	-200.000	0.028	0.382
-191.202	174.262	0.125	0.179
-190.187	-7.741	0.189	0.126
-189.173	147.760	0.190	0.252
-188.158	-81.937	-0.130	0.042
-187.144	-200.000	-0.005	-0.048
-186.129	-53.701	0.040	0.018
-185.114	-148.012	-0.160	0.013
-184.100	-84.775	-0.116	0.036
-183.085	800.000	0.031	0.127
-182.071	-33.628	0.084	-0.046
-181.056	-21.213	0.097	-0.059
-180.042	-90.321	-0.135	-0.039
-179.027	600.579	-0.054	-0.133
-178.012	7.709	0.180	0.133
-176.998	800.000	-0.095	-0.276
-175.983	-35.440	0.064	0.034
-174.969	446.009	-0.130	0.281
-173.954	239.871	0.075	-0.123
-172.939	-112.117	0.162	-0.032
-171.925	800.000	0.070	-0.196
-170.910	-200.000	0.043	0.216
-169.896	41.183	-0.307	-0.274
-168.881	392.028	-0.105	-0.214
-167.866	31.228	-0.068	-0.058
-166.852	-58.795	-0.157	-0.067
-165.837	-123.977	0.254	-0.039
-164.823	-197.689	0.550	0.003
-163.808	800.000	-0.053	0.197
-162.793	800.000	0.121	-0.336
-161.779	-200.000	-0.014	0.062
-160.764	800.000	0.091	-0.251
-159.750	617.754	-0.042	-0.105
-158.735	-105.946	-0.169	0.037
-157.720	102.509	0.078	-0.090
-156.706	21.810	0.298	-0.239
-155.691	157.814	0.185	0.252
-154.677	-200.000	0.025	-0.366
-153.662	175.927	0.098	0.140
-152.647	-66.967	0.439	0.171
-151.633	-200.000	0.022	0.117
-150.618	-159.010	0.153	-0.009
-149.604	248.854	-0.103	0.172
-148.589	-115.513	-0.144	-0.027
-147.574	-72.008	0.071	-0.026
-146.560	20.131	-0.140	-0.111
-145.545	106.337	0.113	0.132
-144.531	800.000	-0.043	0.153
-143.516	251.922	-0.117	-0.196
-142.502	46.136	-0.129	0.117
-141.487	134.662	0.230	0.294
-140.472	-105.780	0.142	0.031
-139.458	-200.000	0.052	0.301
-138.443	-130.593	0.334	-0.044
-137.429	-200.000	-0.014	0.272
-136.414	388.943	0.209	0.426
-135.399	-200.000	-0.009	-0.239
-134.385	156.093	0.074	-0.100
-133.370	151.762	-0.147	-0.198
-132.356	35.741	0.120	0.104
-131.341	-78.550	0.072	-0.024
-130.326	4.494	0.172	-0.124
-129.312	-142.020	0.097	0.010
-128.297	565.296	-0.102	0.243
-127.283	-98.968	0.292	-0.073
-126.268	-30.963	-0.062	-0.034
-125.253	-44.059	-0.133	0.066
-124.239	-9.259	-0.217	-0.142
-123.224	86.481	-0.132	0.143
-122.210	271.814	0.045	0.078
-121.195	-114.753	0.103	0.019
-120.180	381.262	0.046	0.094
