DTS Sentinel unit serial number:	SN413079Multiplexer serial number:	ORYXHardware model number:	OX4-SRSoftware version number:	ORYX F/W v4.00 Oryx Data Collector v3.7.2.0data status	okinstallation	princeton_trtdifferential loss correction	single-endedforward channel	channel 2reverse channel	N/Adate	2019/09/17time	11:27:35forward acquisition time	60.00reverse acquisition time	0.00gamma	496.2192k internal	0.2323k external	0.2323temperature offset calibration	0.9986default loss term (dB/km)	0.3790temperature slope calibration	1.0000multiplexer offset coefficient	1.0000multiplexer slope coefficient	1.0000fibre end	0.00T internal ref (°C)	30.62T ext. ref 1 (°C)	0.34T ext. ref 2 (°C)	26.41length (m)	temperature (°C)	Stokes	anti-Stokes-747.200	280.346	0.045	0.080
-746.185	93.104	-0.255	0.291
-745.171	-15.129	-0.189	0.122
-744.156	25.104	-0.197	0.165
-743.142	-80.730	-0.115	-0.039
-742.127	260.685	0.169	-0.296
-741.112	-168.258	0.275	0.011
-740.098	800.000	0.082	-0.286
-739.083	-86.703	-0.111	0.034
-738.069	-54.364	-0.169	0.077
-737.054	-96.175	-0.187	0.050
-736.039	629.309	-0.070	-0.178
-735.025	800.000	-0.057	0.202
-734.010	-7.597	0.186	-0.127
-732.996	-200.000	-0.001	0.105
-731.981	-82.402	0.120	-0.039
-730.966	4.984	0.155	-0.115
-729.952	-70.113	-0.364	-0.140
-728.937	390.627	-0.085	0.179
-727.923	18.389	-0.396	0.319
-726.908	-83.612	-0.291	-0.094
-725.894	-200.000	-0.036	0.168
-724.879	-98.949	-0.077	0.020
-723.864	-117.284	0.320	-0.059
-722.850	676.937	-0.125	0.328
-721.835	238.710	0.036	-0.060
-720.821	-31.968	-0.127	0.072
-719.806	-145.918	-0.343	0.031
-718.791	-200.000	0.007	-0.464
-717.777	458.487	0.072	-0.161
-716.762	-200.000	-0.039	0.236
-715.748	-127.887	0.183	0.026
-714.733	-200.000	0.056	0.000
-713.718	220.167	-0.140	-0.226
-712.704	284.356	-0.139	-0.252
-711.689	-200.000	0.030	-0.137
-710.675	355.622	-0.133	-0.268
-709.660	-200.000	-0.001	-0.175
-708.645	800.000	0.048	-0.139
-707.631	-199.291	-0.324	0.002
-706.616	75.229	-0.180	0.191
-705.602	-78.353	0.166	-0.057
-704.587	-27.858	-0.207	0.121
-703.572	2.040	-0.369	-0.269
-702.558	346.693	-0.164	0.326
-701.543	-52.213	0.147	0.069
-700.529	800.000	-0.069	0.222
-699.514	800.000	-0.093	-0.293
-698.499	46.858	-0.284	-0.266
-697.485	-200.000	-0.011	-0.368
-696.470	495.327	-0.148	0.343
-695.456	59.653	-0.202	-0.201
-694.441	-81.292	0.316	-0.105
-693.426	-41.667	0.266	0.138
-692.412	-200.000	0.198	0.000
-691.397	-200.000	0.024	0.140
-690.383	-200.000	0.011	-0.158
-689.368	145.724	-0.103	-0.139
-688.354	-10.000	0.266	-0.178
-687.339	-42.382	0.083	-0.042
-686.324	800.000	0.106	0.332
-685.310	335.204	-0.116	-0.226
-684.295	444.858	0.112	-0.248
-683.281	-25.108	-0.222	0.132
-682.266	-56.335	-0.040	-0.018
-681.251	29.341	-0.157	0.134
-680.237	-99.845	0.083	-0.021
-679.222	27.591	-0.162	0.137
-678.208	42.411	-0.090	-0.082
-677.193	-200.000	0.020	-0.121
-676.178	-37.977	0.111	0.059
-675.164	-200.000	-0.075	-0.358
-674.149	-4.481	-0.101	-0.070
-673.135	-154.474	-0.252	0.017
-672.120	-37.922	0.320	-0.171
-671.105	-200.000	0.008	-0.197
-670.091	-35.083	0.248	0.136
-669.076	-71.183	0.107	-0.041
-668.062	437.341	0.178	-0.390
-667.047	88.649	0.228	-0.255
-666.032	800.000	0.125	0.365
-665.018	-55.004	-0.194	-0.088
-664.003	552.387	0.087	-0.209
-662.989	-74.440	-0.211	-0.077
-661.974	-87.549	-0.223	0.068
-660.959	-108.533	-0.257	0.056
-659.945	-92.722	0.157	0.044
-658.930	-83.101	-0.412	-0.134
-657.916	254.273	-0.164	-0.282
-656.901	-200.000	-0.007	-0.106
-655.886	-133.761	-0.226	0.028
-654.872	28.357	-0.140	0.119
-653.857	76.009	-0.258	-0.274
-652.843	61.675	-0.330	0.331
-651.828	602.618	0.244	0.610
-650.814	-51.726	-0.121	0.057
-649.799	594.099	-0.095	-0.236
-648.784	261.723	0.058	0.102
-647.770	-41.215	-0.228	0.118
-646.755	-200.000	-0.008	0.118
-645.741	-200.000	0.010	-0.501
-644.726	231.536	0.215	0.355
-643.711	-176.695	0.200	-0.005
-642.697	800.000	0.120	0.365
-641.682	422.097	0.144	0.312
-640.668	-47.756	-0.171	0.083
-639.653	718.651	-0.122	0.326
-638.638	-200.000	0.036	0.185
-637.624	169.356	0.013	0.019
-636.609	12.780	-0.083	0.065
-635.595	800.000	0.068	-0.203
-634.580	800.000	-0.044	-0.136
-633.565	800.000	-0.016	0.048
-632.551	-107.688	-0.256	-0.056
-631.536	354.370	-0.197	0.393
-630.522	-135.923	0.205	0.024
-629.507	-27.915	0.207	0.121
-628.492	-34.947	-0.113	0.062
-627.478	65.954	0.068	0.069
-626.463	-200.000	0.003	-0.056
-625.449	-38.946	-0.096	0.051
-624.434	-61.740	-0.070	0.030
-623.419	-93.398	-0.142	0.040
-622.405	100.311	-0.133	0.155
-621.390	437.919	0.127	0.278
-620.376	-152.786	-0.321	-0.023
-619.361	-200.000	0.003	-0.258
-618.346	-200.000	0.066	-0.442
-617.332	9.952	0.408	-0.311
-616.317	-138.435	-0.230	-0.025
-615.303	-96.619	0.158	0.042
-614.288	800.000	-0.062	0.182
-613.273	800.000	0.031	-0.133
-612.259	800.000	0.085	0.336
-611.244	-200.000	-0.071	0.325
-610.230	-53.524	0.243	-0.112
-609.215	-53.761	0.312	-0.143
-608.201	-114.588	0.132	-0.025
-607.186	-200.000	-0.106	0.000
-606.171	579.301	-0.106	-0.261
-605.157	-39.324	-0.180	-0.095
-604.142	800.000	0.026	0.089
-603.128	-55.994	-0.183	0.082
-602.113	113.159	-0.187	0.228
-601.098	166.018	0.211	0.300
-600.084	23.916	-0.308	0.255
-599.069	-46.912	0.303	0.148
-598.055	-33.502	-0.058	-0.032
-597.040	19.093	-0.240	0.193
-596.025	-200.000	-0.014	-0.113
-595.011	120.196	0.131	0.164
-593.996	208.372	0.130	0.203
-592.982	13.765	0.180	-0.140
-591.967	800.000	0.092	-0.317
-590.952	80.358	0.175	-0.189
-589.938	78.500	-0.501	-0.537
-588.923	123.398	0.128	-0.161
-587.909	142.930	-0.210	-0.280
-586.894	184.641	0.169	0.252
-585.879	104.549	-0.023	0.028
-584.865	-110.454	-0.064	-0.013
-583.850	-22.283	-0.415	-0.253
-582.836	-96.855	0.080	0.021
-581.821	-47.618	-0.233	0.114
-580.806	293.530	0.112	-0.205
-579.792	520.447	0.087	0.204
-578.777	696.240	0.033	-0.086
-577.763	-200.000	-0.021	-0.379
-576.748	-200.000	-0.025	-0.193
-575.733	77.663	-0.100	-0.107
-574.719	147.977	0.097	-0.131
-573.704	387.815	0.063	-0.130
-572.690	-113.668	-0.266	-0.052
-571.675	-80.404	0.258	-0.087
-570.661	99.758	0.065	-0.076
-569.646	235.501	0.141	0.234
-568.631	449.180	0.075	-0.165
-567.617	-200.000	0.063	-0.320
-566.602	-200.000	0.006	0.108
-565.588	-200.000	-0.016	-0.081
-564.573	-16.711	0.141	0.090
-563.558	69.237	-0.119	-0.123
-562.544	-200.000	0.058	0.326
-561.529	282.822	-0.015	-0.026
-560.515	184.760	-0.112	-0.166
-559.500	-186.039	0.224	-0.003
-558.485	-165.418	-0.330	-0.014
-557.471	-123.691	-0.085	-0.014
-556.456	498.510	-0.019	-0.044
-555.442	-43.699	-0.507	-0.256
-554.427	-109.366	0.276	-0.059
-553.412	-18.463	0.104	0.065
-552.398	56.299	-0.172	0.167
-551.383	296.589	-0.022	0.040
-550.369	792.705	-0.163	-0.449
-549.354	-34.004	0.288	0.159
-548.339	62.658	0.075	0.075
-547.325	-200.000	-0.011	-0.105
-546.310	259.486	0.062	0.108
-545.296	800.000	-0.147	-0.436
-544.281	-72.443	-0.158	-0.058
-543.266	-173.165	0.132	-0.004
-542.252	-200.000	0.011	-0.453
-541.237	90.260	-0.114	0.128
-540.223	16.576	0.032	0.025
-539.208	-71.378	-0.219	0.082
-538.193	18.519	-0.222	-0.178
-537.179	582.424	-0.111	-0.273
-536.164	319.630	0.110	-0.209
-535.150	584.316	0.020	-0.050
-534.135	-43.045	-0.122	0.062
-533.121	-104.178	-0.148	-0.034
-532.106	-74.812	-0.308	-0.111
-531.091	-124.888	0.256	0.040
-530.077	142.561	0.171	0.227
-529.062	454.533	-0.080	0.178
-528.048	-200.000	0.007	0.350
-527.033	-200.000	0.015	0.083
-526.018	303.122	-0.152	-0.283
-525.004	467.188	-0.230	-0.515
-523.989	1.806	0.229	0.165
-522.975	-200.000	-0.020	-0.248
-521.960	257.053	-0.086	-0.148
-520.945	-12.517	0.044	0.029
-519.931	159.379	0.150	-0.208
-518.916	90.145	-0.010	-0.011
-517.902	292.092	-0.076	0.139
-516.887	-200.000	0.011	-0.598
-515.872	45.985	-0.222	0.205
-514.858	124.293	-0.132	0.166
-513.843	-75.732	0.158	0.056
-512.829	-98.207	-0.246	-0.063
-511.814	-47.556	-0.265	0.129
-510.799	-25.120	0.081	-0.048
-509.785	-130.646	-0.093	0.013
-508.770	-58.987	0.072	0.031
-507.756	402.256	0.060	0.126
-506.741	-148.510	-0.202	0.017
-505.726	-143.484	-0.142	0.014
-504.712	-200.000	0.013	-0.071
-503.697	-200.000	-0.014	-0.122
-502.683	-126.620	-0.179	0.026
-501.668	190.923	-0.178	0.268
-500.653	40.659	0.140	-0.126
-499.639	-156.150	0.290	0.018
-498.624	-138.563	0.267	0.029
-497.610	271.123	0.102	-0.179
-496.595	800.000	-0.021	0.070
-495.581	404.190	-0.077	0.162
-494.566	4.773	0.281	-0.207
-493.551	-28.192	-0.218	0.126
-492.537	-183.588	0.192	-0.003
-491.522	-143.417	-0.325	0.031
-490.508	-131.512	-0.321	-0.042
-489.493	62.838	0.127	-0.127
-488.478	-87.961	-0.077	0.023
-487.464	-168.557	-0.351	0.013
-486.449	800.000	0.051	-0.193
-485.435	456.856	0.144	0.320
-484.420	83.275	0.145	-0.158
-483.405	-200.000	-0.005	-0.094
-482.391	-64.901	-0.215	-0.087
-481.376	107.826	0.135	-0.161
-480.362	-200.000	-0.035	0.224
-479.347	-88.810	0.076	0.023
-478.332	278.716	-0.103	-0.184
-477.318	-200.000	-0.166	0.000
-476.303	-53.676	0.334	-0.153
-475.289	-200.000	-0.001	0.055
-474.274	534.607	-0.089	0.210
-473.259	168.416	-0.077	0.110
-472.245	98.006	0.102	0.117
-471.230	100.013	-0.050	-0.058
-470.216	21.010	0.251	0.203
-469.201	-145.738	0.118	-0.010
-468.186	-200.000	0.044	0.364
-467.172	52.496	0.077	0.073
-466.157	145.003	-0.013	0.017
-465.143	-196.687	0.194	-0.001
-464.128	-200.000	-0.016	0.154
-463.113	199.957	-0.169	-0.258
-462.099	83.415	-0.121	-0.132
-461.084	800.000	-0.022	-0.090
-460.070	5.883	0.102	0.076
-459.055	-3.376	0.254	0.176
-458.040	272.193	0.120	-0.212
-457.026	-147.661	-0.281	-0.024
-456.011	-104.801	-0.114	-0.026
-454.997	-200.000	-0.035	0.158
-453.982	87.295	-0.192	-0.212
-452.968	177.260	-0.119	-0.173
-451.953	-85.131	-0.152	-0.047
-450.938	-39.408	-0.132	-0.069
-449.924	800.000	-0.039	-0.168
-448.909	21.493	0.083	-0.067
-447.895	-200.000	-0.042	0.209
-446.880	344.455	0.108	0.212
-445.865	-96.437	-0.435	-0.115
-444.851	-113.681	-0.181	-0.035
-443.836	-200.000	0.007	0.300
-442.822	-85.916	0.326	0.101
-441.807	-200.000	-0.011	-0.051
-440.792	55.197	-0.077	0.074
-439.778	27.821	0.068	0.057
-438.763	46.610	0.315	-0.292
-437.749	-200.000	-0.007	0.081
-436.734	-11.796	0.032	-0.021
-435.719	-186.662	-0.155	0.002
-434.705	49.075	0.141	-0.132
-433.690	-76.112	-0.303	0.107
-432.676	179.059	0.167	-0.244
-431.661	52.376	-0.094	0.089
-430.646	-21.003	0.144	-0.088
-429.632	45.520	-0.263	-0.242
-428.617	85.488	0.073	0.080
-427.603	-127.718	-0.240	-0.035
-426.588	67.978	0.221	-0.225
-425.573	-146.417	0.157	-0.014
-424.559	210.202	-0.206	0.323
-423.544	800.000	0.020	0.076
-422.530	225.854	0.066	-0.106
-421.515	268.930	0.055	-0.096
-420.500	-29.300	0.204	0.116
-419.486	147.343	0.106	0.143
-418.471	-200.000	-0.005	0.132
-417.457	-200.000	0.015	0.234
-416.442	238.756	-0.155	0.256
-415.428	-112.532	-0.171	-0.034
-414.413	70.425	0.167	-0.172
-413.398	-160.409	0.120	-0.006
-412.384	-200.000	0.018	0.082
-411.369	63.966	-0.106	0.106
-410.355	-200.000	-0.012	0.266
-409.340	68.728	-0.176	-0.180
-408.325	31.209	0.104	0.089
-407.311	-124.826	0.247	0.038
-406.296	-134.121	-0.296	-0.036
-405.282	412.205	0.100	-0.211
-404.267	-80.105	-0.175	-0.059
-403.252	-200.000	-0.003	0.060
-402.238	-9.452	0.022	-0.014
-401.223	800.000	-0.083	-0.334
-400.209	-57.844	-0.085	0.037
-399.194	-106.492	-0.228	0.051
-398.179	12.607	0.146	0.112
-397.165	800.000	-0.044	0.149
-396.150	800.000	0.034	0.101
-395.136	660.772	-0.153	-0.392
-394.121	379.564	0.079	0.161
-393.106	-145.372	-0.069	0.006
-392.092	222.033	-0.089	-0.142
-391.077	109.697	-0.078	-0.093
-390.063	702.725	-0.121	-0.316
-389.048	162.176	-0.008	0.012
-388.033	-200.000	-0.001	0.102
-387.019	85.402	0.112	-0.122
-386.004	107.518	0.051	-0.060
-384.990	-117.392	0.238	-0.043
-383.975	298.668	0.051	-0.094
-382.960	299.194	0.028	-0.051
-381.946	-84.188	-0.066	-0.021
-380.931	187.197	0.140	0.208
-379.917	203.444	0.076	-0.118
-378.902	475.884	0.199	-0.447
-377.888	800.000	0.023	0.078
-376.873	774.204	-0.141	-0.384
-375.858	49.209	0.103	-0.096
-374.844	186.058	-0.127	0.188
-373.829	-61.953	-0.504	0.210
-372.815	-158.453	0.105	0.006
-371.800	-19.185	-0.203	-0.126
-370.785	800.000	0.023	0.073
-369.771	-27.123	0.184	-0.107
-368.756	-161.420	-0.310	-0.016
-367.742	-72.366	-0.334	0.123
-366.727	-97.364	0.259	0.067
-365.712	101.805	0.188	-0.218
-364.698	76.057	-0.111	0.117
-363.683	3.604	0.130	-0.094
-362.669	800.000	0.031	0.127
-361.654	89.711	0.254	0.282
-360.639	-139.568	0.027	-0.003
-359.625	-18.441	0.126	-0.078
-358.610	-7.314	0.076	0.051
-357.596	-200.000	0.023	0.164
-356.581	800.000	-0.116	-0.458
-355.566	-35.589	-0.241	-0.130
-354.552	-0.133	0.202	0.143
-353.537	-126.559	0.578	0.085
-352.523	137.985	0.120	0.156
-351.508	-142.663	-0.304	0.030
-350.493	250.882	-0.032	-0.055
-349.479	75.416	-0.187	-0.196
-348.464	-104.190	0.176	0.041
-347.450	-200.000	0.023	0.187
-346.435	-8.753	-0.204	0.136
-345.420	-36.600	0.439	0.235
-344.406	-86.780	0.062	-0.019
-343.391	-45.381	0.244	0.120
-342.377	520.413	0.215	0.502
-341.362	-2.444	0.232	-0.162
-340.348	-200.000	-0.052	0.257
-339.333	94.522	-0.145	0.164
-338.318	-61.184	0.080	0.034
-337.304	52.878	-0.214	0.203
-336.289	-200.000	-0.018	-0.334
-335.275	4.839	-0.249	-0.182
-334.260	-22.712	-0.096	0.058
-333.245	10.418	-0.190	0.144
-332.231	-43.761	0.106	-0.053
-331.216	89.653	0.223	-0.247
-330.202	-73.043	0.284	-0.104
-329.187	-66.726	-0.292	-0.115
-328.172	-108.645	-0.369	0.079
-327.158	-38.594	0.383	0.201
-326.143	-5.214	0.088	-0.060
-325.129	-151.931	-0.261	-0.019
-324.114	-10.173	-0.092	-0.061
-323.099	-145.332	0.021	-0.002
-322.085	-200.000	-0.001	-0.039
-321.070	-43.703	-0.229	-0.114
-320.056	-128.402	0.304	-0.043
-319.041	-113.109	0.086	0.017
-318.026	203.764	-0.040	0.061
-317.012	-56.551	-0.134	-0.059
-315.997	-200.000	-0.040	0.443
-314.983	26.248	0.115	0.095
-313.968	-200.000	-0.025	-0.117
-312.953	131.162	0.144	0.183
-311.939	174.343	-0.100	0.143
-310.924	-56.380	-0.175	-0.077
-309.910	-27.636	0.117	-0.068
-308.895	153.089	-0.135	-0.184
-307.880	39.130	-0.145	0.129
-306.866	800.000	0.068	-0.277
-305.851	-34.177	-0.364	0.198
-304.837	89.879	0.146	0.162
-303.822	800.000	0.032	0.124
-302.807	18.219	-0.268	0.213
-301.793	-200.000	0.027	-0.381
-300.778	-178.919	0.253	0.006
-299.764	-200.000	-0.013	-0.069
-298.749	-38.216	-0.256	0.135
-297.735	-183.382	-0.080	-0.001
-296.720	138.017	-0.064	-0.083
-295.705	800.000	0.096	0.377
-294.691	800.000	0.051	0.176
-293.676	89.498	-0.043	0.047
-292.662	92.360	-0.195	-0.219
-291.647	800.000	-0.033	0.126
-290.632	-64.557	-0.185	-0.074
-289.618	800.000	0.084	-0.260
-288.603	27.934	0.247	0.207
-287.589	-200.000	-0.003	0.211
-286.574	148.507	-0.096	0.129
-285.559	-200.000	-0.002	0.285
-284.545	-200.000	0.004	-0.051
-283.530	-163.178	0.076	-0.004
-282.516	-142.623	-0.261	-0.025
-281.501	-200.000	0.031	0.000
-280.486	46.125	-0.159	0.146
-279.472	-19.947	0.328	0.201
-278.457	154.660	-0.136	0.186
-277.443	-50.158	0.425	0.200
-276.428	466.331	-0.155	-0.344
-275.413	-67.958	-0.140	-0.054
-274.399	302.667	0.011	0.021
-273.384	800.000	0.087	0.339
-272.370	-78.023	-0.442	0.151
-271.355	-117.828	-0.203	-0.036
-270.340	330.694	0.093	0.177
-269.326	20.801	0.209	0.168
-268.311	142.213	0.099	-0.130
-267.297	23.052	0.239	-0.195
-266.282	-18.386	-0.234	0.145
-265.267	271.644	0.103	0.180
-264.253	-200.000	0.044	-0.201
-263.238	-67.265	0.295	-0.115
-262.224	-89.766	-0.160	0.046
-261.209	182.566	-0.078	-0.114
-260.195	127.767	-0.060	0.076
-259.180	4.374	0.163	-0.119
-258.165	-79.685	0.129	-0.043
-257.151	511.819	-0.071	-0.164
-256.136	216.013	-0.158	-0.248
-255.122	800.000	-0.092	-0.317
-254.107	103.427	-0.097	0.112
-253.092	-200.000	-0.004	0.030
-252.078	-200.000	-0.013	-0.294
-251.063	-18.250	-0.335	-0.207
-250.049	319.955	-0.159	-0.298
-249.034	-152.848	0.154	0.011
-248.019	-70.587	0.162	0.061
-247.005	-97.270	-0.204	0.053
-245.990	-89.541	-0.324	0.094
-244.976	23.913	0.395	0.323
-243.961	385.739	0.033	0.067
-242.946	-98.992	0.075	-0.019
-241.932	-200.000	0.030	0.171
-240.917	-75.911	-0.155	0.054
-239.903	110.862	0.095	-0.113
-238.888	-75.127	-0.244	-0.086
-237.873	243.361	0.099	-0.165
-236.859	-153.902	-0.043	0.003
-235.844	-200.000	-0.011	-0.073
-234.830	-117.364	0.301	0.054
-233.815	64.157	0.103	-0.103
-232.800	-200.000	-0.010	-0.268
-231.786	800.000	-0.125	-0.400
-230.771	-44.626	-0.063	0.031
-229.757	-4.318	0.127	0.087
-228.742	-77.543	0.203	0.070
-227.727	223.879	-0.126	0.202
-226.713	-176.119	-0.440	-0.011
-225.698	22.845	0.146	-0.118
-224.684	-16.568	0.151	0.095
-223.669	-124.967	-0.082	0.013
-222.655	399.377	0.136	0.282
-221.640	37.308	-0.165	0.145
-220.625	707.626	0.047	-0.123
-219.611	-106.714	0.305	-0.067
-218.596	67.152	-0.335	-0.338
-217.582	-49.901	0.123	0.058
-216.567	-76.179	0.228	0.079
-215.552	127.355	0.131	0.164
-214.538	800.000	0.054	-0.161
-213.523	186.174	0.143	0.211
-212.509	-194.503	0.307	-0.002
-211.494	-80.340	0.180	0.059
-210.479	-162.644	-0.105	-0.005
-209.465	800.000	0.072	0.209
-208.450	737.516	0.017	0.046
-207.436	2.338	-0.198	-0.142
-206.421	-53.301	0.157	0.071
-205.406	130.813	-0.069	0.087
-204.392	145.501	-0.051	-0.067
-203.377	476.702	0.039	-0.087
-202.363	458.192	0.051	0.112
-201.348	117.659	0.159	-0.193
-200.333	386.376	0.097	0.197
-199.319	32.012	0.158	-0.135
-198.304	-70.165	-0.340	-0.128
-197.290	-200.000	0.000	-0.329
-196.275	-3.097	-0.281	0.193
-195.260	314.538	-0.121	-0.224
-194.246	-173.671	0.164	0.005
-193.231	800.000	0.038	-0.106
-192.217	800.000	0.040	0.166
-191.202	-200.000	-0.002	-0.120
-190.187	-44.676	-0.254	-0.125
-189.173	800.000	0.065	-0.272
-188.158	122.808	0.184	-0.228
-187.144	74.912	0.175	0.182
-186.129	-57.013	0.303	0.132
-185.114	-5.062	0.145	0.099
-184.100	187.638	0.238	0.351
-183.085	-200.000	0.016	-0.278
-182.071	800.000	0.081	0.301
-181.056	-200.000	-0.015	-0.069
-180.042	35.045	0.112	-0.097
-179.027	-12.422	0.177	0.114
-178.012	184.506	-0.079	0.115
-176.998	291.486	-0.144	0.259
-175.983	-200.000	0.092	-0.000
-174.969	5.246	0.028	-0.020
-173.954	-200.000	0.050	-0.241
-172.939	117.024	0.152	0.184
-171.925	62.860	-0.254	0.251
-170.910	-200.000	-0.006	0.119
-169.896	57.777	0.157	0.152
-168.881	-40.027	-0.228	-0.118
-167.866	-200.000	0.033	0.183
-166.852	232.284	0.066	-0.108
-165.837	36.851	0.301	-0.263
-164.823	36.814	0.241	0.210
-163.808	0.655	0.318	0.224
-162.793	292.669	-0.062	-0.111
-161.779	-115.559	0.175	-0.033
-160.764	-109.452	-0.108	-0.023
-159.750	372.064	0.100	0.201
-158.735	-171.188	0.091	0.003
-157.720	158.900	-0.037	0.051
-156.706	-30.119	0.159	0.089
-155.691	-58.546	0.317	0.136
-154.677	71.009	-0.057	0.058
-153.662	-200.000	-0.013	-0.095
-152.647	-13.969	-0.218	0.139
-151.633	-103.833	0.407	0.094
-150.618	800.000	0.036	-0.115
-149.604	-68.994	0.189	0.072
-148.589	-88.958	-0.031	-0.009
-147.574	793.086	-0.120	0.326
-146.560	-157.497	0.254	0.015
-145.545	-200.000	-0.021	0.194
-144.531	70.566	0.183	0.186
-143.516	269.311	-0.097	-0.167
-142.502	-124.231	0.499	0.077
-141.487	1.327	-0.311	-0.220
-140.472	-200.000	0.025	0.223
-139.458	-200.000	-0.107	-0.000
-138.443	-39.085	-0.191	0.099
-137.429	90.291	0.200	0.220
-136.414	-12.224	-0.136	0.088
-135.399	-21.288	0.279	0.168
-134.385	800.000	0.031	0.101
-133.370	331.318	-0.168	-0.319
-132.356	-98.919	-0.207	-0.052
-131.341	-147.152	-0.347	0.029
-130.326	-158.653	0.462	-0.026
-129.312	-76.289	-0.159	-0.055
-128.297	-43.216	0.324	-0.162
-127.283	-88.658	0.380	0.111
-126.268	37.483	0.029	-0.025
-125.253	800.000	0.067	0.246
-124.239	-200.000	0.011	-0.164
-123.224	436.185	0.066	0.142
-122.210	-107.187	-0.219	-0.048
-121.195	800.000	0.071	-0.240
-120.180	-87.981	-0.098	0.029
