DTS Sentinel unit serial number:	SN413079Multiplexer serial number:	ORYXHardware model number:	OX4-SRSoftware version number:	ORYX F/W v4.00 Oryx Data Collector v3.7.2.0data status	okinstallation	princeton_trtdifferential loss correction	single-endedforward channel	channel 2reverse channel	N/Adate	2019/09/13time	01:11:35forward acquisition time	60.00reverse acquisition time	0.00gamma	496.2192k internal	0.2333k external	0.2333temperature offset calibration	1.0163default loss term (dB/km)	0.3790temperature slope calibration	1.0000multiplexer offset coefficient	1.0000multiplexer slope coefficient	1.0000fibre end	0.00T internal ref (°C)	27.94T ext. ref 1 (°C)	3.69T ext. ref 2 (°C)	22.58length (m)	temperature (°C)	Stokes	anti-Stokes-747.200	613.254	-0.073	-0.184
-746.185	290.068	-0.057	0.104
-745.171	-102.233	0.233	0.056
-744.156	156.103	-0.274	0.380
-743.142	81.834	0.156	0.169
-742.127	-67.350	-0.330	-0.131
-741.112	-200.000	0.005	0.034
-740.098	-124.710	-0.330	-0.051
-739.083	-152.639	-0.282	-0.020
-738.069	-121.879	0.184	-0.030
-737.054	330.858	-0.070	0.136
-736.039	-136.957	-0.069	-0.008
-735.025	-49.784	0.425	0.203
-734.010	-140.881	-0.530	-0.055
-732.996	221.671	0.096	-0.156
-731.981	46.079	-0.084	-0.078
-730.966	-6.776	0.080	-0.054
-729.952	-87.022	-0.144	0.044
-728.937	-18.651	0.312	-0.195
-727.923	-44.812	0.138	0.069
-726.908	170.575	-0.091	0.131
-725.894	-200.000	0.002	0.025
-724.879	800.000	-0.103	-0.287
-723.864	-103.583	0.206	-0.049
-722.850	539.260	-0.153	-0.367
-721.835	-106.348	-0.239	-0.054
-720.821	-6.709	-0.151	-0.103
-719.806	-120.079	-0.379	-0.065
-718.791	221.903	-0.058	-0.094
-717.777	800.000	-0.045	-0.132
-716.762	-115.660	-0.253	0.048
-715.748	-99.687	0.103	0.026
-714.733	82.551	-0.175	-0.191
-713.718	-200.000	0.026	0.129
-712.704	210.080	0.026	-0.040
-711.689	-39.717	0.174	-0.091
-710.675	79.909	-0.141	-0.152
-709.660	800.000	0.063	0.212
-708.645	-63.205	0.092	-0.038
-707.631	302.148	-0.071	-0.132
-706.616	297.762	0.045	0.083
-705.602	-45.209	0.178	0.089
-704.587	-9.002	-0.179	0.120
-703.572	11.576	-0.299	0.230
-702.558	4.044	-0.175	0.128
-701.543	-10.160	0.309	-0.206
-700.529	-77.969	0.330	0.114
-699.514	-200.000	0.011	0.183
-698.499	318.195	-0.090	0.172
-697.485	7.289	-0.109	0.081
-696.470	199.500	-0.023	-0.036
-695.456	249.413	0.124	-0.212
-694.441	42.054	0.113	0.103
-693.426	239.405	-0.134	-0.225
-692.412	-198.658	-0.174	-0.001
-691.397	-200.000	-0.055	-0.247
-690.383	-89.071	0.182	-0.054
-689.368	483.132	0.058	0.133
-688.354	800.000	-0.045	-0.188
-687.339	-200.000	0.032	-0.217
-686.324	-136.574	0.053	0.006
-685.310	-200.000	-0.009	0.139
-684.295	9.663	-0.258	-0.196
-683.281	-51.314	-0.297	0.139
-682.266	-200.000	-0.023	0.115
-681.251	-79.170	0.121	-0.041
-680.237	-162.120	-0.117	-0.006
-679.222	-160.691	0.244	0.013
-678.208	-73.917	0.279	-0.102
-677.193	-14.184	-0.367	-0.237
-676.178	-200.000	-0.034	-0.289
-675.164	-15.074	0.082	0.053
-674.149	-86.586	0.096	-0.030
-673.135	169.452	0.043	-0.061
-672.120	-101.843	-0.076	-0.018
-671.105	-200.000	-0.021	0.219
-670.091	-123.286	-0.119	-0.019
-669.076	-200.000	-0.015	-0.193
-668.062	179.557	-0.167	-0.246
-667.047	435.345	0.005	-0.011
-666.032	-66.990	-0.077	0.031
-665.018	29.005	-0.197	-0.168
-664.003	248.474	-0.086	-0.146
-662.989	800.000	-0.028	0.092
-661.974	-10.219	-0.140	0.093
-660.959	800.000	0.055	-0.155
-659.945	-56.097	-0.120	0.054
-658.930	-200.000	-0.029	-0.168
-657.916	32.334	0.228	0.197
-656.901	618.688	0.090	-0.227
-655.886	800.000	-0.065	0.203
-654.872	-41.077	0.327	-0.169
-653.857	107.550	-0.057	-0.068
-652.843	31.856	-0.195	-0.168
-651.828	-85.478	-0.150	-0.047
-650.814	-200.000	-0.016	-0.231
-649.799	-6.652	-0.173	-0.118
-648.784	800.000	0.066	0.210
-647.770	-59.537	-0.193	-0.083
-646.755	800.000	-0.036	-0.138
-645.741	-48.153	0.209	-0.101
-644.726	19.653	-0.213	-0.171
-643.711	12.461	0.229	-0.177
-642.697	161.427	0.161	0.225
-641.682	-200.000	-0.008	0.042
-640.668	68.385	0.076	0.078
-639.653	-137.868	0.116	0.013
-638.638	-200.000	-0.051	0.236
-637.624	236.177	0.049	0.082
-636.609	300.965	-0.063	-0.116
-635.595	-89.676	0.116	-0.034
-634.580	-29.789	-0.171	0.097
-633.565	127.071	0.049	-0.062
-632.551	204.282	0.141	0.219
-631.536	210.486	0.099	-0.155
-630.522	14.439	0.195	0.153
-629.507	-154.127	0.150	0.010
-628.492	-76.183	0.276	-0.097
-627.478	-200.000	-0.010	0.113
-626.463	150.143	-0.142	-0.193
-625.449	71.269	-0.116	0.120
-624.434	-200.000	0.026	-0.153
-623.419	-135.862	0.357	0.042
-622.405	143.105	-0.118	-0.157
-621.390	2.541	0.139	0.101
-620.376	-71.791	0.133	0.050
-619.361	256.725	0.039	-0.067
-618.346	-22.499	0.096	0.058
-617.332	35.775	-0.098	0.086
-616.317	143.748	-0.145	-0.194
-615.303	-133.457	-0.075	0.009
-614.288	43.748	-0.222	-0.204
-613.273	-129.611	-0.022	0.003
-612.259	-200.000	0.034	-0.324
-611.244	-75.386	0.195	-0.070
-610.230	800.000	0.052	-0.203
-609.215	800.000	0.083	-0.272
-608.201	-131.997	-0.198	0.026
-607.186	-117.473	0.044	-0.008
-606.171	-142.197	-0.264	-0.026
-605.157	117.780	0.106	-0.130
-604.142	-89.239	0.050	0.015
-603.128	-200.000	-0.005	0.023
-602.113	37.453	-0.114	0.101
-601.098	221.905	-0.090	-0.145
-600.084	800.000	0.040	0.135
-599.069	-128.592	0.065	-0.009
-598.055	162.387	-0.091	-0.127
-597.040	-57.537	0.317	-0.139
-596.025	-164.894	0.114	0.005
-595.011	-200.000	-0.028	-0.174
-593.996	-200.000	-0.030	0.190
-592.982	440.106	-0.110	0.241
-591.967	358.923	-0.187	0.373
-590.952	800.000	-0.064	0.263
-589.938	-40.347	-0.246	0.128
-588.923	32.388	0.211	0.182
-587.909	-120.303	-0.303	0.052
-586.894	-137.451	0.293	0.033
-585.879	430.338	0.189	0.409
-584.865	103.467	-0.034	0.040
-583.850	-20.581	0.047	-0.029
-582.836	-200.000	0.032	-0.275
-581.821	-39.752	-0.293	-0.153
-580.806	27.972	-0.123	0.103
-579.792	120.081	-0.086	-0.106
-578.777	189.967	0.165	-0.248
-577.763	117.825	-0.078	-0.096
-576.748	-200.000	-0.046	0.296
-575.733	-128.012	0.036	0.005
-574.719	-88.265	-0.356	0.107
-573.704	-200.000	-0.012	-0.270
-572.690	157.968	0.134	-0.186
-571.675	-124.182	0.265	-0.041
-570.661	-19.944	-0.183	0.113
-569.646	-34.189	0.073	-0.040
-568.631	-188.238	-0.183	-0.002
-567.617	449.148	0.112	0.247
-566.602	117.594	-0.194	0.239
-565.588	-1.102	0.149	-0.105
-564.573	-122.506	-0.172	0.028
-563.558	-128.863	0.114	0.016
-562.544	-109.783	0.290	0.061
-561.529	448.750	-0.055	0.120
-560.515	122.578	-0.183	-0.229
-559.500	244.374	-0.132	-0.222
-558.485	139.735	0.031	-0.041
-557.471	180.651	-0.299	-0.438
-556.456	-16.235	-0.075	0.048
-555.442	-166.055	-0.204	-0.009
-554.427	517.682	0.041	-0.095
-553.412	-200.000	-0.035	-0.385
-552.398	-114.201	-0.398	-0.077
-551.383	-57.194	0.218	0.096
-550.369	15.027	0.286	0.224
-549.354	7.694	-0.075	-0.056
-548.339	31.646	-0.121	-0.104
-547.325	-200.000	-0.005	-0.191
-546.310	440.777	-0.098	-0.214
-545.296	-34.430	0.452	-0.247
-544.281	-129.134	-0.088	-0.012
-543.266	224.409	-0.149	-0.240
-542.252	800.000	-0.064	0.218
-541.237	-159.548	0.213	-0.012
-540.223	-109.097	0.076	0.016
-539.208	-200.000	-0.073	-0.334
-538.193	-200.000	0.019	-0.086
-537.179	-90.488	-0.232	-0.067
-536.164	-33.940	0.392	-0.215
-535.150	225.651	-0.161	-0.260
-534.135	37.648	0.064	-0.057
-533.121	800.000	0.079	0.318
-532.106	262.387	0.059	-0.102
-531.091	-200.000	0.045	0.243
-530.077	-200.000	0.029	0.150
-529.062	-70.587	0.296	-0.112
-528.048	-200.000	-0.010	0.124
-527.033	-137.846	0.318	0.036
-526.018	-200.000	-0.032	0.222
-525.004	-115.254	-0.151	0.028
-523.989	632.844	-0.147	-0.371
-522.975	-111.822	0.117	-0.024
-521.960	-200.000	0.027	0.307
-520.945	-100.527	-0.328	-0.081
-519.931	-18.523	0.293	0.182
-518.916	173.638	-0.153	-0.221
-517.902	309.276	-0.121	0.225
-516.887	-46.280	-0.201	-0.099
-515.872	-133.793	-0.037	-0.005
-514.858	-81.546	0.073	0.024
-513.843	-36.601	0.233	0.125
-512.829	488.283	-0.167	0.380
-511.814	-1.372	-0.103	-0.073
-510.799	-200.000	0.023	-0.119
-509.785	-200.000	0.064	-0.585
-508.770	203.166	-0.043	-0.066
-507.756	-100.116	0.264	-0.065
-506.741	-5.906	0.120	-0.081
-505.726	-54.316	-0.152	-0.069
-504.712	22.024	-0.070	-0.057
-503.697	-200.000	0.004	0.043
-502.683	3.999	0.084	-0.061
-501.668	-7.984	0.179	-0.120
-500.653	-174.951	0.311	0.009
-499.639	332.732	0.148	-0.285
-498.624	64.567	0.056	0.056
-497.610	-97.264	0.415	-0.108
-496.595	239.670	-0.109	-0.180
-495.581	-108.727	-0.287	0.061
-494.566	190.631	-0.249	0.373
-493.551	-200.000	-0.013	-0.197
-492.537	-111.090	0.213	0.043
-491.522	85.537	0.075	-0.082
-490.508	-58.435	0.032	-0.014
-489.493	-104.061	-0.231	0.053
-488.478	-200.000	0.040	0.287
-487.464	336.190	-0.093	0.180
-486.449	800.000	-0.026	0.096
-485.435	-131.198	0.080	-0.011
-484.420	205.572	0.138	0.213
-483.405	-200.000	-0.062	-0.345
-482.391	125.497	0.219	0.275
-481.376	-91.763	0.115	0.032
-480.362	-200.000	-0.011	-0.149
-479.347	-200.000	-0.004	-0.069
-478.332	-200.000	0.033	0.228
-477.318	-139.965	-0.274	0.029
-476.303	800.000	0.071	-0.246
-475.289	800.000	0.067	0.219
-474.274	-106.290	-0.179	0.040
-473.259	32.151	-0.219	-0.188
-472.245	82.196	0.231	0.249
-471.230	-200.000	0.009	0.275
-470.216	42.117	-0.117	0.106
-469.201	-121.881	-0.445	0.073
-468.186	8.268	-0.195	-0.146
-467.172	489.588	-0.150	0.340
-466.157	-122.057	-0.297	0.049
-465.143	-200.000	-0.009	0.205
-464.128	-16.486	-0.089	0.056
-463.113	73.706	0.240	0.250
-462.099	389.413	-0.080	-0.165
-461.084	-200.000	-0.019	0.101
-460.070	119.095	-0.064	0.079
-459.055	60.786	0.157	0.154
-458.040	-130.725	0.228	-0.030
-457.026	-66.227	-0.134	0.053
-456.011	325.883	-0.016	-0.030
-454.997	-2.357	0.042	-0.030
-453.982	-200.000	0.035	0.188
-452.968	-200.000	0.010	0.119
-451.953	-155.745	0.069	-0.004
-450.938	-200.000	-0.058	-0.570
-449.924	-50.564	0.045	0.021
-448.909	32.604	0.163	0.140
-447.895	3.234	-0.044	-0.032
-446.880	-97.939	0.191	-0.049
-445.865	800.000	-0.025	0.090
-444.851	-64.534	0.229	0.092
-443.836	431.774	-0.134	-0.288
-442.822	800.000	0.111	0.315
-441.807	-21.514	0.349	-0.212
-440.792	-23.048	0.351	0.210
-439.778	197.917	-0.123	0.187
-438.763	459.649	-0.130	0.287
-437.749	-200.000	-0.015	-0.201
-436.734	212.247	-0.126	0.197
-435.719	-41.401	0.232	0.119
-434.705	-200.000	-0.027	0.422
-433.690	474.789	0.096	0.215
-432.676	496.993	0.054	0.124
-431.661	457.547	0.165	-0.365
-430.646	584.948	0.055	0.134
-429.632	-108.386	-0.149	0.032
-428.617	-134.436	-0.200	0.024
-427.603	-18.997	0.243	-0.150
-426.588	-43.191	0.177	-0.089
-425.573	-200.000	0.041	-0.224
-424.559	-51.012	0.243	-0.113
-423.544	-156.539	-0.321	-0.020
-422.530	800.000	-0.090	-0.280
-421.515	40.015	0.316	0.282
-420.500	273.396	0.200	0.351
-419.486	800.000	-0.097	0.289
-418.471	281.435	0.102	0.181
-417.457	-14.032	0.173	0.111
-416.442	466.886	0.033	0.073
-415.428	800.000	0.023	-0.083
-414.413	-200.000	-0.051	-0.283
-413.398	-24.943	0.187	0.110
-412.384	-81.000	0.091	-0.030
-411.369	-200.000	-0.037	0.194
-410.355	161.765	-0.132	0.184
-409.340	-154.079	0.173	0.012
-408.325	-35.631	0.212	0.114
-407.311	-2.026	0.120	-0.084
-406.296	101.176	-0.136	-0.157
-405.282	-200.000	0.036	0.194
-404.267	-100.473	-0.128	-0.031
-403.252	691.178	-0.097	-0.251
-402.238	-60.095	-0.217	-0.092
-401.223	223.128	0.173	-0.277
-400.209	20.827	-0.205	-0.165
-399.194	800.000	-0.078	0.217
-398.179	-45.167	-0.221	0.109
-397.165	-200.000	0.017	0.302
-396.150	-200.000	0.040	0.247
-395.136	-141.316	0.235	0.024
-394.121	631.079	0.123	0.309
-393.106	287.302	-0.106	-0.190
-392.092	81.429	-0.224	0.240
-391.077	-200.000	0.038	0.260
-390.063	-73.139	-0.197	-0.072
-389.048	-181.146	-0.184	-0.004
-388.033	72.500	-0.219	-0.226
-387.019	-124.333	0.189	0.029
-386.004	54.045	-0.156	-0.149
-384.990	800.000	0.032	0.118
-383.975	-200.000	-0.052	-0.226
-382.960	235.323	0.166	-0.272
-381.946	-17.866	-0.159	-0.099
-380.931	-16.623	-0.054	0.034
-379.917	-200.000	0.018	0.246
-378.902	-64.166	0.362	-0.146
-377.888	-93.727	0.167	0.046
-376.873	174.786	0.130	0.186
-375.858	800.000	-0.162	0.500
-374.844	-41.862	-0.146	-0.074
-373.829	-112.931	-0.075	-0.015
-372.815	-200.000	0.009	0.368
-371.800	-60.566	-0.030	0.013
-370.785	-200.000	-0.076	0.404
-369.771	434.021	0.035	0.075
-368.756	-200.000	-0.020	-0.354
-367.742	279.676	0.100	-0.177
-366.727	800.000	0.097	0.308
-365.712	-37.432	-0.103	0.055
-364.698	800.000	-0.018	0.061
-363.683	-200.000	0.023	0.206
-362.669	-103.522	-0.377	0.088
-361.654	418.266	0.046	0.098
-360.639	-200.000	0.020	-0.194
-359.625	-200.000	0.023	-0.180
-358.610	-86.098	-0.468	-0.143
-357.596	-60.916	-0.110	-0.046
-356.581	59.873	-0.037	-0.036
-355.566	-153.566	-0.276	0.019
-354.552	235.546	-0.068	-0.111
-353.537	800.000	-0.017	-0.055
-352.523	-67.360	0.202	-0.079
-351.508	800.000	0.058	-0.219
-350.493	378.709	0.120	-0.244
-349.479	-200.000	-0.026	-0.171
-348.464	5.065	-0.128	-0.093
-347.450	-148.119	0.128	-0.010
-346.435	434.116	-0.061	0.131
-345.420	784.265	-0.180	-0.488
-344.406	3.863	-0.140	-0.101
-343.391	31.227	-0.027	-0.023
-342.377	-111.587	-0.307	0.062
-341.362	75.202	-0.105	0.109
-340.348	585.071	-0.034	0.081
-339.333	-61.353	0.141	0.059
-338.318	-101.645	-0.087	-0.021
-337.304	-78.823	0.133	0.045
-336.289	-71.925	0.185	0.068
-335.275	500.923	-0.105	-0.240
-334.260	-200.000	0.018	-0.171
-333.245	-200.000	-0.036	-0.196
-332.231	-1.550	-0.059	0.041
-331.216	12.511	-0.110	0.084
-330.202	59.265	0.135	0.132
-329.187	-200.000	0.003	-0.536
-328.172	341.429	-0.163	0.314
-327.158	16.469	-0.343	-0.268
-326.143	6.567	0.051	-0.038
-325.129	-62.547	0.177	-0.073
-324.114	-200.000	-0.038	0.180
-323.099	800.000	-0.061	0.212
-322.085	-93.708	0.333	-0.091
-321.070	264.973	-0.071	-0.122
-320.056	-200.000	-0.021	0.221
-319.041	-12.450	0.228	-0.147
-318.026	51.364	0.305	-0.287
-317.012	-200.000	-0.008	-0.058
-315.997	800.000	-0.032	-0.115
-314.983	-41.057	-0.209	0.107
-313.968	-132.929	-0.032	0.004
-312.953	711.819	0.135	0.354
-311.939	247.553	0.158	0.263
-310.924	800.000	-0.072	0.208
-309.910	3.484	-0.097	0.070
-308.895	800.000	-0.022	-0.061
-307.880	-200.000	-0.012	-0.054
-306.866	800.000	0.083	-0.283
-305.851	111.361	0.079	0.094
-304.837	-200.000	-0.026	0.183
-303.822	28.769	0.061	0.051
-302.807	800.000	-0.046	-0.139
-301.793	204.094	-0.073	-0.111
-300.778	-8.329	0.355	0.236
-299.764	65.201	-0.315	0.315
-298.749	-54.924	0.107	0.048
-297.735	-200.000	-0.067	0.289
-296.720	800.000	-0.125	0.344
-295.705	202.724	0.106	0.162
-294.691	499.249	0.076	-0.173
-293.676	-114.000	0.048	-0.009
-292.662	800.000	0.036	-0.155
-291.647	-200.000	-0.003	-0.142
-290.632	-200.000	0.007	-0.084
-289.618	-141.725	-0.249	-0.025
-288.603	-200.000	-0.001	0.126
-287.589	782.284	-0.050	-0.135
-286.574	-152.219	0.266	0.019
-285.559	141.777	-0.112	0.147
-284.545	-54.468	-0.094	-0.042
-283.530	396.511	-0.049	0.102
-282.516	64.067	0.309	0.307
-281.501	-36.692	-0.219	0.116
-280.486	35.040	0.048	-0.041
-279.472	800.000	0.055	0.227
-278.457	-49.408	0.220	0.104
-277.443	-200.000	0.003	-0.058
-276.428	800.000	-0.044	-0.156
-275.413	41.549	-0.181	-0.162
-274.399	177.681	-0.217	0.312
-273.384	-41.205	0.202	0.103
-272.370	63.427	0.270	0.267
-271.355	-60.911	-0.294	-0.123
-270.340	-200.000	-0.005	-0.068
-269.326	-83.977	0.390	-0.122
-268.311	290.182	-0.193	-0.346
-267.297	141.414	-0.109	-0.142
-266.282	-56.449	-0.048	-0.021
-265.267	52.789	0.271	0.256
-264.253	32.430	-0.113	-0.096
-263.238	-45.243	0.089	0.044
-262.224	-53.721	-0.201	-0.091
-261.209	117.808	0.088	0.107
-260.195	-29.151	-0.417	0.236
-259.180	800.000	0.097	-0.299
-258.165	-200.000	0.009	-0.133
-257.151	23.136	-0.106	0.086
-256.136	88.380	0.095	-0.104
-255.122	-75.398	0.288	0.101
-254.107	-80.191	-0.077	-0.025
-253.092	173.979	-0.050	0.071
-252.078	-174.227	-0.287	0.008
-251.063	-35.686	0.235	0.126
-250.049	-113.863	-0.092	-0.018
-249.034	178.672	-0.150	-0.216
-248.019	-117.187	-0.076	-0.014
-247.005	67.451	0.193	0.194
-245.990	-45.416	0.191	0.093
-244.976	-153.034	-0.155	-0.011
-243.961	514.670	-0.095	-0.218
-242.946	800.000	0.071	-0.260
-241.932	370.420	0.024	0.048
-240.917	-200.000	-0.010	-0.128
-239.903	-200.000	-0.034	-0.149
-238.888	365.812	-0.038	-0.076
-237.873	200.010	0.079	-0.119
-236.859	-51.031	0.246	-0.114
-235.844	-26.903	0.153	-0.088
-234.830	-75.285	0.184	0.065
-233.815	-62.209	0.288	-0.118
-232.800	-35.945	0.065	-0.034
-231.786	136.343	-0.082	-0.106
-230.771	400.750	-0.188	-0.388
-229.757	800.000	-0.027	0.115
-228.742	-200.000	0.054	-0.334
-227.727	-181.092	-0.131	0.003
-226.713	-200.000	0.066	-0.372
-225.698	-48.419	-0.171	0.081
-224.684	-200.000	-0.025	0.132
-223.669	-144.652	0.224	0.020
-222.655	-91.018	0.328	-0.093
-221.640	-97.217	-0.217	-0.056
-220.625	-138.261	-0.172	0.019
-219.611	-200.000	0.023	-0.295
-218.596	-200.000	-0.040	-0.180
-217.582	-0.898	0.048	-0.034
-216.567	432.231	0.157	0.335
-215.552	-200.000	0.019	0.133
-214.538	-146.121	-0.177	-0.015
-213.523	-178.074	-0.161	0.004
-212.509	800.000	0.075	0.254
-211.494	397.357	-0.033	0.069
-210.479	-200.000	-0.002	0.118
-209.465	-21.258	-0.215	0.129
-208.450	-200.000	0.010	-0.163
-207.436	-108.015	-0.366	-0.078
-206.421	-50.408	-0.490	0.228
-205.406	-30.318	-0.230	-0.128
-204.392	-45.306	-0.123	0.060
-203.377	-95.265	-0.217	0.057
-202.363	-200.000	0.033	0.216
-201.348	-200.000	-0.034	-0.157
-200.333	85.844	-0.087	0.095
-199.319	-161.529	-0.130	0.007
-198.304	-200.000	0.013	0.064
-197.290	-148.468	-0.098	0.008
-196.275	94.928	-0.175	-0.196
-195.260	-99.827	0.302	-0.074
-194.246	-71.840	-0.117	0.043
-193.231	-200.000	-0.021	0.174
-192.217	-115.491	0.063	0.012
-191.202	800.000	-0.016	0.048
-190.187	28.886	-0.083	0.069
-189.173	35.699	0.036	0.031
-188.158	800.000	-0.068	-0.277
-187.144	-200.000	0.000	0.033
-186.129	154.073	-0.011	-0.015
-185.114	800.000	-0.030	0.130
-184.100	16.450	-0.095	-0.074
-183.085	-76.124	0.371	-0.129
-182.071	-78.164	-0.250	0.084
-181.056	23.739	0.172	0.139
-180.042	168.488	-0.036	0.050
-179.027	-200.000	0.000	-0.036
-178.012	135.283	0.159	-0.203
-176.998	-28.131	-0.126	0.071
-175.983	535.862	-0.079	-0.185
-174.969	-40.380	0.157	0.080
-173.954	-141.175	0.114	-0.011
-172.939	236.143	-0.138	0.224
-171.925	104.496	-0.102	-0.118
-170.910	-5.381	0.188	0.127
-169.896	-200.000	-0.022	0.160
-168.881	-96.382	0.273	-0.071
-167.866	168.703	-0.060	0.084
-166.852	124.367	-0.205	-0.253
-165.837	330.313	0.049	-0.093
-164.823	-53.603	-0.183	0.082
-163.808	-83.627	0.391	0.123
-162.793	62.093	0.162	-0.159
-161.779	1.059	-0.131	-0.092
-160.764	-67.445	0.213	0.082
-159.750	-165.772	0.226	-0.010
-158.735	800.000	-0.064	-0.266
-157.720	184.787	-0.063	-0.092
-156.706	466.981	0.114	-0.250
-155.691	-94.047	0.049	-0.013
-154.677	8.578	0.073	0.054
-153.662	-200.000	-0.223	-0.000
-152.647	-113.205	0.124	-0.024
-151.633	505.680	0.063	0.143
-150.618	197.344	0.083	-0.125
-149.604	69.597	-0.106	-0.108
-148.589	2.690	-0.081	-0.058
-147.574	800.000	-0.052	0.158
-146.560	198.553	-0.095	0.143
-145.545	800.000	0.106	-0.378
-144.531	-90.829	-0.524	-0.148
-143.516	-96.510	-0.555	-0.144
-142.502	-200.000	-0.024	0.246
-141.487	800.000	-0.088	0.242
-140.472	105.358	-0.097	0.113
-139.458	232.740	-0.093	-0.150
-138.443	75.950	-0.139	-0.144
-137.429	530.075	0.036	-0.083
-136.414	-60.017	0.131	0.055
-135.399	46.110	0.104	0.094
-134.385	-6.973	-0.195	-0.130
-133.370	-86.697	0.010	-0.003
-132.356	-200.000	-0.026	0.176
-131.341	-152.605	-0.045	-0.003
-130.326	175.202	0.030	-0.043
-129.312	-136.455	-0.237	0.027
-128.297	35.335	-0.057	0.049
-127.283	-74.993	0.177	-0.062
-126.268	800.000	-0.047	0.178
-125.253	-14.789	0.111	0.070
-124.239	71.684	-0.135	-0.137
-123.224	91.932	0.086	0.095
