DTS Sentinel unit serial number:	SN413079Multiplexer serial number:	ORYXHardware model number:	OX4-SRSoftware version number:	ORYX F/W v4.00 Oryx Data Collector v3.7.2.0data status	okinstallation	princeton_trtdifferential loss correction	single-endedforward channel	channel 2reverse channel	N/Adate	2019/09/12time	11:41:11forward acquisition time	60.00reverse acquisition time	0.00gamma	496.2192k internal	0.2302k external	0.2302temperature offset calibration	1.0070default loss term (dB/km)	0.3790temperature slope calibration	1.0000multiplexer offset coefficient	1.0000multiplexer slope coefficient	1.0000fibre end	0.00T internal ref (°C)	39.67T ext. ref 1 (°C)	1.96T ext. ref 2 (°C)	37.33length (m)	temperature (°C)	Stokes	anti-Stokes-747.200	-113.536	0.011	0.002
-746.185	-200.000	-0.028	0.383
-745.171	-200.000	-0.046	0.268
-744.156	-200.000	0.011	0.550
-743.142	-48.143	0.268	-0.132
-742.127	2.441	-0.197	0.145
-741.112	-200.000	0.014	-0.302
-740.098	260.530	-0.102	0.180
-739.083	53.657	-0.144	-0.141
-738.069	800.000	-0.078	0.330
-737.054	-169.696	0.330	0.012
-736.039	28.457	-0.056	0.048
-735.025	89.885	0.225	0.256
-734.010	-200.000	-0.016	0.111
-732.996	284.569	-0.055	-0.102
-731.981	800.000	0.099	-0.433
-730.966	188.171	-0.030	0.046
-729.952	575.631	0.061	-0.151
-728.937	800.000	0.127	-0.358
-727.923	323.660	-0.003	-0.006
-726.908	-200.000	-0.035	-0.177
-725.894	217.849	-0.123	-0.200
-724.879	-152.706	-0.028	-0.002
-723.864	455.585	-0.119	0.269
-722.850	137.269	-0.088	-0.117
-721.835	352.927	-0.035	-0.071
-720.821	283.657	0.073	-0.134
-719.806	800.000	0.122	0.354
-718.791	-166.948	-0.338	0.014
-717.777	446.444	-0.096	0.214
-716.762	149.857	-0.036	-0.050
-715.748	-200.000	-0.016	0.294
-714.733	-24.273	0.031	0.019
-713.718	409.543	0.082	0.176
-712.704	80.745	0.201	0.221
-711.689	-178.480	-0.380	-0.009
-710.675	-13.125	-0.276	0.183
-709.660	742.538	-0.054	-0.149
-708.645	-38.689	0.202	0.108
-707.631	-79.099	-0.132	-0.046
-706.616	55.802	0.098	0.096
-705.602	207.631	0.236	-0.375
-704.587	457.935	-0.070	0.158
-703.572	-200.000	0.044	-0.266
-702.558	-106.290	-0.173	0.039
-701.543	-200.000	0.025	0.147
-700.529	-110.720	-0.236	-0.050
-699.514	188.441	0.090	0.137
-698.499	229.166	0.025	0.042
-697.485	124.904	-0.035	-0.045
-696.470	800.000	0.178	-0.508
-695.456	-200.000	0.007	-0.079
-694.441	66.198	0.114	0.118
-693.426	-95.826	-0.381	0.103
-692.412	-21.839	-0.152	-0.094
-691.397	95.339	-0.079	-0.092
-690.383	800.000	-0.037	-0.164
-689.368	43.456	0.112	0.104
-688.354	-200.000	-0.035	0.346
-687.339	-161.054	-0.244	-0.013
-686.324	-200.000	0.000	-0.179
-685.310	594.645	0.053	-0.133
-684.295	153.373	-0.202	0.281
-683.281	111.786	0.223	0.274
-682.266	176.175	-0.121	-0.179
-681.251	4.596	-0.164	-0.123
-680.237	-200.000	-0.006	-0.207
-679.222	566.622	-0.054	-0.133
-678.208	45.513	-0.286	-0.268
-677.193	800.000	-0.083	-0.255
-676.178	-3.796	-0.080	0.057
-675.164	800.000	-0.103	0.377
-674.149	-200.000	0.069	-0.331
-673.135	91.192	-0.079	-0.090
-672.120	-54.108	-0.133	0.061
-671.105	335.666	0.045	0.088
-670.091	-38.108	-0.160	-0.086
-669.076	-200.000	-0.019	0.235
-668.062	800.000	-0.035	-0.144
-667.047	456.719	-0.239	-0.538
-666.032	-27.292	0.093	0.055
-665.018	13.471	-0.038	0.030
-664.003	-200.000	-0.010	0.097
-662.989	-200.000	0.026	0.134
-661.974	115.508	-0.134	-0.166
-660.959	-200.000	-0.005	-0.171
-659.945	-117.444	0.439	0.081
-658.930	116.573	-0.063	-0.079
-657.916	15.473	0.198	0.158
-656.901	-200.000	0.025	-0.290
-655.886	-104.208	0.254	0.060
-654.872	800.000	-0.053	-0.152
-653.857	800.000	-0.051	-0.161
-652.843	156.396	-0.100	-0.141
-651.828	-200.000	-0.015	-0.127
-650.814	-49.218	0.044	-0.021
-649.799	30.474	0.096	-0.083
-648.784	-200.000	0.000	0.342
-647.770	800.000	0.045	0.197
-646.755	-149.844	-0.312	0.025
-645.741	-200.000	0.052	-0.444
-644.726	226.345	-0.124	-0.204
-643.711	-200.000	0.036	0.339
-642.697	95.668	-0.038	0.044
-641.682	800.000	-0.009	0.030
-640.668	-75.835	0.056	-0.020
-639.653	-12.885	-0.090	0.060
-638.638	-200.000	0.009	-0.263
-637.624	4.295	-0.218	0.162
-636.609	-200.000	0.078	0.447
-635.595	-147.614	0.047	0.004
-634.580	-200.000	0.029	0.162
-633.565	-200.000	-0.025	-0.204
-632.551	-200.000	0.015	0.165
-631.536	19.991	0.046	0.037
-630.522	-56.312	-0.398	0.180
-629.507	-200.000	0.009	-0.072
-628.492	76.580	0.125	0.134
-627.478	669.870	0.088	0.231
-626.463	215.003	-0.212	-0.341
-625.449	44.791	0.123	-0.115
-624.434	-164.046	0.298	-0.014
-623.419	-200.000	0.037	-0.283
-622.405	141.877	-0.140	-0.189
-621.390	-82.877	-0.124	0.041
-620.376	130.817	0.101	0.132
-619.361	514.093	0.061	0.145
-618.346	800.000	-0.153	-0.457
-617.332	-200.000	0.018	-0.162
-616.317	-200.000	0.025	0.200
-615.303	-31.690	-0.241	0.137
-614.288	-22.067	0.259	-0.160
-613.273	-200.000	-0.026	-0.135
-612.259	-64.705	0.155	-0.064
-611.244	-200.000	-0.012	0.116
-610.230	439.361	-0.012	0.026
-609.215	-200.000	0.004	-0.047
-608.201	-33.224	-0.133	-0.075
-607.186	70.820	-0.283	-0.297
-606.171	771.746	0.144	-0.398
-605.157	110.335	-0.216	-0.264
-604.142	-200.000	0.007	0.134
-603.128	431.908	-0.053	-0.117
-602.113	125.691	0.157	-0.201
-601.098	800.000	-0.066	0.228
-600.084	-200.000	-0.044	0.210
-599.069	-35.950	-0.082	0.045
-598.055	-45.485	-0.467	-0.234
-597.040	-139.968	0.288	-0.031
-596.025	1.713	-0.154	0.113
-595.011	-130.698	-0.204	-0.028
-593.996	6.652	0.328	-0.247
-592.982	-77.301	0.212	0.075
-591.967	10.534	-0.165	0.127
-590.952	800.000	0.109	-0.371
-589.938	35.717	-0.049	-0.043
-588.923	429.216	-0.082	0.180
-587.909	-200.000	0.029	-0.134
-586.894	63.234	0.254	0.258
-585.879	134.628	-0.168	-0.220
-584.865	-200.000	-0.010	0.151
-583.850	-5.615	-0.166	-0.116
-582.836	-200.000	-0.021	-0.200
-581.821	-79.443	-0.293	-0.100
-580.806	19.477	-0.092	0.075
-579.792	-78.067	-0.397	0.138
-578.777	-90.456	0.206	0.061
-577.763	32.559	-0.080	-0.070
-576.748	340.380	0.181	-0.357
-575.733	-187.038	0.176	0.002
-574.719	-200.000	0.041	-0.189
-573.704	669.914	-0.067	0.175
-572.690	-49.468	-0.373	0.180
-571.675	-131.675	0.080	-0.011
-570.661	33.567	-0.285	-0.251
-569.646	158.193	-0.113	-0.158
-568.631	-171.940	-0.068	0.002
-567.617	-200.000	-0.093	0.468
-566.602	84.987	0.172	-0.191
-565.588	88.652	0.046	0.052
-564.573	-16.600	0.032	0.020
-563.558	-200.000	-0.012	0.257
-562.544	278.014	-0.116	-0.209
-561.529	11.913	0.414	0.322
-560.515	-66.165	0.169	0.068
-559.500	439.922	0.180	-0.397
-558.485	41.509	0.187	0.171
-557.471	57.848	0.166	-0.165
-556.456	276.406	-0.217	-0.390
-555.442	-149.588	-0.315	0.025
-554.427	289.082	0.222	-0.406
-553.412	388.673	-0.107	0.223
-552.398	-37.338	0.098	0.053
-551.383	372.655	0.049	0.100
-550.369	-200.000	-0.062	0.276
-549.354	350.661	0.081	0.162
-548.339	52.409	-0.187	0.181
-547.325	55.880	-0.169	0.166
-546.310	390.278	-0.220	-0.462
-545.296	-90.591	0.149	0.044
-544.281	213.834	-0.061	-0.097
-543.266	714.691	-0.032	0.087
-542.252	800.000	-0.023	-0.096
-541.237	800.000	0.018	0.052
-540.223	-120.569	-0.270	0.046
-539.208	-200.000	-0.034	-0.261
-538.193	-111.094	0.408	-0.085
-537.179	-99.951	-0.164	0.041
-536.164	381.180	0.073	-0.151
-535.150	439.854	0.009	-0.019
-534.135	-200.000	-0.019	-0.102
-533.121	-103.187	-0.270	0.065
-532.106	-96.109	0.393	0.105
-531.091	800.000	0.044	-0.186
-530.077	-75.390	0.163	-0.059
-529.062	-117.733	-0.210	0.038
-528.048	-84.321	-0.358	-0.114
-527.033	-128.530	0.095	-0.014
-526.018	62.786	-0.356	0.360
-525.004	14.941	-0.311	0.246
-523.989	-98.918	0.120	-0.031
-522.975	658.085	-0.068	0.176
-521.960	6.068	0.212	0.159
-520.945	6.827	0.193	-0.146
-519.931	-9.200	-0.271	-0.183
-518.916	800.000	-0.020	0.056
-517.902	-101.041	-0.281	0.070
-516.887	89.081	-0.208	0.234
-515.872	800.000	-0.108	0.460
-514.858	-129.721	-0.170	0.024
-513.843	-99.394	-0.077	-0.020
-512.829	-17.142	0.290	0.185
-511.814	-164.505	0.497	0.023
-510.799	283.863	-0.142	0.258
-509.785	-200.000	-0.031	-0.154
-508.770	-198.692	-0.198	0.001
-507.756	431.282	-0.043	-0.095
-506.741	-200.000	-0.013	-0.106
-505.726	-20.431	-0.165	-0.103
-504.712	-128.883	-0.175	0.025
-503.697	293.481	-0.020	-0.037
-502.683	352.158	-0.177	0.355
-501.668	25.480	0.081	0.068
-500.653	-34.565	0.107	0.059
-499.639	-25.813	-0.122	-0.072
-498.624	-200.000	0.005	0.114
-497.610	-38.375	-0.105	-0.056
-496.595	112.999	-0.070	0.085
-495.581	420.165	0.145	-0.315
-494.566	260.167	0.041	-0.072
-493.551	20.077	0.062	-0.050
-492.537	28.431	-0.193	-0.165
-491.522	-160.566	-0.455	0.024
-490.508	-109.030	-0.249	-0.053
-489.493	-153.322	-0.194	-0.014
-488.478	800.000	-0.056	0.241
-487.464	-137.692	0.206	-0.023
-486.449	25.360	0.230	-0.193
-485.435	-154.603	-0.185	-0.012
-484.420	-200.000	-0.012	0.173
-483.405	256.798	0.132	0.229
-482.391	-200.000	-0.052	-0.545
-481.376	-200.000	0.046	-0.336
-480.362	772.022	-0.198	-0.545
-479.347	-54.853	0.038	0.017
-478.332	-10.201	0.207	0.138
-477.318	-67.122	-0.124	0.049
-476.303	-63.979	0.074	0.030
-475.289	593.888	0.136	-0.339
-474.274	800.000	-0.053	0.233
-473.259	-200.000	0.004	0.128
-472.245	392.151	0.058	0.121
-471.230	-200.000	0.019	0.231
-470.216	-200.000	0.017	-0.195
-469.201	153.414	-0.159	0.219
-468.186	-109.728	-0.192	0.041
-467.172	638.729	0.059	-0.152
-466.157	157.818	-0.142	-0.198
-465.143	800.000	0.061	-0.216
-464.128	304.452	0.165	-0.309
-463.113	-141.338	0.297	-0.030
-462.099	-200.000	0.022	-0.150
-461.084	-19.216	-0.210	0.131
-460.070	-200.000	-0.026	-0.171
-459.055	-23.990	0.230	-0.139
-458.040	-74.703	0.438	0.159
-457.026	-98.798	-0.083	-0.021
-456.011	-200.000	-0.005	-0.174
-454.997	210.124	0.055	-0.087
-453.982	-200.000	0.025	-0.148
-452.968	-106.153	0.230	0.052
-451.953	-93.551	0.412	-0.115
-450.938	289.935	0.078	0.142
-449.924	-10.031	-0.322	-0.216
-448.909	-200.000	-0.021	-0.287
-447.895	-200.000	-0.016	-0.270
-446.880	66.481	0.063	0.064
-445.865	-117.529	-0.326	0.059
-444.851	456.523	-0.143	0.319
-443.836	-200.000	-0.018	0.117
-442.822	-200.000	0.009	-0.282
-441.807	115.913	-0.101	-0.124
-440.792	-23.192	-0.058	-0.035
-439.778	561.040	0.057	-0.138
-438.763	108.377	0.100	-0.120
-437.749	680.809	0.121	0.316
-436.734	-129.269	-0.089	0.012
-435.719	-174.144	-0.200	0.006
-434.705	140.558	-0.077	0.102
-433.690	32.336	-0.235	-0.204
-432.676	-200.000	-0.012	-0.144
-431.661	227.742	-0.082	0.134
-430.646	745.777	0.067	0.182
-429.632	-200.000	0.006	0.320
-428.617	159.324	0.079	0.111
-427.603	242.432	0.290	0.489
-426.588	-10.401	-0.187	0.125
-425.573	-200.000	0.085	0.411
-424.559	83.249	0.193	-0.211
-423.544	59.786	0.141	-0.140
-422.530	429.179	-0.042	0.092
-421.515	117.801	0.004	0.005
-420.500	272.086	-0.055	-0.098
-419.486	-48.692	0.136	0.066
-418.471	33.927	0.256	-0.225
-417.457	123.493	0.114	-0.144
-416.442	-141.991	0.232	0.023
-415.428	-200.000	-0.018	0.128
-414.413	800.000	0.059	-0.258
-413.398	155.560	0.192	-0.266
-412.384	-120.489	0.224	0.038
-411.369	22.143	-0.220	0.180
-410.355	535.577	-0.108	-0.258
-409.340	-124.886	0.218	0.034
-408.325	345.901	0.110	0.217
-407.311	456.977	-0.073	0.164
-406.296	-200.000	0.045	0.396
-405.282	514.416	-0.050	-0.117
-404.267	-200.000	-0.008	0.082
-403.252	800.000	-0.059	0.235
-402.238	123.921	-0.075	-0.095
-401.223	-200.000	-0.011	-0.121
-400.209	-78.623	-0.187	0.064
-399.194	247.450	-0.156	-0.264
-398.179	410.182	0.104	0.222
-397.165	-200.000	-0.033	-0.431
-396.150	605.104	-0.105	-0.263
-395.136	14.058	-0.205	0.160
-394.121	163.910	0.135	0.191
-393.106	-85.799	0.053	0.016
-392.092	-83.462	-0.307	0.099
-391.077	260.388	-0.138	0.240
-390.063	233.566	0.212	0.351
-389.048	-139.495	0.263	-0.028
-388.033	-21.923	0.273	-0.167
-387.019	119.788	-0.075	0.093
-386.004	-188.942	-0.303	-0.004
-384.990	-69.108	-0.130	-0.050
-383.975	-22.876	0.208	-0.126
-382.960	-146.823	0.051	0.004
-381.946	197.018	0.100	-0.153
-380.931	53.429	0.171	0.165
-379.917	800.000	-0.009	0.024
-378.902	28.437	-0.157	-0.133
-377.888	-152.298	-0.202	-0.015
-376.873	185.112	0.200	-0.298
-375.858	252.282	-0.162	-0.277
-374.844	126.620	-0.079	-0.100
-373.829	30.647	0.245	0.210
-372.815	-2.362	0.222	-0.157
-371.800	466.626	-0.088	-0.198
-370.785	-176.093	-0.356	0.009
-369.771	20.652	-0.161	-0.131
-368.756	-60.610	0.243	-0.103
-367.742	328.503	-0.138	0.266
-366.727	227.965	0.145	0.237
-365.712	725.012	-0.096	0.256
-364.698	51.092	-0.171	0.163
-363.683	800.000	-0.047	0.164
-362.669	800.000	0.081	-0.307
-361.654	8.443	0.137	-0.104
-360.639	-200.000	-0.015	-0.104
-359.625	-105.271	0.110	-0.025
-358.610	-158.921	0.069	-0.004
-357.596	-88.074	0.209	-0.063
-356.581	264.482	0.057	-0.100
-355.566	544.459	0.132	0.316
-354.552	683.040	-0.033	-0.086
-353.537	141.180	-0.059	-0.079
-352.523	-200.000	-0.003	-0.160
-351.508	160.182	-0.086	-0.121
-350.493	391.874	-0.104	-0.217
-349.479	-164.778	0.072	-0.003
-348.464	292.906	-0.086	-0.157
-347.450	362.167	0.185	-0.373
-346.435	242.938	0.101	-0.169
-345.420	-200.000	-0.049	-0.284
-344.406	-102.032	0.257	-0.062
-343.391	-122.476	0.159	0.026
-342.377	-200.000	0.061	0.449
-341.362	-80.172	-0.101	0.034
-340.348	-111.693	0.033	-0.007
-339.333	-10.783	-0.207	-0.137
-338.318	-47.988	0.178	0.086
-337.304	-57.154	-0.218	-0.097
-336.289	-200.000	-0.022	0.242
-335.275	-200.000	0.055	-0.429
-334.260	-2.798	0.082	-0.057
-333.245	47.774	0.161	-0.151
-332.231	-109.556	-0.110	-0.023
-331.216	44.116	0.194	0.178
-330.202	-200.000	-0.014	-0.200
-329.187	280.541	0.139	-0.248
-328.172	-200.000	0.018	0.351
-327.158	0.091	0.209	-0.149
-326.143	-130.029	0.133	0.018
-325.129	42.540	-0.151	-0.138
-324.114	-180.341	0.110	-0.002
-323.099	800.000	0.043	-0.132
-322.085	-200.000	0.033	0.157
-321.070	-190.355	-0.137	0.002
-320.056	800.000	0.045	-0.161
-319.041	116.104	-0.185	0.227
-318.026	649.607	0.050	0.128
-317.012	800.000	-0.061	-0.203
-315.997	-136.931	-0.159	0.018
-314.983	-200.000	-0.031	-0.142
-313.968	-200.000	-0.072	0.347
-312.953	800.000	0.027	0.092
-311.939	-16.595	-0.214	-0.136
-310.924	-65.935	0.021	-0.008
-309.910	-200.000	0.035	0.359
-308.895	23.483	0.070	0.058
-307.880	58.138	0.042	-0.041
-306.866	113.896	-0.140	0.171
-305.851	44.247	-0.200	-0.184
-304.837	313.672	0.166	-0.312
-303.822	-19.506	0.190	-0.118
-302.807	-200.000	-0.017	0.102
-301.793	-200.000	0.020	0.159
-300.778	236.182	-0.019	0.031
-299.764	-141.530	-0.247	-0.025
-298.749	-83.725	-0.273	0.087
-297.735	23.811	0.133	-0.110
-296.720	-79.158	0.423	-0.144
-295.705	-200.000	0.051	-0.310
-294.691	-17.607	-0.128	-0.081
-293.676	800.000	0.069	0.257
-292.662	83.431	-0.207	0.226
-291.647	-110.415	0.153	0.032
-290.632	-79.861	-0.168	-0.057
-289.618	-200.000	0.028	0.171
-288.603	-35.342	0.189	0.103
-287.589	-94.266	-0.183	0.050
-286.574	-200.000	0.038	0.251
-285.559	-200.000	-0.012	0.220
-284.545	314.419	0.108	0.204
-283.530	-67.950	-0.147	0.058
-282.516	59.066	-0.116	0.115
-281.501	222.821	-0.069	-0.111
-280.486	158.288	-0.156	-0.217
-279.472	-26.357	-0.075	0.044
-278.457	-25.132	0.237	-0.141
-277.443	47.861	-0.170	0.159
-276.428	-85.956	0.142	0.044
-275.413	-176.745	-0.125	-0.003
-274.399	-200.000	0.076	0.366
-273.384	800.000	0.028	0.083
-272.370	-43.715	-0.470	-0.237
-271.355	-65.283	0.326	-0.131
-270.340	-162.523	0.252	-0.012
-269.326	-87.494	0.186	0.056
-268.311	-200.000	0.022	0.396
-267.297	-51.418	-0.058	-0.027
-266.282	-98.692	0.212	-0.054
-265.267	215.904	0.047	0.074
-264.253	127.820	0.233	-0.296
-263.238	24.730	-0.122	-0.101
-262.224	165.348	-0.161	0.227
-261.209	157.627	0.102	-0.142
-260.195	-154.075	0.255	-0.017
-259.180	369.891	0.124	0.250
-258.165	299.812	-0.173	-0.319
-257.151	767.961	0.167	-0.454
-256.136	800.000	0.052	0.166
-255.122	800.000	0.086	0.279
-254.107	366.702	0.147	0.297
-253.092	421.513	-0.110	-0.235
-252.078	-16.894	0.009	0.006
-251.063	-200.000	0.259	-0.001
-250.049	-11.893	-0.226	0.148
-249.034	-200.000	-0.052	-0.277
-248.019	-24.495	0.062	-0.037
-247.005	44.438	0.055	0.050
-245.990	-47.268	0.218	0.106
-244.976	-34.154	0.249	0.137
-243.961	800.000	0.104	0.300
-242.946	27.140	-0.107	0.090
-241.932	800.000	-0.098	0.280
-240.917	-36.635	-0.347	-0.187
-239.903	-73.992	0.048	0.018
-238.888	-1.455	0.318	-0.224
-237.873	128.148	-0.186	-0.236
-236.859	-134.841	0.028	-0.003
-235.844	-119.723	0.402	-0.069
-234.830	-20.045	0.039	-0.024
-233.815	81.422	0.249	0.268
-232.800	-45.512	-0.282	-0.140
-231.786	137.733	-0.064	-0.084
-230.771	800.000	0.076	-0.316
-229.757	-90.551	-0.382	0.111
-228.742	136.632	-0.259	0.337
-227.727	-94.840	-0.079	-0.021
-226.713	58.453	0.201	-0.197
-225.698	273.713	-0.058	0.103
-224.684	-6.874	0.098	-0.067
-223.669	61.907	0.095	-0.094
-222.655	144.092	0.168	-0.224
-221.640	78.161	0.208	0.222
-220.625	800.000	-0.015	-0.044
-219.611	111.499	0.065	-0.079
-218.596	-34.173	-0.264	-0.145
-217.582	-151.336	-0.074	0.006
-216.567	-200.000	0.011	-0.084
-215.552	800.000	0.035	0.139
-214.538	-200.000	0.084	0.470
-213.523	800.000	-0.050	0.163
-212.509	508.385	-0.117	0.271
-211.494	80.976	-0.331	0.356
-210.479	65.924	-0.159	-0.161
-209.465	164.549	0.086	0.121
-208.450	248.094	0.196	-0.330
-207.436	-146.259	-0.250	-0.022
-206.421	-172.593	-0.205	-0.006
-205.406	-51.080	-0.235	-0.110
-204.392	-200.000	0.005	0.239
-203.377	-78.160	0.023	0.008
-202.363	-130.628	-0.205	-0.028
-201.348	-92.022	0.147	0.042
-200.333	-73.208	0.091	0.033
-199.319	-123.670	-0.520	-0.082
-198.304	9.786	0.203	-0.154
-197.290	64.344	-0.087	-0.088
-196.275	11.073	0.399	-0.304
-195.260	75.578	0.144	-0.152
-194.246	800.000	-0.067	0.193
-193.231	442.629	0.070	-0.154
-192.217	-43.012	-0.195	0.099
-191.202	-163.419	0.203	0.010
-190.187	-66.475	0.354	-0.140
-189.173	800.000	0.029	0.111
-188.158	78.343	0.114	0.121
-187.144	-200.000	0.033	0.209
-186.129	69.939	-0.068	-0.070
-185.114	800.000	0.201	0.620
-184.100	10.871	0.179	0.136
-183.085	287.749	-0.205	0.369
-182.071	-19.048	0.112	-0.069
-181.056	800.000	0.110	0.354
-180.042	800.000	-0.092	0.343
-179.027	187.313	0.103	-0.153
-178.012	-1.625	0.194	0.136
-176.998	-200.000	-0.006	0.092
-175.983	48.282	-0.145	0.136
-174.969	-51.634	0.237	-0.110
-173.954	-200.000	-0.044	0.302
-172.939	-200.000	0.009	0.105
-171.925	-5.612	0.022	0.015
-170.910	-165.013	0.188	0.008
-169.896	-111.493	0.231	-0.047
-168.881	-85.149	-0.109	-0.034
-167.866	-105.258	0.335	0.076
-166.852	-165.307	-0.101	-0.004
-165.837	131.932	0.067	0.086
-164.823	-71.964	-0.247	0.092
-163.808	-153.113	0.109	0.008
-162.793	-117.600	-0.313	-0.056
-161.779	78.819	0.038	-0.040
-160.764	800.000	-0.044	0.151
-159.750	37.253	0.264	-0.233
-158.735	360.175	0.139	0.277
-157.720	-139.852	-0.115	-0.012
-156.706	232.190	0.103	0.169
-155.691	388.936	0.091	-0.187
-154.677	103.251	-0.065	-0.076
-153.662	-146.752	-0.094	0.008
-152.647	-117.723	-0.261	-0.047
-151.633	-47.115	0.227	0.110
-150.618	-162.330	0.239	-0.012
-149.604	-14.669	0.110	0.070
-148.589	15.200	-0.254	0.198
-147.574	800.000	-0.085	0.252
-146.560	-42.163	0.272	0.139
-145.545	-200.000	-0.035	0.232
-144.531	-21.519	0.240	0.146
-143.516	800.000	-0.077	-0.248
-142.502	182.600	-0.095	-0.139
-141.487	388.668	-0.095	0.195
-140.472	-200.000	-0.040	0.295
-139.458	228.005	0.104	0.169
-138.443	-136.169	-0.303	0.035
-137.429	41.316	0.164	-0.147
-136.414	291.719	0.175	-0.317
-135.399	-90.950	0.361	0.103
-134.385	-200.000	-0.002	-0.304
-133.370	-200.000	-0.034	-0.151
-132.356	-73.143	-0.133	-0.048
-131.341	-65.073	0.318	-0.128
-130.326	-200.000	-0.011	0.145
-129.312	-200.000	-0.008	-0.176
-128.297	-12.743	-0.102	0.066
-127.283	142.738	0.105	-0.139
-126.268	-177.480	-0.200	-0.005
-125.253	3.162	-0.116	0.084
-124.239	207.976	0.184	0.287
-123.224	-200.000	0.026	0.131
-122.210	-182.524	0.196	0.004
