DTS Sentinel unit serial number:	SN413079Multiplexer serial number:	ORYXHardware model number:	OX4-SRSoftware version number:	ORYX F/W v4.00 Oryx Data Collector v3.7.2.0data status	okinstallation	princeton_trtdifferential loss correction	single-endedforward channel	channel 2reverse channel	N/Adate	2019/09/11time	04:33:11forward acquisition time	60.00reverse acquisition time	0.00gamma	496.2192k internal	0.2330k external	0.2330temperature offset calibration	0.9936default loss term (dB/km)	0.3790temperature slope calibration	1.0000multiplexer offset coefficient	1.0000multiplexer slope coefficient	1.0000fibre end	0.00T internal ref (°C)	29.56T ext. ref 1 (°C)	-0.29T ext. ref 2 (°C)	23.28length (m)	temperature (°C)	Stokes	anti-Stokes-747.200	432.371	0.171	-0.372
-746.185	118.914	-0.222	0.276
-745.171	133.346	0.189	-0.246
-744.156	-62.475	0.262	0.110
-743.142	14.171	-0.198	-0.155
-742.127	800.000	-0.014	0.048
-741.112	-33.790	0.244	0.135
-740.098	3.139	-0.119	0.087
-739.083	-78.708	0.142	-0.049
-738.069	115.713	-0.153	0.188
-737.054	290.264	0.095	0.173
-736.039	259.893	-0.010	0.018
-735.025	-62.628	0.298	0.124
-734.010	-135.682	-0.417	-0.050
-732.996	-81.408	-0.114	-0.038
-731.981	-17.102	-0.364	0.231
-730.966	26.738	0.097	0.082
-729.952	306.308	-0.080	0.151
-728.937	5.759	-0.325	-0.242
-727.923	-143.006	-0.138	-0.013
-726.908	254.984	-0.224	0.385
-725.894	-73.598	-0.130	0.048
-724.879	70.238	-0.156	0.162
-723.864	-83.123	-0.183	-0.059
-722.850	111.960	-0.145	0.176
-721.835	-200.000	-0.052	-0.367
-720.821	-5.163	0.294	0.204
-719.806	82.158	-0.137	-0.150
-718.791	800.000	0.029	0.089
-717.777	800.000	-0.076	-0.255
-716.762	-12.367	-0.048	0.032
-715.748	11.391	0.111	0.085
-714.733	-200.000	0.001	0.244
-713.718	-152.088	-0.115	0.008
-712.704	-200.000	-0.014	0.082
-711.689	-4.151	-0.194	-0.135
-710.675	-200.000	0.003	-0.071
-709.660	-62.456	-0.241	0.101
-708.645	-59.337	-0.110	0.047
-707.631	-200.000	0.038	0.354
-706.616	626.881	0.116	-0.294
-705.602	-43.048	-0.063	-0.032
-704.587	102.647	-0.123	-0.145
-703.572	-126.989	-0.401	-0.059
-702.558	219.202	-0.037	-0.060
-701.543	88.837	-0.094	-0.105
-700.529	-200.000	0.080	-0.371
-699.514	-35.454	0.077	-0.042
-698.499	389.425	-0.117	-0.245
-697.485	-200.000	0.045	-0.292
-696.470	330.502	-0.163	-0.316
-695.456	-200.000	-0.025	0.227
-694.441	-132.364	-0.096	0.013
-693.426	49.245	0.049	0.046
-692.412	-43.300	0.385	0.196
-691.397	-136.535	0.197	0.023
-690.383	-200.000	-0.102	-0.000
-689.368	-127.152	-0.266	0.039
-688.354	-81.258	0.060	-0.020
-687.339	-200.000	-0.011	0.228
-686.324	-34.093	-0.251	-0.139
-685.310	113.987	-0.087	0.106
-684.295	-24.736	0.061	-0.037
-683.281	-200.000	-0.045	-0.319
-682.266	-18.948	-0.335	-0.209
-681.251	-83.071	0.220	-0.071
-680.237	149.937	-0.200	0.273
-679.222	-200.000	-0.019	-0.261
-678.208	-101.825	-0.088	-0.021
-677.193	800.000	0.081	0.341
-676.178	490.158	-0.033	-0.076
-675.164	-91.127	-0.471	-0.136
-674.149	-200.000	0.001	0.203
-673.135	188.510	-0.137	-0.206
-672.120	-44.119	-0.120	0.060
-671.105	-200.000	-0.010	-0.109
-670.091	98.091	-0.183	-0.212
-669.076	59.814	-0.203	-0.202
-668.062	198.839	0.220	-0.339
-667.047	-43.863	-0.288	-0.145
-666.032	41.397	-0.145	-0.131
-665.018	-8.383	-0.153	-0.104
-664.003	37.954	-0.243	0.217
-662.989	800.000	0.047	-0.200
-661.974	-200.000	0.028	0.198
-660.959	-58.643	-0.307	0.133
-659.945	-71.170	-0.110	0.041
-658.930	8.239	0.101	-0.076
-657.916	-1.985	-0.149	0.105
-656.901	800.000	-0.089	-0.382
-655.886	-164.302	0.085	0.004
-654.872	800.000	0.055	-0.235
-653.857	-176.978	-0.192	-0.005
-652.843	-148.330	0.294	-0.024
-651.828	-69.549	0.303	0.116
-650.814	-200.000	-0.010	-0.169
-649.799	131.774	0.061	-0.078
-648.784	36.085	-0.232	-0.205
-647.770	39.867	0.363	0.327
-646.755	363.100	-0.070	0.140
-645.741	47.149	-0.183	0.171
-644.726	-33.149	0.127	0.070
-643.711	-200.000	0.007	0.057
-642.697	22.915	0.117	-0.097
-641.682	27.990	-0.139	0.118
-640.668	-200.000	0.025	-0.131
-639.653	-120.945	-0.248	0.042
-638.638	-200.000	-0.025	-0.320
-637.624	-200.000	0.040	-0.261
-636.609	-96.464	0.383	-0.102
-635.595	231.790	-0.085	0.141
-634.580	-144.105	-0.206	0.019
-633.565	-90.732	-0.147	0.043
-632.551	800.000	0.029	-0.104
-631.536	399.565	0.208	0.436
-630.522	-200.000	-0.050	0.399
-629.507	-33.483	0.199	0.110
-628.492	89.743	0.036	-0.040
-627.478	-11.222	-0.475	0.314
-626.463	-17.560	0.084	0.053
-625.449	17.425	-0.058	0.046
-624.434	-58.274	0.225	0.098
-623.419	-41.382	-0.184	-0.095
-622.405	69.618	0.105	0.108
-621.390	702.671	0.011	-0.030
-620.376	23.029	-0.158	0.130
-619.361	550.916	0.013	0.030
-618.346	-65.671	-0.318	-0.128
-617.332	-62.836	0.249	-0.103
-616.317	210.445	0.077	-0.121
-615.303	242.638	-0.153	-0.256
-614.288	239.368	-0.127	-0.212
-613.273	116.725	-0.170	0.209
-612.259	206.274	-0.076	0.118
-611.244	-200.000	0.030	0.330
-610.230	419.124	-0.073	-0.157
-609.215	-119.254	-0.348	-0.061
-608.201	132.079	0.370	-0.477
-607.186	52.710	-0.203	-0.194
-606.171	-121.850	-0.086	0.014
-605.157	211.697	-0.091	-0.143
-604.142	800.000	-0.067	0.250
-603.128	171.703	0.151	-0.218
-602.113	493.273	-0.044	-0.102
-601.098	586.833	0.107	-0.264
-600.084	59.306	0.135	-0.133
-599.069	-26.143	0.271	-0.159
-598.055	220.417	-0.079	0.126
-597.040	-200.000	-0.024	-0.517
-596.025	-200.000	-0.001	-0.052
-595.011	800.000	0.065	-0.264
-593.996	-65.928	-0.277	-0.111
-592.982	-43.186	-0.183	-0.093
-591.967	206.326	-0.346	-0.539
-590.952	-119.930	-0.213	0.037
-589.938	800.000	-0.024	-0.102
-588.923	-9.793	0.207	0.138
-587.909	-200.000	0.013	0.374
-586.894	-7.403	-0.129	-0.087
-585.879	800.000	-0.024	0.076
-584.865	-200.000	-0.042	-0.437
-583.850	-60.520	0.214	0.091
-582.836	800.000	0.054	-0.152
-581.821	-200.000	0.000	-0.154
-580.806	-187.155	-0.232	0.003
-579.792	-16.469	-0.048	0.031
-578.777	800.000	0.029	-0.093
-577.763	256.287	-0.022	-0.038
-576.748	-200.000	0.003	0.140
-575.733	422.396	0.055	-0.118
-574.719	-5.771	-0.117	0.080
-573.704	262.137	-0.126	0.218
-572.690	26.418	0.018	0.015
-571.675	148.865	0.171	-0.231
-570.661	-25.447	0.397	-0.235
-569.646	-15.628	-0.261	0.166
-568.631	-200.000	-0.039	0.415
-567.617	-81.535	0.209	-0.069
-566.602	58.626	0.218	-0.214
-565.588	-78.970	-0.289	-0.098
-564.573	-97.063	0.345	-0.090
-563.558	45.986	0.182	-0.168
-562.544	800.000	-0.057	0.158
-561.529	-200.000	-0.022	0.150
-560.515	-200.000	0.051	-0.271
-559.500	800.000	-0.108	0.398
-558.485	-8.520	0.206	-0.138
-557.471	-97.192	0.074	0.019
-556.456	172.347	0.118	-0.170
-555.442	390.211	0.079	-0.163
-554.427	744.699	-0.072	-0.192
-553.412	-21.219	-0.118	0.072
-552.398	89.180	0.263	0.293
-551.383	-126.614	-0.075	-0.011
-550.369	-110.900	0.305	-0.063
-549.354	-200.000	0.021	-0.118
-548.339	97.389	0.138	-0.159
-547.325	800.000	0.094	0.368
-546.310	-169.319	0.144	-0.005
-545.296	-110.146	-0.296	-0.062
-544.281	-200.000	0.005	-0.038
-543.266	32.170	-0.199	-0.171
-542.252	-55.573	0.237	-0.106
-541.237	-200.000	-0.024	-0.284
-540.223	591.315	-0.075	-0.186
-539.208	560.042	-0.028	0.068
-538.193	-43.147	0.240	0.121
-537.179	-200.000	-0.000	-0.017
-536.164	156.921	0.123	-0.170
-535.150	-23.899	0.251	0.150
-534.135	117.927	-0.205	0.252
-533.121	211.888	-0.305	0.480
-532.106	11.770	0.133	0.102
-531.091	-200.000	-0.014	0.118
-530.077	-165.639	-0.306	0.013
-529.062	515.362	-0.068	0.159
-528.048	-173.145	0.134	-0.004
-527.033	281.915	-0.071	0.127
-526.018	-141.935	0.066	-0.007
-525.004	178.403	0.095	-0.138
-523.989	170.628	-0.106	-0.151
-522.975	-163.356	-0.041	-0.002
-521.960	-41.719	-0.234	0.120
-520.945	11.504	0.089	0.068
-519.931	-86.055	0.236	-0.073
-518.916	-133.208	-0.067	-0.009
-517.902	-200.000	-0.006	-0.180
-516.887	392.534	0.031	-0.065
-515.872	-200.000	-0.024	0.384
-514.858	-12.870	0.116	0.075
-513.843	218.979	-0.183	-0.292
-512.829	-1.717	0.217	0.153
-511.814	-85.967	0.200	0.062
-510.799	-200.000	0.008	-0.288
-509.785	-159.334	0.020	-0.001
-508.770	-87.703	0.310	0.093
-507.756	-128.939	-0.353	0.049
-506.741	55.104	-0.069	0.066
-505.726	-18.822	-0.197	0.123
-504.712	-200.000	-0.007	0.033
-503.697	44.811	0.176	-0.162
-502.683	10.535	-0.162	-0.123
-501.668	-126.611	0.331	-0.049
-500.653	-54.662	0.209	-0.094
-499.639	177.884	-0.081	0.117
-498.624	-14.321	-0.286	-0.184
-497.610	800.000	0.010	-0.032
-496.595	100.227	-0.107	-0.124
-495.581	49.475	-0.153	-0.144
-494.566	-153.899	-0.131	-0.009
-493.551	800.000	-0.061	0.174
-492.537	144.974	0.218	0.291
-491.522	800.000	0.057	0.179
-490.508	-156.835	0.211	-0.013
-489.493	652.861	-0.005	-0.014
-488.478	-64.838	-0.247	-0.100
-487.464	29.744	0.361	0.307
-486.449	800.000	-0.121	0.475
-485.435	-200.000	0.019	0.262
-484.420	222.229	-0.088	-0.141
-483.405	-17.430	0.127	-0.080
-482.391	42.609	-0.243	0.220
-481.376	800.000	-0.038	0.144
-480.362	-200.000	0.006	-0.123
-479.347	23.075	-0.048	-0.040
-478.332	19.406	-0.290	0.233
-477.318	53.277	0.088	0.084
-476.303	116.019	0.210	0.256
-475.289	28.478	0.080	-0.067
-474.274	800.000	0.037	-0.131
-473.259	800.000	-0.040	0.154
-472.245	8.626	0.303	-0.228
-471.230	85.084	0.096	-0.104
-470.216	-73.166	-0.378	0.138
-469.201	18.311	-0.084	-0.067
-468.186	-200.000	-0.009	0.291
-467.172	334.595	-0.119	0.230
-466.157	192.675	-0.066	-0.099
-465.143	148.032	-0.201	0.269
-464.128	391.942	0.034	-0.070
-463.113	800.000	-0.053	-0.179
-462.099	-200.000	0.038	0.218
-461.084	-126.955	0.196	-0.029
-460.070	279.563	-0.047	0.084
-459.055	-121.131	-0.311	-0.052
-458.040	-119.599	0.302	-0.052
-457.026	-200.000	-0.016	-0.102
-456.011	800.000	0.095	-0.312
-454.997	-200.000	0.110	0.552
-453.982	723.962	0.038	0.100
-452.968	-25.553	-0.154	0.091
-451.953	262.053	-0.135	0.234
-450.938	234.681	-0.286	0.470
-449.924	63.013	-0.121	0.121
-448.909	513.448	-0.083	-0.192
-447.895	-86.292	-0.019	0.006
-446.880	-101.591	-0.125	0.030
-445.865	800.000	0.037	-0.120
-444.851	14.400	-0.348	0.271
-443.836	800.000	0.054	0.224
-442.822	800.000	0.051	-0.201
-441.807	-200.000	-0.040	-0.327
-440.792	406.334	-0.071	0.149
-439.778	141.894	0.087	0.115
-438.763	48.590	0.232	-0.216
-437.749	-200.000	-0.051	0.371
-436.734	-139.081	-0.115	-0.012
-435.719	-115.720	0.215	-0.040
-434.705	-6.954	0.150	-0.102
-433.690	-200.000	-0.011	0.136
-432.676	83.231	-0.042	-0.046
-431.661	-27.559	-0.095	-0.055
-430.646	75.815	0.255	0.268
-429.632	314.489	-0.189	0.353
-428.617	355.460	-0.113	0.223
-427.603	730.161	0.039	-0.105
-426.588	127.231	-0.202	0.255
-425.573	800.000	-0.089	-0.311
-424.559	-118.527	-0.191	0.034
-423.544	82.688	-0.195	-0.211
-422.530	-200.000	-0.017	0.142
-421.515	208.949	-0.066	0.103
-420.500	253.063	-0.237	0.402
-419.486	-119.870	-0.106	0.018
-418.471	774.606	0.063	0.171
-417.457	800.000	0.077	-0.297
-416.442	800.000	-0.028	0.096
-415.428	-200.000	-0.033	-0.144
-414.413	-36.033	0.084	-0.045
-413.398	-60.762	-0.207	-0.087
-412.384	2.132	-0.188	0.135
-411.369	-51.231	-0.187	0.087
-410.355	250.975	0.152	0.256
-409.340	-156.441	0.130	-0.008
-408.325	-80.927	0.039	-0.013
-407.311	55.325	0.102	-0.098
-406.296	-72.695	-0.190	-0.070
-405.282	-107.719	0.256	-0.056
-404.267	459.258	-0.061	0.134
-403.252	510.477	0.112	-0.259
-402.238	-62.392	-0.315	-0.130
-401.223	-200.000	0.014	0.348
-400.209	-200.000	-0.029	-0.222
-399.194	125.365	0.294	-0.368
-398.179	-130.680	-0.328	-0.044
-397.165	23.248	-0.165	-0.135
-396.150	-94.541	0.062	0.017
-395.136	507.193	0.073	0.168
-394.121	160.472	-0.180	-0.250
-393.106	-119.569	0.283	-0.049
-392.092	185.160	0.098	0.144
-391.077	-200.000	0.004	-0.128
-390.063	-191.771	-0.202	0.002
-389.048	217.771	0.034	0.054
-388.033	-94.379	0.329	0.089
-387.019	-200.000	0.001	-0.389
-386.004	180.183	-0.093	-0.135
-384.990	-152.405	0.060	0.004
-383.975	99.240	-0.227	0.261
-382.960	88.457	-0.176	-0.194
-381.946	-32.880	-0.213	-0.118
-380.931	-97.603	-0.409	0.105
-379.917	43.175	-0.141	-0.128
-378.902	49.213	-0.099	0.092
-377.888	-200.000	-0.036	-0.285
-376.873	383.877	-0.028	0.056
-375.858	-27.143	0.148	0.086
-374.844	11.835	-0.102	-0.078
-373.829	800.000	-0.038	0.155
-372.815	77.707	0.238	0.252
-371.800	-53.359	0.144	-0.066
-370.785	-182.926	0.270	-0.005
-369.771	-104.754	0.242	-0.055
-368.756	-147.157	0.204	0.017
-367.742	-200.000	-0.022	0.233
-366.727	-200.000	0.006	-0.085
-365.712	-200.000	0.006	0.097
-364.698	800.000	-0.051	0.185
-363.683	136.951	-0.127	-0.165
-362.669	251.507	0.073	-0.124
-361.654	-200.000	0.018	-0.360
-360.639	311.362	0.179	-0.333
-359.625	-200.000	0.018	-0.167
-358.610	-200.000	-0.005	-0.199
-357.596	256.076	-0.064	-0.110
-356.581	526.714	0.050	0.116
-355.566	-200.000	-0.029	-0.182
-354.552	182.489	0.067	-0.097
-353.537	-91.993	0.328	-0.092
-352.523	15.818	-0.171	0.134
-351.508	-25.969	-0.139	0.081
-350.493	41.567	-0.132	-0.119
-349.479	10.246	0.055	0.042
-348.464	-200.000	0.106	-0.000
-347.450	33.052	-0.198	-0.170
-346.435	-200.000	0.005	0.098
-345.420	135.889	-0.116	0.150
-344.406	-61.950	0.203	0.084
-343.391	266.757	-0.102	-0.177
-342.377	-200.000	0.022	-0.197
-341.362	96.352	-0.081	0.092
-340.348	-144.438	-0.210	-0.019
-339.333	-200.000	0.017	0.089
-338.318	37.630	-0.170	0.149
-337.304	146.329	0.070	0.093
-336.289	-105.005	-0.281	-0.064
-335.275	-62.023	0.234	-0.097
-334.260	800.000	-0.029	0.119
-333.245	-200.000	0.011	0.164
-332.231	-122.158	-0.214	-0.035
-331.216	-91.773	-0.144	-0.041
-330.202	-70.018	-0.178	-0.067
-329.187	800.000	0.034	-0.124
-328.172	-200.000	-0.005	-0.099
-327.158	800.000	0.070	-0.276
-326.143	-136.691	0.182	-0.021
-325.129	-200.000	-0.013	-0.209
-324.114	-66.142	0.310	0.123
-323.099	-110.218	-0.212	-0.044
-322.085	-108.751	0.329	-0.070
-321.070	134.457	-0.204	-0.262
-320.056	-200.000	-0.007	-0.362
-319.041	508.602	0.140	-0.321
-318.026	-95.451	-0.159	-0.042
-317.012	-156.445	0.342	0.021
-315.997	-81.383	-0.172	-0.056
-314.983	170.080	-0.118	0.168
-313.968	-113.408	-0.189	0.037
-312.953	-120.509	0.086	-0.014
-311.939	-200.000	0.025	0.109
-310.924	24.574	-0.276	-0.226
-309.910	-200.000	-0.032	-0.218
-308.895	800.000	0.075	-0.246
-307.880	24.151	-0.344	0.281
-306.866	-200.000	-0.031	0.305
-305.851	-200.000	0.063	-0.404
-304.837	-18.048	0.227	0.141
-303.822	158.141	-0.118	0.163
-302.807	157.139	-0.168	0.230
-301.793	67.333	0.271	0.274
-300.778	14.113	-0.150	-0.116
-299.764	-30.075	0.181	0.102
-298.749	800.000	0.090	-0.298
-297.735	800.000	0.067	0.191
-296.720	59.263	0.120	0.117
-295.705	-200.000	-0.019	0.226
-294.691	-125.593	-0.045	-0.007
-293.676	-29.209	-0.275	-0.156
-292.662	314.870	0.227	0.424
-291.647	216.691	-0.094	-0.148
-290.632	-167.334	0.091	0.004
-289.618	40.645	0.037	0.033
-288.603	22.929	-0.108	0.088
-287.589	181.335	0.065	0.095
-286.574	-200.000	0.001	0.062
-285.559	-85.872	0.142	0.044
-284.545	210.792	0.118	-0.183
-283.530	800.000	-0.044	0.135
-282.516	800.000	0.069	-0.264
-281.501	-162.776	-0.217	0.010
-280.486	-103.021	-0.300	-0.070
-279.472	-57.351	-0.163	0.071
-278.457	3.206	-0.184	-0.132
-277.443	-128.768	0.253	-0.035
-276.428	-71.572	0.256	0.094
-275.413	-40.251	-0.026	0.013
-274.399	48.934	-0.039	0.036
-273.384	-60.007	0.332	-0.140
-272.370	-97.826	0.096	0.025
-271.355	-62.236	0.237	0.098
-270.340	543.334	0.060	-0.142
-269.326	-69.672	0.241	0.091
-268.311	28.957	-0.062	-0.052
-267.297	-122.690	0.223	0.036
-266.282	116.737	0.110	0.133
-265.267	-118.577	0.118	0.021
-264.253	164.418	0.093	0.130
-263.238	307.493	0.085	0.156
-262.224	-32.223	0.096	-0.053
-261.209	-200.000	-0.003	0.103
-260.195	795.091	-0.053	-0.145
-259.180	800.000	0.127	0.366
-258.165	800.000	0.115	-0.327
-257.151	128.344	0.221	-0.278
-256.136	-154.232	0.193	-0.013
-255.122	-30.726	-0.225	-0.126
-254.107	-27.237	0.208	-0.120
-253.092	686.047	0.094	-0.243
-252.078	152.290	-0.211	-0.284
-251.063	-74.820	-0.062	-0.022
-250.049	-84.985	0.359	-0.111
-249.034	196.428	-0.116	-0.175
-248.019	800.000	-0.067	0.213
-247.005	-200.000	0.024	-0.258
-245.990	-183.256	0.277	0.005
-244.976	-200.000	0.008	-0.041
-243.961	-90.498	0.209	-0.060
-242.946	-154.942	-0.337	0.022
-241.932	-6.501	-0.316	0.212
-240.917	54.896	-0.098	-0.094
-239.903	314.513	0.084	0.156
-238.888	144.005	-0.266	-0.350
-237.873	800.000	0.079	-0.253
-236.859	31.614	0.239	0.203
-235.844	-46.832	-0.314	0.151
-234.830	72.537	0.254	-0.262
-233.815	131.125	-0.138	-0.176
-232.800	-167.020	0.371	0.015
-231.786	169.290	0.214	0.301
-230.771	684.150	-0.017	0.043
-229.757	-91.100	0.081	-0.023
-228.742	800.000	-0.066	-0.212
-227.727	163.700	-0.176	-0.244
-226.713	-200.000	0.002	-0.024
-225.698	-1.952	-0.228	-0.158
-224.684	41.157	-0.241	0.215
-223.669	227.084	0.095	0.152
-222.655	275.189	0.193	0.338
-221.640	102.824	0.150	0.173
-220.625	800.000	-0.075	0.236
-219.611	16.103	0.150	0.117
-218.596	-73.573	-0.043	0.015
-217.582	-200.000	-0.009	0.277
-216.567	-41.311	0.282	-0.143
-215.552	-79.917	0.187	-0.062
-214.538	800.000	-0.077	-0.217
-213.523	-200.000	0.022	0.243
-212.509	-115.656	0.283	0.052
-211.494	-200.000	0.023	-0.280
-210.479	143.448	-0.125	0.165
-209.465	-200.000	0.030	-0.165
-208.450	-61.182	-0.221	0.092
-207.436	-187.943	-0.341	0.004
-206.421	117.639	-0.186	0.226
-205.406	93.593	-0.103	-0.115
-204.392	-161.998	0.272	-0.014
-203.377	502.815	0.092	0.210
-202.363	346.665	0.099	-0.193
-201.348	-154.536	0.181	0.012
-200.333	668.500	-0.023	-0.058
-199.319	-200.000	-0.007	0.230
-198.304	656.983	-0.106	0.269
-197.290	800.000	0.098	-0.269
-196.275	-64.022	-0.090	0.036
-195.260	174.246	-0.175	0.249
-194.246	-61.970	0.265	0.109
-193.231	800.000	0.035	-0.128
-192.217	-200.000	-0.040	0.260
-191.202	-66.439	-0.138	0.054
-190.187	243.731	-0.161	-0.266
-189.173	-168.571	-0.219	0.008
-188.158	-152.220	0.134	-0.010
-187.144	-110.949	-0.221	-0.045
-186.129	-200.000	-0.030	0.193
-185.114	34.091	0.070	-0.060
-184.100	16.598	0.075	-0.058
-183.085	-38.430	-0.132	0.069
-182.071	352.251	-0.050	-0.099
-181.056	-57.905	0.107	0.046
-180.042	30.619	0.193	-0.163
-179.027	173.444	0.072	-0.102
-178.012	-200.000	0.046	0.412
-176.998	64.345	-0.236	0.234
-175.983	31.924	0.092	0.078
-174.969	90.510	0.208	-0.229
-173.954	800.000	0.018	-0.066
-172.939	-32.768	0.387	-0.212
-171.925	-21.781	-0.139	-0.083
-170.910	-200.000	0.002	0.069
-169.896	-91.100	-0.209	0.059
-168.881	-35.093	0.230	0.124
-167.866	-36.817	-0.167	0.088
-166.852	800.000	0.098	0.270
-165.837	365.331	-0.034	0.067
-164.823	221.437	0.082	-0.130
-163.808	101.224	-0.101	-0.115
-162.793	59.430	0.137	0.133
-161.779	-94.933	0.180	-0.048
-160.764	800.000	0.082	-0.241
-159.750	-200.000	0.037	0.328
-158.735	-57.695	-0.090	-0.039
-157.720	-200.000	-0.004	0.068
-156.706	-200.000	-0.018	0.080
-155.691	-200.000	-0.026	-0.124
-154.677	-26.550	-0.106	0.061
-153.662	-135.347	0.179	0.021
-152.647	324.311	0.100	0.188
-151.633	40.512	0.102	-0.091
-150.618	-14.056	0.039	-0.025
-149.604	169.548	0.067	0.095
-148.589	-142.560	0.094	0.009
-147.574	-29.827	0.248	0.139
-146.560	212.156	0.105	-0.162
-145.545	-110.324	-0.110	-0.023
-144.531	208.192	0.089	0.136
-143.516	-47.887	0.210	-0.100
-142.502	176.541	0.052	-0.075
-141.487	-200.000	0.040	-0.201
-140.472	-120.949	0.192	0.032
-139.458	-99.649	0.323	0.080
-138.443	-53.040	-0.330	0.149
-137.429	95.741	-0.073	0.082
-136.414	28.647	-0.275	0.229
-135.399	15.106	0.184	0.142
-134.385	31.499	0.251	-0.212
-133.370	-95.829	-0.140	-0.037
-132.356	616.725	0.090	0.221
-131.341	-126.630	-0.369	0.054
-130.326	-200.000	-0.007	0.204
-129.312	-200.000	0.011	0.156
-128.297	-174.089	-0.229	0.007
-127.283	-200.000	-0.007	0.345
-126.268	-21.277	-0.324	0.194
-125.253	-200.000	0.034	-0.156
-124.239	86.583	-0.096	-0.104
-123.224	-102.314	0.411	-0.097
-122.210	800.000	0.037	-0.121
