DTS Sentinel unit serial number:	SN413079Multiplexer serial number:	ORYXHardware model number:	OX4-SRSoftware version number:	ORYX F/W v4.00 Oryx Data Collector v3.7.2.0data status	okinstallation	princeton_trtdifferential loss correction	single-endedforward channel	channel 2reverse channel	N/Adate	2019/09/10time	17:29:11forward acquisition time	60.00reverse acquisition time	0.00gamma	496.2192k internal	0.2310k external	0.2310temperature offset calibration	0.9930default loss term (dB/km)	0.3790temperature slope calibration	1.0000multiplexer offset coefficient	1.0000multiplexer slope coefficient	1.0000fibre end	0.00T internal ref (°C)	37.67T ext. ref 1 (°C)	-0.36T ext. ref 2 (°C)	31.93length (m)	temperature (°C)	Stokes	anti-Stokes-747.200	163.956	-0.027	0.039
-746.185	800.000	-0.101	0.370
-745.171	248.709	-0.123	-0.212
-744.156	-200.000	0.055	0.322
-743.142	-83.791	-0.071	-0.023
-742.127	800.000	-0.027	0.080
-741.112	-25.407	0.321	-0.193
-740.098	-32.098	-0.289	0.164
-739.083	-21.631	-0.141	-0.087
-738.069	-49.928	-0.077	-0.037
-737.054	81.605	0.269	0.296
-736.039	-55.259	-0.254	-0.116
-735.025	-120.797	0.250	-0.043
-734.010	-71.438	-0.142	0.054
-732.996	-157.593	0.144	0.009
-731.981	155.788	-0.168	-0.235
-730.966	-200.000	0.084	0.469
-729.952	-165.129	-0.159	-0.007
-728.937	486.303	0.093	-0.216
-727.923	800.000	0.091	-0.294
-726.908	-93.871	-0.060	0.017
-725.894	-28.696	-0.279	-0.163
-724.879	30.954	-0.151	0.131
-723.864	26.303	-0.197	-0.167
-722.850	800.000	0.023	0.101
-721.835	71.372	-0.059	-0.062
-720.821	-200.000	-0.013	-0.330
-719.806	54.747	-0.465	-0.456
-718.791	-103.969	-0.363	-0.086
-717.777	-70.586	0.260	0.100
-716.762	-25.351	0.285	0.171
-715.748	31.734	0.087	-0.076
-714.733	-21.115	-0.113	0.070
-713.718	-27.691	0.294	-0.173
-712.704	800.000	-0.059	0.241
-711.689	2.937	0.124	-0.091
-710.675	652.376	0.104	0.271
-709.660	13.325	-0.108	-0.085
-708.645	-22.150	-0.165	-0.102
-707.631	5.094	0.232	0.173
-706.616	267.777	0.052	0.092
-705.602	-200.000	0.043	-0.216
-704.587	16.129	0.183	-0.146
-703.572	76.882	-0.158	0.171
-702.558	234.634	-0.147	0.247
-701.543	-200.000	-0.019	0.124
-700.529	-50.887	0.209	0.100
-699.514	529.303	0.081	-0.193
-698.499	47.530	-0.250	-0.236
-697.485	800.000	-0.127	-0.384
-696.470	800.000	-0.064	-0.208
-695.456	-75.368	0.383	-0.138
-694.441	142.109	0.185	0.249
-693.426	232.883	-0.053	0.089
-692.412	608.194	-0.096	-0.242
-691.397	-47.274	-0.109	0.054
-690.383	48.932	-0.095	-0.090
-689.368	-3.565	0.100	0.070
-688.354	331.657	-0.164	0.321
-687.339	800.000	-0.049	-0.151
-686.324	481.166	-0.102	-0.234
-685.310	28.921	-0.197	-0.169
-684.295	134.979	-0.336	-0.442
-683.281	800.000	0.066	-0.186
-682.266	1.449	-0.206	-0.150
-681.251	-169.338	0.214	0.008
-680.237	38.340	-0.184	0.166
-679.222	-28.427	-0.055	-0.032
-678.208	800.000	0.027	0.076
-677.193	-41.757	-0.125	0.065
-676.178	-130.251	0.254	-0.035
-675.164	800.000	-0.063	-0.241
-674.149	800.000	-0.110	0.399
-673.135	22.316	0.270	0.224
-672.120	764.933	-0.081	-0.223
-671.105	-78.952	0.288	-0.099
-670.091	-200.000	-0.002	-0.052
-669.076	123.168	0.047	-0.060
-668.062	-200.000	-0.044	-0.242
-667.047	-200.000	0.034	0.333
-666.032	276.987	-0.040	-0.073
-665.018	-35.004	-0.413	-0.228
-664.003	-200.000	0.014	0.130
-662.989	-200.000	0.007	-0.099
-661.974	169.398	0.051	0.074
-660.959	-200.000	0.048	-0.214
-659.945	-195.999	0.192	-0.001
-658.930	-34.284	-0.204	0.113
-657.916	800.000	0.040	-0.175
-656.901	614.470	0.020	-0.050
-655.886	-171.937	-0.120	0.004
-654.872	613.821	0.064	0.163
-653.857	-89.223	-0.307	-0.092
-652.843	23.758	-0.192	-0.160
-651.828	-200.000	0.007	0.161
-650.814	39.145	-0.168	0.152
-649.799	349.359	0.012	-0.025
-648.784	-200.000	-0.006	-0.056
-647.770	282.343	-0.081	-0.147
-646.755	-183.389	-0.041	0.001
-645.741	-143.635	-0.149	-0.014
-644.726	-26.622	-0.193	0.114
-643.711	-200.000	-0.026	-0.127
-642.697	114.469	-0.136	0.167
-641.682	-106.591	-0.097	0.022
-640.668	-69.221	0.087	0.034
-639.653	19.756	-0.130	0.106
-638.638	-5.818	0.232	0.161
-637.624	249.489	-0.106	0.182
-636.609	-12.742	-0.122	0.081
-635.595	109.890	-0.152	0.184
-634.580	-200.000	0.049	-0.221
-633.565	-45.763	0.078	-0.039
-632.551	-103.881	0.179	0.042
-631.536	97.694	-0.151	-0.176
-630.522	597.614	-0.132	-0.330
-629.507	-9.775	0.044	0.029
-628.492	-28.625	0.180	-0.105
-627.478	-116.352	0.177	0.033
-626.463	-99.418	-0.034	-0.009
-625.449	-11.316	-0.247	0.165
-624.434	56.046	-0.118	-0.116
-623.419	-92.332	-0.251	-0.072
-622.405	800.000	-0.020	-0.073
-621.390	-44.065	-0.136	-0.069
-620.376	-47.465	0.247	-0.121
-619.361	349.690	-0.213	0.425
-618.346	-11.760	0.163	-0.108
-617.332	49.681	0.245	0.233
-616.317	534.791	-0.034	-0.081
-615.303	-61.159	0.207	0.088
-614.288	-73.573	0.093	0.034
-613.273	-154.317	-0.286	-0.019
-612.259	140.258	0.133	-0.177
-611.244	-52.218	-0.226	0.106
-610.230	-200.000	0.040	-0.236
-609.215	-93.296	0.027	-0.008
-608.201	-200.000	0.030	0.191
-607.186	-136.998	-0.150	0.017
-606.171	96.695	-0.337	-0.390
-605.157	-75.996	0.198	0.071
-604.142	193.673	-0.250	0.382
-603.128	545.720	0.104	0.252
-602.113	174.248	0.131	0.192
-601.098	-18.365	-0.118	-0.075
-600.084	800.000	-0.049	0.165
-599.069	1.335	-0.382	0.277
-598.055	-47.633	-0.240	-0.118
-597.040	74.006	-0.093	0.099
-596.025	-200.000	0.004	0.179
-595.011	-85.384	-0.185	0.058
-593.996	453.738	-0.044	0.098
-592.982	-80.311	0.106	-0.036
-591.967	800.000	-0.020	-0.065
-590.952	800.000	-0.053	-0.233
-589.938	-160.797	0.408	0.022
-588.923	-127.104	-0.337	-0.050
-587.909	-200.000	-0.012	-0.146
-586.894	-200.000	-0.011	-0.085
-585.879	175.360	0.037	-0.054
-584.865	98.158	0.144	0.167
-583.850	-89.107	-0.165	-0.049
-582.836	500.547	0.095	0.221
-581.821	54.214	-0.207	-0.201
-580.806	800.000	0.102	-0.305
-579.792	431.277	0.081	0.178
-578.777	55.969	-0.195	0.191
-577.763	-132.178	-0.338	0.044
-576.748	-200.000	0.006	0.066
-575.733	800.000	-0.057	0.219
-574.719	-200.000	-0.003	0.059
-573.704	-51.810	0.300	0.141
-572.690	193.098	-0.167	0.255
-571.675	-187.179	-0.139	0.002
-570.661	195.901	0.103	0.159
-569.646	-22.306	-0.120	0.074
-568.631	655.953	0.143	-0.371
-567.617	243.462	0.149	0.253
-566.602	-200.000	-0.028	0.131
-565.588	-125.633	-0.106	0.016
-564.573	-23.329	0.136	-0.082
-563.558	-25.331	0.360	-0.215
-562.544	-200.000	-0.024	-0.342
-561.529	-8.900	0.190	0.128
-560.515	-200.000	-0.034	0.362
-559.500	-51.421	0.162	-0.077
-558.485	308.505	-0.184	-0.346
-557.471	-100.345	0.520	0.130
-556.456	39.569	-0.169	0.153
-555.442	-43.971	-0.105	0.053
-554.427	-100.622	-0.045	0.011
-553.412	-168.947	0.059	-0.002
-552.398	131.093	-0.275	-0.355
-551.383	-70.625	-0.233	0.089
-550.369	800.000	0.093	-0.317
-549.354	800.000	-0.079	-0.340
-548.339	70.151	-0.269	-0.280
-547.325	192.708	0.057	0.086
-546.310	-30.927	0.172	-0.098
-545.296	380.978	-0.061	-0.126
-544.281	680.121	-0.129	-0.339
-543.266	-123.505	0.226	-0.036
-542.252	-63.933	-0.481	0.198
-541.237	-159.476	0.476	-0.027
-540.223	-141.182	0.318	-0.033
-539.208	-49.245	-0.104	0.050
-538.193	800.000	0.103	-0.292
-537.179	191.039	0.197	0.299
-536.164	-84.611	-0.107	0.034
-535.150	16.519	-0.065	-0.051
-534.135	347.948	-0.055	-0.109
-533.121	800.000	-0.031	-0.115
-532.106	800.000	0.061	-0.196
-531.091	91.484	0.206	0.233
-530.077	-22.769	-0.134	-0.082
-529.062	-25.389	0.480	-0.286
-528.048	-1.412	-0.164	-0.117
-527.033	478.496	-0.139	-0.316
-526.018	-41.381	-0.128	-0.066
-525.004	800.000	-0.037	-0.117
-523.989	-200.000	-0.034	0.277
-522.975	-47.162	-0.138	-0.068
-521.960	-133.654	-0.107	0.013
-520.945	-200.000	0.040	-0.339
-519.931	49.859	0.189	-0.179
-518.916	-42.034	-0.158	0.081
-517.902	97.890	-0.181	0.210
-516.887	-98.589	0.245	-0.063
-515.872	-200.000	0.017	-0.250
-514.858	-200.000	-0.052	-0.335
-513.843	-64.066	-0.304	0.125
-512.829	337.652	-0.129	0.253
-511.814	-74.200	0.188	-0.068
-510.799	2.156	0.150	0.109
-509.785	800.000	0.010	0.031
-508.770	800.000	-0.129	-0.398
-507.756	-200.000	-0.019	-0.237
-506.741	-83.875	-0.109	0.035
-505.726	-33.710	0.365	-0.202
-504.712	-162.530	0.301	0.015
-503.697	-189.310	0.078	-0.001
-502.683	-64.427	-0.203	0.083
-501.668	-200.000	-0.031	0.151
-500.653	59.380	-0.102	-0.101
-499.639	55.482	0.272	0.265
-498.624	290.738	0.284	0.520
-497.610	-200.000	-0.002	0.124
-496.595	800.000	-0.026	-0.078
-495.581	800.000	-0.066	-0.255
-494.566	25.206	-0.221	0.184
-493.551	-179.915	-0.174	-0.004
-492.537	-44.311	0.136	-0.068
-491.522	117.641	-0.020	-0.025
-490.508	800.000	-0.017	-0.070
-489.493	130.328	0.259	0.334
-488.478	-128.236	0.119	-0.017
-487.464	65.534	0.190	0.193
-486.449	-31.301	-0.340	0.193
-485.435	-1.451	0.093	-0.066
-484.420	41.229	0.145	-0.131
-483.405	-123.638	-0.266	-0.042
-482.391	-200.000	-0.013	0.079
-481.376	-112.717	-0.284	0.057
-480.362	104.312	0.121	-0.143
-479.347	63.174	-0.192	0.194
-478.332	-20.709	0.235	0.145
-477.318	-200.000	0.006	-0.274
-476.303	3.563	0.092	0.067
-475.289	66.466	-0.195	0.199
-474.274	98.849	-0.240	0.278
-473.259	96.857	-0.161	0.185
-472.245	91.387	0.101	0.114
-471.230	-83.718	0.118	-0.038
-470.216	-143.230	0.459	0.044
-469.201	800.000	0.066	0.207
-468.186	-200.000	-0.021	0.139
-467.172	-200.000	0.015	-0.319
-466.157	800.000	0.032	-0.093
-465.143	800.000	0.021	-0.060
-464.128	-18.143	0.361	0.227
-463.113	44.294	0.208	-0.192
-462.099	-131.360	-0.152	0.020
-461.084	-200.000	0.027	0.125
-460.070	-200.000	-0.015	-0.369
-459.055	-130.698	0.321	-0.043
-458.040	-147.992	-0.199	0.017
-457.026	318.819	0.170	-0.324
-456.011	109.467	-0.127	-0.153
-454.997	94.831	0.056	-0.064
-453.982	733.946	0.103	0.276
-452.968	800.000	-0.065	0.199
-451.953	-200.000	-0.016	0.141
-450.938	-200.000	-0.247	-0.001
-449.924	-61.050	-0.216	-0.091
-448.909	-200.000	0.023	-0.137
-447.895	-142.644	-0.140	0.014
-446.880	293.938	0.043	-0.079
-445.865	24.135	-0.108	0.090
-444.851	275.931	-0.051	-0.091
-443.836	517.419	0.180	-0.422
-442.822	229.529	-0.032	-0.052
-441.807	-14.908	-0.030	-0.019
-440.792	72.579	-0.101	-0.106
-439.778	-200.000	-0.018	0.168
-438.763	-146.539	0.180	-0.016
-437.749	139.953	0.178	-0.235
-436.734	274.261	-0.189	0.335
-435.719	-139.090	0.045	-0.005
-434.705	235.894	0.039	0.065
-433.690	772.485	-0.083	0.226
-432.676	-73.361	-0.061	-0.022
-431.661	-174.904	0.516	0.015
-430.646	800.000	-0.046	0.132
-429.632	-135.263	-0.205	-0.025
-428.617	-200.000	-0.007	0.137
-427.603	159.271	0.114	-0.159
-426.588	47.874	0.193	0.181
-425.573	-112.087	0.123	0.025
-424.559	12.322	0.336	0.260
-423.544	98.808	-0.243	0.281
-422.530	226.528	-0.140	-0.229
-421.515	52.846	-0.102	0.098
-420.500	11.421	-0.249	-0.192
-419.486	-200.000	-0.000	0.024
-418.471	800.000	0.039	0.118
-417.457	-87.846	-0.137	0.042
-416.442	-200.000	0.023	-0.254
-415.428	480.968	-0.055	0.126
-414.413	-7.056	-0.267	0.182
-413.398	-101.465	0.091	-0.022
-412.384	-62.494	0.262	-0.109
-411.369	36.929	-0.094	-0.084
-410.355	-18.726	0.351	-0.219
-409.340	81.537	0.155	0.168
-408.325	-158.316	0.200	0.012
-407.311	129.169	-0.323	-0.414
-406.296	240.605	0.135	-0.225
-405.282	-200.000	-0.022	-0.175
-404.267	-45.618	0.246	-0.122
-403.252	-200.000	-0.039	0.201
-402.238	190.379	0.073	0.110
-401.223	41.861	0.102	-0.093
-400.209	11.812	0.120	0.093
-399.194	-37.253	-0.004	0.002
-398.179	-43.310	0.170	-0.086
-397.165	604.461	0.077	0.192
-396.150	-2.568	0.274	-0.192
-395.136	560.484	-0.110	0.267
-394.121	-169.135	0.218	0.008
-393.106	-38.304	-0.174	0.092
-392.092	-94.838	0.188	-0.051
-391.077	135.988	0.076	-0.100
-390.063	-156.832	-0.350	-0.022
-389.048	210.670	-0.113	-0.179
-388.033	-95.777	-0.232	-0.062
-387.019	654.170	0.137	0.351
-386.004	-200.000	-0.084	-0.374
-384.990	-200.000	-0.005	0.101
-383.975	-138.003	-0.162	-0.018
-382.960	-36.763	-0.399	-0.214
-381.946	620.140	-0.050	-0.126
-380.931	-111.281	-0.125	-0.026
-379.917	0.481	0.128	0.092
-378.902	-56.496	-0.331	0.147
-377.888	-200.000	-0.040	0.190
-376.873	-38.575	-0.076	0.040
-375.858	45.948	-0.158	0.147
-374.844	-188.090	-0.174	-0.002
-373.829	-148.714	0.109	0.009
-372.815	192.834	-0.024	-0.036
-371.800	-20.338	-0.122	-0.075
-370.785	-200.000	0.026	0.134
-369.771	-127.400	0.131	0.019
-368.756	276.387	0.081	-0.144
-367.742	41.144	-0.203	-0.184
-366.727	-200.000	-0.036	-0.224
-365.712	-200.000	0.000	-0.170
-364.698	3.415	-0.157	-0.115
-363.683	52.290	0.024	-0.023
-362.669	-200.000	-0.032	0.286
-361.654	-200.000	0.013	0.095
-360.639	-117.776	-0.369	-0.066
-359.625	138.087	0.138	0.182
-358.610	-173.399	0.323	0.010
-357.596	-105.860	-0.341	0.077
-356.581	122.110	-0.127	-0.158
-355.566	-75.909	0.396	-0.140
-354.552	402.310	0.044	-0.092
-353.537	-64.607	0.148	0.060
-352.523	-200.000	0.001	0.080
-351.508	53.133	-0.118	0.113
-350.493	-156.248	-0.232	-0.015
-349.479	-107.961	-0.092	-0.020
-348.464	-200.000	-0.114	0.755
-347.450	-55.176	0.186	-0.084
-346.435	-39.431	0.051	0.027
-345.420	129.803	-0.071	-0.091
-344.406	800.000	0.050	0.148
-343.391	-23.709	0.273	0.164
-342.377	34.934	-0.189	0.166
-341.362	-200.000	0.025	0.301
-340.348	711.156	-0.025	-0.066
-339.333	376.328	0.082	0.167
-338.318	-200.000	0.030	-0.284
-337.304	318.783	-0.222	-0.421
-336.289	800.000	-0.026	0.105
-335.275	60.525	-0.119	-0.118
-334.260	217.390	-0.150	-0.240
-333.245	-200.000	0.005	-0.257
-332.231	186.548	0.122	-0.181
-331.216	-200.000	0.008	0.150
-330.202	800.000	0.024	0.081
-329.187	-4.800	0.341	0.235
-328.172	-200.000	-0.072	-0.352
-327.158	614.937	-0.088	0.221
-326.143	-200.000	-0.030	0.260
-325.129	45.504	0.080	0.074
-324.114	-90.355	-0.138	-0.040
-323.099	-200.000	-0.016	-0.172
-322.085	54.757	-0.193	-0.186
-321.070	-70.214	0.142	0.054
-320.056	-57.049	0.411	-0.181
-319.041	800.000	-0.071	0.236
-318.026	-200.000	0.009	-0.211
-317.012	202.098	-0.231	-0.356
-315.997	-156.519	-0.200	0.012
-314.983	-200.000	-0.028	0.297
-313.968	-15.561	0.146	0.093
-312.953	-164.497	-0.260	0.012
-311.939	-124.470	0.166	-0.026
-310.924	-128.402	-0.097	0.014
-309.910	78.811	-0.030	0.032
-308.895	-71.209	-0.104	0.039
-307.880	77.307	-0.297	-0.316
-306.866	800.000	-0.064	-0.182
-305.851	248.955	0.105	0.177
-304.837	-119.096	-0.116	-0.020
-303.822	-131.483	-0.228	-0.030
-302.807	1.774	0.231	-0.166
-301.793	189.162	0.128	0.192
-300.778	-200.000	-0.034	0.289
-299.764	800.000	-0.130	0.405
-298.749	0.799	-0.237	0.169
-297.735	-54.336	-0.313	0.142
-296.720	-200.000	0.008	-0.275
-295.705	132.334	0.160	0.205
-294.691	197.368	0.087	-0.133
-293.676	3.107	0.239	-0.173
-292.662	-165.662	0.325	0.014
-291.647	-185.299	-0.174	-0.003
-290.632	-200.000	-0.050	-0.310
-289.618	172.426	-0.192	-0.276
-288.603	-200.000	0.277	0.000
-287.589	-16.396	0.156	-0.099
-286.574	-101.823	-0.204	0.049
-285.559	-34.647	0.123	0.067
-284.545	449.549	-0.055	-0.122
-283.530	683.689	0.044	0.113
-282.516	471.970	0.080	0.179
-281.501	-119.208	0.256	0.045
-280.486	800.000	-0.091	-0.337
-279.472	800.000	-0.136	0.423
-278.457	329.920	0.210	-0.403
-277.443	-21.525	-0.360	-0.219
-276.428	-76.760	-0.259	-0.091
-275.413	-200.000	-0.002	0.176
-274.399	-200.000	0.021	0.222
-273.384	800.000	0.094	-0.288
-272.370	800.000	0.044	-0.127
-271.355	6.536	-0.164	0.122
-270.340	110.117	0.068	-0.082
-269.326	-74.409	0.255	-0.092
-268.311	116.184	0.050	0.061
-267.297	247.008	-0.084	0.142
-266.282	54.163	0.359	0.345
-265.267	259.200	-0.081	-0.139
-264.253	261.595	0.163	0.282
-263.238	-200.000	-0.011	-0.398
-262.224	-200.000	0.000	-0.099
-261.209	-107.542	-0.087	0.019
-260.195	-83.736	0.345	-0.110
-259.180	-115.766	0.238	0.044
-258.165	37.640	-0.106	0.094
-257.151	160.814	-0.186	0.259
-256.136	-200.000	-0.024	-0.306
-255.122	-64.901	-0.074	0.030
-254.107	-95.330	0.114	0.031
-253.092	-121.463	0.169	0.028
-252.078	43.996	-0.247	0.225
-251.063	98.327	0.161	-0.184
-250.049	-82.814	0.464	-0.150
-249.034	800.000	-0.111	-0.450
-248.019	144.608	0.061	-0.081
-247.005	-176.985	-0.498	-0.012
-245.990	-97.724	-0.228	-0.059
-244.976	-200.000	0.028	0.142
-243.961	-42.129	0.352	-0.179
-242.946	-200.000	0.021	-0.299
-241.932	-19.244	-0.083	0.051
-240.917	23.946	-0.205	0.168
-239.903	-200.000	-0.078	0.355
-238.888	-54.596	0.210	-0.094
-237.873	350.690	0.101	0.198
-236.859	800.000	0.063	-0.180
-235.844	-110.266	-0.123	0.025
-234.830	228.695	-0.164	-0.267
-233.815	-200.000	-0.014	-0.224
-232.800	800.000	0.107	0.401
-231.786	-32.376	0.129	0.072
-230.771	63.445	-0.112	-0.112
-229.757	-99.114	0.266	0.067
-228.742	459.753	-0.045	0.100
-227.727	297.992	-0.113	-0.207
-226.713	-42.465	0.102	-0.052
-225.698	98.367	-0.072	0.083
-224.684	155.409	0.106	-0.145
-223.669	48.061	0.325	-0.302
-222.655	-20.285	0.257	0.157
-221.640	800.000	0.072	0.199
-220.625	-33.985	-0.092	0.050
-219.611	-83.792	-0.458	0.145
-218.596	233.009	0.081	-0.132
-217.582	170.591	0.138	-0.197
-216.567	-76.953	0.319	0.111
-215.552	-141.025	0.235	0.024
-214.538	-21.076	0.124	-0.075
-213.523	-159.727	0.207	0.011
-212.509	-178.801	0.372	0.008
-211.494	-200.000	-0.006	-0.112
-210.479	-78.059	-0.310	0.106
-209.465	-200.000	0.002	0.170
-208.450	-200.000	0.009	-0.094
-207.436	800.000	0.032	-0.099
-206.421	298.678	0.180	-0.330
-205.406	273.572	0.216	0.379
-204.392	286.134	-0.240	0.430
-203.377	161.851	0.092	0.128
-202.363	129.695	-0.049	0.062
-201.348	800.000	-0.079	-0.271
-200.333	-82.831	-0.161	0.052
-199.319	-61.529	-0.172	0.072
-198.304	800.000	-0.066	0.244
-197.290	800.000	-0.034	-0.106
-196.275	-200.000	0.050	-0.400
-195.260	-6.497	0.310	0.210
-194.246	-4.140	0.221	0.152
-193.231	-200.000	0.066	-0.294
-192.217	557.743	0.066	0.159
-191.202	-125.768	-0.271	-0.041
-190.187	-70.380	0.129	-0.049
-189.173	102.336	0.070	0.081
-188.158	146.317	0.155	-0.206
-187.144	-17.780	-0.197	-0.123
-186.129	137.347	-0.065	-0.085
-185.114	68.962	0.178	0.181
-184.100	93.927	-0.088	-0.099
-183.085	-115.723	0.093	-0.017
-182.071	-132.798	-0.096	-0.012
-181.056	-200.000	-0.042	0.379
-180.042	-14.631	-0.112	0.071
-179.027	-45.528	0.236	0.116
-178.012	-200.000	0.070	0.339
-176.998	-18.364	0.253	0.157
-175.983	136.461	-0.141	-0.182
-174.969	800.000	-0.039	0.166
-173.954	-137.943	0.128	0.014
-172.939	9.670	-0.065	-0.049
-171.925	-180.519	-0.131	-0.003
-170.910	140.319	0.095	0.124
-169.896	214.065	-0.199	0.314
-168.881	7.196	0.203	-0.150
-167.866	-155.511	-0.033	-0.002
-166.852	298.132	0.126	0.231
-165.837	-130.498	0.203	0.027
-164.823	106.295	-0.136	0.160
-163.808	-11.673	0.244	-0.159
-162.793	-200.000	-0.040	-0.220
-161.779	-1.771	0.180	-0.126
-160.764	114.704	-0.200	0.242
-159.750	-149.089	-0.467	-0.037
-158.735	-131.576	-0.260	0.034
-157.720	-84.016	-0.099	-0.031
-156.706	-200.000	-0.014	0.391
-155.691	-200.000	0.015	0.127
-154.677	-200.000	0.007	-0.303
-153.662	-7.275	-0.070	0.047
-152.647	-24.840	-0.263	0.155
-151.633	-118.627	0.479	-0.084
-150.618	172.362	-0.181	-0.258
-149.604	95.101	0.179	0.202
-148.589	100.177	0.219	-0.252
-147.574	-200.000	-0.051	0.392
-146.560	256.269	0.048	-0.082
-145.545	121.132	0.097	0.119
-144.531	219.115	-0.067	0.107
-143.516	-200.000	-0.014	0.109
-142.502	-82.119	-0.177	-0.057
-141.487	-133.984	-0.106	0.013
-140.472	364.435	-0.068	0.136
-139.458	90.340	-0.348	0.386
-138.443	800.000	0.045	0.158
-137.429	-200.000	-0.007	0.051
-136.414	773.523	-0.119	-0.321
-135.399	8.249	0.140	-0.104
-134.385	-23.076	0.327	0.195
-133.370	-79.175	0.268	-0.090
-132.356	37.814	-0.042	-0.037
-131.341	-31.519	0.142	0.079
-130.326	128.477	0.110	-0.139
-129.312	-27.976	-0.234	-0.135
-128.297	100.397	-0.025	-0.028
-127.283	243.318	-0.138	0.230
-126.268	196.721	-0.051	0.077
-125.253	-15.845	-0.136	-0.086
-124.239	-93.166	0.326	0.090
-123.224	-200.000	0.004	-0.037
-122.210	-200.000	0.060	0.325
