DTS Sentinel unit serial number:	SN413079Multiplexer serial number:	ORYXHardware model number:	OX4-SRSoftware version number:	ORYX F/W v4.00 Oryx Data Collector v3.7.2.0data status	okinstallation	princeton_trtdifferential loss correction	single-endedforward channel	channel 2reverse channel	N/Adate	2019/09/11time	05:49:11forward acquisition time	60.00reverse acquisition time	0.00gamma	496.2192k internal	0.2329k external	0.2329temperature offset calibration	0.9940default loss term (dB/km)	0.3790temperature slope calibration	1.0000multiplexer offset coefficient	1.0000multiplexer slope coefficient	1.0000fibre end	0.00T internal ref (°C)	29.41T ext. ref 1 (°C)	-0.22T ext. ref 2 (°C)	23.46length (m)	temperature (°C)	Stokes	anti-Stokes-747.200	-200.000	-0.009	-0.217
-746.185	95.741	0.163	0.187
-745.171	-164.818	0.080	0.004
-744.156	-102.487	0.076	-0.018
-743.142	-200.000	-0.049	0.233
-742.127	169.992	-0.129	0.186
-741.112	106.566	-0.205	0.245
-740.098	53.081	0.077	-0.074
-739.083	-24.813	0.334	0.200
-738.069	-200.000	0.012	0.418
-737.054	65.799	-0.158	-0.161
-736.039	-138.775	-0.204	-0.022
-735.025	-200.000	-0.029	0.151
-734.010	63.928	-0.080	-0.081
-732.996	800.000	0.025	-0.087
-731.981	106.092	-0.103	-0.123
-730.966	120.779	0.034	0.043
-729.952	-105.843	-0.238	-0.054
-728.937	-109.383	0.082	0.018
-727.923	10.973	-0.122	0.094
-726.908	43.831	-0.119	0.109
-725.894	-200.000	0.045	-0.227
-724.879	-200.000	-0.011	-0.067
-723.864	371.948	-0.168	-0.344
-722.850	-161.859	-0.214	-0.011
-721.835	89.305	0.253	-0.284
-720.821	800.000	-0.027	-0.078
-719.806	-200.000	-0.006	0.242
-718.791	800.000	-0.049	-0.168
-717.777	-8.366	-0.242	-0.164
-716.762	-200.000	0.024	-0.188
-715.748	6.483	-0.093	0.070
-714.733	27.963	-0.116	-0.098
-713.718	-64.552	0.274	-0.112
-712.704	-60.203	0.322	0.138
-711.689	-199.446	0.170	-0.001
-710.675	-56.019	-0.231	0.103
-709.660	-200.000	0.015	-0.248
-708.645	135.813	0.085	0.112
-707.631	-200.000	0.027	0.205
-706.616	-6.232	-0.221	0.152
-705.602	523.420	-0.059	0.139
-704.587	130.110	-0.182	-0.234
-703.572	-8.036	0.461	0.313
-702.558	-85.663	0.154	0.048
-701.543	-113.831	-0.172	0.034
-700.529	174.611	-0.214	-0.311
-699.514	64.022	0.364	-0.368
-698.499	-153.471	0.242	-0.017
-697.485	142.088	-0.143	-0.190
-696.470	76.143	-0.208	-0.222
-695.456	-200.000	0.027	0.164
-694.441	800.000	-0.093	-0.325
-693.426	800.000	0.045	-0.195
-692.412	152.466	-0.190	0.261
-691.397	48.865	0.082	0.078
-690.383	-164.504	-0.372	-0.017
-689.368	-145.643	0.126	0.011
-688.354	100.136	0.035	-0.041
-687.339	800.000	0.079	0.235
-686.324	71.060	0.126	0.131
-685.310	-94.372	-0.229	-0.063
-684.295	-7.900	-0.036	-0.025
-683.281	-117.707	0.224	0.041
-682.266	-120.366	0.382	-0.065
-681.251	800.000	0.060	-0.230
-680.237	161.131	-0.067	0.095
-679.222	-200.000	0.051	0.364
-678.208	75.482	-0.167	-0.177
-677.193	-200.000	-0.279	0.000
-676.178	-200.000	-0.055	-0.415
-675.164	-200.000	0.065	-0.410
-674.149	-39.678	-0.037	-0.019
-673.135	-200.000	-0.001	0.024
-672.120	81.648	0.152	-0.165
-671.105	516.643	0.032	0.074
-670.091	-200.000	0.036	0.205
-669.076	-200.000	0.015	-0.068
-668.062	-170.902	0.383	-0.013
-667.047	126.181	0.237	0.301
-666.032	7.861	0.313	-0.235
-665.018	151.962	0.160	-0.219
-664.003	-200.000	-0.010	0.198
-662.989	-23.502	-0.224	-0.135
-661.974	-200.000	0.030	0.138
-660.959	-50.327	-0.115	-0.054
-659.945	453.376	0.142	0.315
-658.930	-200.000	-0.004	-0.043
-657.916	-200.000	-0.047	-0.283
-656.901	74.351	-0.159	-0.168
-655.886	89.986	-0.148	-0.166
-654.872	7.979	0.179	0.135
-653.857	-200.000	0.003	-0.027
-652.843	-166.084	0.087	-0.004
-651.828	-110.180	-0.362	0.076
-650.814	-153.123	0.405	0.029
-649.799	-112.938	-0.587	0.117
-648.784	-88.664	0.107	-0.032
-647.770	99.495	-0.111	-0.128
-646.755	-76.324	-0.073	0.026
-645.741	134.816	0.151	0.197
-644.726	122.792	0.105	-0.132
-643.711	-16.117	0.084	0.054
-642.697	23.752	0.127	-0.105
-641.682	-73.174	0.367	-0.135
-640.668	-200.000	-0.023	-0.261
-639.653	777.460	0.074	-0.203
-638.638	-130.161	-0.129	-0.018
-637.624	79.938	-0.070	-0.076
-636.609	-89.580	-0.022	0.007
-635.595	252.467	0.067	-0.115
-634.580	-128.820	0.183	-0.026
-633.565	800.000	0.035	0.128
-632.551	800.000	0.030	-0.124
-631.536	800.000	0.080	-0.312
-630.522	606.537	0.215	-0.537
-629.507	5.243	-0.090	0.066
-628.492	800.000	0.045	-0.185
-627.478	180.899	0.182	0.268
-626.463	-200.000	-0.013	0.074
-625.449	-200.000	0.008	0.046
-624.434	203.792	0.215	0.334
-623.419	-99.506	0.116	-0.029
-622.405	800.000	0.038	-0.162
-621.390	-15.564	0.228	-0.146
-620.376	71.956	-0.203	-0.212
-619.361	360.680	-0.113	0.227
-618.346	235.414	0.176	-0.292
-617.332	-16.222	0.061	-0.039
-616.317	-113.271	0.199	0.039
-615.303	800.000	0.097	-0.349
-614.288	-200.000	-0.020	-0.210
-613.273	284.890	-0.153	0.276
-612.259	212.976	0.147	-0.233
-611.244	-46.347	0.095	-0.047
-610.230	-88.483	-0.227	0.068
-609.215	-86.600	0.026	-0.008
-608.201	-112.743	-0.200	-0.040
-607.186	44.060	-0.065	0.059
-606.171	800.000	0.031	-0.114
-605.157	-85.423	0.103	-0.032
-604.142	-104.579	-0.046	0.011
-603.128	-31.135	-0.286	-0.161
-602.113	-123.552	-0.521	-0.083
-601.098	-39.205	-0.010	-0.005
-600.084	178.683	-0.157	-0.229
-599.069	68.321	-0.259	0.266
-598.055	-200.000	0.015	0.126
-597.040	269.822	-0.160	0.281
-596.025	89.425	-0.072	-0.080
-595.011	140.981	0.034	-0.045
-593.996	-191.630	-0.208	-0.002
-592.982	-17.672	-0.081	-0.051
-591.967	76.318	-0.144	-0.152
-590.952	11.609	-0.230	-0.176
-589.938	-200.000	0.038	0.369
-588.923	-47.854	-0.089	0.043
-587.909	-124.973	-0.160	0.025
-586.894	668.991	-0.068	-0.177
-585.879	-200.000	-0.009	-0.266
-584.865	-137.086	0.402	0.046
-583.850	-117.088	0.236	-0.043
-582.836	69.569	0.304	0.313
-581.821	-64.096	0.154	-0.063
-580.806	258.420	0.080	-0.139
-579.792	-115.781	0.029	-0.005
-578.777	-200.000	0.009	0.076
-577.763	198.705	-0.111	-0.170
-576.748	212.824	0.188	0.298
-575.733	25.701	-0.069	0.057
-574.719	72.266	-0.126	-0.131
-573.704	258.024	0.046	-0.078
-572.690	-88.748	0.112	0.033
-571.675	-142.368	-0.113	0.011
-570.661	201.533	0.177	-0.273
-569.646	-97.270	-0.237	0.062
-568.631	-126.309	-0.151	0.023
-567.617	103.971	-0.057	0.067
-566.602	162.869	-0.141	-0.197
-565.588	-35.404	0.382	-0.208
-564.573	541.196	-0.088	-0.211
-563.558	150.654	0.170	-0.231
-562.544	-91.693	0.139	0.040
-561.529	-154.644	-0.203	0.014
-560.515	-200.000	0.017	-0.587
-559.500	447.135	0.023	-0.050
-558.485	200.015	-0.072	0.110
-557.471	-60.138	0.526	-0.224
-556.456	-47.622	0.376	0.182
-555.442	120.860	0.188	0.233
-554.427	-200.000	0.019	0.309
-553.412	39.159	-0.176	-0.157
-552.398	800.000	0.054	0.151
-551.383	65.356	-0.140	0.141
-550.369	-200.000	-0.047	0.306
-549.354	-200.000	-0.004	-0.069
-548.339	-200.000	0.038	0.258
-547.325	205.827	0.086	-0.133
-546.310	146.146	-0.043	-0.058
-545.296	-200.000	-0.001	0.048
-544.281	-200.000	-0.079	-0.364
-543.266	276.735	-0.170	-0.302
-542.252	-95.941	-0.208	-0.055
-541.237	-158.505	-0.134	-0.008
-540.223	-37.974	-0.192	0.102
-539.208	189.014	-0.026	0.039
-538.193	800.000	0.022	0.079
-537.179	749.227	-0.130	0.350
-536.164	556.593	-0.085	-0.205
-535.150	-105.793	-0.120	0.027
-534.135	589.914	0.129	-0.319
-533.121	-57.430	-0.163	-0.071
-532.106	-200.000	-0.031	0.157
-531.091	685.222	-0.170	0.443
-530.077	-200.000	-0.012	0.098
-529.062	-11.037	-0.226	0.149
-528.048	-146.268	-0.423	-0.037
-527.033	393.546	0.086	0.180
-526.018	-169.424	0.472	0.017
-525.004	-171.587	0.270	-0.009
-523.989	102.363	0.068	-0.079
-522.975	30.070	0.129	0.110
-521.960	-200.000	0.027	0.119
-520.945	-200.000	0.026	-0.165
-519.931	224.525	-0.124	-0.201
-518.916	-86.148	0.163	0.050
-517.902	-200.000	-0.029	-0.133
-516.887	-120.225	0.211	0.036
-515.872	-99.009	0.257	-0.065
-514.858	-14.779	0.232	0.149
-513.843	-200.000	0.017	-0.103
-512.829	-41.252	-0.190	0.098
-511.814	-128.472	0.196	0.028
-510.799	200.353	-0.130	0.200
-509.785	-6.206	-0.311	0.212
-508.770	-37.990	0.176	-0.094
-507.756	-101.298	0.072	-0.017
-506.741	-13.440	-0.224	-0.145
-505.726	-58.785	0.431	-0.186
-504.712	-154.604	-0.196	-0.013
-503.697	-151.809	0.124	0.009
-502.683	-18.281	0.142	-0.089
-501.668	99.824	-0.077	0.089
-500.653	2.613	0.164	0.119
-499.639	800.000	0.046	-0.173
-498.624	-129.906	-0.086	-0.012
-497.610	4.279	0.012	0.009
-496.595	235.019	0.031	-0.050
-495.581	50.905	-0.177	0.168
-494.566	-78.281	-0.068	0.023
-493.551	-200.000	-0.036	0.243
-492.537	28.508	0.208	-0.176
-491.522	58.653	0.359	0.352
-490.508	-200.000	0.051	-0.241
-489.493	-52.257	0.089	0.041
-488.478	800.000	0.047	0.141
-487.464	185.758	-0.135	-0.200
-486.449	93.941	0.116	-0.132
-485.435	-4.736	-0.195	0.134
-484.420	800.000	-0.025	-0.070
-483.405	632.627	0.158	0.399
-482.391	315.555	0.118	-0.222
-481.376	-64.972	-0.083	0.033
-480.362	113.632	-0.165	-0.200
-479.347	-10.537	-0.278	0.184
-478.332	-70.493	0.087	-0.033
-477.318	586.061	-0.082	0.200
-476.303	-155.807	-0.210	0.013
-475.289	800.000	0.036	-0.138
-474.274	-1.980	-0.380	-0.266
-473.259	219.562	-0.038	0.060
-472.245	-200.000	-0.044	0.227
-471.230	-171.446	-0.142	-0.005
-470.216	241.231	-0.076	0.127
-469.201	-200.000	-0.040	-0.291
-468.186	557.029	-0.097	0.232
-467.172	205.673	0.059	-0.092
-466.157	-85.754	0.074	0.023
-465.143	-28.192	-0.252	-0.145
-464.128	287.847	0.064	0.115
-463.113	-64.778	0.177	-0.071
-462.099	-63.234	-0.266	0.109
-461.084	171.603	0.060	-0.085
-460.070	-200.000	-0.029	-0.148
-459.055	-200.000	-0.057	0.270
-458.040	-5.993	-0.343	0.234
-457.026	185.308	-0.148	0.219
-456.011	-200.000	-0.028	-0.134
-454.997	-113.161	-0.265	0.052
-453.982	73.172	-0.074	-0.077
-452.968	-113.389	-0.169	-0.033
-451.953	-147.343	0.262	0.022
-450.938	-49.568	-0.035	0.017
-449.924	-82.812	0.165	-0.053
-448.909	413.263	0.132	0.279
-447.895	-200.000	0.001	0.070
-446.880	58.215	-0.242	0.236
-445.865	-200.000	0.035	0.281
-444.851	-81.469	0.494	-0.162
-443.836	-36.318	-0.058	-0.031
-442.822	633.297	-0.027	0.068
-441.807	-78.696	-0.253	-0.086
-440.792	800.000	-0.043	-0.186
-439.778	-28.750	0.150	-0.086
-438.763	-133.741	0.172	-0.021
-437.749	153.296	0.212	0.288
-436.734	-200.000	0.048	-0.341
-435.719	-160.158	0.223	0.012
-434.705	-39.495	0.140	-0.073
-433.690	-200.000	-0.026	-0.135
-432.676	-145.658	-0.385	-0.034
-431.661	-76.174	0.278	-0.098
-430.646	800.000	-0.038	0.111
-429.632	-200.000	-0.007	-0.064
-428.617	-167.137	-0.365	0.015
-427.603	-106.886	0.082	0.018
-426.588	-50.621	0.393	-0.184
-425.573	93.887	-0.027	-0.031
-424.559	292.983	0.125	-0.227
-423.544	-51.979	-0.156	-0.072
-422.530	34.875	0.220	-0.192
-421.515	-200.000	0.010	-0.127
-420.500	33.326	0.188	-0.162
-419.486	256.887	-0.147	0.251
-418.471	272.478	-0.200	0.351
-417.457	712.990	-0.103	-0.272
-416.442	-62.916	-0.153	-0.063
-415.428	-82.461	-0.413	0.133
-414.413	39.301	-0.064	-0.057
-413.398	138.728	0.189	0.247
-412.384	3.678	-0.219	-0.159
-411.369	121.720	-0.088	0.109
-410.355	-200.000	-0.020	-0.131
-409.340	-200.000	-0.057	0.372
-408.325	-200.000	-0.040	-0.274
-407.311	283.873	-0.062	-0.111
-406.296	-163.780	0.205	0.010
-405.282	-200.000	0.277	-0.000
-404.267	-51.112	-0.038	0.018
-403.252	-50.519	0.175	0.082
-402.238	-82.054	-0.140	0.045
-401.223	-200.000	-0.015	-0.158
-400.209	132.241	-0.116	-0.148
-399.194	-143.363	-0.329	-0.031
-398.179	28.981	0.062	0.052
-397.165	168.914	-0.154	0.218
-396.150	233.969	0.147	0.240
-395.136	165.386	0.059	0.083
-394.121	-58.049	-0.320	-0.139
-393.106	-142.402	-0.093	0.009
-392.092	9.643	0.206	0.155
-391.077	-38.544	0.568	0.298
-390.063	-200.000	0.033	0.363
-389.048	-200.000	-0.026	-0.314
-388.033	800.000	-0.070	0.283
-387.019	-113.926	0.056	-0.011
-386.004	-122.624	-0.091	-0.015
-384.990	-77.395	-0.156	-0.054
-383.975	41.301	-0.050	0.045
-382.960	30.654	-0.195	0.166
-381.946	-108.359	-0.102	-0.022
-380.931	-48.808	-0.231	0.110
-379.917	-103.792	-0.180	0.042
-378.902	259.049	-0.049	-0.085
-377.888	341.143	-0.044	-0.086
-376.873	95.432	0.142	-0.161
-375.858	-200.000	-0.033	-0.585
-374.844	-90.915	0.104	0.030
-373.829	-200.000	-0.015	0.090
-372.815	-129.072	0.281	0.039
-371.800	431.919	0.036	-0.077
-370.785	81.728	-0.155	-0.166
-369.771	141.757	-0.306	-0.402
-368.756	-160.446	-0.059	0.003
-367.742	-43.539	0.274	0.138
-366.727	32.492	-0.132	-0.113
-365.712	634.947	0.045	-0.113
-364.698	-119.160	-0.371	-0.064
-363.683	-11.321	0.031	-0.020
-362.669	63.093	-0.400	-0.398
-361.654	0.740	0.204	-0.145
-360.639	-145.569	-0.310	-0.028
-359.625	-139.919	-0.083	0.009
-358.610	-200.000	-0.060	0.312
-357.596	-98.445	-0.152	-0.039
-356.581	-85.927	0.303	-0.093
-355.566	-200.000	0.002	0.079
-354.552	48.130	0.216	-0.201
-353.537	-105.754	0.060	0.014
-352.523	-163.822	-0.195	0.009
-351.508	-200.000	-0.014	-0.199
-350.493	800.000	0.016	0.044
-349.479	-134.653	-0.301	0.036
-348.464	130.852	-0.239	0.304
-347.450	-182.746	0.308	0.006
-346.435	74.403	0.340	0.354
-345.420	-39.965	-0.392	-0.203
-344.406	-200.000	0.030	0.207
-343.391	-48.933	0.112	0.053
-342.377	-200.000	-0.016	-0.506
-341.362	-23.600	-0.147	0.087
-340.348	800.000	-0.023	0.096
-339.333	186.109	-0.134	-0.197
-338.318	-200.000	-0.030	0.167
-337.304	800.000	-0.071	0.218
-336.289	152.853	0.125	0.170
-335.275	800.000	-0.088	-0.277
-334.260	800.000	-0.020	0.078
-333.245	-34.207	-0.135	-0.073
-332.231	204.646	-0.101	0.156
-331.216	-121.685	-0.212	-0.035
-330.202	-107.716	-0.072	-0.016
-329.187	191.524	-0.140	-0.209
-328.172	-200.000	0.074	0.455
-327.158	-200.000	0.080	0.393
-326.143	-18.167	-0.141	0.088
-325.129	-56.533	0.355	0.156
-324.114	800.000	-0.073	0.263
-323.099	800.000	0.051	-0.142
-322.085	800.000	-0.047	-0.154
-321.070	119.794	-0.101	-0.124
-320.056	-200.000	0.142	-0.001
-319.041	126.036	-0.078	-0.098
-318.026	-109.290	0.249	-0.052
-317.012	-123.316	0.372	0.059
-315.997	-112.604	-0.148	0.029
-314.983	-59.397	0.354	-0.151
-313.968	587.003	-0.079	0.194
-312.953	26.204	0.063	0.052
-311.939	-170.751	0.144	0.005
-310.924	-13.899	0.117	-0.075
-309.910	-6.827	-0.136	0.092
-308.895	35.161	0.035	0.030
-307.880	-64.429	-0.396	0.160
-306.866	-116.199	-0.140	-0.026
-305.851	23.048	0.204	-0.166
-304.837	231.759	-0.122	0.198
-303.822	-36.001	-0.381	-0.204
-302.807	4.033	-0.115	0.083
-301.793	-110.198	0.452	-0.093
-300.778	-150.626	-0.436	-0.033
-299.764	800.000	0.037	0.144
-298.749	-138.392	-0.302	0.033
-297.735	63.002	0.256	0.253
-296.720	2.955	0.207	0.149
-295.705	45.379	-0.114	0.104
-294.691	135.424	0.094	-0.121
-293.676	360.135	-0.167	-0.331
-292.662	124.360	-0.040	0.049
-291.647	-200.000	-0.019	0.108
-290.632	-29.423	-0.362	0.205
-289.618	-150.347	0.290	-0.022
-288.603	-60.727	-0.211	0.088
-287.589	-45.885	0.074	-0.036
-286.574	111.919	0.095	0.113
-285.559	800.000	-0.041	-0.132
-284.545	317.162	-0.042	-0.079
-283.530	-122.952	0.082	-0.013
-282.516	-19.102	0.061	-0.038
-281.501	157.136	0.169	-0.231
-280.486	381.218	-0.064	-0.130
-279.472	800.000	-0.019	0.061
-278.457	800.000	0.036	0.108
-277.443	-85.922	-0.220	-0.067
-276.428	229.558	-0.038	0.061
-275.413	800.000	0.073	-0.283
-274.399	800.000	0.044	-0.137
-273.384	-59.572	-0.207	-0.088
-272.370	800.000	-0.071	0.209
-271.355	298.443	0.142	-0.259
-270.340	-99.872	0.306	-0.076
-269.326	-148.746	0.422	-0.034
-268.311	-12.287	-0.249	-0.161
-267.297	84.842	0.101	0.109
-266.282	-164.717	-0.212	-0.009
-265.267	800.000	0.052	0.146
-264.253	48.953	0.193	-0.179
-263.238	-87.433	0.219	0.066
-262.224	-4.893	0.235	0.160
-261.209	588.001	0.064	0.155
-260.195	-152.195	0.047	-0.003
-259.180	-101.842	0.273	-0.065
-258.165	800.000	0.049	0.179
-257.151	-56.329	-0.064	-0.028
-256.136	-33.949	-0.228	-0.124
-255.122	714.490	-0.043	-0.112
-254.107	-143.995	0.156	-0.015
-253.092	-175.762	0.028	-0.001
-252.078	317.448	0.090	-0.168
-251.063	558.696	0.051	0.122
-250.049	-36.349	0.186	-0.099
-249.034	-33.987	-0.105	-0.057
-248.019	95.899	0.118	0.133
-247.005	431.598	0.081	0.174
-245.990	219.652	0.149	-0.236
-244.976	-128.268	0.326	-0.046
-243.961	800.000	-0.102	0.373
-242.946	-200.000	0.034	-0.349
-241.932	100.116	0.081	-0.093
-240.917	-120.237	0.313	-0.053
-239.903	-200.000	0.001	-0.118
-238.888	50.124	-0.209	0.195
-237.873	-135.951	-0.304	0.035
-236.859	-200.000	0.020	-0.206
-235.844	-121.478	-0.262	-0.043
-234.830	-200.000	0.027	0.261
-233.815	12.688	-0.117	0.089
-232.800	-200.000	-0.013	0.096
-231.786	-85.976	0.253	0.077
-230.771	47.232	0.091	0.084
-229.757	-200.000	0.032	-0.230
-228.742	-140.291	0.234	-0.024
-227.727	-135.225	0.030	0.004
-226.713	800.000	-0.086	0.289
-225.698	-200.000	0.027	0.134
-224.684	-71.664	-0.190	-0.070
-223.669	-200.000	0.027	0.347
-222.655	-200.000	-0.018	-0.225
-221.640	-200.000	-0.001	-0.110
-220.625	-31.508	-0.094	-0.052
-219.611	411.694	-0.078	0.163
-218.596	269.545	0.119	0.207
-217.582	-200.000	0.020	-0.086
-216.567	448.054	0.160	0.348
-215.552	734.739	-0.098	0.260
-214.538	800.000	-0.061	0.219
-213.523	-142.376	0.328	-0.032
-212.509	220.426	0.171	-0.271
-211.494	-200.000	0.000	0.218
-210.479	-78.888	-0.309	-0.104
-209.465	24.474	0.096	0.078
-208.450	-105.337	-0.214	-0.048
-207.436	-117.265	0.544	-0.097
-206.421	182.328	0.043	0.062
-205.406	-200.000	-0.000	-0.032
-204.392	-63.362	-0.563	0.228
-203.377	-193.309	-0.132	-0.001
-202.363	800.000	-0.035	0.146
-201.348	-122.331	0.103	-0.017
-200.333	-64.210	0.221	0.089
-199.319	-26.060	0.384	0.223
-198.304	202.789	0.134	0.204
-197.290	38.835	0.060	-0.053
-196.275	314.908	0.078	-0.145
-195.260	-107.916	-0.154	-0.033
-194.246	30.118	-0.057	0.048
-193.231	6.915	0.254	0.187
-192.217	-67.196	0.506	0.196
-191.202	26.945	-0.241	-0.199
-190.187	40.128	0.269	0.238
-189.173	97.995	-0.335	0.380
-188.158	-58.172	0.167	-0.072
-187.144	-26.923	0.231	0.133
-186.129	-135.954	-0.319	0.037
-185.114	-14.301	-0.048	-0.030
-184.100	-120.060	-0.311	-0.053
-183.085	-176.396	-0.379	0.010
-182.071	-137.195	0.230	0.026
-181.056	-173.390	0.247	-0.007
-180.042	76.982	-0.124	0.129
-179.027	-83.710	-0.026	0.008
-178.012	110.306	-0.230	-0.272
-176.998	-116.211	0.168	0.031
-175.983	-11.039	0.039	0.025
-174.969	274.853	-0.016	-0.028
-173.954	52.820	0.142	-0.133
-172.939	-27.588	0.221	0.126
-171.925	315.053	-0.141	0.262
-170.910	391.892	0.008	-0.016
-169.896	417.355	0.057	0.121
-168.881	-40.245	0.193	0.099
-167.866	800.000	-0.102	-0.409
-166.852	800.000	-0.076	0.255
-165.837	-97.319	0.143	0.037
-164.823	316.027	-0.053	0.098
-163.808	800.000	-0.032	0.124
-162.793	-9.661	-0.046	0.030
-161.779	-200.000	0.413	0.000
-160.764	10.319	0.102	0.076
-159.750	77.143	-0.159	0.167
-158.735	-16.397	0.361	-0.225
-157.720	718.550	-0.038	0.099
-156.706	800.000	0.050	-0.166
-155.691	-200.000	-0.003	-0.206
-154.677	536.150	-0.082	-0.192
-153.662	-187.248	-0.344	-0.005
-152.647	143.342	-0.219	-0.287
-151.633	-154.487	0.165	0.011
-150.618	-82.953	-0.183	0.058
-149.604	-200.000	-0.039	0.270
-148.589	-200.000	-0.017	-0.077
-147.574	-200.000	0.007	0.334
-146.560	-200.000	-0.027	0.120
-145.545	-166.552	-0.373	-0.015
-144.531	189.835	0.099	-0.146
-143.516	-46.590	0.237	-0.114
-142.502	-76.169	0.219	-0.076
-141.487	27.105	0.210	-0.173
-140.472	14.902	-0.169	0.130
-139.458	800.000	-0.043	-0.127
-138.443	-200.000	0.088	0.442
-137.429	800.000	0.086	0.291
-136.414	-52.009	0.072	-0.033
-135.399	-91.824	-0.185	0.052
-134.385	-79.932	-0.248	-0.082
-133.370	82.439	-0.125	0.133
-132.356	-70.178	0.328	-0.123
-131.341	25.298	0.259	0.212
-130.326	670.750	-0.087	-0.223
-129.312	800.000	-0.066	0.216
-128.297	-200.000	-0.031	-0.297
-127.283	640.420	-0.022	0.056
-126.268	487.365	0.105	0.235
-125.253	-200.000	0.024	0.222
-124.239	-53.919	0.062	0.028
-123.224	447.882	0.114	-0.246
