DTS Sentinel unit serial number:	SN413079Multiplexer serial number:	ORYXHardware model number:	OX4-SRSoftware version number:	ORYX F/W v4.00 Oryx Data Collector v3.7.2.0data status	okinstallation	princeton_trtdifferential loss correction	single-endedforward channel	channel 2reverse channel	N/Adate	2019/09/11time	03:37:10forward acquisition time	60.00reverse acquisition time	0.00gamma	496.2192k internal	0.2329k external	0.2329temperature offset calibration	0.9940default loss term (dB/km)	0.3790temperature slope calibration	1.0000multiplexer offset coefficient	1.0000multiplexer slope coefficient	1.0000fibre end	0.00T internal ref (°C)	29.50T ext. ref 1 (°C)	-0.30T ext. ref 2 (°C)	23.95length (m)	temperature (°C)	Stokes	anti-Stokes-747.200	116.994	-0.272	-0.337
-746.185	-42.798	-0.114	-0.058
-745.171	-200.000	-0.008	0.057
-744.156	-130.111	-0.272	0.037
-743.142	106.714	0.197	0.236
-742.127	-105.852	-0.382	-0.087
-741.112	129.869	0.136	0.176
-740.098	-200.000	0.008	0.387
-739.083	800.000	0.043	-0.158
-738.069	800.000	-0.071	0.270
-737.054	60.693	0.085	-0.085
-736.039	738.760	-0.080	-0.217
-735.025	-66.420	0.260	-0.104
-734.010	-6.200	-0.063	-0.043
-732.996	14.936	-0.200	0.158
-731.981	800.000	0.054	0.153
-730.966	499.798	-0.093	-0.217
-729.952	-200.000	0.033	-0.340
-728.937	82.024	0.221	-0.242
-727.923	-151.433	-0.227	-0.017
-726.908	-91.897	0.224	0.064
-725.894	-19.306	-0.137	-0.085
-724.879	99.275	-0.226	-0.263
-723.864	-90.593	0.171	-0.050
-722.850	800.000	-0.028	-0.084
-721.835	-185.599	-0.268	-0.004
-720.821	-59.772	-0.192	-0.083
-719.806	252.525	0.046	0.079
-718.791	-200.000	-0.053	-0.254
-717.777	-85.672	-0.095	0.030
-716.762	800.000	0.043	-0.142
-715.748	800.000	-0.105	-0.296
-714.733	-31.429	-0.155	0.088
-713.718	66.402	0.203	0.208
-712.704	-70.426	-0.168	-0.064
-711.689	53.057	0.213	0.206
-710.675	-200.000	-0.037	0.508
-709.660	-40.532	0.095	-0.050
-708.645	125.163	-0.136	-0.173
-707.631	-200.000	-0.023	0.342
-706.616	162.673	0.035	-0.050
-705.602	70.619	-0.099	-0.103
-704.587	-111.028	-0.075	-0.016
-703.572	-200.000	-0.043	0.383
-702.558	-200.000	0.002	0.017
-701.543	226.496	0.122	-0.199
-700.529	-200.000	-0.063	-0.282
-699.514	-99.010	0.447	-0.114
-698.499	-200.000	-0.007	-0.189
-697.485	268.912	-0.037	0.065
-696.470	383.451	-0.057	-0.118
-695.456	-135.629	0.435	0.052
-694.441	322.351	0.108	-0.207
-693.426	336.904	0.123	0.239
-692.412	19.748	0.202	0.163
-691.397	413.376	0.037	-0.079
-690.383	91.743	-0.313	-0.354
-689.368	-200.000	-0.068	-0.349
-688.354	-67.395	-0.139	0.055
-687.339	-200.000	-0.028	-0.147
-686.324	-169.657	0.085	-0.003
-685.310	67.255	-0.065	0.067
-684.295	-200.000	-0.009	-0.250
-683.281	800.000	-0.056	0.161
-682.266	800.000	-0.093	-0.389
-681.251	-103.865	-0.439	-0.103
-680.237	563.246	-0.056	-0.136
-679.222	353.547	-0.152	-0.303
-678.208	-200.000	-0.007	-0.225
-677.193	341.098	-0.165	-0.324
-676.178	189.385	0.252	-0.379
-675.164	-59.733	-0.046	0.020
-674.149	-200.000	-0.058	-0.346
-673.135	-200.000	-0.024	-0.119
-672.120	-25.790	-0.044	0.026
-671.105	800.000	0.027	-0.090
-670.091	486.357	-0.092	-0.212
-669.076	-94.912	0.195	-0.053
-668.062	190.699	-0.178	0.269
-667.047	-63.642	0.154	-0.063
-666.032	-29.487	-0.243	0.139
-665.018	-80.205	0.206	-0.069
-664.003	231.183	-0.060	0.098
-662.989	-39.813	-0.059	0.031
-661.974	-5.706	-0.202	-0.139
-660.959	-200.000	0.000	0.065
-659.945	-188.205	-0.208	-0.003
-658.930	-68.159	-0.112	-0.044
-657.916	168.633	0.110	-0.158
-656.901	-10.052	-0.136	0.091
-655.886	157.073	0.050	-0.070
-654.872	800.000	-0.048	0.140
-653.857	25.494	0.125	0.104
-652.843	800.000	-0.089	-0.332
-651.828	-72.526	-0.271	0.100
-650.814	-127.716	0.370	-0.054
-649.799	-50.191	-0.243	0.115
-648.784	96.478	-0.062	-0.071
-647.770	114.397	-0.088	0.108
-646.755	-82.340	0.244	-0.080
-645.741	-43.630	0.108	-0.054
-644.726	800.000	-0.041	0.149
-643.711	-32.484	-0.006	0.004
-642.697	79.145	0.126	0.136
-641.682	-91.907	-0.346	-0.098
-640.668	168.374	0.093	0.132
-639.653	-37.848	0.357	-0.191
-638.638	800.000	0.015	-0.052
-637.624	-55.741	-0.523	0.235
-636.609	-37.065	-0.017	0.009
-635.595	58.429	-0.161	-0.159
-634.580	-68.346	-0.278	-0.108
-633.565	-28.509	-0.460	-0.266
-632.551	38.341	-0.223	-0.199
-631.536	-200.000	-0.020	-0.414
-630.522	-6.375	0.092	0.063
-629.507	-200.000	0.025	0.254
-628.492	48.203	0.259	0.243
-627.478	-113.847	0.438	0.085
-626.463	84.529	0.160	-0.175
-625.449	-94.548	-0.295	-0.081
-624.434	800.000	0.067	0.277
-623.419	452.127	0.106	0.234
-622.405	-1.379	0.126	-0.089
-621.390	-200.000	-0.006	-0.075
-620.376	21.184	-0.221	0.180
-619.361	-116.187	0.157	0.029
-618.346	450.819	0.095	0.211
-617.332	189.970	0.188	0.283
-616.317	-53.636	0.261	-0.120
-615.303	-58.029	-0.202	-0.088
-614.288	80.883	0.089	0.096
-613.273	100.767	0.173	0.201
-612.259	-18.035	0.161	-0.101
-611.244	-200.000	0.030	-0.251
-610.230	-200.000	0.005	-0.133
-609.215	107.178	-0.043	-0.051
-608.201	-200.000	-0.010	0.079
-607.186	-97.936	0.185	-0.048
-606.171	62.003	-0.127	0.127
-605.157	31.682	-0.027	0.023
-604.142	-200.000	0.020	-0.266
-603.128	-68.260	-0.177	0.069
-602.113	16.816	0.108	-0.086
-601.098	-1.924	0.150	-0.106
-600.084	-116.096	0.273	0.051
-599.069	-200.000	-0.015	0.117
-598.055	-103.588	-0.417	0.098
-597.040	-91.790	0.181	0.051
-596.025	-174.192	-0.165	0.005
-595.011	800.000	-0.105	0.372
-593.996	399.847	0.162	0.339
-592.982	60.973	0.145	-0.144
-591.967	800.000	0.029	0.124
-590.952	-27.854	0.158	-0.091
-589.938	800.000	0.047	0.147
-588.923	-200.000	0.043	0.271
-587.909	-138.542	0.318	0.035
-586.894	-48.237	0.066	-0.032
-585.879	61.796	0.163	0.162
-584.865	-107.440	0.444	0.097
-583.850	269.604	0.153	-0.268
-582.836	381.419	-0.088	0.181
-581.821	-78.735	-0.077	0.026
-580.806	-200.000	-0.023	0.171
-579.792	27.709	0.192	-0.162
-578.777	-122.310	0.011	0.002
-577.763	-92.102	0.235	-0.066
-576.748	367.060	0.081	-0.163
-575.733	-17.084	-0.110	-0.070
-574.719	-96.330	0.346	-0.092
-573.704	7.667	-0.179	-0.134
-572.690	69.752	-0.286	-0.295
-571.675	97.138	0.024	0.028
-570.661	-5.649	0.059	-0.040
-569.646	-200.000	0.036	-0.189
-568.631	-200.000	-0.008	0.105
-567.617	349.756	0.118	-0.233
-566.602	230.910	-0.222	-0.363
-565.588	413.798	0.174	0.371
-564.573	-113.553	0.120	0.023
-563.558	-200.000	-0.057	-0.362
-562.544	-61.821	-0.240	0.101
-561.529	800.000	-0.112	-0.410
-560.515	-37.838	0.261	-0.139
-559.500	-200.000	0.006	-0.295
-558.485	-200.000	0.007	0.096
-557.471	-200.000	0.136	-0.001
-556.456	-122.293	-0.236	-0.039
-555.442	106.943	-0.171	0.203
-554.427	349.707	-0.018	0.036
-553.412	101.853	-0.103	-0.120
-552.398	603.766	-0.112	0.280
-551.383	318.674	-0.263	0.498
-550.369	-125.080	0.241	-0.037
-549.354	-189.020	-0.228	0.003
-548.339	800.000	-0.126	0.522
-547.325	-200.000	0.021	0.127
-546.310	-200.000	-0.020	-0.274
-545.296	800.000	0.054	0.178
-544.281	-34.526	-0.139	-0.076
-543.266	525.738	0.036	-0.084
-542.252	-159.482	-0.274	-0.015
-541.237	41.920	-0.170	0.154
-540.223	-24.475	-0.306	0.182
-539.208	-91.024	0.169	-0.049
-538.193	-50.752	0.119	0.056
-537.179	-49.871	-0.251	-0.119
-536.164	-57.386	-0.112	0.049
-535.150	800.000	-0.112	0.318
-534.135	79.799	-0.178	0.191
-533.121	-132.077	0.220	0.029
-532.106	-36.876	0.370	-0.199
-531.091	-73.143	0.147	-0.054
-530.077	37.279	0.151	-0.134
-529.062	224.248	-0.050	-0.081
-528.048	-37.664	-0.269	-0.143
-527.033	-69.213	-0.245	0.094
-526.018	-200.000	-0.007	0.121
-525.004	800.000	-0.098	-0.325
-523.989	-82.208	0.158	-0.051
-522.975	-99.921	0.331	-0.083
-521.960	-52.243	0.260	0.120
-520.945	-155.227	-0.042	-0.003
-519.931	19.712	0.272	-0.219
-518.916	116.334	0.014	-0.017
-517.902	121.928	-0.199	0.248
-516.887	-15.700	0.296	0.189
-515.872	-200.000	-0.002	-0.058
-514.858	-200.000	-0.042	-0.211
-513.843	-69.699	-0.161	-0.062
-512.829	-88.278	0.330	0.099
-511.814	389.543	0.128	0.264
-510.799	-49.198	-0.134	-0.064
-509.785	238.579	0.099	-0.164
-508.770	131.624	-0.108	-0.138
-507.756	-43.905	-0.075	0.038
-506.741	800.000	-0.009	-0.032
-505.726	-55.829	-0.189	-0.084
-504.712	42.565	-0.252	-0.229
-503.697	-90.294	0.420	0.122
-502.683	606.976	-0.039	0.098
-501.668	800.000	-0.089	0.253
-500.653	-17.381	-0.152	-0.096
-499.639	-140.250	-0.194	-0.020
-498.624	-11.166	-0.119	-0.078
-497.610	-127.021	-0.274	0.040
-496.595	-23.197	0.111	0.067
-495.581	-106.184	-0.170	0.038
-494.566	153.293	0.113	-0.154
-493.551	-38.420	-0.107	0.056
-492.537	21.049	-0.310	0.251
-491.522	-6.298	0.180	0.123
-490.508	-15.500	-0.229	-0.146
-489.493	-75.180	-0.356	0.127
-488.478	56.297	-0.134	-0.130
-487.464	80.757	0.228	0.246
-486.449	-0.706	0.057	-0.040
-485.435	511.566	0.110	0.255
-484.420	103.387	-0.148	0.173
-483.405	702.647	-0.050	0.131
-482.391	-16.077	-0.211	-0.134
-481.376	-200.000	0.019	0.102
-480.362	34.350	0.147	0.128
-479.347	63.249	-0.248	0.248
-478.332	-148.378	0.224	-0.018
-477.318	86.704	-0.271	-0.298
-476.303	-161.090	-0.499	0.026
-475.289	-99.231	-0.203	0.051
-474.274	-156.621	0.148	-0.009
-473.259	-122.481	-0.316	0.051
-472.245	-18.699	-0.126	-0.078
-471.230	-92.890	0.239	0.067
-470.216	117.383	-0.080	-0.098
-469.201	-21.420	0.203	-0.124
-468.186	32.788	-0.192	0.166
-467.172	113.039	-0.149	0.180
-466.157	-124.056	-0.221	-0.035
-465.143	-200.000	0.006	0.074
-464.128	153.590	-0.023	-0.032
-463.113	-34.854	0.081	0.044
-462.099	-200.000	0.015	0.066
-461.084	-200.000	-0.002	0.231
-460.070	41.038	-0.133	0.120
-459.055	-122.802	0.166	-0.027
-458.040	-55.671	-0.050	-0.022
-457.026	120.425	0.160	0.198
-456.011	73.551	0.161	-0.168
-454.997	132.222	-0.043	0.056
-453.982	800.000	-0.072	-0.227
-452.968	-146.353	0.194	0.017
-451.953	317.653	0.193	0.364
-450.938	-11.344	0.200	-0.131
-449.924	-88.728	0.215	-0.064
-448.909	-200.000	0.005	-0.043
-447.895	-16.145	-0.113	-0.072
-446.880	43.279	0.309	-0.281
-445.865	-200.000	0.013	-0.261
-444.851	-71.032	-0.038	-0.014
-443.836	-200.000	-0.015	0.253
-442.822	292.623	-0.050	0.090
-441.807	518.277	-0.060	0.141
-440.792	581.614	-0.107	0.262
-439.778	-143.905	0.334	-0.031
-438.763	-136.429	-0.117	0.014
-437.749	-112.676	0.063	0.012
-436.734	-200.000	0.001	0.008
-435.719	244.766	0.135	-0.227
-434.705	-114.477	-0.116	0.022
-433.690	-13.836	-0.141	-0.091
-432.676	800.000	-0.106	-0.335
-431.661	-200.000	0.031	0.223
-430.646	800.000	-0.059	0.250
-429.632	-57.698	-0.088	0.038
-428.617	-61.461	0.048	0.020
-427.603	-9.159	-0.356	-0.237
-426.588	-65.799	0.210	0.084
-425.573	-200.000	0.048	0.455
-424.559	75.174	-0.097	-0.101
-423.544	-33.056	-0.217	-0.120
-422.530	-11.485	-0.166	-0.109
-421.515	-167.159	-0.387	0.016
-420.500	352.516	-0.038	-0.075
-419.486	-54.448	-0.347	0.157
-418.471	-150.267	0.148	-0.011
-417.457	133.283	0.176	-0.226
-416.442	201.563	0.156	-0.239
-415.428	800.000	-0.083	-0.257
-414.413	-33.330	0.199	-0.109
-413.398	-75.157	-0.063	-0.022
-412.384	73.723	-0.144	-0.150
-411.369	-23.753	-0.127	0.075
-410.355	521.953	-0.094	0.221
-409.340	19.208	-0.158	-0.126
-408.325	107.125	-0.042	0.049
-407.311	-200.000	0.049	-0.441
-406.296	165.664	-0.044	-0.063
-405.282	-16.831	0.146	0.092
-404.267	-200.000	0.023	-0.137
-403.252	800.000	-0.065	0.239
-402.238	462.691	0.184	0.409
-401.223	-42.495	0.161	-0.081
-400.209	800.000	0.062	-0.247
-399.194	10.032	-0.275	-0.208
-398.179	-53.107	0.102	0.047
-397.165	53.707	0.110	0.105
-396.150	-99.419	-0.069	-0.017
-395.136	93.981	-0.147	-0.166
-394.121	349.741	0.011	0.022
-393.106	800.000	-0.101	-0.351
-392.092	317.467	-0.132	0.247
-391.077	146.751	-0.268	0.358
-390.063	-200.000	-0.036	0.282
-389.048	800.000	0.080	0.247
-388.033	90.096	0.245	-0.273
-387.019	638.978	0.070	-0.177
-386.004	-56.027	0.020	0.009
-384.990	800.000	0.022	0.096
-383.975	207.885	0.040	-0.063
-382.960	-90.494	0.429	-0.123
-381.946	375.893	-0.112	-0.227
-380.931	-144.376	-0.187	-0.017
-379.917	-8.451	-0.059	0.040
-378.902	64.298	-0.108	0.108
-377.888	180.680	0.291	0.425
-376.873	-27.722	-0.128	0.074
-375.858	-200.000	-0.020	-0.094
-374.844	-11.892	0.210	0.137
-373.829	-200.000	-0.031	0.260
-372.815	-200.000	-0.071	-0.568
-371.800	-81.080	-0.228	-0.075
-370.785	-200.000	-0.018	0.208
-369.771	-68.111	0.250	0.097
-368.756	-79.612	-0.552	-0.185
-367.742	-22.010	-0.168	-0.101
-366.727	-72.151	0.186	-0.069
-365.712	800.000	-0.108	-0.342
-364.698	-18.914	0.199	-0.123
-363.683	-200.000	0.020	-0.212
-362.669	74.654	0.114	-0.119
-361.654	-85.790	-0.315	-0.097
-360.639	-200.000	0.056	-0.251
-359.625	-29.179	0.275	0.156
-358.610	-200.000	0.017	0.226
-357.596	-164.039	0.264	-0.012
-356.581	18.531	-0.219	0.174
-355.566	-66.503	-0.154	0.061
-354.552	-12.467	-0.062	0.040
-353.537	-200.000	0.051	-0.273
-352.523	-59.960	0.071	0.030
-351.508	800.000	0.116	-0.343
-350.493	-4.840	0.078	0.054
-349.479	-41.546	0.028	-0.015
-348.464	-114.987	0.219	-0.041
-347.450	-134.166	-0.218	0.027
-346.435	-200.000	-0.007	-0.151
-345.420	-57.443	-0.131	-0.057
-344.406	245.883	0.058	0.097
-343.391	-200.000	0.014	0.138
-342.377	-119.025	0.251	-0.044
-341.362	-81.682	0.308	-0.100
-340.348	-57.641	0.173	0.075
-339.333	-61.169	-0.136	-0.057
-338.318	-107.030	-0.167	0.037
-337.304	271.133	-0.114	-0.200
-336.289	118.164	0.095	0.116
-335.275	113.599	-0.185	-0.223
-334.260	75.121	-0.139	0.145
-333.245	800.000	0.052	0.169
-332.231	97.424	0.058	-0.066
-331.216	-63.163	0.213	-0.087
-330.202	137.549	-0.123	0.160
-329.187	-59.643	-0.397	0.169
-328.172	-200.000	-0.017	0.391
-327.158	-38.102	0.103	-0.054
-326.143	-200.000	-0.011	-0.172
-325.129	501.082	-0.166	0.380
-324.114	139.234	-0.104	0.135
-323.099	125.994	0.183	0.230
-322.085	-200.000	0.048	0.273
-321.070	117.917	-0.102	-0.125
-320.056	99.982	-0.148	0.170
-319.041	-11.220	0.130	-0.085
-318.026	-65.592	0.398	-0.158
-317.012	-139.854	0.103	-0.011
-315.997	35.857	-0.470	0.410
-314.983	-76.335	-0.466	0.163
-313.968	256.140	-0.092	-0.156
-312.953	-200.000	0.015	-0.141
-311.939	37.987	-0.141	-0.124
-310.924	110.635	0.061	0.073
-309.910	-121.185	0.121	0.020
-308.895	-200.000	0.068	0.469
-307.880	-34.204	-0.217	0.118
-306.866	800.000	0.091	-0.287
-305.851	186.310	0.075	0.111
-304.837	-53.625	0.296	-0.134
-303.822	-82.749	-0.549	0.176
-302.807	85.819	-0.097	0.105
-301.793	800.000	0.066	0.286
-300.778	-200.000	-0.059	-0.272
-299.764	-200.000	0.047	0.249
-298.749	-200.000	0.003	0.230
-297.735	-69.073	0.206	0.079
-296.720	-26.872	-0.083	0.048
-295.705	-83.765	-0.059	0.019
-294.691	23.619	-0.066	0.054
-293.676	-200.000	0.079	0.394
-292.662	257.856	0.059	-0.101
-291.647	-22.856	-0.203	-0.121
-290.632	800.000	0.027	0.075
-289.618	-146.895	0.542	0.046
-288.603	-200.000	0.002	-0.160
-287.589	-49.880	-0.131	0.062
-286.574	8.237	-0.082	-0.061
-285.559	-31.866	-0.326	-0.181
-284.545	-39.633	-0.325	0.168
-283.530	800.000	-0.049	-0.141
-282.516	202.403	-0.226	-0.346
-281.501	-7.998	-0.352	-0.235
-280.486	174.634	0.041	0.058
-279.472	-200.000	-0.051	0.325
-278.457	162.188	0.167	-0.232
-277.443	62.445	0.075	-0.074
-276.428	-200.000	0.022	-0.163
-275.413	800.000	0.088	0.278
-274.399	-78.908	0.434	-0.146
-273.384	-53.237	0.107	0.049
-272.370	-200.000	-0.034	-0.237
-271.355	-200.000	0.017	0.087
-270.340	5.007	-0.261	-0.190
-269.326	-84.159	-0.055	-0.017
-268.311	-143.614	-0.161	0.015
-267.297	-183.994	0.273	0.005
-266.282	642.161	-0.122	0.306
-265.267	800.000	0.049	-0.141
-264.253	-110.774	0.148	-0.030
-263.238	797.130	-0.135	-0.368
-262.224	-86.492	-0.174	-0.053
-261.209	-158.696	-0.425	0.024
-260.195	164.741	-0.095	-0.133
-259.180	609.840	-0.032	0.079
-258.165	-75.624	0.230	0.081
-257.151	-101.343	0.244	-0.059
-256.136	-33.426	-0.237	-0.130
-255.122	243.070	-0.083	0.137
-254.107	-200.000	-0.052	-0.241
-253.092	-12.276	0.070	0.045
-252.078	-200.000	-0.020	0.280
-251.063	-176.552	0.300	0.008
-250.049	-88.667	-0.360	-0.106
-249.034	-185.377	-0.142	-0.002
-248.019	-200.000	0.030	0.328
-247.005	-10.678	0.136	0.089
-245.990	774.799	0.081	0.219
-244.976	-200.000	-0.061	0.322
-243.961	-174.670	0.296	0.008
-242.946	-140.545	0.157	-0.016
-241.932	38.017	-0.345	-0.303
-240.917	178.494	0.135	-0.195
-239.903	-77.257	-0.092	0.031
-238.888	33.250	-0.204	0.175
-237.873	136.274	0.159	-0.205
-236.859	-100.753	-0.047	0.011
-235.844	310.327	-0.081	0.151
-234.830	-178.154	0.302	0.007
-233.815	69.761	-0.033	0.034
-232.800	137.157	-0.145	-0.188
-231.786	9.302	0.177	0.132
-230.771	-111.573	0.285	-0.057
-229.757	-38.824	-0.169	-0.088
-228.742	800.000	0.041	-0.126
-227.727	-91.429	0.222	-0.063
-226.713	-200.000	0.013	-0.089
-225.698	266.562	0.198	0.342
-224.684	-200.000	0.024	-0.179
-223.669	-200.000	0.030	-0.138
-222.655	-55.781	-0.282	0.124
-221.640	-7.142	-0.093	-0.063
-220.625	-28.734	0.207	-0.118
-219.611	-6.532	-0.172	0.116
-218.596	-58.715	0.102	-0.044
-217.582	-200.000	-0.020	-0.298
-216.567	-75.914	0.345	-0.121
-215.552	189.797	0.178	-0.263
-214.538	-200.000	-0.007	0.191
-213.523	32.706	0.157	-0.134
-212.509	-135.416	0.110	0.013
-211.494	-200.000	0.001	-0.193
-210.479	-200.000	-0.004	-0.102
-209.465	-14.949	0.341	0.215
-208.450	-74.731	0.175	0.062
-207.436	-200.000	-0.043	0.371
-206.421	56.812	0.216	-0.207
-205.406	-92.454	-0.017	-0.005
-204.392	-66.712	0.262	0.102
-203.377	-105.006	0.172	0.039
-202.363	-123.070	-0.235	0.037
-201.348	60.891	0.081	0.079
-200.333	-22.725	0.191	0.114
-199.319	-26.739	0.172	-0.099
-198.304	59.560	0.049	-0.047
-197.290	-200.000	-0.049	-0.362
-196.275	-51.960	0.233	-0.107
-195.260	-84.951	-0.144	0.045
-194.246	-16.567	0.148	0.092
-193.231	-0.563	-0.264	-0.185
-192.217	22.580	-0.017	-0.014
-191.202	-200.000	-0.038	0.239
-190.187	800.000	0.053	0.193
-189.173	-53.112	-0.186	-0.084
-188.158	-200.000	-0.015	0.254
-187.144	-66.667	0.448	-0.175
-186.129	-200.000	-0.038	-0.219
-185.114	800.000	0.070	-0.223
-184.100	33.667	-0.113	-0.097
-183.085	-200.000	-0.030	-0.335
-182.071	800.000	-0.077	0.288
-181.056	11.037	-0.192	0.144
-180.042	207.683	-0.059	-0.091
-179.027	337.398	0.053	-0.101
-178.012	-106.781	-0.100	-0.022
-176.998	36.537	0.007	0.006
-175.983	209.399	0.198	-0.306
-174.969	800.000	0.095	0.377
-173.954	800.000	0.071	-0.214
-172.939	524.267	-0.041	-0.095
-171.925	-128.551	-0.179	-0.025
-170.910	216.274	0.102	-0.160
-169.896	-186.171	-0.119	-0.002
-168.881	114.009	-0.086	-0.103
-167.866	86.993	0.129	0.141
-166.852	17.811	0.266	-0.208
-165.837	183.940	0.151	-0.220
-164.823	-132.457	-0.254	-0.032
-163.808	-111.002	0.326	-0.066
-162.793	-110.365	-0.198	0.040
-161.779	-200.000	0.054	0.305
-160.764	77.956	0.274	0.287
-159.750	800.000	-0.076	-0.323
-158.735	-200.000	0.030	0.171
-157.720	-200.000	0.042	0.209
-156.706	197.675	0.279	-0.419
-155.691	-200.000	0.017	-0.151
-154.677	-199.440	0.147	0.001
-153.662	39.555	-0.050	-0.044
-152.647	-0.155	0.304	0.213
-151.633	800.000	-0.091	-0.334
-150.618	500.716	0.081	0.184
-149.604	227.389	-0.079	0.126
-148.589	800.000	0.105	-0.323
-147.574	-47.279	-0.235	0.112
-146.560	-37.250	-0.186	-0.098
-145.545	-63.171	-0.120	-0.049
-144.531	-25.496	-0.119	-0.069
-143.516	-129.414	0.185	-0.025
-142.502	800.000	-0.100	-0.307
-141.487	134.818	0.140	0.179
-140.472	131.324	-0.077	-0.097
-139.458	800.000	-0.048	-0.159
-138.443	-200.000	-0.006	-0.156
-137.429	-200.000	-0.032	0.449
-136.414	-32.902	-0.106	0.058
-135.399	-66.277	-0.184	0.072
-134.385	95.117	-0.052	-0.058
-133.370	800.000	-0.022	-0.088
-132.356	190.450	-0.158	-0.234
-131.341	186.601	0.096	0.140
-130.326	-75.965	-0.217	0.075
-129.312	-35.415	-0.102	0.055
-128.297	93.874	-0.103	-0.115
-127.283	-200.000	0.027	0.376
-126.268	-160.264	0.259	-0.014
-125.253	83.813	0.158	-0.170
-124.239	-200.000	0.024	0.117
-123.224	-86.222	-0.177	-0.054
-122.210	190.391	0.021	0.032
