DTS Sentinel unit serial number:	SN413079Multiplexer serial number:	ORYXHardware model number:	OX4-SRSoftware version number:	ORYX F/W v4.00 Oryx Data Collector v3.7.2.0data status	okinstallation	princeton_trtdifferential loss correction	single-endedforward channel	channel 2reverse channel	N/Adate	2019/09/11time	04:53:11forward acquisition time	60.00reverse acquisition time	0.00gamma	496.2192k internal	0.2329k external	0.2329temperature offset calibration	0.9939default loss term (dB/km)	0.3790temperature slope calibration	1.0000multiplexer offset coefficient	1.0000multiplexer slope coefficient	1.0000fibre end	0.00T internal ref (°C)	29.50T ext. ref 1 (°C)	-0.27T ext. ref 2 (°C)	23.31length (m)	temperature (°C)	Stokes	anti-Stokes-747.200	-0.832	0.066	-0.047
-746.185	800.000	0.153	0.591
-745.171	115.887	-0.094	0.116
-744.156	794.935	-0.168	0.465
-743.142	-127.407	0.271	0.040
-742.127	-118.705	0.180	0.032
-741.112	800.000	0.090	-0.268
-740.098	-200.000	-0.031	0.244
-739.083	-104.413	0.543	0.127
-738.069	-108.105	-0.421	-0.092
-737.054	338.584	0.046	0.091
-736.039	14.585	-0.317	0.250
-735.025	-109.250	-0.039	-0.008
-734.010	191.739	-0.235	-0.356
-732.996	78.355	0.061	-0.066
-731.981	99.684	-0.072	0.084
-730.966	727.129	-0.031	0.084
-729.952	169.368	-0.129	0.186
-728.937	800.000	-0.029	-0.109
-727.923	-200.000	0.064	0.307
-726.908	-200.000	-0.010	-0.126
-725.894	152.876	-0.062	0.085
-724.879	-200.000	0.010	0.203
-723.864	704.867	-0.044	-0.118
-722.850	-134.918	-0.185	-0.023
-721.835	-157.724	0.231	-0.014
-720.821	19.878	0.168	-0.136
-719.806	-69.689	-0.286	0.110
-718.791	800.000	-0.018	0.053
-717.777	263.469	0.249	-0.436
-716.762	800.000	0.082	0.361
-715.748	-5.314	-0.454	0.313
-714.733	223.341	0.145	0.235
-713.718	-155.849	-0.095	-0.006
-712.704	377.197	0.088	0.180
-711.689	48.968	0.266	-0.251
-710.675	-200.000	0.034	0.190
-709.660	42.351	0.078	0.071
-708.645	-104.356	-0.086	0.020
-707.631	-50.523	0.250	-0.119
-706.616	-43.382	0.220	-0.112
-705.602	-200.000	0.007	0.146
-704.587	-37.122	-0.053	-0.029
-703.572	-44.356	-0.226	-0.114
-702.558	282.554	-0.086	-0.155
-701.543	410.842	-0.084	-0.178
-700.529	-51.184	-0.246	0.116
-699.514	-200.000	0.004	-0.363
-698.499	-91.783	-0.266	-0.076
-697.485	83.250	0.187	0.204
-696.470	58.661	-0.319	-0.315
-695.456	220.809	0.079	-0.128
-694.441	111.641	0.042	-0.051
-693.426	441.227	-0.074	0.163
-692.412	76.008	0.179	0.190
-691.397	38.101	-0.139	0.124
-690.383	3.120	0.365	0.267
-689.368	800.000	-0.074	-0.209
-688.354	-10.232	-0.165	-0.110
-687.339	-5.535	-0.089	-0.062
-686.324	-200.000	0.084	-0.369
-685.310	129.795	0.225	0.289
-684.295	-157.875	0.231	-0.014
-683.281	-68.122	-0.219	0.086
-682.266	262.321	-0.064	0.111
-681.251	-133.494	0.212	-0.027
-680.237	51.330	0.095	0.091
-679.222	800.000	0.087	0.302
-678.208	-147.740	0.095	0.008
-677.193	-81.226	0.166	-0.055
-676.178	174.198	-0.046	-0.067
-675.164	800.000	-0.069	-0.251
-674.149	-8.935	-0.169	-0.114
-673.135	-100.917	-0.237	-0.058
-672.120	167.096	-0.244	0.348
-671.105	-87.545	-0.322	0.098
-670.091	269.858	0.071	-0.125
-669.076	594.382	0.103	-0.256
-668.062	-60.812	0.240	0.102
-667.047	674.809	-0.031	0.080
-666.032	-16.167	-0.281	-0.179
-665.018	-196.813	-0.227	-0.001
-664.003	-141.323	-0.117	-0.012
-662.989	-132.271	-0.072	0.009
-661.974	-65.244	0.104	0.042
-660.959	800.000	-0.041	-0.175
-659.945	139.318	-0.143	-0.188
-658.930	142.642	0.068	0.090
-657.916	-101.212	-0.189	0.046
-656.901	60.770	-0.121	-0.121
-655.886	-200.000	-0.025	0.113
-654.872	-38.616	-0.169	0.090
-653.857	-27.170	0.368	0.215
-652.843	19.822	0.075	-0.061
-651.828	-200.000	0.019	-0.314
-650.814	-37.923	-0.147	-0.078
-649.799	800.000	-0.046	0.171
-648.784	-25.379	-0.218	-0.130
-647.770	-200.000	0.008	0.159
-646.755	-5.772	-0.106	-0.073
-645.741	-6.441	0.202	-0.138
-644.726	110.149	0.067	0.081
-643.711	143.171	-0.067	0.089
-642.697	434.510	-0.101	0.220
-641.682	61.454	-0.299	0.299
-640.668	-200.000	0.027	-0.250
-639.653	-44.213	-0.422	-0.212
-638.638	-200.000	0.026	-0.224
-637.624	314.901	-0.161	-0.304
-636.609	-136.934	0.270	-0.031
-635.595	136.059	-0.068	0.088
-634.580	20.673	0.321	-0.261
-633.565	-200.000	-0.006	-0.078
-632.551	-200.000	0.024	0.293
-631.536	278.033	0.009	-0.016
-630.522	95.483	-0.156	-0.179
-629.507	-129.118	-0.020	-0.003
-628.492	-200.000	-0.014	-0.068
-627.478	222.749	0.213	-0.344
-626.463	73.512	-0.044	0.046
-625.449	2.860	0.194	-0.141
-624.434	-19.209	-0.172	0.107
-623.419	-200.000	-0.015	0.071
-622.405	-44.817	0.047	0.023
-621.390	-200.000	0.061	-0.340
-620.376	800.000	-0.107	0.466
-619.361	800.000	-0.043	-0.153
-618.346	-200.000	-0.017	-0.270
-617.332	-77.126	0.079	-0.028
-616.317	-163.435	-0.068	0.003
-615.303	-200.000	0.081	-0.414
-614.288	88.564	0.200	-0.223
-613.273	-200.000	-0.053	-0.288
-612.259	-137.142	-0.337	0.039
-611.244	-27.748	0.172	0.100
-610.230	-8.953	-0.344	0.231
-609.215	-84.462	-0.347	0.110
-608.201	-41.898	0.280	0.144
-607.186	35.234	0.087	0.077
-606.171	-200.000	-0.054	0.292
-605.157	30.551	-0.142	0.121
-604.142	-200.000	0.051	-0.286
-603.128	-200.000	0.206	-0.000
-602.113	800.000	0.055	-0.220
-601.098	-41.004	-0.148	0.077
-600.084	50.566	-0.093	-0.088
-599.069	-71.009	0.152	-0.057
-598.055	94.901	0.150	0.171
-597.040	800.000	0.053	-0.172
-596.025	-119.306	-0.210	0.037
-595.011	-112.021	0.038	0.008
-593.996	-24.168	-0.154	0.092
-592.982	-15.737	0.346	-0.221
-591.967	-71.668	-0.151	-0.056
-590.952	67.997	-0.061	0.063
-589.938	42.585	-0.095	-0.087
-588.923	-200.000	0.016	-0.144
-587.909	55.326	-0.280	-0.272
-586.894	-26.803	-0.069	0.040
-585.879	800.000	0.031	-0.094
-584.865	43.746	-0.227	-0.208
-583.850	-200.000	0.021	0.291
-582.836	-65.749	0.165	0.066
-581.821	23.687	-0.105	0.086
-580.806	160.054	0.032	-0.044
-579.792	-200.000	-0.022	-0.347
-578.777	130.752	-0.128	-0.164
-577.763	40.049	-0.291	0.262
-576.748	-31.849	-0.197	-0.110
-575.733	800.000	0.059	-0.197
-574.719	7.347	-0.253	0.189
-573.704	87.718	0.028	-0.031
-572.690	749.585	-0.136	0.367
-571.675	21.409	0.252	0.205
-570.661	-112.719	-0.106	-0.021
-569.646	414.468	0.085	0.180
-568.631	-89.722	-0.169	0.049
-567.617	172.641	-0.094	0.136
-566.602	-200.000	-0.049	-0.285
-565.588	6.044	0.350	-0.260
-564.573	-67.841	-0.286	-0.112
-563.558	416.915	-0.032	-0.068
-562.544	-200.000	-0.017	0.107
-561.529	-130.128	0.343	0.047
-560.515	-200.000	-0.026	-0.247
-559.500	-200.000	-0.011	-0.159
-558.485	-200.000	-0.043	-0.278
-557.471	214.281	0.023	0.037
-556.456	-200.000	-0.019	0.118
-555.442	120.386	0.223	0.277
-554.427	62.902	-0.482	-0.482
-553.412	-44.851	-0.040	-0.020
-552.398	-62.685	0.146	0.061
-551.383	-118.616	-0.073	0.013
-550.369	67.766	-0.182	-0.186
-549.354	800.000	0.107	0.366
-548.339	-128.660	-0.335	0.047
-547.325	-72.334	-0.258	0.095
-546.310	591.271	-0.098	-0.241
-545.296	-110.836	0.053	0.011
-544.281	-145.183	0.128	0.012
-543.266	-200.000	-0.026	0.145
-542.252	-200.000	0.045	0.211
-541.237	271.775	0.151	0.266
-540.223	70.514	-0.036	0.037
-539.208	147.559	-0.047	-0.063
-538.193	166.621	0.279	-0.395
-537.179	87.953	0.210	-0.232
-536.164	-200.000	-0.001	0.067
-535.150	416.905	0.148	0.316
-534.135	151.916	0.104	0.142
-533.121	800.000	-0.020	0.062
-532.106	374.770	0.173	0.352
-531.091	-19.638	-0.186	-0.115
-530.077	-200.000	-0.028	-0.309
-529.062	-200.000	-0.053	0.267
-528.048	36.245	0.120	-0.106
-527.033	-6.374	0.276	-0.188
-526.018	224.444	-0.231	-0.373
-525.004	52.050	0.106	-0.101
-523.989	272.071	0.193	-0.340
-522.975	-200.000	-0.027	0.275
-521.960	-200.000	-0.032	-0.310
-520.945	-32.340	-0.124	0.069
-519.931	-118.451	0.132	-0.023
-518.916	743.771	-0.030	-0.081
-517.902	-96.057	0.343	0.091
-516.887	10.111	0.115	0.087
-515.872	-200.000	-0.076	0.403
-514.858	284.464	0.104	-0.186
-513.843	-97.113	0.094	0.025
-512.829	440.115	-0.117	0.255
-511.814	-123.003	0.317	-0.051
-510.799	-120.776	0.048	0.008
-509.785	800.000	0.058	0.209
-508.770	-127.654	-0.360	0.052
-507.756	-49.136	0.219	0.105
-506.741	180.651	0.116	0.170
-505.726	28.455	0.262	0.221
-504.712	54.646	0.043	0.041
-503.697	-200.000	0.102	-0.461
-502.683	64.454	0.091	-0.091
-501.668	181.244	0.118	0.173
-500.653	-12.457	-0.257	-0.168
-499.639	-58.006	0.347	0.151
-498.624	-200.000	-0.014	-0.218
-497.610	-200.000	0.061	0.451
-496.595	-200.000	0.003	0.073
-495.581	238.270	0.121	-0.201
-494.566	-44.535	0.037	-0.019
-493.551	-200.000	-0.051	0.293
-492.537	-87.472	-0.141	-0.043
-491.522	130.814	0.117	-0.149
-490.508	-192.438	-0.335	-0.003
-489.493	-79.702	-0.136	0.046
-488.478	-41.240	0.525	-0.270
-487.464	-117.383	-0.446	-0.081
-486.449	-11.622	0.254	-0.167
-485.435	800.000	-0.106	0.397
-484.420	-134.161	0.353	0.043
-483.405	-200.000	0.011	0.201
-482.391	-200.000	0.038	0.217
-481.376	-128.790	-0.059	0.008
-480.362	66.462	-0.133	0.134
-479.347	-2.123	-0.220	0.154
-478.332	-78.276	0.149	0.051
-477.318	800.000	-0.074	0.210
-476.303	118.982	-0.177	0.218
-475.289	25.048	-0.053	0.044
-474.274	-86.084	-0.258	-0.079
-473.259	105.741	0.171	-0.202
-472.245	100.864	0.144	-0.167
-471.230	-200.000	-0.012	0.085
-470.216	624.174	0.025	-0.063
-469.201	-200.000	-0.188	0.001
-468.186	-122.396	0.203	-0.033
-467.172	1.253	0.071	0.051
-466.157	-6.069	0.097	0.066
-465.143	-200.000	-0.015	-0.304
-464.128	-200.000	0.022	-0.251
-463.113	-200.000	0.036	-0.402
-462.099	-72.884	0.133	0.049
-461.084	800.000	0.099	-0.343
-460.070	148.984	0.156	0.210
-459.055	4.523	0.084	0.061
-458.040	-141.353	-0.051	0.005
-457.026	477.192	-0.008	-0.018
-456.011	-55.710	-0.098	-0.043
-454.997	-200.000	-0.035	-0.180
-453.982	-54.605	0.276	0.124
-452.968	-200.000	-0.057	0.323
-451.953	-109.223	-0.128	0.027
-450.938	-1.554	-0.155	0.109
-449.924	413.657	0.121	-0.256
-448.909	354.074	-0.080	0.159
-447.895	-200.000	-0.052	0.459
-446.880	-115.400	0.212	-0.040
-445.865	178.195	0.147	-0.213
-444.851	534.615	0.064	0.150
-443.836	145.153	0.165	-0.219
-442.822	-200.000	0.020	0.145
-441.807	-200.000	0.001	-0.044
-440.792	53.097	-0.130	-0.124
-439.778	-200.000	0.007	-0.157
-438.763	179.883	0.108	-0.158
-437.749	165.487	-0.135	-0.190
-436.734	-2.824	0.183	0.128
-435.719	-200.000	-0.006	-0.094
-434.705	245.447	0.059	0.100
-433.690	0.516	0.222	-0.158
-432.676	38.873	0.249	0.221
-431.661	355.003	-0.092	0.182
-430.646	-200.000	-0.027	0.151
-429.632	-139.373	-0.160	-0.017
-428.617	339.841	0.164	0.318
-427.603	-200.000	0.036	0.340
-426.588	-66.693	0.265	0.105
-425.573	149.856	0.273	-0.369
-424.559	800.000	0.064	0.186
-423.544	157.965	-0.164	0.227
-422.530	296.319	-0.078	-0.143
-421.515	211.263	0.051	-0.080
-420.500	-124.517	-0.292	0.045
-419.486	79.271	-0.171	0.182
-418.471	241.291	-0.077	0.128
-417.457	360.224	0.117	-0.233
-416.442	-155.980	0.272	-0.017
-415.428	-30.979	-0.273	-0.153
-414.413	-192.329	-0.313	-0.003
-413.398	-111.681	0.236	0.048
-412.384	7.430	-0.450	-0.334
-411.369	-18.993	0.135	0.083
-410.355	-86.003	0.264	-0.081
-409.340	81.614	0.081	0.087
-408.325	-35.972	0.063	-0.034
-407.311	-71.743	0.217	0.080
-406.296	-82.748	0.163	0.053
-405.282	458.573	0.063	0.139
-404.267	157.989	0.188	-0.259
-403.252	137.113	-0.257	-0.334
-402.238	66.810	-0.123	-0.125
-401.223	42.683	0.093	-0.084
-400.209	217.331	-0.295	-0.468
-399.194	800.000	0.110	-0.374
-398.179	-200.000	-0.056	-0.328
-397.165	-26.839	-0.194	-0.113
-396.150	90.527	-0.192	-0.214
-395.136	190.418	0.087	0.130
-394.121	-5.952	-0.215	0.146
-393.106	67.908	0.084	0.085
-392.092	-200.000	-0.044	-0.219
-391.077	-55.466	-0.273	0.122
-390.063	-130.701	-0.345	-0.046
-389.048	-106.908	-0.163	-0.036
-388.033	28.820	0.165	-0.138
-387.019	68.403	0.010	-0.010
-386.004	-59.217	0.402	-0.172
-384.990	12.563	0.032	-0.024
-383.975	19.616	0.033	-0.027
-382.960	11.320	0.125	0.095
-381.946	800.000	-0.175	0.620
-380.931	163.795	-0.074	-0.103
-379.917	-121.143	-0.063	0.010
-378.902	-55.913	0.152	-0.067
-377.888	-200.000	0.059	-0.329
-376.873	-13.487	0.060	0.039
-375.858	-115.439	-0.053	0.010
-374.844	44.072	-0.165	0.151
-373.829	-57.879	-0.149	-0.064
-372.815	-55.397	0.096	-0.043
-371.800	119.039	-0.179	0.220
-370.785	-200.000	0.016	-0.195
-369.771	18.587	0.067	0.053
-368.756	-75.042	0.329	0.117
-367.742	-200.000	-0.005	-0.104
-366.727	-200.000	-0.000	-0.333
-365.712	97.037	-0.192	0.219
-364.698	-94.946	0.081	-0.022
-363.683	-200.000	-0.140	0.000
-362.669	-52.671	0.306	-0.140
-361.654	90.726	-0.099	-0.110
-360.639	346.373	0.078	-0.153
-359.625	-23.867	0.350	0.208
-358.610	173.054	-0.121	-0.173
-357.596	-152.697	-0.126	0.009
-356.581	134.435	-0.047	-0.060
-355.566	118.564	0.187	0.228
-354.552	509.176	0.027	0.062
-353.537	-118.546	-0.458	0.080
-352.523	-200.000	0.025	0.141
-351.508	457.848	0.172	-0.380
-350.493	800.000	0.037	0.138
-349.479	-200.000	-0.009	0.110
-348.464	-43.207	-0.129	0.065
-347.450	197.735	-0.039	0.060
-346.435	-200.000	-0.049	0.385
-345.420	-200.000	-0.079	0.352
-344.406	-80.493	0.138	-0.046
-343.391	-200.000	-0.014	-0.373
-342.377	-180.109	0.298	-0.006
-341.362	-60.105	-0.080	-0.034
-340.348	91.956	-0.260	-0.290
-339.333	8.351	-0.130	0.097
-338.318	91.076	0.136	0.152
-337.304	72.641	-0.048	0.049
-336.289	-78.143	0.295	-0.101
-335.275	800.000	0.117	0.396
-334.260	-74.432	-0.086	-0.031
-333.245	9.886	-0.213	-0.160
-332.231	-49.917	-0.103	0.048
-331.216	-84.405	-0.467	0.146
-330.202	-83.319	0.108	-0.034
-329.187	307.276	-0.138	0.254
-328.172	0.124	-0.264	0.187
-327.158	95.570	0.082	0.093
-326.143	36.762	0.224	-0.196
-325.129	-200.000	-0.037	-0.203
-324.114	-200.000	0.017	-0.171
-323.099	-26.566	-0.286	-0.166
-322.085	16.369	-0.181	0.142
-321.070	-200.000	0.000	0.214
-320.056	19.935	0.204	0.163
-319.041	-69.185	-0.253	0.097
-318.026	228.072	0.143	-0.230
-317.012	90.906	-0.198	-0.220
-315.997	799.031	-0.100	-0.272
-314.983	81.428	0.253	0.271
-313.968	-90.654	-0.188	-0.054
-312.953	-167.910	0.514	-0.020
-311.939	12.505	0.048	0.037
-310.924	-200.000	0.017	0.197
-309.910	-157.627	0.118	0.007
-308.895	-55.682	0.302	0.134
-307.880	203.885	-0.080	0.122
-306.866	800.000	0.013	0.038
-305.851	37.348	0.252	0.221
-304.837	468.876	-0.071	0.158
-303.822	81.680	0.219	-0.235
-302.807	-36.305	-0.060	0.032
-301.793	316.140	-0.049	-0.091
-300.778	-31.429	0.137	0.076
-299.764	-200.000	-0.011	0.255
-298.749	738.193	0.030	-0.079
-297.735	730.101	0.054	0.143
-296.720	-200.000	-0.037	0.469
-295.705	-148.830	-0.148	-0.012
-294.691	3.974	-0.162	0.117
-293.676	289.693	-0.195	0.349
-292.662	133.971	-0.232	0.297
-291.647	-76.282	-0.388	-0.135
-290.632	169.461	0.189	-0.267
-289.618	-57.660	-0.267	-0.116
-288.603	800.000	0.084	0.323
-287.589	-66.047	-0.370	-0.146
-286.574	-74.642	0.109	-0.039
-285.559	-84.609	0.270	-0.084
-284.545	-200.000	0.029	0.238
-283.530	-55.343	0.114	0.051
-282.516	-65.488	-0.169	0.067
-281.501	-200.000	0.041	-0.275
-280.486	175.760	-0.266	-0.382
-279.472	-200.000	-0.012	0.120
-278.457	-58.374	0.061	0.026
-277.443	800.000	0.085	-0.339
-276.428	-162.189	-0.078	0.004
-275.413	-200.000	-0.008	-0.097
-274.399	34.297	0.057	0.049
-273.384	596.466	-0.050	-0.121
-272.370	-200.000	-0.030	-0.160
-271.355	-133.242	-0.233	0.029
-270.340	800.000	-0.074	-0.234
-269.326	-64.369	0.184	0.074
-268.311	-15.017	-0.292	0.185
-267.297	-127.528	-0.215	0.031
-266.282	-47.293	0.252	0.121
-265.267	-200.000	0.015	0.166
-264.253	-200.000	-0.001	-0.035
-263.238	31.806	-0.068	-0.058
-262.224	267.397	-0.036	-0.062
-261.209	6.325	-0.290	-0.213
-260.195	203.443	0.106	0.162
-259.180	-200.000	0.019	0.111
-258.165	171.921	-0.153	0.217
-257.151	133.035	0.159	-0.203
-256.136	132.481	0.230	-0.292
-255.122	171.152	0.102	0.144
-254.107	76.630	0.158	-0.166
-253.092	-128.375	0.272	0.038
-252.078	-39.681	-0.161	-0.083
-251.063	-195.964	-0.146	0.001
-250.049	-200.000	-0.045	0.265
-249.034	570.532	-0.025	-0.060
-248.019	15.147	0.208	0.161
-247.005	-200.000	0.010	-0.141
-245.990	384.630	0.116	0.236
-244.976	800.000	-0.049	0.175
-243.961	323.590	0.093	-0.175
-242.946	-200.000	-0.034	0.155
-241.932	-160.107	-0.240	-0.013
-240.917	-103.741	-0.391	0.090
-239.903	800.000	0.084	0.285
-238.888	72.631	-0.069	-0.071
-237.873	-165.949	-0.266	-0.011
-236.859	-200.000	-0.018	0.134
-235.844	800.000	0.041	0.113
-234.830	-200.000	0.000	0.187
-233.815	-63.012	0.115	0.047
-232.800	-200.000	0.026	0.189
-231.786	375.446	0.137	0.275
-230.771	-200.000	0.009	0.175
-229.757	27.389	0.266	-0.221
-228.742	28.732	-0.132	-0.110
-227.727	95.965	0.099	-0.111
-226.713	800.000	-0.016	-0.045
-225.698	800.000	0.043	0.139
-224.684	51.231	-0.248	-0.232
-223.669	42.852	0.239	0.215
-222.655	647.060	0.123	-0.311
-221.640	15.915	-0.156	-0.121
-220.625	800.000	0.066	-0.200
-219.611	41.216	-0.038	-0.033
-218.596	-103.010	-0.457	0.107
-217.582	-200.000	0.011	-0.070
-216.567	33.531	-0.265	-0.227
-215.552	-24.827	-0.139	0.081
-214.538	155.777	-0.107	0.146
-213.523	250.954	-0.190	-0.318
-212.509	64.760	-0.125	-0.124
-211.494	184.783	0.081	-0.118
-210.479	-144.203	-0.273	0.025
-209.465	29.093	0.130	0.108
-208.450	20.528	-0.314	0.250
-207.436	373.932	0.180	0.362
-206.421	-5.660	0.329	0.222
-205.406	676.665	-0.038	0.099
-204.392	-34.554	0.152	0.082
-203.377	-59.213	0.266	0.113
-202.363	703.765	0.176	0.457
-201.348	110.013	0.171	0.202
-200.333	-200.000	-0.037	0.443
-199.319	-200.000	-0.036	0.236
-198.304	-200.000	0.007	0.246
-197.290	-169.347	0.263	0.010
-196.275	-6.588	0.083	0.056
-195.260	491.475	0.073	-0.164
-194.246	-76.686	0.116	-0.040
-193.231	-200.000	0.033	0.313
-192.217	-46.220	-0.182	-0.088
-191.202	800.000	0.110	-0.348
-190.187	-30.007	0.113	-0.064
-189.173	-115.986	-0.155	-0.028
-188.158	-200.000	-0.010	-0.333
-187.144	104.328	0.170	-0.197
-186.129	-200.000	0.001	0.067
-185.114	57.915	0.188	-0.181
-184.100	56.763	-0.176	0.169
-183.085	-11.661	-0.155	-0.100
-182.071	-103.790	-0.178	-0.041
-181.056	-200.000	-0.018	-0.089
-180.042	-28.683	-0.146	0.083
-179.027	320.254	0.105	0.196
-178.012	216.205	-0.065	-0.102
-176.998	112.571	-0.185	-0.220
-175.983	800.000	0.050	0.183
-174.969	133.907	0.075	-0.095
-173.954	237.382	-0.157	0.257
-172.939	351.722	0.041	-0.081
-171.925	800.000	0.012	-0.038
-170.910	-172.712	0.177	-0.005
-169.896	-38.776	0.076	0.040
-168.881	36.956	0.111	0.097
-167.866	-200.000	-0.023	-0.255
-166.852	177.407	-0.041	-0.058
-165.837	262.181	0.114	0.195
-164.823	-200.000	0.011	-0.076
-163.808	800.000	-0.047	-0.136
-162.793	-170.120	0.224	-0.008
-161.779	800.000	-0.032	-0.129
-160.764	166.980	-0.137	-0.192
-159.750	800.000	-0.035	-0.145
-158.735	0.547	0.137	0.097
-157.720	220.889	0.153	-0.242
-156.706	-162.095	-0.164	-0.008
-155.691	281.038	0.079	0.140
-154.677	121.683	0.246	-0.302
-153.662	-200.000	-0.003	-0.189
-152.647	-200.000	0.090	0.419
-151.633	-90.536	0.336	0.096
-150.618	-2.046	0.034	0.023
-149.604	-121.758	0.099	-0.016
-148.589	-200.000	0.064	0.341
-147.574	-135.561	0.181	-0.021
-146.560	-34.078	0.179	-0.097
-145.545	94.905	0.189	-0.211
-144.531	302.366	0.146	0.266
-143.516	61.644	-0.037	0.036
-142.502	-200.000	0.005	-0.191
-141.487	-120.829	0.164	0.027
-140.472	-27.854	-0.052	0.030
-139.458	-200.000	0.013	0.115
-138.443	-7.667	0.237	0.158
-137.429	29.369	0.129	-0.108
-136.414	140.700	0.114	-0.148
-135.399	-200.000	-0.016	0.101
-134.385	-145.245	0.306	-0.027
-133.370	81.831	-0.357	0.380
-132.356	-200.000	-0.022	0.360
-131.341	800.000	0.018	0.071
-130.326	-137.311	-0.080	0.009
-129.312	429.203	0.102	0.217
-128.297	-200.000	-0.071	-0.337
-127.283	-22.160	0.307	-0.183
-126.268	259.880	0.048	-0.082
-125.253	-200.000	-0.037	0.262
-124.239	65.077	0.252	0.251
-123.224	-76.069	0.363	-0.126
-122.210	800.000	0.027	0.096
-121.195	-172.768	0.218	-0.007
-120.180	264.560	0.058	-0.099
