DTS Sentinel unit serial number:	SN413079Multiplexer serial number:	ORYXHardware model number:	OX4-SRSoftware version number:	ORYX F/W v4.00 Oryx Data Collector v3.7.2.0data status	okinstallation	princeton_trtdifferential loss correction	single-endedforward channel	channel 2reverse channel	N/Adate	2019/09/11time	19:49:11forward acquisition time	60.00reverse acquisition time	0.00gamma	496.2192k internal	0.2310k external	0.2310temperature offset calibration	1.0043default loss term (dB/km)	0.3790temperature slope calibration	1.0000multiplexer offset coefficient	1.0000multiplexer slope coefficient	1.0000fibre end	0.00T internal ref (°C)	39.36T ext. ref 1 (°C)	1.35T ext. ref 2 (°C)	32.18length (m)	temperature (°C)	Stokes	anti-Stokes-747.200	9.647	-0.136	-0.104
-746.185	-51.561	0.353	-0.167
-745.171	171.065	0.063	0.091
-744.156	73.146	-0.294	-0.312
-743.142	319.689	0.102	0.197
-742.127	166.153	-0.289	0.416
-741.112	165.801	-0.117	-0.168
-740.098	-112.573	-0.077	-0.016
-739.083	-200.000	0.002	-0.316
-738.069	21.950	-0.096	0.079
-737.054	-191.694	0.510	-0.005
-736.039	-200.000	-0.060	-0.282
-735.025	800.000	-0.006	0.024
-734.010	262.325	0.204	0.360
-732.996	-12.457	-0.298	-0.198
-731.981	370.699	0.112	0.230
-730.966	255.071	0.031	-0.054
-729.952	599.031	0.061	0.153
-728.937	-200.000	0.037	-0.416
-727.923	800.000	-0.122	-0.374
-726.908	-200.000	0.014	0.084
-725.894	10.134	-0.099	-0.076
-724.879	66.785	0.138	-0.143
-723.864	77.584	-0.071	-0.077
-722.850	-76.231	-0.304	0.109
-721.835	-92.219	-0.255	-0.073
-720.821	75.888	-0.206	0.221
-719.806	438.415	-0.043	-0.094
-718.791	220.271	-0.159	-0.259
-717.777	101.305	-0.200	-0.236
-716.762	0.974	-0.153	0.111
-715.748	345.317	0.165	0.329
-714.733	69.761	0.350	-0.366
-713.718	-115.160	0.302	-0.058
-712.704	244.257	-0.107	0.183
-711.689	-200.000	-0.053	-0.386
-710.675	-200.000	0.017	-0.182
-709.660	-90.154	-0.249	-0.074
-708.645	18.874	-0.215	-0.174
-707.631	-19.724	-0.336	0.210
-706.616	-70.196	0.083	0.032
-705.602	-200.000	-0.007	-0.075
-704.587	170.873	-0.187	-0.272
-703.572	-120.837	0.222	0.038
-702.558	-124.645	-0.274	0.043
-701.543	206.208	-0.072	-0.114
-700.529	-100.787	0.345	-0.086
-699.514	-33.688	0.145	0.081
-698.499	129.665	-0.090	-0.117
-697.485	539.325	0.092	0.221
-696.470	-64.035	-0.165	-0.068
-695.456	263.561	-0.113	-0.199
-694.441	6.373	-0.223	-0.168
-693.426	-125.001	0.080	0.013
-692.412	-56.554	-0.185	0.083
-691.397	273.371	0.079	-0.142
-690.383	-78.911	-0.323	-0.111
-689.368	-200.000	0.105	-0.807
-688.354	-41.414	0.165	-0.086
-687.339	800.000	-0.045	-0.150
-686.324	504.791	-0.075	0.177
-685.310	345.878	-0.154	-0.307
-684.295	323.640	-0.114	-0.220
-683.281	-40.501	-0.229	-0.120
-682.266	55.271	-0.062	-0.061
-681.251	-200.000	-0.006	-0.073
-680.237	11.038	-0.149	-0.116
-679.222	-200.000	-0.026	-0.252
-678.208	173.371	0.096	0.141
-677.193	-157.272	0.307	-0.019
-676.178	-109.932	-0.397	-0.084
-675.164	-200.000	-0.036	-0.259
-674.149	238.717	0.163	-0.274
-673.135	800.000	-0.086	-0.290
-672.120	-200.000	0.032	0.217
-671.105	-94.580	0.269	-0.074
-670.091	-200.000	-0.002	-0.235
-669.076	667.868	0.221	-0.579
-668.062	-96.748	-0.156	0.041
-667.047	188.078	-0.126	-0.191
-666.032	-52.695	-0.238	0.111
-665.018	-15.458	-0.234	-0.151
-664.003	-59.358	0.377	0.164
-662.989	339.799	0.168	0.332
-661.974	800.000	-0.026	-0.076
-660.959	53.559	0.217	-0.211
-659.945	-119.442	-0.282	-0.050
-658.930	106.766	0.131	0.157
-657.916	800.000	-0.006	0.019
-656.901	-200.000	-0.433	0.000
-655.886	306.740	-0.119	0.225
-654.872	800.000	0.089	0.323
-653.857	65.344	0.186	-0.191
-652.843	154.583	-0.128	-0.178
-651.828	-109.524	0.159	0.034
-650.814	-64.347	0.133	-0.055
-649.799	144.143	-0.244	0.329
-648.784	-78.488	-0.399	-0.138
-647.770	175.724	-0.145	0.213
-646.755	489.551	0.146	-0.337
-645.741	36.823	0.122	-0.109
-644.726	13.171	0.321	-0.252
-643.711	12.605	0.268	-0.209
-642.697	-29.230	0.215	-0.125
-641.682	-200.000	0.050	-0.348
-640.668	-120.670	-0.082	0.014
-639.653	-200.000	0.046	-0.238
-638.638	-200.000	0.009	0.177
-637.624	-200.000	0.023	0.235
-636.609	-200.000	0.015	-0.075
-635.595	-59.816	-0.265	0.115
-634.580	222.936	0.138	-0.226
-633.565	-110.466	-0.160	0.034
-632.551	-200.000	0.023	-0.113
-631.536	293.246	0.079	-0.147
-630.522	218.525	-0.233	-0.376
-629.507	698.693	-0.156	0.416
-628.492	-200.000	0.418	0.001
-627.478	-52.280	-0.260	-0.122
-626.463	800.000	0.029	0.122
-625.449	-176.965	-0.079	-0.002
-624.434	-146.055	-0.440	-0.039
-623.419	48.366	-0.283	-0.268
-622.405	389.177	0.183	0.384
-621.390	-200.000	-0.042	-0.542
-620.376	394.169	-0.130	-0.274
-619.361	15.726	-0.136	-0.108
-618.346	-132.926	0.305	0.039
-617.332	-29.512	-0.133	-0.077
-616.317	130.761	0.250	0.324
-615.303	310.977	0.177	-0.335
-614.288	-37.133	-0.100	-0.054
-613.273	6.843	-0.424	0.319
-612.259	288.366	-0.134	0.245
-611.244	-189.784	0.137	-0.002
-610.230	-200.000	0.054	0.258
-609.215	-200.000	-0.145	0.000
-608.201	81.947	-0.091	0.100
-607.186	212.938	-0.072	0.114
-606.171	-105.543	-0.135	0.031
-605.157	-76.597	-0.328	0.116
-604.142	-200.000	-0.012	0.216
-603.128	-200.000	0.028	-0.294
-602.113	-55.433	0.255	-0.115
-601.098	-161.500	-0.050	-0.003
-600.084	-43.077	-0.175	-0.090
-599.069	49.584	-0.331	-0.314
-598.055	-0.442	-0.060	0.043
-597.040	-75.689	0.276	0.099
-596.025	-121.390	0.082	0.014
-595.011	-200.000	0.009	0.148
-593.996	94.193	0.062	0.070
-592.982	507.130	-0.132	-0.310
-591.967	-200.000	0.053	-0.287
-590.952	124.625	0.217	0.276
-589.938	66.494	0.056	-0.057
-588.923	800.000	-0.071	-0.220
-587.909	199.483	0.153	-0.238
-586.894	-136.952	-0.044	0.005
-585.879	7.163	-0.194	-0.146
-584.865	17.431	0.168	-0.134
-583.850	-106.673	-0.136	0.031
-582.836	1.396	-0.413	0.300
-581.821	59.458	0.179	0.178
-580.806	-173.093	0.183	0.006
-579.792	189.597	0.052	0.079
-578.777	31.132	0.048	-0.041
-577.763	-200.000	0.036	-0.294
-576.748	-41.528	0.162	-0.084
-575.733	170.883	-0.237	0.343
-574.719	-24.815	0.255	0.153
-573.704	800.000	0.098	0.328
-572.690	800.000	0.024	0.105
-571.675	-200.000	0.012	-0.161
-570.661	40.779	0.190	0.173
-569.646	280.800	-0.218	-0.394
-568.631	-5.556	0.077	-0.053
-567.617	-200.000	0.022	-0.276
-566.602	-200.000	0.012	0.471
-565.588	-200.000	0.029	-0.401
-564.573	-196.307	0.115	0.001
-563.558	177.741	0.118	0.174
-562.544	131.118	-0.131	0.170
-561.529	63.203	-0.304	-0.307
-560.515	461.006	0.095	-0.213
-559.500	-91.920	-0.173	0.049
-558.485	37.475	-0.090	-0.081
-557.471	109.493	-0.155	0.187
-556.456	16.124	-0.180	0.143
-555.442	800.000	0.089	-0.319
-554.427	800.000	0.063	-0.222
-553.412	6.299	-0.110	-0.082
-552.398	149.832	-0.189	-0.258
-551.383	428.091	-0.138	-0.301
-550.369	-118.657	0.122	0.022
-549.354	-200.000	-0.005	0.109
-548.339	327.769	-0.176	-0.340
-547.325	29.020	0.138	-0.118
-546.310	-200.000	-0.006	-0.167
-545.296	451.875	-0.103	0.228
-544.281	29.524	0.073	0.063
-543.266	-138.763	0.146	0.016
-542.252	-156.149	0.261	-0.017
-541.237	17.984	0.206	-0.166
-540.223	800.000	0.038	0.112
-539.208	-156.427	0.171	0.011
-538.193	800.000	0.053	-0.161
-537.179	363.239	-0.101	-0.205
-536.164	98.331	0.161	-0.187
-535.150	-76.529	-0.314	-0.111
-534.135	-200.000	0.055	0.310
-533.121	-69.013	-0.352	-0.137
-532.106	374.868	-0.058	0.118
-531.091	116.672	0.160	0.197
-530.077	-200.000	0.089	-0.439
-529.062	405.729	0.040	0.085
-528.048	-42.593	-0.238	-0.122
-527.033	58.195	-0.073	-0.072
-526.018	-200.000	-0.018	-0.086
-525.004	-12.321	0.103	-0.068
-523.989	96.595	-0.136	0.157
-522.975	3.826	0.148	0.109
-521.960	14.833	-0.205	0.161
-520.945	800.000	-0.031	0.106
-519.931	-117.657	0.112	0.020
-518.916	210.922	0.116	0.184
-517.902	-1.891	-0.294	-0.208
-516.887	-158.688	-0.232	0.013
-515.872	87.192	0.303	-0.338
-514.858	402.947	-0.043	0.091
-513.843	-200.000	-0.030	0.179
-512.829	156.688	0.084	0.117
-511.814	-200.000	-0.013	-0.454
-510.799	-132.141	-0.080	0.010
-509.785	-81.375	-0.113	0.038
-508.770	15.446	0.177	-0.140
-507.756	-83.202	0.134	0.043
-506.741	-13.057	0.205	-0.134
-505.726	56.914	-0.073	0.072
-504.712	280.202	-0.209	0.375
-503.697	-97.686	-0.492	0.128
-502.683	67.962	-0.094	-0.097
-501.668	-200.000	-0.031	-0.552
-500.653	-133.882	0.146	-0.018
-499.639	79.841	0.124	0.134
-498.624	471.003	-0.087	-0.196
-497.610	-29.244	0.137	0.079
-496.595	-60.003	-0.373	-0.160
-495.581	-91.727	0.183	0.052
-494.566	-200.000	0.036	0.177
-493.551	-79.952	-0.131	-0.044
-492.537	-76.737	-0.313	-0.110
-491.522	-41.733	-0.060	-0.031
-490.508	61.646	-0.211	0.211
-489.493	800.000	-0.022	0.069
-488.478	-107.452	0.434	-0.096
-487.464	-79.574	-0.139	0.047
-486.449	-121.153	-0.462	-0.078
-485.435	-22.323	-0.092	0.056
-484.420	60.264	-0.156	0.155
-483.405	-126.388	0.047	-0.007
-482.391	-122.926	-0.167	-0.027
-481.376	198.499	-0.202	0.310
-480.362	-65.088	0.467	0.189
-479.347	-200.000	-0.001	-0.303
-478.332	-69.241	-0.186	-0.072
-477.318	110.801	0.255	-0.308
-476.303	-149.618	0.121	-0.010
-475.289	17.600	0.262	-0.209
-474.274	-155.449	-0.309	0.020
-473.259	-121.230	0.189	-0.032
-472.245	-30.166	0.040	-0.023
-471.230	-200.000	-0.029	-0.350
-470.216	472.253	-0.078	-0.176
-469.201	-160.985	0.425	0.022
-468.186	-132.349	0.089	-0.012
-467.172	-200.000	0.038	-0.217
-466.157	-10.083	0.220	-0.147
-465.143	18.919	0.251	-0.202
-464.128	-200.000	0.001	0.181
-463.113	-200.000	-0.006	-0.429
-462.099	190.323	0.036	0.055
-461.084	800.000	0.048	0.179
-460.070	269.805	-0.127	-0.224
-459.055	-200.000	-0.010	-0.250
-458.040	649.702	-0.056	0.143
-457.026	306.441	0.210	0.393
-456.011	54.315	-0.101	-0.097
-454.997	-51.922	0.202	0.095
-453.982	-200.000	0.009	-0.058
-452.968	216.341	-0.121	0.193
-451.953	-119.463	0.510	-0.089
-450.938	192.883	-0.077	0.117
-449.924	41.214	-0.240	0.218
-448.909	-79.181	-0.149	0.051
-447.895	40.045	0.224	-0.202
-446.880	-97.157	0.186	-0.049
-445.865	5.955	-0.043	-0.032
-444.851	9.311	0.235	0.179
-443.836	-170.439	0.087	-0.003
-442.822	-183.638	0.279	0.005
-441.807	-89.154	0.102	0.030
-440.792	-66.529	-0.195	0.078
-439.778	-200.000	0.049	0.221
-438.763	16.055	0.117	0.092
-437.749	-193.558	-0.132	-0.001
-436.734	-200.000	-0.016	0.159
-435.719	-189.814	0.095	0.001
-434.705	121.526	0.088	-0.110
-433.690	-43.445	0.255	-0.129
-432.676	800.000	0.042	-0.117
-431.661	-47.902	-0.137	0.066
-430.646	486.194	-0.088	0.200
-429.632	156.627	0.069	-0.096
-428.617	800.000	0.096	0.309
-427.603	19.710	-0.191	-0.154
-426.588	800.000	-0.066	-0.238
-425.573	773.873	0.140	-0.382
-424.559	187.099	0.136	0.203
-423.544	-122.800	-0.170	-0.028
-422.530	61.148	-0.199	-0.198
-421.515	56.092	-0.047	-0.046
-420.500	800.000	-0.068	-0.278
-419.486	800.000	0.114	-0.358
-418.471	-200.000	-0.033	0.273
-417.457	-200.000	-0.008	0.527
-416.442	281.432	-0.204	0.366
-415.428	-52.782	0.248	-0.115
-414.413	85.213	-0.112	0.123
-413.398	800.000	0.036	0.129
-412.384	-163.563	0.477	-0.023
-411.369	-82.640	0.617	-0.200
-410.355	-152.551	0.189	0.014
-409.340	-200.000	-0.057	0.305
-408.325	390.341	-0.125	-0.260
-407.311	429.948	-0.088	-0.190
-406.296	-118.365	-0.482	0.086
-405.282	-75.497	0.119	-0.043
-404.267	59.863	0.149	0.147
-403.252	-51.432	0.188	0.088
-402.238	229.659	0.140	0.229
-401.223	236.948	0.079	0.131
-400.209	800.000	-0.086	0.249
-399.194	-71.253	-0.183	-0.069
-398.179	461.819	-0.155	-0.346
-397.165	-134.040	-0.191	0.024
-396.150	87.079	0.157	-0.174
-395.136	-200.000	-0.017	0.126
-394.121	-49.998	-0.167	0.079
-393.106	-103.403	-0.228	-0.054
-392.092	-54.173	-0.372	-0.169
-391.077	-96.534	-0.260	-0.069
-390.063	800.000	-0.038	0.139
-389.048	-168.457	0.098	0.004
-388.033	800.000	0.091	0.341
-387.019	-200.000	-0.045	-0.216
-386.004	-2.116	-0.093	-0.065
-384.990	-48.336	0.069	0.033
-383.975	-200.000	-0.023	-0.197
-382.960	-200.000	0.006	0.278
-381.946	29.107	-0.243	0.207
-380.931	-159.548	0.098	-0.005
-379.917	-200.000	0.011	0.209
-378.902	89.827	-0.179	-0.200
-377.888	-82.000	-0.113	-0.037
-376.873	-18.558	0.126	-0.079
-375.858	-171.616	0.324	0.011
-374.844	-9.582	-0.043	-0.029
-373.829	800.000	0.103	0.332
-372.815	-91.302	0.113	0.032
-371.800	31.317	0.273	0.234
-370.785	-12.451	-0.192	0.125
-369.771	-200.000	-0.047	0.241
-368.756	-67.583	-0.111	-0.044
-367.742	305.660	-0.032	-0.060
-366.727	-86.477	-0.070	-0.022
-365.712	-176.406	-0.358	-0.009
-364.698	247.007	0.107	-0.181
-363.683	402.668	-0.151	-0.317
-362.669	800.000	-0.014	0.043
-361.654	-56.186	-0.172	0.077
-360.639	800.000	-0.069	-0.205
-359.625	-104.865	-0.244	0.056
-358.610	800.000	-0.027	0.078
-357.596	800.000	0.033	0.124
-356.581	800.000	-0.021	-0.087
-355.566	-99.422	0.070	0.018
-354.552	213.381	0.141	-0.223
-353.537	-200.000	-0.027	0.364
-352.523	197.065	-0.146	0.223
-351.508	57.564	-0.108	-0.105
-350.493	40.061	0.113	0.102
-349.479	122.068	-0.069	0.086
-348.464	-179.489	-0.185	0.004
-347.450	-50.691	0.162	-0.076
-346.435	8.942	0.203	-0.153
-345.420	-67.786	0.474	-0.185
-344.406	-90.566	0.082	0.024
-343.391	-89.920	0.326	0.095
-342.377	163.693	-0.094	-0.132
-341.362	222.084	0.039	-0.063
-340.348	30.145	-0.315	0.268
-339.333	145.001	0.218	0.291
-338.318	-60.396	0.051	0.022
-337.304	-89.307	-0.077	-0.023
-336.289	-0.302	0.220	-0.157
-335.275	-200.000	0.075	-0.390
-334.260	-32.605	-0.100	0.056
-333.245	548.598	-0.136	-0.327
-332.231	-131.739	-0.404	-0.053
-331.216	-143.704	0.054	0.005
-330.202	73.557	-0.048	0.050
-329.187	-200.000	-0.034	0.231
-328.172	800.000	0.026	-0.084
-327.158	-86.614	0.072	0.022
-326.143	308.748	-0.066	-0.123
-325.129	-36.522	0.127	-0.068
-324.114	-40.680	-0.168	0.087
-323.099	4.300	0.334	-0.245
-322.085	26.445	0.214	-0.179
-321.070	68.817	0.080	-0.082
-320.056	-34.720	-0.029	-0.016
-319.041	-99.204	0.145	0.037
-318.026	-50.676	0.231	0.108
-317.012	383.389	-0.111	0.228
-315.997	-200.000	0.032	0.480
-314.983	433.802	0.047	-0.103
-313.968	63.188	-0.247	0.248
-312.953	57.521	0.131	0.128
-311.939	88.421	-0.228	-0.253
-310.924	249.025	-0.128	-0.217
-309.910	-59.214	-0.262	0.113
-308.895	-33.663	-0.060	-0.033
-307.880	22.746	0.056	0.046
-306.866	-59.867	0.468	-0.200
-305.851	-144.589	0.166	0.015
-304.837	-16.750	-0.218	-0.138
-303.822	733.868	0.006	-0.015
-302.807	-52.477	0.106	0.049
-301.793	267.017	-0.056	0.098
-300.778	-45.917	-0.236	-0.116
-299.764	-94.605	0.384	-0.104
-298.749	95.121	0.204	0.231
-297.735	-65.818	-0.086	-0.034
-296.720	-17.181	-0.133	0.084
-295.705	-200.000	-0.054	0.429
-294.691	145.532	-0.120	0.160
-293.676	208.960	-0.109	-0.170
-292.662	-6.225	0.200	-0.136
-291.647	630.584	0.080	0.202
-290.632	-200.000	-0.002	0.012
-289.618	119.403	0.160	-0.198
-288.603	46.393	0.159	0.147
-287.589	588.645	0.034	-0.084
-286.574	-2.810	0.011	-0.008
-285.559	-200.000	-0.030	0.233
-284.545	-84.951	-0.254	0.080
-283.530	-72.886	-0.221	0.081
-282.516	-3.933	0.250	0.173
-281.501	-200.000	0.040	-0.188
-280.486	-131.773	-0.246	0.032
-279.472	-42.565	0.110	0.056
-278.457	59.676	0.039	-0.039
-277.443	-70.581	-0.101	0.038
-276.428	-28.789	0.117	0.067
-275.413	-49.232	0.215	-0.102
-274.399	-26.864	0.331	0.193
-273.384	311.829	-0.042	0.079
-272.370	-83.190	0.338	0.108
-271.355	-200.000	0.002	-0.045
-270.340	-89.026	0.357	0.105
-269.326	-71.532	-0.066	0.025
-268.311	18.564	-0.125	-0.099
-267.297	67.790	0.302	0.307
-266.282	-143.321	0.350	-0.033
-265.267	553.332	0.058	-0.139
-264.253	-116.481	-0.032	0.006
-263.238	-14.295	-0.136	-0.087
-262.224	-200.000	-0.016	-0.244
-261.209	211.796	-0.088	-0.139
-260.195	39.231	-0.242	-0.216
-259.180	800.000	-0.054	-0.210
-258.165	-114.986	-0.220	0.042
-257.151	-200.000	-0.008	-0.080
-256.136	-145.517	0.173	0.015
-255.122	373.248	0.115	-0.232
-254.107	631.850	-0.180	0.453
-253.092	-200.000	0.008	0.045
-252.078	352.819	-0.175	0.346
-251.063	-42.683	0.431	0.218
-250.049	800.000	0.039	0.157
-249.034	-103.052	0.053	-0.013
-248.019	-97.763	-0.165	-0.043
-247.005	-65.260	0.052	0.021
-245.990	81.723	0.180	0.194
-244.976	-200.000	-0.043	-0.230
-243.961	-77.344	-0.217	0.075
-242.946	-200.000	0.015	0.200
-241.932	-200.000	0.044	-0.272
-240.917	135.063	0.080	-0.104
-239.903	-155.381	0.073	-0.005
-238.888	-200.000	-0.079	0.360
-237.873	370.114	-0.047	-0.095
-236.859	-16.476	-0.162	0.102
-235.844	-115.770	0.113	-0.021
-234.830	-122.996	0.400	0.064
-233.815	-148.460	-0.244	0.020
-232.800	-200.000	0.007	0.438
-231.786	-98.088	-0.235	-0.060
-230.771	-36.915	0.399	0.213
-229.757	10.250	0.233	0.176
-228.742	179.488	0.181	0.264
-227.727	156.043	0.205	0.281
-226.713	33.085	0.137	0.118
-225.698	-163.951	-0.228	0.011
-224.684	117.355	0.156	-0.191
-223.669	-155.256	-0.104	-0.007
-222.655	315.220	0.094	0.175
-221.640	-28.805	-0.304	-0.174
-220.625	39.301	0.063	-0.056
-219.611	-42.329	-0.091	0.046
-218.596	438.744	0.079	0.173
-217.582	708.938	0.163	0.429
-216.567	-1.114	-0.135	0.095
-215.552	-200.000	0.010	0.297
-214.538	800.000	-0.033	0.115
-213.523	-55.172	0.337	0.151
-212.509	30.923	0.064	0.054
-211.494	800.000	0.055	-0.187
-210.479	-12.987	0.032	-0.020
-209.465	800.000	-0.004	-0.011
-208.450	-155.434	-0.416	-0.027
-207.436	107.414	0.293	-0.347
-206.421	-70.504	0.302	-0.114
-205.406	189.272	0.142	-0.212
-204.392	184.706	0.074	-0.109
-203.377	800.000	0.049	-0.144
-202.363	184.528	0.224	-0.331
-201.348	767.565	0.042	-0.113
-200.333	800.000	-0.026	0.106
-199.319	-200.000	-0.025	-0.154
-198.304	-11.810	-0.160	0.104
-197.290	196.929	-0.111	0.168
-196.275	-151.955	-0.187	-0.014
-195.260	-121.405	0.197	-0.033
-194.246	178.221	-0.149	-0.216
-193.231	-69.625	0.162	0.062
-192.217	800.000	0.037	0.130
-191.202	-3.332	-0.226	0.157
-190.187	547.425	-0.089	0.212
-189.173	-200.000	-0.021	0.221
-188.158	-50.597	-0.065	-0.031
-187.144	91.880	0.060	-0.067
-186.129	-200.000	-0.011	-0.160
-185.114	35.945	-0.137	-0.120
-184.100	-200.000	0.025	0.122
-183.085	85.604	0.069	-0.075
-182.071	113.708	0.133	-0.161
-181.056	119.858	-0.188	-0.232
-180.042	-19.729	0.253	-0.156
-179.027	-33.366	-0.276	-0.152
-178.012	-123.488	-0.135	-0.021
-176.998	212.997	-0.129	0.202
-175.983	-112.994	-0.022	-0.004
-174.969	800.000	-0.040	-0.145
-173.954	-177.659	-0.300	-0.007
-172.939	-55.832	0.080	0.036
-171.925	-45.938	0.082	0.040
-170.910	-116.399	0.042	0.008
-169.896	-200.000	-0.000	0.264
-168.881	44.254	0.147	-0.134
-167.866	-66.263	-0.256	0.101
-166.852	46.966	-0.179	0.165
-165.837	36.007	-0.014	-0.012
-164.823	-200.000	-0.005	-0.275
-163.808	-114.920	-0.447	0.085
-162.793	-52.222	-0.310	0.143
-161.779	80.205	0.231	-0.247
-160.764	-106.820	-0.377	0.083
-159.750	719.193	-0.129	0.342
-158.735	292.278	0.057	0.103
-157.720	353.955	-0.206	0.406
-156.706	78.546	0.079	0.084
-155.691	305.195	-0.105	0.194
-154.677	611.261	0.086	0.212
-153.662	-5.015	0.186	0.127
-152.647	-2.032	-0.216	-0.150
-151.633	-84.570	0.119	0.037
-150.618	-127.002	0.165	0.024
-149.604	-200.000	-0.076	-0.544
-148.589	800.000	0.058	-0.194
-147.574	457.184	0.122	-0.268
-146.560	72.653	0.065	0.068
-145.545	242.008	0.091	0.150
-144.531	189.571	-0.238	0.354
-143.516	-98.547	0.220	0.056
-142.502	-200.000	-0.016	-0.122
-141.487	-41.860	-0.038	0.019
-140.472	23.223	-0.203	-0.165
-139.458	122.620	-0.149	0.185
-138.443	85.338	-0.116	-0.127
-137.429	-50.357	0.069	0.032
-136.414	-200.000	-0.073	0.371
-135.399	155.198	0.099	0.135
-134.385	-23.672	0.165	-0.098
-133.370	-121.049	0.230	-0.038
-132.356	-136.492	-0.314	-0.036
-131.341	-62.584	0.199	-0.082
-130.326	-185.939	-0.077	-0.001
-129.312	-145.203	-0.228	0.021
-128.297	582.883	0.049	-0.119
-127.283	-46.147	0.090	-0.044
-126.268	-167.818	-0.215	-0.008
-125.253	-140.987	0.224	0.023
-124.239	800.000	0.102	0.324
-123.224	-55.774	-0.086	-0.038
-122.210	205.833	-0.080	0.123
-121.195	115.011	-0.172	0.208
