DTS Sentinel unit serial number:	SN413079Multiplexer serial number:	ORYXHardware model number:	OX4-SRSoftware version number:	ORYX F/W v4.00 Oryx Data Collector v3.7.2.0data status	okinstallation	princeton_trtdifferential loss correction	single-endedforward channel	channel 2reverse channel	N/Adate	2019/09/15time	14:55:35forward acquisition time	60.00reverse acquisition time	0.00gamma	496.2192k internal	0.2299k external	0.2299temperature offset calibration	0.9966default loss term (dB/km)	0.3790temperature slope calibration	1.0000multiplexer offset coefficient	1.0000multiplexer slope coefficient	1.0000fibre end	0.00T internal ref (°C)	40.03T ext. ref 1 (°C)	4.86T ext. ref 2 (°C)	37.05length (m)	temperature (°C)	Stokes	anti-Stokes-747.200	185.134	-0.175	0.265
-746.185	800.000	-0.063	0.219
-745.171	-48.707	-0.056	-0.028
-744.156	-200.000	-0.079	0.412
-743.142	49.618	0.130	0.125
-742.127	800.000	0.083	-0.298
-741.112	-200.000	-0.012	0.064
-740.098	-68.298	0.080	-0.032
-739.083	-21.987	-0.030	0.019
-738.069	-200.000	-0.028	0.298
-737.054	800.000	0.090	0.295
-736.039	328.676	0.077	-0.150
-735.025	241.238	-0.191	0.325
-734.010	-29.620	-0.150	0.087
-732.996	-200.000	-0.003	-0.129
-731.981	800.000	-0.063	-0.276
-730.966	-100.168	-0.436	-0.111
-729.952	715.163	0.132	-0.358
-728.937	-200.000	-0.003	-0.066
-727.923	236.706	-0.155	-0.261
-726.908	21.256	0.216	-0.179
-725.894	179.728	-0.187	-0.280
-724.879	-140.651	-0.128	-0.014
-723.864	388.567	0.099	-0.210
-722.850	475.219	-0.144	-0.331
-721.835	-104.706	-0.269	0.063
-720.821	400.762	-0.211	0.451
-719.806	469.848	0.134	0.307
-718.791	758.180	0.182	-0.504
-717.777	108.774	-0.164	-0.200
-716.762	164.969	0.127	0.183
-715.748	157.480	-0.132	-0.187
-714.733	64.308	-0.396	0.406
-713.718	187.940	0.115	0.175
-712.704	-189.109	0.196	-0.002
-711.689	800.000	-0.084	-0.266
-710.675	-33.889	0.290	0.163
-709.660	216.426	0.035	-0.057
-708.645	-31.217	0.317	0.182
-707.631	483.005	-0.031	-0.071
-706.616	-80.506	-0.233	0.079
-705.602	393.823	-0.132	-0.279
-704.587	-200.000	0.038	0.265
-703.572	-200.000	-0.015	0.082
-702.558	-54.584	-0.569	-0.262
-701.543	23.558	0.285	-0.239
-700.529	235.604	-0.073	0.123
-699.514	68.938	0.103	0.108
-698.499	138.166	-0.161	-0.216
-697.485	-178.535	-0.095	0.002
-696.470	415.410	0.040	-0.086
-695.456	-200.000	0.047	-0.447
-694.441	647.057	-0.091	0.236
-693.426	-113.691	-0.487	-0.097
-692.412	-107.856	-0.346	0.077
-691.397	-159.540	0.238	-0.013
-690.383	-80.223	-0.237	-0.081
-689.368	298.007	-0.152	-0.285
-688.354	-83.859	0.241	-0.078
-687.339	800.000	0.024	-0.105
-686.324	-64.253	-0.113	-0.047
-685.310	571.426	-0.168	-0.417
-684.295	-92.074	0.116	0.033
-683.281	-146.990	-0.238	-0.021
-682.266	-89.597	0.263	-0.078
-681.251	-200.000	-0.046	-0.265
-680.237	-200.000	-0.025	-0.181
-679.222	-155.231	-0.190	-0.013
-678.208	401.569	-0.117	0.250
-677.193	-117.659	0.380	-0.070
-676.178	-200.000	0.006	-0.045
-675.164	45.508	-0.238	-0.224
-674.149	370.309	0.152	-0.314
-673.135	-72.112	-0.195	-0.074
-672.120	-200.000	-0.002	0.199
-671.105	-200.000	-0.047	0.240
-670.091	35.653	-0.308	0.276
-669.076	-59.346	0.223	0.098
-668.062	800.000	0.149	0.600
-667.047	-17.941	0.261	0.166
-666.032	-79.102	-0.185	-0.064
-665.018	253.908	0.118	-0.205
-664.003	-74.510	0.182	-0.067
-662.989	-200.000	-0.011	0.051
-661.974	648.359	0.043	-0.113
-660.959	800.000	0.057	-0.227
-659.945	-84.410	-0.246	0.079
-658.930	8.133	0.363	0.277
-657.916	69.167	0.162	-0.169
-656.901	5.858	0.128	0.096
-655.886	-173.156	0.228	0.007
-654.872	41.333	-0.103	0.095
-653.857	-200.000	-0.010	-0.236
-652.843	-65.367	-0.210	-0.086
-651.828	-200.000	-0.045	0.275
-650.814	115.111	-0.041	0.050
-649.799	-153.520	-0.264	-0.019
-648.784	-116.104	0.144	0.027
-647.770	-200.000	0.007	0.154
-646.755	12.843	-0.187	0.147
-645.741	-200.000	0.025	0.451
-644.726	-200.000	0.052	0.302
-643.711	-2.262	-0.161	0.115
-642.697	-55.633	-0.304	0.138
-641.682	-200.000	0.061	0.399
-640.668	12.804	-0.126	-0.099
-639.653	-36.149	0.108	0.059
-638.638	94.590	0.139	0.160
-637.624	800.000	-0.073	-0.215
-636.609	119.896	-0.111	0.140
-635.595	-200.000	-0.002	0.159
-634.580	50.718	0.209	0.201
-633.565	6.373	-0.244	-0.184
-632.551	-7.106	-0.343	-0.237
-631.536	234.480	-0.117	0.196
-630.522	-141.086	0.164	-0.017
-629.507	27.773	-0.096	-0.082
-628.492	91.820	-0.131	0.150
-627.478	-171.879	0.273	-0.009
-626.463	33.839	-0.143	0.126
-625.449	-125.943	0.224	0.034
-624.434	-152.891	-0.095	-0.007
-623.419	-154.593	-0.149	-0.010
-622.405	-200.000	-0.081	-0.378
-621.390	249.823	0.215	0.370
-620.376	15.466	-0.212	-0.169
-619.361	-124.910	-0.217	0.034
-618.346	251.323	-0.057	-0.098
-617.332	-99.441	0.146	-0.037
-616.317	-19.182	-0.263	0.166
-615.303	696.998	-0.067	0.179
-614.288	478.223	-0.086	-0.199
-613.273	-62.612	0.099	-0.042
-612.259	-160.606	0.192	-0.010
-611.244	-163.754	0.274	-0.013
-610.230	-200.000	-0.035	-0.163
-609.215	10.892	-0.231	0.179
-608.201	-37.061	0.275	-0.150
-607.186	320.046	0.106	-0.203
-606.171	-72.348	0.302	0.113
-605.157	800.000	-0.079	0.251
-604.142	-1.954	-0.223	-0.159
-603.128	-57.171	0.158	0.071
-602.113	-52.913	0.164	0.077
-601.098	224.190	0.046	0.075
-600.084	-119.408	-0.304	-0.054
-599.069	-200.000	-0.003	0.118
-598.055	-200.000	-0.025	0.402
-597.040	-97.117	-0.488	0.130
-596.025	362.433	0.169	-0.344
-595.011	36.573	0.050	-0.045
-593.996	213.334	0.113	-0.181
-592.982	223.922	0.072	-0.118
-591.967	-113.167	-0.352	0.070
-590.952	800.000	0.004	-0.019
-589.938	449.327	-0.048	-0.106
-588.923	33.693	0.094	-0.083
-587.909	-63.441	-0.156	-0.065
-586.894	-200.000	0.078	-0.383
-585.879	-63.042	-0.051	0.021
-584.865	91.191	-0.086	-0.098
-583.850	-200.000	-0.074	0.380
-582.836	-68.952	0.146	-0.057
-581.821	123.387	-0.126	-0.160
-580.806	800.000	-0.076	0.234
-579.792	307.839	0.262	0.495
-578.777	-200.000	-0.012	0.358
-577.763	385.110	0.185	0.386
-576.748	-32.186	0.173	-0.098
-575.733	-200.000	0.006	0.113
-574.719	-24.510	-0.346	-0.209
-573.704	-65.731	0.117	0.048
-572.690	229.509	-0.081	-0.134
-571.675	-109.371	-0.190	-0.041
-570.661	189.709	0.150	-0.228
-569.646	84.235	-0.126	-0.140
-568.631	800.000	0.074	0.298
-567.617	-29.064	0.303	-0.176
-566.602	-112.106	-0.209	-0.043
-565.588	-123.075	-0.259	-0.042
-564.573	-34.389	0.168	0.093
-563.558	-200.000	0.031	0.230
-562.544	-11.246	0.284	-0.189
-561.529	88.877	-0.225	-0.253
-560.515	-55.318	0.136	0.062
-559.500	-200.000	0.035	-0.165
-558.485	800.000	-0.038	0.144
-557.471	-129.429	-0.058	0.008
-556.456	-73.111	0.267	0.099
-555.442	800.000	0.017	-0.057
-554.427	800.000	0.062	0.180
-553.412	-200.000	0.000	0.070
-552.398	53.458	-0.338	-0.328
-551.383	328.908	0.184	-0.358
-550.369	256.598	-0.120	-0.209
-549.354	31.984	0.650	-0.568
-548.339	21.892	-0.189	-0.156
-547.325	-122.462	-0.230	-0.038
-546.310	83.653	0.159	0.176
-545.296	-200.000	-0.036	-0.249
-544.281	27.129	0.103	-0.087
-543.266	-143.531	-0.265	0.026
-542.252	-99.826	0.220	0.056
-541.237	-200.000	-0.029	0.281
-540.223	-200.000	-0.056	0.462
-539.208	800.000	0.117	0.340
-538.193	43.237	0.053	0.049
-537.179	146.655	-0.192	-0.262
-536.164	255.401	-0.032	0.056
-535.150	83.753	-0.171	0.189
-534.135	-143.877	-0.013	-0.001
-533.121	-148.606	-0.165	-0.014
-532.106	531.440	0.182	0.435
-531.091	397.104	-0.103	-0.218
-530.077	76.432	-0.054	-0.058
-529.062	33.142	-0.088	-0.078
-528.048	169.158	0.096	-0.138
-527.033	800.000	-0.025	-0.089
-526.018	-113.959	-0.187	-0.037
-525.004	-188.747	0.408	0.005
-523.989	285.241	-0.067	0.121
-522.975	-81.043	0.258	-0.086
-521.960	0.074	0.372	-0.268
-520.945	-33.456	0.145	0.081
-519.931	-125.124	-0.268	0.042
-518.916	-31.167	-0.242	-0.138
-517.902	540.317	-0.140	0.337
-516.887	-31.906	-0.340	-0.192
-515.872	70.598	0.099	-0.104
-514.858	75.670	0.130	-0.139
-513.843	761.765	-0.035	0.097
-512.829	-93.938	-0.274	-0.076
-511.814	-132.518	0.245	-0.032
-510.799	-200.000	-0.019	0.228
-509.785	5.471	-0.207	0.155
-508.770	-102.192	0.331	0.081
-507.756	225.641	-0.172	0.282
-506.741	800.000	0.073	0.262
-505.726	157.582	0.019	-0.026
-504.712	-45.118	0.110	-0.055
-503.697	172.933	0.362	-0.527
-502.683	-25.347	0.143	-0.086
-501.668	431.028	-0.199	0.435
-500.653	40.163	-0.088	0.080
-499.639	624.020	-0.054	0.137
-498.624	86.152	0.162	0.180
-497.610	73.327	0.113	-0.120
-496.595	-200.000	-0.042	-0.291
-495.581	139.370	-0.225	-0.300
-494.566	578.815	0.034	0.084
-493.551	800.000	-0.072	0.255
-492.537	-112.079	-0.129	0.026
-491.522	-200.000	0.003	-0.178
-490.508	-200.000	-0.019	0.118
-489.493	28.137	0.380	-0.324
-488.478	-148.188	-0.574	-0.048
-487.464	19.452	0.088	-0.072
-486.449	-146.534	-0.282	0.025
-485.435	800.000	-0.025	-0.090
-484.420	46.545	0.222	-0.208
-483.405	-99.392	-0.082	0.021
-482.391	137.153	-0.170	-0.224
-481.376	800.000	-0.048	-0.188
-480.362	1.417	-0.052	0.038
-479.347	-200.000	0.041	0.208
-478.332	-200.000	0.025	-0.204
-477.318	-69.161	0.090	0.035
-476.303	71.900	-0.018	0.019
-475.289	-175.835	0.071	0.002
-474.274	426.627	0.074	0.161
-473.259	457.861	0.080	0.179
-472.245	-200.000	-0.001	0.462
-471.230	363.196	-0.071	0.144
-470.216	-171.699	-0.058	0.002
-469.201	-13.379	0.259	-0.170
-468.186	-200.000	0.004	-0.053
-467.172	57.438	-0.226	-0.223
-466.157	-77.879	0.166	0.058
-465.143	-1.138	0.202	0.144
-464.128	-107.571	0.284	-0.063
-463.113	-72.127	0.201	0.075
-462.099	-129.219	-0.309	0.043
-461.084	-87.241	-0.146	-0.045
-460.070	-127.147	-0.228	0.034
-459.055	657.516	0.157	-0.407
-458.040	733.372	-0.004	0.011
-457.026	-200.000	0.035	0.215
-456.011	127.257	-0.080	0.102
-454.997	579.169	0.081	0.201
-453.982	11.320	0.175	-0.135
-452.968	586.604	-0.080	-0.198
-451.953	-200.000	-0.038	0.206
-450.938	710.024	-0.043	-0.113
-449.924	409.311	0.103	0.219
-448.909	145.459	-0.088	0.118
-447.895	80.048	0.137	-0.149
-446.880	-96.995	-0.310	0.082
-445.865	54.427	0.104	-0.101
-444.851	-127.041	-0.240	0.036
-443.836	-90.569	0.112	0.033
-442.822	-76.310	0.126	0.045
-441.807	27.019	0.075	0.063
-440.792	-0.690	-0.061	-0.044
-439.778	-200.000	0.016	0.105
-438.763	1.674	-0.073	-0.053
-437.749	-165.608	0.257	-0.011
-436.734	-174.736	-0.327	0.009
-435.719	-53.689	0.223	-0.103
-434.705	34.767	-0.094	0.083
-433.690	-200.000	0.019	0.099
-432.676	90.729	-0.046	-0.052
-431.661	-108.918	0.159	-0.034
-430.646	117.246	0.103	-0.128
-429.632	800.000	-0.054	0.178
-428.617	-64.337	0.105	0.043
-427.603	-89.277	-0.162	0.048
-426.588	800.000	-0.048	0.152
-425.573	-200.000	0.020	0.229
-424.559	34.497	-0.126	-0.110
-423.544	-200.000	-0.063	-0.292
-422.530	-68.070	0.081	0.032
-421.515	800.000	-0.026	0.112
-420.500	-91.050	-0.129	-0.037
-419.486	-200.000	0.025	0.134
-418.471	493.785	-0.158	0.365
-417.457	9.610	-0.171	0.130
-416.442	-49.407	0.180	0.086
-415.428	359.084	-0.064	-0.129
-414.413	-183.399	0.145	-0.003
-413.398	800.000	0.013	-0.050
-412.384	-28.244	-0.231	0.134
-411.369	-142.336	0.048	0.005
-410.355	-90.405	0.057	-0.017
-409.340	42.907	0.255	0.234
-408.325	96.781	0.100	0.115
-407.311	757.380	-0.066	0.179
-406.296	-8.302	-0.367	-0.248
-405.282	389.316	0.168	0.350
-404.267	60.084	0.041	0.041
-403.252	767.995	0.043	-0.117
-402.238	-74.202	-0.166	-0.060
-401.223	24.655	0.138	0.115
-400.209	-97.269	-0.120	-0.031
-399.194	137.082	-0.082	0.108
-398.179	65.213	0.058	-0.059
-397.165	-23.148	0.033	0.020
-396.150	121.611	-0.179	0.225
-395.136	-138.893	0.218	-0.024
-394.121	-155.629	0.250	0.016
-393.106	800.000	-0.022	0.062
-392.092	-45.415	-0.216	0.108
-391.077	-11.950	0.184	-0.122
-390.063	-102.139	-0.100	0.024
-389.048	161.828	-0.066	-0.093
-388.033	800.000	0.113	-0.418
-387.019	246.225	-0.138	-0.234
-386.004	-0.936	-0.288	-0.205
-384.990	-200.000	0.008	0.068
-383.975	156.921	0.076	-0.105
-382.960	-59.426	-0.160	-0.069
-381.946	-26.460	-0.083	-0.049
-380.931	-200.000	0.012	-0.192
-379.917	-43.783	-0.050	-0.025
-378.902	-1.693	0.153	-0.108
-377.888	398.427	0.112	0.236
-376.873	622.576	0.157	0.396
-375.858	240.327	-0.097	-0.163
-374.844	-200.000	-0.013	0.215
-373.829	63.802	0.154	-0.156
-372.815	27.822	0.155	-0.132
-371.800	-70.940	0.135	-0.051
-370.785	204.029	-0.061	0.094
-369.771	188.917	-0.167	-0.251
-368.756	-172.732	-0.419	-0.013
-367.742	-36.004	-0.152	0.082
-366.727	-96.127	0.362	0.097
-365.712	-107.400	0.335	0.074
-364.698	88.911	0.291	-0.326
-363.683	-73.377	-0.075	-0.027
-362.669	193.601	-0.041	-0.062
-361.654	-162.804	-0.278	0.014
-360.639	64.620	0.044	-0.044
-359.625	-51.436	0.115	-0.054
-358.610	267.736	-0.144	0.253
-357.596	-38.841	-0.045	0.024
-356.581	-64.278	0.430	-0.176
-355.566	-24.887	0.047	-0.028
-354.552	-200.000	0.012	0.293
-353.537	-200.000	-0.049	0.228
-352.523	-167.178	-0.160	0.007
-351.508	-40.013	0.165	0.087
-350.493	-90.792	0.271	0.079
-349.479	18.934	-0.159	-0.128
-348.464	-25.428	0.079	0.047
-347.450	-102.644	0.561	0.135
-346.435	164.566	-0.339	-0.481
-345.420	-59.456	0.315	0.136
-344.406	800.000	0.054	0.167
-343.391	-67.238	0.166	-0.066
-342.377	252.585	-0.098	0.168
-341.362	-126.539	0.244	-0.036
-340.348	-163.162	-0.129	0.006
-339.333	-168.059	-0.103	-0.004
-338.318	-200.000	0.003	0.041
-337.304	4.339	0.220	-0.162
-336.289	-29.317	0.130	-0.075
-335.275	-133.995	-0.300	-0.037
-334.260	-124.114	-0.145	0.023
-333.245	-200.000	-0.049	0.401
-332.231	-125.187	0.110	0.017
-331.216	-200.000	-0.003	0.245
-330.202	296.596	0.020	-0.036
-329.187	-137.267	-0.126	-0.014
-328.172	-117.659	-0.171	-0.031
-327.158	-200.000	-0.012	-0.121
-326.143	182.923	0.103	0.153
-325.129	37.624	0.099	-0.089
-324.114	-200.000	0.003	0.474
-323.099	78.521	0.110	-0.118
-322.085	504.802	-0.050	-0.117
-321.070	-200.000	-0.008	-0.048
-320.056	68.985	0.091	0.094
-319.041	386.593	0.064	0.133
-318.026	-165.780	0.251	0.011
-317.012	-44.348	-0.371	0.187
-315.997	-151.151	-0.258	-0.019
-314.983	-93.318	0.192	0.054
-313.968	-159.911	0.275	0.015
-312.953	-47.315	-0.262	0.128
-311.939	-92.986	0.291	0.082
-310.924	800.000	0.051	0.152
-309.910	262.270	-0.062	0.108
-308.895	-200.000	0.006	-0.240
-307.880	-140.888	0.103	-0.011
-306.866	-34.198	-0.170	-0.093
-305.851	-18.681	0.282	-0.176
-304.837	379.299	0.040	-0.082
-303.822	194.332	-0.149	-0.227
-302.807	800.000	0.128	0.559
-301.793	-84.712	-0.188	-0.059
-300.778	-200.000	-0.030	-0.204
-299.764	61.077	0.159	0.158
-298.749	800.000	0.087	-0.261
-297.735	249.895	-0.033	0.056
-296.720	171.128	0.236	0.339
-295.705	-22.720	-0.175	-0.106
-294.691	206.227	-0.147	0.230
-293.676	-200.000	-0.046	-0.257
-292.662	40.615	-0.216	-0.195
-291.647	-64.787	0.104	-0.042
-290.632	107.852	0.146	-0.174
-289.618	-200.000	0.040	-0.235
-288.603	347.001	0.102	0.201
-287.589	-98.801	0.099	0.025
-286.574	-82.173	-0.500	0.163
-285.559	-118.437	0.185	0.033
-284.545	309.726	-0.173	-0.324
-283.530	-65.585	0.282	0.113
-282.516	-18.371	-0.089	0.056
-281.501	16.658	-0.123	0.097
-280.486	-49.781	0.127	-0.061
-279.472	-62.155	0.080	-0.034
-278.457	-7.621	0.316	-0.214
-277.443	-19.544	0.185	0.115
-276.428	-30.468	0.382	-0.217
-275.413	800.000	0.085	-0.265
-274.399	195.848	-0.116	-0.176
-273.384	-65.390	0.092	-0.037
-272.370	-118.205	0.030	-0.005
-271.355	-19.588	-0.064	-0.040
-270.340	800.000	-0.031	0.107
-269.326	800.000	0.014	0.051
-268.311	-137.201	0.325	0.037
-267.297	-141.661	-0.465	-0.047
-266.282	6.614	0.307	-0.228
-265.267	-95.079	-0.378	0.102
-264.253	11.395	0.292	0.224
-263.238	307.208	0.064	-0.119
-262.224	-66.422	-0.084	-0.033
-261.209	-59.792	0.146	-0.062
-260.195	149.029	-0.265	-0.360
-259.180	-200.000	-0.009	-0.131
-258.165	87.595	-0.342	-0.379
-257.151	24.344	-0.136	0.112
-256.136	-27.725	0.037	0.022
-255.122	800.000	0.060	-0.222
-254.107	-64.816	-0.195	-0.079
-253.092	-200.000	-0.018	-0.081
-252.078	4.826	-0.369	0.272
-251.063	-81.894	0.171	-0.056
-250.049	-99.318	0.333	0.084
-249.034	-40.906	-0.211	0.109
-248.019	530.265	-0.065	-0.155
-247.005	-200.000	-0.018	0.086
-245.990	-57.220	0.098	0.043
-244.976	-140.127	0.193	-0.020
-243.961	56.834	-0.191	0.186
-242.946	800.000	0.104	-0.315
-241.932	398.695	-0.040	-0.084
-240.917	800.000	-0.031	0.127
-239.903	146.776	0.143	0.192
-238.888	406.989	-0.117	0.246
-237.873	42.439	0.099	-0.090
-236.859	-26.749	-0.371	-0.217
-235.844	158.874	-0.123	0.170
-234.830	45.940	0.276	0.255
-233.815	-61.892	0.282	0.118
-232.800	-111.235	-0.226	0.046
-231.786	169.874	-0.200	-0.286
-230.771	238.269	-0.180	0.298
-229.757	-142.353	0.263	-0.026
-228.742	-200.000	-0.019	-0.114
-227.727	-166.620	0.135	0.006
-226.713	-67.935	0.250	-0.097
-225.698	-122.880	-0.315	-0.051
-224.684	520.295	-0.055	0.129
-223.669	289.640	0.090	-0.164
-222.655	-21.287	0.269	0.164
-221.640	-200.000	0.032	0.348
-220.625	38.974	-0.079	-0.071
-219.611	-119.816	0.220	0.038
-218.596	254.917	0.216	-0.369
-217.582	-63.119	0.126	-0.052
-216.567	-131.268	-0.232	-0.031
-215.552	800.000	-0.010	-0.036
-214.538	-133.589	-0.146	0.018
-213.523	224.025	-0.073	0.118
-212.509	294.887	0.199	0.363
-211.494	-111.864	-0.228	-0.046
-210.479	-114.070	-0.148	0.029
-209.465	107.239	-0.239	-0.283
-208.450	93.289	0.246	0.278
-207.436	-78.330	-0.148	-0.051
-206.421	800.000	0.007	-0.026
-205.406	-200.000	-0.049	-0.294
-204.392	-200.000	0.037	-0.388
-203.377	316.697	0.253	-0.477
-202.363	-37.907	0.130	0.069
-201.348	258.264	-0.079	-0.135
-200.333	-116.081	-0.054	0.010
-199.319	-26.315	-0.150	0.088
-198.304	-200.000	-0.025	-0.179
-197.290	-87.307	0.236	-0.072
-196.275	152.147	-0.111	-0.151
-195.260	57.066	-0.118	0.114
-194.246	-95.366	0.109	0.029
-193.231	-200.000	0.041	0.208
-192.217	-40.096	-0.110	0.057
-191.202	443.260	0.050	-0.109
-190.187	-134.493	-0.296	0.036
-189.173	388.634	-0.085	0.176
-188.158	-200.000	0.001	-0.295
-187.144	46.967	-0.091	0.084
-186.129	77.129	-0.088	0.093
-185.114	-200.000	0.007	0.054
-184.100	203.849	0.123	0.190
-183.085	203.255	-0.125	-0.192
-182.071	-46.835	-0.083	-0.041
-181.056	606.664	0.124	-0.310
-180.042	-127.548	-0.169	-0.024
-179.027	-200.000	-0.099	-0.454
-178.012	-117.071	-0.337	0.061
-176.998	-23.171	-0.139	-0.083
-175.983	-114.870	0.237	0.045
-174.969	-200.000	-0.021	0.094
-173.954	93.338	0.090	-0.101
-172.939	-133.809	0.035	-0.004
-171.925	149.629	0.123	-0.166
-170.910	4.423	0.044	0.032
-169.896	800.000	-0.150	-0.496
-168.881	136.418	-0.055	0.071
-167.866	200.257	-0.091	-0.139
-166.852	800.000	0.093	-0.316
-165.837	154.506	-0.058	-0.079
-164.823	298.666	0.154	0.283
-163.808	-59.144	-0.103	-0.044
-162.793	800.000	0.038	-0.162
-161.779	-20.433	0.064	0.039
-160.764	800.000	0.012	-0.048
-159.750	800.000	-0.117	-0.349
-158.735	104.184	0.175	0.205
-157.720	184.650	0.079	0.117
-156.706	-68.340	0.212	-0.082
-155.691	604.639	0.145	0.360
-154.677	-30.911	-0.211	-0.119
-153.662	65.646	0.168	0.170
-152.647	121.353	-0.065	-0.081
-151.633	-12.655	-0.211	-0.137
-150.618	800.000	0.094	-0.299
-149.604	89.338	0.196	-0.218
-148.589	-63.447	-0.218	0.089
-147.574	22.488	-0.181	0.148
-146.560	417.158	0.054	-0.115
-145.545	99.954	0.040	0.047
-144.531	86.324	0.229	-0.252
-143.516	-66.421	0.233	-0.092
-142.502	-200.000	-0.024	0.180
-141.487	-139.916	-0.097	-0.010
-140.472	216.240	0.062	-0.098
-139.458	154.289	0.025	-0.034
-138.443	-188.440	0.177	0.002
-137.429	800.000	-0.083	0.291
-136.414	-88.121	0.152	0.046
-135.399	-57.317	-0.242	0.106
-134.385	-94.897	-0.286	-0.077
-133.370	-12.563	-0.244	0.159
-132.356	-29.596	0.278	-0.158
-131.341	31.100	-0.244	-0.209
-130.326	51.303	-0.188	0.178
-129.312	-138.948	0.122	-0.013
-128.297	283.766	0.175	-0.313
-127.283	-77.993	0.201	0.069
-126.268	50.464	0.263	0.248
-125.253	-59.667	-0.142	-0.061
-124.239	142.568	-0.015	0.020
-123.224	312.940	-0.102	-0.190
-122.210	800.000	0.066	-0.250
-121.195	-93.218	0.232	0.064
