DTS Sentinel unit serial number:	SN413079Multiplexer serial number:	ORYXHardware model number:	OX4-SRSoftware version number:	ORYX F/W v4.00 Oryx Data Collector v3.7.2.0data status	okinstallation	princeton_trtdifferential loss correction	single-endedforward channel	channel 2reverse channel	N/Adate	2019/09/17time	10:51:35forward acquisition time	60.00reverse acquisition time	0.00gamma	496.2192k internal	0.2324k external	0.2324temperature offset calibration	0.9978default loss term (dB/km)	0.3790temperature slope calibration	1.0000multiplexer offset coefficient	1.0000multiplexer slope coefficient	1.0000fibre end	0.00T internal ref (°C)	30.20T ext. ref 1 (°C)	0.18T ext. ref 2 (°C)	25.78length (m)	temperature (°C)	Stokes	anti-Stokes-747.200	-136.251	0.035	-0.004
-746.185	117.668	0.260	0.323
-745.171	800.000	0.024	0.087
-744.156	-44.491	-0.188	-0.095
-743.142	171.752	-0.023	0.034
-742.127	-200.000	-0.011	0.060
-741.112	-38.408	-0.177	0.095
-740.098	-171.318	0.254	0.009
-739.083	162.325	0.193	0.273
-738.069	30.051	0.101	-0.087
-737.054	7.217	-0.025	0.019
-736.039	359.684	-0.038	-0.076
-735.025	51.128	0.095	0.091
-734.010	-170.031	-0.198	0.007
-732.996	800.000	0.019	0.083
-731.981	-68.555	-0.016	0.006
-730.966	59.690	0.109	0.108
-729.952	-200.000	0.048	-0.309
-728.937	629.376	0.025	0.065
-727.923	-42.764	-0.392	-0.201
-726.908	363.349	-0.194	-0.393
-725.894	629.764	-0.032	-0.083
-724.879	2.004	-0.104	-0.076
-723.864	800.000	0.043	-0.125
-722.850	-200.000	0.012	-0.052
-721.835	-77.180	0.033	0.012
-720.821	87.277	-0.103	-0.115
-719.806	-200.000	-0.001	0.168
-718.791	39.099	0.270	-0.243
-717.777	-140.987	-0.251	-0.026
-716.762	-200.000	-0.029	0.158
-715.748	-200.000	-0.005	0.091
-714.733	-118.416	-0.219	0.039
-713.718	-200.000	0.050	0.274
-712.704	-181.311	0.086	0.002
-711.689	-138.382	-0.491	0.055
-710.675	-200.000	-0.010	0.065
-709.660	17.722	0.261	0.209
-708.645	-200.000	-0.028	-0.414
-707.631	800.000	-0.027	0.078
-706.616	495.569	-0.155	-0.360
-705.602	-78.531	0.322	0.111
-704.587	671.984	-0.058	-0.152
-703.572	-8.753	0.079	0.054
-702.558	-56.653	-0.357	0.159
-701.543	-88.283	-0.119	-0.036
-700.529	-200.000	-0.002	0.016
-699.514	-134.401	-0.185	-0.023
-698.499	-200.000	-0.005	-0.032
-697.485	177.904	-0.096	-0.142
-696.470	-200.000	0.003	-0.279
-695.456	258.454	0.148	-0.257
-694.441	567.860	0.060	0.147
-693.426	348.683	-0.124	0.246
-692.412	499.101	0.064	-0.150
-691.397	-200.000	-0.034	0.208
-690.383	-168.567	-0.234	-0.009
-689.368	800.000	-0.041	-0.132
-688.354	-200.000	0.018	0.207
-687.339	262.041	-0.089	0.155
-686.324	442.521	0.038	-0.084
-685.310	81.912	0.252	-0.275
-684.295	73.881	0.057	-0.060
-683.281	20.649	-0.182	-0.149
-682.266	-35.938	-0.132	-0.072
-681.251	800.000	-0.085	0.276
-680.237	-178.471	-0.377	-0.009
-679.222	346.313	-0.086	-0.170
-678.208	267.156	-0.032	-0.056
-677.193	158.824	-0.032	0.045
-676.178	-200.000	-0.034	0.159
-675.164	-24.616	0.073	-0.044
-674.149	40.561	0.042	0.038
-673.135	469.951	0.039	-0.088
-672.120	-143.453	-0.138	0.013
-671.105	23.885	-0.276	-0.229
-670.091	800.000	-0.079	-0.313
-669.076	-28.638	-0.222	-0.129
-668.062	-141.268	-0.263	-0.027
-667.047	-67.774	0.235	0.093
-666.032	800.000	-0.070	0.297
-665.018	-141.258	0.221	-0.023
-664.003	105.424	-0.337	0.400
-662.989	64.697	-0.136	0.138
-661.974	-195.788	-0.237	0.002
-660.959	210.536	-0.122	0.193
-659.945	295.160	0.229	0.422
-658.930	-10.744	-0.121	0.080
-657.916	-200.000	-0.080	-0.486
-656.901	298.053	0.063	-0.117
-655.886	-179.970	-0.418	-0.009
-654.872	-89.876	0.078	-0.023
-653.857	660.632	-0.010	0.027
-652.843	162.844	0.076	-0.108
-651.828	105.130	-0.264	0.313
-650.814	-64.111	-0.142	0.058
-649.799	800.000	-0.076	-0.217
-648.784	346.488	-0.057	0.112
-647.770	-123.619	-0.160	0.026
-646.755	-187.697	0.145	-0.002
-645.741	363.303	-0.071	0.143
-644.726	-200.000	0.008	0.124
-643.711	-200.000	-0.025	-0.245
-642.697	-200.000	-0.006	-0.311
-641.682	-104.790	-0.032	0.007
-640.668	-100.406	0.082	0.020
-639.653	359.256	0.088	0.176
-638.638	800.000	-0.082	0.257
-637.624	-200.000	0.001	0.067
-636.609	55.111	0.120	-0.117
-635.595	-89.305	-0.288	0.085
-634.580	725.560	-0.057	0.153
-633.565	-200.000	-0.007	0.127
-632.551	-42.637	-0.279	0.143
-631.536	-109.635	-0.299	-0.063
-630.522	460.080	-0.086	0.192
-629.507	-107.440	-0.214	-0.047
-628.492	193.289	0.049	0.075
-627.478	-49.348	0.243	0.116
-626.463	232.510	-0.256	-0.423
-625.449	113.331	0.184	-0.224
-624.434	-200.000	-0.013	-0.307
-623.419	-169.944	-0.163	0.006
-622.405	39.348	-0.329	-0.296
-621.390	-139.922	0.511	0.054
-620.376	96.144	-0.096	0.110
-619.361	-200.000	-0.015	0.092
-618.346	283.527	-0.132	0.238
-617.332	-46.889	-0.052	0.025
-616.317	-27.758	-0.055	-0.032
-615.303	0.876	0.118	-0.085
-614.288	131.478	-0.072	0.093
-613.273	464.249	0.148	0.332
-612.259	-200.000	0.100	-0.471
-611.244	8.676	-0.133	-0.101
-610.230	119.745	0.059	0.074
-609.215	-38.599	0.139	-0.074
-608.201	-200.000	0.015	0.184
-607.186	-200.000	0.017	-0.189
-606.171	168.090	0.255	0.365
-605.157	-200.000	0.010	0.049
-604.142	27.586	0.108	-0.091
-603.128	-84.838	-0.438	-0.138
-602.113	324.643	0.081	0.156
-601.098	335.788	-0.105	-0.205
-600.084	-8.981	0.383	-0.257
-599.069	-200.000	0.020	-0.100
-598.055	-200.000	-0.012	-0.191
-597.040	38.318	-0.049	-0.044
-596.025	-200.000	0.025	-0.271
-595.011	-200.000	-0.024	-0.226
-593.996	800.000	0.059	-0.169
-592.982	181.065	-0.077	-0.114
-591.967	-102.121	0.066	0.016
-590.952	-200.000	0.008	-0.164
-589.938	-96.851	-0.225	0.059
-588.923	-95.079	0.118	-0.032
-587.909	557.894	-0.088	0.212
-586.894	800.000	-0.029	0.110
-585.879	286.677	0.054	-0.099
-584.865	-54.420	-0.111	-0.050
-583.850	-16.728	-0.533	0.338
-582.836	101.452	0.319	0.372
-581.821	116.592	-0.019	0.024
-580.806	-9.371	-0.310	-0.208
-579.792	-102.898	0.136	0.032
-578.777	-28.350	0.098	0.057
-577.763	-121.228	-0.103	0.017
-576.748	164.006	0.126	-0.178
-575.733	-123.181	0.323	-0.052
-574.719	-146.401	-0.224	-0.020
-573.704	-13.644	-0.295	-0.191
-572.690	114.717	0.048	0.059
-571.675	800.000	-0.066	0.236
-570.661	-200.000	-0.018	0.307
-569.646	-62.584	-0.158	-0.066
-568.631	-82.935	0.212	0.068
-567.617	-53.361	0.286	-0.131
-566.602	-102.170	-0.217	-0.052
-565.588	223.073	0.170	-0.275
-564.573	800.000	-0.039	-0.154
-563.558	-84.390	0.039	0.012
-562.544	7.114	-0.080	0.060
-561.529	73.905	-0.329	-0.346
-560.515	-111.316	-0.508	-0.104
-559.500	-158.468	0.100	0.006
-558.485	-114.542	0.209	-0.040
-557.471	-147.163	0.172	0.015
-556.456	652.413	0.132	0.340
-555.442	65.153	-0.148	0.150
-554.427	800.000	0.158	0.556
-553.412	-98.642	-0.060	0.015
-552.398	148.498	-0.373	-0.504
-551.383	43.209	0.223	-0.204
-550.369	-14.660	0.245	0.158
-549.354	-90.634	0.337	0.097
-548.339	25.215	0.166	-0.138
-547.325	-24.546	0.171	-0.102
-546.310	-7.608	0.077	-0.052
-545.296	7.089	0.076	0.057
-544.281	-200.000	0.003	0.087
-543.266	800.000	0.130	-0.365
-542.252	800.000	-0.048	-0.152
-541.237	231.817	-0.177	0.291
-540.223	74.227	0.128	-0.134
-539.208	800.000	0.079	-0.318
-538.193	18.609	-0.056	-0.045
-537.179	258.538	0.032	-0.055
-536.164	495.055	0.102	-0.235
-535.150	-200.000	0.000	0.067
-534.135	213.717	-0.077	0.121
-533.121	21.006	0.185	0.150
-532.106	149.623	-0.160	0.217
-531.091	164.195	0.337	-0.476
-530.077	14.462	0.113	-0.088
-529.062	800.000	-0.058	0.176
-528.048	156.351	0.111	-0.153
-527.033	251.412	0.094	-0.161
-526.018	-71.439	-0.104	0.039
-525.004	-118.999	0.035	0.006
-523.989	272.857	-0.047	0.082
-522.975	-26.840	-0.334	-0.195
-521.960	148.717	-0.057	0.078
-520.945	-200.000	0.003	0.016
-519.931	689.726	0.090	-0.237
-518.916	168.549	-0.190	-0.272
-517.902	91.246	0.259	-0.291
-516.887	800.000	-0.081	-0.250
-515.872	-28.943	-0.172	-0.099
-514.858	163.028	-0.191	0.268
-513.843	30.405	-0.198	0.169
-512.829	-59.533	-0.199	-0.086
-511.814	9.031	-0.220	-0.166
-510.799	410.244	0.092	-0.195
-509.785	408.700	0.201	-0.426
-508.770	-200.000	0.025	-0.415
-507.756	42.353	-0.180	0.163
-506.741	-66.096	-0.128	-0.051
-505.726	-57.997	0.078	0.034
-504.712	800.000	0.060	-0.190
-503.697	336.743	-0.010	0.020
-502.683	-138.793	-0.385	-0.042
-501.668	472.627	0.096	-0.215
-500.653	568.576	0.068	-0.165
-499.639	-35.383	0.038	0.021
-498.624	-149.028	0.236	-0.019
-497.610	-126.411	0.238	0.035
-496.595	-200.000	-0.003	-0.036
-495.581	800.000	-0.023	-0.087
-494.566	-200.000	-0.032	0.403
-493.551	95.199	0.102	0.117
-492.537	-56.828	-0.226	0.100
-491.522	-74.995	-0.202	-0.072
-490.508	-78.829	0.107	0.036
-489.493	-200.000	0.049	0.215
-488.478	-178.783	-0.143	0.003
-487.464	129.724	0.183	-0.234
-486.449	-95.842	-0.068	-0.018
-485.435	45.143	0.076	0.070
-484.420	333.660	-0.058	-0.112
-483.405	-200.000	0.034	0.224
-482.391	449.695	0.212	0.468
-481.376	800.000	-0.156	0.491
-480.362	203.806	0.153	0.237
-479.347	152.236	0.082	-0.112
-478.332	-200.000	-0.007	-0.041
-477.318	254.656	0.028	0.047
-476.303	-27.357	-0.252	0.147
-475.289	109.343	-0.156	-0.186
-474.274	-38.600	-0.296	-0.156
-473.259	-200.000	-0.002	-0.088
-472.245	-200.000	-0.001	-0.225
-471.230	-114.988	-0.050	-0.010
-470.216	553.830	0.070	0.169
-469.201	-200.000	0.000	-0.270
-468.186	-141.586	0.075	-0.008
-467.172	-54.359	0.309	0.140
-466.157	105.387	0.168	-0.199
-465.143	-25.120	-0.259	0.153
-464.128	40.481	0.191	0.172
-463.113	-200.000	-0.011	-0.160
-462.099	-194.736	-0.303	-0.002
-461.084	-135.383	-0.244	-0.029
-460.070	-3.754	0.105	-0.073
-459.055	800.000	-0.098	-0.342
-458.040	43.449	0.154	-0.141
-457.026	240.846	-0.131	0.219
-456.011	-95.795	-0.177	0.047
-454.997	-200.000	0.017	-0.149
-453.982	102.453	0.102	-0.119
-452.968	-200.000	0.051	0.225
-451.953	320.322	0.048	-0.091
-450.938	9.607	-0.167	0.126
-449.924	-114.829	-0.081	-0.015
-448.909	320.726	-0.103	-0.196
-447.895	-47.044	0.439	-0.214
-446.880	-105.419	-0.270	-0.061
-445.865	-30.397	0.294	-0.167
-444.851	41.682	0.166	0.150
-443.836	211.945	-0.161	0.252
-442.822	-80.837	0.288	-0.095
-441.807	-132.259	0.100	0.013
-440.792	30.081	0.109	-0.093
-439.778	374.325	-0.141	0.287
-438.763	4.404	0.082	0.060
-437.749	-200.000	0.001	0.107
-436.734	-60.832	-0.373	0.158
-435.719	-99.827	-0.195	-0.049
-434.705	112.556	0.091	0.110
-433.690	-45.362	0.257	0.127
-432.676	29.017	-0.251	0.212
-431.661	-162.978	0.307	0.015
-430.646	-65.567	0.097	-0.039
-429.632	-51.590	-0.075	0.035
-428.617	316.692	-0.051	-0.097
-427.603	499.149	0.089	-0.204
-426.588	16.546	0.229	-0.180
-425.573	144.952	0.143	0.191
-424.559	335.125	-0.108	-0.208
-423.544	-200.000	-0.007	-0.059
-422.530	284.048	-0.027	-0.049
-421.515	-180.451	-0.244	0.005
-420.500	639.793	-0.068	0.172
-419.486	800.000	-0.009	-0.031
-418.471	-145.434	-0.208	0.019
-417.457	-133.887	-0.101	-0.012
-416.442	-116.688	-0.191	-0.035
-415.428	-149.155	0.108	0.009
-414.413	-20.467	0.053	-0.033
-413.398	-115.139	0.119	-0.022
-412.384	82.641	-0.038	0.041
-411.369	28.363	0.179	0.151
-410.355	-200.000	0.017	-0.107
-409.340	-34.739	-0.152	-0.083
-408.325	32.283	0.198	0.171
-407.311	-76.422	-0.328	-0.115
-406.296	-71.173	-0.053	-0.020
-405.282	-97.584	-0.107	-0.028
-404.267	-14.630	-0.070	-0.045
-403.252	-56.258	0.480	0.213
-402.238	327.056	-0.130	-0.248
-401.223	84.422	0.167	0.182
-400.209	800.000	-0.026	-0.081
-399.194	602.792	0.054	-0.135
-398.179	-124.746	0.566	-0.087
-397.165	191.618	-0.108	-0.161
-396.150	446.490	0.049	-0.108
-395.136	-200.000	0.022	-0.160
-394.121	141.262	-0.261	-0.343
-393.106	-200.000	0.026	0.183
-392.092	-120.230	-0.273	-0.046
-391.077	172.474	-0.016	-0.023
-390.063	-111.912	0.118	0.024
-389.048	-17.991	0.115	-0.072
-388.033	-200.000	0.055	0.370
-387.019	-172.816	0.210	0.007
-386.004	-129.230	0.419	-0.058
-384.990	-0.909	-0.167	0.118
-383.975	-156.873	-0.035	-0.002
-382.960	-74.897	0.395	-0.141
-381.946	-119.401	-0.204	0.035
-380.931	800.000	-0.078	-0.247
-379.917	-200.000	0.059	0.480
-378.902	-31.078	0.116	-0.065
-377.888	-159.728	0.436	-0.024
-376.873	-200.000	0.001	0.206
-375.858	800.000	0.095	-0.307
-374.844	-159.789	0.466	-0.026
-373.829	-4.586	0.322	-0.221
-372.815	24.567	-0.196	0.161
-371.800	-113.932	-0.261	-0.050
-370.785	-59.632	0.111	0.047
-369.771	28.740	0.102	-0.086
-368.756	-150.321	0.081	0.006
-367.742	-200.000	0.001	0.201
-366.727	800.000	-0.096	0.404
-365.712	-200.000	-0.018	0.108
-364.698	-22.543	-0.084	0.050
-363.683	-200.000	-0.024	-0.122
-362.669	101.098	0.174	-0.202
-361.654	192.897	-0.157	-0.236
-360.639	18.883	-0.172	-0.137
-359.625	180.889	-0.164	-0.239
-358.610	304.075	-0.053	-0.097
-357.596	52.861	0.025	0.024
-356.581	-62.642	-0.162	-0.067
-355.566	33.049	0.053	0.045
-354.552	419.020	0.032	0.067
-353.537	-200.000	-0.049	0.271
-352.523	245.479	-0.069	-0.116
-351.508	225.515	-0.057	0.092
-350.493	800.000	-0.098	0.310
-349.479	-200.000	-0.027	-0.211
-348.464	374.504	0.049	0.099
-347.450	-145.851	0.246	-0.022
-346.435	-43.597	0.106	0.053
-345.420	800.000	-0.113	0.382
-344.406	-200.000	-0.008	-0.224
-343.391	2.595	-0.223	-0.161
-342.377	-200.000	0.033	0.317
-341.362	-33.746	0.218	-0.119
-340.348	-105.249	-0.340	0.077
-339.333	202.066	0.093	0.142
-338.318	443.259	-0.072	0.156
-337.304	-200.000	0.009	-0.379
-336.289	642.383	-0.030	0.075
-335.275	723.213	-0.054	0.143
-334.260	51.197	-0.153	0.144
-333.245	3.023	-0.123	0.088
-332.231	27.589	0.032	0.026
-331.216	-200.000	0.004	-0.274
-330.202	5.194	-0.296	0.216
-329.187	72.368	0.302	0.313
-328.172	800.000	-0.043	-0.147
-327.158	-200.000	-0.004	0.021
-326.143	77.083	-0.391	0.413
-325.129	50.578	0.266	0.250
-324.114	220.473	0.094	0.150
-323.099	87.440	-0.170	0.186
-322.085	800.000	0.067	0.234
-321.070	101.791	-0.272	0.315
-320.056	-200.000	0.012	-0.208
-319.041	-153.393	-0.173	-0.012
-318.026	744.561	-0.033	-0.087
-317.012	128.315	-0.263	0.332
-315.997	200.319	0.231	0.353
-314.983	9.056	-0.134	-0.101
-313.968	-200.000	0.040	0.272
-312.953	-40.059	0.403	0.209
-311.939	613.977	0.112	0.278
-310.924	196.056	-0.259	0.392
-309.910	8.329	0.036	0.027
-308.895	7.623	0.242	0.180
-307.880	-72.534	0.454	0.166
-306.866	225.768	-0.107	-0.171
-305.851	-177.817	0.106	0.003
-304.837	-128.864	-0.273	0.038
-303.822	419.991	0.114	0.242
-302.807	-119.689	0.282	-0.048
-301.793	-150.307	-0.112	-0.009
-300.778	-52.061	-0.162	-0.075
-299.764	748.067	0.102	-0.274
-298.749	-87.236	0.243	-0.073
-297.735	5.310	-0.101	0.074
-296.720	-200.000	-0.038	-0.278
-295.705	2.666	-0.276	-0.199
-294.691	-200.000	0.009	-0.187
-293.676	-200.000	-0.001	-0.062
-292.662	168.846	-0.211	0.299
-291.647	-113.057	-0.132	-0.026
-290.632	800.000	0.032	-0.137
-289.618	-200.000	-0.026	0.375
-288.603	-61.611	-0.116	-0.048
-287.589	224.838	-0.093	0.149
-286.574	-200.000	0.065	0.368
-285.559	94.726	-0.155	-0.175
-284.545	-41.292	0.201	-0.103
-283.530	-200.000	-0.051	-0.282
-282.516	-151.766	0.213	0.016
-281.501	27.666	-0.217	-0.181
-280.486	-18.540	-0.212	0.131
-279.472	-200.000	-0.045	0.343
-278.457	800.000	-0.017	0.058
-277.443	-40.591	-0.341	-0.176
-276.428	800.000	0.047	0.171
-275.413	-72.562	0.215	-0.079
-274.399	-37.758	0.205	0.108
-273.384	-0.036	-0.156	-0.110
-272.370	135.062	-0.060	0.078
-271.355	190.725	-0.166	-0.248
-270.340	-52.983	-0.164	-0.075
-269.326	-145.982	-0.058	0.005
-268.311	-48.870	-0.389	0.185
-267.297	61.152	-0.094	0.092
-266.282	-200.000	0.032	0.156
-265.267	800.000	0.080	0.320
-264.253	-200.000	0.060	0.372
-263.238	-99.521	-0.171	0.043
-262.224	123.908	0.342	-0.425
-261.209	-200.000	-0.010	0.108
-260.195	-200.000	-0.039	0.281
-259.180	-2.272	-0.164	0.114
-258.165	340.057	-0.064	0.123
-257.151	800.000	0.056	0.220
-256.136	46.494	0.130	0.120
-255.122	800.000	0.075	0.242
-254.107	49.277	-0.412	0.384
-253.092	-200.000	0.044	-0.197
-252.078	-200.000	0.035	-0.190
-251.063	800.000	-0.111	-0.316
-250.049	800.000	0.113	-0.321
-249.034	-200.000	0.005	0.216
-248.019	170.129	0.041	0.058
-247.005	-96.300	0.118	0.031
-245.990	45.790	-0.159	-0.146
-244.976	10.991	-0.184	0.139
-243.961	49.742	0.109	-0.102
-242.946	117.703	0.047	-0.058
-241.932	-200.000	-0.007	0.137
-240.917	-51.756	0.136	-0.063
-239.903	-60.769	0.271	0.114
-238.888	-127.112	-0.146	0.021
-237.873	-74.990	0.442	0.157
-236.859	-13.611	-0.172	-0.110
-235.844	58.616	-0.115	0.111
-234.830	-111.922	0.347	0.069
-233.815	-200.000	0.047	0.384
-232.800	-76.093	0.091	-0.032
-231.786	426.046	-0.033	-0.071
-230.771	-6.786	0.435	-0.293
-229.757	-200.000	0.055	0.259
-228.742	82.456	0.088	-0.095
-227.727	-106.858	-0.026	-0.006
-226.713	545.896	0.050	0.118
-225.698	11.115	-0.189	-0.143
-224.684	262.665	0.100	-0.172
-223.669	-60.345	0.196	-0.083
-222.655	-137.932	-0.144	0.016
-221.640	-83.003	-0.204	0.065
-220.625	109.249	-0.175	0.207
-219.611	-200.000	-0.036	0.192
-218.596	-135.760	0.290	0.034
-217.582	-8.763	0.132	0.087
-216.567	-200.000	-0.032	-0.219
-215.552	-75.072	0.411	-0.145
-214.538	-200.000	0.000	0.177
-213.523	-30.383	0.142	-0.080
-212.509	-108.968	-0.174	0.037
-211.494	800.000	-0.072	0.209
-210.479	-46.903	0.005	-0.002
-209.465	251.813	0.222	-0.374
-208.450	-49.903	0.248	-0.117
-207.436	652.431	-0.167	-0.423
-206.421	-47.431	-0.351	0.169
-205.406	-116.245	0.113	-0.021
-204.392	496.314	0.141	-0.321
-203.377	82.206	-0.104	0.111
-202.363	316.347	0.097	0.180
-201.348	-115.952	-0.373	0.069
-200.333	452.166	-0.034	0.075
-199.319	113.874	-0.086	-0.104
-198.304	52.605	0.132	0.125
-197.290	49.105	0.274	0.255
-196.275	-121.380	0.278	0.046
-195.260	-6.572	-0.269	0.181
-194.246	736.977	0.115	0.306
-193.231	271.730	0.180	0.314
-192.217	-16.309	0.179	-0.112
-191.202	6.590	-0.113	-0.083
-190.187	-20.808	0.237	-0.143
-189.173	-200.000	0.029	-0.257
-188.158	-200.000	0.026	0.531
-187.144	192.889	-0.128	0.191
-186.129	-200.000	-0.013	0.183
-185.114	-200.000	-0.002	-0.479
-184.100	-107.895	-0.161	-0.035
-183.085	220.970	0.083	0.132
-182.071	75.546	-0.090	-0.093
-181.056	96.510	-0.151	-0.171
-180.042	800.000	-0.025	-0.088
-179.027	-150.577	0.056	-0.004
-178.012	-138.758	-0.303	0.033
-176.998	525.939	0.122	-0.284
-175.983	-28.632	-0.192	-0.109
-174.969	89.283	-0.204	-0.225
-173.954	208.767	-0.085	0.132
-172.939	-124.570	0.374	0.057
-171.925	86.646	-0.033	-0.036
-170.910	15.681	-0.042	0.032
-169.896	66.392	0.141	-0.142
-168.881	800.000	0.085	-0.266
-167.866	273.506	0.141	-0.246
-166.852	-38.512	0.222	0.116
-165.837	597.495	-0.156	-0.381
-164.823	39.701	0.126	0.111
-163.808	-44.260	-0.057	0.028
-162.793	-200.000	-0.011	0.210
-161.779	-120.905	-0.171	0.028
-160.764	-200.000	-0.002	-0.217
-159.750	-30.707	-0.465	-0.260
-158.735	-150.051	-0.266	-0.020
-157.720	66.776	0.140	0.140
-156.706	77.903	-0.115	-0.121
-155.691	-132.271	0.044	0.006
-154.677	-40.086	0.246	-0.127
-153.662	212.240	-0.060	-0.093
-152.647	-187.968	0.204	0.003
-151.633	-1.449	0.250	-0.174
-150.618	363.401	-0.052	-0.102
-149.604	-26.199	-0.080	-0.046
-148.589	685.724	0.170	0.439
-147.574	207.658	0.138	0.213
-146.560	343.337	0.098	0.190
-145.545	11.377	0.150	0.114
-144.531	116.945	0.093	-0.113
-143.516	68.154	0.307	0.310
-142.502	397.372	0.065	0.135
-141.487	-137.811	0.342	-0.038
-140.472	266.075	0.090	-0.155
-139.458	36.983	-0.365	0.318
-138.443	445.030	0.023	-0.049
-137.429	-0.182	-0.142	-0.099
-136.414	-200.000	0.042	0.183
-135.399	76.198	-0.044	-0.046
-134.385	49.975	-0.123	-0.114
-133.370	2.261	-0.140	0.100
-132.356	148.490	0.341	0.453
-131.341	-200.000	-0.005	-0.095
-130.326	800.000	-0.015	-0.042
-129.312	-149.459	0.114	-0.009
-128.297	-72.621	0.520	0.189
-127.283	-60.613	-0.034	0.014
-126.268	659.269	0.132	0.335
-125.253	245.655	0.033	-0.054
-124.239	-37.590	0.083	0.044
-123.224	-70.807	0.229	0.085
-122.210	-129.969	-0.099	-0.013
-121.195	133.718	-0.170	-0.217
