DTS Sentinel unit serial number:	SN413079Multiplexer serial number:	ORYXHardware model number:	OX4-SRSoftware version number:	ORYX F/W v4.00 Oryx Data Collector v3.7.2.0data status	okinstallation	princeton_trtdifferential loss correction	single-endedforward channel	channel 2reverse channel	N/Adate	2019/09/12time	17:33:10forward acquisition time	60.00reverse acquisition time	0.00gamma	496.2192k internal	0.2324k external	0.2324temperature offset calibration	1.0130default loss term (dB/km)	0.3790temperature slope calibration	1.0000multiplexer offset coefficient	1.0000multiplexer slope coefficient	1.0000fibre end	0.00T internal ref (°C)	34.52T ext. ref 1 (°C)	2.85T ext. ref 2 (°C)	28.57length (m)	temperature (°C)	Stokes	anti-Stokes-747.200	65.690	-0.087	-0.089
-746.185	722.416	0.048	0.130
-745.171	-200.000	-0.049	-0.331
-744.156	-200.000	0.009	-0.195
-743.142	-200.000	0.070	0.330
-742.127	279.946	0.207	0.374
-741.112	363.874	-0.063	-0.128
-740.098	146.518	-0.170	0.230
-739.083	41.044	-0.253	0.231
-738.069	558.662	-0.090	-0.218
-737.054	-112.293	-0.063	-0.013
-736.039	-200.000	-0.047	0.356
-735.025	-133.368	0.415	0.053
-734.010	-200.000	0.019	0.130
-732.996	-103.655	-0.206	0.049
-731.981	-200.000	-0.016	-0.348
-730.966	-200.000	0.025	0.232
-729.952	38.644	-0.068	0.061
-728.937	211.756	-0.110	0.175
-727.923	-200.000	-0.031	-0.185
-726.908	15.632	-0.320	-0.253
-725.894	347.650	-0.165	-0.328
-724.879	-200.000	0.016	0.226
-723.864	106.468	0.074	0.088
-722.850	-151.600	-0.339	-0.025
-721.835	497.068	-0.077	-0.178
-720.821	-42.681	0.082	-0.042
-719.806	-74.874	0.059	0.021
-718.791	209.606	0.044	-0.070
-717.777	-31.161	-0.107	-0.061
-716.762	195.649	0.172	0.264
-715.748	-15.348	0.038	0.025
-714.733	-200.000	-0.007	-0.078
-713.718	-200.000	0.017	-0.081
-712.704	-75.265	-0.320	-0.115
-711.689	129.537	0.176	-0.226
-710.675	-196.247	-0.050	-0.000
-709.660	-138.557	0.434	0.048
-708.645	421.230	0.112	0.243
-707.631	-82.642	0.105	-0.034
-706.616	-32.440	-0.182	-0.103
-705.602	-43.852	-0.058	-0.029
-704.587	41.776	-0.230	0.211
-703.572	800.000	0.037	0.143
-702.558	-156.812	-0.420	0.026
-701.543	-175.621	0.334	-0.009
-700.529	386.615	-0.051	0.106
-699.514	98.064	0.179	0.207
-698.499	4.701	-0.028	-0.021
-697.485	-200.000	-0.039	0.338
-696.470	-200.000	0.046	0.216
-695.456	800.000	-0.077	0.235
-694.441	11.202	0.133	-0.102
-693.426	-75.513	0.158	-0.057
-692.412	-133.166	-0.171	-0.022
-691.397	105.002	-0.107	-0.127
-690.383	186.672	0.074	-0.110
-689.368	73.496	-0.182	-0.192
-688.354	654.006	-0.078	-0.200
-687.339	-75.768	0.319	-0.114
-686.324	591.893	-0.150	-0.373
-685.310	-23.016	0.044	0.027
-684.295	105.377	-0.062	0.074
-683.281	496.987	0.091	-0.210
-682.266	-69.521	-0.452	0.174
-681.251	-132.559	-0.142	-0.018
-680.237	673.299	0.114	-0.298
-679.222	47.091	-0.044	-0.041
-678.208	8.631	0.127	0.096
-677.193	-118.122	-0.260	0.047
-676.178	800.000	0.069	0.215
-675.164	255.370	0.135	0.233
-674.149	-200.000	-0.044	-0.298
-673.135	-118.283	0.159	0.028
-672.120	17.756	-0.055	-0.044
-671.105	193.964	0.246	-0.374
-670.091	773.548	0.097	-0.267
-669.076	45.329	-0.143	-0.132
-668.062	66.429	-0.128	0.131
-667.047	-44.862	-0.260	0.131
-666.032	-4.330	0.217	0.151
-665.018	57.266	-0.048	-0.047
-664.003	-200.000	0.036	0.400
-662.989	-200.000	-0.008	-0.083
-661.974	-0.318	0.259	0.185
-660.959	800.000	-0.109	-0.397
-659.945	-56.070	-0.207	-0.093
-658.930	169.850	0.164	0.235
-657.916	-200.000	-0.038	-0.279
-656.901	-110.121	0.154	-0.032
-655.886	-64.846	-0.141	0.057
-654.872	-200.000	-0.004	0.154
-653.857	262.900	0.159	-0.278
-652.843	800.000	0.082	0.312
-651.828	-36.465	0.067	-0.036
-650.814	90.898	-0.135	0.152
-649.799	-200.000	-0.007	-0.163
-648.784	99.582	-0.090	-0.104
-647.770	800.000	0.117	-0.368
-646.755	299.885	-0.110	-0.205
-645.741	728.757	-0.067	-0.179
-644.726	-200.000	0.054	-0.425
-643.711	-4.840	-0.181	0.126
-642.697	-48.610	0.275	0.133
-641.682	74.517	0.206	0.218
-640.668	-122.318	-0.165	0.027
-639.653	466.924	-0.065	-0.147
-638.638	88.453	-0.087	0.097
-637.624	-200.000	0.008	0.183
-636.609	-200.000	-0.007	-0.249
-635.595	485.924	0.093	0.213
-634.580	78.325	-0.073	-0.079
-633.565	163.442	-0.068	-0.096
-632.551	-24.823	0.174	-0.104
-631.536	-41.252	0.168	0.087
-630.522	-200.000	0.036	0.311
-629.507	58.316	-0.302	-0.297
-628.492	800.000	0.110	0.379
-627.478	-200.000	0.025	-0.358
-626.463	-200.000	-0.003	-0.091
-625.449	-90.283	-0.395	-0.115
-624.434	-109.605	0.115	0.024
-623.419	-200.000	-0.023	0.260
-622.405	-57.825	0.144	0.063
-621.390	-200.000	0.031	0.229
-620.376	-89.938	-0.119	-0.035
-619.361	6.155	-0.217	-0.162
-618.346	-181.881	0.274	-0.005
-617.332	-93.447	-0.261	-0.073
-616.317	-61.667	-0.074	0.031
-615.303	87.881	0.049	0.055
-614.288	111.726	-0.146	0.177
-613.273	800.000	0.053	0.216
-612.259	148.058	-0.085	0.115
-611.244	77.456	-0.176	-0.188
-610.230	-200.000	-0.029	0.156
-609.215	302.227	-0.072	-0.134
-608.201	-73.375	-0.263	-0.096
-607.186	69.205	0.125	0.129
-606.171	-200.000	0.013	-0.158
-605.157	46.794	0.061	-0.057
-604.142	-57.753	-0.032	0.014
-603.128	-79.064	-0.139	0.048
-602.113	800.000	0.030	0.110
-601.098	443.105	0.059	-0.131
-600.084	10.966	0.328	-0.252
-599.069	249.368	0.100	0.170
-598.055	-35.896	0.311	0.169
-597.040	-90.220	-0.119	-0.035
-596.025	-200.000	-0.002	-0.232
-595.011	-46.404	0.309	-0.152
-593.996	104.073	0.205	-0.242
-592.982	595.453	-0.030	-0.075
-591.967	167.652	0.033	0.046
-590.952	-69.088	-0.147	0.057
-589.938	-74.157	-0.184	-0.067
-588.923	-65.035	0.237	0.096
-587.909	-36.140	-0.159	-0.086
-586.894	36.153	0.096	0.085
-585.879	300.278	-0.094	-0.174
-584.865	-41.126	-0.248	-0.128
-583.850	-200.000	-0.020	0.162
-582.836	-200.000	-0.016	0.252
-581.821	-200.000	0.023	0.438
-580.806	-67.753	-0.107	0.042
-579.792	-1.010	-0.037	0.026
-578.777	209.129	-0.212	-0.333
-577.763	-4.678	-0.291	0.202
-576.748	13.510	0.209	0.163
-575.733	-200.000	0.001	-0.185
-574.719	160.116	-0.147	-0.206
-573.704	-100.470	-0.166	0.041
-572.690	-104.064	-0.102	-0.024
-571.675	19.128	0.178	0.143
-570.661	39.283	0.098	0.088
-569.646	800.000	-0.077	-0.309
-568.631	-200.000	0.000	-0.295
-567.617	318.516	-0.003	-0.005
-566.602	231.686	-0.139	-0.229
-565.588	-113.681	-0.060	-0.012
-564.573	10.473	-0.141	-0.108
-563.558	-200.000	-0.003	0.256
-562.544	302.602	-0.068	0.125
-561.529	171.176	-0.061	0.088
-560.515	-15.668	0.201	-0.128
-559.500	-118.778	-0.334	0.059
-558.485	-15.497	-0.183	0.117
-557.471	-141.542	-0.319	0.032
-556.456	-101.418	0.161	0.039
-555.442	-69.991	-0.261	0.100
-554.427	-24.755	-0.236	0.141
-553.412	-143.020	0.155	0.015
-552.398	28.834	0.012	-0.010
-551.383	177.067	0.105	0.153
-550.369	83.789	-0.183	0.200
-549.354	-161.602	-0.270	0.014
-548.339	-54.055	-0.086	-0.039
-547.325	90.818	-0.052	-0.059
-546.310	20.746	0.098	0.079
-545.296	-43.690	-0.485	0.245
-544.281	-27.710	0.155	0.090
-543.266	368.612	-0.024	-0.048
-542.252	-200.000	-0.037	0.191
-541.237	-88.119	-0.171	-0.051
-540.223	-200.000	-0.018	0.203
-539.208	-66.680	-0.160	0.064
-538.193	-15.764	-0.185	-0.118
-537.179	80.780	0.230	0.248
-536.164	-75.490	-0.054	-0.019
-535.150	800.000	0.122	0.364
-534.135	288.286	-0.156	-0.282
-533.121	-92.398	0.223	-0.063
-532.106	800.000	-0.107	-0.303
-531.091	407.101	-0.188	0.398
-530.077	800.000	0.059	0.244
-529.062	-1.629	-0.142	0.100
-528.048	311.495	-0.069	-0.130
-527.033	-172.225	0.071	-0.002
-526.018	-200.000	0.058	-0.603
-525.004	-38.324	-0.194	-0.103
-523.989	37.012	-0.175	0.155
-522.975	-106.697	-0.164	-0.036
-521.960	-21.930	0.129	-0.078
-520.945	275.685	0.090	0.159
-519.931	-200.000	0.027	-0.251
-518.916	-85.242	-0.185	0.058
-517.902	310.955	0.053	0.099
-516.887	543.553	0.148	-0.354
-515.872	-98.285	0.086	0.022
-514.858	-188.051	0.237	0.003
-513.843	-65.577	0.043	0.017
-512.829	185.646	0.056	0.083
-511.814	-66.478	-0.166	0.066
-510.799	569.189	-0.101	-0.246
-509.785	-7.405	-0.094	-0.063
-508.770	459.649	0.084	-0.186
-507.756	-200.000	0.022	0.416
-506.741	-200.000	-0.023	-0.140
-505.726	48.955	-0.116	-0.108
-504.712	69.663	-0.021	0.022
-503.697	-200.000	-0.006	-0.128
-502.683	45.779	-0.135	-0.125
-501.668	156.136	-0.093	-0.129
-500.653	800.000	-0.053	0.221
-499.639	-167.240	0.203	-0.008
-498.624	-166.060	0.294	0.013
-497.610	-95.858	0.422	-0.113
-496.595	63.792	-0.272	-0.273
-495.581	166.169	-0.144	-0.204
-494.566	-200.000	-0.001	0.233
-493.551	800.000	-0.158	0.452
-492.537	-113.304	0.302	0.059
-491.522	454.570	-0.036	0.079
-490.508	-7.655	-0.298	0.202
-489.493	28.182	0.064	-0.054
-488.478	-76.938	-0.256	-0.089
-487.464	800.000	0.048	-0.161
-486.449	-86.418	0.376	-0.115
-485.435	37.801	0.147	0.131
-484.420	769.640	-0.107	0.292
-483.405	-82.546	0.097	-0.031
-482.391	-137.066	0.038	-0.004
-481.376	263.073	-0.240	-0.417
-480.362	800.000	0.224	-0.639
-479.347	-187.149	-0.058	-0.001
-478.332	800.000	-0.059	0.167
-477.318	-66.322	0.183	0.073
-476.303	569.738	0.030	-0.072
-475.289	200.220	-0.067	-0.103
-474.274	66.441	-0.159	0.162
-473.259	65.317	-0.185	0.187
-472.245	-160.599	-0.080	0.004
-471.230	800.000	0.072	-0.209
-470.216	-81.786	0.544	-0.178
-469.201	86.147	0.217	-0.239
-468.186	-180.078	-0.066	-0.001
-467.172	12.878	-0.077	-0.060
-466.157	-118.696	0.115	-0.020
-465.143	-200.000	0.009	-0.203
-464.128	38.458	0.095	-0.084
-463.113	-25.508	-0.225	-0.133
-462.099	368.759	-0.054	-0.109
-461.084	476.929	0.062	0.140
-460.070	800.000	0.051	-0.156
-459.055	276.982	0.075	-0.133
-458.040	-200.000	0.048	-0.244
-457.026	-73.871	-0.157	-0.057
-456.011	-117.692	0.099	0.018
-454.997	388.709	-0.108	-0.224
-453.982	-33.734	-0.198	0.109
-452.968	-121.461	0.224	0.037
-451.953	142.768	-0.015	0.020
-450.938	179.793	0.207	0.303
-449.924	-51.596	0.203	-0.094
-448.909	800.000	0.127	-0.354
-447.895	-200.000	-0.064	0.280
-446.880	-200.000	-0.036	0.318
-445.865	-113.296	0.192	0.038
-444.851	-19.281	0.130	0.081
-443.836	70.228	-0.119	0.122
-442.822	-104.034	-0.117	0.027
-441.807	-55.608	0.214	-0.096
-440.792	65.420	-0.217	0.219
-439.778	-70.026	-0.137	-0.052
-438.763	-200.000	0.001	0.093
-437.749	66.213	0.100	-0.101
-436.734	-50.387	-0.234	-0.110
-435.719	-120.657	-0.135	-0.023
-434.705	-155.804	0.150	-0.010
-433.690	-105.062	0.237	-0.054
-432.676	-200.000	0.051	-0.290
-431.661	-115.401	0.172	0.032
-430.646	-200.000	0.012	0.115
-429.632	-16.984	0.104	0.066
-428.617	800.000	0.046	0.191
-427.603	261.842	-0.098	0.169
-426.588	53.067	0.077	-0.074
-425.573	164.773	-0.126	-0.178
-424.559	10.236	0.090	0.069
-423.544	649.736	0.131	0.335
-422.530	-35.071	-0.180	0.098
-421.515	25.571	0.213	0.177
-420.500	-44.518	-0.110	-0.055
-419.486	-148.359	0.195	-0.016
-418.471	-48.190	0.258	0.124
-417.457	-40.034	-0.330	-0.172
-416.442	-200.000	-0.004	-0.066
-415.428	37.320	-0.148	-0.131
-414.413	616.944	-0.043	-0.106
-413.398	-73.488	-0.303	-0.110
-412.384	800.000	-0.032	0.116
-411.369	-200.000	0.001	-0.349
-410.355	-29.610	0.030	-0.017
-409.340	-97.129	-0.158	-0.041
-408.325	-8.620	-0.094	0.063
-407.311	-200.000	-0.056	-0.428
-406.296	-122.729	-0.194	-0.031
-405.282	-200.000	-0.023	-0.388
-404.267	7.197	-0.062	0.046
-403.252	-58.565	0.121	-0.052
-402.238	-79.445	-0.045	0.015
-401.223	73.165	0.203	0.211
-400.209	-122.786	-0.103	0.017
-399.194	800.000	-0.059	-0.172
-398.179	-177.091	-0.121	-0.003
-397.165	11.922	0.139	0.107
-396.150	-200.000	-0.052	-0.324
-395.136	-200.000	0.005	-0.086
-394.121	-200.000	0.002	0.190
-393.106	-200.000	-0.018	-0.080
-392.092	436.347	-0.185	-0.401
-391.077	7.712	0.183	0.137
-390.063	-27.039	-0.343	0.199
-389.048	136.068	-0.040	0.052
-388.033	-66.824	0.165	0.065
-387.019	-200.000	0.031	-0.152
-386.004	536.901	0.125	-0.295
-384.990	-200.000	-0.031	-0.264
-383.975	800.000	-0.114	-0.399
-382.960	-115.571	-0.227	-0.042
-381.946	-75.223	0.346	0.123
-380.931	-169.115	0.094	0.003
-379.917	197.260	0.080	0.121
-378.902	-53.350	0.376	0.172
-377.888	800.000	0.014	-0.054
-376.873	88.484	-0.086	-0.095
-375.858	-72.584	-0.229	0.084
-374.844	84.136	-0.041	-0.045
-373.829	453.444	-0.135	-0.296
-372.815	96.407	0.093	0.106
-371.800	94.503	0.022	-0.025
-370.785	-1.304	-0.183	-0.129
-369.771	-58.103	0.252	-0.109
-368.756	800.000	-0.022	-0.082
-367.742	220.739	0.092	0.147
-366.727	-90.087	-0.266	0.077
-365.712	-131.035	0.193	0.026
-364.698	169.549	-0.234	0.333
-363.683	163.166	0.103	0.144
-362.669	-87.637	-0.449	-0.135
-361.654	24.244	0.181	-0.149
-360.639	84.839	-0.260	-0.284
-359.625	18.508	-0.129	0.102
-358.610	2.782	0.098	0.070
-357.596	-190.343	-0.309	0.003
-356.581	-57.102	-0.116	-0.051
-355.566	800.000	-0.024	-0.065
-354.552	138.929	0.098	-0.128
-353.537	57.063	0.260	-0.252
-352.523	12.712	-0.055	-0.042
-351.508	11.035	-0.087	0.066
-350.493	-200.000	-0.281	0.000
-349.479	-102.765	0.110	0.026
-348.464	-112.924	0.107	-0.021
-347.450	-18.992	0.249	-0.154
-346.435	16.841	0.160	0.126
-345.420	-112.354	-0.260	-0.052
-344.406	100.311	-0.136	0.157
-343.391	-200.000	-0.050	0.281
-342.377	-92.629	0.135	0.038
-341.362	800.000	-0.005	0.016
-340.348	-68.515	-0.049	-0.019
-339.333	74.860	0.171	-0.179
-338.318	-200.000	-0.017	-0.110
-337.304	11.733	-0.210	0.160
-336.289	-91.156	-0.498	-0.142
-335.275	-200.000	-0.006	-0.466
-334.260	-8.173	0.096	-0.064
-333.245	-20.717	0.244	0.149
-332.231	-93.049	0.296	-0.082
-331.216	-200.000	0.010	0.168
-330.202	-114.989	-0.378	-0.071
-329.187	311.895	-0.040	-0.074
-328.172	800.000	0.132	-0.388
-327.158	-200.000	-0.016	0.156
-326.143	201.292	0.034	-0.053
-325.129	41.575	0.149	0.134
-324.114	-200.000	0.008	0.187
-323.099	62.806	0.063	-0.063
-322.085	-18.723	-0.082	0.051
-321.070	184.898	-0.154	-0.227
-320.056	1.464	-0.128	-0.091
-319.041	455.462	0.021	-0.047
-318.026	73.351	-0.158	0.164
-317.012	-9.749	0.246	-0.163
-315.997	82.395	0.097	-0.105
-314.983	-200.000	0.000	0.007
-313.968	-200.000	0.011	-0.221
-312.953	190.657	-0.086	0.129
-311.939	-200.000	0.001	-0.052
-310.924	81.488	0.313	0.336
-309.910	800.000	0.020	0.074
-308.895	17.065	-0.305	0.240
-307.880	385.479	-0.076	-0.155
-306.866	800.000	0.078	-0.248
-305.851	-108.174	-0.109	0.024
-304.837	497.044	0.032	0.074
-303.822	225.127	0.182	0.293
-302.807	390.310	0.087	-0.179
-301.793	95.541	0.048	-0.054
-300.778	-200.000	0.008	-0.121
-299.764	800.000	-0.051	-0.200
-298.749	360.835	-0.152	0.303
-297.735	135.579	0.116	0.150
-296.720	800.000	0.064	0.178
-295.705	295.858	0.079	0.143
-294.691	-200.000	0.033	0.164
-293.676	193.376	-0.102	-0.153
-292.662	-166.946	-0.112	0.005
-291.647	-29.618	-0.135	0.076
-290.632	-50.136	0.204	0.096
-289.618	800.000	0.099	0.299
-288.603	-173.139	0.306	0.009
-287.589	-162.644	-0.172	-0.008
-286.574	800.000	0.093	-0.274
-285.559	-119.825	-0.049	0.008
-284.545	-45.263	-0.305	0.150
-283.530	127.400	0.179	-0.226
-282.516	621.648	-0.088	0.220
-281.501	-68.524	-0.427	-0.164
-280.486	76.821	-0.038	-0.040
-279.472	-200.000	0.005	-0.038
-278.457	650.406	0.176	-0.446
-277.443	800.000	-0.034	0.110
-276.428	800.000	-0.080	-0.304
-275.413	-200.000	-0.014	0.307
-274.399	301.783	-0.330	0.605
-273.384	13.776	-0.093	-0.072
-272.370	205.783	0.172	0.266
-271.355	19.650	0.063	0.050
-270.340	-54.097	-0.144	0.065
-269.326	-121.143	0.617	-0.102
-268.311	-200.000	0.009	-0.080
-267.297	4.135	0.138	0.100
-266.282	245.350	0.121	0.201
-265.267	333.684	-0.072	0.139
-264.253	53.333	-0.049	-0.046
-263.238	-118.057	0.126	-0.022
-262.224	227.855	-0.077	0.123
-261.209	800.000	-0.031	0.130
-260.195	800.000	0.036	0.122
-259.180	192.021	0.119	0.178
-258.165	-200.000	-0.034	0.192
-257.151	33.236	-0.131	0.113
-256.136	-1.839	0.317	0.221
-255.122	758.633	0.138	-0.371
-254.107	63.788	-0.075	-0.075
-253.092	-29.694	-0.326	-0.184
-252.078	133.541	-0.044	0.056
-251.063	14.515	0.268	0.207
-250.049	61.609	-0.144	0.142
-249.034	-143.487	-0.098	0.009
-248.019	98.927	-0.234	0.267
-247.005	30.845	0.102	0.086
-245.990	800.000	-0.033	-0.107
-244.976	130.051	0.057	0.072
-243.961	14.596	0.278	0.215
-242.946	4.215	-0.160	-0.116
-241.932	-200.000	-0.066	-0.290
-240.917	330.128	0.072	-0.138
-239.903	18.351	-0.158	-0.125
-238.888	233.398	0.062	0.101
-237.873	-200.000	0.002	0.192
-236.859	40.496	0.146	0.130
-235.844	240.839	-0.117	-0.193
-234.830	-149.284	0.689	0.054
-233.815	-172.148	-0.183	-0.006
-232.800	-200.000	0.021	-0.140
-231.786	90.848	-0.089	0.099
-230.771	118.977	0.221	0.271
-229.757	800.000	-0.025	0.086
-228.742	-200.000	0.035	0.246
-227.727	480.129	-0.089	0.200
-226.713	641.655	0.052	0.132
-225.698	-34.812	0.127	0.069
-224.684	-82.334	0.288	-0.093
-223.669	-65.963	0.358	-0.142
-222.655	-200.000	-0.014	0.336
-221.640	-200.000	-0.010	0.094
-220.625	1.169	0.099	0.071
-219.611	-66.340	0.208	-0.082
-218.596	-116.108	0.426	-0.078
-217.582	15.437	0.113	-0.087
-216.567	90.312	-0.190	-0.210
-215.552	-162.601	0.453	0.022
-214.538	800.000	0.056	-0.201
-213.523	132.959	-0.145	0.185
-212.509	-51.726	-0.244	-0.112
-211.494	122.086	-0.257	0.318
-210.479	-14.581	0.298	0.189
-209.465	687.777	-0.060	0.154
-208.450	-200.000	-0.035	0.218
-207.436	225.551	0.200	0.321
-206.421	-200.000	0.031	0.141
-205.406	-200.000	0.016	-0.086
-204.392	-3.614	0.142	-0.097
-203.377	79.825	-0.134	0.142
-202.363	-1.706	0.086	0.060
-201.348	-200.000	0.062	0.302
-200.333	107.470	0.116	0.137
-199.319	50.362	-0.207	0.193
-198.304	-200.000	-0.001	-0.151
-197.290	585.640	-0.104	-0.252
-196.275	-54.664	-0.087	-0.039
-195.260	190.301	0.176	0.261
-194.246	85.871	0.133	0.144
-193.231	184.304	0.048	-0.070
-192.217	-132.706	-0.055	0.007
-191.202	65.280	0.272	-0.272
-190.187	40.375	-0.159	-0.141
-189.173	-11.379	0.028	-0.018
-188.158	385.123	-0.097	-0.198
-187.144	-200.000	0.003	0.126
-186.129	107.202	0.024	-0.028
-185.114	-75.898	0.087	0.031
-184.100	21.276	-0.149	0.119
-183.085	-85.386	0.351	-0.108
-182.071	-200.000	0.003	0.112
-181.056	-96.105	0.198	-0.052
-180.042	-200.000	-0.041	0.194
-179.027	28.891	-0.398	-0.333
-178.012	99.624	0.153	0.175
-176.998	800.000	-0.005	0.017
-175.983	-120.224	-0.091	0.015
-174.969	-111.043	0.346	-0.070
-173.954	85.551	-0.176	-0.191
-172.939	339.460	0.059	-0.113
-171.925	-48.695	0.370	-0.175
-170.910	-33.554	0.272	-0.148
-169.896	-200.000	-0.076	-0.445
-168.881	-24.785	-0.178	-0.104
-167.866	20.199	0.113	0.090
-166.852	146.864	0.089	0.118
-165.837	-44.851	0.099	0.049
-164.823	800.000	-0.108	-0.376
-163.808	17.361	0.104	0.081
-162.793	-109.222	0.338	-0.071
-161.779	-24.750	-0.301	0.176
-160.764	90.013	0.144	0.159
-159.750	619.891	0.037	0.093
-158.735	411.697	-0.161	0.338
-157.720	200.112	-0.116	0.176
-156.706	-200.000	-0.087	0.384
-155.691	-104.647	0.157	0.036
-154.677	-102.542	0.150	0.035
-153.662	-67.507	-0.086	0.033
-152.647	800.000	0.035	0.120
-151.633	156.799	0.084	0.115
-150.618	800.000	-0.066	0.265
-149.604	-200.000	0.328	0.001
-148.589	800.000	-0.090	0.315
-147.574	-105.408	0.074	-0.017
-146.560	2.682	0.139	-0.099
-145.545	-104.539	0.144	0.033
-144.531	-200.000	-0.002	-0.121
-143.516	503.093	-0.055	0.126
-142.502	-98.125	0.361	0.092
-141.487	-67.125	0.181	0.071
-140.472	100.512	-0.099	-0.113
-139.458	-71.921	-0.222	0.081
-138.443	-200.000	-0.041	0.287
-137.429	800.000	-0.043	0.126
-136.414	-200.000	0.019	-0.087
-135.399	-119.133	-0.068	-0.012
-134.385	-200.000	-0.002	0.019
-133.370	-161.721	0.190	-0.010
-132.356	-200.000	0.038	0.175
-131.341	-2.643	0.068	-0.047
-130.326	-200.000	0.023	-0.203
-129.312	-200.000	-0.041	-0.231
-128.297	800.000	0.019	-0.069
-127.283	152.065	-0.201	0.270
-126.268	800.000	0.097	-0.304
-125.253	-101.227	0.318	0.077
-124.239	459.022	0.129	0.283
-123.224	208.628	0.136	-0.209
-122.210	-46.193	0.081	-0.039
-121.195	7.400	0.060	0.044
-120.180	800.000	-0.072	0.287
