DTS Sentinel unit serial number:	SN413079Multiplexer serial number:	ORYXHardware model number:	OX4-SRSoftware version number:	ORYX F/W v4.00 Oryx Data Collector v3.7.2.0data status	okinstallation	princeton_trtdifferential loss correction	single-endedforward channel	channel 2reverse channel	N/Adate	2019/09/11time	17:45:11forward acquisition time	60.00reverse acquisition time	0.00gamma	496.2192k internal	0.2284k external	0.2284temperature offset calibration	1.0021default loss term (dB/km)	0.3790temperature slope calibration	1.0000multiplexer offset coefficient	1.0000multiplexer slope coefficient	1.0000fibre end	0.00T internal ref (°C)	43.89T ext. ref 1 (°C)	1.12T ext. ref 2 (°C)	39.14length (m)	temperature (°C)	Stokes	anti-Stokes-747.200	13.069	0.223	0.178
-746.185	-11.582	-0.111	0.075
-745.171	21.807	-0.124	0.103
-744.156	116.939	-0.047	-0.059
-743.142	-200.000	0.031	0.209
-742.127	99.740	0.165	0.196
-741.112	280.089	-0.127	-0.233
-740.098	-101.699	-0.176	-0.044
-739.083	-56.209	-0.114	0.052
-738.069	-89.719	-0.174	0.052
-737.054	-200.000	0.019	-0.257
-736.039	-127.121	-0.176	-0.026
-735.025	99.756	-0.067	0.079
-734.010	430.058	-0.185	-0.411
-732.996	510.624	-0.044	0.106
-731.981	239.272	0.203	-0.346
-730.966	-17.981	-0.113	-0.073
-729.952	78.363	-0.111	-0.121
-728.937	359.803	-0.092	-0.188
-727.923	219.489	0.085	-0.139
-726.908	508.316	-0.097	-0.232
-725.894	-117.152	-0.218	-0.041
-724.879	-137.101	-0.324	-0.038
-723.864	800.000	-0.112	-0.366
-722.850	800.000	-0.068	-0.284
-721.835	-111.679	-0.365	-0.076
-720.821	162.947	-0.008	-0.011
-719.806	-114.469	-0.170	-0.034
-718.791	-185.671	0.157	-0.002
-717.777	-77.188	-0.025	0.009
-716.762	-95.748	-0.290	0.079
-715.748	-96.785	-0.155	-0.042
-714.733	373.045	-0.168	-0.350
-713.718	-200.000	0.012	-0.401
-712.704	609.143	0.067	0.171
-711.689	800.000	0.065	0.217
-710.675	-62.489	-0.215	-0.092
-709.660	-200.000	-0.004	-0.320
-708.645	-79.951	-0.346	0.119
-707.631	800.000	-0.057	-0.236
-706.616	1.988	-0.157	0.116
-705.602	-200.000	-0.202	-0.000
-704.587	-147.069	0.254	-0.022
-703.572	-79.839	-0.116	-0.040
-702.558	-116.311	-0.295	0.056
-701.543	-29.555	0.117	-0.069
-700.529	800.000	-0.114	0.413
-699.514	-98.658	-0.217	-0.057
-698.499	16.277	0.121	-0.098
-697.485	-50.151	-0.324	-0.157
-696.470	268.165	0.128	-0.229
-695.456	40.825	0.234	0.217
-694.441	41.955	0.148	0.138
-693.426	-3.887	0.025	-0.018
-692.412	57.216	0.231	0.231
-691.397	29.200	0.167	0.145
-690.383	-121.510	-0.161	-0.027
-689.368	800.000	-0.121	-0.407
-688.354	-105.884	0.141	0.033
-687.339	-3.460	-0.201	-0.143
-686.324	-200.000	-0.017	-0.202
-685.310	800.000	0.031	-0.092
-684.295	800.000	-0.079	0.319
-683.281	47.802	-0.347	0.332
-682.266	-200.000	0.053	-0.285
-681.251	48.087	0.060	0.057
-680.237	800.000	-0.027	0.077
-679.222	15.348	-0.109	0.088
-678.208	-15.002	-0.115	0.076
-677.193	-200.000	-0.012	0.262
-676.178	-200.000	-0.064	0.329
-675.164	-53.401	0.128	0.060
-674.149	-200.000	-0.004	-0.320
-673.135	630.987	-0.030	-0.077
-672.120	203.335	0.037	0.059
-671.105	28.003	-0.090	-0.078
-670.091	68.833	-0.086	0.091
-669.076	800.000	0.139	-0.412
-668.062	-122.238	-0.094	0.016
-667.047	-200.000	0.039	0.233
-666.032	-64.819	0.137	-0.057
-665.018	0.698	-0.097	-0.071
-664.003	573.708	0.080	-0.199
-662.989	169.281	-0.182	-0.266
-661.974	-152.310	0.282	-0.021
-660.959	-118.101	-0.317	0.058
-659.945	-200.000	0.085	-0.548
-658.930	-1.217	-0.185	-0.134
-657.916	-29.895	-0.177	-0.103
-656.901	564.187	0.106	0.264
-655.886	-200.000	-0.006	-0.040
-654.872	255.560	0.101	0.178
-653.857	-11.009	0.265	-0.179
-652.843	-8.659	0.127	-0.087
-651.828	-112.375	-0.171	0.035
-650.814	-61.823	0.208	-0.089
-649.799	-69.463	-0.109	-0.043
-648.784	67.505	-0.116	-0.121
-647.770	108.737	-0.029	0.036
-646.755	33.611	0.408	-0.363
-645.741	223.635	0.211	0.348
-644.726	64.928	-0.125	-0.129
-643.711	-33.325	-0.146	0.083
-642.697	140.727	0.140	0.189
-641.682	800.000	-0.056	-0.165
-640.668	-98.786	0.335	0.087
-639.653	23.606	-0.132	-0.112
-638.638	-200.000	0.000	0.140
-637.624	233.285	-0.057	-0.096
-636.609	202.922	-0.227	-0.359
-635.595	-200.000	-0.076	0.418
-634.580	-112.330	-0.243	-0.050
-633.565	298.681	-0.101	0.190
-632.551	-5.057	0.243	0.171
-631.536	-61.703	-0.130	-0.056
-630.522	800.000	-0.064	-0.282
-629.507	800.000	-0.032	-0.101
-628.492	159.771	0.135	-0.193
-627.478	20.065	0.183	-0.151
-626.463	-144.546	-0.157	0.015
-625.449	-200.000	-0.014	-0.155
-624.434	303.435	-0.054	0.103
-623.419	-95.801	-0.275	-0.075
-622.405	-96.490	-0.295	0.080
-621.390	34.054	0.141	0.125
-620.376	-200.000	-0.010	0.047
-619.361	-200.000	0.024	0.424
-618.346	36.007	-0.225	0.202
-617.332	-88.958	-0.216	0.065
-616.317	7.046	-0.085	0.065
-615.303	-192.714	0.338	-0.003
-614.288	800.000	-0.094	-0.326
-613.273	800.000	0.062	-0.181
-612.259	-53.234	0.306	-0.144
-611.244	132.141	0.142	0.187
-610.230	-188.488	-0.475	0.006
-609.215	57.096	0.235	0.234
-608.201	-200.000	-0.001	-0.090
-607.186	-138.438	-0.210	-0.024
-606.171	-200.000	0.010	0.192
-605.157	-144.349	0.022	-0.002
-604.142	800.000	-0.053	0.168
-603.128	800.000	-0.063	-0.274
-602.113	95.085	-0.124	-0.144
-601.098	-200.000	-0.012	-0.157
-600.084	-56.451	0.149	0.068
-599.069	527.546	0.116	-0.280
-598.055	150.163	0.155	-0.215
-597.040	-120.191	-0.176	0.031
-596.025	-144.558	-0.157	-0.015
-595.011	-120.558	-0.048	-0.008
-593.996	-77.640	0.229	0.081
-592.982	195.908	-0.124	0.193
-591.967	-89.373	-0.179	0.054
-590.952	-120.359	-0.332	-0.058
-589.938	757.792	-0.120	-0.332
-588.923	800.000	0.080	0.266
-587.909	653.887	-0.019	-0.051
-586.894	-77.511	-0.254	0.090
-585.879	-200.000	-0.009	0.059
-584.865	13.088	-0.142	-0.112
-583.850	211.754	-0.021	0.033
-582.836	800.000	-0.059	-0.206
-581.821	155.406	-0.060	-0.085
-580.806	-166.370	0.185	0.008
-579.792	55.047	0.073	0.072
-578.777	-15.744	0.250	0.163
-577.763	214.347	-0.077	0.125
-576.748	-200.000	-0.027	-0.217
-575.733	89.571	0.267	0.304
-574.719	-68.125	0.170	0.068
-573.704	35.050	0.199	-0.177
-572.690	-62.121	0.220	-0.094
-571.675	329.676	0.169	0.332
-570.661	50.163	-0.053	-0.051
-569.646	-200.000	-0.005	0.142
-568.631	61.107	-0.207	0.210
-567.617	-32.230	0.520	-0.296
-566.602	430.612	0.058	0.127
-565.588	96.140	0.073	-0.085
-564.573	-200.000	-0.085	-0.400
-563.558	-67.219	-0.278	-0.112
-562.544	342.168	-0.114	-0.228
-561.529	73.226	0.155	-0.165
-560.515	-52.576	0.224	0.105
-559.500	-84.902	-0.168	-0.054
-558.485	-18.523	-0.167	-0.106
-557.471	465.506	0.111	-0.253
-556.456	-142.899	-0.026	-0.003
-555.442	535.008	-0.081	0.195
-554.427	-200.000	-0.020	-0.128
-553.412	-200.000	-0.009	0.163
-552.398	-102.435	0.284	-0.069
-551.383	223.013	0.105	0.172
-550.369	489.443	-0.099	0.231
-549.354	77.937	0.070	0.076
-548.339	800.000	0.033	-0.115
-547.325	-200.000	-0.004	0.355
-546.310	-4.569	-0.079	0.056
-545.296	452.517	0.076	0.170
-544.281	800.000	-0.074	-0.292
-543.266	-177.958	-0.090	0.002
-542.252	184.763	0.100	-0.151
-541.237	124.339	0.065	-0.083
-540.223	800.000	-0.096	-0.311
-539.208	-5.096	0.118	0.082
-538.193	-64.398	0.334	0.139
-537.179	99.870	-0.336	0.396
-536.164	-0.983	-0.197	0.142
-535.150	-127.792	-0.206	0.030
-534.135	-45.526	-0.245	-0.124
-533.121	269.324	-0.054	-0.097
-532.106	-200.000	-0.010	-0.355
-531.091	-53.691	-0.215	-0.100
-530.077	-129.468	0.122	-0.017
-529.062	-95.212	0.082	-0.022
-528.048	800.000	-0.082	-0.261
-527.033	-88.760	0.169	-0.051
-526.018	226.620	0.078	0.129
-525.004	796.491	-0.079	0.221
-523.989	33.741	-0.065	-0.058
-522.975	-98.194	0.244	0.064
-521.960	-153.261	-0.099	0.007
-520.945	-200.000	0.040	0.287
-519.931	118.885	0.030	-0.038
-518.916	189.805	-0.049	0.074
-517.902	-150.144	-0.147	-0.012
-516.887	-97.012	-0.161	-0.043
-515.872	-37.358	0.170	-0.092
-514.858	277.462	0.169	-0.306
-513.843	-200.000	-0.018	0.122
-512.829	-117.078	0.245	-0.045
-511.814	-85.509	0.184	0.058
-510.799	430.971	-0.067	0.148
-509.785	-200.000	-0.026	-0.218
-508.770	669.826	0.078	-0.205
-507.756	-26.234	0.156	-0.093
-506.741	115.836	-0.205	0.255
-505.726	155.050	0.076	0.106
-504.712	330.404	-0.129	-0.253
-503.697	-17.765	0.051	0.033
-502.683	-173.709	0.186	-0.006
-501.668	194.882	0.144	0.223
-500.653	121.457	-0.034	-0.043
-499.639	594.613	-0.110	0.276
-498.624	-200.000	0.060	0.348
-497.610	-48.387	-0.387	-0.190
-496.595	525.570	0.020	0.049
-495.581	-200.000	-0.005	0.364
-494.566	-34.145	0.288	-0.161
-493.551	-200.000	-0.004	-0.167
-492.537	-129.394	-0.195	-0.028
-491.522	-200.000	-0.023	0.149
-490.508	-200.000	0.036	0.380
-489.493	-123.177	0.209	0.034
-488.478	-56.810	-0.340	0.153
-487.464	-79.032	-0.257	-0.089
-486.449	-200.000	-0.003	-0.436
-485.435	-200.000	0.009	0.107
-484.420	150.456	-0.140	-0.193
-483.405	-200.000	-0.044	-0.205
-482.391	-200.000	0.041	0.276
-481.376	-106.105	-0.081	0.018
-480.362	-200.000	-0.006	-0.194
-479.347	-124.832	0.364	-0.057
-478.332	-118.885	-0.212	0.038
-477.318	-136.849	0.310	-0.036
-476.303	-107.560	0.268	0.060
-475.289	-200.000	0.004	-0.157
-474.274	40.083	0.085	-0.078
-473.259	-200.000	-0.025	-0.169
-472.245	-15.237	-0.265	0.172
-471.230	2.480	0.156	0.115
-470.216	-40.017	0.143	0.076
-469.201	800.000	0.089	-0.278
-468.186	-26.501	-0.137	-0.081
-467.172	-200.000	0.052	-0.242
-466.157	-200.000	0.032	-0.211
-465.143	-200.000	-0.029	0.203
-464.128	-200.000	-0.014	-0.249
-463.113	-122.862	-0.275	0.045
-462.099	-48.582	-0.184	0.090
-461.084	257.292	-0.116	0.203
-460.070	267.296	-0.116	0.206
-459.055	131.788	0.089	0.116
-458.040	149.803	0.148	0.204
-457.026	145.049	-0.115	0.156
-456.011	-200.000	0.047	-0.348
-454.997	800.000	0.077	0.294
-453.982	-164.448	-0.134	0.006
-452.968	153.410	0.191	-0.266
-451.953	243.065	-0.012	-0.020
-450.938	100.129	-0.063	0.074
-449.924	-53.883	0.084	0.039
-448.909	-66.841	0.182	-0.073
-447.895	118.225	0.050	0.063
-446.880	-98.930	0.187	-0.048
-445.865	-110.920	-0.171	0.036
-444.851	-2.349	0.304	-0.216
-443.836	-72.742	-0.473	-0.177
-442.822	-151.327	-0.146	0.011
-441.807	-165.224	0.242	-0.011
-440.792	-200.000	-0.013	0.185
-439.778	800.000	0.075	-0.328
-438.763	154.750	-0.024	-0.033
-437.749	104.355	0.028	0.034
-436.734	78.283	-0.213	-0.230
-435.719	348.671	0.128	-0.256
-434.705	800.000	-0.109	0.340
-433.690	-61.962	-0.130	0.055
-432.676	12.445	0.155	0.121
-431.661	519.268	-0.130	0.310
-430.646	374.579	-0.088	0.182
-429.632	800.000	-0.088	-0.378
-428.617	474.948	0.022	-0.051
-427.603	-118.935	0.059	-0.011
-426.588	52.012	0.074	0.071
-425.573	-92.715	-0.296	-0.084
-424.559	169.488	-0.197	0.286
-423.544	-172.185	0.342	-0.011
-422.530	4.685	0.145	0.108
-421.515	43.827	-0.184	0.171
-420.500	486.867	0.088	0.203
-419.486	-157.833	0.431	0.026
-418.471	35.347	0.163	0.145
-417.457	108.173	-0.244	-0.295
-416.442	-83.544	0.141	0.046
-415.428	407.332	0.098	0.210
-414.413	-35.944	0.361	0.198
-413.398	800.000	0.054	0.188
-412.384	46.110	0.375	0.352
-411.369	-36.083	0.011	0.006
-410.355	5.275	0.183	-0.137
-409.340	-200.000	0.004	-0.121
-408.325	188.886	-0.036	0.054
-407.311	87.903	-0.023	0.026
-406.296	524.056	-0.038	-0.091
-405.282	-200.000	0.010	-0.207
-404.267	-91.926	0.066	-0.019
-403.252	-200.000	-0.013	-0.159
-402.238	318.074	-0.087	-0.167
-401.223	-25.755	-0.280	0.167
-400.209	-184.390	-0.290	-0.005
-399.194	-200.000	-0.059	-0.395
-398.179	118.380	-0.102	-0.127
-397.165	-109.598	-0.234	0.050
-396.150	154.480	0.100	0.139
-395.136	737.382	-0.072	0.196
-394.121	-48.556	-0.116	-0.056
-393.106	33.149	-0.168	-0.148
-392.092	-63.892	-0.255	0.106
-391.077	-62.297	0.289	-0.122
-390.063	-25.759	0.120	-0.072
-389.048	-137.416	0.288	-0.033
-388.033	-145.437	-0.140	-0.013
-387.019	-123.741	-0.371	0.059
-386.004	247.068	0.154	0.263
-384.990	-19.671	-0.094	-0.059
-383.975	210.791	-0.187	-0.297
-382.960	147.775	0.116	0.159
-381.946	33.078	-0.187	0.164
-380.931	105.816	0.273	0.328
-379.917	-88.208	0.130	-0.039
-378.902	779.515	0.051	0.141
-377.888	-56.120	-0.235	-0.106
-376.873	-200.000	-0.021	0.328
-375.858	-56.287	0.158	-0.071
-374.844	2.798	-0.255	-0.187
-373.829	-88.690	-0.407	0.123
-372.815	190.439	0.034	0.051
-371.800	611.181	0.132	-0.335
-370.785	-53.121	0.312	-0.145
-369.771	-44.599	-0.130	-0.066
-368.756	-182.290	0.203	0.004
-367.742	117.815	-0.201	-0.250
-366.727	108.127	0.111	-0.134
-365.712	699.822	0.076	-0.203
-364.698	800.000	0.134	-0.407
-363.683	657.220	0.100	-0.261
-362.669	-200.000	-0.079	-0.362
-361.654	417.457	-0.171	0.370
-360.639	-33.337	0.018	0.010
-359.625	47.237	0.176	0.166
-358.610	800.000	-0.003	-0.008
-357.596	202.846	0.223	0.348
-356.581	-71.680	-0.301	0.114
-355.566	404.412	0.062	0.132
-354.552	-114.660	0.319	-0.062
-353.537	85.199	0.166	0.185
-352.523	800.000	0.048	0.156
-351.508	21.971	0.234	-0.193
-350.493	-200.000	0.002	-0.071
-349.479	28.072	-0.134	-0.114
-348.464	-200.000	0.016	0.169
-347.450	-64.191	0.283	-0.117
-346.435	148.033	-0.102	0.139
-345.420	-200.000	-0.028	0.209
-344.406	-145.196	-0.062	-0.006
-343.391	101.924	-0.143	0.169
-342.377	135.394	-0.131	-0.173
-341.362	-200.000	0.019	-0.207
-340.348	-52.308	-0.250	-0.117
-339.333	-64.910	0.156	-0.064
-338.318	110.624	0.042	-0.051
-337.304	-18.316	0.139	-0.088
-336.289	-104.757	0.384	0.089
-335.275	50.467	0.198	-0.189
-334.260	3.426	-0.150	-0.111
-333.245	-63.185	-0.180	-0.075
-332.231	33.794	0.141	-0.124
-331.216	-103.294	0.174	0.041
-330.202	40.340	-0.128	0.117
-329.187	-81.007	0.312	0.104
-328.172	800.000	-0.130	-0.412
-327.158	-89.137	-0.166	-0.049
-326.143	-200.000	-0.004	-0.352
-325.129	-200.000	0.095	-0.512
-324.114	604.434	0.127	0.320
-323.099	0.156	0.101	0.073
-322.085	800.000	-0.087	0.281
-321.070	-169.101	0.208	0.008
-320.056	-61.532	0.180	-0.076
-319.041	99.281	-0.184	-0.215
-318.026	-6.766	0.039	0.027
-317.012	48.556	0.074	0.070
-315.997	-140.173	-0.316	-0.034
-314.983	-200.000	0.017	0.081
-313.968	288.548	-0.091	0.166
-312.953	182.844	0.116	0.174
-311.939	-62.551	-0.212	0.089
-310.924	-200.000	-0.016	-0.102
-309.910	-200.000	-0.055	-0.315
-308.895	-47.870	-0.210	0.103
-307.880	-139.848	0.104	-0.011
-306.866	-86.022	0.196	0.061
-305.851	-200.000	-0.021	-0.171
-304.837	-200.000	-0.047	-0.551
-303.822	76.265	-0.261	0.279
-302.807	-176.209	-0.048	0.001
-301.793	800.000	-0.113	0.463
-300.778	-200.000	-0.018	0.141
-299.764	35.347	0.106	0.094
-298.749	-139.271	-0.208	-0.023
-297.735	762.079	0.012	0.033
-296.720	-200.000	-0.018	-0.082
-295.705	-35.173	0.087	0.048
-294.691	26.426	0.095	-0.080
-293.676	211.848	0.070	0.111
-292.662	-159.757	-0.236	-0.013
-291.647	-105.260	-0.173	-0.040
-290.632	-28.243	0.158	0.092
-289.618	702.277	-0.062	0.166
-288.603	800.000	-0.055	0.230
-287.589	369.853	0.084	-0.172
-286.574	-200.000	0.026	0.125
-285.559	11.616	0.130	0.101
-284.545	-159.461	-0.252	-0.014
-283.530	-96.050	-0.280	0.075
-282.516	-116.047	-0.361	-0.068
-281.501	-200.000	0.001	0.064
-280.486	-51.963	-0.444	0.208
-279.472	88.809	0.263	0.295
-278.457	83.395	-0.049	-0.054
-277.443	-7.195	0.232	0.158
-276.428	-64.910	0.016	-0.006
-275.413	-148.404	0.161	0.013
-274.399	174.607	0.108	0.157
-273.384	800.000	-0.098	-0.328
-272.370	-200.000	0.051	0.333
-271.355	200.420	0.026	0.041
-270.340	126.362	0.030	-0.038
-269.326	-200.000	0.010	-0.219
-268.311	-17.488	-0.060	0.038
-267.297	225.320	0.048	0.078
-266.282	-178.215	0.052	-0.001
-265.267	-24.411	-0.185	-0.111
-264.253	800.000	-0.110	-0.352
-263.238	-113.564	-0.087	-0.017
-262.224	-66.329	-0.152	0.061
-261.209	141.839	0.050	-0.066
-260.195	0.374	-0.112	-0.080
-259.180	-149.248	-0.105	0.008
-258.165	22.858	-0.260	0.215
-257.151	611.139	-0.021	0.052
-256.136	-47.110	-0.276	0.135
-255.122	520.050	-0.070	-0.166
-254.107	-11.790	-0.102	-0.067
-253.092	-134.671	0.107	-0.013
-252.078	599.376	0.077	-0.193
-251.063	562.171	-0.085	-0.207
-250.049	-77.230	0.172	0.060
-249.034	-151.626	0.331	-0.025
-248.019	800.000	0.052	-0.215
-247.005	176.033	0.099	0.145
-245.990	199.446	0.093	-0.143
-244.976	-130.816	-0.088	-0.012
-243.961	-2.101	0.067	0.047
-242.946	800.000	0.026	-0.081
-241.932	-67.121	-0.091	-0.036
-240.917	191.497	-0.070	0.107
-239.903	23.139	0.094	0.078
-238.888	-200.000	0.090	0.000
-237.873	76.964	0.073	0.078
-236.859	-0.310	0.186	0.133
-235.844	-13.808	0.097	-0.063
-234.830	-11.671	-0.102	0.068
-233.815	62.050	-0.106	-0.107
-232.800	-200.000	0.065	0.353
-231.786	-83.119	0.246	0.080
-230.771	71.654	-0.118	0.123
-229.757	800.000	0.051	0.153
-228.742	-36.496	0.452	0.245
-227.727	-124.468	0.249	0.039
-226.713	329.792	-0.189	0.366
-225.698	-200.000	0.001	-0.266
-224.684	-33.053	0.185	-0.103
-223.669	21.283	-0.163	-0.134
-222.655	-2.948	-0.131	-0.092
-221.640	125.908	-0.064	-0.082
-220.625	20.830	-0.330	0.269
-219.611	800.000	0.054	0.220
-218.596	-181.761	-0.275	0.005
-217.582	138.803	0.124	0.163
-216.567	23.046	0.075	0.062
-215.552	-200.000	-0.018	0.362
-214.538	-163.102	0.269	-0.013
-213.523	-200.000	0.013	0.348
-212.509	-5.343	-0.300	0.207
-211.494	252.885	-0.075	-0.129
-210.479	72.592	0.194	-0.203
-209.465	48.705	0.117	-0.111
-208.450	277.781	0.055	0.098
-207.436	-81.506	-0.135	0.045
-206.421	185.775	-0.103	-0.155
-205.406	-200.000	-0.061	-0.656
-204.392	185.365	0.245	-0.367
-203.377	-200.000	-0.029	0.294
-202.363	-176.328	-0.074	-0.002
-201.348	90.658	-0.060	0.067
-200.333	11.157	-0.096	-0.074
-199.319	-127.573	-0.350	-0.051
-198.304	379.613	-0.135	-0.279
-197.290	-55.194	0.321	-0.145
-196.275	-134.602	-0.251	0.031
-195.260	-65.482	0.452	0.182
-194.246	26.751	0.098	0.082
-193.231	280.081	0.176	0.316
-192.217	372.755	-0.070	0.144
-191.202	12.959	-0.336	-0.262
-190.187	-162.872	0.230	0.011
-189.173	-165.704	-0.173	0.008
-188.158	-28.725	0.059	-0.034
-187.144	127.948	0.103	-0.132
-186.129	-55.465	0.277	-0.125
-185.114	-81.570	-0.352	0.116
-184.100	-24.796	0.161	0.096
-183.085	-200.000	0.030	0.160
-182.071	-190.211	0.492	0.005
-181.056	159.027	0.090	0.126
-180.042	125.976	-0.043	0.055
-179.027	-83.930	0.212	0.068
-178.012	200.380	-0.159	-0.245
-176.998	-11.663	-0.010	0.007
-175.983	-30.464	-0.169	0.096
-174.969	-5.262	-0.102	-0.070
-173.954	432.607	0.157	-0.343
-172.939	-42.054	-0.090	-0.046
-171.925	-53.477	0.205	-0.094
-170.910	-7.385	0.089	-0.061
-169.896	-151.823	-0.246	-0.018
-168.881	-112.669	-0.266	-0.053
-167.866	-200.000	-0.086	0.404
-166.852	-47.142	-0.283	0.139
-165.837	549.049	0.057	-0.138
-164.823	102.091	0.070	-0.083
-163.808	800.000	0.129	0.431
-162.793	191.457	0.035	-0.053
-161.779	-70.711	0.163	0.062
-160.764	353.231	0.138	-0.275
-159.750	-182.364	-0.270	0.005
-158.735	292.417	0.118	0.216
-157.720	-20.640	-0.196	-0.121
-156.706	397.238	0.030	0.063
-155.691	163.368	0.113	-0.160
-154.677	-55.852	0.091	-0.041
-153.662	-64.235	0.274	0.112
-152.647	-62.735	-0.143	-0.059
-151.633	-200.000	-0.024	-0.162
-150.618	-26.824	0.177	-0.104
-149.604	108.475	0.092	0.110
-148.589	308.463	-0.080	0.150
-147.574	12.521	0.169	0.130
-146.560	154.770	-0.094	0.130
-145.545	-127.587	-0.148	-0.022
-144.531	-29.308	0.234	0.134
-143.516	-200.000	-0.014	-0.122
-142.502	-200.000	-0.026	0.215
-141.487	-81.274	0.241	0.080
-140.472	800.000	0.092	0.266
-139.458	28.282	0.106	-0.090
-138.443	161.212	-0.113	-0.159
-137.429	99.649	0.134	0.156
-136.414	637.681	-0.028	-0.072
-135.399	203.465	0.024	0.037
-134.385	-107.907	-0.148	0.032
-133.370	-200.000	-0.032	-0.151
-132.356	-54.834	0.167	-0.076
-131.341	-59.728	-0.204	0.088
-130.326	-94.163	-0.111	0.030
-129.312	-136.705	0.168	0.019
-128.297	-54.822	0.026	-0.012
-127.283	800.000	-0.066	-0.241
-126.268	2.256	0.174	-0.126
-125.253	125.501	-0.011	-0.013
-124.239	56.099	-0.079	-0.077
-123.224	-200.000	0.034	0.262
-122.210	-8.013	0.216	-0.146
