DTS Sentinel unit serial number:	SN413079Multiplexer serial number:	ORYXHardware model number:	OX4-SRSoftware version number:	ORYX F/W v4.00 Oryx Data Collector v3.7.2.0data status	okinstallation	princeton_trtdifferential loss correction	single-endedforward channel	channel 2reverse channel	N/Adate	2019/09/18time	21:51:35forward acquisition time	60.00reverse acquisition time	0.00gamma	496.2192k internal	0.2348k external	0.2348temperature offset calibration	1.0016default loss term (dB/km)	0.3790temperature slope calibration	1.0000multiplexer offset coefficient	1.0000multiplexer slope coefficient	1.0000fibre end	0.00T internal ref (°C)	24.75T ext. ref 1 (°C)	0.81T ext. ref 2 (°C)	18.31length (m)	temperature (°C)	Stokes	anti-Stokes-747.200	-200.000	0.034	0.347
-746.185	-200.000	-0.022	0.297
-745.171	48.508	-0.099	-0.093
-744.156	130.180	0.058	-0.074
-743.142	-12.855	-0.025	0.016
-742.127	97.339	-0.143	-0.164
-741.112	-156.931	0.038	0.002
-740.098	248.811	-0.179	-0.303
-739.083	-200.000	-0.026	0.154
-738.069	-200.000	0.057	-0.274
-737.054	639.644	0.051	0.131
-736.039	-48.691	-0.271	-0.130
-735.025	-73.172	0.155	-0.057
-734.010	24.483	0.183	-0.151
-732.996	105.706	0.061	-0.072
-731.981	711.708	-0.107	0.284
-730.966	-124.321	-0.371	-0.058
-729.952	-150.490	0.093	0.007
-728.937	-200.000	-0.023	-0.235
-727.923	-200.000	0.055	-0.393
-726.908	191.661	-0.117	0.176
-725.894	170.195	0.180	0.257
-724.879	346.761	0.138	0.271
-723.864	536.825	-0.097	-0.231
-722.850	603.229	0.089	-0.220
-721.835	-117.117	0.238	0.043
-720.821	-104.638	-0.252	-0.058
-719.806	-59.862	-0.350	-0.150
-718.791	-166.122	0.151	-0.006
-717.777	-111.008	0.285	0.058
-716.762	248.257	-0.083	-0.141
-715.748	-200.000	-0.013	0.182
-714.733	-200.000	0.067	-0.339
-713.718	800.000	-0.037	-0.136
-712.704	-120.281	0.163	-0.028
-711.689	192.275	-0.119	0.179
-710.675	-200.000	-0.064	0.350
-709.660	-141.357	-0.266	0.027
-708.645	11.130	-0.140	0.107
-707.631	800.000	0.065	-0.215
-706.616	-118.977	0.290	0.051
-705.602	-126.429	0.031	-0.005
-704.587	150.509	-0.077	-0.104
-703.572	82.038	-0.304	-0.329
-702.558	800.000	0.040	-0.163
-701.543	-200.000	-0.043	-0.297
-700.529	-151.601	0.155	-0.011
-699.514	-200.000	-0.031	-0.137
-698.499	-140.113	-0.267	0.028
-697.485	-200.000	0.003	-0.019
-696.470	2.923	0.146	-0.106
-695.456	-112.939	-0.053	0.010
-694.441	-157.162	-0.299	0.018
-693.426	-200.000	0.004	-0.168
-692.412	-200.000	0.000	-0.017
-691.397	707.630	0.151	-0.399
-690.383	-62.774	-0.172	-0.071
-689.368	-114.768	0.273	0.052
-688.354	399.583	0.167	-0.349
-687.339	-200.000	0.013	-0.090
-686.324	800.000	-0.109	0.469
-685.310	-135.754	-0.171	-0.020
-684.295	-200.000	-0.035	-0.187
-683.281	-97.892	0.105	0.027
-682.266	800.000	0.029	0.112
-681.251	55.337	0.087	-0.084
-680.237	-41.619	0.389	-0.199
-679.222	-7.323	-0.124	0.083
-678.208	-144.883	-0.371	-0.034
-677.193	290.482	0.100	-0.181
-676.178	-57.580	-0.230	0.101
-675.164	-46.477	0.020	-0.010
-674.149	99.777	0.038	-0.044
-673.135	-200.000	-0.013	-0.306
-672.120	284.476	0.030	-0.054
-671.105	39.664	-0.034	-0.031
-670.091	-136.683	0.103	0.012
-669.076	-200.000	0.019	-0.143
-668.062	76.956	-0.080	-0.085
-667.047	-39.767	0.017	0.009
-666.032	-200.000	-0.017	0.228
-665.018	-113.029	-0.095	-0.019
-664.003	-199.228	0.480	-0.003
-662.989	-200.000	-0.000	0.011
-661.974	283.916	0.178	-0.318
-660.959	-43.578	0.403	-0.202
-659.945	-37.187	0.050	-0.027
-658.930	-69.762	-0.281	-0.107
-657.916	-166.292	0.014	0.001
-656.901	269.454	-0.048	0.084
-655.886	41.585	0.151	-0.137
-654.872	-59.935	-0.206	0.088
-653.857	-98.962	-0.188	-0.047
-652.843	24.147	-0.165	0.135
-651.828	-24.057	0.099	0.059
-650.814	-93.278	-0.365	-0.101
-649.799	364.952	0.124	-0.248
-648.784	-8.728	-0.271	-0.181
-647.770	413.943	0.079	-0.167
-646.755	-72.096	0.053	-0.020
-645.741	324.690	0.072	0.137
-644.726	-27.289	-0.121	0.070
-643.711	-200.000	0.023	0.176
-642.697	376.357	0.056	0.113
-641.682	290.945	-0.159	-0.287
-640.668	236.030	0.118	-0.193
-639.653	83.728	-0.259	-0.281
-638.638	-200.000	-0.051	0.256
-637.624	100.397	-0.169	0.195
-636.609	-200.000	-0.024	-0.119
-635.595	-200.000	-0.025	-0.386
-634.580	-200.000	-0.009	-0.124
-633.565	124.695	0.404	0.507
-632.551	2.223	-0.139	0.100
-631.536	115.891	0.082	0.099
-630.522	800.000	0.102	-0.378
-629.507	-1.183	-0.021	-0.015
-628.492	39.905	0.094	0.084
-627.478	394.440	0.124	-0.257
-626.463	159.995	0.052	-0.073
-625.449	-200.000	-0.013	-0.229
-624.434	-163.193	-0.230	0.011
-623.419	-117.618	-0.297	-0.053
-622.405	-18.739	-0.179	-0.111
-621.390	-200.000	-0.010	-0.080
-620.376	94.434	-0.148	-0.168
-619.361	-138.068	0.182	0.020
-618.346	-200.000	-0.004	-0.182
-617.332	-15.215	-0.365	-0.232
-616.317	-200.000	0.015	0.266
-615.303	800.000	-0.079	-0.226
-614.288	-200.000	-0.010	0.071
-613.273	23.935	-0.089	-0.073
-612.259	-93.540	0.105	-0.029
-611.244	-200.000	0.040	0.175
-610.230	-134.014	0.188	0.023
-609.215	-142.076	-0.180	0.018
-608.201	-200.000	-0.062	0.371
-607.186	56.557	0.059	-0.057
-606.171	-200.000	-0.009	0.335
-605.157	204.393	0.199	-0.306
-604.142	134.100	0.045	0.057
-603.128	800.000	0.037	0.158
-602.113	17.644	0.196	-0.155
-601.098	-40.533	-0.225	0.116
-600.084	276.345	0.082	0.145
-599.069	-49.230	-0.286	0.136
-598.055	235.716	0.162	-0.266
-597.040	96.019	-0.086	-0.098
-596.025	125.745	0.070	-0.088
-595.011	-200.000	0.022	-0.247
-593.996	-98.296	-0.139	0.036
-592.982	-152.235	-0.326	0.023
-591.967	800.000	0.077	0.224
-590.952	-200.000	-0.083	0.465
-589.938	145.932	0.081	0.108
-588.923	150.060	-0.061	0.082
-587.909	800.000	0.050	0.164
-586.894	-200.000	-0.021	-0.290
-585.879	-156.743	0.223	0.014
-584.865	160.343	0.135	-0.187
-583.850	-200.000	0.001	0.193
-582.836	-200.000	0.035	0.209
-581.821	-157.996	0.434	-0.025
-580.806	79.647	-0.181	-0.193
-579.792	21.511	-0.127	0.102
-578.777	305.908	0.069	-0.127
-577.763	117.277	0.078	0.095
-576.748	-77.638	0.135	0.046
-575.733	50.638	-0.144	-0.135
-574.719	-60.725	0.217	0.091
-573.704	-200.000	0.000	0.273
-572.690	-136.506	0.338	-0.039
-571.675	-141.894	-0.316	0.031
-570.661	-200.000	-0.062	0.324
-569.646	-160.577	-0.042	-0.002
-568.631	-52.071	0.132	0.061
-567.617	-131.350	0.273	-0.036
-566.602	-86.168	-0.118	0.036
-565.588	2.574	-0.087	-0.063
-564.573	-200.000	0.021	0.270
-563.558	-200.000	0.046	0.232
-562.544	98.833	-0.133	0.152
-561.529	-200.000	0.042	0.192
-560.515	-200.000	0.055	0.423
-559.500	-113.203	-0.103	-0.020
-558.485	441.407	-0.060	-0.131
-557.471	-200.000	0.042	0.187
-556.456	2.380	-0.276	0.198
-555.442	800.000	0.127	-0.373
-554.427	-20.681	-0.211	-0.128
-553.412	66.388	-0.185	0.186
-552.398	-200.000	0.026	-0.306
-551.383	-200.000	-0.037	-0.357
-550.369	421.104	0.096	-0.204
-549.354	134.543	0.238	-0.307
-548.339	-200.000	-0.045	-0.213
-547.325	61.776	-0.241	0.238
-546.310	10.998	-0.271	-0.205
-545.296	-128.479	-0.320	0.045
-544.281	-200.000	0.013	0.060
-543.266	531.983	0.019	0.045
-542.252	36.779	0.077	0.068
-541.237	-117.209	0.242	0.044
-540.223	141.543	-0.173	0.228
-539.208	800.000	-0.069	0.227
-538.193	603.601	0.088	0.218
-537.179	59.872	-0.219	0.214
-536.164	96.239	0.324	-0.367
-535.150	-200.000	-0.064	0.326
-534.135	3.871	0.243	0.176
-533.121	-96.228	-0.110	-0.029
-532.106	-200.000	0.045	0.355
-531.091	-42.066	0.100	0.051
-530.077	800.000	-0.049	0.181
-529.062	-200.000	0.038	0.246
-528.048	11.294	0.206	-0.156
-527.033	26.906	0.152	-0.127
-526.018	84.362	0.072	0.078
-525.004	-189.297	0.498	0.006
-523.989	-96.042	-0.202	0.053
-522.975	-0.886	-0.411	0.288
-521.960	45.923	0.168	0.154
-520.945	67.622	-0.284	0.287
-519.931	202.275	0.131	0.200
-518.916	800.000	0.063	0.192
-517.902	121.522	-0.250	-0.308
-516.887	-200.000	0.004	0.039
-515.872	80.294	0.078	0.083
-514.858	-90.964	0.128	-0.036
-513.843	-136.297	-0.221	-0.026
-512.829	-200.000	0.057	-0.295
-511.814	336.035	0.068	-0.132
-510.799	-200.000	-0.002	-0.242
-509.785	-43.852	-0.204	-0.102
-508.770	800.000	-0.108	-0.309
-507.756	-177.107	0.209	0.005
-506.741	-66.466	0.123	-0.048
-505.726	-200.000	0.036	0.286
-504.712	-22.840	-0.157	0.094
-503.697	343.474	-0.086	0.167
-502.683	196.510	-0.155	-0.234
-501.668	-101.347	0.242	0.058
-500.653	-52.967	0.308	-0.140
-499.639	-120.276	0.086	-0.015
-498.624	177.438	0.033	0.047
-497.610	61.303	-0.124	-0.122
-496.595	-60.525	0.136	0.057
-495.581	-67.914	-0.163	0.063
-494.566	626.454	0.154	-0.386
-493.551	-200.000	0.011	-0.257
-492.537	453.650	-0.191	-0.418
-491.522	-200.000	-0.051	0.296
-490.508	46.284	0.222	-0.203
-489.493	1.409	-0.141	-0.101
-488.478	41.545	-0.093	-0.084
-487.464	-30.021	-0.080	0.045
-486.449	-125.472	0.202	0.030
-485.435	800.000	-0.087	-0.299
-484.420	-197.978	0.198	-0.001
-483.405	-52.620	-0.080	-0.037
-482.391	-69.758	0.102	-0.039
-481.376	199.044	-0.081	-0.123
-480.362	-10.329	-0.089	-0.058
-479.347	95.194	0.120	-0.135
-478.332	290.122	-0.051	0.091
-477.318	212.870	0.075	-0.117
-476.303	-61.985	-0.305	-0.126
-475.289	-80.282	-0.494	-0.163
-474.274	800.000	-0.025	0.084
-473.259	-156.263	0.165	0.010
-472.245	-45.541	-0.314	-0.154
-471.230	1.426	0.210	-0.149
-470.216	-144.291	0.305	0.028
-469.201	-200.000	-0.001	0.362
-468.186	-3.254	0.258	-0.178
-467.172	-116.837	0.053	0.010
-466.157	612.672	0.067	-0.165
-465.143	100.277	-0.108	0.124
-464.128	-200.000	-0.050	0.338
-463.113	-161.674	0.327	-0.017
-462.099	131.126	0.237	-0.301
-461.084	126.469	0.061	0.076
-460.070	-18.220	-0.335	0.207
-459.055	127.045	-0.180	-0.226
-458.040	-200.000	-0.041	-0.435
-457.026	-99.850	-0.406	-0.100
-456.011	14.018	0.193	-0.148
-454.997	-200.000	0.006	-0.187
-453.982	-80.668	0.130	-0.043
-452.968	-200.000	0.055	-0.310
-451.953	29.917	-0.101	0.085
-450.938	-98.179	0.126	-0.032
-449.924	358.458	0.128	0.252
-448.909	-68.856	-0.111	-0.042
-447.895	163.017	-0.060	-0.083
-446.880	48.779	0.182	-0.169
-445.865	-38.482	0.358	0.187
-444.851	-93.506	0.096	0.026
-443.836	800.000	0.063	-0.231
-442.822	-104.979	0.152	-0.034
-441.807	-200.000	-0.003	0.044
-440.792	752.466	-0.053	-0.142
-439.778	-98.755	0.173	-0.043
-438.763	-42.432	-0.317	-0.160
-437.749	800.000	-0.107	-0.361
-436.734	326.818	-0.066	0.124
-435.719	-200.000	0.001	0.104
-434.705	-38.978	-0.167	-0.087
-433.690	198.408	-0.196	0.297
-432.676	800.000	-0.052	0.222
-431.661	-30.702	-0.242	-0.135
-430.646	-200.000	-0.047	-0.236
-429.632	564.635	0.051	-0.123
-428.617	-105.903	-0.073	-0.016
-427.603	-49.392	0.158	-0.074
-426.588	35.162	0.276	0.239
-425.573	-153.997	-0.226	0.015
-424.559	800.000	0.025	-0.104
-423.544	-200.000	-0.069	0.349
-422.530	-38.107	-0.248	0.130
-421.515	-200.000	-0.034	-0.281
-420.500	-200.000	0.082	-0.356
-419.486	800.000	-0.048	0.156
-418.471	-61.445	0.170	0.071
-417.457	-145.174	0.292	-0.026
-416.442	-67.447	-0.242	-0.094
-415.428	-24.886	-0.242	0.142
-414.413	640.325	-0.086	0.215
-413.398	342.895	-0.081	0.157
-412.384	-200.000	-0.050	-0.312
-411.369	247.677	-0.138	0.229
-410.355	386.614	-0.013	0.026
-409.340	-64.908	-0.137	-0.055
-408.325	-200.000	0.005	-0.177
-407.311	254.309	-0.032	-0.053
-406.296	-44.027	-0.332	0.164
-405.282	172.797	-0.170	0.241
-404.267	179.133	0.051	0.074
-403.252	-200.000	0.021	-0.366
-402.238	12.551	0.145	-0.111
-401.223	-40.299	-0.132	0.068
-400.209	-130.388	0.242	0.032
-399.194	312.996	0.105	-0.195
-398.179	-108.379	0.105	-0.022
-397.165	-57.271	0.149	0.065
-396.150	-167.577	-0.186	-0.007
-395.136	602.266	0.142	0.349
-394.121	-83.696	-0.076	-0.024
-393.106	-38.114	-0.132	0.069
-392.092	-200.000	-0.088	0.766
-391.077	303.624	-0.068	-0.124
-390.063	153.845	0.160	0.217
-389.048	-33.544	0.230	0.125
-388.033	67.540	-0.218	-0.219
-387.019	-106.096	0.538	-0.119
-386.004	-200.000	0.017	0.249
-384.990	-192.608	-0.209	-0.002
-383.975	-90.506	0.219	0.063
-382.960	-59.731	0.348	0.147
-381.946	-77.827	0.124	0.042
-380.931	800.000	-0.063	-0.246
-379.917	-83.275	0.201	-0.063
-378.902	-156.333	-0.373	0.023
-377.888	243.934	-0.148	-0.244
-376.873	2.016	0.189	-0.134
-375.858	-64.963	-0.321	-0.128
-374.844	27.632	0.136	0.113
-373.829	800.000	-0.101	0.303
-372.815	316.939	0.032	0.060
-371.800	-155.949	-0.212	-0.013
-370.785	-82.671	-0.195	0.062
-369.771	-122.588	0.287	-0.046
-368.756	12.204	-0.108	0.082
-367.742	-116.651	0.073	-0.013
-366.727	-120.601	0.398	-0.066
-365.712	-194.392	0.166	0.001
-364.698	-12.732	-0.145	-0.093
-363.683	86.094	0.239	-0.259
-362.669	34.606	-0.123	-0.106
-361.654	113.934	-0.134	-0.161
-360.639	-120.620	0.142	0.024
-359.625	-83.001	-0.158	0.050
-358.610	800.000	-0.084	0.256
-357.596	-44.156	0.232	-0.115
-356.581	30.153	-0.170	0.143
-355.566	-60.018	0.288	-0.121
-354.552	696.523	0.050	0.128
-353.537	-165.257	0.148	-0.006
-352.523	204.372	-0.062	0.095
-351.508	3.291	0.034	0.024
-350.493	-200.000	0.016	-0.341
-349.479	496.908	0.071	-0.162
-348.464	-142.016	0.202	0.020
-347.450	54.806	-0.314	-0.298
-346.435	613.564	-0.082	0.202
-345.420	180.867	0.088	0.127
-344.406	-34.218	0.041	-0.022
-343.391	-2.416	-0.221	0.152
-342.377	-129.104	0.162	0.022
-341.362	46.549	-0.107	0.098
-340.348	41.268	0.072	0.064
-339.333	-53.919	0.143	-0.064
-338.318	-44.544	0.184	0.090
-337.304	-59.129	0.107	0.045
-336.289	-200.000	-0.004	-0.262
-335.275	-117.389	-0.315	0.056
-334.260	-200.000	0.027	-0.230
-333.245	-178.275	0.031	0.001
-332.231	-93.137	0.378	0.104
-331.216	-200.000	-0.001	0.142
-330.202	50.069	-0.126	0.117
-329.187	-5.936	0.289	-0.194
-328.172	800.000	0.034	-0.123
-327.158	-121.633	-0.079	-0.013
-326.143	126.676	-0.172	0.214
-325.129	800.000	0.043	0.183
-324.114	-200.000	0.002	-0.241
-323.099	800.000	-0.041	0.155
-322.085	800.000	0.077	0.213
-321.070	129.192	-0.066	-0.083
-320.056	-135.516	-0.598	0.070
-319.041	-76.818	0.441	0.152
-318.026	-65.608	0.103	-0.041
-317.012	-37.043	0.120	0.063
-315.997	-43.946	-0.279	0.138
-314.983	123.709	-0.066	0.081
-313.968	394.347	0.130	-0.267
-312.953	320.059	-0.121	0.226
-311.939	711.760	-0.041	-0.107
-310.924	366.938	-0.077	0.152
-309.910	-200.000	0.009	-0.352
-308.895	-16.736	-0.136	-0.085
-307.880	527.466	-0.123	-0.285
-306.866	-200.000	0.005	-0.266
-305.851	32.527	0.125	-0.106
-304.837	-200.000	-0.064	0.464
-303.822	-116.880	0.101	-0.018
-302.807	313.120	0.122	-0.225
-301.793	-10.450	-0.213	-0.139
-300.778	-133.099	-0.307	-0.038
-299.764	441.919	0.042	0.091
-298.749	-200.000	0.006	0.232
-297.735	-47.212	0.133	0.064
-296.720	-200.000	-0.028	0.213
-295.705	47.605	0.102	-0.094
-294.691	-47.967	0.179	0.085
-293.676	-192.860	-0.303	0.003
-292.662	117.449	-0.152	0.184
-291.647	91.582	-0.157	-0.173
-290.632	-200.000	-0.032	0.232
-289.618	-97.060	0.079	-0.020
-288.603	-200.000	0.003	0.163
-287.589	381.354	0.047	0.095
-286.574	792.786	-0.113	-0.306
-285.559	-200.000	-0.007	0.279
-284.545	800.000	-0.081	-0.254
-283.530	-50.203	-0.060	-0.028
-282.516	-160.879	-0.075	-0.004
-281.501	40.774	0.157	0.139
-280.486	-200.000	-0.001	-0.315
-279.472	-109.485	0.132	-0.027
-278.457	800.000	-0.067	0.278
-277.443	-200.000	0.003	-0.041
-276.428	33.333	0.100	-0.085
-275.413	-108.823	-0.180	-0.038
-274.399	-200.000	0.024	0.185
-273.384	125.388	-0.097	0.120
-272.370	80.024	0.053	0.056
-271.355	-179.226	-0.144	0.003
-270.340	-200.000	0.016	0.219
-269.326	522.892	0.136	0.312
-268.311	-200.000	-0.010	-0.219
-267.297	800.000	-0.054	0.212
-266.282	144.073	0.237	0.311
-265.267	-39.233	-0.216	0.111
-264.253	8.940	0.305	0.225
-263.238	-18.702	0.023	0.014
-262.224	-128.186	0.119	-0.017
-261.209	93.463	0.106	0.118
-260.195	-200.000	-0.195	0.000
-259.180	205.389	-0.033	0.050
-258.165	-141.497	0.403	-0.040
-257.151	25.775	-0.186	0.152
-256.136	800.000	-0.040	-0.139
-255.122	-104.437	-0.315	-0.072
-254.107	111.471	-0.140	0.166
-253.092	-36.943	-0.232	0.122
-252.078	150.265	-0.101	0.134
-251.063	-98.089	0.224	0.056
-250.049	-200.000	0.013	0.103
-249.034	-139.528	-0.179	0.019
-248.019	-105.657	0.071	-0.016
-247.005	-137.700	-0.066	0.007
-245.990	-112.843	0.323	-0.063
-244.976	-112.367	-0.070	-0.014
-243.961	451.882	-0.031	-0.067
-242.946	800.000	0.038	-0.135
-241.932	26.718	0.060	-0.050
-240.917	800.000	0.036	0.110
-239.903	-200.000	0.049	-0.311
-238.888	303.851	0.032	0.058
-237.873	237.650	0.086	-0.140
-236.859	-113.391	0.452	-0.087
-235.844	587.774	-0.051	-0.122
-234.830	-156.170	0.192	-0.012
-233.815	-200.000	0.022	0.175
-232.800	-200.000	-0.015	0.107
-231.786	57.721	0.134	-0.128
-230.771	687.384	-0.085	0.217
-229.757	183.857	-0.082	-0.119
-228.742	303.344	0.073	0.132
-227.727	-57.139	-0.292	-0.126
-226.713	-6.137	0.148	0.099
-225.698	113.821	0.041	-0.048
-224.684	133.041	-0.047	-0.060
-223.669	-152.536	0.163	-0.011
-222.655	-80.357	0.366	-0.120
-221.640	90.020	-0.140	0.154
-220.625	-20.285	0.039	0.024
-219.611	-200.000	-0.023	0.106
-218.596	-90.252	-0.157	-0.045
-217.582	-200.000	0.045	-0.254
-216.567	78.211	-0.128	-0.133
-215.552	407.811	-0.030	0.063
-214.538	54.205	0.066	-0.062
-213.523	13.288	-0.174	0.132
-212.509	-15.877	0.415	0.259
-211.494	-45.985	0.333	-0.161
-210.479	-200.000	0.015	0.117
-209.465	-126.967	0.342	-0.049
-208.450	67.027	-0.281	-0.280
-207.436	545.328	0.053	0.124
-206.421	-55.695	0.081	0.036
-205.406	-112.769	0.202	0.039
-204.392	-200.000	0.004	0.214
-203.377	-159.682	0.220	-0.012
-202.363	-138.908	-0.414	0.044
-201.348	74.488	-0.127	-0.130
-200.333	164.686	-0.128	-0.177
-199.319	-200.000	0.036	-0.201
-198.304	-148.558	-0.088	0.007
-197.290	-200.000	0.014	0.094
-196.275	368.930	-0.139	-0.275
-195.260	-200.000	-0.040	-0.252
-194.246	98.260	-0.113	-0.128
-193.231	-189.006	0.229	-0.003
-192.217	-200.000	-0.042	-0.420
-191.202	-107.851	-0.213	0.045
-190.187	62.220	0.107	0.105
-189.173	-28.212	-0.180	0.102
-188.158	323.942	-0.171	-0.319
-187.144	-200.000	-0.024	0.370
-186.129	276.635	0.144	-0.251
-185.114	-84.283	0.064	0.020
-184.100	-200.000	-0.026	-0.142
-183.085	35.329	0.134	-0.115
-182.071	127.701	-0.067	0.083
-181.056	226.127	-0.074	0.117
-180.042	-200.000	-0.009	-0.084
-179.027	483.434	0.134	-0.297
-178.012	255.000	-0.061	0.102
-176.998	-0.663	-0.295	0.205
-175.983	-200.000	-0.009	-0.138
-174.969	491.449	-0.076	0.171
-173.954	-200.000	0.004	0.216
-172.939	339.516	0.118	0.225
-171.925	-55.453	-0.042	-0.018
-170.910	-118.282	0.280	-0.049
-169.896	-177.036	0.181	-0.004
-168.881	-79.662	-0.283	0.093
-167.866	800.000	0.034	-0.125
-166.852	-131.434	0.441	-0.057
-165.837	-84.328	-0.190	-0.059
-164.823	-103.160	0.031	0.007
-163.808	800.000	0.047	0.199
-162.793	14.468	-0.251	-0.191
-161.779	-45.554	0.045	-0.022
-160.764	800.000	-0.035	0.129
-159.750	103.510	-0.273	0.313
-158.735	-200.000	0.000	0.074
-157.720	112.983	-0.105	0.124
-156.706	78.291	-0.018	0.018
-155.691	-136.349	0.135	0.015
-154.677	-32.224	-0.194	0.106
-153.662	-200.000	0.021	-0.283
-152.647	-67.857	0.106	0.041
-151.633	58.262	0.100	-0.096
-150.618	-72.563	0.412	-0.149
-149.604	299.702	-0.089	-0.161
-148.589	11.996	-0.055	-0.041
-147.574	62.945	-0.193	-0.188
-146.560	-200.000	0.039	-0.530
-145.545	385.011	-0.050	-0.100
-144.531	105.351	0.204	-0.235
-143.516	800.000	-0.054	0.174
-142.502	55.700	0.126	-0.119
-141.487	137.292	-0.121	-0.155
-140.472	138.951	-0.156	-0.200
-139.458	800.000	-0.034	0.126
-138.443	102.142	0.231	-0.263
-137.429	-156.340	-0.360	0.022
-136.414	800.000	0.105	-0.374
-135.399	800.000	0.014	-0.055
-134.385	-200.000	-0.044	0.208
-133.370	114.909	-0.174	0.207
-132.356	-27.717	-0.140	0.079
-131.341	-4.319	-0.040	0.027
-130.326	-40.129	-0.300	-0.153
-129.312	96.297	0.122	0.137
-128.297	-24.316	-0.298	0.174
-127.283	16.196	0.288	-0.222
-126.268	-200.000	0.034	-0.246
-125.253	80.457	0.128	0.134
-124.239	652.517	0.090	-0.226
-123.224	-67.843	0.124	0.047
-122.210	-80.411	0.431	0.140
