DTS Sentinel unit serial number:	SN413079Multiplexer serial number:	ORYXHardware model number:	OX4-SRSoftware version number:	ORYX F/W v4.00 Oryx Data Collector v3.7.2.0data status	okinstallation	princeton_trtdifferential loss correction	single-endedforward channel	channel 2reverse channel	N/Adate	2019/09/11time	19:25:11forward acquisition time	60.00reverse acquisition time	0.00gamma	496.2192k internal	0.2303k external	0.2303temperature offset calibration	1.0043default loss term (dB/km)	0.3790temperature slope calibration	1.0000multiplexer offset coefficient	1.0000multiplexer slope coefficient	1.0000fibre end	0.00T internal ref (°C)	40.75T ext. ref 1 (°C)	1.31T ext. ref 2 (°C)	33.04length (m)	temperature (°C)	Stokes	anti-Stokes-747.200	-121.782	-0.019	-0.003
-746.185	114.931	-0.164	0.204
-745.171	-35.609	-0.140	0.077
-744.156	15.028	-0.158	0.126
-743.142	-36.618	-0.148	0.081
-742.127	-200.000	-0.004	0.078
-741.112	-200.000	-0.017	0.081
-740.098	-200.000	0.055	0.249
-739.083	-141.318	-0.172	-0.018
-738.069	96.614	0.198	0.231
-737.054	-200.000	0.016	0.174
-736.039	1.120	0.368	0.269
-735.025	-32.655	0.242	0.137
-734.010	33.832	0.057	-0.050
-732.996	-79.062	-0.204	0.070
-731.981	-65.631	-0.073	-0.030
-730.966	101.790	-0.350	0.416
-729.952	41.744	0.221	0.204
-728.937	-200.000	0.021	0.214
-727.923	514.363	-0.075	-0.177
-726.908	800.000	-0.055	-0.184
-725.894	291.220	-0.080	-0.148
-724.879	120.123	-0.214	-0.270
-723.864	-163.904	0.203	-0.010
-722.850	-117.943	0.418	0.076
-721.835	-200.000	0.021	-0.151
-720.821	305.636	-0.075	0.142
-719.806	-108.248	-0.185	-0.041
-718.791	-1.408	-0.218	0.157
-717.777	313.399	-0.100	0.191
-716.762	461.114	-0.030	0.068
-715.748	188.682	-0.066	-0.100
-714.733	-167.177	-0.316	0.013
-713.718	135.526	0.189	-0.251
-712.704	800.000	0.025	0.075
-711.689	393.148	0.162	-0.344
-710.675	-112.071	-0.101	0.021
-709.660	-200.000	0.014	-0.117
-708.645	-200.000	0.011	0.251
-707.631	-200.000	-0.038	-0.356
-706.616	-9.532	0.155	0.105
-705.602	-79.587	0.368	-0.126
-704.587	800.000	-0.081	-0.347
-703.572	36.296	-0.209	-0.187
-702.558	-58.272	-0.115	-0.051
-701.543	206.261	-0.179	-0.283
-700.529	-171.266	0.256	-0.009
-699.514	-66.075	0.309	-0.125
-698.499	320.753	0.104	-0.200
-697.485	-200.000	0.004	-0.210
-696.470	-200.000	-0.012	-0.320
-695.456	-86.579	-0.407	-0.127
-694.441	-15.666	-0.093	-0.061
-693.426	213.710	-0.058	-0.093
-692.412	374.763	-0.055	-0.114
-691.397	777.404	0.120	0.334
-690.383	13.698	-0.411	-0.325
-689.368	749.304	0.015	0.041
-688.354	-200.000	-0.002	-0.035
-687.339	800.000	-0.176	0.587
-686.324	490.839	0.053	-0.123
-685.310	-93.786	-0.126	-0.035
-684.295	94.019	0.061	0.071
-683.281	51.357	-0.177	-0.171
-682.266	229.971	-0.305	-0.507
-681.251	145.705	0.169	0.230
-680.237	-177.071	0.164	-0.004
-679.222	800.000	-0.163	-0.580
-678.208	217.266	-0.129	-0.209
-677.193	-83.030	-0.185	0.061
-676.178	800.000	0.043	-0.151
-675.164	800.000	0.097	-0.384
-674.149	381.063	0.055	-0.115
-673.135	-62.201	0.032	0.014
-672.120	-66.048	0.137	-0.055
-671.105	-200.000	-0.053	-0.252
-670.091	21.454	-0.417	-0.344
-669.076	-200.000	0.042	0.195
-668.062	121.640	-0.316	-0.400
-667.047	-38.434	0.144	-0.077
-666.032	-171.663	0.438	0.015
-665.018	294.396	-0.118	0.218
-664.003	128.630	-0.040	-0.052
-662.989	-69.413	0.202	-0.079
-661.974	-200.000	0.008	0.150
-660.959	259.563	-0.125	-0.219
-659.945	27.410	0.179	0.153
-658.930	538.071	0.068	-0.164
-657.916	85.095	-0.266	0.296
-656.901	-62.802	0.169	-0.071
-655.886	24.583	0.147	0.124
-654.872	-48.778	0.015	-0.007
-653.857	-55.383	-0.218	0.099
-652.843	-199.628	-0.088	0.000
-651.828	-200.000	0.075	-0.519
-650.814	42.541	0.172	-0.159
-649.799	-112.098	-0.214	-0.044
-648.784	-159.630	-0.551	-0.031
-647.770	91.824	-0.123	0.140
-646.755	-0.951	-0.034	-0.024
-645.741	-36.860	0.102	-0.056
-644.726	-28.268	-0.152	0.089
-643.711	3.343	-0.208	0.153
-642.697	274.118	-0.110	-0.198
-641.682	-100.002	0.114	-0.029
-640.668	-90.601	0.345	0.101
-639.653	-161.103	0.056	-0.003
-638.638	108.602	-0.061	-0.074
-637.624	-200.000	-0.011	-0.220
-636.609	-54.419	-0.259	0.119
-635.595	-102.869	-0.443	-0.107
-634.580	60.683	-0.065	-0.066
-633.565	-157.820	-0.382	-0.023
-632.551	-44.211	-0.291	-0.148
-631.536	-35.226	-0.240	0.132
-630.522	-21.705	-0.251	0.155
-629.507	-182.401	0.197	0.004
-628.492	-127.224	-0.153	-0.023
-627.478	-55.970	-0.491	-0.222
-626.463	91.870	-0.133	-0.152
-625.449	-10.123	-0.156	-0.105
-624.434	418.069	0.037	-0.081
-623.419	800.000	0.088	-0.262
-622.405	156.841	-0.016	-0.023
-621.390	-74.241	0.279	-0.102
-620.376	-66.139	0.260	-0.105
-619.361	-7.717	-0.165	0.113
-618.346	383.208	0.142	0.297
-617.332	-91.484	-0.233	-0.067
-616.317	69.009	0.084	-0.087
-615.303	-200.000	0.055	-0.303
-614.288	-200.000	-0.002	-0.123
-613.273	-121.450	-0.193	0.033
-612.259	-171.797	-0.241	-0.008
-611.244	162.133	-0.090	0.128
-610.230	-44.014	0.180	-0.091
-609.215	-130.213	-0.405	0.056
-608.201	-200.000	-0.005	0.213
-607.186	-200.000	0.014	0.204
-606.171	-200.000	-0.001	-0.217
-605.157	-45.734	-0.217	0.109
-604.142	-177.962	-0.374	-0.009
-603.128	8.533	-0.117	-0.089
-602.113	489.450	0.190	-0.439
-601.098	-200.000	-0.005	0.107
-600.084	800.000	0.042	-0.175
-599.069	114.198	-0.178	0.220
-598.055	14.325	0.095	0.075
-597.040	800.000	0.041	0.148
-596.025	115.315	0.025	0.031
-595.011	-76.748	0.065	0.023
-593.996	211.828	0.158	0.252
-592.982	-95.078	-0.343	-0.094
-591.967	800.000	-0.090	-0.270
-590.952	13.809	-0.048	-0.038
-589.938	-82.591	-0.366	-0.120
-588.923	-72.462	-0.447	0.167
-587.909	800.000	0.030	0.097
-586.894	-200.000	0.031	0.217
-585.879	280.339	0.079	0.144
-584.865	-200.000	-0.016	-0.237
-583.850	-200.000	0.021	0.125
-582.836	-200.000	0.007	0.047
-581.821	488.475	-0.106	0.245
-580.806	800.000	0.036	0.153
-579.792	-200.000	-0.012	-0.129
-578.777	-40.429	0.041	-0.022
-577.763	202.480	0.240	-0.374
-576.748	270.970	0.146	-0.260
-575.733	271.981	-0.208	0.371
-574.719	-117.034	-0.337	-0.062
-573.704	-98.880	-0.218	-0.056
-572.690	63.122	0.155	-0.157
-571.675	-125.181	0.097	-0.015
-570.661	-126.630	-0.156	-0.023
-569.646	87.866	0.218	0.245
-568.631	-90.731	-0.338	-0.099
-567.617	-43.055	-0.266	0.136
-566.602	66.523	0.235	-0.242
-565.588	70.239	-0.117	-0.122
-564.573	-12.068	-0.100	-0.066
-563.558	-43.367	0.366	-0.187
-562.544	800.000	-0.117	-0.401
-561.529	-124.181	0.464	0.074
-560.515	-10.558	-0.180	0.120
-559.500	-85.582	0.154	-0.048
-558.485	107.646	0.203	-0.245
-557.471	800.000	-0.037	0.113
-556.456	800.000	-0.087	0.276
-555.442	800.000	-0.069	0.200
-554.427	-34.524	0.093	-0.051
-553.412	-200.000	0.019	0.101
-552.398	-200.000	0.021	0.158
-551.383	16.225	0.084	-0.067
-550.369	164.342	0.099	0.141
-549.354	164.934	-0.089	0.127
-548.339	191.363	-0.067	0.102
-547.325	-90.235	0.343	-0.101
-546.310	-200.000	-0.097	0.000
-545.296	-19.359	0.193	0.121
-544.281	-50.081	-0.018	-0.009
-543.266	-182.038	0.164	0.003
-542.252	199.755	0.200	-0.310
-541.237	-130.962	-0.210	0.028
-540.223	-40.575	-0.146	-0.076
-539.208	-193.403	0.103	0.001
-538.193	21.519	0.311	-0.256
-537.179	-87.029	-0.294	-0.091
-536.164	73.029	-0.100	0.105
-535.150	-35.370	-0.180	0.099
-534.135	-140.018	0.425	0.045
-533.121	25.720	-0.075	-0.063
-532.106	-43.664	0.167	0.085
-531.091	447.756	0.064	0.142
-530.077	20.024	0.163	0.133
-529.062	348.847	0.084	0.167
-528.048	-13.950	-0.201	-0.131
-527.033	-47.130	0.188	-0.093
-526.018	800.000	0.009	-0.032
-525.004	-16.943	0.209	-0.133
-523.989	-102.394	0.211	-0.051
-522.975	800.000	-0.106	-0.360
-521.960	-98.938	0.491	-0.126
-520.945	800.000	-0.019	-0.082
-519.931	90.438	0.121	-0.137
-518.916	-165.235	-0.123	0.006
-517.902	151.684	-0.264	0.363
-516.887	22.914	0.183	-0.152
-515.872	800.000	0.079	-0.284
-514.858	-200.000	-0.029	0.140
-513.843	-8.475	0.085	0.058
-512.829	447.651	0.069	0.153
-511.814	-90.976	-0.441	0.128
-510.799	-137.678	-0.350	-0.040
-509.785	457.820	-0.047	-0.105
-508.770	-143.718	0.138	0.013
-507.756	-32.324	0.283	-0.160
-506.741	177.318	0.109	-0.161
-505.726	-135.911	0.075	0.009
-504.712	34.032	0.218	-0.192
-503.697	-42.039	-0.196	-0.101
-502.683	27.898	0.145	-0.123
-501.668	-70.914	0.399	0.152
-500.653	-58.599	0.227	0.100
-499.639	800.000	0.092	-0.301
-498.624	508.868	-0.180	-0.421
-497.610	-14.015	0.228	-0.148
-496.595	121.431	-0.167	0.210
-495.581	-73.925	-0.170	-0.062
-494.566	-112.453	-0.322	0.065
-493.551	-162.414	0.278	0.014
-492.537	-200.000	-0.006	0.198
-491.522	563.267	0.071	0.174
-490.508	-35.294	0.351	0.193
-489.493	-154.680	-0.053	-0.004
-488.478	800.000	-0.077	0.282
-487.464	-57.458	-0.415	-0.184
-486.449	-72.277	-0.096	0.036
-485.435	-138.613	0.240	0.027
-484.420	406.713	-0.130	-0.277
-483.405	-39.991	-0.241	0.127
-482.391	452.616	-0.077	-0.172
-481.376	-56.502	0.315	-0.141
-480.362	324.134	0.061	-0.118
-479.347	436.426	-0.074	0.162
-478.332	-200.000	-0.024	0.211
-477.318	800.000	0.021	0.084
-476.303	-164.586	0.165	-0.008
-475.289	210.837	0.053	0.085
-474.274	34.902	-0.173	0.153
-473.259	-145.579	0.271	-0.024
-472.245	-114.864	-0.166	-0.032
-471.230	-33.260	-0.254	-0.142
-470.216	103.809	0.180	-0.213
-469.201	108.802	0.054	-0.065
-468.186	244.715	-0.228	0.386
-467.172	-54.141	-0.227	-0.104
-466.157	10.331	0.243	-0.187
-465.143	-162.996	-0.294	0.014
-464.128	457.812	-0.036	-0.082
-463.113	590.694	0.106	-0.263
-462.099	-139.806	-0.196	0.021
-461.084	283.725	-0.030	0.054
-460.070	45.471	0.086	-0.080
-459.055	-200.000	0.042	0.239
-458.040	263.313	-0.043	0.075
-457.026	93.774	-0.224	-0.256
-456.011	85.960	-0.139	0.154
-454.997	-96.337	0.238	0.063
-453.982	-13.128	0.023	0.015
-452.968	-125.767	0.317	0.048
-451.953	-38.105	0.036	0.019
-450.938	294.348	0.252	0.463
-449.924	158.661	-0.175	-0.245
-448.909	-85.158	0.181	0.057
-447.895	275.518	0.026	-0.047
-446.880	-200.000	0.032	-0.563
-445.865	165.543	0.090	-0.128
-444.851	-38.396	0.154	-0.082
-443.836	-65.658	0.446	0.180
-442.822	-107.741	-0.373	0.082
-441.807	97.829	-0.175	0.203
-440.792	-163.744	-0.333	-0.016
-439.778	108.393	-0.267	0.321
-438.763	262.235	-0.144	0.252
-437.749	-108.275	-0.248	0.054
-436.734	316.159	0.142	-0.269
-435.719	-50.029	-0.145	-0.069
-434.705	-200.000	0.001	-0.070
-433.690	-200.000	-0.000	0.248
-432.676	-52.438	0.075	0.035
-431.661	-26.862	-0.047	-0.028
-430.646	10.820	0.223	0.171
-429.632	-198.424	-0.311	0.002
-428.617	-200.000	-0.013	-0.297
-427.603	800.000	0.073	-0.254
-426.588	488.006	0.053	-0.121
-425.573	49.440	-0.174	0.165
-424.559	76.905	0.118	-0.126
-423.544	-47.451	-0.312	-0.153
-422.530	-200.000	0.032	-0.356
-421.515	-200.000	0.072	0.449
-420.500	-200.000	0.015	0.372
-419.486	710.014	0.072	-0.192
-418.471	155.415	-0.139	0.193
-417.457	-42.881	-0.271	0.139
-416.442	-113.748	0.120	-0.023
-415.428	-191.884	0.225	-0.002
-414.413	-92.733	0.231	0.065
-413.398	-48.562	0.134	-0.065
-412.384	800.000	0.060	0.202
-411.369	243.962	-0.173	-0.293
-410.355	96.813	-0.163	0.188
-409.340	-106.778	0.427	-0.095
-408.325	-200.000	-0.007	-0.165
-407.311	556.544	-0.073	-0.176
-406.296	-131.761	-0.309	-0.041
-405.282	16.456	0.031	-0.024
-404.267	-200.000	0.036	0.194
-403.252	-101.644	0.500	0.122
-402.238	448.704	0.053	0.118
-401.223	282.182	0.048	-0.086
-400.209	-136.038	-0.376	-0.044
-399.194	69.207	-0.267	0.276
-398.179	-120.671	0.324	0.055
-397.165	409.732	-0.036	0.076
-396.150	800.000	-0.055	0.240
-395.136	-5.879	0.149	-0.103
-394.121	-50.974	-0.135	0.064
-393.106	-118.849	0.221	0.039
-392.092	-34.413	0.267	0.147
-391.077	256.394	0.073	-0.125
-390.063	-55.992	-0.309	0.138
-389.048	80.461	0.135	0.146
-388.033	-200.000	0.001	0.347
-387.019	7.156	0.081	0.061
-386.004	-116.242	0.485	-0.090
-384.990	160.423	0.075	-0.105
-383.975	106.014	0.192	-0.229
-382.960	176.047	-0.119	-0.173
-381.946	-146.431	0.157	0.014
-380.931	398.804	0.091	0.192
-379.917	-59.865	0.247	-0.106
-378.902	-200.000	0.044	-0.250
-377.888	-89.538	-0.378	-0.111
-376.873	213.585	0.128	0.203
-375.858	45.718	0.008	0.007
-374.844	-135.462	0.339	-0.041
-373.829	-5.974	0.077	0.053
-372.815	677.296	-0.095	0.247
-371.800	800.000	0.029	-0.105
-370.785	-200.000	-0.063	0.372
-369.771	-37.705	-0.225	-0.120
-368.756	141.810	0.169	-0.225
-367.742	800.000	0.092	-0.385
-366.727	25.721	0.167	-0.140
-365.712	-120.636	0.029	0.005
-364.698	333.765	0.091	-0.177
-363.683	226.804	-0.039	0.063
-362.669	800.000	-0.109	0.326
-361.654	-32.068	0.242	-0.136
-360.639	16.991	0.159	-0.126
-359.625	-154.432	0.370	0.025
-358.610	36.924	0.178	0.158
-357.596	-105.404	-0.208	-0.047
-356.581	-200.000	0.008	0.229
-355.566	124.739	-0.061	-0.077
-354.552	-200.000	-0.016	-0.442
-353.537	633.213	-0.188	0.478
-352.523	598.923	-0.058	-0.144
-351.508	800.000	0.079	-0.278
-350.493	40.072	-0.114	0.102
-349.479	800.000	-0.094	-0.411
-348.464	280.967	0.180	-0.323
-347.450	-200.000	0.026	0.266
-346.435	-130.603	-0.094	0.013
-345.420	-39.244	0.303	0.159
-344.406	-200.000	-0.010	-0.337
-343.391	38.017	-0.258	-0.230
-342.377	800.000	0.073	-0.305
-341.362	800.000	0.097	-0.294
-340.348	-53.605	0.328	0.151
-339.333	237.289	0.199	0.330
-338.318	534.573	0.120	-0.285
-337.304	-200.000	0.054	0.348
-336.289	-41.476	-0.147	0.076
-335.275	800.000	-0.092	-0.289
-334.260	-86.842	0.269	-0.082
-333.245	-64.285	-0.111	-0.045
-332.231	-200.000	0.034	-0.156
-331.216	2.373	-0.146	0.106
-330.202	-134.006	-0.113	-0.014
-329.187	13.594	-0.027	-0.021
-328.172	800.000	0.033	0.096
-327.158	-74.830	-0.352	-0.127
-326.143	71.475	0.127	0.132
-325.129	-102.448	-0.306	-0.073
-324.114	-15.906	-0.174	0.111
-323.099	356.700	0.067	-0.134
-322.085	297.733	0.106	-0.196
-321.070	-200.000	0.032	-0.294
-320.056	-200.000	-0.007	0.297
-319.041	800.000	0.036	-0.139
-318.026	-14.520	-0.043	-0.028
-317.012	45.031	-0.093	0.086
-315.997	800.000	0.053	-0.212
-314.983	35.890	-0.180	0.159
-313.968	-121.630	-0.407	0.067
-312.953	45.723	-0.158	-0.147
-311.939	-200.000	0.002	0.136
-310.924	-45.574	-0.261	0.129
-309.910	-50.947	-0.044	0.020
-308.895	-78.679	0.274	-0.094
-307.880	800.000	-0.113	0.347
-306.866	164.322	-0.172	-0.243
-305.851	-120.267	0.141	-0.024
-304.837	-48.159	-0.105	0.051
-303.822	-200.000	0.061	0.333
-302.807	688.785	0.107	0.281
-301.793	-5.646	-0.123	0.085
-300.778	800.000	0.088	0.309
-299.764	-200.000	0.001	-0.049
-298.749	-33.730	0.137	-0.076
-297.735	-200.000	-0.017	-0.081
-296.720	520.757	-0.090	-0.211
-295.705	164.308	0.224	0.317
-294.691	241.533	0.233	0.390
-293.676	-87.139	-0.313	-0.095
-292.662	-19.104	-0.248	0.155
-291.647	-15.979	-0.198	-0.126
-290.632	-140.063	0.288	0.030
-289.618	608.403	0.061	0.152
-288.603	173.245	-0.310	0.447
-287.589	800.000	-0.040	-0.172
-286.574	180.136	0.161	0.237
-285.559	0.078	0.083	0.059
-284.545	-200.000	0.033	0.255
-283.530	147.443	-0.156	-0.211
-282.516	-112.780	0.199	0.039
-281.501	-104.552	-0.150	-0.035
-280.486	191.795	0.074	0.112
-279.472	-166.265	0.274	0.012
-278.457	-95.744	0.596	-0.159
-277.443	-200.000	-0.008	0.309
-276.428	-63.316	-0.411	0.169
-275.413	-200.000	0.001	-0.044
-274.399	-15.947	0.146	0.093
-273.384	-17.669	-0.355	-0.223
-272.370	-81.217	-0.146	-0.048
-271.355	800.000	-0.085	-0.324
-270.340	117.631	-0.189	0.232
-269.326	-109.920	0.130	-0.027
-268.311	-19.997	0.247	-0.153
-267.297	-46.858	-0.166	-0.081
-266.282	245.411	-0.086	-0.144
-265.267	-200.000	0.024	0.107
-264.253	-39.506	0.284	0.149
-263.238	-152.031	0.304	0.022
-262.224	300.155	-0.234	-0.432
-261.209	14.806	0.208	0.162
-260.195	-81.400	0.208	0.069
-259.180	-83.025	-0.237	-0.076
-258.165	800.000	0.053	0.173
-257.151	800.000	0.083	0.244
-256.136	154.077	-0.016	-0.022
-255.122	-82.925	0.383	0.124
-254.107	121.070	-0.028	0.035
-253.092	-100.971	-0.397	0.097
-252.078	316.606	-0.025	0.047
-251.063	-90.110	-0.165	0.048
-250.049	297.776	0.134	0.246
-249.034	208.370	0.231	-0.360
-248.019	-54.811	-0.193	-0.087
-247.005	108.891	-0.170	0.204
-245.990	-52.360	0.076	-0.035
-244.976	-200.000	-0.035	-0.160
-243.961	-200.000	0.065	0.542
-242.946	29.853	0.161	-0.137
-241.932	800.000	0.079	0.244
-240.917	40.853	0.133	0.120
-239.903	13.329	-0.191	0.148
-238.888	-20.726	-0.131	-0.080
-237.873	-42.436	0.051	-0.026
-236.859	-200.000	0.001	-0.114
-235.844	119.756	0.090	-0.112
-234.830	800.000	0.071	-0.244
-233.815	-137.940	0.230	-0.026
-232.800	-200.000	-0.020	0.090
-231.786	7.837	0.178	0.133
-230.771	-5.374	-0.251	0.172
-229.757	268.987	0.127	0.223
-228.742	126.830	-0.216	0.273
-227.727	-58.817	-0.241	-0.104
-226.713	13.741	0.410	-0.318
-225.698	73.639	0.102	-0.106
-224.684	-68.861	0.313	0.121
-223.669	-144.893	0.169	-0.015
-222.655	800.000	-0.126	-0.398
-221.640	-61.088	-0.226	0.095
-220.625	-200.000	-0.001	0.070
-219.611	44.213	0.096	-0.088
-218.596	299.030	-0.087	-0.159
-217.582	-93.096	-0.160	-0.044
-216.567	-161.997	-0.274	-0.014
-215.552	-13.973	0.358	0.231
-214.538	-200.000	0.047	0.229
-213.523	147.861	0.035	-0.047
-212.509	610.615	-0.081	-0.201
-211.494	369.450	0.252	0.509
-210.479	-200.000	0.041	0.380
-209.465	181.527	-0.176	-0.259
-208.450	12.172	0.247	0.190
-207.436	-37.349	-0.351	-0.187
-206.421	800.000	0.032	-0.116
-205.406	800.000	-0.098	0.330
-204.392	53.186	-0.320	0.306
-203.377	-96.124	-0.100	0.027
-202.363	447.716	-0.118	0.260
-201.348	554.858	0.051	-0.123
-200.333	800.000	0.053	-0.184
-199.319	800.000	-0.044	-0.147
-198.304	744.088	0.062	-0.167
-197.290	-200.000	-0.017	-0.162
-196.275	800.000	0.035	0.140
-195.260	122.412	0.271	-0.337
-194.246	800.000	-0.060	-0.218
-193.231	227.846	0.043	0.070
-192.217	-200.000	0.037	0.162
-191.202	-3.985	0.242	0.167
-190.187	145.909	0.126	0.168
-189.173	800.000	0.109	-0.328
-188.158	-4.136	0.253	-0.175
-187.144	82.760	-0.140	-0.152
-186.129	46.275	-0.254	-0.235
-185.114	-164.427	0.195	0.009
-184.100	-114.607	0.157	-0.030
-183.085	-200.000	0.058	-0.269
-182.071	202.482	0.107	-0.165
-181.056	-200.000	-0.013	0.178
-180.042	-115.552	-0.148	0.028
-179.027	176.854	0.191	0.277
-178.012	800.000	0.087	0.277
-176.998	800.000	0.106	0.321
-175.983	-35.523	0.389	0.210
-174.969	621.180	-0.145	-0.364
-173.954	-200.000	0.033	-0.243
-172.939	-120.915	-0.106	0.018
-171.925	800.000	-0.052	0.224
-170.910	-64.979	-0.324	0.130
-169.896	-200.000	0.027	-0.169
-168.881	-200.000	-0.022	-0.104
-167.866	483.684	-0.075	0.170
-166.852	-61.277	0.371	-0.156
-165.837	457.370	0.018	0.040
-164.823	-200.000	-0.034	-0.226
-163.808	59.009	-0.165	-0.161
-162.793	-72.725	-0.118	-0.043
-161.779	125.749	-0.067	-0.084
-160.764	-134.568	0.262	-0.032
-159.750	185.381	0.067	-0.099
-158.735	607.370	0.010	-0.026
-157.720	-16.750	-0.306	0.193
-156.706	-96.620	0.110	-0.029
-155.691	253.839	-0.064	0.108
-154.677	800.000	-0.144	0.401
-153.662	-200.000	0.005	0.239
-152.647	-77.776	0.231	0.079
-151.633	800.000	-0.060	-0.210
-150.618	800.000	0.109	-0.351
-149.604	25.675	0.241	-0.200
-148.589	308.818	0.062	-0.116
-147.574	-60.095	-0.196	0.083
-146.560	-41.693	-0.212	0.108
-145.545	-200.000	-0.003	-0.126
-144.531	-126.833	-0.174	0.025
-143.516	-137.641	-0.232	0.026
-142.502	92.781	0.068	-0.076
-141.487	-200.000	-0.015	-0.148
-140.472	180.539	0.258	-0.376
-139.458	-144.465	-0.077	-0.007
-138.443	-33.686	0.166	0.091
-137.429	178.645	-0.049	0.071
-136.414	-200.000	-0.004	0.212
-135.399	800.000	-0.047	0.132
-134.385	196.213	0.144	0.218
-133.370	57.142	-0.276	0.268
-132.356	373.375	-0.157	0.318
-131.341	239.114	0.143	0.236
-130.326	616.967	-0.155	-0.386
-129.312	-106.464	-0.075	-0.017
-128.297	800.000	-0.050	0.151
-127.283	800.000	0.131	-0.394
-126.268	-168.275	-0.379	-0.015
-125.253	-200.000	0.016	-0.153
-124.239	122.572	-0.121	0.151
-123.224	-200.000	-0.027	-0.186
-122.210	280.809	-0.008	0.015
