DTS Sentinel unit serial number:	SN413079Multiplexer serial number:	ORYXHardware model number:	OX4-SRSoftware version number:	ORYX F/W v4.00 Oryx Data Collector v3.7.2.0data status	okinstallation	princeton_trtdifferential loss correction	single-endedforward channel	channel 2reverse channel	N/Adate	2019/09/14time	12:31:35forward acquisition time	60.00reverse acquisition time	0.00gamma	496.2192k internal	0.2306k external	0.2306temperature offset calibration	1.0150default loss term (dB/km)	0.3790temperature slope calibration	1.0000multiplexer offset coefficient	1.0000multiplexer slope coefficient	1.0000fibre end	0.00T internal ref (°C)	37.94T ext. ref 1 (°C)	4.76T ext. ref 2 (°C)	34.61length (m)	temperature (°C)	Stokes	anti-Stokes-747.200	-98.346	-0.225	0.059
-746.185	-200.000	0.042	0.314
-745.171	-62.305	0.061	0.026
-744.156	-200.000	0.037	0.262
-743.142	-23.047	0.151	0.093
-742.127	-200.000	0.005	0.284
-741.112	65.339	0.189	-0.194
-740.098	-200.000	0.090	0.569
-739.083	-200.000	0.059	0.271
-738.069	-33.773	0.055	-0.031
-737.054	150.629	0.028	0.038
-736.039	800.000	-0.094	-0.374
-735.025	-167.792	0.227	-0.009
-734.010	-50.815	-0.376	-0.180
-732.996	800.000	-0.082	-0.248
-731.981	-138.489	-0.580	-0.065
-730.966	-52.451	-0.235	-0.111
-729.952	-49.595	-0.068	0.033
-728.937	-79.239	-0.248	0.085
-727.923	800.000	0.093	0.279
-726.908	-104.595	-0.212	-0.050
-725.894	-53.879	-0.158	0.073
-724.879	-179.381	-0.387	-0.009
-723.864	57.147	0.086	-0.085
-722.850	-200.000	0.029	0.228
-721.835	-200.000	-0.019	0.249
-720.821	-73.315	0.207	-0.077
-719.806	433.703	-0.122	-0.268
-718.791	565.858	0.046	-0.113
-717.777	133.838	0.260	0.342
-716.762	-64.782	-0.396	0.163
-715.748	253.220	0.213	0.369
-714.733	-41.027	0.019	-0.010
-713.718	460.690	-0.105	-0.237
-712.704	730.872	-0.126	-0.342
-711.689	-90.308	-0.244	-0.072
-710.675	-83.745	-0.118	0.038
-709.660	-96.080	-0.386	-0.104
-708.645	-25.399	0.083	0.050
-707.631	249.725	-0.099	-0.171
-706.616	-142.453	0.188	-0.019
-705.602	-96.778	-0.337	0.090
-704.587	-200.000	0.010	-0.267
-703.572	627.232	-0.130	0.332
-702.558	-28.122	0.263	-0.155
-701.543	-96.913	0.106	-0.028
-700.529	246.128	-0.154	0.263
-699.514	800.000	0.022	-0.073
-698.499	207.478	0.180	0.285
-697.485	21.929	-0.242	0.201
-696.470	-200.000	-0.027	0.155
-695.456	209.973	-0.118	0.188
-694.441	44.792	-0.166	-0.155
-693.426	763.024	0.111	0.307
-692.412	110.605	0.242	-0.296
-691.397	-95.308	0.224	-0.061
-690.383	-137.671	-0.210	0.024
-689.368	140.241	-0.202	0.270
-688.354	-47.800	-0.293	-0.144
-687.339	-200.000	0.018	-0.123
-686.324	-200.000	-0.006	0.065
-685.310	87.131	0.052	0.058
-684.295	-81.877	-0.156	-0.052
-683.281	384.720	0.069	-0.144
-682.266	-9.030	-0.207	-0.140
-681.251	18.195	0.171	-0.138
-680.237	800.000	0.036	-0.111
-679.222	-114.206	-0.105	-0.021
-678.208	507.822	-0.055	0.131
-677.193	-168.959	-0.432	-0.016
-676.178	122.185	0.127	0.162
-675.164	137.485	-0.052	0.068
-674.149	-200.000	-0.008	0.198
-673.135	-17.835	-0.123	-0.078
-672.120	-59.290	-0.275	0.120
-671.105	14.140	-0.042	-0.033
-670.091	-21.699	-0.084	-0.052
-669.076	800.000	-0.027	0.092
-668.062	-200.000	-0.018	-0.200
-667.047	384.957	-0.040	-0.084
-666.032	231.863	0.082	-0.137
-665.018	76.084	-0.138	0.148
-664.003	-130.601	0.274	-0.037
-662.989	-100.175	-0.098	0.025
-661.974	-200.000	-0.053	-0.245
-660.959	264.917	-0.155	-0.274
-659.945	235.662	-0.132	-0.221
-658.930	-72.614	-0.261	-0.098
-657.916	28.976	-0.030	0.026
-656.901	15.949	-0.245	-0.196
-655.886	-132.145	0.229	-0.030
-654.872	-200.000	-0.015	0.110
-653.857	304.666	-0.133	0.251
-652.843	27.853	-0.136	-0.116
-651.828	6.244	0.309	0.233
-650.814	-81.084	0.039	0.013
-649.799	337.151	0.102	-0.202
-648.784	172.041	-0.103	0.149
-647.770	-200.000	0.009	-0.354
-646.755	423.033	0.230	-0.500
-645.741	-200.000	0.006	-0.033
-644.726	-159.373	-0.558	0.032
-643.711	421.369	0.090	0.195
-642.697	-200.000	-0.012	0.334
-641.682	11.707	0.102	-0.079
-640.668	58.736	0.265	0.264
-639.653	-6.366	-0.344	0.237
-638.638	132.522	-0.277	-0.362
-637.624	3.155	-0.265	-0.195
-636.609	-101.248	-0.195	0.048
-635.595	-36.906	0.066	-0.036
-634.580	-58.530	-0.088	0.039
-633.565	800.000	0.109	0.332
-632.551	-73.329	0.222	-0.082
-631.536	-28.936	-0.072	-0.042
-630.522	-200.000	-0.008	-0.078
-629.507	800.000	-0.047	-0.137
-628.492	-19.121	0.350	-0.220
-627.478	-12.347	0.103	-0.068
-626.463	270.232	-0.160	-0.285
-625.449	-78.646	-0.121	0.042
-624.434	141.619	0.050	0.068
-623.419	-113.723	0.368	0.073
-622.405	-200.000	0.028	-0.243
-621.390	397.380	0.060	0.126
-620.376	800.000	-0.032	0.111
-619.361	-23.531	-0.225	-0.137
-618.346	-200.000	-0.006	-0.285
-617.332	-200.000	0.030	-0.208
-616.317	-71.994	0.280	-0.105
-615.303	-28.335	0.282	0.165
-614.288	51.345	-0.194	-0.186
-613.273	-200.000	-0.039	0.208
-612.259	115.325	-0.059	-0.073
-611.244	-130.630	-0.053	0.007
-610.230	16.153	0.141	0.112
-609.215	67.979	0.125	0.129
-608.201	123.327	0.026	-0.033
-607.186	-200.000	0.017	0.276
-606.171	216.407	-0.208	0.334
-605.157	-58.338	0.267	0.118
-604.142	169.592	-0.135	-0.195
-603.128	-93.099	-0.547	0.154
-602.113	-200.000	0.046	-0.394
-601.098	-94.879	-0.053	0.015
-600.084	-200.000	0.021	-0.243
-599.069	-128.972	0.193	-0.027
-598.055	-113.155	0.365	0.073
-597.040	258.092	-0.095	-0.165
-596.025	800.000	-0.064	-0.244
-595.011	-200.000	-0.019	-0.212
-593.996	94.303	0.191	0.219
-592.982	-114.998	0.136	0.026
-591.967	237.207	0.028	-0.047
-590.952	799.930	-0.029	0.080
-589.938	-140.568	0.311	0.033
-588.923	-112.862	-0.203	0.041
-587.909	97.632	-0.051	-0.060
-586.894	-75.527	0.161	-0.058
-585.879	75.630	-0.174	0.186
-584.865	68.357	-0.178	0.184
-583.850	641.714	-0.011	0.029
-582.836	-56.241	0.204	-0.092
-581.821	-142.781	0.144	0.014
-580.806	-72.935	-0.293	-0.109
-579.792	75.022	-0.185	-0.197
-578.777	-6.580	0.075	-0.052
-577.763	800.000	0.016	0.051
-576.748	3.203	-0.193	-0.142
-575.733	-77.991	-0.137	0.048
-574.719	78.278	-0.171	0.185
-573.704	-126.695	-0.238	0.036
-572.690	567.737	0.129	-0.317
-571.675	185.826	0.183	-0.275
-570.661	-134.409	-0.173	-0.021
-569.646	377.100	-0.031	0.064
-568.631	-200.000	-0.024	-0.176
-567.617	53.030	0.175	-0.169
-566.602	-47.227	-0.147	0.072
-565.588	-164.932	-0.258	-0.012
-564.573	-189.712	0.236	0.003
-563.558	-200.000	0.005	0.220
-562.544	-61.537	-0.150	0.064
-561.529	-65.225	0.180	-0.073
-560.515	491.851	-0.095	-0.220
-559.500	-200.000	0.013	0.155
-558.485	23.717	-0.192	-0.160
-557.471	-39.656	-0.332	0.175
-556.456	-149.309	-0.069	0.006
-555.442	-200.000	-0.008	0.175
-554.427	800.000	0.062	0.221
-553.412	58.145	-0.082	-0.081
-552.398	-123.175	-0.227	-0.037
-551.383	290.413	0.044	0.081
-550.369	29.054	-0.071	0.061
-549.354	135.570	0.294	-0.386
-548.339	800.000	0.009	0.032
-547.325	183.288	0.016	0.024
-546.310	-38.952	0.137	0.073
-545.296	414.079	-0.150	-0.323
-544.281	-70.888	0.097	0.037
-543.266	800.000	-0.087	-0.327
-542.252	-50.393	0.129	-0.062
-541.237	204.262	-0.143	-0.224
-540.223	227.663	0.287	-0.471
-539.208	-116.864	0.280	0.052
-538.193	-100.592	-0.319	-0.079
-537.179	-1.262	0.173	-0.124
-536.164	610.111	-0.094	0.237
-535.150	-72.880	-0.291	-0.108
-534.135	62.833	-0.285	-0.288
-533.121	-148.248	0.181	-0.015
-532.106	-200.000	-0.016	-0.082
-531.091	-72.634	0.076	0.028
-530.077	56.644	-0.128	-0.125
-529.062	-43.804	0.241	-0.122
-528.048	-23.457	0.135	-0.082
-527.033	473.277	-0.037	0.083
-526.018	800.000	-0.060	0.235
-525.004	50.112	-0.248	0.237
-523.989	-200.000	0.004	-0.139
-522.975	-200.000	0.007	-0.180
-521.960	-200.000	-0.013	-0.180
-520.945	-146.137	0.159	0.014
-519.931	-200.000	0.011	0.233
-518.916	172.724	0.255	-0.370
-517.902	-200.000	-0.004	0.099
-516.887	177.420	0.208	0.306
-515.872	-55.198	-0.233	0.106
-514.858	138.668	-0.100	0.133
-513.843	-67.277	-0.325	-0.129
-512.829	311.951	0.108	0.204
-511.814	-101.347	-0.313	0.077
-510.799	-200.000	-0.010	-0.089
-509.785	-200.000	-0.056	-0.425
-508.770	800.000	0.018	-0.068
-507.756	93.409	-0.107	0.122
-506.741	-76.858	-0.138	0.049
-505.726	-200.000	0.070	-0.556
-504.712	-176.773	-0.189	-0.005
-503.697	248.843	0.118	0.201
-502.683	47.689	-0.144	-0.135
-501.668	-41.410	-0.160	0.083
-500.653	44.121	0.106	0.098
-499.639	-200.000	0.007	-0.144
-498.624	-200.000	0.080	0.000
-497.610	-200.000	0.019	0.122
-496.595	-200.000	-0.032	0.222
-495.581	800.000	-0.067	0.198
-494.566	-200.000	-0.021	-0.208
-493.551	26.696	0.293	-0.247
-492.537	800.000	0.038	0.121
-491.522	10.837	-0.300	0.231
-490.508	307.675	-0.078	-0.147
-489.493	213.356	0.095	-0.152
-488.478	-67.591	0.013	0.005
-487.464	800.000	0.063	0.256
-486.449	-55.526	0.089	0.040
-485.435	-51.665	-0.212	-0.100
-484.420	-118.424	0.201	-0.036
-483.405	-48.208	0.073	0.036
-482.391	800.000	-0.099	-0.372
-481.376	800.000	-0.062	0.180
-480.362	-56.880	0.121	-0.054
-479.347	800.000	0.022	0.087
-478.332	-88.100	-0.469	0.142
-477.318	10.895	0.186	-0.143
-476.303	127.389	0.167	0.213
-475.289	-200.000	-0.023	0.348
-474.274	-99.329	-0.510	-0.130
-473.259	-28.788	-0.145	0.084
-472.245	-200.000	-0.011	0.182
-471.230	697.986	-0.051	0.135
-470.216	-113.708	-0.163	0.032
-469.201	-80.184	-0.096	0.032
-468.186	55.710	-0.102	0.100
-467.172	162.948	-0.164	0.232
-466.157	-48.361	-0.141	0.069
-465.143	-64.808	-0.094	-0.038
-464.128	-200.000	0.046	0.290
-463.113	49.666	-0.048	0.045
-462.099	-200.000	0.013	-0.309
-461.084	1.355	0.108	-0.078
-460.070	67.841	0.041	0.042
-459.055	279.179	-0.042	0.075
-458.040	108.212	0.101	0.121
-457.026	-200.000	-0.088	-0.000
-456.011	68.306	-0.106	0.109
-454.997	-74.031	-0.158	-0.058
-453.982	-51.529	-0.227	0.106
-452.968	800.000	-0.049	-0.171
-451.953	70.204	-0.065	0.067
-450.938	-32.446	-0.247	-0.139
-449.924	-200.000	0.055	-0.348
-448.909	28.882	0.116	-0.099
-447.895	-135.081	-0.131	0.016
-446.880	104.261	-0.059	-0.070
-445.865	10.752	0.008	0.006
-444.851	626.186	0.052	-0.132
-443.836	707.420	0.168	-0.446
-442.822	16.795	0.049	-0.039
-441.807	693.782	0.226	0.596
-440.792	320.486	0.038	-0.072
-439.778	52.144	-0.075	0.072
-438.763	-200.000	0.012	0.235
-437.749	557.892	0.061	0.147
-436.734	-76.256	-0.163	0.058
-435.719	-157.013	-0.124	0.008
-434.705	-129.161	-0.228	0.032
-433.690	-95.170	0.224	0.061
-432.676	68.825	0.236	-0.244
-431.661	-14.562	0.044	-0.028
-430.646	24.662	-0.210	-0.175
-429.632	-200.000	0.026	-0.314
-428.617	-71.119	0.137	0.052
-427.603	800.000	-0.054	0.203
-426.588	237.041	-0.092	0.154
-425.573	-143.524	-0.235	-0.022
-424.559	800.000	0.064	-0.255
-423.544	-18.498	0.140	-0.088
-422.530	-200.000	0.040	0.316
-421.515	-56.203	0.152	0.068
-420.500	512.402	-0.019	0.044
-419.486	25.455	-0.168	0.140
-418.471	30.516	-0.388	-0.333
-417.457	739.032	-0.047	0.126
-416.442	-154.085	-0.073	-0.005
-415.428	338.538	0.170	-0.333
-414.413	203.863	0.101	-0.157
-413.398	800.000	0.192	-0.613
-412.384	-46.448	-0.139	-0.069
-411.369	222.697	-0.099	0.160
-410.355	-87.915	0.120	-0.036
-409.340	229.413	0.028	0.046
-408.325	13.885	-0.133	0.104
-407.311	31.251	0.111	0.095
-406.296	209.814	-0.051	0.080
-405.282	81.467	-0.042	-0.045
-404.267	74.959	-0.295	0.312
-403.252	619.972	-0.139	0.352
-402.238	-188.520	-0.018	-0.000
-401.223	-118.354	0.202	0.036
-400.209	-200.000	-0.072	-0.409
-399.194	-30.769	-0.247	0.140
-398.179	-11.666	0.119	-0.079
-397.165	-88.061	-0.096	-0.029
-396.150	-180.282	0.096	-0.002
-395.136	-161.428	0.440	-0.023
-394.121	328.805	-0.132	-0.255
-393.106	-200.000	0.023	-0.123
-392.092	-51.046	0.066	0.031
-391.077	115.913	-0.047	-0.058
-390.063	-95.734	-0.029	-0.008
-389.048	-200.000	-0.007	0.184
-388.033	114.636	0.058	0.071
-387.019	255.003	0.072	0.123
-386.004	691.268	0.111	0.292
-384.990	-75.268	-0.297	-0.106
-383.975	-125.015	0.164	-0.025
-382.960	179.036	0.118	0.173
-381.946	-78.911	0.292	0.100
-380.931	567.667	0.097	0.236
-379.917	800.000	0.025	0.073
-378.902	800.000	-0.032	-0.135
-377.888	619.362	-0.039	0.099
-376.873	-53.352	0.097	0.045
-375.858	-59.227	-0.219	-0.095
-374.844	800.000	-0.073	-0.319
-373.829	139.034	0.139	0.184
-372.815	-66.968	0.095	0.038
-371.800	-68.290	0.127	-0.049
-370.785	145.968	-0.067	0.090
-369.771	-25.543	0.156	-0.092
-368.756	-200.000	0.041	0.292
-367.742	19.873	-0.103	-0.083
-366.727	110.170	-0.192	-0.231
-365.712	800.000	-0.061	0.183
-364.698	-200.000	0.028	0.169
-363.683	213.158	0.043	0.069
-362.669	-200.000	0.048	-0.275
-361.654	221.649	-0.149	-0.241
-360.639	167.201	-0.201	0.286
-359.625	-200.000	0.055	-0.391
-358.610	-96.508	0.168	0.044
-357.596	-61.360	0.201	-0.085
-356.581	4.096	0.086	-0.063
-355.566	53.558	-0.049	-0.047
-354.552	293.491	-0.049	0.090
-353.537	-28.845	-0.214	0.123
-352.523	135.847	0.234	-0.305
-351.508	-76.577	0.244	0.086
-350.493	800.000	-0.119	-0.334
-349.479	-200.000	-0.001	0.248
-348.464	100.743	-0.293	0.341
-347.450	27.610	-0.049	-0.041
-346.435	102.396	0.246	0.287
-345.420	20.416	-0.184	0.149
-344.406	-187.411	0.227	-0.003
-343.391	800.000	0.085	0.257
-342.377	-69.325	0.338	-0.130
-341.362	-70.399	0.238	0.090
-340.348	-173.153	-0.322	-0.010
-339.333	8.478	-0.121	0.091
-338.318	333.692	0.070	0.135
-337.304	40.824	-0.047	-0.042
-336.289	3.519	0.015	0.011
-335.275	800.000	-0.105	0.310
-334.260	-145.856	0.127	0.011
-333.245	-200.000	-0.021	-0.297
-332.231	-28.622	-0.103	-0.059
-331.216	460.341	0.103	0.230
-330.202	451.439	-0.107	-0.237
-329.187	-2.315	0.112	-0.079
-328.172	-116.408	-0.226	-0.042
-327.158	-59.172	-0.160	0.069
-326.143	-200.000	0.009	0.204
-325.129	684.105	-0.026	0.069
-324.114	51.824	0.221	-0.210
-323.099	800.000	0.015	-0.051
-322.085	-57.563	-0.274	-0.120
-321.070	-32.525	-0.136	-0.076
-320.056	49.558	-0.181	-0.171
-319.041	369.395	0.164	-0.333
-318.026	-105.972	-0.046	-0.010
-317.012	30.581	0.314	0.268
-315.997	0.861	0.087	0.062
-314.983	138.848	-0.090	-0.118
-313.968	-200.000	0.014	0.148
-312.953	-70.940	-0.116	0.044
-311.939	16.968	0.110	0.087
-310.924	-86.233	-0.241	-0.074
-309.910	-27.820	0.331	-0.192
-308.895	-4.300	0.150	-0.104
-307.880	-200.000	-0.048	-0.257
-306.866	26.013	0.196	-0.164
-305.851	491.948	-0.037	0.086
-304.837	-118.043	0.502	-0.090
-303.822	-78.534	0.209	0.072
-302.807	0.360	-0.090	-0.064
-301.793	158.586	-0.070	-0.098
-300.778	-82.339	0.134	-0.044
-299.764	28.266	-0.157	0.133
-298.749	52.905	0.201	0.192
-297.735	94.975	-0.181	0.205
-296.720	-178.609	0.151	0.003
-295.705	238.603	0.059	-0.098
-294.691	800.000	-0.035	0.107
-293.676	-200.000	0.022	0.230
-292.662	614.966	0.109	0.274
-291.647	417.229	0.068	0.144
-290.632	-128.390	0.113	-0.016
-289.618	-114.073	0.377	0.073
-288.603	-200.000	0.002	0.245
-287.589	9.626	-0.246	0.186
-286.574	142.827	-0.035	0.046
-285.559	-200.000	-0.043	0.466
-284.545	116.525	-0.076	0.093
-283.530	91.719	-0.158	0.178
-282.516	-82.222	-0.174	-0.057
-281.501	-136.306	0.060	0.007
-280.486	20.113	0.025	0.021
-279.472	17.077	-0.077	0.061
-278.457	184.528	0.079	-0.117
-277.443	227.625	-0.046	0.076
-276.428	40.463	-0.215	-0.193
-275.413	-93.412	0.291	0.080
-274.399	510.158	0.022	-0.050
-273.384	262.593	0.082	0.142
-272.370	673.154	-0.058	0.150
-271.355	503.531	0.124	-0.287
-270.340	145.386	-0.208	-0.278
-269.326	-184.895	-0.034	-0.001
-268.311	70.281	0.243	0.250
-267.297	-37.340	-0.357	0.191
-266.282	315.641	-0.148	0.278
-265.267	-200.000	-0.004	0.038
-264.253	56.532	0.125	0.121
-263.238	672.401	-0.086	-0.224
-262.224	174.302	-0.170	-0.246
-261.209	628.204	0.105	-0.265
-260.195	-170.290	0.268	0.009
-259.180	-200.000	0.035	0.295
-258.165	800.000	0.006	-0.026
-257.151	-52.588	0.150	0.069
-256.136	-80.332	-0.261	0.087
-255.122	-124.502	0.193	0.030
-254.107	48.046	0.118	-0.110
-253.092	-99.717	-0.284	-0.071
-252.078	-35.865	0.180	-0.097
-251.063	81.546	-0.091	0.099
-250.049	-77.654	-0.099	0.034
-249.034	691.012	-0.107	0.280
-248.019	-125.962	0.189	-0.028
-247.005	375.574	0.114	-0.232
-245.990	701.833	0.062	-0.162
-244.976	-200.000	-0.038	0.186
-243.961	-68.370	0.198	-0.077
-242.946	4.537	-0.043	-0.032
-241.932	458.199	0.037	0.081
-240.917	-181.303	-0.276	-0.005
-239.903	-0.322	0.324	-0.229
-238.888	-200.000	0.026	-0.205
-237.873	-120.230	-0.275	0.047
-236.859	153.543	-0.235	-0.321
-235.844	-43.492	0.147	0.074
-234.830	54.386	-0.207	0.199
-233.815	-68.248	0.204	0.079
-232.800	-28.412	-0.115	0.066
-231.786	-62.189	0.268	0.112
-230.771	-200.000	-0.001	-0.165
-229.757	121.890	0.028	-0.035
-228.742	12.156	-0.357	-0.274
-227.727	192.275	-0.074	0.111
-226.713	-51.327	0.009	-0.004
-225.698	4.707	0.340	-0.249
-224.684	-200.000	0.014	0.193
-223.669	-2.873	-0.313	0.218
-222.655	-192.725	0.335	-0.003
-221.640	-67.587	-0.168	-0.066
-220.625	19.686	0.239	0.192
-219.611	-70.163	0.139	-0.053
-218.596	-200.000	-0.009	0.090
-217.582	-200.000	-0.012	-0.214
-216.567	549.972	-0.116	-0.276
-215.552	316.071	0.166	-0.312
-214.538	33.907	0.189	0.164
-213.523	287.478	-0.165	-0.298
-212.509	-43.504	0.341	0.172
-211.494	615.818	0.037	0.092
-210.479	-139.914	-0.229	0.024
-209.465	-78.012	0.197	0.068
-208.450	229.184	0.079	-0.128
-207.436	-5.877	-0.332	0.227
-206.421	0.695	-0.116	0.083
-205.406	-5.992	0.176	0.120
-204.392	-110.445	-0.302	-0.063
-203.377	-200.000	0.044	-0.244
-202.363	147.912	0.214	0.288
-201.348	404.554	-0.080	0.167
-200.333	146.090	0.069	-0.092
-199.319	-200.000	-0.004	0.177
-198.304	-200.000	0.007	0.059
-197.290	592.228	0.087	0.214
-196.275	-200.000	-0.026	-0.118
-195.260	-200.000	0.027	0.203
-194.246	133.844	0.198	-0.255
-193.231	800.000	-0.013	-0.048
-192.217	334.750	0.042	-0.082
-191.202	800.000	-0.022	-0.071
-190.187	-10.292	0.128	-0.085
-189.173	-108.322	0.122	0.026
-188.158	-3.956	-0.271	0.187
-187.144	-200.000	0.001	0.164
-186.129	-73.715	0.249	0.090
-185.114	-200.000	-0.035	0.268
-184.100	-200.000	0.053	0.267
-183.085	-147.275	0.158	0.013
-182.071	800.000	0.014	-0.054
-181.056	-123.250	0.056	0.009
-180.042	99.172	-0.212	0.244
-179.027	-200.000	-0.015	0.276
-178.012	-7.729	0.018	0.012
-176.998	-5.522	0.315	-0.215
-175.983	-6.395	0.187	-0.127
-174.969	-165.720	0.246	0.011
-173.954	-133.498	-0.246	0.031
-172.939	149.402	-0.024	-0.032
-171.925	-196.814	0.060	-0.000
-170.910	-113.794	0.208	0.040
-169.896	0.017	0.135	0.096
-168.881	-200.000	0.055	0.240
-167.866	800.000	0.065	0.229
-166.852	80.108	0.108	0.115
-165.837	-200.000	0.003	0.368
-164.823	-26.891	-0.333	-0.194
-163.808	26.969	0.165	0.138
-162.793	371.037	0.096	0.193
-161.779	136.282	0.069	0.089
-160.764	-112.931	0.132	-0.026
-159.750	386.214	0.106	-0.217
-158.735	-118.022	0.223	-0.040
-157.720	-108.285	-0.293	-0.063
-156.706	-137.536	-0.147	0.017
-155.691	-20.940	0.061	-0.037
-154.677	800.000	0.073	-0.289
-153.662	162.273	0.095	-0.132
-152.647	-32.247	0.093	-0.052
-151.633	102.793	-0.172	-0.201
-150.618	228.213	0.078	0.126
-149.604	187.894	-0.084	0.125
-148.589	36.170	0.285	0.250
-147.574	167.979	0.234	0.331
-146.560	397.303	-0.031	0.064
-145.545	-16.028	-0.049	-0.031
-144.531	17.053	0.242	-0.191
-143.516	394.107	-0.126	0.261
-142.502	14.662	-0.194	-0.151
-141.487	50.862	-0.142	0.134
-140.472	-200.000	0.004	0.160
-139.458	246.965	-0.320	0.537
-138.443	40.508	-0.114	0.102
-137.429	-200.000	0.002	0.175
-136.414	352.120	-0.023	-0.046
-135.399	-200.000	-0.046	0.253
-134.385	-43.766	-0.201	-0.101
-133.370	-69.076	-0.207	-0.079
-132.356	184.963	-0.104	-0.154
-131.341	-200.000	0.013	-0.064
-130.326	535.261	-0.096	-0.225
-129.312	-105.834	-0.014	-0.003
-128.297	-42.401	-0.144	-0.073
-127.283	98.600	-0.076	0.088
-126.268	-200.000	-0.020	0.301
-125.253	53.161	0.191	0.182
-124.239	279.563	0.243	0.431
-123.224	-200.000	0.023	-0.131
-122.210	-106.881	-0.026	-0.006
-121.195	-197.990	-0.292	-0.002
-120.180	61.152	0.066	-0.065
