DTS Sentinel unit serial number:	SN413079Multiplexer serial number:	ORYXHardware model number:	OX4-SRSoftware version number:	ORYX F/W v4.00 Oryx Data Collector v3.7.2.0data status	okinstallation	princeton_trtdifferential loss correction	single-endedforward channel	channel 2reverse channel	N/Adate	2019/09/11time	03:09:10forward acquisition time	60.00reverse acquisition time	0.00gamma	496.2192k internal	0.2331k external	0.2331temperature offset calibration	0.9940default loss term (dB/km)	0.3790temperature slope calibration	1.0000multiplexer offset coefficient	1.0000multiplexer slope coefficient	1.0000fibre end	0.00T internal ref (°C)	29.31T ext. ref 1 (°C)	-0.28T ext. ref 2 (°C)	23.97length (m)	temperature (°C)	Stokes	anti-Stokes-747.200	-200.000	0.022	-0.207
-746.185	-48.151	-0.243	0.118
-745.171	-200.000	0.023	0.148
-744.156	689.605	-0.261	0.688
-743.142	-106.589	0.287	0.064
-742.127	214.162	-0.204	0.325
-741.112	-93.146	0.124	-0.035
-740.098	-20.156	-0.330	-0.205
-739.083	33.854	0.165	-0.145
-738.069	42.404	-0.340	-0.311
-737.054	-200.000	0.000	0.054
-736.039	70.245	-0.108	0.112
-735.025	800.000	-0.106	0.308
-734.010	-60.014	0.051	-0.022
-732.996	-107.590	-0.207	-0.046
-731.981	-200.000	-0.116	-0.594
-730.966	-78.219	-0.221	-0.076
-729.952	-29.952	-0.158	-0.090
-728.937	-60.275	0.154	-0.066
-727.923	-88.980	-0.146	0.044
-726.908	118.022	-0.238	0.296
-725.894	-98.893	-0.400	-0.102
-724.879	-67.969	0.139	-0.055
-723.864	438.649	-0.139	-0.306
-722.850	-200.000	-0.006	-0.330
-721.835	800.000	-0.039	-0.128
-720.821	-38.724	0.148	0.078
-719.806	-12.089	0.196	-0.129
-718.791	-169.207	-0.082	0.003
-717.777	70.216	0.222	0.231
-716.762	-68.674	-0.152	-0.059
-715.748	322.668	0.101	-0.194
-714.733	-124.787	-0.117	0.018
-713.718	800.000	0.046	-0.151
-712.704	-200.000	-0.034	0.170
-711.689	-122.324	-0.208	0.034
-710.675	-75.630	-0.241	-0.086
-709.660	18.137	0.194	0.156
-708.645	-86.049	-0.118	-0.037
-707.631	-83.629	-0.156	-0.050
-706.616	577.128	0.092	-0.226
-705.602	-176.030	0.244	0.006
-704.587	35.546	-0.178	0.157
-703.572	93.916	-0.276	-0.314
-702.558	176.616	-0.026	0.037
-701.543	-48.123	-0.282	-0.137
-700.529	37.122	0.053	0.047
-699.514	-186.928	0.258	-0.004
-698.499	-110.560	-0.598	0.124
-697.485	-8.822	-0.221	0.149
-696.470	-9.139	-0.257	0.173
-695.456	-200.000	-0.371	0.001
-694.441	-107.350	-0.199	0.044
-693.426	-16.910	-0.203	0.129
-692.412	-200.000	-0.004	-0.494
-691.397	-71.126	-0.262	0.099
-690.383	-29.461	0.240	-0.138
-689.368	800.000	-0.033	-0.117
-688.354	-66.679	-0.098	0.039
-687.339	-35.889	0.120	-0.065
-686.324	-24.556	-0.138	-0.082
-685.310	83.430	0.174	0.191
-684.295	564.792	0.110	-0.268
-683.281	259.525	-0.193	-0.334
-682.266	-131.574	0.263	-0.035
-681.251	800.000	0.062	-0.230
-680.237	-111.215	0.398	0.082
-679.222	-119.014	-0.141	0.025
-678.208	-35.913	-0.279	-0.152
-677.193	-48.784	0.234	-0.113
-676.178	74.913	0.066	0.070
-675.164	-30.637	-0.292	0.166
-674.149	-200.000	-0.005	0.102
-673.135	740.407	-0.048	-0.130
-672.120	-200.000	-0.021	-0.119
-671.105	126.327	-0.183	0.233
-670.091	126.556	0.195	-0.248
-669.076	-110.841	-0.498	0.103
-668.062	194.908	0.141	-0.215
-667.047	-118.513	-0.116	0.021
-666.032	-64.877	-0.211	0.085
-665.018	-200.000	-0.065	0.329
-664.003	-172.630	0.063	0.002
-662.989	-99.543	0.085	0.021
-661.974	-77.137	-0.216	0.075
-660.959	-104.436	0.224	0.052
-659.945	-43.534	0.175	-0.088
-658.930	-44.241	0.013	-0.007
-657.916	800.000	0.132	-0.521
-656.901	800.000	-0.110	-0.329
-655.886	800.000	-0.046	-0.139
-654.872	-53.764	-0.261	0.119
-653.857	-96.784	-0.160	-0.042
-652.843	-112.237	-0.284	0.057
-651.828	-79.163	0.096	-0.033
-650.814	0.454	-0.014	-0.010
-649.799	5.157	0.185	0.137
-648.784	-34.213	0.262	-0.144
-647.770	-122.107	0.323	-0.053
-646.755	-137.688	-0.177	-0.020
-645.741	-152.936	0.131	-0.009
-644.726	392.467	-0.043	0.090
-643.711	344.611	0.033	0.066
-642.697	-10.524	0.352	0.234
-641.682	38.235	-0.045	0.040
-640.668	1.448	-0.198	0.143
-639.653	28.756	0.258	0.219
-638.638	-200.000	-0.084	0.437
-637.624	-97.727	0.059	-0.015
-636.609	-71.316	-0.422	0.158
-635.595	-167.188	0.188	0.008
-634.580	378.200	-0.148	-0.304
-633.565	131.293	-0.230	-0.296
-632.551	-200.000	-0.000	-0.283
-631.536	-191.778	-0.353	0.003
-630.522	-0.625	0.081	-0.058
-629.507	-32.689	0.162	-0.091
-628.492	-117.191	0.140	-0.026
-627.478	-24.698	-0.193	0.115
-626.463	539.354	0.172	-0.411
-625.449	800.000	0.040	0.140
-624.434	-122.638	0.370	-0.060
-623.419	58.019	0.215	-0.211
-622.405	-147.986	0.387	-0.032
-621.390	44.179	0.160	-0.147
-620.376	491.027	0.177	-0.407
-619.361	-75.595	-0.297	-0.106
-618.346	-155.971	0.138	-0.009
-617.332	800.000	-0.095	0.337
-616.317	105.575	0.105	0.124
-615.303	386.702	-0.154	0.318
-614.288	-21.876	-0.184	-0.112
-613.273	468.231	-0.111	-0.250
-612.259	-83.878	-0.056	-0.018
-611.244	728.030	0.036	-0.096
-610.230	145.372	0.132	0.177
-609.215	-39.656	0.174	-0.091
-608.201	-200.000	0.010	0.175
-607.186	425.231	-0.183	0.395
-606.171	800.000	0.015	0.051
-605.157	191.039	-0.174	0.263
-604.142	-82.143	0.438	0.143
-603.128	-93.647	-0.390	-0.108
-602.113	-63.259	0.121	0.050
-601.098	247.152	0.093	0.158
-600.084	-69.956	-0.186	-0.071
-599.069	-200.000	-0.014	0.066
-598.055	58.406	0.132	0.130
-597.040	-50.844	-0.169	0.080
-596.025	-7.278	0.099	0.067
-595.011	800.000	0.069	-0.250
-593.996	-142.158	0.269	0.027
-592.982	800.000	-0.088	-0.305
-591.967	-119.443	-0.159	-0.028
-590.952	91.545	0.213	0.239
-589.938	-187.702	-0.149	-0.002
-588.923	90.243	-0.159	0.178
-587.909	33.305	-0.036	0.032
-586.894	38.971	0.166	0.148
-585.879	-120.875	0.373	-0.063
-584.865	-21.713	-0.244	0.149
-583.850	-151.271	-0.174	0.013
-582.836	-200.000	0.028	-0.227
-581.821	225.122	-0.183	0.297
-580.806	40.053	-0.134	-0.121
-579.792	-47.470	0.131	-0.064
-578.777	800.000	0.052	0.185
-577.763	32.829	0.230	-0.199
-576.748	-78.435	-0.219	-0.075
-575.733	-77.510	-0.250	0.087
-574.719	5.839	-0.057	0.042
-573.704	800.000	0.012	0.035
-572.690	-121.949	-0.027	0.004
-571.675	800.000	0.090	0.290
-570.661	-117.350	-0.150	0.027
-569.646	-102.513	0.105	0.025
-568.631	-200.000	0.028	-0.386
-567.617	-137.298	-0.269	0.031
-566.602	170.614	0.067	-0.096
-565.588	-27.185	0.190	0.111
-564.573	-98.973	0.246	0.063
-563.558	-200.000	0.043	-0.275
-562.544	248.750	-0.196	-0.332
-561.529	13.275	0.411	-0.318
-560.515	-20.820	-0.204	-0.125
-559.500	-200.000	-0.042	0.240
-558.485	-103.095	-0.081	-0.019
-557.471	290.478	-0.055	-0.100
-556.456	33.012	0.202	-0.174
-555.442	-200.000	-0.017	-0.187
-554.427	-84.937	-0.316	0.099
-553.412	7.489	0.263	-0.197
-552.398	-200.000	0.038	0.180
-551.383	-146.204	-0.286	-0.025
-550.369	21.140	0.235	0.191
-549.354	-130.619	0.311	0.042
-548.339	-17.942	-0.097	-0.061
-547.325	-134.812	0.140	-0.017
-546.310	-30.630	-0.066	0.038
-545.296	-69.907	-0.028	-0.011
-544.281	230.251	0.072	0.118
-543.266	-113.068	0.307	0.061
-542.252	3.002	0.201	-0.146
-541.237	-200.000	0.015	0.107
-540.223	-44.585	0.067	-0.034
-539.208	-200.000	0.003	-0.375
-538.193	-200.000	0.084	-0.454
-537.179	800.000	0.067	-0.274
-536.164	218.293	0.152	-0.242
-535.150	-91.168	0.230	-0.066
-534.135	74.326	0.087	0.091
-533.121	-96.228	0.166	-0.044
-532.106	-200.000	0.054	-0.246
-531.091	399.139	0.108	-0.226
-530.077	-154.331	-0.312	-0.021
-529.062	-200.000	-0.026	-0.290
-528.048	-200.000	0.012	0.225
-527.033	-96.543	-0.127	-0.034
-526.018	-1.741	-0.366	0.258
-525.004	-76.418	0.159	-0.056
-523.989	-88.014	0.237	-0.071
-522.975	-129.040	-0.087	0.012
-521.960	-200.000	0.033	-0.150
-520.945	239.320	-0.097	-0.162
-519.931	87.170	0.175	0.193
-518.916	114.859	0.114	0.139
-517.902	-20.646	0.263	0.161
-516.887	-200.000	-0.039	-0.218
-515.872	40.530	0.046	0.041
-514.858	-200.000	-0.028	0.160
-513.843	149.274	0.023	0.031
-512.829	534.032	-0.120	-0.283
-511.814	199.197	-0.061	0.093
-510.799	-23.772	-0.144	-0.086
-509.785	-47.969	0.194	-0.094
-508.770	-200.000	0.008	-0.125
-507.756	-85.782	0.083	-0.026
-506.741	-98.353	-0.324	0.083
-505.726	-200.000	-0.002	0.083
-504.712	287.978	0.030	-0.054
-503.697	83.989	-0.222	-0.242
-502.683	73.388	0.319	0.333
-501.668	-0.576	0.270	0.191
-500.653	-159.519	0.240	0.013
-499.639	10.537	-0.316	0.240
-498.624	305.402	-0.071	0.131
-497.610	-116.631	0.055	0.010
-496.595	-200.000	-0.016	-0.192
-495.581	-200.000	-0.007	-0.280
-494.566	-109.846	-0.466	0.097
-493.551	69.082	0.179	-0.183
-492.537	14.093	-0.215	0.167
-491.522	-121.203	0.260	-0.043
-490.508	-200.000	-0.075	-0.356
-489.493	-116.900	0.135	0.025
-488.478	34.745	0.050	0.043
-487.464	-43.518	-0.213	-0.107
-486.449	-27.788	0.317	-0.183
-485.435	-3.895	-0.218	-0.151
-484.420	430.356	-0.037	-0.080
-483.405	330.048	-0.070	-0.134
-482.391	50.971	0.185	0.174
-481.376	17.377	0.296	0.234
-480.362	-102.928	0.229	0.054
-479.347	-39.090	0.133	0.070
-478.332	33.818	0.347	-0.301
-477.318	7.038	-0.210	-0.156
-476.303	703.681	-0.073	-0.192
-475.289	800.000	0.156	-0.509
-474.274	-134.136	0.188	-0.023
-473.259	94.817	0.085	0.097
-472.245	129.836	0.182	0.232
-471.230	-80.530	-0.415	0.138
-470.216	-31.464	-0.248	0.139
-469.201	113.370	0.150	-0.181
-468.186	154.472	-0.085	-0.117
-467.172	662.951	-0.108	0.278
-466.157	-200.000	-0.035	-0.515
-465.143	800.000	-0.027	0.084
-464.128	-129.780	-0.159	-0.022
-463.113	8.435	-0.203	-0.152
-462.099	50.752	0.126	-0.119
-461.084	-22.796	0.087	-0.052
-460.070	118.659	-0.253	0.311
-459.055	-149.580	-0.133	0.010
-458.040	154.856	-0.026	0.035
-457.026	83.106	0.060	0.065
-456.011	11.435	0.123	0.094
-454.997	77.953	0.115	0.122
-453.982	-156.372	-0.191	-0.012
-452.968	-57.350	-0.244	-0.107
-451.953	-12.456	0.179	0.117
-450.938	-98.633	0.459	-0.116
-449.924	-43.421	0.093	-0.047
-448.909	800.000	0.090	0.306
-447.895	-75.735	0.334	0.118
-446.880	-43.287	-0.302	0.152
-445.865	-200.000	0.005	-0.175
-444.851	195.329	-0.100	0.152
-443.836	-67.463	-0.305	0.119
-442.822	800.000	-0.067	-0.245
-441.807	36.084	-0.233	-0.204
-440.792	-107.924	0.190	0.041
-439.778	43.881	0.159	0.145
-438.763	-124.370	-0.188	0.029
-437.749	196.698	0.191	-0.290
-436.734	-68.937	0.113	0.044
-435.719	235.027	0.036	0.059
-434.705	-30.454	0.103	0.058
-433.690	-147.393	-0.308	-0.026
-432.676	85.948	0.270	-0.296
-431.661	-152.829	0.161	0.011
-430.646	-98.402	-0.470	-0.120
-429.632	800.000	0.093	0.345
-428.617	-114.348	0.313	-0.060
-427.603	328.170	-0.081	-0.155
-426.588	-3.308	0.122	-0.084
-425.573	-163.347	-0.235	-0.011
-424.559	800.000	0.025	-0.080
-423.544	-200.000	-0.001	-0.105
-422.530	755.915	-0.093	-0.251
-421.515	-200.000	-0.022	0.306
-420.500	-79.612	0.287	-0.096
-419.486	-0.653	-0.339	0.239
-418.471	506.985	-0.110	-0.253
-417.457	-69.633	-0.191	0.073
-416.442	-108.062	-0.463	-0.100
-415.428	135.657	-0.164	-0.213
-414.413	-151.249	-0.163	-0.012
-413.398	-74.846	0.172	-0.061
-412.384	800.000	0.047	-0.206
-411.369	800.000	-0.036	-0.127
-410.355	800.000	-0.061	-0.177
-409.340	-59.047	-0.228	-0.098
-408.325	38.924	-0.102	0.091
-407.311	-89.665	0.262	0.076
-406.296	472.057	0.054	-0.122
-405.282	-146.236	-0.260	0.023
-404.267	-200.000	-0.077	0.475
-403.252	6.846	0.326	0.241
-402.238	-200.000	-0.060	0.328
-401.223	31.493	-0.137	-0.117
-400.209	1.291	0.047	-0.034
-399.194	-152.359	-0.252	0.018
-398.179	-138.856	0.036	0.004
-397.165	-81.746	0.318	0.103
-396.150	152.363	-0.151	-0.205
-395.136	-200.000	0.003	-0.076
-394.121	-2.593	-0.190	0.132
-393.106	4.241	-0.094	-0.069
-392.092	136.880	0.018	0.023
-391.077	77.856	-0.085	-0.090
-390.063	800.000	-0.023	-0.090
-389.048	800.000	0.034	0.102
-388.033	554.197	-0.053	0.127
-387.019	-200.000	0.018	-0.245
-386.004	20.550	-0.265	0.213
-384.990	-200.000	-0.015	0.173
-383.975	118.607	0.313	0.383
-382.960	-188.273	-0.198	0.002
-381.946	72.746	0.209	0.217
-380.931	-75.898	-0.217	0.076
-379.917	76.177	0.134	-0.141
-378.902	800.000	0.085	-0.251
-377.888	-200.000	-0.039	-0.177
-376.873	-151.195	0.206	-0.015
-375.858	-200.000	-0.005	-0.085
-374.844	135.530	-0.074	-0.096
-373.829	147.272	0.093	0.124
-372.815	-35.755	-0.283	-0.152
-371.800	-200.000	0.019	-0.123
-370.785	654.975	-0.218	0.556
-369.771	-111.882	-0.183	0.037
-368.756	133.526	-0.116	0.148
-367.742	-6.236	-0.207	0.141
-366.727	-200.000	0.009	-0.122
-365.712	-75.004	-0.342	0.122
-364.698	213.979	-0.109	-0.171
-363.683	-15.538	0.068	-0.043
-362.669	80.756	-0.026	-0.028
-361.654	800.000	0.032	-0.104
-360.639	-156.833	0.331	-0.020
-359.625	-141.510	-0.226	-0.023
-358.610	800.000	0.066	-0.280
-357.596	20.156	-0.140	0.112
-356.581	639.805	-0.079	-0.200
-355.566	-57.530	0.053	-0.023
-354.552	-142.314	-0.053	0.005
-353.537	-200.000	-0.004	0.176
-352.523	-146.217	0.157	-0.014
-351.508	-200.000	-0.062	0.302
-350.493	-82.891	0.202	0.065
-349.479	-121.930	-0.343	0.056
-348.464	548.713	-0.201	0.476
-347.450	800.000	0.108	0.385
-346.435	174.581	0.186	0.266
-345.420	34.352	-0.154	0.133
-344.406	367.517	0.142	-0.284
-343.391	-12.252	-0.085	0.055
-342.377	-143.992	-0.600	0.056
-341.362	-1.638	0.229	-0.160
-340.348	527.317	0.096	0.225
-339.333	-37.172	-0.266	-0.141
-338.318	704.842	0.144	0.376
-337.304	284.689	-0.102	0.182
-336.289	-167.824	-0.240	-0.009
-335.275	151.445	0.101	0.136
-334.260	-36.680	0.391	-0.208
-333.245	-28.824	0.132	0.075
-332.231	63.824	-0.185	-0.184
-331.216	50.510	0.099	0.093
-330.202	-55.362	0.047	-0.021
-329.187	-200.000	-0.014	-0.243
-328.172	800.000	0.091	0.298
-327.158	-12.344	0.220	-0.142
-326.143	-149.040	0.046	0.004
-325.129	-121.830	-0.032	0.005
-324.114	41.720	-0.291	0.261
-323.099	50.836	0.154	0.144
-322.085	-127.323	0.121	-0.018
-321.070	800.000	0.066	-0.185
-320.056	-143.427	-0.220	-0.021
-319.041	-42.983	0.070	-0.035
-318.026	216.764	0.129	0.203
-317.012	800.000	-0.014	-0.044
-315.997	-41.578	-0.246	-0.125
-314.983	610.268	0.037	-0.091
-313.968	94.752	-0.092	-0.104
-312.953	-58.818	-0.270	0.116
-311.939	-200.000	0.029	-0.258
-310.924	-46.101	-0.196	-0.096
-309.910	83.319	-0.054	-0.058
-308.895	333.356	0.161	-0.308
-307.880	-82.675	0.171	0.055
-306.866	-31.059	0.299	-0.167
-305.851	232.706	-0.203	0.329
-304.837	-84.244	0.123	0.039
-303.822	800.000	0.081	0.286
-302.807	67.563	-0.248	0.250
-301.793	576.685	0.100	-0.242
-300.778	-83.646	0.198	-0.063
-299.764	284.457	-0.071	-0.126
-298.749	-200.000	0.010	0.067
-297.735	67.639	-0.200	-0.202
-296.720	83.512	0.056	0.061
-295.705	-47.646	-0.213	0.102
-294.691	-200.000	0.045	0.253
-293.676	-165.397	-0.533	0.023
-292.662	-200.000	0.013	0.070
-291.647	136.986	0.168	-0.217
-290.632	-29.503	0.218	-0.123
-289.618	-107.643	0.149	0.032
-288.603	172.464	-0.087	-0.123
-287.589	-78.545	-0.269	0.091
-286.574	800.000	0.108	0.397
-285.559	-168.978	-0.155	0.006
-284.545	-200.000	0.032	0.317
-283.530	-128.111	0.306	-0.043
-282.516	249.507	0.053	-0.088
-281.501	156.922	0.116	0.159
-280.486	27.572	0.161	-0.134
-279.472	-35.337	-0.117	0.063
-278.457	-200.000	-0.044	-0.202
-277.443	-125.963	-0.424	-0.063
-276.428	373.618	-0.114	0.229
-275.413	-60.051	0.139	0.059
-274.399	-41.045	0.310	0.158
-273.384	339.792	-0.109	0.209
-272.370	8.416	-0.264	0.196
-271.355	-77.440	0.206	0.071
-270.340	-172.204	-0.096	0.003
-269.326	-160.104	0.034	-0.002
-268.311	-170.683	-0.332	0.011
-267.297	800.000	0.060	-0.172
-266.282	800.000	0.072	0.250
-265.267	115.600	0.170	0.206
-264.253	800.000	0.008	-0.023
-263.238	-62.059	-0.321	-0.132
-262.224	187.443	-0.148	-0.218
-261.209	234.003	0.073	-0.119
-260.195	800.000	0.064	-0.256
-259.180	22.739	0.279	-0.226
-258.165	392.402	-0.184	-0.379
-257.151	800.000	0.095	0.376
-256.136	201.360	0.116	-0.177
-255.122	580.672	0.159	-0.386
-254.107	40.519	0.192	-0.171
-253.092	-24.575	-0.175	0.103
-252.078	-45.386	-0.167	-0.082
-251.063	-67.864	0.072	-0.028
-250.049	-10.356	-0.355	0.232
-249.034	-68.293	0.055	0.021
-248.019	96.216	0.339	0.383
-247.005	-200.000	-0.016	0.171
-245.990	243.633	0.091	-0.150
-244.976	-200.000	-0.016	0.142
-243.961	-200.000	-0.011	-0.089
-242.946	-1.203	0.090	-0.062
-241.932	472.759	-0.100	-0.222
-240.917	800.000	-0.023	-0.070
-239.903	27.683	0.192	0.159
-238.888	-200.000	-0.017	0.138
-237.873	305.698	-0.204	0.374
-236.859	800.000	0.068	0.237
-235.844	165.881	-0.078	0.108
-234.830	349.389	-0.096	0.187
-233.815	195.961	-0.158	0.238
-232.800	275.436	0.247	-0.433
-231.786	-200.000	0.082	-0.357
-230.771	-185.575	-0.285	0.004
-229.757	-137.176	0.344	0.039
-228.742	90.256	0.044	0.049
-227.727	613.342	-0.055	0.137
-226.713	800.000	0.051	0.216
-225.698	-200.000	0.010	0.335
-224.684	54.301	0.023	-0.022
-223.669	-92.801	-0.183	0.050
-222.655	-69.083	0.231	0.088
-221.640	-200.000	0.057	-0.277
-220.625	41.223	-0.253	0.226
-219.611	800.000	-0.083	-0.258
-218.596	-200.000	0.030	-0.154
-217.582	-198.124	0.396	0.002
-216.567	-200.000	-0.008	0.106
-215.552	-149.298	0.148	-0.012
-214.538	250.379	-0.080	-0.133
-213.523	-139.555	-0.270	-0.028
-212.509	-200.000	0.037	0.358
-211.494	187.174	-0.119	-0.175
-210.479	-200.000	-0.027	-0.188
-209.465	-75.995	0.164	0.057
-208.450	-200.000	0.010	0.356
-207.436	800.000	-0.011	0.044
-206.421	-41.311	0.397	-0.202
-205.406	800.000	0.036	-0.151
-204.392	436.058	-0.060	0.129
-203.377	-74.336	0.174	-0.062
-202.363	-31.348	-0.218	0.121
-201.348	-172.311	0.309	-0.010
-200.333	-47.771	0.038	-0.018
-199.319	21.390	-0.359	0.287
-198.304	253.662	-0.231	-0.388
-197.290	-200.000	0.011	-0.111
-196.275	128.911	-0.179	0.225
-195.260	186.992	-0.176	-0.259
-194.246	-21.330	-0.143	-0.086
-193.231	800.000	-0.078	-0.213
-192.217	-101.443	0.183	0.044
-191.202	-144.477	0.111	-0.010
-190.187	-78.054	0.091	-0.031
-189.173	-200.000	0.027	0.190
-188.158	76.056	-0.152	-0.158
-187.144	123.271	0.079	0.097
-186.129	-200.000	0.044	0.273
-185.114	-100.586	0.415	0.101
-184.100	-88.467	0.239	0.070
-183.085	-129.220	0.136	0.019
-182.071	233.519	-0.083	-0.134
-181.056	223.010	-0.104	0.166
-180.042	-46.583	0.239	0.115
-179.027	-0.313	0.328	0.230
-178.012	-61.059	-0.325	-0.135
-176.998	-200.000	-0.057	-0.366
-175.983	-9.704	-0.160	0.105
-174.969	10.322	-0.105	-0.079
-173.954	17.787	-0.129	0.101
-172.939	800.000	-0.021	0.071
-171.925	-29.400	-0.518	-0.292
-170.910	11.934	0.196	-0.148
-169.896	-87.616	0.245	-0.073
-168.881	174.474	0.249	0.354
-167.866	433.530	-0.074	0.159
-166.852	120.535	-0.100	-0.122
-165.837	-40.752	-0.307	0.157
-164.823	-107.157	0.111	0.024
-163.808	1.863	0.183	0.130
-162.793	-200.000	-0.006	-0.194
-161.779	-200.000	0.017	-0.203
-160.764	-56.574	0.195	0.085
-159.750	11.598	-0.318	0.240
-158.735	-200.000	0.095	-0.434
-157.720	79.478	-0.053	0.056
-156.706	-200.000	-0.021	-0.116
-155.691	-84.215	0.143	-0.045
-154.677	-86.796	-0.284	0.085
-153.662	455.243	-0.086	0.187
-152.647	-36.483	-0.196	0.104
-151.633	247.322	0.053	-0.088
-150.618	-162.453	-0.038	0.002
-149.604	-0.116	-0.296	-0.207
-148.589	-37.104	0.258	-0.136
-147.574	59.581	-0.210	-0.204
-146.560	67.529	-0.051	-0.051
-145.545	123.050	0.125	-0.154
-144.531	800.000	0.051	-0.214
-143.516	168.644	0.187	-0.262
-142.502	693.292	0.050	0.129
-141.487	458.625	0.072	0.158
-140.472	800.000	0.058	0.206
-139.458	365.106	-0.053	0.106
-138.443	101.827	-0.271	-0.311
-137.429	46.480	0.324	-0.296
-136.414	-200.000	-0.027	0.163
-135.399	-126.513	0.108	0.016
-134.385	634.342	0.136	0.339
-133.370	-5.425	-0.320	-0.216
-132.356	214.717	0.192	-0.299
-131.341	800.000	0.040	-0.132
-130.326	-126.602	0.402	0.059
-129.312	-92.251	0.251	-0.070
-128.297	4.587	-0.114	0.082
-127.283	188.158	0.121	-0.177
-126.268	-200.000	0.029	0.168
-125.253	130.264	0.153	0.193
-124.239	-100.064	0.106	-0.026
-123.224	-200.000	-0.070	-0.396
-122.210	-138.735	0.115	0.012
-121.195	-111.040	0.216	0.044
