DTS Sentinel unit serial number:	SN413079Multiplexer serial number:	ORYXHardware model number:	OX4-SRSoftware version number:	ORYX F/W v4.00 Oryx Data Collector v3.7.2.0data status	okinstallation	princeton_trtdifferential loss correction	single-endedforward channel	channel 2reverse channel	N/Adate	2019/09/17time	04:23:35forward acquisition time	60.00reverse acquisition time	0.00gamma	496.2192k internal	0.2327k external	0.2327temperature offset calibration	0.9977default loss term (dB/km)	0.3790temperature slope calibration	1.0000multiplexer offset coefficient	1.0000multiplexer slope coefficient	1.0000fibre end	0.00T internal ref (°C)	29.75T ext. ref 1 (°C)	0.14T ext. ref 2 (°C)	24.21length (m)	temperature (°C)	Stokes	anti-Stokes-747.200	-200.000	-0.012	0.330
-746.185	241.445	-0.070	-0.118
-745.171	98.844	-0.122	0.142
-744.156	-170.070	-0.144	0.005
-743.142	-168.723	0.121	-0.005
-742.127	800.000	-0.127	0.420
-741.112	-18.135	-0.228	-0.144
-740.098	-106.675	-0.334	-0.075
-739.083	-118.253	-0.120	-0.022
-738.069	-44.400	-0.058	0.029
-737.054	-21.912	0.060	0.036
-736.039	-117.772	0.104	0.019
-735.025	-184.474	0.389	-0.006
-734.010	-141.657	0.048	0.005
-732.996	-200.000	-0.025	0.333
-731.981	-200.000	-0.003	0.285
-730.966	-102.558	0.030	-0.007
-729.952	-84.558	0.081	-0.026
-728.937	105.010	-0.193	-0.230
-727.923	-98.008	-0.238	-0.062
-726.908	500.883	-0.152	0.354
-725.894	-157.793	-0.261	-0.016
-724.879	-19.228	-0.154	-0.096
-723.864	-129.762	-0.109	0.015
-722.850	-101.824	0.191	-0.047
-721.835	65.340	-0.212	-0.215
-720.821	-37.831	-0.416	-0.223
-719.806	-21.181	-0.050	0.031
-718.791	189.002	0.117	0.176
-717.777	-152.318	-0.217	-0.016
-716.762	564.891	0.118	-0.288
-715.748	-88.940	0.181	0.054
-714.733	-71.136	0.083	-0.031
-713.718	105.645	-0.044	-0.053
-712.704	-200.000	0.021	-0.109
-711.689	-200.000	-0.013	-0.432
-710.675	-85.327	0.195	0.061
-709.660	-52.792	-0.369	-0.171
-708.645	-170.845	0.107	0.004
-707.631	575.966	-0.049	-0.120
-706.616	374.720	-0.153	0.313
-705.602	-91.223	-0.193	-0.056
-704.587	215.015	-0.094	-0.150
-703.572	69.086	-0.081	-0.084
-702.558	-200.000	-0.043	-0.303
-701.543	-200.000	-0.010	-0.285
-700.529	87.614	0.094	-0.105
-699.514	240.911	-0.083	0.140
-698.499	-151.119	-0.094	-0.007
-697.485	800.000	-0.101	-0.291
-696.470	255.247	-0.060	-0.104
-695.456	800.000	0.093	-0.320
-694.441	-109.725	-0.233	-0.049
-693.426	128.390	0.063	0.081
-692.412	194.540	-0.145	0.222
-691.397	-120.389	-0.148	-0.025
-690.383	261.417	0.048	-0.083
-689.368	-46.554	0.151	-0.074
-688.354	-200.000	-0.048	0.292
-687.339	391.075	-0.137	0.286
-686.324	125.125	0.145	-0.184
-685.310	-144.098	0.148	0.014
-684.295	-53.368	0.272	0.125
-683.281	47.787	0.118	-0.111
-682.266	-114.528	0.217	0.042
-681.251	-115.083	-0.162	-0.031
-680.237	-200.000	-0.044	0.279
-679.222	-200.000	-0.020	-0.326
-678.208	125.720	0.054	0.068
-677.193	-106.975	0.304	-0.068
-676.178	800.000	-0.046	0.172
-675.164	-200.000	-0.026	0.383
-674.149	729.518	-0.089	0.239
-673.135	800.000	0.039	-0.131
-672.120	100.109	-0.172	-0.200
-671.105	-12.745	0.244	-0.160
-670.091	487.396	-0.052	0.119
-669.076	-187.037	-0.279	-0.004
-668.062	381.160	-0.075	0.155
-667.047	-91.234	-0.346	-0.100
-666.032	-50.336	-0.108	-0.051
-665.018	-200.000	0.067	-0.362
-664.003	-200.000	-0.020	0.194
-662.989	-200.000	-0.053	0.260
-661.974	-73.921	-0.136	0.050
-660.959	58.688	-0.072	0.071
-659.945	-200.000	-0.030	0.155
-658.930	137.209	-0.109	0.144
-657.916	149.910	0.096	-0.131
-656.901	76.868	-0.274	0.292
-655.886	206.455	-0.078	-0.122
-654.872	-111.490	-0.148	-0.030
-653.857	800.000	-0.037	0.161
-652.843	-200.000	0.030	-0.233
-651.828	466.520	-0.105	-0.236
-650.814	-52.994	0.273	-0.126
-649.799	800.000	-0.074	-0.257
-648.784	-200.000	-0.041	0.225
-647.770	-14.355	-0.172	0.111
-646.755	-200.000	-0.038	0.246
-645.741	-78.935	-0.229	0.078
-644.726	800.000	0.134	-0.382
-643.711	800.000	-0.036	0.114
-642.697	-200.000	-0.055	0.000
-641.682	-146.678	-0.176	-0.015
-640.668	-25.290	-0.033	-0.020
-639.653	-200.000	0.033	-0.363
-638.638	172.254	0.181	-0.261
-637.624	-200.000	-0.101	0.487
-636.609	11.469	0.173	0.133
-635.595	595.567	0.072	-0.180
-634.580	-200.000	-0.040	-0.239
-633.565	403.500	0.053	0.112
-632.551	800.000	-0.029	-0.117
-631.536	-200.000	-0.003	0.019
-630.522	1.087	0.165	0.119
-629.507	-36.505	-0.352	0.190
-628.492	172.321	-0.118	0.170
-627.478	800.000	-0.046	-0.148
-626.463	-200.000	0.007	0.178
-625.449	-116.032	-0.229	0.043
-624.434	460.846	-0.122	0.273
-623.419	-200.000	0.001	-0.031
-622.405	172.637	0.140	0.202
-621.390	-200.000	-0.005	-0.108
-620.376	78.018	0.033	-0.035
-619.361	-200.000	0.014	-0.206
-618.346	56.594	-0.217	-0.212
-617.332	800.000	0.060	0.189
-616.317	282.913	-0.159	-0.286
-615.303	-51.874	0.143	-0.067
-614.288	-200.000	0.007	0.421
-613.273	-200.000	0.008	-0.102
-612.259	-146.376	-0.132	-0.012
-611.244	174.614	-0.193	-0.280
-610.230	-8.949	-0.249	0.167
-609.215	183.016	-0.128	0.189
-608.201	148.640	0.255	0.346
-607.186	-40.338	-0.338	0.176
-606.171	-200.000	0.031	-0.300
-605.157	-82.755	0.139	0.045
-604.142	-31.195	-0.111	0.063
-603.128	-200.000	0.005	-0.322
-602.113	-102.398	0.093	-0.022
-601.098	-59.848	-0.226	-0.097
-600.084	-3.109	0.124	-0.087
-599.069	-80.006	-0.214	0.072
-598.055	-14.027	0.281	-0.182
-597.040	56.872	-0.035	0.034
-596.025	-200.000	-0.012	-0.075
-595.011	-48.526	0.164	0.079
-593.996	-188.468	-0.236	0.003
-592.982	-200.000	0.031	-0.250
-591.967	235.184	-0.102	0.169
-590.952	-59.414	0.071	0.031
-589.938	-200.000	-0.016	0.155
-588.923	209.250	-0.158	-0.249
-587.909	189.720	-0.062	-0.093
-586.894	-51.871	-0.266	-0.124
-585.879	213.942	0.036	0.056
-584.865	-15.608	-0.346	0.221
-583.850	-40.208	-0.385	0.201
-582.836	54.436	0.180	-0.174
-581.821	800.000	-0.034	-0.115
-580.806	-132.977	-0.228	-0.029
-579.792	125.040	-0.113	0.143
-578.777	-200.000	-0.005	0.151
-577.763	72.980	0.081	0.084
-576.748	-110.971	-0.355	-0.073
-575.733	106.479	0.270	-0.321
-574.719	800.000	0.025	0.080
-573.704	800.000	0.117	0.333
-572.690	48.575	-0.189	0.177
-571.675	212.549	0.084	-0.133
-570.661	557.360	-0.056	-0.134
-569.646	464.075	-0.033	0.074
-568.631	-27.163	0.132	-0.077
-567.617	-86.173	-0.268	0.083
-566.602	17.880	-0.145	0.116
-565.588	101.030	0.133	0.155
-564.573	-200.000	0.028	-0.197
-563.558	-200.000	0.020	0.154
-562.544	-200.000	-0.051	-0.351
-561.529	-175.637	-0.132	-0.004
-560.515	-200.000	0.025	0.138
-559.500	800.000	0.022	0.079
-558.485	-93.564	-0.380	0.105
-557.471	-200.000	-0.001	0.353
-556.456	730.658	0.071	-0.191
-555.442	595.972	-0.109	0.270
-554.427	800.000	-0.064	-0.178
-553.412	159.688	0.318	-0.444
-552.398	-154.820	-0.101	-0.007
-551.383	766.907	0.006	0.018
-550.369	431.516	0.156	0.337
-549.354	-43.212	0.230	0.116
-548.339	-76.574	-0.209	0.073
-547.325	-200.000	0.059	-0.407
-546.310	-120.057	0.329	0.056
-545.296	800.000	0.032	-0.107
-544.281	88.332	0.030	0.034
-543.266	62.578	-0.071	-0.071
-542.252	284.797	-0.177	-0.319
-541.237	-42.795	-0.275	-0.140
-540.223	-123.774	0.513	0.081
-539.208	-72.226	-0.106	0.039
-538.193	734.699	-0.056	0.149
-537.179	-2.726	-0.278	-0.194
-536.164	-200.000	-0.023	-0.134
-535.150	-119.405	-0.085	-0.015
-534.135	800.000	0.033	-0.107
-533.121	800.000	0.061	-0.195
-532.106	-23.112	0.353	0.213
-531.091	102.041	-0.246	0.288
-530.077	-200.000	-0.092	-0.411
-529.062	189.249	0.348	-0.521
-528.048	-200.000	-0.016	-0.349
-527.033	208.469	-0.045	0.070
-526.018	800.000	0.023	-0.099
-525.004	-83.511	-0.191	-0.061
-523.989	36.517	-0.291	-0.257
-522.975	250.624	0.128	0.218
-521.960	354.017	-0.119	0.235
-520.945	-123.462	0.421	0.067
-519.931	-200.000	0.018	0.278
-518.916	-37.045	-0.148	0.079
-517.902	800.000	-0.067	0.240
-516.887	800.000	-0.102	-0.323
-515.872	438.626	0.077	-0.169
-514.858	-200.000	-0.041	-0.214
-513.843	255.609	0.188	-0.322
-512.829	12.763	0.249	0.192
-511.814	9.199	0.178	-0.134
-510.799	-200.000	0.006	-0.074
-509.785	66.953	-0.200	-0.204
-508.770	410.174	-0.118	-0.251
-507.756	-200.000	0.019	-0.226
-506.741	-139.563	-0.388	-0.041
-505.726	800.000	0.092	-0.342
-504.712	60.986	-0.039	0.039
-503.697	81.421	0.107	-0.116
-502.683	485.100	-0.086	-0.195
-501.668	-200.000	-0.021	0.107
-500.653	-15.864	0.415	0.264
-499.639	-69.250	0.158	-0.061
-498.624	40.319	-0.400	0.360
-497.610	-67.394	0.141	-0.055
-496.595	800.000	0.031	0.112
-495.581	-200.000	0.074	-0.366
-494.566	331.250	0.126	-0.243
-493.551	-84.484	0.154	0.049
-492.537	268.315	0.253	0.443
-491.522	-200.000	-0.043	0.218
-490.508	-81.691	-0.323	-0.106
-489.493	63.028	-0.146	0.146
-488.478	-101.289	-0.115	0.028
-487.464	42.167	0.134	0.121
-486.449	37.941	0.211	-0.187
-485.435	-141.180	-0.051	0.005
-484.420	-47.835	-0.170	-0.082
-483.405	538.397	0.092	0.219
-482.391	-22.794	-0.195	0.118
-481.376	-126.992	-0.255	0.037
-480.362	-109.169	-0.151	0.032
-479.347	743.791	-0.067	-0.179
-478.332	-200.000	-0.075	-0.332
-477.318	-65.289	-0.088	0.035
-476.303	-59.347	0.195	-0.084
-475.289	46.347	-0.080	-0.074
-474.274	-24.854	0.348	0.206
-473.259	-64.378	0.123	0.050
-472.245	800.000	-0.054	-0.222
-471.230	-200.000	0.093	0.558
-470.216	-67.334	-0.327	-0.128
-469.201	-56.791	-0.318	0.140
-468.186	183.743	0.211	0.311
-467.172	647.830	0.176	-0.447
-466.157	800.000	0.056	-0.236
-465.143	-3.692	0.240	0.166
-464.128	-40.051	0.375	0.195
-463.113	-22.886	0.127	0.077
-462.099	-129.445	-0.234	-0.032
-461.084	-200.000	0.049	0.287
-460.070	-83.053	0.103	-0.033
-459.055	-123.821	0.275	0.043
-458.040	108.162	-0.201	0.239
-457.026	-9.224	0.299	-0.199
-456.011	-200.000	0.007	-0.116
-454.997	-200.000	0.010	0.063
-453.982	-5.745	0.196	-0.134
-452.968	415.629	-0.112	-0.237
-451.953	549.269	0.150	-0.358
-450.938	-174.916	-0.180	0.005
-449.924	433.462	-0.062	0.134
-448.909	-4.703	0.154	-0.106
-447.895	238.075	0.164	0.270
-446.880	332.188	-0.263	-0.506
-445.865	18.003	-0.406	-0.323
-444.851	-179.925	-0.251	-0.005
-443.836	-22.340	0.110	0.066
-442.822	620.303	-0.066	-0.165
-441.807	58.693	0.115	-0.112
-440.792	23.714	0.358	-0.294
-439.778	-34.935	-0.357	-0.194
-438.763	28.428	0.353	0.297
-437.749	177.549	-0.239	0.347
-436.734	-91.803	-0.149	0.042
-435.719	-200.000	0.038	-0.238
-434.705	484.052	0.152	0.345
-433.690	80.050	-0.215	0.230
-432.676	800.000	0.079	-0.284
-431.661	168.094	0.231	-0.327
-430.646	443.235	0.128	0.280
-429.632	2.004	-0.039	-0.028
-428.617	17.272	0.050	-0.040
-427.603	-135.129	-0.173	0.021
-426.588	9.450	0.059	-0.044
-425.573	-68.312	0.297	-0.115
-424.559	-200.000	-0.031	0.250
-423.544	-200.000	-0.005	-0.447
-422.530	800.000	0.041	0.116
-421.515	-130.096	0.238	0.032
-420.500	-66.205	-0.314	-0.125
-419.486	-77.243	0.274	-0.095
-418.471	39.914	0.161	-0.144
-417.457	99.038	-0.211	0.242
-416.442	625.038	-0.048	0.120
-415.428	262.594	0.107	0.184
-414.413	55.100	-0.091	0.087
-413.398	169.286	-0.050	0.071
-412.384	-200.000	0.000	-0.076
-411.369	-72.230	-0.128	-0.047
-410.355	-108.876	-0.241	0.051
-409.340	-11.988	0.137	0.089
-408.325	-32.721	-0.094	0.052
-407.311	-149.609	-0.083	-0.007
-406.296	-22.927	0.264	-0.159
-405.282	-200.000	-0.061	0.287
-404.267	247.452	-0.088	0.147
-403.252	-11.381	-0.264	0.173
-402.238	-200.000	0.020	0.167
-401.223	-200.000	0.009	-0.253
-400.209	265.579	0.116	0.201
-399.194	-189.370	0.153	-0.002
-398.179	-200.000	0.000	0.030
-397.165	-9.984	-0.166	-0.110
-396.150	800.000	0.066	0.243
-395.136	-104.828	-0.220	0.050
-394.121	-200.000	-0.036	-0.281
-393.106	193.749	-0.171	0.258
-392.092	356.512	-0.055	0.110
-391.077	36.133	0.016	-0.014
-390.063	-200.000	-0.046	0.231
-389.048	800.000	0.031	0.113
-388.033	-200.000	-0.014	-0.064
-387.019	-200.000	0.016	0.194
-386.004	-151.507	-0.233	-0.017
-384.990	-64.193	0.125	-0.051
-383.975	485.993	0.067	0.152
-382.960	-9.186	-0.081	-0.054
-381.946	-200.000	0.004	-0.162
-380.931	86.672	0.252	0.277
-379.917	281.594	-0.099	0.175
-378.902	-115.803	0.072	0.013
-377.888	-75.404	-0.156	-0.055
-376.873	800.000	0.114	0.401
-375.858	105.944	0.065	0.077
-374.844	-50.139	-0.149	0.070
-373.829	-183.800	-0.035	0.001
-372.815	51.380	-0.093	0.088
-371.800	-200.000	0.023	0.531
-370.785	-74.071	0.136	-0.049
-369.771	-132.552	0.199	0.025
-368.756	-42.398	0.144	0.073
-367.742	282.491	0.069	0.124
-366.727	-200.000	0.053	0.321
-365.712	-200.000	-0.026	0.180
-364.698	132.408	-0.132	-0.169
-363.683	800.000	0.030	-0.096
-362.669	134.295	0.075	-0.097
-361.654	800.000	-0.044	0.121
-360.639	536.443	-0.099	-0.234
-359.625	-19.112	0.286	0.176
-358.610	-42.323	-0.124	0.063
-357.596	429.963	-0.013	-0.028
-356.581	800.000	0.097	0.386
-355.566	-200.000	-0.013	0.164
-354.552	262.682	-0.096	-0.166
-353.537	-77.705	-0.267	-0.092
-352.523	7.059	0.197	-0.146
-351.508	95.655	0.245	-0.278
-350.493	-25.165	-0.412	0.242
-349.479	-41.310	-0.273	-0.140
-348.464	276.614	0.058	-0.102
-347.450	226.402	0.049	-0.078
-346.435	-139.076	-0.084	0.009
-345.420	-200.000	-0.002	0.084
-344.406	248.214	-0.085	-0.143
-343.391	255.193	0.199	0.338
-342.377	442.754	0.068	0.147
-341.362	-51.424	-0.405	0.188
-340.348	-200.000	0.043	-0.188
-339.333	-124.388	-0.222	-0.034
-338.318	-51.726	-0.246	-0.114
-337.304	-147.023	0.145	-0.012
-336.289	-200.000	0.020	0.173
-335.275	800.000	0.007	-0.026
-334.260	-104.715	-0.472	-0.108
-333.245	800.000	-0.108	-0.381
-332.231	-55.930	-0.169	0.075
-331.216	800.000	0.010	0.036
-330.202	800.000	-0.068	0.250
-329.187	-200.000	0.056	0.328
-328.172	37.731	-0.141	-0.124
-327.158	252.983	0.062	-0.104
-326.143	634.510	0.114	-0.287
-325.129	-45.330	-0.127	-0.062
-324.114	-86.311	-0.237	-0.072
-323.099	79.909	-0.257	0.273
-322.085	75.963	-0.072	-0.076
-321.070	206.118	0.084	0.130
-320.056	-117.129	0.154	0.028
-319.041	800.000	-0.020	0.078
-318.026	-200.000	-0.007	-0.039
-317.012	800.000	0.095	-0.304
-315.997	-24.074	0.139	0.082
-314.983	-129.791	-0.173	-0.024
-313.968	345.536	-0.129	-0.250
-312.953	173.867	-0.192	-0.275
-311.939	138.572	0.108	0.140
-310.924	-110.223	0.261	-0.054
-309.910	15.033	0.127	0.099
-308.895	-71.182	-0.210	-0.078
-307.880	-129.100	-0.271	0.038
-306.866	-78.678	0.064	-0.022
-305.851	-106.907	0.411	0.090
-304.837	-134.463	-0.367	0.044
-303.822	-147.469	0.066	-0.005
-302.807	464.511	0.118	-0.262
-301.793	-5.394	-0.237	-0.161
-300.778	-200.000	0.057	0.387
-299.764	51.951	0.138	-0.130
-298.749	420.357	-0.150	-0.319
-297.735	56.658	0.086	0.083
-296.720	45.134	0.306	0.279
-295.705	-93.820	0.271	-0.074
-294.691	-45.281	0.246	-0.121
-293.676	-23.207	-0.224	0.134
-292.662	-11.272	0.111	0.073
-291.647	-171.368	0.363	-0.012
-290.632	63.245	0.069	-0.069
-289.618	-34.752	-0.234	0.127
-288.603	28.683	0.172	0.144
-287.589	-119.700	-0.282	0.048
-286.574	-10.647	0.251	0.164
-285.559	-77.177	0.306	-0.106
-284.545	95.466	-0.128	-0.145
-283.530	337.191	-0.108	-0.208
-282.516	-200.000	0.406	0.001
-281.501	-126.001	0.215	0.032
-280.486	-37.450	-0.085	-0.045
-279.472	26.263	0.024	-0.020
-278.457	11.242	-0.192	0.145
-277.443	91.953	0.362	0.403
-276.428	800.000	-0.058	-0.223
-275.413	104.918	-0.068	-0.079
-274.399	69.697	-0.212	-0.216
-273.384	800.000	-0.030	0.085
-272.370	800.000	0.131	-0.470
-271.355	-112.804	0.191	-0.038
-270.340	-18.901	-0.106	-0.065
-269.326	-61.688	0.309	0.128
-268.311	-200.000	-0.022	-0.425
-267.297	-21.430	-0.248	0.150
-266.282	-145.306	-0.216	-0.019
-265.267	-200.000	-0.018	0.338
-264.253	37.343	-0.109	-0.096
-263.238	800.000	0.066	0.202
-262.224	-88.030	0.210	-0.062
-261.209	-27.573	0.164	-0.094
-260.195	-193.678	-0.159	-0.001
-259.180	-142.544	-0.385	-0.037
-258.165	-1.014	-0.099	-0.069
-257.151	-200.000	-0.068	-0.389
-256.136	140.459	-0.073	-0.095
-255.122	-28.477	0.144	0.082
-254.107	-42.253	0.451	-0.228
-253.092	179.886	0.129	0.186
-252.078	-137.536	0.331	-0.037
-251.063	267.563	-0.212	0.367
-250.049	-120.789	0.052	0.009
-249.034	-7.986	0.143	0.095
-248.019	14.529	0.156	0.121
-247.005	-49.784	-0.224	0.105
-245.990	-200.000	0.007	0.096
-244.976	46.518	0.132	0.121
-243.961	410.007	-0.087	-0.183
-242.946	-184.426	-0.267	-0.004
-241.932	-62.905	0.131	-0.054
-240.917	535.120	-0.032	0.074
-239.903	800.000	-0.065	-0.278
-238.888	-85.802	0.060	-0.018
-237.873	-120.787	0.342	0.057
-236.859	-200.000	0.003	0.021
-235.844	-196.894	-0.091	0.001
-234.830	416.717	0.126	-0.266
-233.815	-101.377	-0.268	0.065
-232.800	69.529	0.121	-0.124
-231.786	-200.000	-0.002	-0.088
-230.771	800.000	-0.083	-0.244
-229.757	-200.000	0.019	0.540
-228.742	-117.536	-0.141	0.025
-227.727	-119.031	-0.153	0.027
-226.713	-89.049	0.328	-0.096
-225.698	-200.000	-0.002	0.108
-224.684	-200.000	-0.058	-0.254
-223.669	-65.144	-0.074	0.030
-222.655	87.712	-0.171	0.187
-221.640	225.390	0.033	-0.052
-220.625	-75.562	-0.439	0.154
-219.611	-200.000	-0.049	-0.249
-218.596	-102.185	-0.297	-0.070
-217.582	331.657	0.190	0.362
-216.567	800.000	0.061	0.179
-215.552	-89.813	0.343	0.099
-214.538	-47.934	0.380	0.182
-213.523	-200.000	0.025	-0.147
-212.509	-200.000	0.005	0.161
-211.494	-61.740	-0.080	0.033
-210.479	-91.176	0.171	-0.049
-209.465	528.530	0.014	-0.034
-208.450	-132.805	-0.272	0.034
-207.436	-63.274	0.421	0.171
-206.421	16.481	-0.211	0.164
-205.406	377.707	0.025	0.051
-204.392	-200.000	-0.049	-0.261
-203.377	688.910	-0.082	0.211
-202.363	-200.000	0.057	-0.387
-201.348	-200.000	0.005	-0.296
-200.333	-68.855	0.279	0.106
-199.319	-45.662	0.053	-0.026
-198.304	-200.000	0.040	-0.201
-197.290	31.761	0.232	0.197
-196.275	-23.940	0.182	0.107
-195.260	16.956	-0.193	0.151
-194.246	-110.491	0.269	-0.055
-193.231	-200.000	-0.042	0.436
-192.217	800.000	-0.096	0.265
-191.202	-98.536	0.189	-0.048
-190.187	39.262	0.159	-0.140
-189.173	-84.394	0.264	0.082
-188.158	-117.767	0.171	0.030
-187.144	-91.743	-0.198	0.056
-186.129	-87.596	-0.108	0.032
-185.114	66.559	0.078	0.078
-184.100	-200.000	-0.022	-0.366
-183.085	800.000	-0.055	0.207
-182.071	800.000	0.055	0.186
-181.056	218.815	0.303	0.477
-180.042	229.459	0.175	-0.282
-179.027	800.000	0.142	-0.538
-178.012	64.113	0.126	0.125
-176.998	371.662	0.138	0.277
-175.983	-7.661	0.229	-0.152
-174.969	-134.543	-0.185	0.022
-173.954	800.000	-0.069	-0.218
-172.939	-0.187	0.061	0.043
-171.925	39.508	0.425	-0.376
-170.910	2.015	-0.158	-0.112
-169.896	-200.000	0.024	0.169
-168.881	66.487	-0.116	-0.116
-167.866	-200.000	-0.006	-0.491
-166.852	-24.778	0.183	0.107
-165.837	-13.571	-0.208	0.133
-164.823	-63.525	-0.247	0.100
-163.808	24.977	-0.218	-0.178
-162.793	202.500	0.093	-0.142
-161.779	-24.539	-0.201	0.118
-160.764	800.000	0.030	0.128
-159.750	148.704	-0.037	0.049
-158.735	201.074	0.168	0.255
-157.720	-76.656	0.495	-0.171
-156.706	800.000	-0.024	-0.070
-155.691	-9.705	0.277	-0.182
-154.677	-191.908	0.185	0.002
-153.662	696.682	-0.098	-0.254
-152.647	-200.000	0.034	0.262
-151.633	282.643	0.062	0.109
-150.618	-200.000	-0.030	-0.193
-149.604	505.987	0.074	-0.168
-148.589	-69.258	0.130	0.049
-147.574	-84.534	-0.189	0.059
-146.560	-200.000	0.072	-0.320
-145.545	-200.000	0.063	-0.366
-144.531	-200.000	0.069	0.429
-143.516	-115.983	0.042	-0.008
-142.502	36.694	0.369	0.321
-141.487	15.476	-0.092	-0.071
-140.472	-14.566	-0.177	0.112
-139.458	800.000	-0.086	-0.266
-138.443	-200.000	-0.028	0.327
-137.429	-64.709	0.533	0.212
-136.414	-100.745	-0.242	0.059
-135.399	-200.000	0.047	0.280
-134.385	-80.896	0.112	0.036
-133.370	-55.573	0.165	-0.073
-132.356	-46.148	-0.546	-0.265
-131.341	305.026	-0.207	0.378
-130.326	30.836	-0.102	0.086
-129.312	-200.000	-0.006	0.256
-128.297	-43.040	-0.189	-0.094
-127.283	-200.000	-0.002	0.027
-126.268	-200.000	0.099	-0.468
-125.253	-200.000	0.005	-0.215
-124.239	22.130	0.205	-0.165
-123.224	-96.763	0.128	0.033
-122.210	-158.409	0.104	-0.006
