DTS Sentinel unit serial number:	SN413079Multiplexer serial number:	ORYXHardware model number:	OX4-SRSoftware version number:	ORYX F/W v4.00 Oryx Data Collector v3.7.2.0data status	okinstallation	princeton_trtdifferential loss correction	single-endedforward channel	channel 2reverse channel	N/Adate	2019/09/12time	20:06:49forward acquisition time	15.00reverse acquisition time	0.00gamma	496.2192k internal	0.2327k external	0.2327temperature offset calibration	1.0155default loss term (dB/km)	0.3790temperature slope calibration	1.0000multiplexer offset coefficient	1.0000multiplexer slope coefficient	1.0000fibre end	0.00T internal ref (°C)	31.62T ext. ref 1 (°C)	3.45T ext. ref 2 (°C)	26.28length (m)	temperature (°C)	Stokes	anti-Stokes-747.200	-200.000	-0.019	0.464
-746.185	181.521	0.370	-0.549
-745.171	800.000	0.240	-0.795
-744.156	800.000	0.097	-0.298
-743.142	94.038	0.407	0.465
-742.127	-95.733	0.417	-0.112
-741.112	278.477	0.674	-1.210
-740.098	63.850	0.398	0.403
-739.083	129.082	0.435	0.560
-738.069	-200.000	-0.056	0.799
-737.054	-141.804	0.313	0.032
-736.039	79.135	0.336	-0.363
-735.025	95.154	0.333	0.382
-734.010	91.969	-0.372	-0.422
-732.996	185.683	-0.251	-0.376
-731.981	139.901	-0.249	0.331
-730.966	-90.863	-0.519	-0.151
-729.952	-94.465	0.555	0.152
-728.937	33.399	0.358	-0.313
-727.923	25.073	0.526	0.440
-726.908	524.038	-0.274	-0.648
-725.894	62.309	-0.220	0.221
-724.879	-103.793	-0.092	0.022
-723.864	-94.984	-0.939	-0.256
-722.850	791.574	0.148	-0.409
-721.835	800.000	-0.239	0.988
-720.821	-200.000	-0.042	0.489
-719.806	-200.000	0.111	-0.554
-718.791	2.876	-0.154	0.112
-717.777	-200.000	0.051	-0.316
-716.762	800.000	-0.226	-0.914
-715.748	-47.311	-0.357	0.175
-714.733	-137.877	0.523	0.059
-713.718	224.172	-0.204	0.332
-712.704	108.784	-0.292	0.352
-711.689	-58.138	-0.608	0.267
-710.675	-37.200	0.775	-0.417
-709.660	-34.872	0.395	-0.217
-708.645	-60.298	-0.340	-0.146
-707.631	153.158	0.099	0.136
-706.616	57.141	0.393	-0.386
-705.602	-136.542	-0.848	-0.099
-704.587	-144.054	-0.480	0.045
-703.572	143.523	-0.336	-0.451
-702.558	1.632	0.365	0.265
-701.543	-115.872	0.808	0.152
-700.529	-49.224	0.268	-0.129
-699.514	7.098	-0.326	-0.244
-698.499	5.247	0.761	-0.565
-697.485	20.862	0.673	0.548
-696.470	644.439	0.050	-0.129
-695.456	-57.705	0.057	-0.025
-694.441	-41.782	-0.695	0.359
-693.426	-200.000	0.025	0.868
-692.412	-200.000	0.019	-0.111
-691.397	1.257	0.643	0.465
-690.383	-30.093	0.285	-0.163
-689.368	-50.554	0.504	0.239
-688.354	-77.994	-0.374	-0.130
-687.339	-160.538	-0.447	-0.024
-686.324	39.307	0.472	-0.425
-685.310	333.957	-0.375	0.730
-684.295	-200.000	-0.054	-0.543
-683.281	-120.409	-0.523	0.089
-682.266	-50.901	0.360	-0.170
-681.251	-105.841	-0.527	-0.120
-680.237	800.000	-0.176	-0.657
-679.222	800.000	0.117	-0.514
-678.208	-200.000	-0.023	0.461
-677.193	35.486	0.303	0.268
-676.178	297.357	0.403	0.744
-675.164	800.000	0.335	-1.003
-674.149	-87.380	-0.311	0.095
-673.135	800.000	-0.142	0.443
-672.120	258.546	0.057	0.098
-671.105	800.000	-0.149	0.567
-670.091	-101.208	-0.218	-0.054
-669.076	42.680	-0.099	0.091
-668.062	800.000	0.270	0.966
-667.047	-145.876	1.173	-0.105
-666.032	8.740	0.418	0.317
-665.018	5.483	-0.741	0.549
-664.003	800.000	0.043	-0.170
-662.989	-69.379	0.301	0.116
-661.974	-135.970	-0.112	-0.013
-660.959	-54.664	-0.504	0.229
-659.945	-200.000	-0.023	0.558
-658.930	159.780	0.716	-1.001
-657.916	373.294	-0.186	0.379
-656.901	289.172	0.078	-0.141
-655.886	-93.225	-0.399	-0.111
-654.872	-200.000	0.050	0.375
-653.857	-66.755	-0.340	-0.135
-652.843	4.274	0.394	0.290
-651.828	-33.057	1.019	-0.568
-650.814	49.344	-0.126	0.119
-649.799	-135.386	0.785	0.094
-648.784	86.672	0.280	0.310
-647.770	-200.000	0.086	0.634
-646.755	-200.000	-0.076	0.872
-645.741	412.777	-0.100	-0.214
-644.726	-200.000	0.042	0.686
-643.711	531.141	-0.215	0.509
-642.697	482.454	0.032	-0.074
-641.682	-144.558	0.473	0.044
-640.668	-20.574	0.317	-0.195
-639.653	-200.000	-0.103	-0.859
-638.638	-50.662	0.740	-0.350
-637.624	361.428	-0.185	-0.372
-636.609	-119.022	1.027	0.180
-635.595	109.761	0.082	0.099
-634.580	44.148	0.507	-0.466
-633.565	-35.944	-0.415	-0.225
-632.551	640.024	-0.215	0.549
-631.536	-76.566	-0.672	-0.237
-630.522	-200.000	-0.061	-0.528
-629.507	-200.000	0.058	-0.646
-628.492	-30.138	-0.114	-0.065
-627.478	-200.000	0.550	0.002
-626.463	-156.246	0.244	-0.015
-625.449	-65.788	0.250	-0.100
-624.434	-200.000	0.052	0.495
-623.419	-65.323	0.149	-0.060
-622.405	60.630	-0.399	-0.396
-621.390	88.501	0.228	-0.255
-620.376	800.000	0.099	0.346
-619.361	-128.956	-1.017	0.143
-618.346	800.000	-0.136	0.481
-617.332	61.144	-0.414	-0.412
-616.317	191.610	-0.211	-0.319
-615.303	-83.225	0.362	0.117
-614.288	342.425	0.124	-0.244
-613.273	-37.741	-0.465	0.248
-612.259	-8.568	0.526	-0.354
-611.244	227.206	0.117	0.190
-610.230	61.121	0.422	0.420
-609.215	800.000	-0.136	0.591
-608.201	766.935	-0.201	0.547
-607.186	-34.987	-0.911	0.498
-606.171	-63.489	0.327	-0.135
-605.157	45.215	0.367	-0.339
-604.142	-60.897	-0.443	-0.188
-603.128	-200.000	0.052	-0.751
-602.113	204.849	0.490	-0.761
-601.098	307.003	-0.143	-0.267
-600.084	-20.654	0.635	0.391
-599.069	-200.000	0.006	0.440
-598.055	66.190	-0.278	-0.283
-597.040	-23.931	-0.499	0.299
-596.025	-65.343	-0.847	-0.341
-595.011	273.397	-0.433	0.768
-593.996	-121.786	-0.670	0.111
-592.982	227.107	-0.049	-0.080
-591.967	9.359	-0.254	-0.193
-590.952	-3.364	0.429	0.299
-589.938	744.027	-0.339	-0.915
-588.923	62.022	-0.158	-0.158
-587.909	-59.331	0.914	0.394
-586.894	-78.450	-0.500	-0.172
-585.879	-200.000	-0.030	0.657
-584.865	-95.025	0.457	-0.124
-583.850	-110.285	-0.058	-0.012
-582.836	800.000	0.110	-0.452
-581.821	-57.321	0.464	0.204
-580.806	-79.179	0.261	-0.089
-579.792	28.716	0.348	-0.295
-578.777	-117.324	0.274	0.050
-577.763	116.028	-0.377	-0.462
-576.748	95.018	-0.516	-0.588
-575.733	-200.000	-0.157	0.859
-574.719	-126.546	0.764	-0.114
-573.704	547.202	-0.349	-0.837
-572.690	129.111	0.552	-0.705
-571.675	161.622	0.254	0.356
-570.661	46.056	-0.225	-0.208
-569.646	59.526	0.635	-0.627
-568.631	194.745	0.126	-0.192
-567.617	234.901	-0.160	0.265
-566.602	-89.072	-0.275	0.081
-565.588	-186.278	0.227	-0.003
-564.573	77.030	0.768	0.817
-563.558	-161.340	-0.567	0.029
-562.544	-153.668	-1.068	-0.074
-561.529	-94.284	0.195	-0.053
-560.515	-189.868	-0.529	-0.006
-559.500	-42.636	0.457	-0.233
-558.485	-45.534	-0.474	-0.235
-557.471	800.000	-0.069	-0.289
-556.456	56.062	-0.682	-0.662
-555.442	-200.000	-0.002	0.541
-554.427	260.954	-0.023	0.040
-553.412	-16.920	0.339	-0.214
-552.398	194.260	-0.423	0.641
-551.383	44.272	0.098	-0.090
-550.369	11.186	-0.794	0.608
-549.354	364.055	-0.263	-0.529
-548.339	-185.254	-0.842	-0.013
-547.325	153.443	0.141	-0.194
-546.310	195.472	0.231	0.351
-545.296	-7.769	-0.628	0.424
-544.281	-114.053	0.456	0.088
-543.266	-200.000	-0.053	-0.367
-542.252	-85.430	0.508	-0.158
-541.237	-149.492	-0.808	0.064
-540.223	-200.000	-0.117	-0.644
-539.208	-169.950	-0.327	-0.012
-538.193	271.025	0.196	0.345
-537.179	90.452	-0.433	-0.485
-536.164	-143.483	-0.502	0.048
-535.150	-200.000	0.014	0.415
-534.135	-200.000	-0.037	-0.510
-533.121	-63.304	-0.469	-0.193
-532.106	67.507	-0.186	0.190
-531.091	748.476	-0.031	-0.084
-530.077	63.748	0.184	0.185
-529.062	-200.000	-0.044	-0.515
-528.048	-129.777	-0.543	-0.075
-527.033	-20.131	0.510	0.314
-526.018	44.980	0.185	0.170
-525.004	626.007	-0.247	0.624
-523.989	-75.120	-0.664	0.237
-522.975	258.138	0.299	-0.514
-521.960	800.000	-0.081	0.292
-520.945	-200.000	-0.131	0.631
-519.931	-120.374	0.563	0.096
-518.916	47.284	-0.419	0.390
-517.902	-106.890	0.823	0.182
-516.887	313.952	0.214	0.403
-515.872	150.656	0.362	0.492
-514.858	-200.000	-0.381	0.000
-513.843	-126.474	0.137	0.020
-512.829	-182.517	-0.175	0.003
-511.814	284.782	-0.385	-0.693
-510.799	153.706	0.416	-0.569
-509.785	-93.316	0.319	-0.088
-508.770	661.292	-0.044	-0.114
-507.756	-0.386	-0.090	-0.064
-506.741	582.889	0.407	-0.996
-505.726	-200.000	0.068	-0.533
-504.712	558.937	0.262	-0.632
-503.697	-30.460	-0.418	-0.237
-502.683	-37.776	0.859	0.457
-501.668	-200.000	0.107	-0.791
-500.653	421.624	-0.134	-0.287
-499.639	-134.121	0.622	-0.077
-498.624	75.083	-0.240	-0.252
-497.610	-65.057	-0.272	-0.110
-496.595	-138.581	0.987	0.108
-495.581	43.403	-0.758	-0.692
-494.566	-76.304	0.715	0.251
-493.551	-23.810	0.755	0.451
-492.537	50.327	-0.441	-0.416
-491.522	24.729	-0.117	-0.097
-490.508	269.136	0.023	0.041
-489.493	-155.518	0.225	0.015
-488.478	-116.469	0.401	-0.074
-487.464	24.317	1.139	-0.940
-486.449	40.688	1.014	-0.912
-485.435	800.000	0.119	-0.374
-484.420	-29.502	-0.670	0.382
-483.405	91.963	0.299	0.336
-482.391	-200.000	-0.035	-0.886
-481.376	7.698	-0.261	-0.195
-480.362	-55.978	-0.230	-0.102
-479.347	108.766	-0.081	-0.097
-478.332	-200.000	0.050	-0.305
-477.318	185.564	-0.066	-0.098
-476.303	-143.440	0.876	0.084
-475.289	12.228	-0.849	-0.652
-474.274	-61.827	0.418	0.174
-473.259	-99.017	0.549	0.139
-472.245	202.567	-0.417	-0.642
-471.230	-119.686	0.949	-0.163
-470.216	92.709	0.565	0.636
-469.201	800.000	-0.127	0.372
-468.186	401.888	0.178	-0.372
-467.172	39.465	-0.729	0.652
-466.157	5.054	0.631	0.463
-465.143	102.677	-0.363	0.424
-464.128	202.915	-0.365	0.562
-463.113	166.839	0.270	0.381
-462.099	-200.000	0.025	-0.114
-461.084	-45.924	0.350	-0.172
-460.070	3.318	-0.126	-0.091
-459.055	15.901	0.563	-0.442
-458.040	158.299	0.305	0.421
-457.026	-89.444	-0.675	0.198
-456.011	-0.166	0.845	0.599
-454.997	78.870	0.636	0.678
-453.982	-65.972	-1.054	-0.419
-452.968	-20.796	-0.283	0.173
-451.953	-131.360	-0.427	-0.056
-450.938	-87.183	-0.236	0.072
-449.924	14.943	-0.305	0.238
-448.909	-176.789	0.413	0.010
-447.895	60.218	0.503	-0.495
-446.880	-137.472	0.260	0.029
-445.865	-200.000	0.048	-0.640
-444.851	-18.540	-0.026	-0.016
-443.836	750.950	0.218	-0.586
-442.822	-133.029	-0.697	0.088
-441.807	70.011	0.420	0.432
-440.792	-16.017	-0.176	0.111
-439.778	-73.477	-0.706	0.257
-438.763	-109.971	0.434	-0.090
-437.749	-200.000	0.082	-0.380
-436.734	293.591	0.178	0.323
-435.719	-200.000	-0.095	0.550
-434.705	-152.908	-0.683	0.048
-433.690	709.462	-0.053	0.140
-432.676	795.258	-0.071	-0.195
-431.661	-111.832	0.908	0.183
-430.646	-168.300	0.625	-0.024
-429.632	-113.182	-0.979	0.192
-428.617	-148.125	-0.789	-0.065
-427.603	490.989	-0.300	-0.684
-426.588	-11.382	-0.572	0.375
-425.573	800.000	0.214	-0.642
-424.559	316.381	0.130	-0.244
-423.544	-200.000	-0.031	0.279
-422.530	-8.176	-0.648	0.435
-421.515	800.000	-0.060	0.229
-420.500	360.589	0.261	-0.521
-419.486	21.023	-0.172	0.139
-418.471	122.940	-0.330	-0.412
-417.457	392.675	0.214	0.442
-416.442	-57.791	-0.411	-0.179
-415.428	800.000	-0.165	0.534
-414.413	309.517	0.232	-0.432
-413.398	44.978	0.498	0.457
-412.384	-67.543	-0.498	0.194
-411.369	-32.988	-0.442	-0.244
-410.355	146.290	-0.589	0.786
-409.340	-30.920	-0.934	0.525
-408.325	144.025	-0.705	0.936
-407.311	-115.640	0.414	0.077
-406.296	580.121	-0.149	0.363
-405.282	-54.553	-0.928	0.418
-404.267	138.246	0.190	0.248
-403.252	-200.000	0.018	0.520
-402.238	89.820	0.259	0.288
-401.223	800.000	0.222	-0.645
-400.209	-15.555	-0.395	-0.250
-399.194	-120.213	0.412	0.070
-398.179	350.873	-0.095	0.187
-397.165	436.195	-0.350	-0.758
-396.150	-116.642	-0.311	-0.057
-395.136	13.522	-0.529	-0.408
-394.121	446.821	0.242	-0.528
-393.106	-70.948	0.738	0.276
-392.092	259.999	-0.202	-0.348
-391.077	120.286	-0.530	0.654
-390.063	-200.000	0.028	0.975
-389.048	800.000	-0.162	0.543
-388.033	216.330	0.584	0.922
-387.019	208.794	-0.277	0.431
-386.004	108.720	0.469	-0.556
-384.990	-200.000	0.120	-0.585
-383.975	-66.020	-0.545	0.216
-382.960	-119.549	0.077	0.013
-381.946	-53.847	0.969	-0.439
-380.931	1.990	0.302	-0.217
-379.917	800.000	0.085	-0.277
-378.902	12.338	0.175	0.134
-377.888	1.979	0.181	0.130
-376.873	-101.945	-0.452	-0.108
-375.858	-138.401	-0.610	-0.067
-374.844	-51.925	-0.808	-0.373
-373.829	204.046	0.526	-0.810
-372.815	301.382	-0.060	-0.110
-371.800	599.709	0.148	-0.365
-370.785	-68.519	-0.299	0.115
-369.771	355.246	-0.372	-0.735
-368.756	-200.000	-0.053	0.643
-367.742	800.000	0.219	0.804
-366.727	800.000	0.210	-0.812
-365.712	-69.040	0.485	-0.186
-364.698	-200.000	0.116	0.565
-363.683	134.513	-0.213	0.274
-362.669	316.646	0.301	0.564
-361.654	-200.000	-0.029	0.548
-360.639	184.903	-0.148	0.218
-359.625	96.711	-0.040	0.046
-358.610	-200.000	-0.069	-0.582
-357.596	202.958	-0.489	0.751
-356.581	-126.189	0.373	0.055
-355.566	469.648	0.158	0.351
-354.552	448.201	0.017	0.037
-353.537	347.158	0.084	0.164
-352.523	-118.286	-0.229	-0.040
-351.508	-124.339	0.972	0.151
-350.493	-102.427	-0.638	-0.152
-349.479	-60.729	0.395	-0.166
-348.464	108.395	-0.128	0.151
-347.450	-135.897	-0.366	0.043
-346.435	397.888	-0.313	-0.649
-345.420	-72.016	-0.530	-0.195
-344.406	-70.145	0.403	0.152
-343.391	800.000	0.107	-0.311
-342.377	-170.097	0.983	-0.035
-341.362	147.595	0.213	-0.284
-340.348	-56.698	-0.174	0.076
-339.333	-83.342	0.727	0.232
-338.318	-142.100	0.331	-0.033
-337.304	-107.278	-0.096	0.021
-336.289	-89.838	1.116	0.324
-335.275	-63.930	0.356	-0.144
-334.260	82.829	-0.676	-0.729
-333.245	-58.082	0.722	-0.313
-332.231	-73.537	-0.564	0.204
-331.216	-200.000	-0.182	0.825
-330.202	273.887	-0.288	0.505
-329.187	187.574	0.383	0.567
-328.172	-148.310	-0.908	0.074
-327.158	-136.940	0.901	0.102
-326.143	-200.000	0.011	-0.596
-325.129	-101.693	0.340	-0.082
-324.114	-200.000	-0.056	0.294
-323.099	366.861	0.402	-0.805
-322.085	-200.000	-0.090	0.598
-321.070	-59.027	0.492	0.211
-320.056	-200.000	0.032	-0.315
-319.041	-66.960	0.582	0.228
-318.026	-87.516	0.850	-0.255
-317.012	47.523	0.333	-0.308
-315.997	218.147	0.214	0.338
-314.983	436.116	-0.208	0.448
-313.968	-67.345	-0.470	0.183
-312.953	71.111	0.089	0.091
-311.939	145.787	-0.412	-0.548
-310.924	-200.000	-0.028	0.593
-309.910	-2.264	0.261	-0.182
-308.895	-200.000	0.019	0.544
-307.880	-200.000	0.108	0.663
-306.866	179.747	-0.128	0.185
-305.851	800.000	-0.205	0.597
-304.837	264.862	0.176	-0.304
-303.822	-90.714	-0.225	-0.064
-302.807	561.283	0.132	0.316
-301.793	800.000	0.313	0.860
-300.778	9.190	-0.784	-0.587
-299.764	35.264	-0.411	-0.357
-298.749	-15.260	0.741	0.470
-297.735	-38.979	-0.484	0.252
-296.720	-200.000	0.037	-0.633
-295.705	-44.407	-0.707	0.351
-294.691	-200.000	0.020	0.251
-293.676	800.000	-0.200	-0.623
-292.662	-200.000	0.112	-0.563
-291.647	-119.413	0.147	-0.025
-290.632	111.752	0.301	0.360
-289.618	350.564	-0.394	0.771
-288.603	-111.587	0.652	-0.131
-287.589	299.262	0.369	-0.673
-286.574	18.717	0.541	-0.428
-285.559	-60.882	0.537	0.225
-284.545	168.835	0.070	0.099
-283.530	-112.405	-0.287	-0.057
-282.516	800.000	0.128	-0.480
-281.501	800.000	-0.129	-0.446
-280.486	-200.000	0.000	0.009
-279.472	-200.000	-0.095	-0.457
-278.457	374.194	-0.143	-0.289
-277.443	482.009	-0.105	-0.236
-276.428	399.803	-0.292	0.606
-275.413	800.000	-0.217	-0.651
-274.399	154.767	-0.566	0.770
-273.384	800.000	-0.195	-0.599
-272.370	-69.417	0.643	-0.244
-271.355	-90.484	0.496	0.142
-270.340	-200.000	0.058	0.764
-269.326	-106.415	0.283	0.063
-268.311	-188.774	-1.161	-0.014
-267.297	-35.520	-0.387	-0.208
-266.282	-24.698	-0.546	0.321
-265.267	399.031	-0.190	0.394
-264.253	28.918	0.156	0.131
-263.238	-33.479	0.129	0.070
-262.224	225.966	-0.256	-0.410
-261.209	98.667	0.345	-0.394
-260.195	-64.789	-0.099	-0.039
-259.180	-154.418	0.337	0.022
-258.165	98.595	-0.166	-0.189
-257.151	-200.000	-0.075	-0.334
-256.136	360.667	0.190	-0.377
-255.122	-177.465	0.431	-0.010
-254.107	-51.409	0.494	-0.228
-253.092	-118.890	-0.121	-0.021
-252.078	7.560	0.532	0.393
-251.063	79.639	0.140	0.148
-250.049	-143.011	-0.501	0.048
-249.034	57.432	0.313	0.303
-248.019	-23.676	-0.666	0.395
-247.005	-3.550	-0.473	-0.325
-245.990	-139.847	-1.069	0.112
-244.976	-51.169	0.796	-0.369
-243.961	220.210	0.206	0.327
-242.946	-86.056	-0.685	0.209
-241.932	330.362	0.096	-0.183
-240.917	235.131	0.264	-0.431
-239.903	-21.328	-0.383	0.231
-238.888	788.938	-0.304	-0.826
-237.873	-97.829	-0.257	0.066
-236.859	490.448	0.105	0.237
-235.844	-105.379	0.621	0.140
-234.830	-200.000	0.008	0.643
-233.815	-92.181	0.212	-0.059
-232.800	-156.976	-0.453	0.027
-231.786	-76.969	0.254	-0.088
-230.771	313.939	0.263	0.489
-229.757	800.000	0.177	0.597
-228.742	-200.000	0.129	0.588
-227.727	453.387	-0.239	0.522
-226.713	-21.051	0.687	0.415
-225.698	800.000	0.099	-0.401
-224.684	-184.590	-0.375	-0.006
-223.669	10.735	1.002	0.755
-222.655	-87.575	-0.509	0.152
-221.640	45.652	-0.367	-0.335
-220.625	-146.993	-0.809	0.068
-219.611	-68.585	0.118	0.045
-218.596	440.577	0.400	-0.864
-217.582	36.691	0.511	-0.446
-216.567	-145.236	-0.282	-0.025
-215.552	358.827	-0.297	-0.585
-214.538	-200.000	-0.035	0.968
-213.523	800.000	0.049	-0.135
-212.509	-58.378	-0.522	0.224
-211.494	-65.875	-0.183	0.072
-210.479	-200.000	-0.091	0.515
-209.465	28.658	-0.336	-0.281
-208.450	-30.501	-0.519	-0.290
-207.436	800.000	-0.062	-0.217
-206.421	-100.903	-1.005	0.244
-205.406	69.808	0.100	-0.102
-204.392	129.174	0.345	0.435
-203.377	-151.890	-0.232	0.017
-202.363	-200.000	0.006	0.098
-201.348	-122.177	-1.052	-0.170
-200.333	-173.190	0.053	-0.002
-199.319	308.338	0.074	0.137
-198.304	-200.000	-0.046	-0.432
-197.290	-93.028	-0.450	-0.124
-196.275	-200.000	-0.122	-0.594
-195.260	-35.721	0.171	-0.092
-194.246	68.426	0.194	-0.196
-193.231	-200.000	-0.120	0.964
-192.217	-92.193	-1.028	0.286
-191.202	439.675	0.338	-0.729
-190.187	66.938	-0.937	-0.942
-189.173	-3.989	-0.490	0.335
-188.158	82.356	0.839	0.898
-187.144	199.771	0.171	0.259
-186.129	-200.000	0.024	-0.227
-185.114	-37.537	0.573	0.301
-184.100	800.000	-0.204	0.559
-183.085	-200.000	-0.106	-0.866
-182.071	-200.000	0.043	-1.115
-181.056	-90.635	-0.327	0.093
-180.042	800.000	-0.201	0.661
-179.027	56.453	0.296	0.284
-178.012	-27.521	0.379	-0.217
-176.998	-119.371	-0.939	0.161
-175.983	-130.880	-0.271	0.036
-174.969	-200.000	0.089	-0.897
-173.954	430.536	-0.101	0.216
-172.939	-200.000	-0.019	0.227
-171.925	-84.105	-0.495	0.155
-170.910	-200.000	-0.056	-0.715
-169.896	-200.000	0.187	0.842
-168.881	-200.000	0.004	-0.655
-167.866	-92.473	1.047	-0.290
-166.852	-46.090	0.847	-0.411
-165.837	-37.037	0.904	0.477
-164.823	-200.000	-0.040	0.582
-163.808	379.875	0.107	0.217
-162.793	697.921	0.203	-0.526
-161.779	-3.367	0.894	0.613
-160.764	-75.846	0.969	0.338
-159.750	800.000	0.046	0.185
-158.735	-80.900	0.701	-0.229
-157.720	-95.233	-0.713	0.189
-156.706	17.051	-0.306	-0.239
-155.691	-200.000	0.056	-0.351
-154.677	-143.881	-0.747	-0.069
-153.662	-200.000	0.121	-0.685
-152.647	-30.776	-0.435	0.242
-151.633	-29.234	0.468	-0.264
-150.618	-45.499	-0.223	0.109
-149.604	730.634	-0.335	0.883
-148.589	-72.197	-0.219	0.080
-147.574	-166.581	0.944	0.039
-146.560	261.418	0.073	-0.124
-145.545	-193.565	-0.233	0.002
-144.531	61.065	-0.351	-0.343
-143.516	92.776	-0.184	-0.205
-142.502	434.202	0.075	0.160
-141.487	800.000	0.218	0.730
-140.472	-176.721	-0.198	0.005
-139.458	64.697	0.312	-0.310
-138.443	43.090	0.854	0.767
-137.429	-136.103	-0.918	0.106
-136.414	-200.000	-0.017	-0.118
-135.399	-118.830	0.629	-0.109
-134.385	-82.283	-0.456	0.146
-133.370	-200.000	0.067	-0.344
-132.356	-118.542	0.505	0.088
-131.341	-36.635	0.111	-0.059
-130.326	-35.797	-0.244	-0.130
-129.312	-172.151	-0.592	0.019
-128.297	28.644	0.271	0.225
-127.283	-29.003	-0.448	-0.253
-126.268	-200.000	-0.023	-0.345
-125.253	-73.144	0.754	0.272
-124.239	83.585	0.450	0.483
-123.224	281.910	-0.351	-0.619
-122.210	-200.000	0.021	-0.404
-121.195	-103.317	0.317	0.074
-120.180	165.271	0.207	-0.288
