DTS Sentinel unit serial number:	SN413079Multiplexer serial number:	ORYXHardware model number:	OX4-SRSoftware version number:	ORYX F/W v4.00 Oryx Data Collector v3.7.2.0data status	okinstallation	princeton_trtdifferential loss correction	single-endedforward channel	channel 2reverse channel	N/Adate	2019/09/10time	22:37:11forward acquisition time	60.00reverse acquisition time	0.00gamma	496.2192k internal	0.2330k external	0.2330temperature offset calibration	0.9945default loss term (dB/km)	0.3790temperature slope calibration	1.0000multiplexer offset coefficient	1.0000multiplexer slope coefficient	1.0000fibre end	0.00T internal ref (°C)	30.27T ext. ref 1 (°C)	-0.30T ext. ref 2 (°C)	23.67length (m)	temperature (°C)	Stokes	anti-Stokes-747.200	-200.000	-0.030	0.146
-746.185	-83.639	-0.305	-0.098
-745.171	-200.000	-0.072	0.361
-744.156	-200.000	-0.001	0.254
-743.142	-150.511	-0.290	0.022
-742.127	412.180	-0.145	0.310
-741.112	-68.099	-0.270	-0.106
-740.098	200.649	0.082	-0.126
-739.083	800.000	-0.096	0.274
-738.069	-10.578	0.068	-0.046
-737.054	-200.000	0.067	-0.316
-736.039	-36.154	0.378	-0.205
-735.025	-200.000	-0.024	0.547
-734.010	5.088	0.120	0.089
-732.996	800.000	-0.105	0.362
-731.981	800.000	0.064	-0.189
-730.966	-53.795	-0.164	-0.075
-729.952	-200.000	-0.002	0.068
-728.937	-73.833	0.221	0.081
-727.923	800.000	-0.023	-0.088
-726.908	-140.688	0.083	0.009
-725.894	-153.930	-0.238	-0.016
-724.879	-116.891	-0.107	0.020
-723.864	-55.480	0.143	0.064
-722.850	3.307	-0.262	0.192
-721.835	139.755	-0.154	0.205
-720.821	-170.938	-0.268	0.009
-719.806	-161.448	0.103	-0.005
-718.791	-200.000	0.002	0.325
-717.777	119.663	0.095	-0.118
-716.762	-114.208	-0.470	-0.091
-715.748	39.875	-0.051	0.046
-714.733	-28.010	-0.162	-0.094
-713.718	-23.664	-0.106	0.064
-712.704	292.971	-0.173	-0.318
-711.689	-58.724	-0.164	-0.072
-710.675	-200.000	0.072	-0.397
-709.660	-99.879	0.214	-0.054
-708.645	256.634	0.086	-0.149
-707.631	-114.628	0.223	-0.043
-706.616	207.378	-0.056	-0.087
-705.602	-155.416	-0.410	0.027
-704.587	-60.383	0.322	-0.138
-703.572	-50.013	0.103	-0.049
-702.558	-200.000	0.043	0.257
-701.543	-57.965	0.252	-0.111
-700.529	-163.551	-0.234	0.011
-699.514	-143.624	-0.242	0.023
-698.499	-9.269	-0.139	0.093
-697.485	183.680	0.185	0.275
-696.470	34.382	-0.333	-0.292
-695.456	800.000	0.042	0.149
-694.441	800.000	0.035	-0.150
-693.426	-43.502	-0.213	-0.108
-692.412	7.384	-0.234	-0.176
-691.397	-97.667	0.299	-0.078
-690.383	-87.770	-0.276	0.084
-689.368	341.374	0.157	-0.308
-688.354	-17.207	0.052	0.033
-687.339	-85.424	-0.150	-0.047
-686.324	242.402	-0.103	-0.174
-685.310	-158.826	0.276	0.016
-684.295	-121.906	-0.151	0.025
-683.281	-114.029	-0.316	-0.062
-682.266	-18.395	0.101	-0.064
-681.251	-85.442	-0.252	0.079
-680.237	45.267	-0.156	-0.144
-679.222	-200.000	0.033	0.311
-678.208	64.442	0.080	-0.081
-677.193	552.637	0.034	-0.083
-676.178	133.806	-0.217	0.283
-675.164	-133.654	0.363	0.045
-674.149	-169.032	-0.289	0.011
-673.135	-200.000	-0.004	0.041
-672.120	-13.472	0.210	0.137
-671.105	-83.335	-0.015	-0.005
-670.091	800.000	-0.046	0.160
-669.076	-29.499	0.091	0.052
-668.062	-18.627	-0.017	0.011
-667.047	-29.930	-0.169	0.097
-666.032	-26.443	0.312	0.184
-665.018	-41.336	-0.360	0.186
-664.003	137.263	0.082	0.107
-662.989	800.000	-0.047	-0.168
-661.974	800.000	-0.108	-0.351
-660.959	-200.000	0.011	0.055
-659.945	-108.487	0.253	0.055
-658.930	-200.000	0.046	0.272
-657.916	-200.000	-0.012	0.256
-656.901	-46.151	-0.283	-0.140
-655.886	110.964	-0.221	-0.266
-654.872	24.793	-0.258	-0.214
-653.857	545.741	0.033	-0.078
-652.843	-99.199	0.183	-0.046
-651.828	-71.032	0.204	0.077
-650.814	-101.095	-0.203	-0.050
-649.799	18.331	-0.036	0.029
-648.784	113.347	0.253	0.308
-647.770	-200.000	0.066	0.391
-646.755	256.364	-0.131	0.225
-645.741	-106.289	-0.246	-0.055
-644.726	-199.670	-0.237	-0.001
-643.711	78.730	0.044	0.047
-642.697	-93.521	-0.194	-0.054
-641.682	-200.000	0.053	-0.335
-640.668	-73.400	0.207	0.076
-639.653	145.961	-0.095	-0.128
-638.638	290.507	-0.086	0.157
-637.624	176.004	-0.206	-0.300
-636.609	710.458	0.046	-0.122
-635.595	-93.657	-0.243	-0.067
-634.580	7.817	0.196	0.147
-633.565	-54.005	-0.288	0.132
-632.551	123.627	-0.188	-0.237
-631.536	800.000	0.031	0.109
-630.522	21.370	0.126	0.102
-629.507	800.000	0.055	-0.172
-628.492	410.058	-0.050	-0.107
-627.478	-200.000	0.048	0.295
-626.463	101.884	-0.162	-0.189
-625.449	-165.166	-0.160	-0.007
-624.434	-158.497	-0.154	-0.009
-623.419	-200.000	-0.005	0.111
-622.405	34.330	0.239	0.209
-621.390	130.960	-0.207	-0.266
-620.376	171.129	0.073	0.105
-619.361	-105.752	0.270	-0.061
-618.346	-159.770	0.159	-0.009
-617.332	800.000	-0.060	0.188
-616.317	67.267	0.128	0.131
-615.303	508.114	-0.123	-0.287
-614.288	131.594	0.205	-0.264
-613.273	742.466	-0.140	-0.376
-612.259	7.348	-0.166	-0.124
-611.244	136.946	-0.270	-0.354
-610.230	330.127	0.122	0.235
-609.215	-36.946	-0.194	0.104
-608.201	-200.000	-0.007	-0.126
-607.186	-155.578	-0.373	0.024
-606.171	-4.512	0.089	-0.062
-605.157	36.027	-0.068	0.060
-604.142	7.965	0.183	-0.137
-603.128	-82.870	0.053	-0.017
-602.113	-79.307	0.222	0.075
-601.098	-102.070	0.151	0.036
-600.084	-151.461	0.197	0.015
-599.069	55.935	0.286	0.278
-598.055	-72.502	0.378	0.140
-597.040	480.154	0.110	-0.250
-596.025	800.000	-0.071	0.287
-595.011	-67.115	0.147	0.058
-593.996	-200.000	0.056	0.261
-592.982	100.782	-0.165	-0.192
-591.967	-200.000	-0.008	-0.042
-590.952	-48.192	-0.164	0.079
-589.938	-93.536	0.277	0.077
-588.923	-8.912	-0.012	-0.008
-587.909	-25.568	0.078	-0.046
-586.894	-71.740	0.151	0.056
-585.879	-20.482	-0.132	-0.081
-584.865	371.056	0.070	-0.141
-583.850	-107.319	0.220	-0.048
-582.836	800.000	0.064	-0.229
-581.821	103.126	-0.157	-0.185
-580.806	800.000	-0.091	-0.390
-579.792	174.075	0.123	-0.177
-578.777	-133.419	0.468	-0.059
-577.763	800.000	0.088	-0.340
-576.748	-89.999	-0.385	0.112
-575.733	-44.457	-0.208	0.104
-574.719	441.809	-0.158	-0.346
-573.704	-89.485	-0.164	0.048
-572.690	93.382	0.094	0.106
-571.675	-200.000	0.015	-0.086
-570.661	-73.336	-0.300	0.110
-569.646	556.807	-0.134	-0.323
-568.631	646.313	0.063	-0.161
-567.617	-56.151	-0.455	0.203
-566.602	244.778	0.029	0.049
-565.588	-55.407	0.249	-0.112
-564.573	-48.877	0.063	0.030
-563.558	32.851	0.110	0.096
-562.544	21.067	0.178	-0.144
-561.529	510.134	-0.199	-0.462
-560.515	16.893	-0.148	-0.117
-559.500	667.958	0.016	-0.042
-558.485	10.717	-0.236	-0.180
-557.471	-67.109	0.153	0.060
-556.456	211.927	-0.104	-0.164
-555.442	118.033	0.086	0.106
-554.427	481.762	0.052	0.117
-553.412	570.278	0.034	0.082
-552.398	-118.587	-0.116	0.020
-551.383	128.619	0.043	-0.055
-550.369	-94.824	0.256	0.069
-549.354	37.434	0.013	0.012
-548.339	165.987	-0.180	0.254
-547.325	43.187	-0.285	-0.260
-546.310	-1.284	-0.218	0.154
-545.296	229.070	0.035	0.058
-544.281	97.289	0.201	-0.231
-543.266	-43.940	-0.388	-0.195
-542.252	-0.536	0.183	-0.130
-541.237	123.398	-0.153	0.192
-540.223	-77.243	-0.088	-0.031
-539.208	140.120	-0.349	0.459
-538.193	-200.000	0.011	-0.076
-537.179	-30.775	0.303	-0.171
-536.164	126.199	0.183	-0.232
-535.150	744.615	-0.057	0.152
-534.135	800.000	0.038	-0.124
-533.121	-65.276	-0.069	-0.028
-532.106	-182.384	0.112	-0.002
-531.091	-200.000	0.041	-0.279
-530.077	-34.488	0.136	0.075
-529.062	577.758	-0.106	-0.258
-528.048	-200.000	-0.003	0.029
-527.033	216.455	-0.045	-0.071
-526.018	800.000	0.015	0.050
-525.004	-200.000	-0.012	-0.272
-523.989	157.452	0.123	-0.170
-522.975	87.225	0.326	-0.360
-521.960	-107.782	-0.431	0.094
-520.945	7.177	-0.297	0.221
-519.931	800.000	0.030	-0.082
-518.916	76.631	-0.159	0.168
-517.902	323.031	0.044	-0.084
-516.887	176.352	-0.100	0.145
-515.872	-84.424	0.140	-0.044
-514.858	335.034	-0.049	-0.095
-513.843	-28.181	-0.393	-0.226
-512.829	-33.119	-0.242	-0.134
-511.814	636.060	-0.185	-0.468
-510.799	157.960	-0.290	0.402
-509.785	30.326	-0.258	0.220
-508.770	-104.665	-0.064	0.015
-507.756	-150.463	-0.290	-0.022
-506.741	800.000	-0.030	0.115
-505.726	153.514	-0.154	0.211
-504.712	117.450	-0.128	-0.157
-503.697	-82.056	-0.282	-0.092
-502.683	7.043	-0.061	-0.046
-501.668	800.000	0.066	-0.193
-500.653	-119.871	0.132	-0.023
-499.639	224.240	-0.061	0.098
-498.624	-101.777	0.241	-0.058
-497.610	-200.000	0.003	-0.175
-496.595	800.000	0.039	0.146
-495.581	-49.412	0.126	-0.060
-494.566	-165.910	-0.260	0.011
-493.551	-200.000	-0.001	0.169
-492.537	-200.000	0.012	0.226
-491.522	723.604	0.099	-0.262
-490.508	-146.295	-0.339	0.030
-489.493	-49.058	-0.073	-0.035
-488.478	800.000	0.083	-0.312
-487.464	-118.988	0.646	0.113
-486.449	469.301	-0.064	0.143
-485.435	-200.000	-0.033	0.151
-484.420	77.900	0.207	-0.220
-483.405	144.035	-0.148	-0.197
-482.391	176.378	-0.042	0.061
-481.376	-200.000	0.054	-0.286
-480.362	-200.000	0.001	-0.094
-479.347	163.878	0.076	0.107
-478.332	-136.903	-0.155	-0.018
-477.318	27.834	-0.082	0.069
-476.303	800.000	0.081	0.318
-475.289	140.391	0.196	-0.257
-474.274	-200.000	-0.049	0.255
-473.259	-75.187	-0.289	-0.103
-472.245	-200.000	0.026	-0.387
-471.230	222.534	0.090	-0.144
-470.216	-167.939	-0.175	-0.007
-469.201	-200.000	-0.075	0.343
-468.186	156.944	0.143	0.197
-467.172	-200.000	-0.138	-0.000
-466.157	-3.991	0.096	0.066
-465.143	224.396	0.293	-0.472
-464.128	-200.000	-0.008	-0.355
-463.113	149.286	0.090	-0.121
-462.099	57.157	-0.147	0.142
-461.084	-200.000	-0.019	0.123
-460.070	194.188	-0.136	0.205
-459.055	19.945	-0.180	-0.144
-458.040	52.439	0.048	0.046
-457.026	256.476	0.038	-0.066
-456.011	41.149	0.059	0.053
-454.997	800.000	0.088	-0.243
-453.982	257.512	-0.127	-0.217
-452.968	22.238	-0.176	0.143
-451.953	1.028	-0.175	0.125
-450.938	69.521	0.109	0.112
-449.924	424.091	0.084	-0.179
-448.909	-148.270	-0.159	-0.013
-447.895	14.349	-0.293	-0.227
-446.880	42.580	0.114	0.103
-445.865	-200.000	0.003	-0.305
-444.851	322.290	-0.121	0.230
-443.836	6.641	0.246	0.182
-442.822	-200.000	-0.056	-0.449
-441.807	48.622	0.263	0.245
-440.792	-200.000	-0.007	0.114
-439.778	156.163	0.172	0.235
-438.763	-90.476	-0.126	-0.036
-437.749	-200.000	-0.052	0.357
-436.734	-137.436	-0.349	-0.039
-435.719	800.000	-0.074	-0.276
-434.705	635.654	0.099	-0.250
-433.690	-13.200	-0.399	-0.258
-432.676	-32.589	-0.157	0.087
-431.661	-200.000	0.032	0.281
-430.646	198.615	0.104	-0.158
-429.632	182.507	-0.247	-0.362
-428.617	-200.000	-0.014	0.236
-427.603	99.810	0.086	-0.099
-426.588	-200.000	0.002	0.081
-425.573	-114.057	-0.209	0.040
-424.559	124.388	-0.168	-0.210
-423.544	-35.546	0.107	-0.058
-422.530	262.015	-0.101	-0.174
-421.515	-114.963	-0.427	-0.081
-420.500	-5.233	-0.240	-0.164
-419.486	-175.541	0.180	0.005
-418.471	-29.074	0.319	0.182
-417.457	19.693	-0.129	0.103
-416.442	-82.435	0.068	0.022
-415.428	312.812	-0.181	0.337
-414.413	789.086	-0.053	0.146
-413.398	-46.504	0.213	0.104
-412.384	-166.284	-0.212	-0.009
-411.369	-56.339	-0.397	0.175
-410.355	800.000	0.044	0.145
-409.340	-200.000	-0.012	-0.226
-408.325	-79.294	-0.141	0.048
-407.311	132.327	-0.201	0.257
-406.296	742.152	0.021	0.057
-405.282	83.362	-0.086	0.093
-404.267	-59.862	-0.382	0.163
-403.252	800.000	0.005	-0.016
-402.238	430.190	0.101	-0.217
-401.223	136.649	-0.058	-0.075
-400.209	-129.256	0.284	-0.039
-399.194	145.805	-0.166	-0.220
-398.179	-152.127	0.473	-0.034
-397.165	442.392	-0.129	-0.281
-396.150	-77.818	-0.286	0.098
-395.136	-46.433	-0.099	0.048
-394.121	-93.010	0.233	0.065
-393.106	-200.000	-0.067	0.302
-392.092	326.383	0.079	-0.150
-391.077	800.000	0.087	-0.241
-390.063	-163.024	0.053	0.003
-389.048	264.596	0.084	0.146
-388.033	72.350	0.092	0.095
-387.019	308.269	0.184	0.341
-386.004	-200.000	0.025	-0.173
-384.990	-106.377	-0.231	-0.051
-383.975	36.131	-0.159	0.139
-382.960	511.205	-0.092	0.212
-381.946	-145.644	-0.190	0.017
-380.931	-200.000	-0.089	0.403
-379.917	590.431	0.063	0.154
-378.902	-39.708	-0.234	-0.121
-377.888	-86.963	0.151	-0.046
-376.873	-19.140	0.249	0.154
-375.858	-86.468	-0.342	0.104
-374.844	15.394	0.285	0.222
-373.829	18.858	-0.381	-0.303
-372.815	-22.961	0.141	0.084
-371.800	-54.753	-0.144	0.065
-370.785	85.149	0.080	0.087
-369.771	326.488	0.107	0.204
-368.756	-32.623	-0.098	-0.054
-367.742	-98.414	0.058	-0.015
-366.727	42.589	0.296	-0.267
-365.712	129.037	-0.061	0.077
-364.698	-69.396	0.084	0.032
-363.683	800.000	-0.048	0.172
-362.669	-24.615	-0.248	-0.146
-361.654	-97.855	-0.320	-0.082
-360.639	149.389	0.171	0.230
-359.625	-68.030	0.314	0.121
-358.610	-112.832	-0.182	0.036
-357.596	10.494	-0.387	-0.292
-356.581	-84.755	-0.249	0.078
-355.566	128.930	0.189	-0.240
-354.552	-80.390	-0.259	-0.086
-353.537	-78.063	-0.532	-0.182
-352.523	-126.793	0.201	-0.029
-351.508	36.814	0.297	0.260
-350.493	-5.029	-0.178	-0.121
-349.479	-184.338	0.173	-0.003
-348.464	12.402	-0.150	-0.115
-347.450	-200.000	0.026	0.127
-346.435	-101.599	0.128	0.031
-345.420	352.463	-0.106	0.208
-344.406	129.273	0.148	0.187
-343.391	6.276	0.121	0.089
-342.377	-35.497	0.371	0.200
-341.362	19.861	0.151	-0.121
-340.348	182.745	0.115	0.168
-339.333	800.000	0.030	0.098
-338.318	783.072	-0.074	-0.202
-337.304	-172.533	0.331	-0.010
-336.289	-121.122	-0.127	0.021
-335.275	-200.000	0.018	-0.200
-334.260	-200.000	0.002	0.407
-333.245	128.909	0.284	-0.359
-332.231	50.721	0.038	-0.035
-331.216	-92.246	0.353	0.099
-330.202	-155.607	0.547	-0.035
-329.187	171.216	0.127	0.181
-328.172	-20.557	-0.361	-0.220
-327.158	-4.545	0.129	-0.088
-326.143	260.715	-0.104	0.178
-325.129	-196.494	0.111	0.001
-324.114	130.534	0.097	-0.123
-323.099	-22.714	-0.040	0.024
-322.085	-178.176	-0.058	-0.001
-321.070	-200.000	-0.025	0.302
-320.056	-122.830	0.135	0.022
-319.041	298.638	0.116	0.211
-318.026	200.832	-0.191	0.290
-317.012	121.736	0.247	0.305
-315.997	40.219	-0.255	0.227
-314.983	294.161	0.069	0.125
-313.968	-190.785	0.257	-0.003
-312.953	262.578	0.211	0.362
-311.939	-71.759	0.153	-0.056
-310.924	-104.362	0.290	0.066
-309.910	-200.000	0.020	0.217
-308.895	800.000	-0.058	-0.206
-307.880	-200.000	-0.021	0.106
-306.866	-200.000	-0.038	0.226
-305.851	-200.000	-0.001	-0.087
-304.837	297.717	-0.046	-0.085
-303.822	-200.000	0.032	0.253
-302.807	141.951	-0.123	0.161
-301.793	-83.369	0.525	0.167
-300.778	-200.000	-0.001	0.211
-299.764	-87.497	-0.495	-0.148
-298.749	-6.390	-0.364	0.245
-297.735	24.171	0.168	0.137
-296.720	-25.870	0.318	0.186
-295.705	67.523	0.157	0.159
-294.691	-52.501	-0.123	0.056
-293.676	-89.728	-0.185	0.054
-292.662	-193.033	-0.150	-0.001
-291.647	-95.829	-0.375	-0.099
-290.632	-98.491	-0.471	0.119
-289.618	800.000	0.089	0.250
-288.603	506.815	0.035	0.080
-287.589	281.624	-0.062	-0.109
-286.574	417.337	-0.041	-0.087
-285.559	166.357	0.059	0.083
-284.545	328.728	0.068	-0.130
-283.530	-24.489	-0.149	-0.088
-282.516	-200.000	-0.024	-0.272
-281.501	-5.360	0.192	-0.130
-280.486	166.820	0.254	0.356
-279.472	-200.000	-0.003	-0.183
-278.457	417.408	-0.138	0.292
-277.443	-122.136	0.325	-0.053
-276.428	-96.761	-0.314	-0.082
-275.413	215.495	0.206	-0.323
-274.399	49.266	0.224	0.208
-273.384	629.517	0.017	0.042
-272.370	62.272	0.305	-0.300
-271.355	43.361	-0.180	-0.163
-270.340	800.000	0.139	-0.398
-269.326	-134.928	0.147	0.018
-268.311	167.929	-0.080	0.112
-267.297	95.413	-0.108	-0.121
-266.282	-48.690	-0.159	0.076
-265.267	169.451	0.123	0.173
-264.253	-146.667	-0.414	-0.035
-263.238	-59.418	0.181	-0.077
-262.224	800.000	0.008	0.032
-261.209	24.601	-0.086	-0.070
-260.195	79.925	0.128	0.136
-259.180	800.000	0.030	-0.120
-258.165	-200.000	-0.007	-0.091
-257.151	-200.000	-0.005	-0.050
-256.136	107.174	0.075	0.087
-255.122	224.274	0.027	-0.043
-254.107	150.551	-0.059	-0.079
-253.092	-89.871	0.295	0.085
-252.078	-200.000	0.013	0.352
-251.063	584.131	0.162	-0.394
-250.049	-200.000	-0.036	0.358
-249.034	-200.000	0.002	0.211
-248.019	363.624	0.050	0.099
-247.005	-0.730	0.364	0.255
-245.990	27.194	0.068	0.057
-244.976	10.383	-0.370	-0.278
-243.961	-121.358	0.051	0.008
-242.946	395.221	0.083	0.170
-241.932	-25.618	-0.145	0.084
-240.917	51.215	-0.136	-0.127
-239.903	-7.870	0.333	-0.222
-238.888	336.504	-0.173	0.332
-237.873	800.000	0.041	-0.163
-236.859	-80.483	0.199	0.065
-235.844	786.289	0.111	0.300
-234.830	131.812	-0.210	-0.267
-233.815	800.000	0.089	0.385
-232.800	-200.000	-0.039	-0.469
-231.786	-168.397	0.556	0.021
-230.771	352.112	0.025	-0.050
-229.757	47.029	-0.100	0.092
-228.742	-42.789	0.252	-0.126
-227.727	-6.066	-0.183	-0.123
-226.713	-161.557	-0.111	0.006
-225.698	466.953	-0.073	-0.161
-224.684	201.715	-0.030	-0.045
-223.669	-129.651	0.336	0.046
-222.655	-200.000	0.032	-0.212
-221.640	21.626	0.112	0.090
-220.625	-123.743	0.188	-0.029
-219.611	59.924	0.217	-0.211
-218.596	-155.517	-0.091	-0.006
-217.582	-200.000	0.028	0.249
-216.567	155.027	0.075	-0.102
-215.552	800.000	0.016	-0.060
-214.538	-164.811	-0.215	-0.010
-213.523	-200.000	0.021	-0.115
-212.509	-134.925	-0.035	0.004
-211.494	-106.379	0.111	0.024
-210.479	-200.000	0.059	0.282
-209.465	-63.025	0.336	0.137
-208.450	-51.646	0.256	-0.118
-207.436	459.120	0.069	-0.151
-206.421	209.159	-0.110	-0.169
-205.406	-119.569	0.065	0.011
-204.392	-99.855	-0.192	0.047
-203.377	125.487	0.091	0.113
-202.363	800.000	0.089	-0.287
-201.348	206.662	0.111	-0.171
-200.333	800.000	-0.017	0.065
-199.319	-38.886	-0.298	0.155
-198.304	35.896	0.159	0.137
-197.290	-200.000	-0.006	0.292
-196.275	-200.000	-0.025	-0.276
-195.260	-51.078	0.356	0.165
-194.246	-200.000	0.021	0.313
-193.231	194.744	0.131	0.196
-192.217	-133.757	0.172	-0.021
-191.202	-200.000	0.005	-0.131
-190.187	-100.225	-0.184	-0.045
-189.173	-57.371	-0.199	-0.086
-188.158	5.196	0.148	0.107
-187.144	346.904	0.015	-0.029
-186.129	-200.000	-0.033	0.184
-185.114	-139.082	0.139	0.015
-184.100	25.157	0.321	-0.262
-183.085	-115.529	0.266	-0.049
-182.071	-200.000	-0.000	-0.143
-181.056	-200.000	0.009	0.212
-180.042	-18.008	0.031	0.019
-179.027	-200.000	0.031	0.209
-178.012	-84.420	0.283	-0.088
-176.998	436.606	0.123	-0.264
-175.983	-200.000	-0.008	-0.278
-174.969	477.762	-0.137	-0.305
-173.954	-200.000	0.015	-0.070
-172.939	-200.000	-0.010	0.233
-171.925	-59.323	-0.077	-0.033
-170.910	136.954	0.148	0.190
-169.896	-200.000	-0.033	-0.216
-168.881	243.600	-0.177	0.293
-167.866	45.731	0.084	0.077
-166.852	-77.377	-0.141	0.048
-165.837	-200.000	0.023	-0.210
-164.823	-52.341	-0.087	-0.039
-163.808	-108.901	0.238	-0.050
-162.793	-200.000	-0.040	0.187
-161.779	108.038	0.046	0.054
-160.764	-59.795	-0.149	-0.063
-159.750	-133.832	0.268	-0.033
-158.735	800.000	0.010	0.039
-157.720	372.661	0.037	0.073
-156.706	-155.008	0.376	0.024
-155.691	659.927	-0.061	0.154
-154.677	800.000	0.022	-0.068
-153.662	-100.577	-0.037	0.009
-152.647	91.613	-0.030	0.033
-151.633	-200.000	-0.006	0.261
-150.618	-39.292	-0.372	0.192
-149.604	-200.000	0.027	-0.137
-148.589	-171.722	0.087	0.003
-147.574	-122.533	0.102	0.016
-146.560	376.706	0.156	-0.313
-145.545	-11.603	0.010	-0.007
-144.531	402.208	0.179	-0.370
-143.516	-116.982	0.155	-0.028
-142.502	-200.000	0.037	0.188
-141.487	-200.000	0.019	0.159
-140.472	-138.723	0.141	0.015
-139.458	354.420	-0.063	0.122
-138.443	-175.107	0.130	-0.004
-137.429	-106.880	-0.026	0.006
-136.414	259.978	0.180	-0.306
-135.399	-117.618	-0.120	0.021
-134.385	-166.619	-0.341	-0.014
-133.370	313.464	-0.216	0.399
-132.356	-50.594	-0.286	0.133
-131.341	142.640	0.055	0.071
-130.326	90.620	-0.264	-0.290
-129.312	-77.541	-0.234	0.080
-128.297	-200.000	0.007	-0.045
-127.283	237.570	0.286	0.467
-126.268	85.501	-0.120	-0.130
-125.253	-42.020	0.319	0.160
-124.239	135.660	0.255	-0.326
-123.224	800.000	-0.036	-0.124
-122.210	-37.181	-0.126	0.066
-121.195	-200.000	0.008	0.198
