DTS Sentinel unit serial number:	SN413079Multiplexer serial number:	ORYXHardware model number:	OX4-SRSoftware version number:	ORYX F/W v4.00 Oryx Data Collector v3.7.2.0data status	okinstallation	princeton_trtdifferential loss correction	single-endedforward channel	channel 2reverse channel	N/Adate	2019/09/13time	02:35:34forward acquisition time	60.00reverse acquisition time	0.00gamma	496.2192k internal	0.2335k external	0.2335temperature offset calibration	1.0182default loss term (dB/km)	0.3790temperature slope calibration	1.0000multiplexer offset coefficient	1.0000multiplexer slope coefficient	1.0000fibre end	0.00T internal ref (°C)	27.48T ext. ref 1 (°C)	3.98T ext. ref 2 (°C)	22.24length (m)	temperature (°C)	Stokes	anti-Stokes-747.200	-164.071	0.465	0.022
-746.185	-184.397	0.283	-0.005
-745.171	800.000	0.094	-0.275
-744.156	162.331	0.130	-0.183
-743.142	20.398	-0.036	-0.029
-742.127	101.593	-0.197	0.230
-741.112	38.242	-0.133	-0.119
-740.098	800.000	-0.012	-0.049
-739.083	47.608	-0.185	-0.174
-738.069	-116.113	-0.234	-0.044
-737.054	368.886	-0.027	-0.054
-736.039	159.039	0.088	-0.122
-735.025	252.029	0.127	-0.218
-734.010	74.149	-0.067	-0.071
-732.996	-104.742	0.034	-0.008
-731.981	4.384	0.166	0.122
-730.966	-78.282	0.166	-0.057
-729.952	800.000	0.033	-0.132
-728.937	-52.492	0.167	0.078
-727.923	-154.778	-0.338	0.022
-726.908	98.936	0.203	-0.236
-725.894	-33.215	-0.117	0.065
-724.879	-99.453	-0.113	-0.029
-723.864	3.299	0.214	0.157
-722.850	-93.131	0.421	0.118
-721.835	-164.008	0.363	-0.017
-720.821	-93.639	0.084	-0.023
-719.806	-200.000	-0.004	0.465
-718.791	-99.464	-0.229	-0.058
-717.777	-150.215	0.235	-0.018
-716.762	-142.029	0.153	0.015
-715.748	-200.000	-0.028	-0.187
-714.733	-39.110	-0.156	-0.082
-713.718	286.063	-0.161	-0.291
-712.704	-103.443	-0.185	0.044
-711.689	29.134	0.036	0.030
-710.675	-121.586	0.150	-0.025
-709.660	230.737	0.154	0.253
-708.645	-144.486	-0.107	0.010
-707.631	684.963	-0.065	-0.171
-706.616	-57.463	-0.316	-0.139
-705.602	343.341	-0.007	0.014
-704.587	-200.000	0.069	0.335
-703.572	-200.000	0.047	0.227
-702.558	75.663	0.215	-0.228
-701.543	-78.183	-0.109	0.037
-700.529	-200.000	0.045	0.226
-699.514	-18.353	-0.205	0.129
-698.499	-25.700	0.128	-0.076
-697.485	303.752	-0.151	0.280
-696.470	-109.865	-0.294	-0.062
-695.456	-73.827	0.699	-0.255
-694.441	642.156	-0.065	0.167
-693.426	75.717	0.258	-0.274
-692.412	800.000	-0.078	0.329
-691.397	-147.776	-0.122	-0.010
-690.383	-138.149	-0.304	-0.034
-689.368	103.921	-0.135	0.160
-688.354	-19.337	0.236	0.147
-687.339	-133.401	-0.165	-0.021
-686.324	800.000	-0.040	-0.160
-685.310	33.803	0.180	-0.157
-684.295	55.322	-0.283	0.274
-683.281	573.930	0.082	0.200
-682.266	38.121	-0.094	0.084
-681.251	141.575	-0.066	-0.088
-680.237	-200.000	0.002	-0.144
-679.222	-200.000	-0.016	-0.189
-678.208	-72.653	0.368	0.136
-677.193	-200.000	-0.036	0.200
-676.178	58.473	-0.104	0.103
-675.164	-200.000	0.023	-0.335
-674.149	183.565	-0.108	-0.159
-673.135	111.802	0.260	0.315
-672.120	-75.515	0.276	-0.098
-671.105	-79.950	-0.282	0.095
-670.091	-29.801	-0.118	-0.067
-669.076	-54.712	0.031	0.014
-668.062	800.000	-0.022	-0.076
-667.047	261.668	0.255	0.442
-666.032	-23.927	-0.099	0.059
-665.018	-37.547	-0.080	0.043
-664.003	-135.975	0.188	-0.022
-662.989	-46.181	0.170	0.084
-661.974	-99.399	0.198	-0.050
-660.959	-200.000	-0.040	0.231
-659.945	320.615	-0.092	0.175
-658.930	-31.652	-0.115	0.065
-657.916	-200.000	-0.029	-0.290
-656.901	-65.932	0.121	-0.048
-655.886	-148.924	-0.149	-0.012
-654.872	108.977	-0.281	0.336
-653.857	13.357	-0.240	-0.186
-652.843	-98.109	-0.160	0.041
-651.828	86.824	0.230	-0.254
-650.814	-124.587	-0.147	-0.023
-649.799	-13.557	-0.121	-0.078
-648.784	501.088	0.045	0.104
-647.770	-142.344	0.128	0.013
-646.755	158.276	0.193	-0.268
-645.741	-200.000	0.058	-0.320
-644.726	178.331	0.218	0.318
-643.711	486.682	0.201	0.458
-642.697	251.774	-0.054	-0.091
-641.682	749.112	0.140	-0.379
-640.668	2.498	-0.169	0.123
-639.653	-200.000	0.040	-0.252
-638.638	105.968	-0.251	-0.298
-637.624	-200.000	0.025	-0.203
-636.609	-12.275	0.156	0.102
-635.595	-200.000	-0.045	-0.388
-634.580	100.286	-0.103	-0.119
-633.565	-87.335	-0.339	0.103
-632.551	-61.232	0.122	-0.051
-631.536	-91.400	0.179	0.051
-630.522	-78.142	0.068	0.023
-629.507	635.489	0.101	-0.257
-628.492	-17.180	0.169	-0.107
-627.478	-163.215	-0.380	-0.018
-626.463	-115.957	0.255	-0.048
-625.449	18.556	-0.211	0.169
-624.434	129.294	0.156	0.199
-623.419	431.190	0.087	-0.188
-622.405	493.081	0.078	0.179
-621.390	800.000	0.059	-0.181
-620.376	-200.000	-0.037	0.300
-619.361	433.628	-0.138	-0.300
-618.346	-77.598	0.176	-0.061
-617.332	800.000	0.056	0.167
-616.317	-97.138	-0.612	0.160
-615.303	-200.000	-0.013	0.270
-614.288	-141.801	-0.106	-0.011
-613.273	-34.584	-0.234	-0.128
-612.259	-25.352	0.248	0.147
-611.244	259.282	-0.030	-0.051
-610.230	-159.518	0.047	0.003
-609.215	800.000	-0.073	-0.257
-608.201	-200.000	0.008	-0.421
-607.186	124.333	0.197	0.247
-606.171	-79.287	-0.235	0.080
-605.157	-28.985	0.047	0.027
-604.142	-145.628	-0.093	-0.008
-603.128	-29.809	-0.137	-0.078
-602.113	230.935	-0.091	0.149
-601.098	-146.357	0.214	-0.019
-600.084	-38.982	-0.242	-0.127
-599.069	28.765	0.123	-0.104
-598.055	-101.567	-0.485	0.118
-597.040	158.991	-0.204	0.283
-596.025	531.070	0.025	0.060
-595.011	156.399	0.186	-0.257
-593.996	-118.882	0.215	0.038
-592.982	13.995	-0.186	0.145
-591.967	100.809	0.142	-0.165
-590.952	575.565	-0.105	0.256
-589.938	-60.985	0.182	-0.077
-588.923	800.000	0.033	0.136
-587.909	-123.125	-0.183	-0.029
-586.894	-110.374	-0.277	-0.057
-585.879	230.138	-0.141	-0.231
-584.865	-172.074	-0.344	0.011
-583.850	238.254	0.103	0.170
-582.836	-154.978	0.050	-0.003
-581.821	800.000	-0.086	0.257
-580.806	5.557	0.220	0.162
-579.792	-67.589	0.179	0.070
-578.777	-96.025	0.151	0.040
-577.763	27.348	0.271	0.228
-576.748	800.000	0.137	-0.385
-575.733	586.313	0.107	-0.263
-574.719	800.000	0.020	-0.074
-573.704	-200.000	-0.044	-0.277
-572.690	800.000	0.076	0.239
-571.675	-200.000	-0.045	0.340
-570.661	207.683	0.196	0.305
-569.646	-2.342	0.148	0.104
-568.631	80.217	0.053	0.057
-567.617	-200.000	0.039	0.575
-566.602	13.597	-0.114	0.088
-565.588	800.000	-0.081	-0.291
-564.573	93.536	-0.266	-0.300
-563.558	-200.000	-0.052	-0.304
-562.544	-200.000	-0.009	0.323
-561.529	800.000	0.013	0.054
-560.515	157.551	-0.080	0.110
-559.500	-50.273	-0.273	-0.129
-558.485	-200.000	-0.001	-0.105
-557.471	-4.147	0.155	-0.107
-556.456	328.407	0.235	-0.451
-555.442	-200.000	-0.036	0.251
-554.427	-79.955	-0.245	0.082
-553.412	-111.926	0.165	-0.033
-552.398	-46.537	0.127	0.062
-551.383	-91.229	-0.112	-0.032
-550.369	-52.063	-0.196	-0.091
-549.354	-99.847	0.355	0.089
-548.339	-200.000	0.021	-0.292
-547.325	-159.604	-0.205	-0.011
-546.310	-200.000	0.034	0.150
-545.296	-116.769	-0.325	-0.060
-544.281	12.343	0.089	-0.069
-543.266	197.573	0.197	0.299
-542.252	83.325	0.079	-0.086
-541.237	47.073	-0.192	0.178
-540.223	111.776	-0.199	0.239
-539.208	490.575	-0.113	0.257
-538.193	-66.884	-0.109	-0.043
-537.179	-200.000	-0.012	0.064
-536.164	-114.951	0.409	0.078
-535.150	-200.000	-0.001	-0.007
-534.135	-15.043	-0.157	0.101
-533.121	-200.000	-0.025	0.158
-532.106	-43.595	-0.090	0.045
-531.091	138.840	0.180	-0.236
-530.077	-64.781	0.322	-0.130
-529.062	2.284	0.175	0.126
-528.048	-200.000	0.011	-0.119
-527.033	190.899	-0.132	0.198
-526.018	-116.715	0.079	0.015
-525.004	-200.000	0.005	-0.069
-523.989	-19.601	0.133	-0.082
-522.975	-24.199	0.111	-0.066
-521.960	137.184	-0.075	0.097
-520.945	-49.297	0.158	0.075
-519.931	167.490	0.289	0.410
-518.916	130.184	0.264	0.336
-517.902	12.864	-0.263	0.202
-516.887	800.000	-0.109	-0.355
-515.872	-121.844	-0.201	-0.033
-514.858	-200.000	-0.016	0.178
-513.843	-136.657	-0.131	-0.015
-512.829	-107.343	0.276	-0.060
-511.814	105.827	-0.140	0.165
-510.799	-97.266	-0.170	-0.044
-509.785	-15.418	-0.109	-0.069
-508.770	800.000	0.075	0.274
-507.756	-113.355	0.371	0.073
-506.741	26.757	-0.291	-0.242
-505.726	-105.581	0.135	0.031
-504.712	-33.197	-0.105	-0.058
-503.697	-129.084	-0.032	-0.004
-502.683	81.039	-0.139	-0.149
-501.668	-200.000	0.044	-0.422
-500.653	724.444	-0.103	0.273
-499.639	-6.118	0.387	0.263
-498.624	-94.939	0.122	-0.033
-497.610	800.000	-0.098	-0.283
-496.595	-200.000	-0.024	-0.213
-495.581	800.000	0.061	-0.233
-494.566	218.098	-0.199	0.315
-493.551	-185.932	0.342	0.005
-492.537	6.782	-0.164	0.122
-491.522	289.361	0.024	-0.043
-490.508	800.000	0.065	-0.214
-489.493	-126.928	-0.146	-0.021
-488.478	296.079	0.062	0.113
-487.464	439.578	0.096	-0.209
-486.449	59.737	-0.235	0.231
-485.435	256.553	0.013	0.022
-484.420	-200.000	-0.001	-0.101
-483.405	-57.816	-0.082	0.036
-482.391	-30.487	0.007	0.004
-481.376	222.240	0.147	0.235
-480.362	37.247	-0.224	0.198
-479.347	460.705	-0.186	0.412
-478.332	216.234	-0.139	0.220
-477.318	553.066	-0.093	0.222
-476.303	-41.380	0.271	-0.139
-475.289	358.685	0.208	-0.413
-474.274	356.677	-0.021	0.042
-473.259	-17.714	-0.028	-0.018
-472.245	-58.262	0.130	0.056
-471.230	-49.336	0.208	-0.098
-470.216	206.270	-0.184	-0.285
-469.201	800.000	0.043	0.136
-468.186	54.302	0.124	-0.119
-467.172	-192.880	0.116	-0.001
-466.157	-200.000	-0.004	0.082
-465.143	87.687	0.045	-0.050
-464.128	488.290	0.144	0.327
-463.113	800.000	0.016	0.063
-462.099	-1.860	-0.196	0.137
-461.084	750.275	-0.037	0.098
-460.070	-200.000	-0.018	0.122
-459.055	310.607	-0.226	-0.421
-458.040	-45.530	0.159	-0.078
-457.026	800.000	0.018	0.052
-456.011	-44.898	-0.293	0.145
-454.997	621.464	0.018	0.045
-453.982	800.000	0.045	-0.147
-452.968	-147.861	-0.197	-0.016
-451.953	-129.468	-0.250	0.034
-450.938	75.032	0.189	-0.198
-449.924	213.303	-0.066	-0.103
-448.909	-28.271	-0.044	-0.025
-447.895	728.023	-0.102	-0.269
-446.880	-200.000	-0.049	0.338
-445.865	322.273	0.149	0.281
-444.851	-156.066	-0.111	-0.007
-443.836	32.748	0.215	-0.185
-442.822	54.660	-0.181	-0.173
-441.807	549.862	-0.085	0.203
-440.792	8.424	-0.094	0.070
-439.778	-42.240	-0.151	-0.077
-438.763	-35.343	-0.325	0.176
-437.749	315.980	-0.041	0.076
-436.734	-91.010	-0.390	-0.111
-435.719	-200.000	0.015	-0.078
-434.705	-162.454	0.302	0.015
-433.690	279.580	-0.051	0.091
-432.676	-111.785	0.083	0.017
-431.661	-120.940	-0.383	0.064
-430.646	-163.636	-0.209	0.010
-429.632	-51.700	0.296	0.137
-428.617	695.388	-0.178	-0.465
-427.603	-200.000	-0.011	0.281
-426.588	-56.346	0.184	-0.081
-425.573	-119.157	0.196	0.034
-424.559	23.396	0.264	0.216
-423.544	-105.444	-0.169	-0.038
-422.530	-200.000	-0.008	-0.131
-421.515	26.949	0.108	0.090
-420.500	33.598	0.070	0.061
-419.486	-184.496	0.408	-0.007
-418.471	81.578	-0.043	0.046
-417.457	-200.000	-0.048	0.211
-416.442	140.507	-0.129	0.169
-415.428	155.030	-0.137	-0.186
-414.413	800.000	-0.049	-0.211
-413.398	254.042	0.131	-0.223
-412.384	-16.425	-0.283	0.178
-411.369	-60.407	-0.163	0.069
-410.355	-200.000	-0.069	-0.326
-409.340	-123.346	0.080	0.013
-408.325	800.000	-0.040	-0.136
-407.311	104.337	0.117	-0.137
-406.296	-34.869	-0.165	-0.089
-405.282	800.000	-0.058	0.170
-404.267	368.912	0.103	0.207
-403.252	-31.605	0.235	-0.131
-402.238	-50.826	0.150	-0.070
-401.223	-69.329	-0.241	-0.092
-400.209	-124.060	-0.209	-0.033
-399.194	307.626	-0.100	-0.185
-398.179	-117.504	-0.353	-0.063
-397.165	-92.061	-0.309	-0.087
-396.150	-200.000	-0.028	-0.266
-395.136	800.000	-0.067	-0.189
-394.121	-55.489	0.052	-0.023
-393.106	-114.163	-0.032	0.006
-392.092	51.274	-0.059	-0.056
-391.077	213.839	0.165	0.259
-390.063	179.210	-0.183	0.266
-389.048	-53.137	0.343	0.156
-388.033	-86.547	0.156	0.047
-387.019	-200.000	0.013	0.213
-386.004	175.052	0.024	-0.035
-384.990	-200.000	0.015	-0.071
-383.975	-171.522	0.293	0.010
-382.960	800.000	0.050	0.169
-381.946	423.064	0.207	-0.440
-380.931	-142.243	0.514	0.050
-379.917	-200.000	0.024	-0.594
-378.902	-146.973	0.029	0.002
-377.888	405.728	-0.102	-0.213
-376.873	-143.233	-0.349	-0.033
-375.858	800.000	-0.079	0.300
-374.844	800.000	-0.053	-0.157
-373.829	303.687	-0.125	-0.229
-372.815	-81.452	0.340	0.111
-371.800	-200.000	0.147	-0.000
-370.785	-200.000	0.022	0.298
-369.771	-200.000	-0.026	-0.127
-368.756	-119.439	-0.162	0.028
-367.742	22.824	0.276	0.224
-366.727	-85.477	0.080	-0.025
-365.712	-64.656	-0.229	0.092
-364.698	-53.931	0.145	-0.065
-363.683	800.000	-0.078	0.310
-362.669	-80.274	0.208	-0.069
-361.654	49.931	0.023	-0.022
-360.639	-61.313	0.247	0.103
-359.625	-83.449	0.232	-0.074
-358.610	331.530	0.093	0.177
-357.596	-200.000	0.037	-0.187
-356.581	-79.259	-0.302	-0.101
-355.566	-46.332	-0.102	-0.049
-354.552	-86.441	0.287	-0.087
-353.537	800.000	0.073	0.298
-352.523	101.826	-0.162	-0.187
-351.508	-180.747	-0.110	-0.002
-350.493	-64.688	-0.058	-0.023
-349.479	35.337	0.124	-0.108
-348.464	94.325	0.183	0.205
-347.450	-200.000	0.001	0.135
-346.435	263.360	-0.187	-0.321
-345.420	-64.442	0.383	0.154
-344.406	21.716	-0.132	-0.107
-343.391	-200.000	0.031	0.153
-342.377	581.229	-0.128	-0.311
-341.362	-119.692	0.111	-0.019
-340.348	362.050	0.146	-0.290
-339.333	2.602	0.166	-0.119
-338.318	800.000	-0.049	-0.210
-337.304	12.739	-0.080	0.061
-336.289	527.805	-0.120	-0.280
-335.275	-200.000	-0.080	0.381
-334.260	506.444	0.071	-0.163
-333.245	-58.708	-0.317	0.136
-332.231	-200.000	0.032	-0.218
-331.216	-148.702	-0.232	0.019
-330.202	39.181	-0.168	0.149
-329.187	800.000	0.078	0.218
-328.172	148.940	-0.128	0.171
-327.158	-162.466	0.327	-0.016
-326.143	97.793	-0.145	0.165
-325.129	-125.840	-0.220	-0.033
-324.114	800.000	-0.087	0.284
-323.099	-82.555	-0.366	0.117
-322.085	287.555	-0.167	-0.298
-321.070	-200.000	-0.031	0.196
-320.056	62.892	-0.040	0.040
-319.041	129.317	0.166	0.210
-318.026	131.195	-0.035	-0.044
-317.012	24.033	-0.123	0.100
-315.997	104.846	0.149	-0.174
-314.983	-200.000	0.048	0.458
-313.968	12.846	0.205	0.157
-312.953	-164.046	0.233	-0.011
-311.939	-177.733	-0.182	-0.004
-310.924	79.020	-0.114	0.120
-309.910	-200.000	-0.053	-0.235
-308.895	-122.792	-0.075	-0.012
-307.880	612.448	0.084	-0.208
-306.866	418.798	-0.029	0.060
-305.851	-43.602	-0.263	-0.131
-304.837	-200.000	0.045	0.233
-303.822	800.000	0.036	-0.108
-302.807	-69.761	0.169	-0.064
-301.793	81.332	0.060	0.064
-300.778	800.000	-0.038	0.137
-299.764	382.932	-0.148	-0.300
-298.749	-56.993	0.307	0.134
-297.735	164.166	0.141	-0.196
-296.720	-71.492	0.102	-0.038
-295.705	-52.567	-0.090	-0.041
-294.691	-86.382	-0.039	-0.012
-293.676	-200.000	0.025	0.139
-292.662	-68.398	-0.183	-0.070
-291.647	-14.408	-0.317	-0.202
-290.632	800.000	0.057	-0.219
-289.618	800.000	-0.154	-0.464
-288.603	-136.993	0.114	0.013
-287.589	103.832	-0.088	-0.102
-286.574	9.012	-0.174	0.129
-285.559	-200.000	-0.063	-0.313
-284.545	48.745	-0.243	0.225
-283.530	277.203	0.115	0.201
-282.516	131.331	-0.161	-0.204
-281.501	-154.136	-0.143	0.010
-280.486	-200.000	-0.014	0.075
-279.472	-70.964	-0.210	0.078
-278.457	246.501	-0.072	-0.120
-277.443	-200.000	0.024	-0.195
-276.428	-151.140	0.090	0.007
-275.413	32.557	0.048	-0.041
-274.399	-200.000	-0.003	-0.336
-273.384	-26.883	-0.200	0.115
-272.370	8.960	0.175	0.131
-271.355	732.973	-0.068	-0.180
-270.340	-200.000	0.009	-0.123
-269.326	-88.190	0.181	-0.053
-268.311	-117.830	-0.238	0.042
-267.297	-104.181	-0.205	0.047
-266.282	-200.000	0.037	0.223
-265.267	44.132	0.225	-0.204
-264.253	-115.620	-0.161	-0.030
-263.238	52.952	0.191	0.180
-262.224	-36.453	-0.273	0.145
-261.209	3.831	0.267	-0.192
-260.195	-200.000	0.000	0.052
-259.180	-200.000	-0.024	-0.164
-258.165	-107.673	0.386	-0.083
-257.151	212.210	-0.123	0.191
-256.136	-200.000	-0.015	-0.197
-255.122	-37.919	0.434	-0.227
-254.107	-25.600	-0.174	0.101
-253.092	278.297	-0.106	0.186
-252.078	-94.960	-0.207	0.055
-251.063	285.062	0.141	-0.250
-250.049	131.366	0.191	0.241
-249.034	-85.916	0.053	0.016
-248.019	-96.894	-0.135	0.035
-247.005	93.891	-0.110	-0.122
-245.990	22.061	0.070	-0.056
-244.976	-15.144	0.239	0.151
-243.961	76.039	0.319	-0.333
-242.946	-176.641	0.372	-0.009
-241.932	-200.000	-0.017	0.114
-240.917	122.631	0.089	-0.109
-239.903	175.369	-0.343	0.489
-238.888	800.000	0.061	0.188
-237.873	56.694	0.027	-0.026
-236.859	214.795	0.133	-0.207
-235.844	800.000	-0.147	0.455
-234.830	-200.000	0.015	0.171
-233.815	40.225	0.024	0.021
-232.800	2.043	-0.123	-0.087
-231.786	-12.292	0.106	-0.069
-230.771	800.000	0.164	0.464
-229.757	-115.522	0.259	-0.048
-228.742	-138.616	-0.321	-0.035
-227.727	-121.180	-0.150	-0.025
-226.713	-145.044	-0.209	0.019
-225.698	-78.273	-0.157	0.053
-224.684	396.919	0.036	0.075
-223.669	69.555	0.238	-0.242
-222.655	7.416	0.015	-0.011
-221.640	-87.679	-0.163	-0.048
-220.625	128.104	0.082	-0.102
-219.611	454.844	0.201	-0.438
-218.596	-200.000	0.013	0.158
-217.582	-14.315	0.219	-0.139
-216.567	23.580	0.330	0.267
-215.552	160.613	0.139	0.192
-214.538	-111.604	-0.252	-0.050
-213.523	130.854	0.227	-0.287
-212.509	-118.100	-0.230	-0.040
-211.494	68.701	-0.154	0.156
-210.479	-183.252	-0.118	0.002
-209.465	158.265	0.121	-0.165
-208.450	-37.053	0.406	-0.214
-207.436	226.660	-0.049	0.079
-206.421	800.000	0.085	-0.256
-205.406	-95.568	-0.240	0.063
-204.392	-200.000	-0.012	-0.205
-203.377	26.625	-0.318	0.262
-202.363	224.548	0.161	0.256
-201.348	800.000	0.077	0.272
-200.333	-200.000	0.023	-0.180
-199.319	-28.355	-0.239	0.136
-198.304	800.000	0.171	-0.469
-197.290	-200.000	-0.021	-0.104
-196.275	249.674	0.140	0.233
-195.260	-86.342	0.235	0.071
-194.246	-47.025	-0.183	-0.088
-193.231	800.000	0.137	-0.383
-192.217	-28.351	-0.215	0.122
-191.202	-200.000	0.008	0.083
-190.187	78.017	-0.134	0.141
-189.173	-78.922	0.255	0.085
-188.158	-130.000	-0.264	-0.035
-187.144	12.489	-0.121	0.092
-186.129	-2.990	0.151	-0.104
-185.114	256.686	-0.068	-0.114
-184.100	-133.221	-0.145	-0.018
-183.085	107.572	0.240	0.280
-182.071	270.824	0.086	0.149
-181.056	-200.000	-0.005	-0.252
-180.042	145.930	0.205	0.270
-179.027	154.009	0.100	-0.135
-178.012	73.854	0.053	-0.055
-176.998	800.000	-0.028	0.089
-175.983	268.741	-0.115	-0.199
-174.969	800.000	0.042	-0.130
-173.954	-125.061	-0.265	0.040
-172.939	363.503	0.093	0.185
-171.925	-5.596	0.084	-0.057
-170.910	48.416	0.231	0.213
-169.896	265.503	0.104	0.177
-168.881	85.576	0.171	-0.184
-167.866	800.000	0.101	0.313
-166.852	-105.272	-0.098	0.022
-165.837	-37.341	0.093	-0.049
-164.823	-8.846	0.028	-0.019
-163.808	-61.566	-0.260	0.107
-162.793	-7.621	-0.240	-0.159
-161.779	800.000	-0.079	-0.227
-160.764	-68.892	-0.029	-0.011
-159.750	-200.000	-0.031	0.178
-158.735	97.086	-0.070	-0.078
-157.720	-200.000	-0.025	-0.135
-156.706	-200.000	0.061	-0.384
-155.691	79.158	0.280	0.294
-154.677	-187.764	-0.149	0.002
-153.662	169.968	0.111	-0.156
-152.647	52.888	0.232	0.218
-151.633	591.590	-0.088	0.214
-150.618	43.350	-0.257	0.231
-149.604	-108.667	0.196	0.041
-148.589	-87.885	0.256	0.076
-147.574	-90.237	-0.207	-0.059
-146.560	-200.000	0.040	-0.175
-145.545	-105.156	0.218	-0.049
-144.531	71.268	-0.173	0.177
-143.516	16.959	0.256	0.199
-142.502	-121.176	0.342	0.056
-141.487	-35.948	0.322	0.171
-140.472	-200.000	-0.028	0.224
-139.458	-20.558	-0.075	-0.045
-138.443	-58.621	0.321	0.137
-137.429	-200.000	-0.003	0.088
-136.414	16.951	-0.034	-0.027
-135.399	519.410	0.121	-0.278
-134.385	-57.403	-0.120	0.052
-133.370	-200.000	-0.015	-0.398
-132.356	-34.151	0.181	0.098
-131.341	362.396	0.069	-0.136
-130.326	-98.817	0.122	0.030
-129.312	-151.347	-0.101	0.007
-128.297	42.947	0.263	0.235
-127.283	-77.909	0.170	-0.058
-126.268	-200.000	0.116	-0.513
-125.253	-57.426	-0.260	-0.112
-124.239	-200.000	0.002	0.024
-123.224	401.154	-0.072	0.147
-122.210	800.000	0.067	0.188
-121.195	65.918	0.162	-0.161
