DTS Sentinel unit serial number:	SN413079Multiplexer serial number:	ORYXHardware model number:	OX4-SRSoftware version number:	ORYX F/W v4.00 Oryx Data Collector v3.7.2.0data status	okinstallation	princeton_trtdifferential loss correction	single-endedforward channel	channel 2reverse channel	N/Adate	2019/09/11time	20:09:11forward acquisition time	60.00reverse acquisition time	0.00gamma	496.2192k internal	0.2315k external	0.2315temperature offset calibration	1.0053default loss term (dB/km)	0.3790temperature slope calibration	1.0000multiplexer offset coefficient	1.0000multiplexer slope coefficient	1.0000fibre end	0.00T internal ref (°C)	38.44T ext. ref 1 (°C)	1.43T ext. ref 2 (°C)	31.94length (m)	temperature (°C)	Stokes	anti-Stokes-747.200	-200.000	-0.020	0.091
-746.185	-14.516	-0.062	0.040
-745.171	-200.000	0.000	0.035
-744.156	-200.000	0.023	0.215
-743.142	13.973	0.073	0.057
-742.127	-200.000	-0.012	0.257
-741.112	-200.000	0.006	0.064
-740.098	800.000	0.066	0.262
-739.083	-115.728	0.194	0.037
-738.069	173.268	-0.168	0.245
-737.054	78.046	0.152	0.164
-736.039	-104.050	-0.066	-0.016
-735.025	-76.122	0.072	0.026
-734.010	-105.614	0.156	-0.036
-732.996	62.440	0.321	-0.324
-731.981	-167.788	-0.244	0.010
-730.966	-200.000	0.032	0.215
-729.952	-78.387	-0.232	-0.081
-728.937	-46.392	-0.252	-0.126
-727.923	-31.152	0.145	-0.083
-726.908	-10.275	-0.120	-0.081
-725.894	146.856	-0.063	-0.086
-724.879	-119.455	-0.289	0.051
-723.864	-99.370	-0.147	-0.038
-722.850	-20.869	-0.276	0.171
-721.835	-76.771	-0.181	-0.064
-720.821	240.962	0.050	0.084
-719.806	-200.000	-0.039	-0.338
-718.791	697.818	-0.127	-0.339
-717.777	-146.950	-0.473	-0.041
-716.762	-168.738	-0.618	-0.024
-715.748	71.426	0.083	-0.087
-714.733	-36.192	-0.345	0.188
-713.718	123.268	-0.126	-0.160
-712.704	-52.037	-0.058	-0.027
-711.689	225.577	-0.146	0.239
-710.675	-150.674	-0.363	-0.028
-709.660	286.613	-0.079	-0.145
-708.645	-30.468	0.054	-0.031
-707.631	-85.055	-0.167	0.053
-706.616	245.988	0.073	0.124
-705.602	-62.626	0.500	-0.210
-704.587	455.016	0.136	-0.305
-703.572	-96.162	-0.199	-0.053
-702.558	-200.000	-0.026	0.153
-701.543	168.844	-0.165	0.238
-700.529	9.088	-0.113	0.086
-699.514	159.963	-0.125	0.176
-698.499	177.073	-0.107	-0.158
-697.485	-41.336	-0.322	0.168
-696.470	-131.161	0.159	0.021
-695.456	-200.000	-0.026	0.161
-694.441	82.496	-0.284	-0.312
-693.426	238.907	0.111	0.186
-692.412	24.775	-0.151	0.127
-691.397	12.541	0.225	-0.175
-690.383	800.000	-0.020	0.088
-689.368	701.468	0.015	-0.039
-688.354	15.574	-0.058	0.046
-687.339	34.783	-0.253	-0.224
-686.324	800.000	-0.036	0.142
-685.310	326.799	-0.259	0.502
-684.295	114.267	0.120	-0.148
-683.281	-4.739	-0.194	0.135
-682.266	-83.248	-0.091	-0.030
-681.251	117.921	0.101	-0.126
-680.237	-20.567	0.192	-0.120
-679.222	-172.788	0.340	-0.011
-678.208	-3.757	0.081	0.057
-677.193	-61.687	0.460	0.195
-676.178	-200.000	-0.027	-0.229
-675.164	171.447	-0.081	0.118
-674.149	41.915	-0.091	-0.083
-673.135	106.603	0.275	0.330
-672.120	-32.673	0.025	0.014
-671.105	-26.071	0.148	-0.088
-670.091	800.000	0.087	-0.246
-669.076	436.492	0.053	-0.117
-668.062	-7.893	-0.229	0.156
-667.047	-200.000	0.002	-0.128
-666.032	360.173	-0.119	-0.240
-665.018	-168.109	0.399	0.016
-664.003	224.901	0.191	0.312
-662.989	-82.468	0.402	-0.132
-661.974	207.808	0.135	-0.213
-660.959	48.078	0.218	-0.206
-659.945	-134.158	-0.160	0.020
-658.930	-200.000	-0.029	0.231
-657.916	-200.000	0.002	-0.105
-656.901	-173.216	-0.203	-0.006
-655.886	-200.000	-0.068	0.325
-654.872	32.755	-0.261	0.228
-653.857	-93.066	-0.142	0.040
-652.843	323.696	-0.191	-0.368
-651.828	-38.826	-0.290	-0.155
-650.814	-200.000	-0.032	0.269
-649.799	-83.226	-0.463	0.150
-648.784	316.947	0.158	-0.301
-647.770	234.273	-0.106	-0.176
-646.755	271.662	-0.072	-0.128
-645.741	143.672	-0.267	0.360
-644.726	181.003	0.059	0.088
-643.711	4.390	-0.266	0.197
-642.697	283.261	-0.144	0.260
-641.682	23.128	0.232	-0.193
-640.668	-74.468	0.175	0.064
-639.653	767.949	0.082	0.224
-638.638	338.352	-0.227	-0.446
-637.624	800.000	0.064	-0.238
-636.609	278.507	0.091	0.163
-635.595	-97.992	0.099	0.026
-634.580	42.791	0.089	0.082
-633.565	-200.000	0.004	-0.027
-632.551	-200.000	-0.027	0.325
-631.536	690.480	0.072	-0.189
-630.522	74.782	0.238	0.253
-629.507	-200.000	0.007	-0.139
-628.492	89.301	-0.181	-0.204
-627.478	-64.852	0.364	-0.148
-626.463	232.573	0.117	-0.193
-625.449	-200.000	0.058	-0.690
-624.434	323.379	-0.019	0.036
-623.419	800.000	0.031	-0.106
-622.405	37.037	-0.142	0.126
-621.390	119.314	0.317	0.396
-620.376	-31.055	-0.230	0.131
-619.361	286.090	-0.032	-0.058
-618.346	13.919	-0.120	-0.094
-617.332	-63.821	0.265	-0.109
-616.317	122.659	-0.104	0.131
-615.303	76.033	0.077	0.082
-614.288	74.794	-0.196	-0.208
-613.273	133.153	-0.106	0.138
-612.259	-61.001	-0.330	0.140
-611.244	240.168	0.082	-0.137
-610.230	-16.115	0.155	-0.099
-609.215	-107.270	0.129	-0.029
-608.201	580.393	0.046	-0.114
-607.186	-134.630	0.241	0.030
-606.171	-102.635	-0.309	0.074
-605.157	226.899	0.267	0.436
-604.142	153.586	0.052	-0.071
-603.128	62.921	-0.088	-0.089
-602.113	474.834	-0.034	-0.077
-601.098	-200.000	0.008	0.101
-600.084	341.055	0.043	0.084
-599.069	-99.162	-0.096	-0.025
-598.055	-6.148	-0.158	0.109
-597.040	-149.087	-0.260	-0.021
-596.025	-88.903	0.187	-0.056
-595.011	90.033	-0.164	-0.185
-593.996	-33.025	-0.458	-0.256
-592.982	53.437	-0.306	-0.296
-591.967	-139.757	0.149	-0.016
-590.952	581.676	0.095	-0.235
-589.938	161.680	-0.156	-0.220
-588.923	-140.040	-0.208	-0.022
-587.909	-69.132	0.327	-0.127
-586.894	-200.000	0.017	-0.352
-585.879	-200.000	0.036	0.357
-584.865	-61.605	-0.244	-0.103
-583.850	-200.000	-0.001	0.110
-582.836	15.255	-0.243	0.192
-581.821	139.349	-0.089	0.118
-580.806	778.028	0.055	0.151
-579.792	16.747	-0.247	-0.197
-578.777	-121.705	-0.124	0.021
-577.763	57.806	0.056	-0.055
-576.748	-22.054	0.349	0.213
-575.733	560.972	-0.075	0.184
-574.719	160.786	0.124	-0.175
-573.704	800.000	-0.047	-0.191
-572.690	308.301	0.129	-0.242
-571.675	-200.000	-0.035	0.198
-570.661	800.000	0.076	-0.218
-569.646	-200.000	-0.118	0.565
-568.631	-200.000	-0.015	0.113
-567.617	-5.018	0.169	-0.117
-566.602	619.568	-0.087	-0.220
-565.588	-125.467	-0.141	0.022
-564.573	-200.000	0.009	0.040
-563.558	406.389	0.115	0.245
-562.544	87.416	-0.173	0.192
-561.529	492.929	-0.125	0.288
-560.515	-7.724	0.205	0.139
-559.500	83.147	0.245	-0.269
-558.485	-181.792	0.119	-0.002
-557.471	800.000	-0.040	0.154
-556.456	-98.653	-0.060	-0.016
-555.442	253.565	0.110	-0.190
-554.427	31.629	-0.072	0.063
-553.412	-29.242	-0.246	-0.142
-552.398	-200.000	0.093	-0.533
-551.383	56.291	0.145	0.142
-550.369	-200.000	-0.010	-0.174
-549.354	175.683	0.138	0.201
-548.339	-91.109	-0.102	0.029
-547.325	800.000	-0.036	-0.133
-546.310	-42.038	-0.239	0.123
-545.296	-72.062	0.146	0.055
-544.281	-83.782	0.400	0.128
-543.266	161.350	-0.105	0.147
-542.252	-200.000	0.018	0.139
-541.237	800.000	-0.026	-0.113
-540.223	189.569	0.172	0.259
-539.208	477.528	-0.229	-0.521
-538.193	-66.270	0.132	-0.053
-537.179	312.485	0.167	0.315
-536.164	69.810	0.153	0.159
-535.150	-200.000	-0.012	0.123
-534.135	594.689	0.149	-0.369
-533.121	400.040	0.068	-0.144
-532.106	271.574	-0.154	0.273
-531.091	207.869	-0.158	0.248
-530.077	53.730	-0.037	-0.036
-529.062	-63.683	0.176	-0.072
-528.048	-30.475	0.337	-0.192
-527.033	-200.000	-0.043	-0.300
-526.018	-63.680	-0.165	-0.068
-525.004	-152.422	0.145	0.010
-523.989	247.106	0.128	-0.216
-522.975	551.375	0.085	-0.205
-521.960	-200.000	0.027	0.276
-520.945	119.679	0.319	0.397
-519.931	130.111	0.080	0.103
-518.916	-163.656	0.440	-0.021
-517.902	22.533	-0.106	0.087
-516.887	117.938	-0.144	0.178
-515.872	-102.314	-0.255	0.061
-514.858	-66.619	0.105	-0.042
-513.843	-47.819	-0.162	-0.079
-512.829	130.736	0.171	0.221
-511.814	720.634	-0.073	-0.196
-510.799	-31.518	0.035	0.020
-509.785	-39.213	-0.182	0.096
-508.770	-48.525	0.143	0.069
-507.756	310.153	0.111	0.208
-506.741	-50.570	-0.261	-0.124
-505.726	-19.238	-0.245	0.153
-504.712	800.000	0.063	0.192
-503.697	-6.748	-0.208	-0.142
-502.683	417.511	-0.182	-0.389
-501.668	-45.377	0.252	-0.125
-500.653	800.000	0.130	0.455
-499.639	92.185	-0.312	0.353
-498.624	602.890	-0.087	-0.218
-497.610	-100.529	0.206	-0.051
-496.595	103.509	-0.069	-0.082
-495.581	-92.758	-0.191	0.054
-494.566	-200.000	0.000	0.315
-493.551	-70.815	-0.100	0.038
-492.537	273.664	0.186	0.331
-491.522	-200.000	0.004	-0.053
-490.508	-87.548	0.200	-0.061
-489.493	-200.000	-0.045	0.202
-488.478	410.787	-0.055	0.117
-487.464	800.000	-0.129	-0.368
-486.449	800.000	-0.048	0.189
-485.435	-13.156	-0.245	0.160
-484.420	-107.297	-0.262	0.058
-483.405	-200.000	-0.010	-0.405
-482.391	-42.795	-0.250	-0.127
-481.376	44.034	0.246	0.226
-480.362	107.675	-0.175	-0.209
-479.347	-54.812	-0.361	0.163
-478.332	-49.986	0.200	0.095
-477.318	-88.230	0.078	0.024
-476.303	-134.359	0.206	0.025
-475.289	-200.000	-0.004	0.089
-474.274	-140.970	0.021	0.002
-473.259	-200.000	0.004	-0.193
-472.245	53.038	-0.232	-0.223
-471.230	-200.000	0.077	0.411
-470.216	-200.000	0.027	0.170
-469.201	-86.513	0.149	0.046
-468.186	-87.178	-0.070	-0.021
-467.172	-20.685	0.099	-0.061
-466.157	-75.738	-0.207	-0.074
-465.143	132.083	-0.227	0.292
-464.128	233.857	-0.059	-0.097
-463.113	-200.000	0.000	-0.122
-462.099	-200.000	-0.050	0.230
-461.084	567.896	0.101	0.246
-460.070	-1.538	-0.044	0.031
-459.055	-195.924	-0.470	-0.003
-458.040	324.761	0.274	-0.524
-457.026	39.096	-0.120	-0.107
-456.011	155.724	0.133	0.184
-454.997	10.462	-0.056	0.043
-453.982	-88.115	0.234	-0.070
-452.968	7.629	0.201	0.151
-451.953	-75.860	0.261	-0.093
-450.938	414.233	-0.032	-0.069
-449.924	-77.995	0.051	0.017
-448.909	-72.833	-0.049	0.018
-447.895	-86.668	-0.093	0.029
-446.880	-200.000	0.018	0.268
-445.865	-51.686	0.237	-0.111
-444.851	690.590	-0.092	-0.242
-443.836	-143.384	-0.543	0.052
-442.822	195.096	-0.079	-0.120
-441.807	-79.930	0.344	0.116
-440.792	800.000	-0.042	0.141
-439.778	290.173	-0.070	0.127
-438.763	-40.552	-0.225	-0.117
-437.749	-136.703	-0.183	-0.021
-436.734	51.306	0.052	0.049
-435.719	-34.951	-0.311	-0.170
-434.705	-143.897	-0.257	-0.024
-433.690	28.664	-0.215	-0.182
-432.676	102.343	0.080	0.094
-431.661	-47.975	0.191	0.093
-430.646	13.793	-0.031	-0.024
-429.632	-135.847	-0.457	0.054
-428.617	-55.701	-0.151	-0.068
-427.603	-86.086	-0.117	-0.036
-426.588	-107.922	-0.170	-0.037
-425.573	-133.468	0.185	0.023
-424.559	-100.082	0.044	-0.011
-423.544	349.967	0.114	0.226
-422.530	388.176	0.134	0.277
-421.515	-74.289	-0.188	-0.068
-420.500	-66.257	-0.115	0.046
-419.486	-69.643	0.395	0.151
-418.471	800.000	0.073	-0.220
-417.457	-114.972	0.164	-0.031
-416.442	-33.299	0.142	-0.079
-415.428	-200.000	0.054	-0.333
-414.413	-200.000	-0.070	0.353
-413.398	-75.896	-0.085	0.030
-412.384	-90.286	-0.039	-0.011
-411.369	78.075	-0.157	-0.168
-410.355	-200.000	-0.014	-0.272
-409.340	512.472	0.055	0.129
-408.325	85.970	0.013	-0.014
-407.311	-200.000	-0.062	0.305
-406.296	280.041	-0.109	0.194
-405.282	-92.080	-0.084	0.024
-404.267	-200.000	-0.003	0.098
-403.252	408.808	-0.048	-0.102
-402.238	-127.875	0.395	0.057
-401.223	4.913	-0.169	0.124
-400.209	-72.963	-0.246	0.090
-399.194	-144.809	-0.309	0.028
-398.179	164.252	0.240	-0.338
-397.165	-55.420	0.153	-0.069
-396.150	18.396	-0.197	-0.158
-395.136	374.593	0.141	-0.287
-394.121	-200.000	0.016	0.372
-393.106	-200.000	0.035	-0.239
-392.092	4.842	0.130	0.095
-391.077	800.000	-0.077	-0.316
-390.063	-54.133	-0.339	-0.154
-389.048	-39.857	0.117	-0.061
-388.033	-200.000	-0.077	0.000
-387.019	243.131	0.099	-0.166
-386.004	-11.717	-0.366	-0.240
-384.990	-200.000	0.055	0.247
-383.975	-152.764	-0.126	-0.009
-382.960	53.568	-0.135	0.130
-381.946	5.986	-0.048	0.035
-380.931	53.452	-0.226	0.216
-379.917	149.867	-0.188	-0.255
-378.902	6.390	-0.401	-0.298
-377.888	-200.000	-0.036	-0.297
-376.873	-157.053	0.226	0.014
-375.858	-16.988	0.086	-0.054
-374.844	23.473	0.182	0.150
-373.829	-151.452	0.123	0.009
-372.815	800.000	0.031	-0.086
-371.800	800.000	0.015	-0.049
-370.785	-93.827	-0.171	0.047
-369.771	-36.099	0.308	-0.166
-368.756	-128.551	0.215	-0.030
-367.742	297.262	0.058	0.106
-366.727	355.548	-0.221	0.438
-365.712	578.191	-0.068	0.166
-364.698	-112.309	0.266	-0.053
-363.683	-7.739	-0.236	0.159
-362.669	800.000	-0.221	-0.610
-361.654	800.000	0.069	0.278
-360.639	800.000	0.032	0.115
-359.625	-200.000	0.013	0.169
-358.610	-16.552	-0.086	0.054
-357.596	246.803	-0.132	-0.222
-356.581	235.281	-0.202	0.332
-355.566	-123.076	0.321	-0.051
-354.552	216.765	0.086	0.137
-353.537	377.253	0.038	-0.077
-352.523	22.684	0.067	-0.055
-351.508	427.502	-0.137	-0.295
-350.493	-20.682	-0.230	0.141
-349.479	800.000	0.036	0.144
-348.464	-200.000	-0.000	0.330
-347.450	-119.868	-0.317	0.054
-346.435	-45.135	0.139	-0.069
-345.420	290.929	0.127	0.230
-344.406	-84.888	0.106	-0.033
-343.391	-57.133	0.247	-0.108
-342.377	-107.705	0.221	-0.048
-341.362	1.969	-0.042	0.030
-340.348	319.932	-0.181	0.342
-339.333	253.786	0.207	-0.352
-338.318	43.555	0.309	-0.282
-337.304	582.225	0.029	0.071
-336.289	-30.056	-0.226	0.128
-335.275	-71.969	0.195	0.072
-334.260	800.000	-0.104	-0.290
-333.245	60.207	0.199	-0.196
-332.231	-200.000	0.053	0.307
-331.216	31.219	0.229	-0.196
-330.202	318.177	-0.037	-0.070
-329.187	-46.997	0.136	0.066
-328.172	782.917	0.046	-0.126
-327.158	329.206	0.192	-0.367
-326.143	-53.663	0.309	-0.141
-325.129	176.765	0.113	-0.164
-324.114	121.919	-0.156	-0.194
-323.099	-48.933	0.236	-0.113
-322.085	-76.268	0.143	-0.050
-321.070	78.072	0.105	0.111
-320.056	-32.952	0.181	0.100
-319.041	544.013	0.070	0.167
-318.026	134.906	0.061	-0.079
-317.012	-151.619	0.166	-0.012
-315.997	43.823	0.122	-0.111
-314.983	497.131	0.055	-0.127
-313.968	114.587	-0.329	-0.400
-312.953	-155.556	0.149	-0.010
-311.939	-15.925	0.079	-0.050
-310.924	328.478	-0.126	0.241
-309.910	800.000	-0.029	-0.115
-308.895	71.370	0.242	-0.251
-307.880	-155.726	-0.254	-0.016
-306.866	-153.201	0.042	-0.003
-305.851	-35.007	0.208	-0.113
-304.837	-105.096	0.228	0.052
-303.822	10.320	-0.244	-0.185
-302.807	-169.565	0.411	0.015
-301.793	-200.000	0.019	0.112
-300.778	-90.021	0.159	0.046
-299.764	146.151	-0.316	0.422
-298.749	36.437	-0.113	-0.100
-297.735	800.000	0.075	0.243
-296.720	296.816	0.054	-0.099
-295.705	-200.000	-0.017	-0.189
-294.691	63.629	0.409	-0.409
-293.676	-79.064	0.155	-0.053
-292.662	-93.531	0.140	-0.039
-291.647	511.430	0.088	-0.204
-290.632	52.390	0.150	0.142
-289.618	-200.000	-0.007	-0.348
-288.603	-105.466	0.115	-0.026
-287.589	-28.902	0.124	0.071
-286.574	776.609	-0.079	-0.214
-285.559	360.512	-0.082	0.163
-284.545	154.529	-0.098	0.133
-283.530	164.429	0.110	0.154
-282.516	-60.672	-0.161	0.068
-281.501	-79.844	0.210	0.070
-280.486	-27.235	0.173	0.100
-279.472	-75.913	0.300	0.106
-278.457	-103.940	0.161	0.037
-277.443	-90.977	0.155	0.044
-276.428	191.790	0.113	-0.170
-275.413	-200.000	0.018	-0.210
-274.399	800.000	0.039	-0.108
-273.384	-41.708	-0.328	0.168
-272.370	243.891	-0.005	-0.009
-271.355	800.000	0.049	0.139
-270.340	68.679	0.232	-0.237
-269.326	-125.458	-0.283	-0.043
-268.311	20.093	-0.255	0.205
-267.297	800.000	0.070	0.215
-266.282	-200.000	0.019	-0.242
-265.267	-111.697	-0.097	-0.019
-264.253	146.577	-0.109	0.146
-263.238	-131.177	-0.180	0.024
-262.224	86.802	-0.108	-0.119
-261.209	153.484	0.105	0.143
-260.195	800.000	-0.023	-0.095
-259.180	-131.111	-0.275	0.036
-258.165	-70.569	0.210	-0.079
-257.151	-8.646	-0.091	-0.061
-256.136	71.336	-0.183	0.189
-255.122	30.483	0.125	-0.106
-254.107	55.827	0.298	0.288
-253.092	-200.000	-0.024	0.287
-252.078	409.446	-0.031	-0.065
-251.063	-35.522	0.423	-0.228
-250.049	-3.460	-0.191	-0.132
-249.034	299.828	-0.203	0.372
-248.019	-56.701	-0.197	-0.087
-247.005	259.455	-0.068	-0.116
-245.990	18.169	-0.239	-0.190
-244.976	265.703	0.103	0.179
-243.961	800.000	-0.032	0.092
-242.946	800.000	0.082	-0.289
-241.932	142.174	0.035	0.047
-240.917	6.787	-0.081	-0.060
-239.903	-200.000	-0.016	0.162
-238.888	-200.000	0.012	0.207
-237.873	800.000	-0.056	0.235
-236.859	-113.837	0.187	-0.036
-235.844	800.000	0.068	0.189
-234.830	-68.059	-0.360	-0.139
-233.815	406.832	-0.191	0.402
-232.800	800.000	-0.038	0.156
-231.786	-161.775	-0.166	0.008
-230.771	70.625	-0.051	0.052
-229.757	-200.000	-0.005	-0.350
-228.742	-51.919	0.208	0.096
-227.727	-200.000	0.006	-0.033
-226.713	800.000	-0.054	0.149
-225.698	24.242	0.304	0.250
-224.684	-153.471	0.512	0.035
-223.669	377.844	-0.063	0.128
-222.655	-121.623	-0.243	-0.040
-221.640	-37.687	-0.238	0.126
-220.625	-48.187	0.410	-0.197
-219.611	-53.045	0.078	0.036
-218.596	204.098	-0.210	-0.323
-217.582	347.321	-0.140	0.273
-216.567	800.000	0.030	0.087
-215.552	-200.000	0.004	0.241
-214.538	10.747	-0.150	0.113
-213.523	174.602	0.198	-0.284
-212.509	328.881	0.034	-0.066
-211.494	-162.109	0.046	0.002
-210.479	175.332	-0.153	-0.220
-209.465	-114.215	-0.258	0.049
-208.450	-161.710	0.345	0.017
-207.436	-53.683	0.140	0.063
-206.421	26.784	-0.146	-0.121
-205.406	-75.040	-0.321	0.114
-204.392	800.000	-0.087	0.243
-203.377	-110.266	0.231	-0.048
-202.363	-88.469	-0.145	-0.043
-201.348	38.678	-0.160	-0.142
-200.333	800.000	0.147	0.469
-199.319	97.355	-0.060	0.068
-198.304	-200.000	0.028	-0.150
-197.290	-54.091	-0.163	0.074
-196.275	238.260	0.086	-0.141
-195.260	-62.753	-0.113	0.046
-194.246	284.907	0.103	-0.184
-193.231	41.880	-0.085	0.077
-192.217	18.766	-0.222	-0.176
-191.202	56.242	-0.084	0.081
-190.187	285.957	0.052	-0.094
-189.173	67.651	0.120	-0.122
-188.158	-200.000	0.003	-0.162
-187.144	7.709	0.201	0.149
-186.129	12.690	-0.103	-0.079
-185.114	-96.157	-0.167	-0.044
-184.100	-54.413	-0.161	0.073
-183.085	347.189	0.041	0.079
-182.071	11.574	0.104	0.079
-181.056	-49.504	0.077	0.037
-180.042	800.000	-0.123	0.342
-179.027	179.890	0.200	0.291
-178.012	17.818	0.202	-0.159
-176.998	-119.603	-0.055	-0.009
-175.983	-200.000	-0.000	-0.358
-174.969	-5.249	-0.249	-0.169
-173.954	-169.387	0.260	0.009
-172.939	-97.931	0.066	-0.017
-171.925	115.897	-0.233	-0.282
-170.910	-200.000	0.021	0.305
-169.896	383.247	0.141	0.287
-168.881	-94.072	-0.047	-0.013
-167.866	423.984	0.049	-0.105
-166.852	-137.823	-0.195	-0.022
-165.837	-4.451	0.169	0.116
-164.823	-20.970	-0.060	0.036
-163.808	-121.534	0.112	0.018
-162.793	367.101	0.103	-0.207
-161.779	-9.764	0.076	0.050
-160.764	-200.000	0.018	0.158
-159.750	447.178	0.127	-0.277
-158.735	-200.000	0.003	0.317
-157.720	154.047	0.091	-0.124
-156.706	-200.000	0.029	-0.254
-155.691	54.855	-0.168	-0.161
-154.677	-145.046	-0.282	0.025
-153.662	-200.000	0.035	0.172
-152.647	-117.193	-0.088	-0.016
-151.633	217.636	0.154	-0.244
-150.618	-12.525	-0.132	0.085
-149.604	500.451	-0.065	-0.149
-148.589	-200.000	0.019	-0.107
-147.574	-200.000	-0.004	0.041
-146.560	-47.687	-0.438	-0.210
-145.545	438.497	0.065	0.140
-144.531	-109.328	0.280	0.059
-143.516	-55.148	-0.152	0.068
-142.502	-200.000	0.006	-0.030
-141.487	800.000	0.059	-0.188
-140.472	444.003	0.147	-0.320
-139.458	418.953	-0.043	-0.091
-138.443	21.472	-0.245	0.198
-137.429	-132.485	-0.235	-0.030
-136.414	-200.000	-0.007	-0.327
-135.399	-131.705	0.325	-0.042
-134.385	126.098	-0.140	-0.175
-133.370	-30.834	0.026	0.014
-132.356	-181.582	-0.266	0.005
-131.341	800.000	0.098	0.325
-130.326	-6.704	0.155	0.104
-129.312	-17.509	0.359	-0.224
-128.297	800.000	-0.032	-0.104
-127.283	-76.096	0.175	-0.061
-126.268	-103.983	0.353	-0.082
-125.253	-28.364	-0.378	-0.216
-124.239	-141.862	0.154	-0.015
-123.224	-200.000	-0.016	-0.087
-122.210	-109.889	0.349	-0.072
-121.195	10.813	-0.120	0.090
-120.180	186.846	0.029	0.043
