DTS Sentinel unit serial number:	SN413079Multiplexer serial number:	ORYXHardware model number:	OX4-SRSoftware version number:	ORYX F/W v4.00 Oryx Data Collector v3.7.2.0data status	okinstallation	princeton_trtdifferential loss correction	single-endedforward channel	channel 2reverse channel	N/Adate	2019/09/17time	15:03:34forward acquisition time	60.00reverse acquisition time	0.00gamma	496.2192k internal	0.2309k external	0.2309temperature offset calibration	0.9984default loss term (dB/km)	0.3790temperature slope calibration	1.0000multiplexer offset coefficient	1.0000multiplexer slope coefficient	1.0000fibre end	0.00T internal ref (°C)	37.48T ext. ref 1 (°C)	0.39T ext. ref 2 (°C)	34.14length (m)	temperature (°C)	Stokes	anti-Stokes-747.200	800.000	0.067	0.218
-746.185	-135.100	0.179	0.022
-745.171	-200.000	0.008	0.208
-744.156	-49.613	-0.135	0.066
-743.142	428.983	-0.164	-0.360
-742.127	60.936	-0.355	0.358
-741.112	-200.000	-0.045	0.299
-740.098	-38.617	0.042	-0.023
-739.083	345.873	-0.066	-0.131
-738.069	800.000	0.071	0.214
-737.054	-195.949	0.259	0.002
-736.039	0.982	-0.182	-0.132
-735.025	800.000	-0.078	-0.224
-734.010	800.000	0.095	0.292
-732.996	-200.000	0.013	-0.132
-731.981	27.987	-0.093	-0.080
-730.966	290.427	0.048	-0.088
-729.952	127.818	-0.134	-0.173
-728.937	-4.376	-0.515	-0.362
-727.923	116.228	-0.155	-0.193
-726.908	266.868	0.106	-0.188
-725.894	45.425	-0.085	-0.079
-724.879	187.578	-0.168	0.254
-723.864	800.000	0.022	-0.075
-722.850	-83.324	0.259	-0.084
-721.835	41.617	0.157	0.145
-720.821	-165.742	0.266	-0.012
-719.806	-127.148	-0.287	0.043
-718.791	-33.067	-0.410	0.231
-717.777	-103.929	-0.207	-0.049
-716.762	-200.000	-0.041	0.417
-715.748	-101.890	-0.182	-0.045
-714.733	-84.356	-0.093	-0.030
-713.718	-200.000	-0.056	-0.276
-712.704	-70.338	0.295	0.113
-711.689	800.000	0.059	-0.259
-710.675	-106.015	-0.338	0.077
-709.660	46.389	-0.153	-0.144
-708.645	-147.908	-0.131	0.011
-707.631	800.000	-0.051	-0.206
-706.616	56.810	0.103	-0.102
-705.602	-82.564	0.217	0.071
-704.587	-48.503	0.270	-0.132
-703.572	157.149	0.052	-0.073
-702.558	67.051	-0.128	-0.132
-701.543	800.000	0.031	-0.122
-700.529	102.871	0.198	0.235
-699.514	800.000	0.032	0.125
-698.499	6.302	0.123	0.093
-697.485	-43.608	0.126	-0.064
-696.470	800.000	0.062	-0.176
-695.456	216.989	0.075	0.121
-694.441	-74.926	0.119	0.043
-693.426	-120.353	0.188	-0.033
-692.412	-70.820	-0.122	0.047
-691.397	-200.000	-0.033	-0.358
-690.383	-105.730	-0.332	-0.076
-689.368	249.636	-0.151	0.260
-688.354	-83.970	-0.195	0.063
-687.339	113.069	-0.163	0.201
-686.324	-134.595	-0.208	0.026
-685.310	800.000	-0.035	-0.107
-684.295	24.488	0.113	0.095
-683.281	-60.154	0.207	-0.090
-682.266	-18.803	-0.144	0.091
-681.251	436.229	0.122	-0.270
-680.237	-200.000	-0.007	-0.194
-679.222	-112.366	0.175	-0.036
-678.208	220.835	0.127	0.207
-677.193	2.257	-0.254	0.186
-676.178	96.044	-0.194	0.225
-675.164	108.594	0.155	-0.188
-674.149	28.874	0.165	0.142
-673.135	275.713	0.119	-0.214
-672.120	-125.016	0.380	-0.059
-671.105	-78.121	0.084	-0.029
-670.091	256.657	0.119	0.206
-669.076	-153.587	-0.152	0.011
-668.062	-143.059	-0.260	-0.025
-667.047	234.035	0.015	-0.024
-666.032	111.645	0.058	0.071
-665.018	-102.550	0.012	-0.003
-664.003	162.641	0.022	-0.031
-662.989	-118.594	-0.320	-0.057
-661.974	224.786	-0.191	0.313
-660.959	2.575	0.356	0.262
-659.945	-185.511	-0.092	0.001
-658.930	-200.000	-0.030	-0.546
-657.916	-200.000	-0.012	0.164
-656.901	-119.085	0.283	-0.050
-655.886	-200.000	-0.040	-0.274
-654.872	-32.535	-0.210	-0.118
-653.857	15.870	-0.278	-0.221
-652.843	570.324	-0.139	-0.341
-651.828	800.000	0.042	-0.137
-650.814	800.000	-0.122	-0.395
-649.799	-125.114	0.227	-0.035
-648.784	11.264	-0.223	0.173
-647.770	38.758	0.156	-0.141
-646.755	-118.166	-0.179	-0.032
-645.741	39.502	0.093	-0.084
-644.726	92.278	-0.343	-0.391
-643.711	-200.000	-0.088	0.000
-642.697	-200.000	0.015	0.081
-641.682	-200.000	-0.011	0.278
-640.668	-74.304	0.201	-0.073
-639.653	-200.000	0.031	-0.170
-638.638	800.000	-0.048	0.156
-637.624	-200.000	-0.011	0.103
-636.609	73.394	0.150	0.159
-635.595	-72.184	0.027	0.010
-634.580	-118.844	-0.048	0.009
-633.565	169.365	0.189	-0.273
-632.551	-200.000	0.011	-0.100
-631.536	-43.024	-0.037	-0.019
-630.522	-200.000	-0.016	0.249
-629.507	-130.963	0.212	-0.029
-628.492	43.701	0.088	0.082
-627.478	12.723	-0.144	-0.113
-626.463	-0.524	0.092	0.066
-625.449	-9.362	-0.267	0.181
-624.434	28.789	-0.061	0.052
-623.419	-96.148	-0.341	-0.091
-622.405	800.000	-0.018	-0.061
-621.390	77.200	-0.281	-0.302
-620.376	-102.125	-0.077	0.019
-619.361	-98.646	-0.121	0.031
-618.346	-74.485	0.187	-0.068
-617.332	39.726	-0.228	-0.207
-616.317	-8.372	-0.254	-0.173
-615.303	316.266	0.098	-0.186
-614.288	34.958	0.112	-0.099
-613.273	553.392	-0.174	0.424
-612.259	612.336	-0.158	0.401
-611.244	800.000	0.037	0.103
-610.230	-145.367	-0.136	-0.012
-609.215	332.537	-0.203	-0.396
-608.201	140.248	-0.104	0.139
-607.186	-192.408	0.024	0.000
-606.171	-200.000	-0.026	0.166
-605.157	66.397	-0.116	-0.119
-604.142	47.687	-0.189	0.178
-603.128	-183.446	-0.191	0.003
-602.113	-200.000	0.035	0.236
-601.098	-200.000	-0.010	0.105
-600.084	152.494	0.121	0.167
-599.069	-20.666	0.063	0.039
-598.055	-184.840	0.243	-0.004
-597.040	-8.782	0.204	-0.138
-596.025	-200.000	-0.061	-0.374
-595.011	-200.000	-0.049	-0.349
-593.996	-121.453	-0.374	-0.063
-592.982	-159.180	0.442	-0.025
-591.967	-72.518	0.379	0.141
-590.952	71.298	-0.171	0.179
-589.938	-116.652	-0.443	-0.082
-588.923	-78.917	0.265	-0.091
-587.909	141.716	-0.210	-0.281
-586.894	-200.000	0.027	0.320
-585.879	383.292	0.136	-0.283
-584.865	200.591	-0.223	-0.347
-583.850	30.683	0.322	-0.278
-582.836	267.879	0.143	0.253
-581.821	40.716	0.269	-0.245
-580.806	800.000	-0.071	-0.201
-579.792	-200.000	-0.051	-0.275
-578.777	-84.748	0.124	-0.039
-577.763	-200.000	-0.033	0.372
-576.748	800.000	0.074	0.249
-575.733	800.000	-0.023	-0.090
-574.719	-21.732	-0.130	-0.080
-573.704	-200.000	0.024	-0.371
-572.690	-166.700	-0.193	-0.008
-571.675	-200.000	0.003	-0.195
-570.661	106.017	0.078	-0.094
-569.646	800.000	0.066	-0.197
-568.631	-200.000	-0.009	-0.482
-567.617	-123.459	0.219	0.035
-566.602	-200.000	-0.039	-0.286
-565.588	110.244	0.115	-0.140
-564.573	-35.099	-0.078	-0.043
-563.558	-200.000	0.022	-0.108
-562.544	365.381	-0.127	0.258
-561.529	196.974	-0.194	0.299
-560.515	4.951	-0.108	-0.080
-559.500	390.913	-0.100	0.210
-558.485	800.000	0.059	0.167
-557.471	-67.293	0.084	-0.033
-556.456	766.572	0.084	0.231
-555.442	600.069	-0.095	-0.239
-554.427	334.120	-0.050	0.098
-553.412	-200.000	-0.002	0.030
-552.398	-115.614	0.225	-0.043
-551.383	7.630	0.108	0.082
-550.369	-200.000	0.024	-0.217
-549.354	-53.968	0.136	0.062
-548.339	131.061	0.094	-0.121
-547.325	560.480	-0.076	0.186
-546.310	-123.577	-0.114	0.018
-545.296	-0.418	0.321	-0.230
-544.281	-161.342	0.226	0.012
-543.266	-75.658	0.276	0.099
-542.252	69.098	-0.119	0.123
-541.237	-63.915	0.125	-0.052
-540.223	-200.000	0.001	0.106
-539.208	568.270	-0.053	0.130
-538.193	-111.534	0.108	0.022
-537.179	-44.246	0.121	-0.061
-536.164	85.049	0.273	-0.302
-535.150	-76.579	0.179	-0.063
-534.135	311.692	-0.071	0.134
-533.121	661.218	0.023	-0.060
-532.106	-99.409	-0.252	-0.064
-531.091	259.784	-0.059	-0.103
-530.077	-45.975	0.285	0.142
-529.062	139.551	-0.019	0.025
-528.048	-93.661	0.383	0.106
-527.033	-109.291	-0.097	-0.021
-526.018	-200.000	0.029	0.282
-525.004	334.928	-0.089	-0.175
-523.989	-34.185	-0.230	-0.127
-522.975	-63.599	-0.185	0.077
-521.960	-158.765	0.186	-0.011
-520.945	800.000	0.057	0.210
-519.931	200.345	-0.169	-0.262
-518.916	102.844	-0.080	-0.095
-517.902	-85.673	-0.091	0.028
-516.887	-86.060	0.098	0.030
-515.872	-38.372	-0.470	0.250
-514.858	-200.000	0.024	0.229
-513.843	-78.669	-0.315	0.109
-512.829	28.096	0.112	-0.095
-511.814	-101.788	0.137	-0.033
-510.799	126.691	0.109	-0.139
-509.785	296.480	-0.115	-0.213
-508.770	2.532	-0.185	-0.135
-507.756	-32.197	-0.066	-0.037
-506.741	-138.672	0.101	-0.011
-505.726	-81.720	-0.350	-0.116
-504.712	-76.799	-0.215	-0.076
-503.697	-168.255	0.280	-0.011
-502.683	-59.296	0.152	0.066
-501.668	-200.000	-0.001	0.015
-500.653	-195.641	-0.210	-0.002
-499.639	99.085	-0.077	-0.089
-498.624	-200.000	0.030	-0.193
-497.610	-128.624	-0.132	-0.019
-496.595	148.854	0.052	-0.070
-495.581	191.603	-0.129	-0.195
-494.566	-118.829	-0.256	0.045
-493.551	-96.204	0.795	0.212
-492.537	-7.978	-0.201	-0.137
-491.522	-140.354	-0.258	-0.027
-490.508	578.252	0.112	0.275
-489.493	-52.557	0.268	-0.125
-488.478	658.578	0.062	-0.160
-487.464	-40.635	0.209	-0.109
-486.449	-200.000	-0.030	-0.306
-485.435	-60.752	-0.124	-0.053
-484.420	74.078	-0.229	-0.242
-483.405	-72.745	0.235	0.087
-482.391	-134.082	-0.201	-0.025
-481.376	-200.000	-0.022	-0.133
-480.362	16.387	-0.041	0.032
-479.347	148.387	0.072	0.098
-478.332	147.040	-0.156	0.211
-477.318	-200.000	0.015	0.192
-476.303	-164.517	-0.223	0.010
-475.289	24.815	-0.085	-0.071
-474.274	-135.366	-0.197	0.024
-473.259	800.000	-0.032	-0.110
-472.245	-132.620	-0.309	0.040
-471.230	800.000	-0.037	-0.149
-470.216	-154.833	-0.331	-0.022
-469.201	694.279	-0.067	0.175
-468.186	-106.907	0.124	0.028
-467.172	146.627	0.114	-0.154
-466.157	48.838	-0.221	0.208
-465.143	252.639	0.118	-0.203
-464.128	800.000	0.083	-0.340
-463.113	800.000	0.015	0.064
-462.099	-63.952	0.194	-0.080
-461.084	145.813	0.032	0.044
-460.070	18.387	0.248	-0.199
-459.055	-22.656	-0.164	0.099
-458.040	187.620	0.195	0.292
-457.026	695.159	-0.190	0.501
-456.011	127.298	0.063	-0.081
-454.997	800.000	0.025	-0.093
-453.982	-53.640	0.117	0.054
-452.968	-39.554	-0.161	0.085
-451.953	384.010	0.068	-0.141
-450.938	800.000	0.065	0.274
-449.924	258.876	-0.110	0.190
-448.909	-200.000	-0.002	0.050
-447.895	-52.419	-0.153	0.071
-446.880	182.138	-0.141	-0.209
-445.865	-1.742	-0.119	0.084
-444.851	-110.591	0.403	0.084
-443.836	800.000	-0.031	-0.091
-442.822	373.937	0.163	-0.333
-441.807	5.596	-0.156	-0.116
-440.792	155.340	-0.185	0.256
-439.778	800.000	0.075	0.248
-438.763	-48.074	0.103	0.050
-437.749	362.556	0.065	0.132
-436.734	-124.924	-0.192	0.030
-435.719	81.533	-0.133	-0.145
-434.705	481.478	0.112	0.256
-433.690	31.211	-0.224	0.193
-432.676	-200.000	0.032	0.363
-431.661	-109.581	-0.129	0.027
-430.646	-200.000	0.017	0.147
-429.632	-200.000	0.005	0.203
-428.617	-65.416	0.228	-0.092
-427.603	-200.000	0.004	-0.053
-426.588	-29.428	0.138	-0.079
-425.573	-31.992	0.178	0.100
-424.559	170.883	0.095	-0.137
-423.544	-46.965	0.315	0.155
-422.530	-69.077	0.067	0.026
-421.515	42.511	-0.087	-0.079
-420.500	800.000	-0.019	-0.079
-419.486	-77.708	-0.125	-0.044
-418.471	-19.677	-0.225	-0.140
-417.457	800.000	-0.091	-0.285
-416.442	-83.527	0.306	0.098
-415.428	800.000	-0.080	-0.269
-414.413	361.875	-0.010	0.020
-413.398	-84.904	0.070	0.022
-412.384	82.924	-0.268	-0.292
-411.369	-132.381	-0.531	0.069
-410.355	-146.151	0.285	-0.025
-409.340	16.742	0.145	-0.115
-408.325	-200.000	0.046	-0.251
-407.311	83.736	0.088	0.096
-406.296	144.570	-0.118	-0.157
-405.282	-102.380	0.361	-0.087
-404.267	-71.344	-0.146	0.055
-403.252	-89.988	-0.340	-0.099
-402.238	-198.338	0.271	0.002
-401.223	-53.021	0.203	0.094
-400.209	160.499	-0.160	-0.223
-399.194	156.694	-0.158	0.219
-398.179	-200.000	0.031	0.227
-397.165	109.579	-0.149	0.179
-396.150	-4.601	-0.148	-0.103
-395.136	-200.000	0.005	-0.208
-394.121	-113.456	0.306	0.060
-393.106	-82.514	0.097	-0.032
-392.092	47.962	-0.222	-0.208
-391.077	88.283	0.075	0.083
-390.063	-127.036	0.315	-0.046
-389.048	15.531	-0.083	-0.065
-388.033	-159.639	0.330	-0.018
-387.019	-4.621	-0.243	-0.168
-386.004	172.167	0.119	0.171
-384.990	-200.000	-0.029	0.176
-383.975	-70.736	0.302	-0.114
-382.960	18.013	0.166	-0.133
-381.946	800.000	0.005	0.017
-380.931	-74.348	0.277	0.100
-379.917	243.590	0.060	0.100
-378.902	658.162	0.011	-0.028
-377.888	-200.000	-0.022	-0.195
-376.873	33.766	0.229	-0.200
-375.858	-67.428	0.217	0.086
-374.844	800.000	-0.052	0.209
-373.829	-200.000	-0.108	0.479
-372.815	-200.000	-0.029	-0.144
-371.800	-66.501	0.037	-0.015
-370.785	58.901	-0.004	0.004
-369.771	-164.933	-0.121	-0.005
-368.756	40.498	-0.128	-0.116
-367.742	-85.215	-0.476	0.149
-366.727	-200.000	-0.022	-0.117
-365.712	-130.776	-0.071	-0.010
-364.698	-87.465	0.350	0.106
-363.683	-200.000	-0.013	0.258
-362.669	-200.000	0.075	0.411
-361.654	-86.441	-0.190	-0.058
-360.639	-165.934	-0.210	0.009
-359.625	169.228	0.088	0.126
-358.610	-15.031	0.051	0.032
-357.596	180.927	0.040	0.058
-356.581	-200.000	-0.022	-0.113
-355.566	-200.000	-0.031	-0.292
-354.552	-93.956	0.127	0.035
-353.537	-161.526	0.284	0.015
-352.523	638.475	-0.044	-0.111
-351.508	800.000	0.042	0.124
-350.493	-129.910	-0.299	0.041
-349.479	5.007	-0.097	-0.071
-348.464	9.396	-0.137	0.103
-347.450	-58.578	-0.104	0.045
-346.435	-200.000	-0.040	-0.208
-345.420	96.386	0.116	0.133
-344.406	181.851	0.296	-0.436
-343.391	-200.000	-0.031	0.205
-342.377	-66.690	-0.166	0.066
-341.362	-62.869	-0.197	-0.082
-340.348	242.139	0.058	0.097
-339.333	-30.758	-0.050	-0.028
-338.318	-200.000	-0.023	0.265
-337.304	-200.000	0.019	0.205
-336.289	-93.199	0.302	-0.084
-335.275	24.030	-0.181	-0.149
-334.260	-26.370	0.122	-0.072
-333.245	141.249	0.116	0.153
-332.231	797.600	-0.064	0.178
-331.216	612.937	-0.149	0.374
-330.202	-142.559	0.266	0.026
-329.187	9.506	0.216	0.164
-328.172	-200.000	0.001	0.067
-327.158	-200.000	-0.015	-0.193
-326.143	-148.758	0.476	-0.039
-325.129	-6.481	-0.246	0.167
-324.114	-126.428	0.208	-0.031
-323.099	-83.435	-0.155	-0.050
-322.085	-200.000	0.019	-0.469
-321.070	542.574	-0.085	0.202
-320.056	800.000	-0.035	0.099
-319.041	98.052	0.104	-0.120
-318.026	-200.000	-0.004	-0.253
-317.012	170.143	-0.086	0.124
-315.997	198.586	0.146	0.223
-314.983	800.000	-0.102	0.328
-313.968	-184.230	0.195	0.003
-312.953	435.852	0.123	-0.267
-311.939	-65.393	0.300	-0.121
-310.924	-200.000	0.013	0.206
-309.910	-41.127	-0.156	0.081
-308.895	-142.718	0.066	-0.006
-307.880	201.100	-0.112	-0.172
-306.866	-200.000	0.043	0.258
-305.851	-91.275	0.273	0.078
-304.837	-76.743	0.158	-0.055
-303.822	-200.000	0.009	0.299
-302.807	51.346	0.423	0.401
-301.793	4.620	-0.204	-0.150
-300.778	-129.884	0.291	0.040
-299.764	-139.536	-0.457	-0.049
-298.749	214.780	0.049	-0.078
-297.735	-137.411	-0.058	-0.007
-296.720	-94.164	-0.185	-0.051
-295.705	-120.578	-0.219	0.037
-294.691	-200.000	0.001	-0.154
-293.676	-79.068	-0.297	-0.101
-292.662	-200.000	-0.036	-0.375
-291.647	-165.370	-0.218	-0.010
-290.632	-51.353	0.161	0.075
-289.618	-200.000	0.003	0.226
-288.603	28.638	-0.237	0.200
-287.589	190.756	0.098	-0.147
-286.574	-200.000	0.001	0.015
-285.559	-31.246	0.060	0.034
-284.545	-200.000	0.062	0.332
-283.530	800.000	0.113	-0.327
-282.516	800.000	0.024	0.094
-281.501	-79.530	-0.315	0.106
-280.486	-145.783	0.361	-0.032
-279.472	677.251	0.135	0.350
-278.457	-111.778	-0.044	-0.009
-277.443	58.881	-0.136	0.133
-276.428	41.073	-0.255	0.230
-275.413	8.946	0.350	0.264
-274.399	321.422	-0.080	0.152
-273.384	18.852	0.171	0.136
-272.370	-200.000	0.001	-0.031
-271.355	-39.867	-0.149	0.078
-270.340	-111.191	-0.099	-0.020
-269.326	800.000	-0.078	0.238
-268.311	154.006	-0.241	0.330
-267.297	36.083	-0.336	-0.295
-266.282	273.770	-0.172	-0.303
-265.267	-200.000	0.004	-0.207
-264.253	-155.694	-0.282	0.018
-263.238	800.000	-0.088	-0.281
-262.224	-138.577	-0.313	0.034
-261.209	-21.116	0.027	-0.016
-260.195	411.569	-0.053	0.113
-259.180	495.775	-0.028	0.065
-258.165	10.447	-0.173	-0.131
-257.151	449.651	0.127	-0.280
-256.136	800.000	0.069	-0.279
-255.122	-113.985	0.135	-0.026
-254.107	-200.000	0.038	-0.260
-253.092	207.413	0.020	-0.031
-252.078	800.000	-0.057	0.201
-251.063	-200.000	-0.020	-0.245
-250.049	-200.000	0.051	-0.342
-249.034	768.546	0.022	0.059
-248.019	-200.000	-0.001	-0.031
-247.005	-200.000	0.031	-0.143
-245.990	-65.650	-0.302	-0.121
-244.976	45.132	-0.032	0.029
-243.961	-200.000	0.014	-0.200
-242.946	-4.330	0.090	0.062
-241.932	99.104	0.287	0.331
-240.917	118.827	0.058	0.072
-239.903	-200.000	0.048	-0.395
-238.888	-200.000	0.036	-0.295
-237.873	-31.593	0.261	0.146
-236.859	-40.685	-0.209	0.108
-235.844	-200.000	-0.001	-0.100
-234.830	-141.374	0.413	-0.042
-233.815	-74.378	0.101	-0.036
-232.800	203.514	0.017	0.027
-231.786	180.073	-0.114	-0.167
-230.771	-25.517	-0.333	-0.196
-229.757	8.973	-0.161	0.121
-228.742	173.735	0.202	0.291
-227.727	-34.109	-0.297	0.163
-226.713	-56.852	-0.017	0.008
-225.698	-129.446	-0.051	0.007
-224.684	202.653	0.058	0.090
-223.669	-97.825	0.143	0.037
-222.655	76.435	0.147	0.156
-221.640	-136.052	0.149	-0.017
-220.625	-30.663	0.177	0.100
-219.611	63.703	0.109	0.109
-218.596	-192.185	-0.099	-0.001
-217.582	-25.522	-0.177	0.104
-216.567	-200.000	0.016	0.208
-215.552	-200.000	-0.006	-0.115
-214.538	183.205	0.030	-0.044
-213.523	369.460	0.083	0.166
-212.509	-55.488	0.302	-0.135
-211.494	155.112	-0.071	-0.097
-210.479	-95.674	-0.154	0.041
-209.465	-200.000	0.048	-0.275
-208.450	800.000	-0.089	-0.380
-207.436	356.225	-0.149	0.296
-206.421	-200.000	0.014	0.458
-205.406	-200.000	-0.001	-0.373
-204.392	97.505	0.071	-0.081
-203.377	-200.000	0.053	-0.234
-202.363	18.692	-0.147	0.117
-201.348	-200.000	0.011	-0.225
-200.333	-59.368	0.676	0.289
-199.319	-150.416	0.298	-0.023
-198.304	250.402	-0.125	0.211
-197.290	66.627	0.401	-0.406
-196.275	-168.624	-0.183	0.007
-195.260	-107.777	0.301	0.065
-194.246	-200.000	0.032	0.190
-193.231	87.904	0.139	0.153
-192.217	-200.000	0.065	0.321
-191.202	90.769	-0.082	-0.091
-190.187	-198.222	0.119	0.001
-189.173	-140.048	-0.373	0.039
-188.158	644.839	-0.046	-0.116
-187.144	120.751	0.231	-0.285
-186.129	360.830	-0.082	0.163
-185.114	337.875	-0.106	0.205
-184.100	800.000	0.039	0.166
-183.085	-42.297	-0.247	-0.126
-182.071	-22.331	0.326	-0.196
-181.056	-200.000	-0.044	0.252
-180.042	-30.106	0.105	0.059
-179.027	-200.000	-0.000	0.072
-178.012	-22.148	0.255	-0.154
-176.998	800.000	-0.048	0.164
-175.983	-123.245	-0.187	0.030
-174.969	581.969	0.104	-0.252
-173.954	-80.866	0.067	-0.022
-172.939	557.709	0.095	0.228
-171.925	54.112	0.088	0.084
-170.910	-162.275	0.319	0.016
-169.896	-21.588	-0.169	0.102
-168.881	-110.315	-0.273	-0.056
-167.866	156.930	-0.112	-0.154
-166.852	28.941	0.136	0.115
-165.837	134.579	-0.244	0.314
-164.823	-97.543	0.066	-0.017
-163.808	-123.963	0.335	0.052
-162.793	410.364	0.033	0.069
-161.779	-73.198	-0.074	-0.027
-160.764	-200.000	0.007	0.395
-159.750	-101.372	-0.122	-0.030
-158.735	-49.298	-0.384	-0.182
-157.720	-74.062	0.229	0.082
-156.706	-20.008	-0.274	-0.168
-155.691	709.741	-0.048	0.126
-154.677	-58.200	-0.225	-0.097
-153.662	-96.888	-0.337	-0.088
-152.647	-200.000	0.033	0.206
-151.633	-200.000	-0.029	0.160
-150.618	6.995	0.030	-0.022
-149.604	-84.778	0.274	-0.086
-148.589	198.884	-0.076	0.116
-147.574	37.582	-0.176	0.155
-146.560	633.974	-0.113	-0.285
-145.545	84.367	0.157	-0.170
-144.531	235.402	-0.079	-0.129
-143.516	-142.295	-0.111	0.011
-142.502	78.040	-0.311	-0.330
-141.487	-8.839	-0.158	0.105
-140.472	-124.475	-0.056	-0.009
-139.458	-119.640	0.146	-0.025
-138.443	-81.424	0.336	-0.110
-137.429	-200.000	-0.023	0.407
-136.414	48.379	-0.077	-0.072
-135.399	-52.769	-0.253	0.116
-134.385	607.659	0.069	0.170
-133.370	-200.000	-0.009	-0.254
-132.356	-110.970	-0.197	-0.040
-131.341	-200.000	0.028	-0.431
-130.326	453.747	0.127	0.279
-129.312	87.566	0.304	0.334
-128.297	73.605	0.269	0.279
-127.283	800.000	0.024	-0.089
-126.268	15.861	-0.111	0.087
-125.253	-118.624	0.175	-0.031
-124.239	186.619	-0.171	-0.253
-123.224	800.000	0.042	0.176
-122.210	-200.000	-0.028	-0.138
