DTS Sentinel unit serial number:	SN413079Multiplexer serial number:	ORYXHardware model number:	OX4-SRSoftware version number:	ORYX F/W v4.00 Oryx Data Collector v3.7.2.0data status	okinstallation	princeton_trtdifferential loss correction	single-endedforward channel	channel 2reverse channel	N/Adate	2019/09/18time	10:27:34forward acquisition time	60.00reverse acquisition time	0.00gamma	496.2192k internal	0.2331k external	0.2331temperature offset calibration	0.9983default loss term (dB/km)	0.3790temperature slope calibration	1.0000multiplexer offset coefficient	1.0000multiplexer slope coefficient	1.0000fibre end	0.00T internal ref (°C)	28.27T ext. ref 1 (°C)	0.36T ext. ref 2 (°C)	24.77length (m)	temperature (°C)	Stokes	anti-Stokes-747.200	-200.000	0.026	0.204
-746.185	65.394	0.124	0.127
-745.171	800.000	-0.097	0.385
-744.156	745.599	-0.127	0.345
-743.142	-54.085	-0.119	0.055
-742.127	-135.939	-0.088	0.010
-741.112	-92.437	-0.170	-0.048
-740.098	800.000	-0.108	0.322
-739.083	-200.000	-0.086	0.543
-738.069	-95.162	-0.242	-0.066
-737.054	-139.796	0.151	-0.016
-736.039	117.019	-0.164	-0.203
-735.025	800.000	0.083	0.242
-734.010	800.000	-0.080	-0.312
-732.996	657.792	0.123	-0.318
-731.981	-100.333	-0.125	-0.031
-730.966	574.900	0.065	-0.159
-729.952	-200.000	-0.000	-0.009
-728.937	277.114	-0.057	0.103
-727.923	-27.706	-0.352	-0.205
-726.908	-200.000	0.010	0.270
-725.894	-86.232	0.381	0.118
-724.879	-200.000	-0.004	-0.131
-723.864	-200.000	0.004	-0.303
-722.850	33.788	0.281	0.246
-721.835	-60.631	0.124	-0.053
-720.821	800.000	-0.071	-0.232
-719.806	57.035	-0.107	-0.105
-718.791	736.976	-0.150	-0.403
-717.777	85.204	-0.243	-0.268
-716.762	-121.279	0.117	0.020
-715.748	-137.584	-0.199	0.023
-714.733	-123.146	0.257	0.041
-713.718	14.499	-0.139	0.109
-712.704	800.000	0.062	-0.220
-711.689	117.136	-0.151	0.187
-710.675	32.390	-0.290	-0.251
-709.660	16.455	0.185	-0.147
-708.645	45.109	0.230	-0.213
-707.631	-45.543	0.281	-0.140
-706.616	-200.000	-0.027	-0.205
-705.602	-200.000	-0.015	-0.224
-704.587	0.591	-0.201	-0.144
-703.572	175.333	0.105	-0.152
-702.558	800.000	0.019	-0.055
-701.543	-72.764	0.264	0.098
-700.529	-96.562	-0.244	0.065
-699.514	10.876	0.063	0.049
-698.499	158.560	-0.218	-0.304
-697.485	-168.625	-0.162	-0.006
-696.470	-100.179	0.011	0.003
-695.456	2.222	-0.206	-0.150
-694.441	-93.452	0.222	0.062
-693.426	-17.849	-0.325	0.205
-692.412	148.802	0.111	0.151
-691.397	181.768	-0.207	-0.306
-690.383	667.287	-0.144	0.373
-689.368	-195.110	0.299	0.002
-688.354	158.518	0.163	-0.227
-687.339	-33.923	-0.019	0.011
-686.324	101.094	0.290	0.339
-685.310	17.990	0.329	-0.263
-684.295	800.000	0.134	-0.403
-683.281	540.226	-0.120	-0.286
-682.266	122.495	-0.134	0.168
-681.251	8.064	0.215	-0.162
-680.237	-151.230	0.299	-0.022
-679.222	13.001	0.281	-0.218
-678.208	800.000	-0.104	-0.305
-677.193	-87.462	-0.059	-0.018
-676.178	-200.000	-0.071	-0.366
-675.164	223.189	0.321	-0.519
-674.149	-114.419	-0.347	0.067
-673.135	800.000	0.006	-0.018
-672.120	-89.754	-0.171	-0.050
-671.105	48.147	0.261	-0.245
-670.091	-200.000	-0.018	0.348
-669.076	-200.000	0.037	-0.485
-668.062	800.000	0.083	-0.255
-667.047	129.548	-0.119	-0.152
-666.032	456.965	0.180	-0.402
-665.018	-86.939	0.178	-0.054
-664.003	150.585	0.013	-0.017
-662.989	-161.659	-0.019	-0.001
-661.974	-155.503	-0.333	0.022
-660.959	-93.467	0.185	-0.051
-659.945	800.000	0.048	0.170
-658.930	-200.000	-0.014	0.219
-657.916	-200.000	-0.042	-0.200
-656.901	327.349	-0.042	0.080
-655.886	-98.017	-0.389	0.101
-654.872	141.778	0.034	0.046
-653.857	179.450	-0.154	-0.226
-652.843	-200.000	0.005	0.123
-651.828	75.708	-0.137	-0.145
-650.814	125.657	-0.155	-0.196
-649.799	-200.000	-0.041	0.248
-648.784	435.032	-0.036	-0.079
-647.770	-200.000	-0.004	0.392
-646.755	-63.135	0.241	0.100
-645.741	-70.783	0.099	-0.037
-644.726	-59.036	-0.294	-0.127
-643.711	-70.386	0.350	-0.133
-642.697	-122.471	0.376	-0.061
-641.682	-197.889	-0.337	-0.002
-640.668	-94.175	-0.245	-0.067
-639.653	-86.528	-0.143	0.044
-638.638	800.000	-0.051	0.186
-637.624	-61.036	-0.245	0.104
-636.609	-39.676	-0.310	-0.162
-635.595	-166.353	0.143	-0.006
-634.580	-88.285	-0.171	-0.051
-633.565	-25.157	-0.184	-0.109
-632.551	-200.000	-0.002	-0.129
-631.536	-129.904	-0.159	-0.022
-630.522	-54.302	-0.290	0.132
-629.507	-200.000	-0.062	0.310
-628.492	-139.033	0.196	0.021
-627.478	181.812	-0.046	-0.068
-626.463	-79.391	-0.169	0.057
-625.449	-200.000	-0.016	-0.083
-624.434	0.562	-0.165	-0.118
-623.419	62.636	-0.198	0.198
-622.405	-58.407	-0.216	-0.094
-621.390	-200.000	0.031	-0.340
-620.376	-200.000	0.007	-0.310
-619.361	-65.585	-0.264	-0.106
-618.346	-200.000	0.016	0.329
-617.332	314.228	0.118	-0.222
-616.317	-200.000	0.410	0.000
-615.303	71.967	-0.208	0.217
-614.288	142.790	-0.091	-0.121
-613.273	169.563	-0.163	-0.233
-612.259	-3.104	-0.098	-0.068
-611.244	20.055	0.104	0.084
-610.230	5.711	0.033	-0.024
-609.215	-3.413	-0.080	-0.056
-608.201	195.802	0.152	-0.232
-607.186	-200.000	0.021	0.144
-606.171	-200.000	-0.015	-0.205
-605.157	68.947	0.154	-0.159
-604.142	180.473	0.135	-0.198
-603.128	-141.623	0.080	-0.008
-602.113	-200.000	0.093	0.537
-601.098	-44.075	0.173	-0.087
-600.084	-141.482	-0.187	-0.019
-599.069	-32.040	0.130	-0.073
-598.055	7.010	-0.329	-0.246
-597.040	-21.739	-0.170	-0.104
-596.025	800.000	0.039	0.122
-595.011	-200.000	0.044	-0.218
-593.996	467.053	0.029	0.065
-592.982	614.065	-0.110	0.276
-591.967	-200.000	-0.004	0.103
-590.952	800.000	-0.081	-0.344
-589.938	250.707	-0.129	0.220
-588.923	-98.076	-0.276	-0.071
-587.909	-115.155	-0.329	-0.062
-586.894	700.924	0.112	-0.294
-585.879	-94.816	0.200	0.054
-584.865	26.735	0.174	-0.146
-583.850	544.941	0.114	-0.272
-582.836	162.798	0.124	-0.174
-581.821	131.698	0.129	0.166
-580.806	-200.000	-0.052	0.302
-579.792	70.352	0.154	-0.159
-578.777	87.418	-0.178	-0.197
-577.763	6.111	0.053	0.039
-576.748	357.974	-0.124	-0.247
-575.733	-50.762	-0.393	-0.185
-574.719	-200.000	0.002	-0.139
-573.704	209.700	-0.016	-0.025
-572.690	-23.038	-0.262	0.158
-571.675	-30.306	-0.179	-0.102
-570.661	-111.888	0.492	-0.099
-569.646	-144.912	-0.134	-0.012
-568.631	102.983	0.168	-0.197
-567.617	-70.543	0.189	-0.072
-566.602	-200.000	0.021	0.244
-565.588	-16.192	-0.119	0.076
-564.573	166.299	-0.116	-0.164
-563.558	600.204	-0.075	-0.185
-562.544	-200.000	-0.017	0.358
-561.529	-87.891	0.112	0.034
-560.515	-98.955	0.128	-0.032
-559.500	66.464	-0.283	-0.288
-558.485	178.369	-0.122	0.179
-557.471	-145.120	-0.172	0.016
-556.456	22.385	-0.180	-0.147
-555.442	-24.040	-0.394	0.235
-554.427	-15.678	0.121	-0.077
-553.412	-200.000	0.030	0.139
-552.398	800.000	-0.061	0.181
-551.383	-58.445	0.121	0.053
-550.369	-58.524	-0.325	-0.141
-549.354	640.060	-0.082	0.209
-548.339	-72.232	0.045	-0.017
-547.325	-66.360	0.164	-0.065
-546.310	773.425	0.048	0.131
-545.296	290.965	0.089	0.162
-544.281	800.000	-0.071	-0.308
-543.266	104.470	-0.036	-0.042
-542.252	-33.480	-0.207	-0.114
-541.237	800.000	-0.019	0.058
-540.223	136.263	0.023	0.029
-539.208	39.483	0.226	0.202
-538.193	406.512	-0.216	0.456
-537.179	160.966	-0.239	-0.333
-536.164	-200.000	0.003	0.090
-535.150	-40.783	0.100	0.052
-534.135	-80.576	-0.095	0.032
-533.121	-133.924	0.113	0.014
-532.106	-53.273	0.136	0.062
-531.091	246.293	-0.166	0.280
-530.077	-9.047	0.312	0.209
-529.062	564.572	0.105	-0.254
-528.048	267.143	-0.100	-0.174
-527.033	95.990	0.112	-0.127
-526.018	-108.785	0.083	-0.018
-525.004	-122.947	0.139	0.022
-523.989	14.248	-0.239	-0.186
-522.975	252.345	0.143	-0.244
-521.960	1.370	-0.191	-0.137
-520.945	108.317	-0.066	-0.079
-519.931	565.657	-0.026	-0.062
-518.916	-10.090	0.125	0.083
-517.902	-130.139	0.064	-0.009
-516.887	177.577	0.076	-0.111
-515.872	-73.623	-0.148	-0.054
-514.858	-118.248	-0.245	-0.044
-513.843	800.000	0.010	0.035
-512.829	632.332	0.057	-0.143
-511.814	-200.000	0.024	0.194
-510.799	111.028	-0.127	-0.152
-509.785	-26.250	0.244	-0.143
-508.770	800.000	-0.163	0.614
-507.756	60.204	0.489	0.482
-506.741	-36.446	0.345	0.185
-505.726	-35.799	0.356	-0.192
-504.712	299.138	-0.126	0.231
-503.697	800.000	-0.065	0.266
-502.683	137.998	0.314	0.410
-501.668	488.409	0.052	0.118
-500.653	-140.054	-0.275	-0.029
-499.639	-109.902	0.277	-0.058
-498.624	-0.854	0.305	-0.216
-497.610	-5.363	0.216	0.148
-496.595	-123.947	0.285	0.045
-495.581	4.236	-0.275	-0.201
-494.566	-116.860	0.082	0.015
-493.551	496.417	0.089	0.204
-492.537	-180.246	-0.359	-0.008
-491.522	260.710	0.084	-0.144
-490.508	-84.634	0.159	-0.050
-489.493	-24.894	-0.092	0.055
-488.478	800.000	0.014	0.059
-487.464	534.274	0.170	0.401
-486.449	800.000	0.052	-0.191
-485.435	-33.229	0.221	-0.122
-484.420	177.570	-0.162	0.236
-483.405	133.935	0.113	-0.146
-482.391	298.300	-0.162	-0.297
-481.376	365.057	0.052	-0.105
-480.362	431.195	0.109	0.234
-479.347	28.150	-0.402	-0.338
-478.332	800.000	-0.112	-0.454
-477.318	-96.622	0.409	-0.107
-476.303	-23.486	0.074	-0.044
-475.289	-107.974	-0.096	-0.021
-474.274	-99.971	-0.063	-0.016
-473.259	-99.113	0.257	-0.065
-472.245	212.436	0.070	0.110
-471.230	-110.669	-0.163	-0.033
-470.216	-99.761	0.151	-0.038
-469.201	-88.958	-0.164	-0.048
-468.186	95.380	0.153	-0.174
-467.172	-25.780	-0.080	-0.047
-466.157	-200.000	0.045	-0.268
-465.143	-80.509	-0.191	0.063
-464.128	47.213	-0.191	0.177
-463.113	-98.994	0.271	0.068
-462.099	-50.161	0.311	-0.146
-461.084	-117.352	-0.126	-0.023
-460.070	152.320	0.257	0.350
-459.055	-162.644	-0.171	0.008
-458.040	122.531	-0.225	-0.279
-457.026	-200.000	0.075	0.435
-456.011	183.543	0.084	-0.124
-454.997	374.798	-0.084	-0.170
-453.982	-144.307	-0.262	-0.024
-452.968	-94.682	-0.200	0.054
-451.953	123.261	-0.048	-0.060
-450.938	284.810	0.180	-0.322
-449.924	-200.000	-0.014	-0.262
-448.909	-200.000	-0.094	-0.501
-447.895	-200.000	-0.041	0.219
-446.880	-71.319	0.252	-0.094
-445.865	30.534	0.239	0.203
-444.851	22.475	-0.216	0.176
-443.836	79.260	-0.105	-0.112
-442.822	800.000	-0.036	-0.143
-441.807	-61.222	0.398	-0.167
-440.792	-137.110	0.094	-0.011
-439.778	-66.082	0.146	0.058
-438.763	-200.000	-0.000	0.091
-437.749	381.165	0.107	-0.218
-436.734	-200.000	-0.010	0.061
-435.719	-48.837	0.219	0.104
-434.705	-16.913	0.081	0.051
-433.690	189.391	0.107	0.160
-432.676	81.367	-0.350	0.376
-431.661	-200.000	0.000	0.131
-430.646	251.029	-0.092	0.155
-429.632	145.525	-0.170	0.226
-428.617	100.311	0.176	0.203
-427.603	-67.406	0.267	-0.104
-426.588	38.023	0.197	0.174
-425.573	-80.912	-0.141	0.047
-424.559	110.792	0.274	-0.327
-423.544	100.621	-0.095	0.110
-422.530	73.323	-0.258	-0.268
-421.515	284.188	0.079	-0.142
-420.500	-47.009	-0.170	0.083
-419.486	-200.000	-0.031	0.311
-418.471	-88.396	0.111	-0.033
-417.457	71.001	-0.169	-0.174
-416.442	800.000	0.041	0.165
-415.428	-63.207	-0.410	-0.168
-414.413	-95.086	-0.224	-0.060
-413.398	-112.854	-0.165	0.033
-412.384	388.106	0.121	-0.248
-411.369	-101.521	0.161	0.039
-410.355	-15.644	0.225	-0.143
-409.340	-77.654	0.112	-0.038
-408.325	-200.000	0.016	-0.153
-407.311	474.596	-0.066	0.148
-406.296	-56.770	-0.393	-0.173
-405.282	387.789	0.205	-0.421
-404.267	-118.823	0.113	0.020
-403.252	123.546	-0.109	-0.136
-402.238	160.587	0.046	0.063
-401.223	-137.008	-0.165	0.019
-400.209	100.051	0.244	0.281
-399.194	800.000	-0.031	0.096
-398.179	-120.759	-0.422	-0.071
-397.165	800.000	-0.056	-0.194
-396.150	202.820	-0.334	-0.513
-395.136	800.000	0.048	0.176
-394.121	684.457	0.076	-0.196
-393.106	-97.938	0.287	0.074
-392.092	-200.000	-0.021	-0.111
-391.077	277.381	0.134	-0.236
-390.063	204.180	0.101	-0.155
-389.048	-200.000	-0.015	-0.249
-388.033	-200.000	0.010	0.149
-387.019	-12.142	0.163	-0.106
-386.004	6.039	-0.111	-0.082
-384.990	-65.420	0.112	0.045
-383.975	-21.621	0.254	0.154
-382.960	8.532	0.030	0.023
-381.946	-200.000	0.003	0.111
-380.931	-59.089	0.252	0.108
-379.917	51.609	-0.256	-0.241
-378.902	-8.924	-0.170	-0.113
-377.888	21.069	0.125	0.100
-376.873	103.468	0.283	0.330
-375.858	135.964	0.185	-0.239
-374.844	-66.490	-0.144	0.057
-373.829	151.982	0.155	0.210
-372.815	277.807	-0.160	-0.282
-371.800	384.908	0.082	0.168
-370.785	-200.000	-0.000	0.033
-369.771	800.000	-0.086	0.267
-368.756	-123.463	0.175	-0.028
-367.742	-63.432	0.191	0.078
-366.727	30.676	-0.276	-0.235
-365.712	-105.010	0.351	-0.080
-364.698	-26.087	-0.197	-0.115
-363.683	-146.291	-0.156	-0.014
-362.669	-128.681	-0.233	0.033
-361.654	-31.335	-0.089	0.050
-360.639	47.246	0.127	0.117
-359.625	800.000	0.153	0.458
-358.610	800.000	0.034	0.097
-357.596	-144.517	0.568	0.052
-356.581	-200.000	0.007	0.040
-355.566	27.212	-0.107	0.089
-354.552	36.306	0.278	0.243
-353.537	-39.043	0.167	0.087
-352.523	-200.000	-0.011	0.112
-351.508	-200.000	0.026	-0.188
-350.493	800.000	-0.064	0.256
-349.479	-100.384	-0.539	0.132
-348.464	-117.295	0.484	-0.087
-347.450	-64.450	0.428	-0.172
-346.435	87.516	0.027	0.029
-345.420	51.580	-0.123	0.116
-344.406	96.405	0.135	-0.153
-343.391	18.225	0.148	-0.117
-342.377	800.000	-0.113	0.351
-341.362	-147.971	-0.368	-0.030
-340.348	-200.000	-0.004	0.060
-339.333	-27.208	-0.138	-0.080
-338.318	133.650	0.159	-0.204
-337.304	-197.803	-0.190	-0.001
-336.289	800.000	0.090	0.278
-335.275	-200.000	0.038	0.307
-334.260	176.193	0.128	0.184
-333.245	-42.572	0.371	-0.187
-332.231	-31.613	-0.112	0.062
-331.216	800.000	0.056	0.172
-330.202	50.697	-0.115	0.108
-329.187	8.596	0.195	0.146
-328.172	-32.619	-0.239	-0.132
-327.158	-4.822	0.296	0.202
-326.143	88.227	-0.161	0.177
-325.129	106.751	-0.281	-0.330
-324.114	81.899	-0.075	-0.081
-323.099	-200.000	-0.025	0.127
-322.085	-55.831	0.127	0.056
-321.070	-200.000	0.008	0.050
-320.056	135.349	0.100	-0.129
-319.041	-92.471	-0.244	0.068
-318.026	45.703	-0.272	0.249
-317.012	800.000	-0.077	0.230
-315.997	325.182	0.127	-0.240
-314.983	-92.673	-0.320	-0.089
-313.968	37.790	0.150	0.132
-312.953	-116.389	0.104	-0.019
-311.939	33.309	0.321	0.275
-310.924	78.101	0.128	0.135
-309.910	-193.879	-0.150	0.001
-308.895	-200.000	0.080	0.365
-307.880	126.125	0.089	0.112
-306.866	-200.000	0.023	-0.287
-305.851	800.000	-0.070	0.218
-304.837	-200.000	0.021	0.267
-303.822	-82.875	0.343	0.110
-302.807	-200.000	0.040	0.183
-301.793	10.012	-0.047	-0.036
-300.778	21.913	0.340	-0.274
-299.764	50.278	-0.096	-0.089
-298.749	31.223	0.231	-0.196
-297.735	-200.000	0.022	-0.118
-296.720	98.122	-0.143	-0.163
-295.705	-93.953	0.095	0.026
-294.691	-122.379	-0.193	0.031
-293.676	298.562	-0.097	0.176
-292.662	-200.000	0.002	0.027
-291.647	-56.448	-0.270	0.119
-290.632	56.277	0.045	0.043
-289.618	148.681	0.113	0.151
-288.603	205.960	0.141	0.217
-287.589	543.698	-0.058	0.137
-286.574	286.660	0.083	-0.148
-285.559	-138.234	0.265	-0.029
-284.545	-131.072	-0.310	0.041
-283.530	-200.000	-0.002	-0.148
-282.516	-32.878	-0.085	0.046
-281.501	404.788	-0.085	0.177
-280.486	-29.598	0.288	0.162
-279.472	-164.600	-0.217	-0.010
-278.457	-78.194	0.301	0.102
-277.443	-81.535	-0.128	0.042
-276.428	150.220	-0.242	0.325
-275.413	-82.829	-0.246	-0.078
-274.399	35.860	-0.123	-0.107
-273.384	390.955	-0.051	0.105
-272.370	-176.330	0.054	0.001
-271.355	115.492	0.159	0.192
-270.340	-200.000	0.025	0.177
-269.326	800.000	-0.021	-0.059
-268.311	-200.000	-0.023	-0.406
-267.297	-200.000	0.002	-0.174
-266.282	346.377	-0.162	-0.315
-265.267	21.630	-0.141	-0.113
-264.253	199.549	0.274	-0.415
-263.238	283.253	0.027	0.047
-262.224	-200.000	-0.033	0.222
-261.209	-95.482	0.194	-0.051
-260.195	177.445	-0.075	-0.109
-259.180	-140.177	0.228	0.024
-258.165	-21.530	0.122	0.074
-257.151	182.437	0.144	-0.210
-256.136	-200.000	0.059	-0.273
-255.122	273.031	-0.073	-0.127
-254.107	158.837	0.081	-0.111
-253.092	-200.000	-0.005	-0.026
-252.078	800.000	-0.100	-0.284
-251.063	159.904	0.112	-0.154
-250.049	-48.748	0.294	0.139
-249.034	96.213	0.101	-0.114
-248.019	36.033	-0.121	-0.105
-247.005	800.000	0.080	-0.311
-245.990	800.000	0.084	-0.286
-244.976	-112.448	-0.231	-0.045
-243.961	3.455	-0.393	0.283
-242.946	-200.000	-0.030	-0.157
-241.932	-200.000	-0.002	0.130
-240.917	-200.000	0.018	0.210
-239.903	800.000	0.055	-0.160
-238.888	-200.000	-0.042	-0.345
-237.873	-47.034	-0.219	-0.106
-236.859	-67.914	-0.171	0.066
-235.844	-200.000	-0.055	0.255
-234.830	156.838	0.170	-0.232
-233.815	-101.392	-0.562	-0.135
-232.800	303.571	0.063	-0.114
-231.786	272.954	-0.080	0.140
-230.771	-120.145	0.291	0.049
-229.757	-13.104	0.191	-0.122
-228.742	278.097	-0.072	0.127
-227.727	63.720	0.299	0.296
-226.713	-112.506	-0.075	0.015
-225.698	-107.737	0.176	-0.038
-224.684	-200.000	-0.006	0.339
-223.669	137.272	-0.070	-0.090
-222.655	-16.987	0.161	-0.100
-221.640	34.342	0.138	-0.118
-220.625	-200.000	-0.059	0.290
-219.611	419.138	0.078	0.165
-218.596	113.920	-0.104	0.125
-217.582	11.659	0.234	-0.177
-216.567	148.493	0.157	0.209
-215.552	-60.212	0.106	-0.044
-214.538	-111.423	-0.351	0.070
-213.523	1.767	0.270	-0.192
-212.509	-18.073	0.284	0.175
-211.494	786.884	-0.069	0.188
-210.479	-200.000	-0.019	-0.091
-209.465	-37.897	-0.254	-0.133
-208.450	724.569	-0.066	0.173
-207.436	26.903	0.181	-0.149
-206.421	-200.000	-0.055	0.285
-205.406	-102.991	0.016	0.004
-204.392	376.005	-0.083	-0.168
-203.377	-134.012	-0.179	0.022
-202.363	248.862	0.126	0.210
-201.348	396.208	-0.086	0.177
-200.333	94.742	0.251	-0.281
-199.319	-200.000	-0.096	0.425
-198.304	-157.717	-0.118	-0.007
-197.290	-0.387	-0.245	0.172
-196.275	-45.644	0.462	-0.225
-195.260	-200.000	-0.006	-0.180
-194.246	268.143	0.094	-0.162
-193.231	800.000	0.071	0.210
-192.217	418.995	-0.104	-0.218
-191.202	519.826	0.184	0.424
-190.187	-61.616	-0.124	-0.051
-189.173	-200.000	0.029	0.230
-188.158	-5.581	0.021	-0.014
-187.144	-163.780	-0.467	0.022
-186.129	136.279	-0.038	-0.049
-185.114	-56.293	-0.103	0.045
-184.100	9.077	0.198	0.147
-183.085	545.378	-0.065	-0.153
-182.071	-3.457	-0.343	-0.235
-181.056	-25.898	-0.149	-0.086
-180.042	127.272	-0.134	0.167
-179.027	37.021	0.045	0.039
-178.012	800.000	-0.057	-0.178
-176.998	93.734	0.115	0.128
-175.983	365.193	0.054	-0.107
-174.969	21.463	0.261	0.209
-173.954	98.161	-0.281	-0.319
-172.939	-200.000	-0.032	-0.154
-171.925	-118.415	0.181	-0.032
-170.910	664.779	-0.194	0.493
-169.896	800.000	-0.095	0.331
-168.881	71.228	-0.145	-0.148
-167.866	-200.000	-0.052	0.306
-166.852	-200.000	-0.004	-0.374
-165.837	71.902	-0.111	0.114
-164.823	217.982	-0.074	0.117
-163.808	-87.374	0.052	0.015
-162.793	-133.730	-0.106	-0.013
-161.779	-200.000	-0.048	-0.242
-160.764	108.161	-0.087	-0.103
-159.750	83.568	-0.255	0.274
-158.735	-159.261	0.243	0.013
-157.720	-163.312	-0.250	0.012
-156.706	-200.000	0.017	-0.197
-155.691	-200.000	0.015	-0.069
-154.677	59.571	0.049	0.048
-153.662	800.000	0.027	-0.113
-152.647	259.205	0.072	0.122
-151.633	82.962	-0.217	0.232
-150.618	156.266	0.244	0.331
-149.604	517.803	0.074	0.171
-148.589	18.827	0.120	-0.094
-147.574	-18.011	0.118	0.073
-146.560	363.208	-0.024	0.047
-145.545	800.000	0.044	-0.185
-144.531	-60.976	-0.431	-0.179
-143.516	-147.959	0.173	0.014
-142.502	-83.553	-0.284	0.089
-141.487	353.523	-0.038	0.074
-140.472	-31.523	0.195	-0.108
-139.458	-34.116	0.129	-0.070
-138.443	-93.974	0.258	0.070
-137.429	800.000	0.043	0.165
-136.414	105.954	0.324	-0.377
-135.399	-200.000	-0.038	-0.228
-134.385	800.000	0.045	0.138
-133.370	189.239	-0.126	-0.186
-132.356	239.888	-0.110	-0.181
-131.341	-91.554	-0.530	-0.148
-130.326	-128.672	-0.078	-0.011
-129.312	175.334	-0.157	-0.224
-128.297	62.593	-0.065	-0.064
-127.283	588.287	0.132	0.320
-126.268	-200.000	-0.032	0.473
-125.253	271.077	-0.106	0.183
-124.239	55.922	-0.107	-0.102
-123.224	-17.945	-0.179	0.110
-122.210	-21.649	-0.099	-0.059
-121.195	399.873	-0.102	0.211
