DTS Sentinel unit serial number:	SN413079Multiplexer serial number:	ORYXHardware model number:	OX4-SRSoftware version number:	ORYX F/W v4.00 Oryx Data Collector v3.7.2.0data status	okinstallation	princeton_trtdifferential loss correction	single-endedforward channel	channel 2reverse channel	N/Adate	2019/09/15time	15:19:35forward acquisition time	60.00reverse acquisition time	0.00gamma	496.2192k internal	0.2297k external	0.2297temperature offset calibration	0.9958default loss term (dB/km)	0.3790temperature slope calibration	1.0000multiplexer offset coefficient	1.0000multiplexer slope coefficient	1.0000fibre end	0.00T internal ref (°C)	40.81T ext. ref 1 (°C)	5.03T ext. ref 2 (°C)	38.29length (m)	temperature (°C)	Stokes	anti-Stokes-747.200	-123.716	0.492	-0.080
-746.185	-200.000	0.056	0.425
-745.171	573.944	-0.043	-0.106
-744.156	-200.000	-0.063	0.469
-743.142	-6.636	0.269	-0.187
-742.127	-46.428	-0.106	-0.053
-741.112	-200.000	-0.047	0.297
-740.098	300.462	0.204	0.384
-739.083	-15.797	0.272	-0.177
-738.069	-53.155	-0.289	-0.136
-737.054	13.734	-0.253	0.201
-736.039	-105.040	-0.521	-0.122
-735.025	-66.418	-0.029	0.012
-734.010	-113.605	-0.318	0.063
-732.996	9.486	0.132	-0.102
-731.981	-43.994	0.293	-0.150
-730.966	800.000	-0.017	-0.069
-729.952	453.782	-0.194	-0.439
-728.937	-32.827	-0.276	0.157
-727.923	-147.524	-0.235	0.020
-726.908	102.150	-0.119	-0.142
-725.894	99.553	-0.302	-0.357
-724.879	-33.102	0.039	0.022
-723.864	126.082	0.086	-0.111
-722.850	-200.000	-0.006	0.083
-721.835	-39.258	-0.172	-0.092
-720.821	-110.015	0.172	-0.037
-719.806	240.858	-0.132	0.225
-718.791	-111.773	0.392	-0.081
-717.777	78.424	0.074	0.081
-716.762	-109.081	0.321	-0.070
-715.748	-102.386	-0.163	-0.040
-714.733	17.699	0.184	0.149
-713.718	-103.385	-0.187	0.045
-712.704	231.893	-0.186	0.312
-711.689	800.000	0.103	-0.320
-710.675	-97.153	0.230	0.061
-709.660	40.745	-0.253	-0.233
-708.645	-200.000	-0.007	-0.176
-707.631	-47.666	0.218	0.108
-706.616	-143.686	0.200	-0.019
-705.602	180.962	-0.107	-0.160
-704.587	479.540	0.111	0.257
-703.572	800.000	-0.026	0.081
-702.558	-158.329	-0.398	-0.024
-701.543	-143.793	-0.117	-0.011
-700.529	3.861	0.070	-0.052
-699.514	-124.833	0.175	-0.028
-698.499	-200.000	0.002	0.162
-697.485	272.774	0.127	0.228
-696.470	-155.547	-0.336	0.022
-695.456	80.756	-0.304	-0.334
-694.441	-77.679	0.078	0.028
-693.426	91.100	-0.085	-0.097
-692.412	38.933	-0.220	-0.200
-691.397	71.583	-0.079	-0.083
-690.383	163.895	0.085	0.122
-689.368	3.727	-0.290	0.216
-688.354	32.589	-0.164	0.145
-687.339	-137.586	0.239	-0.027
-686.324	-200.000	0.008	-0.224
-685.310	96.511	0.176	-0.206
-684.295	-14.709	-0.221	-0.144
-683.281	800.000	0.002	-0.005
-682.266	-200.000	-0.019	0.121
-681.251	-153.544	-0.386	0.027
-680.237	100.528	-0.017	-0.020
-679.222	-200.000	0.039	-0.286
-678.208	-200.000	0.022	0.284
-677.193	270.751	0.250	0.448
-676.178	-1.369	-0.175	-0.126
-675.164	21.476	0.192	0.159
-674.149	350.704	-0.098	-0.198
-673.135	-200.000	-0.020	-0.142
-672.120	323.632	0.058	-0.113
-671.105	181.521	0.035	-0.053
-670.091	-200.000	0.005	-0.042
-669.076	-51.495	-0.115	0.055
-668.062	175.260	-0.144	-0.212
-667.047	75.927	-0.215	0.232
-666.032	151.371	0.109	-0.151
-665.018	188.353	0.173	-0.264
-664.003	-137.460	0.560	-0.064
-662.989	-52.067	-0.166	-0.079
-661.974	339.345	0.040	-0.080
-660.959	-200.000	-0.027	0.133
-659.945	292.040	-0.094	-0.174
-658.930	-115.124	0.386	-0.075
-657.916	-18.521	-0.144	0.091
-656.901	-15.307	0.149	0.097
-655.886	-200.000	0.016	-0.246
-654.872	-17.812	0.160	0.102
-653.857	252.013	0.144	0.250
-652.843	107.829	-0.063	-0.076
-651.828	-200.000	-0.017	0.136
-650.814	-200.000	0.035	0.267
-649.799	34.928	-0.115	0.102
-648.784	-71.138	0.246	-0.094
-647.770	256.468	-0.221	-0.386
-646.755	124.020	-0.230	-0.294
-645.741	-91.034	-0.336	0.098
-644.726	312.108	0.161	0.308
-643.711	-115.752	-0.123	-0.023
-642.697	261.648	-0.197	-0.347
-641.682	-63.282	-0.182	0.076
-640.668	-51.606	-0.318	-0.151
-639.653	304.449	0.043	-0.081
-638.638	337.914	-0.143	-0.283
-637.624	-200.000	-0.006	0.232
-636.609	-149.575	0.336	0.027
-635.595	-33.720	-0.390	0.219
-634.580	-200.000	-0.013	-0.082
-633.565	187.904	0.155	0.235
-632.551	-88.782	-0.082	-0.025
-631.536	-144.268	-0.134	0.013
-630.522	305.185	-0.096	-0.181
-629.507	161.038	0.147	0.209
-628.492	-63.009	-0.260	0.109
-627.478	800.000	0.075	-0.223
-626.463	-87.545	-0.197	-0.060
-625.449	68.909	0.119	-0.124
-624.434	-174.034	-0.244	0.007
-623.419	800.000	-0.059	-0.216
-622.405	28.206	0.237	0.203
-621.390	-150.273	-0.239	-0.019
-620.376	-94.092	0.146	0.041
-619.361	354.333	-0.017	0.035
-618.346	-135.750	0.031	0.004
-617.332	-72.286	-0.131	-0.049
-616.317	-39.855	0.101	0.054
-615.303	-38.198	0.235	0.127
-614.288	43.997	-0.231	-0.215
-613.273	-1.218	-0.100	0.072
-612.259	-101.283	-0.455	-0.113
-611.244	562.987	-0.064	-0.157
-610.230	-14.933	-0.047	0.031
-609.215	-18.605	0.340	-0.215
-608.201	741.790	-0.115	-0.315
-607.186	-200.000	-0.040	0.215
-606.171	-200.000	0.000	0.129
-605.157	-36.652	0.104	-0.057
-604.142	13.670	-0.148	0.117
-603.128	-32.027	-0.076	-0.043
-602.113	800.000	0.071	0.245
-601.098	-200.000	0.036	-0.375
-600.084	743.770	-0.113	0.309
-599.069	169.810	-0.102	-0.148
-598.055	-65.882	-0.268	0.109
-597.040	-123.144	-0.007	-0.001
-596.025	-175.730	-0.386	-0.011
-595.011	800.000	0.023	-0.101
-593.996	547.534	0.134	-0.325
-592.982	-200.000	0.004	0.151
-591.967	-66.424	0.349	-0.141
-590.952	-181.707	0.305	-0.006
-589.938	123.092	-0.140	0.178
-588.923	-99.113	0.090	-0.023
-587.909	526.303	0.025	0.060
-586.894	-41.722	-0.058	0.030
-585.879	-115.449	0.387	0.074
-584.865	1.470	0.096	-0.070
-583.850	109.730	-0.223	0.271
-582.836	800.000	0.065	-0.221
-581.821	-1.434	0.187	-0.134
-580.806	-200.000	-0.026	0.319
-579.792	82.393	-0.126	0.139
-578.777	800.000	0.050	-0.146
-577.763	-109.717	0.045	-0.010
-576.748	-26.478	0.228	-0.135
-575.733	-123.050	0.159	-0.026
-574.719	-200.000	0.043	-0.206
-573.704	168.655	-0.205	0.296
-572.690	42.266	0.071	-0.066
-571.675	-79.189	0.303	-0.104
-570.661	-200.000	0.013	0.205
-569.646	-45.899	0.075	-0.037
-568.631	576.048	0.064	0.158
-567.617	-129.892	0.124	-0.017
-566.602	654.357	-0.168	-0.438
-565.588	0.167	0.123	0.089
-564.573	-23.973	0.133	-0.081
-563.558	439.866	0.142	-0.315
-562.544	15.011	-0.065	0.052
-561.529	-75.712	0.242	0.087
-560.515	-12.207	0.732	-0.486
-559.500	-52.693	0.097	0.046
-558.485	187.502	0.099	0.150
-557.471	191.679	-0.061	0.093
-556.456	299.132	-0.056	0.105
-555.442	-54.872	0.208	0.095
-554.427	11.885	-0.065	-0.051
-553.412	800.000	-0.026	-0.086
-552.398	800.000	-0.015	0.056
-551.383	-23.602	0.299	0.182
-550.369	215.336	-0.172	0.277
-549.354	41.911	-0.108	-0.100
-548.339	569.041	-0.180	0.444
-547.325	-45.803	-0.122	-0.061
-546.310	85.709	0.067	-0.075
-545.296	-161.850	0.248	0.013
-544.281	-150.443	-0.192	0.015
-543.266	59.080	-0.146	-0.145
-542.252	40.552	-0.186	-0.170
-541.237	17.444	0.101	-0.081
-540.223	-145.532	0.188	0.017
-539.208	-200.000	0.001	-0.213
-538.193	-127.625	0.240	-0.035
-537.179	59.987	-0.200	0.201
-536.164	-126.881	-0.346	0.052
-535.150	-200.000	0.007	0.286
-534.135	-200.000	-0.115	-0.000
-533.121	-4.135	0.235	-0.165
-532.106	-200.000	-0.027	0.120
-531.091	-200.000	-0.033	-0.377
-530.077	-200.000	-0.002	-0.236
-529.062	-8.917	0.294	0.200
-528.048	115.787	0.103	0.127
-527.033	204.660	-0.162	0.255
-526.018	382.073	0.089	0.185
-525.004	140.741	-0.164	0.219
-523.989	-200.000	-0.003	0.070
-522.975	-182.971	0.082	-0.001
-521.960	679.553	0.189	0.499
-520.945	26.090	-0.199	-0.168
-519.931	49.892	0.128	0.122
-518.916	39.127	-0.080	-0.072
-517.902	43.098	0.210	0.194
-516.887	-138.000	0.466	-0.053
-515.872	-107.708	0.121	0.027
-514.858	-200.000	-0.021	0.157
-513.843	188.741	-0.078	-0.119
-512.829	87.072	0.221	-0.248
-511.814	-184.447	0.241	0.004
-510.799	-143.442	0.187	-0.018
-509.785	423.557	-0.019	-0.042
-508.770	-25.000	0.195	-0.117
-507.756	-90.749	0.137	0.040
-506.741	213.004	-0.064	0.103
-505.726	74.488	0.301	-0.321
-504.712	-73.283	-0.235	0.087
-503.697	9.168	-0.129	0.099
-502.683	195.065	-0.014	0.021
-501.668	-200.000	0.004	0.231
-500.653	-91.538	-0.195	-0.056
-499.639	1.190	-0.129	0.094
-498.624	217.849	-0.154	-0.249
-497.610	599.118	0.023	0.058
-496.595	800.000	0.082	0.254
-495.581	-146.812	-0.249	-0.022
-494.566	-40.800	-0.343	0.179
-493.551	-200.000	0.023	-0.215
-492.537	470.692	-0.076	0.172
-491.522	106.767	0.163	0.196
-490.508	3.813	0.507	0.374
-489.493	-200.000	0.021	0.106
-488.478	-71.636	0.282	0.106
-487.464	489.729	0.122	-0.281
-486.449	193.734	-0.096	-0.147
-485.435	-200.000	-0.090	-0.408
-484.420	-200.000	0.006	-0.429
-483.405	800.000	0.107	0.399
-482.391	197.270	-0.214	0.330
-481.376	-94.745	-0.306	-0.084
-480.362	164.230	-0.083	0.118
-479.347	348.458	-0.147	-0.293
-478.332	-12.803	0.093	0.061
-477.318	-200.000	0.021	0.266
-476.303	348.797	0.113	0.226
-475.289	-125.313	-0.224	0.035
-474.274	-191.988	-0.122	0.001
-473.259	-90.192	0.243	-0.071
-472.245	16.538	0.274	0.219
-471.230	-200.000	-0.022	0.168
-470.216	243.790	-0.129	-0.219
-469.201	-88.239	0.389	0.118
-468.186	800.000	0.056	0.242
-467.172	800.000	0.053	-0.154
-466.157	-91.987	-0.309	0.088
-465.143	-200.000	0.053	-0.389
-464.128	-7.626	0.147	0.101
-463.113	-150.067	0.348	-0.027
-462.099	276.378	-0.106	0.190
-461.084	-97.369	0.287	-0.076
-460.070	-75.472	0.102	0.037
-459.055	177.471	-0.117	0.173
-458.040	-200.000	-0.043	0.529
-457.026	-44.664	-0.227	0.114
-456.011	-111.167	0.169	-0.035
-454.997	-85.123	-0.114	0.036
-453.982	230.766	-0.056	0.093
-452.968	59.015	-0.188	0.186
-451.953	116.248	-0.129	0.160
-450.938	-66.207	0.182	0.073
-449.924	242.181	0.072	-0.122
-448.909	-13.661	0.008	0.005
-447.895	-110.612	0.033	0.007
-446.880	-0.504	0.096	0.069
-445.865	-21.303	-0.179	-0.110
-444.851	-200.000	0.006	-0.037
-443.836	800.000	0.065	-0.217
-442.822	-93.977	-0.202	-0.056
-441.807	-200.000	-0.035	-0.202
-440.792	358.503	-0.170	0.342
-439.778	-68.629	0.280	-0.109
-438.763	-36.512	-0.276	0.150
-437.749	800.000	0.088	-0.290
-436.734	388.431	0.236	-0.492
-435.719	266.863	0.117	-0.206
-434.705	-200.000	-0.010	-0.056
-433.690	122.882	0.103	0.130
-432.676	488.189	0.151	0.348
-431.661	-9.176	-0.133	0.090
-430.646	-200.000	-0.019	0.113
-429.632	-200.000	0.013	-0.376
-428.617	61.969	0.244	0.245
-427.603	800.000	0.092	0.308
-426.588	58.676	-0.146	-0.145
-425.573	256.542	-0.149	0.259
-424.559	62.534	0.284	0.287
-423.544	800.000	0.035	0.107
-422.530	220.678	-0.081	0.131
-421.515	-29.190	-0.263	0.152
-420.500	86.979	0.090	-0.101
-419.486	758.588	-0.023	0.062
-418.471	-66.974	0.153	-0.061
-417.457	-142.596	0.260	-0.026
-416.442	-30.024	-0.417	-0.239
-415.428	-64.443	0.412	-0.169
-414.413	538.013	-0.067	-0.160
-413.398	3.585	-0.418	-0.307
-412.384	800.000	0.124	-0.385
-411.369	81.857	0.106	-0.116
-410.355	-169.803	0.273	0.010
-409.340	-200.000	0.018	-0.239
-408.325	-62.535	-0.204	0.086
-407.311	402.528	0.122	0.258
-406.296	108.385	-0.084	-0.101
-405.282	-200.000	0.062	-0.290
-404.267	335.983	-0.082	0.161
-403.252	-200.000	0.064	-0.404
-402.238	-141.935	0.124	-0.013
-401.223	84.661	0.040	-0.044
-400.209	-59.494	0.251	0.109
-399.194	-27.535	0.094	-0.055
-398.179	-200.000	-0.093	0.000
-397.165	800.000	0.095	0.321
-396.150	-121.155	-0.354	-0.060
-395.136	-124.228	0.285	-0.045
-394.121	-134.282	-0.312	-0.039
-393.106	-24.522	0.144	0.086
-392.092	800.000	0.068	0.270
-391.077	-200.000	-0.017	-0.542
-390.063	485.414	-0.034	-0.077
-389.048	-4.410	-0.383	-0.267
-388.033	-74.365	-0.133	0.048
-387.019	-3.106	0.107	0.075
-386.004	197.237	-0.084	-0.129
-384.990	800.000	0.119	-0.392
-383.975	-58.172	-0.154	0.067
-382.960	282.379	0.078	0.140
-381.946	276.384	-0.030	-0.053
-380.931	192.209	-0.077	0.117
-379.917	800.000	-0.074	0.220
-378.902	-200.000	0.028	0.247
-377.888	425.219	-0.077	0.167
-376.873	-33.005	0.201	-0.112
-375.858	-160.317	0.175	0.009
-374.844	-149.710	-0.180	0.014
-373.829	63.524	-0.124	0.125
-372.815	-52.440	0.237	-0.110
-371.800	-86.047	0.184	0.057
-370.785	800.000	0.055	0.215
-369.771	386.433	-0.109	-0.227
-368.756	61.157	-0.249	0.248
-367.742	46.650	-0.237	0.221
-366.727	-72.848	0.333	-0.123
-365.712	252.455	-0.057	-0.098
-364.698	126.045	-0.160	0.204
-363.683	188.965	-0.185	-0.279
-362.669	-200.000	-0.006	0.253
-361.654	-112.776	-0.298	0.060
-360.639	-7.429	-0.086	-0.059
-359.625	167.783	0.225	0.321
-358.610	-96.341	-0.156	0.041
-357.596	-200.000	-0.051	0.316
-356.581	-167.627	-0.501	0.020
-355.566	-178.156	-0.032	-0.001
-354.552	41.926	0.148	0.135
-353.537	157.755	0.024	-0.033
-352.523	60.460	0.149	0.149
-351.508	800.000	-0.107	0.311
-350.493	25.678	-0.087	0.072
-349.479	-75.992	-0.216	-0.077
-348.464	124.530	-0.082	-0.104
-347.450	149.854	0.115	-0.156
-346.435	-200.000	0.013	-0.324
-345.420	-186.490	-0.477	-0.007
-344.406	-47.995	0.040	-0.019
-343.391	84.282	-0.097	-0.107
-342.377	-17.967	0.079	0.050
-341.362	-19.492	-0.276	0.172
-340.348	-149.626	-0.204	-0.016
-339.333	-9.343	0.360	-0.242
-338.318	-42.331	-0.164	-0.084
-337.304	62.847	0.215	-0.217
-336.289	218.155	-0.150	0.240
-335.275	71.728	-0.186	-0.194
-334.260	-108.962	0.042	-0.009
-333.245	-24.535	-0.359	-0.215
-332.231	-120.826	0.027	0.005
-331.216	266.633	0.133	0.234
-330.202	15.133	-0.211	0.166
-329.187	-200.000	-0.011	0.109
-328.172	59.565	-0.159	0.158
-327.158	33.259	-0.210	0.183
-326.143	-29.424	0.167	0.096
-325.129	-117.682	0.223	-0.040
-324.114	-102.284	0.281	-0.068
-323.099	-200.000	-0.009	-0.053
-322.085	-74.562	0.275	0.099
-321.070	-158.831	-0.085	0.005
-320.056	-70.088	0.230	-0.088
-319.041	0.121	-0.028	0.020
-318.026	17.872	0.149	-0.119
-317.012	800.000	-0.044	0.129
-315.997	-61.222	-0.265	-0.112
-314.983	187.280	-0.155	-0.233
-313.968	-200.000	-0.023	-0.152
-312.953	84.012	-0.230	-0.252
-311.939	-200.000	-0.016	0.174
-310.924	-72.163	0.260	-0.097
-309.910	53.937	0.129	-0.124
-308.895	-96.166	0.350	-0.093
-307.880	-14.811	-0.135	0.087
-306.866	-79.631	-0.272	-0.092
-305.851	200.410	-0.194	0.299
-304.837	-200.000	0.008	0.049
-303.822	-200.000	0.016	-0.110
-302.807	-200.000	0.001	-0.367
-301.793	-200.000	-0.081	0.374
-300.778	800.000	-0.093	0.335
-299.764	394.490	-0.125	-0.262
-298.749	80.050	-0.124	-0.133
-297.735	-4.110	0.068	-0.047
-296.720	17.933	-0.153	-0.122
-295.705	621.340	-0.013	0.032
-294.691	245.509	0.136	-0.229
-293.676	-13.544	-0.037	0.024
-292.662	64.672	0.030	-0.030
-291.647	18.130	0.198	0.158
-290.632	-200.000	0.006	-0.422
-289.618	182.046	-0.068	0.101
-288.603	42.970	0.307	0.281
-287.589	-1.229	-0.103	0.073
-286.574	104.775	-0.105	-0.124
-285.559	181.183	0.184	-0.272
-284.545	-146.476	0.128	-0.011
-283.530	-27.373	0.110	0.064
-282.516	-160.631	-0.201	-0.011
-281.501	-5.842	-0.167	0.115
-280.486	-200.000	-0.004	-0.071
-279.472	-141.091	-0.321	-0.033
-278.457	-1.586	0.259	-0.183
-277.443	-62.502	-0.202	0.084
-276.428	-200.000	-0.092	0.601
-275.413	-114.935	-0.192	-0.037
-274.399	-102.184	0.219	-0.053
-273.384	-200.000	-0.044	0.208
-272.370	24.190	0.156	-0.129
-271.355	-71.896	0.158	-0.059
-270.340	-91.434	-0.279	-0.080
-269.326	200.218	0.116	-0.178
-268.311	-30.371	0.294	0.167
-267.297	40.234	-0.120	0.109
-266.282	-136.205	0.175	-0.021
-265.267	9.351	0.043	0.032
-264.253	-154.811	0.251	-0.017
-263.238	-132.359	-0.344	-0.045
-262.224	-65.724	-0.107	-0.043
-261.209	53.520	0.155	-0.149
-260.195	4.616	0.352	0.259
-259.180	566.504	0.056	0.135
-258.165	79.942	0.027	0.029
-257.151	-67.603	-0.181	0.071
-256.136	-200.000	-0.005	0.145
-255.122	-85.813	-0.506	-0.157
-254.107	-200.000	0.030	-0.224
-253.092	174.774	-0.073	-0.106
-252.078	-200.000	0.031	-0.162
-251.063	-100.443	0.373	0.093
-250.049	241.604	0.053	-0.088
-249.034	44.921	-0.145	-0.134
-248.019	-200.000	-0.014	-0.084
-247.005	-63.544	0.107	0.044
-245.990	-153.512	0.216	0.015
-244.976	-129.155	0.139	-0.019
-243.961	12.720	0.296	-0.229
-242.946	142.485	-0.146	-0.195
-241.932	112.532	-0.115	0.139
-240.917	118.361	0.212	0.262
-239.903	-58.714	0.499	0.216
-238.888	-125.185	0.372	-0.057
-237.873	179.580	0.096	0.141
-236.859	8.845	-0.260	-0.196
-235.844	-145.078	0.457	-0.042
-234.830	140.426	0.219	-0.290
-233.815	113.088	-0.059	0.071
-232.800	-200.000	0.012	-0.254
-231.786	800.000	-0.055	0.180
-230.771	-27.924	0.138	-0.080
-229.757	800.000	0.073	-0.243
-228.742	-23.168	-0.204	-0.123
-227.727	-95.462	0.377	0.101
-226.713	-148.748	-0.272	-0.022
-225.698	800.000	-0.133	0.518
-224.684	-200.000	0.018	0.112
-223.669	-200.000	-0.008	-0.362
-222.655	-72.991	-0.213	-0.078
-221.640	-69.387	-0.121	0.047
-220.625	-111.733	0.221	0.045
-219.611	791.391	-0.079	-0.217
-218.596	-147.285	0.161	0.014
-217.582	31.920	0.157	0.135
-216.567	384.687	-0.083	0.171
-215.552	-200.000	0.080	-0.610
-214.538	-200.000	0.006	0.137
-213.523	149.802	-0.064	0.087
-212.509	178.985	-0.060	0.088
-211.494	-141.382	-0.172	0.017
-210.479	-200.000	-0.027	0.237
-209.465	103.372	0.142	0.167
-208.450	22.309	0.105	-0.086
-207.436	800.000	0.058	0.185
-206.421	-200.000	0.058	-0.270
-205.406	-200.000	0.022	-0.199
-204.392	800.000	0.036	0.153
-203.377	-44.084	-0.255	0.128
-202.363	-200.000	-0.030	0.310
-201.348	49.057	-0.071	-0.067
-200.333	226.208	-0.234	-0.380
-199.319	61.427	-0.053	-0.052
-198.304	411.772	0.120	-0.255
-197.290	-116.405	-0.207	0.038
-196.275	-26.827	-0.247	-0.144
-195.260	-174.889	-0.211	0.006
-194.246	-200.000	0.011	0.263
-193.231	-23.995	-0.157	-0.094
-192.217	-200.000	0.043	-0.313
-191.202	286.373	-0.106	0.191
-190.187	-189.869	0.091	-0.001
-189.173	-98.291	-0.350	-0.090
-188.158	800.000	-0.054	-0.188
-187.144	317.636	-0.063	-0.119
-186.129	800.000	0.056	0.182
-185.114	30.775	-0.151	-0.129
-184.100	587.872	0.096	-0.237
-183.085	-0.559	-0.233	-0.165
-182.071	-0.831	0.103	-0.073
-181.056	366.963	0.075	0.152
-180.042	-65.437	0.112	0.045
-179.027	191.436	0.092	0.138
-178.012	800.000	-0.027	0.098
-176.998	-28.184	0.176	-0.102
-175.983	581.621	-0.086	0.211
-174.969	-200.000	0.056	0.345
-173.954	84.148	-0.007	-0.007
-172.939	84.249	-0.153	0.167
-171.925	279.764	0.104	0.185
-170.910	-59.490	-0.126	-0.054
-169.896	800.000	-0.031	0.105
-168.881	196.596	-0.057	-0.087
-167.866	108.403	-0.262	-0.312
-166.852	21.737	-0.278	-0.226
-165.837	61.642	-0.020	-0.019
-164.823	800.000	-0.040	0.131
-163.808	81.714	0.134	0.145
-162.793	-69.993	0.171	-0.065
-161.779	-14.447	-0.260	-0.167
-160.764	-200.000	-0.019	0.271
-159.750	2.734	0.105	0.076
-158.735	-160.104	0.147	0.008
-157.720	138.235	0.041	-0.054
-156.706	205.384	0.135	-0.210
-155.691	-200.000	0.012	-0.158
-154.677	3.162	-0.109	0.079
-153.662	59.847	0.083	0.082
-152.647	-200.000	0.150	0.000
-151.633	-155.807	-0.095	-0.006
-150.618	-67.606	0.328	0.128
-149.604	-134.432	0.467	-0.057
-148.589	633.329	-0.084	-0.213
-147.574	800.000	0.059	0.223
-146.560	-86.800	0.044	-0.013
-145.545	-12.582	0.204	-0.133
-144.531	-100.537	-0.258	0.064
-143.516	20.793	0.153	-0.124
-142.502	-200.000	-0.014	0.088
-141.487	-96.143	0.273	-0.072
-140.472	-200.000	0.023	0.143
-139.458	218.528	0.117	-0.186
-138.443	-200.000	0.014	-0.075
-137.429	-200.000	-0.104	-0.000
-136.414	-200.000	-0.024	0.143
-135.399	-200.000	0.013	0.489
-134.385	800.000	0.016	-0.059
-133.370	-52.319	-0.175	-0.081
-132.356	-79.963	0.277	0.093
-131.341	-82.180	0.295	-0.096
-130.326	-155.540	0.180	0.012
-129.312	-45.683	0.458	-0.226
-128.297	229.250	0.070	-0.114
-127.283	164.073	-0.093	-0.131
-126.268	355.740	0.118	-0.234
-125.253	58.308	-0.164	-0.160
-124.239	716.705	0.087	0.230
-123.224	-139.247	0.136	0.015
-122.210	-200.000	0.041	0.201
-121.195	-200.000	-0.015	-0.127
