DTS Sentinel unit serial number:	SN413079Multiplexer serial number:	ORYXHardware model number:	OX4-SRSoftware version number:	ORYX F/W v4.00 Oryx Data Collector v3.7.2.0data status	okinstallation	princeton_trtdifferential loss correction	single-endedforward channel	channel 2reverse channel	N/Adate	2019/09/11time	01:57:10forward acquisition time	60.00reverse acquisition time	0.00gamma	496.2192k internal	0.2331k external	0.2331temperature offset calibration	0.9942default loss term (dB/km)	0.3790temperature slope calibration	1.0000multiplexer offset coefficient	1.0000multiplexer slope coefficient	1.0000fibre end	0.00T internal ref (°C)	29.16T ext. ref 1 (°C)	-0.31T ext. ref 2 (°C)	23.37length (m)	temperature (°C)	Stokes	anti-Stokes-747.200	-126.037	-0.167	-0.025
-746.185	-85.880	-0.067	0.021
-745.171	-125.133	0.073	0.011
-744.156	-200.000	0.000	0.221
-743.142	800.000	-0.063	0.196
-742.127	-200.000	0.009	0.253
-741.112	-6.064	0.302	0.208
-740.098	328.010	-0.069	-0.133
-739.083	-77.771	0.117	-0.041
-738.069	43.305	-0.426	0.392
-737.054	392.903	0.150	0.313
-736.039	123.308	0.030	0.038
-735.025	-200.000	-0.014	0.308
-734.010	112.757	-0.210	-0.256
-732.996	39.097	0.124	-0.111
-731.981	-200.000	0.059	-0.386
-730.966	25.172	-0.370	0.309
-729.952	25.206	-0.164	-0.137
-728.937	-64.040	-0.355	-0.146
-727.923	469.880	-0.027	0.060
-726.908	-127.967	0.192	0.028
-725.894	79.142	-0.236	-0.254
-724.879	-200.000	0.005	-0.191
-723.864	13.922	0.268	-0.210
-722.850	800.000	-0.037	-0.112
-721.835	188.582	0.027	-0.040
-720.821	189.638	0.267	-0.402
-719.806	-71.207	0.125	0.047
-718.791	62.982	-0.225	0.226
-717.777	237.602	0.183	-0.306
-716.762	159.571	-0.186	-0.260
-715.748	-127.339	-0.468	0.069
-714.733	-23.608	-0.128	0.077
-713.718	-200.000	0.005	-0.234
-712.704	617.273	-0.111	-0.280
-711.689	34.146	0.249	-0.218
-710.675	41.689	-0.341	-0.310
-709.660	-200.000	0.016	0.209
-708.645	96.968	0.306	-0.353
-707.631	72.338	-0.054	-0.056
-706.616	800.000	-0.047	-0.174
-705.602	89.633	-0.200	-0.224
-704.587	70.030	-0.111	-0.115
-703.572	-71.388	0.072	0.027
-702.558	214.453	0.053	-0.085
-701.543	-200.000	-0.032	0.175
-700.529	13.743	-0.365	-0.285
-699.514	195.520	-0.277	-0.423
-698.499	-170.355	0.129	0.005
-697.485	251.337	-0.125	-0.213
-696.470	614.496	0.076	0.191
-695.456	-61.609	-0.234	0.098
-694.441	74.187	0.254	-0.267
-693.426	-1.484	0.250	0.177
-692.412	9.105	0.136	-0.103
-691.397	-128.923	-0.458	0.065
-690.383	-65.534	-0.260	0.105
-689.368	-158.900	0.283	-0.016
-688.354	94.967	-0.285	-0.326
-687.339	261.031	0.084	-0.146
-686.324	26.807	-0.171	-0.144
-685.310	-73.860	0.142	-0.052
-684.295	-200.000	0.049	0.215
-683.281	800.000	0.050	-0.152
-682.266	8.026	-0.224	-0.169
-681.251	80.221	-0.068	0.074
-680.237	-9.326	-0.066	0.044
-679.222	-122.629	0.030	0.005
-678.208	-200.000	-0.011	0.068
-677.193	-25.743	-0.157	-0.093
-676.178	14.856	-0.360	-0.283
-675.164	800.000	0.080	0.248
-674.149	800.000	-0.044	-0.186
-673.135	-119.493	0.016	-0.003
-672.120	800.000	-0.073	-0.262
-671.105	-200.000	-0.019	-0.400
-670.091	-83.933	0.137	-0.044
-669.076	-123.672	0.248	-0.039
-668.062	-200.000	0.314	-0.001
-667.047	34.419	-0.196	-0.171
-666.032	-164.209	0.149	-0.007
-665.018	23.359	-0.079	0.065
-664.003	800.000	-0.023	0.075
-662.989	129.502	0.038	0.049
-661.974	203.766	0.140	-0.217
-660.959	54.651	-0.135	-0.131
-659.945	102.731	0.137	-0.161
-658.930	-47.257	-0.102	-0.050
-657.916	-200.000	0.004	-0.085
-656.901	-133.876	-0.284	0.035
-655.886	217.700	-0.238	-0.380
-654.872	-200.000	0.045	0.213
-653.857	-200.000	-0.056	-0.279
-652.843	800.000	0.053	0.180
-651.828	-25.067	0.269	-0.160
-650.814	-56.399	0.219	-0.097
-649.799	-127.143	0.179	-0.026
-648.784	206.771	0.014	0.022
-647.770	-100.033	-0.337	-0.084
-646.755	40.486	0.267	-0.241
-645.741	364.631	-0.210	-0.424
-644.726	507.064	-0.157	-0.365
-643.711	36.464	0.347	-0.307
-642.697	-200.000	-0.004	0.077
-641.682	800.000	0.069	-0.199
-640.668	-53.089	0.123	0.056
-639.653	-105.503	-0.381	-0.087
-638.638	-148.927	0.396	-0.032
-637.624	-20.075	-0.240	0.148
-636.609	800.000	0.034	0.126
-635.595	-141.502	-0.588	-0.060
-634.580	59.313	0.089	-0.087
-633.565	-103.479	-0.273	0.064
-632.551	424.624	0.180	0.388
-631.536	45.855	-0.241	-0.224
-630.522	-123.790	-0.454	-0.072
-629.507	800.000	-0.099	0.310
-628.492	394.744	-0.105	-0.218
-627.478	-110.538	-0.098	-0.020
-626.463	-164.634	-0.285	-0.013
-625.449	17.707	-0.227	-0.181
-624.434	-122.664	0.293	-0.048
-623.419	25.828	-0.065	0.054
-622.405	173.554	-0.169	0.244
-621.390	157.220	-0.127	-0.176
-620.376	296.733	-0.052	0.096
-619.361	-47.985	-0.164	0.079
-618.346	-200.000	0.075	-0.347
-617.332	-200.000	-0.050	-0.305
-616.317	-200.000	0.041	0.295
-615.303	-132.245	-0.204	-0.026
-614.288	-15.599	-0.049	-0.031
-613.273	426.636	-0.178	-0.385
-612.259	103.112	0.253	0.297
-611.244	-200.000	-0.013	0.306
-610.230	-18.632	0.188	-0.117
-609.215	72.994	0.105	0.110
-608.201	-200.000	0.001	-0.111
-607.186	-123.026	-0.259	-0.042
-606.171	-115.850	-0.232	-0.043
-605.157	349.933	-0.192	0.380
-604.142	-126.726	-0.120	0.018
-603.128	-31.385	0.097	0.054
-602.113	469.597	0.128	-0.287
-601.098	-28.442	0.022	0.013
-600.084	31.418	0.095	-0.082
-599.069	800.000	-0.065	0.261
-598.055	-200.000	-0.052	0.277
-597.040	-23.610	0.194	0.117
-596.025	13.143	-0.149	0.116
-595.011	284.333	0.072	-0.129
-593.996	-97.168	-0.145	-0.038
-592.982	-39.449	0.238	0.125
-591.967	-94.671	0.476	-0.129
-590.952	-200.000	0.031	-0.210
-589.938	87.953	0.193	0.214
-588.923	230.095	-0.180	0.294
-587.909	271.017	-0.011	0.019
-586.894	-200.000	-0.005	-0.193
-585.879	-200.000	0.030	-0.378
-584.865	-52.163	-0.107	-0.050
-583.850	-200.000	-0.033	0.192
-582.836	382.692	0.024	-0.050
-581.821	-69.779	-0.188	0.072
-580.806	84.356	-0.144	-0.157
-579.792	-200.000	0.004	-0.044
-578.777	398.668	0.021	0.045
-577.763	644.312	0.077	-0.197
-576.748	326.856	0.137	-0.263
-575.733	-43.342	-0.130	0.066
-574.719	-200.000	-0.000	0.129
-573.704	487.053	-0.127	-0.288
-572.690	800.000	-0.070	0.288
-571.675	18.677	-0.064	-0.051
-570.661	301.136	-0.031	-0.057
-569.646	146.080	0.205	-0.275
-568.631	-200.000	0.003	0.056
-567.617	-81.460	0.062	-0.020
-566.602	104.598	-0.172	-0.202
-565.588	82.735	0.090	-0.098
-564.573	74.028	-0.241	0.252
-563.558	54.751	0.250	-0.241
-562.544	-200.000	0.039	0.208
-561.529	-16.791	0.036	-0.023
-560.515	65.422	0.288	-0.292
-559.500	-100.115	0.101	-0.025
-558.485	-101.998	0.205	0.049
-557.471	-200.000	-0.047	-0.290
-556.456	219.008	-0.095	0.152
-555.442	-113.227	-0.152	-0.030
-554.427	17.755	0.365	-0.290
-553.412	-47.752	-0.189	0.091
-552.398	-200.000	-0.027	-0.216
-551.383	36.177	0.094	0.083
-550.369	533.471	-0.097	-0.230
-549.354	-197.634	0.094	0.001
-548.339	42.315	-0.196	0.178
-547.325	70.846	0.191	0.198
-546.310	800.000	0.060	-0.229
-545.296	-15.662	-0.382	-0.243
-544.281	-105.252	0.201	-0.046
-543.266	-22.913	-0.314	0.189
-542.252	-163.139	0.177	-0.009
-541.237	53.450	0.107	-0.102
-540.223	-99.568	0.061	-0.015
-539.208	114.364	0.176	-0.214
-538.193	-125.214	-0.315	-0.048
-537.179	-20.181	-0.027	-0.016
-536.164	-200.000	0.002	0.244
-535.150	317.120	0.165	-0.311
-534.135	11.799	-0.198	-0.152
-533.121	407.386	-0.043	0.091
-532.106	-95.518	0.154	-0.041
-531.091	-116.589	-0.267	-0.049
-530.077	-67.699	-0.217	0.085
-529.062	-24.028	-0.239	0.142
-528.048	-192.532	-0.042	0.000
-527.033	-152.627	0.241	0.017
-526.018	800.000	0.020	0.061
-525.004	311.237	0.072	-0.134
-523.989	28.177	0.151	0.127
-522.975	271.751	-0.121	-0.213
-521.960	157.752	0.057	0.078
-520.945	-130.017	-0.178	0.024
-519.931	-200.000	0.007	-0.286
-518.916	186.580	0.210	0.311
-517.902	-200.000	0.052	-0.389
-516.887	237.328	0.151	0.250
-515.872	186.495	-0.111	-0.164
-514.858	150.351	-0.121	0.164
-513.843	-34.570	-0.207	0.113
-512.829	-200.000	0.005	0.271
-511.814	-200.000	-0.021	0.131
-510.799	-169.745	-0.050	-0.002
-509.785	98.950	0.124	-0.142
-508.770	-31.265	-0.319	0.179
-507.756	15.248	0.286	-0.224
-506.741	28.120	-0.275	-0.231
-505.726	800.000	0.032	0.105
-504.712	76.106	-0.165	-0.174
-503.697	-47.453	-0.201	0.097
-502.683	-200.000	0.025	-0.179
-501.668	-126.102	0.062	-0.009
-500.653	-200.000	-0.009	-0.376
-499.639	448.740	-0.136	0.299
-498.624	36.056	-0.080	0.070
-497.610	134.594	0.208	-0.269
-496.595	800.000	-0.103	-0.305
-495.581	12.576	0.229	0.176
-494.566	30.704	0.136	0.116
-493.551	362.756	-0.167	0.333
-492.537	111.377	-0.214	0.257
-491.522	9.717	0.315	0.238
-490.508	-44.629	0.218	-0.109
-489.493	451.344	0.022	-0.047
-488.478	100.899	0.146	-0.169
-487.464	800.000	0.045	0.179
-486.449	-21.755	0.274	-0.166
-485.435	-92.722	0.118	-0.033
-484.420	464.460	0.075	0.167
-483.405	-27.514	-0.293	0.169
-482.391	290.157	0.153	-0.277
-481.376	0.652	-0.203	-0.145
-480.362	765.561	-0.060	-0.161
-479.347	-155.425	0.209	0.013
-478.332	-80.401	0.137	0.046
-477.318	800.000	0.036	0.147
-476.303	20.263	0.299	0.241
-475.289	-200.000	0.041	0.431
-474.274	-59.743	0.131	0.056
-473.259	-81.401	0.131	0.043
-472.245	111.357	0.092	0.110
-471.230	-70.805	-0.277	-0.104
-470.216	-45.036	0.149	0.074
-469.201	771.300	0.040	-0.109
-468.186	-69.414	-0.124	0.047
-467.172	60.451	0.130	-0.128
-466.157	-95.467	0.308	-0.082
-465.143	336.180	-0.144	0.277
-464.128	6.324	0.113	0.083
-463.113	129.883	-0.233	0.296
-462.099	800.000	0.072	-0.272
-461.084	250.987	-0.019	-0.032
-460.070	671.077	0.058	0.149
-459.055	-200.000	-0.019	0.161
-458.040	-38.945	-0.081	-0.042
-457.026	188.643	0.070	-0.104
-456.011	800.000	-0.003	0.011
-454.997	94.774	0.142	-0.161
-453.982	-145.959	-0.409	0.036
-452.968	187.110	0.077	-0.115
-451.953	-148.749	-0.264	0.021
-450.938	46.179	0.194	-0.179
-449.924	-200.000	0.035	0.281
-448.909	-132.217	0.353	0.045
-447.895	87.119	-0.052	-0.058
-446.880	354.420	0.100	-0.198
-445.865	-139.789	0.324	0.034
-444.851	349.085	-0.210	-0.412
-443.836	-200.000	-0.062	0.475
-442.822	-82.015	0.229	0.075
-441.807	-43.504	0.118	-0.059
-440.792	-78.985	-0.359	0.122
-439.778	55.898	0.211	-0.204
-438.763	-58.502	0.314	-0.136
-437.749	210.455	-0.152	0.237
-436.734	-38.948	-0.245	-0.128
-435.719	-89.731	-0.112	0.033
-434.705	70.514	0.209	0.215
-433.690	574.571	-0.069	0.166
-432.676	-14.512	-0.125	-0.080
-431.661	-200.000	-0.075	-0.330
-430.646	-116.573	0.146	-0.027
-429.632	664.775	-0.111	0.284
-428.617	-101.698	0.172	-0.041
-427.603	217.031	-0.131	-0.208
-426.588	-136.790	0.214	-0.025
-425.573	19.295	0.153	-0.122
-424.559	39.245	-0.152	-0.135
-423.544	189.282	-0.080	-0.119
-422.530	328.130	0.161	0.308
-421.515	-137.873	-0.210	-0.023
-420.500	-4.055	0.112	0.077
-419.486	281.486	-0.118	0.211
-418.471	84.521	0.214	0.232
-417.457	289.875	-0.067	-0.121
-416.442	106.361	0.045	-0.052
-415.428	-94.011	-0.232	0.063
-414.413	88.146	-0.240	-0.265
-413.398	345.061	-0.057	-0.111
-412.384	-159.099	0.308	0.017
-411.369	-192.365	-0.192	-0.002
-410.355	-42.043	0.187	0.095
-409.340	-42.149	-0.365	0.185
-408.325	42.816	-0.092	0.084
-407.311	-59.850	0.397	0.169
-406.296	148.265	-0.101	0.135
-405.282	355.385	-0.105	0.208
-404.267	-107.408	0.213	0.047
-403.252	-68.399	-0.051	0.020
-402.238	-123.678	0.527	0.083
-401.223	-44.115	-0.062	0.031
-400.209	-124.783	0.337	-0.052
-399.194	57.369	0.199	0.192
-398.179	-200.000	-0.019	-0.212
-397.165	415.482	0.006	0.013
-396.150	800.000	0.064	0.216
-395.136	-59.983	0.216	0.092
-394.121	-200.000	-0.039	-0.177
-393.106	378.413	-0.115	0.233
-392.092	-123.491	-0.312	-0.049
-391.077	-200.000	0.025	-0.141
-390.063	-200.000	0.020	-0.344
-389.048	-200.000	-0.031	0.229
-388.033	95.036	0.081	-0.092
-387.019	-5.909	0.278	-0.189
-386.004	720.187	-0.082	0.216
-384.990	800.000	-0.075	-0.306
-383.975	11.008	0.211	-0.160
-382.960	517.341	0.039	-0.092
-381.946	137.655	0.076	0.098
-380.931	460.756	-0.077	0.169
-379.917	-64.355	0.247	-0.100
-378.902	-55.141	-0.040	0.018
-377.888	252.958	0.074	0.125
-376.873	31.626	-0.113	-0.096
-375.858	-119.465	-0.119	-0.021
-374.844	-90.811	-0.123	0.035
-373.829	-200.000	-0.006	0.119
-372.815	-18.019	0.111	-0.069
-371.800	-58.764	0.085	0.036
-370.785	-200.000	-0.045	0.305
-369.771	800.000	-0.014	-0.061
-368.756	-200.000	-0.015	0.202
-367.742	361.336	0.164	-0.326
-366.727	484.168	-0.126	-0.285
-365.712	-80.488	-0.308	-0.102
-364.698	-81.940	0.170	0.055
-363.683	35.469	0.343	0.299
-362.669	-64.828	0.350	0.140
-361.654	432.344	0.119	0.256
-360.639	100.311	0.064	-0.074
-359.625	194.073	-0.094	-0.140
-358.610	211.050	-0.159	0.248
-357.596	-111.990	-0.146	-0.029
-356.581	40.435	0.113	-0.101
-355.566	-50.036	0.399	0.187
-354.552	76.682	-0.060	0.063
-353.537	-15.327	0.203	0.128
-352.523	-117.057	-0.084	-0.015
-351.508	-200.000	-0.056	0.370
-350.493	140.293	0.096	-0.126
-349.479	-66.419	-0.355	-0.140
-348.464	284.177	0.115	0.205
-347.450	88.035	-0.136	0.150
-346.435	137.048	-0.047	-0.061
-345.420	246.501	-0.095	0.159
-344.406	49.148	-0.097	0.090
-343.391	414.933	-0.042	0.088
-342.377	-5.796	0.150	-0.102
-341.362	749.050	0.135	0.361
-340.348	436.545	0.009	-0.019
-339.333	-32.599	-0.495	-0.273
-338.318	-200.000	0.004	0.378
-337.304	-102.395	0.148	-0.035
-336.289	-89.609	-0.330	-0.096
-335.275	479.603	-0.063	-0.142
-334.260	-116.118	-0.139	0.026
-333.245	-112.578	0.303	0.060
-332.231	-107.542	0.280	0.061
-331.216	99.331	0.277	-0.317
-330.202	-112.214	-0.287	-0.057
-329.187	572.727	-0.103	0.249
-328.172	425.206	0.127	0.272
-327.158	30.027	-0.026	0.022
-326.143	275.721	-0.199	-0.350
-325.129	105.751	-0.113	0.132
-324.114	-200.000	0.050	-0.236
-323.099	-35.220	-0.145	-0.078
-322.085	-28.856	-0.326	0.185
-321.070	-200.000	0.019	0.152
-320.056	-200.000	-0.033	0.410
-319.041	125.005	-0.048	0.060
-318.026	203.961	-0.147	0.225
-317.012	-149.683	-0.113	-0.009
-315.997	-200.000	-0.017	0.259
-314.983	64.537	-0.145	-0.144
-313.968	-160.651	0.217	-0.011
-312.953	54.112	0.159	-0.151
-311.939	-129.853	0.118	0.016
-310.924	232.682	0.074	-0.120
-309.910	48.254	0.048	0.044
-308.895	64.680	-0.151	0.151
-307.880	400.893	0.067	-0.139
-306.866	-173.952	0.263	0.008
-305.851	-48.499	-0.259	-0.123
-304.837	157.837	0.070	0.096
-303.822	29.488	0.189	0.159
-302.807	121.835	0.174	0.215
-301.793	-200.000	0.002	-0.183
-300.778	10.292	-0.207	0.156
-299.764	-48.262	-0.223	0.107
-298.749	614.546	0.019	-0.048
-297.735	15.399	0.227	-0.176
-296.720	-140.552	-0.247	-0.025
-295.705	106.286	-0.073	-0.085
-294.691	46.397	-0.044	-0.040
-293.676	-96.140	-0.102	0.027
-292.662	61.944	0.128	-0.127
-291.647	-200.000	-0.016	-0.156
-290.632	251.093	0.067	-0.113
-289.618	-107.801	-0.158	0.034
-288.603	273.999	-0.143	0.250
-287.589	419.097	-0.144	0.305
-286.574	-124.783	0.144	-0.022
-285.559	635.709	0.005	-0.012
-284.545	280.673	-0.103	-0.182
-283.530	-36.666	-0.313	0.166
-282.516	800.000	0.057	0.218
-281.501	-35.622	0.191	0.102
-280.486	52.652	-0.173	0.163
-279.472	388.850	0.062	-0.127
-278.457	169.663	-0.188	-0.266
-277.443	510.111	-0.037	-0.086
-276.428	-181.867	-0.176	-0.003
-275.413	-113.234	0.147	0.029
-274.399	-161.831	-0.371	-0.019
-273.384	273.996	0.050	-0.088
-272.370	-49.687	0.171	-0.080
-271.355	57.919	0.192	-0.185
-270.340	128.757	-0.170	-0.214
-269.326	597.646	0.092	-0.225
-268.311	-10.272	0.040	-0.026
-267.297	-200.000	-0.027	0.166
-266.282	800.000	0.049	-0.163
-265.267	40.109	-0.128	-0.114
-264.253	216.446	-0.177	-0.278
-263.238	-200.000	0.007	-0.140
-262.224	-138.113	0.217	0.024
-261.209	313.159	0.172	0.319
-260.195	55.924	0.111	-0.107
-259.180	2.361	-0.249	-0.178
-258.165	-62.599	-0.174	0.071
-257.151	-94.461	0.320	0.086
-256.136	-39.643	0.128	-0.066
-255.122	35.399	0.215	0.186
-254.107	-200.000	-0.005	0.380
-253.092	-200.000	-0.027	-0.318
-252.078	435.422	-0.243	-0.521
-251.063	672.486	0.135	-0.346
-250.049	-45.664	-0.375	0.183
-249.034	-200.000	-0.006	0.047
-248.019	316.019	-0.115	-0.214
-247.005	-11.312	-0.202	0.131
-245.990	49.958	-0.183	0.170
-244.976	-200.000	0.047	0.000
-243.961	352.605	-0.058	0.114
-242.946	155.881	0.244	-0.332
-241.932	-87.028	-0.201	0.060
-240.917	-25.196	-0.147	0.086
-239.903	800.000	-0.015	0.064
-238.888	-83.808	-0.172	0.054
-237.873	-109.137	0.272	-0.057
-236.859	-155.468	0.179	-0.011
-235.844	505.840	-0.124	0.284
-234.830	-200.000	-0.003	0.050
-233.815	356.383	0.109	-0.215
-232.800	-200.000	-0.005	0.135
-231.786	-2.194	-0.165	-0.114
-230.771	432.917	-0.109	-0.234
-229.757	38.262	0.187	-0.164
-228.742	-200.000	0.043	0.242
-227.727	-182.905	0.162	-0.003
-226.713	225.786	-0.094	-0.151
-225.698	-166.183	-0.175	-0.007
-224.684	-61.081	-0.319	-0.133
-223.669	-41.000	-0.115	-0.059
-222.655	339.923	-0.069	-0.133
-221.640	27.817	-0.132	-0.109
-220.625	-64.898	0.305	0.121
-219.611	-200.000	-0.027	0.425
-218.596	-82.559	0.052	0.017
-217.582	-93.403	0.311	0.085
-216.567	-65.921	0.055	-0.022
-215.552	-139.880	0.352	0.037
-214.538	-50.697	0.269	0.125
-213.523	68.650	-0.165	-0.167
-212.509	-200.000	0.044	-0.394
-211.494	800.000	-0.095	0.364
-210.479	-114.166	-0.302	-0.058
-209.465	-200.000	-0.030	0.369
-208.450	114.636	0.086	0.104
-207.436	-199.710	-0.365	-0.002
-206.421	109.240	0.053	-0.063
-205.406	800.000	-0.079	0.302
-204.392	749.142	0.127	-0.337
-203.377	-200.000	-0.018	-0.326
-202.363	-200.000	-0.002	-0.328
-201.348	72.953	-0.269	0.277
-200.333	19.052	-0.218	0.172
-199.319	17.429	-0.310	0.242
-198.304	800.000	0.028	0.083
-197.290	-94.992	0.237	-0.063
-196.275	244.712	-0.030	-0.050
-195.260	-190.520	0.256	-0.003
-194.246	741.363	-0.086	0.226
-193.231	302.371	-0.080	0.146
-192.217	96.133	0.103	0.116
-191.202	-11.525	0.160	-0.104
-190.187	-80.897	-0.217	-0.071
-189.173	-200.000	0.019	0.441
-188.158	-81.349	0.138	-0.045
-187.144	800.000	-0.063	0.182
-186.129	-126.882	0.087	-0.013
-185.114	800.000	0.066	0.268
-184.100	38.201	-0.299	0.262
-183.085	-200.000	0.008	-0.324
-182.071	349.609	0.173	0.336
-181.056	800.000	0.125	0.393
-180.042	214.480	0.082	0.127
-179.027	-200.000	-0.034	-0.448
-178.012	-168.349	0.278	-0.011
-176.998	-105.677	0.231	-0.052
-175.983	-56.852	0.276	-0.120
-174.969	800.000	0.074	-0.278
-173.954	240.456	-0.134	-0.219
-172.939	146.998	0.067	-0.089
-171.925	-200.000	0.038	0.164
-170.910	800.000	0.128	-0.421
-169.896	-200.000	-0.011	0.087
-168.881	800.000	0.110	-0.424
-167.866	-6.071	-0.114	-0.076
-166.852	-2.220	0.062	-0.043
-165.837	178.464	0.046	-0.066
-164.823	-158.867	0.197	-0.011
-163.808	-116.214	0.187	-0.034
-162.793	32.512	0.208	-0.177
-161.779	-8.889	-0.090	-0.059
-160.764	-200.000	0.001	0.015
-159.750	23.936	0.163	0.132
-158.735	-161.403	0.282	0.014
-157.720	-200.000	0.004	0.097
-156.706	-55.894	0.174	0.076
-155.691	-78.035	-0.471	-0.159
-154.677	-103.234	0.288	-0.067
-153.662	43.966	-0.147	0.133
-152.647	800.000	-0.117	0.337
-151.633	-200.000	-0.047	0.265
-150.618	88.575	0.142	0.155
-149.604	23.648	-0.168	0.136
-148.589	-33.518	0.359	0.195
-147.574	499.170	0.081	0.183
-146.560	-133.535	0.157	-0.019
-145.545	-200.000	-0.024	-0.211
-144.531	-2.497	-0.177	0.122
-143.516	-197.856	-0.272	0.002
-142.502	-123.226	0.340	-0.053
-141.487	644.443	0.123	-0.309
-140.472	-200.000	0.015	-0.087
-139.458	197.444	-0.053	-0.080
-138.443	-141.227	0.203	-0.020
-137.429	58.506	-0.138	0.133
-136.414	194.066	0.075	-0.112
-135.399	-158.965	0.115	-0.006
-134.385	-60.991	0.166	-0.069
-133.370	74.872	-0.278	0.288
-132.356	-14.656	0.297	-0.187
-131.341	749.354	0.078	0.206
-130.326	-103.630	0.391	-0.090
-129.312	644.003	-0.026	-0.065
-128.297	788.081	0.121	0.325
-127.283	543.537	-0.078	-0.182
-126.268	-200.000	-0.014	0.076
-125.253	381.514	0.038	-0.076
-124.239	-178.878	-0.164	0.004
-123.224	-127.253	0.431	-0.062
-122.210	-200.000	0.049	0.242
-121.195	85.213	0.128	0.138
