DTS Sentinel unit serial number:	SN413079Multiplexer serial number:	ORYXHardware model number:	OX4-SRSoftware version number:	ORYX F/W v4.00 Oryx Data Collector v3.7.2.0data status	okinstallation	princeton_trtdifferential loss correction	single-endedforward channel	channel 2reverse channel	N/Adate	2019/09/10time	16:21:11forward acquisition time	60.00reverse acquisition time	0.00gamma	496.2192k internal	0.2308k external	0.2308temperature offset calibration	0.9936default loss term (dB/km)	0.3790temperature slope calibration	1.0000multiplexer offset coefficient	1.0000multiplexer slope coefficient	1.0000fibre end	0.00T internal ref (°C)	38.20T ext. ref 1 (°C)	-0.28T ext. ref 2 (°C)	30.87length (m)	temperature (°C)	Stokes	anti-Stokes-747.200	89.116	-0.039	-0.044
-746.185	-103.370	-0.283	-0.068
-745.171	509.946	0.076	0.179
-744.156	-200.000	-0.020	0.116
-743.142	-84.674	-0.234	0.075
-742.127	78.798	-0.092	0.100
-741.112	676.407	-0.072	0.191
-740.098	800.000	-0.040	0.120
-739.083	-200.000	0.042	0.455
-738.069	-154.201	-0.147	0.010
-737.054	800.000	-0.043	0.162
-736.039	65.343	-0.169	-0.174
-735.025	-20.045	0.421	0.264
-734.010	-200.000	-0.005	-0.054
-732.996	27.566	0.067	-0.057
-731.981	-200.000	0.045	0.402
-730.966	-154.736	-0.112	0.008
-729.952	-122.160	-0.270	-0.045
-728.937	-94.145	-0.115	0.032
-727.923	301.174	-0.180	-0.338
-726.908	374.408	-0.109	0.226
-725.894	94.324	0.191	0.220
-724.879	800.000	-0.091	-0.363
-723.864	4.921	-0.361	-0.270
-722.850	521.960	0.068	-0.162
-721.835	-59.621	-0.175	0.076
-720.821	-112.221	0.478	0.098
-719.806	-155.738	0.333	-0.022
-718.791	106.201	-0.084	-0.101
-717.777	298.464	0.075	-0.141
-716.762	800.000	-0.021	-0.067
-715.748	2.754	-0.045	-0.033
-714.733	25.481	-0.226	0.191
-713.718	172.467	0.205	0.300
-712.704	-200.000	-0.031	-0.290
-711.689	162.566	-0.261	-0.372
-710.675	800.000	0.082	0.252
-709.660	-38.477	-0.159	-0.085
-708.645	-11.966	-0.186	0.124
-707.631	556.634	0.062	-0.151
-706.616	-61.088	0.299	-0.128
-705.602	-111.093	-0.122	0.025
-704.587	-19.303	-0.262	-0.165
-703.572	-61.895	0.242	-0.103
-702.558	-159.260	-0.139	-0.008
-701.543	659.811	-0.086	0.224
-700.529	-84.407	0.244	-0.078
-699.514	-42.908	0.118	0.061
-698.499	629.354	-0.047	-0.120
-697.485	-108.085	0.379	0.083
-696.470	800.000	-0.068	0.263
-695.456	328.323	0.170	-0.330
-694.441	-200.000	-0.020	0.130
-693.426	-84.469	0.151	-0.048
-692.412	-27.447	-0.188	-0.111
-691.397	20.585	0.022	-0.018
-690.383	-32.455	0.372	-0.211
-689.368	-4.242	0.184	0.129
-688.354	800.000	-0.047	-0.194
-687.339	-194.231	0.178	-0.001
-686.324	313.655	-0.048	-0.092
-685.310	800.000	-0.021	-0.086
-684.295	800.000	-0.095	0.305
-683.281	31.831	0.079	-0.069
-682.266	-81.562	-0.162	-0.054
-681.251	-93.527	0.140	0.039
-680.237	170.782	0.091	-0.132
-679.222	456.018	0.024	-0.055
-678.208	-200.000	-0.073	0.405
-677.193	172.520	0.069	-0.101
-676.178	132.553	-0.187	-0.245
-675.164	494.867	0.039	-0.092
-674.149	456.520	-0.044	-0.099
-673.135	-179.116	0.202	-0.005
-672.120	-3.414	0.087	-0.062
-671.105	-46.056	0.133	0.066
-670.091	20.999	-0.127	0.105
-669.076	-200.000	0.057	0.324
-668.062	-22.269	0.275	-0.169
-667.047	-98.098	0.439	0.115
-666.032	780.089	0.128	0.355
-665.018	-81.506	-0.309	0.103
-664.003	-200.000	-0.076	-0.414
-662.989	344.861	0.042	-0.084
-661.974	-200.000	-0.019	-0.280
-660.959	-87.654	0.217	-0.066
-659.945	-50.235	-0.136	0.065
-658.930	-58.561	-0.212	0.093
-657.916	-134.147	-0.155	-0.019
-656.901	800.000	0.098	-0.345
-655.886	-140.149	-0.349	0.037
-654.872	-24.053	-0.126	0.076
-653.857	7.939	0.346	0.262
-652.843	-124.155	-0.448	0.071
-651.828	-22.120	0.074	0.045
-650.814	116.921	0.113	-0.141
-649.799	-73.119	-0.192	0.071
-648.784	-73.335	-0.078	0.029
-647.770	-200.000	-0.010	0.179
-646.755	-200.000	-0.011	-0.057
-645.741	-62.055	0.218	-0.092
-644.726	-83.903	0.240	-0.077
-643.711	-151.645	-0.310	-0.023
-642.697	-6.009	-0.308	0.214
-641.682	456.329	-0.058	-0.131
-640.668	-200.000	0.001	-0.246
-639.653	26.711	0.084	-0.071
-638.638	84.005	-0.256	-0.283
-637.624	-17.931	-0.089	-0.057
-636.609	-83.372	-0.212	-0.069
-635.595	-200.000	0.014	-0.063
-634.580	-86.736	0.258	0.080
-633.565	-100.866	0.379	0.094
-632.551	-170.151	-0.377	0.014
-631.536	-99.465	-0.436	0.111
-630.522	634.781	0.033	-0.085
-629.507	489.983	0.039	-0.091
-628.492	800.000	0.062	-0.225
-627.478	-200.000	0.035	0.164
-626.463	63.591	0.123	0.125
-625.449	-70.489	-0.124	0.047
-624.434	-106.701	0.035	0.008
-623.419	50.260	-0.213	-0.204
-622.405	-200.000	-0.061	-0.302
-621.390	-194.533	-0.347	0.003
-620.376	-134.303	-0.210	-0.026
-619.361	348.061	0.125	0.250
-618.346	235.956	0.132	0.221
-617.332	634.622	-0.092	0.236
-616.317	182.538	0.037	-0.055
-615.303	103.506	0.085	-0.101
-614.288	-13.118	0.107	-0.071
-613.273	67.509	0.067	-0.070
-612.259	-140.208	0.105	0.011
-611.244	248.206	-0.133	-0.228
-610.230	-11.852	-0.243	-0.162
-609.215	-7.800	-0.414	-0.283
-608.201	-119.282	-0.145	-0.026
-607.186	127.080	0.125	-0.160
-606.171	-200.000	-0.016	-0.146
-605.157	-96.496	0.163	0.044
-604.142	178.383	0.131	-0.193
-603.128	97.650	-0.105	-0.122
-602.113	317.212	-0.191	-0.365
-601.098	-61.906	-0.386	0.163
-600.084	-5.460	-0.279	0.193
-599.069	36.634	0.089	0.080
-598.055	57.738	-0.222	-0.219
-597.040	311.785	-0.048	0.091
-596.025	-150.993	0.082	-0.006
-595.011	56.145	-0.141	0.139
-593.996	209.774	-0.185	-0.292
-592.982	-28.925	0.119	0.069
-591.967	372.746	-0.102	0.210
-590.952	800.000	0.098	-0.367
-589.938	-200.000	0.009	-0.266
-588.923	-200.000	0.021	-0.436
-587.909	122.365	0.233	-0.294
-586.894	-200.000	-0.042	0.325
-585.879	-131.170	0.428	-0.057
-584.865	30.414	-0.231	0.200
-583.850	-113.776	-0.176	-0.035
-582.836	-200.000	0.010	-0.050
-581.821	41.688	0.170	0.155
-580.806	587.601	-0.109	0.271
-579.792	334.520	0.037	0.072
-578.777	-89.771	0.266	-0.079
-577.763	285.044	-0.150	-0.272
-576.748	-34.492	-0.218	-0.121
-575.733	-151.636	0.317	0.024
-574.719	-4.196	-0.218	-0.152
-573.704	800.000	-0.060	-0.172
-572.690	62.927	0.116	0.118
-571.675	361.572	0.104	0.210
-570.661	19.483	0.097	0.079
-569.646	10.828	-0.043	0.033
-568.631	205.945	0.107	-0.168
-567.617	235.571	-0.218	0.364
-566.602	-42.301	-0.100	-0.051
-565.588	-67.592	0.149	0.059
-564.573	-69.501	0.193	0.075
-563.558	-102.400	0.044	0.011
-562.544	11.149	-0.116	0.090
-561.529	-61.199	-0.183	0.078
-560.515	800.000	-0.075	-0.296
-559.500	-200.000	-0.002	-0.154
-558.485	-200.000	0.018	0.256
-557.471	126.665	-0.106	0.135
-556.456	800.000	-0.023	0.070
-555.442	-18.385	-0.083	0.052
-554.427	-200.000	-0.040	0.312
-553.412	320.520	0.128	0.245
-552.398	800.000	0.025	-0.087
-551.383	104.265	-0.259	-0.308
-550.369	34.400	-0.091	-0.080
-549.354	-60.288	-0.155	-0.067
-548.339	-121.720	-0.092	-0.015
-547.325	39.504	-0.264	0.239
-546.310	110.699	0.120	-0.145
-545.296	83.403	0.238	-0.262
-544.281	-110.758	0.083	-0.017
-543.266	96.791	0.122	-0.141
-542.252	-4.963	-0.057	0.039
-541.237	-133.819	0.241	-0.030
-540.223	187.091	0.075	0.113
-539.208	800.000	0.009	-0.040
-538.193	-60.660	-0.330	-0.141
-537.179	-117.353	-0.137	-0.025
-536.164	-105.653	-0.268	0.061
-535.150	-57.073	0.113	-0.050
-534.135	-2.644	-0.154	-0.109
-533.121	-116.079	-0.097	-0.018
-532.106	130.949	-0.173	-0.223
-531.091	246.368	-0.083	0.141
-530.077	-41.724	0.073	0.038
-529.062	395.074	-0.012	0.025
-528.048	-33.771	-0.104	-0.058
-527.033	-200.000	0.054	0.271
-526.018	-200.000	0.006	-0.307
-525.004	107.929	0.111	-0.133
-523.989	63.614	0.098	-0.099
-522.975	-200.000	-0.057	-0.255
-521.960	65.893	-0.045	-0.046
-520.945	800.000	0.125	0.445
-519.931	78.261	-0.042	0.045
-518.916	-57.907	-0.398	0.175
-517.902	-70.974	-0.153	0.058
-516.887	-200.000	-0.010	-0.179
-515.872	800.000	-0.115	-0.408
-514.858	-36.487	-0.208	-0.113
-513.843	5.611	0.219	-0.163
-512.829	-98.850	-0.196	0.050
-511.814	-196.987	0.209	-0.001
-510.799	-65.169	0.290	-0.118
-509.785	-53.333	-0.222	-0.102
-508.770	634.985	0.077	-0.198
-507.756	-87.611	-0.317	0.096
-506.741	94.980	0.231	0.265
-505.726	119.142	-0.364	-0.453
-504.712	262.178	-0.179	-0.312
-503.697	-19.239	0.147	-0.092
-502.683	61.980	0.440	0.442
-501.668	184.299	0.074	-0.111
-500.653	800.000	0.015	-0.048
-499.639	-138.322	0.459	-0.051
-498.624	-132.453	0.136	-0.018
-497.610	800.000	0.023	0.068
-496.595	-164.243	0.138	0.006
-495.581	193.569	0.163	-0.248
-494.566	114.777	-0.052	0.064
-493.551	-140.015	-0.197	0.021
-492.537	-141.430	0.207	-0.021
-491.522	-200.000	-0.017	0.085
-490.508	800.000	0.040	0.169
-489.493	800.000	0.072	-0.296
-488.478	103.256	-0.106	-0.125
-487.464	193.916	-0.224	-0.341
-486.449	-98.313	0.095	-0.024
-485.435	800.000	0.107	-0.351
-484.420	787.616	0.147	-0.405
-483.405	-200.000	-0.008	-0.037
-482.391	125.789	-0.048	0.061
-481.376	-70.969	0.054	0.021
-480.362	34.281	-0.103	0.090
-479.347	-114.914	0.160	0.031
-478.332	72.913	-0.076	0.080
-477.318	800.000	-0.106	0.339
-476.303	39.949	-0.094	-0.085
-475.289	477.268	0.048	0.109
-474.274	-59.930	-0.302	-0.130
-473.259	465.286	0.031	0.069
-472.245	4.469	0.149	-0.110
-471.230	-74.576	-0.235	-0.085
-470.216	800.000	-0.023	-0.071
-469.201	714.118	0.026	-0.070
-468.186	624.798	0.023	-0.058
-467.172	119.256	0.052	-0.064
-466.157	504.807	-0.087	0.202
-465.143	-43.445	0.253	0.128
-464.128	3.026	0.072	0.053
-463.113	-100.386	-0.359	0.089
-462.099	323.169	0.078	0.150
-461.084	-29.824	0.108	0.062
-460.070	-195.990	0.040	-0.000
-459.055	247.502	0.024	0.041
-458.040	-200.000	-0.006	0.057
-457.026	28.515	0.149	-0.127
-456.011	-200.000	-0.008	0.053
-454.997	2.797	-0.146	0.107
-453.982	91.153	0.154	-0.174
-452.968	24.292	-0.210	-0.175
-451.953	-28.943	0.101	0.058
-450.938	-200.000	-0.052	-0.392
-449.924	31.978	0.107	0.093
-448.909	367.571	0.161	0.326
-447.895	-135.906	0.205	-0.024
-446.880	60.174	-0.134	0.133
-445.865	-162.020	0.367	0.019
-444.851	-80.554	0.250	-0.084
-443.836	224.239	-0.192	0.311
-442.822	-200.000	0.037	-0.170
-441.807	-200.000	0.010	0.138
-440.792	215.399	0.070	-0.112
-439.778	-169.648	0.253	0.009
-438.763	-200.000	-0.004	0.171
-437.749	85.402	0.056	0.062
-436.734	235.292	-0.231	-0.383
-435.719	-200.000	-0.004	-0.292
-434.705	-169.846	0.346	-0.013
-433.690	30.231	0.163	-0.140
-432.676	-19.301	0.242	-0.151
-431.661	-4.568	-0.054	0.037
-430.646	395.116	-0.073	-0.152
-429.632	133.510	0.099	0.129
-428.617	192.593	0.034	0.052
-427.603	-200.000	0.024	-0.222
-426.588	266.340	-0.121	-0.212
-425.573	42.937	-0.074	-0.068
-424.559	114.172	-0.247	0.302
-423.544	69.262	0.122	-0.126
-422.530	71.451	0.128	0.134
-421.515	-93.883	0.201	0.055
-420.500	-138.615	-0.232	0.026
-419.486	800.000	-0.065	0.218
-418.471	-200.000	-0.070	0.314
-417.457	-106.872	0.484	0.108
-416.442	770.460	0.094	0.258
-415.428	46.594	-0.175	0.163
-414.413	-102.529	0.220	-0.053
-413.398	-200.000	-0.012	0.166
-412.384	538.861	0.056	-0.133
-411.369	495.436	-0.102	0.235
-410.355	-51.558	-0.162	0.076
-409.340	488.543	-0.047	0.109
-408.325	-128.898	-0.102	-0.014
-407.311	132.423	0.170	0.220
-406.296	-84.818	-0.176	0.056
-405.282	106.259	-0.058	-0.069
-404.267	800.000	0.082	0.279
-403.252	-23.107	0.133	0.081
-402.238	91.588	0.244	0.275
-401.223	104.198	-0.135	0.160
-400.209	-90.397	-0.104	-0.030
-399.194	800.000	-0.017	-0.053
-398.179	-122.388	-0.170	0.028
-397.165	760.363	-0.054	0.148
-396.150	-172.005	-0.159	0.005
-395.136	107.282	-0.144	-0.171
-394.121	800.000	-0.013	0.038
-393.106	-67.356	-0.239	-0.094
-392.092	27.918	-0.172	0.145
-391.077	-29.514	0.310	-0.177
-390.063	325.157	-0.063	0.121
-389.048	-200.000	-0.014	0.249
-388.033	-93.840	-0.343	-0.095
-387.019	-200.000	-0.036	-0.243
-386.004	-200.000	-0.002	-0.241
-384.990	-35.386	0.314	-0.171
-383.975	-16.648	0.366	-0.232
-382.960	0.436	-0.346	0.248
-381.946	-24.586	0.256	-0.153
-380.931	3.439	-0.156	-0.114
-379.917	-98.154	0.186	-0.048
-378.902	10.117	0.288	-0.219
-377.888	-105.919	-0.076	0.017
-376.873	135.124	-0.187	-0.243
-375.858	189.228	0.203	-0.305
-374.844	-111.961	0.262	0.053
-373.829	48.927	-0.123	-0.116
-372.815	-200.000	0.005	0.264
-371.800	304.356	-0.109	0.202
-370.785	-120.708	-0.172	-0.029
-369.771	-200.000	0.052	-0.275
-368.756	-200.000	-0.023	0.201
-367.742	-200.000	-0.021	0.178
-366.727	-75.669	0.192	-0.068
-365.712	-123.776	0.219	0.035
-364.698	312.684	0.122	0.230
-363.683	181.754	0.290	-0.428
-362.669	-200.000	0.018	0.286
-361.654	800.000	0.090	0.374
-360.639	-94.937	0.317	0.086
-359.625	699.672	0.074	0.194
-358.610	-200.000	-0.017	-0.258
-357.596	-37.226	0.356	0.191
-356.581	33.874	0.221	-0.192
-355.566	314.131	-0.089	0.168
-354.552	-56.366	-0.018	-0.008
-353.537	-97.964	-0.359	0.093
-352.523	-108.375	-0.316	0.068
-351.508	-65.290	-0.096	0.039
-350.493	-130.420	-0.136	-0.018
-349.479	70.988	0.221	0.229
-348.464	-1.857	0.196	-0.138
-347.450	-81.264	0.128	-0.042
-346.435	292.229	0.104	0.190
-345.420	800.000	0.110	0.402
-344.406	551.422	-0.132	0.317
-343.391	-68.687	0.188	-0.073
-342.377	-200.000	-0.049	-0.409
-341.362	-19.269	0.506	-0.314
-340.348	-69.825	0.154	0.059
-339.333	-200.000	-0.002	-0.030
-338.318	-104.399	-0.235	-0.054
-337.304	-2.579	-0.323	-0.226
-336.289	24.463	-0.182	-0.151
-335.275	800.000	-0.026	-0.106
-334.260	56.070	-0.143	0.139
-333.245	800.000	-0.075	-0.302
-332.231	20.380	0.127	-0.103
-331.216	800.000	0.024	0.094
-330.202	-200.000	0.029	0.216
-329.187	-85.114	0.256	0.080
-328.172	108.776	0.095	-0.114
-327.158	-52.806	-0.171	-0.079
-326.143	-87.189	0.091	-0.028
-325.129	-139.785	0.308	0.033
-324.114	-182.849	0.240	0.004
-323.099	800.000	0.083	0.296
-322.085	40.845	-0.214	0.193
-321.070	-200.000	-0.035	-0.161
-320.056	153.993	0.108	0.148
-319.041	-152.713	0.052	0.004
-318.026	800.000	-0.090	-0.297
-317.012	-140.934	0.411	-0.042
-315.997	-156.344	-0.178	-0.011
-314.983	45.931	0.155	0.144
-313.968	97.422	0.069	-0.079
-312.953	244.847	-0.167	0.281
-311.939	482.801	-0.028	-0.064
-310.924	800.000	-0.045	-0.150
-309.910	-200.000	0.005	-0.193
-308.895	-33.343	-0.277	-0.153
-307.880	-200.000	-0.141	-0.000
-306.866	-129.961	-0.114	0.016
-305.851	479.912	-0.116	0.262
-304.837	-9.273	0.208	0.139
-303.822	-131.987	-0.180	0.023
-302.807	117.760	-0.114	0.141
-301.793	-15.508	-0.324	0.207
-300.778	-200.000	-0.051	-0.369
-299.764	473.729	0.106	0.240
-298.749	47.972	0.093	0.087
-297.735	-200.000	-0.035	-0.186
-296.720	-12.033	0.232	0.152
-295.705	-57.923	-0.118	-0.052
-294.691	-2.287	0.097	-0.068
-293.676	-165.831	0.183	-0.008
-292.662	-56.849	0.211	-0.093
-291.647	800.000	0.097	-0.285
-290.632	60.011	-0.106	-0.104
-289.618	132.399	-0.130	-0.168
-288.603	800.000	0.101	-0.429
-287.589	-63.875	0.308	-0.126
-286.574	-93.540	0.143	-0.039
-285.559	-200.000	-0.023	0.112
-284.545	-155.370	-0.066	0.004
-283.530	-200.000	0.000	0.191
-282.516	800.000	-0.036	0.115
-281.501	219.023	0.169	0.270
-280.486	273.009	0.042	-0.075
-279.472	23.465	-0.386	0.317
-278.457	-6.346	0.293	0.199
-277.443	800.000	0.090	-0.259
-276.428	52.584	0.253	0.241
-275.413	411.659	0.046	0.098
-274.399	288.698	0.097	0.175
-273.384	-95.360	-0.125	-0.034
-272.370	-153.819	0.361	-0.025
-271.355	-200.000	0.012	0.140
-270.340	95.853	-0.347	-0.395
-269.326	-69.714	-0.103	0.039
-268.311	800.000	-0.121	0.346
-267.297	-168.101	-0.077	0.003
-266.282	177.159	0.168	-0.244
-265.267	18.492	-0.042	0.034
-264.253	-11.331	0.139	0.091
-263.238	90.171	0.127	-0.142
-262.224	463.841	0.170	-0.379
-261.209	131.304	-0.258	-0.331
-260.195	-200.000	-0.058	0.512
-259.180	246.807	0.117	0.196
-258.165	800.000	-0.077	0.250
-257.151	-126.108	0.260	0.039
-256.136	-200.000	-0.031	-0.218
-255.122	637.402	0.064	0.162
-254.107	-34.632	-0.294	-0.160
-253.092	-96.686	-0.245	-0.064
-252.078	-200.000	-0.008	0.255
-251.063	595.891	0.124	0.306
-250.049	-9.174	-0.154	-0.103
-249.034	-122.397	-0.086	-0.014
-248.019	-173.311	-0.275	-0.008
-247.005	299.405	0.140	0.258
-245.990	57.139	0.073	0.071
-244.976	-185.594	-0.168	0.003
-243.961	196.488	0.094	-0.142
-242.946	92.265	0.105	-0.118
-241.932	-160.249	-0.103	-0.006
-240.917	196.280	-0.151	-0.230
-239.903	251.781	0.114	-0.193
-238.888	800.000	-0.137	0.386
-237.873	35.449	-0.213	0.186
-236.859	301.411	-0.030	-0.055
-235.844	-200.000	0.024	0.204
-234.830	-34.722	0.153	0.083
-233.815	30.911	0.333	-0.284
-232.800	-132.433	-0.036	0.005
-231.786	494.292	0.124	-0.283
-230.771	-77.123	0.203	0.071
-229.757	-114.127	0.310	-0.060
-228.742	-200.000	0.035	0.265
-227.727	49.524	0.049	0.046
-226.713	-200.000	-0.014	-0.067
-225.698	-98.409	-0.070	0.018
-224.684	-200.000	0.005	-0.055
-223.669	-44.695	-0.028	0.014
-222.655	-110.179	0.281	0.058
-221.640	-200.000	-0.055	0.375
-220.625	-119.172	-0.118	0.020
-219.611	778.230	0.011	-0.030
-218.596	327.728	0.068	0.130
-217.582	-60.113	0.055	-0.023
-216.567	130.168	0.095	-0.121
-215.552	-200.000	0.058	0.400
-214.538	25.159	-0.073	-0.060
-213.523	158.158	0.112	-0.154
-212.509	-23.262	0.114	-0.068
-211.494	30.853	0.188	0.160
-210.479	800.000	-0.041	0.129
-209.465	-40.250	0.239	0.124
-208.450	800.000	0.043	-0.166
-207.436	186.399	-0.210	0.311
-206.421	181.407	-0.181	0.265
-205.406	-200.000	0.044	0.253
-204.392	382.291	0.238	-0.487
-203.377	800.000	-0.071	0.274
-202.363	-137.456	-0.348	0.039
-201.348	-61.291	-0.133	0.056
-200.333	-95.443	0.191	0.051
-199.319	-200.000	-0.008	-0.175
-198.304	31.235	0.127	0.109
-197.290	-200.000	-0.034	0.346
-196.275	-88.511	-0.281	-0.083
-195.260	800.000	-0.028	-0.114
-194.246	-161.825	-0.367	0.019
-193.231	53.702	-0.138	0.132
-192.217	60.399	0.194	-0.192
-191.202	-200.000	-0.053	-0.434
-190.187	-200.000	0.028	-0.159
-189.173	-49.089	0.110	0.053
-188.158	408.803	-0.238	-0.501
-187.144	160.956	-0.225	0.313
-186.129	-200.000	0.054	0.326
-185.114	-16.422	0.228	0.144
-184.100	33.131	0.139	-0.120
-183.085	44.828	0.255	0.233
-182.071	-146.802	-0.069	0.006
-181.056	800.000	0.045	0.171
-180.042	800.000	-0.076	0.231
-179.027	76.570	-0.124	0.130
-178.012	-117.401	-0.069	-0.012
-176.998	-200.000	-0.122	0.541
-175.983	-200.000	-0.024	0.266
-174.969	-31.209	-0.237	0.133
-173.954	71.147	-0.149	-0.154
-172.939	-83.826	0.239	-0.076
-171.925	108.574	0.084	0.100
-170.910	57.431	-0.160	-0.155
-169.896	359.809	0.131	-0.260
-168.881	159.678	-0.142	-0.197
-167.866	-93.955	-0.073	-0.020
-166.852	800.000	0.090	0.250
-165.837	-32.329	-0.249	-0.138
-164.823	-25.440	-0.174	-0.102
-163.808	139.803	-0.167	0.218
-162.793	-76.786	0.150	0.052
-161.779	-200.000	0.064	-0.400
-160.764	51.695	-0.117	-0.111
-159.750	-112.863	-0.198	-0.039
-158.735	-89.120	-0.167	-0.049
-157.720	151.557	0.224	0.303
-156.706	-133.992	-0.214	0.026
-155.691	611.532	0.093	0.230
-154.677	47.084	0.020	-0.018
-153.662	74.438	-0.121	0.127
-152.647	-140.435	0.202	0.021
-151.633	59.419	0.105	0.102
-150.618	290.461	-0.045	-0.081
-149.604	283.540	0.125	0.223
-148.589	-200.000	-0.005	-0.085
-147.574	-141.291	0.282	0.029
-146.560	28.123	-0.236	0.198
-145.545	-167.792	0.094	-0.004
-144.531	52.532	-0.110	-0.104
-143.516	-44.581	-0.063	-0.031
-142.502	34.820	-0.063	0.055
-141.487	331.350	-0.078	0.149
-140.472	-200.000	-0.000	-0.246
-139.458	13.051	0.377	-0.290
-138.443	-52.357	-0.241	-0.111
-137.429	-200.000	-0.049	0.308
-136.414	56.430	-0.050	0.049
-135.399	-200.000	0.015	-0.418
-134.385	-130.580	-0.197	0.026
-133.370	122.836	-0.140	0.174
-132.356	-63.852	0.155	-0.063
-131.341	-200.000	0.047	0.289
-130.326	-200.000	0.031	-0.292
-129.312	-73.519	0.634	0.230
-128.297	654.675	0.012	-0.030
-127.283	-89.610	-0.243	-0.071
-126.268	-200.000	-0.007	0.099
-125.253	-63.751	0.126	-0.051
-124.239	-108.174	-0.248	-0.053
-123.224	-27.136	0.135	-0.078
-122.210	269.873	-0.071	0.124
-121.195	-30.737	-0.110	-0.062
