DTS Sentinel unit serial number:	SN413079Multiplexer serial number:	ORYXHardware model number:	OX4-SRSoftware version number:	ORYX F/W v4.00 Oryx Data Collector v3.7.2.0data status	okinstallation	princeton_trtdifferential loss correction	single-endedforward channel	channel 2reverse channel	N/Adate	2019/09/14time	10:47:34forward acquisition time	60.00reverse acquisition time	0.00gamma	496.2192k internal	0.2315k external	0.2315temperature offset calibration	1.0143default loss term (dB/km)	0.3790temperature slope calibration	1.0000multiplexer offset coefficient	1.0000multiplexer slope coefficient	1.0000fibre end	0.00T internal ref (°C)	35.50T ext. ref 1 (°C)	4.30T ext. ref 2 (°C)	32.69length (m)	temperature (°C)	Stokes	anti-Stokes-747.200	-200.000	-0.050	-0.317
-746.185	632.871	-0.065	0.167
-745.171	-200.000	0.003	-0.207
-744.156	226.010	-0.122	0.201
-743.142	-200.000	-0.059	-0.293
-742.127	800.000	0.086	0.268
-741.112	-128.513	0.426	-0.061
-740.098	-200.000	0.022	0.269
-739.083	-0.606	-0.129	0.093
-738.069	-200.000	-0.029	0.278
-737.054	130.894	0.279	0.362
-736.039	-100.474	-0.110	-0.028
-735.025	-81.429	0.229	-0.076
-734.010	287.962	0.113	-0.207
-732.996	65.156	-0.262	-0.269
-731.981	-7.625	-0.075	0.052
-730.966	800.000	-0.166	-0.488
-729.952	23.758	-0.289	0.241
-728.937	71.172	0.291	-0.305
-727.923	186.047	0.066	0.099
-726.908	2.376	0.329	-0.241
-725.894	-5.562	0.098	-0.068
-724.879	87.385	0.213	0.238
-723.864	568.111	-0.090	-0.222
-722.850	800.000	0.061	-0.222
-721.835	-104.687	0.211	-0.049
-720.821	189.896	-0.261	-0.396
-719.806	151.528	0.090	-0.123
-718.791	426.475	-0.182	-0.398
-717.777	223.545	0.048	-0.078
-716.762	174.618	0.087	0.128
-715.748	-200.000	0.055	-0.275
-714.733	-7.494	-0.289	-0.198
-713.718	3.607	0.079	-0.058
-712.704	800.000	0.021	0.077
-711.689	-200.000	0.002	-0.040
-710.675	269.333	0.167	0.297
-709.660	515.641	-0.052	-0.123
-708.645	-81.134	0.048	-0.016
-707.631	35.232	-0.106	0.094
-706.616	11.779	-0.120	0.093
-705.602	-118.989	0.216	0.038
-704.587	-83.032	0.235	-0.076
-703.572	-156.911	0.059	-0.004
-702.558	795.690	0.046	-0.128
-701.543	-87.392	-0.123	-0.038
-700.529	82.692	-0.216	0.237
-699.514	556.069	-0.068	-0.165
-698.499	-96.596	0.400	0.107
-697.485	36.292	0.325	0.290
-696.470	-17.598	-0.275	-0.175
-695.456	800.000	-0.072	-0.275
-694.441	115.514	0.209	-0.258
-693.426	417.109	0.118	0.255
-692.412	800.000	-0.042	-0.130
-691.397	-200.000	-0.069	0.473
-690.383	-104.663	-0.265	-0.062
-689.368	-145.719	-0.239	0.022
-688.354	-173.663	0.343	-0.010
-687.339	68.857	0.119	-0.124
-686.324	-4.731	0.048	-0.033
-685.310	193.650	-0.141	-0.216
-684.295	800.000	-0.008	-0.034
-683.281	-149.994	-0.163	-0.013
-682.266	-89.636	-0.186	0.055
-681.251	291.597	0.106	0.194
-680.237	-200.000	0.045	-0.274
-679.222	-135.404	0.286	-0.034
-678.208	28.462	-0.060	-0.051
-677.193	-58.273	-0.059	-0.026
-676.178	266.196	-0.040	0.070
-675.164	800.000	0.098	0.383
-674.149	-200.000	-0.009	0.051
-673.135	565.713	-0.139	0.342
-672.120	231.176	-0.078	-0.129
-671.105	82.898	-0.202	-0.222
-670.091	140.157	0.072	-0.097
-669.076	227.919	-0.267	-0.440
-668.062	406.545	0.084	-0.178
-667.047	-61.636	0.263	-0.111
-666.032	424.919	-0.067	-0.145
-665.018	-152.078	0.316	-0.023
-664.003	60.793	-0.192	-0.192
-662.989	-200.000	-0.014	0.213
-661.974	-44.334	-0.123	-0.062
-660.959	113.252	-0.061	0.075
-659.945	-200.000	-0.006	-0.046
-658.930	-200.000	0.043	-0.365
-657.916	-122.767	0.315	-0.051
-656.901	-109.052	-0.229	-0.049
-655.886	363.017	-0.070	-0.143
-654.872	46.649	-0.044	-0.041
-653.857	23.825	-0.290	-0.241
-652.843	-95.420	0.221	-0.060
-651.828	800.000	-0.083	0.310
-650.814	45.355	0.122	0.114
-649.799	91.325	0.096	-0.109
-648.784	-29.678	0.182	-0.105
-647.770	172.208	-0.024	0.035
-646.755	76.979	0.314	-0.337
-645.741	576.367	0.177	-0.437
-644.726	401.551	-0.084	0.178
-643.711	87.071	-0.183	0.204
-642.697	-126.879	-0.204	0.030
-641.682	-200.000	0.009	0.292
-640.668	-145.100	-0.495	-0.045
-639.653	226.712	-0.113	-0.185
-638.638	-200.000	0.021	0.238
-637.624	-90.875	-0.323	0.094
-636.609	316.505	0.020	-0.039
-635.595	-200.000	-0.047	-0.238
-634.580	348.390	-0.101	-0.200
-633.565	138.046	0.097	-0.128
-632.551	800.000	0.072	0.280
-631.536	-165.941	-0.430	0.019
-630.522	-9.306	-0.145	0.097
-629.507	-124.212	0.392	-0.062
-628.492	33.855	0.150	-0.131
-627.478	12.532	0.111	0.086
-626.463	-126.664	0.234	0.035
-625.449	-81.465	-0.344	0.114
-624.434	350.801	-0.057	-0.114
-623.419	-126.611	0.050	0.007
-622.405	-86.901	-0.117	-0.036
-621.390	-200.000	0.023	-0.123
-620.376	361.692	0.172	-0.349
-619.361	-200.000	-0.002	0.030
-618.346	800.000	-0.095	0.299
-617.332	800.000	0.070	-0.219
-616.317	185.577	-0.135	0.202
-615.303	226.974	0.104	0.171
-614.288	219.616	0.170	-0.274
-613.273	56.841	0.211	-0.207
-612.259	-200.000	0.005	-0.044
-611.244	46.721	-0.200	-0.187
-610.230	-200.000	-0.032	-0.284
-609.215	-136.972	0.099	-0.011
-608.201	100.854	-0.218	0.256
-607.186	-200.000	0.017	0.134
-606.171	-115.603	0.221	-0.042
-605.157	291.203	-0.068	0.124
-604.142	-46.394	-0.271	-0.134
-603.128	456.730	0.163	-0.365
-602.113	-200.000	-0.018	-0.145
-601.098	-200.000	-0.022	0.113
-600.084	-143.662	-0.145	0.014
-599.069	-200.000	-0.051	0.318
-598.055	-200.000	-0.023	0.104
-597.040	-121.464	-0.286	-0.048
-596.025	-109.967	-0.197	-0.041
-595.011	69.892	-0.175	-0.182
-593.996	-15.183	0.069	0.045
-592.982	147.632	0.062	0.084
-591.967	-200.000	-0.040	-0.188
-590.952	-200.000	0.014	0.067
-589.938	800.000	0.048	-0.176
-588.923	800.000	-0.041	0.160
-587.909	-137.237	-0.163	-0.019
-586.894	135.236	-0.161	0.211
-585.879	-159.356	-0.367	0.021
-584.865	2.015	0.212	0.154
-583.850	164.012	0.152	0.216
-582.836	-200.000	-0.022	0.228
-581.821	-44.581	-0.270	-0.136
-580.806	303.288	0.085	-0.158
-579.792	49.639	0.130	-0.123
-578.777	-76.999	0.046	0.016
-577.763	59.266	-0.186	-0.184
-576.748	-17.939	0.227	-0.144
-575.733	-143.170	0.166	0.016
-574.719	-200.000	-0.027	-0.149
-573.704	391.424	0.046	-0.096
-572.690	-63.513	-0.024	-0.010
-571.675	-200.000	-0.000	-0.117
-570.661	-147.815	0.301	-0.025
-569.646	8.884	-0.213	0.162
-568.631	-200.000	0.027	0.215
-567.617	686.870	-0.083	-0.219
-566.602	38.143	0.144	-0.129
-565.588	187.563	-0.044	0.066
-564.573	414.427	-0.096	0.207
-563.558	-196.091	-0.329	-0.002
-562.544	-200.000	0.060	-0.304
-561.529	800.000	0.040	0.124
-560.515	-48.021	-0.172	0.084
-559.500	-200.000	-0.180	-0.001
-558.485	-82.174	-0.231	-0.076
-557.471	800.000	0.049	-0.167
-556.456	418.730	0.024	0.051
-555.442	-39.076	-0.191	-0.101
-554.427	-126.336	-0.277	-0.042
-553.412	-131.962	0.100	0.013
-552.398	-97.581	-0.090	0.024
-551.383	-28.063	-0.383	-0.223
-550.369	-200.000	-0.080	0.372
-549.354	800.000	0.033	-0.115
-548.339	270.170	-0.228	0.402
-547.325	-61.986	-0.389	-0.163
-546.310	-200.000	-0.082	-0.406
-545.296	-38.770	-0.321	0.170
-544.281	-18.614	0.124	0.078
-543.266	-108.879	0.112	0.024
-542.252	-200.000	-0.023	-0.163
-541.237	-200.000	0.032	0.216
-540.223	13.083	-0.118	0.092
-539.208	-103.874	-0.137	0.032
-538.193	-62.893	0.102	-0.042
-537.179	-98.865	-0.143	-0.037
-536.164	110.713	-0.195	-0.236
-535.150	634.718	0.094	0.239
-534.135	-200.000	0.024	0.132
-533.121	800.000	0.075	0.251
-532.106	109.542	0.114	-0.138
-531.091	-9.434	-0.079	0.053
-530.077	328.428	0.027	-0.052
-529.062	2.217	0.124	0.090
-528.048	-80.241	0.209	-0.070
-527.033	-123.936	0.191	0.030
-526.018	-195.193	-0.179	0.001
-525.004	-200.000	0.059	0.328
-523.989	-200.000	-0.046	-0.245
-522.975	11.384	0.176	0.135
-521.960	-83.362	0.079	-0.025
-520.945	-200.000	-0.007	-0.104
-519.931	-33.094	0.198	-0.110
-518.916	185.419	-0.171	-0.256
-517.902	-62.756	0.272	-0.113
-516.887	-133.140	0.250	-0.032
-515.872	-28.459	0.214	0.124
-514.858	1.626	0.109	0.079
-513.843	800.000	0.065	0.226
-512.829	384.268	0.041	0.084
-511.814	252.800	-0.030	-0.052
-510.799	-200.000	-0.010	-0.056
-509.785	-133.832	-0.100	0.012
-508.770	-31.116	-0.017	0.010
-507.756	30.675	0.314	0.270
-506.741	17.333	0.084	0.067
-505.726	-114.286	0.280	0.054
-504.712	-125.764	-0.712	0.108
-503.697	-57.106	-0.158	0.070
-502.683	-97.554	-0.276	0.072
-501.668	93.541	0.311	-0.354
-500.653	-30.573	0.381	-0.217
-499.639	-97.832	-0.039	0.010
-498.624	-73.375	0.261	-0.096
-497.610	800.000	-0.037	-0.131
-496.595	-200.000	-0.007	0.099
-495.581	-122.763	-0.273	0.044
-494.566	800.000	-0.076	0.294
-493.551	-69.102	0.105	-0.041
-492.537	149.269	-0.192	-0.261
-491.522	-125.370	0.242	0.037
-490.508	-200.000	0.016	0.116
-489.493	-113.606	-0.337	0.066
-488.478	800.000	-0.044	0.153
-487.464	118.206	0.107	-0.133
-486.449	119.961	0.128	-0.159
-485.435	705.161	-0.022	0.059
-484.420	-154.447	-0.268	-0.018
-483.405	135.600	0.081	-0.106
-482.391	317.797	0.249	-0.472
-481.376	-27.773	0.366	-0.213
-480.362	183.001	-0.166	0.246
-479.347	-200.000	-0.026	-0.290
-478.332	-62.043	0.323	0.135
-477.318	403.996	-0.132	-0.279
-476.303	-175.789	0.184	0.005
-475.289	-110.536	-0.334	-0.069
-474.274	-38.670	0.137	-0.073
-473.259	-56.207	-0.046	0.020
-472.245	-57.926	-0.202	0.088
-471.230	-76.581	0.014	0.005
-470.216	-200.000	0.005	0.091
-469.201	51.792	0.166	-0.158
-468.186	800.000	0.056	-0.201
-467.172	-130.084	-0.074	-0.010
-466.157	-30.319	0.051	0.029
-465.143	800.000	0.063	-0.216
-464.128	-17.291	-0.125	-0.079
-463.113	-200.000	0.049	-0.328
-462.099	-61.090	-0.285	-0.121
-461.084	-27.458	-0.233	0.136
-460.070	-153.576	-0.258	-0.018
-459.055	56.965	-0.126	-0.123
-458.040	-95.641	0.136	0.036
-457.026	-200.000	-0.017	-0.125
-456.011	-200.000	0.005	-0.519
-454.997	-6.640	0.143	-0.098
-453.982	-121.826	-0.241	0.040
-452.968	-167.586	0.105	0.004
-451.953	-14.126	-0.199	-0.128
-450.938	-200.000	0.032	-0.214
-449.924	-37.095	0.190	-0.102
-448.909	-200.000	-0.008	-0.269
-447.895	-200.000	0.031	0.186
-446.880	108.956	0.018	0.021
-445.865	31.647	0.296	-0.255
-444.851	-200.000	0.024	-0.117
-443.836	117.761	-0.101	-0.124
-442.822	22.691	-0.152	-0.124
-441.807	-200.000	-0.002	-0.232
-440.792	49.148	0.084	-0.079
-439.778	-114.934	0.144	-0.028
-438.763	55.492	0.172	-0.167
-437.749	90.057	0.253	0.284
-436.734	-72.967	0.158	0.058
-435.719	-139.047	0.193	0.021
-434.705	-178.036	-0.288	0.007
-433.690	201.646	0.175	-0.271
-432.676	46.657	-0.218	0.203
-431.661	23.512	-0.248	-0.205
-430.646	-200.000	-0.006	-0.151
-429.632	-200.000	0.018	0.090
-428.617	161.823	0.275	-0.385
-427.603	-70.597	-0.101	-0.038
-426.588	-94.720	-0.180	0.049
-425.573	800.000	0.052	-0.145
-424.559	-200.000	0.060	0.000
-423.544	423.537	0.033	0.071
-422.530	-94.783	-0.124	0.034
-421.515	478.280	0.085	-0.192
-420.500	-200.000	0.007	0.520
-419.486	42.768	0.230	0.210
-418.471	-121.101	-0.177	-0.030
-417.457	525.059	-0.073	-0.173
-416.442	-80.797	-0.333	-0.111
-415.428	36.188	-0.062	-0.055
-414.413	178.968	-0.052	-0.076
-413.398	800.000	-0.100	-0.300
-412.384	800.000	0.070	-0.221
-411.369	105.259	-0.304	-0.359
-410.355	-111.978	-0.196	0.040
-409.340	-137.818	-0.219	0.025
-408.325	800.000	0.053	0.205
-407.311	152.263	0.140	-0.191
-406.296	-200.000	-0.044	-0.211
-405.282	355.561	0.079	0.157
-404.267	-127.248	-0.153	-0.022
-403.252	146.820	-0.159	0.214
-402.238	-113.479	0.287	-0.056
-401.223	-9.411	-0.261	0.174
-400.209	-200.000	0.057	-0.320
-399.194	209.989	0.025	-0.039
-398.179	346.183	-0.027	0.053
-397.165	88.861	0.155	0.173
-396.150	99.276	-0.151	-0.174
-395.136	-84.676	-0.238	0.075
-394.121	28.075	-0.229	0.193
-393.106	-126.548	-0.238	0.035
-392.092	248.087	-0.065	0.109
-391.077	44.997	0.171	0.157
-390.063	800.000	-0.019	-0.060
-389.048	-126.919	0.069	0.010
-388.033	35.860	-0.115	0.101
-387.019	-200.000	-0.015	0.239
-386.004	-200.000	0.051	0.302
-384.990	-85.226	0.176	-0.055
-383.975	-53.671	0.137	-0.063
-382.960	-130.823	-0.193	0.026
-381.946	101.458	-0.208	-0.242
-380.931	-200.000	0.019	-0.376
-379.917	-96.585	0.216	0.057
-378.902	-200.000	-0.021	0.315
-377.888	-48.109	-0.125	0.060
-376.873	-33.824	-0.195	-0.108
-375.858	90.605	0.056	0.063
-374.844	142.054	-0.046	-0.061
-373.829	-100.410	-0.181	-0.045
-372.815	-158.741	0.164	0.009
-371.800	0.478	0.062	0.044
-370.785	-200.000	0.041	-0.258
-369.771	-22.018	0.115	0.070
-368.756	-200.000	0.055	-0.307
-367.742	-200.000	-0.016	-0.305
-366.727	-34.655	-0.308	0.169
-365.712	-97.920	0.131	0.034
-364.698	-14.414	0.211	-0.135
-363.683	-49.163	0.326	-0.156
-362.669	-71.689	-0.167	-0.062
-361.654	7.977	-0.139	-0.104
-360.639	-200.000	0.047	0.439
-359.625	257.061	-0.164	0.282
-358.610	-144.716	-0.236	0.022
-357.596	-200.000	-0.001	-0.197
-356.581	-20.205	0.292	0.180
-355.566	-73.692	-0.345	-0.125
-354.552	-10.243	-0.284	-0.188
-353.537	-81.197	0.051	-0.017
-352.523	-200.000	-0.010	0.176
-351.508	-36.374	-0.390	0.210
-350.493	315.085	-0.117	0.220
-349.479	800.000	0.036	0.116
-348.464	-83.642	-0.290	0.092
-347.450	111.070	-0.048	0.058
-346.435	55.522	-0.130	0.126
-345.420	17.764	0.214	0.170
-344.406	-25.799	0.174	0.103
-343.391	447.911	-0.061	-0.133
-342.377	65.190	-0.200	-0.202
-341.362	-102.341	-0.052	0.012
-340.348	-56.902	0.329	-0.145
-339.333	480.732	0.061	0.138
-338.318	147.043	-0.214	0.287
-337.304	5.497	-0.225	0.166
-336.289	-51.559	-0.250	-0.116
-335.275	800.000	0.084	0.284
-334.260	800.000	-0.053	0.182
-333.245	649.684	-0.024	0.062
-332.231	34.435	0.144	0.125
-331.216	28.845	0.054	0.045
-330.202	800.000	-0.050	0.144
-329.187	28.106	-0.146	-0.123
-328.172	800.000	0.132	-0.373
-327.158	-143.075	-0.113	0.011
-326.143	-126.664	-0.344	0.051
-325.129	536.815	0.111	0.262
-324.114	-162.202	-0.228	-0.011
-323.099	800.000	0.024	-0.090
-322.085	800.000	0.077	-0.234
-321.070	244.630	0.216	0.362
-320.056	121.394	0.162	0.202
-319.041	-70.772	-0.101	0.038
-318.026	465.577	0.032	0.071
-317.012	-137.410	0.248	-0.028
-315.997	-164.373	0.070	0.003
-314.983	-200.000	-0.046	-0.204
-313.968	505.974	0.041	-0.094
-312.953	-200.000	-0.004	0.133
-311.939	800.000	0.163	0.484
-310.924	-149.894	-0.555	-0.043
-309.910	-7.241	-0.182	-0.123
-308.895	232.153	0.157	0.257
-307.880	-98.869	0.136	0.034
-306.866	-172.219	0.134	-0.004
-305.851	-61.654	0.110	0.046
-304.837	-200.000	0.040	0.241
-303.822	-175.925	0.153	0.004
-302.807	87.230	0.276	0.304
-301.793	-132.306	0.271	-0.035
-300.778	-71.440	0.334	-0.125
-299.764	-8.744	0.221	-0.147
-298.749	-61.351	-0.324	-0.136
-297.735	-72.607	0.272	-0.100
-296.720	-26.323	0.169	-0.099
-295.705	-56.473	0.271	-0.120
-294.691	365.944	0.127	-0.255
-293.676	345.870	0.093	-0.183
-292.662	-48.357	0.272	0.131
-291.647	241.429	0.082	0.137
-290.632	76.356	0.151	0.160
-289.618	-62.995	0.369	-0.152
-288.603	-93.379	0.237	0.065
-287.589	51.748	0.242	0.229
-286.574	56.735	-0.209	0.203
-285.559	-56.591	-0.134	0.059
-284.545	296.788	-0.078	-0.142
-283.530	800.000	0.129	-0.381
-282.516	800.000	-0.139	-0.429
-281.501	800.000	0.071	-0.273
-280.486	40.744	0.078	0.070
-279.472	180.943	0.076	-0.112
-278.457	-120.714	-0.069	0.012
-277.443	-117.185	-0.176	0.032
-276.428	800.000	0.086	0.272
-275.413	-168.309	0.211	-0.008
-274.399	-90.202	0.508	0.147
-273.384	-200.000	0.008	0.345
-272.370	187.109	-0.094	-0.139
-271.355	-137.730	-0.091	0.010
-270.340	35.735	0.036	0.031
-269.326	-123.094	-0.023	-0.004
-268.311	84.132	0.121	0.131
-267.297	800.000	-0.075	0.316
-266.282	592.140	-0.024	0.058
-265.267	-83.316	-0.151	0.048
-264.253	-82.615	0.357	-0.115
-263.238	-133.547	-0.202	-0.025
-262.224	415.727	-0.116	0.245
-261.209	-161.978	0.320	0.016
-260.195	11.463	-0.249	-0.190
-259.180	374.481	0.200	0.406
-258.165	800.000	0.060	0.249
-257.151	-42.777	0.366	0.185
-256.136	-200.000	-0.035	0.334
-255.122	107.240	0.141	0.166
-254.107	-74.084	0.140	-0.051
-253.092	8.572	0.274	-0.205
-252.078	-125.672	-0.278	-0.042
-251.063	-200.000	0.021	-0.146
-250.049	-106.534	-0.072	-0.016
-249.034	-20.497	-0.208	0.127
-248.019	-169.575	0.135	-0.005
-247.005	30.415	0.084	0.071
-245.990	264.832	-0.201	-0.348
-244.976	-122.628	0.260	-0.042
-243.961	-53.422	-0.069	-0.032
-242.946	-178.313	-0.206	0.005
-241.932	-167.067	-0.239	0.010
-240.917	49.640	0.058	-0.055
-239.903	70.091	-0.159	0.163
-238.888	-144.889	0.127	-0.012
-237.873	23.496	0.195	0.159
-236.859	800.000	0.127	-0.375
-235.844	800.000	0.082	-0.294
-234.830	-75.394	0.087	0.031
-233.815	-187.206	-0.207	-0.003
-232.800	-200.000	0.056	0.459
-231.786	37.752	0.194	-0.172
-230.771	-63.562	-0.188	-0.077
-229.757	-35.225	0.128	-0.069
-228.742	99.862	0.187	0.215
-227.727	-105.471	-0.305	-0.069
-226.713	223.020	-0.062	-0.099
-225.698	-135.388	-0.218	0.026
-224.684	98.042	-0.142	-0.162
-223.669	394.142	-0.140	-0.289
-222.655	-200.000	-0.016	0.154
-221.640	800.000	-0.045	0.135
-220.625	-111.193	-0.287	-0.058
-219.611	800.000	-0.052	0.151
-218.596	-100.114	-0.249	-0.061
-217.582	-78.664	0.238	0.081
-216.567	-46.071	0.075	0.037
-215.552	63.236	0.152	0.152
-214.538	800.000	0.101	0.278
-213.523	220.876	-0.013	-0.020
-212.509	-63.515	0.178	-0.073
-211.494	575.091	0.091	-0.221
-210.479	800.000	0.062	0.227
-209.465	-58.616	0.131	-0.056
-208.450	59.753	-0.194	0.190
-207.436	800.000	0.105	0.321
-206.421	-138.158	0.139	0.015
-205.406	359.434	-0.023	-0.046
-204.392	-87.388	0.248	-0.075
-203.377	800.000	0.111	0.451
-202.363	540.057	-0.142	-0.335
-201.348	246.449	0.062	0.104
-200.333	72.837	-0.178	0.185
-199.319	-135.118	-0.183	0.022
-198.304	4.620	0.372	-0.271
-197.290	156.397	0.068	0.093
-196.275	-123.845	-0.082	-0.013
-195.260	-32.956	0.113	0.062
-194.246	-50.861	0.433	0.202
-193.231	136.587	0.065	-0.084
-192.217	-14.458	-0.095	-0.061
-191.202	800.000	0.127	0.386
-190.187	800.000	0.117	-0.330
-189.173	-74.132	0.296	0.106
-188.158	36.107	0.089	0.078
-187.144	-81.109	-0.111	-0.036
-186.129	-105.734	0.277	0.062
-185.114	-52.268	0.090	0.041
-184.100	203.887	0.235	0.361
-183.085	283.982	-0.182	0.325
-182.071	-40.586	0.085	-0.044
-181.056	-11.102	0.182	0.119
-180.042	-200.000	0.035	-0.259
-179.027	-64.750	0.154	0.062
-178.012	-37.916	-0.307	-0.162
-176.998	-12.126	-0.280	-0.182
-175.983	800.000	0.031	0.116
-174.969	70.115	-0.308	-0.316
-173.954	32.198	0.123	-0.105
-172.939	800.000	-0.055	-0.184
-171.925	78.965	0.106	0.113
-170.910	-200.000	-0.006	0.034
-169.896	-200.000	0.003	-0.057
-168.881	57.416	-0.154	0.149
-167.866	155.691	0.158	-0.215
-166.852	95.735	0.139	0.157
-165.837	71.006	-0.147	-0.151
-164.823	126.512	-0.107	-0.134
-163.808	800.000	0.072	0.259
-162.793	273.548	0.178	0.312
-161.779	646.796	0.115	0.290
-160.764	-91.856	-0.143	-0.040
-159.750	-200.000	0.058	0.329
-158.735	800.000	-0.038	-0.158
-157.720	-120.408	-0.259	0.044
-156.706	420.776	0.150	0.319
-155.691	-57.921	0.043	0.019
-154.677	-200.000	0.063	-0.313
-153.662	-200.000	-0.071	0.317
-152.647	800.000	0.131	0.462
-151.633	800.000	-0.087	0.253
-150.618	154.688	-0.082	0.112
-149.604	-54.085	-0.185	-0.083
-148.589	-88.558	-0.254	0.075
-147.574	-75.758	0.076	0.027
-146.560	-37.716	0.194	0.102
-145.545	428.135	0.138	0.294
-144.531	17.955	-0.072	-0.057
-143.516	-198.554	0.169	0.001
-142.502	249.450	0.184	0.308
-141.487	205.609	0.084	0.129
-140.472	34.124	-0.120	-0.103
-139.458	-23.716	-0.398	0.236
-138.443	-200.000	0.004	-0.200
-137.429	-96.169	-0.249	0.065
-136.414	-80.183	-0.181	0.060
-135.399	800.000	-0.035	0.134
-134.385	-4.467	-0.290	0.198
-133.370	120.988	-0.140	0.172
-132.356	-148.613	0.421	0.034
-131.341	267.450	0.113	-0.196
-130.326	-200.000	-0.025	0.121
-129.312	81.615	-0.312	0.334
-128.297	-138.502	-0.128	0.014
-127.283	162.601	0.303	0.420
-126.268	227.038	0.027	-0.043
-125.253	-0.068	0.170	0.120
-124.239	-120.336	-0.166	-0.028
-123.224	-27.357	0.257	-0.148
-122.210	89.020	0.133	-0.146
-121.195	-200.000	-0.023	-0.104
