DTS Sentinel unit serial number:	SN413079Multiplexer serial number:	ORYXHardware model number:	OX4-SRSoftware version number:	ORYX F/W v4.00 Oryx Data Collector v3.7.2.0data status	okinstallation	princeton_trtdifferential loss correction	single-endedforward channel	channel 2reverse channel	N/Adate	2019/09/13time	21:47:34forward acquisition time	60.00reverse acquisition time	0.00gamma	496.2192k internal	0.2335k external	0.2335temperature offset calibration	1.0129default loss term (dB/km)	0.3790temperature slope calibration	1.0000multiplexer offset coefficient	1.0000multiplexer slope coefficient	1.0000fibre end	0.00T internal ref (°C)	28.12T ext. ref 1 (°C)	3.27T ext. ref 2 (°C)	22.66length (m)	temperature (°C)	Stokes	anti-Stokes-747.200	-12.141	0.169	-0.111
-746.185	70.121	0.190	-0.197
-745.171	-104.831	-0.105	-0.024
-744.156	-200.000	0.083	0.472
-743.142	362.158	-0.076	0.154
-742.127	289.796	0.102	0.187
-741.112	133.432	0.364	-0.474
-740.098	-42.662	0.190	0.097
-739.083	299.255	0.051	0.095
-738.069	-13.300	0.103	-0.067
-737.054	-4.003	0.152	-0.106
-736.039	10.517	0.072	0.055
-735.025	-122.819	0.223	0.036
-734.010	-100.890	-0.534	-0.132
-732.996	56.706	-0.341	-0.333
-731.981	161.366	0.033	-0.047
-730.966	-13.421	-0.196	-0.128
-729.952	11.211	-0.112	0.086
-728.937	171.017	-0.096	0.139
-727.923	188.520	-0.066	0.099
-726.908	-50.224	0.164	0.078
-725.894	-200.000	0.020	0.206
-724.879	402.178	-0.074	0.157
-723.864	261.042	0.134	-0.233
-722.850	-200.000	-0.041	-0.255
-721.835	26.690	-0.234	-0.197
-720.821	-115.898	-0.079	0.015
-719.806	-120.166	-0.496	-0.085
-718.791	74.444	-0.130	0.138
-717.777	-0.865	-0.170	0.121
-716.762	65.782	0.077	0.078
-715.748	-8.609	0.051	0.034
-714.733	-3.199	-0.113	0.079
-713.718	37.621	-0.272	0.242
-712.704	454.405	-0.078	-0.174
-711.689	-105.413	0.197	0.045
-710.675	595.598	-0.094	0.235
-709.660	-62.826	-0.369	0.153
-708.645	-200.000	-0.011	0.333
-707.631	77.797	-0.049	0.052
-706.616	-22.657	0.113	-0.069
-705.602	800.000	-0.039	0.115
-704.587	-169.166	0.140	-0.005
-703.572	76.514	-0.097	-0.103
-702.558	686.987	0.070	0.183
-701.543	-6.147	0.189	-0.130
-700.529	-153.703	0.283	0.020
-699.514	-200.000	-0.033	0.476
-698.499	164.433	-0.041	0.058
-697.485	33.432	-0.249	-0.217
-696.470	-125.726	-0.429	0.065
-695.456	701.272	0.046	-0.120
-694.441	-109.996	0.153	-0.032
-693.426	-200.000	-0.032	0.364
-692.412	44.519	-0.040	-0.037
-691.397	123.166	0.108	0.136
-690.383	43.422	0.127	-0.116
-689.368	-200.000	-0.107	-0.596
-688.354	-93.952	0.167	-0.046
-687.339	-43.418	0.334	0.169
-686.324	299.194	0.092	0.171
-685.310	-102.403	-0.153	-0.037
-684.295	-52.541	-0.094	0.044
-683.281	-200.000	-0.018	-0.263
-682.266	-122.310	-0.387	0.063
-681.251	-71.604	-0.341	0.128
-680.237	-116.378	-0.315	0.058
-679.222	178.431	-0.236	-0.346
-678.208	-122.359	-0.279	-0.046
-677.193	800.000	0.024	0.072
-676.178	-200.000	-0.042	0.245
-675.164	-141.065	0.422	0.043
-674.149	-71.054	-0.161	0.061
-673.135	94.892	-0.082	0.094
-672.120	-101.425	-0.286	-0.070
-671.105	-111.380	-0.167	0.034
-670.091	147.403	-0.056	-0.075
-669.076	-67.684	-0.204	-0.080
-668.062	-93.497	-0.183	0.051
-667.047	3.046	0.100	-0.073
-666.032	402.093	-0.103	-0.216
-665.018	-57.262	0.139	0.061
-664.003	66.297	-0.153	-0.155
-662.989	46.495	-0.100	-0.093
-661.974	-41.072	0.114	-0.059
-660.959	-57.379	0.203	0.089
-659.945	126.809	-0.386	-0.490
-658.930	3.799	0.020	-0.015
-657.916	73.932	0.195	-0.205
-656.901	-200.000	0.007	0.157
-655.886	-65.955	-0.139	0.056
-654.872	128.603	-0.239	-0.305
-653.857	-200.000	-0.025	0.297
-652.843	319.742	-0.174	-0.330
-651.828	-59.716	-0.126	0.054
-650.814	-200.000	-0.067	-0.306
-649.799	-200.000	-0.001	-0.160
-648.784	-65.937	-0.083	-0.033
-647.770	-87.492	0.306	-0.093
-646.755	-200.000	-0.021	-0.186
-645.741	-52.360	-0.221	-0.102
-644.726	-181.664	0.212	0.004
-643.711	-200.000	0.110	0.000
-642.697	23.796	-0.202	0.166
-641.682	-103.762	0.047	-0.011
-640.668	-34.807	0.116	-0.064
-639.653	-35.109	0.163	0.089
-638.638	-99.586	0.117	0.029
-637.624	-196.882	-0.312	0.002
-636.609	60.388	-0.100	-0.099
-635.595	32.104	0.283	0.245
-634.580	-200.000	-0.027	0.202
-633.565	-200.000	-0.011	0.181
-632.551	-137.780	0.186	-0.021
-631.536	-102.705	-0.091	0.022
-630.522	-200.000	-0.004	0.211
-629.507	-82.967	0.332	-0.107
-628.492	-25.457	0.108	-0.064
-627.478	29.449	0.095	0.081
-626.463	-49.196	-0.339	-0.162
-625.449	331.786	-0.144	-0.278
-624.434	-200.000	-0.010	0.076
-623.419	35.022	0.168	0.148
-622.405	62.619	-0.083	0.083
-621.390	116.565	-0.168	0.206
-620.376	-119.486	0.345	-0.060
-619.361	99.562	0.109	-0.126
-618.346	33.638	-0.339	-0.294
-617.332	209.016	-0.078	-0.122
-616.317	-72.769	-0.225	0.083
-615.303	-158.311	0.109	0.006
-614.288	-200.000	0.004	0.044
-613.273	-200.000	-0.038	0.202
-612.259	-8.145	-0.083	-0.056
-611.244	-200.000	0.041	-0.258
-610.230	-95.328	0.097	0.026
-609.215	91.591	0.117	-0.131
-608.201	105.787	0.131	0.155
-607.186	76.124	-0.174	-0.184
-606.171	-52.186	0.058	-0.027
-605.157	-200.000	0.030	-0.141
-604.142	-136.469	-0.213	0.025
-603.128	-200.000	-0.028	0.146
-602.113	-46.779	-0.180	0.088
-601.098	-200.000	-0.017	0.354
-600.084	-73.438	0.104	0.038
-599.069	-35.608	-0.256	0.139
-598.055	-146.764	0.089	0.008
-597.040	134.735	0.130	0.169
-596.025	74.913	0.134	-0.141
-595.011	-66.635	-0.262	-0.104
-593.996	-200.000	-0.013	0.119
-592.982	-200.000	-0.024	0.187
-591.967	209.165	0.189	-0.295
-590.952	-69.916	-0.086	-0.033
-589.938	444.671	0.004	0.009
-588.923	-3.600	0.340	-0.236
-587.909	-111.822	0.601	0.121
-586.894	-112.554	-0.187	0.037
-585.879	800.000	0.045	0.188
-584.865	-95.313	-0.268	0.072
-583.850	208.619	-0.133	0.208
-582.836	108.683	0.142	-0.170
-581.821	-171.975	-0.058	0.002
-580.806	-200.000	0.056	-0.302
-579.792	-200.000	-0.005	-0.256
-578.777	-79.310	0.106	0.036
-577.763	800.000	0.074	-0.237
-576.748	-143.005	-0.228	-0.022
-575.733	-200.000	-0.003	-0.142
-574.719	116.771	0.035	-0.042
-573.704	-142.049	-0.097	0.010
-572.690	-200.000	-0.025	0.416
-571.675	-150.966	0.108	0.008
-570.661	111.484	0.261	0.314
-569.646	18.190	-0.052	-0.041
-568.631	463.893	-0.072	0.160
-567.617	38.968	0.094	0.084
-566.602	-112.494	-0.167	0.033
-565.588	206.681	0.061	-0.095
-564.573	-103.549	-0.103	-0.024
-563.558	18.438	-0.049	-0.039
-562.544	-171.628	-0.197	0.006
-561.529	499.527	0.069	-0.159
-560.515	211.882	-0.049	-0.076
-559.500	-162.424	0.211	-0.010
-558.485	396.429	0.066	0.138
-557.471	182.131	-0.119	-0.176
-556.456	-116.199	-0.292	0.054
-555.442	169.438	0.100	0.143
-554.427	94.665	-0.148	0.168
-553.412	304.769	-0.081	-0.151
-552.398	-200.000	-0.014	-0.153
-551.383	-16.400	0.232	0.146
-550.369	137.264	-0.134	0.175
-549.354	91.951	0.201	0.226
-548.339	-200.000	0.004	-0.020
-547.325	-131.265	0.457	0.060
-546.310	205.034	0.071	0.111
-545.296	-200.000	-0.034	0.201
-544.281	699.963	0.053	0.139
-543.266	800.000	0.069	0.204
-542.252	-2.882	0.443	-0.309
-541.237	3.320	-0.285	-0.207
-540.223	254.635	-0.128	0.219
-539.208	800.000	-0.054	0.226
-538.193	-166.088	0.192	0.008
-537.179	79.087	-0.048	0.051
-536.164	-12.743	-0.347	-0.226
-535.150	94.225	0.174	-0.197
-534.135	229.488	0.167	-0.272
-533.121	-116.467	0.185	0.034
-532.106	-53.293	0.175	-0.080
-531.091	12.188	-0.063	-0.048
-530.077	172.123	0.079	0.113
-529.062	33.646	0.213	-0.184
-528.048	800.000	-0.083	-0.294
-527.033	-96.932	0.211	-0.055
-526.018	40.576	-0.170	0.153
-525.004	10.145	0.150	0.113
-523.989	217.856	-0.132	0.209
-522.975	-155.626	0.070	-0.005
-521.960	-200.000	-0.046	0.237
-520.945	800.000	0.092	0.314
-519.931	-119.439	0.034	-0.006
-518.916	800.000	-0.060	0.218
-517.902	43.621	-0.164	-0.149
-516.887	33.362	0.077	0.067
-515.872	-200.000	-0.002	-0.243
-514.858	435.424	-0.207	-0.447
-513.843	-141.151	-0.243	0.025
-512.829	-200.000	0.006	-0.206
-511.814	-157.194	0.326	0.020
-510.799	-124.826	0.311	0.048
-509.785	-89.174	-0.104	0.031
-508.770	800.000	-0.067	-0.220
-507.756	-130.602	-0.319	-0.043
-506.741	258.249	-0.044	-0.076
-505.726	313.377	-0.099	-0.185
-504.712	-200.000	0.021	-0.134
-503.697	-124.103	0.197	0.031
-502.683	800.000	-0.064	0.254
-501.668	800.000	-0.057	0.208
-500.653	30.075	0.172	-0.146
-499.639	85.256	-0.219	-0.239
-498.624	52.341	0.366	0.348
-497.610	-49.197	-0.228	0.108
-496.595	800.000	0.057	0.173
-495.581	452.122	-0.035	-0.076
-494.566	191.242	0.136	-0.203
-493.551	155.136	-0.347	-0.475
-492.537	-200.000	-0.002	0.093
-491.522	-82.117	-0.124	0.040
-490.508	-200.000	-0.045	-0.275
-489.493	385.904	-0.064	-0.130
-488.478	24.712	-0.127	0.105
-487.464	-200.000	0.004	0.171
-486.449	-48.216	0.193	0.093
-485.435	-84.573	-0.183	-0.057
-484.420	-200.000	0.011	0.158
-483.405	204.310	0.071	-0.110
-482.391	146.749	-0.096	-0.128
-481.376	4.389	-0.364	0.265
-480.362	-24.495	0.151	-0.090
-479.347	-200.000	0.006	-0.219
-478.332	-126.977	-0.112	0.016
-477.318	-81.609	0.365	-0.119
-476.303	698.624	0.080	-0.209
-475.289	-71.418	-0.138	-0.051
-474.274	-98.530	-0.294	0.075
-473.259	-96.288	-0.065	-0.017
-472.245	733.673	0.007	0.017
-471.230	-200.000	0.020	0.142
-470.216	-148.091	0.178	0.015
-469.201	339.618	0.145	-0.281
-468.186	-179.792	-0.183	-0.004
-467.172	162.556	0.037	0.052
-466.157	-113.262	-0.448	0.088
-465.143	105.603	0.036	0.042
-464.128	-136.269	-0.210	0.024
-463.113	-81.581	-0.129	-0.042
-462.099	-124.371	0.068	-0.011
-461.084	-21.915	0.069	-0.042
-460.070	741.441	0.089	0.236
-459.055	329.109	-0.093	-0.177
-458.040	-94.528	-0.276	0.075
-457.026	35.181	-0.374	0.325
-456.011	-200.000	0.042	-0.306
-454.997	83.364	0.158	0.171
-453.982	-200.000	-0.002	-0.041
-452.968	531.428	0.094	0.220
-451.953	733.977	-0.173	0.460
-450.938	247.299	-0.061	-0.103
-449.924	-109.906	-0.240	-0.050
-448.909	-154.217	-0.140	-0.009
-447.895	108.516	-0.066	-0.078
-446.880	-200.000	-0.016	-0.154
-445.865	-8.784	-0.213	-0.142
-444.851	-24.785	-0.166	0.098
-443.836	81.771	-0.192	-0.207
-442.822	-200.000	0.050	0.300
-441.807	3.342	0.164	0.119
-440.792	-200.000	-0.036	-0.279
-439.778	93.224	0.101	0.113
-438.763	108.451	-0.152	0.181
-437.749	800.000	-0.054	0.199
-436.734	-135.146	0.337	-0.040
-435.719	-67.958	0.278	0.108
-434.705	0.807	-0.236	-0.167
-433.690	-145.750	-0.239	0.021
-432.676	-106.850	-0.181	0.040
-431.661	-129.416	-0.321	0.044
-430.646	-156.760	0.213	0.013
-429.632	96.478	0.218	-0.248
-428.617	172.530	-0.081	-0.116
-427.603	-13.794	-0.247	-0.158
-426.588	-188.477	-0.165	0.002
-425.573	-200.000	-0.004	-0.125
-424.559	-70.913	-0.173	0.065
-423.544	-6.517	0.262	0.177
-422.530	3.751	-0.064	-0.046
-421.515	800.000	-0.071	-0.230
-420.500	-156.319	0.131	0.008
-419.486	-71.945	-0.188	-0.069
-418.471	-134.321	-0.133	-0.016
-417.457	26.529	-0.196	0.163
-416.442	523.476	0.029	-0.067
-415.428	27.069	0.117	0.098
-414.413	-103.541	-0.051	0.012
-413.398	-41.851	0.214	0.109
-412.384	8.386	-0.295	-0.220
-411.369	-10.050	0.440	0.290
-410.355	-200.000	-0.061	0.268
-409.340	47.356	-0.233	0.215
-408.325	-101.902	0.352	-0.084
-407.311	22.691	-0.179	0.146
-406.296	-111.840	-0.041	0.008
-405.282	-200.000	0.021	0.129
-404.267	61.293	-0.065	0.064
-403.252	-20.795	-0.098	0.059
-402.238	9.368	0.147	0.110
-401.223	800.000	-0.037	0.136
-400.209	-35.892	0.147	-0.079
-399.194	-193.767	0.130	-0.001
-398.179	-1.602	0.161	-0.112
-397.165	-168.067	-0.174	-0.007
-396.150	136.241	0.331	0.428
-395.136	-200.000	0.002	0.183
-394.121	34.911	0.272	-0.236
-393.106	-200.000	-0.018	-0.093
-392.092	495.382	0.128	-0.292
-391.077	-86.658	-0.223	-0.068
-390.063	1.627	-0.108	-0.077
-389.048	-200.000	-0.033	0.252
-388.033	1.598	0.281	-0.201
-387.019	800.000	0.079	0.232
-386.004	-160.589	-0.107	-0.006
-384.990	-84.376	0.246	0.077
-383.975	363.947	0.174	0.347
-382.960	404.550	-0.199	-0.416
-381.946	-69.720	-0.230	0.087
-380.931	296.297	-0.174	-0.315
-379.917	-34.835	0.250	-0.135
-378.902	-200.000	-0.017	-0.318
-377.888	-139.948	0.333	0.035
-376.873	-13.056	-0.083	0.053
-375.858	175.151	-0.097	-0.139
-374.844	-169.156	-0.160	0.006
-373.829	59.412	0.167	0.163
-372.815	-91.799	0.143	0.040
-371.800	-200.000	-0.091	-0.444
-370.785	149.750	-0.231	0.310
-369.771	137.535	-0.137	-0.178
-368.756	60.744	-0.060	-0.059
-367.742	193.094	-0.024	0.036
-366.727	-200.000	0.002	-0.023
-365.712	-200.000	-0.032	0.201
-364.698	75.559	0.046	-0.048
-363.683	-90.442	-0.381	-0.109
-362.669	135.728	0.117	0.150
-361.654	-32.806	-0.029	0.016
-360.639	5.071	-0.202	-0.147
-359.625	-200.000	0.332	-0.000
-358.610	-200.000	-0.000	-0.095
-357.596	-132.100	0.169	-0.022
-356.581	-200.000	-0.019	0.195
-355.566	257.134	-0.050	0.086
-354.552	-92.889	0.410	0.113
-353.537	800.000	0.077	-0.246
-352.523	716.590	0.105	-0.277
-351.508	800.000	0.077	-0.230
-350.493	7.507	0.108	0.080
-349.479	800.000	-0.115	-0.348
-348.464	-23.081	-0.367	0.219
-347.450	26.744	-0.164	0.136
-346.435	-200.000	-0.045	0.259
-345.420	-54.661	-0.256	-0.115
-344.406	-163.437	-0.286	0.013
-343.391	-152.974	0.145	-0.010
-342.377	-200.000	-0.005	-0.252
-341.362	800.000	-0.028	0.101
-340.348	112.595	0.176	-0.211
-339.333	-179.962	0.128	-0.003
-338.318	800.000	0.091	0.317
-337.304	-5.331	-0.140	-0.095
-336.289	6.292	-0.117	0.086
-335.275	310.542	-0.028	-0.052
-334.260	137.710	-0.146	-0.189
-333.245	-64.306	0.320	0.129
-332.231	-134.527	-0.407	0.049
-331.216	109.592	0.112	0.133
-330.202	22.520	-0.263	-0.213
-329.187	585.811	0.101	0.245
-328.172	125.508	0.158	-0.197
-327.158	-68.624	0.231	-0.088
-326.143	-59.146	-0.399	-0.170
-325.129	-200.000	-0.022	-0.332
-324.114	-47.778	0.211	-0.101
-323.099	13.534	-0.346	0.266
-322.085	800.000	0.059	0.165
-321.070	12.780	0.075	0.058
-320.056	24.518	0.161	-0.132
-319.041	-34.579	0.178	-0.096
-318.026	3.372	0.242	0.174
-317.012	-48.495	0.250	0.119
-315.997	227.726	-0.024	-0.039
-314.983	-89.453	0.078	-0.023
-313.968	-29.791	0.328	0.185
-312.953	-15.428	-0.339	-0.214
-311.939	-161.681	-0.078	0.004
-310.924	344.520	-0.073	-0.142
-309.910	298.965	0.086	0.156
-308.895	513.024	-0.075	0.172
-307.880	-200.000	0.037	0.224
-306.866	-146.392	-0.273	-0.024
-305.851	84.204	-0.146	-0.158
-304.837	-63.337	-0.168	0.068
-303.822	-200.000	-0.031	0.201
-302.807	-89.341	-0.453	-0.132
-301.793	-200.000	0.007	-0.221
-300.778	-71.712	0.168	0.062
-299.764	-200.000	-0.063	-0.369
-298.749	431.373	-0.029	0.062
-297.735	-200.000	0.022	0.109
-296.720	288.192	-0.045	0.081
-295.705	-6.300	0.142	-0.096
-294.691	-200.000	-0.018	0.257
-293.676	73.553	-0.195	0.202
-292.662	-25.103	0.231	0.135
-291.647	-93.469	-0.254	-0.069
-290.632	-200.000	0.009	0.153
-289.618	-72.324	0.240	0.088
-288.603	-157.028	0.126	-0.008
-287.589	30.764	-0.078	-0.066
-286.574	-169.328	0.350	0.013
-285.559	-200.000	-0.014	0.125
-284.545	104.649	-0.274	0.318
-283.530	-73.185	0.257	0.093
-282.516	-81.576	0.322	0.104
-281.501	-200.000	0.036	0.248
-280.486	-49.572	0.230	0.108
-279.472	282.579	-0.101	0.180
-278.457	-200.000	-0.021	0.144
-277.443	800.000	0.132	-0.393
-276.428	-36.856	-0.291	0.154
-275.413	-84.338	0.424	0.132
-274.399	18.143	0.153	-0.120
-273.384	-38.194	-0.212	-0.111
-272.370	443.367	-0.125	-0.270
-271.355	-176.967	-0.165	0.004
-270.340	800.000	0.071	-0.216
-269.326	800.000	-0.059	0.209
-268.311	-200.000	-0.028	-0.167
-267.297	-200.000	-0.015	0.280
-266.282	-138.047	0.283	0.031
-265.267	-40.032	-0.192	-0.099
-264.253	364.432	-0.148	0.293
-263.238	-75.532	0.124	-0.044
-262.224	269.638	-0.050	-0.087
-261.209	-200.000	0.016	-0.170
-260.195	-96.746	-0.102	-0.026
-259.180	6.377	-0.041	0.030
-258.165	174.289	-0.034	-0.048
-257.151	800.000	-0.050	-0.181
-256.136	-4.420	-0.203	-0.138
-255.122	16.382	-0.234	0.182
-254.107	800.000	0.028	0.093
-253.092	2.479	-0.061	-0.044
-252.078	-89.275	0.500	0.145
-251.063	-200.000	0.005	0.251
-250.049	18.758	-0.032	-0.025
-249.034	-73.693	0.106	0.038
-248.019	5.987	-0.245	0.179
-247.005	34.567	0.284	-0.244
-245.990	-21.500	0.203	0.122
-244.976	-200.000	-0.054	-0.425
-243.961	-200.000	0.029	-0.437
-242.946	320.493	-0.118	-0.221
-241.932	540.020	-0.086	0.201
-240.917	-200.000	-0.000	-0.102
-239.903	46.731	-0.234	-0.214
-238.888	736.468	-0.033	0.088
-237.873	800.000	0.019	0.072
-236.859	730.835	-0.054	-0.142
-235.844	-132.495	0.106	-0.013
-234.830	373.014	-0.115	0.230
-233.815	35.955	0.087	-0.076
-232.800	-78.031	-0.250	-0.085
-231.786	-146.698	0.340	0.029
-230.771	-48.022	0.229	-0.109
-229.757	-200.000	-0.013	0.193
-228.742	-117.807	-0.092	0.016
-227.727	17.469	0.153	0.119
-226.713	173.866	-0.216	0.307
-225.698	-123.054	-0.125	-0.020
-224.684	329.971	0.100	-0.190
-223.669	11.872	0.179	-0.135
-222.655	-18.980	-0.171	-0.105
-221.640	-59.898	-0.228	-0.096
-220.625	242.886	-0.053	-0.088
-219.611	-200.000	0.004	-0.070
-218.596	-200.000	-0.020	-0.211
-217.582	800.000	-0.066	-0.205
-216.567	212.402	0.041	0.063
-215.552	38.592	0.170	0.149
-214.538	-27.597	0.151	0.086
-213.523	-157.979	0.485	0.028
-212.509	-36.683	-0.214	0.113
-211.494	628.291	0.082	0.203
-210.479	364.969	0.048	-0.096
-209.465	-23.618	-0.132	-0.078
-208.450	-200.000	0.018	-0.084
-207.436	-195.302	-0.137	0.001
-206.421	-171.936	0.284	-0.009
-205.406	268.681	0.118	-0.204
-204.392	-200.000	0.099	-0.443
-203.377	-18.336	0.037	0.023
-202.363	7.783	0.234	0.172
-201.348	800.000	-0.025	-0.083
-200.333	17.471	0.216	0.169
-199.319	5.746	-0.067	0.048
-198.304	-171.912	0.048	-0.002
-197.290	800.000	0.059	0.225
-196.275	-82.520	0.258	-0.082
-195.260	-140.002	-0.128	-0.013
-194.246	-63.501	-0.406	-0.164
-193.231	-169.492	0.290	-0.010
-192.217	800.000	0.071	-0.291
-191.202	-8.734	0.113	-0.075
-190.187	-200.000	-0.006	-0.065
-189.173	-200.000	0.029	0.240
-188.158	108.315	0.243	0.285
-187.144	371.123	-0.096	0.192
-186.129	485.915	-0.142	0.318
-185.114	408.250	0.112	0.233
-184.100	-107.014	0.159	-0.034
-183.085	-200.000	-0.066	0.289
-182.071	234.722	-0.130	0.211
-181.056	757.031	-0.033	-0.088
-180.042	-200.000	0.053	-0.370
-179.027	-90.348	0.244	-0.070
-178.012	-119.470	-0.204	0.035
-176.998	-69.131	0.229	0.087
-175.983	228.280	-0.068	0.109
-174.969	-94.328	0.265	0.071
-173.954	-5.471	-0.153	0.103
-172.939	53.504	0.092	-0.087
-171.925	-200.000	-0.014	0.131
-170.910	583.916	0.044	-0.106
-169.896	-106.706	0.359	-0.078
-168.881	273.324	0.110	0.191
-167.866	187.874	-0.174	-0.255
-166.852	-200.000	-0.020	0.160
-165.837	-177.276	0.053	0.001
-164.823	72.339	-0.251	-0.257
-163.808	38.758	0.032	-0.028
-162.793	-200.000	-0.022	0.115
-161.779	-73.964	-0.230	0.082
-160.764	-200.000	-0.024	-0.212
-159.750	-169.928	0.184	0.006
-158.735	-200.000	-0.002	-0.016
-157.720	800.000	0.096	-0.312
-156.706	-200.000	-0.038	-0.219
-155.691	214.484	-0.032	0.050
-154.677	-33.657	-0.325	0.176
-153.662	181.863	0.098	0.141
-152.647	800.000	0.055	-0.211
-151.633	-87.824	-0.314	-0.093
-150.618	800.000	0.065	0.201
-149.604	800.000	0.031	0.120
-148.589	-116.128	0.533	0.097
-147.574	-47.722	0.275	0.131
-146.560	38.927	0.315	-0.276
-145.545	146.178	0.347	0.457
-144.531	800.000	0.050	0.202
-143.516	-139.684	-0.303	-0.032
-142.502	44.876	-0.200	0.181
-141.487	-91.483	0.045	-0.013
-140.472	491.889	-0.014	0.031
-139.458	800.000	0.106	-0.305
-138.443	707.698	-0.064	-0.165
-137.429	18.459	0.172	0.135
-136.414	34.044	0.172	-0.147
-135.399	-57.381	0.317	0.137
-134.385	-200.000	-0.011	0.100
-133.370	45.409	-0.173	-0.157
-132.356	-79.342	-0.245	-0.081
-131.341	449.461	-0.210	-0.455
-130.326	68.878	-0.040	-0.040
-129.312	800.000	-0.039	-0.111
-128.297	747.415	0.152	0.403
-127.283	-118.526	-0.050	0.009
-126.268	-60.705	-0.318	0.132
-125.253	563.466	0.039	-0.092
-124.239	-75.661	-0.237	0.083
-123.224	-85.834	-0.149	-0.045
-122.210	-104.919	-0.140	-0.031
-121.195	59.566	0.142	0.138
