DTS Sentinel unit serial number:	SN413079Multiplexer serial number:	ORYXHardware model number:	OX4-SRSoftware version number:	ORYX F/W v4.00 Oryx Data Collector v3.7.2.0data status	okinstallation	princeton_trtdifferential loss correction	single-endedforward channel	channel 2reverse channel	N/Adate	2019/09/11time	13:01:11forward acquisition time	60.00reverse acquisition time	0.00gamma	496.2192k internal	0.2292k external	0.2292temperature offset calibration	0.9967default loss term (dB/km)	0.3790temperature slope calibration	1.0000multiplexer offset coefficient	1.0000multiplexer slope coefficient	1.0000fibre end	0.00T internal ref (°C)	41.58T ext. ref 1 (°C)	0.23T ext. ref 2 (°C)	38.81length (m)	temperature (°C)	Stokes	anti-Stokes-747.200	-200.000	0.002	0.108
-746.185	62.607	0.208	0.213
-745.171	122.431	-0.078	0.100
-744.156	800.000	0.018	0.068
-743.142	-200.000	-0.020	0.139
-742.127	-200.000	0.027	0.441
-741.112	-174.687	-0.274	-0.008
-740.098	-200.000	-0.038	0.232
-739.083	121.493	0.061	-0.078
-738.069	266.741	0.105	-0.188
-737.054	-105.126	-0.037	-0.009
-736.039	93.967	0.173	-0.201
-735.025	-145.883	-0.239	0.022
-734.010	189.842	0.147	0.225
-732.996	17.551	-0.238	-0.194
-731.981	-49.089	-0.156	-0.076
-730.966	-200.000	0.006	-0.099
-729.952	-74.236	-0.230	-0.085
-728.937	-200.000	0.052	-0.281
-727.923	186.666	0.128	0.195
-726.908	-200.000	0.001	0.054
-725.894	-162.432	0.184	-0.009
-724.879	93.046	0.119	0.138
-723.864	-200.000	-0.062	-0.614
-722.850	-200.000	-0.034	-0.201
-721.835	26.142	-0.347	-0.296
-720.821	37.547	0.196	0.178
-719.806	666.349	-0.089	0.235
-718.791	193.492	-0.135	-0.210
-717.777	-91.766	0.412	-0.120
-716.762	44.656	0.312	-0.293
-715.748	-133.808	0.083	0.011
-714.733	-200.000	0.002	-0.108
-713.718	149.937	-0.026	-0.036
-712.704	69.625	-0.155	0.163
-711.689	-75.004	-0.303	-0.111
-710.675	134.709	-0.153	0.203
-709.660	361.608	-0.058	0.119
-708.645	267.105	-0.191	-0.341
-707.631	-172.710	0.449	0.014
-706.616	740.130	0.064	0.176
-705.602	16.896	-0.210	-0.170
-704.587	120.926	0.194	-0.247
-703.572	-200.000	0.034	-0.193
-702.558	-200.000	0.043	0.201
-701.543	-200.000	0.017	-0.110
-700.529	-200.000	0.014	-0.244
-699.514	800.000	0.115	-0.398
-698.499	-85.031	0.659	0.211
-697.485	65.930	-0.143	-0.148
-696.470	-86.898	-0.295	-0.092
-695.456	800.000	-0.035	-0.155
-694.441	-15.105	-0.340	0.223
-693.426	712.561	0.016	0.044
-692.412	-22.843	-0.097	-0.060
-691.397	-62.002	-0.165	0.071
-690.383	-44.728	0.185	-0.095
-689.368	140.003	-0.144	-0.193
-688.354	28.923	-0.176	-0.152
-687.339	-120.067	0.289	0.051
-686.324	160.684	0.065	0.093
-685.310	361.718	-0.119	0.244
-684.295	159.590	-0.187	-0.265
-683.281	-200.000	-0.067	-0.382
-682.266	-2.349	0.078	0.056
-681.251	800.000	-0.028	0.121
-680.237	9.417	0.216	-0.167
-679.222	-12.827	0.068	0.045
-678.208	-73.821	0.139	-0.052
-677.193	101.504	0.168	-0.200
-676.178	-35.988	0.029	0.016
-675.164	-200.000	-0.073	0.432
-674.149	800.000	-0.039	0.113
-673.135	38.296	0.102	-0.093
-672.120	-138.538	-0.117	0.013
-671.105	800.000	0.088	-0.296
-670.091	-126.535	-0.556	0.084
-669.076	288.019	0.192	0.354
-668.062	360.863	-0.072	0.148
-667.047	351.387	-0.167	-0.338
-666.032	460.837	0.021	0.048
-665.018	800.000	-0.040	0.124
-664.003	-149.376	-0.122	-0.010
-662.989	-93.248	0.208	0.059
-661.974	2.904	-0.213	0.158
-660.959	60.051	0.172	-0.173
-659.945	19.161	-0.046	0.038
-658.930	378.054	-0.187	0.389
-657.916	-111.553	-0.225	0.047
-656.901	-113.439	0.169	-0.034
-655.886	-78.209	0.236	-0.083
-654.872	335.517	0.114	-0.225
-653.857	7.573	-0.248	0.189
-652.843	800.000	-0.094	-0.343
-651.828	-200.000	-0.005	0.159
-650.814	80.115	-0.071	0.078
-649.799	-34.908	-0.148	0.082
-648.784	-142.505	0.231	0.023
-647.770	-200.000	-0.043	0.300
-646.755	-200.000	-0.015	0.348
-645.741	-177.974	-0.264	0.006
-644.726	-101.235	-0.195	0.049
-643.711	148.007	0.099	-0.137
-642.697	316.444	-0.142	-0.273
-641.682	533.482	-0.032	0.077
-640.668	-200.000	-0.045	0.295
-639.653	157.514	-0.043	0.061
-638.638	-36.932	0.319	0.174
-637.624	-200.000	0.005	-0.028
-636.609	-200.000	0.009	-0.167
-635.595	800.000	-0.070	0.236
-634.580	462.088	0.058	-0.133
-633.565	238.348	-0.112	-0.190
-632.551	-107.282	0.223	-0.050
-631.536	-115.818	0.181	-0.034
-630.522	-200.000	0.050	-0.469
-629.507	800.000	-0.045	0.176
-628.492	274.711	-0.031	0.056
-627.478	-91.386	-0.080	0.023
-626.463	-116.557	0.078	-0.015
-625.449	67.525	0.187	-0.194
-624.434	-200.000	-0.045	0.252
-623.419	-162.624	-0.135	-0.007
-622.405	35.051	0.383	0.341
-621.390	-175.235	0.215	-0.006
-620.376	279.594	0.059	0.107
-619.361	-175.121	0.150	-0.004
-618.346	-140.878	0.068	0.007
-617.332	-200.000	0.012	-0.401
-616.317	800.000	-0.031	0.101
-615.303	-200.000	0.027	-0.130
-614.288	15.424	0.277	0.222
-613.273	800.000	0.052	-0.164
-612.259	106.348	0.246	-0.297
-611.244	360.847	-0.127	-0.259
-610.230	-90.224	0.128	0.038
-609.215	46.765	0.110	-0.104
-608.201	286.445	0.119	-0.219
-607.186	-118.834	-0.150	0.027
-606.171	800.000	-0.095	0.354
-605.157	-200.000	0.015	-0.112
-604.142	207.182	0.047	-0.074
-603.128	-200.000	0.030	-0.199
-602.113	-58.851	0.113	-0.050
-601.098	-32.418	-0.264	0.150
-600.084	69.868	0.148	-0.155
-599.069	-151.137	0.084	0.006
-598.055	58.364	-0.324	-0.323
-597.040	47.543	-0.086	0.081
-596.025	-88.149	0.204	0.062
-595.011	254.690	0.144	-0.251
-593.996	-43.903	-0.124	-0.064
-592.982	-47.601	0.398	-0.197
-591.967	-143.378	-0.259	0.025
-590.952	105.129	0.105	-0.126
-589.938	16.503	-0.227	-0.183
-588.923	24.797	0.051	-0.043
-587.909	800.000	0.015	-0.046
-586.894	-200.000	0.042	-0.251
-585.879	269.825	0.036	-0.064
-584.865	268.751	0.118	0.210
-583.850	-94.986	0.237	0.065
-582.836	-200.000	-0.003	0.023
-581.821	-96.730	-0.544	0.146
-580.806	437.521	-0.092	0.204
-579.792	-56.337	-0.274	-0.124
-578.777	800.000	0.093	0.381
-577.763	-57.207	-0.084	-0.038
-576.748	417.640	-0.072	0.156
-575.733	338.128	-0.154	-0.305
-574.719	-200.000	-0.030	-0.384
-573.704	275.494	0.111	-0.200
-572.690	-141.449	-0.188	-0.019
-571.675	-200.000	-0.020	-0.231
-570.661	-11.006	0.009	0.006
-569.646	-200.000	0.003	0.228
-568.631	-200.000	-0.039	-0.181
-567.617	-117.405	0.055	-0.010
-566.602	-60.913	0.274	0.118
-565.588	-200.000	0.005	0.189
-564.573	800.000	-0.036	0.139
-563.558	306.847	0.103	-0.194
-562.544	-200.000	0.008	-0.083
-561.529	800.000	-0.040	0.174
-560.515	493.541	0.120	-0.281
-559.500	188.990	0.055	0.084
-558.485	-89.098	-0.127	-0.038
-557.471	296.258	0.106	-0.197
-556.456	149.062	-0.020	-0.027
-555.442	325.055	-0.042	-0.082
-554.427	342.328	0.141	0.280
-553.412	90.144	0.171	-0.194
-552.398	-200.000	0.019	-0.350
-551.383	-200.000	-0.015	0.073
-550.369	-129.670	-0.136	0.019
-549.354	76.322	-0.132	0.142
-548.339	53.702	-0.221	-0.216
-547.325	381.996	0.059	0.124
-546.310	18.225	0.299	-0.242
-545.296	-200.000	-0.003	-0.030
-544.281	135.875	-0.210	0.278
-543.266	-131.196	0.123	0.017
-542.252	208.414	-0.127	0.201
-541.237	-200.000	-0.034	0.157
-540.223	-200.000	0.043	-0.320
-539.208	33.499	0.118	0.104
-538.193	-186.358	0.402	-0.006
-537.179	-96.584	-0.663	0.177
-536.164	-44.818	-0.113	-0.057
-535.150	-182.261	-0.196	-0.004
-534.135	60.397	-0.203	0.204
-533.121	-144.291	-0.267	-0.025
-532.106	-200.000	0.049	0.416
-531.091	-136.848	-0.220	0.026
-530.077	84.756	0.081	0.090
-529.062	395.302	0.039	0.082
-528.048	-52.919	-0.035	-0.016
-527.033	-6.754	-0.327	0.225
-526.018	-200.000	-0.021	-0.294
-525.004	800.000	0.045	0.184
-523.989	-114.155	0.080	0.016
-522.975	-200.000	0.013	-0.074
-521.960	-200.000	0.039	0.180
-520.945	47.023	0.025	-0.024
-519.931	-63.724	0.194	-0.081
-518.916	467.276	0.108	-0.246
-517.902	-108.097	0.122	0.027
-516.887	-56.839	-0.211	0.095
-515.872	514.825	-0.142	-0.336
-514.858	-11.726	0.359	-0.239
-513.843	37.292	-0.331	0.298
-512.829	361.958	0.059	-0.120
-511.814	290.635	-0.105	0.194
-510.799	-200.000	-0.025	-0.255
-509.785	143.536	0.062	-0.084
-508.770	-115.998	0.334	-0.063
-507.756	542.446	0.100	-0.242
-506.741	145.772	0.045	-0.061
-505.726	592.500	-0.034	0.085
-504.712	-39.735	-0.485	-0.257
-503.697	-24.982	-0.393	-0.237
-502.683	800.000	-0.014	-0.058
-501.668	-1.170	0.225	-0.161
-500.653	-200.000	0.155	-0.000
-499.639	-80.617	-0.181	-0.061
-498.624	-115.529	0.084	-0.016
-497.610	800.000	-0.020	-0.059
-496.595	-29.306	-0.149	-0.087
-495.581	50.579	-0.067	0.064
-494.566	-44.728	0.107	-0.054
-493.551	181.234	-0.118	0.176
-492.537	-200.000	-0.014	0.165
-491.522	463.680	-0.093	0.211
-490.508	176.934	0.078	0.115
-489.493	68.029	-0.160	-0.166
-488.478	-200.000	-0.026	0.122
-487.464	311.730	-0.072	0.137
-486.449	-200.000	0.010	-0.112
-485.435	800.000	-0.019	0.078
-484.420	-200.000	0.002	-0.152
-483.405	91.253	-0.257	-0.292
-482.391	649.284	-0.178	0.460
-481.376	800.000	-0.003	0.011
-480.362	-137.055	0.203	0.024
-479.347	606.233	-0.088	-0.222
-478.332	57.020	0.031	-0.030
-477.318	-200.000	0.008	0.113
-476.303	282.186	-0.088	0.159
-475.289	307.857	-0.021	0.039
-474.274	-39.671	0.140	-0.074
-473.259	96.026	-0.112	0.129
-472.245	-110.917	0.263	-0.055
-471.230	-68.155	-0.302	-0.119
-470.216	669.270	-0.178	0.467
-469.201	361.296	-0.136	-0.276
-468.186	800.000	-0.096	0.331
-467.172	-63.864	0.070	0.029
-466.157	-43.787	0.070	0.036
-465.143	-200.000	0.054	0.265
-464.128	-46.078	0.092	-0.046
-463.113	-200.000	-0.008	-0.051
-462.099	479.956	0.025	-0.057
-461.084	195.187	0.140	-0.215
-460.070	-92.716	-0.210	-0.060
-459.055	-144.470	-0.181	-0.017
-458.040	-120.536	-0.366	0.063
-457.026	177.806	0.150	0.221
-456.011	-19.688	0.103	0.064
-454.997	800.000	0.028	0.080
-453.982	-200.000	0.021	0.248
-452.968	-200.000	0.031	0.367
-451.953	0.145	0.055	0.039
-450.938	-193.554	0.063	-0.001
-449.924	-171.695	0.441	-0.015
-448.909	-80.507	-0.163	0.055
-447.895	-76.884	-0.234	0.083
-446.880	-22.954	0.058	0.035
-445.865	-141.639	0.023	0.002
-444.851	37.881	-0.143	0.129
-443.836	-28.854	0.120	0.070
-442.822	-163.220	-0.157	0.008
-441.807	800.000	-0.024	-0.076
-440.792	-200.000	-0.087	0.431
-439.778	75.287	-0.188	0.201
-438.763	-62.200	0.146	0.062
-437.749	169.870	-0.091	0.132
-436.734	800.000	-0.047	-0.189
-435.719	437.319	-0.029	-0.065
-434.705	54.327	0.099	0.097
-433.690	-121.065	0.149	-0.025
-432.676	-200.000	0.034	0.228
-431.661	-45.293	0.136	-0.068
-430.646	-41.583	0.261	-0.136
-429.632	800.000	-0.035	-0.145
-428.617	-200.000	-0.002	-0.297
-427.603	301.151	-0.088	0.163
-426.588	-91.632	-0.051	-0.015
-425.573	12.205	0.134	0.104
-424.559	800.000	0.043	0.148
-423.544	-49.316	0.223	0.107
-422.530	18.838	-0.126	0.102
-421.515	-97.522	-0.043	0.011
-420.500	-5.619	0.109	0.075
-419.486	-10.920	-0.105	-0.070
-418.471	-157.342	0.111	-0.007
-417.457	800.000	0.097	-0.338
-416.442	800.000	0.114	0.354
-415.428	512.737	-0.151	0.356
-414.413	-100.179	-0.267	0.067
-413.398	85.001	0.079	-0.088
-412.384	505.928	0.103	0.242
-411.369	165.032	-0.085	-0.122
-410.355	-134.098	0.051	0.006
-409.340	-29.977	0.539	-0.310
-408.325	-48.168	-0.134	0.065
-407.311	305.854	-0.153	-0.287
-406.296	460.261	-0.110	0.248
-405.282	-163.178	-0.290	0.014
-404.267	464.497	-0.182	-0.412
-403.252	-127.804	-0.241	0.035
-402.238	-200.000	-0.001	0.255
-401.223	-138.790	0.376	-0.041
-400.209	211.995	-0.111	-0.176
-399.194	445.091	-0.026	0.058
-398.179	-96.245	-0.436	-0.117
-397.165	-196.576	0.110	-0.001
-396.150	318.153	0.138	-0.263
-395.136	174.234	-0.121	-0.177
-394.121	-200.000	0.018	-0.111
-393.106	-200.000	0.050	-0.269
-392.092	-84.713	-0.247	-0.078
-391.077	-200.000	0.040	-0.294
-390.063	632.726	0.063	-0.162
-389.048	-200.000	0.031	-0.238
-388.033	172.189	0.324	0.471
-387.019	16.571	-0.291	0.232
-386.004	-26.086	-0.239	-0.142
-384.990	-26.958	-0.259	-0.153
-383.975	-153.317	-0.216	-0.015
-382.960	-200.000	0.016	0.268
-381.946	-200.000	-0.015	-0.122
-380.931	36.008	0.158	-0.141
-379.917	-61.031	0.021	-0.009
-378.902	-112.804	0.016	0.003
-377.888	3.447	0.084	0.062
-376.873	-197.206	-0.047	-0.000
-375.858	-8.592	-0.070	-0.047
-374.844	-15.004	-0.235	-0.152
-373.829	-66.494	-0.168	0.067
-372.815	177.994	0.015	-0.022
-371.800	157.912	-0.079	-0.111
-370.785	29.864	0.043	-0.037
-369.771	-200.000	-0.010	-0.115
-368.756	229.862	-0.111	-0.183
-367.742	214.164	0.099	0.158
-366.727	-53.645	0.281	0.130
-365.712	-89.691	-0.091	0.027
-364.698	8.154	0.121	-0.092
-363.683	-13.721	0.070	-0.045
-362.669	409.941	-0.005	0.010
-361.654	172.149	0.120	-0.174
-360.639	-102.697	0.195	0.047
-359.625	6.132	0.076	-0.057
-358.610	248.315	-0.029	-0.049
-357.596	75.058	-0.102	-0.108
-356.581	800.000	0.042	-0.138
-355.566	-45.821	-0.217	0.108
-354.552	169.633	0.063	0.091
-353.537	-84.669	0.187	-0.059
-352.523	-80.073	0.122	-0.041
-351.508	6.558	-0.234	0.175
-350.493	-200.000	-0.004	0.137
-349.479	484.393	-0.044	0.101
-348.464	-61.143	0.222	-0.094
-347.450	350.718	0.124	0.247
-346.435	205.277	-0.165	0.259
-345.420	48.046	0.225	-0.212
-344.406	-200.000	0.005	0.231
-343.391	-200.000	0.041	0.230
-342.377	800.000	0.072	0.205
-341.362	11.560	0.105	-0.081
-340.348	10.903	0.126	0.097
-339.333	346.851	0.072	-0.142
-338.318	-4.604	0.209	-0.145
-337.304	-200.000	-0.011	0.063
-336.289	-125.307	0.287	0.044
-335.275	-67.546	0.370	0.146
-334.260	-136.317	-0.037	-0.004
-333.245	-8.981	-0.166	0.112
-332.231	-38.576	-0.327	0.174
-331.216	-145.295	0.295	0.027
-330.202	-200.000	-0.017	0.224
-329.187	-96.439	0.085	0.023
-328.172	356.755	-0.181	0.364
-327.158	-200.000	-0.032	0.180
-326.143	-127.617	0.108	0.016
-325.129	123.983	0.096	-0.121
-324.114	134.426	0.074	-0.097
-323.099	-91.679	-0.284	0.081
-322.085	51.813	0.136	-0.130
-321.070	-118.922	0.088	0.016
-320.056	-1.745	-0.075	0.054
-319.041	173.438	-0.164	-0.238
-318.026	84.856	0.076	-0.083
-317.012	-95.234	0.231	-0.063
-315.997	-114.037	-0.101	-0.020
-314.983	-4.798	0.224	-0.156
-313.968	4.145	0.096	-0.071
-312.953	1.787	0.206	-0.150
-311.939	-2.069	-0.164	0.116
-310.924	129.062	0.144	0.185
-309.910	800.000	-0.061	0.189
-308.895	-169.311	-0.117	0.004
-307.880	255.306	-0.042	0.072
-306.866	-79.076	-0.093	0.032
-305.851	-99.903	0.031	0.008
-304.837	-162.814	0.183	-0.009
-303.822	113.443	0.073	-0.090
-302.807	257.171	-0.013	0.022
-301.793	-145.861	0.367	-0.033
-300.778	800.000	-0.051	-0.188
-299.764	-134.216	-0.165	-0.020
-298.749	-4.314	-0.073	-0.051
-297.735	24.482	0.208	0.173
-296.720	40.980	-0.183	0.166
-295.705	-93.170	0.111	0.031
-294.691	129.448	0.204	-0.262
-293.676	-99.598	-0.115	-0.029
-292.662	-51.870	-0.134	0.063
-291.647	34.583	-0.148	0.130
-290.632	581.805	0.101	-0.249
-289.618	-200.000	0.012	-0.080
-288.603	417.469	-0.112	-0.242
-287.589	-200.000	-0.008	0.288
-286.574	-200.000	-0.011	0.288
-285.559	-142.649	0.357	0.035
-284.545	-73.301	0.418	0.154
-283.530	-200.000	-0.007	0.034
-282.516	122.541	-0.145	-0.183
-281.501	37.572	-0.100	-0.090
-280.486	800.000	-0.074	-0.287
-279.472	800.000	-0.083	-0.332
-278.457	-123.083	-0.198	-0.032
-277.443	-200.000	0.013	-0.077
-276.428	-95.430	0.234	0.063
-275.413	-34.360	0.225	-0.124
-274.399	-32.562	-0.038	-0.021
-273.384	439.742	-0.060	-0.131
-272.370	316.177	-0.123	0.233
-271.355	-200.000	0.011	-0.244
-270.340	-139.571	0.154	0.016
-269.326	-37.279	-0.130	-0.070
-268.311	-88.973	-0.117	0.035
-267.297	-153.875	0.239	0.016
-266.282	165.300	0.183	-0.260
-265.267	-85.871	-0.265	0.082
-264.253	800.000	-0.018	0.058
-263.238	-95.960	-0.135	0.036
-262.224	-118.765	-0.296	-0.052
-261.209	215.715	0.063	0.101
-260.195	38.456	0.410	-0.367
-259.180	-96.255	-0.116	-0.031
-258.165	-188.420	0.145	0.002
-257.151	-19.075	-0.084	-0.052
-256.136	-114.659	-0.108	-0.021
-255.122	-84.931	0.034	-0.011
-254.107	261.546	0.121	-0.211
-253.092	800.000	0.046	-0.156
-252.078	367.959	0.235	0.476
-251.063	-5.631	-0.200	-0.138
-250.049	800.000	-0.172	0.559
-249.034	-200.000	-0.051	0.237
-248.019	505.258	0.109	0.253
-247.005	209.921	0.122	0.193
-245.990	-129.920	0.173	0.024
-244.976	-200.000	0.035	-0.311
-243.961	285.908	0.114	-0.206
-242.946	-200.000	0.002	0.519
-241.932	-7.702	0.327	0.222
-240.917	-110.771	0.339	0.070
-239.903	800.000	-0.053	-0.155
-238.888	305.730	0.037	-0.068
-237.873	-83.045	-0.195	0.063
-236.859	311.153	-0.115	-0.216
-235.844	82.861	0.105	0.114
-234.830	-24.805	-0.301	0.179
-233.815	249.925	0.137	-0.233
-232.800	-161.055	0.211	0.011
-231.786	424.296	0.074	0.161
-230.771	89.319	0.171	0.192
-229.757	-200.000	0.013	-0.072
-228.742	-10.817	0.215	0.142
-227.727	183.532	-0.151	-0.223
-226.713	249.715	0.150	0.255
-225.698	28.437	-0.087	0.074
-224.684	-200.000	-0.004	-0.289
-223.669	18.603	-0.144	0.116
-222.655	-18.834	0.173	-0.108
-221.640	-37.479	-0.217	0.116
-220.625	-154.993	-0.254	-0.017
-219.611	88.964	0.092	0.103
-218.596	-59.162	-0.321	0.139
-217.582	52.170	0.198	-0.190
-216.567	-112.830	0.292	-0.058
-215.552	-200.000	-0.021	-0.457
-214.538	-27.644	0.162	-0.094
-213.523	-6.622	-0.088	0.060
-212.509	-200.000	0.045	-0.235
-211.494	-200.000	0.003	-0.056
-210.479	-96.667	-0.482	0.127
-209.465	-200.000	-0.025	0.295
-208.450	393.273	0.096	0.201
-207.436	44.355	-0.198	0.182
-206.421	685.013	-0.096	-0.251
-205.406	38.356	0.059	-0.052
-204.392	-200.000	-0.022	0.254
-203.377	-32.166	0.139	-0.078
-202.363	368.270	-0.124	0.252
-201.348	360.713	-0.063	-0.126
-200.333	-128.692	-0.161	0.023
-199.319	158.539	-0.142	0.198
-198.304	-90.209	-0.179	-0.052
-197.290	-200.000	-0.043	-0.195
-196.275	-32.647	-0.330	0.184
-195.260	-50.402	0.218	0.103
-194.246	78.645	-0.139	0.149
-193.231	-72.667	0.178	0.066
-192.217	-147.341	-0.218	-0.019
-191.202	-200.000	0.041	0.219
-190.187	18.042	-0.100	0.080
-189.173	108.028	-0.179	0.213
-188.158	-90.210	-0.398	-0.116
-187.144	-200.000	0.002	0.125
-186.129	-119.407	-0.176	-0.031
-185.114	-200.000	-0.094	-0.000
-184.100	-48.749	0.217	-0.104
-183.085	24.191	0.129	-0.106
-182.071	-200.000	0.003	0.027
-181.056	80.972	0.077	-0.083
-180.042	-200.000	-0.013	0.094
-179.027	-109.077	0.322	-0.069
-178.012	800.000	0.120	-0.385
-176.998	32.580	-0.128	-0.111
-175.983	-127.974	-0.152	0.022
-174.969	3.979	-0.093	0.068
-173.954	348.101	0.056	-0.111
-172.939	-88.183	-0.416	0.125
-171.925	61.392	0.050	0.050
-170.910	53.746	0.151	0.145
-169.896	81.079	0.222	0.240
-168.881	140.458	0.180	-0.238
-167.866	-2.793	0.180	-0.126
-166.852	14.830	-0.162	-0.127
-165.837	472.765	-0.132	-0.298
-164.823	42.146	0.128	0.116
-163.808	210.555	0.088	-0.139
-162.793	247.505	-0.083	-0.141
-161.779	-100.062	0.186	-0.046
-160.764	-23.512	0.196	-0.118
-159.750	14.345	-0.246	-0.192
-158.735	-180.497	0.155	-0.003
-157.720	-69.699	-0.057	0.022
-156.706	284.741	-0.203	0.365
-155.691	-19.599	-0.219	0.135
-154.677	-200.000	-0.009	0.117
-153.662	800.000	0.065	-0.188
-152.647	-157.011	0.120	0.007
-151.633	800.000	0.063	-0.270
-150.618	-97.184	0.419	0.109
-149.604	-115.892	-0.324	-0.060
-148.589	229.609	0.078	0.127
-147.574	-103.984	-0.199	0.046
-146.560	165.814	0.047	0.067
-145.545	487.603	-0.163	0.371
-144.531	-20.624	0.442	0.271
-143.516	-103.073	-0.156	0.037
-142.502	-200.000	-0.004	-0.025
-141.487	391.081	0.100	0.208
-140.472	20.829	0.122	0.099
-139.458	-113.442	0.285	-0.056
-138.443	-200.000	0.041	0.289
-137.429	-93.092	-0.260	0.072
-136.414	651.552	-0.054	-0.137
-135.399	-200.000	0.111	0.562
-134.385	-28.284	0.382	0.221
-133.370	-3.164	0.264	-0.184
-132.356	256.219	-0.050	0.085
-131.341	800.000	0.050	0.151
-130.326	-118.425	0.456	-0.081
-129.312	800.000	0.073	-0.209
-128.297	325.234	-0.098	-0.187
-127.283	185.595	-0.112	0.166
-126.268	23.402	-0.088	0.072
-125.253	39.733	-0.169	0.151
-124.239	708.150	0.085	-0.224
-123.224	-20.823	0.259	0.159
-122.210	112.907	0.426	0.515
-121.195	495.377	-0.103	-0.237
