DTS Sentinel unit serial number:	SN413079Multiplexer serial number:	ORYXHardware model number:	OX4-SRSoftware version number:	ORYX F/W v4.00 Oryx Data Collector v3.7.2.0data status	okinstallation	princeton_trtdifferential loss correction	single-endedforward channel	channel 2reverse channel	N/Adate	2019/09/11time	19:53:11forward acquisition time	60.00reverse acquisition time	0.00gamma	496.2192k internal	0.2311k external	0.2311temperature offset calibration	1.0053default loss term (dB/km)	0.3790temperature slope calibration	1.0000multiplexer offset coefficient	1.0000multiplexer slope coefficient	1.0000fibre end	0.00T internal ref (°C)	39.14T ext. ref 1 (°C)	1.35T ext. ref 2 (°C)	32.06length (m)	temperature (°C)	Stokes	anti-Stokes-747.200	328.444	-0.094	0.183
-746.185	-200.000	-0.000	0.180
-745.171	-102.175	-0.063	-0.015
-744.156	-200.000	-0.027	0.307
-743.142	-55.977	-0.162	-0.074
-742.127	-13.514	-0.162	0.106
-741.112	30.007	-0.143	-0.123
-740.098	9.874	0.104	0.080
-739.083	800.000	0.018	0.072
-738.069	-200.000	-0.013	0.215
-737.054	11.882	-0.166	0.130
-736.039	-66.579	-0.177	-0.071
-735.025	24.706	-0.174	0.146
-734.010	800.000	-0.033	0.133
-732.996	226.658	-0.203	0.335
-731.981	800.000	-0.049	-0.209
-730.966	582.519	-0.116	-0.290
-729.952	-69.416	0.443	0.172
-728.937	136.587	-0.178	0.235
-727.923	800.000	-0.038	-0.127
-726.908	83.664	0.201	-0.223
-725.894	-96.538	-0.142	-0.038
-724.879	-96.896	-0.389	-0.104
-723.864	-87.459	0.340	-0.104
-722.850	-143.693	0.324	0.031
-721.835	52.378	-0.034	-0.033
-720.821	76.341	-0.215	-0.231
-719.806	-54.422	-0.197	0.091
-718.791	77.805	0.149	0.161
-717.777	46.918	-0.272	0.257
-716.762	10.159	0.091	-0.070
-715.748	800.000	0.132	-0.430
-714.733	-200.000	0.014	-0.353
-713.718	-5.408	0.097	-0.068
-712.704	10.874	-0.084	0.065
-711.689	-200.000	0.121	0.001
-710.675	-200.000	0.034	0.185
-709.660	-121.081	0.333	-0.057
-708.645	-200.000	0.041	-0.276
-707.631	-139.322	-0.181	-0.020
-706.616	155.674	0.006	0.008
-705.602	800.000	-0.063	-0.220
-704.587	-122.103	-0.206	-0.034
-703.572	40.938	0.093	-0.085
-702.558	-104.055	-0.149	-0.035
-701.543	7.238	-0.153	-0.116
-700.529	176.648	0.118	-0.173
-699.514	-200.000	-0.035	0.518
-698.499	-61.016	0.044	-0.019
-697.485	139.847	0.104	-0.139
-696.470	-58.089	0.056	0.025
-695.456	-197.449	0.167	-0.001
-694.441	-10.167	-0.195	-0.131
-693.426	-200.000	0.011	-0.069
-692.412	207.911	0.130	-0.206
-691.397	4.165	0.196	0.145
-690.383	268.761	0.090	0.159
-689.368	-200.000	-0.050	-0.254
-688.354	-200.000	0.011	-0.106
-687.339	-70.442	-0.242	-0.093
-686.324	152.135	-0.199	-0.276
-685.310	19.199	-0.101	0.082
-684.295	-94.960	-0.275	-0.075
-683.281	800.000	-0.063	-0.252
-682.266	-83.503	0.258	0.084
-681.251	222.819	0.061	-0.099
-680.237	-200.000	-0.055	-0.250
-679.222	2.672	0.061	0.044
-678.208	-83.083	-0.317	-0.103
-677.193	38.872	-0.048	0.043
-676.178	-12.705	-0.312	0.206
-675.164	349.928	-0.133	0.266
-674.149	234.761	0.128	0.213
-673.135	-95.438	0.159	-0.043
-672.120	-62.690	-0.024	0.010
-671.105	70.830	-0.124	-0.130
-670.091	711.390	-0.042	-0.113
-669.076	720.955	0.038	-0.102
-668.062	800.000	0.121	-0.486
-667.047	-122.078	-0.359	-0.060
-666.032	-152.166	0.171	-0.013
-665.018	-45.102	-0.167	-0.084
-664.003	38.315	-0.128	0.115
-662.989	108.571	0.170	0.206
-661.974	800.000	-0.087	-0.307
-660.959	-96.180	0.259	0.070
-659.945	89.948	0.084	-0.095
-658.930	123.140	-0.150	-0.191
-657.916	800.000	0.152	-0.465
-656.901	-200.000	-0.038	-0.219
-655.886	67.112	-0.186	0.192
-654.872	33.156	-0.268	0.235
-653.857	-42.243	-0.156	-0.081
-652.843	170.097	0.341	-0.493
-651.828	-108.686	-0.218	0.047
-650.814	-200.000	-0.008	-0.093
-649.799	-90.159	0.351	0.103
-648.784	-18.296	-0.160	0.101
-647.770	-200.000	0.010	0.226
-646.755	-52.769	-0.090	0.042
-645.741	-64.313	0.247	0.102
-644.726	-24.089	0.144	0.087
-643.711	259.866	0.067	0.118
-642.697	-60.379	-0.304	0.131
-641.682	-83.615	-0.061	-0.020
-640.668	-131.573	0.293	0.039
-639.653	599.387	-0.059	-0.148
-638.638	-193.971	0.404	0.003
-637.624	537.412	-0.066	0.158
-636.609	-98.944	-0.211	0.054
-635.595	-113.473	-0.133	0.026
-634.580	-60.330	-0.246	-0.106
-633.565	-76.361	-0.437	0.155
-632.551	-69.175	0.156	-0.061
-631.536	-2.351	0.267	0.189
-630.522	-24.803	0.119	-0.072
-629.507	11.901	-0.132	-0.103
-628.492	800.000	0.007	-0.025
-627.478	15.729	-0.347	-0.276
-626.463	542.889	-0.013	0.030
-625.449	86.460	0.245	-0.273
-624.434	39.673	0.340	-0.308
-623.419	-30.409	-0.021	-0.012
-622.405	-200.000	0.000	-0.233
-621.390	-106.480	-0.131	-0.030
-620.376	-67.408	0.264	0.105
-619.361	560.673	0.131	0.320
-618.346	800.000	-0.054	0.174
-617.332	-44.102	-0.354	-0.180
-616.317	800.000	-0.139	-0.485
-615.303	65.815	0.357	-0.365
-614.288	-67.700	-0.129	0.051
-613.273	-16.205	-0.435	0.279
-612.259	36.123	-0.192	0.171
-611.244	-10.884	0.094	-0.063
-610.230	-61.341	0.176	-0.075
-609.215	3.964	0.365	-0.269
-608.201	-117.472	0.087	-0.016
-607.186	310.959	0.045	-0.085
-606.171	800.000	0.034	-0.114
-605.157	-200.000	-0.025	-0.212
-604.142	-177.159	0.207	-0.005
-603.128	92.008	0.124	0.141
-602.113	800.000	-0.056	-0.213
-601.098	76.244	-0.199	-0.213
-600.084	-200.000	-0.113	0.829
-599.069	800.000	-0.118	0.445
-598.055	-62.611	-0.159	-0.066
-597.040	-19.785	0.228	-0.142
-596.025	-38.552	-0.175	0.094
-595.011	136.499	0.062	-0.081
-593.996	-99.649	-0.078	-0.020
-592.982	70.965	0.336	-0.352
-591.967	197.998	0.161	0.248
-590.952	108.623	0.136	-0.164
-589.938	-116.700	-0.446	-0.083
-588.923	-82.884	0.062	0.020
-587.909	-7.628	0.142	0.097
-586.894	35.542	-0.070	-0.062
-585.879	68.230	-0.082	-0.085
-584.865	-47.755	-0.515	0.252
-583.850	394.707	-0.206	-0.433
-582.836	800.000	-0.009	-0.031
-581.821	-51.507	0.155	-0.073
-580.806	171.802	-0.043	-0.062
-579.792	635.077	0.109	0.279
-578.777	37.184	0.156	-0.140
-577.763	-200.000	0.008	0.212
-576.748	716.228	-0.092	0.246
-575.733	-200.000	0.041	0.226
-574.719	-100.163	0.235	-0.059
-573.704	-97.052	-0.188	0.050
-572.690	-4.240	-0.202	-0.141
-571.675	-173.019	0.080	0.003
-570.661	-191.365	0.250	0.003
-569.646	-78.405	-0.283	-0.098
-568.631	-170.378	0.530	0.019
-567.617	99.096	-0.172	0.200
-566.602	523.934	0.057	0.135
-565.588	-200.000	-0.012	0.075
-564.573	-25.076	0.223	0.133
-563.558	-200.000	0.011	0.104
-562.544	-200.000	-0.029	0.146
-561.529	-81.795	-0.119	-0.039
-560.515	-36.015	0.187	0.102
-559.500	132.691	-0.114	-0.149
-558.485	-137.775	-0.250	-0.028
-557.471	-19.984	-0.334	0.208
-556.456	127.708	-0.256	0.328
-555.442	-121.538	-0.207	0.035
-554.427	-32.954	0.217	-0.122
-553.412	-1.613	0.079	-0.056
-552.398	55.995	0.243	-0.237
-551.383	86.592	-0.092	-0.103
-550.369	400.761	0.066	-0.139
-549.354	-80.592	0.382	0.128
-548.339	420.368	0.028	0.061
-547.325	-57.724	-0.090	0.040
-546.310	800.000	0.093	0.319
-545.296	181.766	0.131	-0.195
-544.281	270.717	-0.201	0.357
-543.266	-200.000	-0.002	-0.159
-542.252	-200.000	-0.018	0.345
-541.237	253.013	-0.166	0.285
-540.223	-200.000	0.005	-0.344
-539.208	404.583	0.062	0.131
-538.193	647.682	0.036	-0.092
-537.179	14.075	0.066	0.052
-536.164	329.140	0.093	0.180
-535.150	426.793	0.068	-0.149
-534.135	31.255	-0.195	0.169
-533.121	479.596	0.117	0.266
-532.106	-184.521	-0.175	0.003
-531.091	-200.000	-0.046	-0.228
-530.077	800.000	-0.118	0.335
-529.062	465.401	0.087	-0.197
-528.048	-200.000	0.017	0.126
-527.033	-108.496	0.050	0.011
-526.018	116.144	0.134	-0.165
-525.004	-57.266	0.345	0.153
-523.989	-46.270	0.083	-0.041
-522.975	-26.444	-0.070	-0.041
-521.960	436.525	0.055	0.120
-520.945	117.652	0.125	-0.155
-519.931	427.625	-0.157	0.341
-518.916	800.000	-0.052	0.186
-517.902	59.883	-0.232	0.231
-516.887	-87.942	-0.186	0.056
-515.872	-99.990	-0.374	0.094
-514.858	-3.107	0.250	-0.175
-513.843	800.000	-0.050	-0.211
-512.829	-3.309	0.216	0.151
-511.814	-22.081	0.327	0.200
-510.799	-200.000	0.046	-0.223
-509.785	-121.605	-0.134	-0.022
-508.770	-200.000	0.007	-0.311
-507.756	6.636	0.329	0.246
-506.741	-169.766	-0.224	0.008
-505.726	-128.188	0.059	0.008
-504.712	-11.027	-0.180	0.120
-503.697	129.455	0.068	0.088
-502.683	-11.543	0.288	-0.191
-501.668	-133.934	0.160	-0.020
-500.653	-120.336	-0.125	0.021
-499.639	-0.825	0.208	-0.148
-498.624	-149.129	-0.219	-0.018
-497.610	132.702	-0.025	0.032
-496.595	27.620	0.123	-0.104
-495.581	-158.441	0.381	-0.022
-494.566	43.713	-0.053	0.049
-493.551	-90.414	-0.291	0.085
-492.537	-136.374	0.173	0.020
-491.522	-142.898	-0.455	0.044
-490.508	4.919	-0.230	-0.170
-489.493	60.475	-0.259	-0.258
-488.478	-126.263	0.108	0.016
-487.464	559.788	-0.132	0.320
-486.449	51.300	-0.270	-0.258
-485.435	198.076	-0.069	0.105
-484.420	800.000	-0.092	-0.353
-483.405	-26.458	-0.161	-0.095
-482.391	-21.471	-0.090	-0.055
-481.376	-47.291	0.123	0.060
-480.362	123.173	0.275	-0.346
-479.347	394.188	-0.069	0.145
-478.332	-12.075	-0.189	-0.124
-477.318	-104.171	0.158	0.037
-476.303	45.163	-0.371	0.344
-475.289	-112.603	0.147	-0.029
-474.274	800.000	0.041	0.131
-473.259	-0.491	-0.319	-0.227
-472.245	-47.902	-0.056	-0.027
-471.230	-200.000	0.088	-0.405
-470.216	305.076	0.201	0.376
-469.201	314.630	-0.175	0.332
-468.186	-5.174	-0.067	0.046
-467.172	-112.728	0.228	0.045
-466.157	-19.012	0.046	-0.029
-465.143	-200.000	0.001	-0.072
-464.128	61.011	-0.066	-0.066
-463.113	-18.601	-0.292	0.183
-462.099	346.369	-0.103	0.203
-461.084	146.790	0.148	0.200
-460.070	-109.280	-0.178	-0.038
-459.055	98.562	-0.214	-0.248
-458.040	37.272	-0.065	-0.058
-457.026	95.613	0.046	-0.052
-456.011	74.476	0.411	-0.434
-454.997	-25.927	0.071	-0.042
-453.982	800.000	0.027	0.077
-452.968	-18.751	-0.181	0.113
-451.953	247.881	-0.056	-0.096
-450.938	611.042	0.032	-0.081
-449.924	-167.529	-0.186	-0.007
-448.909	-200.000	-0.019	0.158
-447.895	44.634	0.242	-0.224
-446.880	-8.082	-0.208	0.141
-445.865	-47.566	0.198	0.096
-444.851	-38.282	0.188	0.100
-443.836	117.675	-0.189	-0.233
-442.822	-142.314	0.175	0.017
-441.807	49.482	-0.276	-0.261
-440.792	-98.339	0.395	-0.102
-439.778	-12.011	-0.195	0.128
-438.763	144.912	0.103	-0.138
-437.749	-40.586	0.244	0.127
-436.734	406.480	-0.145	0.307
-435.719	-8.007	-0.114	0.077
-434.705	-200.000	-0.008	0.072
-433.690	-23.854	0.133	-0.080
-432.676	-59.297	-0.159	0.069
-431.661	800.000	0.020	-0.058
-430.646	119.923	0.015	0.019
-429.632	113.002	0.136	0.165
-428.617	64.606	-0.190	0.192
-427.603	51.241	0.106	0.101
-426.588	73.925	0.214	-0.225
-425.573	-200.000	0.039	-0.196
-424.559	460.652	-0.130	0.291
-423.544	-38.017	-0.172	0.092
-422.530	-78.880	0.488	-0.167
-421.515	236.991	0.032	-0.054
-420.500	-200.000	-0.035	0.246
-419.486	-173.338	0.292	0.009
-418.471	492.905	-0.083	-0.191
-417.457	2.947	-0.037	0.027
-416.442	-200.000	-0.030	0.313
-415.428	-88.011	-0.240	0.072
-414.413	224.186	0.177	-0.286
-413.398	-17.724	-0.043	0.027
-412.384	-2.278	0.392	-0.276
-411.369	-35.427	0.143	-0.078
-410.355	800.000	-0.074	0.222
-409.340	328.887	0.109	-0.211
-408.325	800.000	0.106	-0.365
-407.311	-200.000	-0.067	-0.335
-406.296	4.383	-0.346	-0.255
-405.282	51.071	0.007	-0.007
-404.267	-200.000	-0.018	-0.135
-403.252	109.750	-0.260	0.312
-402.238	-113.152	-0.174	0.034
-401.223	86.072	-0.047	-0.052
-400.209	-67.329	-0.193	-0.076
-399.194	-172.489	-0.247	0.008
-398.179	307.609	0.043	0.080
-397.165	160.147	-0.093	-0.129
-396.150	387.076	-0.136	-0.282
-395.136	-200.000	-0.018	0.192
-394.121	29.586	-0.329	0.281
-393.106	381.281	-0.087	0.179
-392.092	-200.000	0.041	-0.251
-391.077	-82.947	0.210	0.068
-390.063	-200.000	-0.006	-0.140
-389.048	-68.847	0.334	0.129
-388.033	69.419	0.163	-0.168
-387.019	-85.175	-0.045	-0.014
-386.004	293.636	-0.043	0.078
-384.990	-200.000	0.041	-0.276
-383.975	-200.000	0.008	0.314
-382.960	-73.112	-0.239	0.088
-381.946	94.672	-0.093	-0.106
-380.931	-121.885	-0.332	-0.055
-379.917	23.187	-0.254	0.209
-378.902	83.384	-0.101	-0.110
-377.888	-27.078	0.154	-0.090
-376.873	248.225	-0.046	-0.078
-375.858	37.931	0.171	0.152
-374.844	-51.023	0.400	0.188
-373.829	-172.501	-0.282	0.009
-372.815	800.000	-0.080	-0.338
-371.800	90.405	-0.083	0.093
-370.785	-95.530	0.091	-0.024
-369.771	800.000	-0.039	-0.109
-368.756	10.469	-0.042	-0.032
-367.742	-59.387	0.220	0.095
-366.727	-38.414	-0.266	0.141
-365.712	-200.000	0.051	0.441
-364.698	-72.442	0.110	0.041
-363.683	-19.526	0.156	0.097
-362.669	87.760	-0.045	-0.049
-361.654	-9.627	0.248	0.166
-360.639	800.000	0.060	-0.216
-359.625	800.000	-0.123	-0.345
-358.610	195.727	0.098	0.149
-357.596	25.114	0.038	-0.031
-356.581	-101.434	-0.168	0.041
-355.566	287.477	0.177	-0.319
-354.552	-69.168	-0.189	-0.073
-353.537	-200.000	0.029	-0.153
-352.523	-200.000	-0.065	-0.000
-351.508	-10.618	-0.358	-0.237
-350.493	-200.000	0.035	0.184
-349.479	800.000	-0.051	0.155
-348.464	-106.593	0.415	0.092
-347.450	504.127	0.005	0.012
-346.435	79.339	-0.090	-0.096
-345.420	113.539	-0.031	-0.038
-344.406	168.843	-0.271	-0.387
-343.391	175.334	-0.131	0.190
-342.377	-137.461	-0.218	0.025
-341.362	32.405	0.097	0.084
-340.348	256.751	-0.055	0.095
-339.333	621.872	0.102	-0.256
-338.318	-128.666	0.097	-0.014
-337.304	775.782	-0.051	0.139
-336.289	373.826	-0.115	-0.235
-335.275	303.083	0.090	0.167
-334.260	-69.173	0.134	0.051
-333.245	-31.623	0.073	0.041
-332.231	37.072	0.183	0.162
-331.216	244.526	0.084	0.140
-330.202	800.000	0.061	-0.189
-329.187	-200.000	-0.006	-0.046
-328.172	-144.435	0.256	0.024
-327.158	101.699	0.227	-0.265
-326.143	-66.933	0.084	0.033
-325.129	74.470	-0.200	0.210
-324.114	-101.496	0.212	-0.052
-323.099	240.268	-0.253	0.422
-322.085	800.000	-0.033	0.120
-321.070	10.047	-0.128	0.097
-320.056	-31.756	0.132	0.074
-319.041	-35.347	0.149	0.081
-318.026	43.972	0.041	-0.037
-317.012	-168.279	0.195	-0.008
-315.997	-79.915	0.291	-0.098
-314.983	190.840	-0.099	-0.149
-313.968	340.669	0.113	-0.220
-312.953	87.893	-0.246	-0.272
-311.939	800.000	-0.168	-0.477
-310.924	-200.000	0.015	-0.075
-309.910	12.946	-0.231	0.178
-308.895	70.937	0.203	-0.210
-307.880	314.685	-0.099	-0.186
-306.866	143.579	0.246	-0.327
-305.851	800.000	0.083	0.274
-304.837	-200.000	0.041	0.307
-303.822	175.028	-0.149	-0.216
-302.807	-200.000	-0.007	-0.128
-301.793	342.184	-0.109	0.213
-300.778	-200.000	0.068	0.315
-299.764	800.000	-0.049	-0.142
-298.749	-109.547	-0.143	-0.030
-297.735	58.457	0.075	0.073
-296.720	80.862	0.074	0.080
-295.705	-200.000	-0.046	0.483
-294.691	539.283	-0.118	-0.279
-293.676	-200.000	0.002	0.012
-292.662	-50.589	0.091	0.043
-291.647	-115.407	-0.469	-0.088
-290.632	205.229	0.105	0.162
-289.618	136.115	-0.115	0.150
-288.603	-200.000	-0.014	0.099
-287.589	231.063	0.185	0.302
-286.574	-14.991	0.086	-0.055
-285.559	-200.000	0.020	0.511
-284.545	60.583	-0.099	-0.098
-283.530	-154.612	0.157	-0.010
-282.516	-8.075	-0.261	-0.176
-281.501	-58.270	0.249	-0.108
-280.486	-47.692	-0.210	0.102
-279.472	782.780	-0.067	0.182
-278.457	5.674	0.429	-0.316
-277.443	-92.157	-0.259	-0.073
-276.428	-43.756	0.251	0.126
-275.413	-200.000	0.001	-0.175
-274.399	8.562	0.171	-0.128
-273.384	-16.648	-0.172	0.108
-272.370	390.047	-0.007	-0.014
-271.355	194.118	-0.293	0.443
-270.340	-136.853	-0.024	-0.003
-269.326	63.109	-0.154	0.154
-268.311	-16.971	-0.157	0.099
-267.297	-92.427	0.296	-0.083
-266.282	158.431	-0.186	-0.258
-265.267	565.710	0.035	-0.084
-264.253	-200.000	-0.039	0.344
-263.238	176.817	-0.098	0.142
-262.224	-97.718	-0.177	-0.046
-261.209	245.890	0.109	0.183
-260.195	152.639	0.349	-0.474
-259.180	-126.225	0.209	0.031
-258.165	800.000	0.058	0.207
-257.151	-43.088	0.320	0.161
-256.136	227.378	-0.085	0.137
-255.122	440.527	-0.062	-0.135
-254.107	-137.328	-0.317	0.036
-253.092	66.510	-0.051	0.051
-252.078	374.112	-0.132	0.268
-251.063	-200.000	0.016	-0.093
-250.049	67.283	0.194	-0.197
-249.034	82.231	0.105	-0.113
-248.019	-35.326	0.227	0.123
-247.005	-156.864	-0.180	-0.011
-245.990	-200.000	-0.020	-0.133
-244.976	442.029	0.061	0.133
-243.961	601.168	-0.127	-0.315
-242.946	-200.000	0.021	-0.295
-241.932	-12.444	-0.188	-0.122
-240.917	-16.669	0.211	-0.133
-239.903	-138.704	-0.043	0.005
-238.888	317.106	0.227	-0.427
-237.873	800.000	-0.007	0.027
-236.859	354.776	-0.086	0.171
-235.844	-145.159	0.060	-0.005
-234.830	-26.745	-0.126	-0.073
-233.815	98.854	-0.118	0.135
-232.800	800.000	0.035	-0.124
-231.786	172.723	-0.111	-0.159
-230.771	392.914	-0.044	-0.092
-229.757	800.000	0.090	-0.316
-228.742	-200.000	-0.006	-0.039
-227.727	-95.344	-0.218	-0.058
-226.713	-109.733	0.224	0.047
-225.698	196.169	0.165	-0.251
-224.684	-200.000	-0.004	0.335
-223.669	-200.000	-0.056	0.250
-222.655	-119.522	0.348	-0.060
-221.640	519.892	0.064	-0.150
-220.625	566.141	0.078	-0.187
-219.611	-33.095	-0.060	-0.033
-218.596	-132.619	-0.175	-0.022
-217.582	117.921	-0.055	0.067
-216.567	541.090	0.049	0.116
-215.552	285.495	0.077	0.137
-214.538	65.276	-0.197	-0.198
-213.523	-200.000	0.007	0.111
-212.509	17.410	-0.151	-0.119
-211.494	800.000	-0.058	0.245
-210.479	-200.000	0.018	0.111
-209.465	-185.694	-0.067	-0.001
-208.450	-55.785	0.111	0.050
-207.436	-179.786	0.158	-0.003
-206.421	-200.000	-0.031	0.149
-205.406	37.879	-0.200	-0.177
-204.392	-200.000	0.116	0.551
-203.377	-102.152	0.100	-0.024
-202.363	-80.122	0.248	-0.083
-201.348	-80.537	-0.396	-0.131
-200.333	-127.571	0.194	-0.028
-199.319	613.073	-0.061	0.152
-198.304	-43.949	0.179	0.090
-197.290	-37.783	0.220	-0.116
-196.275	-88.809	-0.124	-0.037
-195.260	311.433	-0.044	-0.083
-194.246	-65.934	0.218	-0.086
-193.231	800.000	-0.049	0.211
-192.217	-200.000	0.004	-0.217
-191.202	39.814	-0.176	-0.157
-190.187	-200.000	0.007	0.115
-189.173	-155.055	0.057	0.004
-188.158	26.506	0.124	-0.103
-187.144	-42.682	-0.320	-0.162
-186.129	-117.698	0.313	0.056
-185.114	-58.190	0.164	-0.071
-184.100	800.000	-0.079	-0.219
-183.085	-182.685	0.142	0.003
-182.071	-114.973	-0.225	0.043
-181.056	240.147	-0.048	-0.079
-180.042	-200.000	0.038	0.419
-179.027	203.186	0.113	0.174
-178.012	208.302	0.143	-0.222
-176.998	26.985	0.216	-0.180
-175.983	-173.547	0.264	-0.008
-174.969	-200.000	-0.002	0.103
-173.954	-200.000	-0.044	-0.228
-172.939	-200.000	0.050	-0.269
-171.925	148.567	0.175	0.234
-170.910	-136.113	-0.228	0.027
-169.896	44.200	-0.128	0.116
-168.881	747.815	0.019	-0.052
-167.866	-131.556	-0.120	-0.016
-166.852	800.000	-0.051	-0.220
-165.837	-61.204	-0.313	0.131
-164.823	-31.930	0.157	-0.087
-163.808	-38.363	-0.202	0.106
-162.793	800.000	-0.029	0.122
-161.779	800.000	0.060	-0.193
-160.764	-200.000	0.047	-0.210
-159.750	129.956	0.136	0.173
-158.735	-200.000	0.003	-0.176
-157.720	-145.340	-0.109	0.010
-156.706	-95.662	-0.144	-0.038
-155.691	96.254	-0.086	0.098
-154.677	595.283	0.122	-0.300
-153.662	800.000	0.041	0.131
-152.647	800.000	0.070	0.232
-151.633	-7.317	0.049	-0.033
-150.618	-75.068	0.223	0.079
-149.604	-51.453	-0.190	-0.088
-148.589	104.717	-0.150	0.176
-147.574	95.596	-0.172	0.194
-146.560	311.914	-0.032	-0.060
-145.545	-110.271	0.183	-0.038
-144.531	-200.000	-0.015	0.194
-143.516	18.127	0.370	-0.293
-142.502	469.853	0.175	0.389
-141.487	192.715	-0.222	0.332
-140.472	-44.588	0.129	0.064
-139.458	-200.000	-0.043	-0.194
-138.443	-190.640	-0.402	-0.004
-137.429	19.333	-0.172	0.137
-136.414	43.613	-0.066	-0.059
-135.399	-200.000	0.081	0.365
-134.385	-81.052	0.023	0.008
-133.370	-200.000	0.000	0.098
-132.356	17.966	-0.157	0.124
-131.341	-79.449	0.435	0.146
-130.326	-44.759	-0.129	0.064
-129.312	-98.400	0.270	0.069
-128.297	800.000	0.094	0.401
-127.283	-200.000	0.078	0.356
-126.268	-48.576	0.315	-0.150
-125.253	-200.000	0.028	-0.197
-124.239	-200.000	-0.012	-0.092
-123.224	-125.206	-0.202	-0.031
-122.210	2.101	-0.179	0.128
-121.195	437.449	-0.073	-0.158
