DTS Sentinel unit serial number:	SN413079Multiplexer serial number:	ORYXHardware model number:	OX4-SRSoftware version number:	ORYX F/W v4.00 Oryx Data Collector v3.7.2.0data status	okinstallation	princeton_trtdifferential loss correction	single-endedforward channel	channel 2reverse channel	N/Adate	2019/09/13time	03:19:35forward acquisition time	60.00reverse acquisition time	0.00gamma	496.2192k internal	0.2334k external	0.2334temperature offset calibration	1.0189default loss term (dB/km)	0.3790temperature slope calibration	1.0000multiplexer offset coefficient	1.0000multiplexer slope coefficient	1.0000fibre end	0.00T internal ref (°C)	27.37T ext. ref 1 (°C)	4.09T ext. ref 2 (°C)	22.05length (m)	temperature (°C)	Stokes	anti-Stokes-747.200	4.222	0.168	-0.124
-746.185	-49.723	0.440	0.210
-745.171	-37.136	-0.250	0.134
-744.156	128.029	0.019	-0.024
-743.142	142.815	-0.177	0.236
-742.127	-20.953	0.319	-0.196
-741.112	-47.968	0.100	-0.049
-740.098	800.000	0.033	-0.098
-739.083	-200.000	0.005	-0.033
-738.069	-134.316	-0.076	0.009
-737.054	-142.493	0.396	-0.039
-736.039	578.810	-0.078	0.192
-735.025	-200.000	-0.017	0.278
-734.010	130.734	-0.026	-0.034
-732.996	-200.000	-0.029	-0.317
-731.981	79.296	-0.161	-0.174
-730.966	109.589	0.073	-0.088
-729.952	-42.170	-0.183	-0.094
-728.937	-32.600	0.201	-0.113
-727.923	305.540	-0.126	-0.235
-726.908	206.711	-0.035	0.055
-725.894	47.675	-0.152	-0.143
-724.879	236.713	-0.172	-0.285
-723.864	475.899	-0.084	-0.192
-722.850	-8.872	0.130	-0.087
-721.835	-76.205	0.293	-0.104
-720.821	2.936	-0.223	-0.162
-719.806	479.113	-0.059	0.135
-718.791	-13.466	0.387	-0.252
-717.777	-200.000	0.019	0.216
-716.762	-200.000	0.011	-0.147
-715.748	800.000	0.015	-0.060
-714.733	48.117	0.386	-0.362
-713.718	13.385	0.231	-0.179
-712.704	800.000	0.071	-0.275
-711.689	38.258	-0.087	-0.078
-710.675	-4.679	-0.123	-0.085
-709.660	800.000	0.041	-0.116
-708.645	419.039	0.108	0.232
-707.631	800.000	0.039	0.126
-706.616	-200.000	-0.014	0.127
-705.602	800.000	0.061	-0.196
-704.587	-200.000	-0.017	-0.289
-703.572	-61.835	0.090	0.038
-702.558	82.875	0.128	0.140
-701.543	-200.000	0.043	0.209
-700.529	81.365	-0.178	-0.193
-699.514	-124.729	-0.235	0.036
-698.499	-58.521	-0.192	0.084
-697.485	-200.000	0.011	0.099
-696.470	-200.000	-0.025	-0.366
-695.456	800.000	0.045	-0.184
-694.441	212.397	0.211	-0.333
-693.426	294.743	0.041	0.075
-692.412	-97.974	-0.150	0.039
-691.397	800.000	-0.066	0.240
-690.383	189.268	-0.260	-0.391
-689.368	399.872	0.058	0.122
-688.354	27.912	0.124	-0.105
-687.339	-86.435	0.126	0.039
-686.324	-166.455	0.144	-0.006
-685.310	-2.695	0.138	-0.097
-684.295	-182.831	-0.311	-0.006
-683.281	-85.184	0.266	-0.083
-682.266	-140.113	-0.135	-0.014
-681.251	-128.324	0.130	0.019
-680.237	5.242	0.037	-0.028
-679.222	29.648	0.371	0.316
-678.208	99.738	-0.242	0.281
-677.193	521.467	-0.099	0.232
-676.178	800.000	0.011	0.030
-675.164	119.915	-0.185	0.230
-674.149	98.729	-0.453	0.524
-673.135	748.084	-0.026	-0.069
-672.120	79.544	-0.070	-0.075
-671.105	22.969	0.178	0.146
-670.091	89.694	0.062	-0.069
-669.076	-152.206	0.176	0.013
-668.062	41.494	-0.194	-0.176
-667.047	-132.572	-0.129	0.017
-666.032	170.239	0.208	-0.298
-665.018	11.203	-0.157	0.121
-664.003	67.800	0.114	0.117
-662.989	-200.000	0.039	0.174
-661.974	26.372	-0.023	-0.020
-660.959	-94.202	-0.114	0.031
-659.945	-102.406	0.338	-0.081
-658.930	-57.101	0.318	0.141
-657.916	21.761	0.248	-0.202
-656.901	588.523	0.063	-0.154
-655.886	-200.000	0.014	0.118
-654.872	-9.587	0.135	0.090
-653.857	84.482	-0.174	-0.191
-652.843	42.851	0.031	0.029
-651.828	-15.157	-0.043	-0.028
-650.814	-24.776	0.124	-0.074
-649.799	78.309	0.254	-0.271
-648.784	-45.876	0.058	0.029
-647.770	510.917	-0.024	-0.056
-646.755	800.000	-0.034	0.145
-645.741	166.277	-0.137	-0.195
-644.726	-33.370	0.371	0.206
-643.711	-80.623	0.063	0.021
-642.697	-138.701	-0.112	0.012
-641.682	800.000	-0.039	0.115
-640.668	-3.183	0.136	0.095
-639.653	800.000	0.139	0.505
-638.638	-88.476	0.248	-0.074
-637.624	-200.000	-0.009	-0.211
-636.609	-180.610	-0.295	-0.006
-635.595	-92.167	0.056	0.016
-634.580	-2.866	-0.284	-0.198
-633.565	-78.385	0.081	-0.028
-632.551	-25.857	-0.271	0.160
-631.536	-200.000	-0.009	-0.220
-630.522	-200.000	-0.051	-0.326
-629.507	-67.979	0.356	0.139
-628.492	-200.000	0.029	0.319
-627.478	-72.381	-0.137	-0.051
-626.463	71.432	0.214	-0.222
-625.449	800.000	0.012	-0.051
-624.434	-93.205	0.089	-0.025
-623.419	309.980	0.159	-0.299
-622.405	-62.985	0.173	0.072
-621.390	-200.000	-0.004	0.104
-620.376	-178.537	0.205	-0.005
-619.361	277.861	-0.155	-0.276
-618.346	-200.000	0.020	-0.103
-617.332	-166.165	-0.283	-0.012
-616.317	80.915	-0.221	0.238
-615.303	58.352	0.111	0.108
-614.288	72.825	0.133	0.139
-613.273	147.814	0.253	-0.341
-612.259	-128.611	0.174	-0.025
-611.244	517.028	0.053	-0.125
-610.230	-76.395	0.039	-0.014
-609.215	51.101	-0.142	-0.135
-608.201	800.000	-0.057	0.247
-607.186	116.001	0.170	-0.208
-606.171	269.640	-0.168	0.295
-605.157	-90.632	0.254	0.073
-604.142	-99.681	0.134	-0.034
-603.128	514.917	0.115	0.269
-602.113	-159.669	-0.223	0.012
-601.098	64.957	0.182	-0.184
-600.084	528.633	0.063	-0.147
-599.069	-31.486	-0.231	0.130
-598.055	-62.835	-0.384	0.159
-597.040	-175.391	0.298	-0.008
-596.025	-143.963	-0.390	-0.037
-595.011	-8.476	0.218	0.147
-593.996	-27.997	-0.064	-0.037
-592.982	-53.379	0.033	-0.015
-591.967	409.735	0.109	0.231
-590.952	263.442	-0.233	-0.404
-589.938	-200.000	-0.016	0.150
-588.923	-83.231	-0.256	0.082
-587.909	-200.000	0.029	0.290
-586.894	-68.962	0.162	-0.062
-585.879	70.647	0.095	-0.098
-584.865	11.499	0.109	0.084
-583.850	-200.000	0.077	-0.455
-582.836	800.000	0.052	-0.192
-581.821	-121.966	0.131	-0.022
-580.806	118.852	0.240	-0.296
-579.792	800.000	0.035	0.118
-578.777	446.411	0.109	0.240
-577.763	800.000	0.136	-0.381
-576.748	-117.733	0.077	0.014
-575.733	-200.000	-0.020	0.154
-574.719	-56.050	-0.221	0.098
-573.704	-200.000	-0.012	-0.219
-572.690	203.116	-0.185	0.286
-571.675	-33.375	0.208	0.115
-570.661	400.668	-0.209	0.439
-569.646	712.176	-0.038	-0.101
-568.631	800.000	0.064	0.183
-567.617	-200.000	-0.045	-0.261
-566.602	-200.000	-0.003	0.028
-565.588	-200.000	-0.016	0.126
-564.573	-82.676	-0.338	-0.109
-563.558	-20.995	0.146	-0.089
-562.544	101.014	-0.072	-0.084
-561.529	-200.000	0.008	-0.057
-560.515	-85.891	0.302	0.093
-559.500	406.844	-0.208	-0.439
-558.485	-85.703	-0.241	0.075
-557.471	-103.050	-0.094	0.022
-556.456	-164.177	0.041	-0.002
-555.442	516.418	-0.075	-0.175
-554.427	-31.561	-0.212	-0.119
-553.412	1.682	-0.078	0.056
-552.398	171.660	-0.167	0.239
-551.383	568.181	-0.101	-0.245
-550.369	163.395	0.134	-0.188
-549.354	-18.824	0.167	0.104
-548.339	800.000	0.012	-0.040
-547.325	-1.495	0.313	-0.220
-546.310	-200.000	0.042	-0.442
-545.296	-200.000	-0.010	0.116
-544.281	800.000	-0.073	-0.280
-543.266	714.902	0.116	-0.308
-542.252	800.000	-0.126	-0.381
-541.237	800.000	-0.139	0.401
-540.223	-155.021	0.120	-0.008
-539.208	800.000	0.018	-0.074
-538.193	-36.822	-0.125	-0.067
-537.179	-200.000	-0.010	0.118
-536.164	-105.326	0.254	-0.058
-535.150	-28.463	0.156	-0.090
-534.135	-53.705	-0.272	0.124
-533.121	-70.030	-0.158	0.060
-532.106	-49.949	0.091	0.043
-531.091	157.724	-0.154	0.213
-530.077	-7.026	-0.137	-0.092
-529.062	-200.000	0.007	0.098
-528.048	-5.949	-0.376	0.256
-527.033	467.089	0.073	0.163
-526.018	-200.000	0.065	-0.319
-525.004	86.728	0.029	-0.032
-523.989	800.000	-0.030	0.109
-522.975	737.771	0.097	-0.259
-521.960	-1.990	0.198	-0.138
-520.945	800.000	0.032	0.090
-519.931	-120.836	0.267	-0.045
-518.916	294.609	0.086	-0.157
-517.902	108.151	-0.178	-0.211
-516.887	800.000	-0.029	-0.113
-515.872	-113.506	-0.236	0.046
-514.858	41.194	-0.188	0.169
-513.843	113.188	0.285	-0.344
-512.829	-137.894	0.108	-0.012
-511.814	-91.602	-0.144	-0.041
-510.799	-70.007	-0.132	0.050
-509.785	759.618	0.045	0.121
-508.770	-146.818	0.166	-0.014
-507.756	-19.582	0.373	-0.230
-506.741	208.365	-0.084	0.131
-505.726	541.115	0.125	0.297
-504.712	-38.883	0.194	0.102
-503.697	20.308	0.306	-0.246
-502.683	29.844	-0.129	-0.110
-501.668	-94.044	-0.294	-0.080
-500.653	-45.351	0.152	0.075
-499.639	-148.835	-0.142	0.011
-498.624	800.000	-0.063	-0.183
-497.610	-113.993	0.347	0.067
-496.595	108.922	-0.295	0.351
-495.581	-83.189	-0.100	0.032
-494.566	-132.533	0.282	0.036
-493.551	276.804	-0.234	-0.414
-492.537	4.288	0.164	-0.120
-491.522	279.411	0.072	-0.127
-490.508	-60.453	-0.435	0.184
-489.493	-193.056	-0.548	-0.005
-488.478	-88.669	0.235	0.070
-487.464	-51.405	-0.210	-0.098
-486.449	-56.616	0.360	0.159
-485.435	-39.715	-0.138	0.072
-484.420	746.001	-0.065	0.175
-483.405	800.000	-0.077	0.234
-482.391	800.000	-0.038	0.138
-481.376	-9.268	0.095	0.063
-480.362	-128.788	0.206	-0.029
-479.347	800.000	-0.080	-0.278
-478.332	24.077	-0.212	-0.174
-477.318	800.000	0.037	-0.146
-476.303	800.000	-0.017	-0.072
-475.289	535.954	0.087	0.205
-474.274	523.068	-0.056	0.130
-473.259	-200.000	0.011	0.129
-472.245	-200.000	0.073	-0.375
-471.230	52.322	-0.143	-0.136
-470.216	-116.403	0.125	0.023
-469.201	-102.417	0.380	-0.090
-468.186	201.546	0.161	-0.246
-467.172	100.886	0.145	0.168
-466.157	-200.000	0.012	0.181
-465.143	-41.047	-0.245	0.126
-464.128	-9.402	-0.132	0.088
-463.113	-129.630	0.119	0.016
-462.099	-200.000	0.006	0.331
-461.084	-84.989	-0.244	0.076
-460.070	-200.000	-0.051	-0.270
-459.055	371.243	-0.057	0.114
-458.040	198.312	0.187	-0.284
-457.026	-4.915	-0.218	-0.149
-456.011	800.000	-0.029	0.103
-454.997	52.891	0.092	-0.087
-453.982	105.029	0.095	0.112
-452.968	-112.463	0.179	-0.036
-451.953	275.370	0.093	0.163
-450.938	-85.402	0.146	-0.045
-449.924	3.292	-0.154	0.111
-448.909	49.856	0.259	-0.243
-447.895	-115.408	0.249	-0.047
-446.880	-76.477	-0.113	-0.039
-445.865	-66.083	-0.293	0.116
-444.851	-161.075	0.194	-0.010
-443.836	-200.000	0.028	0.416
-442.822	224.846	0.050	0.081
-441.807	108.423	-0.068	-0.080
-440.792	-0.007	-0.174	0.123
-439.778	108.781	-0.176	-0.209
-438.763	165.725	0.029	-0.041
-437.749	800.000	-0.071	-0.213
-436.734	75.715	-0.195	0.205
-435.719	-148.187	-0.226	-0.019
-434.705	180.048	0.239	0.348
-433.690	-7.574	-0.051	0.034
-432.676	800.000	-0.038	-0.149
-431.661	215.419	-0.202	-0.318
-430.646	-63.981	0.288	-0.117
-429.632	33.779	-0.287	-0.248
-428.617	800.000	-0.076	-0.308
-427.603	-22.199	0.191	0.115
-426.588	72.432	-0.229	0.237
-425.573	54.082	0.191	0.182
-424.559	-12.788	0.149	-0.097
-423.544	-200.000	0.040	0.196
-422.530	800.000	-0.066	0.245
-421.515	302.180	-0.050	-0.093
-420.500	-20.952	-0.020	0.012
-419.486	192.843	0.208	-0.312
-418.471	21.893	0.143	0.116
-417.457	-72.749	-0.356	0.130
-416.442	181.786	-0.029	0.042
-415.428	-200.000	-0.024	0.137
-414.413	44.334	-0.197	0.179
-413.398	27.713	0.102	0.085
-412.384	-84.088	-0.151	0.048
-411.369	225.307	-0.147	-0.236
-410.355	-34.546	-0.322	0.175
-409.340	90.542	0.249	-0.276
-408.325	-29.941	0.239	0.135
-407.311	213.894	-0.125	-0.196
-406.296	322.123	-0.181	0.343
-405.282	28.150	0.093	-0.078
-404.267	740.180	-0.056	-0.149
-403.252	25.595	-0.098	-0.081
-402.238	800.000	0.049	-0.137
-401.223	-83.897	-0.271	-0.085
-400.209	-109.537	-0.138	0.029
-399.194	800.000	0.074	-0.271
-398.179	-110.250	0.246	0.051
-397.165	-27.974	-0.091	0.052
-396.150	-200.000	-0.023	0.239
-395.136	18.374	0.196	0.155
-394.121	-76.536	-0.256	0.089
-393.106	-200.000	0.009	-0.102
-392.092	427.622	-0.106	-0.227
-391.077	-200.000	-0.019	0.143
-390.063	-66.716	-0.228	-0.090
-389.048	-83.784	0.261	0.083
-388.033	-50.596	0.072	-0.033
-387.019	-139.739	-0.086	0.009
-386.004	83.718	-0.253	-0.274
-384.990	-36.766	-0.207	0.110
-383.975	-200.000	0.068	0.310
-382.960	30.784	0.241	-0.205
-381.946	536.846	0.033	-0.077
-380.931	0.052	-0.217	-0.153
-379.917	800.000	0.105	0.305
-378.902	-200.000	0.000	0.055
-377.888	93.350	0.172	-0.193
-376.873	1.918	-0.251	0.180
-375.858	231.983	0.091	0.148
-374.844	-63.157	-0.297	0.121
-373.829	300.422	-0.073	-0.133
-372.815	-99.434	-0.157	0.039
-371.800	3.793	0.186	0.135
-370.785	504.899	-0.060	-0.138
-369.771	-130.846	0.104	-0.014
-368.756	-200.000	0.005	-0.024
-367.742	-46.203	0.101	0.049
-366.727	35.209	-0.121	-0.105
-365.712	-77.530	-0.227	0.078
-364.698	-200.000	-0.016	0.180
-363.683	94.843	0.143	0.161
-362.669	-38.148	-0.072	0.038
-361.654	59.506	-0.004	-0.004
-360.639	25.280	-0.288	-0.237
-359.625	-88.236	-0.179	-0.053
-358.610	328.629	-0.032	0.060
-357.596	181.575	0.076	0.110
-356.581	-96.457	0.201	0.052
-355.566	-69.606	0.060	-0.023
-354.552	249.854	0.084	-0.141
-353.537	350.581	-0.038	0.074
-352.523	296.908	0.149	-0.271
-351.508	-156.934	0.286	0.017
-350.493	149.995	0.067	0.090
-349.479	-146.403	-0.336	0.029
-348.464	-141.821	-0.207	0.020
-347.450	13.288	0.390	0.299
-346.435	-59.929	0.442	0.187
-345.420	-8.008	-0.140	0.093
-344.406	317.080	0.075	0.141
-343.391	31.986	-0.176	0.150
-342.377	54.466	-0.141	0.134
-341.362	444.926	0.044	-0.095
-340.348	-123.357	0.162	-0.026
-339.333	-200.000	0.003	-0.127
-338.318	185.064	0.145	0.213
-337.304	481.848	0.190	0.426
-336.289	-122.028	-0.079	0.013
-335.275	-147.454	0.078	-0.007
-334.260	84.539	-0.093	-0.100
-333.245	478.961	0.099	0.223
-332.231	800.000	-0.075	0.235
-331.216	-155.745	0.115	0.007
-330.202	-143.844	0.224	0.021
-329.187	125.232	-0.198	-0.247
-328.172	-200.000	0.009	-0.113
-327.158	148.978	0.029	0.039
-326.143	270.687	-0.069	-0.121
-325.129	-65.492	-0.426	-0.169
-324.114	-158.568	0.312	0.018
-323.099	354.174	0.045	0.088
-322.085	-179.984	0.077	-0.002
-321.070	375.428	-0.096	-0.193
-320.056	411.932	-0.227	-0.477
-319.041	-55.118	-0.176	-0.078
-318.026	-200.000	0.013	0.069
-317.012	429.687	0.169	-0.361
-315.997	-110.516	-0.046	0.009
-314.983	196.309	-0.044	0.067
-313.968	-58.180	0.157	0.068
-312.953	-97.064	0.267	-0.069
-311.939	-200.000	0.002	0.266
-310.924	151.637	-0.056	-0.076
-309.910	-67.140	0.211	0.082
-308.895	342.408	-0.045	-0.086
-307.880	-95.625	-0.137	0.036
-306.866	161.582	0.161	-0.223
-305.851	-10.691	0.106	-0.069
-304.837	-60.673	-0.163	0.068
-303.822	-74.657	0.289	-0.103
-302.807	-112.042	-0.250	-0.050
-301.793	800.000	0.050	0.157
-300.778	26.543	0.247	-0.204
-299.764	8.315	-0.176	0.131
-298.749	-102.875	0.200	-0.047
-297.735	-42.105	0.134	-0.068
-296.720	8.968	-0.078	-0.058
-295.705	-200.000	-0.042	-0.264
-294.691	1.716	0.175	-0.125
-293.676	-200.000	-0.011	-0.054
-292.662	112.022	-0.057	-0.068
-291.647	-76.546	0.282	-0.098
-290.632	-23.030	0.153	0.091
-289.618	10.450	0.257	0.193
-288.603	438.184	-0.089	-0.191
-287.589	-36.393	-0.369	-0.196
-286.574	800.000	-0.040	0.137
-285.559	405.774	0.131	0.273
-284.545	90.211	-0.185	0.204
-283.530	-84.062	0.391	-0.122
-282.516	-35.095	-0.131	0.070
-281.501	-53.542	-0.222	-0.100
-280.486	800.000	0.061	0.257
-279.472	-200.000	-0.227	0.000
-278.457	-78.348	0.285	-0.097
-277.443	-115.442	0.202	-0.038
-276.428	187.954	-0.160	0.236
-275.413	249.272	0.152	0.254
-274.399	-200.000	-0.023	0.104
-273.384	-200.000	-0.041	0.193
-272.370	107.770	0.163	0.192
-271.355	-110.915	-0.316	0.064
-270.340	94.708	-0.216	0.243
-269.326	31.562	0.119	-0.101
-268.311	-132.345	0.427	0.054
-267.297	-17.755	0.053	0.033
-266.282	-111.748	0.217	0.043
-265.267	-141.836	-0.075	0.007
-264.253	101.541	0.096	-0.110
-263.238	63.661	-0.239	-0.237
-262.224	-136.705	-0.279	0.032
-261.209	-154.696	0.220	-0.014
-260.195	-200.000	0.001	0.160
-259.180	-109.874	-0.249	0.051
-258.165	619.717	0.138	-0.341
-257.151	-85.092	0.254	0.078
-256.136	757.930	0.096	-0.255
-255.122	-200.000	-0.073	-0.341
-254.107	800.000	0.019	0.056
-253.092	166.587	0.045	-0.062
-252.078	-200.000	0.013	0.272
-251.063	-200.000	-0.012	0.085
-250.049	-154.957	-0.345	-0.022
-249.034	193.589	0.147	-0.219
-248.019	-200.000	0.049	-0.235
-247.005	800.000	-0.052	0.153
-245.990	-41.210	-0.237	0.120
-244.976	83.014	-0.114	0.122
-243.961	-105.671	-0.361	-0.081
-242.946	-102.068	0.322	-0.076
-241.932	-154.409	-0.426	0.028
-240.917	-38.288	-0.130	0.068
-239.903	-200.000	-0.021	-0.164
-238.888	-84.249	-0.104	-0.032
-237.873	316.320	0.085	-0.159
-236.859	-200.000	0.008	-0.415
-235.844	27.406	0.060	-0.050
-234.830	-24.121	0.079	-0.047
-233.815	424.577	-0.084	-0.178
-232.800	92.671	-0.102	0.113
-231.786	64.813	-0.218	-0.216
-230.771	-107.835	-0.424	0.091
-229.757	-89.301	0.193	-0.056
-228.742	-124.796	0.230	-0.035
-227.727	745.241	-0.052	0.138
-226.713	-78.983	0.274	0.092
-225.698	76.135	0.162	-0.169
-224.684	-38.149	0.191	0.100
-223.669	-102.950	-0.100	0.023
-222.655	637.475	-0.054	-0.135
-221.640	-200.000	-0.047	0.443
-220.625	-47.152	0.076	0.037
-219.611	289.634	0.099	-0.176
-218.596	91.341	0.116	-0.128
-217.582	190.449	0.287	-0.425
-216.567	159.104	-0.144	-0.197
-215.552	-55.117	-0.285	0.126
-214.538	-85.145	-0.200	0.062
-213.523	-30.927	0.216	-0.120
-212.509	-64.013	0.271	0.109
-211.494	-200.000	0.046	0.469
-210.479	105.543	-0.139	0.162
-209.465	-66.197	0.084	0.033
-208.450	-109.215	0.253	0.053
-207.436	-22.918	0.364	0.216
-206.421	-176.307	0.133	-0.003
-205.406	-12.385	-0.195	-0.125
-204.392	800.000	0.041	0.153
-203.377	800.000	-0.152	0.553
-202.363	-12.728	-0.324	-0.208
-201.348	40.941	0.292	0.259
-200.333	-25.367	0.079	0.046
-199.319	800.000	0.050	-0.194
-198.304	-11.250	0.133	0.086
-197.290	-12.306	-0.224	-0.144
-196.275	62.304	-0.119	0.117
-195.260	329.422	0.125	-0.236
-194.246	47.568	-0.424	-0.389
-193.231	-200.000	-0.005	0.190
-192.217	-15.321	0.084	0.053
-191.202	740.918	-0.064	-0.169
-190.187	12.436	0.192	0.146
-189.173	197.614	-0.204	0.306
-188.158	-200.000	-0.030	-0.254
-187.144	65.799	0.206	-0.205
-186.129	-54.332	0.050	0.022
-185.114	-200.000	0.088	0.382
-184.100	21.966	-0.182	-0.146
-183.085	-39.405	-0.177	-0.091
-182.071	800.000	-0.066	-0.192
-181.056	-161.087	-0.129	-0.007
-180.042	-115.137	-0.412	0.077
-179.027	-6.641	-0.108	-0.072
-178.012	800.000	0.105	0.380
-176.998	800.000	0.076	0.306
-175.983	-200.000	-0.058	0.257
-174.969	-43.049	-0.080	-0.040
-173.954	-109.232	-0.142	-0.030
-172.939	32.449	-0.138	0.117
-171.925	-107.494	-0.264	0.057
-170.910	67.547	-0.154	0.155
-169.896	96.974	-0.181	-0.204
-168.881	217.747	0.110	-0.172
-167.866	-159.454	0.198	-0.011
-166.852	63.338	0.188	-0.185
-165.837	-79.401	0.405	0.135
-164.823	-200.000	0.005	-0.086
-163.808	655.863	0.062	0.157
-162.793	-200.000	-0.003	0.284
-161.779	12.860	-0.245	0.186
-160.764	79.032	-0.076	0.080
-159.750	-91.580	-0.200	-0.056
-158.735	-130.386	0.324	-0.043
-157.720	629.350	0.070	-0.173
-156.706	-3.874	-0.144	0.098
-155.691	-65.546	0.200	0.079
-154.677	146.760	0.129	0.170
-153.662	-200.000	0.031	0.186
-152.647	-200.000	0.010	0.268
-151.633	-146.447	-0.239	-0.020
-150.618	-70.976	-0.154	-0.057
-149.604	-143.356	-0.360	0.034
-148.589	800.000	0.104	-0.335
-147.574	117.241	-0.161	0.194
-146.560	800.000	0.039	-0.124
-145.545	349.978	0.123	0.240
-144.531	324.058	-0.037	0.070
-143.516	-51.357	0.297	-0.136
-142.502	-72.186	-0.363	-0.132
-141.487	13.301	0.254	0.193
-140.472	339.009	-0.101	0.193
-139.458	800.000	0.066	0.192
-138.443	269.453	-0.095	-0.164
-137.429	22.953	-0.210	0.169
-136.414	153.665	-0.206	-0.277
-135.399	-106.872	-0.237	-0.051
-134.385	183.812	-0.105	-0.153
-133.370	800.000	0.123	-0.336
-132.356	800.000	0.085	0.240
-131.341	62.716	0.051	-0.050
-130.326	-49.694	-0.064	-0.030
-129.312	209.554	0.176	0.270
-128.297	70.278	-0.106	0.107
-127.283	-78.022	0.314	0.106
-126.268	10.293	-0.260	-0.194
-125.253	-65.620	-0.130	0.051
-124.239	127.633	-0.190	0.237
-123.224	-178.269	-0.045	-0.001
-122.210	-47.102	-0.570	0.273
-121.195	800.000	-0.057	-0.222
-120.180	117.218	0.132	-0.159
-119.166	47.208	0.117	0.107
