DTS Sentinel unit serial number:	SN413079Multiplexer serial number:	ORYXHardware model number:	OX4-SRSoftware version number:	ORYX F/W v4.00 Oryx Data Collector v3.7.2.0data status	okinstallation	princeton_trtdifferential loss correction	single-endedforward channel	channel 2reverse channel	N/Adate	2019/09/13time	20:19:35forward acquisition time	60.00reverse acquisition time	0.00gamma	496.2192k internal	0.2333k external	0.2333temperature offset calibration	1.0129default loss term (dB/km)	0.3790temperature slope calibration	1.0000multiplexer offset coefficient	1.0000multiplexer slope coefficient	1.0000fibre end	0.00T internal ref (°C)	29.31T ext. ref 1 (°C)	3.20T ext. ref 2 (°C)	23.84length (m)	temperature (°C)	Stokes	anti-Stokes-747.200	78.428	0.113	-0.122
-746.185	482.152	-0.044	-0.100
-745.171	-36.676	-0.220	0.119
-744.156	-200.000	-0.008	0.331
-743.142	107.721	-0.139	0.167
-742.127	-84.732	0.303	0.096
-741.112	125.315	0.267	-0.339
-740.098	800.000	-0.085	0.304
-739.083	89.628	0.097	-0.109
-738.069	210.444	-0.175	0.276
-737.054	-25.346	-0.124	0.073
-736.039	-125.355	-0.095	0.015
-735.025	62.354	0.114	-0.114
-734.010	-153.791	0.232	0.016
-732.996	66.268	-0.216	0.221
-731.981	-200.000	0.032	-0.281
-730.966	55.323	-0.015	0.014
-729.952	26.547	-0.080	0.067
-728.937	800.000	0.081	-0.325
-727.923	-200.000	0.017	0.198
-726.908	-132.047	0.257	-0.034
-725.894	-76.509	-0.128	-0.045
-724.879	550.867	-0.164	-0.394
-723.864	-200.000	-0.042	-0.405
-722.850	209.560	0.245	0.386
-721.835	-102.589	0.142	-0.034
-720.821	296.739	0.040	-0.073
-719.806	-200.000	-0.013	-0.319
-718.791	-32.440	0.100	-0.056
-717.777	-111.699	0.211	-0.043
-716.762	148.504	0.128	-0.174
-715.748	-51.740	0.221	0.104
-714.733	-114.058	0.301	0.058
-713.718	-169.431	-0.108	0.004
-712.704	160.187	0.049	0.068
-711.689	-200.000	-0.045	-0.374
-710.675	-102.551	0.125	-0.030
-709.660	2.004	-0.125	0.091
-708.645	-32.474	0.141	-0.079
-707.631	779.011	0.113	-0.311
-706.616	-130.115	-0.453	0.062
-705.602	45.382	0.149	-0.138
-704.587	73.935	0.091	-0.096
-703.572	-135.018	0.323	-0.039
-702.558	185.341	-0.264	-0.394
-701.543	-45.714	-0.183	0.091
-700.529	56.905	0.144	-0.140
-699.514	800.000	0.025	-0.080
-698.499	-40.101	0.103	0.054
-697.485	95.899	-0.202	-0.232
-696.470	80.356	0.051	-0.055
-695.456	-200.000	-0.001	0.095
-694.441	-200.000	0.002	0.050
-693.426	-200.000	0.079	0.349
-692.412	92.939	0.285	-0.323
-691.397	729.430	-0.123	-0.329
-690.383	91.592	-0.057	0.064
-689.368	800.000	0.075	0.281
-688.354	157.427	-0.022	-0.030
-687.339	-126.714	0.178	0.026
-686.324	800.000	-0.076	0.252
-685.310	719.359	-0.144	0.384
-684.295	-36.660	-0.206	-0.111
-683.281	-39.125	0.144	-0.076
-682.266	46.238	0.085	-0.079
-681.251	-200.000	-0.030	0.241
-680.237	-128.570	0.176	0.025
-679.222	-101.568	-0.388	0.095
-678.208	-200.000	-0.016	0.089
-677.193	119.476	-0.253	-0.314
-676.178	158.366	-0.105	-0.146
-675.164	-200.000	-0.004	0.234
-674.149	501.142	-0.113	-0.262
-673.135	-144.102	-0.139	0.013
-672.120	-200.000	0.027	-0.322
-671.105	780.270	-0.110	-0.302
-670.091	778.631	-0.050	-0.138
-669.076	-85.004	0.410	0.129
-668.062	-150.082	-0.383	0.030
-667.047	374.033	-0.197	-0.402
-666.032	800.000	0.087	-0.340
-665.018	-191.625	-0.226	-0.002
-664.003	9.608	0.048	0.036
-662.989	-105.461	0.279	-0.064
-661.974	68.589	-0.198	-0.203
-660.959	141.102	0.043	0.056
-659.945	-126.467	-0.112	0.017
-658.930	622.702	-0.025	-0.062
-657.916	-200.000	-0.027	0.134
-656.901	-117.305	0.115	0.021
-655.886	-200.000	0.037	-0.179
-654.872	800.000	-0.117	-0.364
-653.857	527.395	0.056	-0.133
-652.843	689.435	-0.129	-0.338
-651.828	159.932	-0.081	-0.114
-650.814	508.185	-0.092	0.215
-649.799	800.000	-0.037	-0.144
-648.784	800.000	-0.085	-0.246
-647.770	48.082	-0.060	-0.056
-646.755	209.044	-0.063	0.099
-645.741	593.314	0.022	0.055
-644.726	39.995	-0.166	0.149
-643.711	-83.858	0.099	0.032
-642.697	-200.000	-0.038	-0.187
-641.682	-200.000	-0.011	0.073
-640.668	-145.723	-0.229	-0.020
-639.653	-200.000	0.011	-0.277
-638.638	-200.000	0.006	-0.160
-637.624	-133.104	-0.260	-0.033
-636.609	-39.792	0.078	0.041
-635.595	-200.000	0.042	0.211
-634.580	212.228	-0.099	0.156
-633.565	-25.257	-0.431	-0.255
-632.551	10.595	-0.284	0.217
-631.536	-20.602	0.185	0.114
-630.522	120.547	0.080	-0.100
-629.507	-108.833	0.422	-0.090
-628.492	-41.338	-0.269	0.138
-627.478	-64.874	0.135	-0.055
-626.463	-200.000	-0.007	0.285
-625.449	-139.595	0.324	-0.035
-624.434	68.935	-0.127	0.131
-623.419	-200.000	-0.065	0.497
-622.405	63.243	0.219	0.220
-621.390	-15.709	-0.183	0.117
-620.376	-46.669	-0.190	0.093
-619.361	117.879	-0.111	-0.137
-618.346	-106.166	-0.355	-0.080
-617.332	800.000	-0.116	-0.367
-616.317	-62.179	-0.285	-0.119
-615.303	-148.350	0.347	-0.029
-614.288	-78.322	-0.360	0.124
-613.273	93.684	0.121	0.137
-612.259	-148.960	0.247	-0.020
-611.244	-200.000	0.004	-0.067
-610.230	197.790	-0.215	0.329
-609.215	-130.539	0.179	0.024
-608.201	261.399	-0.083	-0.144
-607.186	-200.000	-0.002	0.265
-606.171	-46.641	0.072	0.035
-605.157	-200.000	0.006	-0.064
-604.142	117.842	0.066	-0.081
-603.128	-200.000	-0.048	0.255
-602.113	-133.148	-0.127	0.016
-601.098	-200.000	-0.074	0.430
-600.084	-200.000	-0.033	0.175
-599.069	-83.065	0.281	0.091
-598.055	147.412	-0.071	0.096
-597.040	-104.292	-0.398	0.092
-596.025	91.127	-0.115	-0.129
-595.011	418.379	-0.127	-0.271
-593.996	800.000	0.121	-0.445
-592.982	-176.730	-0.224	-0.006
-591.967	155.202	0.046	0.064
-590.952	47.782	0.089	-0.083
-589.938	-109.395	0.403	0.085
-588.923	-37.003	0.147	-0.079
-587.909	168.775	0.100	0.142
-586.894	-7.154	0.224	-0.152
-585.879	-125.178	-0.210	-0.032
-584.865	-200.000	0.041	-0.267
-583.850	242.992	0.154	-0.259
-582.836	-0.990	0.109	-0.077
-581.821	5.012	0.052	0.039
-580.806	-167.424	0.187	-0.007
-579.792	-6.560	0.096	-0.065
-578.777	-107.374	-0.160	0.035
-577.763	-146.369	0.214	-0.019
-576.748	-61.104	-0.298	0.126
-575.733	163.531	-0.078	-0.109
-574.719	-197.544	-0.226	0.001
-573.704	-22.656	-0.217	0.131
-572.690	-62.594	-0.017	-0.007
-571.675	-66.201	0.218	-0.087
-570.661	44.395	-0.200	-0.183
-569.646	152.569	-0.092	0.126
-568.631	-118.450	0.174	0.031
-567.617	91.970	0.124	0.139
-566.602	-29.034	0.086	-0.049
-565.588	151.315	-0.129	-0.176
-564.573	-91.076	0.321	0.092
-563.558	-2.622	-0.383	-0.268
-562.544	-200.000	0.028	-0.212
-561.529	17.024	0.161	-0.128
-560.515	7.115	-0.120	-0.089
-559.500	526.545	0.148	0.348
-558.485	-36.905	0.357	-0.191
-557.471	-114.897	0.109	0.021
-556.456	-200.000	0.030	0.336
-555.442	-32.890	-0.196	0.109
-554.427	-200.000	0.005	-0.098
-553.412	-97.207	-0.360	0.094
-552.398	109.976	0.157	-0.188
-551.383	1.462	-0.164	0.118
-550.369	-39.255	-0.167	-0.087
-549.354	465.024	0.070	0.157
-548.339	-0.665	0.182	-0.129
-547.325	-25.984	0.373	-0.219
-546.310	-11.424	-0.154	-0.101
-545.296	-46.256	-0.011	-0.005
-544.281	-79.034	-0.165	-0.056
-543.266	-106.278	0.346	0.077
-542.252	-100.623	0.363	0.089
-541.237	-200.000	0.002	-0.108
-540.223	3.229	0.123	-0.089
-539.208	-200.000	-0.070	-0.347
-538.193	-125.177	-0.206	0.032
-537.179	43.065	-0.029	0.027
-536.164	32.258	0.035	-0.030
-535.150	224.058	0.079	0.127
-534.135	-200.000	-0.005	0.097
-533.121	-6.022	0.416	0.284
-532.106	80.622	0.031	-0.034
-531.091	21.833	0.094	-0.077
-530.077	800.000	-0.050	-0.195
-529.062	46.186	0.134	-0.124
-528.048	-147.729	-0.186	-0.016
-527.033	268.100	0.067	-0.117
-526.018	-200.000	0.037	0.212
-525.004	137.571	0.099	-0.129
-523.989	-200.000	-0.064	0.387
-522.975	800.000	0.065	0.202
-521.960	-200.000	0.025	-0.221
-520.945	-1.334	0.195	-0.137
-519.931	-181.654	-0.343	-0.007
-518.916	-200.000	0.050	-0.343
-517.902	-200.000	0.027	-0.314
-516.887	-74.317	0.347	0.125
-515.872	-9.279	-0.349	0.233
-514.858	357.349	0.041	-0.081
-513.843	-69.142	0.098	0.038
-512.829	800.000	0.089	0.253
-511.814	-144.464	0.468	0.043
-510.799	-200.000	0.055	-0.429
-509.785	-79.240	0.120	-0.041
-508.770	7.896	-0.169	-0.126
-507.756	-59.112	0.369	-0.158
-506.741	-58.639	-0.234	0.101
-505.726	42.665	-0.012	0.011
-504.712	-123.200	0.395	0.063
-503.697	800.000	-0.036	-0.154
-502.683	-191.765	0.139	-0.001
-501.668	312.397	-0.140	0.262
-500.653	-14.113	0.164	-0.106
-499.639	-200.000	0.066	0.440
-498.624	800.000	0.036	-0.106
-497.610	44.731	-0.291	0.266
-496.595	-41.630	-0.042	-0.022
-495.581	-200.000	-0.002	-0.399
-494.566	15.393	0.293	-0.229
-493.551	-75.024	0.249	0.089
-492.537	-200.000	-0.006	0.210
-491.522	32.814	-0.161	0.138
-490.508	-147.984	0.216	0.018
-489.493	97.496	-0.107	0.122
-488.478	-94.859	-0.466	-0.126
-487.464	-200.000	-0.024	-0.249
-486.449	-119.950	-0.168	-0.029
-485.435	441.265	-0.071	0.155
-484.420	-172.676	0.213	0.007
-483.405	-78.803	-0.098	0.033
-482.391	388.111	-0.132	-0.273
-481.376	-152.895	0.172	0.012
-480.362	-120.418	-0.319	-0.054
-479.347	-200.000	0.007	0.179
-478.332	-42.542	0.120	0.061
-477.318	69.479	0.209	0.214
-476.303	410.199	0.150	-0.317
-475.289	-200.000	-0.001	0.265
-474.274	22.780	0.222	0.181
-473.259	-90.658	-0.355	0.102
-472.245	120.453	0.122	0.150
-471.230	-200.000	0.029	0.137
-470.216	212.895	-0.105	-0.164
-469.201	23.651	0.187	-0.153
-468.186	800.000	-0.075	0.302
-467.172	-90.901	-0.235	0.067
-466.157	144.551	-0.147	-0.195
-465.143	24.244	0.111	-0.091
-464.128	96.096	0.198	-0.226
-463.113	800.000	0.032	0.094
-462.099	-200.000	0.026	-0.225
-461.084	-89.047	0.106	0.031
-460.070	-200.000	0.041	-0.242
-459.055	67.052	0.098	-0.099
-458.040	-136.264	0.137	-0.016
-457.026	-134.501	-0.231	0.028
-456.011	-200.000	-0.003	0.041
-454.997	-88.141	0.153	0.046
-453.982	224.535	0.072	-0.116
-452.968	72.035	-0.208	-0.215
-451.953	12.473	0.203	-0.156
-450.938	-58.949	-0.333	0.143
-449.924	19.622	0.130	-0.104
-448.909	444.074	0.123	-0.269
-447.895	33.616	0.341	-0.295
-446.880	-116.642	-0.108	-0.020
-445.865	-200.000	0.031	0.165
-444.851	184.327	-0.162	-0.238
-443.836	11.500	-0.147	-0.112
-442.822	75.521	-0.128	0.134
-441.807	500.936	-0.053	0.121
-440.792	73.691	-0.185	0.192
-439.778	7.185	-0.215	-0.160
-438.763	-31.692	-0.245	-0.136
-437.749	26.812	0.185	-0.154
-436.734	-200.000	0.025	-0.190
-435.719	-126.033	-0.149	0.022
-434.705	-17.614	0.247	0.154
-433.690	236.578	0.066	0.109
-432.676	280.880	-0.126	0.224
-431.661	-122.274	-0.204	0.033
-430.646	5.851	0.108	0.080
-429.632	-154.026	-0.396	-0.027
-428.617	211.438	0.086	-0.134
-427.603	-29.999	-0.345	-0.195
-426.588	-200.000	0.003	0.071
-425.573	-85.899	-0.180	-0.055
-424.559	226.286	0.052	0.084
-423.544	-200.000	0.008	-0.099
-422.530	-108.758	0.235	-0.050
-421.515	106.798	-0.216	0.255
-420.500	235.742	-0.197	-0.323
-419.486	175.637	0.140	-0.201
-418.471	-200.000	0.029	0.169
-417.457	-61.079	0.030	-0.013
-416.442	-104.956	0.195	-0.044
-415.428	800.000	0.029	0.085
-414.413	-56.049	0.170	0.075
-413.398	-200.000	0.006	-0.136
-412.384	-18.738	0.206	-0.127
-411.369	-22.429	-0.247	-0.148
-410.355	-101.587	0.294	-0.071
-409.340	-85.259	0.199	0.062
-408.325	-63.226	-0.153	-0.063
-407.311	2.835	-0.189	-0.136
-406.296	800.000	0.091	0.290
-405.282	29.623	0.195	-0.165
-404.267	-23.659	-0.049	0.029
-403.252	361.416	-0.116	0.230
-402.238	800.000	0.005	-0.018
-401.223	-70.259	-0.433	0.163
-400.209	-82.511	-0.179	-0.058
-399.194	613.737	-0.057	-0.141
-398.179	-68.140	-0.237	-0.092
-397.165	293.826	-0.115	-0.208
-396.150	-10.952	0.436	0.285
-395.136	-190.731	-0.250	0.003
-394.121	32.189	0.141	-0.121
-393.106	305.413	0.169	0.312
-392.092	-9.292	0.376	0.249
-391.077	-200.000	-0.014	-0.210
-390.063	19.993	0.172	-0.137
-389.048	18.134	0.256	-0.203
-388.033	10.277	0.090	-0.068
-387.019	-79.951	-0.193	-0.064
-386.004	-110.547	-0.203	0.042
-384.990	187.604	0.171	-0.252
-383.975	180.802	0.080	-0.116
-382.960	-102.501	0.176	0.042
-381.946	-74.052	0.307	0.110
-380.931	-46.789	0.177	0.086
-379.917	-200.000	0.010	0.242
-378.902	223.932	-0.168	0.270
-377.888	800.000	-0.068	-0.223
-376.873	55.275	0.090	-0.086
-375.858	-10.114	0.089	-0.059
-374.844	149.745	-0.338	-0.454
-373.829	316.981	-0.046	-0.087
-372.815	286.787	0.105	0.188
-371.800	59.911	0.162	-0.159
-370.785	-5.393	-0.179	0.122
-369.771	32.544	0.301	-0.258
-368.756	-67.282	-0.269	0.105
-367.742	33.167	-0.258	-0.221
-366.727	-76.630	-0.093	0.032
-365.712	-134.346	-0.080	-0.010
-364.698	26.009	-0.109	-0.090
-363.683	800.000	0.062	0.194
-362.669	-200.000	0.048	-0.287
-361.654	-13.479	0.078	-0.050
-360.639	-5.440	0.159	0.108
-359.625	-76.266	0.130	0.045
-358.610	119.912	-0.182	-0.223
-357.596	800.000	-0.032	0.093
-356.581	-120.529	-0.116	-0.019
-355.566	-200.000	0.104	0.508
-354.552	19.078	0.238	-0.189
-353.537	500.359	-0.027	-0.061
-352.523	-200.000	-0.056	0.420
-351.508	15.088	-0.224	0.174
-350.493	-182.018	-0.347	0.006
-349.479	-200.000	0.010	0.165
-348.464	800.000	0.047	-0.153
-347.450	-200.000	0.082	0.000
-346.435	-19.291	0.090	-0.055
-345.420	-89.367	0.041	-0.012
-344.406	117.203	0.088	0.107
-343.391	-153.913	0.383	0.026
-342.377	-200.000	0.014	0.137
-341.362	-41.079	0.141	-0.072
-340.348	-19.886	0.323	0.198
-339.333	221.935	0.149	-0.238
-338.318	-110.031	0.134	-0.028
-337.304	217.552	0.085	0.134
-336.289	-27.201	-0.384	0.222
-335.275	800.000	0.029	-0.089
-334.260	434.228	0.062	0.132
-333.245	-75.690	-0.112	-0.039
-332.231	-61.936	-0.224	-0.093
-331.216	257.362	-0.095	0.161
-330.202	-200.000	0.021	-0.175
-329.187	-108.924	-0.309	-0.065
-328.172	181.027	0.087	0.126
-327.158	-5.902	-0.189	-0.128
-326.143	155.035	-0.111	0.151
-325.129	-200.000	0.007	-0.195
-324.114	83.398	-0.041	-0.044
-323.099	352.614	-0.128	-0.252
-322.085	-127.752	0.178	0.025
-321.070	43.423	0.146	0.132
-320.056	-200.000	-0.043	-0.307
-319.041	800.000	0.090	0.256
-318.026	444.512	-0.090	-0.196
-317.012	-72.453	-0.212	-0.078
-315.997	22.716	-0.083	0.067
-314.983	15.122	-0.186	0.144
-313.968	-84.619	0.366	-0.114
-312.953	8.602	0.407	-0.303
-311.939	-200.000	-0.004	0.078
-310.924	800.000	-0.009	0.029
-309.910	800.000	0.108	0.329
-308.895	316.226	-0.111	0.207
-307.880	-73.429	-0.256	0.093
-306.866	145.005	0.164	-0.217
-305.851	-200.000	-0.059	-0.480
-304.837	-200.000	-0.015	-0.269
-303.822	-200.000	0.009	0.188
-302.807	800.000	-0.063	-0.192
-301.793	-200.000	-0.015	-0.166
-300.778	7.501	-0.165	-0.122
-299.764	172.170	0.050	0.071
-298.749	-192.570	0.153	0.001
-297.735	480.727	-0.115	-0.257
-296.720	214.824	0.063	0.099
-295.705	-140.843	0.334	-0.034
-294.691	-200.000	0.007	-0.153
-293.676	186.393	0.051	0.074
-292.662	677.526	-0.099	0.253
-291.647	-107.260	-0.048	0.011
-290.632	-200.000	0.006	-0.099
-289.618	8.661	-0.043	0.032
-288.603	67.429	0.050	-0.050
-287.589	-45.607	0.132	-0.065
-286.574	390.847	-0.057	-0.118
-285.559	800.000	0.071	-0.238
-284.545	-200.000	-0.027	0.206
-283.530	-11.944	-0.253	-0.164
-282.516	-200.000	0.025	-0.184
-281.501	1.483	-0.230	0.163
-280.486	389.312	-0.150	0.306
-279.472	800.000	-0.037	0.139
-278.457	-173.763	-0.315	0.009
-277.443	227.128	-0.048	-0.078
-276.428	-200.000	-0.069	-0.358
-275.413	-149.348	0.537	0.042
-274.399	800.000	-0.041	-0.138
-273.384	150.752	0.281	0.376
-272.370	-72.803	0.340	0.123
-271.355	129.421	0.110	-0.139
-270.340	-122.607	-0.097	0.015
-269.326	-93.626	0.105	0.029
-268.311	104.829	0.146	0.169
-267.297	46.897	-0.293	0.268
-266.282	243.218	0.139	-0.231
-265.267	106.612	0.212	0.248
-264.253	-22.090	-0.117	-0.070
-263.238	-200.000	0.000	-0.033
-262.224	274.700	0.286	-0.499
-261.209	800.000	-0.013	-0.057
-260.195	-35.919	-0.237	-0.126
-259.180	-200.000	0.073	-0.365
-258.165	77.094	-0.315	-0.330
-257.151	123.316	0.046	-0.057
-256.136	236.032	0.204	-0.333
-255.122	-200.000	0.006	-0.046
-254.107	-117.482	-0.280	0.050
-253.092	-40.377	-0.309	0.158
-252.078	-11.023	-0.165	-0.107
-251.063	122.255	-0.118	0.146
-250.049	224.204	-0.266	0.424
-249.034	-6.514	0.350	0.235
-248.019	-200.000	-0.023	-0.149
-247.005	81.750	0.219	0.234
-245.990	624.606	0.075	-0.186
-244.976	126.533	0.074	0.093
-243.961	-141.514	0.063	0.006
-242.946	105.859	-0.197	-0.230
-241.932	16.565	0.203	-0.158
-240.917	17.345	-0.180	0.141
-239.903	-93.409	-0.420	-0.115
-238.888	-108.040	-0.291	-0.062
-237.873	141.005	-0.176	0.229
-236.859	-200.000	0.004	0.244
-235.844	54.073	-0.028	0.026
-234.830	-200.000	-0.004	0.244
-233.815	90.943	0.181	0.200
-232.800	-149.074	-0.281	0.022
-231.786	-69.145	0.225	0.085
-230.771	-200.000	-0.001	-0.098
-229.757	-85.917	-0.212	-0.065
-228.742	-81.849	0.073	0.024
-227.727	-54.779	-0.178	0.079
-226.713	-200.000	0.013	0.371
-225.698	-38.221	-0.265	0.139
-224.684	16.823	0.074	0.058
-223.669	-43.948	0.128	0.064
-222.655	-200.000	-0.063	0.351
-221.640	409.685	0.115	0.241
-220.625	318.128	0.106	0.198
-219.611	-200.000	0.030	-0.258
-218.596	-200.000	-0.022	-0.158
-217.582	16.710	-0.133	0.103
-216.567	9.294	0.284	0.212
-215.552	96.276	-0.224	0.253
-214.538	-43.158	0.315	0.157
-213.523	-144.688	0.063	0.006
-212.509	-200.000	-0.047	-0.246
-211.494	-200.000	0.027	0.127
-210.479	-200.000	-0.017	0.244
-209.465	-101.116	0.093	0.022
-208.450	194.977	0.187	0.279
-207.436	-200.000	-0.032	0.258
-206.421	14.049	0.140	0.107
-205.406	-71.284	0.242	0.089
-204.392	107.095	-0.158	0.185
-203.377	-140.618	-0.262	0.027
-202.363	-200.000	0.002	-0.162
-201.348	-24.833	-0.123	-0.072
-200.333	90.634	0.081	-0.089
-199.319	-3.922	0.185	0.127
-198.304	-21.424	-0.128	0.077
-197.290	181.504	-0.204	0.296
-196.275	47.984	-0.125	-0.115
-195.260	43.691	0.203	-0.183
-194.246	129.167	0.127	0.159
-193.231	-200.000	-0.000	-0.056
-192.217	-200.000	-0.031	0.355
-191.202	-1.798	0.255	0.177
-190.187	800.000	0.054	0.203
-189.173	-200.000	-0.020	0.306
-188.158	184.529	-0.183	-0.266
-187.144	171.917	-0.106	0.150
-186.129	-151.669	-0.105	-0.008
-185.114	800.000	0.017	0.053
-184.100	590.605	-0.072	0.174
-183.085	152.638	-0.172	0.231
-182.071	112.010	0.354	0.421
-181.056	32.951	0.012	0.011
-180.042	443.316	-0.019	-0.041
-179.027	2.206	-0.141	0.100
-178.012	77.528	0.247	-0.258
-176.998	40.133	0.099	0.088
-175.983	-5.363	0.145	0.098
-174.969	-200.000	0.026	-0.384
-173.954	-200.000	-0.028	-0.195
-172.939	-38.132	-0.237	-0.123
-171.925	145.838	-0.046	-0.061
-170.910	94.709	0.173	0.193
-169.896	-200.000	0.002	0.020
-168.881	-158.125	-0.521	0.030
-167.866	-134.049	-0.334	-0.041
-166.852	711.212	-0.059	-0.154
-165.837	-200.000	0.020	0.172
-164.823	-200.000	-0.003	-0.115
-163.808	-56.353	0.075	-0.033
-162.793	-37.067	0.251	-0.132
-161.779	-200.000	-0.002	-0.059
-160.764	-175.271	0.222	0.006
-159.750	398.819	0.091	0.186
-158.735	-147.543	-0.323	-0.027
-157.720	-78.330	0.245	0.083
-156.706	266.349	-0.138	-0.238
-155.691	-43.012	-0.147	0.073
-154.677	-60.635	0.168	0.070
-153.662	-200.000	0.036	-0.363
-152.647	-48.573	-0.348	0.165
-151.633	45.867	-0.108	-0.098
-150.618	-150.003	-0.390	-0.030
-149.604	-66.858	0.252	0.098
-148.589	-41.780	-0.049	0.025
-147.574	-200.000	0.022	-0.183
-146.560	-200.000	-0.020	0.192
-145.545	-56.581	-0.359	0.156
-144.531	-200.000	-0.023	0.125
-143.516	268.581	-0.145	0.249
-142.502	800.000	0.073	0.240
-141.487	-40.174	-0.259	0.133
-140.472	-51.321	-0.136	0.062
-139.458	86.682	0.354	0.384
-138.443	7.854	-0.218	0.160
-137.429	-83.277	-0.184	-0.058
-136.414	15.764	-0.018	-0.014
-135.399	-200.000	-0.120	0.528
-134.385	-127.655	0.103	0.015
-133.370	-91.093	-0.047	0.013
-132.356	28.259	-0.262	0.217
-131.341	257.704	0.106	0.179
-130.326	71.065	-0.164	0.166
-129.312	176.666	0.325	0.464
-128.297	-48.041	-0.102	-0.048
-127.283	-200.000	-0.038	0.215
-126.268	-82.840	-0.123	-0.039
-125.253	-171.130	0.222	0.007
-124.239	-87.606	0.105	-0.031
-123.224	387.219	0.061	-0.123
-122.210	-157.258	-0.016	0.001
-121.195	398.105	-0.197	0.404
