DTS Sentinel unit serial number:	SN413079Multiplexer serial number:	ORYXHardware model number:	OX4-SRSoftware version number:	ORYX F/W v4.00 Oryx Data Collector v3.7.2.0data status	okinstallation	princeton_trtdifferential loss correction	single-endedforward channel	channel 2reverse channel	N/Adate	2019/09/11time	12:49:11forward acquisition time	60.00reverse acquisition time	0.00gamma	496.2192k internal	0.2294k external	0.2294temperature offset calibration	0.9962default loss term (dB/km)	0.3790temperature slope calibration	1.0000multiplexer offset coefficient	1.0000multiplexer slope coefficient	1.0000fibre end	0.00T internal ref (°C)	41.17T ext. ref 1 (°C)	0.21T ext. ref 2 (°C)	38.57length (m)	temperature (°C)	Stokes	anti-Stokes-747.200	-200.000	-0.008	0.061
-746.185	245.670	0.175	0.301
-745.171	24.800	0.174	-0.147
-744.156	-44.820	-0.104	-0.053
-743.142	473.837	-0.046	0.107
-742.127	-200.000	0.053	0.399
-741.112	632.978	0.132	0.343
-740.098	-200.000	-0.035	0.428
-739.083	-82.084	-0.290	-0.097
-738.069	-129.810	-0.296	0.042
-737.054	115.944	-0.358	0.448
-736.039	-62.924	-0.222	0.094
-735.025	765.902	0.042	0.117
-734.010	-200.000	0.009	0.465
-732.996	21.103	0.225	-0.187
-731.981	-40.375	-0.189	0.100
-730.966	68.046	0.058	0.061
-729.952	-44.179	0.214	0.110
-728.937	302.213	0.092	-0.174
-727.923	52.749	0.186	-0.181
-726.908	-172.447	-0.116	0.004
-725.894	-200.000	0.077	0.401
-724.879	-200.000	-0.006	0.094
-723.864	77.174	-0.225	-0.245
-722.850	-46.586	0.147	-0.073
-721.835	-200.000	0.060	0.278
-720.821	800.000	-0.087	0.268
-719.806	-41.668	0.296	-0.155
-718.791	211.562	-0.152	0.244
-717.777	144.112	0.094	-0.128
-716.762	800.000	-0.089	0.268
-715.748	6.207	-0.124	0.094
-714.733	-43.931	0.342	0.176
-713.718	-115.500	-0.345	-0.066
-712.704	800.000	-0.047	-0.188
-711.689	530.412	0.106	0.256
-710.675	-134.286	-0.254	0.032
-709.660	-81.550	-0.180	0.060
-708.645	-200.000	0.010	-0.125
-707.631	800.000	0.063	0.279
-706.616	706.139	-0.059	0.158
-705.602	358.634	0.052	0.106
-704.587	-68.531	0.223	-0.088
-703.572	-67.901	0.336	-0.134
-702.558	268.191	0.160	-0.286
-701.543	-95.467	-0.207	-0.057
-700.529	-185.395	-0.069	0.001
-699.514	-200.000	0.053	0.290
-698.499	147.485	0.086	0.118
-697.485	-93.813	-0.057	0.016
-696.470	-200.000	-0.063	-0.428
-695.456	97.089	0.214	0.251
-694.441	437.388	0.055	0.123
-693.426	266.357	-0.061	-0.108
-692.412	131.578	-0.096	0.126
-691.397	-200.000	-0.025	-0.348
-690.383	-11.040	-0.385	-0.259
-689.368	-200.000	0.009	0.381
-688.354	-131.999	0.142	-0.019
-687.339	87.827	-0.137	-0.155
-686.324	-72.727	-0.141	-0.053
-685.310	-8.734	-0.155	0.106
-684.295	-23.221	0.297	-0.182
-683.281	-200.000	-0.006	-0.325
-682.266	341.735	-0.101	-0.201
-681.251	-200.000	0.014	-0.236
-680.237	219.028	-0.046	-0.075
-679.222	195.435	0.083	-0.129
-678.208	-122.904	0.278	0.046
-677.193	-26.228	0.153	-0.092
-676.178	216.815	-0.101	-0.163
-675.164	-10.326	-0.140	0.095
-674.149	-200.000	-0.006	0.226
-673.135	800.000	-0.037	-0.165
-672.120	48.005	-0.088	-0.084
-671.105	86.518	0.094	-0.106
-670.091	-152.425	-0.471	-0.034
-669.076	-28.850	-0.199	-0.116
-668.062	60.098	-0.106	0.107
-667.047	335.469	-0.033	0.065
-666.032	-150.007	-0.170	0.014
-665.018	60.018	-0.038	0.039
-664.003	82.016	-0.286	-0.316
-662.989	10.898	-0.145	0.113
-661.974	-40.384	0.439	-0.233
-660.959	-155.749	-0.141	-0.009
-659.945	34.182	0.072	0.064
-658.930	167.071	0.118	-0.171
-657.916	92.306	0.249	-0.286
-656.901	132.758	0.135	-0.178
-655.886	-200.000	0.003	0.087
-654.872	800.000	-0.038	0.144
-653.857	-106.223	0.203	0.046
-652.843	-21.579	-0.099	0.062
-651.828	-80.218	-0.079	0.027
-650.814	-186.138	0.348	0.005
-649.799	346.683	-0.090	0.180
-648.784	-200.000	-0.002	0.061
-647.770	-9.119	-0.105	-0.071
-646.755	21.411	-0.140	-0.116
-645.741	-200.000	-0.011	0.197
-644.726	-113.787	-0.356	-0.071
-643.711	-58.269	0.210	0.093
-642.697	57.332	0.106	0.105
-641.682	800.000	-0.053	-0.183
-640.668	703.567	0.038	0.102
-639.653	-111.736	0.109	0.023
-638.638	800.000	-0.087	0.317
-637.624	-55.237	-0.165	0.075
-636.609	16.698	0.200	0.161
-635.595	45.849	-0.280	-0.264
-634.580	-14.891	0.206	-0.134
-633.565	278.166	-0.133	-0.241
-632.551	-108.095	-0.175	-0.039
-631.536	572.924	-0.069	-0.171
-630.522	-82.281	-0.233	-0.077
-629.507	128.541	0.199	-0.258
-628.492	-80.500	-0.241	0.082
-627.478	-115.974	-0.152	-0.029
-626.463	-200.000	-0.048	0.390
-625.449	-200.000	-0.030	-0.460
-624.434	800.000	-0.191	-0.553
-623.419	-93.778	0.095	0.027
-622.405	-27.719	0.072	0.043
-621.390	67.342	-0.188	0.195
-620.376	-200.000	-0.023	0.115
-619.361	-200.000	0.020	-0.266
-618.346	-200.000	0.020	-0.157
-617.332	-119.660	0.243	0.043
-616.317	-100.730	0.274	0.069
-615.303	210.170	0.163	0.260
-614.288	47.546	-0.223	0.212
-613.273	33.600	0.301	0.266
-612.259	63.533	-0.189	0.193
-611.244	800.000	0.073	-0.224
-610.230	-200.000	-0.019	0.357
-609.215	-139.137	0.263	-0.029
-608.201	-200.000	-0.028	0.383
-607.186	113.411	-0.146	0.180
-606.171	99.108	0.091	-0.106
-605.157	-200.000	0.003	0.159
-604.142	101.163	0.054	-0.064
-603.128	55.628	-0.264	0.260
-602.113	-112.025	-0.213	-0.044
-601.098	55.897	0.062	-0.061
-600.084	225.610	-0.027	-0.044
-599.069	626.314	-0.045	0.116
-598.055	-200.000	-0.002	0.050
-597.040	17.042	0.329	0.265
-596.025	487.928	0.019	-0.043
-595.011	-200.000	-0.081	-0.368
-593.996	-200.000	-0.020	0.111
-592.982	-119.971	-0.038	0.007
-591.967	800.000	0.063	-0.225
-590.952	115.493	-0.084	0.104
-589.938	-200.000	0.018	0.122
-588.923	-110.542	-0.133	-0.028
-587.909	-200.000	0.018	0.084
-586.894	6.044	-0.196	0.148
-585.879	603.034	-0.066	0.166
-584.865	165.469	0.048	-0.068
-583.850	-86.918	0.366	0.113
-582.836	-130.960	-0.105	-0.014
-581.821	170.310	0.105	0.153
-580.806	497.853	0.029	-0.068
-579.792	338.964	-0.030	0.059
-578.777	39.420	0.211	-0.192
-577.763	83.411	-0.192	-0.213
-576.748	109.802	0.305	0.371
-575.733	55.977	0.248	-0.245
-574.719	-86.730	-0.072	0.022
-573.704	-108.128	-0.315	-0.069
-572.690	800.000	-0.035	0.128
-571.675	-54.726	-0.143	0.066
-570.661	316.926	-0.090	-0.172
-569.646	66.557	0.091	-0.094
-568.631	125.974	-0.091	0.117
-567.617	209.521	-0.045	-0.072
-566.602	800.000	-0.116	-0.399
-565.588	220.895	0.132	-0.216
-564.573	-78.087	0.492	0.172
-563.558	-200.000	0.002	-0.096
-562.544	3.693	0.114	-0.084
-561.529	558.469	0.082	-0.202
-560.515	-43.549	-0.117	-0.060
-559.500	-200.000	0.022	-0.135
-558.485	800.000	-0.086	-0.327
-557.471	522.247	0.071	0.169
-556.456	68.550	-0.151	-0.157
-555.442	800.000	0.072	0.206
-554.427	0.929	0.242	-0.176
-553.412	281.711	-0.030	-0.054
-552.398	-78.031	-0.337	-0.118
-551.383	-200.000	-0.005	-0.248
-550.369	452.585	-0.074	0.166
-549.354	-43.335	-0.206	0.106
-548.339	-57.253	0.176	-0.079
-547.325	122.129	0.272	-0.344
-546.310	567.157	-0.089	0.219
-545.296	-91.295	-0.130	0.038
-544.281	-170.798	0.292	-0.010
-543.266	246.984	-0.057	-0.097
-542.252	-90.890	-0.226	-0.066
-541.237	-10.550	0.049	-0.033
-540.223	-78.372	-0.015	-0.005
-539.208	800.000	0.102	-0.418
-538.193	461.496	-0.101	0.228
-537.179	33.087	-0.106	-0.093
-536.164	-200.000	0.029	0.245
-535.150	64.567	0.125	-0.128
-534.135	-88.407	0.215	0.065
-533.121	-77.417	0.050	-0.018
-532.106	202.126	-0.202	-0.315
-531.091	-70.602	0.085	0.032
-530.077	-73.003	0.220	-0.082
-529.062	34.938	0.091	0.081
-528.048	-3.032	-0.231	0.164
-527.033	-127.642	0.385	-0.056
-526.018	-22.950	-0.195	-0.119
-525.004	-138.280	0.362	0.041
-523.989	25.793	0.022	0.019
-522.975	-76.150	0.234	-0.084
-521.960	-181.339	-0.280	-0.006
-520.945	-7.581	0.193	-0.132
-519.931	645.548	0.075	0.195
-518.916	-144.886	-0.208	0.019
-517.902	-200.000	0.003	0.243
-516.887	73.790	0.277	-0.294
-515.872	-147.243	0.125	-0.011
-514.858	121.646	0.150	0.189
-513.843	261.802	-0.171	0.300
-512.829	-200.000	0.019	-0.419
-511.814	155.887	0.132	-0.184
-510.799	800.000	-0.081	0.357
-509.785	225.013	0.319	0.523
-508.770	-56.281	0.121	-0.055
-507.756	-87.605	-0.325	0.099
-506.741	409.271	-0.045	0.096
-505.726	112.731	0.385	-0.472
-504.712	88.571	0.102	-0.115
-503.697	-124.541	-0.085	0.013
-502.683	358.373	-0.178	0.360
-501.668	800.000	0.114	0.351
-500.653	-54.363	-0.304	-0.139
-499.639	39.638	-0.113	-0.103
-498.624	-154.707	0.291	-0.020
-497.610	-88.815	0.167	-0.050
-496.595	-107.250	0.238	-0.053
-495.581	29.538	0.205	0.177
-494.566	277.428	0.037	0.066
-493.551	283.951	-0.132	0.241
-492.537	-86.078	0.170	-0.053
-491.522	6.598	-0.200	-0.150
-490.508	800.000	0.044	-0.177
-489.493	-33.891	-0.258	0.144
-488.478	800.000	0.115	0.483
-487.464	-90.599	-0.179	-0.052
-486.449	425.911	0.098	0.214
-485.435	78.593	-0.176	0.190
-484.420	125.986	0.162	-0.208
-483.405	-200.000	-0.020	0.417
-482.391	325.057	0.159	-0.309
-481.376	800.000	-0.013	0.041
-480.362	-200.000	0.053	-0.297
-479.347	766.448	-0.068	0.187
-478.332	800.000	0.071	-0.230
-477.318	-112.519	-0.151	0.031
-476.303	-200.000	0.043	-0.486
-475.289	-103.439	-0.211	-0.050
-474.274	295.427	0.141	-0.261
-473.259	-119.322	0.116	0.021
-472.245	-78.126	0.164	-0.057
-471.230	-22.507	0.158	-0.097
-470.216	-67.305	-0.104	0.041
-469.201	800.000	-0.140	-0.440
-468.186	-122.455	-0.275	0.045
-467.172	-200.000	0.023	0.297
-466.157	-200.000	-0.015	0.116
-465.143	800.000	0.125	0.517
-464.128	-37.950	-0.221	0.119
-463.113	-200.000	-0.002	-0.215
-462.099	104.196	-0.229	-0.272
-461.084	-151.856	-0.307	-0.023
-460.070	99.077	-0.104	0.121
-459.055	-200.000	0.022	-0.330
-458.040	326.795	-0.065	-0.125
-457.026	-200.000	-0.021	-0.229
-456.011	-164.705	-0.282	0.013
-454.997	-142.595	0.317	-0.031
-453.982	9.931	0.244	-0.187
-452.968	-69.115	-0.391	0.152
-451.953	26.414	-0.254	0.215
-450.938	800.000	0.076	0.231
-449.924	131.618	-0.205	-0.267
-448.909	62.916	0.287	0.291
-447.895	-163.919	-0.157	0.007
-446.880	189.629	-0.058	-0.088
-445.865	-152.975	-0.193	0.014
-444.851	-174.383	0.146	-0.004
-443.836	74.548	-0.278	0.295
-442.822	800.000	0.163	-0.459
-441.807	-150.078	0.381	0.030
-440.792	-64.118	0.252	0.104
-439.778	-200.000	0.005	0.088
-438.763	-200.000	0.004	0.041
-437.749	344.366	0.083	-0.165
-436.734	-85.055	-0.152	-0.048
-435.719	451.106	-0.091	0.204
-434.705	-48.288	0.099	-0.048
-433.690	-46.125	-0.187	0.093
-432.676	-110.514	0.054	-0.011
-431.661	-4.943	0.175	0.122
-430.646	46.659	-0.345	0.324
-429.632	155.644	-0.077	-0.107
-428.617	800.000	0.126	-0.370
-427.603	332.212	-0.104	0.203
-426.588	-117.273	0.199	-0.036
-425.573	31.370	-0.107	-0.093
-424.559	136.190	-0.195	-0.257
-423.544	3.531	0.341	0.251
-422.530	32.500	0.183	0.160
-421.515	-64.470	-0.299	0.123
-420.500	800.000	0.071	0.237
-419.486	258.450	0.151	0.262
-418.471	-8.115	-0.147	0.100
-417.457	-200.000	-0.021	0.255
-416.442	800.000	-0.116	0.367
-415.428	-200.000	0.002	-0.066
-414.413	118.225	-0.100	-0.124
-413.398	-200.000	0.019	0.143
-412.384	56.199	-0.343	0.337
-411.369	-71.534	-0.364	-0.137
-410.355	-200.000	0.004	0.131
-409.340	99.484	0.133	0.156
-408.325	292.517	0.041	-0.075
-407.311	-200.000	0.003	0.064
-406.296	-200.000	0.003	0.320
-405.282	-51.604	-0.278	0.131
-404.267	536.721	0.099	-0.238
-403.252	-65.451	-0.074	0.030
-402.238	257.025	-0.109	0.189
-401.223	108.958	-0.026	-0.031
-400.209	-71.652	-0.208	-0.078
-399.194	-87.180	0.265	0.081
-398.179	374.854	0.092	0.190
-397.165	28.770	-0.026	-0.022
-396.150	-59.472	0.220	-0.096
-395.136	86.886	0.134	-0.149
-394.121	-39.670	0.172	0.091
-393.106	-200.000	0.005	-0.159
-392.092	-200.000	0.002	0.409
-391.077	800.000	-0.125	0.376
-390.063	-115.150	-0.189	-0.036
-389.048	392.356	-0.167	-0.350
-388.033	481.729	0.114	0.260
-387.019	-160.243	-0.446	0.024
-386.004	-131.521	0.073	0.010
-384.990	800.000	0.061	0.226
-383.975	-105.203	-0.123	-0.028
-382.960	800.000	-0.153	0.475
-381.946	-127.994	0.139	-0.020
-380.931	-200.000	0.006	-0.129
-379.917	121.152	0.176	-0.221
-378.902	-117.186	0.329	0.060
-377.888	86.022	-0.159	0.177
-376.873	14.655	0.255	-0.201
-375.858	-200.000	0.071	-0.380
-374.844	14.847	0.276	-0.218
-373.829	800.000	-0.127	-0.462
-372.815	-134.099	-0.229	-0.028
-371.800	800.000	0.052	-0.218
-370.785	-55.080	-0.202	-0.092
-369.771	456.271	0.063	0.141
-368.756	800.000	0.013	-0.053
-367.742	-150.461	0.129	0.010
-366.727	-7.155	-0.280	0.191
-365.712	-91.139	-0.217	0.063
-364.698	436.935	-0.029	0.063
-363.683	77.348	0.242	0.259
-362.669	137.775	-0.146	0.193
-361.654	800.000	-0.056	0.161
-360.639	-38.969	-0.351	-0.186
-359.625	337.230	-0.097	-0.191
-358.610	-160.085	0.092	0.005
-357.596	263.481	0.151	-0.265
-356.581	146.948	0.205	-0.277
-355.566	-7.521	-0.072	-0.049
-354.552	-64.003	-0.061	0.025
-353.537	30.699	0.158	0.136
-352.523	24.229	-0.104	-0.087
-351.508	39.834	-0.175	0.158
-350.493	138.608	-0.175	-0.232
-349.479	231.919	-0.078	0.129
-348.464	437.607	0.101	0.222
-347.450	-12.419	0.250	0.164
-346.435	-150.303	0.242	-0.019
-345.420	800.000	0.157	-0.472
-344.406	208.253	-0.050	-0.079
-343.391	-200.000	0.062	0.293
-342.377	-78.318	0.036	0.013
-341.362	562.296	-0.073	0.178
-340.348	-161.599	0.230	-0.012
-339.333	-200.000	0.091	-0.436
-338.318	-0.786	0.074	-0.053
-337.304	337.672	0.053	0.105
-336.289	113.493	0.112	-0.137
-335.275	153.735	0.048	0.066
-334.260	36.399	0.129	0.115
-333.245	109.038	-0.090	-0.109
-332.231	-200.000	-0.025	0.277
-331.216	635.668	-0.037	0.096
-330.202	-153.311	-0.123	-0.009
-329.187	-14.539	0.195	0.126
-328.172	800.000	0.053	-0.188
-327.158	-106.513	0.108	-0.024
-326.143	18.715	-0.032	0.026
-325.129	-21.348	-0.294	-0.181
-324.114	800.000	0.026	-0.080
-323.099	800.000	-0.065	-0.246
-322.085	-53.384	-0.319	0.147
-321.070	-16.682	0.293	-0.186
-320.056	457.130	0.050	0.112
-319.041	17.475	-0.155	-0.124
-318.026	222.174	0.159	-0.258
-317.012	-9.700	-0.169	0.113
-315.997	23.549	-0.119	-0.099
-314.983	24.084	-0.128	0.106
-313.968	-86.749	-0.146	0.045
-312.953	-200.000	0.070	-0.398
-311.939	69.980	0.083	-0.086
-310.924	-107.633	0.243	0.053
-309.910	310.283	0.162	-0.305
-308.895	-25.841	0.044	0.026
-307.880	348.388	-0.103	-0.205
-306.866	-79.292	0.363	-0.124
-305.851	210.289	0.151	0.238
-304.837	-154.646	-0.229	0.015
-303.822	-69.747	-0.167	-0.064
-302.807	51.749	-0.292	-0.279
-301.793	-127.476	0.046	0.007
-300.778	-26.274	0.284	-0.167
-299.764	154.406	0.135	-0.187
-298.749	-85.381	0.137	0.043
-297.735	-33.752	-0.163	-0.090
-296.720	605.049	-0.002	-0.005
-295.705	181.420	-0.227	0.335
-294.691	166.060	0.156	-0.222
-293.676	449.289	0.055	0.122
-292.662	-134.345	-0.181	0.022
-291.647	200.011	0.093	-0.143
-290.632	-200.000	0.025	0.243
-289.618	587.134	0.045	-0.112
-288.603	-89.083	-0.196	0.058
-287.589	737.607	0.069	-0.186
-286.574	-200.000	-0.051	-0.266
-285.559	800.000	-0.083	-0.249
-284.545	338.634	-0.164	0.321
-283.530	332.041	0.118	-0.228
-282.516	-89.668	-0.289	-0.085
-281.501	317.608	-0.076	0.144
-280.486	-77.839	0.281	-0.097
-279.472	89.304	-0.024	-0.026
-278.457	19.940	0.078	-0.063
-277.443	-31.627	0.115	0.065
-276.428	229.008	0.168	-0.275
-275.413	91.686	0.098	-0.110
-274.399	277.615	-0.033	-0.059
-273.384	2.542	0.145	0.106
-272.370	800.000	0.037	-0.132
-271.355	-19.872	-0.126	-0.078
-270.340	8.275	-0.074	-0.056
-269.326	800.000	0.095	0.305
-268.311	-73.108	-0.212	-0.078
-267.297	47.602	-0.172	0.161
-266.282	442.947	-0.036	0.080
-265.267	800.000	-0.205	0.614
-264.253	-200.000	-0.060	0.294
-263.238	297.360	0.148	-0.273
-262.224	-119.368	0.119	-0.021
-261.209	-127.696	0.190	0.028
-260.195	161.003	0.235	-0.330
-259.180	397.098	-0.098	-0.205
-258.165	132.219	0.070	0.090
-257.151	437.456	-0.063	0.138
-256.136	-124.153	0.391	0.062
-255.122	445.004	-0.134	0.294
-254.107	-112.971	0.038	-0.008
-253.092	6.208	0.169	0.125
-252.078	365.283	0.093	-0.189
-251.063	-167.993	-0.106	0.004
-250.049	-129.118	0.077	-0.011
-249.034	-200.000	0.006	0.166
-248.019	-200.000	0.073	-0.325
-247.005	-63.078	0.124	0.051
-245.990	26.188	-0.235	0.197
-244.976	-118.286	-0.217	0.039
-243.961	-86.308	-0.242	0.075
-242.946	-200.000	0.063	0.281
-241.932	-7.218	0.246	0.168
-240.917	-97.861	-0.192	-0.050
-239.903	-200.000	0.044	0.275
-238.888	26.568	-0.263	-0.221
-237.873	-140.909	-0.239	0.025
-236.859	196.090	0.147	-0.224
-235.844	-113.797	-0.351	-0.068
-234.830	66.996	-0.062	-0.064
-233.815	-59.482	0.170	-0.073
-232.800	-139.601	0.026	-0.003
-231.786	46.328	-0.170	-0.158
-230.771	290.476	-0.200	-0.364
-229.757	-200.000	0.015	0.209
-228.742	-101.583	-0.310	0.075
-227.727	392.619	-0.212	-0.442
-226.713	209.634	-0.145	0.227
-225.698	234.232	-0.108	0.178
-224.684	-40.212	0.219	0.114
-223.669	-54.718	-0.283	0.128
-222.655	517.474	0.103	0.242
-221.640	-200.000	0.013	0.150
-220.625	163.642	-0.020	0.028
-219.611	171.336	0.160	-0.230
-218.596	583.268	0.045	0.111
-217.582	187.360	0.098	0.147
-216.567	111.131	0.032	0.038
-215.552	-200.000	0.011	0.107
-214.538	-200.000	-0.010	-0.350
-213.523	261.478	-0.153	0.266
-212.509	55.657	-0.276	0.268
-211.494	800.000	0.097	0.418
-210.479	197.485	-0.071	0.108
-209.465	-152.989	-0.169	0.012
-208.450	65.220	0.273	0.276
-207.436	-18.651	0.104	0.065
-206.421	174.694	0.139	-0.201
-205.406	-126.409	0.180	-0.027
-204.392	-200.000	-0.035	-0.482
-203.377	-200.000	-0.008	-0.231
-202.363	45.661	-0.234	0.216
-201.348	-47.249	0.127	-0.062
-200.333	26.816	0.085	0.071
-199.319	-200.000	-0.031	-0.234
-198.304	-200.000	0.050	0.234
-197.290	524.362	-0.139	-0.328
-196.275	192.143	0.031	0.047
-195.260	-19.145	-0.050	0.031
-194.246	-134.987	0.108	0.013
-193.231	64.300	0.270	-0.272
-192.217	548.967	-0.139	-0.334
-191.202	187.441	-0.036	0.054
-190.187	132.165	-0.109	0.140
-189.173	125.645	-0.058	0.073
-188.158	-71.285	0.209	-0.078
-187.144	-103.362	-0.258	0.061
-186.129	63.823	0.137	-0.138
-185.114	-119.653	0.113	-0.020
-184.100	-200.000	0.001	-0.198
-183.085	-111.482	-0.106	0.022
-182.071	411.420	0.117	-0.248
-181.056	36.722	-0.153	-0.135
-180.042	292.968	0.104	-0.189
-179.027	250.700	0.179	-0.305
-178.012	57.151	-0.025	-0.024
-176.998	13.407	0.212	0.165
-175.983	-87.636	-0.145	-0.044
-174.969	71.747	0.035	-0.036
-173.954	785.820	0.101	0.276
-172.939	49.194	-0.238	0.224
-171.925	25.697	0.136	0.114
-170.910	-171.261	0.129	0.004
-169.896	-73.679	0.220	0.080
-168.881	449.730	0.123	-0.270
-167.866	-36.530	0.267	-0.144
-166.852	28.338	0.026	-0.022
-165.837	-108.667	-0.238	-0.051
-164.823	800.000	0.119	0.410
-163.808	-200.000	0.010	-0.152
-162.793	-21.471	-0.170	0.104
-161.779	-200.000	0.020	0.231
-160.764	340.823	-0.111	0.217
-159.750	-35.720	-0.266	-0.144
-158.735	8.489	0.261	-0.196
-157.720	30.390	0.181	0.154
-156.706	474.250	0.082	0.185
-155.691	-105.465	0.086	-0.019
-154.677	572.438	-0.232	-0.564
-153.662	5.288	0.287	0.212
-152.647	-200.000	0.026	-0.142
-151.633	-200.000	-0.028	0.441
-150.618	-113.714	0.101	0.020
-149.604	-59.556	0.134	0.058
-148.589	-98.814	-0.151	-0.038
-147.574	-200.000	0.038	-0.275
-146.560	4.686	0.257	-0.189
-145.545	-92.037	-0.330	-0.093
-144.531	-73.392	0.076	-0.028
-143.516	-57.514	0.346	-0.152
-142.502	-120.159	-0.334	0.057
-141.487	-16.627	0.062	0.039
-140.472	-159.688	0.186	0.010
-139.458	800.000	-0.063	-0.275
-138.443	-83.300	-0.193	-0.062
-137.429	-1.134	0.123	0.087
-136.414	-63.386	-0.156	-0.064
-135.399	27.599	-0.295	0.248
-134.385	397.967	0.036	0.075
-133.370	-105.095	-0.305	-0.070
-132.356	690.921	-0.063	-0.165
-131.341	-117.730	0.198	0.036
-130.326	124.484	0.092	-0.116
-129.312	-117.332	0.058	0.011
-128.297	-9.756	-0.201	-0.134
-127.283	127.567	-0.115	-0.146
-126.268	-200.000	0.088	0.398
-125.253	632.301	-0.129	-0.327
-124.239	-200.000	0.008	0.311
-123.224	-27.491	0.309	0.179
-122.210	-124.721	-0.314	0.049
-121.195	215.175	-0.144	0.229
-120.180	800.000	0.112	-0.354
