DTS Sentinel unit serial number:	SN413079Multiplexer serial number:	ORYXHardware model number:	OX4-SRSoftware version number:	ORYX F/W v4.00 Oryx Data Collector v3.7.2.0data status	okinstallation	princeton_trtdifferential loss correction	single-endedforward channel	channel 2reverse channel	N/Adate	2019/09/14time	11:11:35forward acquisition time	60.00reverse acquisition time	0.00gamma	496.2192k internal	0.2312k external	0.2312temperature offset calibration	1.0151default loss term (dB/km)	0.3790temperature slope calibration	1.0000multiplexer offset coefficient	1.0000multiplexer slope coefficient	1.0000fibre end	0.00T internal ref (°C)	36.44T ext. ref 1 (°C)	4.46T ext. ref 2 (°C)	33.87length (m)	temperature (°C)	Stokes	anti-Stokes-747.200	614.624	0.065	-0.164
-746.185	31.455	-0.112	-0.098
-745.171	-200.000	-0.001	0.005
-744.156	800.000	0.022	0.073
-743.142	-85.093	-0.148	0.047
-742.127	-200.000	0.026	0.146
-741.112	-88.320	0.181	-0.055
-740.098	-68.310	-0.090	-0.036
-739.083	0.793	-0.321	-0.233
-738.069	-109.412	-0.419	-0.090
-737.054	-71.199	0.084	0.032
-736.039	44.725	-0.299	-0.279
-735.025	-200.000	0.001	0.319
-734.010	631.672	0.032	-0.083
-732.996	186.842	-0.267	-0.404
-731.981	-129.420	-0.232	0.033
-730.966	800.000	-0.058	0.237
-729.952	-200.000	-0.027	-0.283
-728.937	13.588	-0.307	-0.242
-727.923	800.000	0.056	0.223
-726.908	800.000	-0.045	-0.135
-725.894	-200.000	-0.028	-0.213
-724.879	-82.830	0.098	-0.032
-723.864	-129.947	-0.219	-0.030
-722.850	98.450	-0.161	-0.188
-721.835	-96.509	-0.429	-0.115
-720.821	4.302	0.311	0.231
-719.806	12.568	-0.273	0.214
-718.791	-200.000	-0.005	0.081
-717.777	95.485	-0.129	-0.150
-716.762	-55.333	-0.304	0.139
-715.748	-32.888	-0.290	-0.163
-714.733	-143.392	0.365	0.035
-713.718	-200.000	-0.005	-0.057
-712.704	-76.159	-0.240	0.086
-711.689	290.128	0.133	-0.244
-710.675	800.000	0.075	0.249
-709.660	-12.186	0.240	0.159
-708.645	607.185	0.131	0.331
-707.631	-80.267	0.211	-0.072
-706.616	-16.098	-0.135	0.087
-705.602	107.967	-0.095	-0.115
-704.587	800.000	-0.024	0.090
-703.572	-200.000	0.026	0.147
-702.558	-35.716	0.042	-0.023
-701.543	492.360	-0.039	0.091
-700.529	-111.402	-0.557	0.115
-699.514	-77.101	-0.120	-0.042
-698.499	-57.265	-0.179	0.080
-697.485	43.897	-0.255	-0.236
-696.470	-82.044	-0.215	-0.071
-695.456	800.000	0.091	-0.392
-694.441	640.929	0.206	-0.532
-693.426	-66.455	-0.124	0.050
-692.412	800.000	-0.072	0.239
-691.397	2.545	0.081	-0.059
-690.383	-70.683	-0.212	0.081
-689.368	52.738	0.190	-0.184
-688.354	229.964	-0.058	0.096
-687.339	-38.622	0.308	0.165
-686.324	156.875	-0.116	0.162
-685.310	-200.000	0.004	0.048
-684.295	-29.188	-0.264	-0.153
-683.281	212.059	-0.110	-0.176
-682.266	-70.285	-0.198	-0.076
-681.251	-182.962	-0.102	0.002
-680.237	-200.000	0.001	-0.127
-679.222	190.374	-0.169	-0.257
-678.208	108.493	0.024	-0.030
-677.193	-200.000	-0.009	0.271
-676.178	335.034	0.076	0.150
-675.164	800.000	-0.037	0.157
-674.149	-188.254	0.284	-0.004
-673.135	800.000	-0.107	-0.413
-672.120	-137.681	-0.158	-0.018
-671.105	-0.196	-0.185	-0.133
-670.091	800.000	-0.019	0.066
-669.076	181.557	-0.225	0.335
-668.062	205.270	-0.046	-0.073
-667.047	-89.289	0.262	-0.078
-666.032	171.749	-0.076	-0.111
-665.018	-153.624	-0.069	0.005
-664.003	-110.781	0.243	-0.051
-662.989	6.343	0.332	-0.249
-661.974	-7.173	0.289	0.199
-660.959	272.744	-0.152	-0.272
-659.945	-137.919	0.479	-0.054
-658.930	-0.722	0.268	-0.192
-657.916	-188.846	0.320	-0.004
-656.901	62.669	-0.135	-0.136
-655.886	-64.346	-0.255	-0.105
-654.872	-167.161	-0.175	-0.007
-653.857	102.553	-0.096	-0.114
-652.843	-65.010	-0.077	-0.032
-651.828	-200.000	0.041	-0.437
-650.814	491.238	-0.054	-0.124
-649.799	1.516	-0.055	-0.040
-648.784	293.214	0.088	-0.163
-647.770	-200.000	-0.019	-0.262
-646.755	800.000	-0.131	0.369
-645.741	785.839	-0.068	0.190
-644.726	-72.405	-0.404	-0.151
-643.711	-20.244	-0.138	0.086
-642.697	52.661	0.161	0.155
-641.682	-98.532	0.041	-0.011
-640.668	-152.562	-0.073	-0.005
-639.653	550.214	0.062	-0.150
-638.638	-200.000	0.023	-0.301
-637.624	2.927	-0.359	-0.263
-636.609	114.149	-0.072	-0.089
-635.595	13.395	0.162	0.127
-634.580	138.673	0.063	0.084
-633.565	150.024	-0.187	0.256
-632.551	56.422	0.060	0.059
-631.536	-200.000	0.014	-0.275
-630.522	11.552	0.087	0.067
-629.507	-93.851	-0.267	-0.074
-628.492	-41.961	0.082	-0.043
-627.478	284.363	-0.100	-0.182
-626.463	92.550	0.059	-0.068
-625.449	83.759	-0.316	0.348
-624.434	-123.118	-0.211	0.034
-623.419	800.000	0.003	0.008
-622.405	21.224	0.092	-0.075
-621.390	85.674	-0.222	0.246
-620.376	-107.736	-0.360	-0.079
-619.361	-11.153	0.150	-0.100
-618.346	800.000	-0.073	-0.310
-617.332	800.000	-0.030	-0.122
-616.317	-154.855	0.106	-0.007
-615.303	-150.677	0.047	0.004
-614.288	-45.462	-0.120	-0.060
-613.273	800.000	-0.079	0.222
-612.259	215.327	0.272	-0.436
-611.244	-200.000	0.058	-0.259
-610.230	-102.254	0.250	-0.061
-609.215	158.019	0.053	-0.073
-608.201	31.504	-0.200	-0.174
-607.186	800.000	-0.050	-0.162
-606.171	356.881	0.126	0.254
-605.157	127.096	-0.386	0.494
-604.142	136.629	-0.163	0.214
-603.128	4.762	-0.075	0.056
-602.113	-74.743	0.030	0.011
-601.098	800.000	-0.091	0.376
-600.084	18.637	-0.201	-0.162
-599.069	525.448	-0.059	-0.140
-598.055	-142.776	0.064	-0.006
-597.040	-97.325	-0.208	-0.055
-596.025	-81.290	-0.209	0.070
-595.011	-148.867	-0.194	-0.016
-593.996	460.957	0.045	0.102
-592.982	-63.678	0.364	0.150
-591.967	247.492	-0.115	-0.197
-590.952	-200.000	0.006	-0.215
-589.938	-163.592	0.269	-0.013
-588.923	-74.327	-0.180	-0.066
-587.909	118.143	0.164	-0.204
-586.894	50.523	0.140	-0.134
-585.879	246.608	-0.074	0.126
-584.865	429.723	0.146	0.318
-583.850	-113.636	-0.287	-0.056
-582.836	585.885	0.043	-0.106
-581.821	800.000	0.007	0.025
-580.806	147.879	0.116	0.158
-579.792	-53.861	-0.404	-0.186
-578.777	-129.726	-0.442	0.061
-577.763	518.320	-0.037	0.086
-576.748	-11.258	-0.058	-0.039
-575.733	89.602	-0.071	0.080
-574.719	30.122	-0.092	0.079
-573.704	800.000	-0.101	-0.372
-572.690	-91.889	0.225	-0.064
-571.675	-51.086	-0.213	0.101
-570.661	574.282	-0.109	-0.268
-569.646	-200.000	-0.101	0.000
-568.631	5.906	-0.226	0.168
-567.617	519.282	-0.087	0.206
-566.602	800.000	0.046	0.189
-565.588	-45.613	-0.380	0.189
-564.573	-50.630	-0.100	0.048
-563.558	800.000	0.053	-0.153
-562.544	800.000	-0.056	-0.177
-561.529	186.897	0.174	-0.261
-560.515	279.086	0.112	0.201
-559.500	733.665	0.039	-0.105
-558.485	-162.140	0.219	-0.011
-557.471	-98.785	0.223	-0.057
-556.456	-13.213	0.186	-0.122
-555.442	-49.667	-0.130	-0.062
-554.427	22.317	0.287	-0.236
-553.412	-79.450	-0.015	-0.005
-552.398	319.096	-0.040	0.076
-551.383	-200.000	-0.012	0.148
-550.369	-121.454	0.269	-0.045
-549.354	101.315	0.100	-0.118
-548.339	60.799	0.287	0.286
-547.325	220.189	0.132	-0.214
-546.310	800.000	0.049	-0.172
-545.296	-200.000	-0.010	-0.109
-544.281	594.436	-0.139	0.347
-543.266	-38.379	0.177	-0.094
-542.252	29.192	-0.123	0.105
-541.237	-161.840	-0.202	-0.010
-540.223	85.614	-0.213	-0.236
-539.208	61.582	0.163	0.163
-538.193	-12.243	0.128	0.084
-537.179	-74.639	0.070	-0.025
-536.164	62.077	-0.101	0.101
-535.150	-12.194	0.170	-0.112
-534.135	277.647	-0.075	-0.134
-533.121	99.500	-0.086	-0.100
-532.106	-200.000	-0.024	0.146
-531.091	-136.069	-0.190	0.022
-530.077	443.960	0.146	0.322
-529.062	-200.000	-0.032	0.186
-528.048	-6.307	-0.142	0.098
-527.033	-32.845	-0.122	-0.068
-526.018	94.078	-0.182	-0.208
-525.004	8.011	0.093	0.070
-523.989	-154.223	-0.285	-0.019
-522.975	115.171	-0.172	-0.212
-521.960	-67.796	0.078	-0.031
-520.945	-27.001	-0.038	-0.022
-519.931	44.053	0.114	0.105
-518.916	-200.000	-0.009	-0.057
-517.902	-74.965	0.172	0.062
-516.887	-127.512	-0.347	0.051
-515.872	-135.579	0.075	0.009
-514.858	94.043	0.130	-0.149
-513.843	-30.857	0.152	-0.086
-512.829	75.772	-0.081	-0.086
-511.814	800.000	0.025	-0.073
-510.799	-129.596	0.135	-0.019
-509.785	-129.551	0.416	-0.058
-508.770	-72.363	0.258	-0.096
-507.756	800.000	0.039	0.107
-506.741	-6.628	-0.353	0.241
-505.726	-200.000	0.039	0.394
-504.712	-200.000	-0.002	-0.157
-503.697	85.322	0.132	-0.146
-502.683	-200.000	-0.024	0.250
-501.668	-94.566	-0.119	0.033
-500.653	-63.679	-0.258	-0.106
-499.639	447.692	0.082	-0.182
-498.624	-80.695	-0.277	-0.092
-497.610	-115.642	0.139	0.026
-496.595	265.644	-0.141	-0.248
-495.581	-33.038	0.161	-0.090
-494.566	164.330	0.083	0.118
-493.551	15.258	-0.242	-0.190
-492.537	281.115	0.193	-0.348
-491.522	-200.000	-0.001	0.200
-490.508	-200.000	0.005	0.103
-489.493	-79.506	0.258	0.088
-488.478	-8.144	0.084	0.057
-487.464	-66.908	0.345	0.137
-486.449	800.000	0.075	0.283
-485.435	-167.222	0.341	0.014
-484.420	95.188	-0.272	-0.312
-483.405	-83.838	-0.304	0.097
-482.391	-200.000	-0.017	-0.294
-481.376	-38.348	0.170	-0.091
-480.362	-119.137	0.161	-0.028
-479.347	-200.000	0.063	-0.336
-478.332	-110.126	-0.230	-0.048
-477.318	-104.794	0.228	0.053
-476.303	268.133	-0.014	-0.024
-475.289	-79.482	-0.337	0.115
-474.274	-200.000	-0.055	0.334
-473.259	800.000	0.116	-0.351
-472.245	305.222	-0.120	-0.225
-471.230	2.486	-0.276	0.200
-470.216	800.000	-0.103	-0.340
-469.201	800.000	0.035	0.142
-468.186	48.356	0.249	0.234
-467.172	-58.324	0.244	0.107
-466.157	-148.918	-0.186	0.015
-465.143	-34.104	0.238	-0.131
-464.128	-200.000	0.013	-0.141
-463.113	248.550	-0.098	0.167
-462.099	294.220	-0.165	0.302
-461.084	316.602	-0.057	-0.108
-460.070	-200.000	0.026	-0.497
-459.055	-128.663	-0.254	-0.036
-458.040	-85.546	0.084	-0.026
-457.026	276.813	-0.222	0.395
-456.011	800.000	0.029	-0.108
-454.997	-38.801	-0.257	0.136
-453.982	-75.004	0.171	-0.061
-452.968	-138.910	0.047	-0.005
-451.953	-166.847	-0.454	0.019
-450.938	-99.729	0.039	0.010
-449.924	31.971	0.089	0.077
-448.909	370.088	0.056	-0.115
-447.895	88.993	0.327	-0.365
-446.880	-200.000	-0.011	-0.274
-445.865	80.987	-0.122	0.132
-444.851	-103.870	-0.069	0.016
-443.836	-48.470	0.158	0.076
-442.822	52.873	0.151	-0.145
-441.807	800.000	0.105	0.336
-440.792	-20.605	-0.367	-0.226
-439.778	49.630	-0.139	-0.131
-438.763	281.263	0.110	-0.197
-437.749	-200.000	-0.027	-0.234
-436.734	77.001	-0.161	-0.172
-435.719	654.026	0.082	0.210
-434.705	-83.825	0.262	-0.084
-433.690	-200.000	0.027	0.164
-432.676	421.143	-0.018	-0.038
-431.661	367.093	0.115	-0.233
-430.646	91.669	0.110	0.124
-429.632	618.802	0.044	0.112
-428.617	328.242	-0.053	-0.102
-427.603	-200.000	0.006	0.124
-426.588	-200.000	-0.012	0.150
-425.573	-12.432	-0.080	0.052
-424.559	-165.079	-0.078	0.003
-423.544	195.657	-0.116	-0.176
-422.530	247.365	-0.134	0.226
-421.515	24.485	0.218	0.180
-420.500	-155.610	0.256	0.017
-419.486	797.267	-0.050	-0.139
-418.471	10.498	-0.344	-0.262
-417.457	94.482	-0.178	0.203
-416.442	800.000	-0.108	-0.412
-415.428	-200.000	0.036	0.264
-414.413	264.051	0.138	0.240
-413.398	170.371	0.102	-0.146
-412.384	54.054	0.043	0.042
-411.369	220.483	0.075	-0.120
-410.355	-200.000	0.017	0.232
-409.340	130.466	-0.243	0.312
-408.325	-167.735	0.237	0.009
-407.311	232.439	0.129	-0.212
-406.296	-200.000	-0.088	0.000
-405.282	-90.723	0.141	0.041
-404.267	-115.240	-0.076	-0.014
-403.252	-200.000	0.053	-0.418
-402.238	349.316	0.089	-0.175
-401.223	-118.053	0.166	-0.030
-400.209	-200.000	0.007	0.108
-399.194	-20.202	-0.185	0.114
-398.179	800.000	0.051	-0.157
-397.165	-40.927	0.394	0.204
-396.150	-115.269	-0.160	-0.030
-395.136	505.558	0.062	-0.145
-394.121	-200.000	0.019	-0.234
-393.106	800.000	-0.044	0.189
-392.092	-48.885	-0.158	0.076
-391.077	-147.956	0.392	0.033
-390.063	429.295	-0.056	0.121
-389.048	-57.028	0.156	-0.069
-388.033	-154.683	0.188	0.013
-387.019	177.812	0.107	-0.155
-386.004	-8.334	0.180	0.122
-384.990	140.203	0.185	0.245
-383.975	-200.000	-0.033	0.198
-382.960	38.245	0.084	0.075
-381.946	-95.103	-0.051	-0.014
-380.931	149.200	-0.096	-0.130
-379.917	21.584	-0.039	0.032
-378.902	-13.049	0.073	0.048
-377.888	208.191	0.052	-0.082
-376.873	-74.228	0.189	0.068
-375.858	62.270	0.246	0.245
-374.844	-145.940	-0.188	-0.017
-373.829	-200.000	-0.016	0.210
-372.815	366.661	0.102	0.205
-371.800	136.249	-0.298	0.388
-370.785	-174.943	0.061	-0.002
-369.771	-70.751	-0.135	-0.051
-368.756	25.656	0.129	-0.108
-367.742	-80.883	0.195	-0.065
-366.727	204.934	-0.136	-0.211
-365.712	-200.000	-0.023	-0.157
-364.698	-120.492	-0.352	0.060
-363.683	-45.480	0.374	-0.185
-362.669	-103.403	-0.065	0.015
-361.654	800.000	0.049	0.159
-360.639	-200.000	0.008	0.079
-359.625	256.230	0.115	0.197
-358.610	800.000	-0.105	0.335
-357.596	800.000	-0.079	0.224
-356.581	76.236	-0.054	0.057
-355.566	45.438	0.091	-0.084
-354.552	99.135	-0.079	-0.091
-353.537	-11.041	-0.123	-0.081
-352.523	800.000	-0.068	-0.280
-351.508	321.488	0.086	-0.164
-350.493	-134.291	0.176	-0.022
-349.479	-45.397	-0.201	0.100
-348.464	-26.176	0.173	-0.102
-347.450	-85.369	0.368	-0.115
-346.435	-200.000	0.031	0.242
-345.420	506.309	-0.087	-0.201
-344.406	164.441	-0.105	-0.147
-343.391	800.000	-0.109	-0.307
-342.377	180.001	-0.031	-0.046
-341.362	3.452	0.222	-0.161
-340.348	-108.418	-0.189	-0.041
-339.333	579.918	0.043	0.105
-338.318	-104.028	-0.456	0.106
-337.304	231.330	0.170	0.278
-336.289	237.988	-0.123	0.203
-335.275	-53.565	0.324	0.148
-334.260	800.000	-0.050	-0.203
-333.245	186.859	-0.063	-0.094
-332.231	-146.687	0.196	0.017
-331.216	29.009	0.076	0.065
-330.202	-166.372	-0.260	0.011
-329.187	82.278	0.056	0.060
-328.172	130.599	0.125	-0.160
-327.158	76.792	0.210	0.222
-326.143	50.657	-0.088	-0.084
-325.129	800.000	-0.051	0.185
-324.114	-200.000	0.012	0.349
-323.099	322.476	0.097	-0.185
-322.085	-200.000	-0.011	0.051
-321.070	435.275	0.020	-0.044
-320.056	142.778	0.164	-0.218
-319.041	-172.622	0.140	-0.004
-318.026	-40.238	0.291	0.151
-317.012	331.836	-0.112	0.216
-315.997	2.188	-0.142	0.102
-314.983	45.645	-0.143	-0.132
-313.968	76.929	-0.177	-0.188
-312.953	430.335	-0.106	0.228
-311.939	-64.990	0.215	-0.087
-310.924	19.310	0.212	-0.170
-309.910	-18.212	-0.273	-0.170
-308.895	-80.135	-0.049	-0.016
-307.880	150.714	0.209	0.284
-306.866	130.615	-0.121	-0.154
-305.851	-162.709	0.390	-0.019
-304.837	59.319	0.194	0.190
-303.822	-200.000	0.030	0.192
-302.807	141.314	0.076	0.100
-301.793	800.000	0.155	0.584
-300.778	-200.000	0.011	0.366
-299.764	-17.286	-0.101	-0.063
-298.749	-27.706	-0.145	-0.084
-297.735	238.158	0.173	-0.286
-296.720	-200.000	-0.013	-0.061
-295.705	166.466	0.230	0.325
-294.691	407.596	-0.139	0.292
-293.676	-200.000	0.057	-0.297
-292.662	-200.000	0.031	0.196
-291.647	-200.000	0.003	-0.283
-290.632	-42.813	-0.289	0.147
-289.618	-169.408	-0.099	0.004
-288.603	-113.942	-0.154	-0.030
-287.589	100.644	0.188	0.218
-286.574	800.000	0.101	0.297
-285.559	553.362	0.151	0.361
-284.545	-152.218	-0.215	-0.016
-283.530	547.069	-0.208	0.496
-282.516	-35.507	0.250	-0.135
-281.501	-28.089	0.062	0.036
-280.486	-5.389	-0.077	0.053
-279.472	90.695	0.221	-0.247
-278.457	-180.978	0.226	-0.005
-277.443	-200.000	-0.035	-0.362
-276.428	0.169	0.277	-0.197
-275.413	34.198	0.105	0.091
-274.399	-51.421	-0.393	-0.183
-273.384	-37.876	0.150	0.080
-272.370	-129.916	0.132	-0.018
-271.355	-200.000	-0.034	0.316
-270.340	-39.555	0.094	0.049
-269.326	45.142	-0.165	-0.151
-268.311	32.630	-0.193	-0.166
-267.297	-56.663	0.261	0.115
-266.282	298.696	-0.176	0.323
-265.267	216.959	-0.034	-0.053
-264.253	79.270	0.286	0.305
-263.238	-99.201	-0.308	0.078
-262.224	-130.379	-0.042	-0.006
-261.209	-200.000	-0.002	0.195
-260.195	800.000	-0.046	-0.166
-259.180	505.368	-0.056	0.129
-258.165	800.000	-0.062	0.199
-257.151	-82.314	-0.121	0.039
-256.136	-145.900	-0.107	-0.009
-255.122	-200.000	-0.010	-0.142
-254.107	-38.167	0.151	-0.080
-253.092	-22.828	-0.111	0.067
-252.078	-200.000	-0.278	0.000
-251.063	-61.176	0.137	-0.058
-250.049	-200.000	0.004	-0.246
-249.034	656.399	0.168	-0.430
-248.019	715.004	0.030	-0.079
-247.005	340.192	0.173	0.336
-245.990	-71.614	0.141	-0.052
-244.976	800.000	0.140	0.387
-243.961	-101.684	-0.057	0.014
-242.946	-77.534	-0.186	0.064
-241.932	-200.000	-0.021	0.257
-240.917	281.973	-0.251	-0.447
-239.903	394.874	0.062	-0.130
-238.888	11.198	0.411	-0.313
-237.873	-151.752	-0.230	-0.017
-236.859	91.617	0.171	0.192
-235.844	58.895	0.227	-0.222
-234.830	-83.817	-0.176	0.056
-233.815	-126.039	0.070	0.010
-232.800	800.000	0.032	-0.137
-231.786	345.162	0.149	-0.290
-230.771	-165.108	-0.408	-0.018
-229.757	-73.166	-0.306	-0.112
-228.742	-200.000	0.018	-0.184
-227.727	800.000	-0.077	-0.239
-226.713	38.880	-0.115	0.103
-225.698	50.837	0.142	-0.134
-224.684	-15.736	-0.187	0.119
-223.669	-73.325	-0.412	-0.150
-222.655	-200.000	-0.013	0.292
-221.640	193.968	0.280	0.422
-220.625	115.700	-0.138	-0.168
-219.611	45.270	-0.144	0.132
-218.596	-16.170	-0.290	-0.183
-217.582	-122.538	-0.093	0.015
-216.567	223.438	0.097	-0.155
-215.552	800.000	0.039	-0.123
-214.538	0.600	0.036	0.026
-213.523	284.617	0.050	-0.090
-212.509	23.091	-0.126	0.103
-211.494	171.148	-0.108	-0.153
-210.479	-200.000	0.027	-0.156
-209.465	-2.602	0.233	-0.162
-208.450	25.576	-0.102	0.084
-207.436	-200.000	0.028	-0.159
-206.421	264.804	0.155	0.268
-205.406	56.060	0.098	-0.095
-204.392	-165.935	-0.284	-0.012
-203.377	92.909	0.179	-0.201
-202.363	-104.494	-0.574	0.132
-201.348	-89.960	-0.151	-0.044
-200.333	-72.966	0.220	0.080
-199.319	70.075	-0.114	0.117
-198.304	800.000	0.052	0.166
-197.290	800.000	-0.141	-0.532
-196.275	232.852	0.135	0.220
-195.260	123.834	0.199	-0.248
-194.246	89.564	-0.114	0.126
-193.231	-81.202	0.318	0.104
-192.217	58.608	-0.256	-0.249
-191.202	109.614	0.106	-0.126
-190.187	-200.000	-0.007	0.225
-189.173	775.259	-0.043	-0.116
-188.158	149.118	-0.107	0.143
-187.144	-33.508	0.070	-0.038
-186.129	-123.716	0.272	-0.043
-185.114	-124.318	-0.413	0.064
-184.100	42.365	0.064	0.058
-183.085	76.510	-0.189	-0.199
-182.071	32.031	-0.103	0.088
-181.056	256.852	0.128	0.218
-180.042	-84.218	0.233	-0.073
-179.027	-200.000	0.025	0.183
-178.012	385.396	0.170	0.349
-176.998	-138.612	-0.145	-0.016
-175.983	133.253	0.468	0.600
-174.969	110.758	-0.035	-0.042
-173.954	800.000	-0.124	-0.351
-172.939	800.000	-0.035	0.110
-171.925	310.412	-0.051	-0.095
-170.910	430.431	0.081	-0.173
-169.896	40.468	0.120	-0.107
-168.881	440.161	-0.153	0.332
-167.866	-4.222	0.049	0.034
-166.852	-185.646	-0.214	-0.003
-165.837	-91.638	0.310	0.088
-164.823	-200.000	0.049	0.401
-163.808	-51.556	-0.155	0.072
-162.793	-200.000	0.064	-0.334
-161.779	-82.296	0.401	0.129
-160.764	45.213	0.096	-0.088
-159.750	-200.000	0.061	0.381
-158.735	579.154	0.019	-0.047
-157.720	55.226	0.253	-0.243
-156.706	800.000	-0.056	-0.235
-155.691	55.270	0.116	-0.111
-154.677	-200.000	0.034	-0.195
-153.662	-200.000	-0.036	0.201
-152.647	208.205	-0.063	0.098
-151.633	-95.537	0.305	-0.081
-150.618	-59.617	-0.529	-0.225
-149.604	-200.000	-0.070	-0.331
-148.589	-200.000	0.025	-0.341
-147.574	800.000	0.051	0.211
-146.560	12.524	-0.181	-0.138
-145.545	184.201	0.112	-0.165
-144.531	-10.555	-0.175	0.115
-143.516	-200.000	0.010	-0.122
-142.502	39.023	-0.107	-0.095
-141.487	74.951	-0.145	0.152
-140.472	-44.220	-0.345	-0.171
-139.458	-200.000	-0.027	0.130
-138.443	122.053	-0.025	-0.032
-137.429	-75.992	0.222	-0.078
-136.414	-127.691	0.361	-0.052
-135.399	800.000	-0.191	0.629
-134.385	-104.289	-0.047	-0.011
-133.370	-126.245	-0.226	-0.033
-132.356	800.000	-0.067	0.224
-131.341	35.370	-0.190	0.165
-130.326	277.617	0.065	-0.115
-129.312	-134.449	-0.271	-0.033
-128.297	-100.700	0.133	0.033
-127.283	233.944	0.106	0.173
-126.268	-47.291	0.224	0.108
-125.253	112.617	-0.022	-0.027
-124.239	510.827	-0.088	-0.203
-123.224	-108.613	0.100	0.021
-122.210	-55.526	0.137	-0.061
-121.195	-124.652	-0.317	0.049
