DTS Sentinel unit serial number:	SN413079Multiplexer serial number:	ORYXHardware model number:	OX4-SRSoftware version number:	ORYX F/W v4.00 Oryx Data Collector v3.7.2.0data status	okinstallation	princeton_trtdifferential loss correction	single-endedforward channel	channel 2reverse channel	N/Adate	2019/09/10time	23:33:11forward acquisition time	60.00reverse acquisition time	0.00gamma	496.2192k internal	0.2330k external	0.2330temperature offset calibration	0.9944default loss term (dB/km)	0.3790temperature slope calibration	1.0000multiplexer offset coefficient	1.0000multiplexer slope coefficient	1.0000fibre end	0.00T internal ref (°C)	29.67T ext. ref 1 (°C)	-0.29T ext. ref 2 (°C)	23.12length (m)	temperature (°C)	Stokes	anti-Stokes-747.200	80.628	-0.042	0.045
-746.185	-22.342	-0.141	0.086
-745.171	-134.172	0.285	-0.035
-744.156	54.137	-0.098	0.095
-743.142	263.207	0.083	0.144
-742.127	-200.000	-0.020	0.124
-741.112	172.428	0.369	0.535
-740.098	100.182	-0.160	0.187
-739.083	364.120	-0.130	-0.264
-738.069	-200.000	-0.020	0.214
-737.054	800.000	-0.081	0.270
-736.039	-99.901	-0.300	-0.076
-735.025	162.653	0.084	0.119
-734.010	96.622	0.118	-0.136
-732.996	43.336	0.234	0.215
-731.981	-200.000	-0.008	-0.290
-730.966	-6.088	0.350	0.240
-729.952	-27.577	-0.275	-0.161
-728.937	800.000	-0.029	0.126
-727.923	-200.000	0.031	-0.147
-726.908	-34.335	0.141	-0.078
-725.894	-200.000	-0.010	0.262
-724.879	690.118	-0.185	0.486
-723.864	-200.000	0.041	0.261
-722.850	-200.000	-0.002	0.256
-721.835	289.864	0.058	-0.106
-720.821	-39.080	-0.295	-0.156
-719.806	-52.605	-0.241	0.112
-718.791	513.925	0.099	-0.233
-717.777	-100.598	-0.081	0.020
-716.762	102.893	-0.101	-0.119
-715.748	-179.527	-0.178	0.004
-714.733	64.192	-0.196	-0.198
-713.718	-200.000	0.275	-0.000
-712.704	-98.760	-0.153	-0.039
-711.689	282.801	0.085	-0.153
-710.675	33.786	-0.182	0.160
-709.660	-28.765	-0.048	-0.028
-708.645	267.903	-0.095	0.167
-707.631	167.108	0.221	-0.315
-706.616	-200.000	-0.008	0.055
-705.602	338.832	0.096	-0.188
-704.587	-102.737	0.266	-0.064
-703.572	-200.000	0.005	-0.348
-702.558	-78.929	0.190	-0.065
-701.543	342.186	-0.148	-0.291
-700.529	-46.601	-0.044	-0.022
-699.514	32.959	0.158	0.137
-698.499	138.895	-0.167	0.220
-697.485	669.982	-0.016	0.042
-696.470	-1.552	-0.110	0.078
-695.456	503.792	-0.081	-0.187
-694.441	-200.000	-0.010	-0.049
-693.426	-13.548	0.116	0.075
-692.412	67.739	-0.055	0.056
-691.397	-67.236	0.308	-0.122
-690.383	222.280	0.185	0.298
-689.368	-157.085	0.098	-0.006
-688.354	800.000	-0.017	0.058
-687.339	243.022	-0.027	0.045
-686.324	-98.884	0.191	0.049
-685.310	214.215	-0.047	-0.075
-684.295	800.000	-0.079	0.249
-683.281	62.155	-0.176	0.176
-682.266	171.729	-0.036	0.051
-681.251	-29.823	-0.260	-0.149
-680.237	441.041	0.063	0.138
-679.222	-4.714	0.098	-0.068
-678.208	-200.000	0.024	-0.306
-677.193	-102.540	0.204	-0.049
-676.178	-140.305	0.369	0.039
-675.164	-32.871	-0.021	-0.012
-674.149	48.931	-0.044	0.041
-673.135	-68.462	-0.253	-0.099
-672.120	64.521	0.036	0.036
-671.105	-31.798	0.151	-0.085
-670.091	-174.344	-0.145	0.004
-669.076	800.000	-0.055	-0.229
-668.062	305.727	-0.077	0.144
-667.047	-200.000	0.031	0.174
-666.032	-112.193	-0.104	-0.021
-665.018	-95.014	0.109	-0.029
-664.003	-117.593	-0.168	0.030
-662.989	-143.683	0.124	-0.012
-661.974	-200.000	0.013	-0.058
-660.959	-200.000	-0.030	0.201
-659.945	-117.383	0.342	-0.062
-658.930	87.704	-0.086	-0.095
-657.916	-138.213	-0.158	-0.018
-656.901	-11.245	-0.441	-0.291
-655.886	-200.000	0.004	0.089
-654.872	-31.913	0.033	0.019
-653.857	-79.484	0.337	-0.114
-652.843	-181.138	0.323	-0.006
-651.828	-2.872	-0.134	-0.094
-650.814	-25.465	0.073	0.044
-649.799	-81.059	0.176	-0.059
-648.784	-200.000	-0.055	0.309
-647.770	-47.916	-0.231	-0.112
-646.755	-90.747	-0.253	0.073
-645.741	-94.578	-0.171	-0.047
-644.726	-159.549	0.369	-0.021
-643.711	-200.000	0.003	-0.023
-642.697	800.000	0.031	-0.113
-641.682	-200.000	-0.049	-0.435
-640.668	-200.000	-0.013	-0.070
-639.653	500.588	0.146	-0.338
-638.638	310.400	0.032	-0.060
-637.624	3.189	0.300	0.219
-636.609	-200.000	-0.015	0.224
-635.595	800.000	0.013	-0.037
-634.580	-151.620	0.338	-0.025
-633.565	79.561	0.094	0.101
-632.551	-89.172	0.216	0.064
-631.536	-200.000	-0.028	0.214
-630.522	-89.527	-0.014	-0.004
-629.507	800.000	-0.026	0.101
-628.492	361.506	0.043	-0.086
-627.478	-19.072	-0.321	0.200
-626.463	-47.744	0.095	0.046
-625.449	317.942	-0.201	-0.382
-624.434	-200.000	-0.077	0.379
-623.419	-200.000	-0.009	0.078
-622.405	41.213	-0.114	-0.103
-621.390	800.000	-0.018	-0.077
-620.376	39.613	-0.109	-0.098
-619.361	-200.000	0.038	0.226
-618.346	-6.999	-0.190	-0.129
-617.332	-21.179	0.196	-0.120
-616.317	348.518	-0.158	-0.312
-615.303	12.978	0.308	0.239
-614.288	53.776	-0.119	-0.115
-613.273	282.609	-0.195	0.350
-612.259	-200.000	-0.030	-0.296
-611.244	-200.000	0.033	-0.210
-610.230	-87.181	-0.267	0.081
-609.215	88.121	-0.060	0.067
-608.201	45.002	-0.213	-0.197
-607.186	-200.000	0.047	-0.259
-606.171	100.099	-0.143	-0.166
-605.157	-75.408	-0.277	-0.099
-604.142	-51.436	-0.216	0.101
-603.128	-200.000	-0.064	0.286
-602.113	800.000	0.038	0.112
-601.098	-200.000	0.028	-0.304
-600.084	-4.079	0.269	-0.187
-599.069	-195.700	0.258	-0.002
-598.055	252.244	-0.038	0.064
-597.040	392.898	0.096	-0.201
-596.025	-157.229	-0.075	-0.005
-595.011	50.121	0.178	-0.168
-593.996	22.176	0.025	0.020
-592.982	-41.700	0.145	0.075
-591.967	-200.000	-0.023	-0.101
-590.952	551.653	0.045	-0.107
-589.938	54.169	-0.262	-0.252
-588.923	-200.000	-0.011	-0.063
-587.909	656.366	-0.071	0.184
-586.894	-121.842	-0.184	0.030
-585.879	-40.600	0.167	0.087
-584.865	-149.093	0.141	-0.011
-583.850	-79.710	0.108	0.036
-582.836	-125.970	0.260	0.039
-581.821	-93.953	-0.081	-0.022
-580.806	-200.000	-0.005	-0.083
-579.792	251.255	0.096	0.163
-578.777	255.922	0.061	-0.105
-577.763	-12.659	0.064	0.042
-576.748	-126.491	-0.114	0.017
-575.733	49.430	0.109	-0.103
-574.719	-142.424	-0.188	-0.018
-573.704	-200.000	-0.002	-0.038
-572.690	271.042	-0.172	0.303
-571.675	19.334	-0.143	0.115
-570.661	145.569	0.224	-0.301
-569.646	-32.615	-0.092	-0.051
-568.631	-147.098	0.197	0.017
-567.617	-200.000	0.052	-0.299
-566.602	-43.335	0.345	0.174
-565.588	344.475	-0.091	-0.179
-564.573	-124.768	0.174	-0.027
-563.558	-54.519	-0.021	0.009
-562.544	-109.853	0.186	-0.039
-561.529	-200.000	-0.001	0.153
-560.515	-200.000	0.049	-0.304
-559.500	-104.825	-0.320	0.074
-558.485	-23.700	0.199	-0.119
-557.471	55.706	-0.163	-0.157
-556.456	199.158	0.140	-0.214
-555.442	-200.000	0.006	-0.301
-554.427	-125.850	-0.173	-0.026
-553.412	-175.068	0.136	0.004
-552.398	-47.017	-0.124	-0.061
-551.383	-29.935	0.215	-0.122
-550.369	70.319	0.005	-0.005
-549.354	-10.208	0.097	0.064
-548.339	-173.385	0.707	0.021
-547.325	-120.540	-0.100	0.017
-546.310	-9.647	0.024	-0.016
-545.296	-25.515	-0.091	-0.054
-544.281	128.731	0.196	0.250
-543.266	-150.575	-0.507	0.039
-542.252	338.231	-0.067	0.131
-541.237	800.000	-0.053	0.157
-540.223	-200.000	0.052	0.270
-539.208	-155.533	0.121	0.008
-538.193	84.333	0.121	-0.132
-537.179	29.731	-0.162	-0.138
-536.164	-200.000	0.002	-0.092
-535.150	800.000	0.109	-0.382
-534.135	42.861	0.079	-0.072
-533.121	89.046	-0.097	0.108
-532.106	656.181	0.064	0.164
-531.091	51.317	0.204	0.193
-530.077	-32.575	0.347	0.193
-529.062	-178.517	-0.118	0.003
-528.048	70.587	0.158	0.163
-527.033	19.399	-0.145	-0.116
-526.018	-143.635	-0.361	-0.034
-525.004	-130.455	-0.352	-0.048
-523.989	800.000	-0.097	-0.411
-522.975	-200.000	-0.236	0.001
-521.960	-200.000	0.056	0.395
-520.945	-127.819	-0.144	0.021
-519.931	-200.000	0.036	0.295
-518.916	393.720	-0.101	0.211
-517.902	47.063	0.102	0.095
-516.887	-200.000	0.022	0.130
-515.872	41.545	-0.101	-0.091
-514.858	-67.780	-0.149	0.058
-513.843	-43.307	0.150	-0.076
-512.829	-72.316	0.153	0.057
-511.814	85.696	0.156	-0.172
-510.799	-200.000	0.067	0.303
-509.785	23.429	-0.098	0.081
-508.770	176.732	-0.101	-0.146
-507.756	-93.726	-0.144	0.040
-506.741	-200.000	0.025	-0.182
-505.726	-108.937	-0.521	0.111
-504.712	-68.032	-0.003	-0.001
-503.697	-200.000	0.012	0.063
-502.683	-137.153	0.412	-0.047
-501.668	-200.000	0.057	-0.317
-500.653	-127.034	-0.131	-0.019
-499.639	53.428	0.085	-0.081
-498.624	445.645	0.195	0.428
-497.610	116.783	-0.180	-0.221
-496.595	208.522	0.126	-0.197
-495.581	791.285	-0.106	-0.292
-494.566	26.226	0.260	0.217
-493.551	104.581	-0.190	0.223
-492.537	48.250	0.136	0.127
-491.522	121.975	0.045	0.057
-490.508	-200.000	-0.056	-0.326
-489.493	141.572	0.188	0.248
-488.478	27.993	0.154	0.130
-487.464	800.000	-0.078	0.275
-486.449	43.551	0.225	0.205
-485.435	-200.000	0.035	-0.175
-484.420	-3.336	-0.152	-0.106
-483.405	-200.000	-0.030	0.171
-482.391	-40.368	-0.062	-0.032
-481.376	-200.000	0.015	-0.151
-480.362	52.896	0.147	-0.140
-479.347	65.434	-0.056	-0.056
-478.332	327.089	-0.161	0.308
-477.318	123.930	-0.091	-0.114
-476.303	-200.000	0.020	0.164
-475.289	800.000	0.108	0.354
-474.274	-11.229	-0.080	-0.052
-473.259	-200.000	0.007	-0.231
-472.245	77.078	0.294	-0.311
-471.230	-200.000	-0.059	0.318
-470.216	-130.984	-0.223	0.030
-469.201	-158.779	0.348	-0.020
-468.186	-84.980	-0.192	-0.060
-467.172	529.407	-0.100	0.236
-466.157	-150.453	-0.142	0.011
-465.143	-34.306	0.396	0.216
-464.128	-91.519	0.297	-0.084
-463.113	-200.000	-0.036	0.268
-462.099	2.305	0.295	0.212
-461.084	-85.875	0.246	0.076
-460.070	800.000	-0.079	0.312
-459.055	323.883	-0.054	0.103
-458.040	-200.000	0.012	-0.206
-457.026	52.612	-0.236	-0.224
-456.011	-56.530	-0.390	0.172
-454.997	800.000	0.044	0.127
-453.982	-200.000	-0.078	0.370
-452.968	-73.980	-0.082	-0.030
-451.953	-155.301	0.324	-0.021
-450.938	359.006	0.091	-0.181
-449.924	-90.014	-0.134	-0.039
-448.909	-200.000	0.009	0.186
-447.895	581.387	-0.128	0.312
-446.880	-99.284	-0.219	0.055
-445.865	76.758	0.142	0.150
-444.851	-148.301	-0.178	0.015
-443.836	21.291	-0.245	0.198
-442.822	185.656	0.115	-0.170
-441.807	-28.137	0.290	0.167
-440.792	0.109	-0.199	0.141
-439.778	-52.852	-0.260	-0.119
-438.763	-105.751	0.102	0.023
-437.749	-95.578	0.291	0.077
-436.734	-43.462	-0.110	-0.055
-435.719	46.937	0.348	-0.322
-434.705	-80.085	0.049	-0.016
-433.690	-147.824	-0.190	0.016
-432.676	-99.322	-0.274	-0.069
-431.661	-22.510	0.067	-0.040
-430.646	345.175	-0.128	-0.250
-429.632	430.867	-0.097	0.209
-428.617	50.689	-0.187	-0.176
-427.603	-13.452	-0.207	0.134
-426.588	47.657	-0.376	0.349
-425.573	800.000	0.075	-0.276
-424.559	34.009	0.205	0.178
-423.544	-190.883	-0.178	-0.002
-422.530	655.296	0.170	0.434
-421.515	-200.000	0.048	-0.327
-420.500	-34.840	-0.051	-0.028
-419.486	0.455	0.253	0.180
-418.471	800.000	-0.078	-0.327
-417.457	-168.790	0.283	-0.011
-416.442	800.000	-0.107	-0.316
-415.428	-80.897	0.231	-0.076
-414.413	286.532	-0.098	-0.177
-413.398	-106.541	0.116	-0.026
-412.384	-200.000	0.016	0.082
-411.369	17.955	0.396	-0.314
-410.355	235.129	0.156	-0.256
-409.340	-200.000	-0.009	0.162
-408.325	-133.079	0.355	-0.045
-407.311	634.695	0.145	0.365
-406.296	233.496	0.108	0.177
-405.282	-16.077	-0.059	-0.037
-404.267	239.162	0.145	-0.239
-403.252	138.810	0.135	-0.177
-402.238	800.000	-0.083	-0.297
-401.223	107.463	-0.151	0.179
-400.209	479.432	0.055	0.124
-399.194	177.447	0.065	-0.094
-398.179	-95.573	-0.236	-0.063
-397.165	425.027	0.059	0.125
-396.150	-18.697	-0.212	-0.131
-395.136	352.806	0.071	0.139
-394.121	-89.823	0.026	-0.008
-393.106	800.000	-0.122	-0.350
-392.092	68.209	-0.017	0.018
-391.077	-200.000	-0.005	-0.243
-390.063	179.948	0.112	-0.163
-389.048	576.877	0.057	-0.139
-388.033	30.385	0.138	0.117
-387.019	43.682	0.070	-0.064
-386.004	-35.578	0.173	-0.093
-384.990	-91.028	-0.090	-0.026
-383.975	5.654	-0.172	0.126
-382.960	-126.607	-0.537	0.079
-381.946	800.000	-0.121	-0.351
-380.931	800.000	-0.009	0.028
-379.917	202.076	0.137	0.210
-378.902	-40.807	0.151	-0.077
-377.888	706.759	-0.110	0.287
-376.873	-47.889	-0.119	0.057
-375.858	76.619	-0.340	-0.357
-374.844	62.471	0.248	0.246
-373.829	160.108	0.147	-0.203
-372.815	213.767	-0.145	-0.228
-371.800	114.919	-0.148	-0.179
-370.785	800.000	0.094	-0.392
-369.771	-27.629	-0.164	0.095
-368.756	-35.005	-0.214	0.116
-367.742	-200.000	0.021	-0.280
-366.727	-200.000	-0.013	-0.090
-365.712	120.917	-0.309	-0.382
-364.698	51.038	0.133	-0.125
-363.683	73.626	-0.064	0.067
-362.669	165.299	-0.243	0.340
-361.654	354.410	0.075	0.148
-360.639	-200.000	-0.010	0.093
-359.625	800.000	-0.108	0.413
-358.610	-7.105	0.475	-0.320
-357.596	-200.000	0.036	-0.289
-356.581	-145.387	-0.227	-0.020
-355.566	276.597	0.113	-0.199
-354.552	-128.057	0.171	-0.024
-353.537	-200.000	0.016	0.126
-352.523	563.989	-0.106	-0.254
-351.508	359.972	-0.051	0.101
-350.493	800.000	0.053	0.162
-349.479	-200.000	0.031	0.191
-348.464	729.772	-0.076	-0.201
-347.450	257.214	0.043	-0.074
-346.435	-169.369	0.116	-0.004
-345.420	19.505	0.129	0.103
-344.406	-89.182	-0.310	-0.091
-343.391	-16.971	0.185	-0.116
-342.377	264.014	-0.218	0.376
-341.362	800.000	-0.119	0.337
-340.348	183.684	0.064	0.095
-339.333	182.574	0.117	-0.171
-338.318	286.089	-0.100	0.178
-337.304	-200.000	0.053	-0.285
-336.289	-144.938	-0.091	0.008
-335.275	800.000	-0.037	-0.153
-334.260	800.000	-0.066	-0.223
-333.245	800.000	0.031	-0.101
-332.231	-200.000	-0.003	-0.078
-331.216	6.392	-0.145	-0.106
-330.202	574.362	-0.209	0.505
-329.187	-8.128	-0.056	-0.037
-328.172	-169.018	-0.231	-0.009
-327.158	-200.000	-0.026	0.248
-326.143	14.140	0.378	0.292
-325.129	-118.743	-0.259	-0.045
-324.114	-2.165	0.301	0.209
-323.099	-163.714	0.132	-0.006
-322.085	58.369	-0.168	-0.163
-321.070	800.000	0.091	-0.271
-320.056	-145.450	-0.219	-0.020
-319.041	-200.000	-0.042	0.333
-318.026	-200.000	0.035	-0.187
-317.012	-1.057	-0.069	-0.048
-315.997	26.351	0.103	-0.085
-314.983	-153.012	-0.311	0.022
-313.968	-56.103	-0.300	0.132
-312.953	-200.000	-0.007	-0.115
-311.939	-61.395	-0.074	0.031
-310.924	-32.279	-0.362	-0.200
-309.910	-68.642	0.272	0.104
-308.895	315.082	0.200	0.372
-307.880	444.377	-0.059	0.128
-306.866	-44.222	0.274	-0.136
-305.851	-5.938	0.113	-0.077
-304.837	340.564	-0.053	0.103
-303.822	-64.291	-0.217	0.088
-302.807	-97.211	0.221	-0.057
-301.793	-5.080	0.397	0.270
-300.778	-65.123	-0.344	-0.137
-299.764	59.286	-0.056	0.055
-298.749	-124.279	-0.350	0.054
-297.735	479.283	-0.079	-0.177
-296.720	-85.756	0.296	0.091
-295.705	107.020	0.032	-0.037
-294.691	606.293	0.064	0.159
-293.676	85.654	0.076	0.082
-292.662	-96.180	-0.140	0.037
-291.647	-147.965	0.203	-0.017
-290.632	-200.000	0.003	-0.057
-289.618	254.396	0.083	0.141
-288.603	410.165	0.028	-0.060
-287.589	-83.698	-0.200	-0.063
-286.574	800.000	-0.030	0.085
-285.559	393.878	-0.161	0.331
-284.545	7.144	-0.103	-0.076
-283.530	-48.741	0.073	-0.034
-282.516	11.543	-0.099	-0.075
-281.501	216.272	0.131	0.206
-280.486	653.209	-0.041	-0.105
-279.472	-93.561	-0.137	0.038
-278.457	358.141	-0.162	0.319
-277.443	800.000	0.147	-0.465
-276.428	-155.955	-0.261	-0.016
-275.413	-165.407	0.088	-0.004
-274.399	229.105	0.219	-0.353
-273.384	10.753	-0.117	0.088
-272.370	-36.743	0.214	0.114
-271.355	-151.364	-0.110	0.008
-270.340	800.000	0.084	0.319
-269.326	-1.767	0.067	0.047
-268.311	123.244	0.068	-0.085
-267.297	114.185	0.198	-0.238
-266.282	214.259	0.054	0.085
-265.267	-74.251	0.248	-0.088
-264.253	216.175	0.136	-0.214
-263.238	-200.000	-0.011	-0.201
-262.224	547.026	-0.127	0.301
-261.209	-200.000	0.025	-0.276
-260.195	40.269	0.155	-0.137
-259.180	-95.730	0.400	0.106
-258.165	71.856	0.033	-0.034
-257.151	-154.574	0.247	-0.016
-256.136	-94.686	0.389	-0.104
-255.122	-200.000	-0.035	-0.319
-254.107	184.946	0.063	-0.092
-253.092	221.107	-0.074	0.117
-252.078	147.057	0.062	0.082
-251.063	350.217	0.081	-0.159
-250.049	800.000	-0.094	-0.349
-249.034	216.377	-0.099	-0.156
-248.019	-67.783	0.114	0.044
-247.005	26.621	0.088	0.072
-245.990	39.398	0.326	0.288
-244.976	800.000	-0.054	0.165
-243.961	99.061	0.151	-0.172
-242.946	-133.051	-0.429	0.054
-241.932	-200.000	-0.054	0.293
-240.917	535.741	0.051	-0.121
-239.903	-200.000	-0.074	0.346
-238.888	-200.000	-0.048	0.252
-237.873	-200.000	-0.014	0.190
-236.859	-166.211	0.272	-0.011
-235.844	351.361	-0.043	-0.084
-234.830	353.054	-0.104	-0.204
-233.815	800.000	-0.116	0.363
-232.800	-135.133	0.239	-0.028
-231.786	512.335	0.205	-0.470
-230.771	-96.356	0.084	-0.022
-229.757	-63.181	0.292	0.119
-228.742	-144.958	-0.027	-0.002
-227.727	-200.000	0.038	0.283
-226.713	-72.551	-0.176	-0.064
-225.698	669.169	0.064	0.164
-224.684	168.295	0.035	0.049
-223.669	-55.175	-0.235	-0.104
-222.655	139.092	0.174	0.226
-221.640	-80.138	-0.494	0.163
-220.625	94.483	-0.170	-0.191
-219.611	800.000	0.092	-0.316
-218.596	-200.000	-0.007	-0.255
-217.582	800.000	0.060	0.219
-216.567	-53.485	-0.262	-0.118
-215.552	-200.000	0.048	-0.366
-214.538	193.161	-0.199	0.297
-213.523	-93.346	0.115	0.032
-212.509	-200.000	-0.055	-0.250
-211.494	96.788	-0.394	0.445
-210.479	193.408	0.113	0.169
-209.465	-104.569	-0.320	-0.073
-208.450	800.000	0.106	0.427
-207.436	800.000	-0.047	-0.132
-206.421	108.496	-0.114	-0.135
-205.406	-93.460	-0.376	-0.103
-204.392	-186.834	0.308	-0.004
-203.377	-120.739	-0.156	-0.026
-202.363	-29.642	0.034	0.019
-201.348	-200.000	0.041	-0.456
-200.333	-200.000	-0.012	-0.122
-199.319	47.281	-0.070	-0.064
-198.304	331.149	0.180	0.341
-197.290	-91.778	0.063	0.018
-196.275	58.027	-0.049	-0.047
-195.260	800.000	-0.149	0.411
-194.246	-11.797	0.186	-0.120
-193.231	49.467	-0.131	0.121
-192.217	-89.785	0.450	-0.130
-191.202	-53.539	-0.119	-0.054
-190.187	-90.578	0.170	0.049
-189.173	48.913	-0.041	0.038
-188.158	-5.431	0.239	-0.162
-187.144	49.967	-0.218	0.203
-186.129	281.218	-0.053	0.093
-185.114	147.945	-0.126	0.167
-184.100	66.467	0.201	-0.201
-183.085	56.299	0.132	0.126
-182.071	-131.228	-0.223	-0.029
-181.056	198.522	0.089	-0.134
-180.042	-10.448	-0.310	0.202
-179.027	80.150	-0.237	0.252
-178.012	385.112	-0.143	-0.291
-176.998	82.061	0.115	-0.122
-175.983	181.934	0.031	0.045
-174.969	19.180	0.149	-0.118
-173.954	305.661	-0.120	0.219
-172.939	800.000	-0.119	0.340
-171.925	-111.584	-0.106	0.021
-170.910	-200.000	0.049	-0.229
-169.896	-34.557	-0.199	0.107
-168.881	266.704	-0.047	0.081
-167.866	-52.666	-0.201	-0.091
-166.852	-200.000	0.009	-0.208
-165.837	-200.000	0.023	-0.243
-164.823	-74.544	0.019	-0.007
-163.808	18.560	0.186	0.147
-162.793	-155.968	0.234	0.015
-161.779	165.704	-0.139	0.193
-160.764	-140.123	0.201	0.021
-159.750	-56.402	-0.099	-0.043
-158.735	-200.000	-0.000	0.090
-157.720	-200.000	0.004	-0.041
-156.706	800.000	0.042	0.177
-155.691	-33.080	0.320	0.174
-154.677	213.754	-0.026	0.040
-153.662	-53.932	-0.371	0.166
-152.647	16.913	-0.221	0.172
-151.633	405.115	0.118	-0.244
-150.618	169.584	-0.106	-0.149
-149.604	139.707	0.225	0.292
-148.589	-94.321	0.212	0.057
-147.574	-118.108	0.420	0.074
-146.560	13.506	-0.163	0.125
-145.545	370.865	-0.072	0.143
-144.531	89.529	0.106	-0.116
-143.516	-84.504	-0.099	0.031
-142.502	800.000	0.036	0.148
-141.487	-187.208	0.281	0.004
-140.472	20.759	0.019	-0.015
-139.458	-42.123	-0.297	0.149
-138.443	-137.095	-0.178	-0.020
-137.429	-108.582	0.167	0.035
-136.414	-27.941	0.283	0.161
-135.399	763.287	0.019	0.049
-134.385	800.000	0.076	0.257
-133.370	12.765	-0.162	-0.123
-132.356	-7.792	-0.108	-0.072
-131.341	800.000	0.077	-0.233
-130.326	-98.227	-0.301	-0.076
-129.312	-116.965	0.020	0.004
-128.297	117.797	0.025	0.031
-127.283	800.000	-0.065	0.180
-126.268	116.975	-0.005	-0.006
-125.253	215.296	-0.163	-0.254
-124.239	-116.974	-0.204	0.037
-123.224	130.840	0.229	0.289
-122.210	60.265	0.053	-0.051
-121.195	20.303	0.069	-0.055
