DTS Sentinel unit serial number:	SN413079Multiplexer serial number:	ORYXHardware model number:	OX4-SRSoftware version number:	ORYX F/W v4.00 Oryx Data Collector v3.7.2.0data status	okinstallation	princeton_trtdifferential loss correction	single-endedforward channel	channel 2reverse channel	N/Adate	2019/09/15time	15:27:35forward acquisition time	60.00reverse acquisition time	0.00gamma	496.2192k internal	0.2295k external	0.2295temperature offset calibration	0.9958default loss term (dB/km)	0.3790temperature slope calibration	1.0000multiplexer offset coefficient	1.0000multiplexer slope coefficient	1.0000fibre end	0.00T internal ref (°C)	41.12T ext. ref 1 (°C)	5.09T ext. ref 2 (°C)	38.53length (m)	temperature (°C)	Stokes	anti-Stokes-747.200	-200.000	0.029	0.265
-746.185	36.869	-0.325	0.293
-745.171	234.753	-0.147	0.247
-744.156	-67.830	-0.156	0.062
-743.142	-105.520	0.401	-0.093
-742.127	182.026	-0.115	0.173
-741.112	161.233	-0.157	-0.225
-740.098	-78.824	-0.076	0.027
-739.083	-52.734	-0.097	0.046
-738.069	41.878	-0.104	0.096
-737.054	3.648	-0.150	-0.112
-736.039	-81.758	0.195	-0.065
-735.025	-200.000	-0.031	0.214
-734.010	-64.455	0.097	-0.040
-732.996	124.139	-0.047	-0.060
-731.981	-117.282	-0.419	-0.078
-730.966	-200.000	0.014	-0.159
-729.952	2.094	-0.199	-0.147
-728.937	-9.018	-0.161	0.110
-727.923	629.336	0.041	-0.106
-726.908	-123.329	-0.434	0.071
-725.894	117.763	-0.079	-0.099
-724.879	233.049	-0.115	-0.193
-723.864	10.076	-0.134	-0.104
-722.850	-200.000	-0.372	-0.001
-721.835	-200.000	0.064	-0.396
-720.821	-97.458	0.065	-0.017
-719.806	378.170	-0.107	0.223
-718.791	800.000	-0.053	0.170
-717.777	275.881	-0.204	-0.371
-716.762	-21.937	-0.127	-0.079
-715.748	-200.000	-0.026	0.156
-714.733	800.000	-0.070	0.284
-713.718	-29.100	0.031	0.018
-712.704	-115.578	-0.069	0.013
-711.689	-200.000	-0.040	0.203
-710.675	-141.775	0.296	-0.030
-709.660	-10.219	-0.261	-0.177
-708.645	292.020	0.112	0.208
-707.631	-72.287	0.247	0.093
-706.616	-157.320	-0.225	0.014
-705.602	-49.403	-0.154	-0.075
-704.587	800.000	0.147	-0.471
-703.572	64.569	-0.140	-0.144
-702.558	52.411	0.165	-0.161
-701.543	-200.000	0.053	-0.258
-700.529	-95.044	0.213	0.059
-699.514	-64.623	0.289	-0.120
-698.499	800.000	0.077	0.217
-697.485	373.333	-0.141	-0.293
-696.470	-66.259	-0.093	-0.038
-695.456	-27.880	-0.123	-0.072
-694.441	-69.864	0.256	-0.100
-693.426	-200.000	0.043	-0.311
-692.412	-177.036	-0.375	0.010
-691.397	15.673	-0.061	0.049
-690.383	800.000	0.055	-0.225
-689.368	-100.194	-0.101	0.026
-688.354	177.764	0.098	-0.146
-687.339	-200.000	0.034	-0.177
-686.324	-200.000	0.012	-0.101
-685.310	282.670	-0.050	0.091
-684.295	212.844	-0.152	0.245
-683.281	741.527	-0.083	0.229
-682.266	-65.616	0.202	-0.083
-681.251	-55.104	-0.260	0.119
-680.237	-200.000	-0.019	-0.120
-679.222	-200.000	0.002	0.142
-678.208	-74.774	0.350	-0.128
-677.193	-94.666	0.208	0.058
-676.178	-3.349	-0.300	0.213
-675.164	0.694	0.162	-0.118
-674.149	126.061	-0.023	-0.030
-673.135	539.516	0.067	-0.162
-672.120	337.946	-0.158	-0.314
-671.105	-200.000	-0.011	0.185
-670.091	118.830	0.102	0.128
-669.076	82.905	0.077	-0.085
-668.062	-11.976	0.097	-0.065
-667.047	-80.108	-0.137	-0.047
-666.032	26.864	-0.271	0.231
-665.018	-38.940	0.114	0.061
-664.003	-200.000	-0.038	-0.305
-662.989	585.957	-0.039	-0.097
-661.974	41.747	0.240	-0.222
-660.959	-7.150	-0.123	-0.085
-659.945	-92.064	0.157	0.045
-658.930	47.358	-0.306	-0.290
-657.916	-200.000	-0.012	-0.177
-656.901	350.053	0.122	-0.245
-655.886	-85.392	0.101	-0.032
-654.872	-39.692	-0.229	0.122
-653.857	134.246	-0.259	-0.342
-652.843	119.358	0.091	0.115
-651.828	317.726	-0.126	0.243
-650.814	800.000	-0.088	0.304
-649.799	-65.362	-0.158	-0.065
-648.784	-200.000	-0.064	0.318
-647.770	-68.148	0.477	0.189
-646.755	-200.000	0.022	-0.110
-645.741	523.169	0.043	-0.104
-644.726	3.666	-0.121	0.090
-643.711	-59.433	0.192	0.084
-642.697	-64.395	-0.035	-0.014
-641.682	-91.706	0.210	-0.061
-640.668	800.000	-0.089	-0.278
-639.653	173.177	0.234	-0.343
-638.638	-80.182	0.216	0.074
-637.624	29.545	-0.143	0.124
-636.609	-200.000	-0.027	-0.275
-635.595	385.573	-0.046	-0.097
-634.580	800.000	-0.042	0.174
-633.565	-200.000	-0.013	-0.206
-632.551	-151.734	-0.311	0.023
-631.536	-61.306	-0.123	0.053
-630.522	-200.000	-0.015	0.199
-629.507	22.236	-0.106	-0.088
-628.492	-111.319	-0.162	-0.034
-627.478	-200.000	0.006	-0.197
-626.463	-158.819	-0.187	-0.011
-625.449	-101.661	-0.109	-0.027
-624.434	467.212	-0.084	-0.192
-623.419	-200.000	0.027	-0.216
-622.405	598.509	-0.033	-0.083
-621.390	-128.457	-0.161	-0.023
-620.376	800.000	-0.080	0.227
-619.361	109.097	0.230	0.280
-618.346	120.357	-0.084	-0.106
-617.332	-151.893	-0.158	-0.012
-616.317	7.971	0.186	-0.142
-615.303	-115.511	-0.089	-0.017
-614.288	790.339	-0.022	0.061
-613.273	-100.058	0.258	-0.066
-612.259	800.000	-0.086	0.266
-611.244	-141.527	-0.024	-0.002
-610.230	-104.379	-0.197	-0.046
-609.215	-18.633	0.132	0.084
-608.201	-174.812	-0.190	0.005
-607.186	-87.507	0.177	-0.055
-606.171	800.000	0.212	0.803
-605.157	800.000	0.028	0.105
-604.142	-200.000	-0.033	-0.159
-603.128	800.000	-0.021	0.074
-602.113	-57.351	-0.096	0.043
-601.098	-200.000	-0.001	0.036
-600.084	800.000	-0.050	0.157
-599.069	800.000	-0.065	0.202
-598.055	85.901	0.045	0.050
-597.040	220.666	0.347	-0.567
-596.025	800.000	0.038	-0.128
-595.011	-9.358	0.270	0.183
-593.996	87.082	0.092	0.104
-592.982	712.828	0.056	0.150
-591.967	157.315	-0.056	0.079
-590.952	80.415	-0.123	0.134
-589.938	-122.049	0.066	-0.011
-588.923	-143.142	0.233	0.023
-587.909	546.206	0.076	0.185
-586.894	-33.776	-0.189	-0.106
-585.879	-89.349	-0.237	-0.071
-584.865	-25.366	0.173	0.104
-583.850	-118.607	0.204	-0.037
-582.836	-75.025	0.060	-0.022
-581.821	800.000	0.108	-0.319
-580.806	-200.000	-0.027	0.129
-579.792	-200.000	-0.019	-0.109
-578.777	128.494	-0.070	-0.090
-577.763	48.323	-0.032	-0.030
-576.748	-200.000	-0.046	0.236
-575.733	-117.794	-0.192	-0.035
-574.719	-109.438	-0.091	0.020
-573.704	-73.539	0.347	0.128
-572.690	413.048	-0.038	-0.083
-571.675	272.659	0.069	0.124
-570.661	564.759	-0.073	-0.181
-569.646	87.181	0.066	-0.074
-568.631	-131.626	0.148	-0.020
-567.617	81.985	-0.229	-0.252
-566.602	89.146	-0.112	-0.127
-565.588	-200.000	-0.005	0.087
-564.573	-200.000	0.024	0.171
-563.558	-75.148	-0.116	0.042
-562.544	800.000	-0.011	0.037
-561.529	82.102	-0.152	0.168
-560.515	-59.959	-0.192	0.083
-559.500	-200.000	-0.031	-0.259
-558.485	-200.000	0.011	-0.457
-557.471	231.841	-0.201	-0.335
-556.456	-40.082	-0.080	-0.042
-555.442	63.735	-0.272	-0.277
-554.427	-61.920	0.329	-0.140
-553.412	-79.715	-0.216	0.074
-552.398	800.000	0.036	-0.137
-551.383	210.376	-0.119	-0.190
-550.369	-147.030	0.071	-0.006
-549.354	-86.661	-0.077	-0.024
-548.339	504.291	-0.040	0.093
-547.325	-29.045	-0.218	-0.127
-546.310	-38.475	-0.096	-0.051
-545.296	-200.000	-0.004	-0.271
-544.281	253.451	0.105	0.182
-543.266	-200.000	-0.020	0.367
-542.252	41.128	0.097	-0.089
-541.237	-200.000	-0.037	0.435
-540.223	64.554	0.160	-0.164
-539.208	800.000	-0.035	-0.152
-538.193	-82.611	0.320	0.105
-537.179	-200.000	0.005	0.028
-536.164	258.018	0.158	-0.276
-535.150	-111.511	0.087	-0.018
-534.135	-27.294	0.187	-0.110
-533.121	800.000	-0.100	0.321
-532.106	163.660	-0.230	0.328
-531.091	800.000	0.034	-0.104
-530.077	-200.000	-0.069	-0.322
-529.062	-157.989	0.270	0.016
-528.048	1.224	-0.193	0.141
-527.033	-165.480	0.261	0.012
-526.018	240.953	0.011	0.018
-525.004	208.459	0.163	-0.259
-523.989	253.318	0.218	-0.377
-522.975	-25.878	-0.313	-0.187
-521.960	-118.516	-0.194	0.035
-520.945	-88.073	0.092	-0.028
-519.931	-2.497	0.118	-0.083
-518.916	800.000	0.062	0.220
-517.902	-79.806	-0.162	0.055
-516.887	-200.000	0.000	0.147
-515.872	43.740	-0.055	0.051
-514.858	130.131	-0.105	0.137
-513.843	-200.000	-0.038	-0.246
-512.829	-128.125	-0.212	0.031
-511.814	-7.790	-0.311	-0.213
-510.799	381.012	-0.029	-0.061
-509.785	-200.000	0.060	-0.281
-508.770	-200.000	-0.007	-0.066
-507.756	-133.986	-0.170	-0.021
-506.741	-200.000	0.001	0.350
-505.726	-182.795	0.239	-0.004
-504.712	-200.000	-0.023	0.195
-503.697	-15.842	0.189	-0.122
-502.683	-200.000	0.016	-0.210
-501.668	369.207	-0.111	-0.228
-500.653	800.000	-0.077	0.308
-499.639	352.696	-0.038	-0.075
-498.624	-200.000	-0.030	-0.153
-497.610	-70.648	-0.119	-0.045
-496.595	800.000	0.039	-0.158
-495.581	-26.174	0.230	-0.137
-494.566	-69.286	0.193	-0.075
-493.551	-31.258	0.247	0.141
-492.537	-159.696	0.068	0.004
-491.522	-126.804	-0.202	0.030
-490.508	253.677	0.171	0.296
-489.493	-193.367	-0.145	0.001
-488.478	-200.000	0.009	-0.164
-487.464	-200.000	-0.031	-0.439
-486.449	-10.461	-0.295	0.198
-485.435	99.715	-0.113	-0.132
-484.420	-64.465	-0.078	-0.032
-483.405	17.065	0.168	0.135
-482.391	168.615	0.060	-0.086
-481.376	-200.000	0.040	-0.265
-480.362	-140.739	0.304	-0.032
-479.347	-97.207	-0.232	0.061
-478.332	163.425	-0.123	0.175
-477.318	800.000	0.099	0.386
-476.303	-200.000	-0.033	0.309
-475.289	521.165	-0.136	0.323
-474.274	-200.000	-0.002	-0.393
-473.259	-200.000	0.061	-0.372
-472.245	800.000	0.012	-0.050
-471.230	-35.738	0.004	-0.002
-470.216	-159.225	-0.307	0.017
-469.201	-177.827	0.443	0.011
-468.186	-200.000	0.002	0.012
-467.172	281.256	-0.132	-0.238
-466.157	31.292	-0.086	0.074
-465.143	-200.000	0.017	-0.134
-464.128	-121.670	-0.509	0.085
-463.113	337.129	0.018	-0.034
-462.099	-73.457	0.198	-0.073
-461.084	-7.601	-0.138	0.094
-460.070	-127.791	-0.229	-0.033
-459.055	116.128	-0.229	0.284
-458.040	-127.131	-0.232	0.034
-457.026	-200.000	0.005	0.228
-456.011	-9.230	-0.303	0.204
-454.997	800.000	0.059	0.164
-453.982	-200.000	-0.006	0.031
-452.968	287.359	0.055	0.100
-451.953	-59.824	0.211	-0.091
-450.938	-94.148	-0.102	0.028
-449.924	161.778	-0.074	-0.105
-448.909	-200.000	-0.050	0.266
-447.895	-200.000	0.014	0.121
-446.880	-3.285	0.169	-0.119
-445.865	-120.792	-0.372	0.063
-444.851	-54.340	0.116	0.053
-443.836	-58.354	0.143	-0.063
-442.822	226.067	0.076	0.125
-441.807	800.000	0.032	-0.103
-440.792	306.889	-0.210	0.396
-439.778	-29.835	-0.244	-0.141
-438.763	441.374	-0.126	0.278
-437.749	-200.000	-0.042	0.250
-436.734	4.079	0.072	-0.053
-435.719	800.000	-0.074	-0.221
-434.705	800.000	-0.022	-0.095
-433.690	-200.000	0.054	-0.317
-432.676	800.000	0.107	0.369
-431.661	-73.905	0.183	-0.067
-430.646	800.000	0.063	0.276
-429.632	-200.000	0.024	0.238
-428.617	31.891	0.124	0.108
-427.603	798.798	-0.050	0.140
-426.588	-200.000	0.084	0.000
-425.573	-100.959	0.176	-0.044
-424.559	-122.973	-0.060	0.010
-423.544	71.545	-0.044	-0.046
-422.530	800.000	-0.093	0.279
-421.515	289.283	0.085	-0.155
-420.500	-200.000	-0.011	0.284
-419.486	800.000	0.016	0.066
-418.471	-145.248	-0.441	-0.040
-417.457	-1.485	-0.134	0.095
-416.442	-84.130	-0.385	-0.123
-415.428	69.305	-0.139	0.144
-414.413	-200.000	0.021	-0.127
-413.398	800.000	0.039	0.128
-412.384	-145.557	-0.324	0.029
-411.369	38.207	0.255	-0.229
-410.355	228.746	0.033	0.055
-409.340	-65.225	0.146	-0.060
-408.325	18.760	-0.178	-0.144
-407.311	17.879	-0.127	0.102
-406.296	800.000	-0.052	-0.151
-405.282	71.828	0.308	0.323
-404.267	-71.017	0.418	0.159
-403.252	-200.000	0.037	0.248
-402.238	152.313	-0.163	-0.224
-401.223	-104.858	0.170	-0.039
-400.209	800.000	-0.052	0.164
-399.194	800.000	0.123	-0.393
-398.179	429.582	0.025	-0.055
-397.165	-101.432	0.180	-0.044
-396.150	-200.000	-0.296	0.000
-395.136	-47.486	0.162	-0.079
-394.121	-79.315	-0.151	0.051
-393.106	800.000	0.113	0.414
-392.092	-125.687	-0.259	-0.040
-391.077	559.708	0.084	-0.205
-390.063	241.837	-0.079	0.134
-389.048	-45.058	-0.118	0.059
-388.033	-90.412	-0.197	-0.058
-387.019	16.479	-0.096	0.076
-386.004	-69.053	-0.335	0.130
-384.990	-16.098	-0.063	-0.040
-383.975	527.140	0.063	-0.150
-382.960	113.657	-0.021	0.026
-381.946	-41.808	-0.048	-0.025
-380.931	137.550	-0.094	-0.124
-379.917	-200.000	0.026	0.348
-378.902	-63.776	0.109	-0.045
-377.888	689.841	-0.117	-0.308
-376.873	324.570	-0.116	-0.223
-375.858	268.373	-0.101	-0.178
-374.844	800.000	0.154	-0.587
-373.829	800.000	0.038	-0.118
-372.815	-131.764	-0.217	-0.029
-371.800	741.042	-0.121	0.326
-370.785	-90.241	0.118	-0.034
-369.771	-107.809	0.243	-0.053
-368.756	-131.105	-0.259	0.035
-367.742	-200.000	0.075	-0.455
-366.727	116.649	-0.155	0.192
-365.712	-200.000	0.008	-0.106
-364.698	13.364	0.103	-0.080
-363.683	-40.455	-0.122	-0.064
-362.669	339.230	0.028	-0.054
-361.654	800.000	-0.069	0.271
-360.639	-59.827	-0.265	-0.114
-359.625	-53.072	0.253	-0.117
-358.610	-200.000	-0.074	-0.368
-357.596	104.017	0.232	0.275
-356.581	128.260	-0.171	0.219
-355.566	121.991	0.173	-0.217
-354.552	216.918	-0.103	-0.164
-353.537	671.511	-0.123	-0.320
-352.523	106.470	0.174	0.207
-351.508	515.645	-0.123	-0.290
-350.493	-123.971	0.164	-0.026
-349.479	238.451	-0.110	0.184
-348.464	64.488	0.130	0.131
-347.450	-200.000	0.044	0.441
-346.435	-171.928	-0.071	0.002
-345.420	-75.048	-0.165	-0.059
-344.406	255.002	-0.157	0.270
-343.391	51.198	-0.033	0.032
-342.377	800.000	0.041	-0.174
-341.362	228.053	0.113	0.185
-340.348	52.882	-0.125	-0.120
-339.333	-36.144	-0.088	-0.048
-338.318	123.106	-0.132	0.166
-337.304	68.540	-0.166	-0.172
-336.289	586.873	0.058	-0.144
-335.275	-74.745	-0.090	0.032
-334.260	-200.000	0.033	-0.234
-333.245	-80.170	-0.125	0.042
-332.231	258.698	0.108	-0.187
-331.216	-105.297	-0.097	-0.022
-330.202	-41.912	-0.147	-0.076
-329.187	-73.472	0.043	0.016
-328.172	-82.382	0.186	0.061
-327.158	800.000	-0.167	-0.478
-326.143	773.073	0.090	0.248
-325.129	-118.068	0.271	0.049
-324.114	441.366	-0.112	0.246
-323.099	-89.098	-0.257	-0.076
-322.085	-35.388	-0.081	-0.044
-321.070	800.000	0.052	0.149
-320.056	51.565	-0.252	0.241
-319.041	78.896	0.330	0.355
-318.026	800.000	-0.075	0.224
-317.012	-200.000	0.014	0.223
-315.997	126.216	-0.116	0.148
-314.983	-83.700	-0.177	-0.057
-313.968	-137.828	-0.292	0.033
-312.953	146.578	-0.097	-0.131
-311.939	-54.722	-0.176	-0.080
-310.924	336.834	0.075	-0.147
-309.910	130.217	-0.333	-0.428
-308.895	91.218	0.074	-0.084
-307.880	125.501	0.246	0.312
-306.866	559.469	-0.049	0.118
-305.851	-85.655	-0.214	0.067
-304.837	-74.390	0.371	-0.135
-303.822	5.904	-0.171	-0.127
-302.807	-47.173	-0.160	-0.078
-301.793	53.241	0.182	-0.175
-300.778	-7.559	0.283	0.193
-299.764	29.217	0.212	0.181
-298.749	-23.864	-0.380	-0.228
-297.735	236.858	-0.121	0.202
-296.720	178.568	-0.076	-0.111
-295.705	-200.000	-0.021	-0.261
-294.691	-38.057	0.099	-0.053
-293.676	-200.000	0.007	0.166
-292.662	214.346	0.102	-0.162
-291.647	-200.000	0.033	0.294
-290.632	-104.464	-0.255	-0.059
-289.618	-17.410	-0.084	0.053
-288.603	23.881	0.207	0.171
-287.589	-146.029	0.514	-0.046
-286.574	24.905	-0.130	-0.108
-285.559	59.211	0.174	0.172
-284.545	-162.755	0.170	-0.008
-283.530	283.415	0.026	-0.046
-282.516	-171.741	-0.210	0.007
-281.501	-87.875	0.257	0.078
-280.486	-200.000	-0.002	-0.112
-279.472	11.526	-0.335	-0.258
-278.457	-152.796	0.222	0.016
-277.443	94.395	0.117	-0.133
-276.428	93.428	-0.157	0.178
-275.413	-200.000	0.002	-0.069
-274.399	72.932	-0.306	-0.320
-273.384	-76.639	0.146	0.051
-272.370	-83.517	0.251	0.081
-271.355	151.661	0.220	0.301
-270.340	-200.000	-0.022	0.221
-269.326	-70.765	-0.207	-0.078
-268.311	800.000	-0.059	-0.217
-267.297	3.549	0.168	0.123
-266.282	800.000	0.072	0.287
-265.267	-120.973	0.066	0.011
-264.253	747.248	-0.041	0.110
-263.238	-200.000	-0.003	0.249
-262.224	-200.000	-0.023	-0.126
-261.209	12.906	0.170	0.132
-260.195	-38.307	0.206	0.109
-259.180	376.352	-0.075	0.154
-258.165	73.460	-0.121	0.127
-257.151	-76.021	0.210	0.074
-256.136	-200.000	0.029	0.312
-255.122	269.736	-0.085	-0.150
-254.107	800.000	0.002	-0.008
-253.092	-200.000	0.011	0.102
-252.078	-189.414	-0.109	0.001
-251.063	-76.166	0.269	-0.095
-250.049	-200.000	0.014	-0.068
-249.034	-39.048	0.122	-0.065
-248.019	592.759	0.133	0.328
-247.005	-73.826	0.254	-0.093
-245.990	27.529	-0.029	0.025
-244.976	-133.693	0.336	0.042
-243.961	-106.909	-0.085	0.019
-242.946	648.716	0.084	-0.217
-241.932	491.169	0.044	0.101
-240.917	-200.000	0.006	-0.131
-239.903	19.671	0.285	0.230
-238.888	-136.772	0.111	0.013
-237.873	29.962	0.408	0.349
-236.859	-83.498	-0.135	-0.043
-235.844	94.663	-0.158	-0.180
-234.830	-59.293	0.261	-0.113
-233.815	-126.055	0.191	-0.029
-232.800	267.884	0.088	-0.155
-231.786	-200.000	0.046	-0.527
-230.771	176.765	0.041	0.060
-229.757	-0.952	0.171	0.121
-228.742	161.377	0.158	-0.222
-227.727	-200.000	0.255	0.000
-226.713	-200.000	0.003	0.115
-225.698	46.003	-0.222	0.206
-224.684	-200.000	0.001	0.048
-223.669	56.196	0.244	0.237
-222.655	10.696	-0.244	0.186
-221.640	800.000	-0.093	0.307
-220.625	67.804	0.206	-0.211
-219.611	-200.000	0.048	0.477
-218.596	-141.013	-0.184	-0.019
-217.582	740.907	-0.029	-0.077
-216.567	-75.661	-0.216	0.077
-215.552	154.902	0.081	0.111
-214.538	-200.000	0.003	-0.346
-213.523	-134.269	-0.343	0.042
-212.509	155.571	-0.167	-0.230
-211.494	517.618	0.084	-0.197
-210.479	164.979	0.128	0.180
-209.465	-200.000	-0.012	-0.075
-208.450	-38.140	0.120	0.064
-207.436	-108.072	0.064	-0.014
-206.421	577.381	0.021	-0.052
-205.406	-17.454	-0.254	-0.160
-204.392	-152.703	-0.233	0.017
-203.377	-200.000	0.001	0.258
-202.363	-24.602	0.256	-0.153
-201.348	774.809	0.058	-0.159
-200.333	6.998	0.371	-0.277
-199.319	101.137	-0.030	0.035
-198.304	-22.173	0.096	-0.058
-197.290	17.013	-0.225	-0.179
-196.275	23.667	-0.166	-0.137
-195.260	-106.437	-0.306	-0.068
-194.246	-97.788	0.135	-0.035
-193.231	79.685	0.144	-0.155
-192.217	-54.194	0.254	-0.116
-191.202	800.000	-0.108	0.340
-190.187	-200.000	0.060	0.454
-189.173	310.344	0.192	0.360
-188.158	-58.383	-0.302	0.131
-187.144	800.000	-0.058	0.192
-186.129	55.913	-0.073	-0.070
-185.114	800.000	0.052	-0.206
-184.100	-137.957	0.217	-0.024
-183.085	800.000	0.107	-0.324
-182.071	-93.309	0.178	-0.049
-181.056	-130.061	0.280	0.038
-180.042	-200.000	-0.010	-0.215
-179.027	437.972	-0.061	-0.133
-178.012	-99.478	0.207	-0.052
-176.998	800.000	0.017	-0.048
-175.983	-1.052	0.104	0.073
-174.969	535.528	-0.131	-0.310
-173.954	-33.449	-0.091	0.050
-172.939	159.799	-0.194	0.271
-171.925	-89.164	0.253	0.075
-170.910	-102.567	0.289	0.069
-169.896	-70.592	0.304	-0.115
-168.881	171.528	-0.232	0.333
-167.866	535.942	0.069	-0.165
-166.852	345.839	-0.025	-0.049
-165.837	423.004	-0.077	0.165
-164.823	800.000	-0.021	-0.060
-163.808	140.166	0.060	0.078
-162.793	-27.069	-0.174	-0.101
-161.779	214.804	-0.158	-0.250
-160.764	353.078	0.101	0.199
-159.750	361.974	-0.067	0.134
-158.735	-40.896	0.301	-0.156
-157.720	-133.578	0.230	-0.029
-156.706	-122.271	-0.104	-0.017
-155.691	800.000	0.049	0.145
-154.677	-24.646	-0.073	-0.044
-153.662	800.000	-0.040	-0.163
-152.647	-37.889	0.357	-0.190
-151.633	-70.093	0.306	0.116
-150.618	171.388	-0.040	0.057
-149.604	26.111	0.280	0.233
-148.589	99.208	0.188	0.217
-147.574	106.686	0.189	-0.224
-146.560	92.680	0.062	0.070
-145.545	-200.000	0.005	-0.073
-144.531	-93.673	-0.292	0.081
-143.516	4.538	0.156	0.114
-142.502	396.987	-0.039	-0.082
-141.487	73.532	0.180	-0.188
-140.472	-78.697	0.201	-0.068
-139.458	79.590	0.129	-0.138
-138.443	156.015	-0.240	-0.330
-137.429	237.745	-0.092	-0.152
-136.414	-173.275	-0.143	-0.004
-135.399	-13.169	-0.123	-0.080
-134.385	165.355	0.118	0.166
-133.370	-140.387	0.139	-0.014
-132.356	190.064	-0.083	0.124
-131.341	164.357	-0.142	0.200
-130.326	-200.000	-0.026	-0.140
-129.312	11.945	0.042	0.032
-128.297	-109.025	0.086	-0.018
-127.283	-57.892	-0.071	-0.031
-126.268	290.372	-0.249	0.452
-125.253	-28.670	-0.281	-0.161
-124.239	-30.882	-0.126	-0.071
-123.224	-200.000	-0.043	0.271
-122.210	110.053	0.114	-0.137
