DTS Sentinel unit serial number:	SN413079Multiplexer serial number:	ORYXHardware model number:	OX4-SRSoftware version number:	ORYX F/W v4.00 Oryx Data Collector v3.7.2.0data status	okinstallation	princeton_trtdifferential loss correction	single-endedforward channel	channel 2reverse channel	N/Adate	2019/09/17time	00:11:35forward acquisition time	60.00reverse acquisition time	0.00gamma	496.2192k internal	0.2330k external	0.2330temperature offset calibration	0.9976default loss term (dB/km)	0.3790temperature slope calibration	1.0000multiplexer offset coefficient	1.0000multiplexer slope coefficient	1.0000fibre end	0.00T internal ref (°C)	29.56T ext. ref 1 (°C)	0.09T ext. ref 2 (°C)	23.77length (m)	temperature (°C)	Stokes	anti-Stokes-747.200	800.000	0.118	-0.426
-746.185	263.028	0.117	0.204
-745.171	-86.660	0.204	0.063
-744.156	223.278	-0.180	0.293
-743.142	355.851	-0.075	-0.151
-742.127	-200.000	0.025	0.190
-741.112	-128.365	0.245	0.035
-740.098	-200.000	-0.001	0.360
-739.083	-67.133	0.099	0.039
-738.069	676.417	-0.123	0.322
-737.054	446.051	0.095	0.210
-736.039	-51.214	-0.259	-0.122
-735.025	-18.058	0.254	0.160
-734.010	99.790	0.272	0.317
-732.996	169.859	0.181	0.260
-731.981	-200.000	-0.055	0.251
-730.966	-100.057	-0.101	-0.025
-729.952	95.699	-0.151	-0.173
-728.937	-81.920	-0.436	-0.143
-727.923	-200.000	-0.139	0.000
-726.908	-89.905	-0.342	0.101
-725.894	-162.920	-0.376	-0.018
-724.879	-135.768	0.305	-0.036
-723.864	228.929	-0.092	-0.151
-722.850	-25.948	0.338	0.200
-721.835	-200.000	-0.011	-0.074
-720.821	-200.000	0.002	0.315
-719.806	24.635	0.198	-0.165
-718.791	800.000	0.065	-0.209
-717.777	-128.613	0.019	-0.003
-716.762	292.271	0.168	-0.308
-715.748	-136.476	0.506	-0.059
-714.733	19.108	-0.336	0.271
-713.718	-55.518	-0.285	-0.129
-712.704	296.013	0.145	-0.267
-711.689	-43.376	-0.146	0.074
-710.675	-160.449	0.122	0.007
-709.660	188.813	0.128	0.193
-708.645	-200.000	-0.003	-0.312
-707.631	14.006	0.129	-0.101
-706.616	16.228	-0.131	0.104
-705.602	-200.000	-0.066	0.312
-704.587	-1.952	-0.300	-0.212
-703.572	94.624	0.199	-0.228
-702.558	-200.000	0.061	-0.438
-701.543	177.612	-0.124	0.181
-700.529	-158.772	-0.231	0.013
-699.514	-200.000	-0.036	-0.180
-698.499	800.000	-0.072	-0.275
-697.485	116.159	0.059	0.073
-696.470	-69.008	0.274	-0.106
-695.456	24.173	-0.073	0.061
-694.441	290.350	0.115	0.210
-693.426	-93.702	0.241	0.067
-692.412	800.000	0.082	-0.314
-691.397	-137.562	-0.088	0.010
-690.383	-30.203	0.144	-0.083
-689.368	40.809	-0.306	0.277
-688.354	143.918	-0.060	0.080
-687.339	69.741	0.224	-0.231
-686.324	133.704	-0.104	0.135
-685.310	-5.193	-0.206	0.142
-684.295	182.148	0.082	0.122
-683.281	800.000	-0.052	-0.179
-682.266	354.039	-0.027	0.055
-681.251	-11.581	0.137	0.090
-680.237	-181.129	-0.425	0.009
-679.222	16.533	-0.063	0.050
-678.208	-49.609	0.207	0.099
-677.193	552.523	-0.066	0.160
-676.178	-200.000	-0.049	0.360
-675.164	-200.000	-0.046	-0.319
-674.149	-200.000	-0.042	-0.199
-673.135	-200.000	-0.021	-0.241
-672.120	192.539	0.161	-0.244
-671.105	-15.463	-0.145	0.093
-670.091	70.895	-0.287	0.298
-669.076	-0.968	0.164	0.116
-668.062	-32.979	-0.217	0.121
-667.047	23.494	0.374	0.309
-666.032	-151.993	0.092	0.007
-665.018	-0.925	0.018	-0.013
-664.003	-107.621	-0.131	0.029
-662.989	412.189	0.064	0.136
-661.974	-101.671	-0.032	0.008
-660.959	102.403	-0.118	-0.139
-659.945	-47.820	0.259	0.126
-658.930	-200.000	-0.060	0.327
-657.916	-161.292	0.381	-0.020
-656.901	800.000	-0.027	-0.101
-655.886	-186.328	0.242	-0.004
-654.872	-173.551	0.171	-0.005
-653.857	-200.000	0.025	-0.303
-652.843	247.113	0.156	0.264
-651.828	-72.503	-0.254	-0.094
-650.814	800.000	0.098	-0.295
-649.799	-107.231	0.205	0.045
-648.784	-96.588	0.073	0.019
-647.770	-58.512	0.253	-0.110
-646.755	192.795	0.155	0.235
-645.741	-200.000	-0.054	-0.339
-644.726	-200.000	0.027	-0.128
-643.711	-45.942	-0.265	0.131
-642.697	0.723	0.156	0.112
-641.682	-200.000	0.037	-0.307
-640.668	-118.395	-0.364	0.065
-639.653	97.061	0.117	0.135
-638.638	219.202	0.113	0.181
-637.624	-85.757	0.131	0.041
-636.609	492.827	-0.092	-0.213
-635.595	-151.087	0.170	0.013
-634.580	83.951	0.036	0.040
-633.565	126.607	-0.096	0.122
-632.551	-104.120	-0.101	-0.024
-631.536	-200.000	0.035	-0.435
-630.522	13.663	0.150	-0.117
-629.507	-59.529	0.206	0.089
-628.492	-70.681	0.045	-0.017
-627.478	241.586	-0.057	0.095
-626.463	43.089	-0.297	-0.272
-625.449	-200.000	0.324	-0.001
-624.434	55.501	0.117	-0.113
-623.419	-200.000	-0.064	-0.483
-622.405	413.573	0.064	-0.136
-621.390	-200.000	-0.006	0.047
-620.376	-200.000	0.056	-0.287
-619.361	-84.919	0.228	0.072
-618.346	59.193	-0.198	-0.196
-617.332	82.550	-0.167	0.182
-616.317	596.647	-0.063	-0.157
-615.303	19.026	0.111	0.089
-614.288	300.500	-0.128	0.236
-613.273	800.000	0.024	0.078
-612.259	-117.487	0.205	-0.037
-611.244	800.000	-0.034	-0.114
-610.230	785.375	0.043	0.118
-609.215	130.857	-0.381	-0.490
-608.201	-116.359	-0.319	0.059
-607.186	94.709	-0.110	0.126
-606.171	800.000	0.063	0.190
-605.157	-157.830	-0.069	-0.004
-604.142	-23.006	-0.454	-0.274
-603.128	-58.865	0.144	-0.062
-602.113	-200.000	-0.029	0.234
-601.098	209.515	0.090	-0.142
-600.084	-82.135	0.276	0.090
-599.069	800.000	-0.075	-0.212
-598.055	3.216	0.339	0.247
-597.040	303.923	0.132	-0.245
-596.025	17.022	-0.342	-0.271
-595.011	-116.424	-0.204	-0.038
-593.996	91.188	0.065	0.073
-592.982	-175.144	-0.029	0.001
-591.967	-159.971	0.285	-0.016
-590.952	-132.460	-0.299	0.039
-589.938	-19.922	0.281	-0.174
-588.923	-193.224	-0.094	-0.001
-587.909	-43.510	0.048	-0.024
-586.894	18.813	-0.317	0.254
-585.879	800.000	0.083	0.254
-584.865	-24.713	0.165	0.098
-583.850	-140.201	-0.102	0.011
-582.836	9.993	0.104	0.079
-581.821	49.270	0.119	-0.112
-580.806	-106.143	-0.165	0.037
-579.792	-27.462	0.394	0.229
-578.777	52.510	0.224	0.214
-577.763	800.000	0.041	0.147
-576.748	-9.476	-0.139	-0.093
-575.733	-200.000	0.004	0.351
-574.719	376.649	0.105	-0.213
-573.704	37.110	-0.226	-0.200
-572.690	24.793	0.262	0.217
-571.675	-200.000	0.019	0.304
-570.661	-86.125	-0.152	0.047
-569.646	-200.000	-0.008	0.162
-568.631	10.897	-0.151	-0.115
-567.617	189.112	0.107	0.160
-566.602	-104.115	-0.256	0.060
-565.588	-98.022	0.153	0.039
-564.573	73.580	0.080	0.084
-563.558	39.186	0.171	-0.153
-562.544	-46.934	0.170	0.083
-561.529	-107.027	-0.214	-0.047
-560.515	128.428	0.242	0.308
-559.500	262.537	-0.234	0.406
-558.485	-200.000	-0.037	0.192
-557.471	-200.000	-0.037	0.183
-556.456	-148.777	-0.138	0.011
-555.442	49.698	0.127	0.120
-554.427	208.853	0.098	-0.153
-553.412	32.090	0.104	-0.089
-552.398	313.045	-0.089	-0.167
-551.383	-166.104	-0.120	0.005
-550.369	186.905	0.113	-0.168
-549.354	123.976	-0.129	-0.162
-548.339	257.769	0.039	-0.067
-547.325	-200.000	-0.050	0.304
-546.310	-54.282	-0.155	-0.070
-545.296	-32.364	0.310	-0.173
-544.281	-61.397	-0.038	0.016
-543.266	730.584	0.168	-0.449
-542.252	-12.004	-0.373	-0.244
-541.237	696.457	0.067	-0.176
-540.223	-200.000	-0.013	0.140
-539.208	-10.350	-0.037	0.024
-538.193	98.849	-0.057	-0.065
-537.179	-76.901	-0.230	-0.080
-536.164	800.000	0.076	0.239
-535.150	-200.000	-0.035	0.164
-534.135	-108.819	-0.248	0.053
-533.121	-41.041	0.159	0.082
-532.106	418.688	-0.164	0.351
-531.091	121.878	0.253	-0.316
-530.077	-126.105	-0.071	-0.011
-529.062	-25.136	-0.127	-0.075
-528.048	-200.000	-0.018	0.279
-527.033	43.544	0.206	-0.188
-526.018	800.000	0.072	-0.223
-525.004	458.553	0.077	-0.170
-523.989	-200.000	-0.032	0.377
-522.975	97.069	-0.162	0.186
-521.960	-200.000	-0.036	0.443
-520.945	48.732	0.086	0.081
-519.931	85.111	0.304	-0.332
-518.916	-200.000	-0.033	0.183
-517.902	-200.000	-0.065	0.287
-516.887	120.896	0.157	-0.195
-515.872	-27.756	-0.243	0.140
-514.858	800.000	0.056	0.183
-513.843	-113.060	-0.233	-0.046
-512.829	-122.509	-0.211	0.034
-511.814	-96.713	-0.340	0.089
-510.799	-200.000	0.012	-0.236
-509.785	-45.653	0.078	-0.038
-508.770	-73.532	-0.182	0.066
-507.756	-117.884	0.145	-0.026
-506.741	37.390	0.341	-0.302
-505.726	800.000	0.043	-0.162
-504.712	-200.000	0.009	-0.237
-503.697	800.000	0.041	-0.153
-502.683	222.151	-0.115	-0.184
-501.668	800.000	0.085	-0.310
-500.653	426.984	-0.054	-0.116
-499.639	359.682	-0.118	0.236
-498.624	-200.000	0.004	-0.081
-497.610	800.000	-0.067	-0.267
-496.595	331.020	0.115	-0.222
-495.581	10.986	-0.235	0.179
-494.566	-138.505	0.131	-0.014
-493.551	-200.000	-0.010	-0.084
-492.537	762.806	0.102	0.275
-491.522	-200.000	0.003	-0.048
-490.508	123.118	-0.035	-0.043
-489.493	587.174	0.049	0.121
-488.478	-200.000	0.036	0.321
-487.464	72.217	-0.285	-0.296
-486.449	800.000	0.049	-0.145
-485.435	-91.955	0.268	-0.076
-484.420	800.000	0.062	0.206
-483.405	743.055	-0.114	0.305
-482.391	11.650	-0.382	0.292
-481.376	-68.108	-0.267	-0.104
-480.362	-99.333	0.136	-0.034
-479.347	5.931	0.260	0.192
-478.332	423.788	-0.114	0.244
-477.318	-126.677	-0.148	0.022
-476.303	143.803	-0.143	0.190
-475.289	237.394	-0.049	0.080
-474.274	57.663	0.324	-0.316
-473.259	-138.910	-0.228	0.025
-472.245	45.558	0.225	0.207
-471.230	797.564	0.084	-0.232
-470.216	-76.121	0.576	-0.203
-469.201	-200.000	0.018	0.102
-468.186	286.506	-0.155	0.279
-467.172	-200.000	-0.021	-0.216
-466.157	-1.165	-0.341	-0.240
-465.143	800.000	-0.071	-0.294
-464.128	800.000	0.005	0.018
-463.113	-21.050	0.174	-0.106
-462.099	-107.591	-0.248	-0.054
-461.084	-45.399	0.232	0.115
-460.070	800.000	-0.038	-0.117
-459.055	800.000	-0.092	-0.338
-458.040	218.854	0.112	0.178
-457.026	-103.044	0.285	-0.067
-456.011	-18.973	-0.098	-0.060
-454.997	375.605	0.092	-0.187
-453.982	-200.000	0.022	0.213
-452.968	-200.000	0.077	-0.400
-451.953	521.649	-0.133	-0.311
-450.938	-200.000	0.038	-0.233
-449.924	145.369	0.098	-0.131
-448.909	-200.000	0.040	0.236
-447.895	239.979	0.173	-0.286
-446.880	-2.565	0.077	-0.054
-445.865	-55.973	-0.302	0.134
-444.851	-200.000	-0.034	-0.466
-443.836	49.301	-0.103	0.097
-442.822	800.000	-0.049	-0.147
-441.807	-138.885	0.063	-0.007
-440.792	28.392	-0.181	0.152
-439.778	-90.214	0.290	0.084
-438.763	800.000	-0.062	-0.239
-437.749	-12.057	-0.226	0.147
-436.734	140.698	0.129	0.169
-435.719	-78.086	0.170	0.058
-434.705	-19.640	0.221	0.136
-433.690	-36.898	-0.351	-0.187
-432.676	1.298	-0.267	-0.191
-431.661	379.637	0.029	-0.060
-430.646	-93.232	0.026	-0.007
-429.632	433.517	-0.081	-0.175
-428.617	-92.072	-0.171	0.048
-427.603	-31.388	-0.067	0.037
-426.588	-141.488	-0.572	-0.058
-425.573	60.162	-0.268	-0.263
-424.559	-111.522	0.119	0.024
-423.544	534.741	0.033	-0.079
-422.530	-113.594	0.120	0.023
-421.515	20.636	0.198	-0.159
-420.500	75.112	0.014	0.015
-419.486	-200.000	0.009	-0.387
-418.471	256.696	-0.063	0.108
-417.457	-200.000	0.022	0.224
-416.442	-133.918	0.321	0.040
-415.428	800.000	0.028	-0.085
-414.413	124.840	0.213	0.267
-413.398	-200.000	0.010	0.219
-412.384	137.427	0.113	-0.147
-411.369	67.699	-0.032	0.032
-410.355	47.502	-0.056	0.052
-409.340	-162.977	-0.076	-0.004
-408.325	131.202	0.113	0.144
-407.311	-200.000	-0.012	0.311
-406.296	-36.686	-0.268	0.143
-405.282	-108.458	-0.136	0.029
-404.267	-200.000	0.002	0.120
-403.252	-200.000	0.013	-0.217
-402.238	-59.353	-0.244	-0.104
-401.223	-200.000	0.010	-0.157
-400.209	-200.000	-0.001	-0.135
-399.194	247.908	-0.146	-0.244
-398.179	39.636	0.164	-0.146
-397.165	9.619	-0.394	0.297
-396.150	-58.246	0.022	0.010
-395.136	800.000	-0.047	-0.195
-394.121	227.756	-0.092	0.148
-393.106	-34.155	0.139	-0.076
-392.092	38.453	-0.094	-0.083
-391.077	151.832	0.111	0.150
-390.063	-200.000	0.033	-0.210
-389.048	409.838	0.090	0.188
-388.033	-172.644	-0.263	0.008
-387.019	-120.464	0.117	-0.020
-386.004	124.888	-0.143	-0.179
-384.990	15.477	0.202	-0.158
-383.975	-23.007	-0.218	0.131
-382.960	523.958	0.112	-0.261
-381.946	397.994	-0.151	-0.314
-380.931	319.704	-0.161	-0.303
-379.917	-200.000	0.074	-0.377
-378.902	277.407	-0.045	0.080
-377.888	-200.000	0.051	0.226
-376.873	800.000	-0.012	-0.041
-375.858	89.090	0.121	0.133
-374.844	114.216	-0.059	-0.072
-373.829	-200.000	0.062	0.300
-372.815	-49.493	-0.130	-0.061
-371.800	-74.222	-0.160	-0.057
-370.785	0.766	-0.082	-0.058
-369.771	800.000	0.036	-0.129
-368.756	-140.745	-0.096	0.010
-367.742	25.169	-0.090	0.074
-366.727	-49.522	-0.056	0.026
-365.712	-155.686	0.282	-0.018
-364.698	609.053	-0.146	0.360
-363.683	122.345	0.082	0.102
-362.669	800.000	0.094	0.339
-361.654	-200.000	-0.105	0.512
-360.639	120.914	-0.051	-0.063
-359.625	-12.118	0.083	-0.054
-358.610	-27.005	-0.105	0.061
-357.596	57.105	0.166	0.160
-356.581	-153.124	0.148	0.010
-355.566	7.813	0.119	-0.089
-354.552	636.029	-0.059	0.148
-353.537	65.435	-0.011	0.011
-352.523	18.078	-0.197	-0.155
-351.508	161.028	0.081	-0.112
-350.493	357.944	-0.057	-0.112
-349.479	-72.343	-0.036	-0.013
-348.464	77.318	-0.229	-0.241
-347.450	136.982	0.124	0.160
-346.435	800.000	0.057	0.221
-345.420	-32.251	0.172	-0.095
-344.406	-200.000	0.000	0.217
-343.391	-130.454	0.420	0.056
-342.377	-25.953	-0.093	0.054
-341.362	-200.000	-0.011	-0.094
-340.348	-51.388	0.406	-0.188
-339.333	-42.910	-0.208	-0.104
-338.318	-112.521	0.200	-0.040
-337.304	39.951	-0.046	0.041
-336.289	39.398	0.064	-0.057
-335.275	80.453	0.256	-0.273
-334.260	-109.639	-0.136	-0.028
-333.245	-2.978	-0.108	0.075
-332.231	-78.523	0.165	0.056
-331.216	-140.326	-0.217	-0.023
-330.202	-141.405	-0.416	0.042
-329.187	63.443	0.135	0.134
-328.172	-0.671	-0.110	-0.077
-327.158	57.751	0.122	0.118
-326.143	2.809	0.218	-0.157
-325.129	-112.011	-0.164	0.033
-324.114	-134.307	-0.082	-0.010
-323.099	58.378	0.154	0.150
-322.085	-200.000	-0.015	0.288
-321.070	-200.000	-0.026	0.163
-320.056	25.243	0.226	-0.186
-319.041	-74.106	0.379	0.136
-318.026	-200.000	-0.033	-0.154
-317.012	-200.000	-0.009	0.136
-315.997	344.972	-0.136	-0.264
-314.983	175.203	0.032	0.045
-313.968	-156.469	-0.294	0.018
-312.953	-148.976	-0.409	-0.033
-311.939	-102.138	0.330	-0.079
-310.924	483.506	-0.168	-0.378
-309.910	87.094	0.176	-0.193
-308.895	-123.941	0.045	0.007
-307.880	796.264	0.129	0.352
-306.866	-200.000	0.041	-0.262
-305.851	-136.771	0.340	-0.039
-304.837	-75.313	0.283	-0.100
-303.822	-82.704	0.178	-0.057
-302.807	202.854	-0.209	-0.320
-301.793	514.904	-0.021	-0.048
-300.778	1.798	-0.103	-0.074
-299.764	800.000	-0.013	-0.046
-298.749	-200.000	0.024	0.191
-297.735	-87.806	-0.356	0.106
-296.720	-27.592	-0.186	-0.107
-295.705	-94.760	0.139	0.037
-294.691	800.000	0.036	-0.144
-293.676	-19.879	-0.127	-0.077
-292.662	-200.000	0.022	0.144
-291.647	-89.774	0.061	0.018
-290.632	-200.000	-0.007	0.277
-289.618	-103.632	0.251	-0.058
-288.603	51.559	0.222	-0.209
-287.589	-136.278	-0.197	0.023
-286.574	115.155	0.247	0.298
-285.559	800.000	0.035	0.110
-284.545	-50.848	-0.124	0.058
-283.530	-200.000	0.047	-0.235
-282.516	681.958	0.044	-0.113
-281.501	356.036	0.097	0.191
-280.486	159.944	0.114	0.157
-279.472	-126.859	0.186	-0.027
-278.457	-200.000	0.008	0.208
-277.443	-4.365	0.139	0.095
-276.428	139.258	0.125	-0.163
-275.413	8.387	-0.132	-0.098
-274.399	149.114	-0.097	-0.129
-273.384	-95.698	-0.231	-0.061
-272.370	-65.063	0.357	-0.143
-271.355	210.292	-0.150	0.233
-270.340	-179.338	-0.269	-0.006
-269.326	709.616	-0.118	0.308
-268.311	-50.081	0.062	-0.029
-267.297	-96.813	-0.314	0.082
-266.282	-22.220	0.230	-0.138
-265.267	9.550	-0.060	-0.045
-264.253	-82.119	0.076	0.024
-263.238	404.510	-0.104	0.217
-262.224	-7.296	-0.196	0.131
-261.209	-122.383	0.213	0.034
-260.195	-85.123	0.246	0.076
-259.180	-37.776	-0.370	-0.195
-258.165	-58.420	-0.081	-0.035
-257.151	-200.000	-0.051	0.295
-256.136	-153.889	-0.278	0.019
-255.122	9.002	0.123	-0.092
-254.107	-134.118	0.165	0.020
-253.092	171.295	0.215	0.305
-252.078	55.217	0.113	-0.108
-251.063	-200.000	-0.002	0.238
-250.049	402.553	0.168	0.349
-249.034	154.647	0.122	-0.166
-248.019	54.617	-0.173	-0.164
-247.005	-123.614	0.105	-0.016
-245.990	798.338	0.093	0.253
-244.976	-200.000	-0.072	-0.440
-243.961	-73.313	-0.208	0.075
-242.946	-200.000	-0.015	-0.136
-241.932	-100.810	-0.105	-0.025
-240.917	5.234	0.241	-0.175
-239.903	-200.000	0.045	-0.233
-238.888	-181.185	-0.279	-0.005
-237.873	800.000	0.114	0.420
-236.859	-111.383	0.109	0.022
-235.844	28.074	0.182	0.151
-234.830	800.000	-0.103	0.314
-233.815	-22.560	0.146	-0.087
-232.800	-200.000	-0.023	0.294
-231.786	254.683	0.155	0.263
-230.771	-144.022	0.173	-0.016
-229.757	-200.000	0.060	-0.452
-228.742	7.196	0.118	0.087
-227.727	192.730	0.022	0.033
-226.713	255.723	-0.260	-0.440
-225.698	19.455	0.071	-0.057
-224.684	-71.537	-0.306	0.113
-223.669	130.651	-0.216	0.273
-222.655	-200.000	0.010	-0.074
-221.640	-132.607	0.107	0.014
-220.625	-104.626	-0.189	-0.043
-219.611	203.826	0.061	-0.094
-218.596	55.596	-0.116	0.110
-217.582	23.492	-0.071	0.058
-216.567	-28.859	0.175	-0.099
-215.552	800.000	0.096	-0.379
-214.538	-98.095	0.227	0.058
-213.523	-200.000	0.014	0.544
-212.509	-79.635	-0.242	0.080
-211.494	201.464	0.169	0.256
-210.479	-102.439	0.426	-0.101
-209.465	3.086	0.068	0.049
-208.450	31.818	0.215	-0.182
-207.436	-68.764	0.118	0.045
-206.421	-23.687	-0.335	0.198
-205.406	-131.867	-0.383	0.049
-204.392	-96.487	-0.132	0.034
-203.377	213.216	0.112	0.174
-202.363	-95.432	0.214	-0.057
-201.348	-17.577	0.196	0.121
-200.333	-0.990	-0.110	-0.077
-199.319	208.339	-0.232	0.358
-198.304	-57.829	-0.248	-0.107
-197.290	800.000	0.105	0.373
-196.275	-200.000	-0.044	0.250
-195.260	-45.986	-0.340	-0.165
-194.246	-175.300	0.281	0.008
-193.231	-95.652	-0.241	-0.064
-192.217	63.465	0.092	0.091
-191.202	-60.587	0.188	-0.079
-190.187	-144.407	0.112	-0.010
-189.173	55.682	0.202	0.193
-188.158	-66.731	-0.137	-0.054
-187.144	-29.514	0.175	0.099
-186.129	172.655	-0.149	-0.211
-185.114	255.327	0.154	-0.260
-184.100	-58.947	-0.089	0.038
-183.085	587.905	0.071	0.171
-182.071	305.659	0.085	0.155
-181.056	-75.166	-0.119	0.042
-180.042	204.300	0.257	0.392
-179.027	158.110	-0.048	0.066
-178.012	174.747	0.211	-0.301
-176.998	-41.169	0.112	-0.057
-175.983	-87.259	-0.129	-0.039
-174.969	-100.382	-0.156	-0.038
-173.954	-200.000	-0.046	0.279
-172.939	800.000	-0.092	-0.359
-171.925	-85.188	0.272	0.084
-170.910	-200.000	-0.011	-0.064
-169.896	-200.000	-0.015	-0.329
-168.881	-200.000	-0.003	-0.052
-167.866	165.188	-0.051	-0.071
-166.852	-112.335	-0.156	-0.031
-165.837	9.049	-0.077	0.057
-164.823	-38.822	-0.175	0.091
-163.808	-47.685	-0.249	0.119
-162.793	-116.609	-0.395	-0.072
-161.779	800.000	-0.065	0.192
-160.764	-200.000	0.001	0.376
-159.750	-12.199	-0.171	-0.110
-158.735	-115.332	0.277	-0.051
-157.720	167.998	0.142	-0.199
-156.706	165.322	0.073	0.102
-155.691	800.000	-0.136	0.404
-154.677	-65.548	0.206	-0.081
-153.662	-200.000	0.014	0.121
-152.647	29.839	-0.320	-0.268
-151.633	-200.000	-0.019	0.092
-150.618	-26.900	-0.064	-0.037
-149.604	46.684	0.196	0.179
-148.589	72.144	-0.040	-0.041
-147.574	-168.985	0.130	0.005
-146.560	79.605	-0.139	0.147
-145.545	268.364	0.085	0.146
-144.531	-200.000	-0.012	-0.063
-143.516	14.334	0.175	0.134
-142.502	212.999	-0.241	-0.374
-141.487	-110.350	-0.279	-0.057
-140.472	80.877	-0.208	-0.221
-139.458	117.404	0.060	-0.073
-138.443	-157.547	0.069	0.004
-137.429	-89.037	-0.157	-0.046
-136.414	358.391	0.120	-0.235
-135.399	-69.407	0.201	0.076
-134.385	210.534	0.174	0.269
-133.370	-15.985	-0.166	0.104
-132.356	-123.283	0.482	0.076
-131.341	92.552	0.202	0.224
-130.326	23.362	-0.120	0.097
-129.312	-200.000	0.011	-0.094
-128.297	-180.400	0.157	-0.003
-127.283	97.659	0.151	-0.170
-126.268	-200.000	0.027	-0.199
-125.253	81.771	0.111	0.119
-124.239	479.266	0.107	-0.239
-123.224	91.881	0.081	-0.089
-122.210	-95.508	0.138	0.036
-121.195	-77.490	0.106	-0.036
-120.180	430.571	0.042	0.088
