DTS Sentinel unit serial number:	SN413079Multiplexer serial number:	ORYXHardware model number:	OX4-SRSoftware version number:	ORYX F/W v4.00 Oryx Data Collector v3.7.2.0data status	okinstallation	princeton_trtdifferential loss correction	single-endedforward channel	channel 2reverse channel	N/Adate	2019/09/15time	00:59:35forward acquisition time	60.00reverse acquisition time	0.00gamma	496.2192k internal	0.2324k external	0.2324temperature offset calibration	1.0040default loss term (dB/km)	0.3790temperature slope calibration	1.0000multiplexer offset coefficient	1.0000multiplexer slope coefficient	1.0000fibre end	0.00T internal ref (°C)	32.00T ext. ref 1 (°C)	4.54T ext. ref 2 (°C)	26.88length (m)	temperature (°C)	Stokes	anti-Stokes-747.200	-118.388	-0.355	0.064
-746.185	-200.000	-0.441	0.000
-745.171	49.445	0.176	0.167
-744.156	-200.000	-0.008	0.038
-743.142	614.100	-0.078	-0.198
-742.127	800.000	0.050	0.145
-741.112	-200.000	-0.070	-0.329
-740.098	51.767	0.200	0.192
-739.083	70.774	0.248	0.259
-738.069	54.123	-0.041	0.040
-737.054	-200.000	0.003	-0.068
-736.039	50.289	-0.289	0.276
-735.025	34.263	-0.155	0.137
-734.010	24.754	-0.174	0.146
-732.996	5.172	-0.083	0.062
-731.981	-200.000	0.025	-0.163
-730.966	-32.336	0.215	-0.121
-729.952	800.000	0.106	-0.356
-728.937	-132.916	0.261	-0.033
-727.923	800.000	-0.180	-0.636
-726.908	800.000	0.036	0.115
-725.894	78.359	-0.063	-0.068
-724.879	246.624	0.126	-0.214
-723.864	-200.000	0.031	-0.428
-722.850	-106.664	-0.261	-0.059
-721.835	204.698	-0.224	-0.350
-720.821	-41.870	-0.147	0.076
-719.806	29.693	0.275	0.236
-718.791	-102.308	-0.239	-0.058
-717.777	-6.022	0.260	-0.179
-716.762	-77.526	-0.273	-0.095
-715.748	63.193	0.160	-0.161
-714.733	-139.981	-0.125	0.013
-713.718	-134.894	-0.087	0.011
-712.704	-44.832	0.096	-0.048
-711.689	-200.000	0.005	-0.243
-710.675	569.159	0.081	-0.198
-709.660	60.348	0.101	0.101
-708.645	-101.537	0.093	-0.023
-707.631	-200.000	0.022	0.146
-706.616	800.000	-0.106	0.382
-705.602	-14.546	-0.184	-0.119
-704.587	-200.000	0.053	-0.247
-703.572	-68.577	-0.187	0.073
-702.558	-104.242	0.222	0.052
-701.543	-200.000	-0.019	0.174
-700.529	-105.810	0.219	0.050
-699.514	-53.450	0.080	-0.037
-698.499	-28.959	0.071	-0.041
-697.485	77.866	0.147	-0.158
-696.470	475.975	-0.215	-0.489
-695.456	-43.361	0.330	-0.168
-694.441	800.000	0.076	0.262
-693.426	-200.000	-0.002	-0.124
-692.412	-105.258	0.351	0.081
-691.397	-61.500	0.154	0.065
-690.383	470.629	0.227	-0.515
-689.368	-5.696	0.197	-0.136
-688.354	800.000	0.044	-0.167
-687.339	-63.751	0.026	0.011
-686.324	-137.410	-0.159	0.018
-685.310	800.000	-0.047	-0.204
-684.295	-160.467	0.072	0.004
-683.281	-200.000	-0.026	0.166
-682.266	43.437	0.192	-0.177
-681.251	100.315	0.261	0.305
-680.237	-41.934	0.248	0.128
-679.222	479.448	-0.187	0.426
-678.208	259.322	-0.074	-0.128
-677.193	479.637	-0.150	-0.341
-676.178	-142.781	-0.480	-0.047
-675.164	-58.376	0.199	-0.087
-674.149	800.000	0.068	0.239
-673.135	172.035	0.036	0.052
-672.120	-44.078	-0.069	-0.035
-671.105	134.306	0.112	0.146
-670.091	-24.206	0.060	-0.036
-669.076	-200.000	-0.013	-0.060
-668.062	800.000	0.109	-0.337
-667.047	-200.000	0.044	0.368
-666.032	107.136	0.153	-0.183
-665.018	-200.000	0.019	0.164
-664.003	115.423	-0.181	-0.222
-662.989	11.836	0.197	0.152
-661.974	800.000	0.043	-0.127
-660.959	161.391	-0.165	0.232
-659.945	-157.079	-0.159	-0.010
-658.930	-200.000	-0.027	-0.159
-657.916	-200.000	-0.064	0.405
-656.901	-65.887	-0.090	0.036
-655.886	800.000	-0.079	-0.259
-654.872	-200.000	-0.005	-0.132
-653.857	41.216	0.157	0.143
-652.843	183.589	0.135	0.200
-651.828	800.000	-0.062	-0.196
-650.814	92.991	0.012	-0.014
-649.799	-29.234	0.292	-0.168
-648.784	-116.901	-0.157	-0.029
-647.770	68.232	-0.181	-0.187
-646.755	8.166	-0.213	-0.161
-645.741	398.170	-0.017	0.036
-644.726	316.059	0.067	0.127
-643.711	-155.529	0.312	0.020
-642.697	-200.000	-0.008	-0.045
-641.682	-200.000	-0.037	-0.286
-640.668	-200.000	-0.018	-0.379
-639.653	-35.552	0.276	-0.150
-638.638	-36.257	-0.098	0.053
-637.624	-200.000	0.026	0.212
-636.609	-129.206	-0.139	0.020
-635.595	137.233	-0.170	0.223
-634.580	-1.232	0.082	0.058
-633.565	-138.368	-0.125	0.014
-632.551	384.455	-0.053	0.110
-631.536	800.000	-0.045	-0.174
-630.522	-39.199	0.076	-0.040
-629.507	-165.225	0.302	0.013
-628.492	-114.229	-0.413	-0.080
-627.478	-9.968	-0.202	0.135
-626.463	-200.000	0.004	-0.192
-625.449	233.066	-0.069	-0.114
-624.434	800.000	0.046	-0.170
-623.419	-62.427	0.450	0.188
-622.405	-41.095	-0.073	0.038
-621.390	235.551	-0.101	-0.168
-620.376	-200.000	0.025	-0.162
-619.361	-99.341	0.075	0.019
-618.346	34.158	-0.174	-0.153
-617.332	25.560	-0.196	-0.164
-616.317	440.990	-0.069	-0.151
-615.303	-29.166	-0.451	0.260
-614.288	67.069	-0.247	0.253
-613.273	241.202	-0.044	-0.074
-612.259	-200.000	0.003	0.176
-611.244	450.188	0.034	-0.076
-610.230	-11.325	-0.153	-0.101
-609.215	-95.847	-0.121	-0.032
-608.201	-200.000	-0.031	0.188
-607.186	-200.000	0.027	-0.136
-606.171	-136.672	-0.160	-0.019
-605.157	-99.204	0.145	-0.037
-604.142	13.940	0.111	-0.087
-603.128	-4.376	-0.312	-0.217
-602.113	-79.788	-0.039	-0.013
-601.098	677.073	0.119	-0.311
-600.084	2.127	-0.209	0.151
-599.069	-53.848	-0.067	0.031
-598.055	-200.000	0.006	0.412
-597.040	-54.768	-0.301	-0.137
-596.025	7.545	0.306	-0.229
-595.011	258.101	-0.091	0.157
-593.996	-135.895	0.471	-0.056
-592.982	232.358	-0.123	-0.202
-591.967	-66.424	-0.361	-0.144
-590.952	-200.000	0.012	-0.142
-589.938	485.392	0.113	-0.259
-588.923	157.784	0.251	0.349
-587.909	46.005	0.157	-0.146
-586.894	126.176	-0.215	0.273
-585.879	421.050	-0.011	-0.023
-584.865	177.387	0.105	-0.153
-583.850	119.644	-0.038	-0.047
-582.836	89.348	0.051	0.057
-581.821	124.325	-0.192	0.242
-580.806	45.840	-0.140	-0.130
-579.792	-96.185	-0.254	0.068
-578.777	173.606	0.178	-0.258
-577.763	157.309	0.081	0.112
-576.748	20.885	0.223	-0.181
-575.733	248.520	-0.173	0.294
-574.719	-40.812	0.079	-0.041
-573.704	779.155	0.118	0.323
-572.690	343.244	0.013	0.026
-571.675	89.142	0.191	-0.213
-570.661	4.470	-0.108	-0.080
-569.646	-100.562	-0.188	0.047
-568.631	19.663	-0.166	0.134
-567.617	74.145	0.083	0.087
-566.602	-62.227	-0.145	0.060
-565.588	-127.338	-0.165	-0.024
-564.573	-71.272	0.347	-0.130
-563.558	260.670	0.020	0.035
-562.544	800.000	-0.026	0.089
-561.529	-161.632	0.178	-0.009
-560.515	800.000	0.033	0.128
-559.500	-200.000	0.001	-0.229
-558.485	-64.507	-0.088	-0.036
-557.471	-200.000	-0.017	-0.203
-556.456	139.020	0.108	-0.142
-555.442	99.054	0.156	0.180
-554.427	490.366	0.152	-0.349
-553.412	39.108	0.246	-0.221
-552.398	516.939	-0.086	-0.202
-551.383	-200.000	-0.026	0.363
-550.369	-157.598	-0.044	-0.003
-549.354	4.257	-0.192	0.141
-548.339	229.802	-0.171	-0.279
-547.325	92.470	-0.244	-0.275
-546.310	230.353	0.055	0.090
-545.296	-92.696	0.324	-0.091
-544.281	-144.837	0.450	-0.041
-543.266	-200.000	-0.046	-0.408
-542.252	-200.000	-0.033	-0.326
-541.237	-44.969	0.347	-0.173
-540.223	-200.000	0.060	-0.331
-539.208	136.787	-0.233	-0.305
-538.193	166.162	-0.151	0.214
-537.179	800.000	-0.059	-0.225
-536.164	-186.837	-0.272	-0.004
-535.150	800.000	-0.031	-0.098
-534.135	108.628	0.102	-0.122
-533.121	99.015	0.037	0.043
-532.106	-160.093	0.587	-0.032
-531.091	554.626	-0.169	0.407
-530.077	-65.205	0.013	-0.005
-529.062	69.905	-0.228	-0.236
-528.048	-140.500	0.310	-0.032
-527.033	-172.338	-0.099	-0.003
-526.018	-20.919	-0.302	-0.185
-525.004	-0.377	-0.055	-0.039
-523.989	-118.798	0.181	-0.032
-522.975	-171.237	-0.113	0.004
-521.960	-138.439	0.451	0.050
-520.945	-128.270	-0.093	-0.013
-519.931	397.332	0.061	0.128
-518.916	368.575	0.096	0.194
-517.902	10.146	0.236	-0.180
-516.887	-57.672	-0.260	0.114
-515.872	163.565	0.077	-0.108
-514.858	79.106	0.038	0.041
-513.843	12.747	0.144	-0.111
-512.829	328.754	-0.136	0.261
-511.814	-48.618	0.220	0.106
-510.799	800.000	0.046	0.174
-509.785	-129.546	-0.173	-0.024
-508.770	390.824	0.084	-0.175
-507.756	345.792	-0.128	-0.251
-506.741	-171.211	0.302	0.010
-505.726	-144.245	0.121	0.011
-504.712	-38.822	-0.252	-0.133
-503.697	615.813	0.091	0.229
-502.683	-187.530	-0.530	0.007
-501.668	19.800	0.136	-0.109
-500.653	19.641	0.079	-0.063
-499.639	49.914	0.190	-0.179
-498.624	355.487	0.045	-0.089
-497.610	-12.636	0.402	0.262
-496.595	234.324	0.043	0.071
-495.581	76.152	-0.336	-0.356
-494.566	-6.954	-0.279	0.189
-493.551	-200.000	-0.039	-0.230
-492.537	-128.881	0.289	-0.041
-491.522	-80.612	-0.325	0.108
-490.508	-148.485	0.338	0.028
-489.493	-114.153	-0.334	-0.065
-488.478	-200.000	-0.009	0.098
-487.464	411.568	0.029	-0.062
-486.449	800.000	-0.009	-0.032
-485.435	-200.000	0.015	-0.194
-484.420	-143.681	-0.403	0.038
-483.405	-200.000	-0.010	0.136
-482.391	-21.753	-0.307	0.187
-481.376	-48.228	0.101	-0.049
-480.362	-3.856	-0.063	-0.044
-479.347	-200.000	-0.018	0.285
-478.332	209.151	-0.143	0.224
-477.318	-117.487	-0.017	-0.003
-476.303	78.544	0.266	-0.284
-475.289	800.000	0.025	0.089
-474.274	800.000	0.011	-0.042
-473.259	-170.071	-0.312	-0.011
-472.245	800.000	-0.119	0.416
-471.230	30.067	-0.413	-0.351
-470.216	-111.479	-0.167	0.034
-469.201	-72.993	-0.251	-0.092
-468.186	-43.875	0.213	0.107
-467.172	271.203	0.094	0.165
-466.157	-144.874	-0.076	0.007
-465.143	-190.482	0.118	-0.001
-464.128	-200.000	0.022	0.233
-463.113	8.011	0.129	0.097
-462.099	-160.206	0.158	-0.009
-461.084	-90.968	0.283	-0.081
-460.070	261.922	-0.261	-0.451
-459.055	-86.056	-0.293	-0.090
-458.040	326.463	-0.095	-0.182
-457.026	-200.000	0.064	0.337
-456.011	-114.567	-0.386	0.074
-454.997	367.623	0.045	0.090
-453.982	-20.451	0.276	-0.170
-452.968	-164.247	-0.260	0.012
-451.953	-104.062	0.224	-0.052
-450.938	127.949	0.095	-0.121
-449.924	210.840	-0.172	-0.269
-448.909	-200.000	-0.007	0.145
-447.895	28.108	0.106	-0.089
-446.880	-66.401	-0.283	-0.112
-445.865	-139.829	0.092	0.010
-444.851	800.000	0.075	-0.216
-443.836	-200.000	0.006	0.127
-442.822	-54.199	0.575	0.261
-441.807	-101.192	-0.228	0.056
-440.792	5.782	0.103	0.076
-439.778	-30.129	-0.267	-0.152
-438.763	111.797	-0.095	0.114
-437.749	18.287	-0.237	0.189
-436.734	187.105	0.185	-0.274
-435.719	-146.966	-0.451	-0.039
-434.705	-83.476	0.207	0.066
-433.690	7.131	0.159	-0.118
-432.676	800.000	0.041	-0.162
-431.661	26.732	0.184	-0.154
-430.646	-159.805	-0.261	-0.014
-429.632	224.225	0.122	0.196
-428.617	-83.541	-0.056	-0.018
-427.603	-63.096	0.127	0.052
-426.588	-200.000	-0.016	-0.107
-425.573	-112.765	0.033	-0.006
-424.559	-48.295	-0.212	0.102
-423.544	12.107	0.366	-0.280
-422.530	-200.000	-0.002	0.148
-421.515	242.268	0.126	0.211
-420.500	114.732	0.024	-0.029
-419.486	482.439	0.074	-0.169
-418.471	-200.000	0.069	0.312
-417.457	-71.280	-0.166	0.062
-416.442	-200.000	0.050	0.248
-415.428	-200.000	0.004	-0.245
-414.413	388.538	0.018	0.038
-413.398	529.907	0.106	-0.250
-412.384	-60.150	-0.213	-0.091
-411.369	147.689	0.067	0.090
-410.355	800.000	0.090	0.260
-409.340	32.737	-0.390	0.336
-408.325	353.346	-0.038	0.075
-407.311	-25.697	0.257	-0.151
-406.296	-74.820	0.496	-0.177
-405.282	800.000	0.060	0.195
-404.267	-200.000	-0.062	0.338
-403.252	800.000	-0.088	0.298
-402.238	31.793	-0.277	-0.238
-401.223	800.000	-0.100	-0.387
-400.209	-75.348	-0.379	-0.135
-399.194	105.826	0.105	-0.124
-398.179	560.278	-0.134	0.323
-397.165	29.013	-0.018	0.015
-396.150	-101.914	-0.411	0.099
-395.136	-153.724	0.311	0.021
-394.121	35.688	0.089	-0.078
-393.106	556.592	-0.024	0.058
-392.092	353.223	-0.096	0.189
-391.077	-100.020	0.269	-0.067
-390.063	800.000	0.060	-0.174
-389.048	395.005	-0.132	0.275
-388.033	800.000	-0.047	-0.195
-387.019	60.599	-0.024	-0.023
-386.004	108.279	-0.071	0.084
-384.990	-200.000	0.015	-0.383
-383.975	-93.842	-0.538	0.147
-382.960	800.000	-0.091	0.369
-381.946	-200.000	-0.031	-0.271
-380.931	-200.000	0.014	-0.138
-379.917	5.790	-0.072	-0.053
-378.902	-200.000	-0.021	-0.212
-377.888	-47.868	-0.274	0.132
-376.873	-59.553	0.309	-0.132
-375.858	800.000	-0.040	-0.175
-374.844	800.000	0.040	0.127
-373.829	-95.889	0.097	-0.026
-372.815	38.856	-0.238	0.212
-371.800	-147.021	-0.156	-0.013
-370.785	-23.664	0.115	0.069
-369.771	11.299	0.058	0.044
-368.756	-200.000	-0.002	-0.038
-367.742	64.984	-0.148	-0.149
-366.727	45.312	0.113	-0.104
-365.712	800.000	-0.076	-0.262
-364.698	-200.000	0.027	-0.186
-363.683	-143.749	-0.079	0.007
-362.669	696.066	-0.081	0.211
-361.654	-149.562	0.090	-0.007
-360.639	-67.664	-0.180	-0.070
-359.625	43.370	0.116	0.105
-358.610	-141.919	0.285	0.028
-357.596	29.884	0.034	0.029
-356.581	-94.816	0.188	-0.051
-355.566	136.555	-0.056	-0.073
-354.552	466.621	0.070	0.157
-353.537	-200.000	-0.035	0.232
-352.523	787.152	-0.047	-0.128
-351.508	-49.034	0.126	0.060
-350.493	-130.422	0.214	-0.029
-349.479	-200.000	-0.000	-0.036
-348.464	175.165	0.021	0.030
-347.450	141.250	-0.108	0.143
-346.435	12.906	-0.052	-0.040
-345.420	-200.000	-0.061	0.375
-344.406	800.000	-0.060	0.194
-343.391	800.000	-0.034	-0.141
-342.377	-138.750	-0.147	0.016
-341.362	-81.047	0.055	-0.018
-340.348	78.008	0.222	-0.235
-339.333	800.000	-0.056	0.179
-338.318	-200.000	-0.053	0.309
-337.304	-28.795	0.176	0.100
-336.289	-86.522	-0.260	0.079
-335.275	-127.658	0.269	0.039
-334.260	278.161	0.175	0.309
-333.245	-67.545	0.381	0.149
-332.231	-27.500	0.133	-0.077
-331.216	229.640	0.106	0.172
-330.202	-5.378	0.081	0.055
-329.187	225.361	-0.123	0.198
-328.172	-30.321	-0.168	0.095
-327.158	-148.288	0.177	0.014
-326.143	20.029	-0.097	-0.078
-325.129	204.446	0.179	-0.275
-324.114	468.017	-0.156	0.346
-323.099	-44.595	-0.257	0.128
-322.085	63.369	-0.104	0.104
-321.070	15.463	-0.212	0.165
-320.056	-75.519	-0.213	-0.075
-319.041	-53.890	-0.049	0.022
-318.026	-3.606	0.331	-0.228
-317.012	-65.553	0.124	0.049
-315.997	242.513	-0.262	-0.435
-314.983	56.876	-0.083	-0.080
-313.968	153.941	0.163	0.222
-312.953	350.461	-0.003	-0.006
-311.939	-20.314	0.079	-0.048
-310.924	800.000	-0.048	0.195
-309.910	-19.621	0.120	-0.074
-308.895	-24.184	-0.045	-0.027
-307.880	-200.000	-0.006	-0.069
-306.866	-200.000	0.006	0.452
-305.851	-200.000	-0.001	-0.124
-304.837	92.033	-0.208	-0.233
-303.822	240.779	0.036	-0.060
-302.807	369.505	-0.144	0.289
-301.793	-200.000	-0.005	0.399
-300.778	-89.937	-0.282	0.082
-299.764	494.625	0.054	-0.123
-298.749	-40.380	-0.218	0.112
-297.735	109.591	0.145	-0.172
-296.720	-178.294	-0.290	0.007
-295.705	77.241	0.117	-0.124
-294.691	677.247	0.094	0.242
-293.676	518.935	-0.090	0.209
-292.662	800.000	0.047	0.130
-291.647	673.407	-0.089	0.229
-290.632	800.000	0.043	-0.142
-289.618	-130.691	-0.051	0.007
-288.603	-58.841	-0.263	-0.113
-287.589	-81.390	-0.317	0.104
-286.574	-40.763	-0.168	0.086
-285.559	-26.002	0.162	0.094
-284.545	-13.781	-0.245	0.157
-283.530	53.146	-0.167	-0.159
-282.516	-200.000	-0.022	-0.104
-281.501	-181.193	-0.351	0.007
-280.486	-85.668	0.143	-0.044
-279.472	-24.554	0.226	0.134
-278.457	-67.909	-0.375	-0.145
-277.443	448.202	0.058	0.126
-276.428	-99.666	0.324	0.081
-275.413	-100.785	-0.237	0.058
-274.399	-74.161	0.102	-0.036
-273.384	-200.000	0.026	-0.445
-272.370	-110.774	0.075	0.015
-271.355	157.057	0.138	0.190
-270.340	183.352	-0.069	0.102
-269.326	-200.000	0.007	0.152
-268.311	-94.416	-0.170	-0.046
-267.297	-153.306	0.280	0.019
-266.282	-174.113	0.295	-0.009
-265.267	182.304	-0.091	-0.133
-264.253	-200.000	-0.008	0.150
-263.238	-200.000	0.034	-0.167
-262.224	-91.598	-0.235	0.066
-261.209	383.301	0.007	-0.014
-260.195	-4.459	0.223	0.153
-259.180	300.520	0.028	0.052
-258.165	40.697	-0.204	-0.182
-257.151	-36.859	0.068	0.036
-256.136	-138.780	0.328	-0.035
-255.122	128.584	0.138	-0.174
-254.107	440.227	0.157	0.340
-253.092	373.857	0.059	0.119
-252.078	-200.000	-0.014	0.192
-251.063	-128.037	-0.089	-0.013
-250.049	800.000	-0.010	0.035
-249.034	-200.000	0.001	0.341
-248.019	292.682	0.135	-0.244
-247.005	-188.497	0.379	0.005
-245.990	-84.500	0.249	-0.078
-244.976	-200.000	-0.045	-0.312
-243.961	-80.157	-0.200	-0.066
-242.946	800.000	-0.049	0.147
-241.932	311.821	-0.062	0.115
-240.917	136.388	-0.086	-0.110
-239.903	200.509	-0.127	-0.192
-238.888	49.913	0.055	-0.052
-237.873	455.238	0.171	-0.376
-236.859	-186.926	0.080	-0.001
-235.844	99.163	-0.092	0.105
-234.830	-94.776	0.419	-0.112
-233.815	-38.841	0.019	-0.010
-232.800	347.059	0.162	-0.315
-231.786	-200.000	0.056	-0.263
-230.771	241.939	-0.087	-0.143
-229.757	-200.000	-0.041	-0.269
-228.742	54.010	-0.212	0.202
-227.727	-137.524	0.078	0.009
-226.713	800.000	0.092	0.306
-225.698	178.779	-0.004	0.005
-224.684	227.859	0.067	-0.108
-223.669	73.894	-0.077	0.080
-222.655	42.684	0.256	0.230
-221.640	37.755	0.132	0.116
-220.625	-200.000	-0.124	0.000
-219.611	-161.972	0.233	0.012
-218.596	-105.610	0.418	0.094
-217.582	20.502	0.138	-0.111
-216.567	230.902	-0.076	0.123
-215.552	59.741	0.161	0.157
-214.538	-200.000	-0.143	-0.001
-213.523	737.630	-0.017	0.044
-212.509	347.066	0.121	0.236
-211.494	-57.057	-0.207	0.090
-210.479	-200.000	0.007	0.169
-209.465	800.000	0.056	-0.238
-208.450	-62.273	0.047	-0.019
-207.436	-43.507	0.153	0.076
-206.421	-26.616	0.105	0.061
-205.406	79.407	0.056	-0.060
-204.392	-43.325	-0.302	-0.151
-203.377	50.303	0.113	0.105
-202.363	87.683	-0.141	0.154
-201.348	-119.857	0.135	0.023
-200.333	-4.476	0.165	0.113
-199.319	-200.000	-0.035	0.153
-198.304	19.775	0.216	-0.172
-197.290	-200.000	0.033	-0.233
-196.275	110.437	-0.167	-0.198
-195.260	-111.958	-0.160	-0.032
-194.246	492.432	0.066	0.149
-193.231	-200.000	0.003	0.048
-192.217	-173.170	-0.174	-0.005
-191.202	436.199	-0.090	-0.194
-190.187	71.278	0.152	0.156
-189.173	-200.000	0.056	0.345
-188.158	261.993	-0.186	-0.319
-187.144	-119.742	0.103	0.018
-186.129	15.846	-0.035	0.027
-185.114	-200.000	0.024	0.127
-184.100	-23.626	-0.034	-0.020
-183.085	506.407	0.113	0.258
-182.071	-129.454	0.207	-0.028
-181.056	800.000	-0.040	0.148
-180.042	-24.679	0.180	0.106
-179.027	-60.865	-0.241	-0.100
-178.012	-36.964	0.105	-0.056
-176.998	-105.927	-0.268	-0.060
-175.983	-74.424	0.096	0.034
-174.969	47.471	0.084	0.078
-173.954	800.000	-0.095	-0.385
-172.939	54.327	-0.070	-0.067
-171.925	-200.000	-0.022	0.377
-170.910	-44.514	0.180	-0.089
-169.896	372.574	0.112	0.224
-168.881	-200.000	-0.016	0.156
-167.866	115.045	0.187	0.226
-166.852	112.676	-0.240	0.287
-165.837	15.743	0.209	-0.162
-164.823	-94.503	0.056	0.015
-163.808	428.120	0.064	0.135
-162.793	-54.324	0.123	0.055
-161.779	-1.936	-0.218	0.151
-160.764	60.075	0.110	0.107
-159.750	9.296	-0.160	-0.119
-158.735	-200.000	0.004	0.150
-157.720	290.878	0.121	0.217
-156.706	-39.809	0.159	0.082
-155.691	-130.244	0.488	0.065
-154.677	46.254	0.121	0.111
-153.662	-200.000	-0.038	-0.454
-152.647	81.371	0.202	-0.215
-151.633	-98.117	-0.080	-0.020
-150.618	-108.914	0.314	0.066
-149.604	94.044	-0.079	0.088
-148.589	-64.925	-0.096	0.038
-147.574	-200.000	-0.007	0.257
-146.560	-106.886	-0.196	0.043
-145.545	-1.215	0.446	0.310
-144.531	143.453	-0.138	0.181
-143.516	800.000	0.079	-0.293
-142.502	-200.000	0.032	-0.224
-141.487	167.572	0.137	0.192
-140.472	-116.897	-0.339	0.061
-139.458	111.561	-0.269	0.320
-138.443	-112.367	0.236	0.047
-137.429	-200.000	0.051	-0.277
-136.414	29.328	0.208	0.174
-135.399	293.100	-0.054	0.097
-134.385	184.571	-0.133	-0.195
-133.370	800.000	0.014	0.048
-132.356	-38.626	0.359	0.187
-131.341	-13.781	-0.164	0.105
-130.326	154.453	-0.112	-0.152
-129.312	-162.537	0.389	0.019
-128.297	-138.679	0.116	0.013
-127.283	-8.526	0.041	0.027
-126.268	-139.369	0.450	-0.048
-125.253	32.628	0.164	0.140
-124.239	-1.747	0.133	-0.092
-123.224	-39.103	-0.208	0.108
-122.210	110.592	-0.135	0.160
-121.195	10.860	-0.065	-0.049
-120.180	408.870	0.138	0.287
