DTS Sentinel unit serial number:	SN413079Multiplexer serial number:	ORYXHardware model number:	OX4-SRSoftware version number:	ORYX F/W v4.00 Oryx Data Collector v3.7.2.0data status	okinstallation	princeton_trtdifferential loss correction	single-endedforward channel	channel 2reverse channel	N/Adate	2019/09/11time	03:33:10forward acquisition time	60.00reverse acquisition time	0.00gamma	496.2192k internal	0.2329k external	0.2329temperature offset calibration	0.9939default loss term (dB/km)	0.3790temperature slope calibration	1.0000multiplexer offset coefficient	1.0000multiplexer slope coefficient	1.0000fibre end	0.00T internal ref (°C)	29.48T ext. ref 1 (°C)	-0.28T ext. ref 2 (°C)	23.95length (m)	temperature (°C)	Stokes	anti-Stokes-747.200	-82.370	0.145	0.047
-746.185	54.862	0.052	0.051
-745.171	75.295	-0.043	-0.045
-744.156	-10.422	-0.187	0.125
-743.142	-200.000	-0.011	0.094
-742.127	-64.073	-0.508	0.209
-741.112	-89.115	-0.334	-0.100
-740.098	-200.000	-0.024	-0.151
-739.083	681.468	0.141	-0.370
-738.069	800.000	0.040	-0.165
-737.054	68.156	0.177	0.182
-736.039	-24.312	-0.263	0.158
-735.025	-132.883	0.251	-0.032
-734.010	-200.000	-0.030	-0.403
-732.996	-73.048	-0.386	-0.143
-731.981	-6.823	0.061	0.041
-730.966	35.778	-0.277	0.246
-729.952	-99.313	0.405	-0.103
-728.937	-5.586	0.098	0.067
-727.923	-164.478	-0.134	0.006
-726.908	-120.793	-0.023	-0.004
-725.894	-200.000	-0.016	-0.128
-724.879	211.079	-0.103	0.163
-723.864	653.238	-0.143	0.369
-722.850	-31.255	0.390	-0.221
-721.835	-109.624	0.205	-0.043
-720.821	-200.000	-0.005	-0.053
-719.806	-127.588	0.231	-0.034
-718.791	-118.232	0.265	0.047
-717.777	71.971	-0.056	0.058
-716.762	64.095	-0.181	0.183
-715.748	39.052	-0.181	0.163
-714.733	37.119	0.167	-0.149
-713.718	237.890	0.320	-0.535
-712.704	111.225	-0.232	0.281
-711.689	-133.484	0.401	-0.051
-710.675	130.796	-0.269	-0.347
-709.660	800.000	0.046	0.177
-708.645	16.489	0.217	-0.172
-707.631	-200.000	-0.075	-0.432
-706.616	-200.000	0.019	0.129
-705.602	-169.764	-0.390	0.014
-704.587	188.886	-0.027	-0.041
-703.572	-200.000	-0.019	0.132
-702.558	280.150	-0.105	0.188
-701.543	83.054	-0.270	-0.296
-700.529	101.367	-0.152	-0.178
-699.514	-74.627	-0.189	-0.068
-698.499	52.824	0.089	0.085
-697.485	183.840	-0.173	-0.258
-696.470	-99.230	0.109	-0.028
-695.456	800.000	-0.045	-0.160
-694.441	-200.000	0.160	0.001
-693.426	352.781	-0.213	-0.424
-692.412	466.692	0.132	-0.296
-691.397	779.306	0.098	-0.270
-690.383	-54.760	0.205	-0.093
-689.368	-115.306	-0.327	-0.062
-688.354	598.723	0.168	-0.418
-687.339	72.780	0.188	-0.197
-686.324	-28.025	-0.199	-0.116
-685.310	-85.276	-0.196	-0.061
-684.295	155.014	-0.034	0.047
-683.281	-145.284	-0.216	-0.020
-682.266	-200.000	0.026	0.119
-681.251	73.520	0.100	0.105
-680.237	800.000	0.031	-0.112
-679.222	388.829	0.054	-0.112
-678.208	-129.922	-0.282	-0.039
-677.193	-92.130	-0.243	-0.069
-676.178	-200.000	0.044	-0.287
-675.164	101.758	0.085	0.099
-674.149	285.640	0.206	-0.373
-673.135	800.000	0.042	-0.149
-672.120	-2.949	0.196	-0.137
-671.105	-148.818	0.282	-0.023
-670.091	105.203	0.104	0.123
-669.076	-163.666	0.165	-0.008
-668.062	800.000	-0.018	-0.072
-667.047	-21.493	-0.047	0.029
-666.032	7.519	-0.186	0.140
-665.018	371.833	-0.038	0.077
-664.003	-66.042	0.382	0.153
-662.989	-102.834	0.166	-0.040
-661.974	800.000	-0.097	-0.318
-660.959	112.434	-0.037	0.045
-659.945	56.184	-0.326	0.318
-658.930	4.790	-0.405	-0.299
-657.916	-200.000	0.009	0.178
-656.901	275.811	-0.024	0.042
-655.886	-200.000	-0.023	0.111
-654.872	341.421	-0.090	0.176
-653.857	-33.248	0.137	-0.076
-652.843	800.000	-0.034	0.097
-651.828	-171.677	0.108	-0.004
-650.814	-127.913	-0.133	0.019
-649.799	-117.043	0.185	-0.034
-648.784	-43.675	0.149	-0.076
-647.770	-57.020	-0.203	-0.090
-646.755	-2.484	-0.079	0.055
-645.741	-74.997	-0.256	0.092
-644.726	55.954	0.126	-0.123
-643.711	-179.529	-0.243	-0.005
-642.697	-47.564	0.100	-0.049
-641.682	-200.000	0.003	0.024
-640.668	-26.837	-0.253	-0.148
-639.653	-86.041	0.074	-0.023
-638.638	800.000	-0.034	0.149
-637.624	-200.000	0.002	-0.066
-636.609	-200.000	-0.002	0.087
-635.595	16.066	0.235	-0.186
-634.580	466.740	-0.078	0.175
-633.565	-111.640	-0.270	0.055
-632.551	-124.869	0.165	-0.026
-631.536	242.396	-0.200	0.335
-630.522	-62.747	-0.062	0.026
-629.507	800.000	-0.024	0.091
-628.492	484.443	-0.082	-0.188
-627.478	-9.632	-0.459	-0.307
-626.463	-7.709	-0.046	-0.031
-625.449	-2.856	0.228	0.160
-624.434	163.106	-0.025	-0.035
-623.419	11.038	-0.349	0.268
-622.405	-200.000	0.012	-0.231
-621.390	-165.928	-0.256	-0.011
-620.376	84.586	-0.103	-0.113
-619.361	89.174	0.154	-0.172
-618.346	549.124	0.104	-0.249
-617.332	169.418	-0.057	-0.082
-616.317	123.200	0.168	-0.211
-615.303	-100.221	-0.207	0.051
-614.288	-102.440	-0.493	0.118
-613.273	49.591	-0.174	-0.164
-612.259	-77.087	-0.275	-0.096
-611.244	-1.737	0.164	-0.116
-610.230	-25.907	-0.163	-0.096
-609.215	135.593	0.049	-0.064
-608.201	-6.177	-0.157	-0.107
-607.186	-106.785	0.274	-0.061
-606.171	-115.518	0.195	-0.037
-605.157	244.995	-0.099	-0.166
-604.142	-5.954	0.048	-0.033
-603.128	-200.000	-0.017	0.214
-602.113	-101.665	-0.206	-0.050
-601.098	211.414	-0.037	0.058
-600.084	-77.747	0.112	-0.039
-599.069	56.854	-0.109	0.107
-598.055	-10.587	-0.127	0.084
-597.040	48.245	0.043	-0.040
-596.025	-28.273	0.337	-0.195
-595.011	-200.000	0.061	-0.293
-593.996	151.077	0.090	0.122
-592.982	2.776	-0.143	0.104
-591.967	-173.822	-0.218	-0.006
-590.952	-20.484	0.057	0.035
-589.938	-200.000	0.054	-0.368
-588.923	800.000	0.099	-0.325
-587.909	-172.895	0.246	-0.008
-586.894	-114.189	-0.193	-0.037
-585.879	283.896	-0.167	-0.300
-584.865	705.117	0.061	0.161
-583.850	-28.631	0.309	-0.178
-582.836	-200.000	0.019	0.106
-581.821	-43.832	-0.176	0.089
-580.806	800.000	0.111	0.364
-579.792	-24.906	0.065	-0.039
-578.777	181.272	0.070	0.104
-577.763	78.807	0.080	-0.086
-576.748	292.889	0.133	0.243
-575.733	-200.000	-0.037	0.189
-574.719	-54.318	-0.250	0.114
-573.704	-200.000	-0.046	-0.408
-572.690	-156.568	0.096	0.006
-571.675	-200.000	0.032	-0.210
-570.661	514.800	0.114	0.266
-569.646	800.000	0.039	0.120
-568.631	-200.000	0.009	0.276
-567.617	-200.000	-0.008	0.130
-566.602	134.253	0.233	-0.303
-565.588	800.000	-0.060	0.236
-564.573	12.866	-0.133	-0.103
-563.558	-158.202	0.186	0.011
-562.544	146.565	0.071	-0.096
-561.529	-76.360	-0.240	-0.084
-560.515	-138.868	0.104	-0.011
-559.500	-200.000	0.009	-0.302
-558.485	-200.000	-0.035	0.226
-557.471	800.000	0.072	-0.250
-556.456	-153.549	0.266	-0.018
-555.442	-26.394	-0.121	0.071
-554.427	33.811	-0.175	-0.152
-553.412	-39.980	-0.303	-0.158
-552.398	34.631	-0.085	-0.074
-551.383	-58.261	0.152	0.066
-550.369	152.744	-0.104	0.142
-549.354	295.925	0.148	-0.271
-548.339	-164.148	0.023	0.001
-547.325	-200.000	0.008	0.123
-546.310	115.414	-0.081	0.099
-545.296	-69.750	0.145	-0.055
-544.281	23.853	0.467	-0.385
-543.266	-90.685	0.353	-0.102
-542.252	-200.000	-0.075	0.333
-541.237	-115.049	-0.131	-0.025
-540.223	-200.000	0.068	-0.416
-539.208	26.328	-0.109	0.091
-538.193	-127.673	-0.269	0.039
-537.179	67.719	-0.146	-0.149
-536.164	-56.664	-0.359	0.159
-535.150	110.172	0.081	0.097
-534.135	-121.613	-0.185	0.031
-533.121	26.465	-0.155	0.130
-532.106	-125.846	-0.158	-0.024
-531.091	-74.769	-0.015	0.005
-530.077	-8.522	0.122	0.082
-529.062	110.314	0.262	-0.314
-528.048	800.000	-0.079	-0.225
-527.033	-91.384	0.194	-0.055
-526.018	-117.904	0.286	0.051
-525.004	-200.000	0.227	-0.001
-523.989	-88.647	0.105	0.031
-522.975	-200.000	-0.003	-0.133
-521.960	53.827	0.088	0.084
-520.945	-140.215	0.052	0.005
-519.931	10.340	-0.185	-0.141
-518.916	7.391	-0.298	-0.222
-517.902	-200.000	0.012	0.212
-516.887	-26.603	-0.145	0.085
-515.872	21.831	0.186	-0.151
-514.858	-200.000	-0.004	-0.079
-513.843	83.739	0.151	-0.165
-512.829	-74.737	0.341	0.122
-511.814	644.020	0.065	-0.167
-510.799	-79.842	0.070	-0.024
-509.785	-145.781	-0.492	0.044
-508.770	-66.284	-0.192	-0.076
-507.756	79.323	0.203	0.218
-506.741	-130.287	-0.380	-0.052
-505.726	-200.000	0.079	0.454
-504.712	-18.796	-0.192	-0.119
-503.697	-200.000	-0.080	-0.707
-502.683	190.169	-0.054	-0.081
-501.668	-89.967	-0.334	-0.097
-500.653	-155.941	-0.181	0.011
-499.639	-200.000	-0.020	0.170
-498.624	56.611	0.206	-0.200
-497.610	800.000	0.076	-0.246
-496.595	-103.530	0.361	0.085
-495.581	-98.857	0.112	-0.028
-494.566	-97.995	0.241	0.062
-493.551	800.000	-0.043	-0.124
-492.537	24.312	0.096	0.079
-491.522	-128.427	0.022	-0.003
-490.508	236.255	0.146	0.241
-489.493	-74.630	-0.293	0.105
-488.478	-155.640	-0.265	0.017
-487.464	99.184	0.159	0.184
-486.449	51.246	-0.087	-0.082
-485.435	-200.000	-0.011	0.176
-484.420	-200.000	0.234	-0.000
-483.405	416.964	-0.181	0.385
-482.391	6.699	0.487	0.362
-481.376	-149.270	-0.088	0.007
-480.362	43.417	0.300	0.273
-479.347	-27.188	0.231	-0.134
-478.332	-200.000	0.079	-0.364
-477.318	-200.000	0.017	0.107
-476.303	-200.000	0.058	0.337
-475.289	-66.768	-0.204	0.080
-474.274	-78.006	0.176	0.061
-473.259	128.109	0.207	-0.262
-472.245	424.601	-0.111	-0.238
-471.230	-87.880	-0.166	-0.050
-470.216	-200.000	0.002	0.022
-469.201	142.691	-0.063	0.083
-468.186	-6.680	-0.358	0.243
-467.172	43.251	0.207	-0.189
-466.157	106.136	0.257	0.303
-465.143	-200.000	0.044	0.251
-464.128	-129.192	-0.207	0.029
-463.113	129.864	-0.091	-0.116
-462.099	-23.095	0.087	-0.052
-461.084	800.000	-0.067	-0.203
-460.070	800.000	0.062	-0.250
-459.055	-200.000	-0.042	0.307
-458.040	-4.013	-0.262	0.181
-457.026	800.000	-0.050	-0.170
-456.011	-173.856	0.073	0.002
-454.997	68.131	0.219	-0.223
-453.982	-200.000	0.084	-0.368
-452.968	-35.314	-0.210	0.114
-451.953	489.057	0.032	-0.074
-450.938	-188.430	0.285	-0.004
-449.924	274.804	-0.148	0.261
-448.909	-166.903	-0.214	0.009
-447.895	3.336	-0.198	0.144
-446.880	-101.008	0.045	0.011
-445.865	-52.750	0.091	-0.042
-444.851	-105.956	0.266	0.060
-443.836	-7.934	0.049	0.033
-442.822	141.853	-0.132	-0.174
-441.807	287.516	0.116	0.210
-440.792	23.539	0.089	-0.073
-439.778	86.912	-0.092	-0.101
-438.763	-200.000	-0.007	-0.195
-437.749	-39.546	-0.029	-0.015
-436.734	36.361	0.131	-0.115
-435.719	-200.000	-0.072	-0.369
-434.705	177.978	-0.054	-0.078
-433.690	276.441	0.217	-0.384
-432.676	203.883	-0.098	-0.151
-431.661	216.880	0.108	-0.172
-430.646	112.901	-0.182	0.220
-429.632	-200.000	0.010	0.156
-428.617	-15.995	-0.185	-0.117
-427.603	308.260	0.121	-0.225
-426.588	144.237	-0.296	0.393
-425.573	-129.650	0.355	-0.049
-424.559	-200.000	-0.402	0.001
-423.544	-57.842	-0.158	0.069
-422.530	-46.185	-0.384	0.188
-421.515	241.662	0.156	0.259
-420.500	15.107	-0.169	0.131
-419.486	-56.860	-0.249	0.109
-418.471	-200.000	-0.007	0.244
-417.457	122.891	0.102	0.127
-416.442	45.199	0.294	-0.270
-415.428	-62.558	-0.215	0.089
-414.413	800.000	0.028	0.109
-413.398	151.606	0.036	0.049
-412.384	-58.726	-0.277	0.119
-411.369	-200.000	-0.024	0.345
-410.355	-45.021	-0.187	-0.093
-409.340	800.000	0.101	-0.334
-408.325	-200.000	-0.097	-0.521
-407.311	800.000	0.133	-0.376
-406.296	-62.089	0.196	0.081
-405.282	-200.000	-0.065	-0.300
-404.267	-200.000	0.011	-0.187
-403.252	-200.000	0.017	0.083
-402.238	139.699	0.178	0.234
-401.223	-9.734	0.330	0.218
-400.209	284.009	-0.104	-0.186
-399.194	11.158	-0.222	0.169
-398.179	65.855	0.079	0.080
-397.165	-200.000	-0.004	0.121
-396.150	-34.134	-0.127	-0.069
-395.136	-96.515	-0.087	0.023
-394.121	800.000	-0.116	-0.334
-393.106	-73.621	0.203	0.074
-392.092	771.370	-0.135	-0.365
-391.077	308.202	0.053	-0.098
-390.063	-200.000	0.023	-0.100
-389.048	-167.923	-0.284	-0.011
-388.033	-130.678	0.220	0.029
-387.019	-200.000	-0.013	-0.247
-386.004	800.000	0.007	-0.025
-384.990	-73.755	0.204	-0.074
-383.975	-58.910	-0.091	0.039
-382.960	-200.000	-0.003	-0.107
-381.946	-122.605	-0.268	-0.043
-380.931	86.995	-0.285	-0.313
-379.917	12.566	0.242	-0.185
-378.902	-118.442	0.108	-0.019
-377.888	147.604	0.196	-0.262
-376.873	-200.000	0.022	0.243
-375.858	766.824	-0.211	0.569
-374.844	116.001	0.081	-0.099
-373.829	-200.000	0.073	0.416
-372.815	290.922	-0.146	0.264
-371.800	-96.989	-0.128	-0.033
-370.785	-200.000	0.031	0.248
-369.771	800.000	-0.061	0.231
-368.756	151.283	-0.296	0.399
-367.742	35.480	0.219	0.191
-366.727	15.920	0.175	0.137
-365.712	-91.091	-0.130	-0.037
-364.698	286.147	0.039	-0.070
-363.683	-84.745	0.145	0.045
-362.669	800.000	0.056	0.162
-361.654	-109.975	0.243	-0.051
-360.639	71.980	-0.099	-0.103
-359.625	-73.790	0.139	0.050
-358.610	-200.000	-0.060	-0.361
-357.596	-100.735	0.156	-0.038
-356.581	203.435	-0.176	0.270
-355.566	-10.911	-0.225	0.147
-354.552	53.797	0.144	-0.137
-353.537	-49.767	0.091	0.043
-352.523	-92.943	-0.145	0.040
-351.508	277.739	0.131	-0.230
-350.493	255.271	-0.076	-0.130
-349.479	-154.788	0.027	0.002
-348.464	140.735	0.041	-0.054
-347.450	434.715	0.015	-0.033
-346.435	-111.275	0.415	0.084
-345.420	30.073	0.281	0.238
-344.406	-63.914	-0.195	0.079
-343.391	-117.970	0.261	-0.046
-342.377	232.107	-0.165	0.269
-341.362	-42.545	0.199	-0.101
-340.348	26.762	-0.273	0.227
-339.333	239.181	0.006	-0.011
-338.318	-0.900	-0.235	-0.165
-337.304	-6.489	0.154	0.104
-336.289	-93.094	0.196	0.054
-335.275	800.000	0.030	-0.100
-334.260	551.524	0.105	0.251
-333.245	526.057	0.082	0.190
-332.231	146.864	-0.211	0.281
-331.216	347.431	0.044	-0.085
-330.202	-120.629	-0.300	0.050
-329.187	-200.000	0.051	-0.287
-328.172	-200.000	0.066	-0.300
-327.158	-200.000	0.043	0.329
-326.143	1.515	-0.114	0.081
-325.129	-126.948	0.161	0.023
-324.114	-70.649	0.045	-0.017
-323.099	-2.117	0.199	-0.139
-322.085	-37.270	-0.101	-0.053
-321.070	-134.599	0.250	-0.030
-320.056	83.206	0.180	-0.194
-319.041	-176.218	0.080	0.002
-318.026	-138.030	-0.268	-0.030
-317.012	365.062	0.142	0.283
-315.997	-19.744	-0.061	0.038
-314.983	-76.410	0.189	-0.066
-313.968	133.491	-0.216	-0.276
-312.953	5.310	0.114	-0.083
-311.939	800.000	-0.027	0.074
-310.924	800.000	-0.103	0.307
-309.910	276.429	0.095	0.167
-308.895	-200.000	-0.028	-0.433
-307.880	800.000	0.016	-0.060
-306.866	-58.618	0.124	-0.053
-305.851	72.383	-0.207	0.214
-304.837	-89.492	0.115	-0.033
-303.822	446.646	0.042	0.091
-302.807	-119.721	0.180	-0.031
-301.793	5.633	-0.086	0.063
-300.778	432.812	-0.007	0.015
-299.764	-105.592	0.257	0.058
-298.749	213.618	0.206	-0.323
-297.735	-200.000	-0.022	-0.098
-296.720	-200.000	0.018	-0.104
-295.705	-65.073	-0.246	0.098
-294.691	-143.764	-0.195	-0.018
-293.676	157.940	0.188	-0.258
-292.662	-26.874	-0.200	-0.116
-291.647	535.951	-0.081	0.191
-290.632	-76.450	0.250	-0.087
-289.618	-200.000	0.002	-0.284
-288.603	800.000	0.065	0.210
-287.589	-148.836	0.105	-0.008
-286.574	-30.735	-0.159	-0.089
-285.559	-90.271	-0.398	-0.114
-284.545	33.055	-0.163	0.140
-283.530	-200.000	-0.012	0.088
-282.516	200.412	-0.166	0.252
-281.501	-0.173	0.296	0.209
-280.486	-200.000	0.016	-0.108
-279.472	-60.394	-0.023	-0.010
-278.457	-99.781	-0.365	-0.090
-277.443	-87.580	0.181	0.054
-276.428	3.824	0.207	-0.150
-275.413	-200.000	-0.021	-0.253
-274.399	-200.000	0.023	-0.287
-273.384	-62.672	-0.167	-0.069
-272.370	94.363	0.088	0.099
-271.355	-200.000	0.009	-0.259
-270.340	216.071	0.036	0.057
-269.326	-109.032	-0.308	-0.065
-268.311	29.846	0.109	-0.092
-267.297	-133.760	0.182	0.022
-266.282	-1.956	-0.214	-0.149
-265.267	80.501	0.111	-0.118
-264.253	-200.000	-0.039	0.434
-263.238	-113.081	-0.122	-0.024
-262.224	-48.543	0.303	0.144
-261.209	-130.369	0.267	0.036
-260.195	-67.433	-0.195	0.076
-259.180	800.000	0.074	0.241
-258.165	-200.000	0.008	-0.215
-257.151	-106.409	-0.080	-0.018
-256.136	-59.638	-0.084	0.035
-255.122	283.934	0.075	0.133
-254.107	-200.000	-0.016	-0.131
-253.092	456.807	-0.070	-0.153
-252.078	-155.295	-0.046	-0.003
-251.063	112.352	-0.179	0.214
-250.049	-200.000	-0.072	-0.349
-249.034	-200.000	0.027	0.172
-248.019	-200.000	0.061	0.361
-247.005	14.757	0.188	-0.145
-245.990	-43.101	0.317	-0.159
-244.976	184.948	0.189	-0.276
-243.961	-21.922	-0.183	-0.110
-242.946	327.220	-0.105	0.199
-241.932	300.091	0.104	0.189
-240.917	-200.000	0.037	0.367
-239.903	79.221	-0.236	0.250
-238.888	188.895	-0.046	-0.068
-237.873	545.005	-0.014	-0.032
-236.859	-155.310	0.020	-0.001
-235.844	-96.299	0.093	0.024
-234.830	800.000	-0.035	0.102
-233.815	-88.614	0.116	0.034
-232.800	800.000	0.146	-0.439
-231.786	-200.000	-0.075	0.375
-230.771	-200.000	-0.000	-0.191
-229.757	130.850	0.156	-0.197
-228.742	-200.000	-0.041	0.213
-227.727	-200.000	0.045	0.220
-226.713	-126.200	-0.349	0.052
-225.698	-135.355	-0.126	-0.015
-224.684	-98.887	0.046	-0.012
-223.669	800.000	0.046	0.174
-222.655	-200.000	-0.010	0.566
-221.640	63.681	-0.250	0.248
-220.625	54.982	-0.213	0.203
-219.611	-68.916	-0.065	0.025
-218.596	-200.000	0.011	0.313
-217.582	467.368	0.154	0.340
-216.567	31.725	0.099	-0.084
-215.552	-200.000	-0.036	-0.307
-214.538	-18.018	-0.266	-0.165
-213.523	251.258	-0.125	0.210
-212.509	-1.654	-0.287	0.200
-211.494	521.053	-0.116	-0.269
-210.479	-200.000	-0.052	0.271
-209.465	-200.000	-0.034	-0.299
-208.450	-200.000	0.010	0.099
-207.436	170.569	-0.038	-0.054
-206.421	-200.000	0.015	0.087
-205.406	-84.939	0.118	-0.037
-204.392	276.347	-0.115	0.202
-203.377	674.216	0.030	-0.076
-202.363	-162.076	0.402	0.020
-201.348	44.454	0.065	-0.059
-200.333	39.703	0.212	0.187
-199.319	-96.183	-0.362	-0.095
-198.304	80.408	-0.091	-0.096
-197.290	-200.000	0.005	-0.079
-196.275	-104.253	0.086	-0.020
-195.260	159.499	0.162	-0.222
-194.246	-200.000	-0.020	-0.251
-193.231	332.434	0.120	0.229
-192.217	-54.203	0.184	-0.082
-191.202	-133.308	0.233	-0.029
-190.187	-109.672	0.361	0.075
-189.173	-100.261	0.180	-0.044
-188.158	205.335	-0.193	0.295
-187.144	-200.000	0.059	-0.283
-186.129	294.873	-0.120	0.216
-185.114	168.187	-0.035	0.049
-184.100	-32.047	0.254	-0.140
-183.085	37.023	-0.028	0.024
-182.071	800.000	-0.005	0.022
-181.056	377.551	-0.022	-0.044
-180.042	-200.000	-0.026	0.197
-179.027	675.249	0.076	0.194
-178.012	-88.176	0.260	0.077
-176.998	178.237	0.277	0.399
-175.983	800.000	-0.034	0.096
-174.969	-200.000	-0.012	-0.156
-173.954	148.723	0.078	-0.104
-172.939	-59.804	-0.319	0.135
-171.925	-87.167	0.114	0.034
-170.910	-150.031	0.203	-0.016
-169.896	116.451	-0.147	0.177
-168.881	136.851	-0.165	-0.212
-167.866	-1.202	0.124	-0.086
-166.852	137.623	0.116	0.149
-165.837	86.950	-0.087	-0.095
-164.823	800.000	-0.075	0.299
-163.808	270.076	0.078	0.135
-162.793	500.050	0.086	-0.195
-161.779	-123.726	-0.163	-0.025
-160.764	738.846	0.077	-0.204
-159.750	-160.629	-0.335	-0.018
-158.735	-200.000	0.027	0.279
-157.720	244.961	-0.038	0.063
-156.706	284.407	-0.086	0.152
-155.691	-150.618	0.295	0.022
-154.677	270.090	0.184	0.318
-153.662	-0.557	0.112	-0.078
-152.647	-200.000	-0.095	-0.477
-151.633	793.841	-0.103	0.280
-150.618	-70.274	0.211	-0.079
-149.604	-2.982	0.295	0.202
-148.589	413.179	0.066	0.137
-147.574	800.000	-0.080	-0.245
-146.560	-200.000	-0.007	0.120
-145.545	-36.793	-0.428	-0.226
-144.531	-104.718	0.125	-0.028
-143.516	-200.000	0.026	-0.137
-142.502	-200.000	-0.018	-0.437
-141.487	-82.899	-0.386	-0.123
-140.472	9.515	0.163	0.121
-139.458	326.007	-0.246	-0.463
-138.443	101.138	0.220	-0.252
-137.429	-200.000	-0.052	-0.328
-136.414	-120.877	-0.076	-0.013
-135.399	146.817	0.078	0.103
-134.385	-111.421	0.218	0.044
-133.370	301.845	0.117	0.212
-132.356	100.004	-0.145	-0.165
-131.341	800.000	-0.066	0.233
-130.326	-123.740	-0.181	-0.028
-129.312	-123.316	-0.112	-0.018
-128.297	-56.902	0.130	0.056
-127.283	430.312	-0.220	0.468
-126.268	639.257	-0.016	0.041
-125.253	12.240	-0.210	0.159
-124.239	800.000	-0.049	-0.148
-123.224	800.000	-0.084	-0.279
-122.210	616.401	-0.026	-0.064
