DTS Sentinel unit serial number:	SN413079Multiplexer serial number:	ORYXHardware model number:	OX4-SRSoftware version number:	ORYX F/W v4.00 Oryx Data Collector v3.7.2.0data status	okinstallation	princeton_trtdifferential loss correction	single-endedforward channel	channel 2reverse channel	N/Adate	2019/09/13time	19:59:35forward acquisition time	60.00reverse acquisition time	0.00gamma	496.2192k internal	0.2332k external	0.2332temperature offset calibration	1.0143default loss term (dB/km)	0.3790temperature slope calibration	1.0000multiplexer offset coefficient	1.0000multiplexer slope coefficient	1.0000fibre end	0.00T internal ref (°C)	29.80T ext. ref 1 (°C)	3.31T ext. ref 2 (°C)	24.24length (m)	temperature (°C)	Stokes	anti-Stokes-747.200	-143.381	0.270	0.026
-746.185	41.633	-0.136	0.124
-745.171	-58.845	-0.271	-0.118
-744.156	-49.989	-0.216	0.103
-743.142	-200.000	-0.008	-0.116
-742.127	0.355	-0.096	0.069
-741.112	-38.558	0.094	-0.050
-740.098	234.135	0.213	0.354
-739.083	-104.336	0.125	0.029
-738.069	145.673	-0.132	0.178
-737.054	7.466	-0.274	-0.206
-736.039	296.737	-0.022	0.041
-735.025	-129.320	0.240	-0.034
-734.010	-75.746	0.374	0.133
-732.996	26.166	-0.370	-0.310
-731.981	800.000	0.018	-0.070
-730.966	190.470	0.045	0.069
-729.952	49.714	-0.277	0.262
-728.937	187.041	-0.097	0.145
-727.923	-89.496	-0.145	-0.043
-726.908	136.421	-0.238	-0.312
-725.894	800.000	-0.072	0.285
-724.879	-5.979	-0.285	-0.196
-723.864	-200.000	-0.019	-0.093
-722.850	-98.824	0.139	0.036
-721.835	-99.167	0.293	0.075
-720.821	349.241	-0.066	-0.131
-719.806	393.637	-0.126	-0.263
-718.791	-125.781	-0.292	-0.044
-717.777	214.137	-0.109	-0.173
-716.762	-8.821	0.059	-0.040
-715.748	-31.805	0.332	-0.187
-714.733	-114.301	-0.352	0.068
-713.718	-153.527	-0.024	0.002
-712.704	672.864	0.087	-0.226
-711.689	-75.618	0.179	-0.064
-710.675	-200.000	0.015	-0.163
-709.660	84.499	0.089	0.098
-708.645	-82.626	-0.115	-0.037
-707.631	800.000	-0.029	0.095
-706.616	48.048	0.103	-0.097
-705.602	-200.000	-0.007	-0.196
-704.587	-200.000	-0.228	0.001
-703.572	-110.234	0.206	-0.043
-702.558	19.849	0.153	0.124
-701.543	125.637	0.294	-0.372
-700.529	338.022	0.105	-0.205
-699.514	-117.291	0.204	0.037
-698.499	253.836	0.096	-0.164
-697.485	800.000	-0.019	-0.072
-696.470	29.691	0.122	0.104
-695.456	-47.385	0.213	-0.104
-694.441	-51.271	-0.333	0.157
-693.426	-200.000	0.015	-0.236
-692.412	80.947	0.087	-0.094
-691.397	-178.777	-0.238	-0.005
-690.383	-11.463	-0.022	-0.015
-689.368	19.335	-0.130	-0.105
-688.354	-74.447	-0.176	0.064
-687.339	27.965	0.107	-0.091
-686.324	73.232	-0.252	-0.265
-685.310	-200.000	-0.045	-0.252
-684.295	-121.255	0.424	0.071
-683.281	25.720	-0.315	-0.263
-682.266	-149.960	-0.220	-0.017
-681.251	-104.670	-0.270	0.062
-680.237	104.383	-0.091	-0.108
-679.222	-93.795	0.086	0.024
-678.208	29.737	0.206	-0.176
-677.193	-200.000	-0.005	0.123
-676.178	27.237	0.152	0.128
-675.164	800.000	-0.073	-0.284
-674.149	800.000	0.025	0.070
-673.135	-120.419	-0.075	0.013
-672.120	-28.331	0.127	-0.074
-671.105	-19.685	-0.105	-0.065
-670.091	572.056	0.080	0.196
-669.076	-85.806	-0.095	-0.030
-668.062	95.525	-0.138	0.157
-667.047	43.927	0.261	-0.240
-666.032	-46.816	0.060	0.030
-665.018	-200.000	0.001	0.051
-664.003	-42.093	-0.401	-0.206
-662.989	-176.654	0.204	0.005
-661.974	-200.000	0.006	-0.291
-660.959	800.000	-0.056	-0.237
-659.945	62.424	0.290	-0.291
-658.930	-63.356	-0.313	-0.129
-657.916	-200.000	-0.004	0.071
-656.901	95.878	0.193	-0.221
-655.886	-115.707	-0.270	-0.051
-654.872	-111.223	0.103	0.021
-653.857	-41.594	-0.337	0.174
-652.843	61.342	0.137	0.137
-651.828	8.657	-0.298	0.225
-650.814	-96.154	0.248	-0.066
-649.799	7.091	-0.154	-0.115
-648.784	-117.181	-0.121	0.022
-647.770	104.349	-0.238	-0.280
-646.755	-32.615	-0.462	-0.258
-645.741	397.334	0.183	0.384
-644.726	-200.000	-0.062	0.292
-643.711	412.352	0.051	-0.109
-642.697	-200.000	0.014	-0.152
-641.682	-200.000	0.040	0.280
-640.668	-37.342	0.147	-0.079
-639.653	800.000	-0.059	-0.193
-638.638	-50.358	0.261	-0.124
-637.624	-72.947	-0.319	0.117
-636.609	16.588	-0.164	-0.130
-635.595	63.903	0.186	-0.187
-634.580	15.818	0.204	-0.161
-633.565	127.995	-0.072	-0.092
-632.551	800.000	-0.021	0.072
-631.536	1.321	-0.317	-0.228
-630.522	-50.673	-0.097	0.046
-629.507	-176.957	0.158	0.004
-628.492	-126.883	0.299	-0.044
-627.478	800.000	-0.069	-0.217
-626.463	-137.556	-0.150	-0.017
-625.449	-94.695	0.118	-0.032
-624.434	-67.563	-0.344	-0.135
-623.419	-144.361	-0.295	0.027
-622.405	19.795	0.195	-0.157
-621.390	-19.340	-0.523	-0.325
-620.376	-96.463	0.088	0.023
-619.361	-61.640	0.270	-0.113
-618.346	-23.162	0.206	-0.124
-617.332	-126.542	-0.059	-0.009
-616.317	105.279	-0.144	0.171
-615.303	273.009	-0.012	0.021
-614.288	139.332	-0.099	0.130
-613.273	-200.000	-0.067	-0.299
-612.259	244.620	-0.021	-0.036
-611.244	-125.906	-0.173	0.026
-610.230	136.004	-0.177	-0.230
-609.215	-47.766	0.082	0.040
-608.201	-42.278	-0.269	0.137
-607.186	-102.694	-0.364	-0.087
-606.171	-200.000	-0.011	0.494
-605.157	-200.000	-0.010	-0.204
-604.142	112.388	-0.066	-0.080
-603.128	502.625	0.182	-0.421
-602.113	713.011	0.097	0.258
-601.098	103.949	0.072	0.085
-600.084	800.000	0.076	0.327
-599.069	28.160	0.118	-0.099
-598.055	200.701	-0.024	-0.038
-597.040	-200.000	-0.263	0.000
-596.025	-200.000	-0.017	0.204
-595.011	-7.417	-0.158	0.107
-593.996	-45.232	-0.360	-0.179
-592.982	-45.867	-0.099	-0.049
-591.967	399.443	-0.057	0.119
-590.952	298.363	-0.019	0.034
-589.938	182.248	-0.078	0.114
-588.923	-200.000	0.023	0.205
-587.909	83.338	-0.121	-0.131
-586.894	-15.925	-0.248	0.158
-585.879	-200.000	0.034	0.184
-584.865	10.663	0.263	-0.201
-583.850	114.739	-0.062	0.075
-582.836	-26.455	0.203	-0.119
-581.821	121.445	0.124	0.155
-580.806	244.253	-0.095	0.160
-579.792	213.770	0.132	0.209
-578.777	72.036	-0.031	0.032
-577.763	259.253	-0.038	0.066
-576.748	-200.000	0.084	0.460
-575.733	149.762	0.178	0.241
-574.719	800.000	0.102	0.331
-573.704	-200.000	-0.045	0.426
-572.690	-114.574	-0.363	-0.069
-571.675	529.762	0.128	-0.303
-570.661	-200.000	0.032	-0.151
-569.646	236.999	0.182	0.301
-568.631	711.181	-0.126	0.332
-567.617	-88.154	0.292	-0.088
-566.602	300.705	0.091	0.168
-565.588	800.000	-0.034	0.128
-564.573	247.915	-0.204	-0.345
-563.558	-106.797	0.243	0.054
-562.544	-41.662	0.260	-0.133
-561.529	-69.341	-0.136	-0.052
-560.515	140.773	0.127	0.167
-559.500	220.237	-0.193	0.310
-558.485	-200.000	-0.003	-0.164
-557.471	-22.476	0.310	0.187
-556.456	256.896	-0.080	0.136
-555.442	-132.749	-0.357	0.046
-554.427	39.579	-0.141	-0.126
-553.412	254.175	-0.108	0.185
-552.398	-98.876	0.059	-0.015
-551.383	289.188	0.036	-0.064
-550.369	-200.000	-0.042	0.224
-549.354	5.905	-0.152	-0.112
-548.339	-76.710	-0.277	0.097
-547.325	139.879	0.168	-0.220
-546.310	-140.976	-0.267	0.027
-545.296	10.676	0.194	0.147
-544.281	-175.014	0.166	-0.005
-543.266	22.699	-0.207	-0.169
-542.252	-200.000	0.050	-0.282
-541.237	7.712	0.092	-0.069
-540.223	-200.000	-0.034	0.208
-539.208	-200.000	0.002	-0.243
-538.193	95.015	0.258	-0.293
-537.179	170.332	0.137	-0.195
-536.164	-63.042	-0.116	0.048
-535.150	58.592	0.123	-0.120
-534.135	-200.000	0.146	0.000
-533.121	2.881	0.223	-0.162
-532.106	-81.056	0.190	-0.063
-531.091	-112.693	0.269	0.053
-530.077	-129.589	0.255	0.035
-529.062	-98.591	0.297	-0.076
-528.048	-200.000	0.001	0.292
-527.033	-200.000	0.044	0.582
-526.018	-200.000	-0.021	0.223
-525.004	167.616	-0.211	0.300
-523.989	45.295	0.231	0.212
-522.975	44.122	-0.150	0.137
-521.960	5.675	-0.202	0.149
-520.945	-85.034	-0.211	-0.066
-519.931	336.066	0.006	-0.012
-518.916	56.903	0.411	-0.399
-517.902	577.345	-0.082	0.201
-516.887	141.692	-0.063	0.083
-515.872	-145.657	-0.353	0.031
-514.858	213.055	0.174	0.274
-513.843	613.838	0.050	0.125
-512.829	4.719	0.166	-0.121
-511.814	-132.642	0.208	-0.027
-510.799	-138.308	-0.233	0.026
-509.785	-31.784	-0.198	-0.111
-508.770	-200.000	0.051	-0.249
-507.756	800.000	0.107	0.444
-506.741	24.863	0.322	0.266
-505.726	-200.000	-0.009	-0.069
-504.712	-157.744	-0.186	0.011
-503.697	60.647	-0.067	0.066
-502.683	-87.494	-0.210	-0.063
-501.668	800.000	-0.035	-0.110
-500.653	-120.346	0.170	-0.029
-499.639	800.000	-0.030	-0.100
-498.624	90.182	-0.192	-0.214
-497.610	-114.984	-0.099	0.019
-496.595	800.000	-0.072	0.248
-495.581	-200.000	-0.035	-0.187
-494.566	23.235	0.289	0.237
-493.551	97.617	-0.067	-0.077
-492.537	-166.718	0.276	-0.011
-491.522	-26.948	-0.107	0.062
-490.508	208.879	-0.082	0.128
-489.493	82.046	-0.083	0.089
-488.478	-100.460	0.265	-0.065
-487.464	239.437	0.077	0.128
-486.449	-92.951	-0.254	-0.070
-485.435	60.086	0.098	-0.096
-484.420	535.139	-0.100	-0.236
-483.405	-50.984	-0.465	0.217
-482.391	-177.799	-0.175	0.004
-481.376	-200.000	0.021	-0.191
-480.362	-157.725	-0.316	0.019
-479.347	-17.596	0.166	0.104
-478.332	199.657	0.031	0.048
-477.318	440.220	-0.050	-0.108
-476.303	-138.030	0.170	0.019
-475.289	-171.870	0.114	0.004
-474.274	-34.305	-0.044	-0.024
-473.259	800.000	0.023	-0.070
-472.245	-31.512	-0.069	0.038
-471.230	-200.000	-0.040	0.223
-470.216	300.543	-0.089	0.164
-469.201	-200.000	-0.081	0.422
-468.186	-200.000	0.015	-0.233
-467.172	-3.666	0.195	0.135
-466.157	1.803	-0.236	0.170
-465.143	42.787	-0.045	-0.041
-464.128	96.032	0.123	0.140
-463.113	4.646	0.055	-0.040
-462.099	608.193	-0.023	0.057
-461.084	-167.797	-0.332	0.013
-460.070	-46.663	-0.240	-0.117
-459.055	-12.531	0.266	0.173
-458.040	-54.556	-0.236	0.106
-457.026	194.905	0.080	0.121
-456.011	615.729	0.082	0.205
-454.997	-117.136	0.094	-0.017
-453.982	800.000	0.055	-0.216
-452.968	78.744	0.160	-0.170
-451.953	-63.276	-0.352	0.144
-450.938	416.320	0.149	0.316
-449.924	-44.230	-0.382	-0.191
-448.909	-167.170	0.283	0.011
-447.895	-200.000	0.041	-0.229
-446.880	-23.128	0.181	-0.108
-445.865	-108.275	-0.040	0.008
-444.851	-58.975	0.200	-0.086
-443.836	127.171	0.066	-0.083
-442.822	-66.007	0.207	0.082
-441.807	-119.289	-0.158	-0.027
-440.792	-24.840	0.254	0.150
-439.778	-36.088	-0.367	0.197
-438.763	210.363	-0.191	-0.299
-437.749	181.800	0.104	0.152
-436.734	-75.128	0.360	0.128
-435.719	-166.230	0.179	-0.008
-434.705	31.401	-0.232	-0.198
-433.690	-200.000	-0.053	0.385
-432.676	-21.693	-0.113	0.068
-431.661	19.040	-0.285	-0.227
-430.646	-49.092	-0.123	0.058
-429.632	51.683	-0.099	-0.093
-428.617	-200.000	-0.012	-0.170
-427.603	-176.381	0.375	0.010
-426.588	-149.432	-0.066	0.005
-425.573	-62.800	0.361	0.148
-424.559	520.659	0.051	-0.119
-423.544	158.177	-0.317	-0.437
-422.530	-200.000	0.028	0.270
-421.515	47.310	-0.110	-0.102
-420.500	-37.615	0.055	-0.029
-419.486	-159.287	-0.133	-0.007
-418.471	346.871	0.065	-0.127
-417.457	-29.833	-0.186	0.105
-416.442	-200.000	-0.034	-0.380
-415.428	-139.158	-0.205	0.022
-414.413	-96.401	0.138	-0.036
-413.398	-200.000	-0.017	0.077
-412.384	800.000	-0.119	-0.453
-411.369	713.648	0.099	-0.261
-410.355	77.661	-0.343	-0.362
-409.340	-39.340	0.378	-0.197
-408.325	-79.400	0.112	-0.038
-407.311	-1.444	0.128	-0.089
-406.296	-64.894	-0.107	-0.043
-405.282	167.982	0.109	-0.155
-404.267	190.681	-0.246	0.367
-403.252	-112.238	-0.216	0.043
-402.238	65.856	0.016	-0.016
-401.223	-166.925	0.244	-0.010
-400.209	4.376	0.236	0.171
-399.194	-200.000	-0.021	0.267
-398.179	-38.146	0.195	0.103
-397.165	199.133	0.071	-0.108
-396.150	-200.000	-0.037	-0.396
-395.136	-117.025	-0.194	-0.035
-394.121	-200.000	-0.004	-0.220
-393.106	-51.469	-0.122	0.057
-392.092	-113.845	-0.253	-0.049
-391.077	-10.830	-0.101	-0.066
-390.063	-150.973	-0.188	0.014
-389.048	276.030	0.110	-0.193
-388.033	-48.675	0.162	-0.077
-387.019	6.343	0.067	-0.050
-386.004	-200.000	0.009	0.368
-384.990	-157.026	-0.072	0.004
-383.975	800.000	-0.107	0.415
-382.960	599.824	0.073	0.180
-381.946	-106.631	-0.449	-0.099
-380.931	-115.157	0.283	-0.053
-379.917	195.110	0.199	-0.300
-378.902	-83.142	0.198	-0.063
-377.888	20.667	-0.270	-0.217
-376.873	88.719	0.079	0.087
-375.858	58.456	-0.244	-0.237
-374.844	5.549	-0.031	-0.023
-373.829	262.131	0.110	-0.190
-372.815	-200.000	0.146	-0.000
-371.800	-13.640	-0.225	0.144
-370.785	-183.629	0.150	0.003
-369.771	800.000	-0.095	0.279
-368.756	-115.295	-0.151	-0.028
-367.742	15.662	0.290	-0.226
-366.727	-200.000	-0.036	-0.173
-365.712	734.312	0.030	0.079
-364.698	-200.000	0.001	0.153
-363.683	290.468	-0.077	-0.139
-362.669	-37.089	-0.119	-0.063
-361.654	108.925	-0.073	-0.086
-360.639	120.657	0.165	-0.204
-359.625	-200.000	0.003	-0.061
-358.610	-44.113	0.180	0.090
-357.596	19.638	0.230	0.184
-356.581	27.472	0.131	-0.109
-355.566	108.796	-0.181	0.214
-354.552	678.513	0.041	0.105
-353.537	53.420	-0.073	-0.069
-352.523	-16.642	0.257	0.161
-351.508	800.000	0.081	0.294
-350.493	125.337	0.142	-0.177
-349.479	-45.088	0.128	0.063
-348.464	91.825	-0.128	0.143
-347.450	-200.000	-0.092	0.434
-346.435	-145.893	0.293	0.026
-345.420	-53.927	0.212	0.096
-344.406	73.068	0.201	0.208
-343.391	325.354	0.077	0.145
-342.377	-87.934	-0.227	-0.068
-341.362	196.350	0.169	-0.255
-340.348	29.779	0.203	-0.172
-339.333	-72.689	0.261	-0.095
-338.318	712.246	0.074	-0.194
-337.304	800.000	-0.044	-0.129
-336.289	-52.018	0.212	0.097
-335.275	68.430	0.117	-0.119
-334.260	-38.564	-0.206	0.108
-333.245	-31.975	-0.368	-0.204
-332.231	-130.751	0.376	0.050
-331.216	-171.354	0.053	0.002
-330.202	311.619	0.177	-0.329
-329.187	250.234	-0.268	-0.450
-328.172	-49.575	-0.312	-0.147
-327.158	-141.555	0.300	0.030
-326.143	-200.000	0.036	0.336
-325.129	-200.000	-0.001	0.182
-324.114	727.929	-0.108	-0.286
-323.099	-98.453	0.326	0.083
-322.085	-200.000	-0.001	0.087
-321.070	-42.412	-0.035	0.018
-320.056	64.010	0.085	-0.085
-319.041	-93.490	0.290	0.079
-318.026	-83.281	-0.133	-0.042
-317.012	717.697	-0.093	0.246
-315.997	-200.000	0.040	0.193
-314.983	8.721	-0.185	0.138
-313.968	367.321	-0.027	0.054
-312.953	139.090	-0.126	0.164
-311.939	-48.403	0.158	0.075
-310.924	-68.242	0.345	-0.133
-309.910	-31.718	-0.227	-0.126
-308.895	-96.879	-0.260	0.068
-307.880	-200.000	-0.000	-0.053
-306.866	-81.530	0.247	0.080
-305.851	-200.000	-0.038	-0.241
-304.837	-200.000	0.001	-0.204
-303.822	-120.854	-0.427	0.071
-302.807	-141.059	0.474	0.048
-301.793	-40.512	0.083	0.042
-300.778	-68.344	0.228	0.088
-299.764	88.597	-0.053	-0.058
-298.749	-67.851	0.287	0.111
-297.735	-113.552	-0.242	0.047
-296.720	-77.365	0.229	-0.079
-295.705	-80.275	0.346	-0.114
-294.691	-118.488	0.631	0.110
-293.676	334.666	-0.156	-0.298
-292.662	27.122	0.247	0.205
-291.647	112.483	0.115	-0.138
-290.632	-41.745	-0.283	-0.143
-289.618	-157.069	-0.198	0.012
-288.603	51.690	-0.347	0.326
-287.589	-128.343	-0.398	0.056
-286.574	272.012	-0.148	0.257
-285.559	-200.000	0.000	-0.178
-284.545	782.016	0.102	-0.275
-283.530	-200.000	-0.038	-0.192
-282.516	80.793	-0.144	-0.154
-281.501	-200.000	0.051	0.239
-280.486	-200.000	-0.010	0.211
-279.472	-200.000	0.013	-0.420
-278.457	-153.072	-0.196	0.014
-277.443	186.892	-0.233	0.343
-276.428	-122.951	-0.272	0.043
-275.413	158.711	0.084	0.115
-274.399	-55.072	0.235	-0.105
-273.384	-61.069	0.156	0.065
-272.370	-57.531	-0.230	0.100
-271.355	-126.383	0.196	0.029
-270.340	-64.687	0.060	-0.024
-269.326	-200.000	-0.018	0.206
-268.311	800.000	-0.042	0.131
-267.297	-122.796	0.135	-0.021
-266.282	-200.000	0.068	-0.357
-265.267	-152.988	0.236	-0.016
-264.253	114.735	0.274	0.330
-263.238	-200.000	-0.004	-0.065
-262.224	461.207	0.112	-0.246
-261.209	-48.081	-0.344	-0.164
-260.195	-200.000	-0.053	0.354
-259.180	-40.692	-0.207	-0.106
-258.165	42.045	0.276	-0.247
-257.151	-200.000	-0.001	-0.183
-256.136	-200.000	-0.029	-0.351
-255.122	-200.000	-0.027	-0.391
-254.107	232.061	0.155	-0.252
-253.092	48.346	0.093	-0.086
-252.078	-200.000	0.010	0.192
-251.063	19.915	0.147	-0.117
-250.049	-137.718	0.142	-0.016
-249.034	10.298	0.010	-0.008
-248.019	-102.160	-0.227	-0.054
-247.005	-59.491	0.134	-0.057
-245.990	800.000	-0.061	0.247
-244.976	-60.647	0.072	-0.030
-243.961	142.118	-0.294	0.384
-242.946	543.184	0.101	0.238
-241.932	6.665	-0.169	-0.124
-240.917	-200.000	-0.053	-0.372
-239.903	-179.861	0.273	0.006
-238.888	-54.260	-0.199	-0.089
-237.873	120.565	-0.019	-0.023
-236.859	-100.090	-0.312	0.077
-235.844	21.980	-0.310	-0.250
-234.830	273.438	0.202	-0.353
-233.815	101.640	-0.315	-0.362
-232.800	416.215	-0.089	-0.187
-231.786	29.062	0.204	-0.171
-230.771	99.939	0.241	-0.275
-229.757	-73.019	-0.348	0.126
-228.742	-200.000	-0.076	-0.336
-227.727	22.388	-0.174	-0.140
-226.713	188.573	-0.113	-0.166
-225.698	-64.312	0.285	-0.114
-224.684	-69.888	-0.395	0.148
-223.669	-99.803	-0.137	-0.034
-222.655	-29.395	0.264	-0.149
-221.640	94.535	-0.087	-0.098
-220.625	332.817	-0.124	-0.236
-219.611	267.453	0.123	0.212
-218.596	-93.334	0.229	0.063
-217.582	108.807	-0.224	-0.264
-216.567	61.710	0.160	0.157
-215.552	-13.444	0.224	-0.143
-214.538	-89.034	0.102	-0.030
-213.523	657.321	0.113	0.285
-212.509	618.930	-0.079	0.195
-211.494	-18.339	0.170	-0.105
-210.479	31.633	0.111	0.094
-209.465	-111.655	-0.388	0.078
-208.450	364.705	0.146	0.290
-207.436	-16.827	0.150	0.094
-206.421	-26.775	-0.122	-0.070
-205.406	493.364	-0.150	-0.338
-204.392	-48.893	-0.162	0.077
-203.377	49.567	-0.097	-0.090
-202.363	-117.255	0.166	-0.030
-201.348	231.329	0.113	0.183
-200.333	-58.198	0.149	0.064
-199.319	-116.437	-0.159	0.029
-198.304	-132.673	-0.292	-0.037
-197.290	203.146	0.102	0.156
-196.275	-111.071	-0.404	0.082
-195.260	96.231	-0.229	0.258
-194.246	-196.824	0.087	-0.001
-193.231	-75.249	0.156	0.055
-192.217	-200.000	-0.003	0.170
-191.202	299.389	0.065	-0.118
-190.187	32.985	-0.189	-0.161
-189.173	-21.649	0.523	-0.313
-188.158	10.350	-0.153	0.114
-187.144	558.899	0.087	0.206
-186.129	8.266	-0.148	-0.110
-185.114	-40.634	-0.255	-0.130
-184.100	-200.000	0.035	0.221
-183.085	-37.166	0.322	0.170
-182.071	7.272	-0.301	0.221
-181.056	-200.000	0.085	0.461
-180.042	800.000	0.072	0.201
-179.027	334.729	0.038	0.072
-178.012	57.533	0.240	0.231
-176.998	-200.000	-0.049	0.253
-175.983	-170.692	0.427	-0.015
-174.969	481.853	0.088	-0.196
-173.954	-200.000	0.001	0.167
-172.939	-70.127	-0.225	0.084
-171.925	0.875	0.086	0.061
-170.910	-7.561	-0.297	-0.197
-169.896	800.000	-0.020	-0.062
-168.881	118.679	-0.244	0.296
-167.866	800.000	0.019	0.064
-166.852	-95.348	0.472	-0.125
-165.837	-200.000	-0.027	-0.132
-164.823	46.865	-0.094	-0.086
-163.808	742.999	0.063	-0.167
-162.793	68.089	-0.054	0.054
-161.779	-200.000	-0.048	0.285
-160.764	800.000	0.075	-0.219
-159.750	-76.311	0.229	0.079
-158.735	-200.000	-0.003	0.062
-157.720	-96.892	0.388	-0.100
-156.706	41.010	0.118	-0.105
-155.691	-200.000	0.004	0.294
-154.677	-200.000	0.011	-0.321
-153.662	-128.727	-0.364	0.051
-152.647	-112.355	0.173	0.034
-151.633	548.980	-0.043	-0.100
-150.618	-127.361	-0.067	-0.010
-149.604	147.115	-0.045	-0.060
-148.589	-125.662	0.200	-0.030
-147.574	-92.771	0.099	-0.027
-146.560	800.000	-0.065	-0.176
-145.545	-106.822	-0.216	-0.047
-144.531	-4.050	0.230	0.156
-143.516	227.644	-0.314	-0.502
-142.502	-104.539	0.099	0.023
-141.487	-200.000	0.004	0.268
-140.472	800.000	-0.098	0.385
-139.458	-102.296	-0.232	0.055
-138.443	-57.832	-0.138	0.059
-137.429	392.120	-0.045	0.091
-136.414	13.780	-0.096	0.073
-135.399	43.859	-0.164	0.148
-134.385	800.000	0.058	0.167
-133.370	617.221	0.114	0.280
-132.356	-78.227	0.333	-0.113
-131.341	-200.000	-0.001	0.016
-130.326	26.571	0.068	-0.056
-129.312	-142.154	0.292	-0.028
-128.297	800.000	0.036	-0.099
-127.283	-200.000	0.024	-0.176
-126.268	-32.573	0.086	0.047
-125.253	31.988	-0.217	0.184
-124.239	13.555	-0.327	0.250
-123.224	-2.493	0.124	-0.086
-122.210	-48.101	-0.089	0.042
-121.195	-69.354	0.253	-0.095
