DTS Sentinel unit serial number:	SN413079Multiplexer serial number:	ORYXHardware model number:	OX4-SRSoftware version number:	ORYX F/W v4.00 Oryx Data Collector v3.7.2.0data status	okinstallation	princeton_trtdifferential loss correction	single-endedforward channel	channel 2reverse channel	N/Adate	2019/09/13time	00:03:35forward acquisition time	60.00reverse acquisition time	0.00gamma	496.2192k internal	0.2332k external	0.2332temperature offset calibration	1.0171default loss term (dB/km)	0.3790temperature slope calibration	1.0000multiplexer offset coefficient	1.0000multiplexer slope coefficient	1.0000fibre end	0.00T internal ref (°C)	28.62T ext. ref 1 (°C)	3.78T ext. ref 2 (°C)	23.36length (m)	temperature (°C)	Stokes	anti-Stokes-747.200	331.399	0.053	0.102
-746.185	213.852	-0.110	0.176
-745.171	-200.000	-0.010	0.049
-744.156	-0.470	0.084	-0.060
-743.142	-116.453	0.389	-0.072
-742.127	-108.697	-0.230	-0.050
-741.112	37.539	-0.183	-0.164
-740.098	-163.983	-0.421	0.020
-739.083	73.863	-0.022	0.024
-738.069	-18.581	-0.310	0.194
-737.054	-200.000	-0.012	0.275
-736.039	-60.123	-0.176	0.076
-735.025	800.000	0.076	0.214
-734.010	-21.820	-0.063	0.038
-732.996	85.742	-0.052	-0.058
-731.981	-87.167	-0.176	-0.054
-730.966	-196.661	0.219	-0.001
-729.952	290.506	-0.072	-0.132
-728.937	-30.277	0.134	-0.077
-727.923	-81.096	-0.283	-0.094
-726.908	4.950	-0.248	-0.183
-725.894	-31.305	-0.161	0.091
-724.879	800.000	0.020	-0.076
-723.864	-78.469	-0.237	-0.082
-722.850	-52.451	0.248	0.115
-721.835	-200.000	-0.013	0.210
-720.821	-105.018	-0.143	0.033
-719.806	249.073	-0.055	-0.094
-718.791	67.281	-0.108	0.110
-717.777	-17.576	0.200	0.126
-716.762	-200.000	0.051	0.546
-715.748	-61.204	-0.176	0.075
-714.733	-200.000	-0.034	-0.420
-713.718	445.956	0.125	-0.276
-712.704	41.460	-0.123	-0.112
-711.689	415.856	0.175	-0.375
-710.675	-74.200	0.202	0.073
-709.660	-103.879	0.069	0.016
-708.645	-23.775	-0.048	0.029
-707.631	152.459	0.168	-0.230
-706.616	-2.000	-0.084	0.059
-705.602	-130.714	-0.134	-0.018
-704.587	-176.526	-0.269	-0.007
-703.572	95.809	-0.182	-0.209
-702.558	43.111	-0.232	0.213
-701.543	69.416	0.182	0.188
-700.529	-163.784	-0.362	0.017
-699.514	66.462	-0.139	-0.142
-698.499	-200.000	0.039	-0.208
-697.485	-75.389	0.520	0.186
-696.470	800.000	-0.071	-0.241
-695.456	-45.104	-0.055	-0.028
-694.441	215.478	-0.167	-0.267
-693.426	125.229	-0.155	0.196
-692.412	-200.000	-0.014	-0.113
-691.397	-23.753	-0.076	0.046
-690.383	800.000	0.076	-0.304
-689.368	160.055	-0.063	-0.088
-688.354	201.362	-0.143	-0.221
-687.339	-200.000	0.034	-0.149
-686.324	-52.841	0.006	0.003
-685.310	-6.510	0.161	-0.110
-684.295	800.000	-0.069	0.293
-683.281	34.584	0.067	0.059
-682.266	94.704	0.229	-0.261
-681.251	-142.801	0.258	0.025
-680.237	336.921	0.104	-0.203
-679.222	-104.689	-0.121	-0.028
-678.208	51.349	-0.214	-0.204
-677.193	100.269	-0.281	-0.328
-676.178	47.643	0.358	-0.335
-675.164	-200.000	-0.005	0.214
-674.149	-125.544	-0.075	0.011
-673.135	237.983	-0.024	-0.040
-672.120	-126.296	-0.298	0.045
-671.105	-152.561	0.275	0.020
-670.091	-80.402	0.068	0.023
-669.076	67.966	0.140	-0.143
-668.062	-200.000	0.035	-0.464
-667.047	-117.256	0.449	-0.082
-666.032	-18.739	-0.190	0.119
-665.018	-200.000	-0.007	0.257
-664.003	13.762	0.039	0.030
-662.989	503.052	-0.048	0.112
-661.974	-34.157	0.237	0.131
-660.959	-137.013	0.185	0.021
-659.945	48.615	0.017	0.016
-658.930	142.041	-0.071	-0.094
-657.916	-71.606	0.221	-0.083
-656.901	109.540	0.230	-0.277
-655.886	691.563	-0.171	-0.449
-654.872	430.251	0.151	0.327
-653.857	-155.741	-0.132	-0.008
-652.843	-188.026	0.263	0.003
-651.828	16.177	0.290	0.229
-650.814	-6.012	-0.127	-0.087
-649.799	197.861	-0.076	-0.116
-648.784	70.135	-0.262	-0.271
-647.770	800.000	0.053	-0.207
-646.755	-20.963	-0.192	-0.118
-645.741	54.832	0.150	-0.145
-644.726	72.663	-0.037	0.039
-643.711	-173.678	-0.123	-0.004
-642.697	-119.459	-0.303	-0.053
-641.682	161.856	0.060	-0.085
-640.668	-200.000	-0.066	0.338
-639.653	800.000	0.063	0.190
-638.638	800.000	0.117	0.442
-637.624	81.032	0.049	0.053
-636.609	-134.660	-0.345	-0.042
-635.595	-200.000	0.034	-0.198
-634.580	-3.060	-0.099	-0.069
-633.565	-16.037	-0.274	-0.175
-632.551	-59.228	-0.188	0.081
-631.536	131.102	-0.115	-0.147
-630.522	764.378	-0.065	0.176
-629.507	-126.555	-0.360	0.054
-628.492	-200.000	-0.041	-0.386
-627.478	-200.000	0.022	-0.313
-626.463	-109.327	-0.281	-0.060
-625.449	635.186	-0.058	0.147
-624.434	-154.167	0.313	0.021
-623.419	-200.000	0.082	-0.522
-622.405	-34.008	0.068	-0.038
-621.390	-200.000	-0.014	-0.176
-620.376	-200.000	0.044	-0.305
-619.361	-200.000	0.026	-0.278
-618.346	-73.498	0.142	-0.052
-617.332	800.000	-0.113	-0.350
-616.317	196.699	-0.213	-0.325
-615.303	13.436	-0.119	-0.093
-614.288	-200.000	0.015	-0.099
-613.273	267.223	0.167	0.293
-612.259	800.000	0.032	-0.138
-611.244	-200.000	-0.047	-0.257
-610.230	800.000	0.057	0.188
-609.215	-200.000	-0.012	-0.345
-608.201	-130.928	-0.328	-0.044
-607.186	-200.000	-0.167	0.742
-606.171	-87.985	0.279	0.084
-605.157	-62.867	0.220	0.091
-604.142	-200.000	-0.013	-0.118
-603.128	91.610	-0.100	-0.112
-602.113	-200.000	-0.004	0.373
-601.098	-79.125	-0.185	-0.063
-600.084	-67.021	-0.474	-0.187
-599.069	47.617	0.189	-0.176
-598.055	-99.954	-0.120	0.030
-597.040	-50.443	0.299	-0.141
-596.025	-84.966	-0.279	0.088
-595.011	12.854	-0.157	0.122
-593.996	-200.000	-0.000	0.142
-592.982	126.302	-0.146	0.185
-591.967	122.435	-0.161	0.201
-590.952	-148.588	-0.183	-0.015
-589.938	-97.747	0.346	0.090
-588.923	-200.000	-0.029	-0.382
-587.909	83.191	0.182	0.198
-586.894	154.129	0.107	0.147
-585.879	800.000	-0.110	-0.368
-584.865	-200.000	-0.057	-0.269
-583.850	-200.000	-0.023	-0.111
-582.836	16.186	0.312	0.246
-581.821	-200.000	-0.055	0.404
-580.806	-92.790	-0.298	-0.083
-579.792	515.009	0.054	-0.127
-578.777	-40.488	-0.251	0.130
-577.763	-136.690	0.343	-0.040
-576.748	-149.320	0.208	-0.017
-575.733	-163.609	0.427	0.020
-574.719	504.981	0.014	-0.032
-573.704	103.108	-0.207	-0.242
-572.690	125.891	-0.083	-0.105
-571.675	192.497	0.052	-0.079
-570.661	126.800	-0.065	0.082
-569.646	-175.783	-0.133	0.004
-568.631	-200.000	0.062	0.396
-567.617	322.550	0.036	-0.069
-566.602	-147.559	-0.120	0.010
-565.588	63.680	0.115	0.115
-564.573	-25.445	-0.286	0.169
-563.558	-61.714	-0.151	0.063
-562.544	-107.377	0.221	0.049
-561.529	800.000	0.082	-0.319
-560.515	-200.000	-0.024	-0.330
-559.500	-55.184	0.355	0.160
-558.485	-72.345	-0.362	0.134
-557.471	-20.945	0.054	0.033
-556.456	8.737	0.057	0.043
-555.442	-200.000	0.019	-0.187
-554.427	141.722	0.163	-0.216
-553.412	-0.895	-0.095	-0.067
-552.398	3.357	0.193	0.140
-551.383	-67.644	-0.216	0.084
-550.369	-200.000	0.016	-0.171
-549.354	800.000	-0.052	0.158
-548.339	800.000	-0.063	-0.221
-547.325	-200.000	0.025	-0.147
-546.310	800.000	0.047	0.159
-545.296	188.355	0.043	0.064
-544.281	22.603	-0.161	-0.132
-543.266	220.103	-0.237	-0.379
-542.252	-174.726	0.242	0.007
-541.237	-200.000	-0.014	-0.157
-540.223	-200.000	0.009	-0.375
-539.208	202.353	0.155	-0.239
-538.193	-172.935	0.168	0.005
-537.179	-89.521	-0.159	-0.047
-536.164	-63.619	0.258	0.106
-535.150	119.651	-0.203	-0.250
-534.135	350.622	0.090	0.178
-533.121	-37.922	-0.136	-0.072
-532.106	-200.000	-0.031	-0.144
-531.091	-63.462	0.434	0.178
-530.077	-200.000	-0.008	-0.056
-529.062	-200.000	-0.007	0.075
-528.048	136.746	0.151	-0.197
-527.033	52.280	-0.178	-0.170
-526.018	-79.555	0.174	0.058
-525.004	-200.000	0.031	0.256
-523.989	-78.980	-0.048	-0.016
-522.975	800.000	-0.075	0.235
-521.960	-200.000	0.015	0.115
-520.945	-125.921	-0.273	0.041
-519.931	155.558	-0.132	-0.181
-518.916	-103.590	-0.295	-0.069
-517.902	-200.000	0.020	-0.150
-516.887	-73.530	0.404	0.147
-515.872	-200.000	-0.018	0.087
-514.858	-84.086	0.172	-0.054
-513.843	-134.494	-0.239	-0.029
-512.829	-53.276	0.018	-0.008
-511.814	-97.087	-0.205	0.053
-510.799	-112.674	-0.271	-0.054
-509.785	-57.452	0.280	0.122
-508.770	-105.618	-0.150	-0.034
-507.756	-61.025	0.054	-0.023
-506.741	-200.000	-0.016	-0.166
-505.726	-200.000	0.072	-0.318
-504.712	-18.185	-0.187	0.116
-503.697	-128.163	-0.006	0.001
-502.683	141.207	-0.087	-0.114
-501.668	-200.000	-0.020	-0.228
-500.653	-200.000	-0.018	0.379
-499.639	165.866	0.132	0.186
-498.624	-200.000	-0.030	-0.204
-497.610	147.822	0.101	-0.135
-496.595	197.943	-0.043	0.065
-495.581	739.817	0.135	0.361
-494.566	-55.219	-0.068	0.030
-493.551	-140.384	0.232	-0.024
-492.537	369.768	-0.049	0.099
-491.522	-60.809	-0.268	-0.113
-490.508	223.181	-0.037	-0.060
-489.493	-6.617	-0.127	0.086
-488.478	-200.000	0.002	0.047
-487.464	96.225	-0.203	-0.231
-486.449	595.947	-0.096	-0.238
-485.435	-28.943	-0.145	-0.083
-484.420	-157.499	0.303	-0.018
-483.405	-151.577	0.288	-0.021
-482.391	164.653	-0.016	0.023
-481.376	128.739	-0.129	-0.164
-480.362	486.662	0.143	-0.325
-479.347	-36.207	-0.163	-0.087
-478.332	800.000	0.060	-0.178
-477.318	800.000	0.060	-0.259
-476.303	-200.000	0.084	0.531
-475.289	-112.173	-0.260	0.052
-474.274	-82.133	0.070	-0.023
-473.259	-200.000	0.019	-0.215
-472.245	-75.438	0.380	-0.135
-471.230	-145.250	0.235	-0.021
-470.216	-125.296	-0.073	-0.011
-469.201	-200.000	-0.047	-0.242
-468.186	-82.164	0.310	0.101
-467.172	-200.000	-0.027	0.164
-466.157	404.815	0.061	0.128
-465.143	69.678	-0.241	0.247
-464.128	-106.670	-0.123	0.027
-463.113	-200.000	0.023	0.195
-462.099	-82.429	0.125	0.040
-461.084	-199.869	-0.383	-0.002
-460.070	-82.889	-0.276	0.089
-459.055	-95.911	0.395	-0.105
-458.040	-77.143	-0.136	-0.047
-457.026	-200.000	-0.011	0.269
-456.011	32.556	-0.315	0.271
-454.997	123.190	-0.077	0.096
-453.982	153.500	0.078	0.106
-452.968	-51.746	0.029	-0.013
-451.953	-92.388	0.170	0.048
-450.938	-43.087	-0.250	-0.126
-449.924	-97.109	-0.303	0.079
-448.909	452.104	0.091	0.200
-447.895	-66.759	0.325	0.128
-446.880	-57.544	-0.354	0.154
-445.865	-139.545	0.148	0.016
-444.851	787.868	-0.070	0.191
-443.836	135.640	-0.238	0.308
-442.822	-52.776	0.102	-0.047
-441.807	-59.367	0.152	-0.065
-440.792	82.205	-0.017	-0.019
-439.778	-126.130	-0.164	-0.024
-438.763	78.962	0.177	-0.189
-437.749	244.307	-0.156	0.261
-436.734	800.000	-0.052	0.162
-435.719	800.000	-0.050	0.178
-434.705	75.285	-0.084	0.088
-433.690	38.577	0.288	-0.255
-432.676	-200.000	-0.013	0.184
-431.661	-151.509	0.278	0.020
-430.646	-116.212	-0.217	0.040
-429.632	800.000	-0.111	0.315
-428.617	-200.000	0.093	0.456
-427.603	-200.000	0.055	-0.370
-426.588	-160.201	0.184	-0.010
-425.573	-22.056	-0.296	-0.179
-424.559	-53.552	-0.046	-0.021
-423.544	-108.907	-0.070	-0.015
-422.530	-68.750	0.207	-0.079
-421.515	101.550	-0.093	0.108
-420.500	50.675	-0.143	0.135
-419.486	-144.177	-0.056	-0.005
-418.471	800.000	-0.079	-0.287
-417.457	102.576	0.042	0.048
-416.442	716.799	0.034	0.090
-415.428	11.801	0.023	-0.018
-414.413	-173.194	0.074	0.002
-413.398	127.332	0.168	-0.211
-412.384	-200.000	0.029	-0.554
-411.369	-200.000	0.003	0.131
-410.355	-134.907	-0.336	0.040
-409.340	96.549	-0.173	-0.197
-408.325	-98.089	0.334	0.085
-407.311	-200.000	-0.017	-0.088
-406.296	17.024	0.244	-0.192
-405.282	232.384	-0.182	0.297
-404.267	-129.368	-0.327	0.045
-403.252	-133.889	-0.186	0.023
-402.238	1.251	0.146	0.104
-401.223	13.683	0.038	0.029
-400.209	-200.000	0.023	0.244
-399.194	-200.000	0.046	0.200
-398.179	156.499	0.026	0.036
-397.165	-200.000	0.003	0.151
-396.150	-92.804	-0.138	0.038
-395.136	587.496	-0.143	-0.349
-394.121	40.163	-0.198	0.176
-393.106	-51.462	0.045	-0.021
-392.092	-44.984	0.186	0.092
-391.077	62.817	-0.051	-0.051
-390.063	671.881	0.089	-0.229
-389.048	-88.317	0.167	-0.050
-388.033	-45.004	-0.225	0.111
-387.019	-58.025	-0.325	0.141
-386.004	242.327	0.099	0.164
-384.990	-200.000	0.054	0.346
-383.975	-200.000	0.068	0.452
-382.960	11.209	-0.181	0.137
-381.946	-128.411	0.135	-0.019
-380.931	-200.000	-0.051	-0.324
-379.917	173.028	0.071	-0.101
-378.902	13.066	0.076	-0.058
-377.888	23.859	0.168	-0.138
-376.873	294.504	0.269	0.488
-375.858	-200.000	-0.060	0.409
-374.844	-200.000	0.032	0.228
-373.829	-125.234	-0.326	-0.050
-372.815	-51.268	0.027	-0.013
-371.800	-47.902	0.123	-0.059
-370.785	-200.000	0.002	-0.068
-369.771	35.091	-0.113	-0.098
-368.756	-50.470	0.163	0.076
-367.742	-46.191	0.263	0.128
-366.727	-144.223	-0.224	-0.021
-365.712	11.815	-0.010	-0.008
-364.698	-183.159	0.424	-0.007
-363.683	-200.000	0.020	0.235
-362.669	-200.000	0.008	-0.117
-361.654	-200.000	0.022	-0.278
-360.639	-4.491	0.123	-0.085
-359.625	800.000	-0.049	-0.204
-358.610	-127.898	0.222	-0.032
-357.596	800.000	-0.011	-0.036
-356.581	20.913	0.128	-0.102
-355.566	-140.631	0.244	0.025
-354.552	-96.157	0.086	0.023
-353.537	-200.000	-0.017	0.229
-352.523	3.281	0.092	0.066
-351.508	-133.198	0.471	-0.059
-350.493	105.201	0.025	0.029
-349.479	-144.486	0.209	0.019
-348.464	157.228	0.218	-0.298
-347.450	-111.921	0.252	0.050
-346.435	-88.660	0.237	0.070
-345.420	-42.109	-0.200	-0.101
-344.406	46.801	-0.213	0.196
-343.391	-100.629	-0.489	0.120
-342.377	17.282	-0.254	-0.200
-341.362	143.073	-0.094	-0.124
-340.348	-200.000	-0.009	-0.168
-339.333	24.873	-0.194	-0.159
-338.318	800.000	0.095	0.412
-337.304	-200.000	0.030	-0.230
-336.289	12.684	0.090	-0.069
-335.275	431.407	0.098	-0.210
-334.260	800.000	-0.052	0.213
-333.245	524.137	-0.186	-0.433
-332.231	-35.021	0.215	-0.116
-331.216	101.376	0.008	-0.010
-330.202	238.667	-0.036	-0.059
-329.187	463.091	0.135	-0.298
-328.172	-200.000	-0.032	-0.241
-327.158	13.604	0.124	0.096
-326.143	800.000	0.089	0.369
-325.129	-11.857	0.146	-0.095
-324.114	-6.937	-0.180	0.121
-323.099	-200.000	0.036	0.371
-322.085	279.809	0.113	-0.200
-321.070	167.885	-0.158	-0.222
-320.056	-121.716	-0.230	0.038
-319.041	800.000	0.195	0.544
-318.026	-64.639	-0.254	-0.102
-317.012	212.211	-0.029	0.046
-315.997	101.758	-0.157	0.182
-314.983	-123.169	-0.068	-0.011
-313.968	-39.373	-0.155	-0.080
-312.953	318.017	0.189	-0.353
-311.939	-200.000	0.029	-0.139
-310.924	234.126	-0.146	0.238
-309.910	34.993	0.147	0.127
-308.895	-45.071	-0.210	0.104
-307.880	88.959	-0.154	-0.169
-306.866	-117.216	0.135	0.024
-305.851	-152.547	0.270	-0.019
-304.837	-123.596	0.264	0.041
-303.822	-113.856	0.181	-0.035
-302.807	-123.671	-0.211	0.033
-301.793	-200.000	0.011	-0.085
-300.778	-200.000	0.001	0.006
-299.764	50.952	-0.126	0.118
-298.749	-143.149	0.104	-0.010
-297.735	3.603	0.051	-0.037
-296.720	-87.153	0.332	0.100
-295.705	-106.490	0.173	0.038
-294.691	-114.701	-0.393	-0.074
-293.676	53.293	0.150	0.142
-292.662	156.752	-0.348	-0.475
-291.647	283.608	0.073	-0.129
-290.632	-3.042	0.197	0.136
-289.618	-132.889	0.205	-0.026
-288.603	75.666	0.088	0.091
-287.589	492.321	-0.095	-0.214
-286.574	55.268	-0.210	0.200
-285.559	-28.716	-0.127	-0.072
-284.545	-59.093	-0.255	0.109
-283.530	369.098	-0.027	-0.053
-282.516	-58.029	-0.228	-0.098
-281.501	-28.034	-0.153	0.088
-280.486	-186.199	-0.310	0.004
-279.472	-200.000	0.049	-0.281
-278.457	-77.859	0.340	0.116
-277.443	61.274	0.116	0.114
-276.428	-200.000	0.113	0.493
-275.413	509.365	0.043	0.099
-274.399	-200.000	-0.034	0.250
-273.384	-200.000	0.005	0.107
-272.370	50.773	0.129	-0.121
-271.355	-200.000	-0.033	-0.196
-270.340	59.191	0.251	0.244
-269.326	-101.090	-0.215	0.052
-268.311	147.894	0.263	-0.351
-267.297	141.173	-0.148	-0.193
-266.282	42.091	0.155	-0.139
-265.267	-200.000	-0.010	-0.307
-264.253	-32.630	0.195	-0.107
-263.238	-200.000	-0.024	-0.169
-262.224	-33.761	-0.417	0.227
-261.209	-37.230	-0.368	-0.194
-260.195	98.672	0.116	0.133
-259.180	61.790	-0.110	-0.108
-258.165	800.000	0.019	-0.067
-257.151	-62.037	0.337	-0.139
-256.136	121.595	-0.026	-0.032
-255.122	-144.531	0.461	0.042
-254.107	575.411	-0.071	0.172
-253.092	-200.000	0.003	-0.155
-252.078	49.911	0.244	0.227
-251.063	-83.813	0.214	0.067
-250.049	14.141	-0.310	-0.238
-249.034	-58.473	-0.175	-0.075
-248.019	-133.613	0.250	0.031
-247.005	800.000	-0.076	0.221
-245.990	-22.318	-0.058	-0.034
-244.976	-51.286	0.084	0.039
-243.961	-200.000	-0.014	0.250
-242.946	-200.000	0.008	0.083
-241.932	339.589	0.114	0.220
-240.917	-200.000	-0.019	0.169
-239.903	58.122	-0.193	0.186
-238.888	41.850	0.112	0.100
-237.873	-200.000	0.045	0.498
-236.859	19.220	0.118	-0.094
-235.844	552.345	0.049	0.116
-234.830	201.390	0.062	0.094
-233.815	800.000	0.110	0.375
-232.800	800.000	-0.041	0.114
-231.786	102.671	0.145	0.167
-230.771	561.623	-0.110	-0.261
-229.757	176.082	-0.074	0.106
-228.742	199.296	0.031	0.046
-227.727	420.925	0.237	-0.502
-226.713	-167.210	0.309	-0.012
-225.698	-180.107	-0.157	0.003
-224.684	-200.000	0.037	0.287
-223.669	-200.000	0.028	-0.182
-222.655	-154.459	0.038	-0.003
-221.640	-62.789	-0.233	0.095
-220.625	110.461	0.147	-0.174
-219.611	707.838	0.033	0.086
-218.596	229.894	0.096	0.154
-217.582	-144.453	-0.029	-0.003
-216.567	-200.000	-0.016	-0.190
-215.552	55.076	-0.282	-0.268
-214.538	800.000	-0.097	-0.269
-213.523	-200.000	-0.041	-0.241
-212.509	36.984	0.135	0.117
-211.494	306.035	-0.094	-0.172
-210.479	-5.206	-0.220	-0.149
-209.465	75.441	0.358	0.372
-208.450	-53.308	0.185	0.084
-207.436	-62.560	-0.088	0.036
-206.421	560.346	0.041	-0.097
-205.406	-121.707	0.432	-0.070
-204.392	214.418	-0.062	0.097
-203.377	132.799	-0.060	-0.077
-202.363	-200.000	-0.023	0.141
-201.348	-152.043	-0.368	-0.026
-200.333	-94.259	-0.189	-0.051
-199.319	-79.287	0.293	0.098
-198.304	800.000	-0.095	0.325
-197.290	71.510	-0.204	-0.209
-196.275	-23.685	-0.060	-0.035
-195.260	301.194	0.196	0.357
-194.246	800.000	-0.074	-0.202
-193.231	-41.700	0.182	-0.092
-192.217	-21.707	-0.091	-0.054
-191.202	-16.566	0.236	0.147
-190.187	-200.000	0.024	0.140
-189.173	209.855	0.151	0.234
-188.158	-36.955	-0.141	-0.074
-187.144	41.498	0.131	0.116
-186.129	-200.000	0.033	0.227
-185.114	183.610	-0.137	-0.200
-184.100	597.342	0.178	-0.434
-183.085	-71.906	0.189	0.069
-182.071	123.541	-0.174	0.214
-181.056	443.931	-0.144	0.310
-180.042	105.799	0.068	0.079
-179.027	-76.296	0.225	-0.078
-178.012	-48.387	0.133	0.063
-176.998	290.317	0.119	-0.213
-175.983	-200.000	0.031	0.193
-174.969	-143.887	0.189	0.018
-173.954	800.000	0.143	0.392
-172.939	-10.549	0.198	0.129
-171.925	9.248	-0.206	0.153
-170.910	-119.576	-0.385	0.066
-169.896	-13.981	0.244	0.155
-168.881	-200.000	-0.038	-0.171
-167.866	-200.000	-0.029	0.266
-166.852	-10.400	0.218	-0.142
-165.837	-64.270	0.224	-0.090
-164.823	-200.000	0.019	-0.191
-163.808	-200.000	-0.026	-0.253
-162.793	-100.874	-0.286	-0.069
-161.779	317.639	0.042	0.079
-160.764	-72.571	-0.222	0.081
-159.750	-200.000	0.046	-0.249
-158.735	11.650	-0.259	0.195
-157.720	709.258	-0.040	-0.105
-156.706	12.400	-0.222	0.168
-155.691	-197.659	0.051	-0.000
-154.677	55.494	0.114	-0.109
-153.662	-35.428	0.282	-0.150
-152.647	-39.490	-0.203	0.105
-151.633	-89.853	0.086	0.025
-150.618	710.245	0.058	0.151
-149.604	-200.000	-0.002	-0.218
-148.589	-27.565	-0.169	0.096
-147.574	303.781	-0.145	0.265
-146.560	-57.136	0.238	0.103
-145.545	163.589	0.138	-0.190
-144.531	-200.000	0.037	0.184
-143.516	6.383	0.046	0.034
-142.502	-71.824	0.330	-0.121
-141.487	388.686	0.131	-0.267
-140.472	13.928	0.127	-0.097
-139.458	-141.929	-0.055	-0.005
-138.443	-200.000	-0.001	-0.239
-137.429	-200.000	-0.139	0.000
-136.414	-95.098	0.337	0.089
-135.399	-200.000	-0.026	0.191
-134.385	505.735	0.099	0.226
-133.370	800.000	0.040	0.151
-132.356	-200.000	-0.009	-0.074
-131.341	-1.720	-0.205	0.142
-130.326	-23.354	-0.055	0.033
-129.312	-78.723	0.224	-0.075
-128.297	800.000	0.113	0.406
-127.283	304.434	0.021	-0.038
-126.268	-200.000	0.008	0.165
-125.253	800.000	0.069	-0.235
-124.239	305.288	-0.051	-0.092
-123.224	599.889	0.109	-0.266
-122.210	-8.403	-0.038	-0.025
