DTS Sentinel unit serial number:	SN413079Multiplexer serial number:	ORYXHardware model number:	OX4-SRSoftware version number:	ORYX F/W v4.00 Oryx Data Collector v3.7.2.0data status	okinstallation	princeton_trtdifferential loss correction	single-endedforward channel	channel 2reverse channel	N/Adate	2019/09/16time	21:23:35forward acquisition time	60.00reverse acquisition time	0.00gamma	496.2192k internal	0.2328k external	0.2328temperature offset calibration	0.9970default loss term (dB/km)	0.3790temperature slope calibration	1.0000multiplexer offset coefficient	1.0000multiplexer slope coefficient	1.0000fibre end	0.00T internal ref (°C)	31.56T ext. ref 1 (°C)	0.06T ext. ref 2 (°C)	25.42length (m)	temperature (°C)	Stokes	anti-Stokes-747.200	160.479	-0.207	0.292
-746.185	-64.495	-0.358	0.147
-745.171	23.949	-0.220	-0.183
-744.156	-200.000	-0.062	0.365
-743.142	-20.990	0.155	0.096
-742.127	-200.000	-0.026	0.225
-741.112	90.212	0.096	0.108
-740.098	-200.000	-0.022	0.217
-739.083	155.148	0.137	-0.190
-738.069	-103.150	-0.193	0.046
-737.054	-105.142	0.243	-0.056
-736.039	-91.762	0.121	-0.035
-735.025	-200.000	0.051	0.296
-734.010	-200.000	0.023	-0.188
-732.996	161.412	-0.191	0.270
-731.981	-78.000	0.166	0.058
-730.966	522.127	-0.224	0.530
-729.952	-114.995	-0.332	-0.064
-728.937	57.204	-0.130	0.127
-727.923	251.118	-0.168	0.288
-726.908	-98.678	-0.399	-0.102
-725.894	497.578	0.116	-0.269
-724.879	-153.926	0.116	0.008
-723.864	328.731	0.079	-0.154
-722.850	-200.000	0.022	-0.113
-721.835	-200.000	0.063	-0.330
-720.821	800.000	0.006	0.024
-719.806	-145.654	-0.020	-0.002
-718.791	-200.000	-0.000	-0.240
-717.777	-82.509	-0.260	-0.085
-716.762	-8.463	-0.131	0.088
-715.748	704.208	-0.012	-0.032
-714.733	-150.295	-0.321	-0.025
-713.718	-66.043	0.154	0.062
-712.704	775.159	0.052	-0.143
-711.689	21.823	-0.198	-0.163
-710.675	174.695	0.147	0.213
-709.660	-150.764	0.185	0.014
-708.645	136.642	-0.077	0.101
-707.631	568.968	-0.042	-0.102
-706.616	-102.481	-0.093	0.022
-705.602	-147.398	0.170	0.014
-704.587	-131.790	-0.018	0.002
-703.572	-109.669	0.358	-0.076
-702.558	-122.738	-0.232	0.038
-701.543	-111.812	0.535	0.109
-700.529	11.466	0.064	-0.049
-699.514	71.940	0.210	-0.219
-698.499	31.290	0.047	0.041
-697.485	-71.373	-0.373	0.140
-696.470	-200.000	0.009	-0.118
-695.456	58.919	-0.132	-0.131
-694.441	331.473	0.178	-0.346
-693.426	322.580	0.098	0.188
-692.412	-102.710	-0.107	-0.026
-691.397	141.178	-0.176	0.234
-690.383	-126.159	-0.137	-0.021
-689.368	12.683	0.128	-0.100
-688.354	341.641	-0.151	0.297
-687.339	190.181	-0.015	-0.022
-686.324	-61.642	0.361	-0.152
-685.310	-101.782	-0.282	-0.069
-684.295	-200.000	0.017	-0.231
-683.281	67.770	-0.115	0.118
-682.266	800.000	0.018	-0.075
-681.251	31.415	-0.379	0.327
-680.237	-41.210	-0.135	-0.070
-679.222	-6.538	-0.062	-0.042
-678.208	512.042	-0.049	-0.115
-677.193	-25.977	-0.082	0.048
-676.178	-200.000	0.043	-0.207
-675.164	-44.178	-0.043	-0.022
-674.149	-69.653	-0.019	-0.007
-673.135	-40.826	0.168	0.087
-672.120	-34.359	0.172	-0.095
-671.105	-121.188	0.089	0.015
-670.091	335.031	0.096	0.187
-669.076	277.971	-0.107	0.191
-668.062	-8.895	-0.228	0.154
-667.047	-151.585	-0.266	-0.020
-666.032	800.000	-0.045	0.171
-665.018	-121.310	-0.042	0.007
-664.003	-21.735	0.183	0.112
-662.989	-200.000	-0.049	-0.378
-661.974	48.564	0.097	0.091
-660.959	-126.811	-0.286	0.042
-659.945	42.871	-0.050	0.045
-658.930	-159.981	-0.137	0.008
-657.916	-38.027	0.164	-0.088
-656.901	21.918	-0.186	0.152
-655.886	800.000	0.024	0.093
-654.872	113.620	-0.058	0.071
-653.857	72.423	-0.100	-0.104
-652.843	253.205	0.158	0.272
-651.828	-136.686	0.195	-0.023
-650.814	-77.898	-0.173	-0.060
-649.799	137.795	0.125	-0.164
-648.784	-200.000	-0.001	0.160
-647.770	-55.848	0.110	-0.049
-646.755	-200.000	0.031	-0.326
-645.741	-85.470	-0.043	-0.013
-644.726	-200.000	-0.015	0.099
-643.711	-132.404	0.076	0.010
-642.697	-200.000	0.013	0.200
-641.682	152.258	-0.097	-0.133
-640.668	-36.378	-0.103	-0.056
-639.653	-200.000	0.038	-0.350
-638.638	-120.835	-0.247	-0.042
-637.624	317.208	-0.174	-0.330
-636.609	-57.504	0.289	0.127
-635.595	-200.000	-0.073	0.468
-634.580	-200.000	-0.024	-0.340
-633.565	15.433	-0.211	-0.166
-632.551	190.274	0.238	-0.358
-631.536	-200.000	0.045	0.243
-630.522	83.457	0.178	0.195
-629.507	-141.650	0.148	0.015
-628.492	13.176	-0.255	-0.198
-627.478	771.495	0.035	0.096
-626.463	-167.647	-0.114	0.005
-625.449	800.000	-0.086	0.247
-624.434	-56.418	0.153	-0.068
-623.419	-75.186	-0.204	-0.073
-622.405	-108.686	-0.018	0.004
-621.390	-200.000	-0.004	0.187
-620.376	-74.090	0.076	-0.028
-619.361	332.807	0.023	-0.045
-618.346	-181.898	-0.088	-0.002
-617.332	-63.167	0.194	0.080
-616.317	-120.393	-0.248	0.042
-615.303	31.344	-0.102	-0.088
-614.288	-102.372	-0.298	0.072
-613.273	726.695	0.043	0.115
-612.259	47.839	0.321	0.300
-611.244	178.075	0.067	0.098
-610.230	198.673	-0.032	-0.049
-609.215	-200.000	0.007	0.069
-608.201	-77.525	0.373	0.130
-607.186	-4.364	0.113	-0.079
-606.171	-200.000	0.040	0.208
-605.157	-42.405	-0.372	0.190
-604.142	104.271	0.094	0.111
-603.128	-200.000	0.033	-0.354
-602.113	-200.000	-0.011	0.187
-601.098	-200.000	-0.002	-0.099
-600.084	-19.442	-0.150	-0.093
-599.069	800.000	0.063	-0.246
-598.055	-96.816	-0.169	-0.044
-597.040	-200.000	-0.051	0.275
-596.025	233.748	-0.066	0.109
-595.011	47.151	-0.107	-0.099
-593.996	24.325	-0.088	0.072
-592.982	31.903	-0.186	0.161
-591.967	-81.739	0.179	-0.059
-590.952	21.086	0.192	0.156
-589.938	36.527	-0.220	-0.194
-588.923	-179.150	-0.468	0.010
-587.909	-119.652	-0.241	-0.042
-586.894	313.302	-0.203	-0.383
-585.879	219.703	0.067	0.107
-584.865	533.130	-0.070	0.166
-583.850	78.782	-0.098	-0.105
-582.836	800.000	0.019	0.056
-581.821	78.303	0.086	0.092
-580.806	-163.458	-0.217	0.010
-579.792	242.017	-0.082	-0.138
-578.777	-52.851	-0.083	-0.038
-577.763	0.456	-0.133	0.095
-576.748	-200.000	-0.010	-0.273
-575.733	-59.280	-0.227	-0.098
-574.719	-27.956	0.075	-0.043
-573.704	261.410	-0.050	-0.087
-572.690	-14.414	0.135	-0.087
-571.675	800.000	-0.141	0.539
-570.661	263.078	0.079	-0.138
-569.646	48.389	0.088	-0.083
-568.631	-200.000	-0.011	-0.082
-567.617	40.179	0.016	0.015
-566.602	218.205	0.050	-0.080
-565.588	104.227	-0.291	-0.343
-564.573	-142.324	0.210	0.021
-563.558	-93.167	-0.209	0.058
-562.544	-117.541	0.102	-0.018
-561.529	-148.414	-0.156	-0.013
-560.515	318.053	-0.120	0.228
-559.500	-200.000	-0.069	-0.413
-558.485	200.996	0.173	0.266
-557.471	206.018	0.091	-0.141
-556.456	37.957	0.211	-0.188
-555.442	-200.000	0.018	0.079
-554.427	-167.729	-0.095	-0.004
-553.412	-42.156	-0.364	0.186
-552.398	-200.000	0.288	0.000
-551.383	-200.000	-0.003	-0.241
-550.369	-200.000	-0.015	-0.132
-549.354	-91.038	-0.274	-0.079
-548.339	800.000	-0.028	0.110
-547.325	-95.036	-0.142	0.038
-546.310	-200.000	0.008	-0.204
-545.296	-72.982	0.228	-0.084
-544.281	-200.000	0.003	0.086
-543.266	-110.665	0.085	-0.018
-542.252	-83.525	0.092	-0.030
-541.237	-70.826	0.101	0.038
-540.223	800.000	0.055	0.168
-539.208	-87.879	0.079	0.024
-538.193	800.000	0.038	-0.118
-537.179	-166.189	-0.423	0.018
-536.164	243.731	0.062	-0.104
-535.150	-15.422	-0.207	0.132
-534.135	-98.974	0.283	-0.072
-533.121	-200.000	0.016	-0.192
-532.106	92.247	-0.208	0.234
-531.091	-15.576	-0.252	-0.161
-530.077	800.000	0.076	0.237
-529.062	245.856	0.131	0.221
-528.048	31.325	-0.225	0.193
-527.033	-200.000	0.046	0.250
-526.018	-20.739	0.357	0.219
-525.004	-109.889	-0.111	-0.023
-523.989	135.126	-0.111	-0.144
-522.975	-78.438	0.205	0.070
-521.960	-92.338	0.312	-0.088
-520.945	65.160	-0.176	0.177
-519.931	204.583	0.145	-0.224
-518.916	362.361	0.061	-0.122
-517.902	-200.000	-0.019	-0.220
-516.887	465.603	0.039	0.086
-515.872	358.869	0.096	-0.191
-514.858	-18.644	-0.175	-0.109
-513.843	-150.485	-0.145	0.011
-512.829	379.439	0.063	0.128
-511.814	444.817	0.111	-0.244
-510.799	75.639	0.144	0.151
-509.785	-180.915	-0.159	0.003
-508.770	-146.853	-0.218	0.019
-507.756	800.000	0.021	0.090
-506.741	13.667	-0.237	-0.184
-505.726	-200.000	0.020	-0.197
-504.712	-25.213	0.375	0.222
-503.697	-33.247	-0.118	-0.065
-502.683	71.890	-0.215	0.223
-501.668	6.855	0.097	0.072
-500.653	134.514	-0.090	0.116
-499.639	313.912	0.058	0.108
-498.624	23.117	0.085	-0.069
-497.610	30.698	-0.204	-0.174
-496.595	122.163	0.079	0.099
-495.581	-82.917	0.363	0.117
-494.566	-101.520	0.388	-0.094
-493.551	483.759	0.103	-0.234
-492.537	-200.000	0.020	0.150
-491.522	77.769	0.076	-0.081
-490.508	-19.053	0.187	0.116
-489.493	118.607	-0.131	-0.161
-488.478	-13.448	0.305	0.197
-487.464	-9.753	0.153	0.102
-486.449	149.054	-0.099	-0.133
-485.435	-55.576	-0.167	0.074
-484.420	-55.440	0.255	-0.114
-483.405	-167.742	-0.298	-0.012
-482.391	105.861	-0.073	-0.086
-481.376	78.928	0.055	-0.059
-480.362	-19.024	0.191	-0.119
-479.347	-114.780	0.032	-0.006
-478.332	-75.330	0.326	-0.116
-477.318	-110.378	0.080	-0.017
-476.303	-161.914	-0.390	0.020
-475.289	353.300	-0.136	-0.269
-474.274	-66.318	-0.252	0.100
-473.259	-15.925	-0.199	0.126
-472.245	318.768	0.021	0.040
-471.230	-72.497	0.030	-0.011
-470.216	394.523	-0.082	-0.170
-469.201	162.329	-0.092	0.129
-468.186	-0.521	-0.151	0.107
-467.172	800.000	0.020	0.063
-466.157	-86.344	-0.293	0.090
-465.143	149.900	0.245	-0.331
-464.128	-200.000	0.000	0.043
-463.113	-84.442	-0.375	0.118
-462.099	91.416	-0.159	0.178
-461.084	24.268	0.119	-0.098
-460.070	12.395	-0.071	0.055
-459.055	168.563	0.024	0.034
-458.040	-170.748	0.144	-0.005
-457.026	464.498	0.048	-0.106
-456.011	-200.000	-0.015	0.084
-454.997	-200.000	-0.020	0.147
-453.982	-200.000	-0.003	-0.173
-452.968	-145.849	-0.202	0.018
-451.953	-124.176	0.091	0.014
-450.938	-34.442	0.262	0.143
-449.924	5.320	-0.222	0.163
-448.909	69.030	-0.128	-0.131
-447.895	800.000	-0.057	-0.172
-446.880	800.000	0.079	-0.218
-445.865	195.642	0.112	-0.170
-444.851	31.040	0.125	-0.106
-443.836	-142.378	0.315	-0.031
-442.822	93.541	0.250	-0.282
-441.807	618.065	0.125	0.313
-440.792	-200.000	0.069	-0.305
-439.778	800.000	-0.064	0.186
-438.763	521.088	0.135	0.316
-437.749	-119.866	-0.334	-0.057
-436.734	177.239	0.174	-0.253
-435.719	800.000	-0.042	0.116
-434.705	241.825	-0.095	0.158
-433.690	-86.112	0.189	0.058
-432.676	-124.353	0.306	0.048
-431.661	197.949	-0.168	-0.255
-430.646	143.544	-0.050	-0.067
-429.632	596.577	0.042	-0.104
-428.617	133.952	0.184	-0.237
-427.603	-27.253	-0.220	-0.128
-426.588	-109.720	0.172	0.036
-425.573	7.270	0.309	-0.230
-424.559	800.000	-0.036	-0.122
-423.544	97.136	-0.109	-0.124
-422.530	275.682	-0.046	0.082
-421.515	-95.332	0.128	-0.034
-420.500	-200.000	0.051	0.580
-419.486	43.108	-0.221	0.201
-418.471	-152.808	-0.193	0.014
-417.457	800.000	0.134	0.530
-416.442	232.614	-0.267	0.436
-415.428	596.305	-0.048	0.119
-414.413	-54.852	0.307	-0.138
-413.398	-200.000	-0.034	-0.217
-412.384	140.017	0.270	0.355
-411.369	127.311	-0.052	0.066
-410.355	800.000	0.141	-0.431
-409.340	-68.126	0.341	0.132
-408.325	103.252	-0.134	0.156
-407.311	287.577	0.111	-0.200
-406.296	-54.255	-0.377	-0.170
-405.282	-23.040	0.071	0.042
-404.267	-70.251	0.214	0.081
-403.252	-3.218	0.087	-0.060
-402.238	-200.000	-0.020	0.157
-401.223	-107.856	0.347	0.075
-400.209	-64.139	-0.083	0.034
-399.194	123.153	0.162	-0.202
-398.179	-133.270	0.152	-0.019
-397.165	-127.768	0.416	-0.060
-396.150	83.246	-0.247	-0.268
-395.136	-66.893	-0.290	0.114
-394.121	-141.976	0.146	-0.014
-393.106	335.612	-0.103	-0.198
-392.092	800.000	-0.063	-0.214
-391.077	-134.538	0.445	0.054
-390.063	-134.029	-0.246	0.030
-389.048	-200.000	-0.064	-0.486
-388.033	-113.456	-0.385	0.075
-387.019	-200.000	-0.037	0.246
-386.004	800.000	0.075	0.234
-384.990	680.796	-0.097	-0.250
-383.975	72.375	-0.136	-0.140
-382.960	-200.000	-0.116	0.547
-381.946	-26.943	-0.253	-0.147
-380.931	91.751	0.031	-0.035
-379.917	800.000	-0.103	-0.344
-378.902	-200.000	-0.012	-0.172
-377.888	195.381	0.156	-0.235
-376.873	390.460	0.027	0.056
-375.858	167.383	0.090	-0.127
-374.844	-26.731	-0.273	0.159
-373.829	23.474	-0.050	0.041
-372.815	-156.976	0.064	-0.004
-371.800	-37.526	-0.239	-0.127
-370.785	-99.316	-0.214	-0.054
-369.771	238.339	0.074	0.122
-368.756	-200.000	-0.046	0.232
-367.742	-200.000	0.022	0.316
-366.727	-89.834	-0.073	-0.021
-365.712	55.989	-0.152	-0.146
-364.698	800.000	-0.029	0.090
-363.683	-18.838	-0.095	-0.058
-362.669	-200.000	0.137	0.658
-361.654	115.815	-0.163	0.198
-360.639	311.036	0.064	-0.119
-359.625	-47.028	-0.166	0.081
-358.610	-131.291	-0.229	-0.030
-357.596	800.000	0.066	0.205
-356.581	681.411	-0.070	-0.182
-355.566	-110.626	-0.115	0.024
-354.552	-200.000	0.014	0.394
-353.537	-130.409	0.140	-0.019
-352.523	-130.398	0.296	0.040
-351.508	693.311	-0.038	-0.098
-350.493	715.445	0.068	-0.179
-349.479	120.187	0.017	0.021
-348.464	-51.989	0.132	0.061
-347.450	527.749	-0.059	-0.138
-346.435	800.000	-0.018	-0.074
-345.420	-61.487	0.322	0.134
-344.406	800.000	-0.062	0.240
-343.391	606.053	0.075	-0.187
-342.377	-200.000	-0.022	-0.299
-341.362	-200.000	-0.008	-0.130
-340.348	-159.190	0.304	0.017
-339.333	-69.507	0.219	-0.083
-338.318	800.000	0.045	-0.187
-337.304	57.562	-0.174	0.169
-336.289	40.316	-0.087	-0.077
-335.275	-160.615	-0.103	0.005
-334.260	800.000	-0.087	0.309
-333.245	-70.332	-0.323	-0.122
-332.231	-200.000	-0.046	0.354
-331.216	33.398	0.197	0.169
-330.202	-200.000	-0.027	0.195
-329.187	-108.419	-0.215	-0.046
-328.172	123.412	0.179	0.222
-327.158	800.000	0.048	-0.148
-326.143	57.033	0.055	-0.053
-325.129	-112.050	0.313	-0.062
-324.114	66.680	-0.160	-0.161
-323.099	-94.554	0.210	0.057
-322.085	-112.335	-0.204	-0.040
-321.070	-4.746	0.145	0.099
-320.056	-46.107	-0.385	-0.188
-319.041	70.103	-0.131	-0.134
-318.026	-6.162	0.215	-0.146
-317.012	759.970	-0.106	-0.286
-315.997	800.000	-0.080	-0.265
-314.983	800.000	0.084	0.254
-313.968	-85.471	0.070	0.021
-312.953	-200.000	-0.036	0.267
-311.939	-84.590	0.302	0.094
-310.924	-200.000	0.005	0.281
-309.910	-73.460	0.323	0.117
-308.895	342.334	-0.020	0.038
-307.880	-115.222	0.287	-0.054
-306.866	316.590	0.093	0.173
-305.851	-193.288	-0.143	-0.001
-304.837	-98.172	0.187	-0.048
-303.822	486.405	0.055	0.123
-302.807	-48.745	0.179	-0.085
-301.793	-88.816	-0.156	-0.046
-300.778	94.437	0.155	0.174
-299.764	-27.506	-0.172	0.099
-298.749	-200.000	0.007	0.315
-297.735	-84.771	0.026	-0.008
-296.720	-200.000	-0.036	0.187
-295.705	-90.256	-0.083	-0.024
-294.691	22.550	-0.055	0.044
-293.676	252.764	-0.166	0.281
-292.662	-24.244	-0.175	-0.104
-291.647	-63.092	0.137	0.056
-290.632	800.000	0.071	0.263
-289.618	-113.410	-0.372	-0.072
-288.603	184.417	-0.184	0.269
-287.589	26.848	0.140	-0.116
-286.574	-22.195	-0.195	0.117
-285.559	-131.489	0.306	-0.040
-284.545	300.460	-0.147	0.269
-283.530	800.000	0.042	-0.153
-282.516	-200.000	-0.030	-0.333
-281.501	572.649	0.121	-0.291
-280.486	800.000	-0.079	0.341
-279.472	15.177	0.328	-0.254
-278.457	-35.911	-0.139	0.075
-277.443	-28.042	0.147	0.084
-276.428	-146.522	0.190	-0.016
-275.413	800.000	0.087	-0.360
-274.399	70.860	-0.156	0.160
-273.384	-124.985	-0.406	0.062
-272.370	800.000	-0.073	-0.283
-271.355	100.058	-0.062	0.071
-270.340	-115.743	-0.339	-0.063
-269.326	-100.477	-0.083	0.020
-268.311	96.770	0.111	0.126
-267.297	800.000	-0.092	-0.256
-266.282	139.291	0.118	0.154
-265.267	800.000	0.046	-0.132
-264.253	360.548	0.056	0.111
-263.238	390.133	0.105	-0.216
-262.224	297.179	0.098	-0.179
-261.209	-103.077	0.121	-0.028
-260.195	58.842	-0.087	-0.085
-259.180	-163.078	0.229	0.011
-258.165	315.469	0.137	0.256
-257.151	800.000	-0.124	0.363
-256.136	-190.673	-0.103	-0.001
-255.122	-79.309	-0.215	0.072
-254.107	800.000	0.057	-0.233
-253.092	117.317	-0.202	-0.245
-252.078	493.015	0.144	0.326
-251.063	-11.095	0.274	0.178
-250.049	-164.835	0.143	0.006
-249.034	48.801	0.278	-0.257
-248.019	-82.883	-0.266	-0.085
-247.005	-200.000	-0.007	0.156
-245.990	497.314	-0.033	0.075
-244.976	283.429	-0.082	0.145
-243.961	-156.471	0.124	0.008
-242.946	-200.000	-0.003	-0.198
-241.932	-200.000	0.002	-0.185
-240.917	-134.122	-0.021	-0.003
-239.903	800.000	0.105	0.370
-238.888	800.000	0.032	0.134
-237.873	-200.000	-0.019	0.230
-236.859	-41.529	-0.105	-0.054
-235.844	262.397	-0.060	-0.103
-234.830	381.117	-0.010	-0.020
-233.815	247.282	-0.278	-0.464
-232.800	-138.725	-0.315	-0.034
-231.786	94.269	-0.045	0.050
-230.771	-18.747	0.166	0.102
-229.757	-106.793	0.249	-0.054
-228.742	-49.106	0.199	-0.094
-227.727	406.422	0.109	0.228
-226.713	236.803	0.115	-0.189
-225.698	-125.240	-0.446	0.067
-224.684	255.128	0.075	-0.128
-223.669	-200.000	0.043	0.441
-222.655	27.125	-0.065	-0.054
-221.640	800.000	0.052	0.171
-220.625	118.355	-0.295	0.359
-219.611	-200.000	-0.005	-0.456
-218.596	-79.850	0.174	-0.058
-217.582	-200.000	-0.065	0.284
-216.567	456.208	-0.119	0.260
-215.552	235.538	0.086	0.141
-214.538	-200.000	0.022	-0.137
-213.523	17.120	0.127	-0.099
-212.509	28.984	-0.147	-0.123
-211.494	-59.688	-0.179	0.076
-210.479	103.524	-0.159	0.184
-209.465	183.660	-0.151	-0.220
-208.450	294.759	0.131	-0.236
-207.436	65.679	0.233	-0.233
-206.421	312.341	0.117	-0.216
-205.406	-200.000	0.002	0.245
-204.392	-200.000	0.064	-0.510
-203.377	-151.064	-0.187	0.014
-202.363	800.000	0.155	-0.470
-201.348	-50.039	0.394	-0.184
-200.333	-41.882	0.217	0.110
-199.319	-167.274	0.151	0.006
-198.304	-200.000	-0.011	0.177
-197.290	-14.112	-0.108	-0.068
-196.275	-27.408	-0.145	0.083
-195.260	481.495	0.131	0.293
-194.246	480.008	0.087	0.196
-193.231	-15.534	0.203	0.128
-192.217	-90.630	0.119	-0.034
-191.202	-200.000	0.005	-0.053
-190.187	800.000	0.088	-0.327
-189.173	221.335	-0.163	-0.258
-188.158	-4.012	-0.265	0.181
-187.144	-172.993	-0.303	-0.009
-186.129	23.634	0.103	0.084
-185.114	-122.864	0.162	0.026
-184.100	391.682	0.131	0.268
-183.085	19.309	0.071	0.056
-182.071	-48.363	-0.065	0.031
-181.056	419.985	-0.212	-0.447
-180.042	-200.000	-0.044	-0.211
-179.027	-200.000	-0.020	-0.377
-178.012	-81.474	0.246	-0.080
-176.998	313.639	-0.099	-0.183
-175.983	25.410	-0.179	0.147
-174.969	66.179	-0.137	-0.137
-173.954	-58.779	0.070	0.030
-172.939	233.404	-0.170	0.275
-171.925	800.000	-0.021	-0.064
-170.910	-200.000	0.020	-0.132
-169.896	-200.000	0.043	-0.219
-168.881	70.353	0.021	0.022
-167.866	-109.054	0.131	0.028
-166.852	-10.690	0.126	0.082
-165.837	49.293	0.107	-0.100
-164.823	-192.733	0.044	0.000
-163.808	-200.000	-0.003	0.070
-162.793	-200.000	-0.037	0.321
-161.779	-113.334	0.342	0.066
-160.764	618.984	0.052	0.129
-159.750	237.827	0.077	0.126
-158.735	-89.246	0.442	-0.128
-157.720	-61.979	-0.282	-0.116
-156.706	-200.000	-0.010	-0.175
-155.691	19.594	0.183	0.145
-154.677	-21.824	-0.262	0.157
-153.662	3.450	-0.148	-0.107
-152.647	118.777	0.118	0.144
-151.633	13.004	-0.111	0.084
-150.618	10.289	0.200	-0.150
-149.604	93.708	0.178	-0.199
-148.589	-55.509	0.128	0.057
-147.574	136.211	0.241	0.309
-146.560	-200.000	0.026	0.587
-145.545	462.190	-0.185	0.407
-144.531	280.160	0.141	0.247
-143.516	800.000	0.068	0.198
-142.502	-145.256	0.164	-0.015
-141.487	800.000	-0.065	0.237
-140.472	800.000	-0.016	0.044
-139.458	73.605	0.125	0.129
-138.443	-16.479	-0.230	-0.144
-137.429	165.617	0.165	-0.230
-136.414	753.486	-0.150	-0.399
-135.399	-40.584	0.273	0.139
-134.385	800.000	0.045	-0.137
-133.370	-182.842	0.282	0.005
-132.356	-200.000	0.003	0.205
-131.341	800.000	0.122	-0.408
-130.326	42.582	-0.197	0.177
-129.312	78.095	0.138	0.145
-128.297	89.754	0.070	0.077
-127.283	444.229	0.021	-0.046
-126.268	50.826	-0.108	-0.100
-125.253	-71.142	0.163	-0.060
-124.239	-175.051	0.310	-0.009
-123.224	800.000	0.133	-0.380
-122.210	80.592	0.227	-0.240
-121.195	134.529	0.172	0.219
