DTS Sentinel unit serial number:	SN413079Multiplexer serial number:	ORYXHardware model number:	OX4-SRSoftware version number:	ORYX F/W v4.00 Oryx Data Collector v3.7.2.0data status	okinstallation	princeton_trtdifferential loss correction	single-endedforward channel	channel 2reverse channel	N/Adate	2019/09/11time	09:33:10forward acquisition time	60.00reverse acquisition time	0.00gamma	496.2192k internal	0.2317k external	0.2317temperature offset calibration	0.9966default loss term (dB/km)	0.3790temperature slope calibration	1.0000multiplexer offset coefficient	1.0000multiplexer slope coefficient	1.0000fibre end	0.00T internal ref (°C)	34.75T ext. ref 1 (°C)	0.12T ext. ref 2 (°C)	30.74length (m)	temperature (°C)	Stokes	anti-Stokes-747.200	800.000	0.077	0.286
-746.185	-29.270	0.337	0.195
-745.171	-139.153	0.436	0.048
-744.156	-200.000	0.017	-0.149
-743.142	-200.000	0.022	-0.265
-742.127	17.273	0.313	0.251
-741.112	-66.373	-0.391	0.157
-740.098	62.917	0.021	-0.021
-739.083	-113.208	0.229	-0.046
-738.069	24.618	-0.104	0.087
-737.054	800.000	-0.039	-0.159
-736.039	-108.048	-0.266	-0.058
-735.025	800.000	-0.077	-0.340
-734.010	-90.575	-0.494	0.145
-732.996	800.000	-0.052	-0.174
-731.981	548.082	0.046	0.110
-730.966	-166.752	-0.087	-0.004
-729.952	102.844	-0.086	0.102
-728.937	-68.898	0.129	-0.051
-727.923	800.000	-0.081	-0.237
-726.908	800.000	0.027	0.105
-725.894	-200.000	-0.029	0.143
-724.879	101.217	0.105	0.123
-723.864	-98.331	-0.253	-0.066
-722.850	-187.936	-0.357	-0.005
-721.835	186.469	-0.083	0.125
-720.821	182.115	-0.217	0.323
-719.806	800.000	-0.111	-0.346
-718.791	311.323	-0.029	-0.056
-717.777	800.000	0.062	-0.201
-716.762	-200.000	-0.014	-0.284
-715.748	92.929	-0.192	-0.219
-714.733	132.464	-0.206	0.269
-713.718	800.000	0.087	0.272
-712.704	-31.590	-0.152	-0.086
-711.689	-63.246	-0.204	-0.085
-710.675	-200.000	-0.043	-0.242
-709.660	-96.179	-0.152	0.041
-708.645	51.000	0.342	0.327
-707.631	90.392	-0.107	0.121
-706.616	-166.692	-0.412	0.017
-705.602	-34.646	0.214	0.118
-704.587	-200.000	0.019	-0.083
-703.572	213.624	-0.090	0.143
-702.558	800.000	-0.117	-0.392
-701.543	16.822	-0.202	-0.162
-700.529	297.879	0.041	-0.076
-699.514	17.946	-0.119	0.096
-698.499	-46.896	0.060	-0.030
-697.485	216.538	0.069	-0.110
-696.470	-43.420	0.147	-0.075
-695.456	35.511	-0.353	0.314
-694.441	53.856	-0.115	-0.111
-693.426	-200.000	-0.054	-0.440
-692.412	-51.270	-0.179	0.085
-691.397	-64.468	-0.091	-0.038
-690.383	-105.502	-0.180	-0.041
-689.368	800.000	-0.003	-0.011
-688.354	153.461	-0.073	0.101
-687.339	-58.057	-0.224	-0.099
-686.324	-43.744	-0.183	-0.093
-685.310	311.958	-0.049	0.093
-684.295	-24.053	-0.150	0.091
-683.281	312.534	0.070	0.133
-682.266	-81.505	0.260	0.086
-681.251	800.000	-0.063	-0.257
-680.237	-67.853	-0.108	-0.042
-679.222	130.731	0.239	0.309
-678.208	-78.405	0.103	-0.036
-677.193	-85.961	0.071	0.022
-676.178	-73.771	-0.199	-0.073
-675.164	8.270	-0.076	-0.058
-674.149	132.360	0.129	-0.168
-673.135	185.669	-0.249	0.374
-672.120	-81.830	0.420	0.139
-671.105	-132.788	-0.253	-0.033
-670.091	428.614	0.102	-0.223
-669.076	-104.187	-0.185	-0.043
-668.062	-50.279	0.215	-0.103
-667.047	-200.000	-0.010	-0.198
-666.032	-69.138	0.119	-0.046
-665.018	304.869	-0.116	0.218
-664.003	452.008	0.122	0.273
-662.989	800.000	0.041	0.137
-661.974	-22.320	0.089	-0.055
-660.959	-160.984	0.289	-0.015
-659.945	-200.000	0.013	0.135
-658.930	-98.280	-0.296	0.077
-657.916	-200.000	0.021	-0.145
-656.901	-164.420	-0.167	0.008
-655.886	-153.114	-0.236	-0.017
-654.872	-200.000	0.050	-0.306
-653.857	171.371	0.092	0.134
-652.843	-99.586	0.117	0.030
-651.828	158.291	0.113	-0.158
-650.814	-153.407	0.170	-0.012
-649.799	-200.000	0.075	-0.412
-648.784	-69.324	0.164	0.063
-647.770	-23.882	-0.124	-0.075
-646.755	-142.890	-0.442	-0.043
-645.741	436.869	-0.161	-0.355
-644.726	173.744	-0.018	-0.026
-643.711	-110.334	-0.242	-0.051
-642.697	140.056	0.314	-0.417
-641.682	486.473	0.031	-0.070
-640.668	-200.000	-0.023	0.181
-639.653	-97.137	-0.346	0.091
-638.638	129.132	0.100	-0.128
-637.624	-81.248	0.131	-0.044
-636.609	-200.000	0.058	-0.575
-635.595	-90.262	0.189	-0.055
-634.580	800.000	0.043	-0.140
-633.565	160.385	-0.155	0.218
-632.551	575.302	-0.074	0.182
-631.536	-200.000	-0.054	0.355
-630.522	753.037	-0.046	0.126
-629.507	111.134	-0.079	0.096
-628.492	129.387	0.045	-0.058
-627.478	-13.436	0.239	0.157
-626.463	-116.732	-0.214	0.040
-625.449	-200.000	-0.022	-0.174
-624.434	512.649	-0.039	0.090
-623.419	-200.000	0.049	0.247
-622.405	-19.626	0.183	0.114
-621.390	11.750	-0.323	0.250
-620.376	-200.000	0.011	0.230
-619.361	-89.462	-0.218	-0.065
-618.346	450.904	-0.018	-0.039
-617.332	800.000	-0.080	0.291
-616.317	-128.388	0.259	0.037
-615.303	-19.267	0.061	-0.038
-614.288	-21.084	-0.280	-0.173
-613.273	-90.619	-0.131	-0.038
-612.259	-29.530	-0.237	-0.136
-611.244	-39.876	-0.197	0.103
-610.230	-145.020	0.259	-0.024
-609.215	-133.410	-0.074	0.009
-608.201	78.608	0.198	0.213
-607.186	-200.000	-0.010	-0.414
-606.171	103.376	-0.242	0.286
-605.157	-200.000	0.045	0.337
-604.142	742.001	0.042	0.114
-603.128	-27.981	-0.162	0.094
-602.113	152.109	-0.061	-0.084
-601.098	23.435	-0.242	-0.200
-600.084	59.529	-0.139	0.138
-599.069	-55.600	-0.231	0.104
-598.055	193.221	-0.209	0.318
-597.040	-37.138	0.149	-0.080
-596.025	-64.962	-0.147	-0.060
-595.011	150.988	0.065	0.088
-593.996	800.000	0.041	-0.181
-592.982	-26.622	0.162	0.095
-591.967	-28.274	0.060	0.035
-590.952	-59.225	-0.190	-0.082
-589.938	48.205	-0.120	-0.113
-588.923	-35.084	0.174	0.096
-587.909	-103.746	0.199	0.047
-586.894	438.170	-0.051	-0.111
-585.879	2.542	0.116	0.084
-584.865	-32.314	0.033	-0.018
-583.850	276.485	0.085	-0.151
-582.836	-86.349	0.121	0.038
-581.821	415.490	0.092	0.198
-580.806	561.460	0.186	-0.453
-579.792	-8.656	0.011	-0.008
-578.777	78.418	0.148	-0.159
-577.763	535.721	0.082	-0.195
-576.748	113.654	-0.149	0.182
-575.733	-113.840	-0.317	0.062
-574.719	15.316	0.324	-0.256
-573.704	60.895	-0.122	0.122
-572.690	-44.156	-0.064	-0.032
-571.675	800.000	-0.020	0.081
-570.661	-200.000	-0.094	0.513
-569.646	116.432	0.097	-0.119
-568.631	-124.877	0.482	-0.075
-567.617	799.964	0.056	-0.155
-566.602	-125.643	-0.162	0.025
-565.588	218.503	0.042	0.068
-564.573	14.105	-0.283	0.221
-563.558	-19.929	0.113	-0.070
-562.544	83.411	0.096	0.105
-561.529	137.519	-0.150	0.197
-560.515	-35.298	0.291	-0.159
-559.500	35.925	-0.042	-0.037
-558.485	800.000	0.039	0.152
-557.471	-200.000	0.008	-0.080
-556.456	-71.789	0.024	-0.009
-555.442	-51.894	-0.277	-0.129
-554.427	-21.709	-0.269	-0.165
-553.412	-125.493	-0.501	0.077
-552.398	4.350	0.340	-0.251
-551.383	-180.521	-0.177	0.004
-550.369	-94.756	-0.214	-0.058
-549.354	176.380	0.088	-0.128
-548.339	486.444	-0.090	-0.207
-547.325	-32.200	0.256	0.144
-546.310	247.082	-0.132	0.223
-545.296	-195.250	-0.310	0.002
-544.281	-124.002	0.265	-0.042
-543.266	-200.000	0.001	-0.120
-542.252	273.727	-0.119	-0.212
-541.237	-200.000	-0.038	0.249
-540.223	-200.000	0.015	-0.277
-539.208	513.226	-0.090	-0.210
-538.193	210.891	0.135	0.213
-537.179	-170.893	0.275	0.009
-536.164	57.315	-0.027	0.027
-535.150	-200.000	0.006	0.243
-534.135	54.043	0.089	0.085
-533.121	-200.000	0.071	-0.411
-532.106	80.310	0.168	-0.182
-531.091	-52.152	0.184	0.086
-530.077	-200.000	-0.005	0.058
-529.062	369.095	-0.063	0.128
-528.048	-31.924	-0.092	-0.052
-527.033	41.317	-0.174	0.158
-526.018	267.469	-0.118	0.207
-525.004	-200.000	0.006	0.052
-523.989	169.106	0.114	0.163
-522.975	-7.210	0.304	-0.207
-521.960	598.300	-0.035	0.087
-520.945	206.773	0.034	0.054
-519.931	-39.102	0.091	0.048
-518.916	800.000	-0.117	0.432
-517.902	111.175	0.160	-0.193
-516.887	-28.594	0.112	0.065
-515.872	30.009	-0.314	0.269
-514.858	-143.475	-0.210	0.020
-513.843	-200.000	-0.032	-0.298
-512.829	276.132	-0.150	0.268
-511.814	-200.000	-0.024	0.195
-510.799	800.000	0.073	0.233
-509.785	15.064	0.369	-0.290
-508.770	26.204	-0.179	0.150
-507.756	104.389	-0.196	-0.232
-506.741	-173.903	0.086	-0.003
-505.726	454.154	0.033	-0.074
-504.712	-44.156	0.093	0.047
-503.697	97.771	-0.102	-0.118
-502.683	-200.000	0.021	0.198
-501.668	-76.030	0.395	0.140
-500.653	800.000	0.077	0.293
-499.639	-175.440	0.252	0.007
-498.624	-37.372	-0.114	0.061
-497.610	-157.772	0.355	-0.021
-496.595	-99.905	0.119	0.030
-495.581	-200.000	0.004	0.020
-494.566	-34.528	-0.068	-0.037
-493.551	-159.864	-0.444	-0.024
-492.537	236.007	0.094	-0.155
-491.522	-200.000	0.027	-0.262
-490.508	40.924	0.120	-0.109
-489.493	-69.155	-0.346	-0.133
-488.478	-200.000	-0.038	-0.210
-487.464	-200.000	-0.019	-0.090
-486.449	60.966	0.291	0.290
-485.435	-101.506	-0.236	0.058
-484.420	18.131	-0.141	0.113
-483.405	-84.113	-0.162	0.051
-482.391	29.932	-0.054	0.046
-481.376	-61.936	-0.178	0.075
-480.362	-200.000	-0.007	0.090
-479.347	88.715	-0.152	-0.170
-478.332	-101.801	0.147	-0.036
-477.318	281.920	-0.030	0.053
-476.303	0.347	0.134	0.096
-475.289	-20.101	-0.197	0.122
-474.274	-198.124	-0.358	-0.002
-473.259	-200.000	0.016	0.233
-472.245	126.704	-0.017	0.022
-471.230	-145.540	0.143	0.013
-470.216	-15.607	-0.292	-0.187
-469.201	400.305	-0.009	-0.020
-468.186	62.182	0.231	-0.230
-467.172	800.000	-0.066	0.233
-466.157	323.355	0.327	-0.625
-465.143	-155.216	-0.181	-0.012
-464.128	800.000	0.028	-0.083
-463.113	-100.516	-0.175	-0.043
-462.099	126.671	-0.070	0.089
-461.084	-133.859	-0.121	0.015
-460.070	155.383	0.003	0.005
-459.055	-52.606	0.105	0.048
-458.040	-136.154	-0.122	-0.014
-457.026	-32.682	-0.287	-0.160
-456.011	104.766	0.242	-0.286
-454.997	42.358	-0.223	-0.203
-453.982	-37.158	0.287	-0.154
-452.968	-153.946	-0.420	-0.029
-451.953	-156.346	-0.374	-0.023
-450.938	-131.464	-0.307	-0.041
-449.924	-200.000	-0.002	-0.368
-448.909	800.000	-0.094	-0.341
-447.895	735.770	0.039	-0.106
-446.880	-49.897	-0.113	-0.053
-445.865	57.465	-0.109	-0.106
-444.851	-73.950	-0.203	-0.074
-443.836	48.486	-0.103	-0.096
-442.822	-101.133	0.462	-0.113
-441.807	242.602	0.175	-0.292
-440.792	800.000	-0.056	-0.184
-439.778	397.011	-0.053	0.111
-438.763	-64.365	0.058	-0.024
-437.749	-200.000	0.032	0.157
-436.734	-16.603	-0.074	-0.047
-435.719	-46.944	-0.358	-0.175
-434.705	43.235	-0.160	0.146
-433.690	-23.061	-0.134	0.081
-432.676	-200.000	0.044	-0.282
-431.661	150.413	-0.035	0.048
-430.646	800.000	-0.067	0.214
-429.632	-183.274	-0.049	0.001
-428.617	-98.815	0.159	0.040
-427.603	185.507	-0.113	0.168
-426.588	442.573	-0.102	-0.224
-425.573	290.029	0.151	-0.273
-424.559	203.570	-0.055	0.084
-423.544	-9.769	-0.059	0.039
-422.530	-109.180	0.096	0.020
-421.515	-200.000	-0.000	-0.214
-420.500	-60.280	0.201	0.085
-419.486	249.269	-0.100	-0.170
-418.471	105.584	0.198	0.234
-417.457	-5.239	0.238	-0.164
-416.442	-200.000	-0.089	0.450
-415.428	-52.922	-0.073	0.033
-414.413	-9.365	-0.263	-0.176
-413.398	-115.469	0.396	-0.075
-412.384	-200.000	-0.010	0.145
-411.369	30.279	0.161	0.138
-410.355	-131.057	0.163	0.022
-409.340	46.497	-0.163	0.151
-408.325	-85.600	-0.173	-0.054
-407.311	-200.000	-0.012	0.109
-406.296	-54.590	0.133	-0.060
-405.282	529.292	0.046	0.109
-404.267	545.487	0.081	0.194
-403.252	327.469	0.115	0.220
-402.238	-36.770	-0.077	0.041
-401.223	-68.364	-0.160	0.062
-400.209	-200.000	0.019	-0.173
-399.194	-88.621	0.301	0.090
-398.179	-133.712	0.168	0.021
-397.165	-53.063	-0.258	0.118
-396.150	-105.776	-0.019	0.004
-395.136	272.599	-0.125	0.220
-394.121	-62.894	0.273	0.113
-393.106	-200.000	-0.022	-0.214
-392.092	382.216	-0.103	0.212
-391.077	-103.803	0.150	0.035
-390.063	1.752	0.289	0.208
-389.048	-200.000	0.005	-0.044
-388.033	388.322	0.086	-0.179
-387.019	-96.394	-0.251	-0.066
-386.004	-36.339	0.179	-0.096
-384.990	-35.907	-0.297	0.160
-383.975	-200.000	0.012	0.155
-382.960	64.139	-0.232	0.233
-381.946	-22.973	-0.058	-0.035
-380.931	37.979	0.060	-0.053
-379.917	800.000	0.074	-0.319
-378.902	-124.115	-0.111	0.017
-377.888	-200.000	-0.081	-0.370
-376.873	449.043	0.119	-0.262
-375.858	-39.421	-0.446	-0.233
-374.844	-138.172	-0.191	-0.021
-373.829	-200.000	-0.038	-0.381
-372.815	-67.663	-0.228	0.089
-371.800	-123.398	0.279	-0.044
-370.785	-83.021	-0.059	-0.019
-369.771	507.970	-0.075	0.174
-368.756	260.820	-0.225	-0.388
-367.742	94.542	-0.153	-0.174
-366.727	206.516	0.099	0.154
-365.712	-91.472	0.257	-0.073
-364.698	-200.000	0.002	0.054
-363.683	-200.000	-0.003	0.062
-362.669	77.435	-0.158	-0.168
-361.654	-200.000	0.009	0.302
-360.639	207.189	-0.096	0.149
-359.625	452.109	-0.017	0.037
-358.610	220.554	0.033	-0.053
-357.596	-200.000	-0.013	-0.200
-356.581	-0.962	0.299	0.211
-355.566	28.772	-0.086	0.073
-354.552	-77.929	-0.078	0.027
-353.537	-54.615	0.362	-0.163
-352.523	98.923	0.057	0.066
-351.508	389.145	0.058	-0.120
-350.493	426.228	0.072	-0.155
-349.479	-67.953	0.110	-0.043
-348.464	-200.000	-0.006	0.156
-347.450	455.006	0.033	0.073
-346.435	-64.182	0.162	0.066
-345.420	-200.000	-0.040	-0.185
-344.406	-200.000	0.071	0.315
-343.391	-152.135	0.177	0.013
-342.377	42.331	0.207	-0.187
-341.362	800.000	-0.059	0.202
-340.348	-200.000	0.035	0.191
-339.333	-105.960	0.111	0.025
-338.318	-186.393	0.054	-0.001
-337.304	-116.590	-0.039	0.007
-336.289	93.699	-0.044	0.049
-335.275	-200.000	0.037	0.214
-334.260	-70.352	0.330	0.125
-333.245	-60.238	-0.161	0.068
-332.231	-132.562	-0.395	0.051
-331.216	-64.799	0.158	-0.064
-330.202	-200.000	-0.017	0.221
-329.187	396.012	-0.018	-0.037
-328.172	800.000	-0.043	-0.187
-327.158	228.012	0.114	-0.185
-326.143	-153.404	-0.060	-0.004
-325.129	-84.612	-0.111	-0.035
-324.114	-16.398	0.081	0.051
-323.099	-123.819	0.271	-0.043
-322.085	800.000	-0.071	-0.290
-321.070	-165.207	-0.447	-0.020
-320.056	-102.680	-0.280	0.067
-319.041	-73.223	-0.037	-0.014
-318.026	84.670	0.131	0.142
-317.012	-31.412	-0.211	-0.118
-315.997	-200.000	-0.012	-0.144
-314.983	-86.438	0.456	0.140
-313.968	-134.128	-0.048	0.006
-312.953	-35.648	0.299	0.161
-311.939	-40.960	0.188	0.097
-310.924	89.381	0.081	-0.089
-309.910	-142.860	0.125	0.012
-308.895	-200.000	0.004	0.179
-307.880	303.316	-0.034	-0.063
-306.866	-27.621	0.125	0.072
-305.851	800.000	-0.092	0.284
-304.837	-42.648	-0.113	-0.057
-303.822	49.643	0.261	-0.245
-302.807	-99.104	0.080	-0.020
-301.793	367.137	-0.041	0.082
-300.778	184.789	-0.106	-0.156
-299.764	497.865	-0.071	-0.162
-298.749	155.665	-0.072	-0.099
-297.735	13.201	0.156	-0.120
-296.720	177.199	0.114	0.165
-295.705	-22.976	-0.154	0.092
-294.691	-10.667	0.308	0.203
-293.676	159.047	0.068	0.094
-292.662	-164.054	-0.240	-0.011
-291.647	14.028	-0.328	0.254
-290.632	-83.250	-0.094	-0.030
-289.618	171.710	0.257	-0.367
-288.603	-116.072	0.307	0.057
-287.589	-165.543	-0.175	-0.008
-286.574	-27.962	0.200	-0.115
-285.559	-86.485	0.178	0.054
-284.545	226.847	0.043	-0.070
-283.530	145.117	0.033	0.044
-282.516	-200.000	0.034	0.157
-281.501	-78.929	0.327	-0.111
-280.486	46.406	-0.433	0.399
-279.472	23.112	0.073	0.060
-278.457	9.785	0.125	0.094
-277.443	-24.891	-0.244	0.144
-276.428	-94.756	0.281	-0.076
-275.413	-168.806	0.033	-0.001
-274.399	-140.492	0.316	0.033
-273.384	768.061	-0.137	-0.370
-272.370	800.000	0.073	-0.297
-271.355	7.902	-0.145	-0.108
-270.340	-27.310	-0.180	0.104
-269.326	-200.000	-0.017	0.268
-268.311	14.819	0.056	0.043
-267.297	-77.806	0.441	-0.151
-266.282	-67.874	-0.078	0.030
-265.267	-200.000	-0.033	-0.491
-264.253	-83.847	0.488	0.155
-263.238	-200.000	-0.062	0.274
-262.224	653.931	0.056	0.143
-261.209	106.687	0.100	0.118
-260.195	-121.787	0.270	0.044
-259.180	-150.377	-0.095	-0.007
-258.165	-87.674	0.120	-0.036
-257.151	800.000	0.085	0.250
-256.136	-40.879	-0.372	-0.191
-255.122	-44.362	0.200	0.100
-254.107	237.729	0.050	-0.082
-253.092	10.460	-0.374	-0.283
-252.078	-46.129	-0.355	0.174
-251.063	81.250	-0.273	0.293
-250.049	-73.238	-0.099	-0.036
-249.034	191.522	0.059	0.089
-248.019	-200.000	-0.028	0.195
-247.005	-200.000	-0.049	-0.215
-245.990	-163.757	0.278	-0.013
-244.976	523.310	0.101	0.236
-243.961	484.024	0.146	-0.331
-242.946	57.953	-0.119	-0.115
-241.932	-68.233	0.100	0.039
-240.917	-107.691	-0.204	0.044
-239.903	800.000	-0.016	0.054
-238.888	86.944	0.064	-0.071
-237.873	72.067	0.159	-0.164
-236.859	800.000	-0.035	0.128
-235.844	34.645	0.163	-0.141
-234.830	-94.945	0.093	-0.025
-233.815	-140.357	0.117	0.012
-232.800	480.155	0.072	-0.162
-231.786	89.942	0.111	0.123
-230.771	-130.880	0.078	-0.010
-229.757	-200.000	-0.000	-0.030
-228.742	-156.216	0.207	-0.013
-227.727	26.975	0.243	-0.203
-226.713	800.000	0.051	-0.179
-225.698	-46.535	-0.284	-0.138
-224.684	195.700	-0.100	0.151
-223.669	700.490	-0.121	-0.316
-222.655	-200.000	-0.001	-0.097
-221.640	-93.970	-0.224	-0.061
-220.625	-27.348	0.333	-0.192
-219.611	-106.455	-0.222	-0.049
-218.596	-81.601	0.298	0.097
-217.582	-83.776	0.074	0.023
-216.567	-27.082	0.073	-0.042
-215.552	-200.000	-0.158	0.000
-214.538	-190.840	0.145	-0.002
-213.523	-194.307	0.435	-0.003
-212.509	390.621	-0.219	-0.451
-211.494	150.328	0.073	-0.098
-210.479	149.334	-0.036	0.049
-209.465	186.816	-0.072	0.107
-208.450	21.032	-0.122	-0.098
-207.436	800.000	-0.096	0.314
-206.421	-103.865	0.065	0.015
-205.406	-166.727	-0.313	0.013
-204.392	46.251	-0.100	0.092
-203.377	-200.000	0.002	0.153
-202.363	-200.000	-0.023	0.139
-201.348	68.760	0.259	0.264
-200.333	24.736	-0.116	-0.096
-199.319	277.463	-0.084	-0.149
-198.304	271.899	-0.136	-0.238
-197.290	-200.000	-0.016	0.194
-196.275	-163.194	0.214	0.010
-195.260	800.000	-0.066	0.253
-194.246	-163.343	0.338	0.016
-193.231	-120.194	-0.173	0.029
-192.217	-200.000	-0.023	-0.217
-191.202	-200.000	0.005	0.266
-190.187	20.083	-0.196	0.156
-189.173	-175.251	0.138	0.004
-188.158	-200.000	0.014	-0.177
-187.144	364.367	-0.100	0.200
-186.129	800.000	0.078	0.216
-185.114	437.569	-0.095	-0.206
-184.100	-77.566	0.190	-0.065
-183.085	-104.494	-0.301	0.069
-182.071	495.384	0.093	-0.211
-181.056	-27.209	0.286	-0.165
-180.042	470.335	-0.202	0.450
-179.027	-85.078	0.173	-0.054
-178.012	-108.547	0.259	-0.055
-176.998	342.136	0.051	0.098
-175.983	-32.980	0.233	-0.128
-174.969	0.540	-0.091	-0.064
-173.954	-156.773	0.290	-0.018
-172.939	-200.000	0.010	0.305
-171.925	-142.194	0.025	-0.002
-170.910	210.853	0.048	-0.075
-169.896	-36.894	-0.169	0.090
-168.881	-130.507	0.176	-0.024
-167.866	-154.881	-0.177	0.012
-166.852	13.534	-0.292	0.224
-165.837	-36.491	-0.101	-0.054
-164.823	-29.319	-0.279	0.158
-163.808	-142.852	0.280	0.027
-162.793	-136.705	0.159	-0.018
-161.779	315.872	-0.063	-0.117
-160.764	-46.382	-0.123	-0.060
-159.750	-200.000	-0.015	0.211
-158.735	67.408	0.082	0.083
-157.720	-200.000	0.026	-0.216
-156.706	-65.975	0.333	0.132
-155.691	-200.000	-0.023	0.136
-154.677	83.841	-0.099	0.107
-153.662	81.159	0.090	0.096
-152.647	-51.006	-0.059	0.027
-151.633	706.646	-0.068	0.178
-150.618	-200.000	-0.024	-0.180
-149.604	118.529	0.037	0.045
-148.589	210.380	-0.124	-0.193
-147.574	42.486	0.318	-0.286
-146.560	8.103	-0.381	-0.283
-145.545	66.860	0.082	-0.082
-144.531	-81.763	0.063	0.020
-143.516	-200.000	-0.036	0.263
-142.502	55.097	-0.075	0.072
-141.487	-200.000	0.026	-0.376
-140.472	396.003	-0.149	-0.308
-139.458	800.000	-0.124	-0.420
-138.443	-149.378	0.120	0.009
-137.429	-200.000	0.069	0.308
-136.414	-79.144	0.164	-0.055
-135.399	9.734	-0.221	0.166
-134.385	-163.787	0.395	0.018
-133.370	8.807	-0.141	0.105
-132.356	-200.000	-0.004	-0.139
-131.341	8.733	-0.239	0.178
-130.326	84.597	0.099	0.107
-129.312	800.000	-0.046	0.168
-128.297	82.398	-0.079	-0.084
-127.283	-200.000	0.104	-0.489
-126.268	800.000	-0.010	-0.040
-125.253	-51.633	0.239	-0.110
-124.239	0.685	-0.199	0.141
-123.224	-200.000	0.018	-0.174
-122.210	208.902	0.148	-0.229
