DTS Sentinel unit serial number:	SN413079Multiplexer serial number:	ORYXHardware model number:	OX4-SRSoftware version number:	ORYX F/W v4.00 Oryx Data Collector v3.7.2.0data status	okinstallation	princeton_trtdifferential loss correction	single-endedforward channel	channel 2reverse channel	N/Adate	2019/09/11time	01:49:11forward acquisition time	60.00reverse acquisition time	0.00gamma	496.2192k internal	0.2331k external	0.2331temperature offset calibration	0.9941default loss term (dB/km)	0.3790temperature slope calibration	1.0000multiplexer offset coefficient	1.0000multiplexer slope coefficient	1.0000fibre end	0.00T internal ref (°C)	29.19T ext. ref 1 (°C)	-0.29T ext. ref 2 (°C)	23.16length (m)	temperature (°C)	Stokes	anti-Stokes-747.200	-86.269	0.041	-0.013
-746.185	464.937	-0.094	0.211
-745.171	-200.000	0.073	0.452
-744.156	550.430	-0.135	0.326
-743.142	278.860	0.127	0.229
-742.127	-93.352	0.175	-0.049
-741.112	6.649	0.100	0.075
-740.098	322.105	-0.094	0.181
-739.083	-76.571	-0.199	-0.070
-738.069	-159.919	0.264	0.015
-737.054	-8.058	-0.332	0.225
-736.039	132.916	-0.149	-0.193
-735.025	-79.990	-0.332	0.112
-734.010	-200.000	0.012	-0.085
-732.996	296.550	-0.127	-0.235
-731.981	-165.173	-0.220	-0.010
-730.966	-23.675	-0.108	-0.065
-729.952	-166.628	-0.135	-0.006
-728.937	3.022	-0.101	-0.074
-727.923	4.930	0.270	0.200
-726.908	153.776	-0.194	-0.267
-725.894	-33.305	-0.102	0.057
-724.879	-200.000	-0.005	-0.123
-723.864	358.756	-0.082	-0.165
-722.850	800.000	0.040	-0.145
-721.835	-96.443	-0.210	-0.056
-720.821	-12.606	-0.512	-0.336
-719.806	58.780	-0.103	0.101
-718.791	349.134	-0.050	0.098
-717.777	206.487	-0.033	-0.052
-716.762	-64.999	0.171	-0.069
-715.748	-200.000	-0.006	-0.181
-714.733	-51.062	-0.035	-0.017
-713.718	800.000	-0.193	-0.535
-712.704	-12.614	0.260	-0.171
-711.689	66.383	0.275	-0.281
-710.675	-18.098	-0.144	-0.090
-709.660	-60.983	0.164	-0.070
-708.645	-200.000	0.047	-0.210
-707.631	800.000	0.123	0.488
-706.616	387.576	-0.204	0.424
-705.602	800.000	-0.063	0.236
-704.587	30.227	0.233	-0.200
-703.572	131.105	-0.204	-0.264
-702.558	-33.579	0.185	0.103
-701.543	-33.427	-0.237	-0.132
-700.529	-159.720	-0.127	-0.007
-699.514	62.301	-0.244	-0.244
-698.499	388.754	-0.208	-0.432
-697.485	-94.467	0.090	-0.025
-696.470	-123.467	0.412	0.066
-695.456	-70.753	0.261	0.099
-694.441	689.969	0.106	0.279
-693.426	-143.472	-0.336	0.032
-692.412	62.613	0.226	-0.227
-691.397	-79.488	-0.052	-0.017
-690.383	1.577	0.095	0.068
-689.368	-200.000	0.042	-0.377
-688.354	-132.166	-0.265	0.034
-687.339	47.358	-0.100	-0.094
-686.324	-198.782	-0.229	0.001
-685.310	-187.280	0.075	-0.001
-684.295	800.000	-0.038	-0.115
-683.281	-53.936	-0.076	-0.035
-682.266	800.000	0.079	0.291
-681.251	-60.887	0.335	0.142
-680.237	-200.000	-0.013	-0.088
-679.222	-116.224	-0.111	-0.021
-678.208	20.180	0.080	0.065
-677.193	137.361	0.171	-0.225
-676.178	-62.378	-0.039	-0.016
-675.164	611.354	0.017	-0.042
-674.149	-200.000	-0.000	0.017
-673.135	179.903	0.103	-0.151
-672.120	800.000	-0.088	-0.274
-671.105	-103.885	0.115	0.027
-670.091	318.892	0.150	-0.286
-669.076	800.000	-0.107	-0.450
-668.062	464.166	-0.010	-0.023
-667.047	-140.481	-0.237	0.025
-666.032	91.142	-0.069	0.077
-665.018	-17.027	0.153	-0.097
-664.003	-62.121	-0.051	0.021
-662.989	28.115	0.200	0.169
-661.974	530.704	-0.118	0.279
-660.959	800.000	-0.107	-0.330
-659.945	103.103	-0.087	-0.102
-658.930	-66.291	0.259	-0.103
-657.916	800.000	-0.020	0.063
-656.901	-103.696	0.252	-0.059
-655.886	-49.599	-0.058	-0.027
-654.872	50.590	-0.039	-0.037
-653.857	800.000	-0.106	-0.293
-652.843	-39.443	0.129	0.068
-651.828	800.000	-0.152	0.448
-650.814	-49.950	0.176	-0.083
-649.799	191.369	0.156	-0.236
-648.784	39.601	-0.102	-0.092
-647.770	800.000	-0.130	0.360
-646.755	-121.085	-0.280	0.047
-645.741	800.000	0.059	0.223
-644.726	-200.000	0.025	0.332
-643.711	14.005	0.250	0.195
-642.697	-200.000	0.017	0.164
-641.682	800.000	-0.103	-0.329
-640.668	38.962	0.258	-0.231
-639.653	-18.235	0.163	0.102
-638.638	-52.750	0.275	0.127
-637.624	-9.640	-0.212	-0.141
-636.609	-119.828	-0.076	-0.013
-635.595	-85.097	0.407	-0.128
-634.580	-59.734	-0.161	0.069
-633.565	-200.000	-0.060	-0.278
-632.551	-69.944	-0.392	-0.150
-631.536	244.683	-0.076	-0.127
-630.522	-115.346	-0.368	-0.070
-629.507	337.383	0.104	-0.202
-628.492	-200.000	0.016	-0.172
-627.478	148.612	-0.073	-0.099
-626.463	-63.833	0.173	0.071
-625.449	-87.940	0.146	-0.044
-624.434	-142.430	-0.262	-0.026
-623.419	-155.477	0.634	0.041
-622.405	23.454	-0.287	0.236
-621.390	146.017	0.111	0.150
-620.376	800.000	0.098	-0.350
-619.361	-82.609	-0.242	-0.079
-618.346	-200.000	-0.079	-0.483
-617.332	-200.000	-0.026	-0.328
-616.317	218.830	0.045	-0.071
-615.303	-91.507	0.054	-0.015
-614.288	-31.851	-0.171	-0.096
-613.273	-200.000	-0.018	0.302
-612.259	57.295	0.139	0.136
-611.244	800.000	-0.054	-0.183
-610.230	800.000	-0.033	0.114
-609.215	309.873	0.036	-0.067
-608.201	-89.455	0.092	0.027
-607.186	128.135	0.310	-0.395
-606.171	386.487	-0.082	0.170
-605.157	176.739	-0.153	0.223
-604.142	-200.000	0.009	-0.180
-603.128	-64.882	-0.373	-0.151
-602.113	-67.065	-0.053	0.021
-601.098	-104.967	-0.106	-0.024
-600.084	384.421	0.065	0.134
-599.069	10.454	0.070	-0.053
-598.055	133.549	0.181	-0.234
-597.040	232.749	0.030	-0.049
-596.025	-69.875	0.197	-0.075
-595.011	-200.000	0.011	0.153
-593.996	-148.771	0.115	-0.009
-592.982	800.000	0.062	0.183
-591.967	178.182	0.142	-0.207
-590.952	-21.903	-0.173	0.105
-589.938	-25.920	-0.295	0.174
-588.923	-180.035	-0.331	-0.007
-587.909	-172.473	0.304	0.010
-586.894	-90.462	0.291	0.084
-585.879	-200.000	0.006	-0.194
-584.865	518.658	0.052	0.121
-583.850	-27.411	-0.076	0.044
-582.836	-172.703	0.229	-0.007
-581.821	-74.147	-0.146	0.053
-580.806	-156.715	-0.177	0.011
-579.792	-200.000	-0.002	0.040
-578.777	-200.000	0.048	-0.256
-577.763	45.639	-0.139	0.128
-576.748	59.487	0.092	0.091
-575.733	-28.702	0.078	0.045
-574.719	214.840	-0.094	-0.148
-573.704	-200.000	0.013	-0.193
-572.690	373.118	-0.090	-0.183
-571.675	8.393	-0.114	0.085
-570.661	-38.095	-0.272	-0.144
-569.646	39.038	-0.218	0.195
-568.631	-200.000	0.028	-0.320
-567.617	32.958	-0.305	0.264
-566.602	365.989	-0.108	-0.218
-565.588	-8.914	-0.241	-0.161
-564.573	-192.744	-0.464	0.004
-563.558	-84.775	-0.153	0.048
-562.544	-79.167	0.357	-0.121
-561.529	638.817	-0.025	-0.063
-560.515	-80.419	-0.266	-0.089
-559.500	-78.944	0.406	-0.138
-558.485	-200.000	-0.013	-0.134
-557.471	-127.312	-0.208	-0.030
-556.456	-17.901	-0.354	0.222
-555.442	743.044	-0.084	0.225
-554.427	-33.100	0.119	-0.066
-553.412	800.000	0.032	0.135
-552.398	-87.477	0.084	0.025
-551.383	228.323	-0.117	0.190
-550.369	-200.000	-0.007	-0.190
-549.354	-148.102	-0.339	-0.028
-548.339	29.392	0.191	-0.162
-547.325	-154.340	0.084	-0.006
-546.310	89.832	0.164	0.182
-545.296	-73.983	-0.290	-0.105
-544.281	77.478	0.099	-0.105
-543.266	-7.493	0.283	-0.191
-542.252	-152.611	0.365	0.026
-541.237	-68.868	0.193	0.074
-540.223	669.962	0.052	0.134
-539.208	-103.896	-0.200	0.047
-538.193	-200.000	-0.018	-0.125
-537.179	258.789	-0.089	0.152
-536.164	-161.236	0.330	-0.017
-535.150	-59.000	-0.399	-0.172
-534.135	-128.278	0.253	0.036
-533.121	98.629	-0.117	-0.135
-532.106	208.487	-0.080	-0.125
-531.091	346.087	-0.165	-0.323
-530.077	281.116	-0.122	0.217
-529.062	236.044	-0.192	-0.316
-528.048	-95.144	0.100	0.027
-527.033	-200.000	0.070	0.420
-526.018	-61.037	-0.136	-0.057
-525.004	-200.000	-0.022	-0.290
-523.989	800.000	-0.047	0.178
-522.975	112.219	-0.202	-0.244
-521.960	-166.358	0.214	-0.009
-520.945	-136.654	0.187	0.022
-519.931	-101.015	-0.403	-0.099
-518.916	126.536	-0.089	0.113
-517.902	710.072	0.172	-0.455
-516.887	84.171	0.197	-0.215
-515.872	377.707	0.086	0.174
-514.858	31.810	0.187	-0.161
-513.843	-200.000	-0.052	0.238
-512.829	-200.000	0.052	-0.429
-511.814	800.000	0.157	0.440
-510.799	-57.372	0.273	0.120
-509.785	129.476	0.126	0.161
-508.770	-163.032	0.071	0.003
-507.756	210.399	0.137	-0.214
-506.741	-63.684	0.318	0.130
-505.726	558.077	-0.052	-0.126
-504.712	336.494	0.108	0.209
-503.697	-28.796	-0.320	0.183
-502.683	-46.216	-0.275	0.135
-501.668	-118.946	-0.519	-0.091
-500.653	-200.000	0.049	-0.283
-499.639	381.590	0.150	-0.306
-498.624	47.043	0.136	-0.126
-497.610	297.796	0.115	0.210
-496.595	-200.000	-0.029	-0.392
-495.581	12.647	0.230	-0.177
-494.566	800.000	-0.099	-0.346
-493.551	800.000	0.150	0.465
-492.537	-29.338	-0.237	0.135
-491.522	98.615	0.171	-0.196
-490.508	-200.000	0.065	-0.396
-489.493	66.554	-0.081	0.082
-488.478	16.839	-0.058	0.046
-487.464	800.000	-0.027	0.084
-486.449	-126.644	-0.054	0.008
-485.435	-200.000	0.055	-0.247
-484.420	-15.753	-0.418	0.265
-483.405	-46.280	-0.092	-0.045
-482.391	735.201	0.031	0.082
-481.376	-95.127	-0.410	-0.110
-480.362	800.000	0.016	0.047
-479.347	485.128	-0.160	-0.362
-478.332	97.022	-0.159	-0.182
-477.318	135.104	-0.281	-0.364
-476.303	-26.645	-0.221	-0.129
-475.289	-64.882	-0.282	-0.114
-474.274	-142.303	-0.164	-0.016
-473.259	-60.838	0.254	0.107
-472.245	-43.439	0.154	-0.078
-471.230	477.104	-0.094	-0.212
-470.216	800.000	0.027	0.075
-469.201	373.905	-0.164	0.332
-468.186	-5.028	-0.132	-0.090
-467.172	86.910	0.131	0.144
-466.157	-17.808	-0.290	-0.181
-465.143	-200.000	0.016	-0.336
-464.128	424.336	-0.041	-0.088
-463.113	-200.000	0.052	-0.263
-462.099	34.537	0.323	0.281
-461.084	-200.000	-0.013	0.085
-460.070	-140.596	-0.066	0.007
-459.055	770.586	-0.144	-0.391
-458.040	-127.182	-0.287	-0.042
-457.026	-68.238	-0.224	-0.087
-456.011	-200.000	0.034	0.343
-454.997	125.066	-0.081	-0.102
-453.982	-73.360	-0.041	-0.015
-452.968	-5.370	-0.102	-0.070
-451.953	-58.331	0.142	-0.061
-450.938	-147.035	0.055	0.005
-449.924	395.049	0.066	0.137
-448.909	-113.826	0.259	0.050
-447.895	-41.689	0.071	-0.036
-446.880	-97.014	-0.240	0.063
-445.865	-200.000	0.018	0.371
-444.851	510.860	0.173	-0.401
-443.836	186.954	-0.138	0.204
-442.822	479.786	0.033	0.075
-441.807	-125.338	0.296	-0.045
-440.792	-174.177	0.304	-0.009
-439.778	310.165	-0.217	-0.403
-438.763	-134.183	0.109	-0.013
-437.749	-13.638	0.137	-0.088
-436.734	-41.812	-0.087	0.044
-435.719	-200.000	-0.040	0.407
-434.705	-172.590	0.429	0.013
-433.690	-99.778	-0.200	-0.050
-432.676	-90.165	0.123	0.036
-431.661	-64.666	-0.082	0.033
-430.646	99.979	0.113	-0.130
-429.632	186.662	-0.194	-0.287
-428.617	-50.143	0.326	0.154
-427.603	12.978	0.195	0.150
-426.588	57.178	-0.107	-0.104
-425.573	-35.119	0.208	-0.113
-424.559	-200.000	0.006	-0.104
-423.544	541.612	0.149	0.354
-422.530	83.811	-0.092	0.099
-421.515	60.907	0.173	-0.171
-420.500	-6.599	-0.262	0.177
-419.486	77.254	0.203	-0.215
-418.471	459.556	-0.065	0.144
-417.457	-58.876	0.142	0.061
-416.442	312.601	-0.096	0.180
-415.428	800.000	-0.047	-0.161
-414.413	159.970	0.122	-0.169
-413.398	-162.623	0.103	0.005
-412.384	-123.015	-0.106	-0.017
-411.369	557.430	0.051	0.122
-410.355	3.227	0.391	-0.283
-409.340	136.054	-0.220	-0.285
-408.325	-164.665	-0.593	0.027
-407.311	-200.000	-0.054	0.262
-406.296	-118.288	-0.343	0.061
-405.282	-64.579	0.248	-0.100
-404.267	-92.000	0.052	-0.015
-403.252	-200.000	0.014	-0.219
-402.238	-200.000	-0.001	-0.206
-401.223	89.148	-0.171	-0.190
-400.209	47.294	-0.284	-0.262
-399.194	100.993	0.163	-0.188
-398.179	209.740	-0.137	0.214
-397.165	198.104	-0.092	0.139
-396.150	-118.641	0.049	-0.009
-395.136	108.425	0.058	-0.069
-394.121	800.000	-0.091	0.304
-393.106	800.000	0.036	-0.143
-392.092	87.801	-0.140	-0.154
-391.077	107.507	0.188	0.222
-390.063	48.124	0.072	0.067
-389.048	463.406	-0.032	0.071
-388.033	-170.364	0.164	-0.006
-387.019	13.382	-0.177	0.136
-386.004	-200.000	-0.038	-0.167
-384.990	482.068	0.106	-0.238
-383.975	-46.820	-0.153	0.074
-382.960	-100.304	-0.137	-0.034
-381.946	265.688	-0.078	-0.135
-380.931	-118.872	-0.149	-0.026
-379.917	-200.000	0.052	0.285
-378.902	-200.000	0.035	0.186
-377.888	-200.000	-0.019	0.110
-376.873	-99.681	-0.144	-0.036
-375.858	466.915	-0.082	0.183
-374.844	20.627	0.215	0.173
-373.829	152.903	0.066	0.090
-372.815	-200.000	-0.051	-0.327
-371.800	-71.616	-0.226	0.084
-370.785	474.613	0.099	0.222
-369.771	-136.776	0.271	-0.031
-368.756	-105.130	-0.159	0.036
-367.742	-23.487	0.280	-0.167
-366.727	61.786	-0.101	-0.100
-365.712	-89.453	-0.162	-0.047
-364.698	38.279	-0.115	-0.101
-363.683	212.310	-0.052	0.081
-362.669	-31.167	-0.289	-0.161
-361.654	107.625	-0.321	0.378
-360.639	171.071	0.189	0.269
-359.625	-58.504	-0.304	-0.131
-358.610	-11.509	0.181	-0.118
-357.596	52.252	0.166	-0.157
-356.581	74.293	0.181	-0.189
-355.566	800.000	0.075	-0.283
-354.552	-137.163	0.289	-0.033
-353.537	135.855	-0.256	0.331
-352.523	-135.127	0.118	0.014
-351.508	-94.473	-0.290	-0.078
-350.493	-124.793	0.258	-0.039
-349.479	122.038	-0.288	0.356
-348.464	-13.911	0.175	-0.112
-347.450	800.000	-0.077	-0.301
-346.435	-18.169	0.116	0.072
-345.420	-200.000	-0.008	0.042
-344.406	-115.310	0.166	-0.031
-343.391	234.073	0.016	0.026
-342.377	-37.270	-0.245	0.130
-341.362	-14.841	-0.298	0.190
-340.348	37.107	0.108	-0.095
-339.333	690.575	0.026	0.068
-338.318	800.000	0.065	0.201
-337.304	287.628	0.042	-0.075
-336.289	-200.000	0.001	-0.036
-335.275	-21.183	0.211	-0.128
-334.260	21.149	-0.052	0.042
-333.245	-46.220	-0.350	0.170
-332.231	4.403	0.161	0.117
-331.216	-111.531	-0.078	0.016
-330.202	-200.000	-0.040	0.196
-329.187	-9.053	0.173	-0.115
-328.172	-100.804	0.282	-0.069
-327.158	-200.000	-0.058	-0.335
-326.143	299.499	0.159	-0.290
-325.129	406.284	0.211	0.441
-324.114	353.026	0.102	0.201
-323.099	239.357	0.041	0.068
-322.085	-115.558	0.209	-0.039
-321.070	-139.971	-0.178	-0.019
-320.056	49.549	-0.160	0.149
-319.041	-109.738	0.260	-0.054
-318.026	800.000	-0.042	-0.180
-317.012	-89.682	-0.234	-0.068
-315.997	-109.960	0.315	-0.065
-314.983	-169.466	0.178	-0.006
-313.968	800.000	-0.077	-0.237
-312.953	394.907	-0.127	0.262
-311.939	-74.882	0.275	0.097
-310.924	-200.000	0.026	-0.265
-309.910	-82.983	0.226	-0.072
-308.895	487.834	0.049	0.111
-307.880	-114.588	0.149	0.028
-306.866	36.926	0.175	0.153
-305.851	-200.000	0.007	0.078
-304.837	21.749	0.178	-0.143
-303.822	554.479	0.102	-0.242
-302.807	-200.000	0.030	0.366
-301.793	-4.154	-0.207	-0.142
-300.778	161.923	-0.192	0.266
-299.764	32.422	0.178	0.152
-298.749	-137.517	0.153	-0.017
-297.735	690.784	-0.108	-0.280
-296.720	800.000	0.074	0.271
-295.705	-200.000	-0.036	0.159
-294.691	243.197	0.147	0.243
-293.676	265.118	-0.156	0.269
-292.662	17.584	-0.169	-0.133
-291.647	95.185	-0.201	0.226
-290.632	52.305	-0.163	0.154
-289.618	-200.000	0.006	0.148
-288.603	-53.091	0.280	0.127
-287.589	151.907	0.136	-0.183
-286.574	-23.890	0.031	0.018
-285.559	123.356	-0.158	0.196
-284.545	800.000	-0.083	0.253
-283.530	92.803	0.254	-0.283
-282.516	135.596	0.223	-0.287
-281.501	-158.440	-0.378	0.022
-280.486	-97.627	-0.195	0.050
-279.472	-37.265	-0.166	-0.088
-278.457	-140.040	0.182	0.019
-277.443	30.260	0.150	-0.127
-276.428	406.990	-0.080	0.166
-275.413	-16.613	0.053	0.033
-274.399	-150.747	0.388	-0.029
-273.384	-79.777	-0.148	0.049
-272.370	105.935	-0.157	-0.184
-271.355	14.943	0.007	0.006
-270.340	-200.000	-0.013	0.104
-269.326	-96.818	-0.126	-0.033
-268.311	-182.627	0.071	0.001
-267.297	135.115	0.179	0.229
-266.282	-200.000	0.038	0.434
-265.267	-200.000	0.007	0.159
-264.253	187.559	-0.092	-0.135
-263.238	-9.727	0.211	0.139
-262.224	254.694	-0.139	0.235
-261.209	-80.187	-0.287	-0.095
-260.195	4.621	0.053	-0.039
-259.180	208.541	0.264	0.407
-258.165	-44.176	-0.089	-0.044
-257.151	22.144	0.347	0.279
-256.136	52.178	0.129	0.121
-255.122	800.000	-0.022	-0.095
-254.107	800.000	-0.050	0.144
-253.092	-45.014	0.158	0.077
-252.078	-184.666	-0.183	0.003
-251.063	334.446	-0.048	-0.093
-250.049	171.650	-0.151	0.214
-249.034	535.776	-0.053	0.124
-248.019	-160.341	0.303	0.016
-247.005	450.991	0.140	-0.304
-245.990	692.600	0.067	0.173
-244.976	-200.000	0.041	0.290
-243.961	354.040	0.054	0.106
-242.946	-153.522	-0.424	0.029
-241.932	-200.000	-0.018	-0.171
-240.917	508.201	0.048	0.111
-239.903	-115.918	0.227	-0.042
-238.888	42.994	0.152	-0.137
-237.873	329.962	0.049	0.093
-236.859	800.000	0.044	0.140
-235.844	-160.452	-0.220	0.012
-234.830	-135.671	0.433	-0.051
-233.815	-28.174	-0.380	-0.217
-232.800	207.464	0.134	0.206
-231.786	651.045	0.102	0.258
-230.771	-111.309	0.251	0.051
-229.757	-200.000	0.030	0.180
-228.742	539.237	0.161	0.378
-227.727	-53.814	0.285	-0.128
-226.713	-83.423	0.426	0.135
-225.698	-200.000	-0.034	-0.179
-224.684	98.364	-0.215	-0.244
-223.669	-200.000	0.018	0.234
-222.655	285.330	0.113	0.201
-221.640	680.389	0.055	0.142
-220.625	91.292	0.123	0.136
-219.611	-120.438	0.131	0.022
-218.596	800.000	-0.071	-0.297
-217.582	59.497	0.085	-0.083
-216.567	248.028	0.007	-0.012
-215.552	-200.000	-0.008	-0.040
-214.538	-138.325	-0.290	-0.032
-213.523	800.000	-0.043	-0.124
-212.509	-9.608	-0.256	0.168
-211.494	-200.000	0.034	-0.264
-210.479	-200.000	-0.049	0.333
-209.465	-12.242	0.156	0.100
-208.450	-22.706	0.160	-0.095
-207.436	19.617	0.104	-0.082
-206.421	-78.836	0.140	-0.047
-205.406	45.188	0.131	-0.119
-204.392	-73.240	0.098	-0.035
-203.377	-123.631	-0.092	-0.014
-202.363	-116.476	-0.233	-0.042
-201.348	800.000	0.124	-0.351
-200.333	213.690	-0.055	-0.085
-199.319	-103.527	0.128	-0.030
-198.304	108.210	-0.136	0.160
-197.290	-106.254	0.114	-0.025
-196.275	273.769	-0.146	0.254
-195.260	-36.633	0.300	0.159
-194.246	558.042	-0.077	0.184
-193.231	-141.420	-0.219	-0.022
-192.217	-47.818	-0.148	-0.070
-191.202	23.883	0.150	0.122
-190.187	800.000	0.077	-0.249
-189.173	138.479	0.071	-0.092
-188.158	-112.541	0.100	0.020
-187.144	-22.009	0.141	0.084
-186.129	-35.080	-0.143	0.077
-185.114	800.000	-0.062	0.219
-184.100	99.041	-0.072	-0.082
-183.085	80.483	-0.116	0.123
-182.071	-200.000	0.025	0.308
-181.056	-94.641	-0.291	-0.078
-180.042	-13.157	0.291	-0.186
-179.027	-200.000	-0.069	-0.361
-178.012	622.320	0.096	0.238
-176.998	-45.673	0.036	0.018
-175.983	-91.607	-0.229	0.064
-174.969	118.757	0.164	0.199
-173.954	139.388	0.237	-0.307
-172.939	104.678	-0.216	0.250
-171.925	70.041	0.213	-0.217
-170.910	-145.719	0.056	-0.005
-169.896	283.287	0.080	0.142
-168.881	16.873	-0.197	0.154
-167.866	-47.059	-0.020	0.010
-166.852	-40.123	0.092	0.047
-165.837	-105.172	-0.345	0.077
-164.823	-34.393	-0.107	0.058
-163.808	-28.695	0.075	0.042
-162.793	12.088	-0.209	0.158
-161.779	455.567	-0.137	0.298
-160.764	259.262	0.110	0.187
-159.750	261.466	-0.064	0.110
-158.735	102.507	0.118	0.135
-157.720	-83.519	-0.054	0.017
-156.706	10.090	-0.153	0.114
-155.691	42.057	-0.242	0.216
-154.677	800.000	-0.040	-0.154
-153.662	254.425	-0.178	-0.299
-152.647	-84.258	0.238	-0.074
-151.633	122.637	0.136	0.167
-150.618	-107.388	0.036	0.008
-149.604	-7.469	0.506	-0.336
-148.589	215.425	-0.181	-0.282
-147.574	-55.398	-0.368	-0.163
-146.560	137.067	-0.117	0.151
-145.545	66.719	0.215	-0.215
-144.531	589.617	0.005	-0.012
-143.516	-200.000	0.040	0.579
-142.502	123.552	-0.217	0.268
-141.487	-5.710	-0.220	0.148
-140.472	254.078	-0.140	-0.235
-139.458	-65.504	0.153	-0.060
-138.443	350.606	0.123	-0.239
-137.429	-200.000	0.006	-0.210
-136.414	572.172	0.064	0.154
-135.399	208.401	0.121	-0.185
-134.385	118.969	-0.095	0.115
-133.370	-22.352	0.276	-0.164
-132.356	-85.042	0.172	0.053
-131.341	3.486	0.131	0.094
-130.326	-35.322	0.176	-0.094
-129.312	52.146	0.123	-0.115
-128.297	-64.934	-0.397	0.158
-127.283	402.312	-0.076	0.157
-126.268	39.979	-0.073	0.064
-125.253	152.399	-0.054	0.073
-124.239	-200.000	-0.003	-0.222
-123.224	-200.000	0.048	0.294
-122.210	-122.680	0.215	0.034
-121.195	246.884	-0.032	0.052
