DTS Sentinel unit serial number:	SN413079Multiplexer serial number:	ORYXHardware model number:	OX4-SRSoftware version number:	ORYX F/W v4.00 Oryx Data Collector v3.7.2.0data status	okinstallation	princeton_trtdifferential loss correction	single-endedforward channel	channel 2reverse channel	N/Adate	2019/09/13time	09:47:34forward acquisition time	60.00reverse acquisition time	0.00gamma	496.2192k internal	0.2325k external	0.2325temperature offset calibration	1.0186default loss term (dB/km)	0.3790temperature slope calibration	1.0000multiplexer offset coefficient	1.0000multiplexer slope coefficient	1.0000fibre end	0.00T internal ref (°C)	29.87T ext. ref 1 (°C)	4.43T ext. ref 2 (°C)	26.54length (m)	temperature (°C)	Stokes	anti-Stokes-747.200	40.548	0.078	-0.071
-746.185	547.579	-0.104	0.252
-745.171	-200.000	0.023	0.117
-744.156	-121.424	0.120	-0.020
-743.142	417.678	0.175	-0.377
-742.127	268.484	-0.101	0.179
-741.112	135.755	0.202	0.266
-740.098	-200.000	-0.006	0.105
-739.083	62.237	-0.204	-0.206
-738.069	14.951	-0.281	0.222
-737.054	-2.270	-0.147	-0.104
-736.039	-200.000	0.001	-0.006
-735.025	-200.000	0.016	0.299
-734.010	51.703	-0.106	0.101
-732.996	800.000	-0.099	-0.366
-731.981	465.776	-0.076	0.172
-730.966	-95.279	0.269	-0.073
-729.952	-176.359	0.343	-0.009
-728.937	-44.893	-0.160	0.081
-727.923	-80.048	-0.478	-0.162
-726.908	39.524	-0.017	-0.015
-725.894	800.000	-0.064	-0.213
-724.879	115.314	-0.188	-0.231
-723.864	-200.000	0.005	-0.457
-722.850	-200.000	0.014	-0.156
-721.835	-159.689	-0.305	-0.017
-720.821	-64.677	-0.199	0.081
-719.806	-200.000	-0.038	0.324
-718.791	260.162	-0.025	-0.044
-717.777	85.493	0.212	0.234
-716.762	-44.529	0.060	0.030
-715.748	-200.000	0.035	-0.380
-714.733	36.567	-0.117	0.104
-713.718	-19.770	0.101	-0.063
-712.704	49.330	0.026	0.025
-711.689	800.000	-0.046	-0.162
-710.675	114.053	-0.207	-0.254
-709.660	112.982	0.194	-0.237
-708.645	238.590	0.231	-0.386
-707.631	-200.000	0.029	-0.371
-706.616	800.000	-0.121	0.447
-705.602	-21.516	0.171	0.105
-704.587	-200.000	-0.015	0.318
-703.572	-14.714	0.220	-0.142
-702.558	-200.000	0.023	0.182
-701.543	-80.457	-0.049	0.017
-700.529	-54.958	0.090	0.041
-699.514	24.132	-0.201	-0.167
-698.499	-94.074	-0.100	-0.028
-697.485	516.573	0.038	0.089
-696.470	-130.496	-0.232	0.032
-695.456	-39.372	-0.316	0.167
-694.441	319.033	-0.065	-0.125
-693.426	-23.313	0.154	-0.094
-692.412	16.606	-0.211	-0.168
-691.397	503.499	-0.121	-0.281
-690.383	-200.000	-0.071	-0.415
-689.368	-49.634	0.076	-0.036
-688.354	331.188	0.061	-0.119
-687.339	334.949	0.068	-0.132
-686.324	-58.862	-0.159	-0.069
-685.310	6.405	-0.086	0.065
-684.295	-200.000	0.029	-0.242
-683.281	-97.886	0.343	-0.089
-682.266	-151.663	0.277	0.021
-681.251	44.967	0.225	0.209
-680.237	-78.784	-0.245	-0.084
-679.222	-90.049	0.092	0.027
-678.208	136.250	-0.150	-0.196
-677.193	-200.000	-0.029	-0.438
-676.178	-200.000	0.037	-0.196
-675.164	164.990	-0.226	-0.321
-674.149	260.749	-0.089	-0.154
-673.135	-54.534	0.186	-0.085
-672.120	79.454	-0.236	-0.255
-671.105	6.375	-0.143	-0.107
-670.091	800.000	-0.089	-0.323
-669.076	671.558	0.092	-0.239
-668.062	800.000	0.099	-0.309
-667.047	561.259	-0.062	-0.150
-666.032	7.176	0.156	-0.117
-665.018	-200.000	-0.018	0.443
-664.003	155.995	-0.194	0.269
-662.989	-166.636	-0.102	-0.004
-661.974	-200.000	0.034	-0.161
-660.959	11.731	-0.093	0.072
-659.945	-200.000	0.047	0.324
-658.930	-200.000	-0.005	0.143
-657.916	-200.000	-0.022	0.239
-656.901	800.000	0.032	-0.108
-655.886	-64.281	0.196	0.080
-654.872	250.994	0.129	-0.221
-653.857	-146.661	-0.096	-0.008
-652.843	-200.000	-0.018	-0.120
-651.828	60.240	0.078	-0.078
-650.814	111.317	0.184	-0.222
-649.799	92.080	0.091	-0.103
-648.784	31.425	-0.085	-0.073
-647.770	92.571	0.349	0.396
-646.755	-130.205	0.046	0.006
-645.741	22.925	-0.282	-0.233
-644.726	-97.444	-0.205	0.054
-643.711	800.000	-0.058	0.251
-642.697	-48.412	-0.012	0.006
-641.682	172.658	0.212	-0.307
-640.668	-200.000	0.012	-0.313
-639.653	-142.163	-0.188	0.019
-638.638	-10.842	0.204	0.135
-637.624	-35.714	-0.222	0.121
-636.609	-116.321	-0.264	0.049
-635.595	294.015	0.028	-0.052
-634.580	-74.070	-0.274	-0.100
-633.565	-200.000	-0.001	0.016
-632.551	230.426	-0.097	-0.159
-631.536	800.000	0.023	-0.098
-630.522	472.332	-0.067	0.152
-629.507	-200.000	0.019	-0.139
-628.492	-200.000	0.021	-0.308
-627.478	-154.699	-0.115	-0.008
-626.463	-69.688	-0.274	-0.105
-625.449	-131.060	0.098	-0.013
-624.434	33.625	-0.145	0.126
-623.419	21.230	-0.175	-0.143
-622.405	-200.000	0.021	0.238
-621.390	37.648	-0.217	0.193
-620.376	-17.874	-0.393	0.247
-619.361	-123.244	0.573	0.092
-618.346	-51.649	-0.322	-0.151
-617.332	-48.403	0.250	-0.121
-616.317	-182.944	-0.110	0.002
-615.303	-196.230	-0.436	0.003
-614.288	85.330	0.083	-0.091
-613.273	-30.052	0.045	0.026
-612.259	-63.287	-0.063	-0.026
-611.244	162.436	0.131	-0.184
-610.230	-31.096	0.172	-0.098
-609.215	64.804	-0.253	0.257
-608.201	-86.577	-0.163	0.050
-607.186	-200.000	-0.023	-0.108
-606.171	800.000	0.059	-0.177
-605.157	50.563	-0.187	-0.177
-604.142	-32.237	-0.183	0.103
-603.128	-86.198	0.271	-0.084
-602.113	-72.362	-0.098	0.037
-601.098	254.818	0.099	-0.170
-600.084	-200.000	-0.007	0.288
-599.069	225.734	0.192	0.312
-598.055	-121.019	-0.178	0.030
-597.040	-200.000	-0.018	0.172
-596.025	-21.963	0.282	-0.172
-595.011	800.000	-0.093	-0.297
-593.996	800.000	0.096	0.353
-592.982	217.529	-0.207	-0.332
-591.967	-169.697	0.285	-0.010
-590.952	371.333	-0.036	0.074
-589.938	-200.000	-0.000	0.062
-588.923	-200.000	-0.065	0.353
-587.909	-200.000	0.042	0.192
-586.894	34.524	0.198	-0.174
-585.879	58.806	-0.242	-0.239
-584.865	-82.133	-0.198	0.065
-583.850	-200.000	0.003	0.169
-582.836	-53.410	-0.044	-0.020
-581.821	9.050	0.311	-0.235
-580.806	-84.909	-0.182	-0.057
-579.792	-62.761	0.183	0.076
-578.777	122.296	0.039	-0.049
-577.763	26.928	-0.084	0.070
-576.748	563.816	-0.074	-0.179
-575.733	130.706	-0.139	0.178
-574.719	4.061	0.283	0.208
-573.704	-200.000	-0.017	-0.259
-572.690	800.000	-0.035	-0.147
-571.675	-80.438	-0.067	-0.022
-570.661	155.250	-0.316	-0.436
-569.646	-39.831	-0.254	0.133
-568.631	800.000	-0.041	-0.154
-567.617	205.115	-0.131	-0.203
-566.602	-104.096	0.197	-0.046
-565.588	-98.916	-0.542	-0.138
-564.573	123.235	0.067	0.084
-563.558	-84.337	-0.220	-0.070
-562.544	-57.940	-0.171	0.075
-561.529	-49.912	0.135	0.064
-560.515	-128.256	-0.287	-0.041
-559.500	452.169	-0.116	0.257
-558.485	277.181	0.149	-0.265
-557.471	-45.125	-0.193	-0.096
-556.456	-36.290	-0.329	-0.177
-555.442	-0.404	-0.270	0.192
-554.427	-67.238	-0.300	0.118
-553.412	88.554	0.114	-0.127
-552.398	-34.406	0.302	-0.166
-551.383	555.681	0.049	0.119
-550.369	-45.518	0.212	-0.105
-549.354	540.541	-0.226	-0.539
-548.339	63.035	0.278	-0.279
-547.325	-200.000	0.007	-0.264
-546.310	441.872	-0.119	0.260
-545.296	800.000	-0.015	0.059
-544.281	24.274	-0.165	-0.136
-543.266	800.000	-0.057	-0.202
-542.252	11.916	0.134	-0.103
-541.237	166.560	0.067	0.095
-540.223	800.000	0.117	-0.337
-539.208	71.009	0.335	-0.348
-538.193	-115.638	-0.263	-0.049
-537.179	-200.000	0.018	-0.097
-536.164	-85.529	-0.354	-0.110
-535.150	245.869	0.079	0.133
-534.135	223.868	0.105	-0.169
-533.121	33.642	0.133	0.115
-532.106	84.716	-0.115	0.126
-531.091	96.524	-0.070	-0.080
-530.077	800.000	-0.069	-0.220
-529.062	606.436	0.092	-0.230
-528.048	431.041	-0.191	0.413
-527.033	13.522	-0.137	0.106
-526.018	-200.000	0.035	0.160
-525.004	76.042	-0.069	-0.073
-523.989	44.364	-0.307	0.282
-522.975	569.493	0.077	0.187
-521.960	-200.000	0.056	0.254
-520.945	-62.546	-0.072	-0.030
-519.931	800.000	0.081	0.336
-518.916	134.099	-0.179	0.233
-517.902	-144.601	-0.136	0.013
-516.887	800.000	-0.011	0.030
-515.872	-138.869	-0.051	-0.006
-514.858	50.443	-0.087	0.082
-513.843	-44.165	0.240	-0.121
-512.829	-105.174	0.499	0.114
-511.814	-200.000	0.030	0.198
-510.799	142.499	-0.171	-0.227
-509.785	138.600	-0.033	-0.044
-508.770	41.705	-0.046	0.041
-507.756	16.341	0.103	-0.082
-506.741	135.649	-0.059	0.077
-505.726	55.872	-0.029	0.028
-504.712	146.044	-0.101	-0.136
-503.697	800.000	0.043	0.119
-502.683	18.803	-0.299	0.239
-501.668	-33.982	-0.122	0.067
-500.653	30.837	0.343	-0.293
-499.639	87.229	0.292	0.323
-498.624	-200.000	-0.001	0.412
-497.610	207.363	-0.287	0.448
-496.595	-90.669	0.234	-0.068
-495.581	57.020	0.211	-0.206
-494.566	-22.750	-0.482	-0.291
-493.551	-139.198	-0.313	0.034
-492.537	-91.542	0.309	-0.088
-491.522	-200.000	-0.043	0.269
-490.508	-24.566	-0.173	-0.103
-489.493	327.501	-0.133	-0.255
-488.478	-35.134	-0.230	-0.125
-487.464	22.338	-0.186	0.152
-486.449	231.186	0.148	-0.242
-485.435	-200.000	0.002	0.075
-484.420	800.000	0.051	-0.215
-483.405	177.017	0.063	-0.091
-482.391	93.422	-0.107	0.121
-481.376	-156.589	0.159	-0.010
-480.362	201.321	-0.080	0.123
-479.347	-200.000	-0.010	0.076
-478.332	-200.000	0.022	0.222
-477.318	222.332	0.173	-0.278
-476.303	662.407	-0.146	-0.377
-475.289	128.115	-0.003	0.003
-474.274	-45.360	0.289	-0.143
-473.259	-200.000	-0.017	0.181
-472.245	-66.165	-0.180	0.072
-471.230	-200.000	-0.012	0.098
-470.216	800.000	-0.046	0.164
-469.201	-78.166	-0.134	0.046
-468.186	-126.687	-0.161	-0.024
-467.172	800.000	-0.035	0.152
-466.157	232.974	0.093	-0.153
-465.143	-126.150	-0.147	0.022
-464.128	-200.000	0.087	-0.462
-463.113	-71.685	-0.036	0.014
-462.099	-149.063	0.195	-0.016
-461.084	-141.262	0.081	0.008
-460.070	800.000	-0.038	-0.129
-459.055	72.060	-0.216	0.224
-458.040	181.779	-0.051	0.075
-457.026	2.939	-0.154	0.112
-456.011	-120.291	0.218	0.037
-454.997	-4.583	-0.141	0.097
-453.982	-200.000	0.036	0.220
-452.968	-57.261	0.500	0.219
-451.953	-200.000	-0.017	0.085
-450.938	-176.972	-0.197	0.005
-449.924	-144.108	-0.174	-0.016
-448.909	16.457	0.182	0.143
-447.895	-136.590	0.166	0.019
-446.880	100.499	-0.024	0.028
-445.865	-139.358	0.175	-0.019
-444.851	289.022	0.137	-0.247
-443.836	141.372	-0.127	0.167
-442.822	-200.000	0.043	-0.306
-441.807	800.000	-0.060	0.253
-440.792	-86.212	-0.069	0.021
-439.778	800.000	0.066	-0.247
-438.763	-31.692	0.157	0.088
-437.749	-94.401	-0.190	-0.052
-436.734	-200.000	-0.009	-0.284
-435.719	-200.000	-0.048	-0.291
-434.705	62.643	-0.205	-0.204
-433.690	211.524	-0.160	0.251
-432.676	-102.614	-0.394	0.094
-431.661	-149.318	-0.158	0.013
-430.646	-1.238	0.278	-0.196
-429.632	-120.032	-0.242	-0.041
-428.617	-200.000	-0.018	-0.198
-427.603	44.625	0.097	-0.089
-426.588	59.265	-0.110	-0.108
-425.573	435.465	-0.092	-0.199
-424.559	-29.636	-0.129	0.074
-423.544	265.603	-0.153	0.266
-422.530	-49.416	-0.236	-0.112
-421.515	-5.456	-0.182	0.124
-420.500	-85.708	0.081	0.025
-419.486	-32.020	0.128	0.071
-418.471	9.945	-0.285	-0.216
-417.457	-156.278	-0.219	0.014
-416.442	16.190	-0.089	0.070
-415.428	-200.000	-0.022	-0.308
-414.413	-98.770	0.102	-0.026
-413.398	25.401	-0.353	-0.292
-412.384	-200.000	0.001	-0.204
-411.369	-173.392	0.264	-0.008
-410.355	-78.792	0.549	-0.186
-409.340	266.909	0.097	0.169
-408.325	-200.000	0.067	0.424
-407.311	-131.730	-0.214	-0.028
-406.296	-76.346	0.293	-0.103
-405.282	228.544	0.174	-0.282
-404.267	-115.735	-0.111	0.021
-403.252	618.893	-0.080	-0.201
-402.238	-200.000	0.035	0.220
-401.223	800.000	-0.059	0.232
-400.209	18.302	0.030	-0.024
-399.194	135.023	0.084	-0.109
-398.179	89.784	0.041	-0.046
-397.165	-115.634	-0.269	-0.050
-396.150	570.433	-0.083	0.201
-395.136	-72.919	-0.185	-0.068
-394.121	-121.422	0.197	-0.033
-393.106	63.155	-0.105	0.105
-392.092	8.458	0.220	0.164
-391.077	-200.000	0.010	0.052
-390.063	45.010	0.219	-0.200
-389.048	506.646	0.044	0.101
-388.033	800.000	0.022	-0.092
-387.019	746.778	0.033	-0.090
-386.004	-51.850	0.169	-0.078
-384.990	-200.000	0.040	-0.525
-383.975	-200.000	-0.006	-0.071
-382.960	-145.979	0.107	-0.009
-381.946	499.001	-0.069	-0.158
-380.931	-190.414	0.265	0.003
-379.917	-200.000	-0.001	0.106
-378.902	-19.236	-0.230	-0.142
-377.888	127.188	0.160	0.201
-376.873	-155.987	-0.215	0.014
-375.858	-112.417	-0.190	-0.038
-374.844	-0.533	0.145	0.102
-373.829	-200.000	-0.039	0.310
-372.815	-16.249	-0.445	-0.281
-371.800	-22.230	0.170	0.103
-370.785	800.000	-0.095	0.367
-369.771	-43.073	0.102	-0.052
-368.756	-200.000	-0.027	0.136
-367.742	-200.000	0.002	-0.095
-366.727	800.000	0.104	0.338
-365.712	171.555	-0.125	-0.179
-364.698	-62.168	-0.386	0.160
-363.683	-32.110	-0.124	0.069
-362.669	-49.078	0.203	0.097
-361.654	34.471	0.076	-0.066
-360.639	800.000	0.038	0.163
-359.625	-200.000	0.018	0.099
-358.610	-200.000	-0.001	-0.334
-357.596	374.933	0.055	0.111
-356.581	62.001	0.115	0.114
-355.566	-80.206	-0.408	-0.136
-354.552	-181.649	0.167	-0.003
-353.537	-200.000	-0.002	-0.265
-352.523	92.822	0.159	0.178
-351.508	-200.000	0.002	-0.051
-350.493	-106.560	0.153	-0.034
-349.479	-200.000	0.002	0.048
-348.464	800.000	0.026	0.092
-347.450	101.265	0.080	0.093
-346.435	104.796	-0.125	-0.146
-345.420	-41.656	0.528	0.270
-344.406	800.000	0.045	0.164
-343.391	-200.000	0.028	0.400
-342.377	800.000	0.114	0.323
-341.362	10.295	0.245	0.185
-340.348	800.000	-0.090	0.250
-339.333	800.000	-0.068	0.291
-338.318	130.656	0.107	0.137
-337.304	47.228	-0.080	-0.074
-336.289	44.968	0.116	-0.106
-335.275	91.348	0.167	0.186
-334.260	800.000	-0.057	-0.223
-333.245	113.513	-0.045	-0.054
-332.231	-179.145	0.365	-0.008
-331.216	800.000	0.056	-0.190
-330.202	-125.580	0.145	-0.022
-329.187	61.679	-0.224	-0.221
-328.172	-200.000	-0.025	-0.550
-327.158	53.624	0.050	-0.048
-326.143	800.000	0.043	0.151
-325.129	800.000	-0.097	0.278
-324.114	-106.944	0.515	0.113
-323.099	-68.552	-0.276	-0.106
-322.085	-200.000	-0.053	0.344
-321.070	-168.543	0.163	-0.006
-320.056	422.000	-0.033	0.070
-319.041	-23.728	0.177	-0.105
-318.026	-200.000	-0.028	0.455
-317.012	64.469	0.218	0.218
-315.997	800.000	-0.042	-0.151
-314.983	-37.045	-0.255	0.136
-313.968	-48.526	0.191	-0.091
-312.953	519.334	-0.224	0.520
-311.939	800.000	0.016	-0.045
-310.924	420.248	0.011	-0.024
-309.910	-6.085	0.205	0.139
-308.895	225.712	0.094	-0.150
-307.880	272.803	0.174	-0.306
-306.866	37.502	0.096	-0.085
-305.851	323.915	0.075	0.141
-304.837	-178.893	-0.220	0.005
-303.822	559.978	-0.068	-0.162
-302.807	271.256	0.038	-0.067
-301.793	-94.810	-0.110	0.030
-300.778	4.332	-0.198	-0.144
-299.764	583.244	0.076	0.184
-298.749	-200.000	-0.278	0.001
-297.735	21.381	0.165	0.133
-296.720	-30.744	-0.106	0.060
-295.705	-75.122	0.150	-0.053
-294.691	-136.940	0.064	0.007
-293.676	-83.890	0.133	0.042
-292.662	25.126	-0.302	0.249
-291.647	-200.000	0.044	0.296
-290.632	-200.000	-0.016	-0.181
-289.618	800.000	-0.082	-0.233
-288.603	326.868	-0.148	-0.281
-287.589	-200.000	0.012	0.143
-286.574	8.982	-0.405	-0.303
-285.559	-200.000	0.034	0.213
-284.545	-200.000	0.013	-0.317
-283.530	-93.689	0.138	-0.038
-282.516	800.000	0.002	-0.006
-281.501	800.000	-0.053	-0.170
-280.486	-57.328	-0.180	-0.078
-279.472	-80.849	0.345	0.113
-278.457	-5.741	-0.204	-0.139
-277.443	313.147	0.112	-0.209
-276.428	329.017	-0.058	0.110
-275.413	-200.000	-0.002	-0.232
-274.399	-200.000	0.048	0.215
-273.384	136.168	-0.037	-0.048
-272.370	800.000	0.045	-0.181
-271.355	-200.000	-0.011	-0.093
-270.340	-35.320	0.066	0.035
-269.326	800.000	-0.104	-0.355
-268.311	-170.663	0.427	-0.015
-267.297	-144.469	-0.260	-0.024
-266.282	-91.164	-0.163	-0.046
-265.267	534.931	-0.034	-0.080
-264.253	319.245	0.217	-0.408
-263.238	20.698	0.200	-0.161
-262.224	-73.237	-0.099	-0.036
-261.209	800.000	0.068	0.202
-260.195	51.897	0.230	0.217
-259.180	-155.055	0.120	-0.008
-258.165	230.283	-0.078	0.127
-257.151	-128.145	0.151	0.021
-256.136	-16.889	-0.289	-0.181
-255.122	176.504	0.088	-0.126
-254.107	-6.269	0.142	-0.096
-253.092	171.914	-0.198	0.281
-252.078	712.143	0.056	0.148
-251.063	-200.000	-0.049	-0.356
-250.049	-52.793	0.187	-0.085
-249.034	15.480	0.089	0.069
-248.019	176.957	0.013	0.019
-247.005	-200.000	-0.026	0.219
-245.990	800.000	0.060	-0.235
-244.976	71.419	0.267	0.274
-243.961	-68.635	0.333	-0.128
-242.946	-12.812	-0.376	0.242
-241.932	-116.841	-0.151	0.027
-240.917	-75.920	-0.336	-0.118
-239.903	18.938	-0.023	-0.019
-238.888	-66.598	-0.206	-0.081
-237.873	284.417	-0.248	-0.442
-236.859	-200.000	-0.008	0.069
-235.844	18.397	-0.086	0.068
-234.830	-90.306	0.299	0.086
-233.815	-0.572	-0.204	0.143
-232.800	8.803	0.187	-0.139
-231.786	800.000	0.017	-0.064
-230.771	178.295	0.278	0.402
-229.757	-103.660	-0.092	0.021
-228.742	800.000	0.060	0.210
-227.727	-107.118	0.242	-0.053
-226.713	-32.813	-0.089	-0.049
-225.698	-200.000	-0.041	0.286
-224.684	33.386	-0.217	0.186
-223.669	-103.324	0.320	0.075
-222.655	94.874	-0.161	-0.181
-221.640	-34.707	0.209	0.113
-220.625	61.429	-0.113	0.111
-219.611	-45.826	0.306	0.150
-218.596	-200.000	0.001	0.245
-217.582	25.574	-0.173	-0.142
-216.567	-29.678	0.269	-0.152
-215.552	-48.638	0.053	0.025
-214.538	94.586	0.122	-0.137
-213.523	-158.920	0.170	0.010
-212.509	156.226	0.285	0.389
-211.494	-79.974	-0.182	-0.060
-210.479	-109.420	0.406	-0.085
-209.465	-200.000	-0.006	0.083
-208.450	800.000	0.073	-0.211
-207.436	-125.462	0.176	-0.026
-206.421	-31.108	-0.206	-0.115
-205.406	245.111	0.095	0.158
-204.392	-200.000	0.021	0.437
-203.377	800.000	0.051	0.194
-202.363	209.536	0.246	0.381
-201.348	-200.000	0.021	0.396
-200.333	-200.000	0.028	0.289
-199.319	800.000	0.089	0.362
-198.304	236.390	-0.020	0.032
-197.290	-3.772	-0.173	-0.118
-196.275	-200.000	-0.000	-0.493
-195.260	-200.000	-0.039	-0.327
-194.246	-83.749	0.191	-0.060
-193.231	704.427	0.227	0.590
-192.217	-131.364	-0.247	-0.032
-191.202	800.000	-0.089	-0.268
-190.187	47.161	-0.119	-0.109
-189.173	-97.764	0.148	-0.038
-188.158	235.454	-0.052	0.085
-187.144	-10.059	-0.403	0.264
-186.129	-139.082	0.292	0.031
-185.114	800.000	0.045	0.173
-184.100	-26.617	0.259	-0.149
-183.085	-96.881	-0.266	-0.069
-182.071	184.108	0.193	-0.282
-181.056	-125.037	-0.196	-0.030
-180.042	559.729	0.139	0.332
-179.027	800.000	0.118	-0.446
-178.012	-200.000	0.026	0.145
-176.998	800.000	0.059	-0.167
-175.983	800.000	0.061	-0.185
-174.969	224.970	-0.136	-0.218
-173.954	-89.007	0.220	-0.064
-172.939	7.118	0.054	-0.040
-171.925	-94.253	0.155	0.042
-170.910	-1.910	0.404	0.280
-169.896	-178.500	-0.353	0.008
-168.881	-72.692	0.346	-0.126
-167.866	-133.030	-0.124	0.015
-166.852	800.000	-0.056	0.237
-165.837	-51.601	0.050	0.023
-164.823	-172.034	0.216	-0.007
-163.808	-200.000	-0.009	0.368
-162.793	392.941	0.107	0.220
-161.779	73.175	0.181	-0.186
-160.764	40.695	0.151	-0.134
-159.750	-141.131	0.382	0.038
-158.735	-109.734	0.210	-0.044
-157.720	800.000	-0.025	0.079
-156.706	-200.000	0.006	-0.156
-155.691	-200.000	0.009	-0.098
-154.677	-52.957	0.219	0.099
-153.662	-168.847	0.038	-0.001
-152.647	27.554	0.022	0.018
-151.633	-106.062	0.073	-0.016
-150.618	-105.904	0.179	0.040
-149.604	800.000	0.099	-0.270
-148.589	90.453	0.128	-0.141
-147.574	-55.293	0.174	-0.077
-146.560	-200.000	-0.031	-0.182
-145.545	35.085	0.129	-0.111
-144.531	-72.351	-0.088	-0.032
-143.516	-107.451	0.023	-0.005
-142.502	158.958	-0.081	-0.111
-141.487	-113.689	-0.097	0.019
-140.472	343.239	-0.133	0.257
-139.458	245.408	-0.370	0.614
-138.443	282.020	-0.053	-0.094
-137.429	32.334	-0.111	-0.094
-136.414	191.436	-0.020	0.030
-135.399	-200.000	-0.031	0.268
-134.385	16.796	0.188	-0.147
-133.370	-65.192	-0.359	-0.142
-132.356	-200.000	-0.019	-0.198
-131.341	-97.803	-0.087	-0.022
-130.326	-200.000	0.001	-0.274
-129.312	-26.237	-0.244	0.141
-128.297	-67.323	-0.058	-0.022
-127.283	-200.000	-0.013	-0.189
-126.268	93.622	0.347	0.387
-125.253	-200.000	-0.004	0.045
-124.239	800.000	-0.032	-0.129
-123.224	800.000	0.044	0.171
-122.210	-17.388	-0.254	-0.157
