DTS Sentinel unit serial number:	SN413079Multiplexer serial number:	ORYXHardware model number:	OX4-SRSoftware version number:	ORYX F/W v4.00 Oryx Data Collector v3.7.2.0data status	okinstallation	princeton_trtdifferential loss correction	single-endedforward channel	channel 2reverse channel	N/Adate	2019/09/13time	22:19:35forward acquisition time	60.00reverse acquisition time	0.00gamma	496.2192k internal	0.2335k external	0.2335temperature offset calibration	1.0135default loss term (dB/km)	0.3790temperature slope calibration	1.0000multiplexer offset coefficient	1.0000multiplexer slope coefficient	1.0000fibre end	0.00T internal ref (°C)	27.87T ext. ref 1 (°C)	3.24T ext. ref 2 (°C)	22.54length (m)	temperature (°C)	Stokes	anti-Stokes-747.200	800.000	0.028	-0.088
-746.185	-132.929	0.195	-0.025
-745.171	-92.156	-0.176	-0.050
-744.156	-200.000	0.039	0.405
-743.142	-200.000	-0.006	0.135
-742.127	44.382	-0.049	0.046
-741.112	-13.871	-0.130	0.085
-740.098	800.000	-0.105	0.438
-739.083	-6.210	-0.287	-0.197
-738.069	141.363	-0.030	0.040
-737.054	-122.960	-0.376	-0.061
-736.039	5.537	-0.495	-0.367
-735.025	528.484	-0.016	-0.039
-734.010	-70.387	0.116	0.044
-732.996	10.707	-0.108	0.083
-731.981	-200.000	-0.008	-0.407
-730.966	-200.000	0.031	0.152
-729.952	10.339	0.055	-0.042
-728.937	442.826	-0.067	-0.147
-727.923	-15.694	0.160	-0.103
-726.908	173.664	0.067	-0.096
-725.894	-38.650	-0.421	-0.223
-724.879	-200.000	0.005	-0.079
-723.864	796.581	-0.159	-0.440
-722.850	-30.622	-0.231	-0.131
-721.835	800.000	-0.073	-0.219
-720.821	-200.000	-0.031	0.300
-719.806	4.963	-0.287	-0.212
-718.791	129.439	0.198	-0.254
-717.777	67.988	-0.230	-0.236
-716.762	-144.296	-0.357	0.033
-715.748	-61.048	-0.116	0.049
-714.733	-200.000	0.009	0.222
-713.718	-34.753	0.310	0.170
-712.704	61.067	-0.090	0.090
-711.689	70.439	-0.217	-0.225
-710.675	-200.000	-0.009	-0.184
-709.660	-200.000	0.002	0.162
-708.645	-90.195	0.343	-0.100
-707.631	-104.472	-0.263	-0.061
-706.616	-57.285	-0.181	0.080
-705.602	-31.875	-0.340	-0.191
-704.587	-200.000	0.024	0.195
-703.572	-22.579	0.168	-0.102
-702.558	-135.364	-0.210	-0.025
-701.543	800.000	0.035	0.118
-700.529	105.400	0.125	0.148
-699.514	-117.530	0.172	0.031
-698.499	-200.000	0.003	-0.381
-697.485	-200.000	-0.039	-0.251
-696.470	-88.407	0.248	-0.074
-695.456	286.106	-0.047	-0.085
-694.441	-105.770	-0.072	-0.016
-693.426	-155.252	0.043	0.003
-692.412	-125.992	-0.485	-0.073
-691.397	488.391	-0.169	0.386
-690.383	-178.103	0.243	0.006
-689.368	164.469	-0.036	0.050
-688.354	164.304	0.133	0.188
-687.339	213.475	-0.123	-0.196
-686.324	-115.236	-0.035	-0.007
-685.310	-200.000	-0.035	0.346
-684.295	-200.000	-0.022	-0.223
-683.281	-200.000	-0.045	-0.294
-682.266	264.268	0.060	-0.105
-681.251	-36.421	-0.162	0.087
-680.237	32.612	-0.138	0.120
-679.222	79.682	-0.242	-0.260
-678.208	-6.509	0.344	0.235
-677.193	265.948	-0.085	0.149
-676.178	-133.494	-0.035	0.004
-675.164	-60.994	0.018	-0.008
-674.149	258.295	0.043	-0.075
-673.135	-90.337	0.032	-0.009
-672.120	-19.095	-0.242	-0.150
-671.105	159.830	0.312	-0.435
-670.091	43.849	-0.249	-0.229
-669.076	800.000	-0.023	0.074
-668.062	-115.387	-0.240	-0.045
-667.047	58.396	-0.261	0.257
-666.032	-185.857	0.131	-0.002
-665.018	-1.299	-0.214	-0.151
-664.003	-172.078	-0.325	0.011
-662.989	388.369	0.089	0.184
-661.974	-137.635	-0.375	-0.042
-660.959	-64.144	-0.199	-0.081
-659.945	-5.627	0.115	-0.079
-658.930	44.139	0.056	-0.052
-657.916	52.437	-0.121	0.116
-656.901	56.131	-0.148	0.144
-655.886	-200.000	-0.015	0.148
-654.872	-162.102	-0.151	-0.008
-653.857	27.040	-0.179	-0.150
-652.843	-55.017	0.057	-0.026
-651.828	800.000	-0.009	-0.030
-650.814	90.568	0.202	-0.227
-649.799	161.602	-0.120	0.168
-648.784	2.894	0.148	-0.107
-647.770	-85.137	-0.426	0.133
-646.755	-8.816	0.220	-0.147
-645.741	800.000	-0.092	-0.256
-644.726	-26.364	-0.106	-0.062
-643.711	563.551	-0.012	0.029
-642.697	-200.000	0.051	-0.234
-641.682	116.039	-0.052	0.063
-640.668	-200.000	-0.068	0.347
-639.653	458.392	-0.041	-0.092
-638.638	800.000	0.076	-0.230
-637.624	-200.000	-0.012	-0.086
-636.609	-148.839	-0.195	-0.016
-635.595	39.513	0.075	-0.068
-634.580	-97.292	0.244	0.064
-633.565	26.628	0.455	0.381
-632.551	183.275	0.220	-0.325
-631.536	-56.530	0.045	0.020
-630.522	396.443	0.046	0.095
-629.507	188.825	-0.103	-0.154
-628.492	6.872	0.094	-0.070
-627.478	220.390	0.175	-0.280
-626.463	-93.558	-0.204	-0.057
-625.449	225.096	-0.113	-0.183
-624.434	723.962	-0.052	-0.140
-623.419	-98.987	-0.103	0.026
-622.405	91.682	0.023	-0.025
-621.390	-35.785	-0.297	0.161
-620.376	-65.508	0.275	0.110
-619.361	-28.571	0.137	-0.079
-618.346	800.000	0.044	-0.142
-617.332	-46.243	0.272	-0.134
-616.317	187.837	-0.046	0.069
-615.303	800.000	-0.060	0.167
-614.288	-43.117	0.115	-0.058
-613.273	153.734	-0.017	-0.024
-612.259	-179.260	0.213	0.005
-611.244	182.000	0.091	0.135
-610.230	41.429	-0.131	0.119
-609.215	-200.000	0.012	-0.098
-608.201	-103.955	0.246	0.057
-607.186	193.977	0.167	-0.252
-606.171	-16.310	-0.149	-0.094
-605.157	126.055	-0.223	-0.282
-604.142	-200.000	-0.036	-0.216
-603.128	-100.343	0.222	-0.055
-602.113	-90.164	0.320	-0.093
-601.098	58.775	-0.089	-0.087
-600.084	-152.533	-0.081	-0.006
-599.069	-63.200	-0.288	0.119
-598.055	-2.136	-0.071	-0.050
-597.040	-81.511	0.065	0.021
-596.025	-74.813	0.191	-0.068
-595.011	162.790	-0.034	-0.048
-593.996	83.172	-0.130	0.141
-592.982	-200.000	-0.044	0.193
-591.967	800.000	-0.030	0.110
-590.952	-200.000	0.005	-0.099
-589.938	800.000	-0.023	-0.094
-588.923	16.092	0.136	-0.107
-587.909	800.000	0.106	0.382
-586.894	371.935	0.177	0.358
-585.879	-200.000	-0.039	-0.232
-584.865	800.000	0.060	-0.175
-583.850	-152.731	0.217	0.015
-582.836	-162.630	-0.046	-0.002
-581.821	-111.465	-0.507	-0.103
-580.806	800.000	0.039	0.129
-579.792	32.796	0.099	0.085
-578.777	145.079	-0.179	0.238
-577.763	92.875	0.264	-0.298
-576.748	-35.052	-0.268	0.146
-575.733	800.000	-0.054	0.204
-574.719	8.241	-0.288	0.216
-573.704	-145.252	0.118	0.011
-572.690	-200.000	0.045	0.388
-571.675	-141.032	0.187	0.019
-570.661	-185.373	0.089	-0.001
-569.646	800.000	-0.108	0.345
-568.631	800.000	0.028	-0.107
-567.617	188.383	-0.106	-0.158
-566.602	-76.129	-0.168	0.059
-565.588	-200.000	0.083	-0.415
-564.573	-200.000	-0.026	0.176
-563.558	178.265	0.074	0.108
-562.544	-103.499	-0.259	0.061
-561.529	-31.118	0.221	0.124
-560.515	-148.066	0.240	0.020
-559.500	-10.978	-0.149	0.098
-558.485	-200.000	0.002	0.216
-557.471	-200.000	-0.016	-0.264
-556.456	-169.728	-0.580	0.021
-555.442	-114.722	-0.631	-0.120
-554.427	-64.755	-0.043	0.017
-553.412	98.155	-0.157	0.181
-552.398	90.931	-0.160	0.179
-551.383	-200.000	0.001	-0.094
-550.369	-4.193	0.478	-0.330
-549.354	-200.000	0.028	0.482
-548.339	413.582	-0.131	0.277
-547.325	4.287	-0.117	0.085
-546.310	-200.000	-0.002	-0.074
-545.296	141.098	0.094	-0.123
-544.281	-42.999	-0.228	0.115
-543.266	-200.000	0.008	0.300
-542.252	165.464	0.119	-0.168
-541.237	-200.000	0.044	-0.277
-540.223	-167.898	-0.558	-0.022
-539.208	-11.459	0.237	0.155
-538.193	274.196	-0.022	-0.039
-537.179	-25.259	-0.138	-0.082
-536.164	165.143	0.140	-0.197
-535.150	-70.134	0.391	-0.148
-534.135	90.115	0.318	0.354
-533.121	-126.653	0.187	0.028
-532.106	-200.000	-0.040	-0.192
-531.091	19.463	0.154	0.124
-530.077	286.144	-0.049	-0.089
-529.062	-200.000	-0.020	-0.275
-528.048	26.233	-0.203	-0.169
-527.033	498.494	-0.070	-0.162
-526.018	54.101	-0.103	-0.098
-525.004	-141.317	0.073	0.007
-523.989	-64.151	0.280	0.114
-522.975	-200.000	0.062	-0.371
-521.960	800.000	-0.062	0.220
-520.945	-200.000	-0.015	-0.109
-519.931	258.894	0.028	0.048
-518.916	-200.000	0.046	0.210
-517.902	121.138	-0.141	-0.175
-516.887	-200.000	0.009	0.164
-515.872	-44.319	-0.232	0.115
-514.858	144.001	0.128	-0.170
-513.843	247.028	0.093	-0.155
-512.829	-98.602	-0.203	0.052
-511.814	-171.870	-0.106	-0.003
-510.799	-156.452	-0.263	-0.016
-509.785	592.421	0.111	-0.274
-508.770	222.726	0.232	0.371
-507.756	-89.109	-0.313	0.092
-506.741	248.957	0.119	0.200
-505.726	40.381	-0.185	-0.166
-504.712	-22.480	-0.315	-0.190
-503.697	-48.544	0.116	-0.056
-502.683	77.190	0.112	0.118
-501.668	97.954	0.169	0.193
-500.653	-24.703	0.294	0.174
-499.639	-126.859	0.100	0.015
-498.624	-98.409	0.244	-0.062
-497.610	29.998	-0.286	0.242
-496.595	-200.000	0.009	0.050
-495.581	41.810	-0.145	-0.131
-494.566	-165.337	0.105	0.005
-493.551	76.929	0.179	0.189
-492.537	231.274	-0.118	0.192
-491.522	127.167	-0.246	0.310
-490.508	647.489	-0.054	-0.137
-489.493	-133.578	0.278	0.035
-488.478	-63.566	0.094	-0.038
-487.464	132.969	-0.105	-0.135
-486.449	136.252	-0.146	0.190
-485.435	101.036	0.112	-0.129
-484.420	36.115	0.069	0.060
-483.405	160.078	-0.064	0.089
-482.391	800.000	-0.006	-0.017
-481.376	-75.423	-0.200	-0.071
-480.362	375.259	-0.076	-0.155
-479.347	-196.003	-0.279	-0.002
-478.332	-64.525	0.137	-0.055
-477.318	-39.485	-0.221	0.115
-476.303	143.406	-0.178	0.235
-475.289	55.523	0.164	-0.158
-474.274	75.679	-0.130	0.137
-473.259	36.536	-0.261	0.229
-472.245	742.271	0.085	-0.228
-471.230	-46.448	0.247	0.120
-470.216	-145.124	0.073	-0.007
-469.201	409.185	-0.022	0.046
-468.186	800.000	-0.031	-0.130
-467.172	-113.941	0.249	0.048
-466.157	-91.666	-0.429	0.121
-465.143	-45.727	-0.159	-0.078
-464.128	-200.000	-0.033	0.174
-463.113	-142.259	-0.333	0.033
-462.099	43.108	-0.136	-0.123
-461.084	62.513	0.072	-0.072
-460.070	-7.011	-0.156	0.105
-459.055	-106.618	-0.248	0.055
-458.040	-43.962	0.238	-0.119
-457.026	94.814	0.155	0.175
-456.011	160.622	-0.127	0.176
-454.997	800.000	0.076	-0.321
-453.982	-66.826	-0.267	-0.105
-452.968	274.454	0.111	-0.196
-451.953	-29.515	-0.208	-0.118
-450.938	-200.000	-0.028	-0.163
-449.924	248.122	0.089	-0.150
-448.909	110.690	0.211	-0.252
-447.895	388.879	0.106	0.219
-446.880	800.000	0.098	-0.410
-445.865	-10.833	-0.099	0.065
-444.851	42.226	-0.113	0.102
-443.836	133.841	-0.148	0.190
-442.822	-63.085	0.258	-0.106
-441.807	393.607	-0.048	-0.100
-440.792	-200.000	0.039	0.248
-439.778	-200.000	-0.006	-0.156
-438.763	-120.736	0.247	0.041
-437.749	-115.319	-0.289	0.054
-436.734	-200.000	0.007	0.152
-435.719	-42.056	0.125	0.063
-434.705	-200.000	-0.004	0.070
-433.690	-65.676	0.101	-0.040
-432.676	-189.740	0.146	-0.002
-431.661	-200.000	-0.030	0.272
-430.646	-98.418	0.087	0.022
-429.632	-36.304	0.161	-0.086
-428.617	-123.075	-0.388	0.062
-427.603	800.000	-0.021	0.087
-426.588	-9.012	0.063	0.042
-425.573	-89.230	-0.061	0.018
-424.559	-200.000	0.009	0.061
-423.544	25.231	-0.393	0.324
-422.530	183.924	-0.214	0.314
-421.515	-25.829	-0.136	0.079
-420.500	-67.953	0.283	0.109
-419.486	95.995	0.084	0.095
-418.471	46.637	0.099	0.091
-417.457	-59.773	0.110	0.047
-416.442	306.688	0.029	0.053
-415.428	407.182	0.051	-0.106
-414.413	289.462	-0.240	-0.432
-413.398	135.201	-0.040	0.051
-412.384	-16.657	-0.185	0.116
-411.369	-185.682	-0.088	0.001
-410.355	-103.531	-0.250	-0.058
-409.340	-43.375	-0.099	-0.049
-408.325	154.261	0.183	0.249
-407.311	800.000	-0.028	-0.107
-406.296	12.178	-0.300	-0.229
-405.282	-52.932	-0.010	0.005
-404.267	11.392	0.185	0.141
-403.252	-96.975	0.266	0.069
-402.238	129.472	0.194	0.245
-401.223	436.577	0.049	-0.106
-400.209	43.373	0.102	0.092
-399.194	-35.645	0.364	-0.196
-398.179	96.728	0.241	0.274
-397.165	-75.337	-0.140	0.049
-396.150	-80.566	0.113	0.037
-395.136	502.904	-0.126	-0.289
-394.121	-88.455	0.122	-0.036
-393.106	-107.633	-0.401	0.087
-392.092	-142.630	0.090	0.009
-391.077	645.253	-0.046	0.116
-390.063	-200.000	-0.035	-0.169
-389.048	242.667	-0.189	0.314
-388.033	800.000	-0.043	-0.135
-387.019	-200.000	-0.024	-0.479
-386.004	-158.259	-0.287	0.017
-384.990	98.658	0.075	-0.085
-383.975	43.222	-0.057	-0.052
-382.960	406.968	-0.101	-0.211
-381.946	800.000	0.137	0.447
-380.931	-164.864	0.160	0.007
-379.917	-200.000	-0.004	-0.285
-378.902	800.000	-0.021	-0.082
-377.888	69.916	-0.281	0.287
-376.873	400.960	-0.088	0.183
-375.858	-42.710	0.278	0.140
-374.844	256.937	-0.091	-0.155
-373.829	89.419	0.067	0.074
-372.815	-136.967	0.310	0.035
-371.800	-200.000	0.016	-0.437
-370.785	-15.645	0.357	0.226
-369.771	-32.134	-0.345	-0.191
-368.756	-200.000	0.015	0.318
-367.742	-200.000	-0.056	0.285
-366.727	-200.000	0.023	-0.398
-365.712	272.396	0.116	0.203
-364.698	532.004	-0.104	-0.244
-363.683	-186.120	0.125	-0.002
-362.669	286.917	0.052	0.093
-361.654	800.000	-0.139	0.397
-360.639	-69.327	-0.394	-0.150
-359.625	35.460	-0.052	-0.045
-358.610	-0.844	-0.133	0.093
-357.596	-49.422	0.062	-0.029
-356.581	443.761	-0.082	-0.178
-355.566	-200.000	0.021	0.122
-354.552	-42.993	0.461	-0.231
-353.537	64.814	0.436	-0.435
-352.523	800.000	-0.046	-0.128
-351.508	707.053	0.079	-0.207
-350.493	356.723	0.189	-0.372
-349.479	800.000	0.058	-0.183
-348.464	-17.441	-0.353	-0.220
-347.450	-200.000	0.078	0.390
-346.435	36.871	0.079	-0.069
-345.420	44.123	-0.168	0.152
-344.406	252.681	-0.099	0.167
-343.391	-71.722	0.227	0.084
-342.377	-200.000	0.054	0.336
-341.362	-200.000	-0.029	0.218
-340.348	-7.485	-0.117	0.078
-339.333	-200.000	-0.005	-0.067
-338.318	64.386	-0.182	0.181
-337.304	63.148	0.109	0.108
-336.289	265.643	0.177	0.304
-335.275	87.275	-0.102	-0.111
-334.260	145.805	0.022	0.029
-333.245	-200.000	0.025	-0.191
-332.231	100.954	-0.334	0.384
-331.216	79.155	-0.281	-0.298
-330.202	139.112	-0.165	0.215
-329.187	-38.361	0.162	0.085
-328.172	187.849	0.028	0.042
-327.158	-83.128	0.233	0.074
-326.143	800.000	0.145	-0.466
-325.129	198.108	0.069	-0.105
-324.114	800.000	-0.132	0.369
-323.099	53.011	0.074	0.070
-322.085	751.460	-0.142	0.379
-321.070	-27.972	0.302	-0.173
-320.056	-68.320	-0.129	-0.049
-319.041	28.692	-0.103	-0.086
-318.026	593.259	-0.112	-0.273
-317.012	-200.000	0.041	0.296
-315.997	34.216	-0.208	-0.179
-314.983	-200.000	-0.026	-0.146
-313.968	14.599	0.147	0.113
-312.953	-41.773	0.345	0.175
-311.939	-50.260	0.275	-0.128
-310.924	-106.459	0.334	-0.074
-309.910	-200.000	-0.020	-0.102
-308.895	-7.584	0.076	0.051
-307.880	-90.137	-0.215	0.062
-306.866	341.689	0.101	-0.195
-305.851	-200.000	0.020	0.206
-304.837	-101.596	-0.036	0.009
-303.822	-190.029	-0.333	0.004
-302.807	68.967	0.393	0.398
-301.793	119.927	-0.113	-0.139
-300.778	-39.570	0.287	-0.148
-299.764	-10.892	-0.143	-0.093
-298.749	800.000	-0.024	-0.092
-297.735	-134.308	-0.211	0.026
-296.720	-200.000	-0.008	-0.141
-295.705	-82.348	0.120	0.038
-294.691	337.793	0.151	0.290
-293.676	800.000	0.063	-0.215
-292.662	16.861	0.129	0.101
-291.647	-92.802	0.103	0.028
-290.632	-200.000	0.046	-0.275
-289.618	800.000	0.016	-0.054
-288.603	800.000	-0.039	0.142
-287.589	-122.644	-0.169	0.027
-286.574	-37.680	-0.238	-0.125
-285.559	345.187	-0.110	-0.214
-284.545	-200.000	-0.007	-0.360
-283.530	-200.000	-0.023	-0.125
-282.516	108.637	0.131	0.155
-281.501	-33.007	0.057	0.031
-280.486	-200.000	0.047	-0.267
-279.472	800.000	-0.101	0.276
-278.457	-52.901	-0.119	0.054
-277.443	-96.040	0.292	-0.077
-276.428	542.842	0.131	-0.307
-275.413	-200.000	0.002	-0.081
-274.399	64.431	0.163	0.162
-273.384	24.077	-0.372	0.303
-272.370	504.475	0.055	0.125
-271.355	-14.409	0.143	-0.091
-270.340	38.447	-0.047	0.041
-269.326	-68.391	0.557	0.213
-268.311	96.222	-0.110	0.124
-267.297	-62.539	-0.304	-0.124
-266.282	329.225	0.256	-0.485
-265.267	-200.000	-0.016	-0.328
-264.253	-200.000	0.037	-0.206
-263.238	-83.490	0.142	0.045
-262.224	278.552	0.246	-0.432
-261.209	228.382	0.054	-0.087
-260.195	202.466	-0.107	0.162
-259.180	12.960	0.252	-0.192
-258.165	-46.879	-0.113	0.054
-257.151	-200.000	0.040	0.218
-256.136	-99.875	-0.210	-0.052
-255.122	655.723	0.068	0.171
-254.107	275.641	0.056	-0.097
-253.092	-200.000	0.001	-0.159
-252.078	294.538	0.122	0.220
-251.063	-200.000	-0.000	0.002
-250.049	66.606	0.004	0.004
-249.034	-145.926	0.263	0.023
-248.019	800.000	-0.025	-0.091
-247.005	465.039	-0.086	-0.189
-245.990	25.464	0.256	-0.210
-244.976	50.364	-0.109	-0.101
-243.961	-85.827	0.124	0.038
-242.946	45.912	0.155	0.141
-241.932	-49.109	-0.210	0.099
-240.917	223.659	0.134	0.213
-239.903	-21.585	-0.127	0.076
-238.888	47.575	0.120	-0.111
-237.873	378.022	0.077	0.155
-236.859	56.926	0.013	0.012
-235.844	130.589	0.053	-0.067
-234.830	-150.914	0.329	-0.024
-233.815	-136.148	0.265	-0.031
-232.800	-200.000	-0.026	-0.375
-231.786	-0.219	-0.112	0.078
-230.771	7.118	0.289	-0.212
-229.757	-28.332	0.427	0.243
-228.742	-60.602	-0.225	0.094
-227.727	-19.521	-0.108	0.066
-226.713	78.668	-0.223	0.235
-225.698	34.116	-0.244	-0.210
-224.684	-26.621	0.497	0.286
-223.669	-129.601	0.350	-0.048
-222.655	-23.135	0.132	0.078
-221.640	253.915	-0.183	-0.309
-220.625	679.188	0.025	0.063
-219.611	37.165	0.124	-0.108
-218.596	-0.400	-0.309	0.216
-217.582	22.472	-0.268	0.215
-216.567	450.997	0.109	-0.236
-215.552	126.917	-0.283	0.354
-214.538	-58.177	-0.192	-0.082
-213.523	-41.495	0.262	0.133
-212.509	251.837	0.030	0.050
-211.494	-48.661	0.152	0.072
-210.479	480.989	0.092	-0.206
-209.465	-9.925	-0.096	-0.063
-208.450	-200.000	-0.011	0.059
-207.436	189.309	-0.223	-0.329
-206.421	511.138	0.098	0.224
-205.406	-130.148	-0.202	0.027
-204.392	361.481	0.135	0.267
-203.377	333.624	0.075	-0.142
-202.363	40.533	0.064	-0.057
-201.348	-90.756	-0.186	0.053
-200.333	-200.000	0.006	0.345
-199.319	800.000	0.094	-0.361
-198.304	-25.445	-0.112	0.065
-197.290	-200.000	0.019	-0.104
-196.275	-56.854	-0.174	0.076
-195.260	327.428	0.134	-0.253
-194.246	66.222	-0.079	0.079
-193.231	-200.000	-0.233	0.000
-192.217	800.000	-0.187	-0.514
-191.202	195.586	0.048	0.072
-190.187	-45.913	-0.057	-0.027
-189.173	378.980	-0.016	0.033
-188.158	-200.000	-0.051	0.251
-187.144	-5.170	-0.232	0.157
-186.129	22.964	-0.242	0.195
-185.114	-193.385	-0.101	0.001
-184.100	269.535	0.073	0.126
-183.085	-60.150	-0.290	-0.121
-182.071	-200.000	-0.005	0.034
-181.056	-76.038	0.116	-0.040
-180.042	-200.000	-0.049	-0.236
-179.027	-5.512	0.216	-0.146
-178.012	-42.409	0.023	0.012
-176.998	-200.000	-0.036	-0.155
-175.983	161.132	0.086	-0.118
-174.969	-2.611	0.026	-0.018
-173.954	-200.000	-0.033	0.277
-172.939	-200.000	-0.003	0.259
-171.925	218.601	0.179	-0.280
-170.910	-40.993	-0.136	-0.069
-169.896	-133.898	-0.172	0.021
-168.881	800.000	0.065	0.186
-167.866	44.981	-0.089	-0.081
-166.852	-82.426	0.105	0.033
-165.837	-184.348	0.238	0.004
-164.823	190.602	-0.186	-0.275
-163.808	251.297	0.068	-0.114
-162.793	-200.000	-0.012	0.098
-161.779	16.193	-0.217	0.168
-160.764	77.741	-0.118	0.123
-159.750	-126.765	0.271	-0.039
-158.735	-58.118	0.118	-0.050
-157.720	-35.242	-0.231	0.123
-156.706	-42.449	-0.137	-0.069
-155.691	-94.123	0.246	-0.066
-154.677	-116.056	-0.308	-0.056
-153.662	-85.275	-0.043	0.013
-152.647	126.624	0.086	-0.107
-151.633	41.360	-0.008	0.007
-150.618	-71.852	0.337	0.123
-149.604	-103.922	0.079	-0.018
-148.589	-120.237	-0.325	0.054
-147.574	179.451	0.130	0.187
-146.560	-200.000	-0.062	-0.286
-145.545	763.956	-0.186	0.497
-144.531	-200.000	0.015	-0.368
-143.516	64.105	0.036	-0.035
-142.502	-200.000	-0.007	0.069
-141.487	110.462	-0.112	-0.132
-140.472	-54.787	-0.027	-0.012
-139.458	-39.658	-0.050	0.025
-138.443	-131.524	0.355	0.046
-137.429	229.884	0.073	0.117
-136.414	71.499	-0.239	-0.243
-135.399	-200.000	-0.026	-0.225
-134.385	-124.124	-0.392	-0.060
-133.370	6.217	0.234	-0.170
-132.356	-66.994	0.269	-0.104
-131.341	-68.254	-0.151	0.058
-130.326	-200.000	-0.000	-0.174
-129.312	376.727	0.101	-0.202
-128.297	366.236	0.097	0.191
-127.283	-138.474	-0.385	0.041
-126.268	-65.835	0.575	0.226
-125.253	-104.696	-0.069	-0.016
-124.239	669.665	0.030	-0.077
-123.224	343.439	-0.081	-0.156
-122.210	76.975	0.396	0.412
-121.195	-37.219	0.086	0.045
