DTS Sentinel unit serial number:	SN413079Multiplexer serial number:	ORYXHardware model number:	OX4-SRSoftware version number:	ORYX F/W v4.00 Oryx Data Collector v3.7.2.0data status	okinstallation	princeton_trtdifferential loss correction	single-endedforward channel	channel 2reverse channel	N/Adate	2019/09/17time	09:19:35forward acquisition time	60.00reverse acquisition time	0.00gamma	496.2192k internal	0.2330k external	0.2330temperature offset calibration	0.9972default loss term (dB/km)	0.3790temperature slope calibration	1.0000multiplexer offset coefficient	1.0000multiplexer slope coefficient	1.0000fibre end	0.00T internal ref (°C)	28.66T ext. ref 1 (°C)	0.14T ext. ref 2 (°C)	25.63length (m)	temperature (°C)	Stokes	anti-Stokes-747.200	-163.763	0.142	0.007
-746.185	-154.352	0.171	-0.012
-745.171	-85.256	0.067	-0.021
-744.156	-165.980	-0.310	0.013
-743.142	111.459	0.161	0.195
-742.127	-102.084	-0.135	0.033
-741.112	-1.376	-0.025	-0.018
-740.098	800.000	-0.078	0.253
-739.083	214.421	-0.028	-0.045
-738.069	89.208	0.221	0.248
-737.054	-200.000	-0.004	0.179
-736.039	-98.703	-0.493	-0.127
-735.025	253.519	-0.075	0.129
-734.010	30.472	-0.202	0.174
-732.996	92.085	-0.292	0.331
-731.981	-97.967	0.159	-0.041
-730.966	-82.068	0.182	-0.060
-729.952	-80.484	0.280	-0.094
-728.937	227.729	-0.122	-0.200
-727.923	276.308	-0.281	0.502
-726.908	227.524	-0.150	-0.246
-725.894	-200.000	-0.010	-0.054
-724.879	445.337	0.099	-0.218
-723.864	-46.291	-0.235	0.116
-722.850	-19.292	-0.123	0.077
-721.835	390.347	-0.047	0.099
-720.821	-155.706	-0.254	0.016
-719.806	-200.000	0.027	-0.159
-718.791	-200.000	-0.035	0.312
-717.777	-58.766	-0.147	-0.064
-716.762	-176.488	-0.121	0.003
-715.748	166.402	0.117	-0.167
-714.733	113.052	-0.231	-0.282
-713.718	130.777	0.121	0.156
-712.704	-24.530	0.278	-0.167
-711.689	-200.000	-0.015	0.093
-710.675	-103.412	-0.223	0.053
-709.660	-145.883	0.185	-0.016
-708.645	24.170	0.188	-0.156
-707.631	124.450	0.042	-0.053
-706.616	-103.134	-0.333	0.079
-705.602	509.543	0.075	0.174
-704.587	-152.079	-0.431	0.032
-703.572	-75.043	-0.305	0.110
-702.558	-200.000	-0.028	-0.276
-701.543	-104.213	0.240	0.056
-700.529	113.808	-0.128	0.157
-699.514	-22.553	-0.103	0.062
-698.499	3.360	0.366	0.268
-697.485	105.942	-0.047	-0.055
-696.470	-89.663	-0.231	-0.068
-695.456	-200.000	0.037	-0.322
-694.441	89.776	-0.108	0.121
-693.426	-173.036	0.388	0.012
-692.412	-85.431	-0.241	-0.075
-691.397	544.457	-0.126	-0.302
-690.383	43.911	-0.340	-0.313
-689.368	382.692	0.129	-0.267
-688.354	-200.000	-0.033	0.348
-687.339	-64.187	0.108	0.044
-686.324	800.000	0.066	0.274
-685.310	-2.729	-0.078	0.055
-684.295	52.398	0.123	-0.118
-683.281	-178.158	-0.426	-0.010
-682.266	311.173	-0.166	0.313
-681.251	-200.000	0.010	-0.413
-680.237	25.569	-0.168	-0.141
-679.222	41.899	0.135	-0.123
-678.208	-95.729	-0.231	-0.062
-677.193	129.782	-0.062	-0.079
-676.178	-23.231	0.105	-0.064
-675.164	-200.000	0.011	0.205
-674.149	-200.000	-0.027	0.129
-673.135	800.000	-0.086	0.253
-672.120	142.763	-0.110	-0.147
-671.105	800.000	-0.054	0.167
-670.091	-28.208	-0.128	-0.074
-669.076	-200.000	-0.016	-0.137
-668.062	77.839	-0.096	-0.102
-667.047	135.389	-0.160	0.210
-666.032	458.238	0.045	-0.099
-665.018	509.664	-0.152	0.355
-664.003	257.986	-0.152	-0.263
-662.989	-89.544	-0.108	0.032
-661.974	445.550	-0.067	-0.147
-660.959	-72.365	0.331	-0.123
-659.945	-200.000	-0.012	-0.195
-658.930	-30.978	-0.195	0.111
-657.916	800.000	0.069	-0.214
-656.901	14.570	-0.111	0.087
-655.886	37.565	0.255	0.227
-654.872	-24.389	-0.260	0.156
-653.857	800.000	-0.100	-0.323
-652.843	116.208	-0.209	0.257
-651.828	-62.856	-0.325	-0.135
-650.814	55.272	-0.213	0.207
-649.799	-39.921	-0.657	-0.344
-648.784	-200.000	-0.028	-0.174
-647.770	-16.766	-0.140	0.089
-646.755	43.033	0.184	-0.168
-645.741	-200.000	-0.009	-0.107
-644.726	800.000	-0.028	-0.078
-643.711	-200.000	0.107	0.495
-642.697	-93.351	0.161	0.045
-641.682	85.806	0.233	-0.257
-640.668	-134.188	-0.213	-0.026
-639.653	-200.000	-0.059	-0.335
-638.638	-200.000	-0.007	0.152
-637.624	-30.292	0.102	0.058
-636.609	-200.000	0.012	-0.065
-635.595	770.840	0.085	-0.233
-634.580	-200.000	-0.220	0.000
-633.565	-43.653	0.191	0.097
-632.551	-200.000	-0.016	0.171
-631.536	-3.696	0.113	0.079
-630.522	-85.415	0.059	-0.019
-629.507	84.911	0.203	0.224
-628.492	687.706	-0.092	0.240
-627.478	424.851	0.128	-0.276
-626.463	-82.163	-0.245	-0.080
-625.449	-118.518	-0.151	-0.027
-624.434	-200.000	-0.002	0.018
-623.419	800.000	0.057	-0.192
-622.405	-76.289	-0.118	0.042
-621.390	-85.511	0.380	-0.119
-620.376	-113.299	-0.254	0.050
-619.361	-109.494	-0.235	-0.050
-618.346	99.848	0.199	0.231
-617.332	800.000	0.107	-0.387
-616.317	44.892	-0.307	0.283
-615.303	-123.774	-0.089	-0.014
-614.288	31.505	0.115	0.099
-613.273	-130.873	0.184	0.025
-612.259	-187.277	0.285	-0.004
-611.244	-94.361	-0.236	0.065
-610.230	-98.346	0.381	0.098
-609.215	347.930	-0.055	0.108
-608.201	-128.965	-0.081	-0.011
-607.186	18.290	-0.144	-0.115
-606.171	-105.843	0.218	0.049
-605.157	-30.156	-0.323	-0.184
-604.142	6.651	-0.304	-0.226
-603.128	-62.063	-0.239	-0.100
-602.113	-74.243	-0.319	0.116
-601.098	136.778	-0.244	0.320
-600.084	2.439	-0.201	-0.146
-599.069	-100.668	0.233	-0.058
-598.055	-0.046	0.018	-0.013
-597.040	-200.000	0.030	-0.187
-596.025	-200.000	-0.014	-0.094
-595.011	-46.891	0.138	0.068
-593.996	-132.191	0.250	-0.032
-592.982	293.034	-0.105	-0.191
-591.967	82.315	0.105	-0.114
-590.952	800.000	-0.020	-0.076
-589.938	-55.438	-0.149	-0.067
-588.923	110.231	0.107	0.128
-587.909	-117.281	-0.148	0.027
-586.894	-200.000	0.015	0.170
-585.879	33.657	0.060	0.052
-584.865	-200.000	0.002	-0.037
-583.850	-200.000	-0.063	-0.360
-582.836	66.066	0.263	0.267
-581.821	800.000	-0.099	-0.361
-580.806	-200.000	0.011	0.106
-579.792	211.096	-0.051	-0.080
-578.777	-3.672	0.181	0.126
-577.763	-50.531	-0.146	-0.069
-576.748	90.709	-0.052	-0.058
-575.733	542.758	-0.063	0.151
-574.719	2.339	-0.246	-0.178
-573.704	1.957	-0.205	0.148
-572.690	361.434	0.025	0.051
-571.675	316.701	0.139	-0.263
-570.661	62.966	0.250	0.250
-569.646	-7.479	0.355	0.241
-568.631	-200.000	0.040	-0.185
-567.617	-59.761	0.318	0.136
-566.602	376.713	0.056	0.115
-565.588	-156.331	0.280	-0.018
-564.573	-120.204	-0.119	0.020
-563.558	-124.765	0.593	0.092
-562.544	-129.382	0.181	0.025
-561.529	800.000	-0.080	0.224
-560.515	800.000	0.023	-0.089
-559.500	-50.961	0.145	0.068
-558.485	40.622	0.092	-0.083
-557.471	52.994	0.182	0.174
-556.456	800.000	0.036	-0.116
-555.442	-93.007	0.134	0.037
-554.427	32.561	0.157	0.136
-553.412	93.286	0.183	0.207
-552.398	-33.677	-0.293	0.161
-551.383	135.592	0.049	0.064
-550.369	-62.958	-0.233	-0.096
-549.354	-178.035	-0.068	0.002
-548.339	-5.880	-0.115	-0.078
-547.325	1.021	0.146	0.105
-546.310	800.000	-0.078	-0.293
-545.296	-200.000	0.004	0.067
-544.281	-23.499	0.169	-0.102
-543.266	575.839	0.138	-0.336
-542.252	19.456	0.092	0.074
-541.237	119.251	-0.039	-0.049
-540.223	-54.509	-0.204	0.092
-539.208	346.660	-0.148	0.290
-538.193	-67.808	0.146	0.057
-537.179	-106.955	0.115	0.025
-536.164	800.000	-0.100	0.364
-535.150	-200.000	-0.091	-0.415
-534.135	-200.000	-0.025	-0.217
-533.121	36.368	-0.311	0.274
-532.106	674.027	0.083	-0.215
-531.091	-70.814	-0.133	-0.050
-530.077	-200.000	0.034	0.181
-529.062	-83.869	-0.137	-0.044
-528.048	7.359	-0.100	0.074
-527.033	21.321	-0.186	-0.151
-526.018	724.314	-0.069	0.183
-525.004	-86.703	0.260	-0.079
-523.989	-118.895	-0.272	0.048
-522.975	242.864	-0.111	-0.186
-521.960	-142.632	-0.294	0.029
-520.945	60.212	-0.112	0.111
-519.931	-200.000	-0.323	0.001
-518.916	-40.986	0.297	0.153
-517.902	95.484	0.272	0.310
-516.887	380.676	0.158	0.324
-515.872	-31.964	0.051	-0.029
-514.858	800.000	-0.073	0.228
-513.843	-200.000	0.007	-0.065
-512.829	-42.423	0.153	0.078
-511.814	-200.000	0.017	0.156
-510.799	-200.000	-0.061	0.361
-509.785	79.975	0.074	0.079
-508.770	-140.684	0.035	-0.004
-507.756	-98.991	-0.167	0.042
-506.741	-200.000	0.024	-0.247
-505.726	800.000	-0.086	0.341
-504.712	800.000	-0.145	0.425
-503.697	-176.050	-0.112	-0.003
-502.683	85.447	0.112	-0.122
-501.668	12.293	-0.128	0.098
-500.653	254.871	0.008	-0.014
-499.639	-73.405	0.090	0.033
-498.624	7.182	0.202	0.150
-497.610	-39.993	0.310	0.161
-496.595	315.466	0.068	-0.128
-495.581	-200.000	-0.032	0.240
-494.566	-166.579	0.258	-0.011
-493.551	10.645	0.324	-0.246
-492.537	153.183	-0.133	-0.181
-491.522	133.913	-0.223	0.288
-490.508	277.640	0.135	-0.240
-489.493	261.212	-0.196	0.338
-488.478	-200.000	-0.019	0.104
-487.464	84.096	0.108	-0.118
-486.449	339.706	-0.199	0.386
-485.435	90.624	-0.122	-0.137
-484.420	-200.000	0.029	0.360
-483.405	461.191	0.013	-0.029
-482.391	9.506	0.282	-0.213
-481.376	-16.610	-0.190	-0.120
-480.362	-157.238	-0.010	-0.001
-479.347	86.790	-0.061	0.067
-478.332	28.660	-0.128	-0.108
-477.318	-30.176	-0.121	-0.068
-476.303	77.131	-0.152	-0.161
-475.289	120.321	-0.050	0.062
-474.274	45.677	-0.366	0.337
-473.259	414.960	-0.041	-0.088
-472.245	-200.000	0.018	-0.283
-471.230	-28.152	-0.106	-0.061
-470.216	800.000	-0.035	-0.111
-469.201	-99.853	0.233	0.058
-468.186	-200.000	-0.063	-0.285
-467.172	239.280	0.205	0.339
-466.157	312.242	-0.193	0.361
-465.143	63.022	0.126	-0.126
-464.128	-200.000	-0.005	0.220
-463.113	-51.332	0.170	0.079
-462.099	-75.555	0.204	-0.072
-461.084	164.678	-0.105	0.147
-460.070	-97.417	-0.190	-0.049
-459.055	201.938	0.162	0.249
-458.040	305.905	-0.136	0.251
-457.026	-23.122	-0.214	-0.128
-456.011	-200.000	-0.015	-0.207
-454.997	-24.654	-0.180	-0.107
-453.982	-128.318	-0.229	0.033
-452.968	-117.297	-0.302	-0.055
-451.953	-95.562	0.476	0.127
-450.938	800.000	-0.107	0.345
-449.924	800.000	0.097	-0.286
-448.909	55.366	0.168	0.162
-447.895	-4.501	-0.279	0.192
-446.880	-139.996	0.252	-0.026
-445.865	16.974	0.277	-0.218
-444.851	-54.873	-0.012	-0.005
-443.836	96.789	0.138	0.158
-442.822	-173.916	-0.173	0.005
-441.807	-158.863	-0.055	-0.003
-440.792	-200.000	-0.006	-0.258
-439.778	119.859	-0.089	-0.110
-438.763	-14.504	0.268	0.171
-437.749	760.361	0.147	-0.397
-436.734	-8.442	0.148	-0.099
-435.719	5.369	-0.073	-0.053
-434.705	275.030	0.133	-0.235
-433.690	483.731	0.068	-0.154
-432.676	10.189	0.134	-0.101
-431.661	-66.933	-0.334	-0.131
-430.646	800.000	-0.097	-0.313
-429.632	670.127	0.013	-0.034
-428.617	712.338	0.063	-0.165
-427.603	-52.986	0.187	-0.086
-426.588	90.453	0.024	0.026
-425.573	-62.891	-0.217	-0.089
-424.559	-38.892	-0.127	-0.067
-423.544	-200.000	-0.002	0.053
-422.530	4.662	-0.276	-0.201
-421.515	800.000	-0.073	-0.224
-420.500	51.158	0.035	-0.033
-419.486	542.890	0.089	-0.212
-418.471	800.000	-0.143	-0.453
-417.457	-59.687	0.202	0.086
-416.442	53.466	0.208	-0.198
-415.428	135.275	0.081	-0.105
-414.413	-93.299	-0.177	-0.049
-413.398	93.488	0.174	-0.196
-412.384	-18.758	-0.233	-0.144
-411.369	61.804	-0.272	-0.270
-410.355	-200.000	0.008	-0.316
-409.340	800.000	0.088	0.289
-408.325	-200.000	0.018	-0.173
-407.311	-148.222	-0.230	-0.019
-406.296	57.156	0.082	0.080
-405.282	-200.000	0.000	0.152
-404.267	-74.465	-0.065	0.023
-403.252	233.364	-0.061	0.099
-402.238	-200.000	0.001	-0.037
-401.223	-52.939	0.295	0.135
-400.209	551.513	-0.081	0.194
-399.194	-73.192	-0.299	-0.109
-398.179	618.854	-0.205	-0.512
-397.165	162.011	-0.056	0.078
-396.150	176.693	0.106	-0.153
-395.136	167.946	-0.050	0.071
-394.121	-77.590	0.319	0.110
-393.106	259.378	0.239	0.410
-392.092	-200.000	0.007	0.139
-391.077	-158.505	0.073	-0.004
-390.063	-125.103	0.207	0.032
-389.048	-56.994	0.132	-0.058
-388.033	-32.711	0.069	-0.038
-387.019	-200.000	-0.004	-0.307
-386.004	219.794	-0.142	-0.226
-384.990	-141.826	0.212	0.021
-383.975	32.408	0.266	0.228
-382.960	105.403	0.106	-0.125
-381.946	218.523	0.115	0.183
-380.931	49.271	0.105	-0.098
-379.917	800.000	0.082	0.237
-378.902	-2.776	-0.278	0.193
-377.888	-29.981	-0.238	-0.135
-376.873	-76.391	0.084	-0.029
-375.858	-163.247	0.499	-0.024
-374.844	34.939	-0.147	-0.127
-373.829	61.642	0.161	-0.159
-372.815	-109.397	-0.438	-0.092
-371.800	229.603	0.029	-0.047
-370.785	0.773	-0.165	-0.117
-369.771	224.801	-0.151	-0.242
-368.756	-171.776	-0.188	-0.006
-367.742	800.000	0.020	0.058
-366.727	-159.033	-0.227	0.013
-365.712	-20.091	-0.024	-0.015
-364.698	104.936	0.149	0.174
-363.683	36.334	0.191	0.167
-362.669	-164.696	-0.195	0.009
-361.654	-25.744	0.146	-0.085
-360.639	-147.744	-0.254	-0.021
-359.625	83.901	0.116	-0.126
-358.610	105.067	-0.075	-0.088
-357.596	37.572	0.036	-0.032
-356.581	638.632	-0.127	-0.319
-355.566	800.000	-0.043	-0.182
-354.552	800.000	-0.127	-0.435
-353.537	-200.000	-0.014	0.089
-352.523	-116.096	-0.212	0.039
-351.508	285.979	0.114	0.204
-350.493	-91.730	-0.337	0.095
-349.479	-81.566	0.164	0.053
-348.464	49.714	-0.265	-0.248
-347.450	67.597	-0.024	-0.024
-346.435	-180.609	-0.044	-0.001
-345.420	-200.000	-0.009	0.099
-344.406	59.644	0.318	0.311
-343.391	0.183	-0.035	-0.025
-342.377	800.000	0.085	0.280
-341.362	-200.000	0.019	0.203
-340.348	173.169	-0.033	-0.047
-339.333	689.744	0.123	-0.318
-338.318	5.730	0.243	-0.178
-337.304	800.000	-0.068	-0.201
-336.289	7.064	-0.041	0.031
-335.275	435.348	0.119	-0.257
-334.260	31.970	0.080	-0.068
-333.245	-200.000	0.036	-0.203
-332.231	800.000	-0.044	-0.144
-331.216	447.934	0.142	0.310
-330.202	118.745	0.191	0.234
-329.187	-88.229	0.210	-0.062
-328.172	-43.904	-0.342	0.171
-327.158	-163.694	0.187	-0.009
-326.143	94.897	0.209	0.235
-325.129	800.000	-0.058	0.163
-324.114	-65.464	0.091	-0.036
-323.099	-113.326	-0.400	0.078
-322.085	-76.943	-0.172	0.060
-321.070	462.634	-0.173	-0.383
-320.056	27.052	0.186	-0.154
-319.041	151.276	-0.038	-0.051
-318.026	55.788	-0.228	-0.219
-317.012	800.000	0.081	0.334
-315.997	212.683	0.257	0.402
-314.983	-200.000	-0.001	-0.215
-313.968	27.855	-0.243	0.203
-312.953	-96.995	0.156	-0.040
-311.939	-48.482	0.190	-0.091
-310.924	-31.097	-0.468	-0.261
-309.910	-200.000	-0.010	-0.203
-308.895	-200.000	-0.110	-0.495
-307.880	49.865	-0.099	-0.093
-306.866	-130.215	-0.329	0.044
-305.851	-73.279	-0.043	0.016
-304.837	42.691	0.423	0.381
-303.822	585.290	-0.012	0.028
-302.807	-200.000	-0.017	-0.128
-301.793	-200.000	-0.042	-0.211
-300.778	-200.000	0.021	-0.322
-299.764	641.585	-0.050	-0.127
-298.749	-200.000	-0.005	0.055
-297.735	49.556	0.100	-0.094
-296.720	-46.829	0.326	-0.158
-295.705	5.571	0.252	0.184
-294.691	244.374	-0.180	0.300
-293.676	800.000	-0.069	-0.243
-292.662	-189.906	-0.437	-0.005
-291.647	-20.125	-0.246	0.150
-290.632	-92.031	0.354	-0.099
-289.618	295.751	-0.075	0.136
-288.603	-89.908	0.215	-0.062
-287.589	135.719	0.238	-0.307
-286.574	-50.403	0.177	-0.083
-285.559	17.628	0.141	-0.111
-284.545	-122.956	-0.331	-0.053
-283.530	-103.631	-0.219	0.051
-282.516	31.385	-0.086	0.073
-281.501	-66.918	-0.279	0.109
-280.486	-118.634	-0.056	0.010
-279.472	-200.000	0.000	0.264
-278.457	201.548	-0.121	0.185
-277.443	-35.729	-0.436	0.234
-276.428	-200.000	0.015	-0.587
-275.413	208.780	-0.096	0.149
-274.399	-18.599	-0.256	0.158
-273.384	152.281	-0.129	0.173
-272.370	-31.195	0.168	0.094
-271.355	105.852	-0.240	0.281
-270.340	228.640	0.053	0.085
-269.326	237.342	-0.132	0.216
-268.311	58.644	0.313	0.304
-267.297	-200.000	0.048	0.372
-266.282	800.000	0.030	-0.112
-265.267	-65.449	0.105	-0.042
-264.253	-60.461	-0.317	-0.133
-263.238	117.293	0.250	0.304
-262.224	234.231	-0.169	-0.276
-261.209	-117.123	0.218	-0.039
-260.195	-30.808	0.245	-0.137
-259.180	-26.778	0.130	0.075
-258.165	361.279	-0.109	0.215
-257.151	18.490	-0.175	-0.138
-256.136	-66.380	0.214	0.084
-255.122	504.278	0.085	0.194
-254.107	-25.817	-0.248	0.145
-253.092	23.223	0.355	-0.288
-252.078	30.575	-0.067	-0.057
-251.063	800.000	-0.014	0.045
-250.049	28.615	-0.068	0.056
-249.034	134.122	-0.011	-0.015
-248.019	-50.677	0.178	0.083
-247.005	-200.000	-0.027	0.305
-245.990	-200.000	-0.004	-0.112
-244.976	-200.000	0.015	0.164
-243.961	764.229	-0.052	0.139
-242.946	204.093	-0.068	0.103
-241.932	152.575	0.175	0.236
-240.917	-150.266	0.113	0.009
-239.903	498.993	0.005	-0.011
-238.888	-200.000	0.026	-0.493
-237.873	763.133	-0.033	0.089
-236.859	263.880	0.106	-0.182
-235.844	-152.018	0.208	-0.015
-234.830	259.860	0.116	-0.199
-233.815	-200.000	0.014	0.267
-232.800	40.110	0.043	0.038
-231.786	-157.165	-0.304	-0.018
-230.771	-200.000	0.037	-0.184
-229.757	26.863	0.206	0.171
-228.742	-200.000	-0.016	-0.261
-227.727	62.554	-0.263	0.259
-226.713	-144.435	-0.075	0.007
-225.698	-200.000	-0.011	0.221
-224.684	134.524	0.228	-0.292
-223.669	165.702	-0.145	0.202
-222.655	-200.000	-0.008	-0.353
-221.640	510.312	0.021	0.048
-220.625	-56.290	-0.259	0.114
-219.611	41.787	0.061	-0.054
-218.596	-32.896	0.480	0.263
-217.582	800.000	0.028	-0.101
-216.567	-45.020	0.143	0.070
-215.552	28.781	0.186	-0.155
-214.538	-57.162	0.382	0.166
-213.523	800.000	0.103	0.415
-212.509	-200.000	0.031	0.158
-211.494	68.487	-0.112	0.113
-210.479	136.902	0.061	0.079
-209.465	134.515	-0.037	0.048
-208.450	-200.000	-0.025	-0.274
-207.436	75.867	0.074	0.077
-206.421	-200.000	0.016	0.131
-205.406	-200.000	0.023	-0.157
-204.392	-13.947	0.101	0.064
-203.377	-13.118	0.206	-0.132
-202.363	-200.000	-0.011	-0.165
-201.348	-15.279	-0.135	0.085
-200.333	-76.466	-0.349	-0.121
-199.319	-200.000	0.039	0.321
-198.304	-200.000	-0.014	0.376
-197.290	-126.175	-0.202	0.030
-196.275	-154.114	0.287	0.019
-195.260	-160.916	0.206	0.011
-194.246	302.325	-0.033	-0.060
-193.231	171.730	-0.170	0.241
-192.217	-200.000	-0.041	0.250
-191.202	-5.101	-0.177	0.120
-190.187	-200.000	0.038	0.277
-189.173	-194.460	-0.135	0.001
-188.158	26.708	0.078	0.065
-187.144	0.728	-0.229	0.161
-186.129	581.064	-0.092	-0.223
-185.114	-168.285	-0.152	-0.006
-184.100	-200.000	-0.023	0.198
-183.085	-197.635	-0.249	0.002
-182.071	3.047	-0.152	0.109
-181.056	86.732	0.126	-0.137
-180.042	741.118	0.080	-0.211
-179.027	136.866	0.122	-0.157
-178.012	800.000	-0.027	-0.094
-176.998	306.955	0.129	-0.236
-175.983	486.350	0.163	-0.365
-174.969	601.844	0.068	0.167
-173.954	-79.513	0.044	0.015
-172.939	-63.780	0.221	0.089
-171.925	-200.000	-0.030	-0.186
-170.910	-200.000	0.019	0.091
-169.896	-119.003	-0.169	-0.029
-168.881	-104.908	-0.121	-0.027
-167.866	77.880	-0.230	-0.241
-166.852	283.333	-0.093	0.164
-165.837	-172.450	0.319	-0.010
-164.823	-200.000	0.035	0.250
-163.808	7.154	0.106	-0.078
-162.793	49.792	-0.078	-0.072
-161.779	81.557	0.142	-0.151
-160.764	-58.103	-0.171	-0.073
-159.750	-81.104	-0.145	0.047
-158.735	113.353	0.101	-0.121
-157.720	137.923	0.173	-0.223
-156.706	-13.503	0.179	-0.114
-155.691	455.366	0.069	0.150
-154.677	168.017	0.245	0.343
-153.662	-80.911	-0.381	-0.124
-152.647	-154.059	-0.175	-0.012
-151.633	-99.717	0.095	0.023
-150.618	-119.304	-0.333	-0.057
-149.604	8.043	0.146	-0.108
-148.589	-64.630	-0.135	-0.054
-147.574	-200.000	0.063	0.408
-146.560	-28.140	0.153	0.087
-145.545	264.888	-0.134	-0.229
-144.531	35.286	0.269	0.232
-143.516	72.413	-0.397	0.407
-142.502	421.908	-0.142	0.300
-141.487	-31.347	0.085	0.047
-140.472	-24.350	0.147	-0.086
-139.458	43.641	-0.128	-0.115
-138.443	-149.351	-0.069	0.005
-137.429	22.719	0.164	-0.132
-136.414	-200.000	0.033	-0.388
-135.399	85.475	0.381	0.411
-134.385	-200.000	-0.043	0.244
-133.370	-161.725	0.213	0.011
-132.356	-63.452	-0.093	0.038
-131.341	102.001	-0.119	0.137
-130.326	-77.334	0.611	0.209
-129.312	800.000	-0.066	0.249
-128.297	-200.000	0.020	0.180
-127.283	800.000	0.011	0.046
-126.268	84.129	0.030	0.032
-125.253	-88.220	-0.218	0.064
-124.239	-200.000	0.025	-0.115
-123.224	-200.000	-0.025	-0.352
-122.210	-43.672	-0.202	0.100
-121.195	46.455	-0.177	0.162
-120.180	-13.559	0.166	0.106
