DTS Sentinel unit serial number:	SN413079Multiplexer serial number:	ORYXHardware model number:	OX4-SRSoftware version number:	ORYX F/W v4.00 Oryx Data Collector v3.7.2.0data status	okinstallation	princeton_trtdifferential loss correction	single-endedforward channel	channel 2reverse channel	N/Adate	2019/09/12time	18:17:49forward acquisition time	15.00reverse acquisition time	0.00gamma	496.2192k internal	0.2324k external	0.2324temperature offset calibration	1.0127default loss term (dB/km)	0.3790temperature slope calibration	1.0000multiplexer offset coefficient	1.0000multiplexer slope coefficient	1.0000fibre end	0.00T internal ref (°C)	33.50T ext. ref 1 (°C)	2.93T ext. ref 2 (°C)	28.03length (m)	temperature (°C)	Stokes	anti-Stokes-747.200	-72.459	0.208	-0.077
-746.185	28.689	-0.665	0.569
-745.171	-200.000	0.126	-0.830
-744.156	-200.000	0.016	0.169
-743.142	314.706	-0.309	0.588
-742.127	34.425	0.480	-0.423
-741.112	38.458	-0.280	-0.252
-740.098	76.127	0.441	-0.471
-739.083	-143.457	0.709	-0.068
-738.069	-149.582	-0.354	0.028
-737.054	-108.676	-1.165	0.252
-736.039	59.090	-0.163	-0.162
-735.025	-124.966	0.334	-0.052
-734.010	-200.000	0.071	-0.474
-732.996	-200.000	-0.163	-1.141
-731.981	800.000	0.264	-0.782
-730.966	-184.751	-0.623	-0.010
-729.952	-146.560	0.453	0.040
-728.937	28.661	-0.727	-0.621
-727.923	-43.059	0.328	-0.168
-726.908	-149.902	-0.628	-0.050
-725.894	136.894	-0.751	0.990
-724.879	-200.000	0.001	0.245
-723.864	-59.684	-0.462	-0.200
-722.850	13.512	0.257	-0.201
-721.835	-200.000	-0.074	-0.929
-720.821	-154.885	-0.566	-0.038
-719.806	67.208	-0.156	-0.161
-718.791	140.255	0.243	-0.324
-717.777	800.000	-0.120	0.496
-716.762	-200.000	0.127	1.120
-715.748	166.631	0.283	0.405
-714.733	-114.935	-1.102	-0.212
-713.718	-108.916	-1.026	0.221
-712.704	580.904	0.160	-0.396
-711.689	800.000	0.223	0.716
-710.675	247.492	-0.440	-0.750
-709.660	187.876	-0.175	-0.263
-708.645	-98.574	-0.623	-0.160
-707.631	83.794	0.341	-0.375
-706.616	-200.000	-0.019	-0.369
-705.602	521.239	0.197	-0.466
-704.587	583.487	0.116	-0.288
-703.572	476.053	-0.157	0.357
-702.558	1.019	0.182	-0.131
-701.543	-148.998	0.762	-0.062
-700.529	365.013	-0.338	-0.685
-699.514	-34.741	0.837	-0.461
-698.499	-200.000	-0.012	-0.184
-697.485	36.181	-0.939	-0.833
-696.470	451.323	0.178	0.397
-695.456	-125.924	0.813	0.123
-694.441	299.546	-0.064	0.120
-693.426	-164.615	0.762	-0.035
-692.412	-74.994	-0.447	-0.161
-691.397	-79.957	0.568	0.192
-690.383	188.750	0.083	0.125
-689.368	-21.019	0.642	0.396
-688.354	56.929	-0.469	0.461
-687.339	241.944	0.275	-0.462
-686.324	47.717	0.386	0.363
-685.310	394.532	0.272	-0.571
-684.295	-200.000	-0.121	-1.045
-683.281	70.637	0.319	-0.332
-682.266	125.100	0.290	0.369
-681.251	241.759	-0.060	0.101
-680.237	792.007	-0.093	-0.257
-679.222	322.800	0.020	0.038
-678.208	115.231	-0.358	0.440
-677.193	143.102	-0.053	0.071
-676.178	-51.114	0.170	-0.080
-675.164	-55.411	-0.309	0.140
-674.149	-2.367	-0.318	0.224
-673.135	-52.248	-0.342	0.160
-672.120	605.026	-0.301	0.756
-671.105	-118.444	0.661	0.118
-670.091	142.758	-0.499	-0.668
-669.076	-200.000	-0.067	0.679
-668.062	159.579	0.038	-0.053
-667.047	213.562	0.338	0.538
-666.032	-94.301	0.665	0.183
-665.018	-36.263	-0.604	-0.328
-664.003	-80.895	0.770	-0.257
-662.989	45.048	-0.295	0.273
-661.974	-200.000	-0.050	0.268
-660.959	-200.000	-0.022	0.161
-659.945	-154.661	0.689	0.046
-658.930	800.000	0.323	-0.933
-657.916	-200.000	0.116	-1.134
-656.901	800.000	-0.217	-0.617
-655.886	43.049	-0.673	0.618
-654.872	600.898	0.095	-0.239
-653.857	668.140	-0.330	-0.858
-652.843	800.000	-0.110	-0.478
-651.828	-18.454	-0.371	-0.233
-650.814	-200.000	0.099	-0.703
-649.799	-200.000	-0.005	-0.459
-648.784	17.136	0.486	-0.388
-647.770	510.213	-0.086	-0.202
-646.755	-200.000	0.045	-0.255
-645.741	314.820	-0.076	0.145
-644.726	-110.262	0.985	0.206
-643.711	-200.000	0.003	-1.089
-642.697	85.585	-0.410	0.454
-641.682	-67.858	-0.267	0.105
-640.668	-66.760	-0.681	-0.271
-639.653	800.000	-0.210	0.622
-638.638	50.976	-0.150	-0.143
-637.624	800.000	0.080	-0.230
-636.609	241.617	0.493	-0.829
-635.595	53.119	0.134	-0.129
-634.580	406.524	0.024	0.051
-633.565	556.562	-0.329	-0.797
-632.551	-68.358	-0.385	0.150
-631.536	160.255	0.270	-0.379
-630.522	57.686	-0.322	0.316
-629.507	-103.907	-0.533	-0.125
-628.492	-111.559	-0.394	0.081
-627.478	-40.516	-0.100	0.052
-626.463	-64.036	0.150	-0.062
-625.449	-41.042	0.468	-0.243
-624.434	33.990	-0.223	0.195
-623.419	-200.000	0.013	0.401
-622.405	-96.827	0.293	-0.077
-621.390	132.296	-0.562	0.727
-620.376	-136.588	-0.341	0.040
-619.361	-50.418	0.242	0.115
-618.346	4.439	0.244	-0.180
-617.332	114.933	0.333	-0.408
-616.317	183.597	0.510	-0.758
-615.303	-200.000	-0.027	-0.250
-614.288	-173.178	0.347	-0.011
-613.273	186.304	0.115	-0.172
-612.259	-32.493	0.831	0.465
-611.244	-200.000	0.118	-0.577
-610.230	155.535	0.270	0.374
-609.215	498.065	-0.250	0.578
-608.201	-87.668	-0.499	-0.151
-607.186	121.418	-0.383	0.479
-606.171	-200.000	0.004	0.188
-605.157	-113.056	-1.113	-0.221
-604.142	-200.000	-0.129	-1.216
-603.128	800.000	-0.032	-0.137
-602.113	-200.000	0.004	-0.709
-601.098	-96.063	-0.561	-0.150
-600.084	800.000	-0.203	-0.872
-599.069	-40.790	-0.775	-0.403
-598.055	-109.756	-0.964	-0.203
-597.040	-100.407	-0.770	0.192
-596.025	38.377	-0.215	0.192
-595.011	129.824	-0.538	-0.691
-593.996	800.000	0.360	-1.063
-592.982	128.546	0.431	0.551
-591.967	-2.975	0.507	0.355
-590.952	17.220	0.277	0.221
-589.938	-96.449	-0.197	-0.052
-588.923	728.071	-0.157	0.420
-587.909	466.600	-0.417	0.938
-586.894	166.583	-0.172	0.245
-585.879	-129.825	-0.147	0.020
-584.865	-19.872	0.400	-0.248
-583.850	-108.142	0.213	0.046
-582.836	-101.364	0.933	0.228
-581.821	-67.826	0.418	-0.164
-580.806	199.765	0.419	-0.645
-579.792	-64.932	-0.152	0.062
-578.777	-200.000	-0.016	0.089
-577.763	605.845	-0.244	0.609
-576.748	732.143	-0.080	-0.214
-575.733	-15.072	-0.130	-0.083
-574.719	415.810	-0.316	-0.676
-573.704	-64.653	-0.602	0.245
-572.690	-85.277	-0.344	0.108
-571.675	-200.000	0.017	0.081
-570.661	800.000	0.286	-1.055
-569.646	-55.910	-0.499	-0.223
-568.631	-200.000	-0.071	-0.676
-567.617	-200.000	-0.073	-0.405
-566.602	20.505	0.544	0.441
-565.588	800.000	-0.060	0.227
-564.573	-92.745	0.587	0.165
-563.558	-200.000	-0.032	0.357
-562.544	-95.881	-0.677	0.181
-561.529	95.801	0.399	-0.457
-560.515	-30.567	-0.577	0.327
-559.500	39.997	-0.787	0.709
-558.485	44.387	0.656	0.604
-557.471	86.322	-0.580	-0.640
-556.456	-200.000	-0.019	-0.258
-555.442	-98.230	0.493	-0.127
-554.427	48.392	0.554	0.520
-553.412	70.844	0.081	-0.084
-552.398	-200.000	-0.016	0.596
-551.383	154.089	0.362	0.498
-550.369	800.000	0.025	-0.079
-549.354	451.903	0.213	-0.471
-548.339	6.149	0.520	0.387
-547.325	117.583	-0.485	-0.598
-546.310	800.000	0.100	-0.436
-545.296	76.411	-0.391	-0.416
-544.281	119.864	-0.101	-0.125
-543.266	-87.481	0.324	-0.098
-542.252	-200.000	0.092	-2.041
-541.237	27.415	-0.421	0.355
-540.223	-37.855	0.494	0.263
-539.208	-82.890	-0.314	-0.101
-538.193	186.348	0.222	-0.330
-537.179	-200.000	-0.076	0.544
-536.164	-147.929	-1.215	0.101
-535.150	-200.000	-0.033	-0.446
-534.135	800.000	0.235	0.782
-533.121	-33.906	0.409	-0.226
-532.106	-200.000	0.032	0.158
-531.091	-65.485	0.189	0.076
-530.077	-200.000	-0.007	-0.165
-529.062	537.717	-0.163	0.387
-528.048	271.375	-0.231	0.407
-527.033	317.402	0.126	0.238
-526.018	-200.000	0.059	0.503
-525.004	-10.928	0.654	-0.432
-523.989	-200.000	-0.011	-0.194
-522.975	615.002	-0.111	-0.279
-521.960	-200.000	0.020	0.920
-520.945	201.361	-0.178	0.274
-519.931	54.785	0.374	-0.361
-518.916	-165.624	0.087	-0.004
-517.902	49.432	-0.434	0.409
-516.887	-51.224	-0.479	0.225
-515.872	12.244	-0.529	-0.407
-514.858	87.637	-0.062	0.069
-513.843	319.734	0.199	0.378
-512.829	-200.000	-0.062	-0.421
-511.814	20.769	-1.028	-0.833
-510.799	71.274	0.438	0.455
-509.785	24.586	-0.504	-0.417
-508.770	-200.000	0.071	0.384
-507.756	-200.000	-0.007	0.070
-506.741	543.774	-0.284	-0.679
-505.726	-146.691	0.702	-0.061
-504.712	-29.709	-0.198	-0.113
-503.697	-116.248	-0.545	-0.101
-502.683	-180.022	-0.746	0.016
-501.668	800.000	-0.180	-0.645
-500.653	109.738	0.319	0.382
-499.639	-28.085	-0.277	0.160
-498.624	-42.427	-0.582	0.297
-497.610	-81.199	0.705	0.233
-496.595	204.134	-0.134	0.208
-495.581	8.249	-0.384	-0.288
-494.566	151.719	0.164	0.223
-493.551	-131.911	-1.067	-0.139
-492.537	683.081	0.119	0.311
-491.522	385.493	0.265	0.546
-490.508	800.000	-0.318	-1.007
-489.493	-91.876	-0.313	-0.089
-488.478	-200.000	0.127	0.633
-487.464	-179.288	-0.548	0.012
-486.449	19.896	0.513	-0.413
-485.435	-153.742	0.489	-0.034
-484.420	-200.000	-0.083	0.801
-483.405	-60.121	0.418	-0.178
-482.391	-200.000	0.124	-0.673
-481.376	27.292	-0.213	0.179
-480.362	-20.600	-0.846	0.519
-479.347	278.046	0.170	0.303
-478.332	-200.000	-0.003	-1.110
-477.318	-69.764	-0.611	-0.233
-476.303	-95.983	0.712	0.189
-475.289	-51.157	0.246	-0.115
-474.274	-200.000	-0.937	0.001
-473.259	-49.105	-0.394	0.188
-472.245	-200.000	0.069	-0.335
-471.230	-145.886	0.494	-0.044
-470.216	-55.977	-1.053	0.469
-469.201	-92.454	0.754	-0.212
-468.186	-47.755	0.619	-0.300
-467.172	-200.000	-0.338	-0.001
-466.157	-200.000	0.118	0.855
-465.143	-84.393	-0.178	0.056
-464.128	519.549	-0.055	0.130
-463.113	-138.642	0.638	-0.070
-462.099	800.000	0.054	0.180
-461.084	-75.988	-0.216	-0.076
-460.070	537.630	-0.164	0.390
-459.055	-200.000	0.014	0.602
-458.040	-200.000	0.032	0.295
-457.026	383.023	-0.306	0.628
-456.011	419.203	-0.364	-0.777
-454.997	-103.540	0.439	0.103
-453.982	800.000	-0.234	0.947
-452.968	153.244	-0.301	0.412
-451.953	-168.297	-0.441	0.017
-450.938	-43.081	-0.241	0.122
-449.924	104.139	-0.244	-0.286
-448.909	91.745	-0.459	-0.515
-447.895	98.188	0.480	0.552
-446.880	-2.059	-0.073	-0.051
-445.865	-55.219	-0.276	-0.124
-444.851	785.486	0.055	-0.152
-443.836	-133.107	-0.431	-0.054
-442.822	-28.250	-0.825	0.476
-441.807	-96.594	0.211	-0.055
-440.792	86.814	0.153	0.168
-439.778	-168.198	-0.272	0.011
-438.763	531.496	0.410	-0.968
-437.749	14.021	-0.543	0.421
-436.734	-69.917	-0.299	0.114
-435.719	-114.489	0.235	0.045
-434.705	-71.478	-0.235	-0.088
-433.690	-200.000	-0.004	0.073
-432.676	-111.733	-0.366	0.074
-431.661	62.828	0.345	-0.344
-430.646	397.457	-0.141	0.295
-429.632	237.254	-0.314	-0.519
-428.617	-40.916	0.574	0.296
-427.603	-200.000	0.061	0.932
-426.588	-178.357	-0.363	0.008
-425.573	80.773	0.340	-0.366
-424.559	109.323	0.536	0.640
-423.544	599.550	-0.248	0.614
-422.530	-141.232	0.464	-0.047
-421.515	177.815	-0.440	-0.639
-420.500	-34.403	-0.667	0.365
-419.486	32.457	0.320	-0.276
-418.471	-34.276	-0.585	0.320
-417.457	-82.435	0.431	0.140
-416.442	-76.080	-0.363	-0.128
-415.428	304.582	0.066	0.123
-414.413	-101.402	0.458	0.111
-413.398	307.780	0.043	-0.080
-412.384	-16.154	0.885	0.561
-411.369	-200.000	0.073	0.690
-410.355	800.000	0.234	-0.670
-409.340	556.650	-0.265	0.635
-408.325	6.055	0.102	-0.075
-407.311	39.646	0.501	-0.448
-406.296	-43.798	-0.368	-0.185
-405.282	-29.538	-0.306	-0.174
-404.267	-16.342	0.138	-0.087
-403.252	-19.750	0.794	-0.489
-402.238	-200.000	-0.118	-0.660
-401.223	-62.027	-0.481	0.200
-400.209	29.256	0.405	-0.342
-399.194	-60.945	0.584	0.246
-398.179	-200.000	0.012	0.103
-397.165	28.854	-0.103	-0.087
-396.150	293.894	-0.284	-0.517
-395.136	80.990	0.223	-0.239
-394.121	800.000	-0.364	1.133
-393.106	60.591	0.419	-0.414
-392.092	-61.605	0.496	-0.208
-391.077	15.112	0.255	0.199
-390.063	-62.335	0.393	0.163
-389.048	800.000	0.197	-0.712
-388.033	-200.000	0.038	-0.347
-387.019	19.656	-0.264	0.211
-386.004	-200.000	-0.113	-0.495
-384.990	800.000	0.270	-1.092
-383.975	-76.594	0.404	-0.141
-382.960	-10.110	0.718	0.475
-381.946	-41.900	-0.873	0.445
-380.931	245.165	0.469	-0.785
-379.917	800.000	0.323	1.106
-378.902	-21.587	0.552	-0.335
-377.888	-116.708	0.440	-0.080
-376.873	345.554	0.380	-0.744
-375.858	-200.000	0.073	0.819
-374.844	1.100	-0.587	0.419
-373.829	105.803	0.165	-0.194
-372.815	4.407	0.415	0.303
-371.800	-60.298	0.453	-0.192
-370.785	800.000	-0.181	0.604
-369.771	-136.286	-0.506	0.059
-368.756	125.228	0.403	-0.506
-367.742	3.611	-0.708	-0.514
-366.727	591.113	-0.248	-0.608
-365.712	35.813	0.654	-0.572
-364.698	70.485	-0.070	-0.072
-363.683	-17.629	-0.517	-0.323
-362.669	-112.210	0.296	-0.059
-361.654	52.355	-0.428	0.406
-360.639	-200.000	-0.021	0.690
-359.625	1.466	0.534	-0.382
-358.610	-76.958	-0.396	0.138
-357.596	800.000	-0.018	-0.049
-356.581	141.000	-0.395	-0.520
-355.566	-106.288	0.900	0.200
-354.552	-200.000	-0.126	0.594
-353.537	167.618	-0.538	0.760
-352.523	-29.230	-0.567	0.323
-351.508	231.328	0.323	-0.526
-350.493	-58.715	-0.314	-0.135
-349.479	-200.000	0.066	0.331
-348.464	136.701	-0.358	0.465
-347.450	18.154	-0.499	0.396
-346.435	-200.000	0.084	0.494
-345.420	800.000	-0.127	-0.408
-344.406	190.739	-0.125	-0.187
-343.391	121.070	-0.263	0.325
-342.377	800.000	0.059	-0.166
-341.362	-6.247	-0.323	0.219
-340.348	-200.000	0.091	-0.629
-339.333	800.000	0.102	0.309
-338.318	-65.646	0.448	0.178
-337.304	-154.175	-0.960	-0.065
-336.289	251.055	-0.326	-0.550
-335.275	-200.000	-0.131	-0.706
-334.260	353.624	0.561	1.107
-333.245	-200.000	-0.035	0.430
-332.231	255.787	0.259	0.442
-331.216	61.096	-0.263	0.259
-330.202	42.904	-0.353	-0.320
-329.187	-17.600	0.480	-0.300
-328.172	138.496	0.060	0.078
-327.158	-66.171	0.273	0.108
-326.143	-90.606	-0.293	-0.084
-325.129	638.394	0.058	-0.145
-324.114	75.727	0.364	-0.382
-323.099	499.362	-0.298	0.681
-322.085	-200.000	0.057	0.634
-321.070	110.010	0.497	0.592
-320.056	-200.000	0.131	-0.707
-319.041	68.361	-0.343	0.349
-318.026	181.189	-0.139	-0.203
-317.012	11.447	0.964	-0.734
-315.997	8.681	-0.289	0.216
-314.983	800.000	-0.130	-0.403
-313.968	-88.675	0.540	-0.159
-312.953	-105.393	0.950	0.215
-311.939	58.345	-0.616	-0.600
-310.924	800.000	-0.030	0.102
-309.910	800.000	0.142	0.529
-308.895	-200.000	0.012	0.353
-307.880	-1.355	0.681	0.477
-306.866	-194.464	-0.308	0.002
-305.851	64.587	0.333	0.333
-304.837	-200.000	-0.092	-0.666
-303.822	-114.913	0.565	0.107
-302.807	-105.460	-0.343	0.077
-301.793	522.783	0.244	0.568
-300.778	-200.000	0.099	0.809
-299.764	-11.416	-0.916	0.598
-298.749	-15.318	0.587	0.372
-297.735	-42.289	-0.356	0.181
-296.720	-148.487	-0.144	0.012
-295.705	-126.706	-0.473	0.069
-294.691	-59.447	-0.420	-0.179
-293.676	-95.021	0.215	-0.058
-292.662	-133.467	0.436	-0.054
-291.647	-200.000	0.108	-0.527
-290.632	765.171	-0.057	0.153
-289.618	-200.000	0.082	0.466
-288.603	-13.701	0.428	-0.275
-287.589	-93.381	-0.718	-0.198
-286.574	-116.783	0.123	-0.022
-285.559	7.940	0.458	0.341
-284.545	-200.000	-0.170	-0.824
-283.530	100.470	0.459	-0.528
-282.516	345.767	0.179	0.349
-281.501	625.705	0.226	-0.565
-280.486	44.468	-0.315	-0.287
-279.472	-61.571	-0.037	0.015
-278.457	754.440	0.371	0.995
-277.443	-46.106	-0.870	0.425
-276.428	-58.201	-0.453	-0.196
-275.413	63.059	0.218	0.216
-274.399	204.785	-0.215	-0.331
-273.384	800.000	-0.083	0.271
-272.370	197.556	-0.238	-0.360
-271.355	60.699	0.351	-0.345
-270.340	-200.000	-0.101	-1.165
-269.326	-22.815	-0.705	-0.422
-268.311	-200.000	1.026	-0.001
-267.297	-200.000	0.072	0.556
-266.282	-155.178	0.692	0.045
-265.267	-11.318	0.285	-0.186
-264.253	-194.645	-0.284	0.002
-263.238	130.388	0.805	-1.021
-262.224	316.800	-0.165	-0.310
-261.209	772.288	0.209	0.565
-260.195	-178.021	0.624	0.015
-259.180	-32.117	-0.619	0.343
-258.165	437.808	0.114	0.247
-257.151	29.037	0.589	-0.495
-256.136	-200.000	-0.001	-0.477
-255.122	284.900	0.282	0.502
-254.107	57.026	0.408	-0.394
-253.092	800.000	0.209	0.840
-252.078	-143.738	0.613	0.058
-251.063	-72.099	0.388	-0.143
-250.049	-70.504	-0.387	0.145
-249.034	256.911	-0.400	0.681
-248.019	-200.000	-0.138	0.821
-247.005	682.293	-0.242	0.626
-245.990	96.403	0.189	-0.214
-244.976	-75.583	0.891	0.314
-243.961	16.327	0.586	-0.458
-242.946	-104.133	-0.867	0.200
-241.932	168.955	0.528	0.746
-240.917	17.698	-0.378	-0.298
-239.903	-106.215	0.399	-0.089
-238.888	-71.911	0.552	-0.203
-237.873	-89.457	1.364	-0.397
-236.859	-200.000	0.085	-0.603
-235.844	495.547	0.074	-0.167
-234.830	-200.000	-0.007	-0.488
-233.815	-139.754	0.225	-0.024
-232.800	-59.202	0.247	0.105
-231.786	-29.253	0.628	0.356
-230.771	-73.976	0.347	0.124
-229.757	-200.000	-0.136	0.637
-228.742	-24.255	-0.408	0.241
-227.727	-169.506	0.136	-0.005
-226.713	263.502	-0.163	0.280
-225.698	-169.100	-0.209	-0.008
-224.684	21.427	-0.285	-0.230
-223.669	-200.000	0.013	0.103
-222.655	-139.835	-0.090	0.009
-221.640	97.730	-0.583	-0.663
-220.625	-200.000	-0.035	-0.632
-219.611	-200.000	0.046	0.203
-218.596	-23.899	0.468	-0.277
-217.582	-127.838	0.438	0.062
-216.567	-107.186	0.996	-0.217
-215.552	-129.794	-0.272	-0.037
-214.538	-57.705	-1.100	-0.476
-213.523	31.731	-0.248	-0.211
-212.509	-119.964	-0.442	0.075
-211.494	266.605	0.269	0.464
-210.479	-130.631	-0.758	0.101
-209.465	-50.126	-0.620	-0.290
-208.450	-154.066	1.134	-0.076
-207.436	39.931	-0.726	-0.644
-206.421	-200.000	0.058	-0.255
-205.406	-200.000	0.030	-0.148
-204.392	-61.225	0.380	0.158
-203.377	-159.943	0.305	0.016
-202.363	-200.000	0.085	1.513
-201.348	476.935	-0.521	1.165
-200.333	-117.449	-0.341	-0.061
-199.319	61.160	-0.618	0.607
-198.304	21.258	-0.344	0.276
-197.290	-169.872	-0.374	0.013
-196.275	134.092	0.034	-0.043
-195.260	-151.412	0.449	0.033
-194.246	26.237	-0.560	0.462
-193.231	115.057	0.113	0.136
-192.217	-100.906	0.284	0.069
-191.202	596.378	0.231	0.564
-190.187	355.938	0.252	0.496
-189.173	297.496	-0.192	-0.349
-188.158	63.870	0.419	-0.416
-187.144	108.839	0.152	0.180
-186.129	-200.000	-0.008	0.478
-185.114	-56.346	0.551	0.242
-184.100	-200.000	-0.061	0.441
-183.085	-200.000	0.046	-0.274
-182.071	787.799	0.291	0.788
-181.056	-178.781	-0.461	-0.010
-180.042	-200.000	-0.146	-0.883
-179.027	82.070	0.520	-0.556
-178.012	-144.523	-0.572	-0.052
-176.998	18.172	0.641	0.505
-175.983	-52.262	0.537	0.246
-174.969	-200.000	0.051	0.338
-173.954	314.578	-0.157	0.291
-172.939	-147.700	-0.711	-0.059
-171.925	-76.823	0.368	-0.127
-170.910	107.763	0.150	-0.176
-169.896	-12.606	0.798	0.514
-168.881	-51.399	-0.840	-0.388
-167.866	10.374	-0.594	-0.446
-166.852	-200.000	0.030	0.165
-165.837	496.937	0.312	-0.707
-164.823	-125.893	-0.307	-0.046
-163.808	800.000	-0.199	-0.786
-162.793	101.225	-0.392	0.451
-161.779	800.000	0.060	-0.227
-160.764	41.609	1.026	-0.917
-159.750	-61.577	-0.443	0.184
-158.735	217.340	-0.426	0.670
-157.720	34.077	0.087	-0.075
-156.706	-119.142	0.430	-0.074
-155.691	22.969	0.671	-0.543
-154.677	-122.749	0.799	-0.127
-153.662	-124.146	-0.247	-0.038
-152.647	-60.397	-0.388	0.163
-151.633	-95.172	0.243	0.065
-150.618	-41.006	0.410	-0.209
-149.604	-200.000	0.055	-0.642
-148.589	165.446	0.124	0.173
-147.574	3.580	-0.868	0.624
-146.560	314.526	-0.175	0.324
-145.545	-83.797	0.435	-0.137
-144.531	-200.000	0.132	0.631
-143.516	-95.018	-0.251	-0.067
-142.502	-200.000	-0.004	-0.674
-141.487	-108.922	0.382	-0.080
-140.472	-200.000	0.007	0.256
-139.458	12.675	-0.554	-0.422
-138.443	-152.625	-0.491	0.035
-137.429	4.140	0.741	0.535
-136.414	14.900	-0.303	0.234
-135.399	800.000	-0.161	0.663
-134.385	39.676	0.113	-0.100
-133.370	-10.401	0.203	0.132
-132.356	-153.992	0.321	-0.022
-131.341	800.000	0.054	0.160
-130.326	91.266	0.533	-0.590
-129.312	-200.000	0.014	-0.075
-128.297	-200.000	-0.026	0.411
-127.283	80.590	0.953	-1.012
-126.268	-149.263	-0.343	0.027
-125.253	-7.545	-0.484	0.322
-124.239	77.528	0.291	0.306
-123.224	180.627	-0.470	0.681
-122.210	-200.000	0.026	0.670
-121.195	-75.054	0.578	0.204
