DTS Sentinel unit serial number:	SN413079Multiplexer serial number:	ORYXHardware model number:	OX4-SRSoftware version number:	ORYX F/W v4.00 Oryx Data Collector v3.7.2.0data status	okinstallation	princeton_trtdifferential loss correction	single-endedforward channel	channel 2reverse channel	N/Adate	2019/09/11time	22:53:10forward acquisition time	60.00reverse acquisition time	0.00gamma	496.2192k internal	0.2325k external	0.2325temperature offset calibration	1.0075default loss term (dB/km)	0.3790temperature slope calibration	1.0000multiplexer offset coefficient	1.0000multiplexer slope coefficient	1.0000fibre end	0.00T internal ref (°C)	34.69T ext. ref 1 (°C)	1.78T ext. ref 2 (°C)	29.47length (m)	temperature (°C)	Stokes	anti-Stokes-747.200	358.571	-0.124	-0.250
-746.185	-200.000	-0.031	0.225
-745.171	34.862	-0.248	-0.219
-744.156	-91.844	0.267	0.076
-743.142	-200.000	-0.050	-0.227
-742.127	-130.033	-0.188	-0.026
-741.112	-182.661	-0.249	-0.005
-740.098	148.104	-0.325	0.442
-739.083	-155.794	-0.168	-0.011
-738.069	800.000	-0.024	0.077
-737.054	119.987	-0.100	0.125
-736.039	7.200	-0.403	-0.304
-735.025	53.758	0.249	-0.242
-734.010	-100.133	-0.335	-0.084
-732.996	-70.089	-0.176	-0.068
-731.981	800.000	-0.053	-0.224
-730.966	172.685	-0.216	-0.313
-729.952	550.230	-0.183	-0.444
-728.937	-200.000	0.015	0.130
-727.923	122.001	0.153	0.193
-726.908	41.562	-0.304	-0.277
-725.894	566.688	0.038	0.092
-724.879	626.916	-0.104	-0.265
-723.864	33.691	0.214	-0.188
-722.850	-200.000	-0.017	-0.258
-721.835	59.028	-0.170	0.168
-720.821	-182.419	-0.190	-0.004
-719.806	44.337	-0.128	0.119
-718.791	-38.524	0.196	0.104
-717.777	-59.958	-0.101	-0.044
-716.762	104.698	0.013	0.016
-715.748	-18.271	0.013	-0.008
-714.733	-82.385	0.128	-0.042
-713.718	197.956	0.062	-0.096
-712.704	-86.702	0.286	-0.088
-711.689	-117.062	0.116	-0.021
-710.675	76.710	-0.164	0.175
-709.660	-121.637	0.431	-0.072
-708.645	-63.852	0.083	-0.034
-707.631	-13.403	0.170	0.111
-706.616	361.911	0.094	0.189
-705.602	800.000	0.044	-0.161
-704.587	505.818	-0.023	0.055
-703.572	-200.000	0.029	0.223
-702.558	-73.322	-0.080	0.029
-701.543	243.010	-0.177	0.299
-700.529	-200.000	0.022	0.306
-699.514	-74.485	0.194	-0.070
-698.499	-38.743	-0.160	-0.085
-697.485	327.873	0.033	0.065
-696.470	-87.296	-0.064	-0.020
-695.456	-132.273	-0.305	0.040
-694.441	-136.695	-0.016	-0.002
-693.426	56.286	0.135	0.132
-692.412	387.042	0.075	-0.157
-691.397	13.262	-0.052	-0.040
-690.383	-92.055	-0.397	-0.113
-689.368	800.000	0.045	0.167
-688.354	4.974	0.056	-0.041
-687.339	-87.424	-0.295	-0.090
-686.324	23.489	-0.116	-0.096
-685.310	127.342	0.064	0.082
-684.295	-200.000	-0.015	-0.188
-683.281	-200.000	0.058	-0.383
-682.266	344.217	-0.026	-0.051
-681.251	233.776	-0.109	0.181
-680.237	800.000	-0.033	0.127
-679.222	-106.146	0.396	-0.089
-678.208	56.713	-0.220	-0.215
-677.193	-153.912	-0.421	0.029
-676.178	42.695	-0.335	0.307
-675.164	6.345	-0.034	0.025
-674.149	14.513	0.257	0.202
-673.135	-96.283	-0.532	-0.142
-672.120	-175.509	-0.039	0.001
-671.105	800.000	0.033	0.138
-670.091	800.000	0.043	-0.136
-669.076	330.316	0.034	-0.066
-668.062	597.039	-0.056	-0.141
-667.047	364.866	0.081	0.164
-666.032	-200.000	0.032	0.272
-665.018	-200.000	0.024	-0.118
-664.003	-65.478	-0.203	0.082
-662.989	605.354	0.081	0.203
-661.974	-26.563	0.026	0.015
-660.959	-65.272	-0.056	-0.023
-659.945	64.916	0.053	-0.053
-658.930	85.410	0.143	0.158
-657.916	-10.624	-0.085	-0.057
-656.901	-23.372	0.311	-0.188
-655.886	-200.000	0.156	0.001
-654.872	280.463	0.207	0.371
-653.857	161.068	-0.054	-0.076
-652.843	128.058	-0.195	0.250
-651.828	81.983	0.109	0.119
-650.814	441.488	-0.130	-0.285
-649.799	-27.623	-0.317	-0.185
-648.784	800.000	-0.109	-0.471
-647.770	132.480	0.233	-0.302
-646.755	215.970	0.091	-0.146
-645.741	99.827	-0.320	0.372
-644.726	120.403	0.124	0.155
-643.711	-49.541	0.303	-0.145
-642.697	-200.000	-0.018	0.083
-641.682	-200.000	-0.025	-0.379
-640.668	-126.889	0.164	0.024
-639.653	-88.120	0.025	0.007
-638.638	-111.825	-0.239	-0.048
-637.624	236.327	0.113	-0.188
-636.609	16.510	0.270	-0.215
-635.595	-200.000	-0.106	-0.000
-634.580	-36.592	-0.150	0.081
-633.565	-105.794	0.195	0.044
-632.551	112.117	-0.182	-0.220
-631.536	42.279	0.089	0.081
-630.522	60.338	0.147	-0.146
-629.507	-4.192	-0.099	-0.069
-628.492	-101.375	-0.204	0.050
-627.478	50.055	0.163	0.155
-626.463	271.445	0.076	-0.134
-625.449	-98.251	0.316	-0.081
-624.434	446.059	-0.214	0.472
-623.419	-97.841	-0.375	0.097
-622.405	-119.084	-0.175	-0.031
-621.390	31.006	0.088	0.076
-620.376	27.317	0.113	-0.095
-619.361	177.983	-0.227	0.333
-618.346	120.203	0.175	-0.218
-617.332	800.000	-0.058	0.255
-616.317	33.723	-0.040	0.035
-615.303	-63.471	0.184	0.076
-614.288	800.000	0.077	-0.332
-613.273	-73.385	-0.338	-0.124
-612.259	426.826	0.064	-0.139
-611.244	-78.959	0.269	-0.092
-610.230	-121.329	0.145	-0.024
-609.215	0.562	0.216	-0.155
-608.201	-91.377	0.193	-0.055
-607.186	0.300	-0.309	0.221
-606.171	363.575	0.022	-0.045
-605.157	-156.281	-0.104	0.007
-604.142	-200.000	-0.009	-0.063
-603.128	-150.119	0.109	0.008
-602.113	126.181	-0.138	-0.175
-601.098	-106.894	-0.089	-0.020
-600.084	103.785	-0.171	0.202
-599.069	-15.778	-0.121	-0.078
-598.055	-100.528	-0.497	0.123
-597.040	58.961	0.185	-0.182
-596.025	-194.323	-0.240	0.002
-595.011	-200.000	-0.056	-0.427
-593.996	-42.759	0.448	-0.228
-592.982	-48.115	0.244	-0.118
-591.967	52.469	-0.299	-0.287
-590.952	-113.443	-0.167	0.033
-589.938	-99.837	0.273	-0.068
-588.923	-158.127	-0.159	0.009
-587.909	-1.935	-0.122	0.086
-586.894	-60.172	-0.092	0.039
-585.879	71.094	-0.160	0.166
-584.865	800.000	0.031	-0.089
-583.850	-200.000	0.001	0.167
-582.836	-45.718	-0.158	-0.078
-581.821	97.641	0.165	-0.190
-580.806	-174.183	-0.304	-0.009
-579.792	-128.837	0.140	0.020
-578.777	438.076	-0.139	-0.303
-577.763	-200.000	-0.008	-0.220
-576.748	305.288	-0.111	-0.207
-575.733	800.000	-0.095	-0.392
-574.719	800.000	0.093	-0.338
-573.704	326.197	-0.054	0.105
-572.690	281.132	0.185	0.332
-571.675	1.665	-0.191	0.138
-570.661	800.000	0.119	-0.368
-569.646	-29.143	0.351	0.202
-568.631	238.500	-0.152	0.254
-567.617	110.232	-0.073	-0.088
-566.602	-68.045	-0.138	-0.054
-565.588	99.329	0.265	-0.307
-564.573	156.876	-0.196	0.272
-563.558	413.513	0.049	-0.105
-562.544	18.706	-0.211	-0.169
-561.529	-111.767	0.143	-0.029
-560.515	-101.450	-0.334	-0.082
-559.500	-200.000	-0.024	-0.107
-558.485	-112.411	-0.600	-0.120
-557.471	41.296	0.020	0.018
-556.456	79.835	0.057	-0.062
-555.442	492.038	0.125	-0.286
-554.427	154.538	0.153	0.211
-553.412	-70.648	-0.481	0.182
-552.398	-37.140	0.058	-0.031
-551.383	-100.095	0.219	0.055
-550.369	-157.896	-0.188	0.011
-549.354	-102.614	-0.139	-0.033
-548.339	-52.525	-0.291	0.135
-547.325	-23.216	0.028	-0.017
-546.310	171.331	-0.111	0.160
-545.296	245.407	-0.185	0.312
-544.281	135.609	-0.108	-0.141
-543.266	92.675	-0.178	0.201
-542.252	-73.046	0.236	-0.087
-541.237	-161.687	-0.084	-0.004
-540.223	-28.661	-0.126	-0.073
-539.208	-53.257	0.297	-0.136
-538.193	-16.301	-0.104	-0.066
-537.179	-105.577	-0.500	0.113
-536.164	66.948	0.224	-0.228
-535.150	462.275	0.116	0.259
-534.135	-73.351	-0.219	0.080
-533.121	-53.433	-0.027	0.012
-532.106	43.845	0.175	0.160
-531.091	19.938	-0.168	-0.135
-530.077	-8.124	-0.373	-0.251
-529.062	-12.061	-0.081	0.053
-528.048	-82.691	-0.226	-0.073
-527.033	-119.644	-0.115	0.020
-526.018	-200.000	-0.023	0.247
-525.004	-200.000	0.037	0.384
-523.989	-52.169	0.139	0.064
-522.975	256.620	-0.182	0.312
-521.960	800.000	-0.036	-0.110
-520.945	-37.687	0.074	0.039
-519.931	-200.000	0.000	0.111
-518.916	127.454	0.108	0.137
-517.902	-200.000	0.006	-0.218
-516.887	259.498	-0.133	-0.229
-515.872	800.000	-0.036	0.123
-514.858	800.000	-0.002	-0.006
-513.843	-6.915	0.218	-0.148
-512.829	-124.979	0.116	0.018
-511.814	43.054	0.161	0.147
-510.799	359.354	0.029	0.059
-509.785	-142.126	-0.027	0.003
-508.770	0.825	0.267	-0.191
-507.756	-109.962	-0.289	-0.060
-506.741	-147.199	0.109	-0.009
-505.726	144.538	-0.189	-0.253
-504.712	-62.684	-0.323	-0.134
-503.697	-47.561	0.200	0.097
-502.683	123.872	-0.262	0.329
-501.668	800.000	-0.037	0.131
-500.653	-92.376	-0.250	0.070
-499.639	90.921	0.217	-0.243
-498.624	-147.691	0.179	0.015
-497.610	-200.000	0.069	0.331
-496.595	74.186	0.127	-0.133
-495.581	176.434	0.077	-0.111
-494.566	-125.383	-0.321	0.049
-493.551	-200.000	0.018	-0.112
-492.537	-49.582	-0.115	-0.055
-491.522	142.498	0.123	0.163
-490.508	-112.966	-0.205	-0.040
-489.493	-80.275	-0.104	0.035
-488.478	475.729	0.086	-0.195
-487.464	-94.010	0.360	0.099
-486.449	-200.000	0.059	0.299
-485.435	6.951	-0.357	-0.266
-484.420	-29.909	-0.200	0.114
-483.405	199.646	-0.331	-0.508
-482.391	64.625	0.127	-0.128
-481.376	-41.122	-0.135	0.070
-480.362	23.577	0.046	0.038
-479.347	-14.423	-0.373	0.240
-478.332	-93.128	-0.155	0.043
-477.318	-89.993	0.035	-0.010
-476.303	202.195	-0.053	0.082
-475.289	356.579	0.115	-0.228
-474.274	-78.415	0.138	-0.047
-473.259	-39.513	-0.359	-0.188
-472.245	-97.993	-0.176	0.045
-471.230	-118.591	0.295	-0.052
-470.216	108.083	-0.031	-0.037
-469.201	-200.000	0.039	-0.236
-468.186	-38.505	-0.054	-0.029
-467.172	188.864	-0.161	-0.241
-466.157	713.202	0.049	0.129
-465.143	22.970	-0.238	-0.195
-464.128	800.000	0.068	-0.261
-463.113	273.545	-0.104	0.184
-462.099	-115.173	0.451	0.085
-461.084	-39.401	-0.081	0.042
-460.070	144.294	0.082	0.109
-459.055	800.000	-0.007	0.031
-458.040	-185.973	0.210	-0.003
-457.026	-28.676	0.195	0.112
-456.011	800.000	-0.084	0.353
-454.997	-11.669	-0.066	0.043
-453.982	85.528	0.096	0.106
-452.968	-81.142	-0.117	0.038
-451.953	78.386	0.181	-0.193
-450.938	800.000	0.129	0.469
-449.924	65.517	-0.232	-0.234
-448.909	-190.197	-0.096	0.001
-447.895	-30.738	-0.242	-0.137
-446.880	-154.328	0.144	0.010
-445.865	-47.588	0.300	0.145
-444.851	90.404	-0.097	-0.109
-443.836	-200.000	-0.038	-0.483
-442.822	85.214	-0.070	0.077
-441.807	46.826	-0.147	-0.136
-440.792	81.017	-0.207	0.222
-439.778	410.601	0.111	0.235
-438.763	-200.000	0.042	0.323
-437.749	-56.921	0.284	0.125
-436.734	-200.000	0.033	-0.451
-435.719	-105.181	-0.191	0.043
-434.705	800.000	-0.154	0.434
-433.690	800.000	-0.037	-0.120
-432.676	293.179	0.140	0.254
-431.661	-151.092	-0.159	0.012
-430.646	-83.184	0.034	-0.011
-429.632	-97.964	-0.079	0.020
-428.617	-155.847	-0.252	0.016
-427.603	48.115	0.226	-0.211
-426.588	11.010	0.225	-0.171
-425.573	-61.104	0.202	0.085
-424.559	800.000	0.059	0.197
-423.544	33.257	-0.058	0.050
-422.530	800.000	0.041	-0.176
-421.515	-115.243	0.135	-0.025
-420.500	-60.804	-0.028	-0.012
-419.486	-37.587	0.280	0.149
-418.471	-75.719	0.210	0.074
-417.457	-179.670	-0.179	0.004
-416.442	-98.225	0.045	0.012
-415.428	-200.000	0.058	0.268
-414.413	-21.827	-0.086	0.052
-413.398	108.008	0.134	0.159
-412.384	57.749	-0.194	0.189
-411.369	-103.797	0.042	-0.010
-410.355	107.303	0.136	-0.161
-409.340	-40.528	-0.110	-0.057
-408.325	42.861	0.324	-0.294
-407.311	-91.313	0.275	-0.078
-406.296	98.604	0.115	-0.132
-405.282	201.072	0.180	-0.275
-404.267	26.038	-0.142	-0.118
-403.252	5.849	0.006	0.005
-402.238	800.000	0.032	0.107
-401.223	47.146	0.064	0.059
-400.209	4.611	0.137	0.100
-399.194	169.466	-0.123	-0.175
-398.179	190.217	-0.123	-0.184
-397.165	800.000	-0.120	0.331
-396.150	94.780	0.068	-0.077
-395.136	-200.000	0.035	-0.172
-394.121	32.050	0.062	0.053
-393.106	170.924	-0.212	0.302
-392.092	-132.278	0.253	-0.033
-391.077	-200.000	0.012	0.165
-390.063	-48.733	-0.313	0.150
-389.048	31.684	0.190	-0.162
-388.033	-200.000	0.052	-0.300
-387.019	-91.126	0.316	-0.090
-386.004	-104.042	0.008	0.002
-384.990	626.130	0.104	-0.262
-383.975	-81.779	-0.461	0.150
-382.960	-7.089	0.202	0.136
-381.946	-178.039	0.139	0.003
-380.931	47.207	0.400	-0.370
-379.917	-126.881	-0.189	0.028
-378.902	277.659	-0.048	-0.085
-377.888	164.744	0.024	-0.034
-376.873	-105.874	-0.203	-0.046
-375.858	800.000	-0.055	-0.160
-374.844	800.000	-0.145	-0.409
-373.829	-39.075	0.254	-0.133
-372.815	-200.000	0.022	-0.183
-371.800	86.176	0.188	0.206
-370.785	439.421	-0.175	0.379
-369.771	800.000	0.080	0.331
-368.756	-155.702	-0.270	0.017
-367.742	60.274	-0.180	-0.177
-366.727	-200.000	0.007	-0.164
-365.712	-77.953	-0.279	-0.096
-364.698	-25.827	-0.344	0.201
-363.683	576.661	0.060	-0.146
-362.669	83.081	-0.070	0.076
-361.654	453.899	-0.064	-0.142
-360.639	97.893	0.219	0.251
-359.625	53.199	-0.206	0.197
-358.610	-200.000	-0.009	-0.164
-357.596	704.761	-0.066	-0.174
-356.581	19.216	0.135	0.107
-355.566	-200.000	-0.017	0.112
-354.552	179.013	0.284	0.413
-353.537	729.758	-0.060	0.159
-352.523	213.098	-0.068	-0.106
-351.508	800.000	0.109	0.358
-350.493	-86.032	0.166	-0.051
-349.479	244.027	0.238	0.397
-348.464	181.550	0.136	0.198
-347.450	53.206	-0.051	0.048
-346.435	-163.878	0.115	-0.005
-345.420	118.394	0.306	0.375
-344.406	-140.851	0.425	-0.043
-343.391	277.422	-0.027	-0.048
-342.377	244.706	0.123	-0.205
-341.362	123.371	-0.061	0.076
-340.348	-200.000	-0.005	0.051
-339.333	-121.292	0.148	-0.025
-338.318	397.309	0.025	-0.051
-337.304	148.042	0.176	0.236
-336.289	800.000	-0.069	-0.262
-335.275	-132.819	0.482	0.061
-334.260	-200.000	-0.006	-0.073
-333.245	-94.577	0.223	0.060
-332.231	-160.497	0.393	-0.021
-331.216	10.602	-0.082	0.062
-330.202	205.593	0.182	-0.280
-329.187	800.000	0.096	0.375
-328.172	-6.262	0.385	-0.261
-327.158	-116.502	0.130	-0.024
-326.143	-94.038	-0.193	0.053
-325.129	800.000	0.021	0.076
-324.114	-16.133	0.221	-0.139
-323.099	-200.000	0.034	-0.237
-322.085	135.180	-0.119	0.154
-321.070	-200.000	-0.010	0.135
-320.056	55.378	0.227	-0.218
-319.041	240.889	-0.142	-0.235
-318.026	-72.188	-0.273	0.100
-317.012	14.411	0.231	0.179
-315.997	497.260	0.038	0.086
-314.983	40.353	-0.076	-0.068
-313.968	38.717	-0.208	-0.184
-312.953	-22.349	0.289	0.174
-311.939	-162.135	-0.155	0.008
-310.924	-200.000	0.000	-0.077
-309.910	-20.441	-0.165	0.101
-308.895	98.245	-0.076	0.087
-307.880	800.000	-0.036	0.099
-306.866	-12.047	-0.326	-0.212
-305.851	-2.293	-0.062	0.043
-304.837	800.000	-0.063	0.226
-303.822	-68.334	0.142	-0.055
-302.807	-19.262	-0.330	-0.203
-301.793	-1.243	0.217	0.152
-300.778	662.810	0.106	-0.270
-299.764	-95.578	-0.344	-0.091
-298.749	98.470	-0.100	-0.114
-297.735	-200.000	0.060	-0.262
-296.720	-94.957	-0.154	-0.041
-295.705	-200.000	-0.004	0.049
-294.691	-116.460	0.203	-0.037
-293.676	-90.954	-0.315	0.090
-292.662	-172.236	0.265	-0.008
-291.647	800.000	-0.034	-0.109
-290.632	-200.000	-0.020	-0.276
-289.618	-133.333	-0.265	-0.033
-288.603	-61.817	-0.223	0.093
-287.589	98.271	0.316	0.361
-286.574	-70.229	-0.526	-0.198
-285.559	800.000	0.037	0.154
-284.545	-32.370	0.063	0.035
-283.530	219.985	0.050	-0.079
-282.516	-49.170	0.592	0.280
-281.501	302.009	0.129	0.236
-280.486	18.287	0.326	-0.258
-279.472	-119.166	0.183	0.032
-278.457	-200.000	0.004	0.205
-277.443	-111.822	-0.178	0.036
-276.428	74.094	-0.086	-0.089
-275.413	-33.454	-0.196	-0.107
-274.399	-99.789	0.167	0.041
-273.384	-72.028	-0.003	0.001
-272.370	340.280	-0.203	-0.393
-271.355	59.462	-0.066	-0.065
-270.340	-14.908	0.182	0.116
-269.326	-82.282	-0.277	0.089
-268.311	359.162	-0.136	0.269
-267.297	-200.000	0.035	0.332
-266.282	233.298	-0.078	0.127
-265.267	-47.809	0.130	0.062
-264.253	800.000	0.055	-0.200
-263.238	119.743	0.161	-0.197
-262.224	-68.847	-0.077	0.030
-261.209	-200.000	0.025	-0.117
-260.195	113.943	-0.111	-0.134
-259.180	185.132	0.205	0.301
-258.165	107.821	-0.120	0.142
-257.151	36.528	-0.303	-0.265
-256.136	-200.000	-0.025	-0.169
-255.122	211.277	-0.282	0.440
-254.107	131.527	-0.083	0.106
-253.092	-149.112	0.186	-0.015
-252.078	222.686	-0.139	-0.222
-251.063	-40.689	-0.201	-0.103
-250.049	0.034	-0.130	-0.091
-249.034	33.737	0.253	0.218
-248.019	-200.000	-0.016	-0.169
-247.005	483.416	-0.104	-0.234
-245.990	800.000	-0.048	0.163
-244.976	-200.000	0.079	0.499
-243.961	212.948	0.155	-0.243
-242.946	71.362	-0.058	-0.059
-241.932	-145.916	0.115	0.010
-240.917	399.040	-0.044	0.091
-239.903	51.841	0.382	0.360
-238.888	60.549	-0.159	-0.156
-237.873	800.000	0.111	0.393
-236.859	-93.302	0.090	-0.025
-235.844	152.316	-0.112	0.152
-234.830	-99.571	-0.357	-0.089
-233.815	108.758	-0.092	0.108
-232.800	-107.181	-0.310	0.068
-231.786	137.573	0.102	-0.133
-230.771	-33.561	0.195	0.106
-229.757	-200.000	0.025	-0.114
-228.742	-109.701	0.079	-0.016
-227.727	128.915	0.299	-0.378
-226.713	-180.189	-0.286	0.006
-225.698	-177.908	0.218	-0.005
-224.684	32.045	0.156	0.133
-223.669	-166.812	0.434	0.018
-222.655	-113.997	-0.230	-0.044
-221.640	-14.504	-0.318	-0.202
-220.625	-137.772	-0.430	0.048
-219.611	-23.417	-0.450	-0.267
-218.596	-19.326	-0.231	-0.141
-217.582	-200.000	-0.024	0.171
-216.567	-200.000	-0.018	-0.352
-215.552	-82.113	0.392	-0.126
-214.538	778.655	-0.015	-0.039
-213.523	800.000	0.080	0.292
-212.509	436.624	0.091	0.197
-211.494	-40.389	0.081	0.042
-210.479	503.062	-0.147	0.336
-209.465	-200.000	0.000	0.124
-208.450	-45.012	0.146	-0.072
-207.436	-114.182	0.136	0.026
-206.421	-200.000	-0.014	0.448
-205.406	-109.923	0.460	-0.095
-204.392	-157.151	0.148	-0.009
-203.377	-45.549	-0.127	0.062
-202.363	40.789	-0.132	0.118
-201.348	-200.000	-0.007	0.275
-200.333	7.629	0.165	-0.122
-199.319	-200.000	0.055	-0.327
-198.304	84.890	-0.146	-0.159
-197.290	151.510	-0.172	0.231
-196.275	161.921	0.191	0.265
-195.260	800.000	0.086	0.328
-194.246	118.453	0.066	0.081
-193.231	-30.985	0.116	0.065
-192.217	-200.000	-0.016	-0.115
-191.202	-27.002	0.486	0.280
-190.187	71.634	-0.083	-0.085
-189.173	540.794	0.041	-0.095
-188.158	-23.938	-0.243	0.143
-187.144	-15.426	0.190	0.120
-186.129	-94.569	-0.233	-0.063
-185.114	-200.000	-0.059	0.332
-184.100	-191.188	0.323	0.003
-183.085	-200.000	-0.043	0.281
-182.071	340.515	-0.125	0.241
-181.056	644.299	0.170	0.429
-180.042	-200.000	-0.059	-0.276
-179.027	-169.502	0.193	-0.007
-178.012	-72.053	0.087	-0.032
-176.998	-126.774	0.288	-0.042
-175.983	334.321	-0.069	0.132
-174.969	274.072	0.050	-0.087
-173.954	-200.000	0.013	0.405
-172.939	10.706	0.138	0.104
-171.925	66.245	0.177	0.177
-170.910	-52.556	0.102	-0.047
-169.896	-138.612	0.152	0.016
-168.881	-35.977	0.173	-0.092
-167.866	209.946	-0.011	0.017
-166.852	379.659	0.063	-0.128
-165.837	583.818	-0.031	0.076
-164.823	-9.517	-0.114	-0.075
-163.808	194.137	-0.069	0.103
-162.793	-200.000	-0.006	-0.048
-161.779	-121.367	0.255	-0.042
-160.764	800.000	0.016	-0.052
-159.750	261.343	-0.147	-0.251
-158.735	51.629	0.146	0.137
-157.720	-81.776	0.201	-0.065
-156.706	-49.569	-0.299	0.140
-155.691	-156.444	0.217	-0.013
-154.677	41.929	-0.244	-0.219
-153.662	345.215	0.172	-0.333
-152.647	800.000	-0.058	-0.247
-151.633	800.000	-0.028	0.077
-150.618	455.952	-0.101	0.221
-149.604	308.952	-0.141	0.260
-148.589	164.070	0.177	0.246
-147.574	249.034	0.104	-0.175
-146.560	800.000	-0.055	0.166
-145.545	554.368	-0.101	0.239
-144.531	-200.000	-0.004	-0.354
-143.516	57.180	-0.229	0.220
-142.502	48.121	0.158	-0.146
-141.487	-40.035	-0.108	-0.056
-140.472	-77.476	0.109	0.037
-139.458	501.816	-0.124	0.281
-138.443	-200.000	0.047	0.216
-137.429	-75.074	0.138	-0.049
-136.414	-111.668	0.146	0.029
-135.399	-200.000	0.044	-0.398
-134.385	378.790	-0.051	0.103
-133.370	69.171	0.138	-0.140
-132.356	1.661	0.261	-0.185
-131.341	99.989	0.069	0.079
-130.326	-169.927	0.109	-0.004
-129.312	206.295	-0.162	0.248
-128.297	-56.595	0.264	0.115
-127.283	-200.000	0.029	0.215
-126.268	383.682	0.152	0.308
-125.253	800.000	-0.029	0.087
-124.239	259.100	-0.264	-0.448
-123.224	-199.626	-0.025	-0.000
-122.210	144.210	-0.052	-0.068
-121.195	254.670	-0.120	-0.202
-120.180	1.567	0.135	-0.095
