DTS Sentinel unit serial number:	SN413079Multiplexer serial number:	ORYXHardware model number:	OX4-SRSoftware version number:	ORYX F/W v4.00 Oryx Data Collector v3.7.2.0data status	okinstallation	princeton_trtdifferential loss correction	single-endedforward channel	channel 2reverse channel	N/Adate	2019/09/11time	00:37:11forward acquisition time	60.00reverse acquisition time	0.00gamma	496.2192k internal	0.2331k external	0.2331temperature offset calibration	0.9943default loss term (dB/km)	0.3790temperature slope calibration	1.0000multiplexer offset coefficient	1.0000multiplexer slope coefficient	1.0000fibre end	0.00T internal ref (°C)	29.19T ext. ref 1 (°C)	-0.31T ext. ref 2 (°C)	22.94length (m)	temperature (°C)	Stokes	anti-Stokes-747.200	-200.000	-0.015	-0.341
-746.185	-118.394	-0.135	-0.024
-745.171	800.000	-0.073	-0.277
-744.156	56.527	-0.154	0.151
-743.142	-200.000	-0.004	-0.030
-742.127	-58.642	0.126	-0.055
-741.112	249.221	0.187	-0.319
-740.098	673.685	0.032	0.084
-739.083	470.570	-0.091	-0.206
-738.069	-138.702	-0.361	-0.040
-737.054	87.205	-0.061	0.068
-736.039	-97.662	0.291	-0.076
-735.025	69.311	0.206	0.213
-734.010	-200.000	-0.002	-0.192
-732.996	-36.781	-0.206	-0.111
-731.981	28.687	-0.084	0.071
-730.966	-103.875	-0.362	-0.085
-729.952	580.376	0.022	-0.054
-728.937	784.031	0.116	-0.319
-727.923	-200.000	-0.056	-0.267
-726.908	-150.073	-0.322	-0.025
-725.894	-76.557	-0.208	-0.074
-724.879	745.827	0.104	-0.282
-723.864	-200.000	0.012	-0.319
-722.850	751.805	-0.115	0.311
-721.835	-132.602	0.141	0.018
-720.821	5.698	-0.282	-0.210
-719.806	-200.000	-0.004	-0.229
-718.791	-68.792	-0.196	-0.076
-717.777	41.240	-0.172	-0.156
-716.762	-101.000	-0.524	-0.129
-715.748	4.753	-0.074	-0.055
-714.733	-200.000	0.006	0.319
-713.718	323.250	0.037	-0.071
-712.704	186.402	-0.071	0.107
-711.689	-76.390	-0.229	-0.081
-710.675	-53.154	-0.333	-0.154
-709.660	-112.605	-0.362	-0.072
-708.645	34.268	-0.263	-0.231
-707.631	-10.581	0.141	0.094
-706.616	-200.000	-0.040	-0.406
-705.602	-105.672	-0.098	-0.022
-704.587	-14.932	-0.112	0.072
-703.572	-35.409	-0.158	-0.086
-702.558	562.110	-0.073	0.178
-701.543	800.000	0.040	0.120
-700.529	-200.000	0.001	0.146
-699.514	-200.000	-0.015	-0.150
-698.499	164.837	-0.171	-0.242
-697.485	-122.113	-0.275	-0.045
-696.470	347.276	0.211	-0.417
-695.456	-83.847	-0.086	0.027
-694.441	-125.225	0.029	0.005
-693.426	174.792	0.095	0.139
-692.412	480.719	-0.070	-0.160
-691.397	-116.531	-0.361	-0.067
-690.383	555.036	0.029	-0.071
-689.368	-44.228	-0.274	-0.138
-688.354	-132.966	-0.135	0.017
-687.339	-166.709	0.111	-0.005
-686.324	800.000	-0.046	-0.152
-685.310	-146.690	0.290	-0.025
-684.295	25.774	0.312	-0.261
-683.281	-108.205	-0.171	-0.037
-682.266	-171.094	-0.080	0.003
-681.251	612.758	0.119	-0.298
-680.237	-55.084	0.117	0.053
-679.222	-48.544	0.393	0.190
-678.208	300.130	-0.138	-0.256
-677.193	-69.050	0.155	-0.060
-676.178	-67.548	-0.151	0.060
-675.164	-139.963	0.228	0.024
-674.149	-159.010	-0.413	-0.024
-673.135	800.000	0.039	0.144
-672.120	-61.643	0.317	-0.133
-671.105	800.000	0.058	-0.163
-670.091	321.654	-0.080	-0.153
-669.076	32.774	0.248	-0.215
-668.062	-120.730	-0.276	0.047
-667.047	85.336	-0.038	0.042
-666.032	-19.314	-0.142	-0.088
-665.018	-57.118	0.057	-0.025
-664.003	-200.000	0.032	-0.331
-662.989	-44.962	-0.297	-0.149
-661.974	56.632	0.034	-0.033
-660.959	-104.694	0.126	-0.029
-659.945	134.772	-0.198	-0.257
-658.930	176.322	0.124	0.181
-657.916	-200.000	-0.004	0.104
-656.901	198.599	-0.128	0.196
-655.886	-166.620	-0.336	-0.014
-654.872	238.465	-0.213	-0.354
-653.857	-41.685	-0.135	-0.069
-652.843	-200.000	-0.078	0.365
-651.828	3.539	0.075	0.055
-650.814	800.000	0.132	-0.405
-649.799	-36.459	0.177	-0.096
-648.784	127.425	-0.175	-0.222
-647.770	-200.000	-0.033	0.318
-646.755	-9.793	-0.318	0.213
-645.741	42.550	0.149	0.136
-644.726	126.236	0.111	-0.140
-643.711	-200.000	0.004	0.074
-642.697	-200.000	0.005	0.037
-641.682	-111.839	-0.158	-0.032
-640.668	-175.104	-0.378	0.011
-639.653	-9.177	-0.237	-0.159
-638.638	-200.000	-0.060	-0.485
-637.624	219.123	-0.030	0.048
-636.609	246.964	-0.090	0.153
-635.595	-45.321	-0.077	-0.038
-634.580	800.000	0.064	0.232
-633.565	-29.306	0.083	0.048
-632.551	-200.000	0.042	-0.530
-631.536	171.995	0.169	-0.243
-630.522	-200.000	0.008	0.274
-629.507	-181.966	-0.354	0.007
-628.492	800.000	-0.060	-0.204
-627.478	-91.481	-0.356	-0.102
-626.463	-200.000	-0.023	-0.164
-625.449	-65.329	0.183	-0.074
-624.434	67.354	-0.054	-0.055
-623.419	-200.000	0.029	-0.184
-622.405	-88.767	-0.069	-0.020
-621.390	-54.612	0.318	0.144
-620.376	-95.216	-0.105	-0.028
-619.361	191.132	-0.242	-0.364
-618.346	-200.000	0.050	-0.348
-617.332	-20.677	-0.124	0.076
-616.317	-76.523	0.119	-0.042
-615.303	-112.371	-0.246	-0.049
-614.288	480.364	0.031	0.070
-613.273	-103.489	-0.249	-0.059
-612.259	398.827	-0.049	-0.104
-611.244	42.468	-0.175	-0.159
-610.230	146.393	0.180	0.242
-609.215	1.874	-0.070	0.051
-608.201	-80.737	0.084	0.028
-607.186	-80.606	-0.166	-0.055
-606.171	122.454	0.035	0.044
-605.157	-198.666	-0.250	0.001
-604.142	-200.000	-0.011	-0.322
-603.128	-200.000	-0.035	0.194
-602.113	34.054	-0.110	-0.096
-601.098	-200.000	-0.006	-0.253
-600.084	-88.472	0.135	-0.040
-599.069	555.596	-0.046	-0.111
-598.055	626.095	-0.080	0.203
-597.040	349.400	0.052	0.103
-596.025	132.934	-0.158	-0.204
-595.011	184.793	-0.147	0.217
-593.996	-35.072	0.391	0.213
-592.982	186.604	0.086	0.128
-591.967	-171.523	0.174	-0.006
-590.952	23.239	-0.209	-0.172
-589.938	-6.832	-0.062	0.042
-588.923	-34.235	-0.105	0.058
-587.909	9.061	0.045	-0.034
-586.894	-27.394	-0.141	0.082
-585.879	-94.917	-0.207	0.056
-584.865	54.531	-0.064	0.061
-583.850	-101.574	-0.096	0.023
-582.836	-49.337	0.427	0.204
-581.821	-77.506	0.173	-0.060
-580.806	-200.000	0.036	0.263
-579.792	24.313	0.109	-0.090
-578.777	-200.000	0.020	-0.093
-577.763	-200.000	-0.059	-0.266
-576.748	-23.116	0.075	0.045
-575.733	-200.000	0.038	0.344
-574.719	481.736	0.078	0.176
-573.704	-79.457	0.066	-0.022
-572.690	-124.963	0.275	0.042
-571.675	100.815	-0.013	0.015
-570.661	-15.072	-0.212	-0.136
-569.646	-3.699	-0.078	0.054
-568.631	174.116	0.073	0.105
-567.617	452.918	-0.063	-0.140
-566.602	-200.000	0.056	-0.393
-565.588	41.187	0.157	-0.142
-564.573	800.000	0.027	-0.077
-563.558	-200.000	0.014	-0.221
-562.544	-53.442	0.146	-0.067
-561.529	-28.770	0.286	-0.164
-560.515	41.400	0.266	-0.240
-559.500	-200.000	-0.047	-0.234
-558.485	-200.000	-0.047	-0.234
-557.471	362.225	0.133	0.267
-556.456	-22.464	0.113	-0.069
-555.442	-144.207	0.456	0.043
-554.427	800.000	0.057	0.238
-553.412	-50.732	0.282	-0.133
-552.398	-111.039	0.379	-0.078
-551.383	800.000	0.102	-0.320
-550.369	40.708	0.361	0.325
-549.354	-145.651	-0.171	0.015
-548.339	35.670	-0.177	-0.155
-547.325	118.684	-0.092	-0.114
-546.310	-200.000	-0.035	-0.284
-545.296	-22.476	0.126	-0.076
-544.281	-200.000	0.026	-0.308
-543.266	-14.397	-0.336	0.216
-542.252	-20.477	0.532	0.326
-541.237	-99.003	-0.131	-0.033
-540.223	544.665	-0.081	-0.194
-539.208	322.158	0.066	0.125
-538.193	6.450	-0.179	0.132
-537.179	546.683	-0.112	0.267
-536.164	18.276	0.103	-0.082
-535.150	-200.000	0.016	0.091
-534.135	-13.247	-0.307	0.199
-533.121	641.643	0.122	0.309
-532.106	266.348	0.066	0.114
-531.091	-64.846	-0.107	0.043
-530.077	-151.043	0.183	-0.014
-529.062	26.596	0.096	0.080
-528.048	-166.681	-0.331	0.014
-527.033	429.731	-0.106	-0.229
-526.018	-104.484	0.065	-0.015
-525.004	778.416	-0.020	0.055
-523.989	-200.000	-0.019	0.139
-522.975	-93.096	-0.244	0.068
-521.960	-54.149	0.029	0.013
-520.945	-25.638	-0.302	0.178
-519.931	-102.639	0.274	0.065
-518.916	21.732	-0.271	-0.220
-517.902	-28.806	-0.094	0.054
-516.887	800.000	0.119	0.410
-515.872	-142.040	-0.367	-0.036
-514.858	-200.000	-0.005	-0.197
-513.843	-58.048	0.062	0.027
-512.829	-56.016	0.245	-0.109
-511.814	22.131	-0.168	-0.137
-510.799	-62.371	-0.032	-0.013
-509.785	-200.000	-0.025	0.117
-508.770	-139.964	-0.410	-0.043
-507.756	-114.374	-0.070	-0.013
-506.741	-48.147	-0.256	0.123
-505.726	412.930	-0.055	0.117
-504.712	-175.292	-0.141	-0.004
-503.697	-95.566	-0.226	-0.060
-502.683	7.092	0.213	-0.159
-501.668	-191.310	0.096	-0.001
-500.653	800.000	-0.036	-0.104
-499.639	509.763	0.045	0.104
-498.624	-123.635	0.097	-0.015
-497.610	-200.000	-0.004	-0.153
-496.595	1.123	0.203	-0.145
-495.581	-200.000	0.023	0.242
-494.566	-200.000	-0.010	0.116
-493.551	-130.261	0.089	-0.012
-492.537	-51.626	-0.065	-0.030
-491.522	-200.000	0.007	-0.152
-490.508	55.408	-0.335	0.323
-489.493	800.000	0.032	0.104
-488.478	374.371	0.104	-0.212
-487.464	128.145	-0.158	0.201
-486.449	800.000	0.100	0.420
-485.435	-22.892	0.388	0.233
-484.420	283.122	-0.074	0.133
-483.405	-200.000	-0.012	-0.083
-482.391	20.319	0.256	-0.206
-481.376	147.158	-0.090	0.121
-480.362	800.000	-0.044	-0.180
-479.347	-200.000	0.002	0.136
-478.332	-134.530	-0.271	-0.033
-477.318	-44.959	-0.220	0.109
-476.303	-200.000	-0.013	-0.073
-475.289	117.738	0.124	-0.153
-474.274	-32.394	-0.238	0.132
-473.259	-119.210	-0.276	0.048
-472.245	-200.000	-0.034	0.332
-471.230	146.704	0.056	0.075
-470.216	145.316	0.120	-0.159
-469.201	589.597	-0.116	-0.284
-468.186	35.461	-0.137	-0.120
-467.172	283.142	0.139	-0.248
-466.157	-84.444	0.095	0.030
-465.143	94.525	-0.061	0.068
-464.128	707.571	0.103	0.271
-463.113	-86.719	0.140	-0.042
-462.099	-68.166	-0.081	0.031
-461.084	154.343	0.085	0.116
-460.070	-106.219	-0.249	0.055
-459.055	800.000	-0.093	0.344
-458.040	-60.184	0.200	0.085
-457.026	-72.397	-0.284	-0.104
-456.011	-154.572	-0.301	0.020
-454.997	-74.760	-0.082	-0.029
-453.982	66.629	0.186	0.188
-452.968	198.961	-0.078	0.118
-451.953	-176.248	-0.314	-0.008
-450.938	-200.000	0.001	0.050
-449.924	-138.388	-0.158	-0.017
-448.909	-82.446	0.444	-0.143
-447.895	-200.000	-0.008	-0.176
-446.880	-82.927	-0.572	0.184
-445.865	154.179	-0.095	0.129
-444.851	-200.000	-0.046	-0.348
-443.836	-101.363	0.388	0.094
-442.822	-200.000	0.053	0.279
-441.807	-200.000	-0.043	0.231
-440.792	800.000	0.087	0.243
-439.778	-180.092	0.303	0.006
-438.763	-200.000	0.046	0.632
-437.749	162.374	0.141	-0.196
-436.734	216.334	0.022	-0.035
-435.719	-200.000	-0.048	0.237
-434.705	-200.000	-0.003	0.031
-433.690	-22.671	-0.065	0.039
-432.676	800.000	0.043	-0.141
-431.661	-180.054	-0.514	-0.011
-430.646	-82.368	0.067	0.022
-429.632	143.470	0.221	-0.292
-428.617	-160.029	-0.059	-0.003
-427.603	-139.781	-0.077	0.008
-426.588	180.964	0.047	0.068
-425.573	-79.230	-0.150	-0.051
-424.559	-114.000	0.385	-0.074
-423.544	155.986	0.208	-0.285
-422.530	81.925	0.113	0.122
-421.515	-119.014	0.385	-0.067
-420.500	20.737	-0.280	-0.225
-419.486	-27.751	-0.098	0.056
-418.471	-198.005	0.363	0.002
-417.457	-89.139	-0.308	0.090
-416.442	104.269	-0.064	0.074
-415.428	46.582	0.177	0.163
-414.413	800.000	-0.019	-0.059
-413.398	430.356	0.173	-0.373
-412.384	81.133	-0.161	-0.172
-411.369	42.583	-0.099	0.089
-410.355	-200.000	0.014	-0.182
-409.340	68.419	-0.321	0.327
-408.325	-162.877	-0.167	0.008
-407.311	266.794	-0.104	-0.181
-406.296	800.000	-0.075	0.262
-405.282	-37.629	0.117	0.062
-404.267	-200.000	0.009	0.089
-403.252	5.324	0.037	-0.027
-402.238	124.689	-0.127	-0.158
-401.223	199.518	-0.111	0.169
-400.209	-54.432	-0.185	-0.083
-399.194	-35.757	0.122	-0.065
-398.179	50.103	-0.206	-0.193
-397.165	-68.471	-0.109	-0.042
-396.150	800.000	0.019	-0.054
-395.136	-62.327	-0.233	-0.096
-394.121	196.868	0.066	0.100
-393.106	-75.358	-0.111	-0.039
-392.092	-157.523	-0.375	0.022
-391.077	512.027	-0.158	-0.365
-390.063	186.130	-0.080	-0.118
-389.048	800.000	-0.128	-0.410
-388.033	-105.463	-0.066	-0.015
-387.019	800.000	0.074	0.311
-386.004	-72.159	0.154	0.057
-384.990	-118.466	-0.136	-0.024
-383.975	800.000	0.066	0.265
-382.960	-51.145	0.452	0.210
-381.946	316.952	-0.074	0.139
-380.931	134.028	-0.140	0.180
-379.917	-200.000	0.017	-0.136
-378.902	115.140	0.176	0.213
-377.888	-106.449	-0.385	0.085
-376.873	690.115	-0.043	-0.112
-375.858	-23.449	-0.088	0.053
-374.844	703.127	0.142	-0.371
-373.829	658.628	0.006	-0.015
-372.815	-39.731	-0.248	-0.129
-371.800	-183.201	-0.072	0.001
-370.785	-7.265	-0.106	0.071
-369.771	-71.694	-0.457	-0.169
-368.756	78.214	0.252	-0.266
-367.742	-175.715	0.091	0.002
-366.727	800.000	0.030	0.093
-365.712	-66.554	-0.088	0.035
-364.698	292.801	0.056	-0.102
-363.683	-82.435	0.058	-0.019
-362.669	-200.000	0.004	0.148
-361.654	348.818	-0.248	0.484
-360.639	131.101	0.103	-0.132
-359.625	238.404	-0.053	0.087
-358.610	176.200	-0.148	0.214
-357.596	69.134	0.159	0.162
-356.581	-56.014	-0.409	0.181
-355.566	-124.297	0.196	0.030
-354.552	387.771	0.096	0.196
-353.537	352.223	0.121	0.239
-352.523	299.944	-0.022	-0.041
-351.508	-58.875	0.029	-0.012
-350.493	365.471	-0.121	0.242
-349.479	40.332	-0.367	0.328
-348.464	-156.199	0.254	0.016
-347.450	-91.111	0.239	0.068
-346.435	-90.455	0.089	0.025
-345.420	-150.345	0.162	0.012
-344.406	-200.000	-0.012	0.342
-343.391	183.235	0.044	-0.065
-342.377	176.849	-0.155	-0.224
-341.362	-128.499	0.117	0.016
-340.348	800.000	0.033	0.129
-339.333	429.033	-0.075	0.161
-338.318	78.526	0.135	0.142
-337.304	-200.000	0.147	-0.000
-336.289	39.382	0.143	-0.127
-335.275	98.541	0.315	-0.360
-334.260	449.287	-0.091	0.198
-333.245	800.000	-0.052	-0.184
-332.231	800.000	-0.030	-0.105
-331.216	2.091	-0.110	0.078
-330.202	-157.332	0.129	0.008
-329.187	-200.000	0.017	-0.140
-328.172	380.168	0.116	-0.235
-327.158	124.652	-0.052	-0.065
-326.143	464.408	-0.038	-0.083
-325.129	176.267	0.043	-0.062
-324.114	-167.797	-0.171	0.007
-323.099	68.818	-0.170	-0.172
-322.085	-200.000	-0.068	0.000
-321.070	-200.000	0.048	-0.219
-320.056	-182.657	0.461	-0.008
-319.041	-200.000	-0.001	0.013
-318.026	112.650	0.226	0.271
-317.012	180.551	0.290	0.422
-315.997	182.833	-0.133	-0.194
-314.983	131.328	-0.047	0.059
-313.968	-54.423	0.311	-0.139
-312.953	-78.101	0.039	-0.013
-311.939	294.880	0.110	0.199
-310.924	800.000	-0.055	0.167
-309.910	213.550	-0.154	0.241
-308.895	82.585	0.129	-0.138
-307.880	422.039	-0.064	-0.136
-306.866	800.000	0.069	-0.254
-305.851	60.314	0.118	0.116
-304.837	-169.040	-0.271	0.010
-303.822	800.000	-0.039	-0.106
-302.807	110.502	0.272	-0.324
-301.793	-43.442	0.182	-0.091
-300.778	-148.097	-0.033	0.003
-299.764	330.825	0.047	-0.089
-298.749	109.154	-0.221	-0.262
-297.735	-152.903	0.191	-0.013
-296.720	120.368	0.170	-0.208
-295.705	-65.658	-0.240	0.095
-294.691	5.336	0.269	-0.196
-293.676	-93.822	0.094	-0.026
-292.662	-53.060	-0.367	0.167
-291.647	117.160	0.099	-0.120
-290.632	-114.439	-0.155	-0.029
-289.618	-26.053	-0.253	-0.147
-288.603	687.403	0.073	0.189
-287.589	-200.000	0.027	-0.179
-286.574	-63.188	-0.275	-0.112
-285.559	226.500	-0.093	-0.150
-284.545	-15.678	-0.027	0.017
-283.530	-200.000	-0.003	0.363
-282.516	-200.000	-0.021	-0.329
-281.501	-127.232	0.196	-0.028
-280.486	-106.375	0.205	-0.045
-279.472	-57.536	-0.080	0.035
-278.457	454.336	0.037	0.081
-277.443	-111.056	-0.280	0.057
-276.428	-200.000	-0.029	-0.249
-275.413	-200.000	0.028	0.169
-274.399	111.331	0.068	0.081
-273.384	38.378	0.163	0.144
-272.370	-60.136	0.164	0.069
-271.355	657.717	-0.130	0.330
-270.340	23.786	0.096	-0.078
-269.326	88.661	0.119	0.131
-268.311	-113.356	-0.282	0.055
-267.297	-176.680	0.293	0.007
-266.282	-51.365	-0.048	-0.022
-265.267	89.438	0.048	0.053
-264.253	-119.921	-0.245	-0.042
-263.238	-200.000	0.005	0.110
-262.224	158.591	0.098	-0.135
-261.209	218.721	0.119	0.188
-260.195	-200.000	-0.023	-0.323
-259.180	-200.000	0.049	-0.573
-258.165	800.000	-0.038	0.104
-257.151	-200.000	0.033	-0.183
-256.136	-88.039	-0.056	0.017
-255.122	-54.104	0.090	0.040
-254.107	588.344	-0.077	0.187
-253.092	-200.000	0.023	-0.154
-252.078	-200.000	-0.015	0.244
-251.063	301.012	0.204	0.373
-250.049	800.000	0.041	0.127
-249.034	-126.890	0.213	-0.031
-248.019	164.541	0.197	0.274
-247.005	-200.000	-0.000	-0.053
-245.990	166.261	-0.223	0.311
-244.976	-38.841	0.159	-0.083
-243.961	-200.000	0.038	-0.188
-242.946	266.679	0.055	0.095
-241.932	-200.000	0.008	0.118
-240.917	-169.616	-0.323	-0.012
-239.903	-200.000	-0.016	-0.147
-238.888	-90.953	0.201	-0.057
-237.873	-2.674	-0.073	-0.050
-236.859	-68.681	-0.125	0.048
-235.844	-200.000	0.003	0.160
-234.830	88.038	0.085	0.093
-233.815	-200.000	0.027	-0.181
-232.800	-136.122	-0.086	-0.010
-231.786	-153.864	0.194	0.013
-230.771	449.883	0.150	-0.326
-229.757	-200.000	-0.026	-0.185
-228.742	-82.605	-0.137	0.044
-227.727	-200.000	0.016	0.204
-226.713	-22.035	0.140	0.084
-225.698	-200.000	-0.014	-0.245
-224.684	190.632	0.124	0.183
-223.669	120.671	-0.119	0.146
-222.655	-74.888	-0.026	0.009
-221.640	-200.000	0.014	-0.108
-220.625	-92.149	-0.031	-0.009
-219.611	7.909	-0.276	-0.204
-218.596	800.000	0.063	-0.265
-217.582	57.067	-0.051	-0.049
-216.567	-39.012	0.111	-0.058
-215.552	-139.543	-0.091	0.010
-214.538	-200.000	0.009	0.308
-213.523	-44.090	0.332	-0.164
-212.509	-112.019	-0.189	0.038
-211.494	202.905	0.154	-0.234
-210.479	-49.507	-0.119	-0.056
-209.465	249.625	0.094	-0.156
-208.450	800.000	-0.061	0.212
-207.436	15.345	0.268	0.207
-206.421	-84.581	0.372	0.116
-205.406	-48.556	-0.145	0.069
-204.392	189.757	-0.074	-0.109
-203.377	-139.216	0.319	0.034
-202.363	363.221	-0.178	-0.353
-201.348	338.996	0.126	0.241
-200.333	800.000	-0.042	0.172
-199.319	800.000	0.051	0.174
-198.304	-200.000	-0.066	-0.446
-197.290	-4.351	0.073	-0.050
-196.275	-40.936	0.089	-0.045
-195.260	41.677	0.452	-0.403
-194.246	67.392	-0.205	0.206
-193.231	-107.123	0.054	0.012
-192.217	-107.405	0.362	0.078
-191.202	95.472	-0.063	0.071
-190.187	84.543	-0.017	0.018
-189.173	48.321	0.061	-0.057
-188.158	-200.000	-0.000	0.377
-187.144	-148.764	-0.216	0.017
-186.129	-182.536	-0.198	-0.004
-185.114	800.000	-0.052	0.212
-184.100	-2.586	-0.272	0.187
-183.085	-114.109	0.257	0.049
-182.071	365.193	0.168	-0.332
-181.056	-82.055	-0.154	-0.050
-180.042	8.567	0.164	0.122
-179.027	113.223	-0.257	0.307
-178.012	208.935	-0.115	0.177
-176.998	10.323	0.287	-0.215
-175.983	-200.000	-0.057	-0.358
-174.969	-44.774	0.329	0.161
-173.954	-52.167	0.191	-0.087
-172.939	-200.000	0.006	0.267
-171.925	-149.879	-0.445	0.034
-170.910	348.722	0.122	-0.237
-169.896	-137.750	-0.428	0.047
-168.881	-200.000	-0.026	0.189
-167.866	82.524	0.226	0.242
-166.852	-200.000	0.026	0.197
-165.837	234.510	-0.071	-0.114
-164.823	-67.593	0.341	0.131
-163.808	800.000	-0.093	0.327
-162.793	800.000	-0.076	-0.247
-161.779	-148.283	0.478	0.039
-160.764	-66.679	0.281	-0.110
-159.750	11.788	0.013	0.010
-158.735	45.556	0.082	-0.074
-157.720	23.148	-0.069	-0.056
-156.706	800.000	0.072	-0.281
-155.691	-135.249	0.316	-0.037
-154.677	800.000	0.071	-0.217
-153.662	269.862	0.171	-0.296
-152.647	800.000	-0.061	-0.228
-151.633	-199.795	-0.327	0.002
-150.618	-200.000	0.032	0.318
-149.604	-200.000	-0.003	-0.032
-148.589	77.990	0.134	-0.140
-147.574	-121.722	0.379	-0.062
-146.560	747.253	-0.060	-0.159
-145.545	-200.000	0.043	0.361
-144.531	93.959	-0.199	0.221
-143.516	-72.483	0.218	0.079
-142.502	-200.000	0.025	0.230
-141.487	138.308	0.093	-0.120
-140.472	363.452	-0.103	-0.204
-139.458	214.311	0.208	0.324
-138.443	-200.000	0.055	-0.286
-137.429	473.218	-0.145	0.321
-136.414	-135.680	-0.342	0.040
-135.399	66.953	0.196	-0.196
-134.385	370.478	-0.026	0.052
-133.370	162.352	-0.073	0.101
-132.356	479.883	0.120	0.267
-131.341	-2.046	0.135	-0.093
-130.326	86.762	-0.196	-0.213
-129.312	70.305	0.180	-0.182
-128.297	-39.777	-0.051	-0.026
-127.283	-41.077	0.174	-0.088
-126.268	800.000	0.047	-0.146
-125.253	93.355	0.156	-0.173
-124.239	202.831	-0.133	0.202
-123.224	63.494	0.265	0.261
