DTS Sentinel unit serial number:	SN413079Multiplexer serial number:	ORYXHardware model number:	OX4-SRSoftware version number:	ORYX F/W v4.00 Oryx Data Collector v3.7.2.0data status	okinstallation	princeton_trtdifferential loss correction	single-endedforward channel	channel 2reverse channel	N/Adate	2019/09/19time	15:15:35forward acquisition time	60.00reverse acquisition time	0.00gamma	496.2192k internal	0.2320k external	0.2320temperature offset calibration	1.0025default loss term (dB/km)	0.3790temperature slope calibration	1.0000multiplexer offset coefficient	1.0000multiplexer slope coefficient	1.0000fibre end	0.00T internal ref (°C)	33.59T ext. ref 1 (°C)	1.14T ext. ref 2 (°C)	30.44length (m)	temperature (°C)	Stokes	anti-Stokes-747.200	85.392	0.256	0.284
-746.185	-17.255	0.318	0.202
-745.171	-23.037	-0.230	0.140
-744.156	-200.000	-0.050	0.312
-743.142	-77.763	-0.043	-0.015
-742.127	-200.000	-0.015	0.194
-741.112	-16.026	0.095	-0.061
-740.098	86.745	-0.251	0.281
-739.083	-49.533	0.111	-0.053
-738.069	-200.000	-0.047	0.286
-737.054	-109.128	0.042	0.009
-736.039	-59.316	-0.290	-0.126
-735.025	-5.642	0.358	0.248
-734.010	49.546	-0.264	-0.251
-732.996	800.000	-0.070	-0.196
-731.981	122.395	-0.191	-0.242
-730.966	22.552	-0.154	0.127
-729.952	-12.545	0.093	0.062
-728.937	119.023	-0.233	-0.291
-727.923	-61.198	-0.499	-0.212
-726.908	-72.470	-0.119	0.045
-725.894	169.339	0.250	-0.361
-724.879	-200.000	-0.031	-0.361
-723.864	134.646	-0.081	-0.106
-722.850	-112.258	0.126	0.026
-721.835	-200.000	0.028	0.140
-720.821	-52.257	0.259	0.121
-719.806	668.288	-0.091	-0.237
-718.791	50.296	-0.351	-0.335
-717.777	-65.878	-0.145	0.059
-716.762	-125.188	0.093	-0.014
-715.748	-101.521	0.369	-0.091
-714.733	-89.081	0.351	-0.105
-713.718	134.235	0.180	0.235
-712.704	-39.178	-0.182	0.097
-711.689	-3.835	-0.068	0.048
-710.675	-120.209	-0.279	-0.048
-709.660	87.748	0.072	0.081
-708.645	581.811	-0.092	0.228
-707.631	-174.957	0.258	0.007
-706.616	363.583	-0.073	-0.148
-705.602	800.000	0.021	-0.072
-704.587	169.661	0.169	-0.244
-703.572	-141.369	0.237	-0.024
-702.558	784.721	-0.004	0.011
-701.543	-126.225	0.176	0.027
-700.529	585.945	-0.120	0.299
-699.514	192.491	0.144	0.220
-698.499	-52.783	0.211	-0.098
-697.485	511.524	0.080	0.189
-696.470	-6.616	-0.309	0.213
-695.456	457.885	0.130	0.291
-694.441	800.000	-0.039	0.151
-693.426	-48.475	-0.462	0.224
-692.412	-31.302	0.173	0.098
-691.397	134.736	0.017	-0.022
-690.383	-84.990	0.123	0.039
-689.368	-42.156	-0.464	-0.240
-688.354	-156.928	-0.106	-0.007
-687.339	-200.000	0.010	-0.202
-686.324	-2.535	0.085	0.060
-685.310	24.249	0.056	0.047
-684.295	-200.000	-0.043	0.307
-683.281	42.495	-0.133	-0.122
-682.266	-67.864	-0.104	0.041
-681.251	-20.247	-0.240	-0.149
-680.237	228.641	-0.109	0.179
-679.222	-24.105	-0.031	0.019
-678.208	-149.679	-0.348	-0.028
-677.193	-65.136	0.127	0.052
-676.178	-125.516	-0.230	-0.035
-675.164	-200.000	0.013	-0.305
-674.149	-107.799	0.252	0.055
-673.135	150.211	0.069	-0.094
-672.120	-46.629	-0.054	-0.027
-671.105	-44.700	0.116	-0.058
-670.091	468.125	-0.096	0.217
-669.076	212.481	-0.105	0.168
-668.062	-69.441	0.124	0.048
-667.047	-136.422	-0.077	0.009
-666.032	40.920	0.074	-0.067
-665.018	-200.000	0.042	-0.220
-664.003	208.929	-0.224	0.354
-662.989	359.771	-0.129	-0.260
-661.974	-65.367	0.136	0.055
-660.959	-200.000	-0.066	0.311
-659.945	-26.097	-0.122	0.072
-658.930	-32.263	-0.245	0.138
-657.916	392.272	0.103	-0.216
-656.901	326.736	-0.160	-0.309
-655.886	119.416	0.058	0.072
-654.872	63.763	0.190	0.192
-653.857	-48.675	0.081	-0.039
-652.843	-66.512	-0.220	-0.088
-651.828	7.144	0.293	-0.221
-650.814	800.000	0.060	-0.191
-649.799	189.221	-0.201	0.304
-648.784	-85.659	0.099	0.031
-647.770	29.590	0.095	-0.082
-646.755	-200.000	-0.015	-0.224
-645.741	-130.521	-0.247	-0.034
-644.726	625.851	-0.073	0.186
-643.711	800.000	0.054	0.214
-642.697	476.005	-0.063	0.143
-641.682	126.045	-0.154	-0.197
-640.668	-92.373	-0.150	0.043
-639.653	-4.119	-0.203	-0.141
-638.638	432.114	-0.143	0.312
-637.624	142.764	0.165	0.221
-636.609	-200.000	-0.034	-0.299
-635.595	2.939	-0.155	-0.114
-634.580	454.130	0.067	-0.148
-633.565	415.373	-0.113	-0.243
-632.551	-63.290	0.136	0.056
-631.536	459.225	0.106	0.238
-630.522	-51.949	-0.070	-0.033
-629.507	-65.098	-0.223	0.090
-628.492	-200.000	-0.048	0.236
-627.478	-178.386	0.173	-0.004
-626.463	-200.000	-0.028	-0.166
-625.449	66.551	-0.224	-0.229
-624.434	330.455	-0.090	0.174
-623.419	-113.061	0.200	-0.040
-622.405	-200.000	0.054	-0.504
-621.390	441.834	0.105	-0.230
-620.376	235.688	0.056	0.093
-619.361	321.153	-0.139	-0.267
-618.346	-69.872	0.059	0.023
-617.332	164.934	0.164	-0.233
-616.317	-81.787	0.287	-0.094
-615.303	-47.426	0.274	-0.134
-614.288	-46.943	0.115	0.057
-613.273	-200.000	-0.002	0.045
-612.259	-64.509	0.216	0.088
-611.244	179.298	-0.177	0.260
-610.230	383.086	-0.119	0.247
-609.215	-200.000	-0.061	0.315
-608.201	60.001	0.084	-0.084
-607.186	142.002	0.066	-0.088
-606.171	-35.663	-0.097	0.053
-605.157	144.363	0.188	-0.252
-604.142	-200.000	0.048	-0.242
-603.128	-73.281	0.083	0.030
-602.113	-200.000	0.000	-0.157
-601.098	-184.233	0.039	-0.001
-600.084	-87.902	-0.567	0.171
-599.069	-200.000	0.017	-0.125
-598.055	-81.482	-0.123	-0.041
-597.040	-80.604	-0.140	-0.047
-596.025	20.764	-0.266	0.217
-595.011	-80.388	0.019	-0.006
-593.996	-200.000	0.000	-0.148
-592.982	800.000	-0.072	0.233
-591.967	-38.364	-0.141	-0.075
-590.952	-200.000	-0.048	-0.267
-589.938	219.395	0.175	-0.281
-588.923	-40.161	0.273	-0.143
-587.909	9.894	0.116	-0.089
-586.894	-125.615	0.218	0.033
-585.879	603.373	0.018	-0.046
-584.865	-42.987	-0.250	0.128
-583.850	432.692	0.018	0.039
-582.836	-193.035	0.192	0.002
-581.821	-77.189	0.226	0.079
-580.806	-19.384	-0.265	0.165
-579.792	-98.095	-0.275	0.071
-578.777	449.144	-0.071	0.157
-577.763	-0.577	0.263	-0.187
-576.748	-200.000	-0.027	0.181
-575.733	-200.000	-0.047	0.298
-574.719	800.000	0.069	-0.251
-573.704	-68.857	-0.214	-0.083
-572.690	-154.520	-0.297	-0.020
-571.675	800.000	-0.110	0.384
-570.661	-110.748	0.151	0.031
-569.646	12.589	0.146	0.113
-568.631	-70.996	0.269	-0.102
-567.617	94.069	-0.093	-0.106
-566.602	723.507	0.100	0.268
-565.588	800.000	0.030	0.089
-564.573	-122.875	-0.246	-0.040
-563.558	-79.274	0.171	0.058
-562.544	-138.007	-0.342	0.038
-561.529	-100.843	0.368	0.091
-560.515	-85.235	0.149	-0.047
-559.500	-23.150	-0.276	-0.167
-558.485	353.124	0.088	-0.176
-557.471	523.417	0.052	-0.122
-556.456	-200.000	0.000	-0.021
-555.442	60.297	-0.147	-0.146
-554.427	-93.780	-0.217	-0.060
-553.412	-27.887	-0.041	0.024
-552.398	-107.043	-0.200	-0.044
-551.383	-200.000	0.017	-0.145
-550.369	304.293	0.166	-0.308
-549.354	-12.015	-0.244	0.160
-548.339	-134.266	-0.158	-0.019
-547.325	-195.248	0.312	-0.002
-546.310	45.328	-0.159	-0.147
-545.296	50.254	-0.219	-0.207
-544.281	290.370	0.170	-0.311
-543.266	-200.000	-0.019	-0.430
-542.252	-200.000	-0.018	-0.258
-541.237	800.000	0.056	-0.219
-540.223	-101.709	0.161	0.039
-539.208	111.537	-0.112	-0.136
-538.193	-71.595	-0.183	-0.068
-537.179	800.000	0.042	-0.141
-536.164	-200.000	-0.023	-0.129
-535.150	91.762	0.221	0.249
-534.135	-200.000	0.144	0.000
-533.121	-1.827	0.024	0.017
-532.106	-71.706	0.186	0.070
-531.091	66.134	-0.070	0.072
-530.077	-200.000	0.022	0.270
-529.062	531.002	0.039	0.092
-528.048	-107.967	0.220	-0.048
-527.033	-44.445	-0.067	0.034
-526.018	488.102	0.068	-0.156
-525.004	-41.074	-0.092	-0.047
-523.989	27.667	-0.209	-0.176
-522.975	61.671	0.158	0.157
-521.960	261.252	0.093	0.162
-520.945	2.492	0.321	-0.233
-519.931	-112.806	0.039	-0.008
-518.916	-140.902	-0.318	0.033
-517.902	697.659	-0.039	0.102
-516.887	-66.056	-0.131	-0.052
-515.872	-133.527	0.206	0.026
-514.858	-59.478	-0.469	0.202
-513.843	-200.000	0.044	0.377
-512.829	800.000	0.074	0.208
-511.814	470.261	-0.198	0.446
-510.799	-200.000	-0.022	0.164
-509.785	81.080	0.084	0.091
-508.770	-200.000	0.025	-0.122
-507.756	263.400	0.103	-0.179
-506.741	40.858	0.350	-0.316
-505.726	-18.276	-0.294	0.184
-504.712	-200.000	-0.008	-0.050
-503.697	-0.075	-0.079	0.056
-502.683	187.013	-0.040	0.059
-501.668	-200.000	0.012	0.237
-500.653	31.977	-0.032	0.028
-499.639	-200.000	-0.026	-0.117
-498.624	-99.702	-0.132	0.033
-497.610	-138.625	-0.311	0.034
-496.595	-91.922	-0.203	-0.058
-495.581	-200.000	0.011	0.268
-494.566	103.940	-0.140	0.164
-493.551	166.512	0.241	-0.342
-492.537	35.480	0.110	-0.096
-491.522	629.684	-0.145	-0.367
-490.508	-200.000	-0.020	0.226
-489.493	0.138	0.096	0.069
-488.478	-144.862	0.416	-0.038
-487.464	132.030	-0.065	-0.084
-486.449	-111.957	0.161	0.033
-485.435	19.996	0.278	-0.225
-484.420	314.776	-0.091	0.172
-483.405	54.604	-0.274	-0.265
-482.391	-43.723	-0.051	-0.026
-481.376	19.195	-0.207	-0.166
-480.362	370.417	-0.072	0.146
-479.347	-2.936	-0.072	-0.050
-478.332	-42.128	0.062	0.032
-477.318	-92.005	-0.366	0.104
-476.303	368.157	0.141	0.285
-475.289	26.137	-0.165	-0.137
-474.274	-200.000	0.003	-0.123
-473.259	721.783	-0.099	0.263
-472.245	-157.626	0.084	-0.005
-471.230	-25.821	-0.285	-0.168
-470.216	17.696	0.155	-0.124
-469.201	-35.879	0.379	-0.205
-468.186	30.757	-0.218	-0.187
-467.172	-99.676	-0.224	-0.056
-466.157	-91.879	-0.273	-0.078
-465.143	-150.804	-0.255	-0.019
-464.128	800.000	0.072	-0.201
-463.113	251.082	0.069	-0.117
-462.099	220.990	0.164	0.264
-461.084	-33.518	0.113	0.063
-460.070	-200.000	-0.064	-0.300
-459.055	192.542	-0.114	-0.172
-458.040	349.473	0.046	-0.091
-457.026	114.090	0.038	-0.046
-456.011	-89.846	-0.114	0.033
-454.997	26.155	0.110	-0.092
-453.982	-68.246	0.280	0.109
-452.968	299.134	-0.101	0.185
-451.953	-200.000	0.005	0.254
-450.938	657.156	-0.045	-0.115
-449.924	-200.000	0.037	0.242
-448.909	-79.755	0.103	-0.035
-447.895	800.000	0.014	-0.047
-446.880	22.166	0.029	0.024
-445.865	800.000	0.013	-0.040
-444.851	-153.997	-0.230	0.016
-443.836	81.550	-0.069	0.074
-442.822	88.189	0.008	-0.009
-441.807	800.000	0.052	0.211
-440.792	800.000	-0.141	-0.492
-439.778	-200.000	0.021	-0.124
-438.763	-200.000	0.028	-0.167
-437.749	228.862	-0.130	0.211
-436.734	6.357	0.246	0.183
-435.719	-200.000	-0.021	-0.313
-434.705	-30.032	-0.327	-0.186
-433.690	72.851	0.209	0.218
-432.676	-75.594	0.166	-0.059
-431.661	28.903	0.049	0.041
-430.646	-111.427	-0.281	0.057
-429.632	-38.891	-0.141	-0.074
-428.617	-172.635	-0.054	-0.002
-427.603	800.000	0.070	-0.297
-426.588	85.472	0.023	-0.026
-425.573	205.816	0.215	-0.334
-424.559	-109.470	-0.084	0.018
-423.544	-159.709	-0.361	0.020
-422.530	0.644	-0.175	-0.125
-421.515	-62.696	-0.188	-0.078
-420.500	219.050	-0.168	0.268
-419.486	-129.158	0.366	0.051
-418.471	16.482	0.331	0.261
-417.457	-39.293	-0.169	-0.089
-416.442	800.000	-0.075	-0.211
-415.428	68.417	-0.212	-0.216
-414.413	-200.000	0.024	-0.368
-413.398	-78.172	0.191	-0.065
-412.384	-73.251	-0.239	0.087
-411.369	362.005	0.133	-0.266
-410.355	-0.816	0.238	-0.168
-409.340	-64.353	0.116	0.047
-408.325	88.352	-0.094	0.104
-407.311	34.407	-0.165	0.144
-406.296	-127.665	0.302	0.044
-405.282	-52.114	-0.274	-0.127
-404.267	800.000	0.043	-0.163
-403.252	59.740	-0.339	-0.334
-402.238	21.976	0.180	-0.146
-401.223	52.084	0.335	0.318
-400.209	54.059	0.108	0.104
-399.194	-166.700	-0.114	-0.005
-398.179	370.340	0.119	0.241
-397.165	800.000	-0.113	-0.331
-396.150	414.173	0.088	-0.187
-395.136	368.340	0.031	0.063
-394.121	46.540	0.159	-0.147
-393.106	800.000	-0.023	-0.088
-392.092	82.478	-0.148	-0.160
-391.077	-200.000	-0.073	-0.339
-390.063	25.420	-0.131	-0.109
-389.048	-126.332	-0.175	-0.026
-388.033	800.000	-0.004	0.016
-387.019	-19.691	0.142	0.088
-386.004	-93.391	-0.347	-0.096
-384.990	-200.000	-0.008	-0.190
-383.975	-25.060	-0.305	0.180
-382.960	25.929	0.161	-0.134
-381.946	28.595	-0.083	0.070
-380.931	-49.161	-0.181	-0.086
-379.917	-200.000	-0.013	-0.189
-378.902	-130.033	-0.067	0.009
-377.888	-200.000	0.009	-0.072
-376.873	-54.458	-0.159	0.072
-375.858	-157.490	-0.256	-0.015
-374.844	-200.000	0.023	-0.132
-373.829	448.816	0.049	0.107
-372.815	81.427	0.125	-0.135
-371.800	76.467	-0.104	-0.110
-370.785	-200.000	-0.013	-0.138
-369.771	-80.178	0.117	-0.039
-368.756	18.059	0.227	-0.180
-367.742	185.206	0.150	-0.222
-366.727	800.000	-0.037	-0.109
-365.712	442.939	0.093	0.202
-364.698	-149.849	0.430	0.034
-363.683	-200.000	-0.055	0.265
-362.669	153.426	0.010	-0.014
-361.654	146.786	0.133	0.178
-360.639	120.863	0.074	0.091
-359.625	-110.167	-0.217	0.045
-358.610	47.849	-0.342	-0.318
-357.596	-38.432	-0.172	0.090
-356.581	227.448	0.192	0.311
-355.566	-200.000	0.008	0.315
-354.552	-200.000	0.032	0.256
-353.537	512.550	0.084	0.195
-352.523	81.943	-0.189	0.204
-351.508	457.992	0.120	-0.265
-350.493	-21.724	-0.164	0.099
-349.479	280.859	-0.124	0.220
-348.464	80.422	-0.300	-0.322
-347.450	-118.929	0.187	0.033
-346.435	800.000	-0.051	0.168
-345.420	-124.793	0.348	0.054
-344.406	-35.548	-0.102	0.055
-343.391	800.000	0.089	0.334
-342.377	50.557	-0.175	-0.165
-341.362	482.144	0.135	0.305
-340.348	-200.000	-0.006	-0.077
-339.333	-131.265	-0.161	0.021
-338.318	128.283	0.061	0.077
-337.304	215.006	0.183	0.289
-336.289	-117.504	0.275	-0.049
-335.275	-85.055	0.179	-0.056
-334.260	-200.000	-0.000	0.053
-333.245	-140.490	0.200	0.021
-332.231	-157.266	-0.124	0.007
-331.216	-119.606	-0.297	0.051
-330.202	-200.000	0.007	-0.154
-329.187	-72.714	-0.252	0.093
-328.172	-103.625	-0.157	0.037
-327.158	480.074	0.093	0.210
-326.143	4.425	0.247	-0.180
-325.129	768.145	0.098	0.265
-324.114	118.186	-0.131	-0.161
-323.099	-118.535	-0.188	-0.033
-322.085	61.827	-0.154	0.152
-321.070	-200.000	0.047	-0.249
-320.056	-170.581	0.326	-0.011
-319.041	-12.332	0.111	-0.072
-318.026	-1.447	0.221	-0.155
-317.012	-81.984	-0.095	-0.031
-315.997	-200.000	-0.050	-0.492
-314.983	-87.341	-0.148	-0.045
-313.968	-200.000	-0.006	-0.109
-312.953	-124.626	0.034	-0.005
-311.939	740.219	0.088	0.234
-310.924	-161.514	0.233	-0.012
-309.910	90.052	-0.193	0.214
-308.895	-200.000	0.029	-0.137
-307.880	-25.522	-0.035	0.021
-306.866	800.000	0.151	0.480
-305.851	-153.053	-0.358	-0.025
-304.837	164.800	0.010	-0.015
-303.822	800.000	0.042	0.153
-302.807	229.580	0.058	0.095
-301.793	323.778	0.060	0.113
-300.778	43.371	-0.088	0.079
-299.764	-133.763	0.225	0.028
-298.749	-9.792	-0.186	0.123
-297.735	767.121	0.051	-0.138
-296.720	141.759	-0.082	-0.108
-295.705	171.076	0.103	0.147
-294.691	73.016	0.126	0.131
-293.676	-133.342	-0.267	-0.033
-292.662	-200.000	0.053	0.263
-291.647	-200.000	0.063	-0.361
-290.632	800.000	0.118	0.331
-289.618	32.028	-0.223	0.191
-288.603	-200.000	0.000	0.470
-287.589	282.331	0.089	0.158
-286.574	-194.408	0.267	-0.002
-285.559	-45.700	-0.129	0.063
-284.545	104.207	-0.135	0.158
-283.530	147.164	0.097	0.130
-282.516	248.521	0.043	-0.073
-281.501	151.157	-0.162	0.219
-280.486	-106.970	0.288	0.063
-279.472	-174.222	0.510	0.015
-278.457	800.000	0.054	-0.167
-277.443	221.355	-0.043	-0.068
-276.428	-200.000	-0.051	-0.242
-275.413	322.455	-0.069	-0.130
-274.399	541.210	0.031	-0.074
-273.384	355.390	0.250	0.493
-272.370	49.878	0.131	0.123
-271.355	-101.659	-0.262	-0.063
-270.340	-59.561	-0.198	-0.084
-269.326	-78.023	-0.142	-0.049
-268.311	-156.636	0.071	-0.004
-267.297	18.496	-0.250	0.199
-266.282	-126.990	0.157	-0.023
-265.267	72.165	-0.076	-0.079
-264.253	-110.691	-0.262	0.054
-263.238	-65.161	0.130	-0.052
-262.224	800.000	0.081	-0.293
-261.209	-200.000	0.526	0.001
-260.195	207.305	0.121	-0.188
-259.180	-200.000	-0.007	-0.245
-258.165	-200.000	0.004	0.143
-257.151	800.000	-0.063	0.271
-256.136	16.217	0.169	0.133
-255.122	-161.354	0.362	0.019
-254.107	-200.000	0.016	-0.136
-253.092	-200.000	-0.039	-0.209
-252.078	145.276	-0.102	0.136
-251.063	152.332	0.125	-0.169
-250.049	800.000	0.054	0.199
-249.034	-200.000	-0.006	-0.167
-248.019	21.320	-0.067	-0.054
-247.005	800.000	-0.087	0.293
-245.990	-42.535	0.189	-0.096
-244.976	408.287	-0.038	0.079
-243.961	-108.607	0.196	-0.042
-242.946	-69.699	0.260	0.098
-241.932	87.444	0.182	-0.199
-240.917	-97.167	-0.320	0.083
-239.903	-53.138	0.094	-0.043
-238.888	-200.000	0.029	0.224
-237.873	88.760	-0.195	0.215
-236.859	19.839	-0.053	-0.042
-235.844	-39.228	-0.306	0.159
-234.830	35.412	0.092	-0.080
-233.815	-200.000	0.022	-0.174
-232.800	227.575	0.156	-0.252
-231.786	-138.728	-0.321	0.035
-230.771	146.250	-0.117	0.155
-229.757	800.000	-0.024	-0.087
-228.742	-116.370	0.087	-0.016
-227.727	-200.000	0.016	0.125
-226.713	-200.000	-0.027	-0.266
-225.698	-53.419	0.195	-0.089
-224.684	336.140	-0.110	0.212
-223.669	-55.957	0.308	-0.136
-222.655	-31.752	-0.162	-0.090
-221.640	-21.656	0.103	-0.062
-220.625	800.000	0.060	0.205
-219.611	800.000	-0.088	-0.308
-218.596	111.767	-0.089	0.106
-217.582	314.444	-0.078	-0.145
-216.567	31.320	-0.043	-0.036
-215.552	-200.000	-0.044	0.308
-214.538	-33.568	0.166	-0.091
-213.523	-174.249	0.127	0.004
-212.509	-200.000	-0.047	0.212
-211.494	151.772	-0.136	-0.183
-210.479	419.608	0.134	0.284
-209.465	99.830	0.248	-0.285
-208.450	-107.649	-0.306	0.066
-207.436	-61.415	0.030	-0.012
-206.421	-192.397	0.258	0.002
-205.406	-200.000	0.023	-0.131
-204.392	-106.026	0.175	0.039
-203.377	-71.728	-0.465	0.172
-202.363	-98.923	-0.131	0.033
-201.348	-72.128	0.284	0.104
-200.333	111.667	-0.129	0.154
-199.319	150.252	-0.046	-0.061
-198.304	88.003	-0.200	0.219
-197.290	-28.323	0.201	0.115
-196.275	31.345	-0.090	0.076
-195.260	-200.000	0.009	-0.310
-194.246	43.181	-0.058	-0.052
-193.231	42.756	0.173	-0.156
-192.217	283.214	0.073	-0.130
-191.202	-198.369	0.122	0.001
-190.187	-182.589	-0.034	0.001
-189.173	110.239	-0.115	-0.136
-188.158	305.377	0.108	0.199
-187.144	95.861	0.241	0.272
-186.129	484.056	0.102	-0.230
-185.114	279.863	-0.042	0.073
-184.100	27.049	0.203	0.168
-183.085	-200.000	-0.013	0.264
-182.071	102.920	0.019	0.023
-181.056	-86.138	-0.251	0.077
-180.042	-200.000	-0.031	-0.223
-179.027	-200.000	0.001	-0.226
-178.012	-44.659	-0.177	0.088
-176.998	583.536	0.215	0.521
-175.983	-100.995	0.419	0.102
-174.969	800.000	0.017	0.052
-173.954	800.000	0.060	0.182
-172.939	329.235	0.143	-0.271
-171.925	487.945	0.225	0.508
-170.910	154.099	0.100	0.136
-169.896	365.322	0.086	-0.171
-168.881	292.443	-0.219	0.394
-167.866	-96.436	-0.186	-0.048
-166.852	565.917	0.136	0.327
-165.837	-152.465	-0.108	-0.008
-164.823	173.254	0.069	-0.099
-163.808	-200.000	0.014	0.430
-162.793	-200.000	-0.032	0.159
-161.779	-117.270	0.222	0.040
-160.764	-126.067	-0.237	0.035
-159.750	-76.430	0.236	0.082
-158.735	-1.224	0.161	-0.112
-157.720	115.215	0.123	-0.148
-156.706	-200.000	-0.005	0.177
-155.691	28.637	-0.256	-0.215
-154.677	118.575	0.205	-0.250
-153.662	-200.000	-0.040	0.232
-152.647	-167.511	-0.108	0.004
-151.633	285.442	0.027	0.048
-150.618	-200.000	0.019	-0.090
-149.604	318.218	0.063	0.117
-148.589	396.372	0.101	-0.209
-147.574	800.000	-0.095	-0.279
-146.560	797.911	0.040	0.109
-145.545	-102.617	-0.171	-0.040
-144.531	-159.676	0.380	0.021
-143.516	-107.134	0.213	0.046
-142.502	3.934	0.110	-0.079
-141.487	372.198	0.103	-0.208
-140.472	14.629	0.146	-0.113
-139.458	208.229	0.179	0.276
-138.443	-63.342	-0.059	-0.024
-137.429	274.474	-0.182	-0.318
-136.414	-115.515	0.294	0.055
-135.399	124.721	0.130	0.161
-134.385	-112.481	0.088	-0.017
-133.370	92.418	-0.222	0.247
-132.356	-19.277	0.256	-0.157
-131.341	510.498	0.058	0.133
-130.326	-67.840	0.184	-0.071
-129.312	21.350	0.126	0.101
-128.297	-200.000	0.001	0.088
-127.283	157.588	-0.035	-0.048
-126.268	-191.238	0.386	-0.004
-125.253	-200.000	-0.007	-0.085
-124.239	-45.678	-0.186	0.091
-123.224	588.220	0.150	0.364
-122.210	0.026	-0.189	-0.133
-121.195	800.000	0.101	0.319
