DTS Sentinel unit serial number:	SN413079Multiplexer serial number:	ORYXHardware model number:	OX4-SRSoftware version number:	ORYX F/W v4.00 Oryx Data Collector v3.7.2.0data status	okinstallation	princeton_trtdifferential loss correction	single-endedforward channel	channel 2reverse channel	N/Adate	2019/09/12time	09:09:10forward acquisition time	60.00reverse acquisition time	0.00gamma	496.2192k internal	0.2316k external	0.2316temperature offset calibration	1.0063default loss term (dB/km)	0.3790temperature slope calibration	1.0000multiplexer offset coefficient	1.0000multiplexer slope coefficient	1.0000fibre end	0.00T internal ref (°C)	34.55T ext. ref 1 (°C)	1.80T ext. ref 2 (°C)	32.61length (m)	temperature (°C)	Stokes	anti-Stokes-747.200	-119.919	-0.173	0.030
-746.185	61.904	-0.098	0.099
-745.171	-143.314	-0.411	0.040
-744.156	717.062	-0.138	0.370
-743.142	194.822	0.079	0.121
-742.127	-200.000	0.042	0.222
-741.112	347.162	-0.051	-0.102
-740.098	51.273	-0.382	0.368
-739.083	800.000	-0.041	0.147
-738.069	800.000	-0.036	0.134
-737.054	-123.173	0.207	0.034
-736.039	800.000	-0.068	-0.199
-735.025	-200.000	0.056	0.340
-734.010	800.000	0.031	-0.128
-732.996	60.532	-0.155	-0.156
-731.981	-200.000	0.007	-0.133
-730.966	-93.713	-0.096	0.027
-729.952	195.136	-0.026	-0.039
-728.937	800.000	0.097	-0.283
-727.923	75.808	0.323	0.346
-726.908	-54.770	-0.075	0.034
-725.894	800.000	0.022	0.071
-724.879	75.181	-0.028	-0.030
-723.864	-13.940	0.162	-0.106
-722.850	-52.971	0.272	-0.126
-721.835	168.751	-0.270	0.390
-720.821	-200.000	0.033	-0.255
-719.806	-45.629	0.327	-0.164
-718.791	-200.000	-0.027	-0.345
-717.777	800.000	-0.065	-0.192
-716.762	-200.000	-0.005	-0.273
-715.748	135.205	0.167	0.220
-714.733	-96.627	-0.218	-0.058
-713.718	-200.000	0.028	-0.259
-712.704	86.380	0.240	0.268
-711.689	-52.552	-0.298	-0.139
-710.675	18.587	-0.221	-0.179
-709.660	389.005	-0.066	-0.138
-708.645	-2.959	0.204	-0.144
-707.631	-91.156	0.114	-0.033
-706.616	9.577	-0.145	-0.111
-705.602	44.090	-0.145	-0.135
-704.587	-200.000	-0.024	-0.292
-703.572	-42.836	-0.064	0.033
-702.558	-31.371	-0.114	-0.065
-701.543	485.271	-0.072	0.165
-700.529	-163.228	-0.316	0.015
-699.514	-26.118	0.035	0.021
-698.499	-165.077	0.392	-0.018
-697.485	800.000	0.053	-0.173
-696.470	-99.069	0.021	-0.005
-695.456	-200.000	0.028	-0.259
-694.441	260.676	0.219	-0.383
-693.426	510.854	0.134	-0.315
-692.412	-200.000	0.066	-0.372
-691.397	-104.988	-0.257	-0.060
-690.383	-200.000	0.061	-0.328
-689.368	-57.715	0.165	0.073
-688.354	-103.537	0.022	-0.005
-687.339	-70.284	-0.130	-0.050
-686.324	-200.000	-0.010	0.112
-685.310	-150.391	-0.177	0.014
-684.295	101.284	-0.149	-0.176
-683.281	-21.312	0.159	-0.098
-682.266	-70.702	-0.156	-0.059
-681.251	-34.622	0.072	-0.040
-680.237	800.000	-0.072	-0.232
-679.222	-99.229	-0.242	0.062
-678.208	-67.882	0.077	-0.030
-677.193	10.568	-0.430	-0.331
-676.178	120.577	-0.094	0.119
-675.164	489.193	0.082	-0.189
-674.149	-46.076	-0.145	-0.072
-673.135	-200.000	-0.089	-0.408
-672.120	305.823	-0.100	-0.188
-671.105	800.000	-0.037	-0.126
-670.091	425.602	0.147	-0.319
-669.076	36.635	0.252	-0.225
-668.062	-100.806	-0.162	-0.040
-667.047	-8.107	0.091	0.062
-666.032	-200.000	0.019	-0.151
-665.018	-200.000	-0.021	0.412
-664.003	203.728	0.052	0.082
-662.989	-147.440	0.226	-0.019
-661.974	-200.000	-0.043	-0.242
-660.959	-200.000	0.030	-0.235
-659.945	-136.550	0.224	-0.026
-658.930	7.778	0.335	-0.253
-657.916	344.524	0.038	0.075
-656.901	192.049	0.138	-0.210
-655.886	303.293	0.046	0.085
-654.872	37.108	-0.158	0.142
-653.857	255.455	0.048	-0.083
-652.843	-21.822	-0.184	0.113
-651.828	800.000	0.039	0.152
-650.814	-46.797	-0.226	-0.112
-649.799	-109.163	-0.181	-0.039
-648.784	-1.645	-0.334	-0.237
-647.770	-122.159	0.147	0.024
-646.755	-170.588	-0.035	-0.001
-645.741	37.202	0.366	-0.327
-644.726	-134.503	-0.156	0.019
-643.711	-101.697	-0.452	-0.111
-642.697	-19.899	-0.293	0.183
-641.682	-98.617	0.490	-0.126
-640.668	251.762	-0.123	0.211
-639.653	-78.073	0.230	-0.080
-638.638	180.188	-0.050	-0.074
-637.624	-200.000	0.009	-0.076
-636.609	45.472	0.282	-0.263
-635.595	-156.816	-0.243	-0.015
-634.580	529.945	0.151	-0.361
-633.565	-42.556	0.159	0.082
-632.551	4.228	0.414	0.306
-631.536	-104.137	0.043	0.010
-630.522	-156.864	-0.202	-0.012
-629.507	672.745	-0.058	0.151
-628.492	-200.000	-0.010	-0.091
-627.478	550.486	0.046	0.112
-626.463	24.875	0.067	-0.056
-625.449	662.583	-0.069	0.179
-624.434	109.384	0.258	-0.311
-623.419	59.045	0.117	-0.116
-622.405	800.000	0.071	0.244
-621.390	-39.633	0.170	-0.090
-620.376	79.447	0.064	-0.069
-619.361	-148.379	-0.257	0.021
-618.346	217.158	-0.080	-0.128
-617.332	800.000	-0.179	0.542
-616.317	-171.211	0.080	-0.003
-615.303	-200.000	0.004	0.112
-614.288	800.000	-0.047	-0.164
-613.273	800.000	-0.100	0.304
-612.259	58.840	-0.091	0.090
-611.244	-137.071	0.228	0.026
-610.230	643.345	0.069	-0.178
-609.215	800.000	-0.064	-0.209
-608.201	-61.655	-0.229	0.097
-607.186	589.021	-0.126	0.313
-606.171	800.000	0.065	-0.266
-605.157	-25.307	0.538	-0.321
-604.142	-94.241	0.207	-0.057
-603.128	-110.799	0.099	0.021
-602.113	-200.000	0.063	-0.292
-601.098	264.354	0.043	-0.075
-600.084	-45.482	-0.080	-0.040
-599.069	73.696	-0.167	0.177
-598.055	494.535	0.098	-0.226
-597.040	256.234	-0.251	-0.434
-596.025	227.298	0.067	0.109
-595.011	-92.681	0.149	0.042
-593.996	143.805	0.057	-0.077
-592.982	800.000	0.070	-0.222
-591.967	-76.743	0.109	0.039
-590.952	-200.000	0.038	0.323
-589.938	-150.126	0.276	-0.022
-588.923	-11.808	-0.071	-0.047
-587.909	276.939	-0.088	-0.158
-586.894	455.857	0.131	0.293
-585.879	-8.054	-0.088	0.059
-584.865	-200.000	0.045	-0.346
-583.850	-200.000	0.003	0.086
-582.836	-0.456	-0.188	-0.135
-581.821	800.000	0.038	-0.107
-580.806	800.000	0.051	0.156
-579.792	-200.000	-0.003	-0.059
-578.777	57.879	0.066	0.065
-577.763	-200.000	-0.030	0.187
-576.748	-121.718	0.320	0.053
-575.733	286.161	0.098	0.178
-574.719	-200.000	-0.009	-0.208
-573.704	215.202	-0.015	-0.025
-572.690	472.958	-0.071	0.162
-571.675	-99.998	-0.123	0.031
-570.661	-86.578	0.060	0.018
-569.646	-73.726	-0.126	-0.046
-568.631	-117.677	0.228	-0.041
-567.617	417.748	0.069	-0.148
-566.602	-56.148	0.175	0.078
-565.588	4.902	0.272	-0.202
-564.573	-62.647	-0.105	0.044
-563.558	138.336	-0.062	-0.082
-562.544	-200.000	-0.025	-0.306
-561.529	800.000	-0.008	-0.024
-560.515	5.745	-0.327	0.243
-559.500	-51.957	0.136	-0.064
-558.485	-127.098	-0.376	0.055
-557.471	-200.000	-0.009	-0.274
-556.456	800.000	0.056	0.205
-555.442	11.082	-0.187	-0.144
-554.427	226.593	-0.046	0.075
-553.412	156.706	0.067	-0.093
-552.398	-38.445	-0.203	0.108
-551.383	-135.483	-0.282	0.034
-550.369	-200.000	0.003	-0.281
-549.354	800.000	0.061	0.170
-548.339	800.000	0.074	-0.319
-547.325	-11.175	0.274	0.181
-546.310	800.000	0.012	-0.049
-545.296	68.661	0.061	-0.063
-544.281	36.830	0.092	-0.082
-543.266	-200.000	0.022	0.219
-542.252	244.321	0.031	0.053
-541.237	-65.261	-0.104	0.042
-540.223	-158.237	0.178	0.010
-539.208	800.000	0.041	-0.118
-538.193	-108.691	-0.266	-0.057
-537.179	-200.000	-0.011	0.128
-536.164	526.132	-0.115	-0.271
-535.150	173.375	0.215	-0.312
-534.135	-200.000	-0.002	0.467
-533.121	125.040	-0.425	0.538
-532.106	-200.000	-0.050	0.282
-531.091	101.168	0.116	0.136
-530.077	-200.000	0.032	0.210
-529.062	800.000	-0.087	0.278
-528.048	27.072	0.137	0.116
-527.033	443.549	-0.063	-0.139
-526.018	-178.659	-0.216	-0.005
-525.004	84.966	-0.209	-0.230
-523.989	348.920	0.214	-0.425
-522.975	282.576	-0.145	0.262
-521.960	800.000	0.029	-0.126
-520.945	689.833	0.072	-0.190
-519.931	-200.000	-0.060	0.300
-518.916	191.569	0.147	-0.222
-517.902	800.000	0.105	-0.338
-516.887	101.889	0.090	0.106
-515.872	90.365	-0.032	0.036
-514.858	122.455	-0.089	-0.112
-513.843	-84.353	-0.219	-0.069
-512.829	-89.366	0.088	-0.026
-511.814	-23.962	0.108	0.065
-510.799	-21.751	-0.162	0.099
-509.785	452.868	0.130	0.289
-508.770	-23.199	-0.172	0.104
-507.756	49.369	0.137	0.130
-506.741	393.137	-0.136	0.284
-505.726	50.016	-0.196	-0.185
-504.712	-139.189	-0.185	0.020
-503.697	-116.785	0.021	0.004
-502.683	294.295	0.147	0.270
-501.668	-200.000	-0.021	-0.145
-500.653	474.349	-0.049	0.112
-499.639	-78.057	0.150	-0.052
-498.624	-79.440	0.121	-0.041
-497.610	-112.720	-0.250	0.050
-496.595	27.724	0.144	-0.122
-495.581	-76.879	-0.216	-0.076
-494.566	-200.000	-0.013	-0.176
-493.551	-1.892	0.149	-0.105
-492.537	62.943	0.124	0.124
-491.522	350.117	0.212	-0.421
-490.508	-200.000	-0.046	-0.252
-489.493	-55.403	0.388	-0.174
-488.478	-5.301	0.188	-0.129
-487.464	-70.670	-0.276	-0.104
-486.449	-94.164	-0.375	-0.103
-485.435	66.663	0.293	-0.299
-484.420	464.460	-0.083	0.186
-483.405	-200.000	-0.050	0.241
-482.391	541.802	-0.049	0.116
-481.376	134.969	0.085	0.111
-480.362	-200.000	-0.014	-0.450
-479.347	136.921	-0.197	-0.258
-478.332	269.804	-0.070	0.124
-477.318	-200.000	-0.025	0.113
-476.303	800.000	-0.098	-0.280
-475.289	-200.000	0.005	0.356
-474.274	240.012	-0.097	-0.162
-473.259	198.350	-0.243	-0.372
-472.245	-200.000	0.002	-0.286
-471.230	800.000	0.101	-0.312
-470.216	-64.075	0.110	-0.045
-469.201	23.017	-0.260	-0.214
-468.186	-200.000	-0.040	-0.236
-467.172	146.345	0.195	0.263
-466.157	44.058	-0.116	0.107
-465.143	83.587	-0.197	0.215
-464.128	103.733	-0.148	0.174
-463.113	16.949	-0.174	-0.138
-462.099	-27.003	-0.158	0.093
-461.084	-200.000	0.043	-0.271
-460.070	-200.000	-0.032	-0.149
-459.055	-200.000	-0.036	-0.317
-458.040	182.602	-0.059	-0.088
-457.026	-131.711	0.279	0.037
-456.011	-64.490	0.080	0.033
-454.997	800.000	-0.042	0.131
-453.982	165.706	-0.162	0.229
-452.968	56.366	0.125	-0.121
-451.953	-112.613	0.259	0.052
-450.938	-140.530	0.159	0.017
-449.924	-87.045	-0.181	-0.055
-448.909	-16.221	-0.294	-0.187
-447.895	-200.000	0.005	0.062
-446.880	800.000	0.116	0.390
-445.865	-41.639	-0.052	-0.027
-444.851	392.808	0.083	0.173
-443.836	-200.000	0.023	0.134
-442.822	-119.051	-0.096	0.017
-441.807	423.352	0.043	0.093
-440.792	415.378	0.030	0.064
-439.778	-1.979	-0.112	-0.079
-438.763	543.343	0.085	0.203
-437.749	127.072	0.133	0.169
-436.734	-200.000	-0.024	0.308
-435.719	155.906	0.124	0.171
-434.705	160.677	-0.148	0.207
-433.690	109.164	0.259	0.310
-432.676	228.337	-0.057	-0.093
-431.661	-28.851	0.290	-0.167
-430.646	128.423	-0.026	0.033
-429.632	432.496	0.100	-0.217
-428.617	-2.404	-0.319	0.224
-427.603	-67.428	-0.236	-0.093
-426.588	800.000	0.027	0.090
-425.573	-60.691	-0.111	0.047
-424.559	213.246	0.195	0.307
-423.544	151.758	0.164	-0.224
-422.530	161.560	-0.020	0.028
-421.515	800.000	0.100	0.351
-420.500	-24.764	-0.049	-0.029
-419.486	-200.000	0.046	-0.251
-418.471	-155.254	0.309	-0.020
-417.457	-50.916	0.390	0.183
-416.442	14.040	-0.051	0.039
-415.428	-131.599	-0.209	0.028
-414.413	-143.034	0.346	-0.033
-413.398	388.939	-0.131	-0.271
-412.384	800.000	-0.145	-0.421
-411.369	131.207	-0.064	0.083
-410.355	-20.856	0.119	0.073
-409.340	116.608	0.081	-0.100
-408.325	138.903	-0.287	0.377
-407.311	65.246	0.164	-0.166
-406.296	-86.364	-0.373	-0.115
-405.282	323.572	0.080	0.152
-404.267	-40.098	-0.059	-0.030
-403.252	-170.516	-0.225	0.008
-402.238	-200.000	-0.004	0.073
-401.223	-200.000	0.010	0.244
-400.209	-113.598	-0.189	0.037
-399.194	16.057	0.073	0.057
-398.179	800.000	0.068	-0.204
-397.165	261.523	-0.183	0.317
-396.150	-87.076	-0.171	-0.052
-395.136	-167.984	-0.154	0.006
-394.121	-75.294	0.247	-0.088
-393.106	-33.692	0.322	-0.178
-392.092	277.961	-0.073	0.131
-391.077	800.000	-0.081	0.309
-390.063	-101.693	0.310	0.075
-389.048	-46.771	-0.041	0.020
-388.033	55.474	0.248	-0.240
-387.019	114.754	0.210	-0.256
-386.004	-200.000	0.082	-0.369
-384.990	-79.260	0.156	-0.053
-383.975	-149.722	-0.337	0.026
-382.960	-200.000	-0.006	0.216
-381.946	37.504	0.391	-0.347
-380.931	161.215	0.107	-0.150
-379.917	-62.617	-0.275	0.114
-378.902	-70.381	-0.124	0.047
-377.888	-46.159	0.121	-0.060
-376.873	-22.223	-0.166	-0.100
-375.858	245.827	-0.059	-0.099
-374.844	-48.783	0.148	-0.071
-373.829	-200.000	0.007	-0.305
-372.815	29.469	0.194	-0.165
-371.800	398.044	-0.059	-0.123
-370.785	4.529	0.169	0.124
-369.771	103.064	-0.130	-0.152
-368.756	87.703	-0.363	0.401
-367.742	-200.000	-0.041	0.320
-366.727	-106.101	-0.322	0.072
-365.712	-200.000	-0.008	0.078
-364.698	-14.300	-0.083	0.054
-363.683	-96.531	-0.047	-0.012
-362.669	-107.712	0.207	0.045
-361.654	-200.000	0.041	0.196
-360.639	-200.000	0.041	-0.257
-359.625	-200.000	-0.001	0.026
-358.610	-65.892	-0.254	0.101
-357.596	-85.004	0.104	-0.032
-356.581	24.399	-0.276	0.227
-355.566	-200.000	-0.037	-0.266
-354.552	133.062	0.136	-0.175
-353.537	-200.000	-0.006	0.354
-352.523	-91.830	-0.149	0.042
-351.508	-68.630	-0.269	0.104
-350.493	500.565	0.046	-0.107
-349.479	294.845	-0.069	0.125
-348.464	653.761	0.120	0.306
-347.450	475.933	0.127	0.285
-346.435	-200.000	0.045	-0.211
-345.420	800.000	0.074	0.271
-344.406	800.000	-0.162	-0.448
-343.391	-21.462	-0.191	-0.116
-342.377	-101.467	-0.151	0.037
-341.362	-56.232	-0.207	0.092
-340.348	159.352	0.087	0.121
-339.333	-81.973	0.206	0.067
-338.318	-200.000	-0.007	-0.205
-337.304	568.451	-0.054	0.131
-336.289	800.000	-0.084	-0.341
-335.275	34.564	0.206	0.180
-334.260	-15.666	-0.181	-0.115
-333.245	506.438	-0.024	-0.056
-332.231	122.804	-0.113	-0.141
-331.216	172.939	0.045	-0.065
-330.202	-200.000	0.055	-0.287
-329.187	800.000	-0.033	0.115
-328.172	39.695	0.146	0.131
-327.158	-200.000	-0.003	0.351
-326.143	800.000	-0.059	0.238
-325.129	-200.000	-0.034	-0.156
-324.114	-105.801	0.097	-0.022
-323.099	-143.343	-0.285	-0.027
-322.085	58.479	-0.178	0.174
-321.070	-101.915	-0.200	-0.048
-320.056	-96.000	-0.165	0.044
-319.041	-96.132	0.148	0.039
-318.026	36.881	0.301	0.265
-317.012	89.385	-0.232	-0.258
-315.997	-26.724	-0.094	0.055
-314.983	755.434	-0.126	0.338
-313.968	-200.000	-0.041	0.302
-312.953	223.199	-0.035	0.056
-311.939	-35.628	-0.208	0.113
-310.924	618.358	-0.031	0.078
-309.910	800.000	0.099	0.350
-308.895	-200.000	-0.027	0.184
-307.880	-19.906	0.072	0.044
-306.866	-200.000	-0.038	-0.211
-305.851	-125.699	0.268	-0.040
-304.837	-200.000	-0.006	0.143
-303.822	-200.000	0.004	0.113
-302.807	-200.000	0.013	0.117
-301.793	101.848	-0.187	0.217
-300.778	800.000	-0.047	-0.184
-299.764	178.425	0.113	0.164
-298.749	122.103	0.145	0.180
-297.735	-200.000	0.005	0.297
-296.720	-113.076	0.230	0.045
-295.705	800.000	-0.061	0.236
-294.691	-200.000	0.038	-0.456
-293.676	49.857	0.285	0.268
-292.662	23.215	0.173	-0.142
-291.647	-10.545	-0.168	-0.111
-290.632	11.495	0.160	0.122
-289.618	23.210	-0.255	-0.208
-288.603	-200.000	0.043	-0.240
-287.589	151.855	0.235	0.319
-286.574	-144.315	-0.390	-0.036
-285.559	-133.941	0.426	0.053
-284.545	-200.000	0.018	-0.196
-283.530	-29.952	-0.157	-0.089
-282.516	-200.000	0.009	0.310
-281.501	-11.357	0.237	0.155
-280.486	220.096	0.154	-0.245
-279.472	382.992	0.132	0.271
-278.457	-13.662	0.120	-0.077
-277.443	-200.000	0.105	-0.469
-276.428	800.000	0.034	0.144
-275.413	-15.771	0.113	-0.071
-274.399	98.959	0.154	-0.176
-273.384	-133.453	-0.142	0.018
-272.370	-200.000	0.003	0.316
-271.355	-91.310	-0.188	0.053
-270.340	245.241	0.068	0.114
-269.326	-174.626	0.302	0.009
-268.311	-175.191	0.263	-0.007
-267.297	542.868	-0.046	0.109
-266.282	-89.685	0.264	-0.077
-265.267	-53.947	-0.091	-0.041
-264.253	-61.383	-0.209	0.087
-263.238	-76.709	-0.199	-0.069
-262.224	-200.000	0.015	-0.166
-261.209	-200.000	-0.012	0.274
-260.195	-200.000	0.035	0.403
-259.180	-131.970	0.406	-0.053
-258.165	77.349	0.271	0.287
-257.151	27.334	0.108	-0.090
-256.136	386.733	0.082	0.168
-255.122	62.314	0.105	0.104
-254.107	89.300	-0.130	-0.143
-253.092	-93.853	-0.209	-0.057
-252.078	12.293	0.201	0.154
-251.063	-200.000	-0.008	-0.079
-250.049	13.267	0.227	-0.175
-249.034	-178.875	-0.245	-0.006
-248.019	-98.686	0.155	-0.039
-247.005	-200.000	-0.010	-0.062
-245.990	40.228	-0.081	0.073
-244.976	800.000	0.074	-0.296
-243.961	104.508	0.058	-0.068
-242.946	7.686	-0.089	-0.066
-241.932	26.500	-0.307	0.255
-240.917	-200.000	0.048	0.432
-239.903	-133.950	0.230	-0.028
-238.888	160.119	0.148	-0.205
-237.873	-200.000	-0.019	-0.159
-236.859	179.754	0.112	-0.163
-235.844	-54.130	0.091	0.041
-234.830	65.006	-0.193	-0.194
-233.815	-37.967	-0.239	-0.126
-232.800	-130.312	0.072	0.010
-231.786	-200.000	-0.058	-0.268
-230.771	179.261	-0.074	0.107
-229.757	800.000	-0.052	-0.217
-228.742	-166.929	0.021	0.001
-227.727	800.000	-0.072	-0.290
-226.713	-200.000	-0.026	0.212
-225.698	-102.802	0.338	0.080
-224.684	-142.413	-0.102	-0.010
-223.669	-102.275	0.269	0.064
-222.655	-200.000	0.033	0.253
-221.640	-200.000	0.074	-0.410
-220.625	-107.229	-0.144	-0.031
-219.611	-62.499	0.099	-0.041
-218.596	-16.350	-0.056	0.035
-217.582	-200.000	-0.009	0.073
-216.567	-200.000	-0.004	-0.167
-215.552	318.848	-0.085	-0.161
-214.538	413.424	-0.103	0.218
-213.523	800.000	0.009	0.025
-212.509	-200.000	-0.042	0.213
-211.494	-200.000	0.034	0.161
-210.479	-200.000	-0.024	-0.139
-209.465	189.655	-0.094	0.140
-208.450	-168.136	-0.059	-0.002
-207.436	34.772	0.163	0.141
-206.421	463.097	-0.200	-0.444
-205.406	-112.197	-0.206	0.041
-204.392	800.000	0.027	0.075
-203.377	135.649	-0.159	0.206
-202.363	-200.000	0.010	-0.321
-201.348	-98.282	-0.347	0.088
-200.333	800.000	0.031	-0.116
-199.319	800.000	0.004	0.016
-198.304	-159.866	-0.133	0.007
-197.290	-114.438	0.248	-0.047
-196.275	85.800	0.149	-0.163
-195.260	66.547	-0.312	-0.314
-194.246	-16.188	0.170	0.107
-193.231	800.000	-0.146	-0.414
-192.217	4.633	-0.245	0.178
-191.202	157.751	-0.144	0.198
-190.187	-200.000	-0.016	0.239
-189.173	-141.881	0.372	0.037
-188.158	123.943	-0.027	0.034
-187.144	-38.329	-0.209	0.110
-186.129	-200.000	-0.019	0.146
-185.114	-200.000	0.034	-0.297
-184.100	-121.990	0.031	-0.005
-183.085	-200.000	0.006	-0.033
-182.071	252.848	-0.182	0.307
-181.056	-200.000	0.009	-0.088
-180.042	-4.496	0.119	-0.081
-179.027	32.808	-0.271	0.232
-178.012	-200.000	0.051	0.426
-176.998	-200.000	-0.031	-0.160
-175.983	-200.000	0.062	-0.343
-174.969	-120.837	-0.015	0.003
-173.954	196.553	-0.022	0.034
-172.939	-200.000	0.005	0.106
-171.925	800.000	0.059	-0.166
-170.910	-200.000	-0.030	-0.178
-169.896	-26.727	0.038	-0.022
-168.881	17.534	0.161	0.127
-167.866	185.952	-0.052	0.076
-166.852	72.820	0.088	0.091
-165.837	-70.703	0.146	-0.055
-164.823	254.083	-0.246	-0.416
-163.808	-200.000	0.051	-0.245
-162.793	-107.863	0.119	-0.026
-161.779	46.876	-0.130	0.119
-160.764	13.292	-0.205	-0.157
-159.750	137.596	0.116	-0.151
-158.735	-200.000	-0.015	0.189
-157.720	-200.000	0.008	-0.053
-156.706	-73.480	-0.106	-0.038
-155.691	60.368	-0.031	-0.030
-154.677	-125.768	-0.108	0.016
-153.662	-124.450	0.234	-0.036
-152.647	229.505	-0.278	0.450
-151.633	-86.270	0.120	-0.037
-150.618	115.488	-0.110	-0.133
-149.604	-9.245	0.082	0.054
-148.589	800.000	-0.051	-0.189
-147.574	800.000	-0.061	-0.211
-146.560	474.835	-0.104	-0.231
-145.545	-102.933	0.014	0.003
-144.531	65.493	0.158	-0.159
-143.516	515.982	0.120	-0.278
-142.502	-43.456	-0.149	-0.075
-141.487	-200.000	0.003	0.058
-140.472	-200.000	-0.048	-0.277
-139.458	-57.193	0.380	-0.166
-138.443	-97.491	-0.354	0.091
-137.429	-45.926	0.043	0.021
-136.414	-57.659	-0.330	0.143
-135.399	-65.818	0.358	0.142
-134.385	83.954	0.065	0.071
-133.370	238.854	-0.036	0.060
-132.356	22.812	-0.057	-0.046
-131.341	-102.868	0.346	-0.081
-130.326	44.869	-0.137	-0.125
-129.312	-91.371	-0.138	0.039
-128.297	62.282	-0.175	0.173
-127.283	-84.492	0.190	0.059
-126.268	800.000	0.049	-0.213
-125.253	116.365	0.063	0.077
-124.239	-129.737	0.143	-0.020
-123.224	-27.325	0.380	-0.218
-122.210	-20.504	-0.078	0.048
