DTS Sentinel unit serial number:	SN413079Multiplexer serial number:	ORYXHardware model number:	OX4-SRSoftware version number:	ORYX F/W v4.00 Oryx Data Collector v3.7.2.0data status	okinstallation	princeton_trtdifferential loss correction	single-endedforward channel	channel 2reverse channel	N/Adate	2019/09/18time	11:03:35forward acquisition time	60.00reverse acquisition time	0.00gamma	496.2192k internal	0.2328k external	0.2328temperature offset calibration	0.9986default loss term (dB/km)	0.3790temperature slope calibration	1.0000multiplexer offset coefficient	1.0000multiplexer slope coefficient	1.0000fibre end	0.00T internal ref (°C)	29.37T ext. ref 1 (°C)	0.41T ext. ref 2 (°C)	25.93length (m)	temperature (°C)	Stokes	anti-Stokes-747.200	-25.549	0.197	-0.117
-746.185	226.587	0.149	-0.244
-745.171	-15.973	0.390	-0.250
-744.156	-69.805	-0.231	0.089
-743.142	800.000	0.082	-0.315
-742.127	537.802	-0.106	0.255
-741.112	-68.021	0.139	-0.054
-740.098	-200.000	0.096	0.476
-739.083	82.768	0.072	-0.078
-738.069	-200.000	0.001	0.147
-737.054	-200.000	-0.036	-0.164
-736.039	-133.428	-0.221	-0.028
-735.025	-26.688	0.313	0.185
-734.010	-200.000	0.016	-0.132
-732.996	-99.528	-0.668	-0.169
-731.981	-181.103	-0.093	-0.002
-730.966	2.872	-0.260	-0.190
-729.952	-135.689	-0.376	-0.045
-728.937	-18.262	-0.090	-0.056
-727.923	-118.976	0.341	0.060
-726.908	160.579	-0.228	0.320
-725.894	277.594	-0.178	0.319
-724.879	-179.624	-0.096	-0.002
-723.864	166.835	0.181	-0.258
-722.850	511.024	0.250	-0.585
-721.835	-200.000	-0.002	0.163
-720.821	-101.704	-0.095	-0.023
-719.806	-65.379	-0.445	-0.180
-718.791	-27.383	0.119	0.070
-717.777	68.982	-0.290	0.299
-716.762	-31.346	-0.209	-0.119
-715.748	62.507	-0.098	0.098
-714.733	-29.685	-0.104	0.060
-713.718	423.075	0.081	0.174
-712.704	47.613	-0.294	-0.276
-711.689	800.000	0.024	0.095
-710.675	-200.000	0.013	-0.206
-709.660	-101.777	-0.200	0.049
-708.645	102.366	-0.157	-0.185
-707.631	73.893	0.049	0.052
-706.616	800.000	0.048	-0.192
-705.602	-79.486	0.167	-0.057
-704.587	-200.000	0.013	-0.070
-703.572	-139.192	-0.105	-0.011
-702.558	800.000	-0.129	-0.376
-701.543	-25.875	-0.210	-0.125
-700.529	-200.000	0.040	-0.270
-699.514	71.648	0.185	0.193
-698.499	121.723	-0.162	-0.203
-697.485	-48.003	0.109	-0.053
-696.470	-200.000	0.007	0.225
-695.456	-35.468	0.175	-0.095
-694.441	-9.304	0.008	0.006
-693.426	-3.965	0.234	-0.163
-692.412	378.568	0.207	-0.426
-691.397	-200.000	-0.081	0.421
-690.383	800.000	0.096	-0.276
-689.368	-72.446	-0.242	-0.090
-688.354	153.728	0.192	0.265
-687.339	-84.126	0.105	-0.034
-686.324	-101.544	0.204	0.050
-685.310	8.158	0.233	0.176
-684.295	120.905	-0.060	-0.074
-683.281	-200.000	-0.052	-0.272
-682.266	-77.000	-0.041	-0.015
-681.251	800.000	-0.134	-0.392
-680.237	594.917	0.061	0.151
-679.222	-112.972	0.300	-0.060
-678.208	-21.990	-0.089	-0.054
-677.193	25.288	-0.254	0.212
-676.178	800.000	0.067	0.252
-675.164	192.086	-0.163	-0.247
-674.149	-154.200	-0.305	0.021
-673.135	-155.553	0.237	-0.015
-672.120	-200.000	-0.048	-0.278
-671.105	304.487	0.143	-0.267
-670.091	54.080	0.142	-0.137
-669.076	-200.000	-0.015	0.117
-668.062	-88.071	0.221	0.067
-667.047	47.519	0.079	-0.074
-666.032	-125.479	0.127	0.019
-665.018	28.213	0.256	-0.217
-664.003	-76.198	0.330	-0.117
-662.989	-200.000	0.037	-0.264
-661.974	-93.472	0.339	0.094
-660.959	-200.000	-0.001	-0.033
-659.945	9.748	-0.262	0.200
-658.930	-95.961	0.270	-0.072
-657.916	103.269	0.114	0.134
-656.901	-155.152	0.304	0.020
-655.886	164.278	0.182	-0.258
-654.872	131.953	-0.232	0.300
-653.857	-67.875	-0.113	-0.044
-652.843	183.149	0.255	-0.379
-651.828	70.365	-0.120	0.124
-650.814	-36.350	0.181	-0.098
-649.799	2.758	0.169	-0.123
-648.784	-78.639	0.250	0.086
-647.770	800.000	-0.069	-0.235
-646.755	-43.463	0.254	-0.129
-645.741	-10.340	0.400	-0.266
-644.726	-200.000	0.008	-0.316
-643.711	239.785	0.103	0.173
-642.697	-133.167	0.058	0.007
-641.682	-25.224	0.218	-0.129
-640.668	-200.000	-0.022	0.108
-639.653	12.858	-0.191	-0.148
-638.638	40.007	0.054	0.049
-637.624	-24.171	0.303	-0.181
-636.609	-72.712	0.202	0.075
-635.595	-200.000	0.003	-0.254
-634.580	-200.000	0.244	0.001
-633.565	-200.000	0.009	0.252
-632.551	-146.862	-0.129	0.011
-631.536	479.344	-0.225	-0.512
-630.522	800.000	0.096	0.396
-629.507	-130.054	0.280	-0.038
-628.492	-39.723	0.026	0.014
-627.478	-200.000	0.019	0.107
-626.463	77.086	0.281	-0.300
-625.449	29.378	0.189	0.161
-624.434	-8.363	-0.222	-0.149
-623.419	-200.000	0.020	0.269
-622.405	778.334	-0.062	-0.171
-621.390	25.619	0.174	0.146
-620.376	-200.000	-0.001	-0.239
-619.361	-24.051	-0.096	-0.058
-618.346	108.470	-0.198	0.237
-617.332	56.152	-0.075	-0.073
-616.317	119.667	0.179	-0.223
-615.303	-105.244	-0.395	-0.090
-614.288	131.083	0.248	0.319
-613.273	-113.511	0.296	-0.058
-612.259	-200.000	0.006	-0.275
-611.244	-200.000	-0.016	-0.135
-610.230	-72.338	0.134	0.050
-609.215	-46.699	0.037	0.018
-608.201	70.233	0.267	-0.277
-607.186	-19.306	0.171	-0.106
-606.171	-200.000	0.051	0.372
-605.157	-74.944	0.341	0.123
-604.142	800.000	0.147	0.442
-603.128	-133.787	-0.145	-0.018
-602.113	-200.000	0.006	0.330
-601.098	83.991	0.102	0.111
-600.084	23.339	-0.185	-0.152
-599.069	-200.000	0.008	0.181
-598.055	193.978	0.155	0.235
-597.040	24.238	0.066	0.054
-596.025	78.520	0.112	-0.120
-595.011	61.319	-0.182	-0.181
-593.996	-200.000	-0.011	0.086
-592.982	-115.523	-0.182	0.034
-591.967	-200.000	0.031	0.210
-590.952	226.960	-0.252	0.410
-589.938	-21.368	0.267	-0.164
-588.923	-37.935	0.162	0.086
-587.909	473.921	0.026	0.058
-586.894	-200.000	-0.004	0.173
-585.879	-96.029	0.315	-0.084
-584.865	-200.000	-0.009	-0.416
-583.850	253.621	-0.024	-0.040
-582.836	-200.000	-0.018	-0.110
-581.821	117.607	-0.181	-0.223
-580.806	-51.688	0.260	0.121
-579.792	213.855	-0.106	0.168
-578.777	-170.889	-0.429	-0.015
-577.763	-43.183	-0.153	-0.078
-576.748	-19.541	-0.200	-0.124
-575.733	-200.000	-0.064	-0.463
-574.719	800.000	-0.125	-0.349
-573.704	-46.566	-0.053	-0.026
-572.690	-93.713	-0.286	-0.079
-571.675	-19.423	0.427	0.265
-570.661	799.265	0.071	0.195
-569.646	-153.529	-0.211	-0.015
-568.631	-63.313	-0.267	-0.110
-567.617	235.481	0.085	0.140
-566.602	-50.778	-0.268	0.126
-565.588	-127.809	-0.218	-0.031
-564.573	-200.000	-0.021	-0.260
-563.558	440.364	-0.056	-0.122
-562.544	-35.690	-0.421	0.228
-561.529	-29.274	0.193	0.110
-560.515	504.438	0.155	0.359
-559.500	800.000	-0.085	0.344
-558.485	-200.000	0.014	-0.407
-557.471	-24.489	0.152	-0.090
-556.456	56.379	-0.275	0.268
-555.442	249.951	-0.007	0.012
-554.427	-173.768	0.214	0.006
-553.412	68.358	0.176	-0.180
-552.398	-95.404	-0.306	0.082
-551.383	-133.526	0.230	-0.029
-550.369	-72.432	-0.067	0.025
-549.354	36.222	-0.169	-0.149
-548.339	108.482	0.196	0.234
-547.325	-200.000	-0.024	0.230
-546.310	-5.436	0.292	-0.201
-545.296	291.131	-0.043	0.077
-544.281	-2.245	0.163	0.114
-543.266	-95.465	-0.216	0.058
-542.252	-200.000	0.007	0.054
-541.237	-200.000	-0.019	0.128
-540.223	-173.424	-0.407	0.012
-539.208	199.558	-0.078	0.119
-538.193	-118.489	0.289	0.051
-537.179	-200.000	-0.062	-0.365
-536.164	752.649	0.104	-0.281
-535.150	14.883	0.067	-0.052
-534.135	-70.522	0.238	-0.090
-533.121	800.000	0.109	0.323
-532.106	-63.107	-0.293	-0.121
-531.091	-200.000	-0.062	0.311
-530.077	12.759	0.038	0.029
-529.062	4.256	-0.242	0.177
-528.048	-200.000	0.013	-0.060
-527.033	-88.147	0.077	-0.023
-526.018	-180.400	0.356	0.007
-525.004	800.000	0.072	0.278
-523.989	-40.552	0.227	0.118
-522.975	-200.000	-0.042	0.234
-521.960	63.508	0.225	0.226
-520.945	800.000	-0.045	-0.197
-519.931	-92.148	0.047	-0.013
-518.916	800.000	0.051	-0.152
-517.902	-88.171	-0.350	-0.105
-516.887	-70.992	0.080	0.030
-515.872	-196.262	0.428	0.003
-514.858	-45.105	-0.217	0.108
-513.843	-132.505	-0.368	0.047
-512.829	391.411	-0.127	-0.264
-511.814	142.884	-0.115	-0.152
-510.799	-200.000	-0.027	-0.146
-509.785	-51.473	-0.211	-0.098
-508.770	-145.580	0.256	0.023
-507.756	374.753	0.067	0.136
-506.741	411.105	-0.063	-0.133
-505.726	-108.350	-0.251	0.054
-504.712	90.256	-0.105	0.118
-503.697	-200.000	-0.005	0.155
-502.683	184.787	-0.086	0.128
-501.668	-56.373	-0.076	0.033
-500.653	800.000	-0.046	0.176
-499.639	-126.480	0.118	0.017
-498.624	-175.545	-0.358	0.010
-497.610	-200.000	0.049	0.351
-496.595	95.057	0.128	0.145
-495.581	39.690	-0.300	0.269
-494.566	-200.000	-0.037	-0.241
-493.551	-200.000	0.018	0.157
-492.537	-200.000	-0.033	-0.219
-491.522	800.000	-0.064	-0.221
-490.508	-115.346	-0.289	0.054
-489.493	225.015	0.038	0.061
-488.478	-69.077	-0.121	0.046
-487.464	-74.693	0.161	0.058
-486.449	800.000	-0.052	-0.170
-485.435	-112.018	0.223	0.045
-484.420	-124.389	-0.263	0.041
-483.405	-64.803	-0.153	-0.062
-482.391	-90.088	-0.448	-0.130
-481.376	-81.456	-0.159	-0.052
-480.362	-144.919	0.277	-0.025
-479.347	88.051	-0.212	0.234
-478.332	8.048	0.108	-0.080
-477.318	-106.404	-0.214	0.048
-476.303	20.969	0.162	-0.131
-475.289	-161.120	0.131	-0.007
-474.274	-156.518	-0.126	-0.008
-473.259	240.209	-0.084	-0.139
-472.245	254.134	-0.006	0.010
-471.230	48.329	-0.214	-0.199
-470.216	-161.166	-0.056	-0.003
-469.201	281.243	-0.306	0.546
-468.186	59.977	-0.041	-0.040
-467.172	-55.223	0.378	-0.170
-466.157	-17.999	0.136	-0.085
-465.143	147.901	0.048	0.064
-464.128	-165.034	-0.316	-0.014
-463.113	26.978	-0.179	-0.150
-462.099	30.368	0.259	0.221
-461.084	-131.401	-0.213	0.028
-460.070	-150.064	0.231	-0.018
-459.055	-200.000	-0.108	-0.666
-458.040	245.463	0.183	-0.306
-457.026	-200.000	-0.011	0.392
-456.011	-200.000	-0.012	0.067
-454.997	-6.604	-0.052	0.036
-453.982	800.000	0.064	0.182
-452.968	4.767	-0.129	-0.094
-451.953	-58.120	0.113	0.049
-450.938	-200.000	-0.015	-0.110
-449.924	1.013	0.107	0.076
-448.909	-1.342	0.088	-0.062
-447.895	450.255	0.120	-0.264
-446.880	212.650	-0.107	-0.167
-445.865	800.000	0.042	0.150
-444.851	-200.000	-0.005	0.419
-443.836	30.591	0.025	0.021
-442.822	-76.853	-0.149	0.052
-441.807	-108.090	0.228	-0.049
-440.792	590.549	-0.075	0.183
-439.778	85.892	-0.115	-0.126
-438.763	-18.606	-0.213	-0.132
-437.749	47.285	-0.041	0.038
-436.734	-104.381	0.291	-0.067
-435.719	-149.963	-0.089	-0.007
-434.705	-200.000	0.017	0.260
-433.690	-144.426	-0.248	-0.023
-432.676	800.000	0.030	0.121
-431.661	-86.231	-0.184	-0.056
-430.646	-200.000	-0.002	-0.197
-429.632	68.642	-0.089	0.091
-428.617	800.000	-0.013	-0.043
-427.603	-50.930	0.172	0.080
-426.588	-200.000	-0.017	-0.077
-425.573	375.902	0.050	0.101
-424.559	-200.000	-0.000	-0.115
-423.544	-18.170	-0.283	-0.176
-422.530	-200.000	0.010	-0.054
-421.515	-19.891	0.038	-0.023
-420.500	437.967	0.129	-0.280
-419.486	800.000	-0.079	-0.220
-418.471	-14.106	0.224	-0.144
-417.457	-60.913	-0.194	-0.082
-416.442	137.899	-0.068	-0.088
-415.428	268.018	-0.075	0.131
-414.413	800.000	-0.032	-0.128
-413.398	602.442	0.138	-0.341
-412.384	24.187	0.218	-0.179
-411.369	137.557	0.096	0.126
-410.355	165.737	-0.151	-0.213
-409.340	-200.000	0.018	-0.200
-408.325	23.131	0.192	-0.156
-407.311	-200.000	-0.031	0.184
-406.296	87.229	0.134	-0.147
-405.282	800.000	-0.082	0.252
-404.267	-57.965	0.299	-0.130
-403.252	247.568	0.189	0.318
-402.238	-36.244	-0.165	-0.088
-401.223	251.314	0.066	-0.112
-400.209	-200.000	-0.027	0.305
-399.194	800.000	0.100	-0.300
-398.179	-26.841	-0.317	-0.184
-397.165	-3.169	0.085	-0.059
-396.150	-200.000	0.047	-0.443
-395.136	-59.631	-0.142	0.060
-394.121	217.687	-0.032	0.050
-393.106	-71.329	-0.358	0.133
-392.092	-119.919	-0.347	-0.059
-391.077	-200.000	0.035	-0.279
-390.063	-150.543	-0.294	0.022
-389.048	434.060	-0.129	0.278
-388.033	151.499	0.070	0.095
-387.019	-24.655	-0.107	-0.063
-386.004	506.403	0.131	-0.302
-384.990	198.406	-0.149	-0.226
-383.975	254.580	-0.069	0.118
-382.960	-127.280	0.117	-0.017
-381.946	-65.516	-0.202	-0.081
-380.931	50.554	0.019	0.018
-379.917	-28.900	-0.278	-0.158
-378.902	-200.000	-0.038	-0.219
-377.888	192.728	0.122	-0.183
-376.873	638.650	0.008	0.021
-375.858	-129.379	0.057	0.008
-374.844	302.254	-0.053	0.097
-373.829	-106.408	-0.373	0.083
-372.815	-72.528	-0.075	0.027
-371.800	-176.377	-0.304	0.008
-370.785	-200.000	-0.036	-0.322
-369.771	-200.000	-0.008	0.172
-368.756	123.021	0.189	0.234
-367.742	-55.546	0.307	0.137
-366.727	32.955	0.346	0.298
-365.712	800.000	-0.019	0.052
-364.698	-91.414	0.113	0.032
-363.683	147.629	-0.158	0.212
-362.669	383.283	-0.049	-0.100
-361.654	-118.313	0.297	-0.052
-360.639	-168.854	-0.137	0.005
-359.625	153.625	0.122	-0.166
-358.610	-23.006	-0.054	0.032
-357.596	31.348	-0.205	-0.175
-356.581	-181.996	0.210	-0.004
-355.566	800.000	0.097	0.290
-354.552	80.536	-0.107	-0.114
-353.537	67.566	0.097	-0.098
-352.523	-200.000	-0.038	0.186
-351.508	-1.272	-0.337	0.236
-350.493	106.182	0.221	-0.260
-349.479	26.721	-0.094	-0.078
-348.464	11.045	0.052	-0.039
-347.450	-126.495	0.181	-0.027
-346.435	-128.623	-0.088	-0.012
-345.420	800.000	-0.098	0.375
-344.406	-200.000	0.036	0.233
-343.391	-31.002	-0.321	-0.180
-342.377	-200.000	0.003	-0.296
-341.362	800.000	0.127	0.525
-340.348	108.316	-0.263	0.311
-339.333	-4.700	-0.020	-0.014
-338.318	-128.667	0.125	0.018
-337.304	800.000	0.062	-0.260
-336.289	149.799	0.201	-0.270
-335.275	566.245	-0.038	0.091
-334.260	-132.119	0.286	-0.037
-333.245	578.271	-0.036	0.088
-332.231	-200.000	0.016	0.295
-331.216	152.165	-0.095	0.129
-330.202	-148.744	-0.215	0.017
-329.187	274.411	0.065	-0.113
-328.172	-82.193	-0.072	-0.023
-327.158	-81.288	-0.345	0.113
-326.143	425.882	-0.136	-0.290
-325.129	210.730	-0.100	-0.156
-324.114	-142.060	0.318	-0.031
-323.099	-74.966	0.314	0.112
-322.085	-155.905	0.190	-0.012
-321.070	-61.847	-0.351	0.146
-320.056	132.789	-0.188	-0.241
-319.041	150.069	0.094	-0.127
-318.026	-38.440	-0.169	0.088
-317.012	176.080	0.232	0.334
-315.997	-100.385	-0.240	-0.059
-314.983	335.510	0.156	0.299
-313.968	-169.075	0.150	0.006
-312.953	26.193	-0.038	-0.032
-311.939	800.000	0.028	-0.098
-310.924	189.040	0.174	-0.259
-309.910	-200.000	0.005	-0.224
-308.895	-200.000	-0.011	0.228
-307.880	-111.222	-0.198	0.040
-306.866	800.000	0.055	0.162
-305.851	25.701	-0.137	-0.113
-304.837	-151.998	0.245	-0.018
-303.822	45.149	-0.152	0.139
-302.807	44.257	0.026	-0.024
-301.793	-131.892	0.060	0.008
-300.778	-200.000	-0.048	0.234
-299.764	-158.382	0.316	-0.018
-298.749	124.483	-0.088	0.109
-297.735	-89.510	-0.200	0.058
-296.720	-200.000	0.079	-0.574
-295.705	-68.390	-0.208	0.080
-294.691	-102.305	0.152	-0.036
-293.676	332.827	-0.167	0.318
-292.662	-200.000	-0.050	-0.237
-291.647	-1.780	-0.052	0.036
-290.632	-200.000	-0.046	-0.250
-289.618	217.777	-0.035	-0.055
-288.603	-200.000	0.010	0.137
-287.589	-110.776	0.385	-0.079
-286.574	144.399	0.063	-0.083
-285.559	-95.491	0.352	-0.093
-284.545	-34.469	0.174	0.095
-283.530	800.000	-0.095	-0.333
-282.516	-81.107	-0.536	0.176
-281.501	-79.920	-0.205	0.068
-280.486	800.000	0.106	0.310
-279.472	9.395	0.035	-0.026
-278.457	113.532	-0.064	-0.077
-277.443	-144.557	-0.252	0.023
-276.428	346.251	0.128	0.248
-275.413	-47.683	0.230	0.110
-274.399	118.398	0.313	-0.382
-273.384	800.000	-0.074	-0.255
-272.370	38.605	0.166	0.146
-271.355	518.291	0.059	-0.136
-270.340	-51.153	0.347	0.161
-269.326	110.459	-0.151	0.179
-268.311	283.462	0.038	-0.068
-267.297	-200.000	0.038	-0.212
-266.282	317.601	-0.148	0.277
-265.267	9.609	-0.082	0.062
-264.253	-200.000	-0.012	0.271
-263.238	-54.421	0.109	0.049
-262.224	-81.730	0.173	0.056
-261.209	87.923	-0.135	0.148
-260.195	65.677	0.072	-0.072
-259.180	-22.332	0.263	0.158
-258.165	-104.127	0.233	0.054
-257.151	-55.802	-0.148	-0.065
-256.136	-200.000	0.005	0.092
-255.122	389.112	-0.056	0.114
-254.107	800.000	-0.057	-0.211
-253.092	98.313	0.155	-0.177
-252.078	-30.931	0.086	0.048
-251.063	-132.355	-0.276	-0.035
-250.049	-33.741	0.095	0.052
-249.034	-26.613	-0.284	-0.165
-248.019	253.151	-0.075	-0.127
-247.005	-2.825	0.099	0.068
-245.990	-188.923	0.373	-0.004
-244.976	-144.013	-0.543	-0.050
-243.961	-162.445	-0.260	0.013
-242.946	-76.243	0.152	0.053
-241.932	-200.000	0.018	0.280
-240.917	34.872	-0.133	-0.115
-239.903	-48.322	0.251	0.120
-238.888	102.572	0.011	-0.013
-237.873	0.311	0.127	-0.089
-236.859	-23.625	-0.193	0.114
-235.844	-6.716	-0.196	0.132
-234.830	800.000	0.089	0.280
-233.815	-200.000	0.030	0.174
-232.800	-8.767	-0.325	0.215
-231.786	-4.385	0.047	-0.032
-230.771	800.000	0.069	0.241
-229.757	596.525	-0.042	-0.102
-228.742	800.000	0.028	-0.086
-227.727	-200.000	0.023	-0.225
-226.713	-63.012	-0.092	0.037
-225.698	-200.000	-0.033	0.298
-224.684	-147.072	-0.217	0.018
-223.669	-86.601	0.241	-0.073
-222.655	137.356	0.135	-0.174
-221.640	-142.211	0.214	-0.021
-220.625	800.000	-0.092	-0.255
-219.611	-110.993	0.141	-0.029
-218.596	-200.000	0.065	0.345
-217.582	137.572	0.052	-0.067
-216.567	71.340	0.432	-0.443
-215.552	57.724	0.167	-0.161
-214.538	544.637	-0.145	0.341
-213.523	-174.912	0.235	0.007
-212.509	24.550	-0.118	0.097
-211.494	800.000	-0.032	-0.104
-210.479	408.072	-0.072	-0.150
-209.465	124.590	-0.157	0.195
-208.450	-80.069	0.069	-0.023
-207.436	-200.000	-0.017	-0.138
-206.421	22.713	-0.261	-0.211
-205.406	-22.354	-0.233	-0.139
-204.392	-50.755	0.155	-0.072
-203.377	-13.676	-0.119	-0.076
-202.363	800.000	0.046	0.197
-201.348	800.000	-0.027	0.075
-200.333	-132.557	0.351	-0.044
-199.319	204.655	-0.058	-0.089
-198.304	800.000	0.065	0.241
-197.290	137.267	-0.209	-0.270
-196.275	45.932	0.232	0.211
-195.260	-24.477	-0.218	-0.128
-194.246	-23.366	-0.127	-0.075
-193.231	22.408	-0.180	0.145
-192.217	-200.000	-0.052	0.292
-191.202	184.697	0.103	0.151
-190.187	142.966	0.066	-0.087
-189.173	-98.322	0.278	-0.070
-188.158	-9.928	0.116	-0.076
-187.144	101.390	-0.040	0.046
-186.129	-47.023	-0.303	-0.146
-185.114	-38.466	-0.080	0.042
-184.100	403.660	0.048	-0.099
-183.085	-110.580	0.190	0.039
-182.071	60.617	-0.110	0.107
-181.056	-52.784	-0.126	-0.057
-180.042	765.101	-0.097	-0.258
-179.027	-130.245	-0.365	-0.049
-178.012	33.039	-0.179	-0.153
-176.998	81.422	0.203	0.216
-175.983	-121.977	0.165	0.027
-174.969	264.497	0.086	-0.148
-173.954	-84.633	0.145	0.045
-172.939	83.684	-0.269	0.289
-171.925	800.000	0.092	0.289
-170.910	-81.235	-0.104	0.034
-169.896	-125.210	0.226	0.034
-168.881	-59.887	0.176	-0.074
-167.866	-107.913	0.175	0.037
-166.852	800.000	0.059	0.213
-165.837	-200.000	0.007	-0.247
-164.823	-105.514	0.169	-0.038
-163.808	-80.178	-0.085	-0.028
-162.793	116.423	-0.112	0.135
-161.779	276.057	-0.156	-0.273
-160.764	-159.649	0.465	0.025
-159.750	-109.703	-0.124	0.026
-158.735	70.246	0.067	-0.068
-157.720	800.000	0.163	0.637
-156.706	-65.858	0.351	-0.138
-155.691	372.009	0.200	0.399
-154.677	800.000	-0.034	-0.099
-153.662	-200.000	-0.014	-0.285
-152.647	20.365	-0.098	-0.078
-151.633	164.501	-0.086	-0.120
-150.618	-102.028	-0.450	0.107
-149.604	-200.000	-0.027	0.200
-148.589	-21.302	0.285	-0.171
-147.574	76.859	0.107	0.111
-146.560	-200.000	-0.171	0.000
-145.545	189.341	0.141	0.208
-144.531	800.000	-0.032	0.116
-143.516	-200.000	-0.044	0.308
-142.502	-176.794	-0.290	0.007
-141.487	52.613	-0.107	0.101
-140.472	-200.000	-0.049	-0.334
-139.458	-200.000	0.007	-0.221
-138.443	-42.731	0.148	-0.074
-137.429	500.238	-0.146	-0.332
-136.414	418.606	0.149	-0.313
-135.399	-77.361	-0.116	-0.040
-134.385	800.000	-0.051	-0.159
-133.370	-111.596	-0.385	0.077
-132.356	-85.446	-0.159	-0.049
-131.341	156.577	-0.193	-0.262
-130.326	-200.000	-0.023	0.155
-129.312	781.859	0.070	-0.190
-128.297	-200.000	-0.012	-0.222
-127.283	-126.903	-0.573	-0.083
-126.268	-100.034	-0.233	0.057
-125.253	6.642	-0.193	-0.141
-124.239	712.894	0.056	-0.146
-123.224	-148.006	0.291	-0.024
-122.210	-143.707	-0.156	-0.015
