DTS Sentinel unit serial number:	SN413079Multiplexer serial number:	ORYXHardware model number:	OX4-SRSoftware version number:	ORYX F/W v4.00 Oryx Data Collector v3.7.2.0data status	okinstallation	princeton_trtdifferential loss correction	single-endedforward channel	channel 2reverse channel	N/Adate	2019/09/12time	07:45:11forward acquisition time	60.00reverse acquisition time	0.00gamma	496.2192k internal	0.2321k external	0.2321temperature offset calibration	1.0059default loss term (dB/km)	0.3790temperature slope calibration	1.0000multiplexer offset coefficient	1.0000multiplexer slope coefficient	1.0000fibre end	0.00T internal ref (°C)	32.80T ext. ref 1 (°C)	1.63T ext. ref 2 (°C)	28.87length (m)	temperature (°C)	Stokes	anti-Stokes-747.200	32.602	0.143	-0.125
-746.185	44.517	-0.180	0.167
-745.171	800.000	0.097	0.350
-744.156	-70.313	0.307	0.118
-743.142	-200.000	-0.023	0.277
-742.127	800.000	0.099	0.409
-741.112	91.167	0.184	0.209
-740.098	-87.079	-0.428	0.132
-739.083	-40.971	-0.169	0.088
-738.069	-3.103	-0.086	0.060
-737.054	800.000	0.076	0.262
-736.039	-40.721	0.301	-0.157
-735.025	-200.000	0.054	0.258
-734.010	-200.000	-0.296	-0.000
-732.996	-137.323	-0.221	-0.025
-731.981	-48.746	-0.139	-0.068
-730.966	-200.000	-0.025	-0.187
-729.952	-66.318	0.055	0.022
-728.937	-122.754	0.392	-0.064
-727.923	-34.102	-0.205	0.114
-726.908	-200.000	0.029	0.425
-725.894	-104.864	-0.143	0.033
-724.879	243.489	0.182	-0.308
-723.864	-65.696	0.396	0.160
-722.850	-200.000	0.012	0.136
-721.835	-200.000	0.012	-0.364
-720.821	6.076	0.284	0.213
-719.806	-103.610	0.281	-0.067
-718.791	-200.000	-0.005	-0.338
-717.777	800.000	-0.055	0.187
-716.762	-200.000	0.024	-0.166
-715.748	-200.000	-0.028	-0.146
-714.733	38.335	0.158	-0.142
-713.718	-200.000	0.022	0.189
-712.704	14.073	0.088	0.069
-711.689	264.662	-0.116	-0.203
-710.675	7.483	0.123	-0.093
-709.660	-133.242	0.466	-0.059
-708.645	105.495	-0.356	0.424
-707.631	84.371	-0.044	0.048
-706.616	800.000	-0.054	0.233
-705.602	196.786	-0.241	-0.370
-704.587	268.282	-0.062	-0.110
-703.572	-116.889	-0.183	0.034
-702.558	-131.728	-0.095	-0.013
-701.543	201.098	-0.268	0.416
-700.529	38.413	-0.241	0.217
-699.514	-54.818	0.324	0.148
-698.499	-200.000	0.011	0.270
-697.485	-102.517	0.083	-0.020
-696.470	76.421	-0.202	0.216
-695.456	-200.000	0.047	0.309
-694.441	-200.000	0.034	0.396
-693.426	-153.740	-0.118	0.008
-692.412	-127.100	0.294	0.043
-691.397	339.294	0.027	-0.054
-690.383	24.486	-0.069	-0.057
-689.368	-102.458	-0.417	-0.101
-688.354	-169.190	0.374	-0.014
-687.339	-79.054	-0.097	0.033
-686.324	-200.000	0.015	-0.423
-685.310	800.000	-0.114	-0.347
-684.295	-38.655	-0.128	0.068
-683.281	-200.000	-0.017	-0.082
-682.266	511.460	0.097	0.227
-681.251	-1.231	0.306	0.218
-680.237	378.626	0.112	-0.231
-679.222	475.839	-0.038	-0.087
-678.208	-200.000	-0.042	-0.205
-677.193	-47.335	0.213	0.104
-676.178	-135.716	-0.097	-0.012
-675.164	-46.148	0.276	0.137
-674.149	-168.420	-0.123	0.005
-673.135	-10.826	-0.065	0.044
-672.120	224.524	-0.108	-0.176
-671.105	-90.035	0.062	-0.018
-670.091	800.000	-0.073	-0.274
-669.076	-110.718	-0.394	0.082
-668.062	411.230	-0.195	-0.416
-667.047	-90.434	0.141	0.041
-666.032	57.079	0.061	-0.060
-665.018	-200.000	0.031	-0.182
-664.003	126.151	-0.123	0.157
-662.989	-66.326	0.131	0.052
-661.974	356.419	0.054	-0.109
-660.959	69.874	-0.300	-0.311
-659.945	544.511	0.073	-0.176
-658.930	88.440	0.308	-0.345
-657.916	-200.000	-0.010	-0.535
-656.901	238.249	0.056	-0.094
-655.886	-200.000	-0.004	0.176
-654.872	-200.000	0.030	-0.165
-653.857	-200.000	0.032	-0.540
-652.843	-15.347	0.259	-0.166
-651.828	470.672	-0.102	0.230
-650.814	800.000	-0.011	-0.034
-649.799	78.729	-0.128	-0.138
-648.784	-200.000	-0.011	0.155
-647.770	-29.231	-0.406	-0.234
-646.755	-105.405	0.161	0.037
-645.741	-200.000	0.031	0.267
-644.726	-173.835	0.129	-0.004
-643.711	13.677	-0.159	0.124
-642.697	-200.000	-0.029	-0.186
-641.682	-130.928	0.330	0.044
-640.668	-200.000	0.013	0.229
-639.653	14.607	-0.084	-0.066
-638.638	380.823	0.086	0.177
-637.624	101.327	0.199	0.233
-636.609	-200.000	-0.009	-0.053
-635.595	-140.242	0.272	-0.029
-634.580	194.490	0.284	0.434
-633.565	-200.000	-0.010	-0.246
-632.551	66.108	-0.221	-0.226
-631.536	53.419	-0.226	-0.219
-630.522	110.822	0.021	0.026
-629.507	-38.778	-0.141	-0.075
-628.492	16.380	0.179	-0.142
-627.478	40.869	0.237	0.215
-626.463	756.241	-0.130	0.355
-625.449	-55.020	-0.176	0.080
-624.434	-56.558	0.499	-0.222
-623.419	144.318	-0.250	0.336
-622.405	-39.710	0.129	0.068
-621.390	-89.153	-0.442	-0.131
-620.376	-59.625	0.061	-0.026
-619.361	397.277	0.112	-0.236
-618.346	-200.000	-0.004	-0.089
-617.332	202.303	-0.054	-0.084
-616.317	-123.502	0.142	-0.023
-615.303	183.333	-0.071	0.105
-614.288	-21.875	0.083	-0.051
-613.273	-117.907	0.319	0.058
-612.259	163.952	-0.125	0.177
-611.244	-80.011	-0.186	-0.063
-610.230	209.323	0.129	-0.204
-609.215	-86.916	-0.174	-0.053
-608.201	-165.737	-0.362	-0.016
-607.186	198.245	0.070	-0.108
-606.171	-130.303	0.121	0.016
-605.157	14.125	-0.217	-0.170
-604.142	190.077	-0.149	0.225
-603.128	33.610	-0.096	-0.084
-602.113	800.000	-0.123	0.350
-601.098	145.284	0.091	0.122
-600.084	24.611	-0.221	0.184
-599.069	-74.484	0.375	0.136
-598.055	-101.652	0.282	-0.069
-597.040	-200.000	-0.019	-0.112
-596.025	-82.972	-0.417	0.135
-595.011	-73.994	0.030	-0.011
-593.996	41.003	0.251	0.227
-592.982	284.980	-0.036	0.066
-591.967	-138.333	-0.226	-0.025
-590.952	18.295	0.137	0.110
-589.938	665.007	0.072	0.186
-588.923	14.246	0.235	0.184
-587.909	-6.767	0.174	0.119
-586.894	-200.000	-0.009	0.114
-585.879	259.077	-0.185	0.321
-584.865	335.292	-0.139	-0.270
-583.850	-56.272	-0.105	0.047
-582.836	17.852	-0.054	0.043
-581.821	-67.032	0.397	-0.157
-580.806	-132.159	-0.100	0.013
-579.792	156.081	-0.265	-0.367
-578.777	800.000	-0.036	0.141
-577.763	39.184	-0.024	-0.021
-576.748	-200.000	0.026	0.554
-575.733	-34.857	-0.345	-0.189
-574.719	16.991	0.240	-0.191
-573.704	-39.046	-0.128	-0.068
-572.690	-31.995	0.270	0.152
-571.675	-7.371	0.185	-0.126
-570.661	-200.000	-0.028	-0.296
-569.646	-52.939	0.150	0.069
-568.631	-81.404	-0.232	-0.077
-567.617	283.897	0.113	0.203
-566.602	53.412	0.257	0.248
-565.588	51.114	-0.282	0.269
-564.573	-193.051	-0.214	0.002
-563.558	-95.061	-0.079	-0.021
-562.544	55.462	0.260	-0.252
-561.529	75.042	0.195	0.206
-560.515	-197.552	-0.453	0.003
-559.500	800.000	0.023	0.087
-558.485	-32.314	0.243	-0.136
-557.471	164.770	-0.177	-0.250
-556.456	30.953	-0.164	0.141
-555.442	-200.000	-0.032	-0.211
-554.427	119.915	-0.052	-0.065
-553.412	165.021	-0.063	-0.089
-552.398	800.000	-0.067	0.192
-551.383	45.807	0.429	-0.398
-550.369	-79.803	0.309	0.104
-549.354	238.828	0.177	0.296
-548.339	-200.000	0.038	0.176
-547.325	-128.059	-0.424	-0.061
-546.310	40.725	-0.110	-0.099
-545.296	29.299	-0.239	-0.203
-544.281	-41.690	0.092	0.047
-543.266	709.682	0.130	0.346
-542.252	-94.658	0.121	0.033
-541.237	-200.000	-0.100	-0.445
-540.223	6.037	0.334	-0.248
-539.208	31.246	0.215	-0.185
-538.193	-161.513	0.011	0.001
-537.179	120.338	0.184	-0.230
-536.164	3.482	0.072	-0.052
-535.150	33.359	0.214	-0.187
-534.135	-200.000	-0.031	-0.145
-533.121	-200.000	-0.061	0.425
-532.106	-200.000	0.010	-0.120
-531.091	-84.847	0.050	0.016
-530.077	-125.990	-0.112	-0.017
-529.062	-36.460	-0.212	0.115
-528.048	800.000	-0.024	-0.076
-527.033	-121.205	0.136	0.023
-526.018	306.602	0.212	0.395
-525.004	225.993	0.129	-0.210
-523.989	-200.000	0.010	0.052
-522.975	362.127	-0.176	0.354
-521.960	-200.000	-0.001	-0.009
-520.945	-75.433	-0.123	-0.044
-519.931	323.442	-0.111	-0.211
-518.916	162.402	-0.065	-0.092
-517.902	-67.643	0.325	0.128
-516.887	-200.000	-0.014	0.080
-515.872	15.850	0.055	-0.043
-514.858	124.125	-0.190	-0.239
-513.843	-200.000	0.054	0.246
-512.829	212.411	-0.203	0.321
-511.814	543.511	0.055	0.131
-510.799	44.492	-0.285	-0.262
-509.785	-56.088	-0.162	-0.072
-508.770	115.382	-0.241	-0.295
-507.756	39.729	0.017	0.015
-506.741	-84.178	-0.249	0.079
-505.726	-72.225	-0.211	-0.078
-504.712	45.129	-0.176	0.162
-503.697	121.401	-0.160	-0.200
-502.683	185.536	-0.081	0.120
-501.668	-94.611	-0.036	0.010
-500.653	-54.360	0.209	-0.095
-499.639	-114.438	-0.200	0.039
-498.624	198.069	0.135	0.206
-497.610	-30.860	0.293	0.166
-496.595	22.179	-0.151	-0.124
-495.581	150.181	0.044	-0.060
-494.566	-20.035	0.275	0.170
-493.551	-165.311	-0.259	0.011
-492.537	-74.322	0.224	-0.081
-491.522	-200.000	-0.014	0.064
-490.508	35.428	0.091	-0.080
-489.493	800.000	-0.034	0.127
-488.478	152.051	-0.114	-0.156
-487.464	304.833	-0.012	-0.022
-486.449	-52.641	-0.242	-0.112
-485.435	167.347	0.034	0.048
-484.420	800.000	-0.039	-0.140
-483.405	-97.409	-0.079	0.020
-482.391	-200.000	0.030	0.319
-481.376	501.604	-0.074	0.171
-480.362	647.495	-0.092	0.235
-479.347	-200.000	-0.013	-0.238
-478.332	-22.975	-0.175	0.106
-477.318	46.957	-0.201	0.187
-476.303	185.550	-0.072	0.107
-475.289	188.309	0.178	-0.266
-474.274	800.000	0.051	-0.154
-473.259	-99.434	-0.315	-0.079
-472.245	89.286	-0.315	-0.351
-471.230	150.906	0.196	-0.266
-470.216	585.071	0.098	-0.242
-469.201	-112.499	-0.228	0.046
-468.186	-192.253	0.281	0.003
-467.172	18.753	-0.269	-0.215
-466.157	-161.364	0.175	0.009
-465.143	800.000	0.053	0.191
-464.128	-200.000	0.006	-0.178
-463.113	-91.374	0.361	0.103
-462.099	-76.524	0.123	0.043
-461.084	79.241	-0.038	0.040
-460.070	-45.058	0.131	0.065
-459.055	-200.000	-0.007	-0.137
-458.040	-124.259	-0.165	-0.026
-457.026	-149.243	-0.245	0.020
-456.011	156.157	0.212	0.292
-454.997	-41.645	-0.283	0.145
-453.982	-171.003	0.288	-0.010
-452.968	187.812	0.147	-0.219
-451.953	-74.117	0.178	-0.064
-450.938	-200.000	-0.026	-0.151
-449.924	-200.000	0.026	0.155
-448.909	46.149	0.319	0.295
-447.895	-200.000	-0.033	-0.303
-446.880	800.000	0.062	-0.216
-445.865	43.857	0.291	0.266
-444.851	-101.188	0.271	0.066
-443.836	-157.018	-0.187	0.011
-442.822	-200.000	0.049	-0.328
-441.807	-120.767	-0.348	0.059
-440.792	800.000	0.152	0.516
-439.778	-97.288	0.190	-0.050
-438.763	-118.982	-0.197	0.034
-437.749	81.755	0.130	0.141
-436.734	-60.476	0.096	0.041
-435.719	59.740	-0.197	-0.194
-434.705	-14.814	0.154	-0.099
-433.690	-162.210	-0.377	0.019
-432.676	182.363	0.118	-0.173
-431.661	-57.688	0.259	-0.113
-430.646	9.570	0.263	-0.199
-429.632	800.000	-0.128	-0.460
-428.617	800.000	-0.029	0.084
-427.603	641.031	0.091	0.232
-426.588	-200.000	0.008	-0.128
-425.573	-121.897	-0.259	-0.043
-424.559	-127.221	-0.242	0.035
-423.544	800.000	0.037	0.112
-422.530	-111.309	-0.114	-0.023
-421.515	788.784	-0.189	0.517
-420.500	-98.031	0.133	0.034
-419.486	-16.515	-0.326	-0.206
-418.471	92.863	-0.186	0.209
-417.457	291.575	0.096	0.175
-416.442	62.916	-0.097	0.097
-415.428	7.940	-0.058	-0.043
-414.413	-200.000	0.010	0.254
-413.398	-9.690	-0.175	0.117
-412.384	556.313	0.014	-0.033
-411.369	50.269	-0.220	0.208
-410.355	-118.318	-0.297	0.053
-409.340	-90.591	-0.150	-0.043
-408.325	-92.830	0.171	-0.048
-407.311	12.474	0.058	0.044
-406.296	-5.815	-0.175	-0.119
-405.282	-53.963	0.225	0.102
-404.267	-200.000	0.034	-0.217
-403.252	800.000	-0.111	-0.306
-402.238	-73.819	0.193	-0.070
-401.223	-76.071	0.235	0.083
-400.209	35.284	-0.058	-0.050
-399.194	-200.000	-0.005	0.116
-398.179	-13.357	0.124	0.081
-397.165	800.000	-0.026	0.084
-396.150	-200.000	-0.005	-0.298
-395.136	669.905	-0.062	-0.159
-394.121	593.242	-0.061	-0.149
-393.106	-200.000	-0.020	0.157
-392.092	725.583	0.127	0.338
-391.077	-85.078	0.139	-0.043
-390.063	75.208	-0.082	0.086
-389.048	0.353	0.148	-0.105
-388.033	656.669	-0.169	-0.432
-387.019	504.892	0.124	-0.285
-386.004	-28.135	-0.116	0.067
-384.990	-64.725	0.283	0.114
-383.975	-62.183	0.460	0.191
-382.960	53.202	0.116	-0.111
-381.946	-200.000	-0.034	0.152
-380.931	-116.862	0.398	0.073
-379.917	36.378	-0.357	-0.313
-378.902	-96.102	0.167	-0.044
-377.888	-137.192	0.188	0.021
-376.873	-34.742	0.140	-0.076
-375.858	-192.080	0.109	-0.001
-374.844	-200.000	-0.001	-0.051
-373.829	-185.004	0.369	0.006
-372.815	-183.020	-0.101	-0.002
-371.800	800.000	-0.030	0.100
-370.785	800.000	-0.042	0.125
-369.771	-33.778	0.204	-0.112
-368.756	-151.868	-0.148	0.011
-367.742	-200.000	-0.071	0.319
-366.727	23.634	0.068	-0.056
-365.712	-73.852	0.065	0.024
-364.698	378.398	-0.093	-0.189
-363.683	86.589	0.125	-0.137
-362.669	79.534	0.150	-0.161
-361.654	21.228	0.124	0.100
-360.639	-117.852	-0.374	-0.067
-359.625	800.000	-0.046	-0.150
-358.610	237.874	-0.153	-0.253
-357.596	-200.000	-0.006	0.275
-356.581	-59.289	0.187	0.080
-355.566	74.129	-0.192	0.200
-354.552	3.779	-0.336	-0.244
-353.537	86.518	0.045	0.050
-352.523	217.101	-0.171	-0.271
-351.508	-85.412	-0.184	0.057
-350.493	-89.021	0.159	0.047
-349.479	-59.979	-0.207	0.088
-348.464	-200.000	0.014	0.107
-347.450	305.119	0.153	0.284
-346.435	24.503	-0.249	-0.205
-345.420	310.931	0.019	-0.035
-344.406	60.436	0.037	0.036
-343.391	-36.446	-0.079	0.042
-342.377	-200.000	-0.010	0.287
-341.362	-67.121	-0.280	-0.110
-340.348	-17.806	0.145	-0.091
-339.333	-24.376	-0.227	-0.135
-338.318	-57.174	-0.243	-0.107
-337.304	-182.653	0.214	-0.004
-336.289	95.160	0.054	-0.061
-335.275	19.727	0.174	-0.140
-334.260	251.747	0.109	-0.185
-333.245	-101.263	-0.060	-0.015
-332.231	51.557	0.276	-0.261
-331.216	800.000	-0.034	0.123
-330.202	530.725	-0.100	0.235
-329.187	-149.205	0.227	0.018
-328.172	-113.760	-0.095	-0.018
-327.158	-146.424	-0.388	0.034
-326.143	11.918	-0.123	-0.094
-325.129	800.000	-0.109	-0.331
-324.114	-145.963	0.288	0.025
-323.099	-140.268	0.060	-0.006
-322.085	40.689	-0.265	0.238
-321.070	-77.021	0.054	-0.019
-320.056	110.444	-0.146	0.174
-319.041	55.181	0.152	-0.146
-318.026	-3.213	0.141	-0.098
-317.012	420.924	-0.080	-0.171
-315.997	-52.432	-0.185	-0.085
-314.983	-112.235	-0.203	0.040
-313.968	12.704	-0.102	-0.078
-312.953	-200.000	-0.004	-0.392
-311.939	-200.000	0.013	-0.072
-310.924	53.808	0.082	-0.078
-309.910	-95.086	0.410	-0.110
-308.895	-200.000	-0.011	-0.075
-307.880	589.068	0.055	0.136
-306.866	-105.372	-0.215	-0.049
-305.851	-18.656	0.076	0.047
-304.837	-151.590	0.172	-0.013
-303.822	60.632	0.120	-0.118
-302.807	-134.309	0.220	0.027
-301.793	-60.023	0.108	0.046
-300.778	800.000	0.054	0.232
-299.764	-200.000	-0.015	0.078
-298.749	800.000	0.077	0.333
-297.735	-6.819	0.232	-0.157
-296.720	-200.000	-0.035	-0.188
-295.705	-200.000	-0.022	-0.340
-294.691	-37.941	0.484	-0.255
-293.676	63.201	0.052	0.052
-292.662	293.294	0.093	-0.168
-291.647	-134.470	-0.131	0.016
-290.632	-195.358	0.182	-0.001
-289.618	-112.927	-0.315	0.062
-288.603	478.414	0.069	-0.154
-287.589	-23.939	0.353	-0.210
-286.574	800.000	-0.051	0.173
-285.559	-200.000	-0.026	0.196
-284.545	96.880	0.123	-0.139
-283.530	19.265	0.028	0.023
-282.516	800.000	0.110	0.364
-281.501	800.000	0.024	-0.074
-280.486	98.072	0.204	-0.233
-279.472	361.117	-0.088	-0.175
-278.457	-113.106	-0.307	-0.060
-277.443	800.000	-0.106	-0.317
-276.428	580.009	-0.137	0.333
-275.413	100.928	0.259	0.299
-274.399	-39.104	0.172	0.090
-273.384	-116.673	-0.177	-0.032
-272.370	-44.289	0.311	0.155
-271.355	-200.000	0.048	-0.245
-270.340	-7.806	-0.305	0.204
-269.326	-200.000	-0.020	-0.230
-268.311	-88.368	-0.216	0.064
-267.297	8.940	0.148	-0.111
-266.282	44.306	-0.089	0.081
-265.267	-77.495	-0.196	0.067
-264.253	800.000	-0.017	-0.052
-263.238	17.334	0.248	0.195
-262.224	-171.899	-0.261	0.008
-261.209	185.470	0.071	0.105
-260.195	-61.883	-0.379	-0.157
-259.180	7.083	0.104	0.077
-258.165	-121.420	0.243	0.040
-257.151	-132.018	0.169	-0.022
-256.136	800.000	-0.037	0.157
-255.122	57.222	0.081	0.078
-254.107	359.218	0.096	0.191
-253.092	-103.795	-0.350	0.081
-252.078	454.198	0.065	0.142
-251.063	417.009	-0.173	0.367
-250.049	-1.319	-0.035	0.024
-249.034	53.977	-0.162	-0.154
-248.019	-83.935	-0.134	-0.042
-247.005	-105.334	-0.219	0.050
-245.990	127.643	0.185	-0.233
-244.976	62.253	0.091	-0.090
-243.961	-200.000	0.113	0.000
-242.946	-200.000	0.043	0.231
-241.932	-29.731	0.041	-0.023
-240.917	226.174	-0.239	-0.384
-239.903	-200.000	-0.026	0.259
-238.888	800.000	-0.012	0.040
-237.873	800.000	0.109	-0.346
-236.859	-128.249	-0.209	0.030
-235.844	-102.183	0.154	0.037
-234.830	-17.998	0.377	-0.234
-233.815	45.380	0.077	0.070
-232.800	800.000	-0.065	0.231
-231.786	-139.155	0.079	0.008
-230.771	-200.000	0.063	0.423
-229.757	87.281	0.211	-0.231
-228.742	-111.093	0.222	0.045
-227.727	100.938	0.264	0.305
-226.713	-200.000	0.032	0.221
-225.698	319.456	-0.187	0.352
-224.684	-87.885	0.351	0.105
-223.669	58.873	0.220	-0.214
-222.655	-89.635	-0.212	-0.062
-221.640	-118.734	0.061	0.011
-220.625	-100.781	-0.165	0.040
-219.611	144.179	0.272	-0.359
-218.596	-6.547	0.098	0.066
-217.582	64.663	0.224	-0.223
-216.567	-200.000	-0.011	0.148
-215.552	-200.000	0.027	0.133
-214.538	231.096	0.098	0.158
-213.523	-200.000	-0.014	0.174
-212.509	67.762	-0.172	0.174
-211.494	-200.000	-0.003	-0.267
-210.479	217.693	0.094	-0.148
-209.465	800.000	0.014	0.047
-208.450	244.780	0.155	-0.257
-207.436	-200.000	-0.009	0.101
-206.421	800.000	0.065	0.278
-205.406	109.859	-0.302	-0.358
-204.392	-117.748	-0.068	-0.012
-203.377	111.487	-0.128	-0.152
-202.363	-168.981	-0.200	0.007
-201.348	427.268	0.063	0.135
-200.333	300.861	-0.127	0.232
-199.319	800.000	0.064	0.265
-198.304	-200.000	-0.018	-0.183
-197.290	800.000	0.061	-0.216
-196.275	81.329	-0.046	0.050
-195.260	43.981	-0.122	-0.110
-194.246	800.000	0.074	0.214
-193.231	84.232	-0.172	-0.186
-192.217	12.415	0.208	-0.159
-191.202	7.067	-0.405	0.298
-190.187	800.000	-0.042	0.123
-189.173	800.000	-0.102	0.410
-188.158	-69.176	-0.238	0.090
-187.144	-119.475	0.062	0.011
-186.129	25.864	-0.106	0.087
-185.114	223.000	-0.155	-0.247
-184.100	800.000	0.094	-0.307
-183.085	293.837	0.013	0.024
-182.071	27.352	0.094	-0.078
-181.056	-19.141	0.037	-0.023
-180.042	-200.000	-0.039	-0.224
-179.027	-35.921	0.183	-0.098
-178.012	271.534	-0.146	0.255
-176.998	-200.000	-0.058	0.260
-175.983	173.737	0.227	-0.324
-174.969	-200.000	0.004	-0.060
-173.954	346.342	-0.036	-0.070
-172.939	-200.000	0.008	-0.124
-171.925	25.909	0.165	-0.136
-170.910	-10.404	-0.170	0.112
-169.896	240.322	0.060	0.099
-168.881	800.000	-0.047	0.145
-167.866	-143.966	-0.455	-0.042
-166.852	157.283	0.033	-0.045
-165.837	-59.857	0.293	-0.124
-164.823	-200.000	-0.024	-0.118
-163.808	-46.050	-0.082	0.040
-162.793	96.663	-0.133	-0.151
-161.779	-200.000	-0.013	0.150
-160.764	800.000	-0.071	-0.285
-159.750	257.029	0.057	0.096
-158.735	154.381	-0.177	-0.240
-157.720	0.438	0.187	-0.132
-156.706	79.449	-0.225	0.238
-155.691	-138.465	-0.188	0.020
-154.677	440.043	-0.100	0.215
-153.662	-115.008	0.064	-0.012
-152.647	-28.626	-0.184	0.104
-151.633	317.327	-0.020	0.037
-150.618	-200.000	0.008	0.258
-149.604	800.000	-0.033	-0.116
-148.589	-200.000	0.008	0.196
-147.574	-178.709	0.118	-0.003
-146.560	73.751	0.041	0.043
-145.545	77.567	-0.217	-0.228
-144.531	-200.000	0.037	-0.227
-143.516	316.162	-0.151	0.281
-142.502	-78.134	0.118	-0.040
-141.487	-176.031	-0.165	-0.004
-140.472	11.006	0.266	-0.201
-139.458	393.333	-0.028	0.058
-138.443	-200.000	0.009	0.257
-137.429	12.969	-0.005	0.004
-136.414	-200.000	-0.008	-0.060
-135.399	-200.000	0.010	0.317
-134.385	800.000	-0.070	0.243
-133.370	146.698	0.109	0.144
-132.356	330.813	-0.058	-0.110
-131.341	-5.471	0.170	0.115
-130.326	206.877	-0.054	0.083
-129.312	-45.540	-0.080	-0.039
-128.297	-200.000	-0.004	-0.058
-127.283	84.086	0.109	0.118
-126.268	800.000	-0.069	-0.249
-125.253	597.154	-0.107	-0.262
-124.239	343.418	0.151	-0.292
-123.224	-32.527	0.084	-0.046
-122.210	-104.045	0.125	-0.029
-121.195	61.475	-0.104	0.102
-120.180	196.880	0.341	0.513
