DTS Sentinel unit serial number:	SN413079Multiplexer serial number:	ORYXHardware model number:	OX4-SRSoftware version number:	ORYX F/W v4.00 Oryx Data Collector v3.7.2.0data status	okinstallation	princeton_trtdifferential loss correction	single-endedforward channel	channel 2reverse channel	N/Adate	2019/09/11time	14:01:10forward acquisition time	60.00reverse acquisition time	0.00gamma	496.2192k internal	0.2292k external	0.2292temperature offset calibration	1.0007default loss term (dB/km)	0.3790temperature slope calibration	1.0000multiplexer offset coefficient	1.0000multiplexer slope coefficient	1.0000fibre end	0.00T internal ref (°C)	41.92T ext. ref 1 (°C)	0.86T ext. ref 2 (°C)	37.13length (m)	temperature (°C)	Stokes	anti-Stokes-747.200	-43.856	0.283	-0.146
-746.185	-200.000	0.007	0.152
-745.171	800.000	0.063	0.252
-744.156	-138.950	-0.089	0.010
-743.142	800.000	0.046	-0.187
-742.127	-21.996	-0.339	0.211
-741.112	-72.344	0.460	0.174
-740.098	315.915	-0.043	0.082
-739.083	-200.000	-0.017	0.093
-738.069	550.348	0.159	0.390
-737.054	235.764	0.197	-0.333
-736.039	72.064	-0.184	-0.196
-735.025	444.446	0.046	-0.103
-734.010	-22.103	-0.042	-0.026
-732.996	-129.345	-0.172	0.024
-731.981	-113.447	0.286	-0.057
-730.966	143.744	-0.339	-0.462
-729.952	-35.607	-0.259	-0.144
-728.937	-200.000	0.001	-0.226
-727.923	800.000	-0.054	0.170
-726.908	-159.582	-0.137	0.008
-725.894	-200.000	-0.018	-0.081
-724.879	313.361	0.115	-0.221
-723.864	-173.790	0.233	0.007
-722.850	-76.647	0.133	-0.048
-721.835	-71.724	-0.314	-0.120
-720.821	-123.985	-0.325	0.052
-719.806	-200.000	0.057	0.342
-718.791	29.014	-0.173	0.150
-717.777	-129.145	-0.436	-0.062
-716.762	-200.000	-0.061	0.355
-715.748	5.011	0.183	-0.138
-714.733	70.552	0.048	0.050
-713.718	-59.599	-0.117	0.052
-712.704	488.991	0.040	-0.093
-711.689	83.469	0.024	-0.026
-710.675	567.318	-0.122	0.303
-709.660	-56.443	-0.023	0.010
-708.645	-114.116	-0.191	-0.038
-707.631	270.122	-0.037	0.066
-706.616	-200.000	0.028	-0.250
-705.602	135.461	-0.038	0.050
-704.587	-200.000	-0.024	-0.421
-703.572	309.968	0.086	-0.164
-702.558	-200.000	0.030	-0.252
-701.543	59.381	0.524	0.528
-700.529	-61.282	0.183	0.079
-699.514	273.402	-0.122	-0.220
-698.499	800.000	-0.100	0.310
-697.485	-84.307	0.452	-0.146
-696.470	361.471	0.156	0.319
-695.456	158.889	0.141	-0.200
-694.441	-61.290	0.202	-0.087
-693.426	484.438	0.110	-0.256
-692.412	-200.000	0.002	0.185
-691.397	141.898	-0.111	0.150
-690.383	-51.965	-0.333	0.158
-689.368	124.833	0.188	0.241
-688.354	-13.390	-0.202	0.134
-687.339	176.819	-0.105	0.156
-686.324	202.320	0.221	0.349
-685.310	-134.413	-0.159	-0.020
-684.295	-52.093	-0.363	0.172
-683.281	-5.362	0.154	-0.108
-682.266	-200.000	0.007	-0.202
-681.251	11.578	-0.236	-0.185
-680.237	-119.857	0.282	-0.050
-679.222	345.312	0.095	0.191
-678.208	29.031	0.095	-0.082
-677.193	-97.898	-0.078	-0.021
-676.178	-200.000	-0.021	-0.153
-675.164	-100.124	0.366	0.093
-674.149	209.403	-0.176	0.281
-673.135	-109.703	0.500	0.107
-672.120	-124.008	0.462	0.074
-671.105	149.182	-0.004	-0.006
-670.091	-142.563	-0.263	0.026
-669.076	-153.311	-0.251	-0.018
-668.062	-200.000	0.023	-0.213
-667.047	-125.740	-0.266	0.041
-666.032	-101.562	0.213	0.053
-665.018	77.264	-0.162	-0.176
-664.003	35.599	0.083	0.075
-662.989	148.581	0.082	0.113
-661.974	11.499	-0.066	-0.052
-660.959	142.830	-0.066	0.089
-659.945	21.805	0.198	-0.165
-658.930	800.000	-0.065	0.238
-657.916	102.296	-0.136	0.162
-656.901	-48.877	0.275	0.134
-655.886	-169.795	-0.231	-0.009
-654.872	-200.000	0.016	0.079
-653.857	-20.984	0.175	0.109
-652.843	-73.023	-0.156	-0.058
-651.828	-200.000	-0.009	-0.080
-650.814	728.338	0.080	-0.217
-649.799	-200.000	0.025	-0.242
-648.784	-118.689	0.058	-0.010
-647.770	59.459	-0.239	0.240
-646.755	-123.084	0.216	0.035
-645.741	-50.395	0.191	0.092
-644.726	756.784	-0.066	-0.183
-643.711	95.910	0.046	0.054
-642.697	103.682	-0.218	-0.261
-641.682	140.520	0.216	-0.291
-640.668	95.912	0.128	-0.149
-639.653	77.401	-0.191	-0.207
-638.638	215.788	-0.200	-0.323
-637.624	214.772	-0.227	0.366
-636.609	-200.000	-0.277	-0.000
-635.595	-53.926	0.318	-0.148
-634.580	-47.649	-0.295	-0.146
-633.565	-102.509	0.116	0.028
-632.551	-200.000	0.006	-0.091
-631.536	9.446	-0.338	-0.260
-630.522	-8.976	-0.119	-0.081
-629.507	330.930	-0.017	-0.033
-628.492	409.081	0.253	-0.546
-627.478	-130.583	0.143	-0.020
-626.463	-200.000	0.052	0.420
-625.449	-143.397	-0.157	-0.015
-624.434	-151.391	0.190	-0.014
-623.419	58.933	0.139	0.139
-622.405	88.001	0.067	0.076
-621.390	41.325	-0.013	0.012
-620.376	150.290	-0.386	-0.533
-619.361	-61.235	0.074	-0.032
-618.346	-200.000	0.054	0.290
-617.332	136.364	-0.147	0.195
-616.317	-11.029	-0.191	0.128
-615.303	159.704	-0.089	-0.126
-614.288	220.471	-0.075	-0.123
-613.273	-114.810	-0.164	0.032
-612.259	545.620	-0.067	-0.163
-611.244	-61.066	-0.209	-0.090
-610.230	306.296	-0.027	-0.051
-609.215	-200.000	-0.055	-0.252
-608.201	57.850	0.108	-0.107
-607.186	-200.000	-0.011	0.086
-606.171	36.358	-0.240	0.216
-605.157	800.000	-0.050	0.213
-604.142	-137.021	0.260	0.030
-603.128	-200.000	0.001	0.097
-602.113	-72.200	-0.395	-0.149
-601.098	-200.000	0.044	0.357
-600.084	588.482	0.057	0.143
-599.069	-2.985	-0.480	0.341
-598.055	-47.309	0.240	0.119
-597.040	-91.198	-0.336	-0.098
-596.025	-26.547	0.363	-0.216
-595.011	-200.000	0.012	-0.282
-593.996	-200.000	0.024	0.125
-592.982	-200.000	0.059	0.381
-591.967	149.106	0.082	0.112
-590.952	-5.427	0.099	-0.069
-589.938	-89.818	0.333	-0.099
-588.923	111.166	0.177	-0.217
-587.909	-200.000	0.039	-0.232
-586.894	291.191	0.133	0.246
-585.879	-200.000	-0.011	0.242
-584.865	-19.534	-0.253	-0.159
-583.850	-151.265	-0.350	-0.027
-582.836	30.161	0.219	-0.190
-581.821	-142.943	0.123	0.012
-580.806	31.701	-0.374	-0.327
-579.792	-90.900	-0.152	-0.044
-578.777	-121.505	-0.304	0.051
-577.763	-97.019	-0.173	0.046
-576.748	-82.413	0.220	0.073
-575.733	-17.679	0.404	0.258
-574.719	-94.396	0.261	-0.072
-573.704	-200.000	0.001	0.248
-572.690	-51.493	-0.006	-0.003
-571.675	-200.000	0.078	-0.350
-570.661	-137.040	-0.258	-0.030
-569.646	-83.124	0.380	0.124
-568.631	36.861	-0.308	0.277
-567.617	-88.059	0.070	-0.021
-566.602	-45.007	0.045	-0.023
-565.588	-51.006	-0.119	-0.057
-564.573	31.216	0.220	-0.192
-563.558	-22.837	0.115	0.071
-562.544	250.354	-0.230	-0.397
-561.529	-185.156	-0.259	0.004
-560.515	-98.825	0.243	-0.063
-559.500	97.037	-0.024	0.028
-558.485	-200.000	0.008	-0.212
-557.471	467.818	-0.046	0.106
-556.456	800.000	0.040	-0.118
-555.442	-200.000	0.047	0.290
-554.427	-11.263	0.014	-0.009
-553.412	77.016	0.111	-0.120
-552.398	596.716	-0.041	-0.104
-551.383	-200.000	-0.031	0.140
-550.369	34.670	0.129	-0.115
-549.354	739.208	-0.089	-0.241
-548.339	-96.753	-0.227	-0.061
-547.325	-41.107	-0.087	0.046
-546.310	-115.238	-0.199	-0.038
-545.296	42.607	0.137	-0.126
-544.281	800.000	-0.122	-0.371
-543.266	-128.274	0.002	-0.000
-542.252	-44.665	0.180	0.091
-541.237	-124.547	-0.238	0.038
-540.223	800.000	-0.023	-0.074
-539.208	-82.407	0.290	0.096
-538.193	-200.000	0.014	0.073
-537.179	182.788	-0.057	-0.085
-536.164	-200.000	0.049	0.249
-535.150	-92.950	0.104	-0.029
-534.135	-54.117	0.046	0.021
-533.121	800.000	-0.073	0.245
-532.106	229.422	-0.288	-0.477
-531.091	103.577	-0.047	-0.056
-530.077	85.019	-0.118	0.132
-529.062	800.000	-0.128	-0.364
-528.048	-34.433	-0.223	0.124
-527.033	-180.452	-0.181	0.004
-526.018	144.374	-0.186	-0.252
-525.004	-164.281	-0.163	-0.008
-523.989	-5.910	0.049	0.034
-522.975	800.000	-0.053	0.164
-521.960	143.491	0.101	0.137
-520.945	-200.000	-0.036	0.204
-519.931	-71.678	-0.126	-0.048
-518.916	-200.000	0.025	0.118
-517.902	167.401	0.063	-0.090
-516.887	515.081	0.060	-0.143
-515.872	-125.503	0.257	0.040
-514.858	-65.444	0.218	0.089
-513.843	245.520	0.061	-0.105
-512.829	104.641	0.043	-0.052
-511.814	-200.000	-0.018	-0.174
-510.799	-200.000	0.064	-0.483
-509.785	-200.000	0.010	-0.350
-508.770	-24.069	-0.284	-0.172
-507.756	93.878	-0.117	-0.134
-506.741	-43.391	-0.213	-0.109
-505.726	115.118	0.174	0.216
-504.712	26.420	-0.038	0.032
-503.697	4.377	0.437	-0.324
-502.683	-136.517	0.178	-0.021
-501.668	578.701	0.060	0.149
-500.653	47.495	-0.109	-0.103
-499.639	13.436	-0.183	-0.144
-498.624	18.217	0.147	-0.119
-497.610	42.302	-0.085	-0.079
-496.595	-85.581	0.058	-0.018
-495.581	-74.083	0.108	-0.040
-494.566	100.086	-0.332	0.390
-493.551	-49.420	0.020	-0.010
-492.537	241.756	0.222	0.376
-491.522	141.040	-0.165	-0.222
-490.508	0.402	0.134	0.097
-489.493	-134.775	0.188	-0.023
-488.478	90.557	0.051	0.058
-487.464	-191.767	-0.158	0.002
-486.449	714.482	0.186	0.499
-485.435	-200.000	0.039	0.413
-484.420	-200.000	-0.011	-0.313
-483.405	-103.804	-0.359	-0.085
-482.391	-9.534	0.080	0.054
-481.376	-117.624	0.026	0.005
-480.362	-200.000	-0.013	0.153
-479.347	-23.768	-0.428	-0.260
-478.332	26.394	0.185	0.157
-477.318	85.620	0.142	-0.158
-476.303	517.058	-0.024	-0.056
-475.289	43.341	-0.095	0.088
-474.274	8.595	-0.291	0.222
-473.259	42.367	-0.355	0.326
-472.245	-103.793	-0.250	-0.059
-471.230	-200.000	-0.044	0.353
-470.216	198.413	0.045	0.070
-469.201	-96.990	0.356	-0.094
-468.186	603.504	-0.038	0.095
-467.172	-176.558	-0.311	0.008
-466.157	-200.000	-0.069	0.332
-465.143	50.308	0.107	0.103
-464.128	159.705	0.027	0.038
-463.113	-90.933	0.182	-0.053
-462.099	12.097	-0.584	0.455
-461.084	180.426	0.229	0.340
-460.070	800.000	-0.022	0.088
-459.055	594.981	-0.147	0.368
-458.040	-81.337	-0.204	-0.068
-457.026	199.808	-0.088	0.137
-456.011	90.355	0.222	0.252
-454.997	-200.000	-0.014	0.101
-453.982	-200.000	-0.062	-0.284
-452.968	800.000	0.090	-0.253
-451.953	13.575	0.243	0.191
-450.938	286.941	-0.091	-0.165
-449.924	-158.288	0.194	-0.011
-448.909	729.944	0.096	0.260
-447.895	-23.096	0.418	0.255
-446.880	-169.735	-0.173	0.006
-445.865	145.213	-0.185	-0.251
-444.851	-91.295	0.188	0.054
-443.836	62.966	-0.449	0.455
-442.822	55.138	0.235	-0.230
-441.807	-77.381	-0.327	-0.115
-440.792	-36.176	0.182	-0.099
-439.778	64.012	-0.206	-0.209
-438.763	800.000	0.092	0.317
-437.749	-200.000	-0.042	-0.218
-436.734	-115.502	-0.253	-0.048
-435.719	-125.339	-0.380	-0.059
-434.705	-42.520	0.107	0.055
-433.690	28.728	0.114	0.097
-432.676	54.729	0.154	-0.151
-431.661	-200.000	-0.036	0.309
-430.646	25.240	0.180	-0.151
-429.632	367.771	0.124	0.253
-428.617	-30.327	-0.133	0.076
-427.603	-200.000	-0.003	0.016
-426.588	615.557	-0.025	0.063
-425.573	321.860	-0.209	-0.402
-424.559	800.000	-0.107	0.355
-423.544	-60.256	0.110	0.047
-422.530	204.710	-0.066	-0.104
-421.515	-180.618	0.083	0.002
-420.500	-135.806	0.299	-0.036
-419.486	-200.000	-0.001	-0.029
-418.471	378.607	-0.180	0.372
-417.457	218.981	0.152	0.245
-416.442	-146.038	0.265	0.024
-415.428	800.000	0.129	-0.488
-414.413	800.000	-0.079	-0.234
-413.398	-27.468	0.098	-0.058
-412.384	34.710	0.077	0.068
-411.369	-3.826	0.061	-0.043
-410.355	-130.907	0.245	0.033
-409.340	-188.101	-0.038	-0.000
-408.325	50.395	-0.270	-0.258
-407.311	-162.019	0.261	0.013
-406.296	-200.000	0.018	0.093
-405.282	-79.931	-0.177	-0.060
-404.267	41.439	0.438	0.400
-403.252	-109.764	-0.190	0.040
-402.238	612.329	-0.029	0.073
-401.223	-119.205	0.287	0.051
-400.209	-121.071	0.505	0.085
-399.194	800.000	-0.063	0.181
-398.179	-12.595	0.157	-0.103
-397.165	223.511	-0.181	-0.295
-396.150	-200.000	0.016	0.103
-395.136	-91.072	0.129	-0.037
-394.121	424.777	-0.064	-0.140
-393.106	528.703	0.192	-0.458
-392.092	93.099	-0.209	-0.238
-391.077	-67.913	-0.329	0.130
-390.063	205.794	-0.156	-0.244
-389.048	-114.684	-0.085	-0.016
-388.033	129.568	0.147	0.190
-387.019	62.895	-0.192	0.194
-386.004	-13.696	0.274	-0.179
-384.990	800.000	0.019	-0.075
-383.975	374.585	0.016	-0.033
-382.960	-105.983	0.058	0.013
-381.946	101.840	0.065	0.076
-380.931	-44.578	0.036	0.018
-379.917	-109.717	-0.189	-0.040
-378.902	800.000	0.051	-0.221
-377.888	-47.313	-0.076	-0.037
-376.873	-200.000	-0.008	-0.175
-375.858	-139.724	-0.254	0.027
-374.844	-43.288	-0.071	-0.036
-373.829	32.666	0.218	0.190
-372.815	493.708	0.078	0.179
-371.800	12.889	0.071	0.055
-370.785	-147.474	0.291	0.025
-369.771	-101.461	-0.061	-0.015
-368.756	-113.194	-0.631	0.125
-367.742	88.887	0.281	-0.315
-366.727	353.013	-0.068	0.135
-365.712	-69.075	0.260	0.101
-364.698	-79.562	0.180	-0.061
-363.683	-200.000	-0.013	0.116
-362.669	-121.113	0.053	-0.009
-361.654	-200.000	-0.019	-0.122
-360.639	800.000	-0.082	0.264
-359.625	-200.000	-0.009	0.318
-358.610	323.943	-0.070	0.134
-357.596	-57.936	0.112	0.049
-356.581	26.351	-0.174	0.147
-355.566	-65.502	-0.206	-0.083
-354.552	12.610	0.383	-0.298
-353.537	49.548	-0.140	0.132
-352.523	-97.494	-0.276	-0.072
-351.508	-105.281	0.217	-0.050
-350.493	106.630	0.286	0.342
-349.479	800.000	0.021	0.088
-348.464	34.564	-0.228	-0.201
-347.450	-71.183	0.257	-0.097
-346.435	-200.000	0.060	-0.324
-345.420	800.000	-0.043	-0.163
-344.406	-200.000	-0.030	-0.367
-343.391	-200.000	-0.078	0.360
-342.377	34.645	-0.065	0.057
-341.362	-200.000	0.002	0.311
-340.348	130.867	-0.065	0.084
-339.333	742.693	-0.072	0.196
-338.318	82.989	0.205	0.225
-337.304	7.741	-0.209	-0.158
-336.289	39.009	-0.155	-0.140
-335.275	-63.564	-0.049	-0.020
-334.260	-117.060	0.141	-0.026
-333.245	-200.000	-0.008	0.053
-332.231	-21.806	-0.249	0.153
-331.216	71.366	0.169	-0.176
-330.202	486.390	0.194	-0.446
-329.187	-29.367	-0.270	-0.156
-328.172	212.753	-0.147	-0.234
-327.158	247.684	0.056	-0.095
-326.143	233.444	-0.085	-0.142
-325.129	800.000	0.052	-0.152
-324.114	-142.038	0.397	-0.040
-323.099	-125.833	0.150	0.023
-322.085	-136.352	0.232	0.027
-321.070	65.002	0.280	0.284
-320.056	45.582	-0.155	-0.144
-319.041	-200.000	-0.032	0.172
-318.026	-200.000	0.016	0.166
-317.012	-25.565	0.204	0.121
-315.997	-100.971	-0.351	0.087
-314.983	-200.000	-0.005	0.063
-313.968	157.441	-0.074	0.103
-312.953	96.177	0.237	0.273
-311.939	-151.385	-0.339	-0.025
-310.924	-200.000	-0.034	0.309
-309.910	68.548	0.201	-0.207
-308.895	-10.213	0.064	0.042
-307.880	-109.410	0.379	-0.081
-306.866	-98.040	0.264	-0.069
-305.851	-42.660	-0.388	0.199
-304.837	-88.277	-0.076	0.023
-303.822	-70.340	0.134	0.051
-302.807	800.000	-0.008	0.034
-301.793	-169.685	0.235	0.009
-300.778	-54.194	-0.289	-0.132
-299.764	800.000	0.148	-0.427
-298.749	-150.492	0.238	0.018
-297.735	-90.689	-0.336	0.097
-296.720	160.240	-0.072	-0.101
-295.705	-200.000	0.040	-0.320
-294.691	358.330	0.148	-0.298
-293.676	179.991	0.135	-0.200
-292.662	108.339	0.041	-0.049
-291.647	119.217	-0.208	0.259
-290.632	-111.596	-0.135	-0.028
-289.618	-148.895	-0.154	-0.012
-288.603	800.000	-0.056	-0.209
-287.589	-74.395	0.156	-0.057
-286.574	94.544	0.165	0.188
-285.559	495.418	0.137	0.316
-284.545	407.606	-0.176	0.374
-283.530	-94.912	0.121	0.033
-282.516	-200.000	0.070	-0.369
-281.501	-112.766	0.139	0.028
-280.486	-103.720	-0.247	0.058
-279.472	-95.035	0.203	-0.055
-278.457	780.315	0.104	0.286
-277.443	-168.865	0.276	-0.010
-276.428	800.000	-0.049	0.181
-275.413	-200.000	-0.042	-0.285
-274.399	69.928	0.058	-0.060
-273.384	-200.000	0.005	-0.199
-272.370	-71.311	-0.254	0.096
-271.355	-118.763	-0.193	0.034
-270.340	72.068	0.267	-0.279
-269.326	-60.018	-0.258	0.111
-268.311	-86.046	-0.392	-0.122
-267.297	-200.000	-0.014	0.114
-266.282	17.329	-0.112	0.089
-265.267	-200.000	-0.081	-0.434
-264.253	555.761	0.056	0.136
-263.238	-200.000	-0.045	0.333
-262.224	-95.020	-0.179	-0.049
-261.209	198.602	0.143	-0.219
-260.195	34.297	0.106	-0.093
-259.180	800.000	-0.019	-0.079
-258.165	28.871	-0.085	-0.072
-257.151	-93.538	0.240	-0.067
-256.136	-143.389	0.279	0.027
-255.122	237.313	-0.151	0.252
-254.107	214.722	0.214	0.340
-253.092	21.377	0.255	0.208
-252.078	-200.000	-0.005	-0.254
-251.063	-104.352	0.270	-0.063
-250.049	-45.812	-0.222	0.110
-249.034	-200.000	0.064	0.317
-248.019	-33.196	-0.252	0.140
-247.005	77.120	0.252	-0.269
-245.990	-200.000	-0.001	-0.038
-244.976	-95.378	0.098	-0.026
-243.961	-106.971	0.408	0.091
-242.946	-112.658	0.241	-0.048
-241.932	-100.493	0.167	-0.042
-240.917	800.000	0.049	-0.211
-239.903	-200.000	-0.001	0.241
-238.888	-57.027	0.092	-0.041
-237.873	119.991	-0.233	0.291
-236.859	-123.089	-0.070	0.011
-235.844	800.000	0.086	-0.301
-234.830	-173.907	0.318	0.009
-233.815	-4.157	0.193	0.134
-232.800	-154.609	0.178	-0.012
-231.786	-116.953	-0.244	-0.045
-230.771	334.717	-0.054	0.105
-229.757	800.000	-0.030	-0.099
-228.742	0.066	-0.129	-0.092
-227.727	-21.254	-0.056	-0.035
-226.713	-200.000	-0.006	-0.086
-225.698	515.927	-0.055	-0.128
-224.684	-106.965	-0.205	0.046
-223.669	-81.257	0.339	0.112
-222.655	-126.664	0.182	0.027
-221.640	559.474	0.038	-0.091
-220.625	800.000	0.065	0.258
-219.611	115.845	0.200	0.245
-218.596	800.000	0.034	-0.140
-217.582	-200.000	0.006	-0.135
-216.567	-200.000	-0.022	-0.330
-215.552	-5.134	0.087	0.060
-214.538	438.328	0.083	-0.182
-213.523	13.068	0.153	-0.118
-212.509	-200.000	0.015	0.146
-211.494	-66.278	-0.257	0.102
-210.479	800.000	-0.169	0.487
-209.465	129.752	0.130	0.167
-208.450	-104.945	0.120	0.028
-207.436	-159.462	-0.341	-0.019
-206.421	-129.298	-0.188	0.026
-205.406	800.000	-0.034	-0.120
-204.392	800.000	-0.024	-0.081
-203.377	70.652	-0.080	0.083
-202.363	800.000	-0.026	-0.108
-201.348	372.773	-0.139	-0.282
-200.333	451.186	-0.080	0.176
-199.319	-154.626	-0.164	0.011
-198.304	-181.928	0.609	-0.012
-197.290	228.150	-0.166	-0.271
-196.275	140.452	0.128	-0.170
-195.260	-166.088	-0.311	-0.013
-194.246	800.000	0.086	0.244
-193.231	-166.934	-0.269	0.011
-192.217	-3.639	-0.098	-0.068
-191.202	-200.000	0.009	0.288
-190.187	-200.000	0.036	0.343
-189.173	101.581	0.185	-0.215
-188.158	800.000	0.086	0.283
-187.144	230.121	-0.158	-0.259
-186.129	800.000	0.029	-0.118
-185.114	104.055	0.182	0.214
-184.100	55.411	0.170	-0.165
-183.085	-47.010	-0.100	-0.049
-182.071	-55.211	-0.237	-0.107
-181.056	139.498	0.063	-0.082
-180.042	600.027	-0.148	0.367
-179.027	800.000	0.029	0.089
-178.012	-200.000	-0.020	0.189
-176.998	102.810	0.127	-0.149
-175.983	-88.714	-0.530	-0.158
-174.969	-200.000	-0.004	-0.202
-173.954	226.230	-0.125	0.204
-172.939	-81.048	0.265	0.088
-171.925	-200.000	-0.008	0.304
-170.910	50.485	0.085	-0.081
-169.896	546.510	-0.140	0.335
-168.881	153.446	0.089	0.122
-167.866	4.341	0.188	0.138
-166.852	-16.901	0.108	0.068
-165.837	-58.166	0.129	-0.056
-164.823	-75.214	0.049	0.017
-163.808	-200.000	-0.031	-0.160
-162.793	-74.621	0.268	0.097
-161.779	800.000	-0.050	-0.214
-160.764	527.829	-0.067	0.157
-159.750	41.563	0.208	0.189
-158.735	800.000	-0.039	-0.119
-157.720	-130.514	0.216	-0.029
-156.706	-20.476	0.119	0.073
-155.691	17.623	-0.196	-0.156
-154.677	196.389	-0.076	-0.115
-153.662	272.161	-0.143	-0.252
-152.647	-136.454	-0.367	-0.043
-151.633	187.153	-0.088	0.132
-150.618	656.399	0.074	-0.190
-149.604	-86.250	-0.263	0.081
-148.589	-200.000	-0.015	-0.100
-147.574	198.013	0.144	0.221
-146.560	22.934	-0.140	0.115
-145.545	-200.000	-0.008	0.196
-144.531	15.175	-0.060	-0.047
-143.516	119.941	-0.162	0.201
-142.502	-200.000	0.001	-0.071
-141.487	42.895	-0.203	0.185
-140.472	32.104	-0.126	-0.109
-139.458	-200.000	0.046	0.223
-138.443	156.229	0.165	0.227
-137.429	37.537	0.063	0.056
-136.414	-200.000	0.017	0.186
-135.399	-63.951	-0.256	-0.105
-134.385	-128.576	0.223	-0.032
-133.370	-200.000	-0.032	-0.487
-132.356	-161.571	0.264	-0.014
-131.341	-54.097	-0.165	0.075
-130.326	800.000	0.089	-0.264
-129.312	800.000	-0.046	0.143
-128.297	88.688	0.162	-0.180
-127.283	-38.322	0.107	0.057
-126.268	174.749	0.127	0.183
-125.253	800.000	-0.108	0.338
-124.239	29.030	-0.361	0.306
-123.224	-200.000	-0.009	0.211
-122.210	272.551	-0.105	0.185
