DTS Sentinel unit serial number:	SN413079Multiplexer serial number:	ORYXHardware model number:	OX4-SRSoftware version number:	ORYX F/W v4.00 Oryx Data Collector v3.7.2.0data status	okinstallation	princeton_trtdifferential loss correction	single-endedforward channel	channel 2reverse channel	N/Adate	2019/09/12time	08:33:11forward acquisition time	60.00reverse acquisition time	0.00gamma	496.2192k internal	0.2317k external	0.2317temperature offset calibration	1.0063default loss term (dB/km)	0.3790temperature slope calibration	1.0000multiplexer offset coefficient	1.0000multiplexer slope coefficient	1.0000fibre end	0.00T internal ref (°C)	33.69T ext. ref 1 (°C)	1.73T ext. ref 2 (°C)	30.00length (m)	temperature (°C)	Stokes	anti-Stokes-747.200	-80.838	0.332	0.112
-746.185	-200.000	0.056	0.314
-745.171	31.002	0.066	0.057
-744.156	454.285	-0.137	0.307
-743.142	85.375	-0.145	0.161
-742.127	215.954	-0.155	0.249
-741.112	-59.094	-0.151	0.066
-740.098	113.234	-0.196	0.240
-739.083	257.811	0.093	0.162
-738.069	800.000	-0.106	0.319
-737.054	-38.348	-0.195	-0.104
-736.039	25.272	-0.173	0.146
-735.025	316.657	0.055	-0.105
-734.010	514.041	-0.082	0.194
-732.996	-200.000	0.008	-0.192
-731.981	74.674	-0.158	-0.168
-730.966	484.375	-0.107	0.246
-729.952	-142.580	-0.326	-0.032
-728.937	-4.215	-0.200	-0.140
-727.923	538.017	-0.067	0.161
-726.908	-136.088	-0.205	-0.024
-725.894	-101.345	-0.087	-0.021
-724.879	-104.560	0.313	-0.073
-723.864	1.917	-0.210	-0.153
-722.850	-133.160	-0.206	-0.026
-721.835	800.000	0.049	-0.156
-720.821	-200.000	0.027	-0.379
-719.806	800.000	-0.082	0.356
-718.791	800.000	0.130	0.404
-717.777	196.000	-0.057	-0.088
-716.762	-56.833	0.492	-0.220
-715.748	74.153	0.176	-0.187
-714.733	-200.000	-0.018	-0.200
-713.718	-200.000	0.020	-0.143
-712.704	58.742	-0.058	-0.058
-711.689	85.325	-0.117	-0.130
-710.675	-72.154	-0.074	-0.028
-709.660	-91.452	-0.212	0.061
-708.645	552.222	0.122	-0.296
-707.631	-19.772	-0.178	-0.112
-706.616	-52.147	0.079	0.037
-705.602	104.169	-0.156	0.186
-704.587	-13.289	-0.148	0.097
-703.572	-18.439	-0.110	-0.069
-702.558	-175.294	0.174	-0.005
-701.543	-200.000	-0.058	0.479
-700.529	9.025	0.180	-0.137
-699.514	56.355	0.213	0.209
-698.499	-109.213	-0.230	-0.049
-697.485	113.512	-0.120	-0.147
-696.470	-200.000	-0.015	-0.288
-695.456	11.606	-0.272	0.211
-694.441	-8.330	0.415	0.282
-693.426	732.558	-0.142	-0.383
-692.412	-79.333	0.238	-0.082
-691.397	-200.000	0.006	-0.191
-690.383	-39.544	0.260	0.138
-689.368	67.288	-0.154	-0.159
-688.354	-156.490	-0.201	0.013
-687.339	-93.885	-0.291	0.081
-686.324	-63.050	-0.277	-0.116
-685.310	-56.818	-0.429	-0.191
-684.295	-122.169	-0.182	-0.030
-683.281	119.808	0.113	-0.141
-682.266	-116.004	0.319	-0.060
-681.251	19.456	0.060	-0.049
-680.237	-24.612	0.258	0.155
-679.222	179.391	-0.036	0.053
-678.208	-200.000	-0.047	0.402
-677.193	568.612	-0.065	-0.159
-676.178	-69.503	-0.073	-0.028
-675.164	190.538	-0.078	-0.118
-674.149	-98.704	0.179	-0.046
-673.135	800.000	-0.048	-0.183
-672.120	800.000	0.064	0.205
-671.105	-82.120	0.158	-0.052
-670.091	282.131	0.203	-0.368
-669.076	-124.773	-0.183	0.029
-668.062	-200.000	0.057	-0.534
-667.047	-156.848	-0.232	-0.014
-666.032	-104.834	0.124	0.029
-665.018	57.916	-0.089	-0.088
-664.003	129.322	0.010	-0.013
-662.989	-80.965	-0.356	-0.119
-661.974	773.298	0.060	-0.165
-660.959	-200.000	0.027	-0.231
-659.945	195.954	-0.162	0.249
-658.930	364.394	-0.211	0.428
-657.916	-200.000	-0.015	0.106
-656.901	18.354	0.060	0.048
-655.886	-16.996	-0.244	0.156
-654.872	182.202	-0.099	-0.147
-653.857	-64.765	-0.219	0.089
-652.843	390.163	-0.067	0.140
-651.828	470.136	0.130	-0.294
-650.814	-200.000	0.032	-0.375
-649.799	351.342	-0.121	-0.242
-648.784	800.000	-0.069	-0.194
-647.770	344.496	-0.104	-0.206
-646.755	50.390	0.173	0.165
-645.741	114.552	-0.138	-0.170
-644.726	-53.565	0.242	-0.112
-643.711	243.296	0.179	-0.302
-642.697	-36.932	0.141	0.076
-641.682	-200.000	-0.013	-0.367
-640.668	57.139	0.105	-0.103
-639.653	-200.000	0.028	-0.248
-638.638	-17.266	-0.307	-0.195
-637.624	-200.000	-0.024	0.142
-636.609	77.772	-0.154	-0.165
-635.595	279.879	0.047	-0.084
-634.580	80.654	-0.228	0.248
-633.565	487.840	-0.058	-0.133
-632.551	400.547	0.053	0.112
-631.536	356.957	-0.093	0.186
-630.522	-37.987	-0.338	0.181
-629.507	-27.190	0.155	-0.091
-628.492	-92.003	-0.212	0.061
-627.478	-200.000	0.007	0.068
-626.463	618.096	0.131	-0.332
-625.449	386.127	-0.107	0.223
-624.434	119.356	-0.101	0.126
-623.419	800.000	-0.038	0.114
-622.405	800.000	0.093	0.327
-621.390	21.930	-0.131	-0.107
-620.376	-127.296	0.290	-0.043
-619.361	-13.253	-0.065	-0.043
-618.346	800.000	0.017	0.059
-617.332	340.399	-0.199	-0.392
-616.317	-110.140	0.179	-0.038
-615.303	627.912	0.018	0.047
-614.288	136.804	0.129	0.169
-613.273	111.127	-0.051	-0.062
-612.259	-23.348	0.219	-0.133
-611.244	-200.000	-0.016	0.123
-610.230	-200.000	-0.003	0.043
-609.215	58.827	0.375	-0.371
-608.201	240.587	-0.141	-0.237
-607.186	-200.000	-0.010	0.044
-606.171	-132.217	-0.371	-0.048
-605.157	-200.000	-0.049	-0.308
-604.142	-200.000	-0.032	-0.205
-603.128	148.549	0.240	-0.327
-602.113	-200.000	-0.014	-0.101
-601.098	-59.189	-0.141	-0.061
-600.084	554.335	0.108	0.261
-599.069	556.103	0.093	-0.226
-598.055	218.960	0.073	-0.117
-597.040	7.119	-0.224	-0.168
-596.025	581.931	-0.018	-0.044
-595.011	-200.000	-0.037	0.272
-593.996	-73.284	-0.166	-0.061
-592.982	38.447	-0.230	0.206
-591.967	-200.000	-0.007	-0.289
-590.952	-62.296	0.188	-0.079
-589.938	637.933	-0.060	-0.153
-588.923	-200.000	-0.087	0.471
-587.909	160.010	0.066	-0.093
-586.894	-200.000	0.024	0.128
-585.879	-35.250	0.403	0.221
-584.865	11.605	-0.076	0.059
-583.850	-61.052	-0.298	-0.127
-582.836	-200.000	-0.022	0.180
-581.821	-33.701	-0.280	0.155
-580.806	150.268	0.082	-0.113
-579.792	157.223	0.144	-0.200
-578.777	800.000	-0.054	-0.199
-577.763	-4.672	-0.211	-0.147
-576.748	-112.139	-0.323	0.065
-575.733	-78.908	0.374	-0.128
-574.719	-200.000	-0.035	0.313
-573.704	296.749	-0.171	0.316
-572.690	-200.000	0.018	-0.142
-571.675	-156.444	-0.345	-0.022
-570.661	800.000	-0.066	0.242
-569.646	-200.000	0.060	-0.317
-568.631	406.193	0.157	0.333
-567.617	800.000	0.071	-0.207
-566.602	-27.480	-0.170	0.099
-565.588	-68.355	-0.059	-0.023
-564.573	-15.814	-0.065	0.042
-563.558	-38.796	0.221	0.117
-562.544	71.069	0.181	-0.188
-561.529	786.950	-0.110	0.304
-560.515	-200.000	0.009	-0.091
-559.500	-44.313	-0.280	-0.141
-558.485	338.999	-0.101	-0.198
-557.471	60.131	0.154	-0.153
-556.456	-2.435	-0.151	-0.106
-555.442	-26.204	-0.206	0.122
-554.427	-13.304	-0.207	-0.135
-553.412	11.656	0.487	0.375
-552.398	-161.546	0.212	-0.011
-551.383	473.194	0.057	0.129
-550.369	800.000	-0.051	-0.148
-549.354	305.289	0.085	0.159
-548.339	-109.107	-0.266	0.057
-547.325	-46.078	-0.338	0.167
-546.310	-127.520	-0.064	0.009
-545.296	-72.279	-0.294	0.109
-544.281	-1.016	0.112	0.080
-543.266	330.677	0.069	-0.134
-542.252	43.700	0.157	0.144
-541.237	-133.290	0.223	0.028
-540.223	-79.405	0.233	-0.079
-539.208	669.641	-0.011	-0.028
-538.193	-153.939	-0.307	-0.021
-537.179	-200.000	-0.012	0.095
-536.164	-200.000	0.033	0.203
-535.150	54.092	-0.066	-0.064
-534.135	800.000	0.036	-0.135
-533.121	-68.709	0.135	0.053
-532.106	-86.503	0.209	-0.064
-531.091	106.552	0.170	0.202
-530.077	152.086	0.185	0.254
-529.062	-106.803	0.172	0.038
-528.048	91.733	0.124	0.140
-527.033	355.075	-0.066	-0.132
-526.018	14.974	-0.108	-0.085
-525.004	0.707	0.148	0.106
-523.989	-85.168	-0.326	-0.102
-522.975	39.012	0.082	-0.073
-521.960	-127.810	-0.122	-0.018
-520.945	-200.000	-0.002	-0.048
-519.931	119.698	-0.073	0.090
-518.916	263.683	0.015	-0.027
-517.902	-131.873	-0.443	0.058
-516.887	-72.642	0.130	0.048
-515.872	152.541	0.109	-0.149
-514.858	90.331	-0.161	-0.180
-513.843	-200.000	-0.034	-0.269
-512.829	247.093	0.082	0.140
-511.814	332.062	-0.097	-0.188
-510.799	-113.717	0.029	0.006
-509.785	1.952	0.271	-0.196
-508.770	142.278	-0.042	0.056
-507.756	800.000	-0.073	0.280
-506.741	655.170	0.065	0.167
-505.726	800.000	0.136	0.506
-504.712	-58.807	-0.077	-0.033
-503.697	-200.000	-0.007	-0.494
-502.683	50.143	0.150	-0.142
-501.668	59.152	0.130	0.128
-500.653	53.532	-0.149	-0.144
-499.639	49.133	-0.209	-0.197
-498.624	-200.000	-0.018	0.266
-497.610	-137.663	-0.455	0.051
-496.595	14.706	0.228	-0.179
-495.581	-39.154	0.038	0.020
-494.566	-29.103	0.111	-0.064
-493.551	107.836	-0.212	0.253
-492.537	253.941	-0.180	0.309
-491.522	-25.971	-0.163	0.096
-490.508	800.000	-0.128	-0.373
-489.493	-144.601	0.462	0.043
-488.478	171.931	-0.056	-0.080
-487.464	238.511	0.103	0.172
-486.449	-63.476	0.145	-0.060
-485.435	430.142	0.157	0.340
-484.420	472.753	0.194	0.438
-483.405	352.512	-0.068	0.136
-482.391	-200.000	0.029	-0.298
-481.376	104.988	-0.172	0.203
-480.362	-51.931	-0.210	-0.098
-479.347	800.000	0.071	0.267
-478.332	-200.000	-0.031	0.477
-477.318	-138.993	0.388	0.042
-476.303	-200.000	0.033	0.161
-475.289	165.552	0.070	0.100
-474.274	253.489	0.243	-0.416
-473.259	251.738	0.140	0.239
-472.245	174.872	0.126	-0.183
-471.230	-43.010	0.202	0.103
-470.216	23.329	-0.118	0.097
-469.201	800.000	-0.099	0.407
-468.186	-51.158	0.167	-0.078
-467.172	463.649	0.123	-0.276
-466.157	-200.000	0.005	-0.046
-465.143	101.976	0.286	-0.335
-464.128	20.928	-0.166	-0.135
-463.113	-120.367	-0.394	0.067
-462.099	124.330	-0.055	-0.070
-461.084	-81.104	0.127	-0.042
-460.070	-200.000	0.003	0.112
-459.055	-200.000	-0.018	-0.088
-458.040	-200.000	-0.025	-0.224
-457.026	-73.399	0.194	-0.071
-456.011	-200.000	0.032	-0.302
-454.997	178.553	0.069	0.101
-453.982	55.297	0.180	-0.174
-452.968	119.677	-0.095	-0.118
-451.953	76.699	0.164	0.175
-450.938	-71.604	-0.151	0.056
-449.924	-200.000	-0.000	0.295
-448.909	800.000	0.028	-0.085
-447.895	160.229	-0.160	0.223
-446.880	-200.000	0.002	-0.030
-445.865	-77.654	-0.146	-0.051
-444.851	273.590	0.105	0.185
-443.836	-28.299	-0.123	-0.071
-442.822	-128.258	0.145	-0.021
-441.807	233.112	-0.138	-0.226
-440.792	14.572	0.119	-0.093
-439.778	255.283	0.172	-0.295
-438.763	9.064	-0.309	0.233
-437.749	-10.839	-0.094	-0.062
-436.734	489.319	0.089	-0.203
-435.719	142.167	0.114	-0.152
-434.705	800.000	0.114	-0.393
-433.690	-19.538	-0.279	-0.173
-432.676	98.161	-0.215	0.248
-431.661	800.000	0.107	0.397
-430.646	174.375	0.048	0.070
-429.632	-40.765	-0.309	-0.160
-428.617	198.244	-0.073	0.112
-427.603	162.619	-0.126	0.176
-426.588	-62.964	-0.078	-0.032
-425.573	24.324	0.194	0.160
-424.559	15.303	-0.121	-0.095
-423.544	-200.000	0.018	0.199
-422.530	-154.320	0.289	0.019
-421.515	-154.424	-0.281	-0.019
-420.500	294.229	0.191	-0.349
-419.486	514.764	-0.044	-0.103
-418.471	-18.458	-0.191	-0.119
-417.457	231.499	0.233	0.382
-416.442	-63.461	-0.198	0.081
-415.428	-117.553	-0.043	-0.008
-414.413	-200.000	0.006	0.059
-413.398	-145.041	-0.447	0.041
-412.384	-200.000	-0.011	-0.102
-411.369	-50.776	0.252	0.118
-410.355	-200.000	0.027	-0.269
-409.340	800.000	-0.086	0.306
-408.325	149.475	0.073	0.099
-407.311	205.110	0.075	-0.117
-406.296	-66.456	0.232	-0.092
-405.282	153.897	-0.119	0.163
-404.267	-40.465	-0.222	0.115
-403.252	-200.000	-0.003	-0.059
-402.238	-200.000	0.043	0.271
-401.223	-101.236	0.097	0.024
-400.209	-200.000	0.037	0.212
-399.194	172.581	-0.170	0.245
-398.179	604.821	0.177	0.440
-397.165	-119.260	0.046	0.008
-396.150	800.000	0.050	0.150
-395.136	12.458	0.108	0.083
-394.121	800.000	0.095	-0.269
-393.106	-106.929	0.193	0.043
-392.092	-45.412	-0.120	-0.059
-391.077	-95.777	-0.309	0.082
-390.063	84.104	-0.124	0.136
-389.048	-59.121	0.069	0.030
-388.033	92.079	0.226	0.255
-387.019	255.087	0.023	0.039
-386.004	-66.331	-0.123	-0.049
-384.990	-57.386	-0.368	-0.161
-383.975	58.680	0.169	0.166
-382.960	-41.652	-0.174	0.089
-381.946	35.716	-0.152	-0.133
-380.931	800.000	0.074	-0.213
-379.917	-124.635	0.128	-0.020
-378.902	-36.989	0.310	0.166
-377.888	-200.000	-0.001	0.067
-376.873	510.696	0.097	-0.225
-375.858	-200.000	0.028	-0.143
-374.844	-1.290	-0.268	0.189
-373.829	-39.842	-0.198	0.103
-372.815	-1.207	-0.262	0.184
-371.800	-171.915	0.245	-0.008
-370.785	-92.920	0.251	-0.070
-369.771	570.362	0.134	0.326
-368.756	-156.265	-0.064	0.004
-367.742	800.000	0.169	-0.483
-366.727	226.507	-0.035	-0.056
-365.712	-167.528	-0.420	-0.017
-364.698	1.666	0.236	0.170
-363.683	800.000	-0.061	-0.200
-362.669	47.484	-0.087	0.081
-361.654	-127.742	-0.276	0.040
-360.639	163.377	-0.094	0.131
-359.625	-104.967	-0.167	-0.038
-358.610	180.047	-0.075	0.110
-357.596	-200.000	0.019	-0.093
-356.581	223.111	-0.113	0.182
-355.566	-29.313	0.211	0.121
-354.552	-76.537	0.193	0.067
-353.537	-147.476	-0.062	0.005
-352.523	-76.959	-0.065	-0.023
-351.508	-200.000	-0.005	-0.196
-350.493	-91.344	-0.160	-0.046
-349.479	-167.856	-0.407	-0.016
-348.464	-114.938	0.298	0.057
-347.450	-181.938	0.190	0.004
-346.435	529.540	0.064	0.152
-345.420	28.844	0.170	0.144
-344.406	181.663	0.241	-0.353
-343.391	-118.820	-0.180	0.031
-342.377	-154.221	0.110	-0.007
-341.362	-88.348	0.139	-0.041
-340.348	31.313	0.161	-0.138
-339.333	800.000	-0.079	0.243
-338.318	-78.737	0.052	-0.018
-337.304	502.502	0.136	0.314
-336.289	35.689	0.188	-0.164
-335.275	-75.800	0.078	0.027
-334.260	102.768	-0.137	0.160
-333.245	-200.000	0.056	0.275
-332.231	-176.032	-0.157	-0.004
-331.216	-200.000	-0.016	0.182
-330.202	-200.000	0.000	-0.170
-329.187	239.344	0.082	-0.135
-328.172	-200.000	-0.026	0.228
-327.158	-200.000	-0.019	-0.293
-326.143	87.950	-0.331	0.366
-325.129	37.658	-0.295	0.261
-324.114	114.433	0.142	0.172
-323.099	-152.227	0.304	-0.022
-322.085	3.814	-0.190	0.138
-321.070	-140.311	-0.285	0.030
-320.056	473.339	0.042	-0.095
-319.041	342.045	0.076	0.148
-318.026	-188.238	0.060	0.001
-317.012	35.389	0.205	-0.179
-315.997	-107.014	0.005	0.001
-314.983	25.099	0.172	-0.142
-313.968	73.872	-0.223	0.232
-312.953	340.694	0.170	0.331
-311.939	-86.495	0.178	-0.054
-310.924	-76.760	-0.175	-0.061
-309.910	57.584	-0.159	-0.155
-308.895	126.744	-0.089	0.112
-307.880	18.196	0.046	-0.036
-306.866	800.000	-0.069	0.204
-305.851	-29.882	0.162	-0.092
-304.837	377.752	0.062	-0.126
-303.822	-95.813	-0.469	-0.125
-302.807	-125.255	-0.050	0.008
-301.793	-76.326	0.337	-0.118
-300.778	-42.158	0.153	0.078
-299.764	32.777	0.102	-0.088
-298.749	800.000	0.065	0.232
-297.735	-94.097	0.463	-0.126
-296.720	-145.052	0.211	-0.019
-295.705	800.000	-0.037	-0.126
-294.691	-200.000	-0.022	0.285
-293.676	597.705	0.169	-0.417
-292.662	38.465	0.118	0.105
-291.647	-177.318	-0.325	-0.008
-290.632	-94.347	0.191	0.052
-289.618	-142.687	0.059	-0.006
-288.603	800.000	0.036	-0.148
-287.589	88.745	-0.256	-0.283
-286.574	186.631	-0.170	0.251
-285.559	2.938	0.109	0.078
-284.545	396.478	0.109	0.225
-283.530	282.235	0.053	-0.094
-282.516	70.274	0.093	-0.096
-281.501	499.009	-0.132	-0.302
-280.486	237.412	-0.134	-0.221
-279.472	3.692	0.102	0.074
-278.457	117.384	-0.067	0.082
-277.443	-135.248	-0.088	0.011
-276.428	-67.129	0.175	0.068
-275.413	71.096	-0.219	0.226
-274.399	800.000	0.068	0.206
-273.384	800.000	0.066	0.208
-272.370	-53.937	-0.089	-0.040
-271.355	189.926	-0.127	-0.189
-270.340	-200.000	0.020	0.190
-269.326	-101.392	-0.241	-0.058
-268.311	170.513	-0.262	-0.372
-267.297	589.883	0.052	0.128
-266.282	-18.195	0.200	0.125
-265.267	-26.804	0.414	0.241
-264.253	-82.394	0.155	-0.050
-263.238	-8.338	-0.444	0.297
-262.224	74.779	-0.014	-0.015
-261.209	146.539	0.048	-0.064
-260.195	-44.748	-0.153	-0.076
-259.180	-31.476	-0.189	0.105
-258.165	-200.000	0.026	-0.118
-257.151	-200.000	-0.072	-0.325
-256.136	40.119	0.299	0.267
-255.122	-200.000	0.000	0.146
-254.107	-200.000	0.034	0.220
-253.092	607.101	0.063	0.157
-252.078	14.439	0.244	-0.189
-251.063	-20.660	0.357	-0.217
-250.049	-200.000	-0.039	-0.300
-249.034	-87.381	0.130	-0.039
-248.019	-200.000	0.018	-0.132
-247.005	311.575	0.087	0.163
-245.990	-37.292	0.285	-0.151
-244.976	-151.047	-0.512	0.038
-243.961	-8.216	-0.158	-0.106
-242.946	-118.830	0.269	0.047
-241.932	349.997	-0.080	-0.158
-240.917	-22.918	0.165	-0.099
-239.903	-147.311	-0.212	0.018
-238.888	39.971	-0.282	0.251
-237.873	137.897	-0.044	-0.057
-236.859	617.226	0.120	0.299
-235.844	195.136	0.133	0.200
-234.830	-200.000	0.018	0.184
-233.815	-200.000	0.004	0.043
-232.800	217.924	-0.096	-0.152
-231.786	543.485	-0.129	-0.306
-230.771	-143.132	0.353	-0.034
-229.757	-35.688	-0.340	0.183
-228.742	-200.000	0.018	-0.108
-227.727	-96.132	0.109	0.029
-226.713	22.738	-0.139	-0.113
-225.698	-40.885	0.256	-0.132
-224.684	-200.000	0.414	0.002
-223.669	-12.157	0.120	-0.078
-222.655	59.375	0.343	0.335
-221.640	18.698	0.199	0.158
-220.625	-99.795	-0.162	-0.040
-219.611	52.714	0.345	0.327
-218.596	-111.029	-0.200	0.041
-217.582	-200.000	-0.002	-0.422
-216.567	13.474	-0.136	-0.105
-215.552	623.854	-0.103	0.258
-214.538	136.622	0.136	0.176
-213.523	795.321	0.089	-0.244
-212.509	16.934	0.065	-0.051
-211.494	168.332	0.223	-0.315
-210.479	-200.000	-0.007	0.047
-209.465	551.687	0.015	0.035
-208.450	-108.286	0.147	-0.031
-207.436	78.359	-0.076	0.080
-206.421	-64.616	-0.153	-0.061
-205.406	-200.000	0.004	0.233
-204.392	5.046	0.266	0.194
-203.377	122.656	-0.122	0.151
-202.363	717.197	0.029	-0.076
-201.348	626.406	-0.115	-0.286
-200.333	-200.000	0.015	0.104
-199.319	10.028	0.283	0.213
-198.304	-88.285	-0.192	0.057
-197.290	-200.000	0.058	0.280
-196.275	-19.536	-0.286	0.176
-195.260	-62.109	-0.240	0.099
-194.246	-69.369	-0.150	-0.057
-193.231	117.750	-0.128	-0.157
-192.217	-80.806	-0.272	0.090
-191.202	-2.211	-0.182	-0.127
-190.187	66.108	0.062	-0.062
-189.173	-66.350	-0.107	0.042
-188.158	-57.413	0.089	-0.039
-187.144	781.037	-0.066	-0.179
-186.129	48.235	-0.097	0.090
-185.114	-200.000	0.009	-0.150
-184.100	218.092	0.107	-0.169
-183.085	800.000	-0.056	-0.162
-182.071	-200.000	0.005	-0.194
-181.056	-65.378	0.374	-0.149
-180.042	114.904	0.145	-0.175
-179.027	-109.496	0.016	0.003
-178.012	634.369	0.042	-0.106
-176.998	-58.218	-0.261	-0.112
-175.983	127.264	-0.184	-0.232
-174.969	12.894	-0.166	-0.127
-173.954	-70.562	0.070	-0.026
-172.939	-101.667	-0.247	-0.059
-171.925	-132.394	0.234	0.030
-170.910	-9.359	0.056	-0.037
-169.896	-10.580	0.181	-0.119
-168.881	-200.000	-0.028	0.132
-167.866	-42.578	0.130	-0.065
-166.852	-200.000	0.055	-0.327
-165.837	-200.000	-0.001	0.117
-164.823	503.750	-0.150	0.342
-163.808	242.938	-0.142	-0.235
-162.793	156.456	0.168	0.230
-161.779	296.405	0.107	-0.195
-160.764	800.000	0.108	-0.407
-159.750	-69.299	0.206	-0.078
-158.735	-33.524	-0.390	-0.213
-157.720	-135.643	-0.151	-0.018
-156.706	43.107	-0.045	-0.041
-155.691	800.000	-0.068	0.209
-154.677	97.117	-0.106	-0.120
-153.662	800.000	0.069	-0.253
-152.647	-135.902	0.166	-0.019
-151.633	175.525	-0.153	-0.219
-150.618	-131.755	-0.293	-0.038
-149.604	-18.945	0.206	0.127
-148.589	69.871	-0.033	-0.033
-147.574	223.045	-0.163	0.261
-146.560	-63.717	-0.067	0.027
-145.545	-200.000	0.032	-0.184
-144.531	-33.396	0.313	0.171
-143.516	-200.000	-0.008	-0.157
-142.502	46.288	-0.200	0.184
-141.487	-200.000	0.037	-0.202
-140.472	62.603	0.068	0.067
-139.458	543.778	0.127	-0.299
-138.443	137.107	0.111	-0.143
-137.429	800.000	-0.087	0.265
-136.414	452.526	-0.080	0.174
-135.399	800.000	-0.019	-0.056
-134.385	-133.896	0.116	0.014
-133.370	-0.383	0.238	-0.167
-132.356	214.146	-0.051	-0.080
-131.341	-135.265	-0.278	-0.033
-130.326	14.880	-0.119	-0.092
-129.312	-131.204	-0.077	-0.010
-128.297	-83.061	0.193	0.061
-127.283	800.000	-0.038	0.132
-126.268	453.553	0.175	-0.383
-125.253	-167.955	0.122	-0.005
-124.239	-137.129	0.073	0.008
-123.224	588.956	0.069	-0.167
-122.210	-60.521	-0.208	-0.087
-121.195	-41.640	0.279	0.141
