DTS Sentinel unit serial number:	SN413079Multiplexer serial number:	ORYXHardware model number:	OX4-SRSoftware version number:	ORYX F/W v4.00 Oryx Data Collector v3.7.2.0data status	okinstallation	princeton_trtdifferential loss correction	single-endedforward channel	channel 2reverse channel	N/Adate	2019/09/16time	18:27:35forward acquisition time	60.00reverse acquisition time	0.00gamma	496.2192k internal	0.2321k external	0.2321temperature offset calibration	0.9950default loss term (dB/km)	0.3790temperature slope calibration	1.0000multiplexer offset coefficient	1.0000multiplexer slope coefficient	1.0000fibre end	0.00T internal ref (°C)	36.72T ext. ref 1 (°C)	15.81T ext. ref 2 (°C)	30.20length (m)	temperature (°C)	Stokes	anti-Stokes-747.200	800.000	0.031	0.125
-746.185	-200.000	-0.031	0.518
-745.171	591.337	-0.061	0.152
-744.156	800.000	0.069	0.244
-743.142	143.508	0.094	0.127
-742.127	-200.000	0.036	-0.208
-741.112	136.831	-0.183	0.241
-740.098	-114.567	-0.207	0.040
-739.083	2.639	-0.031	-0.023
-738.069	-200.000	0.000	-0.089
-737.054	-200.000	0.064	0.299
-736.039	186.669	-0.220	-0.331
-735.025	-200.000	-0.032	0.199
-734.010	103.347	-0.328	0.389
-732.996	-152.251	-0.272	-0.020
-731.981	-67.380	-0.147	0.058
-730.966	72.144	0.219	-0.230
-729.952	-40.119	-0.324	-0.171
-728.937	-122.376	-0.108	-0.018
-727.923	116.754	0.209	-0.259
-726.908	-159.434	-0.134	0.008
-725.894	-55.055	-0.229	0.104
-724.879	117.043	-0.098	0.121
-723.864	78.066	-0.023	-0.025
-722.850	-200.000	-0.021	0.219
-721.835	-48.176	-0.451	-0.220
-720.821	-200.000	0.034	-0.188
-719.806	199.240	-0.087	0.135
-718.791	800.000	-0.039	-0.135
-717.777	213.862	-0.164	-0.261
-716.762	-121.625	-0.154	0.026
-715.748	231.628	0.068	0.112
-714.733	-87.413	0.347	0.106
-713.718	800.000	-0.073	-0.287
-712.704	-129.478	-0.464	0.065
-711.689	-200.000	-0.022	0.178
-710.675	-200.000	0.012	-0.228
-709.660	203.723	0.098	-0.154
-708.645	-34.575	0.365	-0.201
-707.631	-122.053	0.355	-0.059
-706.616	-200.000	0.069	-0.436
-705.602	118.832	-0.286	0.357
-704.587	0.113	0.099	-0.071
-703.572	776.998	-0.097	0.268
-702.558	-20.490	0.328	0.204
-701.543	-200.000	0.030	0.209
-700.529	1.571	-0.251	0.182
-699.514	20.720	0.180	-0.147
-698.499	-3.470	-0.163	-0.114
-697.485	-151.541	-0.197	-0.015
-696.470	7.516	-0.222	-0.167
-695.456	-114.688	0.472	-0.091
-694.441	-200.000	-0.030	0.198
-693.426	-200.000	-0.044	0.240
-692.412	-200.000	-0.076	-0.425
-691.397	800.000	-0.092	-0.350
-690.383	-200.000	0.012	0.302
-689.368	59.612	0.117	0.117
-688.354	-58.139	0.174	0.076
-687.339	-200.000	0.116	0.543
-686.324	203.681	0.135	0.210
-685.310	-200.000	-0.021	-0.157
-684.295	52.008	-0.142	-0.136
-683.281	-200.000	0.069	0.314
-682.266	-200.000	0.028	-0.220
-681.251	-200.000	-0.005	-0.147
-680.237	800.000	-0.050	-0.196
-679.222	-200.000	0.009	-0.197
-678.208	135.393	-0.091	0.120
-677.193	341.234	0.052	0.103
-676.178	184.589	-0.123	-0.184
-675.164	-200.000	0.027	0.127
-674.149	-65.889	-0.229	0.092
-673.135	-145.269	-0.100	-0.009
-672.120	283.389	0.130	-0.235
-671.105	-22.416	0.349	0.213
-670.091	-106.526	-0.251	0.056
-669.076	-96.502	-0.267	0.071
-668.062	-11.079	0.019	-0.013
-667.047	800.000	-0.068	0.241
-666.032	-200.000	-0.017	0.101
-665.018	800.000	-0.007	-0.020
-664.003	-48.234	0.233	0.113
-662.989	145.706	-0.168	-0.226
-661.974	251.611	0.125	0.214
-660.959	54.434	0.067	-0.065
-659.945	71.597	-0.030	-0.031
-658.930	800.000	-0.051	-0.154
-657.916	69.228	0.232	0.240
-656.901	30.433	-0.298	-0.256
-655.886	-47.225	0.238	-0.117
-654.872	515.443	0.117	0.275
-653.857	80.389	0.191	-0.207
-652.843	30.438	0.109	-0.094
-651.828	89.276	-0.131	-0.147
-650.814	800.000	0.025	-0.100
-649.799	-94.433	0.123	-0.034
-648.784	-17.814	-0.099	-0.063
-647.770	800.000	0.043	-0.165
-646.755	328.681	-0.009	0.018
-645.741	345.855	0.135	0.267
-644.726	20.335	-0.034	-0.028
-643.711	95.059	-0.108	-0.124
-642.697	-95.522	0.170	0.046
-641.682	-200.000	-0.061	-0.312
-640.668	-79.146	0.042	0.014
-639.653	127.733	-0.234	-0.299
-638.638	23.577	-0.276	-0.229
-637.624	-200.000	-0.005	-0.088
-636.609	174.329	0.186	0.271
-635.595	407.883	-0.018	0.039
-634.580	288.717	-0.080	-0.146
-633.565	800.000	0.083	-0.250
-632.551	-200.000	-0.071	0.552
-631.536	527.115	-0.067	-0.160
-630.522	223.269	-0.171	-0.278
-629.507	-142.382	-0.187	-0.019
-628.492	-200.000	0.009	0.131
-627.478	-84.452	0.293	-0.093
-626.463	306.739	0.155	0.290
-625.449	47.911	-0.039	-0.036
-624.434	252.395	0.089	0.152
-623.419	-200.000	0.025	-0.210
-622.405	-36.794	-0.164	-0.088
-621.390	-200.000	-0.033	-0.161
-620.376	-8.588	0.387	0.261
-619.361	9.760	0.052	-0.039
-618.346	-122.886	0.310	-0.050
-617.332	800.000	-0.067	-0.220
-616.317	-183.631	0.201	-0.003
-615.303	226.253	-0.072	0.118
-614.288	271.454	-0.054	0.096
-613.273	67.621	0.166	-0.171
-612.259	-139.014	0.126	-0.014
-611.244	-186.895	-0.149	-0.002
-610.230	-125.337	0.427	-0.065
-609.215	88.114	-0.293	-0.327
-608.201	-200.000	0.031	-0.202
-607.186	90.101	0.132	0.149
-606.171	77.585	-0.232	0.249
-605.157	-124.301	-0.490	0.077
-604.142	18.632	-0.229	-0.184
-603.128	800.000	-0.061	-0.263
-602.113	259.254	0.251	-0.436
-601.098	800.000	-0.031	-0.107
-600.084	40.984	-0.131	-0.119
-599.069	-140.952	0.388	-0.040
-598.055	-75.118	-0.087	-0.031
-597.040	-200.000	-0.022	-0.126
-596.025	-138.648	0.221	0.024
-595.011	146.847	0.154	-0.209
-593.996	263.063	-0.088	-0.153
-592.982	-200.000	0.013	-0.165
-591.967	-77.591	-0.098	0.034
-590.952	-109.187	-0.195	-0.042
-589.938	620.670	0.081	-0.206
-588.923	-200.000	0.016	-0.238
-587.909	-200.000	0.013	0.167
-586.894	-200.000	-0.039	0.290
-585.879	83.614	-0.271	0.297
-584.865	116.593	-0.161	-0.198
-583.850	-110.279	0.118	-0.025
-582.836	-111.340	-0.181	-0.037
-581.821	163.798	0.135	-0.191
-580.806	-15.509	0.176	0.113
-579.792	12.078	0.086	-0.067
-578.777	-200.000	-0.032	0.195
-577.763	-36.874	0.152	0.082
-576.748	2.839	-0.189	-0.138
-575.733	800.000	0.027	-0.114
-574.719	29.526	-0.282	0.241
-573.704	-83.806	-0.066	0.021
-572.690	29.826	-0.227	-0.194
-571.675	2.708	-0.338	0.246
-570.661	-169.502	-0.117	-0.004
-569.646	-183.886	-0.320	0.005
-568.631	-36.962	0.295	-0.159
-567.617	754.658	-0.086	0.233
-566.602	-200.000	-0.113	0.593
-565.588	785.782	-0.107	0.293
-564.573	-79.634	0.147	0.050
-563.558	-74.075	-0.274	0.100
-562.544	800.000	0.094	0.308
-561.529	-114.054	0.368	-0.072
-560.515	-52.446	-0.196	0.091
-559.500	-72.582	0.062	0.023
-558.485	428.186	0.052	-0.112
-557.471	-144.223	0.257	-0.024
-556.456	-200.000	0.002	0.095
-555.442	17.951	0.091	0.073
-554.427	137.702	-0.111	-0.146
-553.412	-200.000	0.068	-0.443
-552.398	-200.000	-0.014	0.077
-551.383	308.065	0.185	-0.346
-550.369	-200.000	-0.023	-0.276
-549.354	56.684	0.044	0.043
-548.339	-200.000	-0.011	-0.402
-547.325	800.000	-0.074	-0.301
-546.310	98.428	-0.282	-0.326
-545.296	-100.785	0.151	0.037
-544.281	-19.872	0.417	-0.259
-543.266	498.295	0.068	-0.156
-542.252	-200.000	0.020	0.199
-541.237	-31.070	0.089	-0.050
-540.223	165.218	-0.174	-0.247
-539.208	-200.000	-0.056	0.295
-538.193	800.000	-0.031	0.102
-537.179	58.588	0.267	0.263
-536.164	11.085	-0.305	0.234
-535.150	-31.351	-0.097	-0.055
-534.135	-200.000	-0.022	0.222
-533.121	-81.812	-0.153	-0.050
-532.106	21.606	-0.151	-0.123
-531.091	-0.846	-0.114	0.081
-530.077	-200.000	-0.007	-0.507
-529.062	-28.873	0.125	-0.072
-528.048	75.645	0.120	-0.127
-527.033	138.347	0.323	0.425
-526.018	-68.491	0.239	0.093
-525.004	120.727	0.034	0.042
-523.989	136.802	-0.161	0.211
-522.975	-200.000	0.000	0.100
-521.960	703.503	0.157	0.416
-520.945	212.855	0.186	0.295
-519.931	800.000	0.103	-0.309
-518.916	-26.744	0.261	0.153
-517.902	-200.000	0.058	0.302
-516.887	800.000	-0.041	0.145
-515.872	196.312	0.127	0.194
-514.858	-5.514	-0.169	0.116
-513.843	118.819	-0.139	0.173
-512.829	145.368	-0.141	0.189
-511.814	800.000	-0.146	-0.422
-510.799	720.241	-0.071	-0.190
-509.785	-200.000	-0.050	0.547
-508.770	-151.026	-0.366	-0.028
-507.756	-2.068	0.304	0.214
-506.741	-83.200	-0.525	-0.169
-505.726	-132.162	-0.280	-0.036
-504.712	-6.700	0.097	-0.066
-503.697	-103.263	0.297	0.070
-502.683	-110.868	0.184	0.038
-501.668	-200.000	-0.004	0.450
-500.653	-50.988	-0.237	-0.111
-499.639	691.364	0.050	0.130
-498.624	-124.121	0.258	-0.041
-497.610	83.478	-0.178	0.194
-496.595	-200.000	-0.019	-0.164
-495.581	571.498	0.095	-0.232
-494.566	223.333	0.125	-0.202
-493.551	-74.757	0.193	0.069
-492.537	204.611	-0.122	0.189
-491.522	-148.394	-0.224	-0.018
-490.508	278.564	-0.114	-0.204
-489.493	-59.317	0.287	-0.124
-488.478	-60.632	-0.387	-0.164
-487.464	91.018	0.072	0.081
-486.449	68.991	-0.074	-0.076
-485.435	-12.006	-0.213	-0.139
-484.420	-200.000	-0.055	-0.407
-483.405	-17.416	0.151	-0.095
-482.391	-200.000	0.021	-0.122
-481.376	-200.000	-0.009	0.049
-480.362	-50.179	0.327	-0.155
-479.347	39.454	0.146	0.131
-478.332	356.396	-0.024	0.048
-477.318	207.734	0.067	-0.105
-476.303	-200.000	0.085	0.393
-475.289	99.139	0.125	0.145
-474.274	-118.084	0.084	-0.015
-473.259	258.509	-0.308	-0.532
-472.245	408.518	0.012	-0.025
-471.230	-128.187	-0.087	0.012
-470.216	-96.948	0.109	-0.029
-469.201	-72.512	-0.076	-0.028
-468.186	227.908	0.129	-0.210
-467.172	118.189	0.135	0.166
-466.157	-14.575	0.080	0.052
-465.143	-200.000	0.035	0.445
-464.128	350.484	0.057	-0.113
-463.113	-12.715	0.245	0.159
-462.099	-126.516	-0.215	0.032
-461.084	-200.000	0.012	0.133
-460.070	-174.748	-0.396	-0.011
-459.055	-145.065	0.245	0.022
-458.040	134.532	0.056	-0.072
-457.026	-200.000	-0.019	-0.087
-456.011	646.982	-0.099	0.254
-454.997	-15.607	0.157	0.100
-453.982	-102.637	0.120	0.029
-452.968	-18.493	0.191	0.119
-451.953	130.688	-0.114	-0.146
-450.938	-66.829	-0.194	0.077
-449.924	208.762	-0.088	-0.138
-448.909	46.628	0.138	-0.128
-447.895	-108.718	-0.106	-0.023
-446.880	-168.849	0.091	-0.003
-445.865	323.505	-0.079	-0.151
-444.851	-200.000	0.069	0.351
-443.836	-97.491	0.188	-0.049
-442.822	800.000	0.077	-0.296
-441.807	-169.987	-0.114	-0.004
-440.792	-21.633	0.315	0.192
-439.778	216.032	0.039	0.063
-438.763	249.709	-0.086	-0.146
-437.749	-200.000	0.044	-0.279
-436.734	-200.000	-0.002	-0.106
-435.719	800.000	0.047	0.189
-434.705	-200.000	0.040	-0.212
-433.690	-44.660	0.086	0.043
-432.676	-111.495	0.209	0.042
-431.661	-24.059	0.243	-0.145
-430.646	132.029	0.157	-0.202
-429.632	800.000	-0.076	0.255
-428.617	112.873	-0.050	-0.060
-427.603	-200.000	-0.028	-0.176
-426.588	-23.125	-0.208	-0.125
-425.573	-193.353	-0.194	-0.002
-424.559	44.136	0.162	0.149
-423.544	-45.169	-0.165	-0.082
-422.530	-22.296	0.053	-0.032
-421.515	-111.620	-0.063	0.013
-420.500	-60.380	0.151	0.064
-419.486	11.036	-0.153	-0.117
-418.471	128.061	0.157	0.200
-417.457	-200.000	0.025	0.124
-416.442	-117.726	-0.352	-0.063
-415.428	93.118	0.074	-0.083
-414.413	-23.467	0.090	0.054
-413.398	-70.974	-0.104	0.039
-412.384	-134.132	0.461	0.057
-411.369	-200.000	0.055	0.268
-410.355	21.722	0.350	0.284
-409.340	-200.000	0.072	0.321
-408.325	37.027	0.223	-0.197
-407.311	264.228	-0.168	-0.292
-406.296	-86.188	-0.183	-0.056
-405.282	120.869	0.082	0.102
-404.267	-23.977	0.235	-0.140
-403.252	-108.397	-0.319	0.069
-402.238	417.931	0.149	0.318
-401.223	-139.897	0.179	-0.019
-400.209	136.226	0.113	0.147
-399.194	141.252	0.066	-0.087
-398.179	104.972	-0.142	0.168
-397.165	479.451	-0.064	0.144
-396.150	127.456	-0.242	-0.306
-395.136	464.097	0.123	-0.275
-394.121	-200.000	-0.075	-0.387
-393.106	234.274	0.080	0.132
-392.092	781.124	0.033	0.091
-391.077	624.138	0.091	-0.228
-390.063	677.492	0.144	0.372
-389.048	55.836	-0.231	-0.223
-388.033	-43.439	-0.253	-0.127
-387.019	-59.373	-0.369	-0.158
-386.004	27.838	0.067	0.056
-384.990	310.543	-0.071	0.133
-383.975	-200.000	0.024	0.167
-382.960	-1.775	0.091	-0.064
-381.946	-200.000	0.038	-0.167
-380.931	403.943	-0.043	-0.091
-379.917	-200.000	-0.018	-0.246
-378.902	-12.413	-0.138	-0.090
-377.888	-24.287	-0.097	0.058
-376.873	-158.083	0.458	0.027
-375.858	-62.805	-0.134	-0.055
-374.844	180.428	0.075	0.110
-373.829	800.000	0.053	0.228
-372.815	-200.000	0.007	-0.077
-371.800	-90.339	-0.293	-0.085
-370.785	-14.695	-0.320	-0.205
-369.771	-75.948	0.210	0.074
-368.756	112.317	0.115	-0.139
-367.742	-152.414	0.108	-0.008
-366.727	-2.571	-0.043	-0.030
-365.712	429.577	0.068	-0.146
-364.698	705.477	0.107	-0.281
-363.683	800.000	-0.058	-0.189
-362.669	166.713	-0.093	0.131
-361.654	-200.000	-0.020	-0.243
-360.639	-32.218	0.335	0.186
-359.625	76.065	0.157	0.165
-358.610	-157.978	-0.221	0.013
-357.596	-104.604	-0.171	0.039
-356.581	767.715	0.178	0.481
-355.566	81.608	-0.312	0.336
-354.552	-73.139	0.101	-0.037
-353.537	-64.470	-0.194	-0.078
-352.523	-200.000	0.005	-0.036
-351.508	-1.766	-0.272	-0.191
-350.493	-18.138	0.446	0.278
-349.479	-148.681	0.167	-0.014
-348.464	-38.525	0.338	-0.178
-347.450	-129.386	-0.227	0.031
-346.435	393.369	-0.131	0.271
-345.420	800.000	-0.039	-0.132
-344.406	-200.000	0.001	0.072
-343.391	-200.000	-0.039	0.257
-342.377	380.214	-0.070	0.142
-341.362	120.796	-0.157	0.194
-340.348	800.000	-0.033	-0.132
-339.333	-35.342	-0.257	0.139
-338.318	800.000	-0.041	0.147
-337.304	-77.224	0.131	0.046
-336.289	-129.459	0.071	0.010
-335.275	783.849	-0.017	0.046
-334.260	800.000	-0.044	-0.149
-333.245	800.000	-0.122	-0.364
-332.231	20.775	0.124	0.100
-331.216	82.282	-0.102	0.110
-330.202	222.505	-0.042	0.067
-329.187	659.905	-0.053	0.135
-328.172	-200.000	0.078	-0.382
-327.158	-82.433	0.036	0.012
-326.143	455.630	0.112	-0.247
-325.129	437.804	0.036	-0.077
-324.114	-200.000	0.111	-0.000
-323.099	-102.689	-0.140	-0.033
-322.085	-200.000	0.011	-0.258
-321.070	-200.000	-0.054	-0.274
-320.056	56.488	0.274	-0.265
-319.041	-97.282	0.548	-0.142
-318.026	-200.000	-0.002	-0.212
-317.012	20.097	0.403	0.324
-315.997	-52.994	-0.067	-0.031
-314.983	-51.490	-0.130	-0.060
-313.968	-200.000	-0.013	0.117
-312.953	92.229	-0.174	-0.194
-311.939	-200.000	-0.028	-0.144
-310.924	-200.000	0.016	0.141
-309.910	-200.000	-0.062	0.388
-308.895	-200.000	0.011	0.162
-307.880	-200.000	-0.007	0.110
-306.866	270.358	-0.121	0.211
-305.851	667.988	0.112	-0.288
-304.837	-98.693	-0.037	0.009
-303.822	-129.318	0.150	-0.021
-302.807	49.125	0.157	0.147
-301.793	239.285	0.148	-0.244
-300.778	-200.000	0.055	-0.341
-299.764	-200.000	-0.057	-0.327
-298.749	-98.796	-0.244	0.062
-297.735	-102.182	-0.144	0.034
-296.720	-41.021	-0.097	-0.050
-295.705	-96.695	-0.273	-0.071
-294.691	254.233	-0.141	-0.240
-293.676	-200.000	-0.014	-0.060
-292.662	800.000	0.063	-0.252
-291.647	99.247	0.110	-0.126
-290.632	-122.153	-0.191	-0.031
-289.618	58.230	0.168	-0.164
-288.603	-20.916	-0.406	-0.247
-287.589	74.177	0.156	-0.163
-286.574	185.161	-0.109	-0.160
-285.559	-14.853	0.203	0.129
-284.545	460.300	0.102	0.225
-283.530	-0.077	-0.161	0.114
-282.516	-200.000	-0.038	-0.186
-281.501	-200.000	-0.000	0.164
-280.486	73.607	0.054	0.057
-279.472	-82.392	0.300	0.097
-278.457	-200.000	-0.015	0.094
-277.443	640.288	0.067	-0.169
-276.428	14.406	0.251	0.194
-275.413	800.000	-0.058	0.217
-274.399	-200.000	0.241	-0.001
-273.384	-38.222	0.269	0.142
-272.370	159.683	0.085	-0.118
-271.355	-200.000	0.048	-0.292
-270.340	189.251	-0.206	0.306
-269.326	800.000	-0.108	0.311
-268.311	-127.382	-0.120	0.017
-267.297	-141.005	-0.109	0.011
-266.282	800.000	0.067	-0.193
-265.267	800.000	0.112	0.335
-264.253	-200.000	0.016	0.134
-263.238	-152.569	0.116	0.008
-262.224	-170.810	-0.161	-0.005
-261.209	474.015	-0.060	-0.134
-260.195	-108.085	0.197	-0.042
-259.180	287.755	0.107	-0.191
-258.165	-10.839	-0.322	0.211
-257.151	-200.000	-0.016	0.156
-256.136	339.527	0.093	0.180
-255.122	117.562	-0.241	0.294
-254.107	-7.099	0.268	0.181
-253.092	-163.746	-0.155	0.007
-252.078	800.000	0.134	-0.369
-251.063	73.505	-0.257	0.267
-250.049	41.952	0.209	0.188
-249.034	-200.000	0.009	-0.056
-248.019	-200.000	-0.000	-0.213
-247.005	-200.000	-0.050	-0.362
-245.990	279.324	0.120	-0.212
-244.976	-151.132	-0.135	0.010
-243.961	-119.636	-0.252	0.043
-242.946	-200.000	-0.003	-0.114
-241.932	-113.487	-0.118	-0.023
-240.917	32.985	0.056	-0.048
-239.903	-200.000	-0.017	0.336
-238.888	441.632	-0.052	0.112
-237.873	47.539	0.145	0.134
-236.859	123.618	-0.272	0.338
-235.844	31.352	-0.125	0.107
-234.830	800.000	-0.057	0.241
-233.815	-200.000	-0.006	-0.211
-232.800	-65.092	-0.115	0.046
-231.786	-200.000	0.001	-0.058
-230.771	-200.000	0.004	0.019
-229.757	800.000	-0.082	-0.237
-228.742	-136.883	0.105	-0.012
-227.727	194.363	-0.050	-0.076
-226.713	-24.943	0.203	0.119
-225.698	716.146	-0.045	-0.118
-224.684	-16.292	0.064	-0.040
-223.669	-200.000	0.032	-0.152
-222.655	-15.538	-0.368	0.233
-221.640	30.276	-0.226	0.191
-220.625	-124.427	-0.050	0.008
-219.611	-27.430	-0.467	-0.269
-218.596	-141.276	0.167	-0.017
-217.582	108.445	-0.127	-0.150
-216.567	-20.982	0.028	0.017
-215.552	-98.214	-0.352	0.089
-214.538	-200.000	-0.021	-0.172
-213.523	-151.361	0.356	0.026
-212.509	800.000	-0.035	0.107
-211.494	-108.108	0.087	-0.019
-210.479	372.264	-0.122	0.245
-209.465	-200.000	0.036	-0.162
-208.450	219.585	-0.129	0.205
-207.436	33.832	-0.091	0.078
-206.421	-125.928	0.396	-0.059
-205.406	-200.000	0.020	0.404
-204.392	800.000	-0.037	-0.161
-203.377	141.791	-0.321	0.421
-202.363	-76.162	-0.290	0.101
-201.348	800.000	0.056	0.211
-200.333	182.515	0.029	-0.043
-199.319	-5.753	0.205	-0.139
-198.304	-129.723	-0.111	0.015
-197.290	225.526	-0.128	-0.205
-196.275	-183.068	-0.063	-0.001
-195.260	799.865	-0.026	0.070
-194.246	-200.000	-0.005	-0.138
-193.231	-200.000	-0.017	-0.161
-192.217	731.700	-0.088	-0.232
-191.202	-54.671	-0.286	-0.128
-190.187	-200.000	0.004	-0.393
-189.173	-172.913	0.401	-0.012
-188.158	258.319	0.133	0.227
-187.144	-137.006	-0.059	-0.007
-186.129	224.737	0.076	-0.121
-185.114	122.820	-0.084	-0.104
-184.100	74.992	-0.075	0.078
-183.085	32.049	0.284	0.242
-182.071	-200.000	-0.016	0.191
-181.056	-200.000	0.096	0.488
-180.042	-200.000	-0.315	-0.000
-179.027	106.077	0.105	0.123
-178.012	721.330	-0.075	-0.196
-176.998	204.146	0.114	-0.175
-175.983	-200.000	0.016	0.489
-174.969	235.561	-0.050	-0.082
-173.954	-32.751	-0.250	0.137
-172.939	137.214	-0.256	0.330
-171.925	-200.000	-0.022	0.096
-170.910	-111.315	-0.171	-0.035
-169.896	290.031	0.099	-0.177
-168.881	100.566	0.247	0.284
-167.866	-200.000	-0.007	-0.085
-166.852	34.197	0.316	0.272
-165.837	-167.115	-0.053	-0.002
-164.823	170.495	0.220	-0.311
-163.808	-31.082	-0.172	-0.096
-162.793	563.240	-0.093	0.222
-161.779	-200.000	0.038	0.348
-160.764	-129.733	-0.033	-0.004
-159.750	-200.000	0.028	-0.127
-158.735	96.516	0.128	0.144
-157.720	38.762	0.230	0.203
-156.706	-106.899	0.111	0.024
-155.691	538.846	0.046	-0.108
-154.677	-200.000	-0.004	0.099
-153.662	-79.295	-0.275	0.092
-152.647	-34.686	0.256	0.138
-151.633	2.072	-0.218	0.155
-150.618	800.000	0.045	-0.153
-149.604	84.593	-0.048	-0.052
-148.589	-7.237	-0.272	-0.182
-147.574	800.000	0.066	0.188
-146.560	-200.000	0.209	-0.000
-145.545	640.631	-0.131	0.330
-144.531	296.995	0.046	0.083
-143.516	760.195	0.054	0.144
-142.502	-55.523	0.212	0.094
-141.487	-174.640	0.093	0.003
-140.472	-200.000	0.075	0.396
-139.458	-82.661	-0.462	0.148
-138.443	-109.872	-0.223	0.046
-137.429	-200.000	-0.032	-0.211
-136.414	537.132	-0.216	0.507
-135.399	205.022	-0.122	-0.186
-134.385	153.546	-0.192	-0.259
-133.370	116.649	-0.068	0.082
-132.356	43.383	-0.076	0.069
-131.341	-194.504	-0.464	0.004
-130.326	132.806	-0.053	-0.068
-129.312	-119.817	0.237	-0.040
-128.297	800.000	-0.091	0.328
-127.283	-140.938	-0.248	-0.025
-126.268	-1.510	-0.156	-0.108
-125.253	102.517	-0.129	0.149
-124.239	-186.379	0.094	-0.001
-123.224	310.912	-0.079	0.147
