DTS Sentinel unit serial number:	SN413079Multiplexer serial number:	ORYXHardware model number:	OX4-SRSoftware version number:	ORYX F/W v4.00 Oryx Data Collector v3.7.2.0data status	okinstallation	princeton_trtdifferential loss correction	single-endedforward channel	channel 2reverse channel	N/Adate	2019/09/11time	14:25:10forward acquisition time	60.00reverse acquisition time	0.00gamma	496.2192k internal	0.2291k external	0.2291temperature offset calibration	1.0008default loss term (dB/km)	0.3790temperature slope calibration	1.0000multiplexer offset coefficient	1.0000multiplexer slope coefficient	1.0000fibre end	0.00T internal ref (°C)	42.09T ext. ref 1 (°C)	0.87T ext. ref 2 (°C)	37.08length (m)	temperature (°C)	Stokes	anti-Stokes-747.200	289.994	-0.141	0.262
-746.185	-107.577	0.091	0.020
-745.171	800.000	-0.041	-0.174
-744.156	-46.596	0.117	0.059
-743.142	800.000	-0.068	-0.222
-742.127	436.521	-0.256	0.570
-741.112	226.423	0.072	-0.119
-740.098	69.585	-0.282	0.297
-739.083	-200.000	0.016	-0.099
-738.069	13.994	0.443	0.353
-737.054	-200.000	0.007	0.276
-736.039	6.390	-0.156	-0.119
-735.025	-200.000	-0.009	0.079
-734.010	-200.000	0.012	-0.059
-732.996	-141.047	-0.400	-0.042
-731.981	-200.000	-0.017	0.207
-730.966	132.287	-0.094	-0.124
-729.952	-200.000	0.032	0.171
-728.937	14.114	0.182	-0.145
-727.923	-164.099	0.104	0.005
-726.908	-200.000	0.003	-0.153
-725.894	-123.963	-0.339	-0.055
-724.879	800.000	-0.045	-0.139
-723.864	9.376	-0.248	0.192
-722.850	800.000	-0.082	0.234
-721.835	58.178	-0.219	0.219
-720.821	800.000	-0.071	-0.266
-719.806	93.622	-0.124	-0.144
-718.791	-146.657	-0.149	-0.013
-717.777	-128.535	-0.077	-0.011
-716.762	-200.000	-0.029	-0.346
-715.748	-60.577	-0.219	-0.095
-714.733	4.748	-0.166	0.124
-713.718	197.228	0.080	-0.125
-712.704	-73.815	-0.161	-0.060
-711.689	-119.324	0.330	-0.059
-710.675	800.000	-0.090	-0.287
-709.660	528.716	-0.084	-0.204
-708.645	208.256	0.198	-0.316
-707.631	54.809	0.093	-0.091
-706.616	-16.332	-0.256	-0.166
-705.602	31.903	-0.026	0.023
-704.587	202.856	0.132	-0.208
-703.572	-90.486	0.196	-0.058
-702.558	-144.915	0.242	0.023
-701.543	-200.000	0.000	-0.118
-700.529	-40.741	0.028	0.015
-699.514	-82.839	0.332	0.110
-698.499	-49.146	0.118	0.058
-697.485	-116.331	-0.333	-0.063
-696.470	21.850	0.070	-0.058
-695.456	800.000	-0.048	-0.139
-694.441	800.000	0.084	-0.271
-693.426	800.000	-0.119	0.399
-692.412	-1.779	-0.084	0.061
-691.397	-116.623	-0.299	0.056
-690.383	-156.773	-0.278	-0.017
-689.368	737.962	-0.029	-0.079
-688.354	-26.669	0.269	-0.161
-687.339	-25.814	-0.189	-0.114
-686.324	-9.418	-0.294	-0.201
-685.310	-158.679	-0.156	-0.009
-684.295	-145.696	0.143	0.013
-683.281	-13.457	-0.170	-0.112
-682.266	-200.000	0.010	-0.212
-681.251	-200.000	0.020	-0.301
-680.237	-200.000	-0.013	-0.202
-679.222	-29.988	0.043	-0.025
-678.208	-95.753	0.011	0.003
-677.193	277.921	0.163	-0.296
-676.178	45.677	-0.075	-0.071
-675.164	-200.000	-0.002	0.133
-674.149	800.000	-0.044	-0.183
-673.135	-120.309	0.139	-0.024
-672.120	-40.058	-0.195	0.104
-671.105	38.609	0.190	-0.173
-670.091	28.425	-0.211	-0.182
-669.076	-20.245	-0.096	-0.061
-668.062	11.806	-0.081	0.063
-667.047	213.589	-0.118	0.191
-666.032	-200.000	-0.010	0.066
-665.018	12.020	-0.048	-0.037
-664.003	479.178	-0.110	0.254
-662.989	205.630	-0.088	-0.139
-661.974	-149.788	0.252	-0.020
-660.959	-66.354	0.304	-0.123
-659.945	-112.801	0.192	-0.039
-658.930	-104.661	0.150	-0.035
-657.916	-19.113	-0.098	-0.062
-656.901	-70.859	0.259	-0.100
-655.886	-89.109	-0.159	0.048
-654.872	-42.466	-0.079	-0.041
-653.857	192.904	0.132	0.204
-652.843	143.212	0.156	-0.211
-651.828	-73.909	0.152	0.056
-650.814	28.119	-0.217	-0.187
-649.799	-200.000	-0.081	0.625
-648.784	-200.000	-0.011	-0.213
-647.770	141.251	-0.138	-0.187
-646.755	-30.622	0.407	-0.235
-645.741	-200.000	0.005	-0.056
-644.726	31.539	-0.086	-0.075
-643.711	-69.260	-0.042	0.016
-642.697	116.125	0.216	-0.270
-641.682	272.032	-0.120	0.216
-640.668	-71.528	0.143	-0.055
-639.653	74.754	-0.251	-0.270
-638.638	800.000	0.110	-0.375
-637.624	-63.593	0.275	-0.115
-636.609	-12.443	0.244	0.163
-635.595	800.000	0.079	0.285
-634.580	-30.519	-0.330	0.191
-633.565	140.628	0.046	-0.062
-632.551	-57.688	-0.072	0.032
-631.536	8.327	0.125	-0.096
-630.522	-69.268	0.079	-0.031
-629.507	-200.000	-0.022	0.104
-628.492	-200.000	-0.008	0.102
-627.478	-95.886	0.058	0.016
-626.463	-60.339	-0.379	0.165
-625.449	-200.000	0.050	-0.385
-624.434	800.000	0.019	0.063
-623.419	-200.000	0.013	-0.072
-622.405	22.806	-0.330	0.275
-621.390	80.089	0.125	0.137
-620.376	10.061	-0.111	-0.086
-619.361	313.247	0.050	0.096
-618.346	800.000	0.058	0.247
-617.332	469.841	0.152	0.348
-616.317	-131.415	-0.111	0.015
-615.303	-102.132	-0.139	0.034
-614.288	64.034	-0.078	0.080
-613.273	-157.588	-0.144	-0.009
-612.259	-85.689	0.095	-0.030
-611.244	273.139	-0.196	-0.353
-610.230	-200.000	0.007	-0.063
-609.215	535.834	-0.131	-0.318
-608.201	150.788	-0.214	-0.296
-607.186	-200.000	0.038	-0.265
-606.171	-200.000	0.029	-0.274
-605.157	30.153	0.231	-0.200
-604.142	111.223	0.110	0.135
-603.128	-52.025	-0.092	-0.043
-602.113	118.530	-0.173	0.217
-601.098	-102.673	0.096	-0.023
-600.084	-94.778	0.151	-0.042
-599.069	355.670	0.059	-0.120
-598.055	-67.098	0.176	0.071
-597.040	-127.163	0.074	0.011
-596.025	-34.231	0.039	0.022
-595.011	156.895	0.181	0.254
-593.996	800.000	0.034	-0.105
-592.982	-67.187	0.190	0.076
-591.967	-47.925	-0.373	0.184
-590.952	171.883	-0.075	-0.110
-589.938	-200.000	0.045	-0.263
-588.923	-200.000	-0.028	-0.153
-587.909	800.000	-0.080	-0.311
-586.894	-90.971	-0.069	0.020
-585.879	-200.000	0.031	-0.354
-584.865	367.841	-0.153	0.314
-583.850	40.156	0.279	-0.256
-582.836	-200.000	0.035	-0.329
-581.821	-19.844	-0.153	0.096
-580.806	-145.969	-0.156	0.014
-579.792	-200.000	-0.010	0.177
-578.777	-155.995	0.101	0.007
-577.763	405.149	-0.076	-0.164
-576.748	-200.000	-0.017	-0.553
-575.733	-200.000	0.029	-0.218
-574.719	-54.610	0.208	-0.096
-573.704	-53.697	0.202	-0.094
-572.690	-91.073	-0.165	-0.048
-571.675	244.736	0.206	0.353
-570.661	-72.878	-0.073	-0.027
-569.646	800.000	0.036	0.112
-568.631	133.560	0.060	-0.079
-567.617	221.218	0.097	0.159
-566.602	-41.610	0.262	0.137
-565.588	40.587	0.043	-0.039
-564.573	-149.467	0.311	-0.025
-563.558	427.559	0.190	0.418
-562.544	14.233	0.192	0.152
-561.529	-81.684	-0.067	-0.022
-560.515	-200.000	-0.016	0.094
-559.500	-15.811	-0.308	0.199
-558.485	-2.811	-0.294	0.209
-557.471	64.626	-0.188	0.193
-556.456	800.000	-0.126	-0.386
-555.442	226.090	-0.153	0.252
-554.427	-180.323	0.266	-0.006
-553.412	-68.863	0.328	-0.129
-552.398	-104.441	0.228	-0.054
-551.383	-166.757	-0.077	-0.003
-550.369	46.362	0.218	0.206
-549.354	-102.255	-0.226	-0.055
-548.339	-162.240	0.240	-0.012
-547.325	-95.698	0.219	0.059
-546.310	119.140	0.318	0.400
-545.296	-35.930	-0.258	0.142
-544.281	-164.639	-0.113	0.005
-543.266	800.000	-0.025	0.074
-542.252	-102.568	-0.199	0.048
-541.237	800.000	0.039	-0.136
-540.223	-200.000	0.015	0.200
-539.208	-200.000	0.034	-0.216
-538.193	-10.826	-0.177	0.119
-537.179	-104.276	-0.289	0.068
-536.164	262.704	0.078	-0.137
-535.150	153.685	0.231	-0.322
-534.135	93.122	-0.186	0.214
-533.121	-154.028	0.174	0.012
-532.106	-200.000	-0.042	0.349
-531.091	-35.055	-0.264	0.146
-530.077	305.834	-0.050	-0.095
-529.062	72.808	-0.132	-0.140
-528.048	-76.043	-0.268	-0.096
-527.033	10.431	0.152	0.117
-526.018	-64.559	-0.243	-0.100
-525.004	-200.000	-0.042	-0.393
-523.989	-200.000	-0.019	-0.314
-522.975	-200.000	-0.029	0.171
-521.960	-182.929	0.382	0.007
-520.945	39.936	0.061	-0.055
-519.931	-200.000	0.000	-0.016
-518.916	-118.571	-0.129	0.023
-517.902	-99.267	-0.228	-0.058
-516.887	356.098	-0.070	0.141
-515.872	-200.000	0.012	0.457
-514.858	800.000	0.050	-0.161
-513.843	78.632	-0.210	0.228
-512.829	592.638	0.035	0.087
-511.814	-104.105	0.127	-0.030
-510.799	184.904	-0.163	0.245
-509.785	-200.000	-0.012	-0.137
-508.770	-119.046	-0.189	0.034
-507.756	800.000	0.125	0.449
-506.741	800.000	-0.036	0.129
-505.726	195.639	-0.111	0.171
-504.712	19.084	0.169	0.138
-503.697	-200.000	-0.013	0.124
-502.683	-15.745	0.565	-0.365
-501.668	-200.000	0.057	-0.365
-500.653	145.073	-0.113	0.154
-499.639	249.344	0.124	-0.214
-498.624	112.961	-0.140	-0.172
-497.610	-200.000	-0.005	-0.253
-496.595	241.355	0.067	-0.114
-495.581	-179.525	0.273	0.006
-494.566	800.000	0.067	-0.229
-493.551	20.407	0.135	-0.111
-492.537	-164.448	0.055	0.003
-491.522	-200.000	-0.002	0.075
-490.508	-200.000	0.028	-0.236
-489.493	-80.970	-0.481	-0.162
-488.478	-63.246	-0.063	0.026
-487.464	-84.283	-0.279	-0.090
-486.449	-102.589	0.079	-0.019
-485.435	800.000	0.049	0.186
-484.420	14.799	0.095	-0.075
-483.405	139.445	0.152	0.203
-482.391	-87.983	-0.295	0.090
-481.376	800.000	-0.067	0.194
-480.362	200.753	-0.078	-0.121
-479.347	-93.003	-0.265	0.075
-478.332	282.971	0.193	-0.352
-477.318	800.000	0.075	-0.219
-476.303	194.093	-0.065	0.100
-475.289	-146.785	-0.259	-0.023
-474.274	-200.000	0.005	-0.282
-473.259	-86.453	0.100	0.031
-472.245	-53.019	0.162	-0.076
-471.230	800.000	-0.067	0.284
-470.216	184.714	-0.117	0.176
-469.201	-94.162	0.201	-0.056
-468.186	-171.671	-0.302	0.010
-467.172	-38.003	0.162	-0.087
-466.157	800.000	-0.007	-0.030
-465.143	-162.833	-0.249	0.012
-464.128	-5.535	0.135	-0.094
-463.113	-129.596	-0.058	0.008
-462.099	-200.000	0.024	0.117
-461.084	-114.912	-0.462	0.089
-460.070	392.062	0.017	-0.035
-459.055	-75.845	-0.033	-0.012
-458.040	-98.180	0.257	0.067
-457.026	-4.659	-0.218	0.153
-456.011	-200.000	-0.025	0.216
-454.997	138.779	-0.020	-0.026
-453.982	32.857	0.118	-0.103
-452.968	800.000	-0.064	0.250
-451.953	201.846	0.136	0.212
-450.938	47.692	-0.028	-0.026
-449.924	-20.229	0.115	-0.072
-448.909	118.802	-0.119	-0.148
-447.895	92.563	-0.144	0.165
-446.880	-200.000	-0.004	0.085
-445.865	191.923	-0.038	0.058
-444.851	715.146	0.115	0.308
-443.836	-135.488	0.141	-0.017
-442.822	800.000	-0.035	-0.118
-441.807	-75.425	0.088	0.032
-440.792	-157.525	0.266	-0.016
-439.778	-200.000	0.004	-0.099
-438.763	-200.000	0.027	0.151
-437.749	-0.223	-0.241	-0.174
-436.734	178.876	0.054	0.080
-435.719	219.080	-0.109	-0.176
-434.705	278.865	-0.067	0.121
-433.690	-200.000	0.023	0.136
-432.676	-200.000	-0.000	0.077
-431.661	73.908	0.257	0.273
-430.646	-200.000	-0.034	0.230
-429.632	144.851	-0.200	0.271
-428.617	24.201	-0.079	0.066
-427.603	26.553	-0.089	0.075
-426.588	-0.588	-0.263	-0.188
-425.573	363.929	-0.069	-0.140
-424.559	-72.999	-0.122	-0.045
-423.544	-200.000	0.018	-0.153
-422.530	244.422	-0.014	0.023
-421.515	-199.421	-0.247	-0.001
-420.500	2.424	-0.071	-0.052
-419.486	800.000	-0.096	0.380
-418.471	800.000	-0.039	-0.115
-417.457	-200.000	-0.058	-0.310
-416.442	-105.981	-0.254	-0.058
-415.428	-60.038	0.261	-0.113
-414.413	-200.000	-0.025	-0.280
-413.398	109.604	-0.148	-0.180
-412.384	601.029	-0.062	-0.157
-411.369	51.048	-0.069	-0.066
-410.355	-132.277	0.204	0.027
-409.340	-200.000	-0.002	0.063
-408.325	19.652	0.031	-0.025
-407.311	-43.184	-0.151	0.078
-406.296	212.345	0.166	0.265
-405.282	19.572	-0.352	0.286
-404.267	3.798	-0.236	-0.174
-403.252	39.823	-0.182	-0.165
-402.238	71.258	-0.106	0.111
-401.223	749.833	0.044	0.119
-400.209	151.944	-0.227	-0.313
-399.194	149.573	-0.051	0.069
-398.179	66.980	0.164	-0.169
-397.165	-200.000	0.106	-0.486
-396.150	120.633	-0.043	-0.054
-395.136	193.792	-0.057	-0.087
-394.121	-106.836	-0.151	0.034
-393.106	-200.000	0.021	0.127
-392.092	-200.000	0.059	-0.432
-391.077	-74.933	-0.076	-0.028
-390.063	-200.000	0.001	-0.069
-389.048	800.000	-0.077	-0.255
-388.033	-39.038	-0.087	-0.046
-387.019	579.309	0.055	-0.136
-386.004	-200.000	0.002	0.050
-384.990	-55.006	0.141	0.064
-383.975	127.028	-0.040	0.051
-382.960	-111.815	-0.237	0.048
-381.946	-58.573	-0.068	0.030
-380.931	-200.000	0.013	0.306
-379.917	635.062	-0.016	0.040
-378.902	119.252	0.027	-0.034
-377.888	-53.266	0.144	-0.067
-376.873	-200.000	-0.016	0.100
-375.858	-200.000	0.068	-0.354
-374.844	-200.000	0.034	0.359
-373.829	334.116	-0.127	0.249
-372.815	800.000	-0.059	-0.183
-371.800	159.209	0.244	-0.342
-370.785	800.000	0.062	0.241
-369.771	-32.959	-0.166	-0.093
-368.756	-54.352	-0.135	0.062
-367.742	353.278	0.203	0.407
-366.727	800.000	0.048	0.208
-365.712	-200.000	0.014	0.284
-364.698	-200.000	-0.029	-0.338
-363.683	-5.133	-0.185	0.128
-362.669	64.546	0.365	0.371
-361.654	-200.000	0.057	-0.319
-360.639	-56.936	0.374	0.167
-359.625	-200.000	-0.001	0.384
-358.610	-200.000	0.044	-0.220
-357.596	284.153	-0.141	-0.256
-356.581	-200.000	0.009	0.160
-355.566	-111.896	0.407	-0.083
-354.552	800.000	0.122	0.387
-353.537	158.112	-0.081	0.113
-352.523	-197.170	0.372	0.002
-351.508	38.326	-0.167	0.150
-350.493	54.680	0.196	-0.191
-349.479	-83.533	0.531	-0.171
-348.464	240.763	-0.235	0.396
-347.450	-191.368	0.291	-0.003
-346.435	-162.579	0.053	-0.003
-345.420	-105.074	-0.381	0.088
-344.406	15.586	-0.115	0.091
-343.391	-130.835	-0.091	0.012
-342.377	-2.811	0.246	0.173
-341.362	-23.010	-0.309	0.188
-340.348	172.082	0.123	-0.178
-339.333	-200.000	0.031	0.236
-338.318	153.819	0.080	-0.111
-337.304	-12.311	-0.366	-0.241
-336.289	-200.000	-0.027	0.196
-335.275	12.533	-0.198	-0.154
-334.260	-5.600	0.120	-0.083
-333.245	248.948	0.279	-0.477
-332.231	30.144	-0.144	0.124
-331.216	2.367	0.079	0.057
-330.202	-200.000	0.043	0.251
-329.187	-43.832	0.125	0.063
-328.172	800.000	-0.049	0.171
-327.158	356.751	0.030	0.059
-326.143	-53.490	-0.402	0.185
-325.129	-89.604	0.224	0.066
-324.114	-200.000	-0.065	0.299
-323.099	-150.653	0.237	0.018
-322.085	-81.978	0.067	0.022
-321.070	11.565	-0.243	0.187
-320.056	182.853	0.124	-0.185
-319.041	-86.259	-0.262	0.081
-318.026	224.236	0.109	0.177
-317.012	-174.554	0.170	-0.005
-315.997	800.000	0.024	0.074
-314.983	382.045	-0.118	-0.245
-313.968	-200.000	-0.001	0.052
-312.953	800.000	-0.123	-0.372
-311.939	-200.000	0.044	-0.500
-310.924	-200.000	-0.011	0.319
-309.910	340.516	0.168	-0.330
-308.895	-17.842	-0.223	-0.141
-307.880	185.567	-0.039	-0.059
-306.866	435.085	0.138	-0.301
-305.851	-82.632	0.079	0.026
-304.837	800.000	0.058	-0.163
-303.822	23.898	-0.117	-0.097
-302.807	732.989	0.058	0.156
-301.793	-164.027	-0.108	0.005
-300.778	61.639	-0.127	0.128
-299.764	72.339	0.127	-0.133
-298.749	269.469	0.107	-0.189
-297.735	87.365	-0.194	0.215
-296.720	393.709	0.040	-0.084
-295.705	-120.024	-0.325	0.056
-294.691	-74.023	-0.158	-0.058
-293.676	-65.617	-0.245	0.099
-292.662	1.005	0.138	-0.099
-291.647	-106.517	0.260	0.058
-290.632	-87.154	0.286	-0.087
-289.618	23.246	0.097	-0.080
-288.603	258.705	0.063	0.109
-287.589	-75.238	0.192	-0.069
-286.574	38.709	0.243	-0.218
-285.559	28.733	0.200	-0.171
-284.545	118.020	0.137	0.170
-283.530	43.555	-0.114	0.105
-282.516	-200.000	-0.041	0.227
-281.501	-200.000	-0.014	0.384
-280.486	83.123	0.082	0.090
-279.472	450.318	0.080	-0.177
-278.457	-200.000	-0.000	0.136
-277.443	-87.932	0.256	-0.077
-276.428	-4.303	0.200	-0.139
-275.413	-69.440	-0.078	-0.030
-274.399	48.699	0.139	-0.131
-273.384	168.825	-0.218	-0.312
-272.370	-200.000	-0.019	0.176
-271.355	-56.546	0.174	0.078
-270.340	-41.332	0.138	-0.071
-269.326	22.369	0.189	-0.155
-268.311	-64.250	-0.114	0.047
-267.297	-23.932	0.161	0.097
-266.282	-200.000	0.019	0.219
-265.267	-143.377	0.163	-0.016
-264.253	-200.000	-0.012	0.209
-263.238	66.406	-0.165	-0.169
-262.224	-200.000	-0.016	0.104
-261.209	-200.000	-0.038	0.379
-260.195	-180.604	0.409	-0.008
-259.180	-100.771	0.159	-0.039
-258.165	-4.453	0.091	0.063
-257.151	-56.889	0.180	-0.080
-256.136	591.140	-0.120	0.297
-255.122	-123.937	0.483	-0.076
-254.107	-200.000	0.041	-0.224
-253.092	13.887	-0.070	-0.055
-252.078	800.000	0.021	0.073
-251.063	393.409	0.119	0.249
-250.049	588.354	-0.057	-0.141
-249.034	555.005	-0.076	-0.183
-248.019	800.000	-0.034	-0.097
-247.005	-200.000	-0.017	-0.170
-245.990	127.654	0.146	0.186
-244.976	716.498	0.104	-0.278
-243.961	-200.000	0.084	-0.372
-242.946	326.266	-0.052	-0.101
-241.932	-100.521	0.182	0.045
-240.917	-200.000	0.031	-0.341
-239.903	241.422	-0.101	0.169
-238.888	800.000	-0.052	0.146
-237.873	-137.388	0.251	0.029
-236.859	-182.302	-0.049	0.001
-235.844	-63.910	-0.251	0.103
-234.830	223.381	0.232	0.376
-233.815	238.110	-0.044	0.074
-232.800	442.741	-0.063	0.138
-231.786	-32.666	-0.198	-0.111
-230.771	14.011	-0.243	0.190
-229.757	24.954	0.019	0.016
-228.742	-3.690	-0.269	-0.188
-227.727	-200.000	0.002	-0.103
-226.713	-120.259	-0.343	0.059
-225.698	800.000	0.086	-0.247
-224.684	800.000	-0.075	-0.224
-223.669	183.958	0.153	0.228
-222.655	-200.000	0.001	0.227
-221.640	244.335	-0.053	0.089
-220.625	291.100	0.180	-0.329
-219.611	-182.256	-0.183	-0.003
-218.596	-200.000	0.023	0.182
-217.582	-200.000	-0.002	-0.279
-216.567	-104.030	-0.433	-0.101
-215.552	159.026	0.080	-0.111
-214.538	-200.000	-0.009	0.067
-213.523	288.068	0.070	0.127
-212.509	-16.060	-0.303	-0.193
-211.494	127.717	-0.085	-0.108
-210.479	98.377	0.057	-0.066
-209.465	-200.000	0.000	0.068
-208.450	-200.000	0.033	0.154
-207.436	2.270	-0.217	0.157
-206.421	-3.281	0.219	0.153
-205.406	555.557	0.036	-0.088
-204.392	51.518	0.152	-0.145
-203.377	-200.000	0.028	0.310
-202.363	0.417	-0.055	0.040
-201.348	-137.983	-0.285	0.032
-200.333	351.823	-0.135	0.268
-199.319	299.994	-0.127	0.234
-198.304	-76.027	-0.252	-0.089
-197.290	45.815	0.119	0.111
-196.275	-145.636	0.329	0.030
-195.260	800.000	0.049	0.146
-194.246	207.098	-0.199	0.311
-193.231	308.651	0.087	0.163
-192.217	-22.135	-0.390	-0.238
-191.202	-95.953	-0.304	-0.081
-190.187	311.426	0.024	0.046
-189.173	305.567	0.164	0.305
-188.158	-101.217	-0.197	-0.048
-187.144	64.406	0.255	-0.257
-186.129	-200.000	0.011	-0.052
-185.114	-104.090	-0.101	0.024
-184.100	39.431	-0.181	-0.163
-183.085	-30.060	0.147	0.084
-182.071	221.443	0.070	0.112
-181.056	4.813	-0.385	-0.284
-180.042	800.000	-0.088	-0.300
-179.027	145.525	-0.005	-0.006
-178.012	800.000	-0.071	0.246
-176.998	0.978	0.175	0.126
-175.983	-195.623	0.220	-0.002
-174.969	281.436	0.158	-0.284
-173.954	-51.789	0.224	-0.104
-172.939	-43.764	-0.163	-0.082
-171.925	-159.389	-0.278	0.016
-170.910	282.740	-0.213	-0.383
-169.896	5.200	0.112	0.083
-168.881	330.016	-0.048	-0.093
-167.866	-200.000	0.004	0.273
-166.852	-200.000	-0.046	0.382
-165.837	-200.000	-0.014	-0.463
-164.823	173.979	-0.158	-0.229
-163.808	86.429	-0.074	-0.082
-162.793	-139.588	0.051	0.005
-161.779	-200.000	0.030	0.139
-160.764	-200.000	0.040	0.257
-159.750	71.563	0.254	0.264
-158.735	34.887	0.224	-0.196
-157.720	-200.000	0.004	-0.251
-156.706	224.904	0.013	0.021
-155.691	241.154	0.173	0.290
-154.677	-118.823	0.248	-0.044
-153.662	800.000	-0.120	-0.462
-152.647	-166.379	0.124	-0.005
-151.633	285.044	0.058	0.104
-150.618	-71.606	-0.027	0.010
-149.604	-48.024	-0.236	0.114
-148.589	-200.000	-0.023	-0.195
-147.574	407.236	-0.188	0.398
-146.560	-128.641	-0.104	0.015
-145.545	12.096	0.183	0.141
-144.531	662.231	-0.116	-0.299
-143.516	-176.783	0.333	0.008
-142.502	-20.870	-0.050	-0.031
-141.487	360.729	-0.076	-0.152
-140.472	-200.000	0.021	-0.186
-139.458	51.694	-0.153	-0.145
-138.443	-58.932	-0.263	-0.114
-137.429	800.000	0.067	0.290
-136.414	-200.000	0.056	0.305
-135.399	-154.430	0.141	-0.009
-134.385	-52.894	0.085	-0.039
-133.370	-8.413	0.316	0.213
-132.356	-42.531	0.222	-0.113
-131.341	-30.418	0.087	-0.049
-130.326	66.287	0.365	0.370
-129.312	-91.888	-0.169	-0.048
-128.297	519.227	0.127	0.298
-127.283	489.726	0.039	0.089
-126.268	360.049	0.138	0.276
-125.253	-29.540	0.150	0.086
-124.239	-200.000	0.037	0.182
-123.224	-143.502	-0.255	0.024
-122.210	-36.509	0.153	-0.082
