DTS Sentinel unit serial number:	SN413079Multiplexer serial number:	ORYXHardware model number:	OX4-SRSoftware version number:	ORYX F/W v4.00 Oryx Data Collector v3.7.2.0data status	okinstallation	princeton_trtdifferential loss correction	single-endedforward channel	channel 2reverse channel	N/Adate	2019/09/10time	17:01:11forward acquisition time	60.00reverse acquisition time	0.00gamma	496.2192k internal	0.2310k external	0.2310temperature offset calibration	0.9934default loss term (dB/km)	0.3790temperature slope calibration	1.0000multiplexer offset coefficient	1.0000multiplexer slope coefficient	1.0000fibre end	0.00T internal ref (°C)	37.62T ext. ref 1 (°C)	-0.36T ext. ref 2 (°C)	32.22length (m)	temperature (°C)	Stokes	anti-Stokes-747.200	-36.013	-0.135	-0.074
-746.185	-120.101	0.394	0.069
-745.171	800.000	0.083	0.286
-744.156	197.256	-0.253	0.393
-743.142	-200.000	0.000	-0.022
-742.127	-106.390	-0.215	-0.049
-741.112	-81.189	0.176	-0.059
-740.098	-83.132	-0.205	0.067
-739.083	-17.027	-0.325	0.209
-738.069	-64.776	0.177	-0.073
-737.054	141.530	-0.140	0.188
-736.039	190.429	0.114	-0.173
-735.025	-199.620	0.210	0.001
-734.010	-56.552	0.312	-0.141
-732.996	-78.705	-0.223	-0.077
-731.981	35.006	-0.167	0.148
-730.966	112.289	0.113	0.139
-729.952	67.855	-0.133	0.138
-728.937	96.919	-0.318	0.370
-727.923	-119.453	0.256	0.045
-726.908	-173.647	-0.125	-0.004
-725.894	229.997	0.174	-0.288
-724.879	-200.000	0.013	-0.454
-723.864	-77.973	-0.323	-0.113
-722.850	-11.802	-0.107	0.071
-721.835	70.626	0.111	0.117
-720.821	800.000	0.064	-0.239
-719.806	-120.639	-0.162	0.028
-718.791	109.852	-0.091	-0.110
-717.777	-85.366	-0.202	-0.064
-716.762	-68.713	0.162	-0.064
-715.748	-200.000	0.037	0.194
-714.733	-200.000	0.020	-0.150
-713.718	800.000	0.026	0.098
-712.704	-87.654	-0.162	0.050
-711.689	-124.792	0.098	-0.015
-710.675	-171.272	-0.137	0.005
-709.660	-80.031	-0.241	-0.082
-708.645	199.633	0.194	-0.301
-707.631	-136.732	0.315	-0.037
-706.616	41.054	-0.101	0.093
-705.602	266.574	-0.089	-0.158
-704.587	225.139	-0.161	0.264
-703.572	754.287	-0.062	-0.171
-702.558	39.603	-0.095	-0.086
-701.543	117.255	0.085	-0.106
-700.529	800.000	0.030	0.089
-699.514	-74.990	-0.181	-0.066
-698.499	-200.000	0.036	0.276
-697.485	-120.628	-0.071	0.012
-696.470	-184.257	0.172	0.003
-695.456	74.695	0.220	-0.235
-694.441	48.535	0.217	-0.206
-693.426	-200.000	0.008	0.080
-692.412	-117.543	-0.441	0.081
-691.397	620.748	-0.076	0.195
-690.383	142.541	0.098	-0.132
-689.368	305.341	0.109	-0.206
-688.354	356.230	-0.103	-0.209
-687.339	-59.240	0.366	-0.160
-686.324	-115.886	-0.364	-0.069
-685.310	-98.545	0.167	-0.043
-684.295	573.036	-0.063	0.156
-683.281	140.553	-0.108	0.145
-682.266	31.337	0.254	0.221
-681.251	-156.928	0.639	-0.040
-680.237	257.539	0.094	-0.164
-679.222	-174.454	0.210	0.006
-678.208	-50.591	0.117	0.056
-677.193	578.153	-0.055	0.136
-676.178	102.228	-0.111	0.132
-675.164	28.088	-0.224	-0.191
-674.149	69.927	-0.175	-0.182
-673.135	-91.954	-0.370	-0.106
-672.120	112.616	0.072	-0.088
-671.105	258.857	-0.220	-0.384
-670.091	-200.000	0.019	0.193
-669.076	-69.154	-0.237	-0.092
-668.062	-29.033	0.267	-0.155
-667.047	-152.912	-0.388	0.028
-666.032	-144.699	0.063	-0.006
-665.018	-143.068	0.219	0.021
-664.003	31.365	-0.134	-0.117
-662.989	545.304	-0.048	0.116
-661.974	24.025	-0.207	0.173
-660.959	-23.656	-0.216	-0.131
-659.945	263.842	-0.203	-0.357
-658.930	-57.592	-0.369	0.164
-657.916	-71.384	0.132	0.050
-656.901	-124.388	0.049	-0.008
-655.886	-157.472	0.098	0.006
-654.872	-200.000	0.004	-0.178
-653.857	-28.591	-0.085	0.049
-652.843	-187.455	-0.380	-0.005
-651.828	-30.572	0.183	-0.105
-650.814	-88.926	-0.180	0.054
-649.799	-92.344	0.182	-0.052
-648.784	-173.282	-0.328	0.010
-647.770	78.833	-0.253	-0.273
-646.755	-8.741	0.343	-0.232
-645.741	800.000	0.083	0.277
-644.726	195.998	0.137	0.211
-643.711	413.928	-0.086	0.185
-642.697	-94.420	0.073	-0.020
-641.682	-101.731	0.205	-0.050
-640.668	-28.319	-0.091	0.053
-639.653	-139.067	-0.176	-0.019
-638.638	-78.494	-0.038	-0.013
-637.624	-200.000	-0.392	-0.001
-636.609	192.021	0.148	0.225
-635.595	-32.144	0.356	-0.201
-634.580	-71.613	-0.238	-0.090
-633.565	144.120	-0.187	0.252
-632.551	58.034	-0.236	-0.234
-631.536	-200.000	0.004	-0.152
-630.522	98.737	-0.159	0.186
-629.507	-2.413	-0.210	0.149
-628.492	126.349	0.073	0.093
-627.478	-131.937	0.420	-0.055
-626.463	-117.506	-0.096	0.018
-625.449	-200.000	-0.008	-0.210
-624.434	-34.836	-0.114	0.063
-623.419	710.988	0.010	-0.025
-622.405	-19.124	0.159	0.100
-621.390	417.404	0.094	0.204
-620.376	-1.333	0.140	0.100
-619.361	-200.000	-0.042	-0.200
-618.346	153.671	-0.100	0.139
-617.332	50.350	0.151	-0.144
-616.317	-74.701	0.332	-0.121
-615.303	-49.445	-0.137	-0.066
-614.288	29.762	0.048	0.042
-613.273	49.648	-0.125	0.119
-612.259	800.000	0.038	-0.121
-611.244	162.453	-0.191	-0.270
-610.230	-19.832	0.138	0.086
-609.215	-35.630	0.123	0.067
-608.201	-200.000	0.043	0.364
-607.186	-47.552	-0.180	-0.088
-606.171	-27.660	-0.177	0.104
-605.157	-11.563	0.197	-0.131
-604.142	-163.509	-0.193	0.009
-603.128	-42.870	0.066	0.034
-602.113	137.933	0.056	-0.075
-601.098	139.270	0.154	0.205
-600.084	-200.000	0.058	-0.274
-599.069	-58.867	0.060	0.026
-598.055	-200.000	0.036	-0.172
-597.040	240.370	0.092	0.155
-596.025	-113.423	0.232	0.046
-595.011	-57.619	-0.158	0.070
-593.996	-126.386	-0.056	-0.008
-592.982	-200.000	-0.029	0.341
-591.967	800.000	0.060	-0.179
-590.952	-35.916	-0.226	0.123
-589.938	-200.000	0.031	0.236
-588.923	156.174	-0.169	-0.236
-587.909	72.373	-0.101	-0.107
-586.894	293.019	-0.207	-0.382
-585.879	800.000	0.160	0.540
-584.865	-96.412	0.312	0.083
-583.850	-97.181	-0.092	-0.024
-582.836	498.356	-0.094	0.217
-581.821	-166.572	-0.200	-0.008
-580.806	261.275	0.063	-0.110
-579.792	-200.000	0.020	-0.192
-578.777	-33.952	-0.231	-0.128
-577.763	31.451	0.131	0.114
-576.748	-189.580	-0.160	-0.002
-575.733	200.960	0.072	-0.112
-574.719	-41.895	0.134	-0.069
-573.704	-64.501	-0.352	0.144
-572.690	-122.064	-0.366	0.061
-571.675	8.686	0.180	0.136
-570.661	-200.000	-0.019	-0.201
-569.646	260.956	-0.219	0.382
-568.631	83.313	-0.141	-0.155
-567.617	-157.222	-0.201	-0.012
-566.602	-84.859	0.088	-0.028
-565.588	-114.419	-0.365	-0.071
-564.573	-140.273	0.248	-0.026
-563.558	-200.000	0.017	0.213
-562.544	-200.000	-0.044	0.347
-561.529	307.826	0.118	-0.222
-560.515	207.036	0.182	-0.286
-559.500	-12.384	0.140	0.092
-558.485	-90.943	-0.154	-0.045
-557.471	43.817	0.224	-0.207
-556.456	-2.246	-0.173	-0.123
-555.442	-200.000	-0.011	-0.317
-554.427	800.000	0.037	0.149
-553.412	185.641	0.131	0.197
-552.398	-180.373	-0.335	0.007
-551.383	-200.000	0.015	0.113
-550.369	800.000	-0.034	-0.150
-549.354	791.107	-0.112	-0.309
-548.339	14.147	-0.106	-0.084
-547.325	290.618	0.167	0.305
-546.310	-91.066	-0.182	-0.053
-545.296	-55.176	-0.214	-0.097
-544.281	-160.803	-0.160	-0.009
-543.266	-23.551	-0.333	-0.201
-542.252	-200.000	0.026	-0.131
-541.237	582.255	-0.098	-0.242
-540.223	-200.000	-0.020	0.322
-539.208	621.579	-0.064	-0.163
-538.193	-26.153	-0.258	0.153
-537.179	800.000	0.011	0.049
-536.164	-102.265	-0.246	-0.060
-535.150	-129.731	0.238	0.033
-534.135	68.560	-0.169	-0.175
-533.121	6.611	0.246	0.184
-532.106	366.011	0.073	0.149
-531.091	-200.000	0.048	-0.308
-530.077	-109.730	-0.393	0.083
-529.062	-26.755	-0.201	-0.118
-528.048	-200.000	0.033	0.205
-527.033	134.324	0.051	0.067
-526.018	-189.380	-0.322	-0.004
-525.004	117.862	0.341	-0.422
-523.989	-74.622	-0.143	-0.052
-522.975	447.907	0.056	0.124
-521.960	-31.347	0.157	0.089
-520.945	-60.034	0.121	-0.052
-519.931	800.000	0.117	-0.410
-518.916	-105.941	0.168	-0.038
-517.902	-61.581	-0.227	0.096
-516.887	-69.117	0.233	-0.090
-515.872	-134.017	0.103	0.013
-514.858	-1.265	0.276	-0.196
-513.843	531.996	-0.084	-0.201
-512.829	1.946	-0.208	-0.151
-511.814	-200.000	0.008	-0.378
-510.799	319.399	0.154	-0.294
-509.785	477.846	-0.102	0.233
-508.770	590.758	0.201	0.500
-507.756	11.968	0.217	0.168
-506.741	-2.522	-0.226	-0.159
-505.726	17.532	0.191	-0.153
-504.712	-200.000	0.051	-0.347
-503.697	-6.142	-0.256	-0.176
-502.683	119.475	0.071	0.088
-501.668	-200.000	0.202	-0.000
-500.653	159.263	0.043	-0.061
-499.639	-104.768	0.294	0.068
-498.624	-145.655	0.375	0.034
-497.610	249.871	-0.237	0.404
-496.595	500.593	-0.041	0.095
-495.581	800.000	0.049	0.175
-494.566	-34.635	-0.258	-0.142
-493.551	-200.000	-0.000	-0.302
-492.537	98.696	-0.168	0.195
-491.522	73.074	-0.141	-0.149
-490.508	-0.083	-0.255	0.183
-489.493	354.015	-0.073	0.145
-488.478	25.004	-0.083	-0.069
-487.464	-10.695	0.177	-0.118
-486.449	-105.058	0.337	0.078
-485.435	-200.000	-0.015	-0.409
-484.420	32.526	0.112	-0.097
-483.405	-129.279	0.263	-0.037
-482.391	20.888	-0.189	-0.154
-481.376	-200.000	0.029	-0.307
-480.362	139.034	-0.083	0.110
-479.347	-70.678	-0.363	0.138
-478.332	206.299	0.216	-0.338
-477.318	-8.991	0.107	0.072
-476.303	-200.000	0.007	0.130
-475.289	-1.994	0.127	0.089
-474.274	-161.395	-0.199	-0.010
-473.259	800.000	0.084	-0.319
-472.245	57.571	-0.144	-0.141
-471.230	277.598	-0.140	0.250
-470.216	-200.000	-0.001	-0.304
-469.201	-141.451	0.248	0.025
-468.186	-77.360	0.276	-0.097
-467.172	-47.379	0.550	-0.269
-466.157	205.764	-0.126	0.196
-465.143	-200.000	0.031	0.265
-464.128	368.254	-0.140	0.284
-463.113	-40.727	0.057	0.029
-462.099	235.386	-0.131	-0.217
-461.084	800.000	0.093	-0.332
-460.070	-200.000	-0.006	-0.080
-459.055	-47.087	-0.060	0.030
-458.040	612.104	0.109	0.274
-457.026	193.933	0.065	0.098
-456.011	-200.000	0.026	-0.137
-454.997	-200.000	-0.006	-0.064
-453.982	16.588	-0.280	0.222
-452.968	5.661	0.175	0.130
-451.953	701.651	-0.207	0.546
-450.938	76.920	0.101	0.108
-449.924	140.196	-0.107	-0.142
-448.909	177.389	-0.055	0.080
-447.895	70.753	0.262	0.273
-446.880	656.850	0.030	0.077
-445.865	-200.000	-0.019	-0.111
-444.851	495.907	-0.104	-0.240
-443.836	-200.000	-0.017	-0.096
-442.822	108.064	0.018	0.021
-441.807	236.313	0.121	-0.201
-440.792	676.462	-0.078	0.203
-439.778	800.000	-0.081	0.292
-438.763	-200.000	0.024	0.260
-437.749	-42.495	0.171	0.088
-436.734	-131.913	0.197	-0.026
-435.719	-24.947	-0.048	0.028
-434.705	-200.000	-0.064	0.395
-433.690	303.804	0.048	-0.089
-432.676	-167.576	0.191	-0.008
-431.661	-26.524	-0.243	-0.143
-430.646	205.579	-0.296	-0.462
-429.632	-118.754	-0.491	-0.087
-428.617	663.988	-0.047	0.122
-427.603	119.829	0.064	0.079
-426.588	669.945	0.041	0.107
-425.573	698.059	0.046	-0.120
-424.559	-200.000	-0.075	-0.330
-423.544	-70.670	-0.152	-0.058
-422.530	-66.597	-0.115	0.046
-421.515	-198.041	-0.031	0.000
-420.500	344.831	0.099	0.195
-419.486	800.000	-0.080	0.304
-418.471	-32.940	-0.175	-0.098
-417.457	800.000	0.106	-0.315
-416.442	-137.221	-0.189	0.022
-415.428	255.090	0.143	-0.245
-414.413	-25.472	0.231	0.137
-413.398	800.000	-0.097	-0.384
-412.384	800.000	-0.069	0.260
-411.369	800.000	0.079	-0.311
-410.355	9.980	0.053	0.040
-409.340	209.144	0.029	-0.045
-408.325	-200.000	-0.026	0.314
-407.311	38.982	-0.089	-0.080
-406.296	-67.022	-0.296	0.117
-405.282	198.448	-0.080	-0.123
-404.267	64.869	-0.121	0.122
-403.252	198.024	-0.210	-0.321
-402.238	99.493	-0.118	-0.137
-401.223	62.590	-0.198	0.198
-400.209	-200.000	-0.035	-0.219
-399.194	-26.188	0.060	-0.035
-398.179	-75.016	-0.260	-0.093
-397.165	800.000	0.066	-0.199
-396.150	800.000	-0.046	-0.156
-395.136	194.037	-0.042	0.064
-394.121	198.281	0.171	0.262
-393.106	24.896	-0.260	0.216
-392.092	24.332	0.057	0.047
-391.077	800.000	0.097	-0.316
-390.063	800.000	-0.084	-0.260
-389.048	-96.024	0.286	-0.076
-388.033	414.091	-0.077	0.165
-387.019	-94.072	-0.282	-0.077
-386.004	178.164	-0.055	0.081
-384.990	63.287	0.107	-0.108
-383.975	-102.694	0.055	0.013
-382.960	-200.000	-0.076	0.453
-381.946	-129.886	-0.091	-0.013
-380.931	-86.617	0.180	-0.055
-379.917	800.000	0.098	-0.372
-378.902	-200.000	0.089	-0.396
-377.888	-15.197	0.148	-0.095
-376.873	223.572	0.144	-0.232
-375.858	-74.527	-0.195	-0.070
-374.844	429.952	-0.067	0.145
-373.829	91.370	-0.103	-0.116
-372.815	-158.921	-0.553	0.031
-371.800	-94.798	0.242	0.066
-370.785	-14.603	-0.318	-0.204
-369.771	99.472	-0.126	0.146
-368.756	-10.482	-0.173	0.115
-367.742	-92.035	-0.093	0.026
-366.727	215.858	-0.080	0.126
-365.712	-27.057	-0.263	0.153
-364.698	13.349	-0.242	-0.188
-363.683	25.141	0.114	-0.095
-362.669	-42.221	0.345	0.176
-361.654	-133.052	-0.067	-0.009
-360.639	387.045	-0.129	0.268
-359.625	800.000	0.052	-0.150
-358.610	800.000	0.033	-0.127
-357.596	800.000	-0.057	0.179
-356.581	-38.777	0.268	0.141
-355.566	-200.000	0.011	-0.131
-354.552	24.014	-0.144	-0.119
-353.537	26.943	0.224	-0.188
-352.523	-15.282	-0.205	0.131
-351.508	44.159	0.118	0.108
-350.493	800.000	-0.150	0.538
-349.479	548.551	0.269	-0.644
-348.464	800.000	-0.124	0.405
-347.450	-32.475	-0.199	0.111
-346.435	278.124	-0.134	0.239
-345.420	37.329	-0.032	-0.028
-344.406	-101.392	0.306	0.075
-343.391	-80.823	-0.168	0.056
-342.377	-63.479	0.133	-0.055
-341.362	-200.000	0.032	-0.328
-340.348	-72.602	0.203	-0.075
-339.333	-200.000	-0.024	0.175
-338.318	-200.000	0.040	0.209
-337.304	-159.256	0.136	0.008
-336.289	140.880	-0.245	-0.324
-335.275	21.994	-0.327	-0.266
-334.260	-133.948	0.229	0.028
-333.245	800.000	-0.041	-0.175
-332.231	-0.646	0.125	-0.088
-331.216	486.778	0.039	-0.090
-330.202	-200.000	-0.003	0.155
-329.187	584.227	0.023	0.056
-328.172	-47.588	0.142	0.069
-327.158	-38.058	0.183	-0.097
-326.143	-200.000	0.019	-0.138
-325.129	47.785	0.220	0.205
-324.114	531.704	-0.094	0.222
-323.099	-83.239	-0.127	0.041
-322.085	-172.242	0.297	0.010
-321.070	-170.852	0.257	0.009
-320.056	-200.000	-0.028	0.126
-319.041	-79.622	-0.217	-0.073
-318.026	165.534	-0.123	-0.174
-317.012	-29.128	0.173	0.099
-315.997	67.872	0.156	0.159
-314.983	-49.086	0.087	-0.041
-313.968	800.000	0.008	-0.024
-312.953	-200.000	0.032	0.348
-311.939	-165.208	-0.124	-0.005
-310.924	-200.000	0.020	-0.168
-309.910	39.439	0.260	-0.233
-308.895	236.566	0.130	0.214
-307.880	136.056	-0.095	0.124
-306.866	40.022	-0.060	0.054
-305.851	-187.467	-0.258	0.003
-304.837	-60.886	0.235	-0.099
-303.822	-158.192	0.504	0.029
-302.807	161.157	0.129	0.180
-301.793	377.306	-0.045	0.091
-300.778	98.251	0.087	0.100
-299.764	800.000	0.036	-0.144
-298.749	-200.000	-0.037	0.330
-297.735	-47.243	0.212	0.103
-296.720	18.927	-0.268	-0.214
-295.705	-16.840	-0.242	-0.153
-294.691	-94.729	0.165	-0.045
-293.676	-72.516	0.431	0.159
-292.662	82.623	0.105	0.114
-291.647	446.916	0.062	-0.135
-290.632	108.406	-0.388	-0.462
-289.618	-200.000	-0.038	0.178
-288.603	800.000	0.058	0.178
-287.589	9.480	0.407	0.307
-286.574	-40.920	0.244	0.126
-285.559	3.428	-0.213	0.155
-284.545	-45.446	-0.270	0.134
-283.530	184.975	0.077	-0.113
-282.516	-82.398	-0.187	0.061
-281.501	459.951	0.148	-0.329
-280.486	800.000	0.134	0.376
-279.472	800.000	-0.028	0.092
-278.457	86.128	0.185	-0.203
-277.443	-5.203	0.264	0.181
-276.428	-62.985	0.298	-0.123
-275.413	43.007	0.224	0.203
-274.399	-157.976	-0.085	-0.005
-273.384	-200.000	-0.001	-0.017
-272.370	-200.000	-0.024	0.243
-271.355	249.864	0.121	-0.204
-270.340	-1.476	0.165	0.116
-269.326	55.199	-0.157	-0.152
-268.311	222.233	-0.147	0.235
-267.297	104.499	-0.240	-0.282
-266.282	-124.724	0.353	0.054
-265.267	31.182	0.236	0.202
-264.253	-177.889	-0.220	0.005
-263.238	-200.000	0.009	-0.039
-262.224	800.000	0.081	0.224
-261.209	674.662	-0.057	0.147
-260.195	264.123	0.090	-0.155
-259.180	31.911	-0.038	-0.033
-258.165	-86.766	0.320	-0.098
-257.151	-200.000	-0.015	0.328
-256.136	-68.245	0.197	0.076
-255.122	-200.000	-0.002	-0.272
-254.107	228.409	0.043	-0.070
-253.092	221.206	0.060	-0.096
-252.078	-55.231	0.190	0.085
-251.063	51.055	-0.161	0.152
-250.049	-194.042	0.155	-0.001
-249.034	294.262	-0.178	0.325
-248.019	-35.736	-0.059	0.032
-247.005	-64.181	0.230	0.093
-245.990	-139.251	0.097	0.010
-244.976	-150.756	0.076	-0.006
-243.961	24.007	0.053	-0.043
-242.946	-39.993	-0.271	-0.141
-241.932	-43.029	-0.311	-0.157
-240.917	-200.000	0.005	-0.185
-239.903	-200.000	-0.013	-0.125
-238.888	800.000	0.033	-0.107
-237.873	800.000	0.069	0.242
-236.859	154.553	-0.158	0.216
-235.844	-56.488	-0.101	0.044
-234.830	14.137	-0.086	0.067
-233.815	800.000	0.025	-0.103
-232.800	63.673	0.054	-0.054
-231.786	-200.000	0.011	-0.264
-230.771	-129.015	0.270	0.038
-229.757	131.764	0.371	-0.475
-228.742	70.425	-0.154	0.159
-227.727	380.135	0.045	-0.092
-226.713	228.524	-0.167	-0.271
-225.698	-200.000	0.031	-0.200
-224.684	-200.000	0.012	-0.145
-223.669	-37.625	0.276	-0.147
-222.655	39.627	-0.187	0.167
-221.640	800.000	-0.019	-0.077
-220.625	-200.000	-0.029	-0.150
-219.611	-103.500	0.140	0.033
-218.596	18.044	0.116	-0.092
-217.582	-25.804	-0.210	0.123
-216.567	800.000	0.026	0.112
-215.552	800.000	-0.114	0.388
-214.538	515.108	0.052	0.121
-213.523	-65.891	0.214	0.085
-212.509	800.000	-0.066	-0.230
-211.494	-25.958	0.048	-0.028
-210.479	249.114	-0.017	-0.029
-209.465	-200.000	0.027	0.181
-208.450	-200.000	-0.016	-0.229
-207.436	14.496	-0.216	0.168
-206.421	6.504	0.268	0.198
-205.406	-200.000	-0.004	0.146
-204.392	-200.000	-0.027	0.153
-203.377	-174.226	0.167	-0.005
-202.363	800.000	-0.071	-0.226
-201.348	-67.770	0.197	0.076
-200.333	-19.422	-0.262	0.161
-199.319	-200.000	-0.050	0.236
-198.304	-122.430	0.111	0.018
-197.290	800.000	-0.042	0.120
-196.275	14.554	-0.304	-0.236
-195.260	800.000	0.109	0.311
-194.246	-38.332	-0.178	0.094
-193.231	800.000	0.041	-0.163
-192.217	-130.205	0.485	0.066
-191.202	800.000	0.168	0.473
-190.187	38.902	-0.210	-0.186
-189.173	800.000	0.048	-0.134
-188.158	-152.056	0.126	0.009
-187.144	514.596	-0.130	-0.303
-186.129	9.103	-0.427	-0.320
-185.114	387.213	-0.088	-0.181
-184.100	291.506	-0.066	0.119
-183.085	-77.991	0.118	-0.040
-182.071	-200.000	0.002	0.214
-181.056	0.661	0.215	0.153
-180.042	69.062	0.284	0.290
-179.027	-148.693	0.071	-0.006
-178.012	-120.531	-0.189	0.032
-176.998	-97.245	0.211	-0.055
-175.983	38.392	0.183	-0.162
-174.969	-128.980	-0.175	-0.024
-173.954	754.153	-0.019	-0.051
-172.939	300.860	0.074	-0.135
-171.925	-200.000	0.017	0.192
-170.910	-98.402	0.199	-0.051
-169.896	-49.100	0.177	-0.084
-168.881	-95.755	-0.178	-0.047
-167.866	531.788	0.075	0.177
-166.852	28.039	-0.054	-0.045
-165.837	181.544	0.099	0.144
-164.823	26.400	-0.087	-0.073
-163.808	-84.007	0.148	0.047
-162.793	-200.000	0.036	0.232
-161.779	-139.610	-0.138	0.015
-160.764	-173.865	-0.089	-0.003
-159.750	-31.105	-0.286	0.160
-158.735	63.009	-0.202	-0.200
-157.720	-86.447	0.203	-0.062
-156.706	-200.000	-0.019	0.164
-155.691	51.472	0.041	0.038
-154.677	-200.000	-0.063	0.465
-153.662	398.877	-0.085	0.177
-152.647	-5.407	-0.251	-0.171
-151.633	-200.000	0.025	-0.230
-150.618	800.000	-0.080	-0.268
-149.604	-200.000	-0.007	0.192
-148.589	18.005	0.142	0.112
-147.574	-9.150	-0.239	0.159
-146.560	-111.277	-0.120	0.024
-145.545	-93.198	-0.251	-0.069
-144.531	254.827	-0.129	-0.219
-143.516	-19.636	-0.296	0.182
-142.502	59.047	0.053	-0.051
-141.487	246.095	-0.102	0.170
-140.472	-154.282	0.185	0.012
-139.458	12.281	0.216	-0.165
-138.443	156.845	0.083	0.114
-137.429	-172.621	-0.291	0.009
-136.414	5.012	-0.139	-0.102
-135.399	-200.000	-0.049	-0.237
-134.385	105.310	0.257	0.301
-133.370	-169.338	0.174	-0.006
-132.356	357.567	-0.085	0.167
-131.341	-96.492	-0.178	-0.047
-130.326	-200.000	0.021	0.349
-129.312	123.595	-0.023	0.028
-128.297	-92.762	0.342	0.095
-127.283	334.229	0.089	0.170
-126.268	281.844	0.139	0.246
-125.253	-134.886	-0.372	0.045
-124.239	-194.615	0.125	-0.001
-123.224	-161.706	-0.048	0.002
-122.210	-39.289	-0.231	-0.120
-121.195	-154.166	0.130	-0.009
