DTS Sentinel unit serial number:	SN413079Multiplexer serial number:	ORYXHardware model number:	OX4-SRSoftware version number:	ORYX F/W v4.00 Oryx Data Collector v3.7.2.0data status	okinstallation	princeton_trtdifferential loss correction	single-endedforward channel	channel 2reverse channel	N/Adate	2019/09/11time	08:01:11forward acquisition time	60.00reverse acquisition time	0.00gamma	496.2192k internal	0.2325k external	0.2325temperature offset calibration	1.1238default loss term (dB/km)	0.3790temperature slope calibration	1.0000multiplexer offset coefficient	1.0000multiplexer slope coefficient	1.0000fibre end	0.00T internal ref (°C)	32.12T ext. ref 1 (°C)	19.43T ext. ref 2 (°C)	27.65length (m)	temperature (°C)	Stokes	anti-Stokes-747.200	800.000	-0.110	-0.419
-746.185	-200.000	-0.057	0.441
-745.171	656.999	0.084	-0.218
-744.156	-77.328	0.139	0.049
-743.142	65.362	0.211	-0.215
-742.127	-48.914	-0.275	0.133
-741.112	489.816	-0.106	0.244
-740.098	35.578	-0.112	-0.099
-739.083	224.007	0.028	0.045
-738.069	800.000	-0.094	0.390
-737.054	185.469	-0.059	-0.088
-736.039	-200.000	-0.079	-0.409
-735.025	800.000	-0.022	-0.062
-734.010	119.381	-0.211	-0.263
-732.996	800.000	-0.007	-0.029
-731.981	-61.590	-0.261	0.111
-730.966	428.217	0.069	-0.150
-729.952	-120.751	0.289	0.049
-728.937	284.751	-0.227	-0.412
-727.923	462.420	0.102	-0.229
-726.908	28.794	0.166	0.141
-725.894	-200.000	-0.040	0.202
-724.879	-80.102	-0.396	-0.134
-723.864	-200.000	-0.010	0.184
-722.850	-100.053	0.189	0.048
-721.835	-42.980	-0.212	0.109
-720.821	-91.830	0.301	0.086
-719.806	16.045	0.275	0.219
-718.791	-142.490	0.093	-0.009
-717.777	-200.000	0.020	0.161
-716.762	4.935	0.120	-0.089
-715.748	221.208	0.089	0.144
-714.733	358.618	0.063	-0.127
-713.718	-200.000	-0.015	0.384
-712.704	56.936	-0.158	-0.155
-711.689	720.725	-0.110	-0.295
-710.675	71.038	-0.126	0.131
-709.660	-81.805	0.302	-0.100
-708.645	-135.477	0.141	0.017
-707.631	800.000	0.065	-0.270
-706.616	-60.278	-0.331	0.142
-705.602	800.000	0.088	0.255
-704.587	-115.242	-0.193	0.037
-703.572	411.058	-0.041	-0.087
-702.558	-200.000	-0.033	0.350
-701.543	800.000	0.010	0.038
-700.529	-200.000	-0.120	0.594
-699.514	26.836	0.238	0.201
-698.499	800.000	-0.049	-0.156
-697.485	23.804	-0.136	-0.113
-696.470	800.000	0.017	-0.053
-695.456	-112.418	-0.031	0.006
-694.441	203.280	-0.071	-0.110
-693.426	-200.000	-0.093	-0.584
-692.412	532.940	-0.128	-0.305
-691.397	1.911	-0.285	-0.207
-690.383	-200.000	-0.012	0.104
-689.368	-85.526	0.333	0.104
-688.354	29.794	-0.189	0.162
-687.339	800.000	0.063	0.220
-686.324	167.644	0.056	0.081
-685.310	222.094	-0.035	-0.057
-684.295	800.000	0.060	-0.193
-683.281	317.839	0.153	0.291
-682.266	800.000	0.026	-0.099
-681.251	-200.000	0.004	-0.332
-680.237	-36.651	-0.137	-0.074
-679.222	800.000	-0.027	-0.102
-678.208	4.947	-0.021	0.016
-677.193	-120.308	-0.235	-0.040
-676.178	38.450	-0.108	-0.097
-675.164	-51.325	-0.208	0.098
-674.149	80.924	0.268	0.291
-673.135	-97.591	0.077	-0.020
-672.120	800.000	0.067	-0.236
-671.105	-69.461	-0.274	-0.106
-670.091	-152.447	-0.121	0.009
-669.076	-61.813	-0.364	0.153
-668.062	145.699	0.389	0.525
-667.047	800.000	0.028	0.111
-666.032	-113.007	-0.028	0.006
-665.018	-54.743	-0.039	0.018
-664.003	-95.191	0.315	0.085
-662.989	71.381	0.014	0.015
-661.974	305.741	0.063	-0.118
-660.959	4.457	-0.277	-0.204
-659.945	-200.000	0.016	0.090
-658.930	721.266	0.081	-0.216
-657.916	41.051	-0.176	-0.160
-656.901	93.795	0.247	0.281
-655.886	61.921	-0.208	-0.209
-654.872	3.167	0.377	0.276
-653.857	-200.000	0.090	0.413
-652.843	14.602	0.095	-0.075
-651.828	-2.577	-0.029	-0.020
-650.814	167.948	-0.125	-0.178
-649.799	800.000	0.101	0.422
-648.784	-72.461	-0.192	0.071
-647.770	247.640	-0.080	-0.137
-646.755	-42.076	0.129	-0.066
-645.741	-200.000	0.073	-0.420
-644.726	-1.923	0.116	-0.082
-643.711	-2.521	-0.263	-0.185
-642.697	-149.697	0.247	-0.020
-641.682	800.000	-0.054	-0.201
-640.668	-66.727	-0.363	0.144
-639.653	574.627	-0.120	-0.294
-638.638	-2.221	0.313	-0.221
-637.624	-200.000	-0.023	-0.134
-636.609	62.417	0.144	-0.144
-635.595	-161.503	-0.028	0.001
-634.580	457.768	-0.177	-0.395
-633.565	800.000	0.072	0.313
-632.551	-79.720	0.226	-0.076
-631.536	148.199	0.167	-0.226
-630.522	69.225	0.324	-0.334
-629.507	231.534	0.143	-0.236
-628.492	-115.681	0.300	-0.056
-627.478	-200.000	-0.067	0.431
-626.463	-8.708	-0.332	0.224
-625.449	53.256	-0.056	-0.053
-624.434	-99.251	-0.024	-0.006
-623.419	-200.000	0.017	0.319
-622.405	-200.000	0.063	-0.411
-621.390	-1.146	-0.121	-0.086
-620.376	-18.982	-0.189	-0.118
-619.361	-126.840	-0.304	-0.045
-618.346	-138.965	-0.511	-0.056
-617.332	303.185	0.131	0.243
-616.317	459.745	0.114	-0.255
-615.303	-200.000	-0.019	-0.087
-614.288	800.000	-0.125	-0.351
-613.273	-200.000	0.043	0.309
-612.259	-200.000	-0.004	-0.138
-611.244	-117.638	0.413	0.075
-610.230	81.428	-0.092	0.099
-609.215	-17.428	0.072	0.046
-608.201	183.244	0.191	0.284
-607.186	-67.232	0.110	0.043
-606.171	-200.000	0.039	0.277
-605.157	558.493	0.159	0.386
-604.142	-101.331	0.209	-0.051
-603.128	159.307	-0.178	-0.249
-602.113	125.879	-0.093	0.118
-601.098	-200.000	-0.014	-0.326
-600.084	-189.096	-0.154	0.002
-599.069	-191.994	0.140	-0.001
-598.055	-200.000	-0.018	-0.095
-597.040	800.000	-0.071	-0.284
-596.025	15.164	-0.170	-0.133
-595.011	800.000	0.092	0.300
-593.996	-130.419	0.319	-0.043
-592.982	433.066	0.065	0.141
-591.967	-200.000	-0.000	0.225
-590.952	17.520	0.298	0.238
-589.938	423.040	-0.078	0.169
-588.923	302.044	0.059	-0.110
-587.909	-83.266	-0.244	0.079
-586.894	-78.532	-0.207	0.071
-585.879	-200.000	-0.013	-0.164
-584.865	118.619	0.253	-0.313
-583.850	422.291	0.069	0.149
-582.836	-200.000	0.026	-0.363
-581.821	-55.819	-0.260	-0.117
-580.806	-150.999	-0.202	0.015
-579.792	-101.228	-0.147	-0.036
-578.777	382.304	-0.106	0.219
-577.763	800.000	0.080	-0.245
-576.748	111.450	-0.240	0.290
-575.733	800.000	-0.022	0.075
-574.719	-177.311	0.187	-0.005
-573.704	176.144	0.226	-0.328
-572.690	-15.289	-0.363	0.233
-571.675	-200.000	-0.004	-0.108
-570.661	-39.729	-0.112	0.059
-569.646	231.732	-0.094	-0.155
-568.631	-164.110	-0.342	0.016
-567.617	168.996	-0.156	0.223
-566.602	-200.000	0.024	-0.128
-565.588	-200.000	-0.036	0.191
-564.573	62.188	-0.052	-0.051
-563.558	-29.695	-0.138	0.079
-562.544	217.677	0.051	0.081
-561.529	-113.071	0.180	-0.036
-560.515	404.583	-0.105	0.221
-559.500	-59.679	-0.035	-0.015
-558.485	800.000	-0.091	0.384
-557.471	800.000	-0.138	0.502
-556.456	437.749	0.072	-0.156
-555.442	800.000	0.102	0.322
-554.427	-6.495	-0.084	-0.057
-553.412	-200.000	-0.012	-0.086
-552.398	-7.822	0.234	-0.158
-551.383	-200.000	-0.041	-0.217
-550.369	48.493	0.203	-0.190
-549.354	103.564	-0.341	0.400
-548.339	15.727	-0.269	0.212
-547.325	-200.000	-0.015	0.266
-546.310	-6.077	-0.246	0.168
-545.296	-200.000	0.084	-0.425
-544.281	241.966	0.006	0.010
-543.266	800.000	0.019	-0.066
-542.252	-200.000	-0.006	-0.265
-541.237	800.000	0.022	0.075
-540.223	33.380	0.147	0.128
-539.208	85.137	0.104	-0.114
-538.193	-149.120	0.104	-0.008
-537.179	30.836	0.185	-0.158
-536.164	-200.000	-0.021	-0.241
-535.150	373.256	-0.172	-0.351
-534.135	28.195	-0.127	0.107
-533.121	-200.000	0.051	0.244
-532.106	-143.953	0.298	-0.028
-531.091	-48.037	0.119	-0.057
-530.077	-78.210	-0.156	0.054
-529.062	-7.763	0.226	0.153
-528.048	-200.000	0.012	-0.186
-527.033	-200.000	-0.014	-0.281
-526.018	640.817	0.086	-0.219
-525.004	800.000	-0.061	0.256
-523.989	-65.385	0.031	-0.012
-522.975	94.714	0.097	-0.111
-521.960	-151.348	-0.352	-0.026
-520.945	-42.258	-0.338	0.173
-519.931	-200.000	0.033	0.150
-518.916	-87.600	-0.304	0.092
-517.902	122.344	-0.130	0.163
-516.887	237.977	0.110	-0.182
-515.872	-131.148	0.144	-0.019
-514.858	190.805	-0.234	-0.352
-513.843	-14.646	0.060	-0.038
-512.829	-10.764	-0.173	0.114
-511.814	192.805	-0.174	-0.263
-510.799	-188.054	0.341	-0.004
-509.785	-194.743	-0.155	-0.001
-508.770	332.109	0.078	0.150
-507.756	-133.414	-0.322	-0.041
-506.741	214.702	-0.152	-0.241
-505.726	-14.449	-0.185	0.119
-504.712	800.000	-0.056	-0.157
-503.697	64.695	-0.123	-0.124
-502.683	800.000	-0.033	0.134
-501.668	237.150	-0.146	-0.243
-500.653	-10.032	-0.167	-0.111
-499.639	-68.473	0.131	0.051
-498.624	144.352	0.162	0.216
-497.610	-53.132	0.274	0.126
-496.595	-63.564	-0.180	0.074
-495.581	137.883	-0.024	-0.031
-494.566	56.904	0.228	-0.222
-493.551	422.846	-0.057	-0.123
-492.537	-42.085	-0.113	0.058
-491.522	258.386	0.063	-0.109
-490.508	-121.998	0.128	0.021
-489.493	-54.641	-0.162	-0.073
-488.478	182.955	0.213	-0.314
-487.464	74.412	0.111	-0.117
-486.449	35.921	-0.168	-0.148
-485.435	-200.000	-0.061	-0.271
-484.420	37.781	-0.156	-0.138
-483.405	-131.081	-0.223	0.030
-482.391	-200.000	0.001	-0.016
-481.376	298.492	0.139	0.255
-480.362	228.532	-0.151	-0.245
-479.347	-76.861	-0.314	0.110
-478.332	-8.260	0.084	-0.056
-477.318	-139.468	0.036	0.004
-476.303	109.371	0.074	0.089
-475.289	463.171	-0.108	0.241
-474.274	57.780	0.176	0.172
-473.259	-135.000	-0.120	-0.014
-472.245	190.392	-0.109	-0.163
-471.230	250.934	0.044	-0.074
-470.216	-200.000	-0.017	-0.076
-469.201	-136.018	0.164	0.019
-468.186	227.918	-0.075	-0.121
-467.172	30.264	0.105	-0.089
-466.157	-73.701	-0.067	0.024
-465.143	800.000	-0.050	0.140
-464.128	-35.294	-0.221	0.120
-463.113	519.175	-0.074	-0.173
-462.099	-200.000	-0.051	-0.361
-461.084	0.257	0.207	0.147
-460.070	522.853	-0.126	0.295
-459.055	800.000	-0.108	0.380
-458.040	-146.969	-0.316	0.027
-457.026	-200.000	-0.001	-0.205
-456.011	-200.000	0.044	-0.213
-454.997	143.108	0.043	0.057
-453.982	480.241	-0.127	0.286
-452.968	45.489	0.125	-0.115
-451.953	-130.432	0.098	0.013
-450.938	119.472	-0.108	-0.134
-449.924	-200.000	-0.046	0.389
-448.909	-200.000	0.042	-0.240
-447.895	-27.335	-0.358	0.208
-446.880	15.570	-0.141	0.110
-445.865	-23.022	-0.221	0.133
-444.851	8.467	0.027	0.020
-443.836	-200.000	-0.005	0.332
-442.822	-37.408	0.059	-0.031
-441.807	-164.623	0.277	0.013
-440.792	2.584	-0.201	-0.145
-439.778	627.615	0.060	0.152
-438.763	-101.568	-0.312	-0.076
-437.749	246.853	0.121	0.204
-436.734	-9.337	0.201	0.134
-435.719	391.047	0.094	0.195
-434.705	116.214	-0.098	-0.119
-433.690	-84.438	-0.305	-0.096
-432.676	33.431	0.102	-0.088
-431.661	-25.374	-0.182	0.107
-430.646	369.864	0.069	-0.140
-429.632	-32.842	-0.031	-0.017
-428.617	-70.585	0.259	0.098
-427.603	-200.000	0.019	-0.168
-426.588	800.000	0.114	-0.350
-425.573	-30.293	-0.156	-0.088
-424.559	98.380	-0.073	-0.084
-423.544	-17.610	-0.151	0.095
-422.530	134.310	0.117	0.151
-421.515	-55.382	0.215	-0.096
-420.500	-200.000	-0.004	0.165
-419.486	440.289	0.017	0.037
-418.471	228.853	0.231	-0.376
-417.457	-124.665	0.393	-0.061
-416.442	-98.357	0.223	-0.057
-415.428	-71.507	0.214	0.080
-414.413	94.201	-0.130	0.147
-413.398	269.608	-0.198	-0.346
-412.384	3.599	-0.123	-0.089
-411.369	-32.778	0.186	0.103
-410.355	-79.750	-0.196	0.066
-409.340	-91.860	0.325	0.092
-408.325	21.930	0.381	-0.309
-407.311	94.622	0.087	-0.098
-406.296	-129.243	0.122	-0.017
-405.282	-39.800	-0.121	0.063
-404.267	-200.000	-0.003	0.158
-403.252	-200.000	0.030	0.227
-402.238	-200.000	0.012	-0.274
-401.223	290.299	0.160	-0.289
-400.209	181.887	0.223	0.327
-399.194	-64.638	0.223	-0.090
-398.179	-59.405	-0.172	-0.074
-397.165	76.338	-0.168	0.177
-396.150	-200.000	-0.000	-0.106
-395.136	25.678	-0.288	-0.239
-394.121	273.868	-0.075	0.133
-393.106	64.132	-0.163	0.164
-392.092	-200.000	-0.045	0.325
-391.077	-120.904	0.093	-0.016
-390.063	412.761	-0.037	-0.078
-389.048	66.056	-0.254	0.257
-388.033	22.817	0.136	0.111
-387.019	-200.000	0.010	0.235
-386.004	-22.740	-0.163	0.098
-384.990	62.113	-0.220	0.218
-383.975	-63.193	-0.489	-0.201
-382.960	-200.000	-0.012	-0.213
-381.946	-200.000	0.051	0.233
-380.931	800.000	-0.020	-0.076
-379.917	144.090	-0.145	0.192
-378.902	81.818	-0.020	0.022
-377.888	-23.423	-0.217	-0.130
-376.873	800.000	-0.043	0.153
-375.858	-39.232	0.244	-0.127
-374.844	384.954	-0.141	0.289
-373.829	-118.175	-0.293	0.052
-372.815	-69.565	0.400	0.152
-371.800	-59.189	0.315	0.135
-370.785	-200.000	0.007	-0.099
-369.771	55.829	-0.369	0.356
-368.756	-200.000	0.043	0.317
-367.742	-103.284	0.300	-0.070
-366.727	800.000	-0.038	-0.154
-365.712	43.955	0.163	0.149
-364.698	800.000	0.049	0.151
-363.683	-200.000	0.051	0.242
-362.669	-53.955	0.291	-0.132
-361.654	-18.301	-0.222	-0.138
-360.639	111.615	-0.207	0.249
-359.625	-200.000	0.021	0.154
-358.610	-200.000	-0.002	0.037
-357.596	118.181	-0.203	-0.249
-356.581	476.476	-0.063	-0.142
-355.566	-200.000	0.024	0.158
-354.552	-91.489	0.217	0.062
-353.537	-154.958	0.220	-0.014
-352.523	-161.791	0.119	0.006
-351.508	-73.142	0.508	-0.185
-350.493	255.442	-0.145	0.247
-349.479	-45.060	-0.230	0.114
-348.464	-199.982	0.528	-0.003
-347.450	-32.623	-0.307	-0.170
-346.435	-80.629	-0.152	-0.050
-345.420	67.080	-0.102	0.103
-344.406	-200.000	-0.008	0.071
-343.391	-34.672	0.217	0.118
-342.377	-200.000	0.009	0.055
-341.362	800.000	0.102	-0.294
-340.348	-200.000	-0.005	-0.205
-339.333	-28.167	-0.029	0.017
-338.318	-200.000	0.007	0.100
-337.304	-134.770	-0.479	-0.058
-336.289	-59.623	0.124	0.053
-335.275	68.386	-0.172	0.175
-334.260	-149.554	0.269	0.021
-333.245	-116.297	-0.356	0.066
-332.231	-172.031	0.270	0.009
-331.216	-3.216	0.086	0.059
-330.202	-75.810	0.257	-0.090
-329.187	-200.000	0.013	-0.110
-328.172	-58.070	0.327	0.142
-327.158	343.615	-0.073	0.142
-326.143	-49.641	0.344	0.162
-325.129	-68.512	-0.193	0.074
-324.114	800.000	-0.142	-0.536
-323.099	119.475	0.143	0.175
-322.085	-20.801	0.057	0.035
-321.070	-3.809	0.120	-0.082
-320.056	-74.633	-0.153	0.055
-319.041	-200.000	-0.030	-0.157
-318.026	92.176	-0.220	-0.246
-317.012	-117.705	0.255	-0.046
-315.997	-58.950	-0.337	-0.144
-314.983	-200.000	-0.029	-0.241
-313.968	59.893	-0.326	-0.319
-312.953	-77.405	0.096	0.033
-311.939	-105.171	-0.197	0.045
-310.924	-25.280	0.129	0.076
-309.910	-183.705	0.250	-0.004
-308.895	-200.000	-0.018	0.137
-307.880	439.514	0.157	0.340
-306.866	-145.327	0.116	0.010
-305.851	78.398	-0.134	0.142
-304.837	108.133	0.299	-0.354
-303.822	30.831	0.104	0.088
-302.807	10.211	-0.190	-0.143
-301.793	42.509	0.192	0.173
-300.778	-61.043	-0.208	0.087
-299.764	-12.800	-0.264	0.171
-298.749	0.086	-0.215	-0.152
-297.735	117.840	0.095	-0.116
-296.720	-97.771	0.259	0.066
-295.705	800.000	0.051	-0.159
-294.691	-61.771	-0.235	-0.097
-293.676	-46.648	-0.214	0.104
-292.662	192.269	0.111	0.167
-291.647	244.978	-0.194	0.323
-290.632	-137.731	0.257	-0.029
-289.618	-51.296	0.140	-0.065
-288.603	85.712	0.115	-0.125
-287.589	-4.135	0.305	0.210
-286.574	-38.556	-0.098	0.051
-285.559	-158.659	-0.220	-0.013
-284.545	29.222	0.227	-0.191
-283.530	-192.365	0.214	0.002
-282.516	-81.059	0.158	-0.052
-281.501	-22.185	-0.215	-0.129
-280.486	-92.239	-0.245	-0.069
-279.472	97.478	0.208	0.236
-278.457	-200.000	-0.068	-0.364
-277.443	-200.000	-0.006	0.047
-276.428	-194.080	0.106	0.001
-275.413	738.583	-0.089	0.235
-274.399	64.805	-0.266	0.266
-273.384	390.861	-0.037	0.075
-272.370	-12.500	-0.340	-0.220
-271.355	294.670	-0.151	-0.273
-270.340	800.000	0.014	0.049
-269.326	-200.000	-0.031	-0.187
-268.311	12.873	-0.063	0.048
-267.297	-49.645	-0.134	0.063
-266.282	53.783	-0.286	-0.272
-265.267	-78.457	-0.166	-0.056
-264.253	-200.000	-0.069	0.365
-263.238	148.931	0.276	-0.370
-262.224	-66.165	0.247	-0.097
-261.209	-111.115	0.128	-0.026
-260.195	-21.417	0.368	0.222
-259.180	-57.416	-0.106	-0.046
-258.165	114.033	-0.067	0.081
-257.151	7.967	0.085	-0.063
-256.136	-200.000	0.039	-0.175
-255.122	-42.086	-0.115	0.058
-254.107	-200.000	-0.015	-0.119
-253.092	71.056	0.231	0.237
-252.078	76.799	-0.091	-0.095
-251.063	-0.542	0.145	-0.102
-250.049	261.986	0.154	0.265
-249.034	174.280	0.057	-0.082
-248.019	140.797	-0.113	0.148
-247.005	-200.000	-0.008	0.111
-245.990	800.000	-0.033	0.097
-244.976	67.086	0.127	0.128
-243.961	-82.331	-0.469	-0.151
-242.946	-49.253	-0.206	0.097
-241.932	-14.014	-0.322	-0.205
-240.917	-80.879	-0.217	0.071
-239.903	-200.000	-0.011	-0.090
-238.888	193.659	0.045	0.067
-237.873	93.480	0.035	0.039
-236.859	270.037	0.141	0.245
-235.844	315.859	0.101	0.188
-234.830	800.000	-0.037	0.123
-233.815	14.636	0.080	0.062
-232.800	345.285	-0.067	-0.131
-231.786	187.653	0.181	-0.267
-230.771	-200.000	-0.057	-0.254
-229.757	-63.681	0.053	0.021
-228.742	648.128	-0.140	0.353
-227.727	-104.178	0.087	0.020
-226.713	81.397	0.080	0.086
-225.698	82.830	-0.177	0.191
-224.684	-117.556	0.231	0.041
-223.669	56.589	-0.238	-0.229
-222.655	-91.063	-0.335	-0.095
-221.640	-80.092	0.396	-0.131
-220.625	59.302	-0.154	0.150
-219.611	-200.000	0.019	0.201
-218.596	-116.794	-0.111	-0.020
-217.582	11.343	-0.153	-0.116
-216.567	-7.382	0.221	-0.148
-215.552	239.826	0.048	-0.080
-214.538	621.084	-0.077	0.192
-213.523	-25.139	0.515	0.301
-212.509	-68.627	0.278	-0.106
-211.494	-200.000	0.277	-0.001
-210.479	55.694	0.128	0.123
-209.465	-6.378	0.211	0.142
-208.450	-200.000	0.004	-0.173
-207.436	-72.249	0.130	-0.048
-206.421	18.625	0.236	-0.187
-205.406	-22.735	-0.262	0.157
-204.392	-144.455	-0.126	-0.012
-203.377	800.000	-0.096	0.267
-202.363	91.248	-0.152	-0.169
-201.348	655.583	0.113	0.287
-200.333	469.718	-0.075	-0.167
-199.319	421.265	-0.104	-0.220
-198.304	-175.265	0.095	0.003
-197.290	-104.512	0.322	0.074
-196.275	-200.000	0.004	0.219
-195.260	-200.000	0.002	0.230
-194.246	601.691	-0.055	0.135
-193.231	3.580	-0.139	0.100
-192.217	-110.212	0.302	-0.062
-191.202	-53.231	-0.073	-0.033
-190.187	310.908	0.168	0.311
-189.173	84.641	0.146	-0.157
-188.158	-159.615	0.300	0.016
-187.144	79.781	0.135	0.144
-186.129	-121.291	0.170	-0.028
-185.114	-78.162	-0.098	0.033
-184.100	-140.443	-0.244	0.025
-183.085	-44.081	-0.172	-0.085
-182.071	19.980	0.032	0.025
-181.056	-41.589	-0.081	-0.041
-180.042	-17.698	-0.174	0.108
-179.027	-85.415	0.304	-0.094
-178.012	-3.896	0.238	0.163
-176.998	132.677	0.349	0.444
-175.983	-80.342	0.172	-0.057
-174.969	-200.000	0.002	0.078
-173.954	-176.917	-0.241	-0.006
-172.939	-166.248	0.090	-0.004
-171.925	83.238	0.112	0.121
-170.910	-43.463	0.336	-0.168
-169.896	481.834	-0.081	0.181
-168.881	-13.478	0.255	-0.163
-167.866	479.625	0.083	-0.186
-166.852	-24.738	0.136	-0.080
-165.837	281.148	0.068	-0.121
-164.823	-84.092	0.121	-0.038
-163.808	-200.000	0.019	-0.410
-162.793	46.140	0.227	-0.208
-161.779	-144.177	-0.168	0.015
-160.764	800.000	-0.093	0.274
-159.750	800.000	0.069	-0.289
-158.735	-111.464	-0.410	0.082
-157.720	-200.000	0.000	-0.175
-156.706	9.985	0.253	-0.190
-155.691	406.073	0.103	-0.214
-154.677	-77.988	0.082	-0.028
-153.662	-141.206	-0.076	0.008
-152.647	800.000	-0.065	0.262
-151.633	216.293	-0.168	-0.263
-150.618	117.486	0.088	0.107
-149.604	-15.026	-0.275	0.174
-148.589	-157.294	-0.266	0.016
-147.574	12.668	-0.165	0.126
-146.560	260.915	0.118	-0.201
-145.545	-200.000	-0.002	0.187
-144.531	128.031	-0.164	-0.206
-143.516	9.887	-0.158	-0.118
-142.502	-147.157	0.132	0.011
-141.487	800.000	-0.054	-0.182
-140.472	-178.104	0.154	-0.004
-139.458	11.128	0.143	0.108
-138.443	800.000	0.051	0.180
-137.429	-49.138	0.114	-0.053
-136.414	-154.168	-0.269	0.018
-135.399	800.000	-0.091	-0.262
-134.385	-103.528	-0.257	0.060
-133.370	51.845	-0.115	-0.108
-132.356	800.000	-0.014	-0.047
-131.341	504.788	-0.139	-0.317
-130.326	-200.000	0.014	0.458
-129.312	254.399	-0.042	-0.071
-128.297	-200.000	0.034	0.299
-127.283	-200.000	0.046	0.306
-126.268	109.789	0.297	0.350
-125.253	266.638	-0.129	0.223
-124.239	-154.946	0.023	0.001
-123.224	-81.174	0.215	-0.070
-122.210	-121.966	0.264	0.043
-121.195	-200.000	-0.004	0.170
