DTS Sentinel unit serial number:	SN413079Multiplexer serial number:	ORYXHardware model number:	OX4-SRSoftware version number:	ORYX F/W v4.00 Oryx Data Collector v3.7.2.0data status	okinstallation	princeton_trtdifferential loss correction	single-endedforward channel	channel 2reverse channel	N/Adate	2019/09/13time	03:23:34forward acquisition time	60.00reverse acquisition time	0.00gamma	496.2192k internal	0.2335k external	0.2335temperature offset calibration	1.0194default loss term (dB/km)	0.3790temperature slope calibration	1.0000multiplexer offset coefficient	1.0000multiplexer slope coefficient	1.0000fibre end	0.00T internal ref (°C)	27.37T ext. ref 1 (°C)	4.09T ext. ref 2 (°C)	21.92length (m)	temperature (°C)	Stokes	anti-Stokes-747.200	800.000	0.023	-0.093
-746.185	-200.000	0.008	-0.442
-745.171	-143.000	-0.284	-0.028
-744.156	-200.000	0.009	0.181
-743.142	125.452	-0.058	-0.073
-742.127	-50.610	-0.122	-0.058
-741.112	-200.000	-0.002	-0.111
-740.098	517.428	-0.127	0.298
-739.083	-200.000	0.003	-0.069
-738.069	-171.460	-0.124	0.004
-737.054	561.933	-0.066	-0.159
-736.039	-132.052	0.302	-0.039
-735.025	-200.000	-0.002	-0.131
-734.010	800.000	-0.088	-0.260
-732.996	-17.588	-0.079	-0.050
-731.981	800.000	-0.078	-0.251
-730.966	-13.345	0.026	0.017
-729.952	-46.683	0.041	0.020
-728.937	439.288	-0.064	0.141
-727.923	-200.000	0.003	-0.287
-726.908	800.000	0.105	-0.359
-725.894	453.481	-0.140	-0.311
-724.879	-46.987	-0.199	-0.097
-723.864	9.667	-0.345	0.263
-722.850	344.503	-0.080	-0.157
-721.835	418.717	-0.030	-0.064
-720.821	-200.000	-0.022	-0.213
-719.806	-200.000	0.057	-0.270
-718.791	-13.266	0.303	-0.197
-717.777	-49.840	0.100	0.048
-716.762	-151.818	0.142	0.010
-715.748	-145.601	-0.084	-0.008
-714.733	800.000	0.047	-0.175
-713.718	-76.834	-0.174	-0.061
-712.704	61.263	-0.121	-0.120
-711.689	234.047	0.094	-0.156
-710.675	-57.208	0.209	0.092
-709.660	-200.000	0.002	-0.073
-708.645	52.064	0.248	0.237
-707.631	-200.000	-0.047	-0.365
-706.616	-24.557	-0.272	-0.163
-705.602	800.000	-0.077	0.249
-704.587	153.746	-0.042	0.057
-703.572	-172.760	0.132	0.004
-702.558	-200.000	-0.008	0.109
-701.543	292.097	0.013	-0.024
-700.529	-7.056	-0.062	0.042
-699.514	-90.089	0.173	-0.051
-698.499	-200.000	0.068	-0.385
-697.485	-20.701	-0.185	0.114
-696.470	-114.334	-0.231	-0.045
-695.456	-111.245	-0.176	-0.036
-694.441	100.772	0.070	0.082
-693.426	-200.000	0.006	0.040
-692.412	-31.803	-0.136	0.076
-691.397	-200.000	0.047	0.296
-690.383	-47.671	0.089	0.043
-689.368	-103.833	-0.129	-0.030
-688.354	74.957	-0.137	0.144
-687.339	800.000	-0.089	0.289
-686.324	-200.000	-0.006	-0.216
-685.310	65.843	0.209	-0.212
-684.295	110.019	0.074	0.089
-683.281	306.630	0.175	0.326
-682.266	-173.830	0.038	-0.001
-681.251	800.000	-0.085	-0.253
-680.237	51.964	-0.044	0.042
-679.222	64.425	-0.203	-0.205
-678.208	-93.688	-0.411	-0.114
-677.193	268.829	0.218	-0.384
-676.178	284.548	-0.139	-0.251
-675.164	213.979	0.132	0.209
-674.149	-200.000	0.016	0.146
-673.135	165.458	0.044	0.063
-672.120	-24.585	-0.253	0.151
-671.105	-10.766	0.209	0.138
-670.091	261.085	0.200	-0.347
-669.076	420.808	-0.130	0.280
-668.062	119.369	-0.104	-0.128
-667.047	-126.379	0.098	0.015
-666.032	201.355	0.182	0.281
-665.018	-200.000	0.050	-0.263
-664.003	-200.000	0.070	-0.527
-662.989	-200.000	0.012	-0.168
-661.974	800.000	-0.099	0.398
-660.959	-0.547	-0.267	-0.190
-659.945	153.064	-0.083	-0.114
-658.930	-200.000	0.003	0.056
-657.916	112.552	0.246	-0.298
-656.901	270.217	-0.229	-0.402
-655.886	442.306	0.058	-0.127
-654.872	124.657	-0.079	-0.099
-653.857	-179.253	-0.177	0.004
-652.843	299.943	-0.204	-0.376
-651.828	91.231	-0.058	-0.065
-650.814	-200.000	-0.004	0.072
-649.799	53.025	0.179	0.172
-648.784	-200.000	-0.017	-0.527
-647.770	4.634	-0.071	0.052
-646.755	246.594	0.021	0.036
-645.741	-200.000	0.016	0.095
-644.726	-57.668	0.184	-0.081
-643.711	-73.347	-0.328	-0.120
-642.697	-42.223	0.295	0.151
-641.682	689.358	-0.032	0.085
-640.668	-87.394	-0.122	0.037
-639.653	-40.820	0.296	-0.153
-638.638	-69.016	-0.182	-0.070
-637.624	-200.000	-0.039	0.235
-636.609	13.427	-0.296	-0.230
-635.595	36.989	-0.211	-0.187
-634.580	800.000	-0.029	0.102
-633.565	-3.608	0.122	-0.085
-632.551	-104.582	-0.260	-0.060
-631.536	83.869	0.123	-0.135
-630.522	-200.000	0.061	0.317
-629.507	-165.505	0.124	0.005
-628.492	-112.137	0.285	0.057
-627.478	4.099	-0.177	0.130
-626.463	800.000	0.072	-0.267
-625.449	800.000	0.061	-0.202
-624.434	800.000	-0.159	0.464
-623.419	-200.000	-0.017	-0.243
-622.405	800.000	-0.095	-0.284
-621.390	-200.000	-0.000	-0.101
-620.376	193.392	-0.149	-0.225
-619.361	800.000	0.070	-0.251
-618.346	85.804	-0.160	0.176
-617.332	-118.226	-0.107	-0.019
-616.317	-85.356	0.216	-0.067
-615.303	-200.000	-0.002	-0.115
-614.288	-200.000	0.019	-0.139
-613.273	-52.106	-0.243	0.113
-612.259	-50.898	0.301	-0.141
-611.244	-66.601	-0.329	0.130
-610.230	37.429	-0.311	-0.276
-609.215	800.000	-0.096	0.375
-608.201	-200.000	0.016	-0.131
-607.186	-200.000	0.001	-0.039
-606.171	-24.869	-0.062	-0.036
-605.157	-200.000	0.007	-0.109
-604.142	150.879	-0.042	-0.057
-603.128	-161.208	0.284	-0.015
-602.113	-67.327	0.025	-0.010
-601.098	336.146	0.160	-0.310
-600.084	134.849	-0.059	0.077
-599.069	800.000	0.028	-0.093
-598.055	-125.389	-0.126	0.019
-597.040	-113.089	-0.475	0.094
-596.025	-200.000	0.050	0.401
-595.011	-92.436	0.183	0.051
-593.996	139.886	0.096	-0.126
-592.982	-161.937	0.471	0.024
-591.967	-4.524	-0.146	0.101
-590.952	-200.000	-0.062	-0.272
-589.938	169.103	0.053	-0.075
-588.923	122.479	-0.055	0.069
-587.909	3.598	-0.306	0.223
-586.894	-200.000	0.007	-0.101
-585.879	-146.373	-0.107	-0.009
-584.865	-200.000	-0.001	0.241
-583.850	717.550	0.019	-0.050
-582.836	230.306	0.022	-0.036
-581.821	-93.566	-0.152	-0.042
-580.806	-200.000	0.042	0.218
-579.792	124.310	0.115	0.144
-578.777	-123.609	-0.095	-0.015
-577.763	-200.000	-0.018	0.139
-576.748	-200.000	0.021	0.121
-575.733	33.528	-0.125	-0.108
-574.719	800.000	-0.040	-0.153
-573.704	1.126	-0.055	-0.039
-572.690	-130.931	0.146	-0.020
-571.675	-200.000	0.089	0.408
-570.661	297.778	-0.166	-0.304
-569.646	14.777	0.174	0.136
-568.631	800.000	-0.005	0.017
-567.617	-200.000	-0.001	-0.235
-566.602	23.246	-0.226	-0.185
-565.588	-155.319	0.325	-0.021
-564.573	352.715	0.067	-0.133
-563.558	-89.630	-0.308	0.090
-562.544	329.784	-0.054	-0.103
-561.529	-78.759	0.168	-0.057
-560.515	-188.733	-0.103	0.001
-559.500	151.226	0.052	0.071
-558.485	-49.226	-0.009	0.004
-557.471	800.000	-0.071	-0.211
-556.456	196.679	0.143	-0.218
-555.442	219.468	-0.128	-0.205
-554.427	800.000	-0.037	0.119
-553.412	245.060	-0.154	0.258
-552.398	-200.000	-0.014	-0.077
-551.383	800.000	-0.027	-0.104
-550.369	-80.370	-0.079	0.026
-549.354	259.548	0.110	-0.190
-548.339	-200.000	-0.050	-0.301
-547.325	-200.000	-0.002	-0.047
-546.310	-105.220	0.174	0.040
-545.296	-154.248	-0.307	-0.021
-544.281	-110.157	-0.290	-0.060
-543.266	81.703	-0.184	0.199
-542.252	713.805	0.070	0.184
-541.237	-70.137	0.210	0.080
-540.223	-54.165	0.502	-0.228
-539.208	139.535	-0.174	0.229
-538.193	-161.825	-0.268	0.014
-537.179	287.345	0.146	0.264
-536.164	-1.823	0.166	0.116
-535.150	-14.745	-0.479	-0.306
-534.135	707.767	0.060	0.157
-533.121	-200.000	-0.003	0.145
-532.106	-122.417	-0.279	0.045
-531.091	-16.708	0.166	0.104
-530.077	-149.874	0.241	0.019
-529.062	-153.680	0.364	-0.025
-528.048	581.324	0.022	-0.053
-527.033	-119.563	0.261	0.045
-526.018	-200.000	-0.006	-0.083
-525.004	-65.526	0.140	0.056
-523.989	199.182	-0.035	-0.053
-522.975	-200.000	0.008	0.231
-521.960	-184.914	0.061	0.001
-520.945	-200.000	0.018	0.311
-519.931	-148.709	-0.129	0.010
-518.916	-3.575	0.176	0.122
-517.902	-63.474	0.007	0.003
-516.887	-200.000	-0.050	-0.275
-515.872	-200.000	-0.004	-0.326
-514.858	800.000	-0.073	-0.258
-513.843	-63.686	-0.537	-0.219
-512.829	52.754	0.321	0.305
-511.814	-40.659	-0.247	0.128
-510.799	254.867	-0.098	-0.166
-509.785	30.030	-0.218	0.185
-508.770	85.459	-0.269	0.294
-507.756	45.337	-0.108	0.099
-506.741	666.072	-0.054	-0.140
-505.726	3.820	-0.179	0.130
-504.712	-85.602	0.361	0.112
-503.697	-200.000	0.032	-0.268
-502.683	289.560	0.079	-0.143
-501.668	-200.000	-0.017	-0.303
-500.653	602.312	-0.064	-0.158
-499.639	517.519	0.071	0.166
-498.624	-200.000	0.008	0.130
-497.610	330.353	0.191	0.365
-496.595	171.992	-0.215	0.307
-495.581	-200.000	0.037	0.272
-494.566	719.271	-0.082	0.218
-493.551	-150.250	-0.059	-0.005
-492.537	800.000	0.026	0.099
-491.522	-77.585	0.205	0.071
-490.508	-64.774	-0.165	-0.067
-489.493	-200.000	-0.024	0.134
-488.478	800.000	0.045	-0.159
-487.464	-88.308	-0.167	-0.050
-486.449	-139.000	0.479	-0.052
-485.435	-159.944	0.119	0.006
-484.420	-200.000	0.009	0.179
-483.405	-76.628	0.138	-0.048
-482.391	-30.355	0.117	-0.066
-481.376	-0.804	-0.107	-0.075
-480.362	408.857	-0.096	-0.201
-479.347	448.182	0.131	-0.287
-478.332	-70.148	0.341	-0.129
-477.318	224.852	-0.082	0.131
-476.303	-121.941	0.079	-0.013
-475.289	-136.678	0.131	-0.015
-474.274	-200.000	0.034	-0.359
-473.259	797.540	-0.006	0.016
-472.245	452.523	0.049	-0.108
-471.230	117.784	0.018	-0.022
-470.216	14.882	0.129	-0.100
-469.201	-35.887	0.086	0.046
-468.186	-83.812	0.147	-0.046
-467.172	-4.170	-0.118	-0.081
-466.157	342.043	-0.105	0.203
-465.143	-2.778	-0.319	0.221
-464.128	-58.618	0.414	0.178
-463.113	-200.000	-0.011	-0.126
-462.099	-53.645	-0.159	-0.072
-461.084	66.406	-0.009	0.010
-460.070	48.747	0.212	-0.197
-459.055	-53.861	0.199	0.090
-458.040	-126.613	-0.355	0.052
-457.026	134.690	-0.072	-0.093
-456.011	-200.000	-0.013	0.167
-454.997	530.303	-0.069	-0.162
-453.982	-97.242	0.149	-0.039
-452.968	797.567	-0.024	0.065
-451.953	743.437	-0.111	0.296
-450.938	-41.609	-0.107	-0.055
-449.924	-200.000	0.006	-0.073
-448.909	578.014	-0.099	-0.241
-447.895	-155.495	0.243	-0.016
-446.880	-162.642	-0.290	-0.014
-445.865	-88.319	-0.253	-0.075
-444.851	-200.000	-0.019	0.086
-443.836	-71.080	-0.215	0.080
-442.822	-97.860	0.197	0.050
-441.807	222.400	-0.120	0.192
-440.792	84.505	-0.183	-0.199
-439.778	-84.797	-0.484	0.151
-438.763	-87.239	0.142	-0.043
-437.749	-200.000	0.003	0.019
-436.734	36.826	-0.251	-0.220
-435.719	-13.800	-0.234	0.150
-434.705	-148.281	-0.132	-0.011
-433.690	24.280	-0.161	0.132
-432.676	407.623	-0.126	-0.265
-431.661	32.428	0.295	-0.253
-430.646	-127.064	0.055	0.008
-429.632	-57.988	0.208	0.090
-428.617	800.000	0.026	-0.083
-427.603	-198.895	-0.085	-0.000
-426.588	-36.854	-0.286	0.152
-425.573	800.000	0.009	-0.026
-424.559	-139.545	0.391	-0.041
-423.544	16.143	-0.156	-0.122
-422.530	-116.268	-0.308	0.057
-421.515	183.493	0.169	0.247
-420.500	26.921	-0.171	0.142
-419.486	-16.055	-0.067	0.043
-418.471	-44.095	0.205	0.102
-417.457	722.119	0.011	-0.029
-416.442	139.946	-0.113	0.148
-415.428	-107.425	-0.247	0.054
-414.413	-200.000	0.006	-0.147
-413.398	-200.000	-0.015	-0.254
-412.384	800.000	-0.052	-0.189
-411.369	-7.462	-0.063	-0.042
-410.355	-118.088	0.196	-0.035
-409.340	43.781	0.156	-0.142
-408.325	-200.000	-0.056	0.317
-407.311	-133.314	0.483	-0.060
-406.296	-67.754	0.046	0.018
-405.282	-22.919	-0.269	0.161
-404.267	-100.680	0.125	0.030
-403.252	-200.000	0.030	0.176
-402.238	18.199	0.226	-0.179
-401.223	170.178	0.041	-0.059
-400.209	-109.927	0.357	0.074
-399.194	81.988	0.054	-0.058
-398.179	-58.238	-0.181	0.078
-397.165	-200.000	-0.071	-0.418
-396.150	-101.797	0.255	-0.061
-395.136	480.126	0.029	0.065
-394.121	60.663	-0.252	0.248
-393.106	-200.000	0.044	0.311
-392.092	-155.944	0.213	0.013
-391.077	4.597	-0.212	0.154
-390.063	-200.000	0.007	-0.252
-389.048	-2.512	-0.254	-0.176
-388.033	676.276	0.071	-0.183
-387.019	39.224	-0.035	0.031
-386.004	266.701	-0.044	0.077
-384.990	-200.000	0.020	-0.288
-383.975	-52.529	0.296	-0.136
-382.960	209.006	-0.076	0.119
-381.946	72.810	0.166	0.171
-380.931	58.715	0.101	0.099
-379.917	-156.471	-0.184	0.011
-378.902	149.374	-0.175	-0.234
-377.888	102.171	0.162	-0.187
-376.873	-200.000	0.021	-0.207
-375.858	214.689	0.269	0.422
-374.844	367.963	-0.054	0.108
-373.829	-55.323	0.045	0.020
-372.815	-143.864	-0.200	-0.019
-371.800	39.326	0.149	0.132
-370.785	-68.416	0.139	0.053
-369.771	-2.397	0.055	-0.038
-368.756	-200.000	-0.025	0.123
-367.742	-200.000	-0.013	0.059
-366.727	163.498	-0.068	0.095
-365.712	144.208	0.045	0.059
-364.698	17.390	0.370	-0.291
-363.683	15.108	0.101	-0.078
-362.669	800.000	-0.022	-0.064
-361.654	675.112	0.117	0.300
-360.639	106.814	0.073	0.085
-359.625	108.077	0.087	0.102
-358.610	-143.594	0.155	-0.015
-357.596	53.788	0.311	0.296
-356.581	183.851	-0.094	0.137
-355.566	-55.895	0.012	-0.005
-354.552	0.251	0.292	0.206
-353.537	-102.157	0.284	-0.068
-352.523	-200.000	-0.012	-0.129
-351.508	-95.591	-0.481	-0.127
-350.493	771.732	-0.136	0.368
-349.479	205.583	-0.188	0.289
-348.464	-200.000	0.013	-0.162
-347.450	-145.691	0.207	-0.018
-346.435	-128.753	-0.072	0.010
-345.420	-200.000	0.014	0.136
-344.406	77.081	0.156	0.164
-343.391	-21.192	0.156	0.094
-342.377	-24.769	0.016	0.009
-341.362	-43.912	0.241	0.120
-340.348	-200.000	0.007	-0.078
-339.333	-173.758	0.123	0.004
-338.318	-200.000	0.002	0.121
-337.304	-169.250	0.424	0.015
-336.289	-72.303	-0.156	-0.057
-335.275	438.256	0.172	-0.371
-334.260	115.227	0.095	0.114
-333.245	172.639	-0.349	0.496
-332.231	-87.030	-0.185	0.056
-331.216	78.464	-0.370	-0.391
-330.202	106.058	-0.201	0.235
-329.187	-111.136	-0.243	-0.049
-328.172	65.201	0.090	0.090
-327.158	800.000	0.046	0.126
-326.143	-200.000	-0.017	0.181
-325.129	-139.520	-0.168	0.018
-324.114	47.602	0.238	0.220
-323.099	-28.374	-0.099	0.057
-322.085	-200.000	0.034	0.225
-321.070	423.815	0.126	-0.268
-320.056	800.000	0.053	0.150
-319.041	800.000	0.055	-0.180
-318.026	286.707	0.081	-0.144
-317.012	420.925	-0.089	0.188
-315.997	56.273	-0.161	-0.155
-314.983	657.466	0.084	-0.213
-313.968	-200.000	0.002	-0.319
-312.953	-200.000	0.024	-0.189
-311.939	-200.000	-0.009	0.183
-310.924	-142.872	0.390	-0.037
-309.910	-80.529	0.117	0.038
-308.895	-29.327	-0.266	0.150
-307.880	82.546	-0.051	0.055
-306.866	-31.602	0.145	-0.080
-305.851	-200.000	-0.006	-0.138
-304.837	23.169	0.190	-0.154
-303.822	800.000	0.097	-0.408
-302.807	214.309	-0.038	0.059
-301.793	115.467	0.233	0.281
-300.778	-159.325	-0.251	0.014
-299.764	764.021	-0.066	0.178
-298.749	86.839	-0.149	0.162
-297.735	-156.706	0.119	0.007
-296.720	-200.000	0.009	0.183
-295.705	-200.000	-0.021	-0.399
-294.691	269.339	-0.142	-0.247
-293.676	-185.354	-0.116	0.002
-292.662	-123.843	-0.052	-0.008
-291.647	439.714	0.017	-0.036
-290.632	80.106	-0.120	0.127
-289.618	800.000	-0.071	-0.273
-288.603	800.000	0.118	-0.392
-287.589	94.416	0.127	-0.143
-286.574	-200.000	0.054	0.335
-285.559	40.806	0.095	0.085
-284.545	800.000	0.105	-0.412
-283.530	220.926	0.126	-0.199
-282.516	162.380	-0.041	0.057
-281.501	492.538	0.071	-0.160
-280.486	-129.452	0.272	-0.037
-279.472	800.000	0.051	0.219
-278.457	800.000	-0.052	0.143
-277.443	-68.308	0.088	0.034
-276.428	-99.034	0.438	0.110
-275.413	50.012	0.142	0.133
-274.399	54.777	-0.038	0.036
-273.384	-41.868	0.110	0.055
-272.370	800.000	-0.067	0.205
-271.355	-196.206	-0.501	-0.003
-270.340	-87.764	0.327	0.097
-269.326	76.747	-0.209	-0.218
-268.311	-46.066	0.361	0.175
-267.297	-71.016	0.079	0.029
-266.282	27.428	0.087	0.072
-265.267	54.569	0.259	-0.246
-264.253	-104.298	0.169	-0.039
-263.238	-28.160	-0.092	-0.052
-262.224	-74.065	0.160	-0.057
-261.209	-109.949	-0.235	-0.049
-260.195	1.652	-0.029	0.021
-259.180	41.209	-0.165	0.147
-258.165	-62.903	-0.433	-0.177
-257.151	-74.760	0.214	-0.076
-256.136	236.258	0.065	0.106
-255.122	92.287	-0.193	0.214
-254.107	62.590	0.147	0.144
-253.092	-82.718	-0.067	-0.021
-252.078	-189.897	-0.060	-0.001
-251.063	-200.000	0.015	0.111
-250.049	-109.171	-0.238	-0.050
-249.034	-67.376	-0.305	0.118
-248.019	-200.000	0.015	-0.303
-247.005	35.907	-0.231	-0.201
-245.990	-175.477	0.097	0.003
-244.976	-69.523	-0.170	-0.064
-243.961	-185.102	-0.399	0.006
-242.946	29.199	0.175	0.147
-241.932	187.054	-0.176	-0.258
-240.917	-88.130	0.237	-0.070
-239.903	-200.000	0.009	-0.180
-238.888	109.012	0.057	-0.067
-237.873	-51.776	0.186	0.085
-236.859	-148.543	0.033	0.003
-235.844	114.239	-0.151	0.181
-234.830	410.359	0.070	-0.146
-233.815	800.000	-0.065	-0.242
-232.800	-64.992	-0.139	0.055
-231.786	-200.000	0.043	0.316
-230.771	16.097	-0.230	0.179
-229.757	10.222	0.200	0.150
-228.742	-1.795	0.030	0.021
-227.727	-69.259	0.154	0.058
-226.713	-136.972	0.180	0.020
-225.698	-175.726	-0.154	0.004
-224.684	-200.000	-0.071	-0.365
-223.669	-200.000	0.030	0.321
-222.655	-94.658	-0.147	-0.039
-221.640	-36.250	0.193	-0.103
-220.625	-157.518	0.151	-0.009
-219.611	-137.613	-0.169	0.019
-218.596	158.724	0.093	0.127
-217.582	-16.408	-0.183	-0.114
-216.567	-200.000	-0.018	-0.131
-215.552	-125.723	-0.281	0.042
-214.538	-6.275	-0.187	0.126
-213.523	245.902	0.089	-0.148
-212.509	-54.917	-0.249	-0.110
-211.494	-102.307	0.220	-0.052
-210.479	195.922	0.309	-0.463
-209.465	86.483	-0.155	0.168
-208.450	-89.335	-0.106	0.031
-207.436	-200.000	-0.030	0.166
-206.421	-90.203	0.106	-0.030
-205.406	800.000	-0.100	0.399
-204.392	-87.667	-0.094	0.028
-203.377	330.032	-0.050	0.095
-202.363	-200.000	0.029	-0.232
-201.348	-71.256	-0.229	0.085
-200.333	-200.000	-0.012	0.121
-199.319	-18.494	0.363	0.223
-198.304	-6.429	-0.141	0.095
-197.290	103.366	-0.047	-0.054
-196.275	88.433	0.043	-0.047
-195.260	189.625	0.207	0.305
-194.246	74.387	0.109	0.113
-193.231	-200.000	-0.047	0.258
-192.217	-96.410	0.145	0.038
-191.202	-102.044	-0.097	-0.023
-190.187	-200.000	0.001	0.049
-189.173	192.482	-0.086	-0.128
-188.158	79.628	0.045	-0.048
-187.144	-109.660	-0.246	0.051
-186.129	-11.225	0.090	-0.058
-185.114	31.058	-0.125	0.105
-184.100	105.094	0.154	0.178
-183.085	-200.000	-0.002	0.134
-182.071	-100.257	0.075	0.018
-181.056	800.000	0.053	0.158
-180.042	-42.926	-0.176	-0.088
-179.027	-200.000	-0.004	-0.085
-178.012	688.092	0.055	-0.141
-176.998	-101.132	0.103	-0.025
-175.983	800.000	0.022	-0.066
-174.969	-28.706	-0.349	-0.197
-173.954	-101.790	-0.234	-0.056
-172.939	-74.548	-0.054	0.019
-171.925	-200.000	0.021	-0.237
-170.910	-99.015	0.093	0.023
-169.896	221.148	0.161	0.253
-168.881	-15.580	-0.140	-0.088
-167.866	800.000	0.087	0.327
-166.852	-35.894	0.215	0.115
-165.837	-43.024	0.169	-0.084
-164.823	-18.976	0.315	-0.192
-163.808	618.456	-0.052	-0.129
-162.793	-54.232	-0.183	-0.081
-161.779	259.236	0.093	0.158
-160.764	131.601	-0.071	-0.090
-159.750	285.155	-0.117	-0.206
-158.735	800.000	0.101	-0.417
-157.720	-200.000	0.006	-0.104
-156.706	-145.928	-0.214	-0.019
-155.691	529.742	0.042	0.098
-154.677	-200.000	-0.079	0.376
-153.662	83.900	-0.172	-0.185
-152.647	-200.000	-0.018	-0.198
-151.633	-17.724	0.247	0.152
-150.618	236.462	0.080	-0.130
-149.604	-118.513	0.304	-0.053
-148.589	122.216	0.170	0.209
-147.574	-200.000	0.046	0.201
-146.560	-162.436	-0.200	-0.010
-145.545	64.707	-0.144	-0.143
-144.531	-53.461	-0.134	0.060
-143.516	-158.370	0.146	-0.008
-142.502	-200.000	0.003	-0.021
-141.487	-150.680	0.404	0.030
-140.472	653.353	0.071	0.180
-139.458	-47.211	0.083	0.040
-138.443	58.665	0.068	-0.065
-137.429	178.123	-0.156	0.223
-136.414	-5.874	0.012	0.008
-135.399	-200.000	0.001	-0.127
-134.385	596.600	0.083	0.202
-133.370	318.234	0.283	0.525
-132.356	-152.011	-0.206	-0.015
-131.341	800.000	0.057	0.184
-130.326	-40.429	-0.148	-0.075
-129.312	14.504	-0.156	-0.120
-128.297	152.580	-0.199	-0.267
-127.283	-76.143	0.274	0.095
-126.268	-67.710	0.184	0.071
-125.253	-135.405	-0.110	-0.013
-124.239	219.393	0.117	-0.183
-123.224	-200.000	0.000	0.138
-122.210	450.662	-0.090	-0.194
