DTS Sentinel unit serial number:	SN413079Multiplexer serial number:	ORYXHardware model number:	OX4-SRSoftware version number:	ORYX F/W v4.00 Oryx Data Collector v3.7.2.0data status	okinstallation	princeton_trtdifferential loss correction	single-endedforward channel	channel 2reverse channel	N/Adate	2019/09/15time	22:35:35forward acquisition time	60.00reverse acquisition time	0.00gamma	496.2192k internal	0.2335k external	0.2335temperature offset calibration	0.9948default loss term (dB/km)	0.3790temperature slope calibration	1.0000multiplexer offset coefficient	1.0000multiplexer slope coefficient	1.0000fibre end	0.00T internal ref (°C)	29.03T ext. ref 1 (°C)	8.79T ext. ref 2 (°C)	22.50length (m)	temperature (°C)	Stokes	anti-Stokes-747.200	800.000	0.055	-0.189
-746.185	-53.373	-0.446	0.206
-745.171	800.000	0.065	-0.205
-744.156	800.000	0.058	0.200
-743.142	-200.000	-0.003	-0.094
-742.127	-87.707	-0.202	0.061
-741.112	-148.372	0.077	-0.006
-740.098	174.954	0.101	0.147
-739.083	-47.161	0.409	0.200
-738.069	-200.000	0.001	-0.213
-737.054	-118.028	-0.385	0.069
-736.039	-200.000	0.089	0.418
-735.025	-200.000	0.079	0.373
-734.010	614.801	-0.077	0.193
-732.996	46.840	-0.219	-0.205
-731.981	-24.825	-0.234	0.139
-730.966	189.787	0.127	-0.191
-729.952	-78.964	-0.202	0.069
-728.937	-200.000	0.009	-0.181
-727.923	-80.751	-0.287	-0.096
-726.908	-81.494	-0.141	-0.046
-725.894	-200.000	0.021	-0.175
-724.879	18.715	-0.270	-0.217
-723.864	89.271	-0.064	-0.072
-722.850	-113.744	0.326	-0.064
-721.835	-21.507	-0.150	-0.092
-720.821	27.478	-0.204	-0.172
-719.806	97.814	0.146	-0.169
-718.791	-113.415	0.097	-0.019
-717.777	-27.217	-0.092	0.054
-716.762	165.998	0.109	-0.154
-715.748	91.080	-0.119	-0.134
-714.733	-105.363	0.061	0.014
-713.718	800.000	0.109	-0.415
-712.704	-200.000	0.042	-0.244
-711.689	800.000	-0.047	-0.161
-710.675	664.813	0.073	-0.190
-709.660	203.079	0.131	0.203
-708.645	800.000	0.040	0.139
-707.631	272.118	0.192	-0.340
-706.616	66.466	-0.297	-0.303
-705.602	800.000	-0.036	-0.116
-704.587	324.516	-0.098	0.187
-703.572	343.070	-0.070	0.138
-702.558	-200.000	-0.040	-0.216
-701.543	488.604	-0.138	-0.317
-700.529	-17.364	0.103	-0.065
-699.514	116.527	0.051	0.063
-698.499	-118.800	0.337	-0.060
-697.485	123.161	0.136	0.171
-696.470	-70.692	-0.146	0.055
-695.456	-8.768	-0.191	0.129
-694.441	410.998	-0.111	-0.235
-693.426	-58.500	0.031	-0.013
-692.412	-200.000	0.040	0.246
-691.397	142.644	-0.018	-0.023
-690.383	262.041	-0.120	-0.208
-689.368	800.000	0.049	-0.200
-688.354	-200.000	0.003	-0.098
-687.339	-49.071	0.139	0.067
-686.324	-81.084	0.068	-0.022
-685.310	532.441	-0.082	0.194
-684.295	-192.197	-0.202	-0.002
-683.281	12.463	-0.266	-0.205
-682.266	136.777	-0.226	-0.295
-681.251	16.340	0.046	0.037
-680.237	-200.000	0.006	-0.271
-679.222	800.000	-0.067	-0.250
-678.208	800.000	-0.084	0.272
-677.193	-99.473	-0.246	0.062
-676.178	-123.913	-0.118	-0.019
-675.164	434.292	0.049	-0.107
-674.149	699.830	0.235	-0.619
-673.135	-65.506	-0.204	0.082
-672.120	800.000	0.095	-0.268
-671.105	259.836	-0.104	0.180
-670.091	-67.736	0.092	0.036
-669.076	-47.506	-0.118	0.057
-668.062	800.000	-0.002	0.006
-667.047	800.000	-0.052	0.152
-666.032	-200.000	0.005	0.135
-665.018	56.887	-0.106	0.103
-664.003	-9.190	0.265	-0.178
-662.989	800.000	0.045	-0.153
-661.974	-53.565	-0.220	-0.101
-660.959	800.000	-0.052	-0.221
-659.945	342.805	-0.189	0.370
-658.930	230.871	-0.088	0.144
-657.916	94.495	-0.132	0.150
-656.901	566.209	-0.068	0.165
-655.886	-116.911	0.235	-0.043
-654.872	-200.000	-0.013	0.169
-653.857	800.000	-0.090	-0.272
-652.843	-144.820	0.139	-0.013
-651.828	270.391	-0.063	0.110
-650.814	156.500	-0.157	-0.217
-649.799	-200.000	0.005	-0.101
-648.784	-195.676	-0.271	0.002
-647.770	-108.009	-0.040	-0.009
-646.755	133.127	-0.212	0.274
-645.741	-159.779	0.067	0.004
-644.726	-17.574	0.196	0.123
-643.711	140.806	-0.097	-0.128
-642.697	25.785	0.177	-0.147
-641.682	16.667	0.101	-0.080
-640.668	-200.000	0.043	-0.242
-639.653	-200.000	0.067	0.428
-638.638	256.314	0.091	0.156
-637.624	-200.000	-0.015	0.094
-636.609	174.619	0.144	0.208
-635.595	-170.430	-0.369	-0.013
-634.580	-200.000	-0.003	0.093
-633.565	304.975	0.102	0.190
-632.551	-36.349	0.034	0.018
-631.536	-200.000	0.004	-0.076
-630.522	370.981	0.103	-0.208
-629.507	443.591	0.092	0.201
-628.492	800.000	-0.087	-0.377
-627.478	-4.588	0.285	0.197
-626.463	-28.335	0.113	-0.065
-625.449	-200.000	-0.020	0.091
-624.434	-200.000	0.000	0.013
-623.419	-31.179	0.181	0.102
-622.405	29.231	-0.295	0.251
-621.390	-174.739	-0.215	-0.006
-620.376	180.318	-0.071	0.104
-619.361	-200.000	0.011	-0.048
-618.346	-97.149	-0.348	-0.091
-617.332	800.000	-0.084	-0.248
-616.317	3.606	-0.316	-0.230
-615.303	-200.000	-0.049	0.352
-614.288	-89.254	0.166	-0.049
-613.273	-119.682	-0.269	0.046
-612.259	-25.719	0.205	-0.121
-611.244	-41.062	0.194	0.100
-610.230	-30.066	0.043	-0.025
-609.215	246.624	0.086	-0.146
-608.201	-200.000	0.006	-0.156
-607.186	288.281	0.107	0.194
-606.171	-133.797	0.166	-0.021
-605.157	-135.370	0.148	-0.018
-604.142	235.607	0.098	-0.162
-603.128	146.622	0.144	-0.194
-602.113	-116.449	0.087	0.016
-601.098	-200.000	-0.010	0.198
-600.084	300.305	-0.065	0.119
-599.069	145.048	-0.161	0.215
-598.055	6.248	-0.218	-0.161
-597.040	800.000	-0.029	0.110
-596.025	-65.347	-0.034	0.014
-595.011	3.253	-0.263	-0.191
-593.996	-0.811	-0.140	0.099
-592.982	-200.000	0.013	0.158
-591.967	-89.370	0.217	0.064
-590.952	340.901	-0.075	-0.147
-589.938	-113.002	-0.016	0.003
-588.923	-73.867	0.208	-0.075
-587.909	126.196	-0.065	0.082
-586.894	-59.797	0.278	0.119
-585.879	-171.071	0.220	0.007
-584.865	800.000	0.038	0.121
-583.850	-77.882	0.181	0.062
-582.836	-200.000	0.013	0.073
-581.821	428.789	-0.172	-0.370
-580.806	36.137	-0.143	-0.126
-579.792	-32.499	0.125	0.070
-578.777	61.414	-0.150	-0.149
-577.763	-87.171	0.213	0.065
-576.748	-140.861	0.321	0.033
-575.733	-59.841	-0.141	-0.060
-574.719	21.577	-0.056	-0.045
-573.704	-22.741	0.090	0.054
-572.690	15.756	0.147	-0.115
-571.675	206.660	0.071	-0.110
-570.661	-118.548	0.092	0.016
-569.646	-21.836	-0.074	-0.045
-568.631	-63.364	0.124	-0.051
-567.617	-46.185	0.093	0.045
-566.602	-21.563	0.212	-0.129
-565.588	-85.527	-0.041	0.013
-564.573	28.610	-0.050	-0.042
-563.558	-200.000	-0.027	-0.352
-562.544	-8.944	-0.183	0.122
-561.529	-95.353	-0.089	-0.024
-560.515	-37.739	-0.142	0.075
-559.500	775.840	-0.103	-0.280
-558.485	-200.000	0.006	-0.294
-557.471	-97.864	-0.352	-0.091
-556.456	721.294	0.023	0.060
-555.442	181.397	0.050	0.073
-554.427	-108.512	0.179	-0.038
-553.412	-46.048	-0.138	-0.068
-552.398	41.339	0.049	0.044
-551.383	-135.480	-0.285	-0.034
-550.369	162.602	0.169	-0.237
-549.354	-200.000	0.042	-0.240
-548.339	-200.000	0.009	0.051
-547.325	-189.992	0.276	-0.003
-546.310	594.027	0.066	0.162
-545.296	-200.000	0.063	-0.428
-544.281	54.878	0.250	-0.240
-543.266	-100.888	-0.219	-0.054
-542.252	800.000	0.057	-0.200
-541.237	-200.000	0.010	-0.149
-540.223	-100.841	0.336	0.082
-539.208	-200.000	0.003	0.180
-538.193	126.042	0.233	0.294
-537.179	-131.548	-0.222	0.029
-536.164	-107.658	0.311	-0.068
-535.150	454.183	-0.058	0.129
-534.135	-200.000	0.007	0.227
-533.121	330.100	0.057	-0.109
-532.106	483.969	0.018	0.042
-531.091	167.250	-0.133	-0.189
-530.077	141.073	0.030	0.040
-529.062	-200.000	-0.024	-0.196
-528.048	132.748	-0.150	0.193
-527.033	-66.433	0.466	0.184
-526.018	-156.380	-0.217	0.014
-525.004	-37.513	-0.100	-0.053
-523.989	-28.357	-0.144	0.083
-522.975	-200.000	0.002	0.075
-521.960	152.521	-0.170	0.231
-520.945	69.399	-0.259	0.266
-519.931	800.000	-0.059	0.223
-518.916	-179.338	-0.278	0.006
-517.902	-46.916	-0.065	0.032
-516.887	697.940	-0.032	0.085
-515.872	155.225	0.086	-0.117
-514.858	-200.000	0.002	-0.034
-513.843	-87.744	-0.143	0.043
-512.829	-7.993	0.138	-0.093
-511.814	800.000	0.052	0.144
-510.799	800.000	0.045	-0.198
-509.785	341.017	-0.116	0.225
-508.770	-200.000	-0.008	0.147
-507.756	34.686	-0.115	-0.100
-506.741	-11.825	-0.070	0.046
-505.726	-168.336	0.081	-0.003
-504.712	49.719	0.198	-0.185
-503.697	16.910	-0.106	-0.084
-502.683	-66.222	0.461	-0.183
-501.668	-200.000	0.002	-0.187
-500.653	462.681	-0.108	-0.241
-499.639	275.481	-0.162	-0.286
-498.624	147.785	-0.034	-0.046
-497.610	28.325	-0.339	-0.285
-496.595	-18.701	0.135	0.083
-495.581	-45.756	-0.113	-0.056
-494.566	-32.430	0.085	-0.047
-493.551	-200.000	-0.027	0.128
-492.537	104.540	-0.091	-0.107
-491.522	-175.479	-0.236	-0.006
-490.508	431.174	-0.090	0.195
-489.493	-200.000	-0.026	-0.212
-488.478	-121.781	-0.200	0.033
-487.464	148.172	-0.282	0.379
-486.449	562.796	0.149	0.358
-485.435	261.263	0.075	0.129
-484.420	-200.000	-0.025	-0.190
-483.405	27.395	-0.188	-0.157
-482.391	-78.539	-0.013	-0.005
-481.376	491.660	0.047	0.106
-480.362	-200.000	-0.012	-0.255
-479.347	107.888	0.065	0.077
-478.332	213.195	0.080	-0.126
-477.318	204.081	0.151	-0.233
-476.303	164.651	0.078	0.109
-475.289	217.478	0.069	-0.109
-474.274	151.772	-0.231	0.313
-473.259	209.851	0.217	0.338
-472.245	-200.000	-0.055	0.456
-471.230	800.000	0.020	-0.057
-470.216	800.000	-0.050	0.187
-469.201	36.504	0.196	0.172
-468.186	612.863	-0.081	-0.202
-467.172	105.521	-0.097	-0.114
-466.157	-200.000	-0.015	0.240
-465.143	148.678	-0.158	-0.212
-464.128	277.422	-0.086	0.151
-463.113	335.785	0.159	-0.307
-462.099	-23.789	-0.225	-0.134
-461.084	73.086	0.141	0.146
-460.070	-78.844	-0.185	-0.063
-459.055	-31.252	0.217	-0.122
-458.040	170.223	0.108	-0.153
-457.026	-30.268	-0.278	-0.157
-456.011	-113.755	-0.485	-0.094
-454.997	-58.488	0.069	-0.030
-453.982	12.894	-0.098	0.075
-452.968	764.467	-0.132	-0.355
-451.953	-170.135	0.250	0.009
-450.938	800.000	0.037	-0.121
-449.924	446.575	0.053	0.117
-448.909	-58.086	-0.103	0.045
-447.895	-2.094	0.144	0.100
-446.880	-124.383	0.236	-0.037
-445.865	800.000	0.125	0.380
-444.851	-15.761	-0.201	-0.127
-443.836	488.131	0.095	0.216
-442.822	153.986	0.076	0.104
-441.807	-200.000	0.036	0.276
-440.792	-157.653	0.145	-0.009
-439.778	-75.357	-0.274	0.097
-438.763	241.110	-0.102	0.169
-437.749	-157.642	0.284	0.017
-436.734	800.000	-0.022	0.087
-435.719	743.841	-0.028	0.075
-434.705	-200.000	-0.027	-0.151
-433.690	-200.000	-0.049	0.313
-432.676	-20.339	-0.077	-0.047
-431.661	-179.065	0.232	-0.005
-430.646	-119.804	0.124	-0.021
-429.632	459.184	0.040	0.088
-428.617	-147.291	0.324	0.027
-427.603	-200.000	-0.010	0.227
-426.588	58.967	0.199	0.195
-425.573	412.417	0.087	0.183
-424.559	-200.000	-0.032	-0.327
-423.544	-200.000	-0.087	0.413
-422.530	378.050	-0.127	-0.258
-421.515	115.098	-0.063	-0.076
-420.500	-17.271	0.315	0.197
-419.486	-149.735	-0.307	0.024
-418.471	47.251	-0.100	0.093
-417.457	45.490	0.341	0.312
-416.442	91.759	0.088	-0.098
-415.428	-200.000	-0.003	0.058
-414.413	141.665	-0.092	-0.121
-413.398	-84.180	0.124	-0.039
-412.384	-111.726	0.211	0.042
-411.369	-62.223	0.093	0.039
-410.355	-200.000	0.031	0.142
-409.340	-41.676	0.390	0.199
-408.325	800.000	-0.133	0.396
-407.311	-43.226	-0.118	-0.059
-406.296	96.809	-0.075	-0.085
-405.282	73.870	-0.104	0.108
-404.267	10.564	-0.133	-0.101
-403.252	301.956	0.083	-0.152
-402.238	800.000	-0.076	0.290
-401.223	-21.170	0.454	0.275
-400.209	-83.715	-0.171	0.054
-399.194	800.000	0.079	-0.274
-398.179	-200.000	0.019	-0.251
-397.165	-200.000	-0.024	0.118
-396.150	800.000	-0.034	0.102
-395.136	800.000	0.042	-0.148
-394.121	-8.632	0.030	0.020
-393.106	-118.017	-0.302	0.053
-392.092	74.195	0.105	0.109
-391.077	140.312	-0.217	0.284
-390.063	323.215	0.115	-0.217
-389.048	-66.423	0.076	0.030
-388.033	-78.289	-0.300	0.102
-387.019	155.631	0.188	0.256
-386.004	-30.171	0.203	0.114
-384.990	159.505	-0.166	-0.229
-383.975	-200.000	-0.046	-0.352
-382.960	194.626	0.169	0.253
-381.946	-34.902	-0.232	-0.126
-380.931	800.000	-0.055	0.212
-379.917	-49.830	0.362	0.170
-378.902	-34.424	-0.113	-0.061
-377.888	71.244	0.139	0.143
-376.873	174.701	0.126	0.181
-375.858	-200.000	0.043	0.337
-374.844	355.595	-0.158	-0.312
-373.829	540.488	-0.095	-0.223
-372.815	-200.000	-0.010	-0.100
-371.800	-83.757	-0.384	-0.121
-370.785	-112.884	0.106	-0.021
-369.771	-26.333	0.291	0.169
-368.756	-5.309	0.135	-0.092
-367.742	21.121	0.046	0.037
-366.727	-200.000	0.032	-0.190
-365.712	19.865	-0.175	-0.140
-364.698	294.999	0.146	-0.265
-363.683	-129.452	-0.381	0.052
-362.669	-56.174	0.085	0.037
-361.654	800.000	-0.072	0.216
-360.639	167.398	-0.034	0.048
-359.625	-109.511	0.312	-0.065
-358.610	153.337	0.085	0.115
-357.596	154.064	0.086	-0.117
-356.581	-77.376	0.209	0.072
-355.566	-153.840	0.031	0.002
-354.552	101.222	0.092	-0.106
-353.537	-3.711	-0.121	-0.083
-352.523	262.196	-0.055	-0.095
-351.508	-170.769	0.187	0.006
-350.493	601.118	0.116	0.284
-349.479	-113.373	-0.268	0.052
-348.464	-149.790	0.076	-0.006
-347.450	67.934	-0.105	0.106
-346.435	31.640	-0.025	-0.021
-345.420	-100.063	0.460	-0.113
-344.406	210.858	0.133	-0.207
-343.391	-20.185	-0.135	0.082
-342.377	800.000	-0.105	-0.320
-341.362	-200.000	0.036	0.323
-340.348	507.919	-0.137	0.315
-339.333	-48.961	-0.386	0.183
-338.318	800.000	-0.045	0.134
-337.304	-144.350	0.069	0.006
-336.289	12.217	0.317	-0.241
-335.275	278.350	-0.256	0.452
-334.260	-139.945	-0.266	-0.028
-333.245	-68.779	0.242	-0.093
-332.231	160.889	0.137	-0.189
-331.216	-200.000	0.049	0.356
-330.202	-200.000	-0.018	0.134
-329.187	-12.414	-0.147	-0.095
-328.172	15.469	0.136	-0.105
-327.158	-25.066	0.081	-0.047
-326.143	-73.543	-0.188	0.068
-325.129	-47.383	0.160	-0.077
-324.114	199.461	-0.198	-0.300
-323.099	-200.000	-0.017	0.098
-322.085	458.952	-0.062	0.135
-321.070	-200.000	0.033	-0.233
-320.056	-192.344	-0.083	0.001
-319.041	10.961	-0.054	-0.041
-318.026	127.039	0.130	0.162
-317.012	800.000	-0.087	0.270
-315.997	-113.256	0.208	-0.041
-314.983	-121.645	-0.169	-0.028
-313.968	169.455	0.064	0.091
-312.953	-76.841	-0.070	-0.024
-311.939	74.317	-0.154	-0.160
-310.924	-65.524	-0.246	-0.098
-309.910	800.000	-0.070	-0.209
-308.895	-131.700	0.103	-0.013
-307.880	-65.325	0.070	0.028
-306.866	-30.821	-0.158	-0.088
-305.851	118.399	-0.201	-0.245
-304.837	-200.000	0.035	-0.241
-303.822	-200.000	-0.023	-0.162
-302.807	245.033	0.156	-0.259
-301.793	-200.000	0.033	0.213
-300.778	231.470	-0.013	-0.022
-299.764	182.676	-0.157	0.229
-298.749	288.223	-0.161	-0.287
-297.735	-103.329	-0.109	-0.025
-296.720	-200.000	-0.006	-0.242
-295.705	129.161	-0.135	0.170
-294.691	582.170	-0.105	-0.254
-293.676	-89.000	0.044	-0.013
-292.662	-154.507	0.085	0.006
-291.647	-25.907	-0.081	-0.047
-290.632	-52.295	-0.196	0.090
-289.618	-17.121	-0.130	0.081
-288.603	-161.531	-0.287	0.015
-287.589	-105.263	-0.368	-0.083
-286.574	-17.390	0.144	-0.089
-285.559	174.300	-0.169	-0.242
-284.545	169.975	-0.104	0.147
-283.530	-91.960	0.215	0.060
-282.516	49.900	0.255	-0.237
-281.501	-200.000	-0.018	-0.085
-280.486	2.589	0.209	0.149
-279.472	44.359	-0.355	0.322
-278.457	309.431	-0.018	0.034
-277.443	-1.966	-0.044	0.030
-276.428	471.237	0.134	-0.296
-275.413	17.933	-0.338	0.266
-274.399	165.660	-0.115	0.161
-273.384	68.400	0.112	-0.114
-272.370	-19.371	0.376	0.230
-271.355	-200.000	-0.050	0.251
-270.340	75.287	-0.119	0.124
-269.326	-85.505	0.186	0.057
-268.311	-136.104	-0.358	0.041
-267.297	-56.323	-0.124	0.054
-266.282	-200.000	-0.132	0.581
-265.267	-200.000	-0.024	-0.341
-264.253	246.549	0.217	-0.361
-263.238	277.076	0.129	0.226
-262.224	-119.903	-0.497	0.084
-261.209	709.956	0.123	-0.322
-260.195	24.781	-0.090	-0.073
-259.180	592.770	0.108	-0.263
-258.165	-200.000	-0.082	0.411
-257.151	87.263	-0.193	-0.211
-256.136	-200.000	0.048	-0.240
-255.122	103.947	0.272	0.316
-254.107	800.000	0.004	0.015
-253.092	-30.419	-0.133	0.074
-252.078	153.956	0.211	-0.285
-251.063	39.575	0.067	-0.059
-250.049	-149.123	-0.083	0.007
-249.034	-98.956	-0.159	0.040
-248.019	341.593	-0.149	0.287
-247.005	450.425	0.046	-0.099
-245.990	-200.000	-0.064	-0.339
-244.976	-200.000	0.040	-0.261
-243.961	160.973	0.123	0.170
-242.946	-131.559	0.491	-0.064
-241.932	138.784	-0.076	0.099
-240.917	-200.000	0.008	0.200
-239.903	123.587	0.137	-0.169
-238.888	-30.693	0.223	-0.125
-237.873	90.161	-0.418	0.461
-236.859	-200.000	-0.011	0.107
-235.844	-200.000	0.067	-0.292
-234.830	154.835	-0.249	0.337
-233.815	-101.145	0.143	0.034
-232.800	-154.923	0.252	0.016
-231.786	185.868	-0.098	0.144
-230.771	800.000	0.119	0.370
-229.757	800.000	0.012	-0.036
-228.742	180.572	-0.019	0.027
-227.727	48.510	-0.502	-0.463
-226.713	800.000	0.049	-0.197
-225.698	-17.674	0.167	-0.103
-224.684	-200.000	-0.034	0.384
-223.669	181.507	0.078	0.113
-222.655	220.306	0.054	-0.086
-221.640	14.357	-0.030	-0.023
-220.625	12.696	0.205	-0.156
-219.611	800.000	0.074	-0.257
-218.596	-93.701	-0.087	-0.024
-217.582	204.731	-0.181	-0.276
-216.567	-5.189	-0.126	0.085
-215.552	71.164	0.186	-0.190
-214.538	-59.214	-0.225	-0.096
-213.523	-79.276	0.212	-0.071
-212.509	800.000	0.111	-0.324
-211.494	-200.000	-0.001	0.167
-210.479	-183.142	-0.156	0.003
-209.465	-46.658	-0.217	-0.105
-208.450	-21.840	-0.084	0.050
-207.436	583.935	0.159	0.385
-206.421	363.643	0.131	0.259
-205.406	-33.709	0.327	-0.177
-204.392	201.440	-0.095	-0.144
-203.377	90.578	0.152	0.167
-202.363	-45.809	-0.225	-0.110
-201.348	-58.291	-0.320	-0.137
-200.333	642.075	0.049	-0.123
-199.319	-51.151	-0.127	-0.058
-198.304	800.000	-0.055	-0.233
-197.290	314.896	0.122	0.226
-196.275	-69.858	0.180	0.067
-195.260	216.455	0.089	-0.140
-194.246	-158.208	0.227	-0.013
-193.231	-200.000	0.027	0.128
-192.217	115.106	-0.062	0.075
-191.202	3.760	-0.174	-0.125
-190.187	-25.288	0.160	-0.093
-189.173	-200.000	-0.066	0.423
-188.158	255.944	-0.187	-0.316
-187.144	-200.000	-0.033	0.311
-186.129	364.072	0.134	0.266
-185.114	80.760	0.175	0.186
-184.100	-200.000	-0.040	0.272
-183.085	800.000	0.080	-0.296
-182.071	184.689	-0.124	-0.180
-181.056	800.000	0.034	0.123
-180.042	18.761	-0.134	-0.106
-179.027	-40.080	0.308	-0.158
-178.012	-77.687	-0.319	0.109
-176.998	800.000	0.067	0.249
-175.983	-200.000	0.017	0.178
-174.969	163.041	-0.159	-0.220
-173.954	-148.495	0.222	0.018
-172.939	800.000	0.012	0.038
-171.925	-100.849	0.176	0.043
-170.910	98.660	0.128	-0.145
-169.896	79.577	0.064	-0.067
-168.881	35.894	0.130	-0.113
-167.866	-67.571	0.162	0.062
-166.852	-55.950	-0.273	0.120
-165.837	-200.000	0.002	-0.590
-164.823	92.001	0.106	-0.117
-163.808	-123.176	-0.278	-0.044
-162.793	72.065	0.165	-0.169
-161.779	-109.672	0.164	-0.034
-160.764	106.745	-0.102	-0.119
-159.750	-119.375	-0.330	-0.056
-158.735	32.587	0.108	-0.092
-157.720	-42.685	0.203	0.101
-156.706	194.207	0.154	-0.229
-155.691	78.035	0.212	-0.222
-154.677	42.425	-0.279	-0.249
-153.662	-200.000	0.018	0.202
-152.647	745.053	-0.046	0.123
-151.633	463.085	0.111	-0.243
-150.618	-200.000	0.018	-0.196
-149.604	446.965	0.098	-0.211
-148.589	-42.330	0.184	-0.092
-147.574	133.640	-0.029	0.037
-146.560	-99.180	0.129	-0.032
-145.545	146.868	-0.324	-0.428
-144.531	471.170	-0.082	-0.181
-143.516	-101.712	-0.072	-0.017
-142.502	8.163	-0.138	0.102
-141.487	-36.475	0.144	-0.076
-140.472	-200.000	-0.022	-0.301
-139.458	65.123	-0.040	0.039
-138.443	-200.000	0.013	-0.069
-137.429	-142.592	0.176	0.017
-136.414	-28.998	0.166	-0.094
-135.399	800.000	0.094	-0.372
-134.385	-200.000	0.011	0.299
-133.370	-200.000	0.018	-0.160
-132.356	18.559	0.139	-0.109
-131.341	-108.706	-0.167	0.035
-130.326	-190.257	-0.151	0.002
-129.312	126.938	-0.174	0.217
-128.297	-41.323	-0.198	0.100
-127.283	-200.000	-0.055	-0.437
-126.268	-158.496	-0.456	0.026
-125.253	-165.666	-0.158	0.007
-124.239	-200.000	0.042	-0.250
-123.224	-32.229	-0.113	0.062
-122.210	554.201	0.044	-0.104
