DTS Sentinel unit serial number:	SN413079Multiplexer serial number:	ORYXHardware model number:	OX4-SRSoftware version number:	ORYX F/W v4.00 Oryx Data Collector v3.7.2.0data status	okinstallation	princeton_trtdifferential loss correction	single-endedforward channel	channel 2reverse channel	N/Adate	2019/09/19time	03:19:35forward acquisition time	60.00reverse acquisition time	0.00gamma	496.2192k internal	0.2353k external	0.2353temperature offset calibration	1.0010default loss term (dB/km)	0.3790temperature slope calibration	1.0000multiplexer offset coefficient	1.0000multiplexer slope coefficient	1.0000fibre end	0.00T internal ref (°C)	20.75T ext. ref 1 (°C)	0.65T ext. ref 2 (°C)	14.14length (m)	temperature (°C)	Stokes	anti-Stokes-747.200	-37.624	-0.290	0.154
-746.185	-200.000	0.027	0.169
-745.171	78.529	0.146	0.155
-744.156	800.000	0.040	0.169
-743.142	-10.402	-0.158	0.104
-742.127	-44.321	-0.295	-0.147
-741.112	-141.255	-0.222	-0.023
-740.098	800.000	-0.038	-0.141
-739.083	800.000	0.145	0.434
-738.069	375.931	0.098	-0.200
-737.054	-200.000	0.020	-0.286
-736.039	-74.689	-0.309	-0.111
-735.025	-200.000	-0.018	0.365
-734.010	-200.000	-0.014	0.286
-732.996	-14.474	-0.139	-0.089
-731.981	-110.545	0.312	0.064
-730.966	-86.648	-0.330	-0.101
-729.952	69.522	-0.065	-0.066
-728.937	-34.832	0.083	0.045
-727.923	-135.431	-0.096	0.011
-726.908	77.446	-0.031	-0.033
-725.894	800.000	-0.024	-0.094
-724.879	191.681	-0.210	0.316
-723.864	800.000	-0.031	0.105
-722.850	800.000	-0.061	-0.182
-721.835	-200.000	0.063	0.361
-720.821	-12.483	0.076	0.049
-719.806	-25.562	-0.262	0.154
-718.791	-160.444	0.055	-0.003
-717.777	-200.000	0.022	-0.276
-716.762	-21.329	0.103	0.063
-715.748	157.984	0.082	-0.113
-714.733	131.232	0.018	0.023
-713.718	-177.149	-0.157	0.004
-712.704	-200.000	0.007	-0.195
-711.689	800.000	0.043	0.131
-710.675	1.563	-0.214	0.154
-709.660	307.752	-0.050	-0.092
-708.645	-21.972	-0.172	-0.104
-707.631	-170.934	-0.102	0.003
-706.616	125.283	0.196	0.246
-705.602	76.336	-0.256	0.270
-704.587	-154.437	-0.260	0.017
-703.572	-9.922	-0.104	-0.069
-702.558	280.973	0.170	-0.304
-701.543	-153.460	-0.140	0.010
-700.529	-124.054	-0.256	0.040
-699.514	175.509	0.159	-0.229
-698.499	-200.000	-0.009	-0.173
-697.485	295.984	0.089	-0.162
-696.470	-123.327	-0.201	-0.032
-695.456	-87.753	0.063	0.019
-694.441	365.594	0.164	-0.329
-693.426	-67.400	-0.094	0.037
-692.412	-110.315	-0.234	0.048
-691.397	-110.915	-0.291	-0.060
-690.383	-162.027	0.349	0.018
-689.368	800.000	0.022	-0.086
-688.354	-159.460	-0.356	0.020
-687.339	142.756	0.039	0.052
-686.324	167.103	-0.081	0.114
-685.310	800.000	-0.076	0.326
-684.295	141.345	-0.108	-0.143
-683.281	-150.720	0.019	-0.001
-682.266	-200.000	-0.011	0.179
-681.251	-111.966	0.510	0.102
-680.237	-200.000	0.008	0.094
-679.222	195.059	0.158	0.239
-678.208	-82.735	-0.157	0.051
-677.193	-200.000	0.031	0.158
-676.178	247.847	-0.230	-0.387
-675.164	744.759	-0.080	-0.214
-674.149	-101.722	0.207	-0.050
-673.135	-178.024	-0.178	0.004
-672.120	-160.982	-0.193	-0.010
-671.105	-200.000	-0.015	0.106
-670.091	-113.990	-0.163	0.031
-669.076	225.526	0.067	0.109
-668.062	-200.000	0.009	0.166
-667.047	-200.000	0.005	0.142
-666.032	139.009	-0.039	0.051
-665.018	800.000	0.049	-0.205
-664.003	-66.387	0.270	0.107
-662.989	27.938	0.177	0.148
-661.974	-154.384	-0.184	-0.012
-660.959	49.210	-0.160	0.149
-659.945	-200.000	-0.039	0.276
-658.930	148.401	-0.029	0.039
-657.916	-200.000	-0.016	0.089
-656.901	-139.578	0.068	0.007
-655.886	-97.802	0.079	-0.020
-654.872	169.239	-0.076	-0.108
-653.857	-200.000	0.010	-0.108
-652.843	186.356	0.143	0.212
-651.828	71.392	-0.140	-0.145
-650.814	42.262	-0.214	-0.193
-649.799	182.045	0.035	-0.051
-648.784	-169.711	0.284	-0.010
-647.770	427.026	0.030	0.064
-646.755	233.268	0.036	-0.058
-645.741	654.892	-0.101	0.257
-644.726	-200.000	0.045	0.000
-643.711	-200.000	0.044	-0.204
-642.697	-128.672	0.116	-0.016
-641.682	86.610	0.181	-0.198
-640.668	-62.585	-0.500	0.206
-639.653	-40.069	0.093	-0.048
-638.638	-1.655	0.047	-0.033
-637.624	9.300	-0.353	-0.265
-636.609	-42.466	-0.112	0.057
-635.595	214.882	0.220	0.346
-634.580	-200.000	-0.001	0.182
-633.565	-110.308	0.143	-0.029
-632.551	215.775	-0.220	0.347
-631.536	800.000	-0.074	0.252
-630.522	-37.557	-0.419	0.222
-629.507	-115.647	0.276	0.051
-628.492	179.678	0.128	-0.186
-627.478	-200.000	-0.097	-0.434
-626.463	99.866	0.257	0.295
-625.449	-32.052	-0.450	-0.250
-624.434	74.996	-0.114	0.120
-623.419	800.000	-0.082	0.339
-622.405	-72.400	0.110	-0.040
-621.390	182.790	0.092	0.135
-620.376	28.868	0.347	0.292
-619.361	-123.350	-0.054	-0.009
-618.346	-200.000	0.034	-0.259
-617.332	2.619	0.071	-0.051
-616.317	800.000	-0.057	-0.204
-615.303	-139.648	0.322	0.034
-614.288	-18.068	-0.239	0.149
-613.273	73.923	0.112	0.116
-612.259	-121.965	0.154	-0.025
-611.244	41.049	-0.170	0.152
-610.230	646.636	-0.117	0.296
-609.215	-161.648	0.166	-0.008
-608.201	115.357	0.115	-0.139
-607.186	544.030	0.045	0.106
-606.171	-200.000	-0.004	-0.250
-605.157	312.496	0.193	-0.359
-604.142	454.444	0.034	0.074
-603.128	652.742	0.096	-0.244
-602.113	-14.880	-0.019	-0.012
-601.098	-87.891	-0.391	-0.117
-600.084	91.543	-0.044	0.049
-599.069	-200.000	-0.001	-0.214
-598.055	-150.888	0.325	-0.024
-597.040	463.525	0.128	0.284
-596.025	730.282	-0.070	-0.185
-595.011	-67.373	-0.139	0.054
-593.996	503.989	-0.031	0.070
-592.982	-113.540	-0.205	-0.040
-591.967	45.928	-0.150	0.138
-590.952	-16.315	-0.433	0.272
-589.938	-200.000	-0.025	0.126
-588.923	-200.000	-0.058	-0.289
-587.909	-200.000	0.029	-0.161
-586.894	-200.000	-0.029	0.263
-585.879	247.807	-0.184	-0.308
-584.865	-73.160	0.328	-0.119
-583.850	-70.923	-0.297	-0.111
-582.836	-200.000	-0.017	-0.102
-581.821	-105.135	0.209	-0.047
-580.806	413.635	0.117	0.246
-579.792	-52.086	-0.272	-0.125
-578.777	-142.597	-0.307	-0.030
-577.763	800.000	0.079	0.300
-576.748	-103.530	0.067	0.016
-575.733	-140.471	-0.307	0.032
-574.719	59.355	0.199	0.194
-573.704	-154.999	-0.120	-0.008
-572.690	83.665	0.114	0.123
-571.675	6.359	-0.290	0.213
-570.661	-200.000	0.022	-0.176
-569.646	58.318	-0.066	0.064
-568.631	-154.680	0.426	-0.028
-567.617	38.911	-0.125	0.110
-566.602	58.149	-0.157	-0.152
-565.588	800.000	0.024	-0.093
-564.573	76.503	-0.079	-0.083
-563.558	-38.851	0.160	0.083
-562.544	366.070	0.123	-0.245
-561.529	305.619	0.034	-0.063
-560.515	-41.244	-0.329	-0.168
-559.500	111.147	0.082	0.098
-558.485	-31.654	0.322	-0.179
-557.471	-50.145	0.343	0.161
-556.456	-200.000	-0.016	0.156
-555.442	-62.864	0.111	-0.045
-554.427	-45.528	-0.159	0.078
-553.412	-59.575	0.279	0.118
-552.398	-200.000	0.009	-0.185
-551.383	-84.241	0.142	-0.044
-550.369	246.499	0.109	0.182
-549.354	50.723	-0.201	-0.188
-548.339	-200.000	0.061	0.322
-547.325	579.503	-0.086	-0.208
-546.310	77.693	0.039	-0.041
-545.296	-144.698	-0.208	-0.019
-544.281	241.806	0.079	0.131
-543.266	97.325	0.086	-0.098
-542.252	-31.143	0.166	0.093
-541.237	-200.000	0.041	-0.266
-540.223	17.076	-0.091	0.071
-539.208	-200.000	-0.025	-0.170
-538.193	2.769	0.217	-0.156
-537.179	-3.686	0.049	-0.034
-536.164	355.203	0.123	0.241
-535.150	-124.645	-0.264	-0.040
-534.135	-75.062	-0.354	-0.125
-533.121	-45.792	-0.323	-0.158
-532.106	-116.234	0.156	-0.029
-531.091	-50.236	0.244	0.114
-530.077	-200.000	-0.032	-0.143
-529.062	97.148	-0.070	-0.079
-528.048	2.038	-0.249	-0.178
-527.033	800.000	-0.134	-0.386
-526.018	-200.000	0.198	0.001
-525.004	-159.168	-0.195	0.011
-523.989	228.555	0.074	-0.119
-522.975	-200.000	0.001	0.174
-521.960	-89.236	0.125	0.036
-520.945	-141.750	-0.397	-0.039
-519.931	301.791	-0.100	-0.183
-518.916	-140.710	0.713	0.073
-517.902	-62.571	-0.091	-0.037
-516.887	11.129	-0.335	0.253
-515.872	-54.084	-0.108	-0.049
-514.858	29.250	0.172	-0.145
-513.843	-160.628	-0.183	-0.010
-512.829	418.934	-0.072	-0.152
-511.814	-89.873	-0.167	0.048
-510.799	-147.425	-0.423	0.035
-509.785	207.394	-0.106	0.163
-508.770	-143.629	0.173	0.016
-507.756	287.118	0.195	0.348
-506.741	-200.000	0.009	-0.153
-505.726	800.000	0.037	-0.139
-504.712	-200.000	-0.005	-0.048
-503.697	-111.457	0.319	0.064
-502.683	81.061	0.180	0.192
-501.668	316.126	0.161	-0.300
-500.653	-74.666	-0.162	-0.058
-499.639	-191.764	-0.307	0.003
-498.624	-43.431	0.363	0.181
-497.610	-200.000	0.086	0.379
-496.595	417.079	-0.039	0.083
-495.581	-70.867	0.397	-0.148
-494.566	222.016	0.126	0.201
-493.551	-200.000	-0.052	-0.304
-492.537	-200.000	0.052	0.293
-491.522	-106.429	0.233	0.051
-490.508	-55.988	0.204	0.090
-489.493	70.723	-0.024	-0.024
-488.478	38.253	0.370	-0.325
-487.464	-127.527	-0.139	0.020
-486.449	-39.278	-0.228	-0.118
-485.435	120.994	0.095	0.117
-484.420	-200.000	-0.001	0.031
-483.405	17.783	0.072	0.056
-482.391	514.628	-0.135	-0.310
-481.376	446.857	-0.039	-0.085
-480.362	118.885	-0.148	-0.180
-479.347	56.423	-0.217	-0.208
-478.332	-82.302	-0.114	0.037
-477.318	-75.121	-0.224	-0.079
-476.303	-26.482	0.432	-0.250
-475.289	142.568	-0.080	-0.104
-474.274	83.432	-0.239	0.257
-473.259	-200.000	-0.026	0.140
-472.245	-200.000	-0.023	0.174
-471.230	-200.000	0.045	0.265
-470.216	800.000	0.010	0.037
-469.201	-39.733	-0.080	0.041
-468.186	-59.453	-0.413	-0.175
-467.172	-70.788	-0.151	-0.056
-466.157	3.842	-0.161	0.116
-465.143	38.505	-0.106	0.093
-464.128	315.122	0.164	-0.305
-463.113	170.785	-0.132	-0.186
-462.099	799.774	-0.063	0.171
-461.084	517.876	0.186	-0.429
-460.070	-124.231	-0.117	0.018
-459.055	-165.218	-0.103	0.004
-458.040	196.802	0.036	0.054
-457.026	-56.299	0.134	-0.059
-456.011	29.317	0.222	0.186
-454.997	64.204	-0.139	0.138
-453.982	-200.000	0.026	0.197
-452.968	-59.576	-0.165	0.070
-451.953	-20.869	-0.113	0.068
-450.938	247.333	-0.160	0.266
-449.924	34.648	-0.230	-0.198
-448.909	90.252	-0.085	-0.093
-447.895	739.724	0.074	-0.195
-446.880	93.580	0.051	0.056
-445.865	-30.824	-0.163	0.091
-444.851	-4.701	-0.225	0.153
-443.836	4.114	0.250	0.180
-442.822	-20.463	0.443	0.268
-441.807	156.398	-0.121	0.164
-440.792	32.274	0.049	-0.042
-439.778	800.000	0.064	-0.213
-438.763	-68.577	0.337	-0.129
-437.749	18.865	0.231	-0.183
-436.734	-200.000	0.001	-0.215
-435.719	-139.736	-0.154	-0.016
-434.705	577.794	0.071	-0.172
-433.690	236.992	-0.153	0.250
-432.676	-44.283	0.046	-0.023
-431.661	-81.529	-0.096	-0.031
-430.646	800.000	0.066	-0.286
-429.632	-200.000	0.045	0.320
-428.617	-121.950	-0.212	0.034
-427.603	-130.442	-0.248	0.033
-426.588	800.000	-0.035	0.116
-425.573	-200.000	-0.012	0.450
-424.559	272.928	0.174	0.302
-423.544	-90.273	0.068	-0.019
-422.530	-200.000	0.003	-0.279
-421.515	26.113	-0.210	-0.173
-420.500	-103.185	-0.200	-0.047
-419.486	-94.761	0.140	-0.037
-418.471	-59.391	0.599	-0.254
-417.457	-84.826	-0.298	-0.092
-416.442	-200.000	0.052	0.257
-415.428	168.634	-0.130	0.183
-414.413	-19.903	0.102	0.062
-413.398	465.067	-0.089	0.195
-412.384	206.016	-0.176	-0.270
-411.369	-200.000	-0.045	0.201
-410.355	76.946	0.119	-0.125
-409.340	-25.933	0.153	0.089
-408.325	-143.626	-0.198	0.019
-407.311	800.000	0.078	0.221
-406.296	643.534	-0.112	-0.281
-405.282	-200.000	0.084	-0.373
-404.267	-34.881	0.154	-0.083
-403.252	-60.821	0.194	-0.081
-402.238	-59.320	0.284	-0.120
-401.223	-200.000	0.015	-0.234
-400.209	-200.000	-0.049	0.266
-399.194	-181.746	-0.073	0.001
-398.179	800.000	-0.122	-0.373
-397.165	-129.240	-0.194	0.027
-396.150	-68.626	0.209	-0.080
-395.136	-186.357	-0.098	0.001
-394.121	-200.000	-0.021	-0.158
-393.106	800.000	0.029	-0.089
-392.092	-54.791	0.357	0.159
-391.077	10.629	-0.012	-0.009
-390.063	-129.785	0.225	-0.030
-389.048	-178.442	0.411	0.009
-388.033	800.000	-0.025	-0.101
-387.019	85.908	0.080	-0.086
-386.004	81.096	0.088	0.093
-384.990	394.600	-0.073	-0.150
-383.975	-37.207	-0.034	0.018
-382.960	800.000	0.118	-0.445
-381.946	800.000	-0.011	-0.031
-380.931	43.060	0.082	-0.074
-379.917	195.975	0.176	0.263
-378.902	-28.333	-0.339	0.193
-377.888	187.351	0.161	0.236
-376.873	-75.343	0.208	-0.073
-375.858	148.771	-0.061	0.081
-374.844	-200.000	-0.130	-0.602
-373.829	800.000	0.082	-0.251
-372.815	-46.156	0.069	0.033
-371.800	51.917	-0.211	-0.197
-370.785	-99.119	0.405	-0.101
-369.771	-91.837	-0.222	0.062
-368.756	-50.900	0.283	-0.131
-367.742	800.000	0.088	-0.285
-366.727	-200.000	0.076	0.358
-365.712	704.885	0.098	0.254
-364.698	161.388	0.206	0.283
-363.683	77.436	-0.195	-0.204
-362.669	-101.038	-0.529	-0.127
-361.654	-17.439	-0.116	-0.072
-360.639	-145.317	-0.176	0.016
-359.625	-17.418	0.117	0.072
-358.610	52.037	0.270	0.253
-357.596	491.719	-0.046	-0.103
-356.581	27.416	0.230	-0.190
-355.566	395.909	-0.066	-0.136
-354.552	800.000	0.059	0.250
-353.537	-39.505	0.039	0.020
-352.523	-200.000	-0.027	0.357
-351.508	800.000	-0.022	-0.063
-350.493	-151.873	0.155	0.011
-349.479	-146.929	-0.109	0.009
-348.464	350.594	0.159	-0.309
-347.450	168.780	0.099	0.139
-346.435	-46.272	-0.167	-0.081
-345.420	-142.835	-0.039	-0.004
-344.406	-42.108	0.300	-0.150
-343.391	86.321	0.141	0.152
-342.377	-200.000	0.030	0.213
-341.362	55.104	-0.349	-0.331
-340.348	190.860	-0.112	-0.165
-339.333	-109.237	-0.114	-0.024
-338.318	24.823	-0.388	-0.316
-337.304	40.118	0.064	-0.056
-336.289	-85.698	0.094	-0.029
-335.275	301.927	-0.093	0.169
-334.260	226.547	-0.201	-0.319
-333.245	91.996	0.197	-0.218
-332.231	800.000	0.084	0.281
-331.216	800.000	-0.139	-0.387
-330.202	326.545	0.188	0.353
-329.187	-200.000	0.058	0.330
-328.172	800.000	-0.037	-0.151
-327.158	-79.295	-0.148	0.049
-326.143	79.904	0.024	0.025
-325.129	515.550	0.037	-0.085
-324.114	274.699	0.060	-0.104
-323.099	-200.000	-0.060	0.292
-322.085	278.415	-0.121	0.211
-321.070	43.884	-0.216	0.194
-320.056	150.232	0.101	-0.135
-319.041	282.779	0.120	-0.211
-318.026	-186.100	-0.193	-0.003
-317.012	-29.794	0.217	-0.121
-315.997	-200.000	-0.005	-0.290
-314.983	59.955	0.177	0.171
-313.968	-200.000	0.046	0.237
-312.953	45.143	-0.216	0.195
-311.939	9.783	-0.266	-0.198
-310.924	-105.191	-0.293	0.066
-309.910	800.000	0.138	-0.378
-308.895	-200.000	-0.047	-0.286
-307.880	800.000	-0.126	-0.370
-306.866	52.466	-0.187	0.175
-305.851	-200.000	-0.041	0.183
-304.837	-146.393	0.203	0.017
-303.822	800.000	-0.106	0.311
-302.807	145.835	-0.295	0.388
-301.793	800.000	0.110	0.427
-300.778	-26.280	-0.119	-0.068
-299.764	-124.971	0.166	0.025
-298.749	800.000	-0.067	0.259
-297.735	-200.000	0.041	-0.376
-296.720	786.230	0.053	0.144
-295.705	343.732	0.075	0.144
-294.691	-154.876	0.245	-0.016
-293.676	613.017	-0.143	-0.352
-292.662	800.000	0.131	0.483
-291.647	-64.128	-0.091	-0.036
-290.632	133.229	0.194	-0.245
-289.618	92.621	-0.130	-0.144
-288.603	-174.297	-0.524	0.015
-287.589	-200.000	-0.012	-0.135
-286.574	-200.000	-0.006	0.139
-285.559	-15.451	0.080	-0.050
-284.545	151.759	-0.072	0.096
-283.530	-73.705	-0.149	0.053
-282.516	-36.168	0.088	-0.047
-281.501	241.624	-0.013	-0.022
-280.486	-47.331	-0.126	-0.060
-279.472	20.981	0.114	0.091
-278.457	-11.508	-0.232	0.150
-277.443	-88.711	0.510	0.148
-276.428	77.853	0.144	-0.151
-275.413	52.156	0.142	-0.133
-274.399	-83.627	0.227	-0.071
-273.384	392.319	0.119	0.241
-272.370	-200.000	-0.029	-0.265
-271.355	-176.383	-0.095	0.002
-270.340	91.702	-0.031	0.034
-269.326	41.437	0.081	0.072
-268.311	116.935	-0.278	0.335
-267.297	-162.547	-0.189	-0.009
-266.282	4.445	0.087	0.063
-265.267	-139.993	-0.076	-0.008
-264.253	105.635	0.117	0.135
-263.238	82.887	0.146	-0.155
-262.224	165.635	0.049	-0.068
-261.209	727.262	-0.088	0.230
-260.195	567.329	-0.040	-0.095
-259.180	-200.000	0.045	0.404
-258.165	-99.341	-0.009	0.002
-257.151	116.695	-0.118	0.141
-256.136	253.214	0.199	0.332
-255.122	800.000	-0.157	0.462
-254.107	-135.348	0.304	0.036
-253.092	27.677	-0.101	0.083
-252.078	37.905	-0.149	-0.130
-251.063	-200.000	0.064	-0.347
-250.049	-130.927	-0.157	-0.021
-249.034	-103.602	0.118	-0.027
-248.019	-64.725	-0.311	-0.123
-247.005	518.588	0.085	-0.194
-245.990	-103.682	0.410	0.094
-244.976	106.716	0.132	-0.153
-243.961	-200.000	-0.062	-0.340
-242.946	-20.368	-0.091	0.055
-241.932	-80.609	-0.194	-0.063
-240.917	-62.535	0.250	0.102
-239.903	788.345	-0.064	0.172
-238.888	240.278	0.136	-0.222
-237.873	54.178	0.144	-0.136
-236.859	-47.214	-0.235	-0.112
-235.844	-44.791	0.386	-0.188
-234.830	-200.000	0.026	-0.318
-233.815	-122.928	-0.264	0.042
-232.800	-200.000	-0.018	0.271
-231.786	-200.000	0.019	0.248
-230.771	-3.428	0.250	-0.170
-229.757	-200.000	-0.017	0.127
-228.742	-98.093	0.171	-0.043
-227.727	15.883	-0.125	-0.096
-226.713	-126.391	0.348	-0.051
-225.698	-108.665	-0.151	-0.032
-224.684	89.776	-0.129	0.141
-223.669	-200.000	-0.049	0.422
-222.655	800.000	0.083	-0.335
-221.640	-200.000	-0.005	-0.418
-220.625	-0.647	0.252	0.175
-219.611	-42.101	-0.281	0.141
-218.596	-42.158	0.271	0.136
-217.582	800.000	0.035	-0.107
-216.567	-200.000	-0.002	-0.244
-215.552	28.218	0.164	0.135
-214.538	-200.000	0.033	0.227
-213.523	733.534	-0.068	-0.177
-212.509	193.733	-0.167	0.247
-211.494	-200.000	-0.002	-0.022
-210.479	800.000	-0.041	0.126
-209.465	345.625	0.055	-0.106
-208.450	92.868	0.054	0.060
-207.436	-200.000	0.011	0.128
-206.421	162.110	-0.259	0.354
-205.406	800.000	0.114	0.356
-204.392	556.244	-0.077	0.180
-203.377	653.527	-0.074	-0.184
-202.363	-44.370	0.216	-0.105
-201.348	434.831	-0.179	0.380
-200.333	-200.000	-0.028	0.271
-199.319	-200.000	-0.019	0.127
-198.304	11.688	0.263	0.197
-197.290	-143.728	-0.131	-0.012
-196.275	-200.000	-0.019	-0.252
-195.260	109.952	-0.233	-0.273
-194.246	-40.122	-0.107	-0.054
-193.231	800.000	-0.077	0.264
-192.217	-66.882	-0.165	0.064
-191.202	800.000	-0.055	-0.178
-190.187	592.426	-0.129	-0.311
-189.173	437.622	0.094	-0.200
-188.158	70.691	0.132	0.134
-187.144	535.130	-0.100	-0.231
-186.129	629.148	0.161	0.396
-185.114	-125.821	-0.152	-0.022
-184.100	-119.907	0.196	0.033
-183.085	344.210	0.130	-0.250
-182.071	-32.577	-0.050	-0.027
-181.056	-200.000	-0.004	0.159
-180.042	-139.745	-0.231	0.024
-179.027	-58.170	0.191	0.081
-178.012	-71.952	-0.149	-0.054
-176.998	-200.000	0.023	0.109
-175.983	-119.830	-0.369	-0.062
-174.969	-200.000	-0.037	-0.404
-173.954	86.138	-0.152	-0.163
-172.939	-135.734	0.166	0.019
-171.925	106.338	-0.125	0.144
-170.910	-27.683	-0.187	0.106
-169.896	-28.349	0.093	-0.052
-168.881	-200.000	-0.003	0.079
-167.866	800.000	0.032	-0.128
-166.852	167.942	0.075	0.104
-165.837	800.000	0.090	-0.281
-164.823	800.000	-0.027	0.092
-163.808	-154.310	-0.136	0.009
-162.793	800.000	0.121	0.404
-161.779	252.202	0.103	0.171
-160.764	-131.815	-0.404	-0.052
-159.750	-98.918	0.133	-0.033
-158.735	-200.000	0.006	0.219
-157.720	-112.432	-0.145	0.028
-156.706	-176.730	0.130	-0.003
-155.691	-200.000	0.043	-0.228
-154.677	223.366	0.052	0.082
-153.662	800.000	-0.008	0.027
-152.647	43.111	0.236	0.210
-151.633	276.814	0.164	-0.284
-150.618	74.625	-0.101	0.103
-149.604	-36.055	-0.071	0.038
-148.589	2.437	-0.113	0.080
-147.574	13.368	0.252	-0.190
-146.560	-109.996	0.031	0.006
-145.545	263.412	0.077	0.130
-144.531	-200.000	-0.006	0.123
-143.516	68.371	-0.192	-0.192
-142.502	98.743	0.150	0.169
-141.487	800.000	0.044	0.168
-140.472	215.018	-0.082	-0.126
-139.458	-85.370	0.125	0.038
-138.443	800.000	-0.108	-0.393
-137.429	-200.000	-0.054	-0.241
-136.414	9.143	0.147	0.108
-135.399	74.817	-0.215	0.220
-134.385	66.171	0.137	-0.135
-133.370	81.536	-0.157	0.166
-132.356	-200.000	0.015	0.099
-131.341	-99.179	-0.256	-0.063
-130.326	458.584	-0.118	0.256
-129.312	341.318	-0.089	0.170
-128.297	-55.465	0.152	-0.066
-127.283	800.000	0.046	-0.181
-126.268	-147.613	-0.273	-0.022
-125.253	-97.999	0.168	-0.042
-124.239	99.848	-0.195	0.220
-123.224	92.153	0.114	-0.125
-122.210	104.673	-0.040	-0.046
