DTS Sentinel unit serial number:	SN413079Multiplexer serial number:	ORYXHardware model number:	OX4-SRSoftware version number:	ORYX F/W v4.00 Oryx Data Collector v3.7.2.0data status	okinstallation	princeton_trtdifferential loss correction	single-endedforward channel	channel 2reverse channel	N/Adate	2019/09/11time	15:33:11forward acquisition time	60.00reverse acquisition time	0.00gamma	496.2192k internal	0.2289k external	0.2289temperature offset calibration	1.0017default loss term (dB/km)	0.3790temperature slope calibration	1.0000multiplexer offset coefficient	1.0000multiplexer slope coefficient	1.0000fibre end	0.00T internal ref (°C)	42.84T ext. ref 1 (°C)	0.99T ext. ref 2 (°C)	36.16length (m)	temperature (°C)	Stokes	anti-Stokes-747.200	-200.000	-0.020	0.194
-746.185	-83.863	0.038	-0.012
-745.171	-119.913	-0.142	0.025
-744.156	126.812	-0.037	0.047
-743.142	800.000	0.070	-0.210
-742.127	-122.986	-0.130	-0.022
-741.112	82.405	-0.156	0.173
-740.098	11.125	-0.082	0.064
-739.083	-200.000	-0.022	-0.109
-738.069	510.852	-0.125	0.297
-737.054	800.000	-0.085	0.292
-736.039	-24.596	0.255	0.156
-735.025	800.000	-0.125	0.416
-734.010	800.000	-0.111	0.384
-732.996	120.472	-0.187	-0.238
-731.981	157.521	0.113	0.160
-730.966	-200.000	-0.047	0.221
-729.952	106.747	-0.069	0.084
-728.937	207.255	-0.186	0.297
-727.923	621.845	0.094	0.243
-726.908	104.956	-0.088	0.107
-725.894	-200.000	-0.029	0.190
-724.879	84.498	-0.155	-0.174
-723.864	800.000	-0.126	-0.364
-722.850	-49.324	-0.177	0.086
-721.835	164.056	-0.124	-0.179
-720.821	-129.613	0.082	0.012
-719.806	76.518	-0.128	-0.139
-718.791	-23.106	-0.277	-0.171
-717.777	188.320	-0.229	0.350
-716.762	194.557	0.096	-0.149
-715.748	496.346	-0.124	0.291
-714.733	136.737	0.086	-0.115
-713.718	-21.320	0.223	0.139
-712.704	-117.190	-0.156	0.029
-711.689	-200.000	-0.029	0.156
-710.675	335.664	-0.162	0.321
-709.660	800.000	-0.019	-0.080
-708.645	-18.636	-0.210	-0.134
-707.631	-42.320	0.132	0.069
-706.616	-104.655	-0.112	-0.026
-705.602	800.000	0.067	-0.211
-704.587	-200.000	0.034	-0.238
-703.572	507.779	-0.100	-0.237
-702.558	25.547	0.149	0.127
-701.543	-121.115	0.126	0.022
-700.529	-60.961	-0.087	-0.037
-699.514	-174.815	-0.369	0.011
-698.499	-111.407	-0.219	-0.046
-697.485	800.000	-0.097	0.349
-696.470	-165.720	-0.088	0.004
-695.456	92.775	0.211	0.244
-694.441	-200.000	-0.018	0.161
-693.426	364.134	-0.167	-0.343
-692.412	800.000	-0.030	-0.133
-691.397	87.991	-0.055	0.062
-690.383	-28.726	0.337	0.198
-689.368	800.000	0.110	-0.412
-688.354	-200.000	0.011	-0.140
-687.339	413.157	0.100	0.217
-686.324	-157.674	-0.099	-0.006
-685.310	800.000	0.014	0.050
-684.295	-200.000	-0.019	-0.119
-683.281	89.929	0.094	-0.108
-682.266	788.813	-0.027	0.075
-681.251	496.981	-0.141	-0.332
-680.237	-58.831	-0.307	-0.136
-679.222	-136.900	-0.129	-0.015
-678.208	6.378	-0.330	0.251
-677.193	-137.633	0.196	0.023
-676.178	37.735	0.092	0.084
-675.164	-19.149	-0.182	-0.116
-674.149	800.000	0.005	0.016
-673.135	298.807	0.105	0.198
-672.120	76.857	-0.332	-0.361
-671.105	-60.512	-0.222	-0.096
-670.091	15.028	-0.128	-0.103
-669.076	185.491	-0.083	0.126
-668.062	-136.256	-0.297	0.035
-667.047	-24.576	-0.050	-0.030
-666.032	-200.000	-0.002	-0.407
-665.018	47.369	-0.264	0.251
-664.003	-200.000	-0.036	0.402
-662.989	389.464	0.063	-0.133
-661.974	-200.000	-0.089	-0.445
-660.959	23.628	0.193	0.162
-659.945	301.018	-0.117	0.221
-658.930	68.244	0.171	-0.179
-657.916	-138.694	-0.245	-0.027
-656.901	800.000	-0.038	0.154
-655.886	-200.000	-0.057	-0.278
-654.872	21.521	-0.102	-0.085
-653.857	-117.870	-0.241	0.044
-652.843	-188.587	-0.095	-0.001
-651.828	800.000	-0.151	-0.507
-650.814	-143.545	0.218	0.021
-649.799	34.726	-0.083	0.074
-648.784	79.358	0.216	-0.237
-647.770	800.000	-0.063	-0.252
-646.755	421.803	-0.215	-0.471
-645.741	-93.489	-0.188	-0.053
-644.726	-200.000	0.008	-0.053
-643.711	-73.245	-0.363	0.136
-642.697	-200.000	-0.028	-0.270
-641.682	25.866	0.014	0.012
-640.668	-52.190	0.222	-0.105
-639.653	-27.765	0.137	-0.081
-638.638	192.962	-0.134	0.207
-637.624	-66.051	-0.219	0.089
-636.609	16.241	-0.091	-0.074
-635.595	-200.000	-0.046	-0.544
-634.580	-200.000	-0.004	-0.111
-633.565	-46.291	-0.266	0.133
-632.551	-167.883	-0.339	0.014
-631.536	-44.461	-0.351	-0.179
-630.522	-200.000	0.013	0.240
-629.507	-27.745	-0.220	0.130
-628.492	-200.000	0.044	-0.423
-627.478	-29.473	0.185	-0.108
-626.463	-200.000	0.050	-0.533
-625.449	77.658	0.216	-0.235
-624.434	175.732	-0.065	-0.095
-623.419	-109.771	-0.245	-0.053
-622.405	686.286	0.085	-0.227
-621.390	317.410	0.037	-0.072
-620.376	-200.000	-0.001	-0.476
-619.361	220.871	-0.121	-0.198
-618.346	-51.726	-0.204	-0.097
-617.332	492.076	0.044	0.102
-616.317	100.618	-0.061	0.072
-615.303	33.274	-0.167	0.148
-614.288	-79.365	0.528	-0.182
-613.273	-200.000	-0.019	0.241
-612.259	-142.391	0.318	0.032
-611.244	165.255	0.169	-0.244
-610.230	-200.000	0.019	-0.109
-609.215	-31.606	-0.130	0.074
-608.201	-200.000	-0.001	0.059
-607.186	-54.813	0.274	0.126
-606.171	-77.990	0.345	0.121
-605.157	77.185	-0.184	-0.199
-604.142	-8.130	0.081	-0.056
-603.128	173.893	-0.066	0.098
-602.113	800.000	0.109	-0.357
-601.098	-33.811	-0.322	-0.181
-600.084	189.871	0.118	0.181
-599.069	-68.208	-0.339	-0.134
-598.055	83.159	-0.134	0.148
-597.040	143.725	-0.008	-0.011
-596.025	9.504	-0.063	-0.049
-595.011	-72.543	-0.337	-0.127
-593.996	769.941	0.084	-0.233
-592.982	437.109	0.027	-0.060
-591.967	800.000	-0.049	0.144
-590.952	19.805	0.073	-0.060
-589.938	800.000	-0.042	-0.128
-588.923	-73.903	-0.413	0.153
-587.909	-99.906	-0.173	0.044
-586.894	317.446	0.214	0.413
-585.879	8.012	0.119	0.091
-584.865	-27.248	0.434	0.257
-583.850	-90.209	-0.221	0.065
-582.836	-83.132	0.085	-0.028
-581.821	402.257	-0.046	-0.098
-580.806	-42.603	-0.300	-0.155
-579.792	791.885	-0.039	0.108
-578.777	-28.715	0.302	0.177
-577.763	105.163	0.031	0.037
-576.748	363.095	-0.117	0.239
-575.733	49.496	-0.086	-0.082
-574.719	26.176	0.091	0.078
-573.704	-29.520	-0.314	-0.183
-572.690	122.181	0.030	0.039
-571.675	254.798	0.043	-0.075
-570.661	-172.899	0.058	0.002
-569.646	-200.000	0.000	0.266
-568.631	-200.000	-0.007	-0.092
-567.617	137.252	-0.104	0.138
-566.602	-200.000	0.013	0.084
-565.588	800.000	0.026	0.095
-564.573	132.566	-0.269	-0.353
-563.558	124.515	-0.054	-0.069
-562.544	30.096	0.191	-0.166
-561.529	494.917	-0.103	0.241
-560.515	44.778	0.037	-0.035
-559.500	800.000	0.108	0.356
-558.485	-200.000	0.042	0.220
-557.471	-64.400	-0.163	-0.068
-556.456	257.552	-0.229	-0.402
-555.442	-200.000	0.047	-0.406
-554.427	800.000	-0.007	0.022
-553.412	587.389	0.083	-0.207
-552.398	-70.057	0.232	-0.090
-551.383	-100.259	-0.361	0.091
-550.369	50.129	0.319	0.307
-549.354	223.324	-0.054	0.089
-548.339	-73.347	-0.151	0.056
-547.325	484.951	0.059	-0.135
-546.310	-192.003	-0.402	-0.004
-545.296	-177.911	-0.383	0.009
-544.281	-70.940	0.103	0.039
-543.266	544.461	0.218	0.529
-542.252	315.074	0.150	0.287
-541.237	489.164	-0.085	-0.198
-540.223	-200.000	0.033	-0.256
-539.208	-16.423	-0.068	-0.044
-538.193	6.690	-0.247	0.187
-537.179	-200.000	0.060	0.440
-536.164	-65.315	-0.142	0.058
-535.150	29.522	0.183	0.158
-534.135	-67.087	-0.039	0.015
-533.121	327.457	0.163	-0.317
-532.106	63.571	0.065	-0.067
-531.091	504.136	0.048	-0.114
-530.077	66.083	0.173	0.178
-529.062	-31.834	0.060	0.034
-528.048	42.027	-0.150	-0.138
-527.033	263.981	0.163	0.288
-526.018	-100.841	-0.159	0.040
-525.004	-59.680	0.385	0.168
-523.989	-177.721	-0.201	0.005
-522.975	-200.000	0.006	0.082
-521.960	-200.000	0.009	-0.124
-520.945	-141.146	-0.120	0.012
-519.931	-200.000	-0.118	-0.000
-518.916	103.667	-0.181	0.216
-517.902	92.565	-0.079	0.091
-516.887	8.920	-0.112	0.086
-515.872	301.236	0.088	0.164
-514.858	-108.286	0.051	0.011
-513.843	593.383	0.069	-0.174
-512.829	800.000	-0.019	0.084
-511.814	-197.473	0.274	-0.002
-510.799	-19.409	-0.099	0.062
-509.785	-88.964	-0.114	0.034
-508.770	83.117	0.102	0.112
-507.756	-158.256	-0.132	-0.008
-506.741	-200.000	0.003	-0.334
-505.726	-200.000	0.056	0.253
-504.712	-42.665	0.248	0.128
-503.697	-16.851	0.351	-0.225
-502.683	239.215	-0.035	-0.060
-501.668	500.747	0.061	0.143
-500.653	-58.277	-0.318	0.140
-499.639	-67.421	-0.187	-0.075
-498.624	-200.000	0.012	-0.421
-497.610	344.282	0.138	0.274
-496.595	-200.000	-0.055	-0.349
-495.581	35.694	0.356	0.317
-494.566	800.000	-0.069	-0.276
-493.551	-58.183	0.258	-0.114
-492.537	408.396	-0.157	-0.336
-491.522	18.155	-0.039	0.031
-490.508	800.000	-0.031	0.129
-489.493	-120.308	-0.096	0.017
-488.478	35.859	-0.106	-0.095
-487.464	199.242	0.051	-0.080
-486.449	370.891	0.024	0.050
-485.435	308.347	0.048	0.090
-484.420	-106.312	-0.378	0.086
-483.405	694.919	-0.072	-0.192
-482.391	7.826	-0.200	-0.152
-481.376	-70.433	-0.023	-0.009
-480.362	161.412	0.042	-0.059
-479.347	124.245	0.171	-0.218
-478.332	74.089	0.037	0.039
-477.318	-161.112	0.510	0.027
-476.303	114.447	-0.123	-0.152
-475.289	-86.537	-0.165	-0.051
-474.274	378.910	-0.135	0.280
-473.259	79.832	-0.181	-0.198
-472.245	-8.714	-0.118	-0.081
-471.230	-169.672	0.058	0.002
-470.216	-98.187	0.402	-0.105
-469.201	119.479	-0.048	0.060
-468.186	-96.710	0.191	-0.051
-467.172	-200.000	0.014	-0.220
-466.157	-126.472	0.428	-0.064
-465.143	800.000	0.120	-0.346
-464.128	191.115	-0.199	-0.304
-463.113	1.007	0.058	0.042
-462.099	-122.894	0.045	-0.007
-461.084	-13.246	0.148	-0.098
-460.070	800.000	0.027	-0.084
-459.055	-200.000	0.015	-0.301
-458.040	-69.379	-0.372	-0.145
-457.026	-130.560	-0.217	0.030
-456.011	-78.441	0.333	0.116
-454.997	-200.000	0.033	-0.603
-453.982	-200.000	-0.048	-0.267
-452.968	-200.000	-0.004	-0.062
-451.953	-22.408	0.304	-0.186
-450.938	-98.445	-0.195	0.051
-449.924	113.703	-0.164	0.202
-448.909	-170.423	0.204	-0.007
-447.895	140.100	-0.079	-0.105
-446.880	114.218	0.208	0.256
-445.865	-165.161	0.152	0.007
-444.851	-39.409	0.218	-0.116
-443.836	-17.256	0.239	-0.153
-442.822	-23.841	0.129	-0.078
-441.807	112.109	0.050	0.062
-440.792	-121.237	0.030	0.005
-439.778	-34.738	0.247	-0.137
-438.763	-30.081	0.180	0.104
-437.749	-34.143	-0.075	0.042
-436.734	95.279	0.091	-0.105
-435.719	515.448	-0.085	-0.201
-434.705	-93.749	-0.151	-0.042
-433.690	-98.933	0.235	-0.060
-432.676	186.489	-0.141	0.213
-431.661	275.863	0.076	0.136
-430.646	-149.567	0.174	-0.014
-429.632	578.940	0.124	0.306
-428.617	-11.350	-0.152	-0.101
-427.603	-156.787	0.344	0.021
-426.588	-200.000	0.022	0.126
-425.573	201.528	-0.061	0.095
-424.559	-157.969	-0.054	-0.003
-423.544	-200.000	-0.029	-0.145
-422.530	63.599	0.061	0.062
-421.515	791.453	-0.094	0.262
-420.500	67.147	-0.192	0.198
-419.486	217.736	-0.222	0.358
-418.471	-46.251	0.145	-0.072
-417.457	800.000	0.070	-0.288
-416.442	100.645	-0.017	0.020
-415.428	-200.000	-0.033	-0.246
-414.413	800.000	-0.031	0.087
-413.398	-69.814	0.030	-0.011
-412.384	800.000	-0.070	-0.218
-411.369	-26.422	0.056	0.033
-410.355	191.936	0.145	-0.221
-409.340	47.708	-0.173	-0.163
-408.325	-116.556	0.153	-0.029
-407.311	23.523	-0.286	-0.238
-406.296	115.988	0.066	-0.082
-405.282	-43.560	-0.320	-0.163
-404.267	63.269	0.128	-0.129
-403.252	760.101	0.053	-0.146
-402.238	800.000	-0.026	0.087
-401.223	245.271	0.179	0.305
-400.209	124.353	-0.014	0.017
-399.194	-21.183	-0.098	0.061
-398.179	-13.155	0.176	-0.116
-397.165	-81.771	0.055	0.018
-396.150	-119.062	-0.158	0.028
-395.136	141.060	-0.085	-0.114
-394.121	164.063	-0.120	0.171
-393.106	298.263	0.124	0.231
-392.092	424.509	0.040	-0.087
-391.077	-98.311	-0.137	0.035
-390.063	-108.530	0.175	0.038
-389.048	194.753	-0.082	-0.126
-388.033	-2.455	-0.058	-0.041
-387.019	-2.273	0.027	-0.019
-386.004	605.304	-0.040	0.101
-384.990	-94.734	0.442	0.121
-383.975	251.897	-0.067	0.115
-382.960	-200.000	0.038	0.471
-381.946	-200.000	0.022	-0.131
-380.931	-55.436	-0.204	0.092
-379.917	57.301	0.285	0.281
-378.902	-68.927	-0.039	0.015
-377.888	-38.254	0.353	-0.189
-376.873	-10.934	-0.184	-0.122
-375.858	-98.389	-0.432	-0.112
-374.844	243.241	-0.069	0.117
-373.829	282.152	0.198	-0.359
-372.815	-91.500	-0.185	-0.053
-371.800	-27.235	-0.216	-0.127
-370.785	-65.998	0.144	-0.058
-369.771	-109.510	-0.059	0.012
-368.756	-143.027	0.308	-0.030
-367.742	-200.000	-0.044	0.329
-366.727	800.000	0.038	0.120
-365.712	-28.064	-0.206	-0.120
-364.698	-108.635	-0.216	0.047
-363.683	-117.542	0.270	-0.049
-362.669	-162.173	0.194	-0.010
-361.654	38.788	0.141	0.127
-360.639	800.000	-0.092	-0.393
-359.625	428.840	0.100	-0.219
-358.610	29.942	-0.259	0.223
-357.596	-49.564	-0.318	0.153
-356.581	169.062	-0.011	0.016
-355.566	-200.000	0.015	-0.306
-354.552	-8.542	0.312	0.212
-353.537	50.484	-0.124	0.118
-352.523	95.346	-0.248	-0.285
-351.508	-95.336	0.092	0.025
-350.493	-193.804	0.299	-0.003
-349.479	-6.990	-0.167	0.115
-348.464	-181.282	0.148	0.003
-347.450	-98.261	-0.301	-0.078
-346.435	-154.515	-0.331	0.022
-345.420	-88.549	0.159	-0.048
-344.406	202.582	-0.130	0.203
-343.391	700.262	0.119	0.315
-342.377	-61.027	-0.217	0.093
-341.362	-26.109	-0.312	-0.185
-340.348	50.201	-0.108	0.103
-339.333	407.013	0.120	-0.256
-338.318	-73.586	-0.073	-0.027
-337.304	800.000	0.041	-0.151
-336.289	-107.525	-0.308	-0.068
-335.275	-61.999	-0.073	0.031
-334.260	800.000	0.096	0.356
-333.245	-200.000	0.008	0.127
-332.231	-123.700	-0.407	-0.065
-331.216	-200.000	0.174	0.000
-330.202	358.317	-0.070	-0.142
-329.187	-46.707	-0.119	-0.059
-328.172	-200.000	-0.004	-0.019
-327.158	800.000	0.025	0.072
-326.143	-33.029	0.266	-0.149
-325.129	-200.000	0.050	-0.312
-324.114	133.648	-0.195	0.254
-323.099	-200.000	0.025	0.321
-322.085	-200.000	0.035	0.382
-321.070	-200.000	0.060	-0.308
-320.056	-200.000	-0.006	-0.033
-319.041	-200.000	0.045	0.249
-318.026	130.389	0.151	0.195
-317.012	-106.457	-0.142	0.032
-315.997	-200.000	0.010	-0.110
-314.983	288.015	-0.073	-0.133
-313.968	37.433	0.270	-0.241
-312.953	133.315	0.177	-0.230
-311.939	-200.000	-0.043	-0.393
-310.924	-90.406	-0.416	0.122
-309.910	285.584	0.304	0.551
-308.895	-22.724	-0.139	0.085
-307.880	-62.512	0.051	-0.022
-306.866	-37.765	-0.040	0.021
-305.851	-200.000	0.014	-0.098
-304.837	-72.481	-0.134	0.050
-303.822	47.428	0.233	0.218
-302.807	-63.167	0.335	-0.139
-301.793	-24.982	0.369	-0.221
-300.778	-200.000	0.012	-0.172
-299.764	-32.334	0.179	0.100
-298.749	43.733	0.155	0.142
-297.735	-83.358	0.174	-0.056
-296.720	-164.613	-0.108	0.005
-295.705	-200.000	0.041	0.271
-294.691	676.713	-0.162	0.423
-293.676	-200.000	0.048	0.239
-292.662	131.554	-0.087	0.113
-291.647	133.526	0.202	-0.263
-290.632	117.630	-0.165	0.205
-289.618	41.849	0.112	-0.102
-288.603	56.592	0.247	-0.242
-287.589	129.317	0.129	0.166
-286.574	-200.000	0.055	0.344
-285.559	446.314	-0.136	0.301
-284.545	-200.000	0.032	-0.289
-283.530	-84.202	0.130	-0.041
-282.516	213.124	-0.051	-0.081
-281.501	-173.999	-0.285	0.008
-280.486	800.000	-0.020	-0.085
-279.472	-200.000	-0.030	0.163
-278.457	800.000	0.136	0.404
-277.443	-200.000	-0.044	0.350
-276.428	209.721	0.202	0.319
-275.413	3.052	-0.140	-0.102
-274.399	-110.122	-0.326	0.069
-273.384	102.993	0.177	0.208
-272.370	-19.898	0.361	0.224
-271.355	233.364	0.129	0.213
-270.340	-101.239	0.161	-0.040
-269.326	704.273	0.083	-0.219
-268.311	-200.000	-0.014	0.089
-267.297	-200.000	0.046	0.484
-266.282	134.429	-0.122	0.159
-265.267	-123.178	0.143	-0.023
-264.253	103.206	0.178	-0.210
-263.238	-139.579	-0.140	-0.015
-262.224	-129.696	0.384	0.053
-261.209	-51.791	0.192	0.090
-260.195	131.761	0.259	0.335
-259.180	101.968	0.225	0.264
-258.165	-0.363	-0.259	0.185
-257.151	-176.480	0.358	0.009
-256.136	-67.712	0.143	0.056
-255.122	-127.744	-0.306	0.044
-254.107	16.117	0.085	0.067
-253.092	7.592	0.054	0.040
-252.078	-7.112	-0.103	0.070
-251.063	-150.269	0.425	0.033
-250.049	-200.000	-0.020	0.127
-249.034	-43.970	-0.089	0.045
-248.019	225.736	0.132	0.216
-247.005	-109.732	-0.292	-0.062
-245.990	98.954	0.149	-0.173
-244.976	-46.501	-0.098	-0.048
-243.961	-200.000	0.001	-0.032
-242.946	-63.971	-0.355	0.146
-241.932	800.000	0.058	0.195
-240.917	-3.856	-0.244	-0.170
-239.903	-102.360	0.346	0.083
-238.888	66.695	0.080	0.082
-237.873	40.811	0.347	-0.314
-236.859	6.529	-0.049	-0.036
-235.844	-129.059	0.195	0.027
-234.830	36.570	0.145	-0.129
-233.815	-200.000	-0.008	0.210
-232.800	-134.315	0.045	0.006
-231.786	570.612	-0.081	0.199
-230.771	-103.104	0.044	0.010
-229.757	234.669	0.151	0.250
-228.742	8.493	0.213	-0.161
-227.727	-200.000	-0.033	-0.000
-226.713	697.856	0.125	-0.329
-225.698	182.708	-0.095	-0.141
-224.684	12.101	0.147	0.114
-223.669	-200.000	0.033	0.166
-222.655	658.497	-0.137	0.353
-221.640	-120.786	0.074	-0.013
-220.625	-38.714	0.253	0.134
-219.611	-108.826	-0.059	0.013
-218.596	-200.000	-0.033	0.152
-217.582	-200.000	0.021	-0.111
-216.567	455.517	0.106	0.235
-215.552	17.178	-0.060	0.047
-214.538	800.000	-0.089	-0.335
-213.523	-200.000	-0.023	-0.210
-212.509	197.128	-0.174	-0.267
-211.494	-138.028	-0.112	0.012
-210.479	-200.000	-0.001	0.110
-209.465	800.000	0.020	0.067
-208.450	72.689	0.160	0.168
-207.436	388.315	0.070	-0.145
-206.421	-200.000	-0.009	0.068
-205.406	388.155	-0.064	-0.134
-204.392	-80.770	-0.119	-0.040
-203.377	-200.000	0.004	-0.020
-202.363	247.967	0.104	0.176
-201.348	318.430	0.083	-0.158
-200.333	97.743	-0.136	0.156
-199.319	800.000	-0.085	-0.262
-198.304	4.069	-0.109	-0.080
-197.290	-10.775	0.196	0.130
-196.275	800.000	0.060	0.181
-195.260	-128.103	-0.409	0.059
-194.246	126.487	0.220	0.280
-193.231	190.175	0.261	0.393
-192.217	-121.260	-0.212	-0.036
-191.202	-200.000	-0.023	-0.390
-190.187	311.413	-0.044	-0.083
-189.173	142.393	0.148	-0.197
-188.158	384.817	0.109	0.226
-187.144	-102.654	-0.109	-0.026
-186.129	74.727	-0.233	-0.246
-185.114	-200.000	-0.030	0.230
-184.100	113.577	-0.210	-0.256
-183.085	-52.749	0.125	-0.058
-182.071	-182.860	-0.443	0.008
-181.056	-200.000	-0.011	-0.138
-180.042	369.868	-0.042	-0.085
-179.027	800.000	-0.047	0.144
-178.012	800.000	0.079	-0.278
-176.998	-75.052	-0.260	0.093
-175.983	-200.000	-0.089	-0.452
-174.969	-82.019	0.141	0.046
-173.954	800.000	-0.117	0.440
-172.939	66.884	-0.152	0.155
-171.925	353.189	-0.100	0.199
-170.910	800.000	-0.083	-0.317
-169.896	-200.000	-0.070	-0.309
-168.881	-23.662	-0.333	-0.200
-167.866	-146.316	-0.340	-0.030
-166.852	-68.488	0.159	-0.062
-165.837	314.277	-0.163	0.307
-164.823	225.159	0.090	-0.146
-163.808	-35.035	-0.172	0.094
-162.793	-200.000	0.012	-0.092
-161.779	-39.944	0.353	-0.184
-160.764	800.000	-0.104	0.385
-159.750	-200.000	0.016	-0.190
-158.735	641.206	-0.067	-0.171
-157.720	-200.000	0.037	0.339
-156.706	-200.000	-0.033	0.352
-155.691	-132.639	-0.075	-0.010
-154.677	41.803	-0.098	0.089
-153.662	-169.935	-0.071	-0.003
-152.647	6.563	-0.357	0.266
-151.633	125.348	0.162	0.205
-150.618	800.000	0.053	-0.218
-149.604	402.906	-0.031	0.066
-148.589	-107.165	-0.306	0.068
-147.574	208.611	0.280	-0.438
-146.560	-25.191	-0.409	-0.242
-145.545	-200.000	0.063	0.371
-144.531	351.749	0.096	0.191
-143.516	-80.552	-0.030	-0.010
-142.502	-200.000	0.017	0.329
-141.487	-105.360	0.135	0.031
-140.472	-139.544	-0.213	-0.023
-139.458	-81.430	0.201	0.066
-138.443	-127.094	0.204	0.030
-137.429	609.659	-0.058	-0.144
-136.414	-115.475	0.083	-0.016
-135.399	-87.150	-0.190	0.058
-134.385	-71.214	-0.165	0.062
-133.370	800.000	0.082	-0.265
-132.356	739.416	-0.102	-0.274
-131.341	25.523	-0.105	-0.087
-130.326	-132.282	-0.456	0.059
-129.312	437.625	0.102	0.222
-128.297	88.775	0.093	-0.104
-127.283	182.414	0.130	-0.192
-126.268	-200.000	-0.013	0.075
-125.253	-200.000	0.018	-0.113
-124.239	186.795	0.058	0.086
-123.224	-100.019	-0.202	0.050
-122.210	-56.140	0.235	0.105
