DTS Sentinel unit serial number:	SN413079Multiplexer serial number:	ORYXHardware model number:	OX4-SRSoftware version number:	ORYX F/W v4.00 Oryx Data Collector v3.7.2.0data status	okinstallation	princeton_trtdifferential loss correction	single-endedforward channel	channel 2reverse channel	N/Adate	2019/09/17time	15:15:35forward acquisition time	60.00reverse acquisition time	0.00gamma	496.2192k internal	0.2307k external	0.2307temperature offset calibration	0.9985default loss term (dB/km)	0.3790temperature slope calibration	1.0000multiplexer offset coefficient	1.0000multiplexer slope coefficient	1.0000fibre end	0.00T internal ref (°C)	37.81T ext. ref 1 (°C)	0.39T ext. ref 2 (°C)	34.71length (m)	temperature (°C)	Stokes	anti-Stokes-747.200	-200.000	-0.050	0.386
-746.185	-17.178	-0.300	0.193
-745.171	156.813	0.321	0.451
-744.156	-110.668	-0.162	-0.034
-743.142	1.711	-0.180	-0.132
-742.127	-200.000	-0.002	0.141
-741.112	-200.000	0.008	0.120
-740.098	800.000	-0.094	0.399
-739.083	631.100	0.063	0.162
-738.069	73.796	-0.229	0.244
-737.054	40.578	-0.197	0.181
-736.039	-200.000	-0.007	-0.118
-735.025	168.589	-0.120	-0.174
-734.010	-116.401	-0.531	-0.100
-732.996	140.715	-0.111	-0.148
-731.981	-200.000	0.040	-0.222
-730.966	800.000	-0.093	-0.262
-729.952	-200.000	-0.315	0.001
-728.937	-118.383	-0.315	0.057
-727.923	-89.465	0.070	-0.021
-726.908	21.309	-0.040	-0.033
-725.894	282.059	-0.094	-0.171
-724.879	-51.498	-0.603	-0.286
-723.864	-137.281	-0.271	-0.031
-722.850	800.000	0.026	-0.089
-721.835	-139.906	-0.196	0.021
-720.821	-64.349	-0.430	0.178
-719.806	-200.000	-0.006	0.144
-718.791	-101.886	0.293	-0.072
-717.777	593.574	-0.027	-0.068
-716.762	800.000	-0.191	0.572
-715.748	-35.744	-0.204	0.112
-714.733	-77.074	-0.101	-0.036
-713.718	-70.187	0.116	-0.045
-712.704	107.936	-0.107	0.130
-711.689	800.000	-0.014	-0.042
-710.675	-140.903	0.083	-0.009
-709.660	209.260	0.189	0.301
-708.645	-16.373	-0.582	-0.375
-707.631	61.034	0.131	-0.132
-706.616	217.432	0.080	-0.130
-705.602	198.828	0.098	0.152
-704.587	55.957	0.064	-0.063
-703.572	-103.619	0.044	-0.010
-702.558	-153.957	-0.181	-0.013
-701.543	277.629	-0.050	0.091
-700.529	491.230	0.101	0.234
-699.514	-160.241	0.246	-0.014
-698.499	354.034	-0.086	-0.173
-697.485	-94.359	-0.239	0.066
-696.470	107.782	0.127	0.153
-695.456	-200.000	0.005	0.173
-694.441	599.016	-0.083	-0.209
-693.426	57.238	-0.113	0.112
-692.412	350.771	-0.106	-0.214
-691.397	800.000	-0.112	0.324
-690.383	-120.768	-0.294	-0.050
-689.368	-6.376	0.140	0.097
-688.354	-54.467	0.170	-0.078
-687.339	800.000	0.046	-0.132
-686.324	190.000	0.080	0.121
-685.310	416.328	-0.105	-0.227
-684.295	-162.196	-0.229	0.012
-683.281	-184.558	0.036	-0.001
-682.266	-200.000	-0.017	0.123
-681.251	267.918	-0.171	-0.304
-680.237	-163.247	-0.045	-0.002
-679.222	-12.099	-0.115	0.076
-678.208	-20.311	-0.163	-0.102
-677.193	800.000	-0.069	0.239
-676.178	-200.000	0.024	0.199
-675.164	519.541	0.046	0.109
-674.149	218.110	0.084	0.136
-673.135	56.127	-0.167	0.165
-672.120	-200.000	-0.042	0.199
-671.105	210.739	0.084	0.133
-670.091	708.526	0.059	-0.159
-669.076	-42.307	0.292	-0.151
-668.062	-200.000	-0.004	-0.158
-667.047	-200.000	-0.030	-0.265
-666.032	91.989	-0.139	-0.159
-665.018	455.580	-0.050	0.113
-664.003	116.937	-0.117	-0.146
-662.989	370.493	-0.034	-0.070
-661.974	367.785	0.167	0.342
-660.959	800.000	0.024	0.082
-659.945	800.000	-0.064	-0.194
-658.930	533.977	0.111	-0.265
-657.916	-16.501	-0.242	-0.155
-656.901	-200.000	-0.019	-0.131
-655.886	189.465	0.157	-0.239
-654.872	-144.570	0.089	0.008
-653.857	10.861	-0.184	0.142
-652.843	-200.000	-0.030	0.145
-651.828	66.467	0.081	0.083
-650.814	-200.000	0.001	0.114
-649.799	533.057	0.061	-0.147
-648.784	-200.000	0.026	-0.127
-647.770	-147.789	-0.300	-0.025
-646.755	-67.442	-0.187	0.074
-645.741	55.914	-0.089	-0.088
-644.726	-154.698	-0.040	0.003
-643.711	-57.222	0.203	-0.090
-642.697	800.000	0.045	0.150
-641.682	800.000	-0.100	-0.323
-640.668	132.422	0.278	-0.362
-639.653	-78.943	-0.133	-0.046
-638.638	800.000	-0.028	-0.094
-637.624	41.794	0.295	0.271
-636.609	227.414	-0.032	-0.053
-635.595	-20.720	-0.240	-0.149
-634.580	800.000	-0.051	-0.198
-633.565	-16.713	0.110	-0.070
-632.551	-86.697	0.116	-0.036
-631.536	117.880	-0.101	0.126
-630.522	-200.000	0.004	-0.217
-629.507	316.134	0.064	-0.123
-628.492	-104.540	-0.343	0.080
-627.478	73.108	-0.077	0.082
-626.463	150.462	0.054	0.075
-625.449	-155.418	-0.291	-0.019
-624.434	558.233	0.049	-0.119
-623.419	-200.000	0.016	-0.225
-622.405	-56.835	0.210	0.094
-621.390	13.733	-0.123	0.097
-620.376	90.947	-0.224	-0.254
-619.361	-117.628	-0.217	-0.040
-618.346	-109.156	0.190	-0.041
-617.332	165.961	0.167	0.240
-616.317	800.000	-0.056	-0.187
-615.303	19.728	-0.313	-0.255
-614.288	31.973	-0.013	-0.011
-613.273	427.570	0.071	-0.154
-612.259	800.000	0.062	0.221
-611.244	69.916	-0.277	-0.289
-610.230	35.302	0.212	-0.188
-609.215	-120.711	-0.037	0.006
-608.201	-48.751	-0.285	-0.139
-607.186	-34.464	0.090	0.050
-606.171	206.503	0.109	-0.172
-605.157	-3.238	-0.156	-0.110
-604.142	-64.439	0.281	-0.116
-603.128	-200.000	-0.024	0.315
-602.113	-70.166	0.097	-0.037
-601.098	425.967	0.038	-0.082
-600.084	-186.860	0.284	-0.004
-599.069	800.000	-0.071	0.260
-598.055	24.241	0.046	0.038
-597.040	-200.000	0.095	0.485
-596.025	14.911	0.022	0.017
-595.011	800.000	-0.074	-0.231
-593.996	61.275	-0.056	0.057
-592.982	-200.000	0.018	0.119
-591.967	-35.266	-0.186	-0.102
-590.952	800.000	0.019	-0.076
-589.938	-200.000	-0.008	-0.201
-588.923	46.689	-0.188	-0.176
-587.909	-93.040	0.253	-0.071
-586.894	-66.282	-0.179	0.072
-585.879	-181.609	0.182	0.004
-584.865	-200.000	0.002	-0.159
-583.850	172.848	-0.154	0.224
-582.836	-35.290	-0.146	0.080
-581.821	-54.024	0.280	0.129
-580.806	86.303	-0.099	-0.110
-579.792	3.750	0.105	-0.077
-578.777	238.841	0.109	0.183
-577.763	800.000	-0.055	-0.168
-576.748	-79.916	-0.185	0.063
-575.733	486.559	-0.189	-0.436
-574.719	-200.000	-0.014	-0.277
-573.704	-27.700	0.328	-0.192
-572.690	-104.882	-0.252	-0.058
-571.675	-152.677	0.085	-0.006
-570.661	-13.377	-0.204	0.134
-569.646	-200.000	-0.062	0.340
-568.631	-65.918	-0.183	0.074
-567.617	99.164	-0.110	-0.128
-566.602	157.190	0.214	-0.299
-565.588	79.406	0.045	-0.049
-564.573	-87.707	0.272	0.083
-563.558	-20.133	0.064	0.040
-562.544	49.501	-0.254	-0.241
-561.529	-200.000	-0.014	0.157
-560.515	-200.000	-0.023	-0.346
-559.500	-158.246	0.307	0.018
-558.485	-43.017	0.145	0.074
-557.471	-68.142	-0.400	-0.157
-556.456	190.213	0.206	0.312
-555.442	-82.462	-0.065	0.021
-554.427	166.882	-0.115	-0.164
-553.412	-99.155	0.235	0.060
-552.398	98.241	-0.072	-0.083
-551.383	800.000	0.068	-0.242
-550.369	800.000	-0.039	0.154
-549.354	3.375	-0.106	-0.078
-548.339	-50.986	0.151	0.072
-547.325	-200.000	0.044	0.203
-546.310	800.000	0.112	-0.358
-545.296	800.000	-0.028	-0.105
-544.281	46.447	-0.159	-0.149
-543.266	-200.000	-0.009	-0.061
-542.252	125.882	-0.040	0.051
-541.237	-149.241	-0.534	-0.043
-540.223	48.543	0.224	-0.212
-539.208	-134.999	-0.202	-0.025
-538.193	-160.439	-0.287	-0.016
-537.179	800.000	-0.013	-0.039
-536.164	-136.225	-0.159	0.019
-535.150	26.687	-0.126	-0.107
-534.135	-52.139	-0.233	0.109
-533.121	-197.595	0.143	0.001
-532.106	-200.000	0.037	0.174
-531.091	-100.249	-0.169	0.042
-530.077	-50.159	-0.180	-0.086
-529.062	355.868	-0.031	-0.062
-528.048	297.990	-0.094	-0.174
-527.033	-200.000	-0.011	-0.190
-526.018	-200.000	0.023	0.164
-525.004	112.950	0.066	0.080
-523.989	633.703	0.025	0.063
-522.975	800.000	-0.037	0.107
-521.960	-34.400	-0.184	0.102
-520.945	8.907	0.225	-0.172
-519.931	153.233	-0.222	-0.306
-518.916	4.016	-0.133	0.098
-517.902	20.939	0.207	-0.170
-516.887	87.864	-0.140	-0.157
-515.872	410.047	0.071	0.152
-514.858	58.467	0.093	-0.092
-513.843	-114.606	0.250	0.048
-512.829	621.577	0.136	0.345
-511.814	-140.162	-0.066	0.007
-510.799	-127.381	0.159	-0.023
-509.785	327.290	0.087	0.168
-508.770	-128.263	-0.046	-0.007
-507.756	145.884	-0.188	-0.254
-506.741	-84.393	0.121	0.038
-505.726	114.107	-0.287	0.352
-504.712	-180.018	0.298	0.006
-503.697	800.000	0.026	0.090
-502.683	-200.000	0.027	-0.161
-501.668	-28.995	-0.110	-0.064
-500.653	-200.000	0.073	-0.339
-499.639	-97.692	0.515	0.134
-498.624	-123.968	-0.282	-0.045
-497.610	800.000	0.081	-0.256
-496.595	-126.955	0.176	0.026
-495.581	-38.599	0.152	0.081
-494.566	-3.325	-0.237	0.166
-493.551	-77.025	0.427	-0.150
-492.537	-103.788	0.263	-0.062
-491.522	-102.986	-0.354	-0.085
-490.508	170.127	-0.082	-0.118
-489.493	-200.000	0.031	-0.212
-488.478	-71.842	-0.250	0.094
-487.464	-200.000	0.003	0.165
-486.449	-27.389	0.216	0.127
-485.435	79.493	0.225	-0.243
-484.420	-20.244	-0.125	-0.077
-483.405	-56.623	-0.181	0.081
-482.391	-115.278	-0.298	-0.057
-481.376	3.851	-0.309	0.228
-480.362	-110.870	-0.248	0.051
-479.347	209.277	-0.180	-0.283
-478.332	28.194	0.239	0.203
-477.318	-135.331	0.333	0.040
-476.303	-57.043	-0.296	-0.131
-475.289	12.722	-0.124	-0.097
-474.274	-200.000	0.023	0.464
-473.259	-200.000	0.020	-0.144
-472.245	-200.000	-0.026	0.148
-471.230	-11.547	-0.095	0.063
-470.216	2.345	-0.065	0.047
-469.201	800.000	0.048	-0.191
-468.186	-171.419	-0.318	0.011
-467.172	-32.586	-0.201	0.113
-466.157	1.260	-0.356	-0.258
-465.143	-132.231	-0.338	-0.044
-464.128	800.000	-0.073	0.305
-463.113	72.151	0.233	-0.244
-462.099	16.937	0.102	-0.081
-461.084	135.592	-0.179	0.234
-460.070	-74.866	0.063	-0.023
-459.055	53.152	-0.231	-0.223
-458.040	10.807	-0.150	-0.115
-457.026	-5.581	0.176	0.121
-456.011	91.867	-0.329	0.372
-454.997	-10.242	-0.314	-0.210
-453.982	800.000	-0.050	0.142
-452.968	-72.342	-0.319	0.119
-451.953	44.116	-0.035	-0.032
-450.938	-153.308	0.408	-0.029
-449.924	-196.136	-0.043	-0.000
-448.909	-200.000	0.030	-0.222
-447.895	-200.000	0.017	-0.446
-446.880	-200.000	-0.011	0.126
-445.865	-175.708	0.494	-0.013
-444.851	-162.525	0.148	-0.007
-443.836	800.000	-0.055	-0.187
-442.822	19.495	-0.241	0.195
-441.807	6.553	-0.318	0.238
-440.792	-200.000	-0.010	0.118
-439.778	-91.337	-0.093	0.027
-438.763	-46.071	0.298	0.147
-437.749	117.727	0.068	0.084
-436.734	-200.000	0.013	-0.493
-435.719	-7.625	-0.196	-0.133
-434.705	300.561	0.076	-0.140
-433.690	-54.949	0.285	-0.129
-432.676	-46.423	-0.122	-0.060
-431.661	-200.000	-0.035	0.481
-430.646	-200.000	-0.060	0.316
-429.632	30.962	0.227	0.196
-428.617	238.644	-0.023	0.039
-427.603	40.203	-0.228	-0.206
-426.588	-200.000	-0.022	-0.202
-425.573	800.000	-0.073	0.233
-424.559	-200.000	0.006	-0.186
-423.544	10.160	0.257	0.196
-422.530	562.300	-0.064	0.155
-421.515	-78.679	-0.137	-0.047
-420.500	90.711	0.213	-0.239
-419.486	-88.941	-0.335	0.100
-418.471	712.939	-0.052	0.138
-417.457	-6.207	-0.300	0.206
-416.442	-36.946	-0.134	-0.072
-415.428	800.000	-0.032	-0.125
-414.413	800.000	0.079	0.273
-413.398	800.000	0.071	-0.219
-412.384	327.474	-0.224	-0.432
-411.369	479.564	-0.045	-0.101
-410.355	-18.622	0.152	0.095
-409.340	-0.922	0.333	0.236
-408.325	800.000	0.094	0.378
-407.311	103.627	-0.127	0.150
-406.296	28.080	-0.157	-0.133
-405.282	-7.827	0.271	0.184
-404.267	-25.716	0.195	-0.116
-403.252	26.780	-0.165	0.139
-402.238	-25.016	-0.125	-0.074
-401.223	800.000	0.075	0.256
-400.209	308.037	0.098	-0.184
-399.194	779.303	0.075	0.206
-398.179	272.919	0.069	-0.123
-397.165	-70.683	0.222	-0.084
-396.150	-147.254	0.284	0.024
-395.136	584.654	-0.076	-0.188
-394.121	800.000	-0.106	0.392
-393.106	-56.932	0.082	0.036
-392.092	3.810	-0.323	-0.236
-391.077	130.582	0.232	-0.298
-390.063	-153.049	0.182	-0.013
-389.048	667.296	-0.049	0.128
-388.033	-48.587	-0.271	-0.131
-387.019	135.430	-0.046	0.060
-386.004	-11.843	0.215	0.141
-384.990	21.822	0.222	0.182
-383.975	-200.000	-0.008	-0.150
-382.960	83.564	0.081	-0.089
-381.946	-200.000	0.003	-0.085
-380.931	-200.000	0.027	-0.219
-379.917	-52.606	-0.113	0.052
-378.902	-200.000	0.038	-0.169
-377.888	-176.737	0.432	0.011
-376.873	-200.000	-0.075	-0.339
-375.858	-150.318	0.049	-0.004
-374.844	-106.549	-0.299	0.067
-373.829	-96.162	-0.424	-0.113
-372.815	-200.000	-0.011	0.082
-371.800	-200.000	0.037	-0.328
-370.785	-200.000	0.016	-0.196
-369.771	433.282	-0.109	-0.238
-368.756	-172.287	-0.162	-0.005
-367.742	-86.611	0.253	-0.078
-366.727	120.353	0.131	-0.163
-365.712	50.937	0.203	0.192
-364.698	-200.000	0.019	-0.274
-363.683	-200.000	-0.002	0.247
-362.669	-57.746	-0.284	0.125
-361.654	143.853	0.169	0.225
-360.639	-110.260	0.131	-0.027
-359.625	82.521	0.038	-0.041
-358.610	170.229	-0.162	0.233
-357.596	194.155	0.095	-0.145
-356.581	62.534	-0.265	0.265
-355.566	223.617	-0.020	-0.032
-354.552	3.681	0.214	0.156
-353.537	-35.225	0.255	0.139
-352.523	-200.000	0.024	-0.164
-351.508	-123.132	0.055	-0.009
-350.493	-200.000	0.014	0.078
-349.479	263.237	-0.090	-0.157
-348.464	-51.120	0.311	-0.146
-347.450	431.376	-0.040	-0.087
-346.435	429.004	0.171	0.370
-345.420	-157.207	0.304	-0.018
-344.406	-200.000	-0.029	-0.226
-343.391	-200.000	-0.019	-0.171
-342.377	-24.338	-0.140	0.083
-341.362	-114.008	-0.316	0.061
-340.348	800.000	0.201	-0.688
-339.333	-145.852	-0.079	-0.007
-338.318	-200.000	-0.007	-0.184
-337.304	127.689	-0.089	-0.113
-336.289	621.895	0.046	-0.115
-335.275	-33.445	-0.125	-0.069
-334.260	-131.233	0.189	-0.025
-333.245	123.394	0.190	0.238
-332.231	-23.763	0.183	-0.109
-331.216	69.055	-0.112	-0.115
-330.202	-39.697	-0.322	0.169
-329.187	-169.577	-0.149	-0.005
-328.172	-8.453	-0.220	0.148
-327.158	27.734	0.056	0.047
-326.143	67.820	0.053	0.054
-325.129	-98.858	0.131	-0.033
-324.114	-102.357	0.361	0.086
-323.099	-5.515	-0.123	0.084
-322.085	367.585	-0.155	0.313
-321.070	800.000	-0.050	0.147
-320.056	96.507	-0.111	0.127
-319.041	80.126	-0.222	-0.239
-318.026	711.392	-0.004	-0.009
-317.012	99.059	-0.021	-0.024
-315.997	-60.126	-0.285	0.122
-314.983	734.126	-0.100	0.267
-313.968	-200.000	0.078	-0.439
-312.953	-88.602	0.163	-0.049
-311.939	-187.959	-0.160	0.002
-310.924	36.580	-0.045	-0.040
-309.910	800.000	0.052	-0.202
-308.895	31.158	0.058	-0.050
-307.880	-200.000	-0.016	0.332
-306.866	626.024	-0.038	0.097
-305.851	-92.393	0.122	0.034
-304.837	302.561	0.209	0.386
-303.822	-200.000	0.016	0.071
-302.807	44.961	-0.146	-0.135
-301.793	-174.559	0.244	-0.007
-300.778	-32.488	-0.044	-0.025
-299.764	800.000	-0.070	0.243
-298.749	117.920	0.041	0.050
-297.735	46.735	-0.212	0.197
-296.720	-4.056	-0.124	0.086
-295.705	800.000	0.079	0.269
-294.691	-200.000	0.059	0.306
-293.676	-200.000	-0.032	-0.196
-292.662	-4.995	0.134	0.092
-291.647	-132.804	-0.172	-0.022
-290.632	-19.627	-0.358	0.222
-289.618	419.112	-0.045	-0.096
-288.603	-200.000	0.010	-0.281
-287.589	235.807	0.139	0.230
-286.574	-200.000	0.001	-0.390
-285.559	-1.966	0.112	-0.078
-284.545	-63.605	-0.283	0.116
-283.530	4.201	-0.253	-0.185
-282.516	-3.380	0.107	0.074
-281.501	-107.855	-0.139	-0.030
-280.486	-18.692	0.239	0.149
-279.472	-92.937	0.409	-0.114
-278.457	150.581	0.133	0.181
-277.443	160.646	-0.092	0.128
-276.428	-19.692	0.381	-0.236
-275.413	-93.250	0.313	-0.087
-274.399	800.000	0.036	0.131
-273.384	130.601	0.055	0.071
-272.370	162.868	0.104	-0.145
-271.355	-200.000	-0.024	0.217
-270.340	73.739	0.177	0.185
-269.326	-59.349	-0.150	-0.064
-268.311	144.926	-0.071	0.095
-267.297	-147.224	-0.143	0.012
-266.282	-200.000	0.011	-0.104
-265.267	-116.416	-0.214	-0.039
-264.253	144.989	0.250	0.333
-263.238	10.245	0.074	-0.057
-262.224	64.315	-0.104	-0.105
-261.209	13.751	-0.126	0.098
-260.195	156.211	-0.134	-0.185
-259.180	639.831	-0.017	-0.044
-258.165	165.156	-0.084	-0.119
-257.151	333.251	-0.162	0.312
-256.136	800.000	0.123	0.443
-255.122	208.456	-0.213	0.332
-254.107	213.999	-0.093	0.147
-253.092	-137.062	-0.090	-0.010
-252.078	0.577	0.229	0.163
-251.063	-65.906	-0.161	0.064
-250.049	15.142	-0.063	-0.050
-249.034	163.283	-0.173	-0.243
-248.019	-16.846	-0.057	0.036
-247.005	-133.423	0.260	-0.033
-245.990	-200.000	0.003	-0.216
-244.976	-159.158	-0.164	0.009
-243.961	-200.000	0.105	-0.000
-242.946	245.332	0.226	0.380
-241.932	800.000	0.049	0.195
-240.917	-44.336	0.161	0.081
-239.903	266.742	-0.108	-0.187
-238.888	-110.249	-0.138	-0.029
-237.873	-177.849	0.190	-0.005
-236.859	800.000	0.023	0.078
-235.844	-200.000	-0.003	0.120
-234.830	55.089	-0.061	-0.059
-233.815	13.653	0.194	0.151
-232.800	-200.000	0.000	0.011
-231.786	-200.000	0.052	0.338
-230.771	-153.422	0.244	-0.017
-229.757	-88.966	0.402	-0.119
-228.742	-33.126	0.096	0.053
-227.727	-99.794	-0.200	-0.050
-226.713	191.548	-0.086	-0.130
-225.698	800.000	-0.052	-0.143
-224.684	430.445	0.115	0.247
-223.669	55.265	-0.203	0.196
-222.655	74.984	-0.139	0.146
-221.640	432.447	-0.084	0.182
-220.625	-141.611	-0.095	0.009
-219.611	286.381	-0.128	-0.231
-218.596	707.966	-0.029	0.075
-217.582	118.922	0.159	0.195
-216.567	-62.521	0.084	-0.035
-215.552	-200.000	-0.062	0.324
-214.538	259.265	0.125	0.215
-213.523	-156.121	0.376	0.024
-212.509	100.542	-0.147	0.170
-211.494	634.819	0.010	0.026
-210.479	476.943	-0.099	0.223
-209.465	-64.235	-0.081	0.033
-208.450	-47.089	0.369	-0.179
-207.436	43.664	0.185	-0.168
-206.421	291.656	0.104	0.189
-205.406	206.410	0.169	0.261
-204.392	-130.835	0.560	-0.075
-203.377	-200.000	-0.024	0.133
-202.363	132.006	-0.125	0.160
-201.348	-84.267	0.162	0.051
-200.333	800.000	-0.065	-0.191
-199.319	423.182	0.132	0.283
-198.304	15.986	0.251	0.197
-197.290	-144.920	-0.071	-0.006
-196.275	-75.710	-0.311	0.110
-195.260	-26.126	0.108	-0.063
-194.246	201.646	0.128	-0.197
-193.231	-105.143	-0.200	0.045
-192.217	-200.000	0.005	0.264
-191.202	25.669	-0.099	-0.082
-190.187	-200.000	-0.033	-0.176
-189.173	471.125	-0.038	-0.086
-188.158	79.191	0.094	0.100
-187.144	-200.000	0.034	0.178
-186.129	590.205	0.083	-0.203
-185.114	366.334	0.138	0.278
-184.100	12.097	-0.372	0.285
-183.085	115.371	0.152	-0.185
-182.071	-163.680	0.161	0.008
-181.056	276.332	-0.130	-0.229
-180.042	800.000	-0.096	-0.289
-179.027	68.950	-0.092	-0.094
-178.012	-53.882	-0.121	-0.055
-176.998	-31.749	-0.400	0.223
-175.983	-64.031	0.347	0.141
-174.969	-77.168	0.130	-0.045
-173.954	90.014	0.167	-0.185
-172.939	305.704	0.079	0.147
-171.925	86.236	-0.093	-0.102
-170.910	-102.675	0.410	0.097
-169.896	-26.778	-0.224	0.130
-168.881	-168.254	0.110	0.004
-167.866	-129.854	0.322	-0.044
-166.852	-81.587	0.186	0.061
-165.837	-200.000	0.007	-0.200
-164.823	-200.000	-0.010	0.186
-163.808	76.259	-0.064	0.067
-162.793	153.687	0.205	-0.279
-161.779	69.309	-0.297	-0.304
-160.764	281.584	-0.042	-0.074
-159.750	684.241	0.118	-0.307
-158.735	1.986	0.252	0.181
-157.720	48.226	-0.060	-0.055
-156.706	681.837	0.130	0.337
-155.691	85.121	0.122	-0.133
-154.677	-136.114	0.315	-0.037
-153.662	7.315	0.143	0.106
-152.647	800.000	0.054	0.175
-151.633	800.000	0.083	0.319
-150.618	800.000	0.069	0.299
-149.604	-200.000	-0.008	0.183
-148.589	800.000	0.108	0.334
-147.574	-65.804	-0.398	-0.158
-146.560	671.238	0.080	-0.206
-145.545	-109.318	-0.087	-0.018
-144.531	90.049	-0.100	-0.111
-143.516	-6.678	0.345	-0.233
-142.502	-33.560	0.073	0.040
-141.487	95.188	0.282	0.319
-140.472	800.000	0.047	-0.132
-139.458	-200.000	0.023	-0.167
-138.443	-82.801	0.526	0.169
-137.429	-179.938	0.259	0.005
-136.414	118.248	-0.138	0.168
-135.399	188.383	0.116	-0.172
-134.385	-165.393	-0.192	0.008
-133.370	695.277	-0.034	-0.089
-132.356	501.114	0.072	0.166
-131.341	63.904	0.066	-0.066
-130.326	779.171	0.039	0.106
-129.312	-140.620	-0.153	-0.016
-128.297	48.426	0.227	0.211
-127.283	644.352	-0.054	-0.137
-126.268	800.000	0.026	-0.087
-125.253	780.612	0.075	0.204
-124.239	800.000	-0.154	0.432
-123.224	32.240	-0.037	-0.032
-122.210	19.670	0.211	0.169
-121.195	-90.414	0.188	-0.054
