DTS Sentinel unit serial number:	SN413079Multiplexer serial number:	ORYXHardware model number:	OX4-SRSoftware version number:	ORYX F/W v4.00 Oryx Data Collector v3.7.2.0data status	okinstallation	princeton_trtdifferential loss correction	single-endedforward channel	channel 2reverse channel	N/Adate	2019/09/10time	23:21:10forward acquisition time	60.00reverse acquisition time	0.00gamma	496.2192k internal	0.2329k external	0.2329temperature offset calibration	0.9944default loss term (dB/km)	0.3790temperature slope calibration	1.0000multiplexer offset coefficient	1.0000multiplexer slope coefficient	1.0000fibre end	0.00T internal ref (°C)	29.80T ext. ref 1 (°C)	-0.31T ext. ref 2 (°C)	23.33length (m)	temperature (°C)	Stokes	anti-Stokes-747.200	-100.577	0.225	-0.056
-746.185	-108.725	0.309	0.067
-745.171	148.904	-0.226	0.308
-744.156	-50.881	-0.202	-0.096
-743.142	800.000	0.096	0.309
-742.127	-200.000	0.045	0.323
-741.112	275.945	0.144	0.257
-740.098	-200.000	-0.026	0.308
-739.083	0.484	0.096	0.069
-738.069	-200.000	0.016	0.282
-737.054	68.414	-0.191	0.197
-736.039	7.939	-0.317	0.239
-735.025	85.709	0.272	0.301
-734.010	-81.609	-0.087	-0.029
-732.996	509.167	-0.042	-0.098
-731.981	-200.000	-0.063	0.365
-730.966	620.180	-0.091	0.231
-729.952	232.753	0.065	0.108
-728.937	-200.000	-0.044	-0.242
-727.923	179.104	-0.085	0.125
-726.908	4.520	-0.147	0.108
-725.894	-7.051	-0.170	0.116
-724.879	-105.327	-0.250	-0.057
-723.864	370.456	-0.089	0.182
-722.850	628.742	0.044	0.111
-721.835	-124.215	-0.213	0.034
-720.821	152.218	0.237	-0.325
-719.806	261.871	-0.074	-0.129
-718.791	34.510	-0.246	0.216
-717.777	-24.635	-0.079	0.047
-716.762	88.168	0.030	0.034
-715.748	-120.092	-0.085	0.015
-714.733	800.000	-0.054	-0.217
-713.718	-142.816	-0.370	0.036
-712.704	-120.041	-0.259	0.045
-711.689	-76.934	0.114	0.040
-710.675	263.301	-0.090	-0.158
-709.660	-200.000	-0.014	-0.206
-708.645	-86.928	-0.163	-0.050
-707.631	30.513	0.107	0.092
-706.616	215.236	-0.141	-0.225
-705.602	800.000	-0.063	0.196
-704.587	-30.907	-0.152	0.087
-703.572	233.427	-0.104	-0.173
-702.558	-200.000	-0.036	0.426
-701.543	-23.659	-0.374	-0.226
-700.529	86.425	-0.202	-0.224
-699.514	76.235	0.204	0.217
-698.499	-200.000	-0.040	0.226
-697.485	800.000	0.061	0.217
-696.470	-200.000	0.039	-0.262
-695.456	666.516	0.107	-0.277
-694.441	800.000	0.101	-0.347
-693.426	-43.365	-0.267	0.136
-692.412	160.812	-0.182	-0.256
-691.397	39.841	0.072	-0.065
-690.383	-29.038	0.294	-0.169
-689.368	-39.012	0.415	-0.219
-688.354	-59.588	0.165	0.071
-687.339	-10.826	-0.158	-0.105
-686.324	147.338	0.070	0.095
-685.310	39.987	0.110	-0.100
-684.295	-138.331	0.143	-0.016
-683.281	-85.867	-0.071	0.022
-682.266	-177.527	-0.303	-0.007
-681.251	-113.641	-0.213	0.042
-680.237	-200.000	0.046	-0.213
-679.222	80.816	0.165	0.178
-678.208	-110.827	-0.135	-0.028
-677.193	-10.992	0.079	0.052
-676.178	485.226	-0.104	0.237
-675.164	13.021	-0.233	0.181
-674.149	-46.831	-0.344	-0.169
-673.135	150.736	-0.101	0.138
-672.120	-69.901	-0.398	-0.152
-671.105	-118.253	-0.197	-0.035
-670.091	202.511	-0.043	-0.066
-669.076	16.552	-0.153	0.122
-668.062	-75.292	0.188	-0.067
-667.047	-77.678	0.037	-0.013
-666.032	-200.000	0.029	-0.312
-665.018	-59.744	0.182	-0.078
-664.003	-173.231	0.251	0.008
-662.989	336.452	-0.071	-0.137
-661.974	-99.380	0.347	-0.088
-660.959	-32.261	0.227	0.127
-659.945	-134.406	-0.253	-0.031
-658.930	-26.318	-0.370	0.218
-657.916	325.526	-0.014	-0.026
-656.901	-20.690	0.201	0.124
-655.886	800.000	-0.081	0.237
-654.872	97.124	0.143	-0.164
-653.857	-200.000	-0.038	-0.238
-652.843	-10.354	0.031	-0.021
-651.828	123.171	-0.190	0.239
-650.814	-191.976	0.290	-0.003
-649.799	800.000	0.077	-0.226
-648.784	-135.831	0.289	-0.034
-647.770	-31.463	0.321	0.181
-646.755	-69.588	-0.309	0.119
-645.741	57.919	-0.197	0.193
-644.726	356.186	-0.093	0.185
-643.711	-118.065	0.392	-0.070
-642.697	255.569	0.217	-0.373
-641.682	-7.663	-0.082	-0.055
-640.668	-140.544	0.186	-0.019
-639.653	-200.000	-0.014	-0.167
-638.638	-56.377	-0.142	0.063
-637.624	-9.504	-0.062	0.042
-636.609	-200.000	0.025	-0.175
-635.595	99.986	-0.109	0.126
-634.580	-191.795	-0.301	-0.003
-633.565	-200.000	-0.041	0.286
-632.551	7.116	-0.145	-0.108
-631.536	66.789	0.222	-0.227
-630.522	60.770	-0.165	0.164
-629.507	9.550	-0.056	-0.042
-628.492	-163.695	0.041	0.002
-627.478	290.920	-0.073	-0.133
-626.463	345.756	-0.016	0.032
-625.449	-146.730	-0.248	-0.022
-624.434	-0.342	0.056	0.040
-623.419	-193.594	0.222	0.002
-622.405	-24.952	0.195	0.116
-621.390	-104.790	-0.223	0.051
-620.376	106.241	0.022	-0.026
-619.361	-115.785	-0.246	-0.046
-618.346	672.882	-0.079	-0.205
-617.332	-142.490	-0.264	-0.026
-616.317	-74.156	0.289	-0.105
-615.303	-9.700	-0.215	0.144
-614.288	-87.479	0.244	-0.074
-613.273	-126.895	-0.137	0.020
-612.259	800.000	-0.063	-0.266
-611.244	208.637	0.185	-0.289
-610.230	-20.019	-0.157	0.097
-609.215	-63.702	0.264	-0.108
-608.201	-117.797	0.204	0.037
-607.186	-200.000	0.058	-0.271
-606.171	-138.861	0.083	0.009
-605.157	-1.857	0.247	0.174
-604.142	-25.319	0.153	-0.091
-603.128	-67.150	0.243	0.096
-602.113	-77.250	-0.629	-0.219
-601.098	254.569	-0.048	-0.082
-600.084	-125.613	-0.349	0.053
-599.069	-3.639	-0.047	0.033
-598.055	-200.000	-0.043	-0.373
-597.040	11.113	-0.097	0.074
-596.025	319.444	0.086	0.164
-595.011	800.000	0.074	0.245
-593.996	-100.530	0.283	-0.070
-592.982	-200.000	0.003	-0.139
-591.967	143.692	0.035	0.047
-590.952	1.801	-0.217	0.156
-589.938	-85.966	0.188	-0.058
-588.923	-34.928	0.155	-0.085
-587.909	76.573	0.171	-0.181
-586.894	-17.970	-0.219	-0.137
-585.879	45.726	-0.308	-0.285
-584.865	77.689	0.103	-0.110
-583.850	608.236	0.056	0.139
-582.836	-69.046	0.156	0.060
-581.821	-73.435	-0.226	0.083
-580.806	170.565	0.042	0.060
-579.792	-31.352	0.125	-0.070
-578.777	636.183	0.094	0.240
-577.763	-136.065	0.254	0.030
-576.748	275.217	-0.099	-0.175
-575.733	-3.019	0.033	-0.023
-574.719	45.263	-0.151	-0.139
-573.704	-200.000	-0.012	-0.164
-572.690	58.879	-0.169	0.167
-571.675	-200.000	0.015	0.187
-570.661	206.044	0.052	-0.081
-569.646	-200.000	-0.054	-0.272
-568.631	-146.110	0.398	0.035
-567.617	170.669	0.268	0.384
-566.602	-107.710	0.399	0.087
-565.588	-200.000	0.042	-0.265
-564.573	800.000	0.050	-0.194
-563.558	44.863	0.124	0.114
-562.544	630.457	0.075	0.191
-561.529	55.488	-0.211	-0.205
-560.515	-200.000	0.009	0.247
-559.500	364.876	-0.067	-0.134
-558.485	-200.000	-0.053	0.246
-557.471	-148.358	-0.321	0.026
-556.456	122.583	0.082	-0.103
-555.442	-9.296	0.085	-0.057
-554.427	398.458	0.054	0.112
-553.412	-200.000	-0.027	0.223
-552.398	-200.000	-0.019	0.128
-551.383	-32.561	0.264	-0.147
-550.369	24.664	-0.052	-0.043
-549.354	-200.000	0.007	0.041
-548.339	38.720	-0.082	0.073
-547.325	98.436	-0.101	-0.116
-546.310	-123.152	-0.275	-0.044
-545.296	-58.419	0.082	-0.035
-544.281	80.587	-0.188	0.202
-543.266	23.102	-0.073	0.060
-542.252	-45.106	0.371	0.184
-541.237	-28.322	0.100	-0.058
-540.223	-55.547	0.381	-0.170
-539.208	204.922	0.098	-0.152
-538.193	800.000	0.065	-0.272
-537.179	-200.000	0.012	0.089
-536.164	800.000	0.035	-0.118
-535.150	103.586	0.227	-0.267
-534.135	-32.722	-0.182	-0.101
-533.121	800.000	-0.043	-0.175
-532.106	-200.000	-0.040	-0.179
-531.091	-200.000	-0.020	-0.104
-530.077	-76.054	0.205	0.072
-529.062	318.119	0.143	-0.271
-528.048	-200.000	0.053	-0.335
-527.033	800.000	-0.014	0.039
-526.018	-60.708	-0.442	0.187
-525.004	44.922	0.129	0.119
-523.989	-117.619	-0.302	0.054
-522.975	-128.391	0.057	-0.008
-521.960	-200.000	-0.017	0.121
-520.945	438.700	-0.025	0.054
-519.931	-54.678	-0.237	-0.107
-518.916	106.821	-0.067	0.079
-517.902	-34.358	0.310	0.170
-516.887	-38.615	0.214	0.113
-515.872	800.000	-0.024	0.102
-514.858	800.000	0.087	0.278
-513.843	-34.939	0.182	0.099
-512.829	-120.317	-0.153	0.026
-511.814	107.665	-0.118	-0.140
-510.799	-8.605	-0.112	0.075
-509.785	-28.008	0.171	-0.099
-508.770	134.631	0.061	-0.079
-507.756	-73.050	-0.390	-0.143
-506.741	-174.966	0.085	-0.002
-505.726	82.847	0.121	-0.131
-504.712	-105.653	-0.180	-0.041
-503.697	38.976	-0.268	-0.239
-502.683	669.614	-0.084	0.218
-501.668	29.281	0.344	0.292
-500.653	133.751	-0.088	0.114
-499.639	-55.528	-0.058	-0.026
-498.624	-139.182	-0.088	0.009
-497.610	-95.845	-0.379	0.101
-496.595	-200.000	-0.016	-0.290
-495.581	-200.000	-0.001	-0.148
-494.566	-200.000	-0.028	0.128
-493.551	-200.000	-0.006	-0.095
-492.537	-16.677	0.209	-0.132
-491.522	-200.000	-0.019	0.221
-490.508	436.922	0.128	0.277
-489.493	-58.472	0.239	0.103
-488.478	380.119	-0.080	0.164
-487.464	-200.000	-0.048	-0.238
-486.449	-15.767	0.164	-0.104
-485.435	38.507	-0.265	-0.236
-484.420	41.954	0.268	-0.242
-483.405	-100.236	-0.119	-0.030
-482.391	84.611	-0.121	0.132
-481.376	-22.726	-0.267	-0.161
-480.362	-25.084	0.199	-0.117
-479.347	574.035	-0.062	0.150
-478.332	-200.000	0.008	0.089
-477.318	-41.631	-0.233	0.119
-476.303	-173.302	-0.279	-0.008
-475.289	134.189	0.087	-0.112
-474.274	122.074	0.019	0.023
-473.259	92.588	0.214	0.241
-472.245	-75.094	-0.337	-0.120
-471.230	26.286	-0.017	0.014
-470.216	-145.726	-0.197	-0.017
-469.201	307.201	0.081	-0.150
-468.186	-200.000	-0.023	-0.134
-467.172	-44.490	-0.160	-0.080
-466.157	431.355	0.135	-0.292
-465.143	-94.886	0.159	-0.043
-464.128	209.279	-0.075	0.117
-463.113	-200.000	0.015	-0.077
-462.099	-200.000	0.014	-0.130
-461.084	-61.926	0.151	-0.063
-460.070	28.902	-0.278	-0.235
-459.055	-50.102	-0.175	-0.082
-458.040	490.021	-0.159	0.362
-457.026	93.720	0.123	0.139
-456.011	-120.089	-0.130	0.022
-454.997	-56.736	-0.068	-0.030
-453.982	-27.784	-0.391	-0.226
-452.968	-71.400	-0.251	-0.093
-451.953	-200.000	-0.018	0.327
-450.938	-10.131	-0.103	-0.068
-449.924	97.734	-0.156	0.179
-448.909	-39.330	-0.268	0.140
-447.895	-122.113	0.234	0.038
-446.880	800.000	-0.052	0.201
-445.865	-91.234	0.134	0.038
-444.851	-134.409	-0.159	-0.019
-443.836	-200.000	-0.107	0.000
-442.822	-111.243	0.241	-0.049
-441.807	1.467	0.228	-0.163
-440.792	-10.474	0.114	0.075
-439.778	-200.000	0.008	-0.132
-438.763	353.507	0.032	-0.063
-437.749	-102.945	0.187	0.044
-436.734	1.107	0.251	0.179
-435.719	-200.000	0.028	0.615
-434.705	800.000	0.054	-0.185
-433.690	-200.000	0.022	-0.117
-432.676	-200.000	0.004	-0.099
-431.661	99.462	0.144	0.166
-430.646	-2.445	0.172	-0.120
-429.632	-58.605	-0.187	0.081
-428.617	-12.114	-0.110	-0.072
-427.603	-200.000	0.019	0.277
-426.588	-31.172	0.279	-0.156
-425.573	-200.000	-0.008	-0.465
-424.559	166.750	0.194	-0.273
-423.544	-52.223	0.252	-0.116
-422.530	-200.000	-0.345	-0.000
-421.515	207.184	-0.214	0.332
-420.500	-10.906	-0.247	-0.162
-419.486	-90.564	-0.180	0.052
-418.471	3.531	-0.137	-0.100
-417.457	800.000	-0.094	-0.394
-416.442	78.218	-0.054	-0.057
-415.428	-5.243	-0.140	-0.096
-414.413	73.207	0.122	0.127
-413.398	314.006	0.151	0.283
-412.384	-200.000	0.042	0.284
-411.369	-26.775	0.301	-0.175
-410.355	473.951	0.097	0.218
-409.340	800.000	-0.123	0.349
-408.325	-200.000	0.026	-0.224
-407.311	-107.310	0.169	0.037
-406.296	153.948	-0.013	0.017
-405.282	0.388	-0.183	-0.130
-404.267	17.341	0.255	-0.201
-403.252	0.629	0.117	-0.083
-402.238	-103.706	-0.286	0.067
-401.223	-74.831	0.423	0.151
-400.209	572.687	0.129	0.312
-399.194	54.868	0.302	0.290
-398.179	28.905	0.037	0.031
-397.165	-200.000	0.003	0.110
-396.150	29.435	-0.302	0.255
-395.136	124.779	0.166	0.207
-394.121	-200.000	-0.047	0.250
-393.106	453.958	0.030	0.066
-392.092	-159.265	0.335	-0.019
-391.077	-3.157	-0.074	0.051
-390.063	-68.380	0.178	-0.069
-389.048	-25.929	0.072	-0.042
-388.033	-80.578	0.174	-0.058
-387.019	800.000	-0.248	0.792
-386.004	57.544	-0.119	-0.115
-384.990	32.606	0.156	-0.134
-383.975	-146.383	-0.038	-0.003
-382.960	-121.348	-0.169	0.028
-381.946	47.461	-0.302	-0.280
-380.931	139.429	0.202	0.264
-379.917	800.000	-0.043	0.141
-378.902	81.940	0.068	0.073
-377.888	295.365	-0.034	-0.061
-376.873	553.957	-0.130	-0.311
-375.858	-37.945	0.178	-0.094
-374.844	-200.000	-0.030	0.230
-373.829	800.000	-0.055	-0.216
-372.815	-38.642	-0.179	-0.094
-371.800	20.885	0.078	0.062
-370.785	800.000	-0.085	0.294
-369.771	-145.855	0.235	0.021
-368.756	396.462	0.101	0.209
-367.742	-19.185	-0.239	0.147
-366.727	66.890	0.107	-0.109
-365.712	490.583	0.048	0.109
-364.698	-7.961	0.042	-0.028
-363.683	-114.740	-0.317	0.060
-362.669	197.790	0.070	0.106
-361.654	-200.000	0.307	-0.000
-360.639	221.529	-0.108	-0.172
-359.625	87.387	-0.079	0.087
-358.610	155.013	-0.054	-0.074
-357.596	33.836	-0.137	0.118
-356.581	-119.806	-0.072	0.012
-355.566	28.472	0.183	0.154
-354.552	49.162	0.184	-0.172
-353.537	800.000	0.057	0.242
-352.523	18.025	-0.105	-0.083
-351.508	-66.140	0.256	-0.101
-350.493	-24.630	-0.101	0.059
-349.479	-96.827	0.234	-0.061
-348.464	-22.384	0.318	0.191
-347.450	-200.000	0.018	-0.379
-346.435	-200.000	-0.057	0.390
-345.420	47.671	0.114	0.105
-344.406	-40.708	0.202	0.104
-343.391	523.513	0.031	0.073
-342.377	-174.880	0.240	0.007
-341.362	361.826	-0.031	-0.061
-340.348	3.884	0.112	-0.081
-339.333	510.028	0.121	-0.279
-338.318	177.811	0.041	-0.059
-337.304	126.926	-0.124	0.156
-336.289	-52.185	-0.312	-0.144
-335.275	-168.169	0.186	-0.007
-334.260	-154.437	0.062	0.004
-333.245	-181.570	-0.246	0.005
-332.231	-46.335	-0.124	0.060
-331.216	58.908	-0.254	0.247
-330.202	28.787	0.103	0.086
-329.187	-200.000	0.033	0.360
-328.172	-118.525	-0.288	-0.051
-327.158	-9.501	0.183	0.121
-326.143	45.703	0.178	0.163
-325.129	-0.093	-0.197	0.139
-324.114	6.523	-0.242	-0.178
-323.099	558.947	0.076	-0.182
-322.085	272.444	-0.178	0.312
-321.070	-92.892	0.121	-0.034
-320.056	-156.247	0.193	0.012
-319.041	-53.282	-0.139	-0.063
-318.026	-200.000	0.062	0.443
-317.012	24.593	0.177	-0.145
-315.997	370.961	-0.136	0.273
-314.983	188.080	0.175	0.260
-313.968	-140.186	-0.317	-0.033
-312.953	321.445	0.093	-0.176
-311.939	-181.432	0.375	-0.007
-310.924	388.771	-0.087	-0.179
-309.910	-156.434	-0.336	0.021
-308.895	486.318	-0.086	0.193
-307.880	800.000	-0.091	0.250
-306.866	-60.597	-0.155	-0.065
-305.851	-11.444	-0.127	0.082
-304.837	107.203	0.372	0.437
-303.822	539.208	0.049	0.115
-302.807	-135.730	0.213	-0.025
-301.793	423.012	0.099	0.210
-300.778	30.622	-0.286	0.242
-299.764	291.974	-0.071	-0.127
-298.749	87.495	-0.149	0.164
-297.735	75.824	0.156	-0.163
-296.720	-122.821	-0.232	0.037
-295.705	39.195	0.138	0.122
-294.691	35.972	0.127	0.110
-293.676	89.216	0.151	-0.167
-292.662	-136.547	-0.233	-0.027
-291.647	241.802	0.156	0.258
-290.632	230.520	-0.146	-0.236
-289.618	-200.000	-0.008	-0.121
-288.603	-98.259	-0.270	0.068
-287.589	243.274	0.094	0.156
-286.574	107.106	0.109	0.128
-285.559	-200.000	-0.010	-0.082
-284.545	-167.647	0.102	-0.004
-283.530	-117.992	-0.137	-0.024
-282.516	363.889	0.044	-0.088
-281.501	-17.221	0.229	0.143
-280.486	135.332	0.046	-0.059
-279.472	-112.431	-0.059	-0.012
-278.457	-100.789	-0.213	-0.052
-277.443	0.928	0.092	0.065
-276.428	65.749	-0.099	-0.099
-275.413	208.683	0.116	-0.180
-274.399	-86.630	0.224	0.068
-273.384	-100.528	-0.342	0.084
-272.370	-114.754	0.340	-0.064
-271.355	-19.604	-0.266	-0.163
-270.340	-66.142	0.231	-0.091
-269.326	-65.423	0.201	-0.080
-268.311	-93.509	0.153	0.042
-267.297	-77.516	-0.096	-0.033
-266.282	-56.766	-0.184	0.081
-265.267	-200.000	0.021	-0.527
-264.253	-200.000	-0.024	0.176
-263.238	104.625	0.126	0.147
-262.224	182.376	0.218	-0.317
-261.209	-147.662	-0.339	0.028
-260.195	-149.875	0.176	0.014
-259.180	-100.289	0.202	0.050
-258.165	-200.000	-0.039	-0.187
-257.151	-200.000	0.034	-0.377
-256.136	800.000	0.073	-0.267
-255.122	-200.000	0.005	0.189
-254.107	462.589	-0.148	0.327
-253.092	800.000	-0.040	-0.152
-252.078	-200.000	-0.025	-0.392
-251.063	258.410	-0.045	-0.076
-250.049	-200.000	0.006	-0.333
-249.034	86.148	0.175	-0.191
-248.019	-10.199	-0.329	0.216
-247.005	-72.088	0.265	0.097
-245.990	-74.511	-0.203	0.072
-244.976	33.858	-0.142	-0.122
-243.961	800.000	-0.010	-0.030
-242.946	-151.370	-0.181	0.013
-241.932	-138.748	0.227	-0.024
-240.917	466.682	0.135	-0.298
-239.903	-33.604	-0.084	0.046
-238.888	-68.448	-0.419	0.161
-237.873	202.570	-0.032	0.048
-236.859	-111.201	-0.167	0.034
-235.844	-123.640	-0.412	0.064
-234.830	800.000	0.050	-0.200
-233.815	-200.000	0.046	-0.214
-232.800	-165.203	-0.211	-0.009
-231.786	-57.261	0.182	-0.079
-230.771	800.000	0.022	0.078
-229.757	244.612	-0.082	0.135
-228.742	643.865	0.056	-0.140
-227.727	-200.000	-0.001	0.126
-226.713	-20.350	0.100	0.061
-225.698	800.000	-0.032	0.088
-224.684	449.624	-0.059	0.128
-223.669	-127.746	-0.090	0.013
-222.655	-200.000	0.264	0.000
-221.640	12.337	-0.217	-0.165
-220.625	-54.119	0.170	0.076
-219.611	-149.021	0.118	-0.009
-218.596	-3.739	0.346	-0.237
-217.582	-102.275	0.195	-0.046
-216.567	800.000	-0.009	0.026
-215.552	153.722	-0.165	-0.222
-214.538	64.610	0.150	0.149
-213.523	-77.835	0.205	0.070
-212.509	-128.767	-0.175	0.024
-211.494	800.000	0.074	0.277
-210.479	41.380	-0.133	-0.119
-209.465	550.724	-0.027	-0.064
-208.450	-200.000	0.029	-0.143
-207.436	-24.642	-0.218	-0.128
-206.421	30.058	0.176	0.148
-205.406	583.494	0.045	-0.109
-204.392	237.419	-0.034	-0.056
-203.377	800.000	-0.082	0.255
-202.363	-22.579	-0.247	0.147
-201.348	689.008	-0.114	-0.295
-200.333	335.313	0.103	-0.197
-199.319	19.498	0.230	-0.183
-198.304	-68.084	-0.398	-0.153
-197.290	-137.698	0.201	-0.022
-196.275	-200.000	-0.009	-0.263
-195.260	-109.043	-0.136	0.028
-194.246	173.490	0.069	-0.099
-193.231	222.731	-0.079	0.125
-192.217	125.265	0.088	-0.110
-191.202	-172.362	0.241	-0.008
-190.187	-183.224	-0.317	0.005
-189.173	-184.039	-0.260	0.004
-188.158	800.000	-0.075	-0.222
-187.144	-102.106	0.213	-0.050
-186.129	-80.660	-0.258	-0.085
-185.114	189.906	0.093	0.137
-184.100	-148.476	0.057	-0.005
-183.085	151.299	-0.195	0.261
-182.071	-200.000	-0.080	0.350
-181.056	-200.000	-0.000	0.119
-180.042	194.373	-0.077	-0.115
-179.027	174.020	-0.105	-0.149
-178.012	37.247	-0.064	-0.055
-176.998	-6.961	-0.307	0.206
-175.983	104.659	-0.215	-0.249
-174.969	-200.000	-0.011	-0.056
-173.954	800.000	-0.105	0.440
-172.939	-154.104	0.077	0.005
-171.925	84.311	-0.107	-0.115
-170.910	68.821	-0.148	0.150
-169.896	800.000	-0.069	0.226
-168.881	-119.899	0.140	0.024
-167.866	800.000	0.048	-0.163
-166.852	305.167	0.086	0.157
-165.837	-147.111	-0.278	-0.023
-164.823	-200.000	-0.066	0.460
-163.808	58.494	0.111	0.108
-162.793	-200.000	-0.020	-0.223
-161.779	800.000	0.066	0.200
-160.764	507.823	0.088	0.200
-159.750	-82.234	0.029	-0.009
-158.735	-200.000	-0.005	-0.056
-157.720	-72.359	0.410	-0.149
-156.706	46.885	-0.200	-0.183
-155.691	-92.840	-0.310	-0.085
-154.677	3.126	0.302	-0.216
-153.662	-96.666	0.334	-0.087
-152.647	83.742	0.189	-0.203
-151.633	-200.000	0.000	-0.153
-150.618	-152.521	0.480	-0.034
-149.604	156.632	-0.243	0.330
-148.589	-111.207	-0.223	-0.045
-147.574	-127.709	0.105	-0.015
-146.560	-200.000	-0.069	-0.476
-145.545	-200.000	-0.002	-0.101
-144.531	-143.746	-0.108	0.010
-143.516	130.645	0.227	0.286
-142.502	-200.000	0.020	0.087
-141.487	87.351	0.203	0.221
-140.472	800.000	0.067	0.256
-139.458	50.080	-0.101	-0.093
-138.443	-200.000	-0.005	0.048
-137.429	73.804	0.041	0.042
-136.414	-24.912	0.191	0.111
-135.399	18.572	0.213	0.167
-134.385	-192.582	0.193	0.002
-133.370	-189.876	0.306	0.003
-132.356	-200.000	-0.024	0.184
-131.341	-200.000	-0.024	-0.271
-130.326	-102.899	-0.166	0.039
-129.312	-70.476	-0.356	-0.133
-128.297	-72.192	0.314	-0.115
-127.283	654.776	-0.031	0.079
-126.268	-95.098	0.174	0.046
-125.253	-55.510	0.279	0.123
-124.239	-200.000	0.032	0.169
-123.224	-200.000	0.004	-0.209
-122.210	-192.490	0.131	-0.001
-121.195	-55.660	0.186	-0.082
