DTS Sentinel unit serial number:	SN413079Multiplexer serial number:	ORYXHardware model number:	OX4-SRSoftware version number:	ORYX F/W v4.00 Oryx Data Collector v3.7.2.0data status	okinstallation	princeton_trtdifferential loss correction	single-endedforward channel	channel 2reverse channel	N/Adate	2019/09/15time	08:19:35forward acquisition time	60.00reverse acquisition time	0.00gamma	496.2192k internal	0.2324k external	0.2324temperature offset calibration	1.0027default loss term (dB/km)	0.3790temperature slope calibration	1.0000multiplexer offset coefficient	1.0000multiplexer slope coefficient	1.0000fibre end	0.00T internal ref (°C)	31.23T ext. ref 1 (°C)	5.01T ext. ref 2 (°C)	28.33length (m)	temperature (°C)	Stokes	anti-Stokes-747.200	207.746	-0.160	-0.251
-746.185	-129.949	-0.301	-0.042
-745.171	286.959	0.116	-0.211
-744.156	-20.417	0.254	0.158
-743.142	727.175	0.192	0.517
-742.127	23.826	-0.350	0.291
-741.112	254.719	-0.107	0.186
-740.098	-36.212	0.124	0.067
-739.083	-130.003	0.429	0.059
-738.069	-98.571	-0.190	0.049
-737.054	-116.487	0.022	-0.004
-736.039	800.000	-0.024	-0.081
-735.025	172.531	0.089	0.130
-734.010	3.282	-0.052	0.038
-732.996	-77.779	-0.371	-0.130
-731.981	-93.443	-0.087	-0.024
-730.966	-104.553	-0.152	0.035
-729.952	-200.000	-0.012	-0.057
-728.937	-200.000	0.012	0.061
-727.923	395.516	-0.116	0.244
-726.908	138.128	-0.127	0.168
-725.894	768.465	-0.008	-0.021
-724.879	-154.483	-0.543	-0.037
-723.864	226.158	-0.075	0.122
-722.850	23.657	-0.167	-0.138
-721.835	-113.929	-0.144	-0.028
-720.821	-137.671	0.191	0.022
-719.806	259.718	0.052	0.091
-718.791	-6.590	-0.231	0.159
-717.777	402.130	0.074	0.156
-716.762	800.000	-0.016	-0.046
-715.748	-72.590	0.115	-0.043
-714.733	160.037	-0.144	0.202
-713.718	-67.577	0.174	-0.069
-712.704	-119.603	-0.331	-0.058
-711.689	-37.032	0.422	-0.228
-710.675	238.366	0.204	0.341
-709.660	113.006	-0.156	0.190
-708.645	-100.793	0.166	-0.041
-707.631	800.000	0.090	-0.295
-706.616	302.930	-0.222	0.415
-705.602	-105.283	0.156	0.036
-704.587	93.118	-0.104	0.119
-703.572	-200.000	-0.021	0.102
-702.558	226.839	-0.138	-0.226
-701.543	-64.617	0.222	-0.091
-700.529	3.891	-0.202	-0.149
-699.514	-200.000	-0.045	0.203
-698.499	-149.255	0.288	-0.023
-697.485	-105.019	-0.362	-0.083
-696.470	-200.000	0.054	0.328
-695.456	768.906	-0.051	-0.139
-694.441	-187.068	0.149	-0.002
-693.426	-58.968	-0.049	0.021
-692.412	27.161	0.065	0.055
-691.397	800.000	0.067	0.198
-690.383	159.096	-0.059	0.082
-689.368	-55.813	-0.437	0.197
-688.354	672.418	-0.078	-0.204
-687.339	11.044	-0.058	0.045
-686.324	-200.000	0.045	-0.200
-685.310	776.236	-0.042	-0.114
-684.295	-57.386	-0.119	-0.053
-683.281	800.000	-0.021	0.084
-682.266	16.942	-0.151	0.121
-681.251	-200.000	-0.050	-0.338
-680.237	129.509	0.057	-0.073
-679.222	-200.000	0.007	-0.238
-678.208	800.000	-0.061	0.186
-677.193	65.414	0.102	0.104
-676.178	-53.338	-0.192	-0.088
-675.164	-200.000	-0.008	-0.317
-674.149	-3.828	0.107	-0.075
-673.135	-89.952	0.114	-0.033
-672.120	-200.000	-0.003	-0.154
-671.105	-113.295	-0.171	-0.034
-670.091	-60.145	-0.361	-0.155
-669.076	-96.777	-0.049	-0.013
-668.062	66.585	-0.119	0.122
-667.047	89.052	0.227	-0.255
-666.032	-105.452	-0.191	-0.044
-665.018	378.214	0.183	-0.376
-664.003	-110.414	-0.451	-0.094
-662.989	47.172	0.207	-0.194
-661.974	-72.081	-0.181	-0.067
-660.959	-35.341	-0.202	0.110
-659.945	-44.069	-0.169	0.085
-658.930	371.556	0.074	-0.150
-657.916	201.394	-0.255	-0.395
-656.901	58.431	0.051	-0.051
-655.886	-200.000	0.006	-0.152
-654.872	30.728	-0.116	0.100
-653.857	-92.390	-0.053	-0.015
-652.843	-96.092	0.312	-0.083
-651.828	269.713	-0.101	0.179
-650.814	-200.000	-0.009	-0.167
-649.799	11.550	0.124	-0.095
-648.784	98.411	0.048	0.056
-647.770	18.019	0.196	0.157
-646.755	368.513	0.085	0.172
-645.741	-103.887	-0.291	-0.068
-644.726	-119.689	-0.410	0.071
-643.711	32.135	0.245	-0.213
-642.697	-141.311	0.271	0.028
-641.682	-48.372	-0.188	-0.091
-640.668	800.000	0.123	-0.391
-639.653	-129.457	0.331	-0.046
-638.638	-66.383	-0.294	0.117
-637.624	800.000	0.145	-0.449
-636.609	-200.000	0.106	0.000
-635.595	-138.125	-0.142	-0.016
-634.580	-133.890	-0.153	-0.019
-633.565	9.391	-0.126	0.096
-632.551	-103.311	0.052	0.012
-631.536	42.930	0.095	-0.087
-630.522	33.537	0.115	0.100
-629.507	-123.300	0.060	0.010
-628.492	800.000	-0.056	-0.172
-627.478	-200.000	-0.034	0.244
-626.463	196.323	0.119	0.182
-625.449	157.437	-0.121	-0.169
-624.434	201.806	0.180	0.279
-623.419	232.603	0.152	-0.251
-622.405	-198.738	-0.381	-0.002
-621.390	-94.973	-0.334	-0.091
-620.376	-200.000	0.007	0.190
-619.361	439.459	0.073	0.159
-618.346	-200.000	0.102	-0.471
-617.332	310.505	0.033	0.061
-616.317	-200.000	-0.024	0.151
-615.303	-78.819	0.337	0.115
-614.288	800.000	-0.066	0.204
-613.273	-200.000	0.049	0.383
-612.259	800.000	-0.070	0.303
-611.244	-76.139	-0.199	0.071
-610.230	4.853	-0.190	-0.140
-609.215	-89.716	-0.102	-0.030
-608.201	800.000	0.031	-0.097
-607.186	9.414	-0.203	-0.155
-606.171	-101.060	-0.262	-0.064
-605.157	-134.253	0.400	-0.049
-604.142	-168.474	-0.250	0.010
-603.128	800.000	0.073	-0.294
-602.113	17.980	0.198	-0.158
-601.098	-97.644	-0.316	-0.082
-600.084	-27.692	-0.207	-0.121
-599.069	32.799	0.238	0.207
-598.055	-200.000	-0.037	-0.177
-597.040	528.617	0.155	0.366
-596.025	57.200	-0.103	0.100
-595.011	-116.965	-0.043	-0.008
-593.996	-31.186	0.105	-0.059
-592.982	-105.640	0.146	0.033
-591.967	-64.240	0.296	-0.121
-590.952	-159.224	-0.260	-0.015
-589.938	120.659	-0.012	0.015
-588.923	-29.335	-0.240	0.138
-587.909	-49.384	0.182	0.087
-586.894	-200.000	0.012	-0.090
-585.879	407.797	-0.128	-0.271
-584.865	614.968	0.042	0.107
-583.850	-200.000	0.034	-0.350
-582.836	-79.963	-0.114	0.038
-581.821	42.161	0.199	-0.181
-580.806	342.612	0.037	0.073
-579.792	-60.184	-0.300	0.128
-578.777	-94.525	0.203	0.056
-577.763	-52.188	0.158	-0.073
-576.748	-30.474	0.192	-0.109
-575.733	-200.000	0.037	-0.233
-574.719	57.135	0.248	-0.242
-573.704	10.831	0.130	0.099
-572.690	-200.000	0.017	-0.128
-571.675	-61.765	0.435	0.183
-570.661	-14.707	0.092	0.059
-569.646	-162.713	-0.300	-0.015
-568.631	-78.894	-0.135	0.046
-567.617	-72.367	0.346	-0.128
-566.602	8.309	-0.095	-0.071
-565.588	133.389	-0.129	0.167
-564.573	-146.216	0.044	0.004
-563.558	70.219	0.120	-0.125
-562.544	-83.228	0.215	-0.069
-561.529	800.000	0.124	0.448
-560.515	605.862	-0.114	-0.284
-559.500	-200.000	-0.016	0.163
-558.485	-200.000	0.016	0.152
-557.471	37.952	-0.179	-0.160
-556.456	-1.273	0.127	0.090
-555.442	-200.000	0.039	0.221
-554.427	-63.913	-0.088	-0.036
-553.412	129.531	-0.124	0.159
-552.398	-62.473	0.173	0.072
-551.383	-4.401	0.219	0.152
-550.369	-114.547	0.102	0.020
-549.354	71.488	0.177	0.184
-548.339	-113.177	-0.256	-0.051
-547.325	427.248	-0.133	-0.287
-546.310	34.113	-0.167	-0.146
-545.296	800.000	-0.020	0.082
-544.281	-108.170	0.304	0.066
-543.266	18.282	0.151	-0.121
-542.252	-142.251	-0.253	0.025
-541.237	800.000	0.017	0.063
-540.223	-65.045	-0.131	-0.053
-539.208	139.279	-0.076	0.100
-538.193	68.618	0.100	-0.102
-537.179	158.758	-0.065	0.091
-536.164	-200.000	-0.003	-0.049
-535.150	27.304	-0.061	0.051
-534.135	185.011	0.051	-0.076
-533.121	70.679	-0.203	-0.211
-532.106	47.045	0.172	-0.160
-531.091	-200.000	-0.360	-0.001
-530.077	-31.935	-0.172	-0.096
-529.062	468.700	0.059	-0.133
-528.048	-200.000	-0.047	0.335
-527.033	12.344	-0.102	-0.078
-526.018	-200.000	0.041	0.411
-525.004	-53.872	0.271	-0.124
-523.989	266.791	-0.191	-0.335
-522.975	-152.028	-0.563	-0.041
-521.960	112.320	-0.192	-0.232
-520.945	61.048	0.361	-0.359
-519.931	64.228	-0.073	-0.074
-518.916	8.683	0.108	-0.082
-517.902	-27.855	-0.321	0.186
-516.887	316.677	-0.057	0.109
-515.872	-200.000	-0.011	0.301
-514.858	110.865	-0.270	0.325
-513.843	11.116	-0.313	0.240
-512.829	800.000	0.061	0.257
-511.814	127.165	-0.106	0.135
-510.799	-57.579	0.376	0.165
-509.785	-200.000	0.048	-0.451
-508.770	140.872	0.182	0.241
-507.756	-5.614	0.201	-0.138
-506.741	14.036	0.286	-0.223
-505.726	29.675	-0.217	-0.184
-504.712	-200.000	-0.022	0.223
-503.697	-2.371	-0.140	-0.098
-502.683	-200.000	0.094	-0.528
-501.668	-66.355	-0.361	-0.144
-500.653	-200.000	-0.063	0.503
-499.639	800.000	-0.043	-0.139
-498.624	800.000	0.107	0.329
-497.610	-146.233	-0.463	-0.041
-496.595	5.760	-0.182	0.135
-495.581	26.680	0.081	-0.068
-494.566	-130.668	0.188	-0.025
-493.551	-143.089	0.367	-0.035
-492.537	-83.285	0.091	-0.029
-491.522	-145.226	0.322	0.029
-490.508	290.243	-0.095	-0.172
-489.493	-39.799	-0.247	0.129
-488.478	98.883	-0.245	0.282
-487.464	-60.544	-0.153	-0.065
-486.449	-72.683	-0.217	-0.080
-485.435	-200.000	-0.017	-0.151
-484.420	30.091	-0.119	0.101
-483.405	-200.000	0.024	-0.214
-482.391	-118.650	0.171	0.030
-481.376	-200.000	-0.036	0.238
-480.362	440.921	0.076	0.167
-479.347	706.181	0.067	0.177
-478.332	-87.236	-0.188	-0.057
-477.318	-87.502	0.136	0.041
-476.303	417.764	0.054	0.116
-475.289	-95.815	0.265	-0.071
-474.274	707.933	0.089	0.235
-473.259	391.166	-0.270	-0.559
-472.245	-141.056	0.184	0.019
-471.230	599.000	0.094	0.234
-470.216	-200.000	-0.008	0.075
-469.201	-200.000	-0.052	0.266
-468.186	800.000	0.066	-0.201
-467.172	-200.000	-0.095	0.446
-466.157	53.751	0.157	-0.150
-465.143	-200.000	0.030	0.133
-464.128	-37.970	0.104	0.055
-463.113	239.649	0.127	-0.211
-462.099	128.550	0.227	-0.289
-461.084	-200.000	-0.008	0.226
-460.070	185.092	0.072	0.106
-459.055	153.429	0.129	-0.177
-458.040	800.000	-0.053	0.190
-457.026	-53.411	0.176	0.080
-456.011	221.987	0.257	0.413
-454.997	-200.000	-0.031	-0.161
-453.982	291.168	-0.029	-0.052
-452.968	-200.000	-0.027	0.156
-451.953	-73.785	0.198	0.072
-450.938	742.212	-0.071	-0.192
-449.924	80.788	-0.159	0.171
-448.909	-200.000	0.012	-0.150
-447.895	15.671	0.154	0.120
-446.880	-200.000	-0.012	0.287
-445.865	-163.385	-0.167	0.008
-444.851	-167.147	-0.022	0.001
-443.836	-55.940	0.389	-0.173
-442.822	-100.320	-0.163	0.040
-441.807	177.828	0.132	0.192
-440.792	61.735	0.363	-0.360
-439.778	-200.000	-0.019	0.088
-438.763	184.154	0.056	0.083
-437.749	-200.000	-0.022	0.280
-436.734	-20.767	-0.232	0.142
-435.719	-122.462	-0.080	0.013
-434.705	99.800	-0.055	-0.064
-433.690	205.703	-0.054	-0.083
-432.676	2.299	0.241	-0.174
-431.661	72.497	-0.049	-0.051
-430.646	-82.021	0.060	0.020
-429.632	-18.524	-0.366	-0.228
-428.617	-200.000	0.054	-0.250
-427.603	149.788	-0.037	0.050
-426.588	-41.888	-0.209	0.107
-425.573	-147.201	0.183	0.016
-424.559	213.729	0.063	0.100
-423.544	-129.734	0.342	0.047
-422.530	-130.726	0.322	0.043
-421.515	-46.523	0.357	-0.175
-420.500	-128.551	-0.436	-0.062
-419.486	475.611	0.025	-0.057
-418.471	11.110	-0.112	-0.085
-417.457	800.000	-0.032	-0.118
-416.442	97.012	-0.158	-0.180
-415.428	-149.213	0.394	-0.031
-414.413	800.000	0.007	0.026
-413.398	-188.570	-0.344	0.004
-412.384	-124.072	0.361	0.057
-411.369	-152.792	-0.360	-0.025
-410.355	-200.000	-0.051	0.287
-409.340	-200.000	-0.006	0.225
-408.325	-103.629	-0.246	0.057
-407.311	-200.000	-0.025	-0.114
-406.296	231.951	0.088	-0.143
-405.282	800.000	0.062	0.184
-404.267	-181.734	-0.109	0.002
-403.252	-136.203	0.231	-0.027
-402.238	-34.636	-0.389	-0.212
-401.223	-25.351	-0.362	0.213
-400.209	-200.000	0.028	0.259
-399.194	138.886	-0.362	0.474
-398.179	-200.000	0.054	0.250
-397.165	-42.741	-0.391	-0.198
-396.150	26.562	0.358	0.298
-395.136	4.155	-0.117	0.085
-394.121	-200.000	-0.011	0.244
-393.106	174.327	-0.052	-0.075
-392.092	44.481	0.201	0.184
-391.077	86.112	0.083	-0.091
-390.063	745.001	-0.035	0.094
-389.048	-200.000	0.138	0.001
-388.033	-99.475	-0.248	0.062
-387.019	11.268	-0.053	-0.040
-386.004	384.040	-0.147	-0.302
-384.990	53.579	-0.216	0.206
-383.975	213.362	0.066	0.103
-382.960	71.618	0.177	-0.183
-381.946	-167.921	-0.140	-0.005
-380.931	-200.000	-0.005	0.077
-379.917	-51.719	0.227	-0.105
-378.902	-104.870	-0.134	0.031
-377.888	-41.794	-0.156	0.079
-376.873	260.969	0.143	0.247
-375.858	579.000	-0.040	0.098
-374.844	800.000	-0.101	-0.423
-373.829	79.666	-0.104	-0.111
-372.815	28.072	0.164	-0.138
-371.800	800.000	-0.054	-0.184
-370.785	113.210	0.186	0.224
-369.771	-200.000	0.042	-0.194
-368.756	604.069	0.090	0.223
-367.742	183.992	-0.134	0.197
-366.727	-108.733	0.095	-0.020
-365.712	800.000	-0.180	0.561
-364.698	-200.000	0.019	0.412
-363.683	-81.722	0.278	0.091
-362.669	38.288	-0.160	0.142
-361.654	-200.000	-0.058	-0.456
-360.639	800.000	0.085	0.327
-359.625	-16.604	0.221	0.139
-358.610	46.394	-0.053	-0.049
-357.596	-104.271	-0.221	-0.051
-356.581	60.287	-0.124	-0.122
-355.566	-195.653	0.162	-0.001
-354.552	-65.705	0.157	-0.063
-353.537	-78.694	0.256	0.087
-352.523	-145.364	-0.154	-0.014
-351.508	52.961	-0.116	-0.111
-350.493	-149.845	0.564	0.044
-349.479	188.416	-0.073	0.109
-348.464	-200.000	-0.015	-0.120
-347.450	-109.238	0.238	-0.050
-346.435	125.103	-0.171	-0.214
-345.420	12.740	-0.147	-0.113
-344.406	800.000	-0.030	0.114
-343.391	45.641	-0.091	0.083
-342.377	-79.962	0.166	-0.055
-341.362	-35.697	0.249	0.134
-340.348	-200.000	-0.023	-0.177
-339.333	-154.562	0.235	-0.016
-338.318	286.757	0.140	-0.252
-337.304	-71.084	-0.072	0.027
-336.289	800.000	-0.033	0.125
-335.275	-200.000	0.010	-0.208
-334.260	-200.000	0.044	-0.224
-333.245	144.477	-0.113	0.150
-332.231	539.126	-0.131	0.309
-331.216	20.064	-0.138	-0.110
-330.202	-98.670	-0.155	0.039
-329.187	-56.972	0.124	0.054
-328.172	-21.000	-0.160	-0.097
-327.158	433.279	0.155	-0.334
-326.143	-72.434	-0.187	-0.069
-325.129	760.224	0.151	0.405
-324.114	-133.197	-0.149	0.019
-323.099	167.947	0.067	0.094
-322.085	85.395	-0.054	0.058
-321.070	251.362	-0.091	-0.154
-320.056	-157.593	0.256	-0.015
-319.041	295.499	-0.075	-0.137
-318.026	129.311	0.163	-0.206
-317.012	-200.000	-0.002	0.219
-315.997	28.211	-0.188	0.158
-314.983	-21.562	-0.186	0.112
-313.968	-151.854	-0.271	0.020
-312.953	70.793	-0.235	-0.242
-311.939	-200.000	-0.050	-0.243
-310.924	111.046	-0.232	-0.277
-309.910	-10.771	0.031	-0.021
-308.895	17.708	-0.237	-0.187
-307.880	-24.346	-0.178	-0.105
-306.866	-200.000	-0.031	0.287
-305.851	-89.103	-0.132	0.039
-304.837	-32.868	-0.182	-0.100
-303.822	-9.640	0.043	0.029
-302.807	42.820	-0.164	0.148
-301.793	-200.000	0.043	0.264
-300.778	202.407	-0.014	-0.021
-299.764	-200.000	0.013	-0.152
-298.749	14.730	-0.264	-0.205
-297.735	-59.482	0.257	-0.110
-296.720	229.410	-0.200	0.323
-295.705	-200.000	-0.020	0.117
-294.691	-13.906	0.065	0.042
-293.676	-89.510	-0.146	0.043
-292.662	140.456	-0.197	-0.258
-291.647	-154.382	0.112	-0.007
-290.632	-200.000	0.013	0.207
-289.618	-200.000	0.016	-0.451
-288.603	88.380	-0.106	-0.117
-287.589	-84.206	0.182	0.057
-286.574	-96.805	0.130	-0.034
-285.559	-69.107	-0.145	-0.055
-284.545	-200.000	-0.037	0.176
-283.530	118.789	0.038	-0.046
-282.516	-200.000	-0.022	0.127
-281.501	800.000	-0.084	0.304
-280.486	594.894	0.033	0.080
-279.472	-82.424	-0.420	-0.135
-278.457	-126.555	-0.063	-0.009
-277.443	22.740	-0.175	-0.142
-276.428	736.273	-0.163	-0.432
-275.413	-200.000	-0.063	0.313
-274.399	72.145	-0.237	0.245
-273.384	560.112	-0.055	-0.132
-272.370	-200.000	-0.038	0.432
-271.355	800.000	-0.038	0.135
-270.340	93.925	-0.091	0.102
-269.326	279.890	-0.084	0.148
-268.311	351.983	0.124	0.244
-267.297	-200.000	0.010	-0.047
-266.282	-200.000	0.001	-0.057
-265.267	21.533	0.037	-0.030
-264.253	-200.000	0.020	-0.133
-263.238	426.905	-0.105	0.224
-262.224	-70.389	-0.039	0.015
-261.209	-88.030	-0.289	0.086
-260.195	-54.188	-0.137	-0.062
-259.180	-200.000	0.048	-0.269
-258.165	-88.327	-0.179	-0.053
-257.151	800.000	0.082	0.314
-256.136	8.710	0.281	0.210
-255.122	111.068	-0.311	-0.371
-254.107	122.027	0.159	-0.196
-253.092	-129.581	-0.369	0.051
-252.078	74.321	0.157	0.163
-251.063	-71.917	-0.158	-0.058
-250.049	-200.000	-0.044	-0.203
-249.034	-11.011	0.334	-0.218
-248.019	-71.144	0.323	0.120
-247.005	-0.522	0.301	-0.212
-245.990	16.172	0.148	-0.115
-244.976	-200.000	0.002	-0.150
-243.961	-91.680	-0.121	-0.034
-242.946	-124.596	-0.044	-0.007
-241.932	-161.635	-0.331	0.017
-240.917	-32.274	-0.214	0.119
-239.903	-187.674	0.226	-0.003
-238.888	-134.092	0.096	-0.012
-237.873	23.091	-0.185	0.150
-236.859	-62.521	-0.261	-0.107
-235.844	94.945	0.114	-0.129
-234.830	519.895	-0.055	0.127
-233.815	521.634	-0.077	-0.178
-232.800	-99.981	0.233	-0.057
-231.786	668.116	-0.066	-0.169
-230.771	-28.688	-0.167	-0.095
-229.757	-200.000	-0.009	-0.093
-228.742	-200.000	-0.073	0.397
-227.727	411.782	-0.209	-0.439
-226.713	-117.103	0.295	0.053
-225.698	478.839	0.105	-0.235
-224.684	-148.825	0.434	-0.035
-223.669	143.969	0.069	-0.090
-222.655	-200.000	0.023	-0.389
-221.640	84.061	-0.168	-0.181
-220.625	-84.989	-0.192	-0.059
-219.611	-200.000	0.039	0.200
-218.596	22.380	-0.109	-0.088
-217.582	-200.000	-0.045	-0.213
-216.567	337.530	-0.143	-0.275
-215.552	-136.180	0.171	0.020
-214.538	800.000	-0.055	-0.212
-213.523	-1.892	0.080	-0.055
-212.509	-69.072	0.136	-0.052
-211.494	800.000	0.070	-0.277
-210.479	-120.581	0.174	0.029
-209.465	-48.998	-0.053	0.025
-208.450	-4.357	-0.125	-0.085
-207.436	800.000	0.110	0.333
-206.421	-43.100	0.037	0.018
-205.406	-28.329	-0.217	0.124
-204.392	-120.852	0.144	-0.024
-203.377	240.907	0.150	0.247
-202.363	800.000	0.081	0.340
-201.348	-36.050	0.174	0.093
-200.333	312.718	-0.127	-0.235
-199.319	800.000	-0.055	-0.219
-198.304	219.967	-0.097	0.153
-197.290	-116.640	0.129	-0.023
-196.275	364.661	0.183	-0.363
-195.260	68.548	0.330	-0.334
-194.246	72.964	0.129	0.133
-193.231	-200.000	0.032	0.140
-192.217	111.810	0.214	-0.255
-191.202	-200.000	0.002	-0.155
-190.187	231.554	-0.113	-0.183
-189.173	47.548	0.349	0.321
-188.158	311.163	0.086	-0.159
-187.144	-200.000	0.009	-0.282
-186.129	371.038	-0.107	-0.213
-185.114	101.455	0.115	0.132
-184.100	111.274	-0.087	-0.103
-183.085	800.000	0.077	0.273
-182.071	-14.695	-0.097	0.061
-181.056	800.000	-0.040	-0.159
-180.042	20.165	0.114	0.091
-179.027	800.000	-0.043	-0.154
-178.012	184.603	0.053	0.077
-176.998	-156.953	0.189	-0.011
-175.983	-200.000	0.031	0.406
-174.969	96.486	0.073	-0.083
-173.954	20.068	-0.228	0.182
-172.939	-138.950	0.327	-0.035
-171.925	-70.691	0.153	-0.057
-170.910	-144.082	0.015	0.001
-169.896	-45.711	-0.120	-0.059
-168.881	111.005	0.097	0.116
-167.866	-200.000	0.021	-0.212
-166.852	245.296	0.195	0.324
-165.837	279.931	0.056	-0.099
-164.823	-200.000	0.035	0.406
-163.808	-37.409	0.140	0.074
-162.793	165.312	-0.184	0.257
-161.779	173.072	-0.199	-0.283
-160.764	77.577	0.257	-0.270
-159.750	800.000	0.103	-0.302
-158.735	-149.693	0.283	0.022
-157.720	-38.128	0.241	-0.126
-156.706	800.000	0.059	0.225
-155.691	800.000	0.016	-0.046
-154.677	-135.157	-0.263	0.031
-153.662	-123.118	-0.027	-0.004
-152.647	12.464	0.235	0.179
-151.633	-185.436	0.124	0.002
-150.618	-200.000	0.038	-0.225
-149.604	-63.037	0.279	0.114
-148.589	421.763	0.092	0.195
-147.574	-14.144	0.079	0.050
-146.560	-57.293	-0.479	0.208
-145.545	-36.339	0.391	-0.208
-144.531	800.000	-0.085	0.240
-143.516	-84.185	-0.065	0.020
-142.502	800.000	-0.067	-0.204
-141.487	-4.845	0.070	0.048
-140.472	800.000	0.069	0.270
-139.458	-200.000	0.045	-0.274
-138.443	-200.000	0.038	-0.271
-137.429	412.155	0.076	0.159
-136.414	-101.165	-0.138	-0.033
-135.399	-79.879	-0.377	-0.125
-134.385	-80.538	-0.151	0.050
-133.370	-200.000	0.012	-0.153
-132.356	-129.991	-0.266	-0.036
-131.341	800.000	0.100	-0.331
-130.326	-138.815	-0.383	0.041
-129.312	689.436	0.109	-0.282
-128.297	10.068	0.269	-0.201
-127.283	-179.061	0.199	0.004
-126.268	-200.000	-0.029	0.177
-125.253	-148.818	0.267	0.021
-124.239	205.352	-0.098	-0.149
-123.224	-200.000	0.043	0.314
-122.210	15.498	0.073	0.057
