DTS Sentinel unit serial number:	SN413079Multiplexer serial number:	ORYXHardware model number:	OX4-SRSoftware version number:	ORYX F/W v4.00 Oryx Data Collector v3.7.2.0data status	okinstallation	princeton_trtdifferential loss correction	single-endedforward channel	channel 2reverse channel	N/Adate	2019/09/11time	00:53:10forward acquisition time	60.00reverse acquisition time	0.00gamma	496.2192k internal	0.2332k external	0.2332temperature offset calibration	0.9941default loss term (dB/km)	0.3790temperature slope calibration	1.0000multiplexer offset coefficient	1.0000multiplexer slope coefficient	1.0000fibre end	0.00T internal ref (°C)	29.19T ext. ref 1 (°C)	-0.31T ext. ref 2 (°C)	22.86length (m)	temperature (°C)	Stokes	anti-Stokes-747.200	-53.195	-0.216	-0.100
-746.185	-73.548	-0.083	-0.030
-745.171	222.554	-0.067	-0.108
-744.156	-200.000	0.021	0.135
-743.142	337.235	0.089	0.174
-742.127	-55.224	-0.317	0.143
-741.112	-49.775	0.076	0.036
-740.098	-38.030	0.194	0.104
-739.083	-200.000	0.010	-0.091
-738.069	800.000	-0.078	-0.307
-737.054	454.854	-0.153	-0.342
-736.039	800.000	0.115	0.387
-735.025	318.425	0.171	0.325
-734.010	512.442	-0.033	-0.077
-732.996	-79.067	-0.114	-0.039
-731.981	800.000	-0.032	-0.127
-730.966	318.230	-0.122	-0.233
-729.952	800.000	-0.046	-0.172
-728.937	-200.000	0.021	0.657
-727.923	-141.356	0.228	-0.023
-726.908	-45.143	-0.212	0.106
-725.894	-102.521	0.273	-0.066
-724.879	-200.000	0.020	-0.092
-723.864	-39.694	-0.142	-0.075
-722.850	-16.370	-0.226	0.144
-721.835	-2.574	-0.094	0.066
-720.821	-74.171	0.195	-0.071
-719.806	-200.000	-0.030	-0.335
-718.791	-103.942	-0.134	-0.032
-717.777	800.000	-0.052	0.227
-716.762	-104.490	0.242	0.056
-715.748	-14.380	-0.147	-0.095
-714.733	74.150	-0.032	0.033
-713.718	279.431	0.235	0.421
-712.704	601.164	-0.188	0.469
-711.689	-118.642	-0.209	-0.037
-710.675	84.537	-0.073	0.080
-709.660	-131.583	-0.073	-0.010
-708.645	-59.463	-0.284	-0.123
-707.631	800.000	0.038	-0.132
-706.616	53.435	-0.033	0.032
-705.602	-200.000	0.069	0.384
-704.587	24.601	0.347	-0.288
-703.572	31.137	-0.157	-0.135
-702.558	83.374	-0.077	-0.084
-701.543	-18.011	0.176	-0.110
-700.529	800.000	-0.101	0.286
-699.514	466.200	-0.071	-0.160
-698.499	226.745	-0.197	-0.321
-697.485	-200.000	-0.025	-0.292
-696.470	91.577	-0.042	0.048
-695.456	-47.198	-0.054	-0.026
-694.441	-4.160	-0.265	-0.184
-693.426	800.000	0.019	0.057
-692.412	45.345	-0.273	-0.253
-691.397	11.353	0.092	-0.071
-690.383	-18.319	-0.301	-0.189
-689.368	352.758	0.019	-0.038
-688.354	-57.961	-0.246	0.108
-687.339	20.347	-0.257	-0.208
-686.324	251.396	-0.165	0.281
-685.310	-200.000	-0.005	0.047
-684.295	-200.000	-0.001	-0.040
-683.281	800.000	0.111	-0.429
-682.266	11.351	0.312	-0.240
-681.251	-69.718	-0.208	0.080
-680.237	-200.000	-0.014	-0.136
-679.222	-97.277	0.213	0.056
-678.208	-96.407	-0.472	-0.125
-677.193	87.591	0.080	0.089
-676.178	-200.000	-0.064	-0.655
-675.164	-143.089	0.374	-0.036
-674.149	-70.250	0.191	-0.073
-673.135	90.463	0.089	-0.100
-672.120	-16.170	0.217	-0.138
-671.105	61.346	-0.182	-0.182
-670.091	-200.000	-0.031	-0.277
-669.076	-161.619	-0.217	-0.011
-668.062	421.148	-0.181	0.389
-667.047	800.000	-0.118	0.439
-666.032	-9.906	-0.290	-0.193
-665.018	-200.000	-0.034	-0.262
-664.003	-53.467	-0.518	-0.238
-662.989	126.460	-0.157	0.199
-661.974	-133.252	-0.120	-0.015
-660.959	-106.166	-0.218	-0.049
-659.945	800.000	0.126	-0.364
-658.930	223.233	0.202	-0.327
-657.916	-143.567	-0.193	0.018
-656.901	-200.000	-0.003	-0.025
-655.886	-111.094	0.171	-0.035
-654.872	800.000	0.085	0.372
-653.857	-200.000	0.083	0.000
-652.843	399.339	0.148	-0.312
-651.828	-55.153	-0.515	-0.232
-650.814	-52.742	-0.308	0.142
-649.799	-142.048	0.227	0.023
-648.784	-163.150	0.298	0.014
-647.770	-96.015	-0.212	0.056
-646.755	-59.960	-0.188	-0.080
-645.741	800.000	-0.019	0.061
-644.726	82.149	0.024	-0.026
-643.711	-200.000	-0.012	-0.200
-642.697	55.382	0.184	-0.179
-641.682	-56.431	-0.135	-0.060
-640.668	-200.000	-0.003	-0.311
-639.653	-200.000	0.013	-0.437
-638.638	213.948	-0.121	-0.192
-637.624	-200.000	0.081	-0.519
-636.609	188.223	0.109	-0.163
-635.595	88.817	-0.231	-0.258
-634.580	326.160	-0.116	-0.223
-633.565	63.430	0.139	-0.139
-632.551	-72.908	-0.131	-0.048
-631.536	103.925	-0.219	0.258
-630.522	-45.979	-0.238	-0.117
-629.507	123.059	0.092	-0.116
-628.492	356.687	-0.057	0.113
-627.478	800.000	0.133	-0.493
-626.463	339.217	0.049	0.096
-625.449	66.014	0.172	0.174
-624.434	351.304	0.082	-0.163
-623.419	69.140	-0.218	-0.224
-622.405	-88.970	-0.295	0.087
-621.390	78.174	-0.152	-0.162
-620.376	296.415	0.083	0.152
-619.361	-48.797	0.100	0.048
-618.346	-114.407	-0.276	-0.053
-617.332	-200.000	0.002	-0.313
-616.317	-130.809	-0.315	-0.042
-615.303	-143.264	0.135	0.013
-614.288	-95.027	-0.149	-0.040
-613.273	-200.000	-0.007	0.145
-612.259	47.813	0.140	-0.131
-611.244	-200.000	-0.004	0.089
-610.230	800.000	-0.074	-0.230
-609.215	-200.000	-0.005	-0.431
-608.201	-162.099	-0.183	0.009
-607.186	800.000	0.085	0.328
-606.171	800.000	0.056	0.170
-605.157	-16.190	0.091	0.058
-604.142	30.647	-0.148	-0.127
-603.128	-200.000	0.057	-0.257
-602.113	-200.000	0.031	0.141
-601.098	43.123	0.125	-0.114
-600.084	114.376	0.219	0.267
-599.069	46.635	0.060	0.056
-598.055	-133.245	0.330	0.042
-597.040	-200.000	0.012	-0.053
-596.025	800.000	0.088	-0.304
-595.011	-200.000	-0.040	-0.314
-593.996	-141.011	-0.234	-0.024
-592.982	88.736	-0.230	0.256
-591.967	-90.852	0.346	0.100
-590.952	800.000	-0.081	-0.250
-589.938	340.462	0.086	-0.168
-588.923	162.163	-0.445	0.624
-587.909	-126.522	-0.449	0.067
-586.894	800.000	0.043	0.165
-585.879	-200.000	0.036	-0.244
-584.865	44.742	0.131	0.120
-583.850	-200.000	0.042	-0.273
-582.836	251.110	0.157	0.267
-581.821	-200.000	-0.033	0.187
-580.806	25.550	0.213	0.177
-579.792	-200.000	0.038	0.198
-578.777	281.508	0.235	-0.421
-577.763	-85.462	0.218	0.068
-576.748	-0.538	-0.093	-0.066
-575.733	-33.371	-0.335	-0.185
-574.719	-35.913	-0.294	0.159
-573.704	-7.809	0.221	0.149
-572.690	-129.582	-0.369	0.051
-571.675	83.366	-0.150	-0.163
-570.661	16.715	0.225	0.178
-569.646	800.000	0.029	-0.092
-568.631	103.963	-0.255	-0.299
-567.617	172.272	0.129	-0.185
-566.602	452.900	-0.112	-0.247
-565.588	25.126	0.099	0.082
-564.573	-136.974	-0.415	-0.048
-563.558	-141.144	-0.051	0.005
-562.544	-200.000	0.027	0.138
-561.529	-50.154	-0.207	0.098
-560.515	-75.015	-0.272	0.097
-559.500	182.103	-0.237	-0.349
-558.485	-200.000	-0.011	0.128
-557.471	126.812	0.152	-0.192
-556.456	171.347	0.048	-0.069
-555.442	800.000	-0.029	0.125
-554.427	800.000	0.161	0.511
-553.412	-177.905	0.137	-0.003
-552.398	-40.041	0.220	-0.115
-551.383	-7.763	-0.087	-0.059
-550.369	-14.421	0.270	-0.174
-549.354	-8.799	0.203	-0.136
-548.339	-200.000	-0.030	-0.365
-547.325	-120.059	0.088	0.015
-546.310	800.000	-0.056	0.193
-545.296	-85.501	0.114	-0.035
-544.281	-140.424	0.243	-0.025
-543.266	-200.000	0.080	0.431
-542.252	23.534	-0.188	-0.154
-541.237	-73.469	0.327	0.119
-540.223	-200.000	-0.030	-0.287
-539.208	409.365	-0.049	-0.103
-538.193	-3.550	0.266	0.185
-537.179	-98.174	-0.276	0.071
-536.164	-164.105	0.127	0.006
-535.150	46.223	-0.257	0.237
-534.135	-64.512	-0.140	-0.057
-533.121	-107.818	0.272	-0.059
-532.106	191.689	-0.169	0.254
-531.091	800.000	-0.063	0.240
-530.077	-86.895	0.087	0.027
-529.062	266.666	0.041	-0.072
-528.048	-13.290	-0.353	-0.228
-527.033	-17.430	-0.111	-0.070
-526.018	800.000	-0.037	-0.103
-525.004	-138.732	-0.122	0.013
-523.989	-174.970	0.205	-0.006
-522.975	-200.000	0.003	0.166
-521.960	-54.441	-0.380	0.172
-520.945	-200.000	-0.025	0.123
-519.931	-142.093	0.149	-0.015
-518.916	-138.925	0.415	-0.045
-517.902	144.453	-0.212	-0.282
-516.887	663.729	0.066	-0.171
-515.872	276.752	-0.169	-0.299
-514.858	244.224	0.084	0.140
-513.843	-131.953	0.135	-0.018
-512.829	-108.958	0.353	0.075
-511.814	50.384	-0.298	0.281
-510.799	116.716	-0.061	-0.074
-509.785	800.000	-0.022	-0.075
-508.770	69.246	0.153	-0.157
-507.756	-200.000	0.019	0.208
-506.741	191.796	0.103	0.155
-505.726	594.037	0.121	-0.299
-504.712	-16.367	-0.214	-0.136
-503.697	-99.950	0.239	-0.060
-502.683	800.000	0.030	0.093
-501.668	21.902	0.139	-0.113
-500.653	82.047	-0.114	0.123
-499.639	29.982	-0.292	-0.248
-498.624	-101.375	0.146	-0.035
-497.610	668.520	-0.189	-0.488
-496.595	-1.141	0.204	-0.144
-495.581	326.851	0.115	-0.220
-494.566	-119.884	0.276	-0.047
-493.551	-200.000	-0.017	-0.267
-492.537	800.000	-0.032	-0.093
-491.522	-200.000	0.012	0.093
-490.508	502.439	0.125	0.288
-489.493	-200.000	-0.008	-0.052
-488.478	-182.369	0.282	-0.005
-487.464	-56.887	-0.059	-0.026
-486.449	-78.419	0.286	-0.098
-485.435	126.515	0.134	0.169
-484.420	800.000	-0.100	0.412
-483.405	31.279	-0.275	0.235
-482.391	-27.156	-0.291	-0.169
-481.376	-104.625	0.381	-0.087
-480.362	-67.010	-0.356	-0.140
-479.347	125.725	0.229	-0.288
-478.332	163.728	-0.074	0.103
-477.318	-145.405	-0.199	0.018
-476.303	183.566	0.123	-0.181
-475.289	800.000	-0.103	-0.374
-474.274	42.369	0.137	0.124
-473.259	-11.731	-0.087	0.057
-472.245	338.771	0.058	0.113
-471.230	-176.934	-0.221	0.006
-470.216	-102.560	0.380	-0.090
-469.201	-117.743	-0.142	0.025
-468.186	800.000	0.059	-0.207
-467.172	150.066	0.081	0.110
-466.157	-35.215	0.240	0.130
-465.143	546.601	-0.134	0.318
-464.128	-184.670	-0.149	-0.002
-463.113	7.118	0.255	-0.189
-462.099	122.300	-0.213	0.265
-461.084	-109.322	0.169	-0.036
-460.070	98.461	0.177	-0.203
-459.055	-15.868	-0.222	0.140
-458.040	-57.683	-0.062	-0.027
-457.026	77.568	0.228	-0.241
-456.011	52.509	-0.105	-0.100
-454.997	134.864	-0.166	0.214
-453.982	175.540	-0.144	0.207
-452.968	-107.109	0.178	-0.039
-451.953	-200.000	-0.053	0.292
-450.938	90.174	-0.062	0.069
-449.924	-200.000	0.020	-0.190
-448.909	-119.135	0.077	0.013
-447.895	-72.210	-0.241	-0.089
-446.880	-121.165	0.088	0.015
-445.865	800.000	0.085	0.285
-444.851	311.757	-0.117	-0.218
-443.836	-200.000	-0.074	0.367
-442.822	473.109	-0.159	0.356
-441.807	-116.001	0.227	-0.042
-440.792	800.000	-0.020	-0.070
-439.778	-83.766	-0.326	-0.103
-438.763	5.611	0.076	0.056
-437.749	268.501	-0.061	-0.106
-436.734	342.040	-0.090	0.174
-435.719	26.923	0.141	0.117
-434.705	11.652	-0.084	-0.064
-433.690	388.344	0.162	0.334
-432.676	-0.035	-0.176	-0.124
-431.661	-200.000	-0.105	0.566
-430.646	97.943	-0.325	0.372
-429.632	149.213	-0.206	-0.277
-428.617	-134.672	-0.241	-0.029
-427.603	-200.000	-0.025	-0.317
-426.588	-200.000	-0.037	-0.299
-425.573	-200.000	0.063	0.327
-424.559	-200.000	0.026	0.221
-423.544	504.629	-0.032	0.074
-422.530	71.852	-0.071	0.073
-421.515	194.253	-0.007	-0.010
-420.500	-84.437	-0.205	-0.064
-419.486	800.000	0.033	-0.138
-418.471	339.412	-0.145	-0.280
-417.457	130.422	0.057	-0.073
-416.442	-192.173	0.037	0.000
-415.428	800.000	0.046	0.185
-414.413	-10.578	0.318	-0.209
-413.398	324.176	-0.056	0.107
-412.384	445.116	0.071	0.154
-411.369	36.021	0.095	-0.083
-410.355	43.038	-0.176	-0.159
-409.340	-200.000	0.015	-0.339
-408.325	146.409	-0.188	0.250
-407.311	33.218	0.133	-0.115
-406.296	584.890	0.187	-0.456
-405.282	4.442	0.185	-0.135
-404.267	332.641	-0.175	0.336
-403.252	-177.070	0.299	-0.007
-402.238	381.294	-0.028	0.057
-401.223	58.970	-0.092	-0.089
-400.209	185.357	0.269	-0.396
-399.194	16.590	0.193	0.151
-398.179	-200.000	-0.012	-0.053
-397.165	-85.501	0.265	-0.082
-396.150	-92.665	0.270	0.075
-395.136	-65.633	-0.234	0.093
-394.121	-200.000	0.007	0.069
-393.106	-111.433	-0.103	-0.021
-392.092	-190.423	0.170	0.002
-391.077	-80.835	-0.278	-0.092
-390.063	-200.000	-0.017	-0.170
-389.048	-44.462	0.206	0.102
-388.033	-200.000	0.023	0.154
-387.019	-200.000	0.004	0.053
-386.004	-15.943	-0.233	0.147
-384.990	35.075	-0.216	0.187
-383.975	800.000	-0.070	-0.247
-382.960	-200.000	-0.020	-0.153
-381.946	-199.595	-0.244	0.001
-380.931	800.000	0.189	-0.538
-379.917	769.631	0.082	0.222
-378.902	-16.700	-0.055	0.035
-377.888	-184.294	0.569	-0.009
-376.873	186.489	0.214	0.315
-375.858	-68.355	-0.188	-0.072
-374.844	-200.000	-0.052	-0.283
-373.829	-23.904	-0.154	-0.091
-372.815	408.137	-0.138	0.290
-371.800	-49.977	-0.217	-0.102
-370.785	-200.000	0.003	0.106
-369.771	-20.545	0.118	-0.072
-368.756	49.182	-0.145	0.135
-367.742	-125.137	0.387	0.059
-366.727	-200.000	-0.006	-0.150
-365.712	317.771	-0.103	0.194
-364.698	-200.000	-0.016	0.071
-363.683	800.000	0.047	-0.162
-362.669	-78.286	-0.166	0.056
-361.654	550.146	-0.159	0.378
-360.639	-90.417	0.312	-0.090
-359.625	-39.945	-0.194	-0.100
-358.610	-56.494	0.116	-0.051
-357.596	-115.182	0.392	0.074
-356.581	176.749	0.189	-0.272
-355.566	-46.704	0.142	0.069
-354.552	-62.111	0.125	0.052
-353.537	391.603	-0.049	0.101
-352.523	50.841	-0.216	0.203
-351.508	229.786	0.170	-0.276
-350.493	414.980	0.051	-0.107
-349.479	24.976	-0.273	0.224
-348.464	-200.000	-0.034	0.364
-347.450	72.043	-0.149	0.153
-346.435	-150.905	0.236	-0.018
-345.420	-165.024	-0.153	0.007
-344.406	-200.000	-0.024	0.176
-343.391	-62.997	-0.184	0.075
-342.377	-200.000	-0.007	-0.217
-341.362	800.000	-0.067	-0.282
-340.348	200.228	-0.123	0.187
-339.333	68.433	-0.127	0.129
-338.318	-139.862	0.081	-0.008
-337.304	-200.000	-0.044	-0.198
-336.289	800.000	-0.059	0.244
-335.275	306.551	0.119	0.219
-334.260	135.236	-0.197	-0.253
-333.245	31.385	0.146	0.124
-332.231	-28.873	0.178	-0.101
-331.216	-200.000	-0.004	0.155
-330.202	175.909	-0.038	-0.054
-329.187	-129.202	-0.037	-0.005
-328.172	-200.000	0.025	0.177
-327.158	-21.317	0.513	-0.310
-326.143	23.045	-0.165	-0.134
-325.129	-12.618	-0.181	-0.117
-324.114	37.001	-0.176	-0.154
-323.099	-32.427	0.422	0.233
-322.085	-22.378	0.143	0.086
-321.070	45.926	-0.170	0.156
-320.056	-25.862	0.116	-0.067
-319.041	-200.000	-0.013	0.341
-318.026	340.701	0.160	-0.309
-317.012	218.381	-0.060	0.094
-315.997	800.000	-0.009	-0.031
-314.983	-200.000	0.034	0.242
-313.968	9.685	0.071	0.053
-312.953	544.277	0.060	0.141
-311.939	800.000	0.042	-0.173
-310.924	-46.664	-0.281	0.136
-309.910	8.581	0.076	-0.056
-308.895	17.407	0.251	0.197
-307.880	-96.099	0.179	0.047
-306.866	0.218	-0.229	0.161
-305.851	-200.000	0.048	-0.255
-304.837	131.440	0.129	-0.164
-303.822	-9.789	-0.140	0.092
-302.807	50.088	0.066	0.062
-301.793	-200.000	-0.034	0.331
-300.778	800.000	-0.040	0.164
-299.764	-148.817	0.133	0.011
-298.749	-25.003	0.175	-0.103
-297.735	-175.568	-0.387	0.010
-296.720	118.084	-0.254	0.309
-295.705	135.385	0.028	0.037
-294.691	-200.000	0.083	-0.388
-293.676	-97.628	-0.106	0.027
-292.662	-24.506	0.144	0.085
-291.647	-182.225	-0.257	-0.005
-290.632	565.750	-0.126	0.303
-289.618	95.612	0.208	0.235
-288.603	700.880	-0.078	-0.202
-287.589	-34.003	0.296	-0.161
-286.574	68.888	0.246	-0.250
-285.559	800.000	0.184	-0.542
-284.545	48.880	-0.121	0.112
-283.530	-200.000	0.032	0.192
-282.516	96.273	0.092	-0.104
-281.501	-200.000	-0.064	0.292
-280.486	122.768	0.115	-0.142
-279.472	537.279	-0.124	-0.292
-278.457	800.000	-0.050	0.186
-277.443	-147.239	-0.113	0.009
-276.428	-145.061	-0.067	-0.006
-275.413	153.659	0.152	0.206
-274.399	-200.000	0.032	0.173
-273.384	-2.423	-0.182	-0.126
-272.370	800.000	-0.045	-0.160
-271.355	-22.575	-0.243	-0.145
-270.340	-200.000	0.011	0.239
-269.326	-200.000	0.015	-0.204
-268.311	800.000	-0.038	0.144
-267.297	31.477	-0.136	-0.115
-266.282	-200.000	0.020	-0.236
-265.267	-148.863	-0.468	0.037
-264.253	723.445	-0.066	0.173
-263.238	-15.980	0.162	-0.101
-262.224	243.457	-0.120	0.199
-261.209	174.524	-0.221	0.316
-260.195	-82.720	0.382	0.122
-259.180	57.318	-0.376	-0.362
-258.165	-38.475	-0.188	-0.098
-257.151	427.765	-0.122	0.260
-256.136	172.163	0.102	0.145
-255.122	-158.013	0.128	0.007
-254.107	-200.000	-0.017	-0.086
-253.092	-200.000	-0.004	0.039
-252.078	20.603	0.143	0.114
-251.063	112.739	-0.126	-0.151
-250.049	-3.131	-0.136	0.093
-249.034	800.000	0.001	-0.005
-248.019	-136.228	0.525	0.061
-247.005	232.628	-0.058	0.094
-245.990	633.611	0.110	-0.275
-244.976	-200.000	0.007	-0.110
-243.961	17.292	-0.198	0.155
-242.946	153.782	0.245	-0.331
-241.932	-200.000	-0.075	0.000
-240.917	-105.484	0.312	-0.070
-239.903	556.308	-0.092	0.218
-238.888	-119.408	-0.572	0.098
-237.873	-200.000	-0.032	-0.205
-236.859	258.758	-0.052	0.088
-235.844	-176.691	-0.198	-0.005
-234.830	-200.000	0.041	0.411
-233.815	-116.952	-0.124	-0.022
-232.800	800.000	0.077	0.250
-231.786	-133.754	-0.179	0.022
-230.771	-97.661	-0.271	-0.069
-229.757	-172.952	-0.191	0.006
-228.742	-93.658	-0.131	0.036
-227.727	-200.000	0.003	0.029
-226.713	-200.000	-0.019	0.226
-225.698	-128.527	0.398	-0.056
-224.684	800.000	-0.013	0.054
-223.669	800.000	-0.091	0.363
-222.655	389.120	-0.094	0.193
-221.640	-2.873	0.093	-0.064
-220.625	-200.000	0.002	-0.026
-219.611	-95.553	0.245	0.065
-218.596	217.333	-0.101	0.159
-217.582	-200.000	0.042	0.241
-216.567	800.000	0.070	0.269
-215.552	-121.998	-0.233	0.038
-214.538	-200.000	0.036	0.162
-213.523	478.373	0.053	-0.119
-212.509	-34.167	0.027	-0.015
-211.494	800.000	-0.062	0.225
-210.479	631.400	-0.085	-0.211
-209.465	-200.000	-0.002	0.252
-208.450	397.862	-0.126	0.261
-207.436	78.542	0.412	-0.434
-206.421	100.743	0.127	-0.145
-205.406	-105.902	0.103	0.023
-204.392	-114.757	0.138	0.026
-203.377	-200.000	-0.051	0.504
-202.363	-148.859	-0.222	-0.018
-201.348	112.706	0.214	0.255
-200.333	800.000	0.117	0.395
-199.319	-16.204	-0.420	0.263
-198.304	295.985	-0.048	-0.087
-197.290	16.256	0.151	0.118
-196.275	-51.433	0.201	0.093
-195.260	-131.897	-0.225	0.029
-194.246	-200.000	-0.023	-0.195
-193.231	-27.104	-0.078	-0.045
-192.217	282.975	0.019	0.034
-191.202	30.788	0.494	0.416
-190.187	96.654	0.086	-0.097
-189.173	800.000	-0.063	-0.216
-188.158	33.866	-0.111	-0.096
-187.144	-200.000	-0.015	-0.073
-186.129	-104.398	0.350	-0.080
-185.114	69.186	-0.158	0.160
-184.100	132.079	-0.086	-0.109
-183.085	279.854	-0.096	0.169
-182.071	-200.000	0.015	-0.109
-181.056	-2.570	0.099	-0.068
-180.042	-33.850	-0.120	-0.065
-179.027	137.259	0.165	0.212
-178.012	800.000	-0.070	0.256
-176.998	31.446	-0.126	0.106
-175.983	-34.696	0.432	-0.232
-174.969	-79.896	-0.119	0.039
-173.954	313.999	-0.071	0.132
-172.939	-200.000	0.017	-0.080
-171.925	210.776	-0.225	-0.348
-170.910	-125.537	0.170	-0.025
-169.896	800.000	0.029	0.110
-168.881	-96.524	0.427	-0.111
-167.866	198.240	0.030	0.045
-166.852	143.926	0.303	-0.398
-165.837	24.574	-0.182	0.148
-164.823	-200.000	0.068	-0.472
-163.808	-53.017	-0.211	-0.095
-162.793	-200.000	-0.055	-0.270
-161.779	149.189	-0.125	-0.166
-160.764	800.000	0.042	0.134
-159.750	800.000	0.045	-0.162
-158.735	-200.000	-0.028	0.332
-157.720	-200.000	0.010	0.341
-156.706	564.066	0.071	-0.170
-155.691	-200.000	-0.000	0.217
-154.677	8.860	0.183	0.136
-153.662	130.203	0.160	-0.201
-152.647	5.389	0.223	-0.161
-151.633	800.000	0.043	0.144
-150.618	800.000	0.050	0.167
-149.604	-200.000	0.001	-0.321
-148.589	800.000	-0.043	0.136
-147.574	-200.000	-0.003	-0.070
-146.560	392.085	-0.117	-0.240
-145.545	17.656	-0.230	0.180
-144.531	-28.070	0.173	-0.099
-143.516	-42.080	0.407	0.204
-142.502	20.746	-0.205	0.163
-141.487	-121.918	-0.145	-0.023
-140.472	47.806	-0.190	-0.174
-139.458	166.642	-0.127	0.177
-138.443	-45.795	0.400	0.194
-137.429	757.997	-0.086	0.229
-136.414	800.000	-0.065	-0.271
-135.399	285.054	-0.146	-0.259
-134.385	800.000	-0.084	-0.247
-133.370	419.155	-0.106	-0.222
-132.356	-121.369	0.128	-0.021
-131.341	-74.850	0.078	-0.027
-130.326	-136.843	-0.191	-0.022
-129.312	461.854	-0.074	-0.163
-128.297	60.887	-0.063	-0.061
-127.283	-200.000	-0.045	0.209
-126.268	-200.000	-0.035	-0.160
-125.253	-115.767	0.437	-0.080
-124.239	-200.000	-0.017	-0.561
-123.224	-200.000	0.044	0.281
