DTS Sentinel unit serial number:	SN413079Multiplexer serial number:	ORYXHardware model number:	OX4-SRSoftware version number:	ORYX F/W v4.00 Oryx Data Collector v3.7.2.0data status	okinstallation	princeton_trtdifferential loss correction	single-endedforward channel	channel 2reverse channel	N/Adate	2019/09/11time	09:49:11forward acquisition time	60.00reverse acquisition time	0.00gamma	496.2192k internal	0.2316k external	0.2316temperature offset calibration	0.9964default loss term (dB/km)	0.3790temperature slope calibration	1.0000multiplexer offset coefficient	1.0000multiplexer slope coefficient	1.0000fibre end	0.00T internal ref (°C)	35.03T ext. ref 1 (°C)	0.11T ext. ref 2 (°C)	31.95length (m)	temperature (°C)	Stokes	anti-Stokes-747.200	-92.833	0.209	0.059
-746.185	800.000	0.059	0.166
-745.171	-159.633	-0.200	-0.011
-744.156	100.530	-0.120	-0.142
-743.142	-127.692	-0.165	-0.024
-742.127	192.319	-0.171	0.261
-741.112	-100.538	-0.248	0.062
-740.098	800.000	0.031	0.131
-739.083	-1.486	0.007	-0.005
-738.069	112.179	-0.173	0.212
-737.054	800.000	-0.126	-0.510
-736.039	24.053	-0.208	0.174
-735.025	56.118	0.148	0.145
-734.010	-114.486	-0.279	0.054
-732.996	-200.000	0.017	-0.136
-731.981	-39.636	0.123	-0.065
-730.966	-200.000	-0.027	-0.161
-729.952	-200.000	-0.046	-0.320
-728.937	-46.479	-0.281	-0.139
-727.923	118.295	0.053	0.066
-726.908	32.629	0.112	-0.098
-725.894	-129.612	-0.076	0.011
-724.879	-195.053	-0.245	-0.002
-723.864	-62.873	-0.089	0.037
-722.850	61.734	-0.164	-0.165
-721.835	68.289	-0.197	0.205
-720.821	156.632	-0.133	-0.186
-719.806	-42.549	-0.197	0.102
-718.791	-88.518	0.176	0.053
-717.777	205.949	-0.130	-0.204
-716.762	-200.000	-0.017	-0.448
-715.748	-191.882	0.143	0.001
-714.733	-98.030	-0.070	0.018
-713.718	-200.000	0.007	0.074
-712.704	12.226	0.067	-0.053
-711.689	-114.705	-0.104	0.020
-710.675	49.820	0.030	-0.028
-709.660	418.943	0.099	0.214
-708.645	-2.362	-0.137	-0.097
-707.631	-139.028	0.301	-0.033
-706.616	800.000	0.071	0.235
-705.602	-170.184	0.147	0.005
-704.587	-200.000	0.003	0.117
-703.572	100.000	0.117	0.137
-702.558	-103.779	-0.132	-0.031
-701.543	688.918	-0.062	0.164
-700.529	435.938	-0.118	0.261
-699.514	-37.524	-0.172	0.093
-698.499	171.657	-0.152	-0.220
-697.485	-200.000	-0.004	0.113
-696.470	-200.000	-0.045	-0.301
-695.456	-67.319	0.159	-0.063
-694.441	760.147	-0.045	-0.125
-693.426	-72.794	0.315	-0.117
-692.412	-15.765	-0.366	-0.236
-691.397	331.550	0.046	0.090
-690.383	-109.064	-0.308	-0.066
-689.368	12.205	-0.039	-0.030
-688.354	-175.204	-0.264	-0.007
-687.339	-80.224	-0.170	-0.057
-686.324	181.959	0.121	-0.181
-685.310	-119.956	-0.055	-0.010
-684.295	-152.394	-0.172	0.013
-683.281	-78.679	-0.200	-0.069
-682.266	-200.000	0.014	0.291
-681.251	318.341	0.092	0.177
-680.237	709.502	-0.102	0.272
-679.222	48.144	-0.078	0.074
-678.208	-115.336	-0.169	-0.032
-677.193	-71.924	0.284	0.107
-676.178	159.774	0.200	-0.282
-675.164	296.234	-0.035	-0.064
-674.149	111.382	-0.173	-0.211
-673.135	44.300	-0.221	-0.205
-672.120	-70.896	-0.158	0.060
-671.105	33.648	0.070	0.061
-670.091	121.505	-0.206	0.259
-669.076	-105.371	-0.201	-0.046
-668.062	158.334	-0.142	-0.199
-667.047	-200.000	-0.013	0.130
-666.032	-136.996	-0.372	-0.043
-665.018	174.176	0.076	0.111
-664.003	800.000	-0.058	-0.174
-662.989	224.152	-0.032	-0.052
-661.974	-3.820	0.186	-0.130
-660.959	-200.000	-0.010	-0.475
-659.945	-59.016	0.272	0.119
-658.930	800.000	0.060	0.219
-657.916	-49.724	-0.237	-0.114
-656.901	800.000	-0.053	-0.164
-655.886	87.615	-0.200	-0.223
-654.872	-34.504	0.114	-0.063
-653.857	-200.000	0.021	0.103
-652.843	-46.959	-0.049	-0.024
-651.828	800.000	0.073	0.267
-650.814	79.752	0.155	0.168
-649.799	-81.706	-0.155	-0.051
-648.784	-102.622	0.035	0.008
-647.770	-200.000	-0.005	-0.403
-646.755	-200.000	0.003	0.124
-645.741	82.227	-0.267	-0.292
-644.726	-54.849	-0.171	-0.078
-643.711	-200.000	0.001	0.263
-642.697	63.771	0.150	-0.152
-641.682	52.021	-0.158	-0.152
-640.668	-47.244	-0.426	0.209
-639.653	414.882	0.072	0.154
-638.638	36.826	-0.080	0.071
-637.624	385.374	0.022	-0.045
-636.609	11.719	-0.101	-0.078
-635.595	57.408	0.143	-0.141
-634.580	58.839	-0.069	-0.069
-633.565	-200.000	0.042	-0.298
-632.551	-119.461	0.207	-0.036
-631.536	85.749	-0.035	-0.039
-630.522	-200.000	0.041	0.209
-629.507	-103.470	-0.228	-0.054
-628.492	465.528	-0.076	-0.171
-627.478	-82.417	0.235	-0.077
-626.463	800.000	0.063	-0.228
-625.449	-200.000	0.044	-0.307
-624.434	-28.052	-0.114	0.067
-623.419	9.327	0.203	0.154
-622.405	800.000	0.042	0.122
-621.390	-200.000	-0.053	-0.247
-620.376	30.507	0.395	-0.340
-619.361	-10.895	-0.080	0.053
-618.346	-102.361	-0.460	0.111
-617.332	60.937	0.203	0.203
-616.317	-149.849	0.198	0.016
-615.303	318.959	0.144	0.275
-614.288	15.391	-0.350	-0.277
-613.273	73.192	0.053	0.056
-612.259	-139.679	-0.368	0.039
-611.244	97.647	0.269	0.312
-610.230	202.457	0.111	-0.173
-609.215	-145.539	0.303	-0.027
-608.201	-200.000	0.003	-0.035
-607.186	800.000	0.075	0.280
-606.171	60.609	0.094	-0.094
-605.157	-200.000	-0.005	0.055
-604.142	-32.887	0.098	-0.055
-603.128	-0.583	0.201	0.144
-602.113	-155.324	0.221	-0.014
-601.098	-131.701	-0.204	0.027
-600.084	-82.284	0.238	-0.078
-599.069	-92.577	0.300	0.085
-598.055	13.286	-0.413	0.322
-597.040	122.078	-0.158	0.198
-596.025	-71.037	0.388	0.147
-595.011	-0.602	-0.276	-0.197
-593.996	800.000	-0.034	0.097
-592.982	112.533	-0.186	-0.227
-591.967	96.350	0.056	0.064
-590.952	-18.153	0.121	-0.076
-589.938	800.000	-0.038	0.134
-588.923	-15.502	-0.257	-0.165
-587.909	-13.397	-0.166	0.108
-586.894	-50.587	0.247	0.117
-585.879	227.047	0.207	0.338
-584.865	-7.772	-0.270	0.184
-583.850	800.000	-0.033	-0.138
-582.836	-63.131	0.140	0.058
-581.821	42.441	0.125	-0.114
-580.806	140.950	-0.313	0.417
-579.792	47.061	-0.213	0.199
-578.777	282.164	0.084	0.152
-577.763	601.852	-0.097	0.243
-576.748	-200.000	0.038	-0.337
-575.733	45.589	-0.181	0.169
-574.719	800.000	-0.036	-0.101
-573.704	8.456	0.086	0.065
-572.690	23.887	0.049	0.040
-571.675	138.361	-0.123	-0.162
-570.661	800.000	-0.081	0.287
-569.646	-34.681	0.207	-0.114
-568.631	20.457	0.074	-0.060
-567.617	475.931	-0.026	0.059
-566.602	-200.000	-0.009	0.146
-565.588	-132.136	0.401	-0.052
-564.573	-89.214	0.413	0.123
-563.558	695.080	-0.109	0.288
-562.544	800.000	-0.038	0.148
-561.529	-129.446	-0.037	0.005
-560.515	0.860	-0.020	0.014
-559.500	-173.093	-0.243	0.008
-558.485	-200.000	-0.068	-0.364
-557.471	144.009	-0.166	-0.222
-556.456	720.389	-0.064	0.172
-555.442	-153.772	-0.154	0.011
-554.427	55.024	0.230	-0.223
-553.412	800.000	-0.102	-0.302
-552.398	-170.811	-0.212	0.007
-551.383	15.491	-0.209	0.165
-550.369	800.000	0.114	-0.319
-549.354	50.142	0.208	0.197
-548.339	-26.894	-0.071	-0.042
-547.325	177.658	0.130	0.190
-546.310	293.772	0.069	0.127
-545.296	-200.000	0.037	0.188
-544.281	-86.990	-0.169	0.052
-543.266	-123.897	-0.125	0.020
-542.252	73.395	0.441	0.464
-541.237	-9.299	0.044	-0.029
-540.223	82.122	-0.247	-0.269
-539.208	-12.069	0.156	0.103
-538.193	21.558	0.093	0.076
-537.179	-200.000	0.004	-0.047
-536.164	-117.871	-0.261	-0.047
-535.150	219.980	0.130	0.209
-534.135	-200.000	0.012	-0.111
-533.121	62.317	-0.053	0.053
-532.106	-30.962	-0.199	0.113
-531.091	18.183	0.059	-0.047
-530.077	-200.000	-0.037	-0.403
-529.062	-113.565	0.150	0.029
-528.048	135.885	0.243	0.318
-527.033	-136.739	-0.462	-0.054
-526.018	-152.007	-0.502	-0.037
-525.004	90.930	0.182	-0.205
-523.989	-200.000	0.078	-0.352
-522.975	-158.889	-0.204	0.012
-521.960	618.732	0.089	-0.225
-520.945	-90.452	-0.190	-0.055
-519.931	35.194	-0.094	0.083
-518.916	-51.281	-0.388	-0.182
-517.902	-137.190	-0.048	-0.005
-516.887	-36.102	0.188	0.102
-515.872	377.692	0.067	-0.137
-514.858	-200.000	0.028	0.264
-513.843	234.087	0.085	-0.141
-512.829	86.390	-0.159	0.176
-511.814	68.754	0.116	-0.119
-510.799	-52.062	-0.236	-0.110
-509.785	-200.000	0.028	0.239
-508.770	-200.000	-0.114	0.000
-507.756	-140.367	-0.273	0.029
-506.741	-200.000	-0.015	0.192
-505.726	106.831	0.020	0.023
-504.712	4.494	-0.087	0.064
-503.697	800.000	0.065	-0.275
-502.683	-21.969	0.279	-0.170
-501.668	-159.955	-0.121	-0.007
-500.653	-54.873	-0.298	0.135
-499.639	17.103	0.111	0.088
-498.624	294.305	0.211	0.386
-497.610	-116.769	-0.118	-0.022
-496.595	23.716	0.239	0.198
-495.581	-66.462	0.185	-0.074
-494.566	-200.000	0.002	-0.050
-493.551	800.000	-0.031	0.117
-492.537	-23.457	0.033	-0.020
-491.522	800.000	0.025	-0.083
-490.508	-63.876	0.213	0.087
-489.493	-146.011	0.294	-0.026
-488.478	-200.000	-0.052	-0.257
-487.464	47.476	-0.050	0.046
-486.449	-21.120	-0.222	0.136
-485.435	485.718	0.041	0.094
-484.420	-105.305	-0.227	0.052
-483.405	110.040	0.078	0.094
-482.391	-200.000	-0.049	-0.324
-481.376	800.000	0.009	-0.034
-480.362	-168.103	0.082	-0.003
-479.347	48.535	-0.102	0.096
-478.332	-200.000	-0.073	0.431
-477.318	-11.449	-0.317	0.209
-476.303	-81.991	0.261	-0.086
-475.289	-157.519	-0.076	-0.005
-474.274	-108.470	0.184	0.040
-473.259	-200.000	-0.025	0.120
-472.245	-181.617	0.294	-0.006
-471.230	-120.322	-0.344	0.059
-470.216	-31.574	0.061	-0.034
-469.201	29.037	-0.175	0.149
-468.186	-86.258	0.283	0.087
-467.172	-64.061	0.351	0.144
-466.157	-21.894	-0.354	0.215
-465.143	-13.223	-0.069	0.045
-464.128	-125.069	0.146	0.023
-463.113	-200.000	0.017	-0.186
-462.099	-20.212	-0.174	0.107
-461.084	13.450	-0.316	0.246
-460.070	800.000	-0.041	0.116
-459.055	-134.033	0.224	-0.028
-458.040	49.294	0.018	0.017
-457.026	-200.000	0.019	0.320
-456.011	65.090	-0.317	0.321
-454.997	-29.655	0.213	0.122
-453.982	-114.478	0.254	-0.049
-452.968	354.226	0.152	-0.303
-451.953	-21.414	-0.190	0.116
-450.938	-66.006	-0.118	-0.047
-449.924	-106.809	-0.162	0.036
-448.909	42.516	0.100	0.091
-447.895	-61.553	-0.115	0.048
-446.880	107.410	-0.116	0.138
-445.865	150.380	0.202	-0.275
-444.851	-174.377	0.204	-0.006
-443.836	-155.582	0.266	0.017
-442.822	-13.980	0.222	-0.144
-441.807	-200.000	-0.008	-0.136
-440.792	800.000	-0.017	0.063
-439.778	-1.054	-0.439	0.311
-438.763	44.006	0.110	-0.101
-437.749	-200.000	0.019	-0.091
-436.734	-105.774	-0.097	-0.022
-435.719	-22.061	-0.195	0.118
-434.705	136.979	-0.017	-0.023
-433.690	31.523	0.197	-0.169
-432.676	495.935	0.090	-0.207
-431.661	-200.000	-0.021	-0.117
-430.646	105.315	0.184	0.217
-429.632	-114.808	0.184	0.035
-428.617	800.000	0.042	-0.138
-427.603	-200.000	0.014	-0.248
-426.588	-75.399	-0.181	0.064
-425.573	-88.065	0.237	0.071
-424.559	-47.905	0.343	-0.166
-423.544	108.286	0.092	0.110
-422.530	-64.934	-0.083	0.034
-421.515	162.347	0.238	0.334
-420.500	-0.275	0.205	0.146
-419.486	-200.000	0.015	0.318
-418.471	-42.855	-0.087	0.044
-417.457	21.907	0.325	0.265
-416.442	-17.944	0.207	-0.130
-415.428	-199.612	-0.101	-0.001
-414.413	404.458	0.086	-0.181
-413.398	-200.000	0.073	-0.427
-412.384	-96.442	0.093	-0.025
-411.369	-118.734	-0.338	-0.060
-410.355	-200.000	0.081	0.385
-409.340	142.553	-0.067	0.089
-408.325	-141.885	-0.315	-0.031
-407.311	282.364	-0.037	0.066
-406.296	-200.000	-0.007	-0.172
-405.282	-137.486	-0.114	-0.013
-404.267	-53.756	-0.215	-0.098
-403.252	455.062	-0.242	-0.537
-402.238	-90.572	0.080	0.023
-401.223	800.000	0.077	0.297
-400.209	800.000	0.048	0.190
-399.194	36.424	-0.284	-0.250
-398.179	241.092	0.134	-0.223
-397.165	-4.148	-0.202	-0.140
-396.150	800.000	0.052	0.193
-395.136	-11.625	-0.106	-0.070
-394.121	-106.498	-0.103	0.023
-393.106	-103.439	-0.220	-0.052
-392.092	176.000	-0.073	0.105
-391.077	-91.721	0.217	0.062
-390.063	218.188	-0.030	-0.048
-389.048	106.699	-0.103	-0.122
-388.033	105.251	-0.146	-0.172
-387.019	32.707	-0.047	-0.041
-386.004	-65.041	-0.298	-0.120
-384.990	-200.000	-0.018	0.219
-383.975	-97.980	-0.280	0.072
-382.960	-200.000	0.007	0.069
-381.946	-35.002	0.299	0.163
-380.931	-200.000	-0.045	-0.407
-379.917	800.000	-0.095	-0.284
-378.902	187.092	0.038	-0.057
-377.888	484.435	-0.084	0.191
-376.873	-8.305	-0.154	-0.104
-375.858	1.913	0.264	0.190
-374.844	380.437	-0.067	-0.137
-373.829	272.085	-0.146	0.257
-372.815	-200.000	0.013	0.104
-371.800	-54.561	-0.301	-0.136
-370.785	57.882	0.098	-0.096
-369.771	-200.000	0.027	-0.513
-368.756	204.580	0.144	-0.223
-367.742	800.000	-0.065	0.214
-366.727	800.000	0.067	0.245
-365.712	-106.304	0.363	-0.081
-364.698	-193.535	0.060	-0.001
-363.683	800.000	-0.026	-0.104
-362.669	240.141	0.137	-0.227
-361.654	-200.000	-0.055	-0.281
-360.639	-200.000	0.035	-0.188
-359.625	175.932	-0.132	-0.191
-358.610	87.711	0.041	0.045
-357.596	177.899	-0.036	-0.052
-356.581	161.803	-0.226	-0.316
-355.566	290.614	-0.021	0.039
-354.552	190.101	-0.045	0.068
-353.537	-45.168	-0.155	-0.077
-352.523	800.000	-0.039	0.125
-351.508	-116.226	-0.154	0.029
-350.493	-5.431	0.131	-0.090
-349.479	-55.121	-0.209	0.094
-348.464	-200.000	0.043	-0.340
-347.450	-200.000	0.003	0.339
-346.435	-172.479	0.204	0.006
-345.420	4.609	-0.161	0.118
-344.406	-158.383	0.099	-0.006
-343.391	800.000	0.084	-0.292
-342.377	800.000	-0.047	-0.131
-341.362	-42.667	-0.164	0.083
-340.348	-200.000	0.030	-0.455
-339.333	800.000	0.012	-0.047
-338.318	20.690	-0.299	-0.241
-337.304	234.950	-0.113	-0.186
-336.289	-159.835	0.213	0.012
-335.275	-200.000	-0.049	-0.279
-334.260	633.701	-0.059	-0.148
-333.245	73.535	-0.144	-0.151
-332.231	-96.752	-0.075	0.020
-331.216	200.018	-0.031	0.047
-330.202	-49.913	-0.216	-0.102
-329.187	-16.943	-0.085	0.053
-328.172	800.000	-0.109	-0.381
-327.158	49.595	0.079	0.074
-326.143	183.308	0.026	0.038
-325.129	-92.547	0.079	-0.022
-324.114	734.097	-0.031	-0.082
-323.099	-200.000	-0.014	0.101
-322.085	-131.361	0.157	-0.021
-321.070	800.000	0.092	0.258
-320.056	279.333	0.157	0.280
-319.041	-43.388	0.111	-0.056
-318.026	-200.000	0.047	0.214
-317.012	-59.960	-0.220	-0.094
-315.997	800.000	0.027	-0.098
-314.983	161.047	-0.092	-0.128
-313.968	-72.423	-0.044	-0.016
-312.953	366.223	-0.149	-0.299
-311.939	57.189	-0.068	0.066
-310.924	288.805	-0.138	-0.249
-309.910	-36.033	-0.183	-0.099
-308.895	-200.000	-0.004	0.048
-307.880	149.082	0.117	-0.158
-306.866	272.477	-0.055	0.097
-305.851	540.990	0.181	0.428
-304.837	23.643	0.305	0.250
-303.822	0.177	0.007	-0.005
-302.807	306.314	0.141	-0.261
-301.793	145.946	-0.225	0.301
-300.778	-153.434	0.069	0.005
-299.764	-31.628	0.228	-0.127
-298.749	-200.000	-0.019	0.118
-297.735	34.014	0.245	-0.212
-296.720	-200.000	0.014	-0.149
-295.705	-113.644	0.253	0.049
-294.691	-0.308	-0.156	-0.110
-293.676	800.000	0.043	-0.165
-292.662	-14.487	0.259	0.166
-291.647	-24.906	-0.224	0.132
-290.632	-22.222	-0.120	-0.072
-289.618	115.017	-0.071	-0.087
-288.603	164.351	-0.080	0.113
-287.589	-10.180	-0.062	-0.041
-286.574	515.723	-0.027	-0.064
-285.559	-66.740	-0.129	0.051
-284.545	285.211	0.146	-0.261
-283.530	-200.000	0.005	0.067
-282.516	16.576	-0.210	-0.165
-281.501	-68.057	-0.245	0.095
-280.486	-200.000	-0.005	0.026
-279.472	-49.971	0.262	0.124
-278.457	-200.000	0.039	0.186
-277.443	-80.343	-0.204	0.068
-276.428	60.439	-0.266	-0.262
-275.413	-200.000	0.020	0.097
-274.399	-51.572	-0.327	0.152
-273.384	-117.467	-0.025	-0.005
-272.370	-200.000	0.008	-0.042
-271.355	-200.000	-0.026	-0.280
-270.340	-200.000	-0.021	-0.190
-269.326	-200.000	-0.028	0.333
-268.311	269.542	0.038	0.067
-267.297	-200.000	0.078	0.350
-266.282	-55.099	-0.188	-0.084
-265.267	-140.466	0.206	0.021
-264.253	-128.787	-0.213	-0.030
-263.238	-41.753	0.299	-0.153
-262.224	-153.569	0.055	0.004
-261.209	-200.000	0.009	0.058
-260.195	-7.167	0.234	-0.158
-259.180	226.680	0.253	0.408
-258.165	-83.407	-0.300	0.096
-257.151	-152.840	-0.311	0.022
-256.136	-3.342	-0.083	0.057
-255.122	-185.086	0.215	-0.003
-254.107	104.120	0.077	0.090
-253.092	3.360	-0.256	-0.186
-252.078	-24.667	0.221	-0.131
-251.063	-200.000	0.018	-0.255
-250.049	61.069	0.283	0.279
-249.034	800.000	-0.069	-0.193
-248.019	-56.896	0.146	0.064
-247.005	-135.553	-0.107	0.013
-245.990	-180.059	0.474	0.010
-244.976	-8.026	0.069	0.046
-243.961	-11.764	0.173	-0.113
-242.946	-200.000	0.029	0.136
-241.932	-9.075	-0.322	0.214
-240.917	-16.410	-0.246	-0.155
-239.903	85.980	-0.063	0.069
-238.888	-26.902	0.202	0.117
-237.873	39.020	0.073	-0.065
-236.859	800.000	0.051	-0.188
-235.844	487.172	-0.123	0.278
-234.830	-200.000	0.002	0.177
-233.815	152.104	-0.292	-0.395
-232.800	-49.084	0.250	-0.119
-231.786	-5.620	0.111	0.076
-230.771	-62.990	0.105	0.043
-229.757	133.549	-0.061	0.078
-228.742	218.378	0.046	-0.074
-227.727	90.000	0.092	-0.102
-226.713	-36.111	-0.278	0.149
-225.698	113.808	0.033	0.040
-224.684	202.395	-0.295	-0.452
-223.669	800.000	-0.067	-0.233
-222.655	-108.874	0.132	-0.028
-221.640	645.405	-0.108	0.274
-220.625	66.133	-0.140	-0.141
-219.611	147.410	0.061	0.081
-218.596	-11.675	0.102	0.067
-217.582	249.277	-0.107	-0.179
-216.567	-110.789	0.122	0.025
-215.552	78.840	0.210	0.223
-214.538	419.223	-0.089	0.188
-213.523	-105.154	0.083	0.019
-212.509	42.667	0.134	-0.121
-211.494	172.715	0.129	-0.185
-210.479	20.738	0.446	-0.358
-209.465	-87.427	0.582	0.175
-208.450	170.879	0.070	-0.100
-207.436	70.613	-0.103	0.106
-206.421	258.959	-0.312	0.534
-205.406	-69.109	0.385	0.147
-204.392	800.000	0.085	-0.346
-203.377	-79.147	-0.071	0.024
-202.363	309.038	-0.040	-0.074
-201.348	-67.160	0.174	-0.068
-200.333	-42.605	-0.067	-0.034
-199.319	-124.632	0.238	-0.037
-198.304	158.218	-0.231	0.318
-197.290	-200.000	0.015	-0.265
-196.275	581.142	0.080	-0.195
-195.260	87.801	-0.202	0.222
-194.246	-117.116	0.433	-0.078
-193.231	374.187	-0.067	0.134
-192.217	800.000	0.014	-0.043
-191.202	-98.143	-0.098	0.025
-190.187	-60.593	0.293	0.123
-189.173	73.052	0.092	0.095
-188.158	-66.339	0.128	0.050
-187.144	800.000	0.070	0.277
-186.129	-200.000	0.013	0.320
-185.114	-200.000	0.001	0.277
-184.100	179.187	-0.086	0.125
-183.085	-200.000	-0.014	-0.223
-182.071	-200.000	0.410	0.001
-181.056	25.803	-0.281	-0.232
-180.042	-93.962	0.320	-0.087
-179.027	0.656	0.136	0.096
-178.012	112.708	-0.183	-0.219
-176.998	-66.958	0.138	-0.054
-175.983	-64.766	0.236	-0.095
-174.969	-146.581	-0.272	-0.023
-173.954	614.297	0.061	-0.150
-172.939	-139.372	-0.119	0.013
-171.925	-131.124	-0.217	-0.029
-170.910	800.000	0.036	-0.113
-169.896	800.000	-0.054	-0.216
-168.881	-98.961	0.273	0.069
-167.866	-200.000	-0.014	0.233
-166.852	66.556	-0.275	0.277
-165.837	157.021	-0.042	-0.058
-164.823	340.912	0.111	-0.215
-163.808	-53.076	-0.364	0.166
-162.793	-101.261	-0.096	0.023
-161.779	121.426	0.194	0.239
-160.764	450.454	-0.098	0.214
-159.750	-50.384	0.201	0.094
-158.735	79.467	0.095	-0.101
-157.720	487.185	-0.063	0.142
-156.706	309.968	-0.063	0.117
-155.691	758.963	-0.121	-0.323
-154.677	428.171	0.091	0.194
-153.662	589.738	0.044	-0.106
-152.647	-178.143	0.265	-0.006
-151.633	800.000	0.053	-0.177
-150.618	800.000	0.053	-0.190
-149.604	97.887	0.065	-0.074
-148.589	220.496	0.151	-0.240
-147.574	-200.000	-0.017	-0.137
-146.560	-74.743	-0.449	0.160
-145.545	-35.820	0.202	0.108
-144.531	172.488	-0.154	-0.219
-143.516	338.369	0.150	0.289
-142.502	361.216	-0.165	0.327
-141.487	-200.000	-0.002	0.236
-140.472	369.704	-0.030	-0.060
-139.458	-200.000	-0.054	-0.411
-138.443	-106.220	0.145	0.032
-137.429	-200.000	0.022	-0.159
-136.414	800.000	0.042	-0.119
-135.399	800.000	0.098	0.306
-134.385	-132.310	0.173	-0.022
-133.370	-23.077	-0.165	-0.098
-132.356	31.843	-0.189	-0.161
-131.341	170.384	-0.081	-0.115
-130.326	107.458	-0.078	0.092
-129.312	250.685	0.095	-0.160
-128.297	-39.923	-0.250	0.129
-127.283	-0.688	0.265	-0.186
-126.268	-200.000	0.033	-0.259
-125.253	23.895	0.141	-0.115
-124.239	-148.091	0.128	-0.011
-123.224	800.000	0.071	-0.243
-122.210	-66.198	-0.207	-0.081
-121.195	-200.000	0.008	-0.054
