DTS Sentinel unit serial number:	SN413079Multiplexer serial number:	ORYXHardware model number:	OX4-SRSoftware version number:	ORYX F/W v4.00 Oryx Data Collector v3.7.2.0data status	okinstallation	princeton_trtdifferential loss correction	single-endedforward channel	channel 2reverse channel	N/Adate	2019/09/17time	03:59:35forward acquisition time	60.00reverse acquisition time	0.00gamma	496.2192k internal	0.2327k external	0.2327temperature offset calibration	0.9975default loss term (dB/km)	0.3790temperature slope calibration	1.0000multiplexer offset coefficient	1.0000multiplexer slope coefficient	1.0000fibre end	0.00T internal ref (°C)	29.89T ext. ref 1 (°C)	0.14T ext. ref 2 (°C)	24.40length (m)	temperature (°C)	Stokes	anti-Stokes-747.200	-15.827	0.297	0.191
-746.185	-36.144	0.103	-0.056
-745.171	-34.328	-0.065	-0.036
-744.156	146.482	-0.101	0.137
-743.142	123.767	0.324	0.411
-742.127	39.000	-0.285	0.257
-741.112	-200.000	-0.054	0.393
-740.098	800.000	-0.150	0.493
-739.083	-200.000	0.034	-0.211
-738.069	235.092	-0.133	0.221
-737.054	504.327	-0.063	-0.146
-736.039	-33.983	-0.286	0.159
-735.025	-113.434	0.171	-0.034
-734.010	425.535	0.214	-0.465
-732.996	104.037	0.124	0.146
-731.981	412.772	-0.122	0.262
-730.966	42.013	-0.210	0.192
-729.952	-170.765	-0.076	0.003
-728.937	-69.774	-0.316	-0.122
-727.923	-185.048	-0.171	-0.003
-726.908	800.000	0.050	-0.200
-725.894	-200.000	0.027	0.124
-724.879	272.250	0.101	-0.180
-723.864	19.836	0.206	0.167
-722.850	-137.185	-0.208	0.024
-721.835	-200.000	0.034	-0.205
-720.821	-108.958	0.351	0.075
-719.806	137.346	0.092	-0.121
-718.791	800.000	-0.090	-0.258
-717.777	287.281	0.093	0.170
-716.762	-18.501	0.161	0.101
-715.748	281.781	-0.028	-0.050
-714.733	-1.940	0.042	0.030
-713.718	14.337	-0.132	0.103
-712.704	75.871	-0.158	0.169
-711.689	-200.000	-0.368	-0.002
-710.675	-34.194	-0.157	-0.087
-709.660	800.000	0.050	-0.152
-708.645	800.000	-0.033	-0.094
-707.631	-148.891	0.444	-0.036
-706.616	800.000	0.057	-0.199
-705.602	180.594	-0.109	-0.161
-704.587	800.000	0.041	0.123
-703.572	-147.266	0.040	-0.003
-702.558	-60.539	-0.135	0.058
-701.543	-146.609	0.099	-0.009
-700.529	-102.834	-0.206	-0.049
-699.514	136.176	0.088	0.115
-698.499	93.969	0.110	0.126
-697.485	179.326	0.210	-0.309
-696.470	-200.000	0.021	-0.155
-695.456	-200.000	0.034	0.352
-694.441	-129.069	0.179	-0.025
-693.426	-80.269	-0.068	-0.023
-692.412	156.655	0.048	0.067
-691.397	-76.608	0.089	0.031
-690.383	-41.820	-0.333	0.172
-689.368	-117.192	0.377	0.069
-688.354	800.000	-0.080	-0.284
-687.339	-200.000	0.022	-0.118
-686.324	-60.425	0.184	0.079
-685.310	-200.000	0.013	0.129
-684.295	-80.727	-0.301	-0.101
-683.281	-3.597	0.261	0.183
-682.266	-88.023	-0.134	0.040
-681.251	407.746	-0.090	-0.191
-680.237	753.309	-0.106	-0.289
-679.222	254.560	0.062	-0.107
-678.208	-200.000	-0.028	0.133
-677.193	47.483	-0.189	0.177
-676.178	-65.379	-0.221	-0.090
-675.164	67.270	0.219	0.225
-674.149	-200.000	-0.015	0.382
-673.135	-200.000	-0.025	0.193
-672.120	-54.350	-0.280	0.128
-671.105	-116.118	-0.178	0.033
-670.091	318.637	0.177	0.338
-669.076	-89.581	0.087	0.026
-668.062	11.366	-0.173	-0.133
-667.047	-200.000	0.028	-0.168
-666.032	746.414	-0.035	-0.095
-665.018	-73.491	-0.160	-0.059
-664.003	-103.319	0.183	-0.043
-662.989	48.467	-0.042	0.040
-661.974	-33.573	-0.112	0.062
-660.959	255.420	-0.102	-0.176
-659.945	50.377	-0.104	-0.099
-658.930	94.434	-0.165	0.188
-657.916	-140.493	-0.116	-0.012
-656.901	128.148	-0.206	0.264
-655.886	-200.000	0.016	-0.150
-654.872	-24.892	0.171	-0.102
-653.857	-144.550	0.241	-0.022
-652.843	-200.000	-0.029	0.226
-651.828	-49.687	-0.369	-0.176
-650.814	644.101	0.006	-0.015
-649.799	800.000	-0.048	-0.152
-648.784	-65.006	0.051	-0.021
-647.770	424.200	0.174	-0.376
-646.755	-200.000	-0.021	-0.258
-645.741	53.840	0.322	0.310
-644.726	800.000	-0.020	0.077
-643.711	108.485	-0.033	0.039
-642.697	19.565	0.029	-0.023
-641.682	-200.000	0.015	-0.110
-640.668	-200.000	0.009	-0.151
-639.653	135.253	-0.077	-0.101
-638.638	-63.488	-0.276	-0.114
-637.624	-130.450	-0.153	-0.021
-636.609	-175.710	-0.130	0.004
-635.595	88.306	-0.222	0.248
-634.580	-77.583	-0.343	0.119
-633.565	71.563	-0.254	0.264
-632.551	-5.481	-0.140	0.097
-631.536	-59.566	-0.140	0.060
-630.522	-83.521	-0.041	0.013
-629.507	-9.826	-0.082	0.055
-628.492	45.099	0.260	-0.240
-627.478	-164.367	-0.161	-0.007
-626.463	602.791	0.053	0.133
-625.449	455.450	0.099	0.219
-624.434	-71.367	-0.202	-0.076
-623.419	494.836	-0.153	0.354
-622.405	392.646	0.158	0.329
-621.390	-59.824	0.041	-0.018
-620.376	800.000	0.053	0.149
-619.361	-200.000	-0.029	-0.150
-618.346	-94.663	-0.093	-0.025
-617.332	-144.261	-0.139	-0.013
-616.317	61.949	-0.132	-0.132
-615.303	-102.745	-0.291	0.070
-614.288	-49.794	-0.114	-0.054
-613.273	-200.000	-0.001	0.099
-612.259	-200.000	0.024	0.414
-611.244	181.292	0.117	-0.172
-610.230	49.494	-0.177	0.167
-609.215	-200.000	0.047	-0.212
-608.201	-47.727	-0.553	-0.269
-607.186	135.594	0.110	-0.144
-606.171	-108.422	-0.413	-0.089
-605.157	207.289	-0.068	-0.106
-604.142	800.000	0.082	0.262
-603.128	206.576	-0.021	0.033
-602.113	-104.007	-0.263	0.062
-601.098	-130.672	0.129	-0.017
-600.084	800.000	-0.015	0.060
-599.069	-107.797	-0.451	-0.098
-598.055	-89.884	-0.226	0.066
-597.040	-77.450	0.052	0.018
-596.025	-200.000	-0.028	-0.126
-595.011	-7.675	-0.157	0.106
-593.996	327.273	-0.138	-0.265
-592.982	508.449	0.062	0.144
-591.967	800.000	-0.074	-0.270
-590.952	-180.904	0.375	0.008
-589.938	-109.441	0.335	0.071
-588.923	-200.000	-0.020	0.124
-587.909	-118.193	0.323	0.058
-586.894	800.000	-0.024	-0.079
-585.879	314.518	0.088	-0.167
-584.865	314.259	-0.119	-0.225
-583.850	10.032	-0.122	0.093
-582.836	-36.727	-0.377	-0.203
-581.821	-200.000	0.020	-0.176
-580.806	455.786	0.053	-0.117
-579.792	-153.012	0.223	-0.016
-578.777	-146.540	-0.429	0.037
-577.763	-112.853	0.257	0.051
-576.748	-81.165	-0.076	0.025
-575.733	-83.562	-0.161	0.052
-574.719	-12.517	0.180	-0.118
-573.704	-33.457	-0.232	-0.129
-572.690	66.198	-0.201	-0.204
-571.675	-154.004	-0.294	-0.020
-570.661	364.880	-0.039	0.078
-569.646	65.578	-0.215	0.218
-568.631	368.003	0.080	-0.161
-567.617	-67.709	0.102	0.040
-566.602	-80.784	-0.034	0.011
-565.588	254.511	0.117	0.200
-564.573	-107.760	0.088	-0.019
-563.558	800.000	0.121	0.354
-562.544	-200.000	-0.040	-0.228
-561.529	488.997	0.119	-0.272
-560.515	-101.698	-0.109	0.027
-559.500	800.000	-0.084	-0.266
-558.485	-113.740	-0.194	0.038
-557.471	66.500	0.185	0.189
-556.456	-14.614	0.210	-0.135
-555.442	314.082	0.153	-0.289
-554.427	-88.292	0.090	-0.027
-553.412	-158.835	0.376	0.021
-552.398	2.633	-0.281	-0.204
-551.383	-200.000	-0.024	0.138
-550.369	-66.072	-0.271	-0.108
-549.354	80.476	0.147	0.158
-548.339	-61.631	-0.063	0.026
-547.325	93.878	-0.161	-0.183
-546.310	-55.117	0.097	0.043
-545.296	-23.903	0.224	0.134
-544.281	-137.191	-0.257	-0.029
-543.266	-200.000	-0.025	0.206
-542.252	-68.350	-0.437	0.170
-541.237	-53.932	0.383	0.174
-540.223	332.127	0.046	-0.088
-539.208	-99.928	-0.305	-0.076
-538.193	-200.000	-0.022	0.233
-537.179	-200.000	-0.006	-0.029
-536.164	51.147	0.209	-0.199
-535.150	-157.246	-0.278	0.017
-534.135	1.356	0.196	0.141
-533.121	-55.792	0.365	0.163
-532.106	-13.949	0.083	-0.053
-531.091	124.291	0.059	0.075
-530.077	-43.074	0.249	0.126
-529.062	76.631	-0.129	0.136
-528.048	-200.000	0.020	0.132
-527.033	206.482	-0.325	-0.507
-526.018	-102.499	0.132	0.031
-525.004	103.107	-0.092	-0.108
-523.989	-67.495	-0.330	-0.129
-522.975	800.000	-0.068	0.193
-521.960	-83.511	0.142	-0.046
-520.945	-42.889	0.202	0.103
-519.931	569.628	-0.035	-0.086
-518.916	155.402	0.059	-0.082
-517.902	13.511	-0.114	-0.088
-516.887	-109.904	0.022	0.005
-515.872	800.000	0.017	0.053
-514.858	-50.388	0.236	-0.111
-513.843	-200.000	-0.006	-0.104
-512.829	186.978	0.135	0.201
-511.814	-4.614	-0.150	0.104
-510.799	800.000	-0.074	-0.281
-509.785	19.413	-0.035	-0.028
-508.770	85.752	0.117	-0.128
-507.756	-148.429	0.155	-0.013
-506.741	20.473	-0.319	-0.257
-505.726	-81.390	-0.076	-0.025
-504.712	46.158	0.282	0.261
-503.697	80.331	-0.253	0.272
-502.683	66.990	-0.029	0.029
-501.668	94.894	0.089	-0.101
-500.653	-17.479	0.081	-0.051
-499.639	101.878	0.270	-0.314
-498.624	800.000	0.018	0.051
-497.610	-43.370	-0.157	0.079
-496.595	-188.010	0.325	-0.004
-495.581	146.944	-0.050	0.067
-494.566	102.136	-0.138	-0.161
-493.551	-29.915	0.379	0.216
-492.537	385.906	0.103	-0.211
-491.522	-69.064	0.165	-0.064
-490.508	-200.000	0.022	-0.206
-489.493	251.730	0.117	0.200
-488.478	260.423	0.168	0.289
-487.464	-71.412	-0.328	-0.123
-486.449	34.420	-0.113	-0.099
-485.435	278.641	0.113	-0.201
-484.420	102.513	-0.096	-0.112
-483.405	22.291	0.285	-0.232
-482.391	55.653	0.152	0.147
-481.376	-200.000	0.023	-0.218
-480.362	-154.372	-0.222	-0.015
-479.347	-175.224	0.118	-0.003
-478.332	-45.860	-0.222	0.109
-477.318	-0.798	0.196	0.139
-476.303	51.212	-0.179	-0.169
-475.289	50.894	0.223	0.210
-474.274	-200.000	-0.044	-0.251
-473.259	55.067	-0.375	-0.361
-472.245	-200.000	0.009	-0.187
-471.230	70.088	-0.270	0.278
-470.216	5.066	-0.129	-0.095
-469.201	368.556	0.216	0.436
-468.186	-70.979	0.254	0.095
-467.172	-116.973	-0.273	0.050
-466.157	-56.812	-0.216	-0.095
-465.143	384.656	0.107	0.220
-464.128	74.017	-0.378	0.395
-463.113	-18.827	0.452	0.281
-462.099	-200.000	-0.005	0.061
-461.084	-95.343	0.230	0.062
-460.070	-200.000	0.020	-0.159
-459.055	-16.478	-0.255	-0.161
-458.040	229.482	-0.214	-0.349
-457.026	-111.006	0.101	-0.021
-456.011	-200.000	-0.058	0.337
-454.997	-113.365	0.299	0.059
-453.982	109.127	-0.214	-0.255
-452.968	-109.224	0.251	0.053
-451.953	-124.081	-0.143	-0.022
-450.938	297.948	-0.100	-0.183
-449.924	-146.411	-0.082	-0.007
-448.909	88.798	0.063	0.070
-447.895	-200.000	-0.026	-0.160
-446.880	-200.000	-0.017	-0.159
-445.865	800.000	0.075	-0.238
-444.851	38.585	0.176	-0.157
-443.836	-56.418	0.164	-0.072
-442.822	189.495	-0.129	0.192
-441.807	272.011	-0.061	-0.108
-440.792	-200.000	0.001	-0.459
-439.778	68.416	0.181	0.185
-438.763	-100.005	-0.213	0.053
-437.749	-200.000	-0.033	0.302
-436.734	252.051	0.027	-0.045
-435.719	-200.000	0.042	-0.221
-434.705	46.564	0.218	0.202
-433.690	-50.837	0.427	0.200
-432.676	129.257	-0.060	-0.077
-431.661	-153.450	-0.552	-0.038
-430.646	593.175	0.070	-0.172
-429.632	460.104	0.063	-0.140
-428.617	-111.244	0.079	0.016
-427.603	-40.732	-0.275	-0.142
-426.588	-13.916	0.080	0.052
-425.573	-6.351	0.138	-0.094
-424.559	312.006	0.149	-0.279
-423.544	-200.000	0.064	0.297
-422.530	2.754	-0.125	-0.090
-421.515	-13.239	-0.072	0.047
-420.500	63.082	0.102	0.102
-419.486	511.945	-0.027	0.063
-418.471	74.192	-0.177	0.185
-417.457	119.238	-0.187	0.231
-416.442	800.000	-0.060	0.166
-415.428	261.958	-0.113	-0.194
-414.413	392.074	-0.072	0.148
-413.398	28.815	-0.047	0.040
-412.384	-85.172	0.060	0.019
-411.369	74.575	-0.222	-0.232
-410.355	119.211	0.035	-0.043
-409.340	34.902	-0.148	0.129
-408.325	-146.458	0.235	-0.020
-407.311	-141.029	0.053	-0.005
-406.296	18.384	-0.151	0.120
-405.282	216.417	-0.015	0.024
-404.267	18.262	-0.256	-0.203
-403.252	138.641	-0.119	-0.155
-402.238	178.153	-0.069	0.100
-401.223	366.323	-0.084	-0.168
-400.209	58.603	-0.063	0.061
-399.194	-120.953	-0.215	-0.036
-398.179	138.928	-0.159	0.208
-397.165	-200.000	0.004	-0.061
-396.150	-20.065	0.081	-0.050
-395.136	-19.342	0.081	-0.050
-394.121	-200.000	0.028	0.244
-393.106	-83.993	-0.218	-0.069
-392.092	-67.323	-0.059	-0.023
-391.077	31.769	-0.206	0.176
-390.063	15.124	0.330	0.257
-389.048	-50.304	-0.101	0.048
-388.033	-63.638	-0.106	-0.043
-387.019	-57.239	0.414	0.181
-386.004	800.000	0.052	0.200
-384.990	104.372	-0.131	-0.153
-383.975	-75.667	0.134	-0.047
-382.960	-200.000	-0.010	0.065
-381.946	-156.443	0.301	-0.019
-380.931	-123.309	0.180	0.029
-379.917	63.598	0.086	-0.086
-378.902	128.978	-0.157	-0.199
-377.888	-200.000	0.021	0.152
-376.873	800.000	0.051	-0.180
-375.858	-96.964	0.068	-0.018
-374.844	38.940	0.043	-0.038
-373.829	380.555	0.165	-0.336
-372.815	800.000	0.024	0.080
-371.800	-102.984	0.280	-0.066
-370.785	44.094	0.330	-0.300
-369.771	499.129	-0.038	0.087
-368.756	300.675	-0.151	0.278
-367.742	-54.503	-0.212	0.095
-366.727	-200.000	0.004	0.211
-365.712	-153.889	0.465	-0.032
-364.698	55.021	-0.427	-0.409
-363.683	-38.008	-0.107	-0.056
-362.669	269.978	0.138	-0.240
-361.654	297.280	-0.128	0.233
-360.639	-34.225	0.068	0.037
-359.625	-200.000	0.046	-0.214
-358.610	264.478	-0.088	-0.152
-357.596	-90.345	0.330	-0.095
-356.581	-200.000	0.008	-0.296
-355.566	-40.441	0.166	-0.086
-354.552	480.514	0.083	-0.188
-353.537	800.000	-0.019	-0.076
-352.523	800.000	0.073	-0.267
-351.508	-1.362	-0.093	-0.065
-350.493	800.000	0.115	0.375
-349.479	-78.369	0.113	0.038
-348.464	-44.347	0.006	0.003
-347.450	-200.000	-0.036	0.288
-346.435	-176.592	0.095	-0.002
-345.420	-200.000	0.007	0.370
-344.406	95.167	-0.084	0.095
-343.391	22.375	-0.179	-0.145
-342.377	53.180	0.134	-0.127
-341.362	-82.162	0.273	0.088
-340.348	-100.314	-0.074	0.018
-339.333	-200.000	-0.007	0.402
-338.318	800.000	-0.065	-0.276
-337.304	-4.437	0.190	-0.130
-336.289	88.225	0.182	-0.201
-335.275	41.833	0.111	0.100
-334.260	161.955	-0.014	-0.020
-333.245	-131.470	-0.232	-0.030
-332.231	-200.000	0.006	0.350
-331.216	-109.707	0.261	-0.054
-330.202	583.935	-0.076	0.185
-329.187	622.646	0.104	-0.259
-328.172	800.000	-0.082	0.244
-327.158	-200.000	-0.015	0.086
-326.143	-124.740	0.523	0.080
-325.129	-200.000	0.010	0.179
-324.114	393.500	-0.123	-0.254
-323.099	312.334	-0.142	0.264
-322.085	-104.825	0.263	-0.060
-321.070	11.557	-0.235	0.178
-320.056	-200.000	0.017	-0.202
-319.041	800.000	0.032	0.090
-318.026	38.781	0.244	0.216
-317.012	36.159	0.186	0.163
-315.997	46.477	0.296	0.272
-314.983	349.739	-0.130	-0.254
-313.968	291.615	0.043	0.078
-312.953	-63.586	-0.471	0.192
-311.939	74.358	0.117	0.122
-310.924	14.280	0.073	-0.057
-309.910	-130.098	-0.170	-0.023
-308.895	302.620	0.099	0.181
-307.880	-200.000	0.060	-0.343
-306.866	27.013	0.190	-0.158
-305.851	7.303	0.110	-0.082
-304.837	-200.000	0.031	0.242
-303.822	141.336	0.335	0.439
-302.807	-135.446	0.152	-0.018
-301.793	-106.970	0.044	-0.010
-300.778	29.295	-0.301	-0.253
-299.764	33.774	0.223	0.192
-298.749	407.184	-0.079	0.166
-297.735	194.142	-0.085	-0.128
-296.720	233.599	-0.134	-0.218
-295.705	-67.120	0.306	0.119
-294.691	-138.307	0.119	0.013
-293.676	-85.593	0.195	-0.060
-292.662	298.499	0.121	0.220
-291.647	800.000	-0.086	0.274
-290.632	-86.119	-0.246	-0.075
-289.618	-10.973	-0.041	0.027
-288.603	-48.282	-0.205	0.098
-287.589	-99.244	0.251	-0.063
-286.574	208.855	0.226	0.351
-285.559	89.362	0.129	-0.143
-284.545	132.666	-0.169	0.216
-283.530	-200.000	-0.032	-0.178
-282.516	800.000	-0.034	-0.128
-281.501	214.103	0.095	0.150
-280.486	70.494	-0.210	-0.215
-279.472	59.581	-0.319	0.312
-278.457	62.149	-0.154	0.152
-277.443	274.059	-0.035	0.061
-276.428	-132.919	-0.183	0.023
-275.413	270.794	0.132	-0.230
-274.399	240.676	-0.034	0.055
-273.384	29.482	-0.150	0.127
-272.370	800.000	0.096	0.303
-271.355	-72.410	-0.073	-0.027
-270.340	-66.967	-0.178	0.070
-269.326	-106.948	-0.083	0.018
-268.311	101.079	0.069	-0.080
-267.297	-200.000	0.065	0.319
-266.282	-128.412	-0.078	-0.011
-265.267	557.877	0.097	0.231
-264.253	20.841	-0.065	0.052
-263.238	-200.000	0.061	-0.329
-262.224	-81.825	-0.104	0.034
-261.209	800.000	-0.048	-0.190
-260.195	-200.000	-0.027	0.233
-259.180	-97.820	-0.299	0.076
-258.165	-18.536	0.203	0.126
-257.151	-200.000	-0.010	0.227
-256.136	-93.071	-0.409	-0.113
-255.122	28.490	0.314	0.263
-254.107	29.372	-0.162	-0.136
-253.092	-200.000	0.009	0.337
-252.078	553.441	-0.040	0.094
-251.063	-168.244	-0.433	0.017
-250.049	-87.266	0.075	-0.023
-249.034	-114.110	0.178	0.034
-248.019	-154.839	-0.186	0.012
-247.005	-169.059	0.432	-0.016
-245.990	-35.748	0.390	-0.209
-244.976	-39.266	-0.097	0.050
-243.961	-96.868	0.122	0.032
-242.946	-112.546	-0.063	-0.012
-241.932	-123.389	-0.195	-0.031
-240.917	-110.940	-0.350	-0.071
-239.903	800.000	0.039	-0.157
-238.888	73.609	-0.139	0.144
-237.873	-130.667	0.482	0.064
-236.859	-35.727	-0.274	0.147
-235.844	800.000	0.020	0.061
-234.830	-40.286	0.062	-0.032
-233.815	-7.575	-0.121	0.081
-232.800	51.482	0.463	0.434
-231.786	58.488	-0.167	0.162
-230.771	-157.014	0.173	-0.010
-229.757	-200.000	0.011	0.061
-228.742	-136.769	-0.049	-0.006
-227.727	9.340	0.066	0.050
-226.713	54.094	0.202	-0.192
-225.698	-126.763	-0.299	-0.044
-224.684	-110.244	0.095	-0.019
-223.669	-66.970	0.214	0.083
-222.655	800.000	-0.034	0.141
-221.640	-169.165	0.044	-0.002
-220.625	-145.129	0.194	-0.017
-219.611	98.108	-0.181	-0.206
-218.596	-200.000	-0.006	0.038
-217.582	38.392	0.253	-0.222
-216.567	255.853	0.134	0.226
-215.552	538.333	-0.090	-0.212
-214.538	137.260	-0.209	-0.271
-213.523	-112.430	-0.071	0.014
-212.509	38.709	-0.040	-0.035
-211.494	394.044	-0.105	0.216
-210.479	163.354	0.072	-0.100
-209.465	-60.625	-0.253	-0.106
-208.450	70.698	-0.155	-0.159
-207.436	-40.016	0.478	0.246
-206.421	150.285	0.162	0.217
-205.406	-144.870	0.113	0.010
-204.392	-200.000	0.029	0.146
-203.377	-92.162	-0.249	0.069
-202.363	-200.000	0.008	0.047
-201.348	-57.029	0.140	0.061
-200.333	800.000	-0.076	-0.222
-199.319	-133.415	-0.158	0.020
-198.304	125.012	0.191	-0.238
-197.290	99.853	0.106	0.121
-196.275	433.066	0.050	-0.107
-195.260	462.143	0.061	0.134
-194.246	221.651	0.192	-0.305
-193.231	800.000	0.045	-0.188
-192.217	-12.424	-0.148	-0.095
-191.202	-68.254	-0.282	0.108
-190.187	15.844	-0.087	-0.068
-189.173	800.000	0.103	-0.326
-188.158	51.291	0.262	0.245
-187.144	148.221	-0.065	0.086
-186.129	-200.000	0.016	-0.167
-185.114	-64.619	0.220	0.088
-184.100	136.442	0.113	0.145
-183.085	172.463	0.052	-0.074
-182.071	96.704	-0.172	0.194
-181.056	196.462	0.235	-0.352
-180.042	-200.000	0.002	-0.035
-179.027	270.182	-0.109	-0.188
-178.012	300.044	0.036	-0.065
-176.998	-200.000	0.031	-0.392
-175.983	251.485	-0.016	0.026
-174.969	800.000	0.098	-0.390
-173.954	-65.805	0.181	0.071
-172.939	47.804	0.063	0.058
-171.925	45.210	-0.182	0.165
-170.910	-58.423	-0.153	-0.065
-169.896	-123.195	0.085	-0.013
-168.881	800.000	0.018	-0.069
-167.866	128.383	-0.149	0.187
-166.852	-47.146	0.071	-0.034
-165.837	800.000	-0.053	0.176
-164.823	67.847	-0.110	-0.111
-163.808	-200.000	-0.006	0.107
-162.793	178.242	0.062	-0.089
-161.779	800.000	0.084	-0.248
-160.764	125.919	0.080	-0.099
-159.750	-171.115	0.041	-0.001
-158.735	-200.000	-0.014	-0.241
-157.720	-200.000	-0.014	0.284
-156.706	-200.000	-0.002	0.097
-155.691	-200.000	-0.015	0.069
-154.677	-87.053	0.322	-0.097
-153.662	207.553	0.111	-0.170
-152.647	800.000	-0.099	-0.337
-151.633	-42.375	-0.060	-0.030
-150.618	-200.000	0.019	0.183
-149.604	-200.000	-0.023	-0.100
-148.589	-76.449	-0.545	-0.189
-147.574	-48.736	-0.211	0.100
-146.560	563.094	0.098	-0.233
-145.545	-7.206	0.172	-0.115
-144.531	309.871	-0.038	0.071
-143.516	54.052	-0.164	0.156
-142.502	-79.357	0.246	0.082
-141.487	-174.670	0.274	0.008
-140.472	-130.625	-0.052	-0.007
-139.458	-91.585	0.442	0.124
-138.443	78.873	-0.091	-0.095
-137.429	-200.000	-0.035	0.332
-136.414	-84.368	-0.168	-0.052
-135.399	800.000	-0.062	0.226
-134.385	800.000	-0.055	0.186
-133.370	159.952	-0.175	-0.241
-132.356	800.000	-0.042	0.151
-131.341	-122.527	0.130	0.021
-130.326	-192.113	0.191	0.002
-129.312	-61.423	0.035	0.014
-128.297	-46.428	0.337	0.163
-127.283	-200.000	0.056	0.284
-126.268	-76.670	-0.099	0.034
-125.253	96.487	-0.181	-0.203
-124.239	-200.000	0.022	0.213
-123.224	-90.277	-0.150	0.043
-122.210	335.286	-0.026	-0.049
-121.195	633.032	-0.143	0.357
