DTS Sentinel unit serial number:	SN413079Multiplexer serial number:	ORYXHardware model number:	OX4-SRSoftware version number:	ORYX F/W v4.00 Oryx Data Collector v3.7.2.0data status	okinstallation	princeton_trtdifferential loss correction	single-endedforward channel	channel 2reverse channel	N/Adate	2019/09/13time	15:39:35forward acquisition time	60.00reverse acquisition time	0.00gamma	496.2192k internal	0.2316k external	0.2316temperature offset calibration	1.0212default loss term (dB/km)	0.3790temperature slope calibration	1.0000multiplexer offset coefficient	1.0000multiplexer slope coefficient	1.0000fibre end	0.00T internal ref (°C)	34.89T ext. ref 1 (°C)	4.76T ext. ref 2 (°C)	29.22length (m)	temperature (°C)	Stokes	anti-Stokes-747.200	-30.180	-0.223	0.128
-746.185	91.731	-0.158	0.180
-745.171	-6.581	0.069	-0.048
-744.156	-53.362	-0.244	0.113
-743.142	-131.940	-0.642	0.085
-742.127	129.604	-0.274	0.354
-741.112	-96.468	0.313	0.084
-740.098	-135.279	0.048	-0.006
-739.083	29.180	0.110	0.095
-738.069	256.561	-0.189	0.328
-737.054	3.286	-0.193	0.143
-736.039	800.000	-0.078	-0.232
-735.025	-3.381	-0.080	0.056
-734.010	102.768	-0.151	0.179
-732.996	800.000	-0.057	-0.210
-731.981	-91.839	0.106	-0.031
-730.966	-49.082	-0.084	-0.041
-729.952	-100.039	-0.190	0.048
-728.937	-168.190	-0.344	-0.014
-727.923	49.773	-0.223	0.213
-726.908	-200.000	-0.002	0.056
-725.894	-200.000	-0.026	-0.169
-724.879	296.830	0.138	-0.257
-723.864	119.479	-0.293	-0.367
-722.850	54.186	-0.190	0.185
-721.835	-131.534	-0.330	0.044
-720.821	-200.000	0.011	0.107
-719.806	112.447	0.333	-0.408
-718.791	-7.568	-0.284	-0.195
-717.777	345.293	0.098	-0.195
-716.762	164.693	-0.196	0.279
-715.748	163.603	-0.015	-0.021
-714.733	800.000	-0.022	-0.067
-713.718	-169.497	-0.225	0.008
-712.704	-155.237	0.313	0.021
-711.689	32.043	-0.101	-0.088
-710.675	54.807	-0.178	-0.174
-709.660	-26.321	0.104	0.062
-708.645	142.420	-0.113	0.152
-707.631	-183.204	0.249	-0.004
-706.616	275.256	-0.084	-0.151
-705.602	124.096	-0.065	0.082
-704.587	-200.000	-0.008	-0.395
-703.572	800.000	-0.068	-0.289
-702.558	-200.000	-0.027	0.139
-701.543	-200.000	-0.012	0.135
-700.529	-66.229	0.466	0.188
-699.514	53.288	-0.168	-0.163
-698.499	678.065	-0.092	-0.241
-697.485	-53.428	-0.010	0.005
-696.470	-66.262	-0.205	0.083
-695.456	-61.238	0.377	0.160
-694.441	-38.298	-0.512	-0.274
-693.426	0.365	-0.428	0.309
-692.412	-89.419	-0.307	0.091
-691.397	-56.213	-0.139	0.062
-690.383	115.947	0.233	0.288
-689.368	-8.912	-0.105	-0.071
-688.354	574.736	-0.080	-0.198
-687.339	187.171	0.231	-0.348
-686.324	-58.963	-0.221	-0.096
-685.310	-142.907	0.119	-0.012
-684.295	37.178	-0.062	0.055
-683.281	-200.000	0.027	-0.124
-682.266	800.000	-0.038	0.137
-681.251	-135.814	0.173	-0.021
-680.237	-57.814	0.274	0.121
-679.222	136.764	0.159	0.210
-678.208	0.826	-0.081	-0.059
-677.193	-116.526	-0.517	-0.096
-676.178	-200.000	-0.023	-0.214
-675.164	317.228	-0.115	-0.219
-674.149	15.307	0.036	-0.029
-673.135	-17.598	-0.176	0.112
-672.120	-11.309	0.401	-0.267
-671.105	21.972	-0.265	-0.219
-670.091	5.597	-0.178	0.133
-669.076	-45.072	-0.218	0.109
-668.062	142.946	-0.253	-0.340
-667.047	400.133	-0.160	0.339
-666.032	163.327	0.204	0.290
-665.018	407.453	-0.198	0.422
-664.003	386.840	-0.117	-0.244
-662.989	152.596	0.085	-0.118
-661.974	-200.000	0.002	-0.219
-660.959	4.846	-0.249	-0.185
-659.945	699.158	0.135	-0.358
-658.930	13.962	-0.244	-0.192
-657.916	459.217	0.073	0.165
-656.901	-3.302	0.322	-0.226
-655.886	-3.215	0.348	0.245
-654.872	-125.391	-0.355	0.055
-653.857	-195.961	0.312	0.002
-652.843	-200.000	0.038	-0.175
-651.828	297.047	0.045	0.083
-650.814	-171.956	-0.122	-0.004
-649.799	-52.678	0.124	-0.058
-648.784	-13.582	-0.330	0.215
-647.770	141.347	0.069	0.093
-646.755	-52.219	0.181	0.085
-645.741	800.000	-0.085	-0.362
-644.726	-200.000	0.023	0.222
-643.711	-112.099	0.087	-0.018
-642.697	-120.103	-0.082	-0.014
-641.682	502.704	-0.078	-0.182
-640.668	-102.945	0.148	-0.035
-639.653	41.387	-0.135	-0.123
-638.638	-18.987	-0.165	0.104
-637.624	105.343	0.017	-0.020
-636.609	228.718	0.040	0.065
-635.595	-200.000	-0.018	-0.196
-634.580	800.000	0.048	0.196
-633.565	253.500	-0.058	-0.101
-632.551	105.134	0.160	-0.190
-631.536	-95.126	0.139	0.038
-630.522	618.853	-0.075	-0.190
-629.507	286.313	0.137	-0.250
-628.492	221.439	0.056	-0.090
-627.478	-63.016	-0.327	-0.136
-626.463	-108.090	-0.244	-0.053
-625.449	339.186	-0.101	-0.199
-624.434	59.122	-0.306	-0.304
-623.419	-200.000	-0.037	-0.243
-622.405	186.992	0.092	-0.139
-621.390	-36.071	-0.136	0.074
-620.376	-130.148	-0.205	0.028
-619.361	-42.745	-0.056	0.029
-618.346	64.908	-0.107	-0.109
-617.332	-47.983	0.031	0.015
-616.317	85.646	-0.088	0.098
-615.303	-58.505	0.183	-0.080
-614.288	-146.579	0.543	0.048
-613.273	-200.000	-0.013	0.104
-612.259	-200.000	-0.017	0.192
-611.244	333.332	0.164	0.319
-610.230	-105.087	-0.256	-0.059
-609.215	800.000	-0.017	-0.054
-608.201	199.082	0.143	-0.221
-607.186	800.000	0.079	0.305
-606.171	-126.518	0.127	-0.019
-605.157	-163.912	-0.237	0.011
-604.142	-8.173	-0.284	-0.192
-603.128	800.000	0.082	0.240
-602.113	-127.751	0.172	-0.025
-601.098	-4.179	-0.075	-0.052
-600.084	-159.019	-0.244	-0.014
-599.069	-200.000	0.036	0.252
-598.055	795.925	0.060	0.168
-597.040	81.381	-0.177	0.193
-596.025	57.349	-0.476	-0.468
-595.011	-54.703	-0.305	0.139
-593.996	-70.055	0.213	0.082
-592.982	-56.921	-0.155	-0.069
-591.967	-103.713	0.256	0.060
-590.952	-200.000	-0.021	0.196
-589.938	9.295	-0.042	-0.032
-588.923	7.799	-0.153	0.116
-587.909	-40.037	-0.113	0.059
-586.894	-9.829	0.305	0.204
-585.879	-110.079	-0.147	0.031
-584.865	-200.000	-0.046	0.226
-583.850	-114.110	-0.150	-0.029
-582.836	-200.000	-0.036	-0.192
-581.821	-200.000	0.047	0.304
-580.806	-200.000	0.004	0.169
-579.792	-58.798	-0.073	0.032
-578.777	-72.588	-0.215	0.080
-577.763	-63.091	0.097	-0.040
-576.748	-76.403	0.177	-0.063
-575.733	-160.015	0.200	-0.011
-574.719	-146.893	0.139	-0.012
-573.704	635.433	0.117	-0.298
-572.690	-100.205	0.246	0.061
-571.675	92.662	0.070	0.079
-570.661	293.287	-0.074	-0.136
-569.646	-130.768	-0.158	-0.021
-568.631	253.888	-0.050	0.086
-567.617	-41.476	-0.245	0.127
-566.602	-50.018	-0.143	0.068
-565.588	681.637	-0.012	0.032
-564.573	-70.288	-0.170	-0.065
-563.558	18.646	0.156	0.126
-562.544	140.426	-0.096	0.128
-561.529	525.894	-0.045	-0.107
-560.515	266.840	-0.194	-0.342
-559.500	-75.290	0.358	-0.128
-558.485	-89.506	-0.150	0.044
-557.471	-150.869	-0.210	-0.016
-556.456	-91.483	0.406	-0.117
-555.442	-200.000	0.048	-0.237
-554.427	-149.967	0.411	0.032
-553.412	106.779	-0.135	-0.161
-552.398	-9.420	0.130	0.087
-551.383	-99.435	0.119	-0.030
-550.369	800.000	0.073	0.222
-549.354	-3.860	-0.158	0.110
-548.339	-200.000	0.028	-0.174
-547.325	-125.042	0.067	-0.010
-546.310	-200.000	-0.048	-0.226
-545.296	-77.445	-0.527	0.184
-544.281	625.558	-0.120	-0.305
-543.266	800.000	-0.060	0.201
-542.252	-87.006	0.022	0.007
-541.237	-66.745	-0.306	0.122
-540.223	800.000	0.048	0.153
-539.208	60.767	0.098	0.097
-538.193	93.845	-0.219	0.249
-537.179	800.000	0.114	0.391
-536.164	87.282	0.115	0.127
-535.150	-30.662	0.194	0.110
-534.135	364.998	-0.044	-0.088
-533.121	11.016	-0.236	0.181
-532.106	-200.000	0.022	-0.116
-531.091	-40.787	0.091	0.047
-530.077	-200.000	-0.030	-0.237
-529.062	-112.061	0.176	0.036
-528.048	-21.233	0.244	0.150
-527.033	-23.173	0.130	-0.079
-526.018	-101.805	0.108	0.026
-525.004	-36.435	0.243	0.131
-523.989	25.139	0.287	0.239
-522.975	-193.546	0.070	0.001
-521.960	-64.217	0.361	0.148
-520.945	-47.921	-0.066	-0.032
-519.931	800.000	0.144	-0.518
-518.916	116.879	0.174	0.214
-517.902	182.811	-0.123	0.183
-516.887	-125.787	-0.196	0.030
-515.872	-143.671	-0.084	-0.008
-514.858	407.397	-0.118	-0.250
-513.843	-200.000	-0.031	0.211
-512.829	175.353	-0.009	0.014
-511.814	-101.153	-0.064	0.016
-510.799	-141.946	-0.154	0.015
-509.785	-200.000	0.034	-0.389
-508.770	25.427	0.024	-0.020
-507.756	-200.000	-0.003	0.102
-506.741	-39.420	0.087	0.046
-505.726	800.000	-0.040	0.158
-504.712	84.856	0.205	0.226
-503.697	-200.000	-0.038	0.195
-502.683	93.234	-0.173	-0.196
-501.668	763.844	0.092	0.251
-500.653	47.178	0.266	-0.249
-499.639	-104.877	-0.263	0.061
-498.624	16.441	-0.116	-0.092
-497.610	190.388	0.133	0.200
-496.595	-45.156	-0.283	-0.141
-495.581	800.000	-0.068	0.214
-494.566	642.258	-0.058	-0.148
-493.551	439.173	-0.022	-0.047
-492.537	-35.996	0.303	-0.164
-491.522	191.980	0.144	0.217
-490.508	3.820	0.314	0.230
-489.493	700.574	-0.106	0.279
-488.478	77.163	-0.132	-0.141
-487.464	20.358	0.231	-0.187
-486.449	39.777	-0.138	0.124
-485.435	-53.747	-0.124	-0.057
-484.420	-142.530	0.096	-0.009
-483.405	60.781	-0.238	-0.236
-482.391	149.586	0.133	0.181
-481.376	13.928	-0.081	-0.063
-480.362	-10.091	0.280	0.186
-479.347	64.524	-0.178	0.180
-478.332	339.579	0.040	-0.079
-477.318	87.387	-0.063	0.070
-476.303	591.714	-0.183	-0.452
-475.289	-6.812	0.135	-0.092
-474.274	72.924	-0.139	0.146
-473.259	800.000	0.125	0.362
-472.245	-200.000	-0.049	-0.286
-471.230	-44.718	-0.188	0.094
-470.216	-172.365	0.139	-0.004
-469.201	-18.046	-0.126	0.079
-468.186	6.164	-0.149	0.110
-467.172	279.399	-0.147	-0.263
-466.157	115.162	0.234	-0.286
-465.143	-24.062	-0.167	-0.100
-464.128	-128.983	-0.150	-0.021
-463.113	122.347	0.172	0.215
-462.099	-117.757	0.246	-0.044
-461.084	800.000	0.108	-0.421
-460.070	-85.328	-0.148	0.046
-459.055	75.581	0.089	0.095
-458.040	-4.704	0.063	0.043
-457.026	32.921	0.215	-0.187
-456.011	800.000	0.025	-0.078
-454.997	-72.699	-0.079	-0.029
-453.982	148.153	0.064	-0.086
-452.968	65.496	0.095	-0.097
-451.953	-200.000	-0.006	0.056
-450.938	-200.000	0.035	0.331
-449.924	-123.682	-0.310	-0.049
-448.909	112.905	0.010	0.012
-447.895	-171.345	0.054	0.002
-446.880	800.000	-0.033	-0.116
-445.865	-73.200	0.099	0.036
-444.851	-39.677	0.263	-0.138
-443.836	-200.000	0.001	0.067
-442.822	176.308	-0.116	-0.169
-441.807	-200.000	-0.007	0.136
-440.792	0.298	0.222	-0.158
-439.778	28.862	-0.222	-0.188
-438.763	48.583	-0.064	-0.060
-437.749	7.790	-0.134	-0.100
-436.734	-41.526	0.211	0.109
-435.719	800.000	0.021	-0.091
-434.705	7.055	-0.237	0.177
-433.690	413.563	0.165	0.351
-432.676	-200.000	0.001	0.012
-431.661	-180.798	-0.212	0.004
-430.646	223.420	-0.087	-0.141
-429.632	3.229	0.034	-0.025
-428.617	432.985	0.073	-0.157
-427.603	268.887	-0.178	0.313
-426.588	-143.965	0.044	-0.004
-425.573	344.339	-0.140	-0.275
-424.559	-22.703	-0.244	0.147
-423.544	43.874	-0.149	0.136
-422.530	-142.977	-0.205	0.020
-421.515	-25.160	-0.332	-0.197
-420.500	-126.752	0.101	-0.015
-419.486	-200.000	0.036	0.196
-418.471	800.000	-0.046	-0.188
-417.457	-200.000	-0.014	-0.141
-416.442	472.323	-0.045	0.102
-415.428	-85.865	0.035	-0.011
-414.413	-84.676	0.274	0.086
-413.398	-200.000	0.000	-0.203
-412.384	-108.753	-0.314	-0.067
-411.369	-74.749	0.294	0.106
-410.355	196.815	-0.053	0.081
-409.340	363.230	-0.117	0.234
-408.325	-131.347	0.090	-0.012
-407.311	800.000	0.096	-0.326
-406.296	22.604	-0.286	-0.234
-405.282	19.811	-0.139	0.112
-404.267	146.031	-0.175	-0.234
-403.252	-200.000	0.001	0.096
-402.238	-80.408	-0.226	-0.075
-401.223	78.910	0.039	0.042
-400.209	-115.664	0.257	-0.048
-399.194	-200.000	0.016	-0.205
-398.179	41.768	-0.136	-0.124
-397.165	368.535	0.013	0.025
-396.150	44.251	0.136	-0.125
-395.136	385.854	0.160	-0.331
-394.121	-159.058	0.110	0.006
-393.106	289.553	-0.128	0.233
-392.092	800.000	-0.044	0.166
-391.077	-40.235	-0.220	0.114
-390.063	234.442	-0.040	-0.067
-389.048	-200.000	-0.025	0.298
-388.033	44.545	-0.019	0.018
-387.019	20.724	-0.376	0.304
-386.004	101.160	0.013	-0.016
-384.990	-14.712	-0.220	-0.141
-383.975	-200.000	-0.014	0.104
-382.960	451.775	-0.027	0.059
-381.946	374.576	0.050	0.102
-380.931	-118.933	0.191	0.033
-379.917	-68.459	0.123	0.048
-378.902	198.010	-0.063	-0.095
-377.888	-200.000	0.028	0.133
-376.873	-158.534	0.163	0.009
-375.858	800.000	0.099	0.352
-374.844	-200.000	-0.067	0.302
-373.829	-73.300	-0.083	0.030
-372.815	-74.398	-0.402	0.145
-371.800	8.924	-0.135	0.102
-370.785	-150.180	-0.273	-0.021
-369.771	7.194	-0.446	0.332
-368.756	-116.805	-0.345	0.063
-367.742	-129.984	0.269	0.037
-366.727	86.140	-0.094	0.104
-365.712	145.146	-0.033	-0.045
-364.698	-22.760	-0.122	-0.073
-363.683	-76.730	-0.355	-0.124
-362.669	-200.000	-0.001	0.305
-361.654	-162.703	-0.179	0.009
-360.639	-126.681	0.312	-0.046
-359.625	98.371	0.109	0.125
-358.610	18.019	0.174	0.138
-357.596	241.242	-0.201	-0.335
-356.581	-4.926	-0.141	0.097
-355.566	124.479	0.104	-0.130
-354.552	-200.000	-0.008	0.171
-353.537	129.058	-0.114	-0.145
-352.523	584.000	0.121	0.296
-351.508	800.000	-0.022	-0.067
-350.493	88.246	-0.144	-0.159
-349.479	101.967	-0.207	0.241
-348.464	79.984	-0.035	0.037
-347.450	-200.000	-0.009	0.194
-346.435	-139.686	-0.416	0.044
-345.420	554.404	-0.171	0.410
-344.406	80.198	-0.318	0.342
-343.391	800.000	-0.059	0.179
-342.377	-104.667	0.297	0.068
-341.362	81.459	-0.104	0.112
-340.348	117.568	-0.147	0.180
-339.333	-58.090	-0.286	-0.124
-338.318	279.514	0.129	0.229
-337.304	-13.743	-0.128	0.082
-336.289	-200.000	0.017	0.298
-335.275	275.863	0.225	-0.398
-334.260	-39.687	-0.256	-0.133
-333.245	800.000	-0.046	0.177
-332.231	-114.305	0.229	-0.044
-331.216	382.310	0.109	-0.224
-330.202	-108.037	-0.269	0.058
-329.187	38.843	0.242	-0.215
-328.172	-55.769	0.462	-0.206
-327.158	-200.000	-0.034	-0.236
-326.143	39.246	0.315	-0.281
-325.129	-75.889	0.426	0.150
-324.114	800.000	0.113	-0.314
-323.099	241.586	0.211	-0.351
-322.085	17.270	0.236	0.187
-321.070	-200.000	-0.003	0.267
-320.056	-200.000	0.015	0.233
-319.041	233.456	-0.068	-0.112
-318.026	-200.000	-0.025	-0.134
-317.012	222.844	-0.053	-0.085
-315.997	7.085	0.081	0.060
-314.983	-144.060	-0.124	-0.012
-313.968	-19.813	0.124	-0.076
-312.953	-129.438	0.163	-0.023
-311.939	-166.611	0.229	-0.009
-310.924	18.622	-0.125	-0.100
-309.910	373.592	-0.014	0.029
-308.895	-99.488	-0.403	0.101
-307.880	-158.220	-0.222	-0.013
-306.866	-25.631	0.227	-0.133
-305.851	-76.398	0.411	0.144
-304.837	-200.000	-0.011	0.398
-303.822	-200.000	0.046	-0.212
-302.807	-67.594	0.177	-0.069
-301.793	-46.474	-0.202	0.099
-300.778	-13.189	-0.144	-0.093
-299.764	800.000	0.023	0.072
-298.749	-200.000	0.071	-0.331
-297.735	713.120	0.097	-0.256
-296.720	800.000	0.059	-0.220
-295.705	-87.835	0.333	-0.100
-294.691	-200.000	0.007	-0.165
-293.676	-200.000	-0.007	0.080
-292.662	424.753	0.096	-0.206
-291.647	-151.622	-0.333	-0.024
-290.632	542.033	-0.128	-0.303
-289.618	-10.846	0.214	0.141
-288.603	-80.572	-0.246	0.081
-287.589	47.315	0.166	-0.153
-286.574	447.464	-0.308	-0.674
-285.559	98.146	0.214	0.245
-284.545	800.000	0.052	0.154
-283.530	670.440	0.085	-0.220
-282.516	-200.000	0.042	0.216
-281.501	-106.547	0.112	0.025
-280.486	116.981	0.163	-0.200
-279.472	86.661	-0.041	0.045
-278.457	-91.904	-0.219	-0.062
-277.443	127.193	-0.173	-0.219
-276.428	-108.718	-0.093	-0.020
-275.413	-159.247	-0.245	0.014
-274.399	-84.661	0.249	-0.078
-273.384	80.653	0.148	-0.158
-272.370	-13.774	0.132	-0.085
-271.355	-4.253	-0.150	-0.103
-270.340	259.995	0.097	0.167
-269.326	35.050	0.121	-0.106
-268.311	800.000	0.082	0.351
-267.297	-172.400	0.117	-0.004
-266.282	-103.996	-0.109	0.025
-265.267	37.659	-0.213	-0.188
-264.253	554.876	0.053	0.127
-263.238	-76.324	0.257	0.090
-262.224	-200.000	-0.003	-0.090
-261.209	-45.040	-0.115	-0.057
-260.195	-63.801	0.228	-0.093
-259.180	41.079	0.082	0.074
-258.165	-200.000	0.010	0.219
-257.151	-78.057	0.339	0.116
-256.136	-89.197	-0.074	-0.022
-255.122	-122.528	0.205	0.033
-254.107	-200.000	-0.004	-0.047
-253.092	-61.556	-0.180	-0.075
-252.078	84.550	0.309	-0.336
-251.063	-48.754	0.237	-0.113
-250.049	36.413	-0.086	0.075
-249.034	-76.019	0.240	0.084
-248.019	218.553	0.054	-0.086
-247.005	-39.594	0.158	0.082
-245.990	563.174	0.077	0.186
-244.976	-108.159	0.088	0.019
-243.961	-149.841	0.149	-0.012
-242.946	-200.000	0.014	0.178
-241.932	23.540	-0.242	-0.198
-240.917	-50.691	-0.136	-0.064
-239.903	198.478	-0.208	0.316
-238.888	199.250	0.207	-0.314
-237.873	-95.763	-0.057	-0.015
-236.859	-115.516	-0.234	-0.044
-235.844	80.176	-0.138	-0.148
-234.830	44.293	0.116	0.106
-233.815	100.694	-0.212	-0.245
-232.800	-91.784	-0.108	0.030
-231.786	-103.882	-0.262	-0.061
-230.771	800.000	0.078	-0.220
-229.757	0.934	-0.190	-0.135
-228.742	-132.153	0.449	0.058
-227.727	-183.989	-0.143	-0.002
-226.713	-49.680	-0.161	-0.076
-225.698	127.616	0.308	0.388
-224.684	145.467	0.080	-0.106
-223.669	-3.430	0.112	0.077
-222.655	156.054	0.092	-0.126
-221.640	-38.773	-0.151	0.079
-220.625	-122.949	0.409	0.065
-219.611	-45.089	0.266	0.131
-218.596	24.048	0.234	0.191
-217.582	479.134	-0.114	-0.257
-216.567	351.073	-0.034	0.067
-215.552	95.162	0.194	0.219
-214.538	252.387	0.046	-0.077
-213.523	-118.559	-0.221	-0.039
-212.509	-35.741	0.078	0.042
-211.494	-34.641	0.377	0.205
-210.479	174.066	0.197	-0.282
-209.465	-25.641	0.064	0.038
-208.450	582.247	-0.102	0.248
-207.436	-165.462	0.391	0.017
-206.421	800.000	-0.075	-0.220
-205.406	461.873	-0.122	0.271
-204.392	-60.899	-0.191	-0.080
-203.377	-44.498	-0.269	0.133
-202.363	-50.799	-0.159	0.074
-201.348	273.174	0.107	0.188
-200.333	43.771	-0.277	-0.252
-199.319	398.385	0.156	0.323
-198.304	775.464	-0.035	0.094
-197.290	45.600	0.286	0.262
-196.275	-200.000	0.009	-0.321
-195.260	-109.028	-0.043	-0.009
-194.246	103.397	0.090	0.104
-193.231	-200.000	-0.070	-0.310
-192.217	-200.000	0.043	-0.251
-191.202	160.717	0.174	-0.240
-190.187	-200.000	-0.010	-0.106
-189.173	-200.000	0.017	-0.303
-188.158	800.000	0.096	0.289
-187.144	-64.961	0.168	0.067
-186.129	800.000	-0.038	-0.145
-185.114	41.748	-0.200	0.180
-184.100	335.352	0.137	0.264
-183.085	3.136	0.105	0.076
-182.071	49.536	0.209	0.195
-181.056	-171.887	0.464	0.015
-180.042	-23.788	0.123	-0.073
-179.027	-200.000	0.011	-0.058
-178.012	-163.700	-0.382	-0.018
-176.998	-107.435	-0.270	-0.059
-175.983	347.210	0.010	-0.020
-174.969	-169.026	0.197	0.007
-173.954	-51.162	0.210	0.098
-172.939	-23.027	-0.253	-0.151
-171.925	227.550	-0.131	-0.211
-170.910	320.674	0.229	0.430
-169.896	15.718	-0.149	-0.116
-168.881	-200.000	-0.007	0.054
-167.866	509.752	0.096	-0.221
-166.852	-109.489	0.257	-0.054
-165.837	47.974	-0.154	-0.142
-164.823	-177.069	0.078	0.002
-163.808	-34.152	-0.117	-0.064
-162.793	800.000	-0.037	-0.105
-161.779	250.108	0.025	0.042
-160.764	35.593	-0.089	-0.078
-159.750	-78.129	0.337	-0.115
-158.735	800.000	0.055	-0.205
-157.720	-155.710	-0.309	-0.020
-156.706	-27.941	0.212	-0.121
-155.691	-11.874	0.237	0.154
-154.677	58.717	0.221	0.214
-153.662	92.917	-0.189	0.211
-152.647	3.349	-0.224	-0.161
-151.633	-11.877	-0.216	-0.140
-150.618	-119.138	0.385	0.067
-149.604	-153.599	-0.085	0.006
-148.589	-110.204	0.235	0.049
-147.574	-200.000	-0.032	0.235
-146.560	539.044	-0.050	-0.118
-145.545	-83.362	-0.215	-0.068
-144.531	131.823	-0.110	0.139
-143.516	-200.000	0.000	0.135
-142.502	-168.131	-0.123	-0.005
-141.487	-54.799	-0.270	0.121
-140.472	-200.000	0.012	0.111
-139.458	800.000	-0.119	0.340
-138.443	-200.000	0.012	0.213
-137.429	-39.529	-0.187	-0.097
-136.414	481.585	-0.072	0.161
-135.399	83.832	-0.078	0.085
-134.385	-8.856	0.174	0.115
-133.370	202.511	0.055	-0.084
-132.356	-127.595	0.196	0.028
-131.341	-40.254	0.212	0.109
-130.326	23.859	0.142	-0.116
-129.312	-97.610	0.115	-0.029
-128.297	-128.658	-0.347	0.048
-127.283	-75.023	-0.161	0.057
-126.268	165.376	-0.077	0.108
-125.253	-200.000	0.059	0.296
-124.239	-94.399	-0.038	-0.010
-123.224	74.664	-0.144	-0.149
-122.210	71.350	-0.135	0.138
-121.195	-42.309	-0.205	0.104
-120.180	-65.129	0.248	0.099
