DTS Sentinel unit serial number:	SN413079Multiplexer serial number:	ORYXHardware model number:	OX4-SRSoftware version number:	ORYX F/W v4.00 Oryx Data Collector v3.7.2.0data status	okinstallation	princeton_trtdifferential loss correction	single-endedforward channel	channel 2reverse channel	N/Adate	2019/09/11time	13:57:11forward acquisition time	60.00reverse acquisition time	0.00gamma	496.2192k internal	0.2292k external	0.2292temperature offset calibration	1.0009default loss term (dB/km)	0.3790temperature slope calibration	1.0000multiplexer offset coefficient	1.0000multiplexer slope coefficient	1.0000fibre end	0.00T internal ref (°C)	41.87T ext. ref 1 (°C)	0.86T ext. ref 2 (°C)	37.17length (m)	temperature (°C)	Stokes	anti-Stokes-747.200	176.078	0.153	0.227
-746.185	-12.884	0.353	-0.235
-745.171	-64.797	-0.259	-0.107
-744.156	-124.002	0.168	-0.027
-743.142	-200.000	-0.034	0.197
-742.127	-143.534	-0.139	0.014
-741.112	727.883	0.073	-0.200
-740.098	-97.394	-0.152	0.040
-739.083	-57.248	-0.205	0.092
-738.069	-200.000	0.042	0.311
-737.054	-200.000	-0.008	-0.145
-736.039	-200.000	0.020	0.423
-735.025	-200.000	-0.025	0.217
-734.010	-44.880	0.142	0.072
-732.996	84.153	0.056	0.063
-731.981	-163.936	-0.114	-0.005
-730.966	26.116	-0.066	-0.057
-729.952	49.068	-0.040	0.038
-728.937	-200.000	0.020	-0.208
-727.923	-9.239	0.085	0.058
-726.908	-200.000	0.015	-0.231
-725.894	24.049	-0.222	-0.187
-724.879	-85.858	-0.166	-0.053
-723.864	-7.228	0.274	-0.190
-722.850	216.040	-0.093	-0.152
-721.835	-157.393	0.422	0.026
-720.821	407.110	-0.151	0.326
-719.806	800.000	0.176	0.584
-718.791	-116.076	0.394	0.075
-717.777	-200.000	-0.031	-0.237
-716.762	-61.035	-0.148	-0.064
-715.748	800.000	-0.064	-0.199
-714.733	121.927	-0.154	0.196
-713.718	-200.000	-0.037	-0.183
-712.704	800.000	0.077	-0.266
-711.689	-200.000	-0.021	0.229
-710.675	21.694	-0.226	-0.188
-709.660	127.038	-0.045	0.059
-708.645	540.342	-0.118	0.286
-707.631	734.914	0.144	-0.393
-706.616	-117.701	0.052	-0.010
-705.602	20.407	0.195	-0.161
-704.587	-172.853	-0.208	0.007
-703.572	-199.682	-0.211	0.001
-702.558	88.731	0.144	0.164
-701.543	-78.174	0.403	0.142
-700.529	52.664	0.135	-0.131
-699.514	-127.851	-0.248	0.037
-698.499	174.893	-0.117	0.173
-697.485	-169.918	-0.181	-0.007
-696.470	-17.273	-0.142	0.091
-695.456	-108.161	0.139	-0.031
-694.441	-200.000	-0.050	-0.347
-693.426	323.936	-0.092	-0.178
-692.412	190.648	-0.142	-0.218
-691.397	-200.000	-0.017	0.151
-690.383	800.000	0.056	0.162
-689.368	-200.000	-0.034	0.270
-688.354	3.896	-0.324	0.242
-687.339	-54.794	0.088	0.041
-686.324	-46.549	0.256	-0.128
-685.310	88.091	-0.337	-0.382
-684.295	5.699	-0.116	-0.087
-683.281	-126.663	-0.197	0.030
-682.266	-68.850	-0.489	-0.193
-681.251	-200.000	-0.025	-0.260
-680.237	800.000	0.078	0.316
-679.222	-158.273	0.158	0.009
-678.208	-0.548	-0.183	0.133
-677.193	180.679	0.158	-0.237
-676.178	-200.000	-0.013	0.300
-675.164	-145.095	0.276	0.026
-674.149	618.562	0.099	-0.253
-673.135	124.635	0.076	-0.098
-672.120	213.493	-0.154	-0.248
-671.105	40.317	-0.303	-0.279
-670.091	202.901	0.116	0.183
-669.076	4.218	0.216	0.162
-668.062	127.504	0.107	-0.138
-667.047	-200.000	-0.015	0.128
-666.032	-69.252	0.335	0.132
-665.018	800.000	-0.073	0.281
-664.003	-200.000	0.052	0.347
-662.989	-200.000	-0.025	-0.114
-661.974	574.833	-0.048	-0.120
-660.959	32.300	0.226	-0.199
-659.945	-146.909	-0.251	0.022
-658.930	-115.130	0.022	0.004
-657.916	22.820	-0.259	0.216
-656.901	-200.000	0.014	0.285
-655.886	231.213	0.121	-0.202
-654.872	11.515	0.259	0.203
-653.857	800.000	0.078	-0.261
-652.843	41.610	0.174	0.161
-651.828	-53.463	0.173	-0.081
-650.814	800.000	-0.035	-0.109
-649.799	-128.073	0.125	0.018
-648.784	129.166	-0.050	0.065
-647.770	800.000	0.088	-0.314
-646.755	-57.104	0.285	0.128
-645.741	394.594	-0.119	-0.252
-644.726	-97.607	0.158	0.042
-643.711	800.000	-0.028	-0.087
-642.697	104.574	-0.081	0.097
-641.682	-200.000	-0.007	0.291
-640.668	-47.131	0.360	0.179
-639.653	-22.889	-0.128	-0.079
-638.638	85.030	-0.068	0.076
-637.624	-200.000	-0.052	-0.247
-636.609	782.724	0.064	0.180
-635.595	-104.896	-0.089	0.021
-634.580	800.000	-0.060	-0.170
-633.565	15.927	-0.192	-0.154
-632.551	-172.618	0.484	-0.016
-631.536	-155.180	0.215	-0.014
-630.522	24.286	0.133	0.112
-629.507	33.586	0.161	-0.143
-628.492	439.193	0.088	-0.196
-627.478	-85.208	0.280	0.089
-626.463	335.995	-0.115	-0.227
-625.449	-36.042	0.356	0.196
-624.434	-46.312	-0.100	0.050
-623.419	101.155	-0.109	0.129
-622.405	-84.613	-0.186	-0.060
-621.390	-155.405	-0.181	0.012
-620.376	154.831	-0.108	0.151
-619.361	36.662	0.165	-0.148
-618.346	-200.000	0.015	-0.207
-617.332	-67.877	-0.240	0.095
-616.317	-34.178	-0.305	-0.171
-615.303	108.364	0.026	-0.032
-614.288	-64.924	-0.182	0.075
-613.273	78.150	-0.052	-0.057
-612.259	-32.056	0.131	-0.075
-611.244	69.594	-0.151	0.159
-610.230	121.232	-0.225	0.285
-609.215	-20.405	0.252	0.158
-608.201	65.702	-0.188	-0.194
-607.186	800.000	0.053	0.201
-606.171	-56.280	-0.064	0.029
-605.157	-47.222	0.115	-0.057
-604.142	-200.000	-0.011	-0.169
-603.128	72.108	-0.338	-0.358
-602.113	800.000	-0.016	-0.071
-601.098	283.956	-0.073	0.133
-600.084	-200.000	0.032	0.151
-599.069	-112.317	-0.295	-0.060
-598.055	-3.889	0.214	0.151
-597.040	-200.000	-0.024	-0.337
-596.025	-200.000	-0.028	-0.175
-595.011	-113.283	-0.073	-0.015
-593.996	-90.519	-0.304	0.090
-592.982	-200.000	-0.037	-0.330
-591.967	800.000	0.045	0.187
-590.952	-200.000	-0.007	-0.210
-589.938	-200.000	-0.012	-0.087
-588.923	800.000	0.048	-0.150
-587.909	32.718	0.328	-0.289
-586.894	-63.908	-0.314	-0.131
-585.879	64.709	-0.272	-0.280
-584.865	490.238	-0.053	0.122
-583.850	-106.263	0.190	-0.043
-582.836	-113.522	0.063	-0.013
-581.821	81.835	-0.142	-0.156
-580.806	-31.540	-0.232	0.133
-579.792	-96.746	-0.257	0.069
-578.777	-92.548	0.227	-0.065
-577.763	17.089	0.151	-0.122
-576.748	-16.104	-0.048	-0.031
-575.733	-200.000	-0.004	-0.175
-574.719	-180.987	-0.055	0.001
-573.704	258.873	-0.052	-0.092
-572.690	-86.573	0.103	-0.032
-571.675	-80.520	-0.268	-0.091
-570.661	-200.000	0.008	0.048
-569.646	800.000	0.065	-0.231
-568.631	103.780	0.065	-0.078
-567.617	-200.000	0.059	0.357
-566.602	188.507	-0.190	-0.288
-565.588	-37.649	-0.092	-0.050
-564.573	306.737	-0.069	-0.131
-563.558	7.236	0.139	-0.105
-562.544	-200.000	-0.030	0.326
-561.529	200.734	0.093	0.146
-560.515	118.268	0.157	0.197
-559.500	-95.032	-0.112	0.031
-558.485	-200.000	-0.011	0.093
-557.471	-185.807	0.250	-0.004
-556.456	553.579	-0.135	-0.329
-555.442	40.413	0.211	-0.193
-554.427	61.079	0.132	0.133
-553.412	-200.000	0.002	-0.018
-552.398	-200.000	-0.001	0.098
-551.383	-79.625	0.131	-0.045
-550.369	-200.000	-0.030	0.154
-549.354	95.993	0.158	0.183
-548.339	-200.000	0.041	0.270
-547.325	-151.093	-0.351	0.027
-546.310	-17.521	-0.130	-0.083
-545.296	-23.325	-0.065	-0.040
-544.281	-22.057	-0.263	-0.162
-543.266	0.336	-0.231	-0.167
-542.252	233.304	0.139	0.232
-541.237	19.993	0.073	0.060
-540.223	24.334	0.187	0.157
-539.208	-58.019	0.180	-0.080
-538.193	202.857	0.117	-0.183
-537.179	-110.999	-0.139	-0.029
-536.164	313.253	0.085	-0.163
-535.150	213.492	-0.048	0.077
-534.135	-200.000	0.008	-0.161
-533.121	-200.000	-0.036	0.205
-532.106	-23.986	0.221	-0.134
-531.091	-39.634	-0.349	-0.185
-530.077	800.000	-0.140	-0.418
-529.062	127.152	0.200	-0.258
-528.048	272.881	-0.114	0.205
-527.033	-58.031	-0.184	0.081
-526.018	-82.417	0.193	0.064
-525.004	-0.041	-0.186	-0.134
-523.989	-193.321	-0.140	-0.001
-522.975	-91.034	-0.138	0.040
-521.960	-52.970	-0.138	0.064
-520.945	-200.000	0.004	0.214
-519.931	800.000	-0.068	-0.274
-518.916	-200.000	0.035	-0.205
-517.902	-200.000	-0.029	-0.280
-516.887	800.000	0.046	-0.184
-515.872	602.384	-0.151	0.381
-514.858	-78.173	0.155	0.054
-513.843	20.289	-0.109	0.090
-512.829	-63.229	-0.189	0.079
-511.814	-131.285	0.146	0.020
-510.799	-53.169	0.242	-0.113
-509.785	-116.840	-0.204	0.038
-508.770	-127.542	0.054	-0.008
-507.756	-124.827	-0.324	-0.051
-506.741	-3.953	0.115	0.081
-505.726	254.831	0.139	-0.241
-504.712	-33.006	0.219	-0.123
-503.697	-147.530	0.069	0.006
-502.683	-54.541	-0.489	-0.224
-501.668	-58.140	-0.082	-0.036
-500.653	55.811	0.177	0.174
-499.639	-57.152	-0.072	0.032
-498.624	-200.000	0.024	-0.230
-497.610	800.000	0.053	-0.207
-496.595	-73.498	-0.135	-0.050
-495.581	481.584	0.062	-0.142
-494.566	-200.000	0.043	0.317
-493.551	252.571	-0.095	0.164
-492.537	-38.959	0.212	-0.113
-491.522	-80.650	-0.119	-0.040
-490.508	253.574	0.050	-0.087
-489.493	-200.000	-0.017	0.202
-488.478	123.201	-0.287	0.364
-487.464	-70.315	0.019	-0.007
-486.449	60.580	0.062	-0.062
-485.435	800.000	0.055	-0.164
-484.420	-42.061	-0.113	-0.059
-483.405	-36.066	-0.258	-0.141
-482.391	-95.988	-0.374	-0.101
-481.376	-143.342	0.041	0.004
-480.362	97.656	-0.069	-0.081
-479.347	-80.840	-0.232	-0.078
-478.332	800.000	0.061	0.218
-477.318	-200.000	-0.003	-0.013
-476.303	-200.000	-0.031	0.188
-475.289	6.209	-0.237	0.178
-474.274	44.501	0.282	0.263
-473.259	712.175	0.049	-0.131
-472.245	300.278	-0.081	-0.151
-471.230	-164.482	-0.166	0.008
-470.216	-83.792	-0.203	-0.065
-469.201	800.000	0.052	0.150
-468.186	-85.771	0.329	0.103
-467.172	800.000	-0.048	0.143
-466.157	73.098	-0.114	0.120
-465.143	-200.000	-0.030	0.250
-464.128	-200.000	-0.025	-0.139
-463.113	293.875	0.053	-0.097
-462.099	295.799	0.080	-0.148
-461.084	130.541	-0.218	-0.283
-460.070	258.700	0.025	0.043
-459.055	800.000	-0.099	0.375
-458.040	-126.876	0.186	0.028
-457.026	-200.000	0.002	-0.239
-456.011	-117.119	-0.248	-0.046
-454.997	-88.907	-0.299	-0.090
-453.982	-22.582	0.055	0.034
-452.968	-200.000	0.019	-0.164
-451.953	0.774	0.356	-0.258
-450.938	-200.000	0.016	-0.140
-449.924	-76.652	-0.264	0.094
-448.909	-200.000	0.008	0.154
-447.895	-117.897	-0.323	0.059
-446.880	-45.520	-0.134	-0.067
-445.865	800.000	0.029	-0.093
-444.851	32.336	-0.137	-0.120
-443.836	800.000	-0.070	-0.213
-442.822	800.000	-0.104	0.390
-441.807	581.772	-0.073	0.181
-440.792	-92.140	0.127	0.036
-439.778	800.000	0.125	0.394
-438.763	559.805	0.168	0.410
-437.749	-106.514	-0.321	-0.072
-436.734	800.000	0.050	0.190
-435.719	-200.000	0.011	-0.139
-434.705	-6.549	0.255	-0.176
-433.690	-200.000	0.040	-0.225
-432.676	-110.850	0.180	-0.037
-431.661	-25.989	0.359	0.214
-430.646	-45.807	-0.080	0.040
-429.632	38.068	0.171	-0.154
-428.617	-10.426	-0.182	0.122
-427.603	-160.231	-0.327	0.018
-426.588	128.107	0.144	-0.185
-425.573	111.633	-0.206	0.252
-424.559	-200.000	0.027	0.282
-423.544	-75.656	0.333	-0.120
-422.530	119.880	0.333	-0.418
-421.515	-165.904	-0.300	-0.013
-420.500	-13.702	-0.016	0.010
-419.486	300.978	0.178	-0.332
-418.471	36.511	0.333	0.297
-417.457	213.554	0.014	0.023
-416.442	800.000	0.065	-0.216
-415.428	800.000	0.089	0.261
-414.413	-93.184	0.099	-0.028
-413.398	-81.446	0.113	0.038
-412.384	800.000	0.078	0.291
-411.369	-1.375	-0.213	0.152
-410.355	-97.791	-0.229	0.060
-409.340	315.454	0.090	0.171
-408.325	800.000	0.071	-0.262
-407.311	-200.000	-0.035	0.269
-406.296	-200.000	-0.030	0.219
-405.282	800.000	-0.087	-0.337
-404.267	432.208	0.063	-0.137
-403.252	800.000	0.055	0.239
-402.238	-131.880	-0.417	0.055
-401.223	55.987	0.106	-0.104
-400.209	-171.008	-0.253	0.009
-399.194	-200.000	0.011	0.165
-398.179	-45.983	0.429	-0.213
-397.165	-200.000	0.066	-0.369
-396.150	92.446	0.187	0.213
-395.136	-100.638	-0.122	-0.030
-394.121	-3.072	0.258	0.182
-393.106	62.423	-0.303	0.306
-392.092	-52.742	-0.113	0.053
-391.077	-175.218	-0.093	0.003
-390.063	-78.178	-0.332	0.115
-389.048	800.000	-0.062	-0.201
-388.033	28.534	-0.203	-0.173
-387.019	-86.034	-0.325	0.101
-386.004	-167.232	-0.238	-0.010
-384.990	110.282	-0.125	0.151
-383.975	124.166	-0.070	0.088
-382.960	13.255	0.101	0.079
-381.946	24.893	0.326	0.273
-380.931	-190.315	-0.341	0.004
-379.917	333.597	0.047	0.092
-378.902	-57.881	0.375	-0.165
-377.888	-145.920	-0.142	0.013
-376.873	-115.154	-0.091	-0.017
-375.858	-42.779	-0.071	0.037
-374.844	800.000	-0.044	-0.133
-373.829	-200.000	0.008	0.214
-372.815	800.000	-0.100	0.308
-371.800	41.452	-0.054	-0.049
-370.785	185.922	-0.090	0.136
-369.771	84.920	0.290	0.320
-368.756	800.000	-0.038	0.127
-367.742	-95.197	0.487	0.132
-366.727	35.652	-0.380	-0.337
-365.712	89.324	-0.124	-0.139
-364.698	-95.553	0.213	-0.057
-363.683	78.333	-0.073	0.079
-362.669	-200.000	-0.034	-0.231
-361.654	-4.874	0.079	-0.055
-360.639	-125.870	0.275	-0.042
-359.625	526.484	-0.173	-0.410
-358.610	-68.038	0.072	0.028
-357.596	72.860	0.080	-0.084
-356.581	-200.000	-0.027	0.211
-355.566	-54.869	0.205	0.093
-354.552	-200.000	-0.002	0.227
-353.537	-99.247	0.077	-0.020
-352.523	-200.000	0.027	0.169
-351.508	-165.933	0.235	-0.010
-350.493	441.922	-0.160	0.352
-349.479	-82.067	-0.200	-0.066
-348.464	-4.108	-0.157	-0.110
-347.450	85.195	0.068	0.075
-346.435	800.000	-0.070	0.237
-345.420	-200.000	0.006	0.046
-344.406	-129.465	0.270	0.038
-343.391	-111.043	-0.317	0.065
-342.377	-200.000	-0.036	-0.211
-341.362	40.423	0.082	0.074
-340.348	22.415	-0.209	0.172
-339.333	-102.771	0.250	-0.060
-338.318	638.127	-0.073	-0.188
-337.304	-124.060	-0.253	0.040
-336.289	-200.000	-0.037	0.185
-335.275	-145.493	-0.206	-0.019
-334.260	68.808	-0.160	-0.166
-333.245	-130.575	0.259	-0.035
-332.231	800.000	-0.060	0.194
-331.216	-70.003	-0.348	0.133
-330.202	378.866	0.052	-0.107
-329.187	-69.796	-0.254	-0.098
-328.172	588.141	-0.166	0.412
-327.158	464.093	-0.109	0.246
-326.143	-200.000	-0.039	0.204
-325.129	-28.649	0.277	0.160
-324.114	-87.596	-0.045	0.014
-323.099	-48.486	-0.261	0.127
-322.085	55.374	-0.076	-0.074
-321.070	-84.972	-0.428	-0.135
-320.056	-5.419	0.143	-0.099
-319.041	388.186	-0.118	0.246
-318.026	-50.176	0.282	-0.134
-317.012	158.287	0.057	-0.080
-315.997	-200.000	0.006	0.149
-314.983	102.465	-0.107	-0.126
-313.968	-146.134	-0.160	-0.014
-312.953	-40.782	-0.144	-0.075
-311.939	-7.840	-0.167	0.113
-310.924	89.726	0.006	-0.007
-309.910	-190.463	-0.319	0.003
-308.895	-200.000	-0.009	0.148
-307.880	-163.236	0.256	0.012
-306.866	800.000	-0.100	0.303
-305.851	100.622	-0.143	-0.167
-304.837	75.412	0.201	-0.213
-303.822	253.413	-0.104	0.178
-302.807	147.189	-0.014	-0.018
-301.793	525.590	0.013	0.030
-300.778	-200.000	0.012	0.113
-299.764	800.000	0.023	0.065
-298.749	620.193	-0.058	-0.147
-297.735	-109.974	0.648	-0.136
-296.720	513.424	0.057	0.135
-295.705	-200.000	0.010	0.068
-294.691	718.028	-0.032	0.087
-293.676	800.000	-0.056	0.205
-292.662	-200.000	-0.005	-0.202
-291.647	-90.586	-0.219	-0.064
-290.632	103.215	-0.176	-0.208
-289.618	83.571	-0.029	0.031
-288.603	-138.253	0.350	0.039
-287.589	65.616	0.078	-0.079
-286.574	800.000	0.082	-0.318
-285.559	-57.916	0.082	0.036
-284.545	213.284	-0.145	-0.231
-283.530	-99.945	-0.319	-0.080
-282.516	-59.502	0.200	0.086
-281.501	130.130	0.031	-0.040
-280.486	24.921	0.029	-0.024
-279.472	128.570	0.292	-0.374
-278.457	-16.618	-0.312	-0.199
-277.443	68.915	0.108	0.111
-276.428	-58.612	0.296	0.129
-275.413	174.604	-0.044	-0.064
-274.399	-200.000	0.076	0.622
-273.384	-78.839	-0.037	-0.013
-272.370	176.913	0.106	0.155
-271.355	-64.641	0.287	0.117
-270.340	-200.000	-0.004	-0.215
-269.326	79.497	-0.173	-0.187
-268.311	800.000	0.015	-0.042
-267.297	-134.578	-0.225	-0.028
-266.282	800.000	0.034	0.111
-265.267	800.000	0.131	0.471
-264.253	-200.000	-0.017	0.136
-263.238	-65.824	-0.129	-0.052
-262.224	800.000	0.073	0.236
-261.209	-167.328	-0.093	0.004
-260.195	-62.555	0.244	-0.102
-259.180	-200.000	-0.023	0.175
-258.165	-149.573	0.164	0.013
-257.151	793.732	0.054	0.148
-256.136	-10.274	0.228	0.152
-255.122	-40.310	-0.281	0.147
-254.107	-200.000	0.015	-0.076
-253.092	89.130	0.155	0.173
-252.078	65.880	-0.188	-0.191
-251.063	-155.586	-0.270	-0.017
-250.049	-55.041	0.370	-0.167
-249.034	37.411	0.325	0.290
-248.019	-61.116	0.235	0.099
-247.005	-127.655	-0.298	0.043
-245.990	-153.523	-0.184	-0.013
-244.976	103.635	0.145	-0.171
-243.961	-29.763	-0.204	0.117
-242.946	-57.850	0.260	-0.114
-241.932	-98.612	-0.143	0.037
-240.917	-78.278	-0.259	-0.089
-239.903	59.204	0.118	-0.116
-238.888	745.706	0.165	-0.445
-237.873	247.017	0.064	-0.109
-236.859	466.837	0.164	-0.369
-235.844	347.649	-0.058	0.115
-234.830	155.093	0.213	-0.293
-233.815	112.144	-0.132	0.161
-232.800	25.057	-0.074	0.061
-231.786	83.395	0.125	-0.137
-230.771	90.945	0.010	0.011
-229.757	267.527	0.161	0.282
-228.742	800.000	-0.069	0.229
-227.727	45.397	0.139	-0.128
-226.713	-152.142	0.266	-0.019
-225.698	10.771	-0.220	0.168
-224.684	-17.464	-0.115	-0.073
-223.669	-110.376	0.131	-0.027
-222.655	538.506	0.129	-0.308
-221.640	74.072	-0.055	-0.058
-220.625	128.813	0.051	-0.065
-219.611	-74.124	0.157	-0.057
-218.596	796.446	0.062	-0.172
-217.582	-39.217	0.309	-0.162
-216.567	82.036	0.159	0.172
-215.552	64.493	0.295	-0.298
-214.538	-200.000	-0.015	0.141
-213.523	-14.530	-0.180	0.116
-212.509	800.000	0.050	0.140
-211.494	62.278	0.250	0.250
-210.479	708.001	0.156	0.413
-209.465	-154.227	0.166	0.011
-208.450	147.199	0.021	-0.028
-207.436	-97.242	-0.131	0.034
-206.421	-150.991	-0.235	-0.018
-205.406	206.216	0.079	0.123
-204.392	217.842	-0.105	0.168
-203.377	136.947	-0.127	-0.167
-202.363	164.946	0.057	0.081
-201.348	-54.704	0.261	0.118
-200.333	-127.062	0.329	0.048
-199.319	800.000	0.112	-0.351
-198.304	-200.000	0.013	0.103
-197.290	-200.000	-0.009	0.157
-196.275	-188.273	0.403	0.005
-195.260	313.474	-0.077	0.144
-194.246	-200.000	-0.035	-0.173
-193.231	-17.918	0.160	-0.100
-192.217	153.631	-0.088	-0.121
-191.202	466.983	-0.116	-0.260
-190.187	-54.505	-0.073	-0.033
-189.173	41.536	0.100	-0.090
-188.158	115.901	0.160	-0.196
-187.144	-200.000	0.114	-0.511
-186.129	-76.152	-0.221	-0.078
-185.114	108.703	-0.073	0.087
-184.100	-100.827	0.354	-0.087
-183.085	-15.357	0.141	-0.090
-182.071	-94.835	-0.233	-0.063
-181.056	-23.664	-0.344	0.206
-180.042	178.186	0.019	-0.028
-179.027	-40.108	0.049	0.025
-178.012	-143.073	-0.185	0.018
-176.998	724.558	-0.081	0.216
-175.983	-39.374	0.180	0.095
-174.969	-36.509	-0.236	-0.127
-173.954	-73.636	0.133	0.049
-172.939	185.535	0.133	-0.198
-171.925	278.363	0.325	-0.580
-170.910	271.669	0.173	0.305
-169.896	70.970	-0.014	0.015
-168.881	-3.876	-0.291	0.202
-167.866	-117.341	0.331	0.060
-166.852	-11.497	-0.140	-0.092
-165.837	76.636	-0.035	0.037
-164.823	91.493	-0.063	-0.071
-163.808	714.397	-0.088	0.233
-162.793	-120.887	0.329	0.055
-161.779	72.502	0.260	0.271
-160.764	58.691	0.199	0.195
-159.750	-111.884	0.310	0.063
-158.735	328.335	0.113	-0.218
-157.720	-200.000	-0.062	-0.416
-156.706	-63.437	0.256	0.105
-155.691	88.153	-0.186	0.206
-154.677	63.571	-0.145	0.146
-153.662	241.107	0.113	-0.188
-152.647	-45.155	0.097	0.048
-151.633	-162.742	0.259	-0.013
-150.618	196.136	-0.250	0.381
-149.604	-67.892	-0.343	0.134
-148.589	104.369	0.181	0.213
-147.574	-48.038	0.271	0.131
-146.560	-200.000	-0.005	0.248
-145.545	106.739	0.224	0.266
-144.531	-154.027	0.112	-0.008
-143.516	-91.443	0.084	-0.024
-142.502	119.200	0.106	-0.131
-141.487	76.417	0.139	-0.148
-140.472	619.010	-0.049	-0.123
-139.458	66.877	-0.081	-0.082
-138.443	800.000	0.084	-0.273
-137.429	-3.388	0.138	0.096
-136.414	-23.764	0.231	-0.138
-135.399	73.602	0.198	-0.208
-134.385	-103.157	-0.235	0.056
-133.370	-150.850	-0.205	-0.016
-132.356	364.238	0.218	0.437
-131.341	-83.600	-0.217	-0.069
-130.326	398.080	0.060	0.125
-129.312	60.797	0.340	0.337
-128.297	-178.022	-0.077	-0.002
-127.283	-200.000	-0.055	0.360
-126.268	-200.000	0.027	0.236
-125.253	-112.757	0.219	0.044
-124.239	7.278	0.202	-0.150
-123.224	153.651	0.095	0.130
-122.210	-67.783	0.360	-0.141
-121.195	-200.000	0.009	-0.236
