DTS Sentinel unit serial number:	SN413079Multiplexer serial number:	ORYXHardware model number:	OX4-SRSoftware version number:	ORYX F/W v4.00 Oryx Data Collector v3.7.2.0data status	okinstallation	princeton_trtdifferential loss correction	single-endedforward channel	channel 2reverse channel	N/Adate	2019/09/10time	17:53:11forward acquisition time	60.00reverse acquisition time	0.00gamma	496.2192k internal	0.2312k external	0.2312temperature offset calibration	0.9941default loss term (dB/km)	0.3790temperature slope calibration	1.0000multiplexer offset coefficient	1.0000multiplexer slope coefficient	1.0000fibre end	0.00T internal ref (°C)	37.36T ext. ref 1 (°C)	-0.34T ext. ref 2 (°C)	30.01length (m)	temperature (°C)	Stokes	anti-Stokes-747.200	281.319	0.118	0.214
-746.185	219.657	-0.100	0.162
-745.171	0.707	0.381	0.277
-744.156	345.649	-0.177	0.353
-743.142	46.950	0.223	0.210
-742.127	-45.674	-0.134	0.067
-741.112	-33.235	-0.070	-0.039
-740.098	139.836	-0.186	0.248
-739.083	-57.252	0.036	-0.016
-738.069	-151.933	-0.149	0.011
-737.054	-149.003	0.188	-0.015
-736.039	-76.743	-0.322	0.114
-735.025	44.993	0.063	0.059
-734.010	-77.577	-0.456	0.160
-732.996	240.824	-0.104	-0.176
-731.981	-200.000	0.019	0.139
-730.966	32.342	0.191	0.167
-729.952	800.000	0.098	0.367
-728.937	89.804	0.138	-0.156
-727.923	124.181	-0.232	-0.296
-726.908	-46.905	-0.517	0.256
-725.894	-66.781	-0.077	0.031
-724.879	26.192	-0.151	-0.128
-723.864	-100.533	-0.247	0.062
-722.850	-117.559	0.206	-0.038
-721.835	316.535	-0.048	-0.093
-720.821	-52.971	0.330	0.154
-719.806	662.767	0.111	-0.290
-718.791	800.000	0.094	-0.322
-717.777	12.923	0.147	-0.115
-716.762	-136.329	-0.229	0.027
-715.748	36.504	0.119	-0.106
-714.733	800.000	-0.067	-0.280
-713.718	246.295	0.053	-0.091
-712.704	297.559	0.063	-0.117
-711.689	515.903	0.069	0.164
-710.675	469.108	0.185	-0.422
-709.660	260.768	-0.065	-0.114
-708.645	-107.254	0.206	-0.046
-707.631	132.428	0.167	-0.219
-706.616	-113.104	0.337	0.067
-705.602	800.000	-0.146	-0.439
-704.587	370.023	-0.049	0.100
-703.572	-115.795	0.359	0.068
-702.558	300.763	0.155	0.290
-701.543	-163.664	0.265	-0.013
-700.529	-200.000	0.010	0.072
-699.514	-200.000	-0.010	-0.054
-698.499	-200.000	0.019	-0.294
-697.485	59.546	-0.046	0.046
-696.470	83.805	0.101	-0.112
-695.456	105.902	0.105	0.126
-694.441	632.116	-0.096	0.247
-693.426	-200.000	-0.004	0.058
-692.412	45.002	-0.300	0.280
-691.397	800.000	-0.074	-0.263
-690.383	19.121	0.086	0.070
-689.368	-200.000	-0.008	-0.107
-688.354	-11.464	0.033	0.022
-687.339	-28.454	-0.321	-0.187
-686.324	-200.000	0.010	-0.058
-685.310	-176.581	-0.156	-0.004
-684.295	800.000	0.092	-0.268
-683.281	800.000	0.081	0.270
-682.266	323.843	-0.098	-0.189
-681.251	57.053	0.118	-0.116
-680.237	-116.335	-0.219	-0.041
-679.222	6.271	0.375	-0.282
-678.208	219.846	-0.258	-0.417
-677.193	218.189	0.159	-0.257
-676.178	-200.000	-0.034	0.220
-675.164	-12.879	0.137	0.090
-674.149	800.000	0.107	-0.422
-673.135	121.914	0.093	0.117
-672.120	-200.000	0.031	-0.290
-671.105	800.000	-0.039	-0.164
-670.091	735.255	-0.118	0.319
-669.076	800.000	-0.051	0.163
-668.062	-200.000	0.034	-0.403
-667.047	118.327	-0.261	-0.325
-666.032	-73.840	-0.340	0.125
-665.018	-81.746	0.086	0.028
-664.003	237.352	-0.084	-0.140
-662.989	71.549	-0.181	0.190
-661.974	-35.465	-0.191	-0.105
-660.959	-49.507	-0.387	0.186
-659.945	395.583	-0.169	0.357
-658.930	113.388	-0.069	-0.084
-657.916	-83.265	0.263	0.085
-656.901	267.533	0.110	-0.195
-655.886	126.431	0.098	0.125
-654.872	-160.162	-0.055	-0.003
-653.857	800.000	-0.102	0.326
-652.843	191.725	-0.064	0.097
-651.828	-200.000	-0.053	-0.242
-650.814	-200.000	0.002	0.028
-649.799	800.000	-0.024	-0.092
-648.784	-200.000	0.019	-0.178
-647.770	-37.395	0.221	0.119
-646.755	-200.000	-0.039	-0.224
-645.741	22.995	0.162	-0.135
-644.726	7.329	-0.213	-0.161
-643.711	320.032	-0.130	0.250
-642.697	726.445	-0.066	-0.178
-641.682	-4.038	0.184	0.129
-640.668	-23.255	-0.024	-0.015
-639.653	-200.000	0.002	0.143
-638.638	-200.000	-0.002	-0.338
-637.624	295.795	0.131	-0.243
-636.609	144.101	0.376	-0.507
-635.595	-120.796	0.028	-0.005
-634.580	188.352	0.164	-0.248
-633.565	-200.000	-0.021	0.342
-632.551	-200.000	0.005	0.121
-631.536	-87.247	-0.041	0.013
-630.522	10.238	0.115	-0.088
-629.507	165.076	-0.065	0.092
-628.492	800.000	0.075	0.245
-627.478	440.177	-0.077	0.169
-626.463	-28.078	0.141	-0.082
-625.449	163.240	0.088	0.125
-624.434	-71.768	0.044	0.016
-623.419	211.597	0.016	0.025
-622.405	244.968	-0.029	0.050
-621.390	800.000	-0.062	-0.269
-620.376	-200.000	-0.016	0.085
-619.361	800.000	0.084	0.276
-618.346	-149.119	0.259	-0.021
-617.332	-28.897	0.203	-0.118
-616.317	-38.962	0.235	-0.125
-615.303	-29.355	-0.124	-0.072
-614.288	-43.176	0.230	-0.117
-613.273	-200.000	0.017	-0.133
-612.259	800.000	-0.084	-0.246
-611.244	-123.038	-0.118	0.019
-610.230	-200.000	0.024	0.153
-609.215	53.022	-0.220	0.212
-608.201	51.009	0.242	-0.231
-607.186	800.000	-0.050	-0.140
-606.171	-200.000	0.076	0.373
-605.157	46.133	-0.160	0.149
-604.142	-85.144	0.151	-0.048
-603.128	69.870	0.157	0.163
-602.113	768.940	0.142	0.391
-601.098	-200.000	0.055	0.251
-600.084	-14.288	-0.081	0.053
-599.069	-200.000	0.036	0.235
-598.055	121.049	0.287	-0.360
-597.040	344.110	-0.042	-0.084
-596.025	301.943	-0.058	0.108
-595.011	-72.977	0.280	0.104
-593.996	800.000	-0.007	0.022
-592.982	-45.448	0.066	-0.033
-591.967	669.840	0.083	0.216
-590.952	-200.000	-0.003	-0.060
-589.938	-200.000	0.001	0.092
-588.923	800.000	0.013	-0.051
-587.909	327.293	-0.120	-0.232
-586.894	13.359	0.348	-0.272
-585.879	-126.086	0.127	0.019
-584.865	284.569	0.135	-0.246
-583.850	800.000	-0.061	-0.210
-582.836	-7.367	0.194	-0.132
-581.821	210.614	0.063	-0.100
-580.806	-56.763	-0.172	-0.077
-579.792	21.182	-0.235	-0.192
-578.777	-200.000	0.012	-0.210
-577.763	126.537	-0.061	-0.078
-576.748	232.489	-0.071	0.117
-575.733	16.927	-0.112	-0.089
-574.719	-33.245	0.206	0.115
-573.704	-81.201	0.095	-0.031
-572.690	-200.000	0.016	0.168
-571.675	42.489	-0.282	0.259
-570.661	499.328	0.089	0.206
-569.646	-77.288	-0.317	0.111
-568.631	-119.777	-0.171	-0.030
-567.617	800.000	0.024	-0.097
-566.602	-200.000	0.021	-0.231
-565.588	-200.000	0.022	-0.195
-564.573	-200.000	0.000	-0.143
-563.558	-59.217	-0.184	0.080
-562.544	30.073	-0.111	0.096
-561.529	-200.000	0.003	0.157
-560.515	47.594	0.191	0.180
-559.500	-200.000	-0.106	-0.659
-558.485	-83.866	0.287	-0.092
-557.471	-200.000	0.014	0.156
-556.456	-200.000	-0.085	-0.438
-555.442	800.000	-0.009	0.031
-554.427	-76.628	-0.153	0.054
-553.412	213.331	0.048	-0.076
-552.398	800.000	-0.088	0.385
-551.383	-200.000	-0.004	0.019
-550.369	-18.915	0.067	0.042
-549.354	800.000	0.066	0.219
-548.339	-167.351	0.112	0.005
-547.325	-64.851	0.272	0.111
-546.310	-49.842	-0.110	-0.053
-545.296	-25.955	0.183	-0.109
-544.281	426.901	-0.103	0.224
-543.266	117.181	0.177	0.220
-542.252	-200.000	-0.012	0.172
-541.237	-200.000	-0.004	-0.117
-540.223	112.316	0.258	0.314
-539.208	-200.000	0.015	-0.111
-538.193	167.782	0.177	-0.253
-537.179	-136.017	-0.179	0.021
-536.164	-86.041	-0.133	-0.041
-535.150	-200.000	-0.073	0.331
-534.135	-165.051	0.201	0.009
-533.121	664.786	-0.067	-0.174
-532.106	35.378	-0.091	-0.080
-531.091	454.738	0.123	-0.274
-530.077	800.000	-0.055	-0.153
-529.062	387.057	-0.124	-0.258
-528.048	-200.000	-0.029	-0.129
-527.033	-141.791	-0.183	0.018
-526.018	800.000	0.026	0.094
-525.004	258.512	0.055	0.095
-523.989	-11.337	-0.198	-0.131
-522.975	800.000	0.048	0.135
-521.960	34.869	0.120	-0.106
-520.945	-94.836	-0.139	0.038
-519.931	-129.998	0.158	0.022
-518.916	800.000	0.068	-0.225
-517.902	-100.088	-0.225	-0.056
-516.887	148.494	0.284	0.385
-515.872	800.000	0.073	-0.292
-514.858	112.368	0.259	0.315
-513.843	-120.398	0.170	0.029
-512.829	-46.212	-0.222	0.110
-511.814	800.000	0.034	0.107
-510.799	-200.000	0.002	-0.215
-509.785	326.589	0.098	-0.189
-508.770	-159.727	-0.140	-0.008
-507.756	-200.000	-0.021	0.435
-506.741	-125.535	-0.318	0.049
-505.726	-200.000	-0.005	0.247
-504.712	-119.804	0.216	0.037
-503.697	143.283	-0.150	0.200
-502.683	187.597	0.021	-0.031
-501.668	-44.232	0.224	-0.113
-500.653	-9.248	-0.146	-0.098
-499.639	-87.932	-0.191	0.058
-498.624	337.772	-0.068	-0.132
-497.610	-163.388	-0.141	0.007
-496.595	-200.000	0.048	0.239
-495.581	-101.954	-0.220	-0.053
-494.566	88.226	-0.017	-0.019
-493.551	-99.470	0.312	0.079
-492.537	54.086	-0.161	-0.156
-491.522	297.157	0.063	-0.116
-490.508	-54.461	-0.073	-0.033
-489.493	-170.148	-0.203	0.007
-488.478	-200.000	0.001	-0.208
-487.464	-94.369	-0.248	-0.068
-486.449	-65.837	-0.140	-0.056
-485.435	-174.507	0.445	-0.013
-484.420	-111.279	-0.284	-0.058
-483.405	-57.764	-0.186	-0.082
-482.391	65.069	0.238	-0.242
-481.376	-62.543	-0.308	-0.128
-480.362	319.629	-0.182	0.346
-479.347	-200.000	0.010	-0.114
-478.332	-57.266	0.439	-0.194
-477.318	-166.837	-0.059	-0.002
-476.303	-79.451	-0.055	0.019
-475.289	-19.747	-0.182	0.113
-474.274	208.093	-0.050	-0.079
-473.259	-200.000	-0.016	0.187
-472.245	-37.799	-0.291	-0.155
-471.230	-74.484	-0.081	0.029
-470.216	121.366	-0.119	-0.148
-469.201	59.042	0.131	0.129
-468.186	298.229	0.027	-0.050
-467.172	-173.570	-0.351	-0.011
-466.157	800.000	-0.029	-0.096
-465.143	-26.448	-0.166	-0.097
-464.128	-5.548	0.142	-0.097
-463.113	-79.341	0.309	0.105
-462.099	-5.125	0.261	0.180
-461.084	-79.626	-0.045	0.015
-460.070	221.330	-0.233	0.376
-459.055	70.592	-0.106	-0.110
-458.040	4.876	-0.166	0.122
-457.026	-49.575	0.156	-0.075
-456.011	-93.827	-0.408	-0.113
-454.997	148.565	-0.267	0.362
-453.982	187.052	0.161	0.241
-452.968	-118.279	0.255	0.045
-451.953	590.349	-0.042	-0.104
-450.938	800.000	0.037	-0.163
-449.924	83.292	-0.098	-0.108
-448.909	159.727	-0.151	0.211
-447.895	800.000	0.097	0.339
-446.880	-200.000	-0.022	0.143
-445.865	800.000	0.113	-0.321
-444.851	800.000	-0.016	-0.062
-443.836	-105.400	-0.496	-0.113
-442.822	-45.634	-0.241	-0.119
-441.807	-158.916	-0.158	0.009
-440.792	7.880	0.129	-0.097
-439.778	80.529	0.070	0.076
-438.763	603.612	-0.136	-0.340
-437.749	-71.613	-0.106	0.040
-436.734	-200.000	-0.105	-0.000
-435.719	-68.354	-0.258	-0.101
-434.705	392.852	0.110	0.230
-433.690	-108.932	0.213	0.046
-432.676	22.087	0.081	-0.066
-431.661	-187.606	0.253	0.003
-430.646	-200.000	-0.008	-0.154
-429.632	132.484	-0.082	0.106
-428.617	107.196	-0.238	0.283
-427.603	-154.756	0.266	-0.018
-426.588	-26.774	-0.314	0.184
-425.573	-16.559	0.035	0.022
-424.559	-138.229	-0.380	-0.042
-423.544	-104.434	0.195	-0.045
-422.530	133.746	0.089	-0.115
-421.515	-38.255	0.144	-0.076
-420.500	-60.260	0.063	0.027
-419.486	120.681	0.165	0.205
-418.471	800.000	0.063	0.206
-417.457	-200.000	0.020	-0.116
-416.442	-75.084	0.147	0.053
-415.428	-87.190	-0.159	-0.048
-414.413	50.048	0.269	-0.254
-413.398	28.067	0.266	-0.225
-412.384	-91.769	0.272	-0.077
-411.369	126.494	-0.128	-0.162
-410.355	40.333	0.158	0.142
-409.340	-57.678	-0.150	-0.066
-408.325	-133.527	-0.248	0.031
-407.311	800.000	0.014	-0.046
-406.296	-200.000	-0.001	0.423
-405.282	-200.000	0.006	0.121
-404.267	567.092	0.076	0.184
-403.252	-76.336	-0.147	0.052
-402.238	-183.217	0.171	-0.003
-401.223	-200.000	0.012	-0.176
-400.209	-147.935	-0.254	0.021
-399.194	-200.000	0.008	0.346
-398.179	-188.491	-0.328	0.004
-397.165	800.000	0.043	-0.149
-396.150	125.470	0.005	-0.006
-395.136	97.973	0.117	0.135
-394.121	-131.088	-0.267	0.036
-393.106	74.325	0.154	-0.162
-392.092	-46.513	0.091	-0.045
-391.077	179.615	-0.089	-0.130
-390.063	211.678	-0.261	-0.412
-389.048	-26.232	0.201	-0.118
-388.033	-200.000	-0.006	-0.173
-387.019	129.243	0.084	0.108
-386.004	131.050	0.123	-0.158
-384.990	64.385	-0.082	-0.082
-383.975	-114.577	-0.016	-0.003
-382.960	175.138	0.064	-0.093
-381.946	-78.659	0.236	0.081
-380.931	-200.000	-0.038	0.298
-379.917	-90.977	0.321	0.092
-378.902	47.349	-0.186	0.173
-377.888	18.746	0.092	-0.074
-376.873	-86.535	0.078	-0.024
-375.858	-110.003	0.184	0.039
-374.844	133.631	-0.233	-0.301
-373.829	800.000	0.028	-0.122
-372.815	25.811	0.132	0.110
-371.800	140.656	-0.246	-0.326
-370.785	800.000	0.048	0.170
-369.771	85.028	0.189	-0.207
-368.756	-200.000	-0.015	-0.267
-367.742	-22.722	-0.128	-0.077
-366.727	-135.957	0.349	-0.041
-365.712	69.035	-0.125	-0.129
-364.698	219.311	-0.078	0.125
-363.683	139.829	-0.089	0.117
-362.669	290.407	-0.137	0.249
-361.654	-86.821	-0.200	-0.061
-360.639	47.761	0.124	0.116
-359.625	800.000	-0.070	0.259
-358.610	26.579	-0.378	0.316
-357.596	-85.870	0.194	-0.060
-356.581	37.036	-0.243	-0.215
-355.566	44.105	-0.225	-0.206
-354.552	-61.227	0.173	0.073
-353.537	534.055	0.266	0.629
-352.523	800.000	0.068	0.259
-351.508	364.982	-0.053	0.107
-350.493	-135.702	0.166	-0.020
-349.479	136.614	0.062	-0.081
-348.464	-99.922	-0.297	-0.074
-347.450	-200.000	0.012	-0.120
-346.435	-68.621	0.239	0.093
-345.420	213.518	-0.030	-0.047
-344.406	-55.217	-0.225	0.101
-343.391	-71.279	-0.236	-0.088
-342.377	-139.489	0.088	-0.009
-341.362	-48.089	-0.160	-0.077
-340.348	477.796	0.043	-0.096
-339.333	48.655	0.173	-0.162
-338.318	-79.669	0.120	0.040
-337.304	-43.472	-0.241	0.122
-336.289	-200.000	-0.012	-0.160
-335.275	-152.944	-0.250	0.018
-334.260	44.000	-0.267	-0.244
-333.245	256.864	0.019	0.032
-332.231	-200.000	-0.024	0.114
-331.216	-200.000	-0.026	0.151
-330.202	-88.547	0.060	-0.018
-329.187	171.594	-0.255	-0.366
-328.172	153.090	-0.166	-0.227
-327.158	-200.000	-0.028	-0.247
-326.143	17.223	-0.092	0.072
-325.129	-200.000	0.011	0.066
-324.114	-139.876	-0.096	-0.010
-323.099	-97.611	0.117	0.030
-322.085	-200.000	0.005	-0.065
-321.070	-114.202	-0.263	-0.051
-320.056	-95.016	0.204	0.055
-319.041	104.257	-0.091	-0.107
-318.026	-69.249	-0.132	-0.051
-317.012	-137.587	-0.231	-0.026
-315.997	38.442	-0.259	-0.231
-314.983	32.628	0.192	-0.165
-313.968	-7.036	0.191	0.130
-312.953	-7.765	0.273	0.184
-311.939	800.000	-0.147	0.424
-310.924	-200.000	-0.236	-0.000
-309.910	-140.534	-0.051	-0.005
-308.895	-200.000	0.011	-0.425
-307.880	72.088	0.139	0.144
-306.866	-200.000	0.057	0.264
-305.851	-57.018	0.115	0.051
-304.837	-77.709	-0.122	0.042
-303.822	-143.177	0.303	-0.029
-302.807	109.374	-0.102	0.122
-301.793	-200.000	0.010	-0.171
-300.778	-101.644	0.316	0.076
-299.764	74.723	-0.058	-0.061
-298.749	45.976	-0.080	-0.074
-297.735	309.274	-0.044	-0.083
-296.720	800.000	-0.017	0.070
-295.705	-200.000	-0.018	0.122
-294.691	-200.000	0.009	-0.189
-293.676	-200.000	-0.039	0.362
-292.662	800.000	0.061	0.216
-291.647	88.186	0.153	0.170
-290.632	800.000	0.110	0.330
-289.618	499.779	-0.061	0.141
-288.603	200.504	0.206	0.315
-287.589	800.000	-0.048	0.146
-286.574	800.000	-0.084	0.315
-285.559	-86.745	0.241	0.073
-284.545	125.568	0.179	-0.225
-283.530	86.694	0.013	0.014
-282.516	-131.560	0.017	0.002
-281.501	-200.000	-0.034	0.184
-280.486	-69.674	-0.170	-0.065
-279.472	40.218	-0.343	-0.308
-278.457	7.657	-0.296	-0.220
-277.443	462.159	-0.033	-0.074
-276.428	-106.193	-0.153	0.034
-275.413	-24.467	0.160	0.095
-274.399	-53.273	0.279	0.128
-273.384	800.000	-0.046	0.192
-272.370	-200.000	0.091	0.496
-271.355	353.554	0.145	-0.286
-270.340	800.000	-0.043	0.165
-269.326	-200.000	0.011	-0.168
-268.311	-147.908	-0.160	-0.013
-267.297	-27.024	0.088	-0.051
-266.282	-200.000	-0.013	-0.180
-265.267	-200.000	-0.037	-0.232
-264.253	222.258	-0.116	0.186
-263.238	-192.369	-0.216	0.002
-262.224	-200.000	0.002	-0.507
-261.209	46.889	0.237	0.219
-260.195	205.299	-0.104	0.160
-259.180	189.998	-0.187	0.280
-258.165	152.013	-0.136	0.185
-257.151	266.164	0.153	0.267
-256.136	78.583	0.178	0.190
-255.122	-183.150	0.275	0.005
-254.107	-200.000	0.001	0.101
-253.092	800.000	0.008	0.030
-252.078	61.583	0.143	-0.141
-251.063	166.229	-0.219	-0.309
-250.049	-200.000	0.059	-0.321
-249.034	254.816	0.040	-0.068
-248.019	-200.000	-0.058	-0.305
-247.005	-200.000	0.046	-0.248
-245.990	-33.198	0.258	-0.142
-244.976	-140.556	-0.298	-0.031
-243.961	11.049	-0.157	-0.119
-242.946	-72.400	0.103	0.038
-241.932	800.000	0.055	0.199
-240.917	800.000	-0.102	0.295
-239.903	2.108	-0.183	0.131
-238.888	-121.968	-0.384	0.063
-237.873	92.140	0.085	0.095
-236.859	-200.000	0.007	-0.208
-235.844	-72.506	0.199	0.073
-234.830	575.864	0.053	-0.129
-233.815	266.825	0.155	-0.270
-232.800	-168.256	0.207	0.008
-231.786	-30.957	-0.196	0.110
-230.771	-200.000	0.001	0.204
-229.757	-200.000	0.041	0.315
-228.742	321.759	0.078	0.148
-227.727	-200.000	-0.037	-0.164
-226.713	124.987	0.068	-0.085
-225.698	147.796	0.211	-0.283
-224.684	-59.242	-0.253	0.108
-223.669	-158.463	-0.218	0.013
-222.655	152.691	-0.249	0.338
-221.640	-200.000	-0.051	0.226
-220.625	195.731	0.062	0.094
-219.611	85.031	-0.101	-0.110
-218.596	-120.760	-0.108	-0.018
-217.582	-37.543	-0.114	0.060
-216.567	-200.000	-0.022	-0.158
-215.552	-200.000	0.007	-0.309
-214.538	42.487	0.200	0.180
-213.523	-200.000	0.004	-0.219
-212.509	-200.000	0.001	-0.071
-211.494	-91.101	-0.426	-0.121
-210.479	670.644	-0.030	0.078
-209.465	800.000	0.019	0.068
-208.450	-80.127	-0.243	-0.081
-207.436	-165.992	0.172	-0.007
-206.421	-78.717	-0.229	-0.078
-205.406	-128.287	-0.101	-0.014
-204.392	159.403	0.093	0.128
-203.377	-50.150	-0.116	-0.055
-202.363	-47.830	-0.061	-0.029
-201.348	-44.342	0.092	-0.046
-200.333	-98.198	0.112	0.029
-199.319	314.602	0.046	0.085
-198.304	-200.000	0.003	0.256
-197.290	533.822	0.074	0.173
-196.275	-10.481	0.151	0.100
-195.260	-200.000	-0.009	0.098
-194.246	-8.797	0.281	0.187
-193.231	723.525	-0.067	-0.177
-192.217	800.000	0.044	0.138
-191.202	-200.000	0.021	-0.148
-190.187	-200.000	-0.051	0.346
-189.173	800.000	0.091	0.375
-188.158	-39.553	0.083	0.043
-187.144	-139.519	0.322	-0.034
-186.129	120.211	0.203	-0.250
-185.114	75.486	0.200	-0.210
-184.100	-68.388	-0.072	-0.028
-183.085	800.000	0.074	-0.237
-182.071	48.535	-0.102	0.095
-181.056	719.844	0.116	-0.307
-180.042	73.492	-0.141	-0.147
-179.027	-200.000	-0.005	-0.177
-178.012	-99.810	0.101	-0.025
-176.998	160.063	0.104	-0.143
-175.983	-200.000	0.001	-0.136
-174.969	27.366	-0.113	-0.095
-173.954	-21.175	0.105	0.063
-172.939	-192.899	0.254	-0.002
-171.925	-200.000	0.004	-0.115
-170.910	266.154	0.194	0.335
-169.896	117.628	-0.065	0.079
-168.881	106.710	0.253	-0.298
-167.866	-7.148	0.064	0.043
-166.852	85.358	0.101	-0.110
-165.837	-103.365	-0.388	-0.091
-164.823	-137.080	-0.372	-0.042
-163.808	-36.641	0.230	-0.123
-162.793	-36.213	0.266	-0.142
-161.779	-49.980	-0.256	-0.120
-160.764	-81.758	0.196	-0.064
-159.750	800.000	0.069	0.211
-158.735	-83.994	-0.236	0.074
-157.720	-52.772	-0.102	0.047
-156.706	55.512	0.119	0.114
-155.691	-200.000	0.006	-0.031
-154.677	800.000	0.067	0.242
-153.662	28.074	0.169	0.141
-152.647	-27.417	-0.191	0.110
-151.633	310.767	0.158	0.293
-150.618	-200.000	-0.021	0.238
-149.604	-56.357	0.281	0.124
-148.589	-200.000	0.023	-0.162
-147.574	9.301	-0.135	0.101
-146.560	800.000	-0.066	-0.188
-145.545	-82.309	-0.296	-0.096
-144.531	-104.916	-0.152	0.035
-143.516	5.843	0.211	0.155
-142.502	-200.000	-0.028	0.262
-141.487	50.763	0.225	-0.211
-140.472	-200.000	-0.009	-0.141
-139.458	-167.099	0.282	0.011
-138.443	533.555	0.161	0.377
-137.429	-50.915	-0.209	-0.097
-136.414	472.878	0.146	-0.325
-135.399	506.057	-0.095	-0.219
-134.385	-136.332	0.080	0.009
-133.370	800.000	-0.106	-0.305
-132.356	-111.118	-0.020	0.004
-131.341	-200.000	-0.050	0.229
-130.326	421.054	0.063	0.133
-129.312	115.251	-0.108	0.131
-128.297	355.277	0.135	-0.266
-127.283	-83.978	-0.231	0.073
-126.268	210.578	-0.066	-0.103
-125.253	-60.744	-0.169	-0.071
-124.239	-31.147	-0.250	-0.139
-123.224	-76.184	-0.352	-0.123
-122.210	204.143	0.134	-0.206
