DTS Sentinel unit serial number:	SN413079Multiplexer serial number:	ORYXHardware model number:	OX4-SRSoftware version number:	ORYX F/W v4.00 Oryx Data Collector v3.7.2.0data status	okinstallation	princeton_trtdifferential loss correction	single-endedforward channel	channel 2reverse channel	N/Adate	2019/09/19time	07:11:34forward acquisition time	60.00reverse acquisition time	0.00gamma	496.2192k internal	0.2350k external	0.2350temperature offset calibration	1.0008default loss term (dB/km)	0.3790temperature slope calibration	1.0000multiplexer offset coefficient	1.0000multiplexer slope coefficient	1.0000fibre end	0.00T internal ref (°C)	19.05T ext. ref 1 (°C)	0.56T ext. ref 2 (°C)	13.30length (m)	temperature (°C)	Stokes	anti-Stokes-747.200	-31.422	0.189	-0.106
-746.185	-109.935	0.243	-0.051
-745.171	33.775	0.076	-0.066
-744.156	285.105	-0.232	-0.417
-743.142	78.116	0.086	0.092
-742.127	-200.000	-0.281	-0.000
-741.112	-70.977	-0.118	-0.044
-740.098	-132.969	-0.307	-0.039
-739.083	-108.417	-0.220	0.047
-738.069	746.700	-0.101	0.273
-737.054	-108.756	0.247	-0.053
-736.039	800.000	0.024	0.069
-735.025	65.928	-0.091	0.092
-734.010	5.055	-0.149	-0.109
-732.996	-6.159	-0.189	0.129
-731.981	-140.382	0.193	0.020
-730.966	800.000	-0.058	0.251
-729.952	5.135	-0.266	0.196
-728.937	-195.731	-0.050	-0.000
-727.923	186.216	0.120	-0.179
-726.908	-200.000	-0.025	-0.144
-725.894	24.023	-0.256	-0.211
-724.879	141.716	0.255	-0.337
-723.864	-159.194	0.172	-0.010
-722.850	484.426	0.013	-0.030
-721.835	800.000	0.065	0.184
-720.821	-181.560	0.340	-0.007
-719.806	16.402	0.428	-0.337
-718.791	-140.322	-0.324	0.034
-717.777	-89.434	-0.155	0.045
-716.762	100.120	0.116	0.135
-715.748	43.137	-0.253	0.230
-714.733	-200.000	-0.001	0.065
-713.718	200.650	-0.201	0.308
-712.704	250.558	-0.080	0.135
-711.689	-15.167	0.105	-0.067
-710.675	-200.000	-0.022	0.202
-709.660	343.872	0.052	-0.101
-708.645	272.402	0.120	0.211
-707.631	-200.000	-0.004	-0.107
-706.616	331.007	0.051	0.098
-705.602	-32.446	-0.147	0.082
-704.587	63.349	0.142	-0.142
-703.572	-35.657	-0.186	0.100
-702.558	-141.435	0.331	0.033
-701.543	-200.000	0.008	-0.072
-700.529	18.157	0.079	-0.063
-699.514	800.000	-0.025	0.083
-698.499	115.328	0.074	0.090
-697.485	84.099	0.170	0.185
-696.470	-200.000	-0.004	-0.305
-695.456	-92.289	-0.457	0.128
-694.441	155.882	0.162	-0.222
-693.426	8.567	0.042	-0.031
-692.412	533.671	-0.048	-0.114
-691.397	-200.000	-0.054	-0.454
-690.383	-200.000	0.022	-0.343
-689.368	800.000	-0.040	0.144
-688.354	-14.546	-0.297	-0.190
-687.339	-178.608	0.257	0.006
-686.324	-200.000	0.060	0.410
-685.310	-167.414	0.244	0.010
-684.295	-93.518	0.350	-0.096
-683.281	247.085	-0.120	-0.201
-682.266	-37.358	0.032	-0.017
-681.251	197.598	0.072	0.109
-680.237	651.279	0.083	0.211
-679.222	-45.835	0.322	0.158
-678.208	-200.000	-0.005	0.139
-677.193	63.018	-0.080	-0.080
-676.178	332.060	-0.110	-0.211
-675.164	404.295	0.036	0.075
-674.149	-73.777	-0.296	-0.107
-673.135	-182.937	0.211	-0.004
-672.120	-66.439	-0.095	0.038
-671.105	50.059	0.136	0.128
-670.091	233.508	0.194	0.317
-669.076	30.006	-0.054	-0.045
-668.062	-38.028	-0.275	-0.145
-667.047	-169.205	-0.343	-0.013
-666.032	-200.000	-0.021	-0.181
-665.018	53.705	0.203	-0.194
-664.003	-152.888	-0.610	0.043
-662.989	-50.667	0.051	0.024
-661.974	448.719	0.102	-0.224
-660.959	-39.636	0.184	-0.096
-659.945	800.000	0.122	-0.453
-658.930	-118.493	-0.671	0.118
-657.916	-72.154	-0.159	0.059
-656.901	281.320	-0.114	-0.204
-655.886	126.307	-0.173	0.217
-654.872	290.722	-0.056	0.101
-653.857	800.000	-0.095	0.316
-652.843	-35.489	0.145	-0.078
-651.828	-200.000	0.104	0.497
-650.814	-200.000	-0.002	-0.078
-649.799	187.962	-0.165	-0.245
-648.784	-96.693	-0.359	-0.094
-647.770	323.364	0.086	0.164
-646.755	168.315	0.125	-0.177
-645.741	-200.000	-0.009	-0.157
-644.726	-133.843	0.187	-0.023
-643.711	2.534	-0.100	0.072
-642.697	-103.407	-0.209	0.049
-641.682	519.681	0.031	0.073
-640.668	245.392	0.064	-0.108
-639.653	-146.655	0.178	-0.015
-638.638	266.856	-0.073	0.127
-637.624	-197.568	-0.203	-0.001
-636.609	67.580	-0.104	0.106
-635.595	-41.010	-0.027	0.014
-634.580	-164.704	-0.315	-0.014
-633.565	128.694	-0.173	-0.219
-632.551	-100.613	-0.348	-0.085
-631.536	195.541	-0.067	0.101
-630.522	-52.048	-0.161	0.075
-629.507	-99.783	-0.365	-0.091
-628.492	106.288	0.266	-0.313
-627.478	577.884	-0.109	-0.265
-626.463	310.671	-0.204	0.380
-625.449	47.518	-0.225	0.209
-624.434	800.000	0.056	-0.226
-623.419	158.002	0.149	0.205
-622.405	-53.508	-0.241	-0.109
-621.390	-136.307	0.250	0.029
-620.376	164.456	-0.082	0.115
-619.361	25.639	0.152	-0.126
-618.346	-200.000	0.026	-0.115
-617.332	243.800	-0.176	-0.294
-616.317	118.835	0.093	-0.115
-615.303	800.000	-0.022	-0.061
-614.288	-200.000	0.027	-0.192
-613.273	617.772	0.034	0.085
-612.259	-154.641	-0.239	0.016
-611.244	285.601	-0.154	0.276
-610.230	-93.576	-0.081	0.022
-609.215	-154.343	0.070	0.005
-608.201	82.916	-0.276	0.298
-607.186	15.088	-0.087	-0.067
-606.171	380.394	-0.104	-0.213
-605.157	270.638	0.072	-0.126
-604.142	-126.001	0.243	0.036
-603.128	800.000	-0.061	-0.217
-602.113	-17.651	0.121	0.076
-601.098	-24.210	0.211	-0.125
-600.084	-90.555	0.134	0.039
-599.069	-200.000	0.019	-0.146
-598.055	-69.792	0.083	0.032
-597.040	262.950	0.187	0.323
-596.025	-40.918	0.408	-0.210
-595.011	-76.969	-0.396	0.137
-593.996	-200.000	0.176	0.001
-592.982	142.016	-0.234	0.308
-591.967	178.408	0.230	0.333
-590.952	-131.028	0.266	-0.035
-589.938	-183.569	-0.168	-0.003
-588.923	40.984	-0.159	-0.143
-587.909	-200.000	0.009	-0.103
-586.894	-13.781	-0.088	0.057
-585.879	-78.025	0.134	0.046
-584.865	-45.320	-0.234	0.115
-583.850	-30.665	-0.283	0.159
-582.836	-200.000	-0.008	0.084
-581.821	800.000	0.048	0.136
-580.806	420.992	0.037	-0.079
-579.792	-127.030	0.238	-0.035
-578.777	36.209	0.132	-0.116
-577.763	-41.445	-0.172	0.088
-576.748	-200.000	-0.008	-0.355
-575.733	-200.000	0.007	0.207
-574.719	-118.516	0.183	-0.032
-573.704	48.289	-0.115	-0.106
-572.690	-85.407	-0.118	-0.037
-571.675	-200.000	-0.002	-0.075
-570.661	-158.366	-0.058	-0.003
-569.646	131.369	0.092	-0.117
-568.631	22.700	-0.068	-0.056
-567.617	-141.016	-0.397	-0.040
-566.602	755.613	0.056	0.150
-565.588	-58.429	-0.112	-0.048
-564.573	-2.800	-0.300	-0.208
-563.558	-65.081	0.309	-0.124
-562.544	-200.000	-0.069	-0.436
-561.529	42.552	-0.090	-0.081
-560.515	589.269	0.072	-0.176
-559.500	-69.245	-0.226	-0.086
-558.485	-160.025	0.056	0.003
-557.471	-23.999	-0.235	0.139
-556.456	-55.367	-0.357	-0.159
-555.442	-200.000	0.018	0.116
-554.427	521.682	-0.019	-0.044
-553.412	-76.249	-0.072	0.025
-552.398	596.398	-0.142	0.348
-551.383	76.908	-0.112	-0.118
-550.369	-200.000	-0.013	0.217
-549.354	-85.040	0.091	-0.028
-548.339	-155.202	0.494	-0.032
-547.325	-106.111	0.088	-0.019
-546.310	4.598	-0.286	-0.208
-545.296	-47.997	0.371	0.178
-544.281	-75.067	0.264	0.094
-543.266	-73.778	-0.123	-0.044
-542.252	-134.811	-0.129	-0.015
-541.237	-200.000	0.024	-0.344
-540.223	-19.445	-0.205	0.126
-539.208	800.000	-0.106	-0.296
-538.193	-150.319	0.089	0.007
-537.179	-200.000	0.027	-0.245
-536.164	228.938	0.242	0.391
-535.150	-165.421	-0.217	-0.009
-534.135	278.811	0.108	-0.191
-533.121	-61.978	-0.068	-0.028
-532.106	-146.285	0.096	-0.008
-531.091	800.000	-0.102	0.335
-530.077	-200.000	-0.013	0.503
-529.062	-24.772	-0.265	0.156
-528.048	110.894	-0.164	-0.195
-527.033	800.000	-0.019	0.077
-526.018	-200.000	-0.072	-0.374
-525.004	647.136	0.038	-0.097
-523.989	-200.000	-0.045	-0.253
-522.975	532.244	0.128	-0.301
-521.960	598.965	-0.087	-0.214
-520.945	56.235	-0.238	0.229
-519.931	-200.000	-0.019	-0.108
-518.916	208.169	-0.076	0.117
-517.902	-200.000	-0.007	0.064
-516.887	-200.000	0.015	0.230
-515.872	125.729	-0.041	0.052
-514.858	-100.632	0.231	-0.056
-513.843	38.371	-0.175	-0.154
-512.829	47.252	0.020	0.018
-511.814	-119.486	-0.237	-0.041
-510.799	164.755	-0.071	0.099
-509.785	-200.000	0.010	0.097
-508.770	-11.054	0.071	-0.046
-507.756	734.460	-0.054	0.142
-506.741	-97.901	-0.368	-0.094
-505.726	561.260	0.063	-0.150
-504.712	6.039	-0.198	0.145
-503.697	-26.750	0.139	0.081
-502.683	-98.226	-0.161	-0.041
-501.668	-109.389	-0.232	-0.049
-500.653	-58.399	-0.112	-0.048
-499.639	-8.807	0.019	-0.013
-498.624	56.886	0.208	0.200
-497.610	-200.000	0.020	0.106
-496.595	-56.983	0.338	-0.147
-495.581	-200.000	-0.028	-0.243
-494.566	800.000	-0.068	-0.206
-493.551	-200.000	-0.012	-0.058
-492.537	451.917	-0.069	-0.152
-491.522	-103.695	0.280	0.065
-490.508	566.291	0.054	-0.131
-489.493	800.000	0.116	-0.394
-488.478	-41.998	0.282	0.143
-487.464	-70.966	-0.379	-0.141
-486.449	-18.129	0.276	-0.171
-485.435	-10.714	0.091	0.059
-484.420	-200.000	0.026	0.278
-483.405	800.000	0.032	0.138
-482.391	-96.524	-0.145	-0.038
-481.376	84.659	0.113	-0.123
-480.362	-200.000	0.058	0.345
-479.347	-200.000	0.020	0.145
-478.332	-33.625	-0.258	-0.141
-477.318	592.641	0.073	-0.177
-476.303	-200.000	0.013	-0.401
-475.289	-70.129	-0.369	0.139
-474.274	-104.934	0.272	-0.062
-473.259	261.071	0.087	0.149
-472.245	-181.344	0.086	-0.002
-471.230	-15.156	-0.170	-0.108
-470.216	43.744	0.044	0.040
-469.201	38.045	0.258	-0.227
-468.186	401.063	0.086	-0.178
-467.172	600.438	-0.151	-0.371
-466.157	397.176	0.059	0.122
-465.143	321.188	0.066	-0.123
-464.128	800.000	-0.050	-0.179
-463.113	-57.369	0.081	-0.035
-462.099	-97.752	0.088	-0.023
-461.084	-109.409	-0.173	-0.036
-460.070	43.759	0.161	0.145
-459.055	-200.000	-0.024	0.493
-458.040	-57.441	-0.217	-0.094
-457.026	173.134	-0.083	0.118
-456.011	-60.318	0.135	0.057
-454.997	-200.000	0.248	0.000
-453.982	186.228	0.100	-0.147
-452.968	-200.000	0.039	0.215
-451.953	-185.263	-0.278	0.004
-450.938	-120.575	-0.250	0.042
-449.924	260.832	0.226	-0.387
-448.909	-200.000	-0.079	-0.410
-447.895	-16.634	-0.121	0.076
-446.880	516.724	0.067	-0.154
-445.865	800.000	-0.114	0.426
-444.851	-170.299	-0.198	-0.007
-443.836	-184.289	0.298	0.005
-442.822	40.843	-0.059	-0.053
-441.807	-200.000	-0.058	-0.252
-440.792	-14.933	-0.268	-0.169
-439.778	-147.146	-0.128	0.011
-438.763	-103.963	0.142	-0.033
-437.749	-132.954	0.019	-0.002
-436.734	464.462	-0.064	0.142
-435.719	-27.400	0.279	-0.160
-434.705	-92.474	0.392	0.109
-433.690	304.479	0.025	-0.046
-432.676	-18.627	0.186	-0.115
-431.661	-200.000	-0.017	-0.143
-430.646	-200.000	0.036	0.206
-429.632	507.028	0.031	0.070
-428.617	21.086	-0.109	0.087
-427.603	-101.035	-0.111	-0.027
-426.588	-200.000	-0.321	-0.000
-425.573	-137.656	0.165	0.018
-424.559	2.727	-0.209	0.149
-423.544	49.689	0.311	0.289
-422.530	-4.696	-0.341	-0.232
-421.515	451.158	-0.077	-0.169
-420.500	-183.191	0.235	0.004
-419.486	-200.000	-0.022	0.417
-418.471	176.959	-0.191	-0.274
-417.457	-14.864	0.228	-0.144
-416.442	-56.707	0.079	-0.034
-415.428	-200.000	0.033	-0.171
-414.413	-81.880	0.273	-0.088
-413.398	52.683	-0.105	0.099
-412.384	-11.287	-0.096	-0.062
-411.369	-76.252	0.067	0.023
-410.355	-165.988	-0.375	-0.016
-409.340	-200.000	0.018	-0.097
-408.325	-95.200	0.256	0.068
-407.311	100.946	-0.071	-0.081
-406.296	800.000	-0.034	0.095
-405.282	528.539	-0.036	0.084
-404.267	-89.711	0.243	0.070
-403.252	-152.049	0.129	-0.009
-402.238	-37.377	-0.162	0.085
-401.223	744.982	0.129	0.341
-400.209	800.000	-0.049	-0.170
-399.194	47.293	-0.290	-0.266
-398.179	800.000	-0.053	-0.225
-397.165	800.000	0.095	-0.284
-396.150	274.806	0.126	-0.220
-395.136	-29.590	0.215	-0.121
-394.121	-151.358	-0.086	-0.006
-393.106	131.755	0.225	-0.285
-392.092	800.000	-0.052	-0.184
-391.077	-109.077	0.140	-0.029
-390.063	-200.000	0.000	0.408
-389.048	1.842	-0.144	0.102
-388.033	-125.381	0.344	0.052
-387.019	-1.512	-0.322	0.223
-386.004	-28.178	0.335	-0.191
-384.990	800.000	0.054	-0.176
-383.975	-195.322	0.274	0.002
-382.960	-35.806	0.109	-0.058
-381.946	-87.119	-0.169	-0.051
-380.931	-189.334	-0.209	-0.002
-379.917	-200.000	-0.007	0.050
-378.902	800.000	-0.033	0.110
-377.888	800.000	-0.044	0.126
-376.873	-16.012	0.111	0.069
-375.858	-103.626	0.457	0.106
-374.844	-27.879	-0.258	-0.147
-373.829	-200.000	-0.039	0.209
-372.815	213.952	0.152	-0.237
-371.800	800.000	-0.115	0.356
-370.785	192.020	0.187	-0.277
-369.771	-68.844	-0.145	-0.055
-368.756	800.000	-0.013	-0.048
-367.742	-60.907	0.204	-0.085
-366.727	-105.648	-0.144	-0.032
-365.712	-200.000	0.009	0.093
-364.698	-31.119	0.238	0.132
-363.683	-200.000	0.027	0.332
-362.669	347.989	-0.056	0.108
-361.654	49.377	0.191	0.177
-360.639	-12.182	-0.207	-0.134
-359.625	-48.730	-0.235	-0.111
-358.610	-200.000	-0.019	0.198
-357.596	-85.501	0.129	0.040
-356.581	230.059	0.189	0.304
-355.566	91.728	-0.092	0.101
-354.552	-200.000	0.063	0.304
-353.537	272.608	0.052	0.091
-352.523	73.694	-0.130	-0.134
-351.508	89.516	-0.160	-0.176
-350.493	96.276	0.084	0.095
-349.479	-127.887	-0.398	0.056
-348.464	-63.196	0.132	-0.053
-347.450	-74.731	-0.124	-0.044
-346.435	218.581	0.068	-0.107
-345.420	554.370	0.030	0.071
-344.406	-31.946	0.208	0.114
-343.391	677.813	0.127	0.324
-342.377	-200.000	0.018	-0.155
-341.362	-74.632	-0.053	0.019
-340.348	-5.282	0.073	0.049
-339.333	-28.597	0.087	0.049
-338.318	-186.411	-0.533	0.008
-337.304	800.000	-0.013	0.038
-336.289	32.861	-0.211	0.179
-335.275	63.033	-0.108	-0.106
-334.260	109.835	0.067	-0.079
-333.245	685.709	-0.061	-0.157
-332.231	76.491	-0.192	-0.200
-331.216	-200.000	-0.018	0.187
-330.202	-114.315	0.062	-0.012
-329.187	179.497	-0.090	-0.130
-328.172	800.000	-0.067	-0.196
-327.158	-137.565	0.003	-0.000
-326.143	-120.993	-0.266	-0.044
-325.129	45.599	0.205	0.186
-324.114	800.000	-0.044	-0.122
-323.099	-87.434	-0.096	0.028
-322.085	-85.128	0.152	-0.047
-321.070	734.765	-0.102	-0.268
-320.056	189.519	-0.159	-0.235
-319.041	-51.099	-0.242	0.111
-318.026	485.368	0.079	0.177
-317.012	217.236	0.154	0.241
-315.997	-52.438	0.290	-0.132
-314.983	371.635	-0.074	0.147
-313.968	17.631	-0.191	0.149
-312.953	-82.946	-0.194	0.061
-311.939	520.419	-0.092	-0.212
-310.924	-86.060	0.050	-0.015
-309.910	268.782	-0.137	0.236
-308.895	670.637	-0.058	-0.148
-307.880	-200.000	0.041	0.347
-306.866	-200.000	0.044	0.423
-305.851	-68.141	0.124	0.048
-304.837	65.678	0.081	0.081
-303.822	360.476	0.100	-0.197
-302.807	93.457	-0.279	-0.310
-301.793	155.539	0.063	0.085
-300.778	-134.113	0.259	-0.031
-299.764	-200.000	-0.079	0.341
-298.749	-143.349	0.274	0.026
-297.735	-6.585	0.093	-0.062
-296.720	800.000	0.077	0.245
-295.705	429.797	0.082	-0.173
-294.691	237.027	-0.132	-0.215
-293.676	-200.000	0.045	-0.193
-292.662	-200.000	0.028	0.322
-291.647	-200.000	-0.053	0.264
-290.632	-74.645	-0.161	0.057
-289.618	-57.001	-0.284	0.123
-288.603	92.051	-0.143	0.158
-287.589	329.745	-0.118	-0.224
-286.574	104.987	0.410	-0.475
-285.559	253.332	-0.135	-0.226
-284.545	33.705	0.225	-0.192
-283.530	-70.410	-0.167	-0.062
-282.516	257.462	-0.179	0.302
-281.501	800.000	0.053	-0.151
-280.486	53.180	-0.222	0.209
-279.472	416.326	0.134	0.280
-278.457	15.778	0.098	0.076
-277.443	14.327	-0.269	-0.205
-276.428	83.822	-0.124	0.133
-275.413	-124.382	0.106	-0.016
-274.399	141.189	0.051	-0.066
-273.384	608.719	-0.081	0.197
-272.370	-200.000	-0.026	0.139
-271.355	-109.596	0.149	-0.031
-270.340	-200.000	-0.067	0.421
-269.326	108.160	0.195	-0.227
-268.311	162.436	0.067	0.092
-267.297	800.000	-0.072	0.218
-266.282	85.784	0.152	-0.164
-265.267	55.811	-0.110	0.105
-264.253	800.000	-0.073	-0.251
-263.238	-41.504	0.024	0.012
-262.224	-113.451	-0.138	0.026
-261.209	800.000	-0.102	-0.325
-260.195	68.865	0.164	-0.165
-259.180	8.695	0.360	0.265
-258.165	-200.000	-0.022	0.257
-257.151	205.881	0.192	0.293
-256.136	213.324	0.149	-0.230
-255.122	220.010	0.233	0.366
-254.107	47.939	0.259	-0.237
-253.092	163.018	0.149	0.206
-252.078	-25.294	-0.043	-0.025
-251.063	-200.000	-0.040	-0.203
-250.049	62.126	-0.080	0.078
-249.034	226.993	0.049	0.078
-248.019	-69.286	0.002	0.001
-247.005	-165.389	-0.098	-0.004
-245.990	-67.707	-0.102	0.039
-244.976	-132.880	0.050	0.006
-243.961	-1.956	0.266	0.183
-242.946	-51.981	-0.390	0.177
-241.932	-130.941	-0.284	0.037
-240.917	45.372	0.186	0.168
-239.903	88.440	-0.211	0.230
-238.888	-200.000	0.012	0.143
-237.873	-77.858	0.210	-0.071
-236.859	-200.000	0.031	0.134
-235.844	-11.557	0.350	0.225
-234.830	131.887	-0.122	0.153
-233.815	111.205	-0.106	-0.125
-232.800	169.161	0.106	-0.147
-231.786	257.223	0.252	-0.423
-230.771	84.180	-0.213	-0.228
-229.757	115.875	-0.187	-0.223
-228.742	800.000	0.041	0.123
-227.727	501.125	-0.102	-0.231
-226.713	-103.661	0.245	-0.056
-225.698	800.000	0.041	-0.124
-224.684	-108.127	-0.046	0.010
-223.669	50.143	-0.197	0.182
-222.655	-89.025	0.135	-0.039
-221.640	-43.563	0.066	0.032
-220.625	100.005	0.162	0.183
-219.611	-96.732	0.104	0.027
-218.596	84.340	0.141	-0.151
-217.582	438.912	0.078	0.167
-216.567	43.783	-0.274	0.245
-215.552	-89.200	0.174	-0.050
-214.538	-108.650	-0.316	-0.066
-213.523	52.264	0.282	0.263
-212.509	-145.320	-0.376	0.033
-211.494	-200.000	-0.010	0.241
-210.479	800.000	-0.094	0.270
-209.465	289.542	-0.063	0.112
-208.450	-5.241	0.254	-0.171
-207.436	800.000	0.016	0.052
-206.421	-144.624	0.065	0.006
-205.406	-63.801	0.381	-0.152
-204.392	105.967	0.110	0.127
-203.377	29.809	0.051	0.042
-202.363	-65.484	0.208	0.082
-201.348	-11.948	0.249	0.160
-200.333	800.000	-0.036	0.127
-199.319	268.478	-0.052	-0.088
-198.304	-88.490	0.105	0.031
-197.290	-131.334	0.033	0.004
-196.275	-17.424	-0.229	0.141
-195.260	207.447	-0.230	-0.350
-194.246	-200.000	0.020	0.225
-193.231	53.521	0.207	-0.194
-192.217	372.816	-0.064	0.127
-191.202	420.399	0.087	0.183
-190.187	-200.000	0.017	-0.081
-189.173	237.817	0.097	0.158
-188.158	800.000	-0.037	0.114
-187.144	-36.553	-0.313	-0.164
-186.129	-200.000	-0.017	0.162
-185.114	38.646	0.195	-0.170
-184.100	-200.000	-0.010	-0.163
-183.085	-74.688	-0.136	-0.048
-182.071	507.547	-0.039	-0.088
-181.056	-96.696	0.398	-0.102
-180.042	-200.000	-0.013	-0.090
-179.027	-200.000	0.032	-0.322
-178.012	-108.944	0.506	0.106
-176.998	-200.000	-0.033	0.205
-175.983	800.000	0.044	-0.154
-174.969	21.019	0.096	0.076
-173.954	-134.619	0.169	0.020
-172.939	-62.117	0.169	0.069
-171.925	602.730	-0.052	0.127
-170.910	-200.000	0.072	-0.309
-169.896	359.842	0.175	0.342
-168.881	-200.000	0.024	0.156
-167.866	44.716	-0.137	-0.123
-166.852	305.054	0.184	0.334
-165.837	6.605	0.350	0.254
-164.823	9.970	0.159	0.118
-163.808	90.338	0.149	-0.163
-162.793	-99.181	0.235	0.058
-161.779	800.000	0.072	0.302
-160.764	-113.405	-0.142	0.027
-159.750	373.777	-0.066	-0.132
-158.735	-200.000	0.001	0.055
-157.720	-41.458	-0.235	-0.118
-156.706	-69.773	0.172	0.064
-155.691	-72.207	0.108	0.039
-154.677	119.154	-0.220	0.265
-153.662	134.158	-0.241	-0.305
-152.647	497.839	0.050	-0.112
-151.633	-200.000	0.073	-0.371
-150.618	499.567	0.168	-0.378
-149.604	79.804	0.151	0.158
-148.589	614.098	0.038	-0.093
-147.574	-135.562	-0.055	0.006
-146.560	554.108	0.020	0.046
-145.545	268.050	0.030	-0.052
-144.531	310.902	-0.048	-0.088
-143.516	-200.000	-0.107	-0.000
-142.502	129.252	0.065	0.080
-141.487	639.162	0.077	-0.191
-140.472	-164.770	0.126	-0.006
-139.458	-200.000	0.011	-0.079
-138.443	155.648	-0.153	-0.206
-137.429	-24.407	0.236	0.137
-136.414	-63.456	-0.348	-0.139
-135.399	-6.104	0.208	-0.139
-134.385	800.000	0.105	0.338
-133.370	-138.331	-0.186	-0.020
-132.356	800.000	0.062	-0.183
-131.341	-73.064	0.132	-0.047
-130.326	-79.796	0.266	-0.087
-129.312	25.358	0.115	0.093
-128.297	37.627	-0.216	-0.187
-127.283	455.852	-0.101	-0.219
-126.268	-6.824	0.470	0.311
-125.253	-37.561	-0.441	0.229
-124.239	21.163	0.050	-0.040
-123.224	6.707	0.215	0.156
-122.210	-11.906	0.148	-0.095
-121.195	-48.218	0.121	0.057
