DTS Sentinel unit serial number:	SN413079Multiplexer serial number:	ORYXHardware model number:	OX4-SRSoftware version number:	ORYX F/W v4.00 Oryx Data Collector v3.7.2.0data status	okinstallation	princeton_trtdifferential loss correction	single-endedforward channel	channel 2reverse channel	N/Adate	2019/09/14time	12:55:35forward acquisition time	60.00reverse acquisition time	0.00gamma	496.2192k internal	0.2305k external	0.2305temperature offset calibration	1.0153default loss term (dB/km)	0.3790temperature slope calibration	1.0000multiplexer offset coefficient	1.0000multiplexer slope coefficient	1.0000fibre end	0.00T internal ref (°C)	38.03T ext. ref 1 (°C)	4.86T ext. ref 2 (°C)	33.86length (m)	temperature (°C)	Stokes	anti-Stokes-747.200	-23.421	-0.205	0.125
-746.185	-200.000	0.002	0.093
-745.171	147.045	0.134	0.184
-744.156	-120.758	-0.425	0.073
-743.142	636.801	-0.158	0.407
-742.127	-121.088	0.155	-0.026
-741.112	800.000	0.086	-0.279
-740.098	223.755	0.044	-0.072
-739.083	654.107	0.043	0.114
-738.069	135.764	0.182	0.241
-737.054	-200.000	0.011	-0.465
-736.039	800.000	0.095	-0.324
-735.025	-124.314	0.010	0.002
-734.010	-200.000	-0.010	0.162
-732.996	287.601	-0.087	-0.160
-731.981	170.482	-0.077	-0.113
-730.966	-76.407	-0.331	-0.118
-729.952	-159.647	-0.055	0.003
-728.937	-71.867	-0.306	0.116
-727.923	-114.027	0.368	-0.073
-726.908	-73.579	-0.154	-0.057
-725.894	800.000	0.095	-0.273
-724.879	-53.423	-0.263	-0.123
-723.864	278.020	0.008	0.015
-722.850	700.565	-0.142	-0.381
-721.835	351.833	-0.178	-0.359
-720.821	-200.000	-0.090	-0.000
-719.806	800.000	0.034	-0.105
-718.791	515.196	0.023	0.055
-717.777	456.384	-0.073	-0.164
-716.762	19.072	0.188	0.154
-715.748	-86.021	0.267	0.084
-714.733	-97.885	-0.113	-0.030
-713.718	800.000	-0.046	-0.132
-712.704	-57.032	0.210	-0.094
-711.689	-76.571	-0.042	-0.015
-710.675	549.381	-0.135	-0.328
-709.660	39.568	-0.125	-0.114
-708.645	-164.666	-0.137	-0.006
-707.631	800.000	-0.028	-0.095
-706.616	24.431	-0.134	-0.112
-705.602	58.372	-0.353	-0.352
-704.587	-200.000	0.003	-0.024
-703.572	800.000	0.088	0.387
-702.558	209.801	-0.102	0.162
-701.543	-13.248	-0.143	-0.094
-700.529	-200.000	0.059	-0.446
-699.514	-200.000	-0.025	-0.344
-698.499	-132.049	0.538	0.071
-697.485	-88.466	-0.299	0.091
-696.470	-200.000	-0.003	-0.165
-695.456	-46.880	0.318	0.158
-694.441	60.740	-0.017	0.017
-693.426	-200.000	-0.022	-0.169
-692.412	800.000	0.104	-0.372
-691.397	1.459	-0.160	-0.117
-690.383	800.000	-0.142	-0.467
-689.368	45.016	0.121	0.113
-688.354	108.979	-0.158	-0.192
-687.339	16.927	0.150	0.120
-686.324	9.636	0.262	-0.202
-685.310	-86.392	0.149	0.046
-684.295	-200.000	-0.010	-0.285
-683.281	251.718	-0.211	-0.365
-682.266	-101.350	-0.168	-0.042
-681.251	43.891	0.175	0.163
-680.237	-102.532	-0.187	-0.045
-679.222	-90.572	0.280	0.082
-678.208	-137.751	-0.425	-0.048
-677.193	-28.023	0.308	-0.181
-676.178	-85.364	-0.201	-0.064
-675.164	122.378	0.142	-0.180
-674.149	-162.043	-0.080	0.004
-673.135	-200.000	0.009	0.197
-672.120	49.564	0.092	-0.088
-671.105	387.824	0.053	-0.112
-670.091	-66.330	-0.246	-0.099
-669.076	502.588	-0.109	-0.255
-668.062	61.329	-0.297	-0.300
-667.047	800.000	-0.027	-0.087
-666.032	19.425	-0.110	0.090
-665.018	120.527	0.225	0.284
-664.003	-67.270	0.096	0.038
-662.989	48.666	0.142	0.135
-661.974	51.763	0.041	0.040
-660.959	800.000	0.072	-0.286
-659.945	107.953	-0.227	0.275
-658.930	-12.170	0.277	-0.184
-657.916	-114.049	0.166	-0.033
-656.901	234.578	-0.023	0.039
-655.886	-36.650	0.259	0.141
-654.872	-11.227	0.183	-0.122
-653.857	800.000	-0.126	-0.445
-652.843	-39.624	0.223	-0.118
-651.828	626.325	-0.081	-0.207
-650.814	-200.000	-0.003	-0.197
-649.799	282.106	-0.076	-0.137
-648.784	-200.000	0.021	-0.251
-647.770	-31.588	-0.239	-0.136
-646.755	-200.000	-0.004	-0.114
-645.741	324.830	0.139	-0.270
-644.726	800.000	-0.116	-0.404
-643.711	800.000	-0.052	-0.193
-642.697	-118.731	-0.042	0.008
-641.682	-59.439	0.132	-0.057
-640.668	142.270	-0.171	0.229
-639.653	169.611	0.103	-0.150
-638.638	46.267	0.077	-0.073
-637.624	800.000	0.066	0.208
-636.609	-200.000	0.043	0.225
-635.595	-200.000	0.028	-0.211
-634.580	800.000	0.049	-0.183
-633.565	-96.614	0.076	0.020
-632.551	217.895	-0.140	-0.226
-631.536	328.894	-0.084	-0.163
-630.522	-200.000	-0.046	0.392
-629.507	-25.710	-0.289	0.172
-628.492	-168.229	-0.288	-0.011
-627.478	111.548	0.225	-0.275
-626.463	45.066	-0.129	-0.121
-625.449	209.828	-0.166	-0.264
-624.434	219.960	0.063	0.103
-623.419	480.158	-0.173	-0.397
-622.405	-21.942	0.308	0.190
-621.390	-24.787	-0.273	-0.165
-620.376	-68.993	0.161	-0.063
-619.361	-46.772	0.070	0.035
-618.346	50.879	-0.184	0.176
-617.332	42.869	0.128	-0.118
-616.317	-200.000	-0.039	-0.354
-615.303	-70.621	0.232	0.089
-614.288	173.159	-0.187	-0.273
-613.273	-28.874	-0.198	0.115
-612.259	-47.469	-0.266	0.131
-611.244	17.660	0.173	-0.140
-610.230	-101.666	-0.245	-0.060
-609.215	-53.516	-0.096	0.044
-608.201	25.106	-0.099	-0.083
-607.186	-49.106	0.090	0.044
-606.171	591.402	-0.088	0.219
-605.157	-123.446	0.281	-0.045
-604.142	-200.000	0.005	-0.162
-603.128	-153.210	0.234	0.017
-602.113	522.920	-0.226	0.538
-601.098	34.869	-0.277	0.245
-600.084	800.000	0.057	-0.206
-599.069	-145.397	0.256	-0.023
-598.055	-175.293	0.261	-0.007
-597.040	-74.139	-0.238	0.087
-596.025	296.857	-0.078	0.145
-595.011	-200.000	0.032	-0.256
-593.996	-1.630	-0.181	-0.129
-592.982	50.462	0.098	-0.094
-591.967	-200.000	-0.003	-0.056
-590.952	-18.686	0.179	-0.113
-589.938	495.672	-0.108	0.251
-588.923	-66.635	0.291	-0.117
-587.909	225.569	-0.065	-0.106
-586.894	216.930	-0.230	0.370
-585.879	-154.577	-0.295	-0.020
-584.865	-25.988	-0.289	-0.172
-583.850	-48.102	0.269	-0.131
-582.836	-81.632	0.072	-0.024
-581.821	228.567	-0.192	-0.316
-580.806	181.637	0.066	-0.099
-579.792	766.410	0.105	-0.287
-578.777	-84.619	0.164	-0.052
-577.763	-200.000	-0.029	-0.353
-576.748	187.819	0.102	-0.154
-575.733	-101.332	0.210	0.052
-574.719	-46.282	-0.169	0.084
-573.704	27.007	-0.158	-0.134
-572.690	419.868	-0.058	0.125
-571.675	-99.245	0.374	-0.095
-570.661	-29.272	-0.024	-0.014
-569.646	15.254	0.223	0.177
-568.631	474.704	0.175	-0.399
-567.617	-106.846	-0.189	-0.042
-566.602	-152.226	-0.111	0.008
-565.588	-158.432	-0.210	-0.012
-564.573	-171.324	-0.199	-0.007
-563.558	52.786	0.264	-0.255
-562.544	-14.485	0.084	-0.054
-561.529	50.313	-0.227	0.217
-560.515	-100.730	-0.069	-0.017
-559.500	234.649	0.142	0.236
-558.485	-52.885	0.252	0.117
-557.471	-165.462	-0.360	-0.016
-556.456	248.811	0.122	0.209
-555.442	800.000	-0.093	0.286
-554.427	16.104	0.176	0.140
-553.412	-200.000	0.066	0.297
-552.398	-86.608	0.257	-0.080
-551.383	-4.905	0.143	-0.100
-550.369	155.822	0.246	0.343
-549.354	-160.555	0.264	-0.014
-548.339	-77.771	-0.135	0.047
-547.325	516.313	-0.082	0.194
-546.310	186.109	-0.163	0.244
-545.296	-125.131	0.356	-0.055
-544.281	-118.919	-0.090	0.016
-543.266	137.840	-0.161	-0.213
-542.252	-200.000	-0.043	0.460
-541.237	-65.583	0.172	0.070
-540.223	285.699	-0.083	-0.152
-539.208	-62.320	0.102	-0.043
-538.193	-137.729	0.391	0.044
-537.179	-200.000	-0.008	-0.149
-536.164	37.845	-0.291	-0.261
-535.150	721.424	0.064	0.171
-534.135	264.347	0.294	-0.517
-533.121	800.000	-0.075	0.218
-532.106	-200.000	-0.050	0.270
-531.091	-98.126	0.267	0.069
-530.077	-43.588	-0.189	-0.096
-529.062	-41.907	0.087	0.045
-528.048	229.354	-0.043	0.071
-527.033	244.143	0.033	0.055
-526.018	-120.858	0.185	0.032
-525.004	-115.314	0.128	-0.024
-523.989	-41.223	-0.180	0.094
-522.975	-200.000	-0.000	0.130
-521.960	59.867	-0.046	0.046
-520.945	-63.478	-0.209	-0.087
-519.931	-159.740	0.183	-0.010
-518.916	-84.019	0.076	-0.024
-517.902	-145.151	-0.030	-0.003
-516.887	21.323	0.248	-0.203
-515.872	800.000	0.188	-0.561
-514.858	-200.000	-0.023	0.197
-513.843	-200.000	0.020	0.107
-512.829	-200.000	-0.042	-0.297
-511.814	-161.176	-0.193	-0.010
-510.799	471.798	0.095	-0.217
-509.785	77.421	-0.075	0.080
-508.770	-34.239	0.184	0.102
-507.756	-200.000	0.018	-0.122
-506.741	-78.797	0.289	-0.100
-505.726	-73.596	-0.116	0.042
-504.712	-140.779	-0.116	-0.012
-503.697	232.774	-0.072	0.120
-502.683	-102.202	-0.623	0.151
-501.668	-68.217	-0.221	-0.087
-500.653	5.982	0.299	0.223
-499.639	800.000	0.070	-0.302
-498.624	264.479	-0.171	-0.301
-497.610	-70.813	-0.172	-0.065
-496.595	-42.898	0.223	-0.114
-495.581	-31.664	0.292	0.165
-494.566	-63.190	-0.153	-0.063
-493.551	366.649	-0.036	0.074
-492.537	-200.000	-0.006	0.377
-491.522	800.000	-0.088	0.278
-490.508	800.000	-0.070	0.208
-489.493	-200.000	-0.070	0.313
-488.478	800.000	-0.086	-0.279
-487.464	-200.000	-0.038	-0.370
-486.449	71.547	0.129	0.135
-485.435	213.178	0.118	-0.188
-484.420	-154.583	0.126	0.008
-483.405	441.327	0.119	0.263
-482.391	2.961	-0.212	-0.155
-481.376	238.045	-0.163	-0.273
-480.362	800.000	-0.071	0.269
-479.347	42.910	0.177	0.162
-478.332	-41.477	-0.224	-0.116
-477.318	-200.000	0.001	-0.171
-476.303	-46.657	-0.046	-0.023
-475.289	-95.059	-0.110	-0.030
-474.274	-200.000	0.010	0.059
-473.259	-124.450	-0.393	-0.062
-472.245	239.711	-0.126	-0.212
-471.230	-200.000	-0.010	-0.137
-470.216	-131.137	0.225	0.030
-469.201	-47.934	0.221	-0.108
-468.186	-200.000	-0.035	-0.252
-467.172	-18.882	-0.170	-0.107
-466.157	800.000	0.061	-0.257
-465.143	714.924	0.131	-0.351
-464.128	6.299	0.473	0.353
-463.113	120.182	-0.088	0.110
-462.099	405.335	0.133	0.282
-461.084	46.721	0.265	-0.248
-460.070	65.261	-0.166	0.169
-459.055	134.291	-0.049	0.063
-458.040	-101.436	-0.456	0.112
-457.026	55.010	-0.122	0.119
-456.011	379.997	0.084	0.174
-454.997	-200.000	0.012	-0.227
-453.982	64.559	0.118	-0.120
-452.968	111.818	0.140	0.170
-451.953	21.030	0.081	0.066
-450.938	73.157	-0.154	0.162
-449.924	59.334	-0.136	0.134
-448.909	-126.018	-0.362	0.055
-447.895	-200.000	-0.008	-0.148
-446.880	-52.683	-0.339	0.157
-445.865	39.337	0.110	-0.099
-444.851	800.000	-0.023	-0.089
-443.836	800.000	0.035	-0.112
-442.822	175.509	-0.126	0.183
-441.807	-124.578	-0.241	0.038
-440.792	-77.982	-0.349	0.121
-439.778	41.552	-0.131	0.120
-438.763	465.346	-0.104	-0.235
-437.749	157.573	0.236	-0.328
-436.734	650.109	-0.074	-0.190
-435.719	-128.500	-0.217	0.031
-434.705	292.871	0.121	0.222
-433.690	-88.262	-0.226	0.068
-432.676	104.232	0.190	-0.225
-431.661	800.000	-0.027	-0.111
-430.646	-17.777	-0.183	0.115
-429.632	-200.000	0.014	-0.108
-428.617	86.014	-0.176	0.194
-427.603	-120.887	-0.226	0.038
-426.588	800.000	-0.148	0.440
-425.573	-76.360	-0.115	0.041
-424.559	-93.517	0.143	0.040
-423.544	-153.279	-0.271	0.019
-422.530	-200.000	-0.023	0.109
-421.515	62.758	0.065	0.066
-420.500	-200.000	0.002	-0.186
-419.486	-200.000	0.028	-0.253
-418.471	51.949	-0.172	0.165
-417.457	-45.155	0.077	-0.039
-416.442	235.730	-0.266	0.442
-415.428	63.536	0.130	0.132
-414.413	213.896	-0.136	0.216
-413.398	190.140	-0.176	0.265
-412.384	-168.546	0.176	0.007
-411.369	-15.808	-0.227	0.145
-410.355	107.497	-0.207	0.248
-409.340	113.632	0.164	0.200
-408.325	-6.933	0.101	-0.069
-407.311	-72.175	-0.207	-0.077
-406.296	-170.298	0.187	0.007
-405.282	-200.000	0.025	-0.374
-404.267	-27.131	0.261	-0.153
-403.252	-192.987	-0.264	-0.002
-402.238	800.000	-0.023	0.076
-401.223	-200.000	0.034	0.187
-400.209	-53.960	-0.092	-0.042
-399.194	1.365	-0.058	-0.042
-398.179	99.879	0.138	-0.160
-397.165	-101.965	-0.311	0.075
-396.150	109.269	-0.110	-0.132
-395.136	306.925	-0.029	-0.054
-394.121	31.010	0.222	-0.191
-393.106	-92.547	-0.288	0.081
-392.092	10.612	-0.154	0.118
-391.077	675.756	-0.099	0.258
-390.063	-112.328	0.304	-0.061
-389.048	-137.341	-0.194	0.022
-388.033	48.198	0.176	-0.165
-387.019	-79.244	0.224	0.076
-386.004	399.776	-0.013	0.027
-384.990	166.121	0.205	-0.291
-383.975	-38.636	0.158	-0.084
-382.960	-174.381	0.246	-0.007
-381.946	199.614	0.071	0.109
-380.931	10.473	-0.105	0.080
-379.917	-60.147	-0.253	-0.108
-378.902	-41.244	0.232	0.120
-377.888	-161.896	0.159	0.008
-376.873	800.000	0.034	-0.094
-375.858	800.000	0.084	0.343
-374.844	-25.220	-0.124	-0.074
-373.829	411.470	-0.060	-0.127
-372.815	-44.829	0.173	0.087
-371.800	20.322	0.116	0.094
-370.785	243.204	0.099	0.166
-369.771	114.500	0.077	0.094
-368.756	-200.000	-0.012	-0.449
-367.742	-200.000	-0.045	-0.270
-366.727	-94.634	-0.360	0.098
-365.712	391.274	0.114	-0.238
-364.698	-98.806	0.288	-0.074
-363.683	-110.284	-0.265	0.055
-362.669	-70.463	-0.179	-0.068
-361.654	-135.101	-0.163	-0.020
-360.639	108.848	0.062	0.075
-359.625	-200.000	-0.013	0.238
-358.610	27.068	0.096	0.081
-357.596	800.000	0.021	-0.076
-356.581	-70.600	-0.091	-0.034
-355.566	481.072	0.118	-0.268
-354.552	-166.549	-0.188	0.008
-353.537	-200.000	-0.017	-0.225
-352.523	-200.000	0.025	-0.460
-351.508	800.000	0.116	0.339
-350.493	-200.000	-0.010	0.142
-349.479	5.148	0.093	-0.069
-348.464	419.697	0.140	0.299
-347.450	41.516	0.189	0.172
-346.435	-200.000	-0.241	-0.000
-345.420	-200.000	0.002	-0.237
-344.406	800.000	0.019	-0.060
-343.391	-171.782	-0.458	-0.015
-342.377	-14.222	-0.351	-0.227
-341.362	280.818	0.133	-0.239
-340.348	14.274	-0.268	0.209
-339.333	84.910	0.110	0.120
-338.318	10.709	0.100	-0.077
-337.304	23.821	0.105	0.087
-336.289	193.234	-0.153	-0.231
-335.275	-51.274	-0.149	-0.070
-334.260	-99.789	-0.319	-0.080
-333.245	-59.771	-0.136	0.058
-332.231	-83.438	-0.083	-0.027
-331.216	-200.000	-0.061	0.323
-330.202	35.962	-0.039	-0.034
-329.187	268.501	0.133	-0.234
-328.172	800.000	0.053	0.181
-327.158	439.743	-0.179	0.392
-326.143	800.000	0.132	0.378
-325.129	1.541	0.052	-0.038
-324.114	-101.452	-0.394	0.096
-323.099	800.000	0.054	0.209
-322.085	537.546	-0.086	0.206
-321.070	254.927	-0.071	0.122
-320.056	-200.000	-0.017	-0.385
-319.041	512.370	0.198	-0.461
-318.026	-200.000	0.000	-0.320
-317.012	-39.191	-0.202	0.106
-315.997	800.000	-0.041	-0.151
-314.983	778.146	-0.032	0.087
-313.968	-4.798	0.109	0.075
-312.953	581.355	0.115	0.283
-311.939	-200.000	-0.023	-0.112
-310.924	466.428	0.071	0.160
-309.910	-200.000	-0.012	-0.057
-308.895	-200.000	-0.008	-0.237
-307.880	-36.372	0.213	0.115
-306.866	87.501	-0.079	0.087
-305.851	-106.863	0.223	-0.050
-304.837	-160.775	-0.122	-0.006
-303.822	32.602	-0.185	0.160
-302.807	80.861	-0.269	-0.290
-301.793	-73.332	-0.221	-0.081
-300.778	-200.000	0.073	0.369
-299.764	-44.834	0.354	-0.177
-298.749	-65.135	0.073	0.029
-297.735	127.155	0.219	0.278
-296.720	137.397	0.054	0.071
-295.705	-74.333	0.351	0.127
-294.691	110.369	0.110	-0.132
-293.676	-200.000	-0.011	0.124
-292.662	-43.298	0.150	-0.076
-291.647	-127.454	-0.200	0.029
-290.632	800.000	0.018	-0.053
-289.618	-87.163	0.046	-0.014
-288.603	426.594	-0.035	0.076
-287.589	164.575	0.154	-0.217
-286.574	800.000	0.022	0.084
-285.559	-200.000	-0.011	-0.082
-284.545	36.113	-0.151	0.133
-283.530	8.176	0.227	-0.171
-282.516	-10.319	0.142	0.094
-281.501	-38.194	0.155	-0.082
-280.486	-200.000	0.015	-0.183
-279.472	81.573	-0.040	0.043
-278.457	-96.160	0.162	-0.043
-277.443	-85.535	-0.076	0.024
-276.428	-62.489	0.343	-0.142
-275.413	800.000	0.049	0.140
-274.399	-200.000	-0.010	-0.108
-273.384	800.000	0.070	0.204
-272.370	-101.968	-0.326	-0.079
-271.355	-200.000	-0.002	-0.042
-270.340	-200.000	-0.012	0.055
-269.326	-200.000	0.018	-0.169
-268.311	-196.521	0.210	0.001
-267.297	-158.998	0.144	-0.008
-266.282	13.020	0.015	-0.011
-265.267	23.250	0.337	0.276
-264.253	800.000	0.082	0.228
-263.238	-68.315	-0.246	0.095
-262.224	111.261	-0.140	-0.168
-261.209	-37.345	-0.115	0.061
-260.195	-69.621	0.216	0.083
-259.180	800.000	-0.008	0.034
-258.165	396.244	0.117	-0.245
-257.151	800.000	-0.071	-0.224
-256.136	-39.975	0.205	-0.107
-255.122	-200.000	-0.046	-0.398
-254.107	189.194	-0.118	-0.176
-253.092	548.623	0.075	0.179
-252.078	456.651	0.095	0.210
-251.063	-87.707	-0.064	0.019
-250.049	-54.781	0.274	0.124
-249.034	7.263	0.142	0.106
-248.019	-136.003	-0.379	0.044
-247.005	182.463	-0.241	-0.354
-245.990	447.751	-0.145	0.320
-244.976	800.000	0.060	0.233
-243.961	-200.000	-0.014	-0.131
-242.946	-200.000	-0.027	0.185
-241.932	183.848	0.058	-0.086
-240.917	96.035	-0.078	0.089
-239.903	43.983	0.269	0.246
-238.888	36.632	0.256	-0.226
-237.873	75.502	0.087	-0.092
-236.859	-52.939	0.190	-0.087
-235.844	-200.000	0.021	0.285
-234.830	784.119	0.037	0.101
-233.815	-67.894	-0.111	-0.043
-232.800	101.773	-0.071	-0.082
-231.786	662.177	-0.085	-0.218
-230.771	-200.000	-0.056	0.258
-229.757	-200.000	0.011	-0.169
-228.742	-92.676	0.201	-0.056
-227.727	243.839	-0.094	-0.158
-226.713	154.431	-0.186	0.254
-225.698	3.613	-0.227	0.165
-224.684	-200.000	-0.003	0.047
-223.669	12.562	0.129	-0.099
-222.655	800.000	0.057	0.219
-221.640	142.926	-0.128	0.170
-220.625	-101.577	0.203	-0.049
-219.611	228.505	0.134	0.218
-218.596	800.000	-0.037	-0.122
-217.582	25.662	-0.210	-0.175
-216.567	-185.874	0.140	0.002
-215.552	-200.000	-0.017	0.097
-214.538	-200.000	-0.002	-0.011
-213.523	800.000	-0.047	0.170
-212.509	-200.000	-0.017	-0.083
-211.494	-146.388	-0.280	0.024
-210.479	103.130	0.121	-0.142
-209.465	-94.094	-0.146	0.040
-208.450	-200.000	0.079	0.413
-207.436	33.965	0.453	-0.393
-206.421	-34.048	-0.295	0.161
-205.406	-3.783	0.175	-0.121
-204.392	130.404	0.141	-0.180
-203.377	179.106	-0.234	0.341
-202.363	800.000	0.076	0.285
-201.348	105.448	0.032	0.038
-200.333	-96.955	0.268	-0.070
-199.319	585.034	0.136	0.333
-198.304	-66.324	-0.148	0.059
-197.290	800.000	0.054	0.168
-196.275	-200.000	0.005	0.149
-195.260	-27.174	0.074	0.043
-194.246	66.583	0.292	0.296
-193.231	372.847	0.197	0.398
-192.217	-135.864	0.087	0.010
-191.202	30.006	-0.094	0.079
-190.187	-1.692	-0.088	0.061
-189.173	154.329	-0.035	0.048
-188.158	-13.754	0.178	-0.115
-187.144	253.534	-0.189	0.321
-186.129	273.739	0.150	-0.264
-185.114	800.000	0.024	0.085
-184.100	-169.170	0.185	-0.007
-183.085	371.076	0.031	0.063
-182.071	-114.395	0.328	0.063
-181.056	-154.932	-0.232	0.015
-180.042	689.618	-0.043	-0.112
-179.027	-144.301	-0.265	0.025
-178.012	-48.332	-0.242	-0.116
-176.998	-82.070	0.109	0.036
-175.983	86.481	-0.018	0.020
-174.969	307.352	0.042	0.078
-173.954	91.562	0.072	-0.080
-172.939	165.646	-0.107	-0.151
-171.925	-200.000	-0.035	-0.200
-170.910	-10.597	0.303	-0.199
-169.896	-78.807	0.317	0.108
-168.881	-200.000	0.111	-0.505
-167.866	-102.138	-0.086	0.021
-166.852	-200.000	-0.017	-0.170
-165.837	-87.742	0.213	0.064
-164.823	-192.115	-0.272	0.003
-163.808	211.669	0.313	-0.490
-162.793	163.951	0.103	0.145
-161.779	-200.000	0.043	0.348
-160.764	800.000	-0.072	0.225
-159.750	386.253	0.068	0.140
-158.735	-200.000	-0.021	0.250
-157.720	-33.912	-0.109	-0.060
-156.706	-3.639	0.074	-0.051
-155.691	-200.000	-0.010	0.045
-154.677	-139.305	0.289	0.031
-153.662	223.175	-0.121	0.194
-152.647	167.954	-0.117	-0.166
-151.633	103.423	0.188	-0.220
-150.618	5.338	0.186	-0.137
-149.604	-91.002	0.125	0.036
-148.589	800.000	-0.073	-0.205
-147.574	-200.000	0.011	-0.152
-146.560	-66.552	0.354	0.140
-145.545	-200.000	0.026	-0.216
-144.531	76.563	0.147	0.155
-143.516	-50.629	0.088	-0.041
-142.502	800.000	0.074	0.224
-141.487	-200.000	-0.043	-0.239
-140.472	-43.188	0.287	-0.144
-139.458	-145.607	0.142	0.013
-138.443	800.000	0.033	-0.130
-137.429	83.661	0.222	-0.241
-136.414	144.929	-0.006	-0.008
-135.399	99.062	0.110	0.126
-134.385	24.513	-0.163	-0.134
-133.370	38.400	0.243	-0.215
-132.356	-97.486	-0.340	0.088
-131.341	-146.669	0.250	0.021
-130.326	-109.185	-0.213	-0.045
-129.312	11.090	0.176	0.134
-128.297	64.155	-0.104	-0.104
-127.283	-45.088	0.282	-0.140
-126.268	526.253	-0.034	-0.080
-125.253	-123.216	0.113	0.018
-124.239	-132.272	0.224	-0.029
-123.224	155.794	-0.166	0.227
-122.210	-130.426	-0.286	0.038
-121.195	-91.866	-0.033	-0.009
