DTS Sentinel unit serial number:	SN413079Multiplexer serial number:	ORYXHardware model number:	OX4-SRSoftware version number:	ORYX F/W v4.00 Oryx Data Collector v3.7.2.0data status	okinstallation	princeton_trtdifferential loss correction	single-endedforward channel	channel 2reverse channel	N/Adate	2019/09/12time	02:05:11forward acquisition time	60.00reverse acquisition time	0.00gamma	496.2192k internal	0.2326k external	0.2326temperature offset calibration	1.0091default loss term (dB/km)	0.3790temperature slope calibration	1.0000multiplexer offset coefficient	1.0000multiplexer slope coefficient	1.0000fibre end	0.00T internal ref (°C)	32.72T ext. ref 1 (°C)	2.06T ext. ref 2 (°C)	27.27length (m)	temperature (°C)	Stokes	anti-Stokes-747.200	-200.000	-0.048	-0.239
-746.185	161.027	-0.042	-0.059
-745.171	-128.133	-0.200	-0.029
-744.156	-46.919	-0.133	0.066
-743.142	30.682	-0.142	-0.122
-742.127	-200.000	0.006	0.240
-741.112	-40.155	-0.152	-0.080
-740.098	644.922	0.017	-0.044
-739.083	196.252	-0.037	0.056
-738.069	261.396	-0.102	0.178
-737.054	800.000	0.077	-0.251
-736.039	171.353	-0.145	-0.210
-735.025	-200.000	0.003	0.336
-734.010	102.281	-0.168	0.198
-732.996	12.272	-0.299	-0.232
-731.981	-142.220	0.234	-0.023
-730.966	669.065	-0.049	-0.127
-729.952	-138.162	0.059	0.007
-728.937	732.823	-0.131	0.352
-727.923	124.279	0.025	-0.032
-726.908	15.996	-0.254	0.202
-725.894	36.732	-0.124	0.110
-724.879	-58.057	0.117	0.051
-723.864	800.000	-0.053	0.231
-722.850	85.210	-0.175	-0.194
-721.835	800.000	0.107	-0.390
-720.821	630.169	-0.059	-0.152
-719.806	800.000	0.072	0.296
-718.791	78.775	-0.230	-0.248
-717.777	333.630	-0.032	0.063
-716.762	193.689	-0.154	-0.235
-715.748	120.703	-0.281	-0.352
-714.733	-26.966	0.186	-0.109
-713.718	167.885	-0.217	-0.311
-712.704	-50.816	0.278	0.132
-711.689	-30.973	0.142	-0.081
-710.675	-193.917	0.299	-0.003
-709.660	63.367	-0.126	0.128
-708.645	800.000	-0.056	-0.182
-707.631	-70.584	0.159	-0.060
-706.616	8.934	0.165	0.125
-705.602	-200.000	0.003	-0.248
-704.587	-200.000	0.084	-0.390
-703.572	-200.000	0.013	0.130
-702.558	-70.060	-0.252	0.097
-701.543	209.884	0.065	-0.102
-700.529	11.436	0.220	-0.169
-699.514	-24.801	-0.278	-0.166
-698.499	-0.968	0.166	0.118
-697.485	-137.902	-0.187	0.021
-696.470	-52.362	0.219	0.102
-695.456	800.000	-0.048	0.150
-694.441	-24.201	-0.098	0.059
-693.426	10.776	-0.222	0.171
-692.412	-85.632	0.391	-0.122
-691.397	-200.000	0.049	-0.319
-690.383	-200.000	0.003	0.077
-689.368	-60.448	0.240	0.103
-688.354	-70.739	-0.295	0.112
-687.339	573.390	-0.124	-0.304
-686.324	-126.733	-0.272	0.040
-685.310	-27.861	0.174	0.101
-684.295	-200.000	0.000	0.105
-683.281	-90.092	-0.390	-0.114
-682.266	457.497	-0.046	-0.103
-681.251	-200.000	0.031	0.274
-680.237	19.723	0.222	-0.180
-679.222	33.857	0.058	0.051
-678.208	247.549	0.187	0.319
-677.193	-67.540	0.099	0.039
-676.178	-200.000	0.021	0.181
-675.164	180.244	0.081	-0.119
-674.149	-91.841	0.241	0.069
-673.135	266.174	-0.087	-0.153
-672.120	-126.012	-0.173	-0.026
-671.105	-51.485	-0.134	0.063
-670.091	-200.000	0.016	-0.172
-669.076	723.304	0.038	-0.101
-668.062	399.038	-0.165	-0.347
-667.047	10.598	0.071	0.055
-666.032	800.000	-0.079	-0.299
-665.018	-93.052	-0.251	0.070
-664.003	-145.250	-0.173	0.016
-662.989	-200.000	0.016	0.194
-661.974	800.000	0.036	0.129
-660.959	-147.590	-0.022	-0.002
-659.945	-200.000	0.016	-0.400
-658.930	-200.000	0.010	-0.145
-657.916	422.137	-0.159	0.343
-656.901	630.028	-0.075	-0.190
-655.886	-147.488	0.157	0.013
-654.872	218.823	-0.109	-0.175
-653.857	-121.927	-0.277	-0.046
-652.843	-95.665	0.101	0.027
-651.828	-200.000	0.005	0.454
-650.814	-200.000	-0.050	0.361
-649.799	-158.774	-0.199	-0.011
-648.784	-91.936	-0.175	-0.050
-647.770	-1.736	-0.285	0.202
-646.755	156.596	0.212	0.294
-645.741	35.978	0.110	-0.098
-644.726	489.283	0.059	-0.136
-643.711	54.355	0.129	0.125
-642.697	-200.000	0.055	0.304
-641.682	-200.000	0.012	0.134
-640.668	800.000	-0.012	0.038
-639.653	66.704	-0.148	-0.151
-638.638	800.000	-0.063	-0.214
-637.624	227.111	0.085	0.138
-636.609	763.795	-0.119	0.325
-635.595	-53.684	0.279	0.128
-634.580	-200.000	-0.023	-0.168
-633.565	-76.515	-0.266	0.094
-632.551	800.000	-0.018	-0.060
-631.536	-149.108	-0.186	0.015
-630.522	-53.749	0.151	-0.069
-629.507	-127.034	-0.145	0.021
-628.492	-103.925	0.263	-0.062
-627.478	158.225	0.095	-0.132
-626.463	90.380	-0.082	-0.092
-625.449	195.736	0.079	0.120
-624.434	-200.000	0.056	0.337
-623.419	-66.750	-0.206	-0.082
-622.405	103.055	0.154	-0.181
-621.390	800.000	-0.042	0.127
-620.376	46.065	0.140	0.130
-619.361	-39.337	0.205	0.108
-618.346	153.072	0.090	-0.124
-617.332	-123.086	-0.173	0.028
-616.317	-200.000	0.005	0.085
-615.303	-171.739	0.090	0.003
-614.288	87.641	0.117	-0.130
-613.273	800.000	0.061	-0.259
-612.259	-200.000	0.057	0.416
-611.244	133.622	-0.214	-0.278
-610.230	156.659	-0.155	-0.215
-609.215	-74.668	0.174	0.063
-608.201	-175.322	-0.213	0.006
-607.186	746.046	0.071	0.193
-606.171	-120.302	-0.332	0.057
-605.157	777.500	-0.070	-0.191
-604.142	-145.498	0.228	-0.021
-603.128	-200.000	0.023	0.136
-602.113	-200.000	-0.032	0.212
-601.098	-5.603	0.277	0.190
-600.084	417.100	-0.050	0.107
-599.069	-51.570	-0.025	-0.012
-598.055	-63.936	0.192	-0.079
-597.040	93.896	-0.114	-0.129
-596.025	-61.643	-0.109	-0.046
-595.011	800.000	0.068	-0.237
-593.996	-200.000	0.027	-0.244
-592.982	-101.217	-0.259	-0.064
-591.967	-200.000	-0.014	0.272
-590.952	177.780	-0.147	-0.215
-589.938	234.709	-0.036	-0.059
-588.923	35.662	0.259	0.228
-587.909	209.203	-0.063	-0.099
-586.894	800.000	-0.066	0.184
-585.879	-42.904	0.411	0.209
-584.865	-80.729	0.121	-0.040
-583.850	118.699	-0.201	0.249
-582.836	-112.381	0.104	0.021
-581.821	800.000	-0.020	-0.057
-580.806	-43.261	0.336	0.170
-579.792	154.028	-0.097	0.133
-578.777	-109.118	0.240	0.051
-577.763	-200.000	0.087	0.559
-576.748	-200.000	0.035	0.321
-575.733	1.246	-0.232	-0.167
-574.719	800.000	-0.090	-0.261
-573.704	-35.324	-0.355	0.193
-572.690	-154.093	-0.131	0.009
-571.675	-52.318	-0.329	-0.153
-570.661	-131.224	0.255	0.034
-569.646	786.815	-0.034	0.092
-568.631	-136.581	0.231	-0.027
-567.617	-200.000	-0.008	-0.142
-566.602	108.432	0.218	-0.261
-565.588	-200.000	0.181	0.001
-564.573	-113.102	-0.185	0.037
-563.558	-200.000	0.004	-0.026
-562.544	68.006	0.113	0.115
-561.529	-124.798	-0.183	0.028
-560.515	800.000	-0.036	0.105
-559.500	193.084	-0.135	-0.204
-558.485	-200.000	0.012	0.240
-557.471	800.000	0.037	0.111
-556.456	-21.301	-0.100	-0.061
-555.442	-67.441	0.133	-0.052
-554.427	-45.115	0.325	0.162
-553.412	124.837	-0.038	0.048
-552.398	-80.773	-0.124	0.041
-551.383	206.005	0.201	-0.312
-550.369	-200.000	0.084	-0.373
-549.354	508.959	-0.060	-0.139
-548.339	-104.807	0.206	-0.047
-547.325	-1.342	0.037	-0.026
-546.310	-200.000	-0.011	-0.416
-545.296	182.298	0.042	0.062
-544.281	-58.717	0.241	0.105
-543.266	800.000	0.022	-0.086
-542.252	300.672	0.106	-0.196
-541.237	204.446	-0.063	0.098
-540.223	-200.000	0.054	0.285
-539.208	41.744	-0.194	-0.176
-538.193	184.884	-0.244	-0.361
-537.179	-47.521	-0.148	0.072
-536.164	800.000	-0.042	0.147
-535.150	-123.061	-0.094	-0.015
-534.135	800.000	0.011	-0.030
-533.121	47.495	0.185	-0.172
-532.106	22.908	-0.223	-0.183
-531.091	-177.661	0.051	-0.001
-530.077	687.130	0.146	0.382
-529.062	-200.000	-0.016	-0.242
-528.048	-200.000	0.031	-0.370
-527.033	-116.276	-0.168	-0.031
-526.018	-200.000	0.027	0.375
-525.004	-200.000	0.005	-0.077
-523.989	-39.863	0.146	0.076
-522.975	34.591	0.266	0.232
-521.960	-2.886	0.021	0.015
-520.945	135.090	0.291	-0.378
-519.931	-29.137	0.283	-0.162
-518.916	-19.382	-0.246	-0.153
-517.902	-105.621	-0.017	0.004
-516.887	-9.940	0.065	-0.043
-515.872	107.683	-0.157	0.187
-514.858	71.598	0.043	-0.045
-513.843	-107.852	-0.078	0.017
-512.829	-200.000	-0.354	-0.001
-511.814	-95.732	-0.235	-0.063
-510.799	45.173	-0.167	-0.154
-509.785	-83.357	-0.202	-0.065
-508.770	800.000	-0.123	-0.456
-507.756	655.838	-0.055	-0.141
-506.741	-92.840	-0.158	-0.044
-505.726	15.609	-0.029	0.023
-504.712	-129.806	0.289	0.040
-503.697	179.424	-0.101	-0.147
-502.683	79.174	-0.175	-0.187
-501.668	-46.607	-0.108	-0.053
-500.653	30.890	-0.111	-0.095
-499.639	-139.125	-0.342	-0.037
-498.624	535.683	-0.076	-0.180
-497.610	273.879	-0.151	-0.266
-496.595	-24.569	-0.306	-0.182
-495.581	-136.571	-0.400	0.046
-494.566	118.435	0.062	0.077
-493.551	3.858	-0.184	0.134
-492.537	-23.372	-0.158	0.095
-491.522	-200.000	0.098	0.000
-490.508	40.418	0.216	-0.194
-489.493	-200.000	-0.011	-0.186
-488.478	-27.731	-0.103	-0.060
-487.464	800.000	-0.075	-0.268
-486.449	-3.744	0.124	-0.086
-485.435	58.590	-0.067	-0.066
-484.420	87.402	-0.200	0.221
-483.405	-200.000	0.037	-0.216
-482.391	-200.000	0.037	0.323
-481.376	-138.720	0.135	-0.015
-480.362	419.100	0.129	-0.275
-479.347	-118.062	-0.110	-0.020
-478.332	-200.000	-0.008	-0.534
-477.318	-40.988	0.078	-0.040
-476.303	308.897	-0.114	0.213
-475.289	134.450	0.103	-0.133
-474.274	-12.393	0.514	-0.335
-473.259	-87.995	-0.137	0.041
-472.245	-135.670	-0.241	-0.029
-471.230	97.654	0.148	0.170
-470.216	179.587	-0.200	0.293
-469.201	117.076	0.130	-0.159
-468.186	-109.925	-0.154	0.032
-467.172	-139.367	0.206	0.022
-466.157	4.408	-0.105	-0.077
-465.143	-54.644	-0.205	0.093
-464.128	-63.275	0.159	0.065
-463.113	41.614	0.066	-0.060
-462.099	-58.166	0.035	0.015
-461.084	-197.545	-0.264	-0.002
-460.070	800.000	0.057	-0.169
-459.055	732.158	0.053	-0.141
-458.040	-63.963	0.225	-0.092
-457.026	-76.034	-0.286	0.101
-456.011	395.477	-0.115	-0.239
-454.997	304.377	-0.231	0.428
-453.982	-100.673	-0.313	0.077
-452.968	251.452	0.062	0.106
-451.953	-58.603	-0.139	-0.060
-450.938	186.763	-0.161	0.239
-449.924	-200.000	-0.001	0.263
-448.909	-172.281	-0.237	0.008
-447.895	-15.778	0.160	-0.102
-446.880	-20.053	0.102	0.063
-445.865	268.476	-0.078	-0.136
-444.851	-163.056	0.154	0.007
-443.836	11.219	-0.057	-0.043
-442.822	-107.178	0.379	-0.083
-441.807	559.162	0.133	0.319
-440.792	150.510	-0.129	0.174
-439.778	11.911	0.208	0.159
-438.763	-200.000	0.015	-0.315
-437.749	286.180	0.051	-0.091
-436.734	-19.724	0.109	-0.067
-435.719	-200.000	0.012	-0.333
-434.705	-200.000	0.017	0.261
-433.690	-200.000	-0.030	0.228
-432.676	-200.000	-0.023	0.303
-431.661	160.854	-0.133	0.185
-430.646	-183.599	0.182	-0.003
-429.632	655.046	-0.059	-0.151
-428.617	299.135	0.048	-0.088
-427.603	332.207	-0.151	0.291
-426.588	-133.163	0.572	-0.072
-425.573	21.146	0.101	-0.081
-424.559	591.002	0.099	0.243
-423.544	-102.187	0.262	0.063
-422.530	-72.632	0.144	-0.053
-421.515	641.611	0.044	-0.111
-420.500	800.000	-0.073	-0.230
-419.486	-200.000	0.045	0.366
-418.471	440.325	0.086	-0.187
-417.457	-200.000	-0.013	-0.094
-416.442	-200.000	0.014	0.080
-415.428	-87.104	-0.233	0.071
-414.413	-65.922	-0.175	-0.070
-413.398	800.000	-0.045	-0.186
-412.384	252.113	-0.108	-0.183
-411.369	84.370	0.120	-0.131
-410.355	88.753	0.117	-0.130
-409.340	800.000	0.020	-0.081
-408.325	-35.948	0.142	-0.077
-407.311	-39.457	0.092	0.048
-406.296	29.291	-0.226	0.191
-405.282	-81.893	0.124	-0.041
-404.267	64.138	-0.101	-0.101
-403.252	-8.240	-0.133	0.089
-402.238	-77.016	-0.211	0.073
-401.223	-200.000	0.046	0.273
-400.209	-186.881	-0.193	0.003
-399.194	-13.064	-0.219	-0.142
-398.179	800.000	0.046	-0.162
-397.165	594.905	0.012	0.030
-396.150	-77.111	0.345	0.120
-395.136	-200.000	0.020	0.106
-394.121	121.251	0.104	-0.129
-393.106	426.876	-0.119	-0.256
-392.092	557.017	0.027	0.066
-391.077	-163.491	-0.208	-0.010
-390.063	170.488	0.040	-0.057
-389.048	-42.963	0.176	-0.089
-388.033	186.034	0.228	-0.337
-387.019	334.804	0.114	-0.219
-386.004	-200.000	-0.013	-0.064
-384.990	-200.000	0.011	0.103
-383.975	-28.602	0.267	0.153
-382.960	-56.973	-0.086	0.038
-381.946	800.000	0.071	0.234
-380.931	-37.164	0.303	-0.161
-379.917	443.251	0.110	-0.240
-378.902	133.156	0.061	-0.078
-377.888	111.706	-0.140	-0.168
-376.873	-200.000	0.036	-0.216
-375.858	-103.633	0.178	-0.042
-374.844	69.228	0.087	-0.089
-373.829	-200.000	-0.032	0.219
-372.815	-150.893	0.348	-0.026
-371.800	-1.737	-0.201	-0.140
-370.785	299.744	0.136	0.250
-369.771	147.384	0.147	-0.196
-368.756	223.910	-0.095	0.153
-367.742	68.403	-0.017	-0.017
-366.727	294.603	0.095	-0.172
-365.712	-81.950	0.209	-0.068
-364.698	58.416	-0.247	-0.241
-363.683	253.689	-0.065	0.110
-362.669	211.388	-0.053	0.083
-361.654	-40.095	-0.274	-0.142
-360.639	-122.566	-0.325	-0.052
-359.625	197.463	0.120	-0.182
-358.610	-45.909	0.299	0.147
-357.596	52.928	-0.248	-0.236
-356.581	253.593	-0.137	0.233
-355.566	-51.451	-0.141	-0.065
-354.552	-73.480	-0.218	-0.079
-353.537	800.000	0.045	-0.143
-352.523	30.344	0.043	-0.036
-351.508	-46.391	-0.098	-0.048
-350.493	4.267	0.079	0.058
-349.479	800.000	-0.055	-0.202
-348.464	-72.558	-0.244	-0.090
-347.450	-9.743	0.206	-0.136
-346.435	398.785	-0.102	0.213
-345.420	-101.733	-0.115	-0.028
-344.406	580.457	0.061	-0.148
-343.391	-29.987	-0.385	-0.218
-342.377	-200.000	-0.014	-0.253
-341.362	727.208	-0.174	0.462
-340.348	41.886	0.199	-0.180
-339.333	800.000	-0.085	0.327
-338.318	800.000	0.070	0.212
-337.304	-16.165	0.241	-0.152
-336.289	648.002	-0.039	0.098
-335.275	47.077	0.204	0.189
-334.260	-150.800	-0.205	-0.015
-333.245	-71.629	0.242	-0.090
-332.231	-139.602	-0.194	-0.021
-331.216	-71.374	-0.067	0.025
-330.202	24.443	-0.228	0.187
-329.187	-134.869	-0.290	-0.035
-328.172	-31.953	-0.065	-0.036
-327.158	328.195	-0.200	0.381
-326.143	-190.922	-0.123	0.001
-325.129	84.205	-0.128	-0.139
-324.114	193.789	0.093	0.139
-323.099	13.682	0.156	0.120
-322.085	-139.611	-0.101	-0.011
-321.070	-200.000	-0.018	-0.121
-320.056	51.446	0.303	0.286
-319.041	616.943	-0.043	0.107
-318.026	115.080	-0.198	-0.240
-317.012	-200.000	0.006	-0.162
-315.997	-63.954	0.086	0.035
-314.983	800.000	-0.050	0.172
-313.968	-56.684	-0.130	-0.057
-312.953	237.129	-0.156	0.257
-311.939	-59.191	0.258	-0.110
-310.924	-102.450	-0.109	0.026
-309.910	-29.556	-0.472	0.267
-308.895	-200.000	0.038	0.232
-307.880	181.164	0.163	0.238
-306.866	-200.000	0.015	0.151
-305.851	-200.000	0.005	0.074
-304.837	-4.757	-0.224	0.153
-303.822	800.000	-0.040	-0.145
-302.807	-200.000	0.015	0.356
-301.793	-200.000	-0.011	0.245
-300.778	19.342	0.047	-0.037
-299.764	-104.010	0.224	0.052
-298.749	-67.334	-0.237	-0.092
-297.735	-155.362	0.340	0.022
-296.720	90.023	-0.066	-0.073
-295.705	-165.397	-0.269	0.012
-294.691	129.048	0.137	0.173
-293.676	-200.000	0.036	0.246
-292.662	699.773	0.085	0.221
-291.647	-77.355	-0.215	-0.074
-290.632	-137.977	0.389	0.043
-289.618	-138.493	-0.077	0.008
-288.603	-81.781	-0.316	0.103
-287.589	-73.032	0.463	-0.168
-286.574	135.959	0.027	0.035
-285.559	582.476	0.049	0.118
-284.545	-200.000	0.031	-0.168
-283.530	202.327	-0.135	0.207
-282.516	-62.462	-0.299	0.123
-281.501	-200.000	-0.014	-0.104
-280.486	-15.981	-0.096	-0.061
-279.472	251.401	0.196	-0.331
-278.457	-70.858	0.333	0.124
-277.443	9.737	0.068	-0.051
-276.428	419.898	0.031	-0.067
-275.413	-74.268	0.028	-0.010
-274.399	-111.907	0.167	-0.033
-273.384	800.000	0.090	0.310
-272.370	32.364	-0.072	0.062
-271.355	630.447	0.068	-0.170
-270.340	37.400	-0.173	-0.152
-269.326	103.333	0.152	0.177
-268.311	31.242	0.202	-0.171
-267.297	-200.000	0.001	-0.029
-266.282	-121.038	0.264	-0.044
-265.267	-14.344	-0.245	0.156
-264.253	131.191	0.142	-0.180
-263.238	105.321	-0.132	-0.154
-262.224	-200.000	0.007	0.056
-261.209	111.828	-0.114	-0.137
-260.195	-142.071	-0.236	-0.023
-259.180	430.909	0.183	0.393
-258.165	-124.551	-0.587	-0.090
-257.151	-200.000	0.012	0.156
-256.136	-31.739	0.045	-0.025
-255.122	-141.149	0.303	0.031
-254.107	67.207	0.046	-0.046
-253.092	79.604	0.156	0.166
-252.078	-62.575	0.443	0.182
-251.063	-100.127	-0.144	0.036
-250.049	-103.295	-0.145	0.034
-249.034	-20.110	0.054	-0.033
-248.019	76.186	0.031	0.032
-247.005	-85.913	0.230	0.070
-245.990	-150.468	-0.285	-0.022
-244.976	-129.469	0.054	0.007
-243.961	294.837	0.088	0.159
-242.946	-200.000	-0.053	0.569
-241.932	-147.546	-0.178	-0.015
-240.917	-200.000	-0.000	-0.181
-239.903	75.915	0.122	-0.128
-238.888	800.000	-0.015	-0.050
-237.873	-200.000	-0.010	-0.238
-236.859	-61.659	0.012	0.005
-235.844	-200.000	0.043	-0.329
-234.830	105.746	0.174	0.203
-233.815	-98.031	0.193	-0.049
-232.800	27.676	-0.127	0.106
-231.786	800.000	0.018	0.057
-230.771	113.341	0.161	-0.193
-229.757	800.000	0.024	0.074
-228.742	300.491	0.155	0.283
-227.727	-28.191	0.366	0.209
-226.713	-114.664	-0.314	0.059
-225.698	-28.745	0.196	0.112
-224.684	116.047	-0.121	0.147
-223.669	34.227	0.138	0.119
-222.655	83.509	-0.188	0.202
-221.640	79.554	-0.235	-0.250
-220.625	-148.236	0.273	-0.022
-219.611	414.317	0.017	-0.035
-218.596	-200.000	0.017	0.077
-217.582	-78.750	0.289	-0.098
-216.567	157.331	-0.278	-0.379
-215.552	714.794	-0.062	0.163
-214.538	119.708	0.117	0.143
-213.523	-29.045	0.056	-0.032
-212.509	-90.726	0.026	0.007
-211.494	-84.999	-0.069	-0.021
-210.479	-200.000	0.008	-0.187
-209.465	-49.803	0.249	-0.117
-208.450	197.497	-0.061	0.092
-207.436	-11.196	0.169	0.110
-206.421	195.192	0.117	-0.176
-205.406	399.853	-0.173	0.359
-204.392	49.578	0.177	0.165
-203.377	800.000	0.055	0.162
-202.363	7.023	0.070	-0.052
-201.348	-30.709	-0.117	-0.066
-200.333	-125.484	0.081	-0.012
-199.319	187.071	0.089	0.130
-198.304	-50.920	0.357	0.166
-197.290	-192.710	0.393	-0.004
-196.275	355.464	-0.111	-0.218
-195.260	-8.970	0.175	0.116
-194.246	-143.322	0.385	0.036
-193.231	-104.866	-0.210	-0.048
-192.217	192.520	0.112	-0.167
-191.202	-105.247	-0.575	-0.129
-190.187	-79.027	0.127	-0.043
-189.173	11.753	-0.173	0.131
-188.158	27.464	-0.212	-0.176
-187.144	-103.454	-0.341	-0.079
-186.129	680.293	0.054	-0.139
-185.114	-200.000	-0.005	0.371
-184.100	138.922	-0.285	0.370
-183.085	707.885	-0.071	-0.185
-182.071	-72.201	-0.298	0.109
-181.056	800.000	-0.075	-0.222
-180.042	118.461	-0.053	-0.064
-179.027	520.660	-0.165	0.382
-178.012	481.161	-0.160	0.359
-176.998	16.374	-0.261	-0.204
-175.983	800.000	-0.098	-0.365
-174.969	298.045	0.088	0.160
-173.954	59.874	-0.175	-0.171
-172.939	800.000	-0.039	0.167
-171.925	-61.909	0.097	0.040
-170.910	-118.226	0.225	0.040
-169.896	-0.705	0.137	0.096
-168.881	-49.153	0.209	0.099
-167.866	-200.000	0.002	-0.310
-166.852	-177.427	-0.300	-0.007
-165.837	2.661	0.061	-0.044
-164.823	-125.014	0.253	0.038
-163.808	-200.000	0.046	0.345
-162.793	800.000	0.013	-0.049
-161.779	-31.867	0.167	-0.092
-160.764	-7.250	0.102	-0.068
-159.750	189.161	-0.032	-0.047
-158.735	800.000	-0.029	-0.111
-157.720	-124.108	0.267	-0.041
-156.706	43.427	-0.055	0.050
-155.691	118.338	0.124	-0.150
-154.677	-59.793	-0.124	0.052
-153.662	423.355	-0.020	-0.041
-152.647	306.960	0.208	-0.383
-151.633	800.000	-0.033	0.114
-150.618	-200.000	-0.041	-0.181
-149.604	64.098	-0.057	0.056
-148.589	-200.000	-0.107	0.468
-147.574	800.000	-0.029	-0.091
-146.560	98.407	0.131	0.149
-145.545	-2.480	0.190	-0.131
-144.531	0.856	-0.243	-0.172
-143.516	-200.000	-0.079	-0.375
-142.502	133.585	0.204	0.260
-141.487	3.038	-0.225	-0.161
-140.472	-49.335	-0.176	0.083
-139.458	-9.170	0.495	0.326
-138.443	-75.532	-0.356	0.125
-137.429	-178.123	0.240	0.006
-136.414	-32.056	-0.176	-0.097
-135.399	2.094	-0.479	0.341
-134.385	-200.000	-0.018	0.326
-133.370	57.960	0.169	-0.163
-132.356	-188.129	0.306	-0.004
-131.341	-73.939	-0.084	-0.030
-130.326	-71.061	0.346	-0.128
-129.312	-68.305	0.057	0.022
-128.297	52.098	-0.175	0.164
-127.283	-200.000	-0.007	0.118
-126.268	419.337	0.103	0.218
-125.253	49.108	-0.205	-0.190
-124.239	26.438	0.175	-0.144
-123.224	-27.122	0.227	0.131
-122.210	87.525	0.089	-0.097
-121.195	-96.771	-0.149	-0.039
