DTS Sentinel unit serial number:	SN413079Multiplexer serial number:	ORYXHardware model number:	OX4-SRSoftware version number:	ORYX F/W v4.00 Oryx Data Collector v3.7.2.0data status	okinstallation	princeton_trtdifferential loss correction	single-endedforward channel	channel 2reverse channel	N/Adate	2019/09/17time	08:39:35forward acquisition time	60.00reverse acquisition time	0.00gamma	496.2192k internal	0.2332k external	0.2332temperature offset calibration	0.9977default loss term (dB/km)	0.3790temperature slope calibration	1.0000multiplexer offset coefficient	1.0000multiplexer slope coefficient	1.0000fibre end	0.00T internal ref (°C)	27.69T ext. ref 1 (°C)	0.14T ext. ref 2 (°C)	23.26length (m)	temperature (°C)	Stokes	anti-Stokes-747.200	-200.000	-0.079	0.556
-746.185	-39.481	0.239	0.126
-745.171	319.860	0.076	0.144
-744.156	-20.107	-0.214	0.133
-743.142	284.355	0.050	0.091
-742.127	-164.111	-0.257	-0.012
-741.112	-1.077	-0.113	0.080
-740.098	177.578	0.184	0.270
-739.083	-27.619	-0.260	0.152
-738.069	729.914	0.052	0.141
-737.054	6.342	-0.217	0.162
-736.039	-137.476	-0.100	0.011
-735.025	-200.000	-0.011	0.107
-734.010	-0.517	-0.076	0.054
-732.996	-200.000	0.025	-0.154
-731.981	8.208	-0.173	-0.130
-730.966	-98.003	-0.158	-0.041
-729.952	-82.078	-0.270	-0.089
-728.937	800.000	0.090	-0.255
-727.923	-101.907	-0.412	-0.100
-726.908	-200.000	0.001	-0.335
-725.894	128.841	-0.117	-0.150
-724.879	568.941	0.084	-0.205
-723.864	-121.288	-0.230	0.039
-722.850	181.542	-0.212	-0.314
-721.835	134.516	-0.021	0.028
-720.821	-76.682	-0.189	-0.067
-719.806	-100.390	0.088	-0.022
-718.791	544.150	-0.046	-0.112
-717.777	-19.422	-0.029	0.018
-716.762	-129.266	-0.117	-0.016
-715.748	-22.615	0.270	-0.164
-714.733	-124.896	0.298	-0.046
-713.718	-53.995	-0.127	0.058
-712.704	-200.000	0.009	-0.239
-711.689	81.495	-0.113	-0.122
-710.675	-54.096	-0.354	-0.162
-709.660	800.000	0.097	-0.287
-708.645	-5.741	-0.171	0.118
-707.631	64.234	0.168	-0.170
-706.616	18.236	-0.139	0.112
-705.602	-200.000	-0.021	0.231
-704.587	255.870	-0.200	-0.345
-703.572	475.615	0.058	0.132
-702.558	-170.581	0.245	-0.009
-701.543	-151.162	0.191	-0.014
-700.529	800.000	-0.078	0.218
-699.514	-98.834	0.277	0.071
-698.499	-9.277	-0.206	-0.138
-697.485	40.775	-0.063	0.057
-696.470	-200.000	0.013	-0.258
-695.456	-110.401	0.238	-0.050
-694.441	-200.000	-0.006	-0.037
-693.426	-134.539	-0.216	-0.027
-692.412	-12.392	0.045	-0.030
-691.397	59.697	0.003	-0.003
-690.383	-59.619	0.139	0.060
-689.368	57.229	0.084	0.082
-688.354	-132.370	0.378	-0.049
-687.339	-200.000	-0.005	0.079
-686.324	800.000	-0.035	0.135
-685.310	-163.966	0.447	-0.021
-684.295	-0.599	-0.251	-0.179
-683.281	3.927	-0.229	-0.168
-682.266	-176.250	-0.150	-0.004
-681.251	-200.000	0.613	-0.001
-680.237	-130.513	0.266	0.036
-679.222	17.143	-0.160	0.128
-678.208	-21.833	-0.363	0.221
-677.193	-71.079	-0.241	-0.091
-676.178	-96.675	0.342	0.090
-675.164	94.294	-0.033	0.038
-674.149	17.583	-0.049	-0.039
-673.135	87.823	0.157	0.175
-672.120	-47.358	-0.032	-0.015
-671.105	800.000	0.187	-0.579
-670.091	98.515	0.142	0.164
-669.076	-70.028	-0.105	-0.040
-668.062	-200.000	-0.009	0.086
-667.047	33.939	0.018	-0.016
-666.032	-200.000	0.024	0.163
-665.018	115.300	-0.037	-0.045
-664.003	-99.756	-0.098	-0.025
-662.989	-200.000	0.017	0.089
-661.974	-181.613	0.393	0.008
-660.959	27.476	-0.036	-0.031
-659.945	86.172	0.047	-0.052
-658.930	-200.000	0.019	0.282
-657.916	18.913	0.369	-0.296
-656.901	-72.814	0.261	-0.096
-655.886	-200.000	-0.015	0.207
-654.872	-120.267	-0.263	0.045
-653.857	101.612	0.141	-0.164
-652.843	-200.000	-0.060	-0.337
-651.828	231.311	0.036	0.059
-650.814	-143.075	0.241	0.023
-649.799	68.030	0.016	-0.017
-648.784	-72.615	-0.228	-0.084
-647.770	109.439	0.230	-0.276
-646.755	347.086	-0.041	-0.082
-645.741	72.969	-0.291	0.305
-644.726	336.354	0.134	0.261
-643.711	-200.000	-0.006	-0.182
-642.697	-10.417	0.475	0.316
-641.682	-76.424	0.032	0.011
-640.668	800.000	0.100	0.406
-639.653	-91.090	0.183	0.053
-638.638	68.327	0.178	-0.183
-637.624	114.358	-0.070	-0.085
-636.609	5.732	-0.191	-0.141
-635.595	598.943	0.121	-0.301
-634.580	198.518	-0.174	-0.267
-633.565	-111.790	-0.186	0.038
-632.551	-200.000	0.061	0.294
-631.536	800.000	-0.066	0.257
-630.522	-200.000	0.013	0.137
-629.507	-91.951	-0.309	-0.088
-628.492	-176.381	-0.478	-0.012
-627.478	250.399	0.127	-0.217
-626.463	45.616	0.164	0.151
-625.449	5.417	-0.235	0.174
-624.434	15.957	0.225	-0.177
-623.419	8.228	0.090	0.068
-622.405	-78.815	-0.208	0.071
-621.390	652.106	-0.113	0.291
-620.376	208.322	0.019	0.030
-619.361	-148.078	-0.373	-0.031
-618.346	-108.973	0.083	-0.018
-617.332	-200.000	-0.022	-0.100
-616.317	-116.969	0.185	-0.034
-615.303	157.713	0.178	0.247
-614.288	-200.000	-0.020	0.311
-613.273	155.197	-0.118	-0.162
-612.259	-58.779	-0.308	-0.133
-611.244	-200.000	0.008	-0.191
-610.230	800.000	0.065	-0.190
-609.215	-200.000	-0.070	0.361
-608.201	-70.485	0.491	0.186
-607.186	-26.208	-0.079	-0.047
-606.171	-174.283	0.275	-0.008
-605.157	-200.000	-0.009	0.352
-604.142	-40.806	-0.294	-0.152
-603.128	93.329	0.128	-0.145
-602.113	111.590	-0.084	0.101
-601.098	178.017	-0.247	-0.361
-600.084	800.000	-0.015	-0.047
-599.069	-200.000	0.028	0.231
-598.055	5.895	0.064	0.047
-597.040	93.001	0.215	0.243
-596.025	67.238	0.110	-0.112
-595.011	800.000	0.042	0.124
-593.996	-75.579	0.078	-0.028
-592.982	36.837	-0.298	-0.263
-591.967	-10.917	0.085	-0.056
-590.952	-200.000	0.000	-0.008
-589.938	47.735	0.064	0.059
-588.923	800.000	0.076	-0.247
-587.909	238.091	0.127	0.211
-586.894	-200.000	0.014	-0.134
-585.879	-200.000	0.002	0.217
-584.865	-13.128	0.342	-0.222
-583.850	74.680	-0.131	-0.137
-582.836	100.423	-0.208	0.242
-581.821	515.900	0.038	0.089
-580.806	-137.073	0.168	0.019
-579.792	-74.048	-0.038	-0.014
-578.777	-174.978	0.215	0.006
-577.763	-66.374	-0.429	0.170
-576.748	258.359	-0.127	0.219
-575.733	800.000	0.038	-0.161
-574.719	146.044	0.172	0.231
-573.704	800.000	-0.064	0.219
-572.690	-200.000	-0.032	-0.310
-571.675	800.000	-0.113	0.446
-570.661	40.438	-0.043	0.038
-569.646	-34.200	0.224	-0.123
-568.631	506.669	-0.120	-0.278
-567.617	-161.451	0.241	-0.012
-566.602	-72.770	-0.188	-0.069
-565.588	50.279	-0.203	0.192
-564.573	-200.000	0.028	-0.266
-563.558	353.017	-0.190	-0.376
-562.544	53.460	0.075	-0.072
-561.529	800.000	-0.007	-0.021
-560.515	129.830	-0.087	-0.111
-559.500	168.037	0.204	-0.289
-558.485	-143.277	-0.142	0.014
-557.471	-200.000	-0.018	-0.311
-556.456	-40.216	0.132	-0.069
-555.442	332.653	-0.100	0.193
-554.427	26.502	0.194	0.162
-553.412	-126.413	-0.227	-0.034
-552.398	-145.627	-0.240	0.021
-551.383	605.412	0.058	-0.143
-550.369	364.526	0.033	-0.066
-549.354	128.938	-0.071	0.090
-548.339	-200.000	0.022	-0.210
-547.325	-200.000	-0.043	-0.235
-546.310	-83.142	-0.126	0.040
-545.296	92.873	-0.058	-0.065
-544.281	-90.563	0.184	-0.053
-543.266	-200.000	-0.022	0.101
-542.252	11.331	0.081	0.062
-541.237	-47.724	-0.428	0.207
-540.223	-49.173	0.120	0.057
-539.208	-107.166	0.201	0.044
-538.193	-95.465	-0.258	0.069
-537.179	-1.343	-0.146	-0.103
-536.164	48.889	-0.142	-0.133
-535.150	395.324	0.127	0.264
-534.135	15.098	0.122	0.095
-533.121	-200.000	0.009	0.076
-532.106	39.055	0.153	-0.136
-531.091	180.414	0.070	-0.103
-530.077	139.535	0.097	0.127
-529.062	-89.522	-0.115	0.034
-528.048	97.996	-0.110	-0.126
-527.033	-200.000	0.200	0.001
-526.018	-116.318	0.184	-0.034
-525.004	-200.000	-0.038	0.170
-523.989	78.000	0.186	0.198
-522.975	33.174	0.040	-0.034
-521.960	-75.424	0.178	-0.063
-520.945	657.816	0.039	-0.100
-519.931	394.179	0.111	0.231
-518.916	-56.489	-0.158	-0.070
-517.902	-200.000	0.037	0.244
-516.887	67.307	-0.091	-0.093
-515.872	53.942	0.225	-0.216
-514.858	-200.000	0.041	-0.214
-513.843	-45.038	-0.250	-0.124
-512.829	223.042	0.125	-0.202
-511.814	-200.000	0.012	0.093
-510.799	206.327	-0.045	-0.069
-509.785	52.621	0.053	-0.051
-508.770	28.882	-0.167	0.141
-507.756	-5.490	-0.365	-0.250
-506.741	-62.581	0.228	-0.094
-505.726	59.401	-0.138	-0.135
-504.712	50.697	-0.061	-0.058
-503.697	-43.791	0.097	-0.049
-502.683	-200.000	0.015	0.083
-501.668	-102.221	-0.251	-0.060
-500.653	655.852	0.166	-0.425
-499.639	347.584	-0.052	0.103
-498.624	-30.711	0.131	-0.074
-497.610	800.000	-0.108	0.459
-496.595	168.399	0.071	-0.100
-495.581	800.000	0.008	0.030
-494.566	27.543	-0.048	0.040
-493.551	-200.000	0.041	-0.250
-492.537	-24.549	-0.372	0.221
-491.522	-200.000	0.035	0.283
-490.508	800.000	0.092	-0.353
-489.493	92.621	0.110	-0.124
-488.478	-87.466	-0.173	0.052
-487.464	800.000	0.128	-0.433
-486.449	800.000	-0.077	-0.237
-485.435	-44.892	-0.220	-0.109
-484.420	-101.498	0.423	0.102
-483.405	-119.204	0.082	0.014
-482.391	101.332	0.039	-0.045
-481.376	-36.454	-0.119	-0.064
-480.362	800.000	0.070	0.215
-479.347	182.299	-0.073	0.107
-478.332	800.000	-0.059	0.237
-477.318	233.249	-0.098	0.160
-476.303	-43.743	-0.305	-0.153
-475.289	34.171	-0.460	0.400
-474.274	429.914	0.091	-0.196
-473.259	-121.371	0.163	-0.027
-472.245	636.591	-0.130	-0.330
-471.230	-200.000	0.023	0.283
-470.216	579.540	0.090	-0.218
-469.201	-81.705	-0.192	-0.063
-468.186	158.545	0.250	-0.346
-467.172	34.779	0.398	-0.346
-466.157	183.202	0.173	0.254
-465.143	312.442	0.091	0.169
-464.128	-81.901	0.243	0.079
-463.113	158.195	-0.054	-0.075
-462.099	-200.000	-0.016	0.161
-461.084	408.101	0.023	0.047
-460.070	334.152	-0.083	-0.160
-459.055	-129.623	0.263	0.036
-458.040	800.000	0.064	-0.249
-457.026	254.216	-0.072	0.123
-456.011	570.915	0.110	0.267
-454.997	1.878	-0.164	-0.118
-453.982	386.375	-0.218	0.448
-452.968	800.000	-0.021	0.076
-451.953	-9.593	-0.269	-0.178
-450.938	800.000	0.008	0.027
-449.924	800.000	0.020	0.085
-448.909	-200.000	-0.009	0.221
-447.895	-200.000	0.012	-0.057
-446.880	-200.000	-0.053	-0.269
-445.865	-200.000	-0.009	0.310
-444.851	-29.497	0.138	0.078
-443.836	800.000	-0.040	-0.164
-442.822	-200.000	-0.018	0.171
-441.807	800.000	-0.085	-0.243
-440.792	-100.881	-0.118	-0.029
-439.778	800.000	0.077	0.222
-438.763	-200.000	-0.029	0.143
-437.749	-103.957	-0.319	-0.074
-436.734	273.998	0.044	0.077
-435.719	22.164	-0.218	0.177
-434.705	49.753	0.242	-0.227
-433.690	88.685	0.171	-0.189
-432.676	-100.565	-0.092	-0.023
-431.661	-200.000	0.019	0.154
-430.646	122.890	0.039	-0.049
-429.632	17.539	0.144	-0.113
-428.617	-142.225	-0.084	-0.008
-427.603	87.449	0.150	0.165
-426.588	646.881	-0.162	0.412
-425.573	-200.000	0.025	-0.122
-424.559	53.207	0.281	0.267
-423.544	246.310	0.176	-0.295
-422.530	12.686	0.096	-0.073
-421.515	33.169	0.210	0.181
-420.500	708.333	0.020	-0.052
-419.486	-62.424	0.097	0.040
-418.471	-106.923	-0.495	-0.109
-417.457	305.783	0.083	-0.152
-416.442	-116.580	0.196	-0.036
-415.428	-200.000	-0.017	-0.143
-414.413	-179.213	-0.150	0.003
-413.398	-121.658	0.064	-0.010
-412.384	-144.941	0.158	-0.014
-411.369	483.709	0.043	0.098
-410.355	583.982	0.085	0.207
-409.340	800.000	-0.089	-0.346
-408.325	310.268	-0.069	-0.128
-407.311	-120.074	0.276	-0.047
-406.296	464.348	0.154	-0.342
-405.282	104.472	-0.059	-0.068
-404.267	9.665	-0.212	0.159
-403.252	-54.591	-0.230	0.103
-402.238	224.957	-0.093	-0.149
-401.223	-57.427	-0.126	0.055
-400.209	-50.644	-0.080	-0.037
-399.194	-85.087	-0.349	-0.108
-398.179	-134.316	-0.087	-0.011
-397.165	16.513	-0.088	-0.069
-396.150	-188.846	0.179	-0.002
-395.136	14.767	0.220	0.170
-394.121	310.651	-0.109	0.203
-393.106	24.016	0.234	-0.192
-392.092	-110.557	-0.096	-0.020
-391.077	368.988	0.098	-0.197
-390.063	800.000	0.043	0.159
-389.048	-138.168	0.083	0.009
-388.033	51.203	-0.190	0.178
-387.019	203.598	-0.038	-0.059
-386.004	800.000	0.051	-0.210
-384.990	800.000	-0.055	-0.190
-383.975	282.951	0.111	0.198
-382.960	-55.146	0.117	-0.052
-381.946	800.000	-0.044	0.160
-380.931	-155.212	-0.158	-0.010
-379.917	-200.000	0.021	0.221
-378.902	205.464	-0.162	0.250
-377.888	56.561	-0.168	0.162
-376.873	-99.852	0.347	0.086
-375.858	-200.000	-0.010	-0.074
-374.844	734.907	-0.059	0.157
-373.829	-200.000	0.017	-0.324
-372.815	5.019	0.043	0.032
-371.800	-200.000	0.012	0.080
-370.785	800.000	0.039	-0.118
-369.771	800.000	-0.048	0.150
-368.756	-104.705	0.099	-0.023
-367.742	-142.274	0.184	0.018
-366.727	156.589	-0.139	0.190
-365.712	-42.497	0.190	-0.096
-364.698	276.655	0.069	0.121
-363.683	800.000	-0.070	-0.271
-362.669	-39.415	-0.375	0.195
-361.654	173.363	-0.094	-0.134
-360.639	-106.369	0.111	0.025
-359.625	486.690	0.210	-0.475
-358.610	58.163	-0.182	-0.176
-357.596	-57.057	0.291	0.127
-356.581	8.846	-0.203	0.151
-355.566	800.000	-0.041	0.158
-354.552	-129.594	-0.039	0.005
-353.537	214.022	-0.088	0.138
-352.523	-38.666	0.037	-0.019
-351.508	-49.736	0.165	-0.078
-350.493	-23.048	0.202	-0.120
-349.479	314.773	0.060	-0.112
-348.464	92.480	-0.222	0.248
-347.450	-122.212	-0.177	0.029
-346.435	800.000	-0.095	0.269
-345.420	43.551	0.111	0.100
-344.406	-18.204	0.279	0.173
-343.391	-98.015	0.182	-0.046
-342.377	506.566	0.111	-0.255
-341.362	-200.000	0.002	0.168
-340.348	337.593	0.166	0.320
-339.333	-132.349	-0.605	0.077
-338.318	-77.287	-0.115	0.040
-337.304	285.037	0.145	-0.259
-336.289	800.000	0.055	0.184
-335.275	486.377	0.007	-0.016
-334.260	-145.037	-0.194	-0.017
-333.245	-122.064	0.120	-0.020
-332.231	-36.479	0.119	0.063
-331.216	-200.000	-0.057	-0.405
-330.202	91.235	-0.204	-0.226
-329.187	43.700	0.023	0.021
-328.172	-134.261	0.174	-0.021
-327.158	-70.584	-0.042	0.016
-326.143	-200.000	-0.031	0.173
-325.129	-113.310	-0.243	-0.047
-324.114	-28.431	-0.047	0.027
-323.099	352.417	-0.189	-0.370
-322.085	-28.053	0.176	-0.101
-321.070	-200.000	-0.015	-0.103
-320.056	-85.853	-0.102	0.031
-319.041	-200.000	0.019	0.217
-318.026	17.513	-0.054	0.043
-317.012	800.000	0.075	0.270
-315.997	197.097	0.139	0.210
-314.983	800.000	-0.053	0.153
-313.968	800.000	0.101	-0.321
-312.953	-49.492	-0.297	0.140
-311.939	418.492	0.074	0.157
-310.924	-140.828	0.133	-0.014
-309.910	800.000	-0.123	0.364
-308.895	407.306	0.115	0.241
-307.880	511.674	-0.035	-0.081
-306.866	-140.950	0.261	-0.027
-305.851	12.131	0.098	-0.075
-304.837	177.930	-0.150	0.217
-303.822	-129.329	0.210	-0.029
-302.807	800.000	0.086	-0.331
-301.793	-109.889	-0.151	-0.031
-300.778	-171.479	-0.160	0.005
-299.764	-200.000	-0.020	0.223
-298.749	-88.783	-0.050	-0.015
-297.735	111.994	0.020	0.024
-296.720	-78.306	-0.046	-0.016
-295.705	-22.188	-0.257	0.154
-294.691	-104.008	0.209	-0.048
-293.676	-200.000	-0.045	0.255
-292.662	-200.000	-0.018	-0.113
-291.647	39.297	0.162	0.143
-290.632	800.000	0.212	0.579
-289.618	108.979	-0.241	0.285
-288.603	-200.000	-0.035	-0.233
-287.589	800.000	0.119	-0.353
-286.574	5.563	-0.298	-0.217
-285.559	719.833	0.030	-0.078
-284.545	-56.689	-0.087	0.038
-283.530	-26.912	0.088	0.051
-282.516	384.640	-0.095	0.193
-281.501	-22.041	-0.138	0.083
-280.486	-4.588	0.228	0.155
-279.472	35.325	-0.039	-0.034
-278.457	-103.197	0.403	0.094
-277.443	655.721	-0.072	-0.183
-276.428	-200.000	0.002	0.228
-275.413	-200.000	-0.015	0.326
-274.399	-148.701	-0.206	-0.017
-273.384	9.910	0.211	0.158
-272.370	271.814	-0.136	-0.236
-271.355	-62.080	0.280	0.115
-270.340	-131.795	0.060	-0.008
-269.326	-84.000	0.186	-0.058
-268.311	800.000	-0.075	-0.225
-267.297	249.933	0.236	0.396
-266.282	-45.234	0.121	-0.059
-265.267	-94.299	0.206	0.056
-264.253	800.000	-0.078	0.293
-263.238	-200.000	0.012	-0.133
-262.224	-200.000	-0.015	0.145
-261.209	-12.194	-0.251	-0.162
-260.195	-161.109	0.220	-0.011
-259.180	-33.344	-0.176	0.096
-258.165	-88.877	-0.137	0.040
-257.151	-70.397	-0.157	0.059
-256.136	-142.556	-0.061	-0.006
-255.122	672.481	-0.049	-0.125
-254.107	-200.000	0.055	-0.246
-253.092	-52.155	-0.137	0.063
-252.078	-200.000	-0.004	-0.102
-251.063	111.159	-0.072	-0.086
-250.049	-21.538	0.118	0.071
-249.034	-128.329	-0.238	-0.034
-248.019	185.502	-0.107	0.157
-247.005	-58.598	0.251	-0.107
-245.990	-200.000	0.004	0.026
-244.976	145.048	0.171	-0.226
-243.961	-20.358	-0.173	-0.105
-242.946	-142.847	-0.291	-0.028
-241.932	-46.621	-0.011	0.005
-240.917	-22.817	0.099	0.059
-239.903	-41.954	0.062	-0.031
-238.888	-200.000	-0.021	0.095
-237.873	-17.933	0.205	-0.127
-236.859	-34.550	-0.097	-0.052
-235.844	-163.227	0.227	0.011
-234.830	309.758	0.210	0.387
-233.815	34.366	-0.259	-0.223
-232.800	-42.456	0.199	-0.100
-231.786	-49.324	-0.258	-0.122
-230.771	-36.426	0.412	-0.219
-229.757	751.402	0.106	-0.281
-228.742	-60.450	-0.296	-0.124
-227.727	85.529	0.400	0.433
-226.713	-200.000	-0.017	-0.324
-225.698	-9.070	0.177	-0.117
-224.684	-95.911	-0.239	0.063
-223.669	-32.133	-0.044	-0.024
-222.655	428.379	0.147	-0.313
-221.640	-176.812	-0.253	-0.006
-220.625	-110.929	0.105	0.021
-219.611	-82.917	-0.111	-0.035
-218.596	444.866	-0.059	-0.127
-217.582	28.810	0.140	-0.117
-216.567	54.154	-0.224	-0.213
-215.552	-36.659	0.258	0.136
-214.538	45.400	0.122	0.111
-213.523	67.431	0.229	-0.230
-212.509	800.000	0.027	0.110
-211.494	-70.526	0.217	0.081
-210.479	800.000	-0.050	-0.195
-209.465	244.398	0.020	0.033
-208.450	138.900	-0.222	0.287
-207.436	57.733	-0.036	0.035
-206.421	52.768	0.182	0.172
-205.406	800.000	-0.175	-0.493
-204.392	16.583	0.274	0.213
-203.377	-198.025	-0.239	0.001
-202.363	-137.893	0.009	-0.001
-201.348	-92.301	-0.314	-0.087
-200.333	800.000	0.075	-0.229
-199.319	359.516	0.050	0.098
-198.304	-103.436	-0.009	-0.002
-197.290	396.727	0.026	-0.054
-196.275	392.579	-0.035	0.071
-195.260	-47.993	-0.154	0.073
-194.246	28.034	-0.326	-0.271
-193.231	18.341	0.149	-0.118
-192.217	-200.000	0.015	-0.140
-191.202	145.186	-0.194	0.256
-190.187	-117.362	-0.228	0.041
-189.173	-162.835	-0.150	0.007
-188.158	640.476	0.065	-0.163
-187.144	-108.086	0.093	0.020
-186.129	-82.712	-0.194	-0.062
-185.114	-50.825	0.365	0.169
-184.100	-200.000	-0.038	-0.242
-183.085	217.608	-0.221	0.347
-182.071	213.488	-0.031	-0.048
-181.056	59.496	0.225	-0.218
-180.042	34.396	0.213	-0.183
-179.027	-63.424	-0.207	0.084
-178.012	14.038	-0.065	0.049
-176.998	37.694	0.050	-0.043
-175.983	-200.000	0.020	0.114
-174.969	-6.269	-0.145	-0.098
-173.954	-200.000	-0.041	0.219
-172.939	-84.862	0.138	0.043
-171.925	228.256	-0.182	-0.291
-170.910	147.811	0.403	0.534
-169.896	-50.717	0.131	0.061
-168.881	34.105	0.162	-0.139
-167.866	-200.000	-0.038	0.188
-166.852	457.839	0.062	-0.136
-165.837	4.082	0.051	0.036
-164.823	33.130	0.021	-0.018
-163.808	-4.734	0.223	0.151
-162.793	-200.000	0.016	0.176
-161.779	-200.000	-0.056	-0.309
-160.764	347.009	-0.129	-0.249
-159.750	-21.485	-0.122	0.073
-158.735	-33.047	0.397	0.217
-157.720	-36.319	-0.292	-0.155
-156.706	800.000	0.014	-0.054
-155.691	-200.000	-0.012	0.305
-154.677	-59.441	0.249	-0.105
-153.662	121.126	0.080	-0.097
-152.647	-152.257	-0.277	-0.020
-151.633	-17.520	-0.254	-0.157
-150.618	-96.857	0.329	-0.085
-149.604	-3.716	0.123	0.084
-148.589	-25.568	-0.123	0.072
-147.574	175.971	0.134	-0.191
-146.560	-83.468	0.105	0.033
-145.545	-55.790	0.233	0.102
-144.531	410.850	-0.009	-0.019
-143.516	1.201	0.181	0.128
-142.502	800.000	-0.033	-0.113
-141.487	511.804	-0.121	0.277
-140.472	-52.566	0.030	-0.014
-139.458	-53.825	0.331	-0.148
-138.443	-200.000	0.011	0.340
-137.429	397.863	0.110	0.225
-136.414	-1.851	-0.150	-0.104
-135.399	11.547	-0.142	-0.107
-134.385	-99.327	0.155	0.038
-133.370	411.884	-0.113	0.235
-132.356	173.331	0.048	-0.068
-131.341	-87.895	0.213	0.063
-130.326	-115.973	0.188	-0.034
-129.312	118.100	0.315	-0.381
-128.297	-110.796	0.193	0.039
-127.283	11.920	0.087	-0.066
-126.268	-106.065	0.265	-0.058
-125.253	468.482	-0.027	-0.059
-124.239	800.000	0.047	0.146
-123.224	-32.969	-0.213	0.116
-122.210	-108.561	-0.072	-0.015
-121.195	209.294	-0.057	-0.087
