DTS Sentinel unit serial number:	SN413079Multiplexer serial number:	ORYXHardware model number:	OX4-SRSoftware version number:	ORYX F/W v4.00 Oryx Data Collector v3.7.2.0data status	okinstallation	princeton_trtdifferential loss correction	single-endedforward channel	channel 2reverse channel	N/Adate	2019/09/11time	23:57:11forward acquisition time	60.00reverse acquisition time	0.00gamma	496.2192k internal	0.2326k external	0.2326temperature offset calibration	1.0085default loss term (dB/km)	0.3790temperature slope calibration	1.0000multiplexer offset coefficient	1.0000multiplexer slope coefficient	1.0000fibre end	0.00T internal ref (°C)	33.81T ext. ref 1 (°C)	2.01T ext. ref 2 (°C)	28.23length (m)	temperature (°C)	Stokes	anti-Stokes-747.200	800.000	-0.053	0.152
-746.185	117.356	0.244	0.303
-745.171	-39.997	0.117	0.062
-744.156	-200.000	-0.026	0.229
-743.142	-5.364	-0.032	0.022
-742.127	21.938	-0.446	0.367
-741.112	-70.057	0.316	-0.121
-740.098	452.353	-0.170	0.379
-739.083	-20.126	0.162	0.101
-738.069	163.611	0.123	0.174
-737.054	74.249	-0.192	-0.204
-736.039	-90.908	0.117	-0.034
-735.025	337.953	0.035	-0.069
-734.010	800.000	0.067	0.259
-732.996	-200.000	-0.047	0.221
-731.981	-200.000	0.024	0.158
-730.966	-30.116	-0.128	0.073
-729.952	-200.000	0.001	0.191
-728.937	-143.927	0.232	-0.022
-727.923	-43.508	-0.247	-0.126
-726.908	-200.000	-0.005	0.058
-725.894	-68.607	-0.304	-0.119
-724.879	-200.000	-0.055	-0.410
-723.864	-121.580	0.230	-0.038
-722.850	-200.000	0.000	0.105
-721.835	59.734	-0.051	0.051
-720.821	-107.034	-0.205	-0.046
-719.806	-200.000	-0.009	0.061
-718.791	202.715	0.082	0.127
-717.777	800.000	-0.125	0.374
-716.762	104.297	-0.156	-0.185
-715.748	-200.000	0.066	-0.325
-714.733	-200.000	-0.026	-0.153
-713.718	-107.465	0.384	0.085
-712.704	167.811	-0.100	0.143
-711.689	800.000	0.013	-0.053
-710.675	-166.096	-0.291	0.012
-709.660	-200.000	-0.011	0.127
-708.645	-60.050	0.039	0.017
-707.631	-0.899	0.023	-0.017
-706.616	-200.000	0.070	-0.362
-705.602	-21.691	-0.006	0.004
-704.587	800.000	0.076	-0.234
-703.572	-200.000	-0.050	0.224
-702.558	-66.690	0.098	0.039
-701.543	330.685	-0.189	0.367
-700.529	-29.660	0.287	0.165
-699.514	-123.316	-0.127	0.020
-698.499	-66.689	-0.170	-0.068
-697.485	-132.906	0.210	-0.027
-696.470	34.159	-0.282	-0.248
-695.456	-138.354	0.506	0.056
-694.441	129.459	0.242	-0.311
-693.426	-86.688	-0.057	-0.018
-692.412	-113.823	-0.309	-0.060
-691.397	-66.264	0.099	-0.040
-690.383	6.776	0.227	-0.170
-689.368	800.000	0.097	0.359
-688.354	-150.513	0.297	-0.023
-687.339	-30.810	0.272	0.155
-686.324	-144.488	-0.266	-0.025
-685.310	142.241	0.141	0.189
-684.295	-55.181	-0.160	-0.072
-683.281	100.491	-0.211	0.246
-682.266	-30.455	0.138	0.079
-681.251	78.730	0.081	0.087
-680.237	-34.791	0.305	-0.168
-679.222	-32.842	-0.247	0.138
-678.208	-56.880	0.407	-0.181
-677.193	-200.000	0.050	-0.393
-676.178	14.016	-0.210	0.165
-675.164	67.338	-0.144	-0.148
-674.149	84.279	-0.101	-0.111
-673.135	46.328	0.208	0.194
-672.120	340.318	0.133	0.261
-671.105	-200.000	0.002	0.352
-670.091	-6.975	0.099	-0.068
-669.076	-73.111	-0.151	-0.056
-668.062	-200.000	0.121	-0.550
-667.047	9.705	-0.331	-0.252
-666.032	62.222	-0.194	0.195
-665.018	258.528	0.147	0.255
-664.003	227.448	-0.149	-0.243
-662.989	28.911	-0.233	-0.198
-661.974	18.502	-0.158	-0.127
-660.959	85.743	-0.358	0.396
-659.945	-200.000	0.000	-0.120
-658.930	800.000	0.051	-0.199
-657.916	226.679	0.232	0.378
-656.901	-153.861	0.133	0.009
-655.886	308.561	0.111	0.209
-654.872	800.000	0.045	-0.172
-653.857	-34.985	-0.272	-0.149
-652.843	-30.705	-0.204	-0.116
-651.828	720.331	0.110	0.293
-650.814	210.991	0.070	-0.110
-649.799	5.910	0.145	-0.108
-648.784	27.860	0.248	-0.210
-647.770	211.347	-0.116	0.183
-646.755	-200.000	0.039	0.215
-645.741	-118.902	-0.316	-0.056
-644.726	-69.257	-0.116	-0.045
-643.711	-200.000	0.013	0.098
-642.697	800.000	-0.073	-0.284
-641.682	-142.299	-0.160	0.016
-640.668	800.000	-0.066	0.283
-639.653	-200.000	-0.017	-0.186
-638.638	50.379	-0.172	-0.163
-637.624	531.787	0.084	-0.201
-636.609	778.439	0.138	-0.378
-635.595	-200.000	0.023	0.157
-634.580	-200.000	-0.026	-0.241
-633.565	800.000	-0.028	0.091
-632.551	800.000	0.056	0.162
-631.536	800.000	0.097	0.311
-630.522	453.508	0.075	0.167
-629.507	109.040	0.157	0.189
-628.492	-149.698	0.204	0.016
-627.478	262.739	-0.087	-0.152
-626.463	521.893	-0.029	0.068
-625.449	724.092	0.124	-0.332
-624.434	-47.770	-0.173	-0.084
-623.419	-83.472	0.035	-0.011
-622.405	26.867	0.060	0.051
-621.390	-85.408	0.176	-0.055
-620.376	-200.000	0.003	0.098
-619.361	-95.384	-0.333	0.090
-618.346	-87.962	-0.231	-0.070
-617.332	0.746	-0.073	0.052
-616.317	196.269	0.049	-0.074
-615.303	100.837	0.098	0.115
-614.288	-135.285	-0.084	0.010
-613.273	37.699	0.490	0.437
-612.259	185.911	-0.149	0.223
-611.244	147.056	-0.097	-0.132
-610.230	-117.734	0.281	0.051
-609.215	-167.595	-0.015	0.001
-608.201	26.455	0.127	-0.107
-607.186	800.000	0.088	0.357
-606.171	-59.653	-0.347	0.149
-605.157	-23.964	-0.152	0.091
-604.142	6.913	-0.253	0.189
-603.128	-127.645	-0.156	-0.023
-602.113	-177.501	0.247	0.006
-601.098	-200.000	-0.055	-0.248
-600.084	201.594	-0.173	-0.267
-599.069	6.521	0.141	-0.105
-598.055	-7.408	0.125	0.085
-597.040	-7.182	-0.208	0.142
-596.025	-200.000	-0.039	0.179
-595.011	-17.479	0.118	-0.074
-593.996	800.000	0.044	-0.126
-592.982	-52.427	-0.446	-0.207
-591.967	502.281	0.117	-0.271
-590.952	-72.492	-0.040	0.015
-589.938	-23.082	-0.084	-0.051
-588.923	-200.000	0.029	-0.423
-587.909	-38.904	-0.060	0.032
-586.894	267.299	0.078	-0.138
-585.879	499.705	-0.091	0.210
-584.865	-126.204	-0.160	0.024
-583.850	241.743	0.166	0.277
-582.836	105.593	-0.086	-0.102
-581.821	120.188	-0.200	0.249
-580.806	274.909	0.026	-0.046
-579.792	-200.000	-0.024	-0.156
-578.777	-200.000	0.040	0.357
-577.763	305.847	-0.042	0.078
-576.748	-98.840	-0.199	-0.051
-575.733	265.383	0.089	0.156
-574.719	-200.000	0.007	-0.188
-573.704	315.395	0.028	-0.052
-572.690	-10.038	0.164	0.109
-571.675	-200.000	0.054	0.251
-570.661	-200.000	0.019	-0.165
-569.646	-20.857	-0.202	0.124
-568.631	313.592	0.116	-0.218
-567.617	800.000	-0.143	0.533
-566.602	800.000	-0.109	0.339
-565.588	-173.856	-0.186	-0.006
-564.573	173.696	-0.149	-0.216
-563.558	425.681	-0.098	-0.211
-562.544	3.985	-0.093	0.068
-561.529	26.889	0.265	-0.222
-560.515	575.545	-0.091	-0.223
-559.500	39.326	-0.224	0.201
-558.485	-200.000	0.068	-0.402
-557.471	800.000	-0.050	0.172
-556.456	125.738	0.107	-0.136
-555.442	800.000	-0.076	0.223
-554.427	349.508	-0.097	-0.191
-553.412	800.000	-0.091	-0.365
-552.398	-200.000	-0.033	-0.375
-551.383	351.508	-0.229	0.454
-550.369	516.996	-0.127	-0.298
-549.354	800.000	0.062	-0.230
-548.339	-18.411	0.085	0.053
-547.325	-43.574	0.324	0.164
-546.310	273.816	-0.009	0.016
-545.296	154.018	0.115	-0.158
-544.281	319.662	-0.151	-0.286
-543.266	95.007	0.247	0.281
-542.252	238.113	-0.198	0.329
-541.237	-45.317	0.264	0.131
-540.223	-200.000	-0.001	0.290
-539.208	173.766	0.076	0.109
-538.193	23.788	0.202	-0.166
-537.179	270.190	-0.089	0.157
-536.164	251.716	0.125	-0.212
-535.150	268.130	0.211	0.369
-534.135	-200.000	0.072	-0.383
-533.121	-88.864	-0.323	0.096
-532.106	-127.299	-0.165	0.024
-531.091	42.726	-0.358	-0.326
-530.077	-140.833	-0.238	0.024
-529.062	686.335	-0.074	0.193
-528.048	38.749	0.275	0.246
-527.033	-200.000	-0.054	0.296
-526.018	-58.647	0.221	-0.096
-525.004	-70.475	-0.198	0.075
-523.989	27.415	0.175	-0.147
-522.975	-4.054	-0.201	-0.139
-521.960	-69.177	-0.348	-0.134
-520.945	-200.000	0.042	-0.304
-519.931	-130.368	0.527	0.071
-518.916	142.226	-0.039	0.052
-517.902	63.879	-0.166	0.167
-516.887	800.000	-0.066	-0.200
-515.872	352.283	-0.117	-0.233
-514.858	161.297	0.117	-0.163
-513.843	-200.000	-0.012	-0.284
-512.829	-161.024	0.074	-0.004
-511.814	218.158	0.038	0.061
-510.799	-56.056	-0.091	0.041
-509.785	148.667	0.100	-0.135
-508.770	-34.048	0.142	-0.078
-507.756	37.279	-0.246	0.218
-506.741	257.598	0.116	0.200
-505.726	20.671	-0.236	-0.191
-504.712	-200.000	0.033	-0.198
-503.697	800.000	0.043	-0.144
-502.683	207.441	-0.110	-0.171
-501.668	645.191	0.075	-0.192
-500.653	160.192	-0.091	-0.127
-499.639	-200.000	-0.013	-0.071
-498.624	177.768	0.040	0.058
-497.610	800.000	0.048	-0.205
-496.595	-76.697	-0.121	-0.042
-495.581	-116.372	0.104	-0.019
-494.566	-79.432	-0.261	0.088
-493.551	82.738	0.148	0.161
-492.537	116.009	-0.215	0.262
-491.522	-31.579	-0.109	0.061
-490.508	89.191	-0.038	0.043
-489.493	11.616	-0.085	-0.065
-488.478	-200.000	-0.013	-0.199
-487.464	-7.209	0.085	-0.057
-486.449	12.439	0.043	0.033
-485.435	-200.000	0.032	0.346
-484.420	-11.856	0.065	0.043
-483.405	-9.684	-0.203	-0.135
-482.391	-200.000	-0.023	0.285
-481.376	115.161	0.115	0.140
-480.362	-200.000	0.022	-0.276
-479.347	42.640	-0.141	0.128
-478.332	-122.584	0.169	0.027
-477.318	-65.038	0.255	-0.103
-476.303	-200.000	0.008	0.130
-475.289	800.000	-0.131	0.438
-474.274	84.861	-0.078	0.085
-473.259	-107.104	-0.147	0.032
-472.245	-200.000	0.019	0.113
-471.230	204.309	-0.004	0.007
-470.216	-85.113	0.157	-0.049
-469.201	366.050	-0.116	-0.234
-468.186	177.096	-0.055	-0.080
-467.172	-51.291	-0.195	0.091
-466.157	188.992	0.169	0.253
-465.143	11.218	0.116	-0.089
-464.128	-149.461	0.293	-0.023
-463.113	221.866	0.101	-0.161
-462.099	44.658	-0.069	-0.063
-461.084	-34.468	0.115	-0.063
-460.070	21.330	-0.168	-0.136
-459.055	264.063	0.058	-0.101
-458.040	-138.150	0.180	-0.020
-457.026	800.000	-0.060	-0.188
-456.011	231.393	-0.052	-0.084
-454.997	229.990	-0.091	0.148
-453.982	800.000	0.020	0.061
-452.968	-200.000	0.008	-0.049
-451.953	-125.043	-0.063	-0.010
-450.938	159.767	-0.159	0.221
-449.924	-102.385	0.224	-0.054
-448.909	-24.720	-0.209	0.124
-447.895	88.555	-0.177	-0.196
-446.880	-107.554	-0.085	0.019
-445.865	-81.913	-0.237	0.077
-444.851	-62.034	-0.160	-0.067
-443.836	4.835	-0.118	-0.086
-442.822	-87.820	-0.252	0.076
-441.807	-200.000	-0.006	0.080
-440.792	-138.216	-0.340	-0.038
-439.778	-149.356	0.246	-0.019
-438.763	114.620	0.101	0.123
-437.749	800.000	-0.012	0.035
-436.734	-55.039	0.153	-0.069
-435.719	-65.314	0.084	0.034
-434.705	-200.000	-0.244	0.000
-433.690	-90.619	-0.383	-0.110
-432.676	154.049	-0.144	0.197
-431.661	623.928	0.098	0.247
-430.646	516.742	-0.046	-0.107
-429.632	212.803	-0.223	-0.350
-428.617	-200.000	-0.038	-0.225
-427.603	112.937	-0.088	0.106
-426.588	-62.143	-0.180	-0.075
-425.573	574.562	0.101	0.246
-424.559	800.000	-0.056	0.186
-423.544	368.306	-0.113	0.228
-422.530	110.387	0.085	0.102
-421.515	-71.338	-0.141	0.053
-420.500	-126.518	-0.216	0.032
-419.486	-127.364	-0.293	-0.043
-418.471	800.000	0.090	-0.257
-417.457	141.668	-0.093	0.122
-416.442	465.949	-0.160	-0.358
-415.428	-108.105	0.257	-0.055
-414.413	32.364	-0.173	0.149
-413.398	-181.018	-0.254	-0.005
-412.384	-153.231	-0.382	-0.027
-411.369	-167.175	0.067	-0.003
-410.355	-200.000	-0.028	0.216
-409.340	-200.000	0.035	0.225
-408.325	-171.517	-0.063	0.002
-407.311	-81.391	-0.296	-0.097
-406.296	182.931	-0.032	0.048
-405.282	-139.781	0.296	0.031
-404.267	800.000	0.158	0.439
-403.252	72.545	0.163	-0.170
-402.238	-200.000	-0.025	-0.192
-401.223	-200.000	0.016	-0.332
-400.209	242.862	0.129	0.214
-399.194	189.404	0.216	0.322
-398.179	-89.466	0.099	0.029
-397.165	800.000	-0.079	0.220
-396.150	-200.000	0.031	-0.242
-395.136	-108.153	0.224	0.048
-394.121	-62.374	0.085	-0.035
-393.106	-200.000	-0.036	-0.253
-392.092	-36.935	0.099	-0.053
-391.077	21.786	0.177	0.144
-390.063	-55.168	0.093	0.042
-389.048	581.495	0.082	0.200
-388.033	-170.158	0.126	0.004
-387.019	176.352	0.079	0.114
-386.004	337.134	-0.077	-0.148
-384.990	-145.191	-0.152	-0.014
-383.975	-200.000	-0.013	0.148
-382.960	178.946	-0.145	0.210
-381.946	353.560	0.059	0.117
-380.931	-200.000	0.000	-0.257
-379.917	135.738	0.161	0.208
-378.902	-137.067	0.056	0.006
-377.888	-9.824	0.336	0.223
-376.873	-33.470	0.253	-0.139
-375.858	141.252	-0.235	-0.309
-374.844	609.626	-0.070	-0.173
-373.829	-200.000	0.026	0.207
-372.815	800.000	0.104	0.334
-371.800	-145.099	-0.238	0.022
-370.785	800.000	-0.033	-0.100
-369.771	246.223	0.175	0.293
-368.756	301.815	0.089	0.163
-367.742	800.000	0.035	0.153
-366.727	299.111	0.136	0.249
-365.712	800.000	0.038	0.151
-364.698	37.733	-0.388	0.343
-363.683	416.608	-0.091	0.193
-362.669	-49.953	0.316	0.149
-361.654	76.968	-0.125	-0.132
-360.639	800.000	0.020	0.079
-359.625	-44.081	0.326	-0.163
-358.610	-166.202	-0.061	-0.003
-357.596	-114.998	0.195	0.037
-356.581	-2.941	-0.347	-0.240
-355.566	800.000	0.074	-0.240
-354.552	50.578	-0.183	0.172
-353.537	-200.000	0.007	-0.170
-352.523	183.582	0.013	-0.019
-351.508	211.332	0.201	0.314
-350.493	23.375	-0.130	0.106
-349.479	-175.044	0.199	-0.006
-348.464	12.869	0.151	0.116
-347.450	-85.911	0.295	-0.091
-346.435	-200.000	-0.043	-0.272
-345.420	-30.066	0.046	-0.026
-344.406	-160.338	0.202	0.011
-343.391	21.117	-0.361	0.291
-342.377	36.987	0.203	0.179
-341.362	-88.970	0.064	0.019
-340.348	259.814	-0.127	0.217
-339.333	117.568	-0.357	0.437
-338.318	75.092	-0.092	-0.096
-337.304	-200.000	-0.019	-0.128
-336.289	162.617	0.254	-0.354
-335.275	-86.111	0.039	-0.012
-334.260	389.333	0.056	-0.116
-333.245	366.772	-0.211	0.423
-332.231	-43.993	-0.143	-0.071
-331.216	-104.350	-0.411	0.095
-330.202	-200.000	-0.035	-0.194
-329.187	103.945	0.093	-0.109
-328.172	135.719	-0.299	-0.387
-327.158	17.340	0.140	-0.110
-326.143	800.000	0.041	-0.116
-325.129	18.412	-0.128	-0.102
-324.114	46.708	0.219	0.202
-323.099	800.000	-0.100	0.347
-322.085	778.054	0.097	-0.262
-321.070	-200.000	0.017	-0.235
-320.056	-59.699	0.241	-0.102
-319.041	-133.274	-0.115	0.014
-318.026	-14.159	0.151	-0.097
-317.012	-2.053	0.048	0.034
-315.997	-200.000	0.058	-0.286
-314.983	-200.000	-0.019	0.219
-313.968	439.874	0.077	0.168
-312.953	95.679	0.054	0.062
-311.939	-136.458	0.328	0.038
-310.924	-1.473	0.175	-0.122
-309.910	-99.639	-0.125	-0.031
-308.895	27.374	0.321	-0.267
-307.880	542.014	0.072	-0.169
-306.866	-200.000	-0.034	-0.150
-305.851	800.000	-0.093	-0.321
-304.837	-180.953	0.142	-0.003
-303.822	373.210	0.125	-0.251
-302.807	-200.000	-0.030	-0.286
-301.793	-200.000	-0.008	-0.319
-300.778	124.677	-0.022	0.028
-299.764	-103.253	-0.158	0.037
-298.749	92.392	0.136	0.151
-297.735	-139.849	-0.274	0.029
-296.720	-41.453	0.346	0.177
-295.705	-200.000	-0.011	0.211
-294.691	-68.276	0.243	0.094
-293.676	64.244	-0.058	0.057
-292.662	236.534	-0.255	0.419
-291.647	-133.132	0.146	0.018
-290.632	800.000	0.067	0.211
-289.618	800.000	0.012	0.042
-288.603	-194.512	0.265	-0.002
-287.589	173.657	-0.153	-0.219
-286.574	36.916	-0.118	0.103
-285.559	489.799	0.151	-0.342
-284.545	466.024	0.146	-0.324
-283.530	287.980	0.063	0.113
-282.516	-129.728	0.368	-0.050
-281.501	-14.572	0.067	-0.043
-280.486	170.252	-0.064	-0.091
-279.472	-200.000	0.004	0.278
-278.457	108.034	-0.289	0.341
-277.443	-88.985	0.092	0.027
-276.428	-162.048	-0.041	0.002
-275.413	-200.000	-0.073	0.321
-274.399	-76.020	-0.113	0.040
-273.384	-80.426	-0.140	-0.046
-272.370	-200.000	-0.005	-0.094
-271.355	800.000	0.044	0.146
-270.340	223.614	0.103	-0.165
-269.326	-200.000	-0.062	-0.451
-268.311	-67.094	0.239	0.093
-267.297	-200.000	0.005	0.280
-266.282	15.350	0.160	-0.124
-265.267	128.750	0.115	-0.145
-264.253	-177.844	-0.325	-0.008
-263.238	753.328	-0.186	-0.497
-262.224	-200.000	0.057	0.304
-261.209	-39.320	0.378	-0.196
-260.195	24.883	0.258	0.212
-259.180	35.886	-0.365	0.318
-258.165	-200.000	-0.038	-0.335
-257.151	577.437	0.158	-0.381
-256.136	181.461	-0.039	-0.056
-255.122	157.385	-0.120	0.165
-254.107	144.745	-0.066	-0.087
-253.092	-120.455	0.370	0.062
-252.078	-200.000	-0.074	-0.416
-251.063	266.737	-0.008	-0.014
-250.049	-200.000	-0.021	0.187
-249.034	86.364	0.324	-0.353
-248.019	84.566	0.248	0.269
-247.005	482.987	-0.060	-0.134
-245.990	-89.123	-0.306	0.090
-244.976	-55.984	0.112	0.049
-243.961	-67.646	0.276	0.107
-242.946	-200.000	-0.050	0.380
-241.932	159.147	0.183	0.251
-240.917	-30.423	0.250	0.140
-239.903	440.420	-0.081	0.175
-238.888	512.158	0.104	-0.241
-237.873	800.000	0.086	0.294
-236.859	-124.624	-0.265	-0.041
-235.844	172.870	0.166	0.236
-234.830	726.853	-0.052	-0.138
-233.815	273.240	-0.143	0.249
-232.800	355.033	0.183	-0.360
-231.786	1.184	-0.244	0.173
-230.771	-200.000	-0.020	0.257
-229.757	712.816	0.057	0.149
-228.742	-126.360	0.136	-0.020
-227.727	84.627	-0.147	0.159
-226.713	-187.978	-0.165	-0.002
-225.698	8.874	0.278	-0.207
-224.684	309.965	-0.172	-0.319
-223.669	-200.000	-0.067	-0.384
-222.655	67.285	0.052	-0.053
-221.640	-200.000	0.017	0.370
-220.625	-200.000	0.010	0.144
-219.611	-98.936	0.256	0.064
-218.596	797.859	-0.064	-0.174
-217.582	-200.000	0.078	-0.639
-216.567	800.000	0.051	0.166
-215.552	-51.191	0.185	-0.086
-214.538	28.811	0.112	-0.094
-213.523	-15.227	-0.125	0.079
-212.509	-200.000	-0.014	-0.207
-211.494	265.818	-0.127	-0.219
-210.479	-140.404	0.292	0.030
-209.465	-200.000	0.061	-0.355
-208.450	2.161	0.045	-0.032
-207.436	-200.000	-0.015	-0.354
-206.421	-200.000	0.054	-0.288
-205.406	-200.000	0.010	-0.102
-204.392	-47.553	0.208	-0.100
-203.377	-161.368	0.224	-0.011
-202.363	-200.000	-0.025	-0.193
-201.348	47.883	-0.316	-0.292
-200.333	190.611	0.115	0.170
-199.319	-192.082	0.220	-0.002
-198.304	41.973	-0.056	-0.050
-197.290	-24.533	-0.364	0.214
-196.275	-200.000	-0.004	0.024
-195.260	593.750	-0.104	0.253
-194.246	-143.374	-0.063	-0.006
-193.231	-71.639	0.345	0.127
-192.217	-142.507	0.155	-0.015
-191.202	73.225	-0.090	-0.093
-190.187	-162.179	0.076	-0.004
-189.173	99.486	-0.207	0.236
-188.158	113.668	0.312	-0.375
-187.144	-200.000	-0.016	0.108
-186.129	-200.000	0.020	0.177
-185.114	-6.959	0.075	0.050
-184.100	462.932	-0.135	-0.297
-183.085	-149.425	0.227	0.018
-182.071	1.133	-0.111	0.079
-181.056	-43.989	0.288	0.143
-180.042	-200.000	0.028	0.132
-179.027	-200.000	-0.003	-0.069
-178.012	192.212	-0.041	-0.061
-176.998	498.384	0.126	0.286
-175.983	-29.523	0.365	0.206
-174.969	-200.000	-0.022	-0.146
-173.954	-113.595	-0.242	0.047
-172.939	117.348	-0.177	-0.215
-171.925	-54.361	-0.226	-0.101
-170.910	-145.580	0.255	-0.023
-169.896	88.883	-0.092	-0.101
-168.881	-200.000	-0.007	-0.232
-167.866	-200.000	-0.032	0.247
-166.852	19.241	-0.273	-0.216
-165.837	-165.358	-0.080	-0.003
-164.823	-130.366	0.019	0.003
-163.808	-144.649	-0.072	-0.007
-162.793	-150.487	-0.057	-0.004
-161.779	83.834	-0.222	-0.239
-160.764	-200.000	-0.010	0.186
-159.750	742.783	0.190	0.504
-158.735	-200.000	0.023	-0.168
-157.720	-75.061	-0.354	-0.125
-156.706	-200.000	-0.010	-0.053
-155.691	-200.000	-0.036	0.202
-154.677	-128.305	0.240	-0.034
-153.662	-137.965	0.176	-0.019
-152.647	215.529	0.152	0.238
-151.633	153.119	-0.168	0.227
-150.618	273.220	-0.243	-0.424
-149.604	-200.000	-0.022	0.099
-148.589	800.000	0.041	-0.134
-147.574	800.000	0.062	0.264
-146.560	-70.893	-0.195	-0.072
-145.545	-135.945	-0.206	0.024
-144.531	800.000	0.100	0.290
-143.516	-58.340	-0.203	0.087
-142.502	-130.411	0.400	0.053
-141.487	-124.351	0.097	0.015
-140.472	-39.600	0.219	0.113
-139.458	-200.000	-0.015	-0.076
-138.443	282.094	-0.075	-0.133
-137.429	51.367	0.275	0.257
-136.414	-200.000	0.049	-0.527
-135.399	800.000	0.075	-0.281
-134.385	-44.388	-0.332	0.164
-133.370	-46.605	-0.238	-0.115
-132.356	-93.316	0.080	0.022
-131.341	-117.804	0.102	0.018
-130.326	-55.065	0.144	0.064
-129.312	122.132	0.282	0.346
-128.297	800.000	0.052	0.161
-127.283	61.278	0.052	0.051
-126.268	800.000	0.050	-0.191
-125.253	35.989	0.066	0.057
-124.239	132.260	-0.050	0.063
-123.224	752.288	0.115	-0.307
-122.210	197.047	0.055	0.082
-121.195	-97.405	-0.152	0.039
