DTS Sentinel unit serial number:	SN413079Multiplexer serial number:	ORYXHardware model number:	OX4-SRSoftware version number:	ORYX F/W v4.00 Oryx Data Collector v3.7.2.0data status	okinstallation	princeton_trtdifferential loss correction	single-endedforward channel	channel 2reverse channel	N/Adate	2019/09/11time	16:33:11forward acquisition time	60.00reverse acquisition time	0.00gamma	496.2192k internal	0.2284k external	0.2284temperature offset calibration	1.0018default loss term (dB/km)	0.3790temperature slope calibration	1.0000multiplexer offset coefficient	1.0000multiplexer slope coefficient	1.0000fibre end	0.00T internal ref (°C)	43.69T ext. ref 1 (°C)	1.08T ext. ref 2 (°C)	39.54length (m)	temperature (°C)	Stokes	anti-Stokes-747.200	21.646	0.241	0.202
-746.185	523.227	-0.099	0.240
-745.171	-164.372	-0.203	-0.010
-744.156	300.988	0.166	0.315
-743.142	800.000	-0.050	0.208
-742.127	58.578	-0.185	0.187
-741.112	178.690	-0.153	-0.230
-740.098	-200.000	-0.047	0.378
-739.083	151.785	-0.184	0.257
-738.069	335.616	-0.111	0.221
-737.054	-110.794	-0.170	0.036
-736.039	-200.000	-0.039	0.256
-735.025	-84.468	-0.093	0.030
-734.010	-193.308	-0.201	0.002
-732.996	-60.067	0.062	-0.027
-731.981	609.131	-0.013	0.034
-730.966	71.041	0.080	0.085
-729.952	287.213	-0.204	0.378
-728.937	215.850	0.056	0.091
-727.923	-21.797	0.380	-0.237
-726.908	425.960	-0.099	-0.218
-725.894	292.303	0.125	-0.234
-724.879	800.000	0.140	-0.412
-723.864	-10.213	-0.094	-0.064
-722.850	18.429	0.064	-0.053
-721.835	-129.638	0.155	0.022
-720.821	7.726	-0.122	0.094
-719.806	-60.752	-0.237	0.103
-718.791	-40.752	-0.041	0.022
-717.777	800.000	-0.105	0.349
-716.762	-200.000	0.018	-0.158
-715.748	240.215	-0.120	-0.205
-714.733	-200.000	0.047	-0.248
-713.718	-200.000	0.009	-0.083
-712.704	-148.918	0.244	-0.020
-711.689	800.000	-0.045	0.172
-710.675	-200.000	0.025	-0.213
-709.660	-200.000	-0.056	0.332
-708.645	173.902	-0.147	0.218
-707.631	-200.000	-0.022	0.278
-706.616	-88.586	0.061	0.019
-705.602	243.027	0.079	-0.135
-704.587	-200.000	0.003	-0.078
-703.572	-189.274	0.108	-0.001
-702.558	85.442	-0.073	0.082
-701.543	334.547	-0.175	-0.348
-700.529	-9.478	0.019	-0.013
-699.514	469.935	0.085	-0.195
-698.499	393.787	-0.037	0.080
-697.485	-69.081	-0.021	0.008
-696.470	354.002	-0.064	-0.131
-695.456	692.978	0.124	-0.333
-694.441	-152.419	0.273	0.020
-693.426	-70.581	-0.227	-0.088
-692.412	215.305	-0.088	0.144
-691.397	-57.016	0.131	-0.059
-690.383	800.000	-0.156	0.554
-689.368	494.645	-0.037	0.088
-688.354	-42.795	0.262	0.137
-687.339	-165.714	-0.270	-0.012
-686.324	-117.917	-0.168	0.031
-685.310	800.000	-0.015	0.052
-684.295	17.042	0.194	0.157
-683.281	-60.704	-0.191	-0.083
-682.266	619.426	-0.099	-0.256
-681.251	-17.772	-0.440	-0.283
-680.237	-200.000	-0.016	0.230
-679.222	40.570	0.088	-0.081
-678.208	-131.180	0.208	-0.028
-677.193	56.847	0.170	-0.169
-676.178	-31.073	-0.198	0.115
-675.164	299.683	0.140	0.264
-674.149	189.376	-0.061	0.093
-673.135	-97.805	-0.337	-0.089
-672.120	-134.273	-0.210	0.026
-671.105	800.000	0.035	-0.109
-670.091	6.643	0.038	0.029
-669.076	230.939	-0.226	-0.378
-668.062	-6.792	-0.070	0.049
-667.047	322.849	-0.079	-0.154
-666.032	116.044	-0.189	0.236
-665.018	-174.417	0.175	-0.005
-664.003	-54.537	0.139	-0.065
-662.989	-159.140	-0.201	0.012
-661.974	-72.083	-0.034	-0.013
-660.959	-85.708	-0.281	0.089
-659.945	220.323	0.172	0.283
-658.930	296.947	0.104	0.195
-657.916	-106.667	-0.243	0.055
-656.901	129.666	-0.125	-0.164
-655.886	800.000	-0.076	-0.328
-654.872	-59.571	0.124	0.055
-653.857	471.122	-0.175	-0.404
-652.843	800.000	-0.037	-0.107
-651.828	-94.305	-0.424	-0.119
-650.814	-200.000	0.063	-0.407
-649.799	-43.232	-0.341	-0.177
-648.784	121.368	-0.051	-0.065
-647.770	-97.912	-0.374	0.099
-646.755	397.009	-0.189	0.405
-645.741	-100.139	-0.290	0.074
-644.726	-89.831	0.090	-0.027
-643.711	-200.000	-0.005	-0.107
-642.697	-165.957	0.146	0.006
-641.682	-154.184	0.211	0.015
-640.668	800.000	-0.072	0.271
-639.653	-138.931	0.161	0.018
-638.638	563.175	0.039	-0.096
-637.624	800.000	-0.112	-0.330
-636.609	-25.550	0.442	-0.267
-635.595	538.542	-0.106	0.259
-634.580	-7.498	-0.161	0.112
-633.565	79.141	-0.382	-0.419
-632.551	28.247	-0.028	-0.024
-631.536	109.169	0.236	-0.289
-630.522	800.000	0.058	0.166
-629.507	-200.000	0.012	-0.325
-628.492	176.746	0.057	-0.084
-627.478	383.656	-0.095	0.200
-626.463	-60.639	0.235	-0.102
-625.449	800.000	0.086	-0.287
-624.434	-200.000	0.011	-0.115
-623.419	-23.557	-0.237	0.145
-622.405	-200.000	-0.028	-0.505
-621.390	800.000	-0.151	-0.465
-620.376	800.000	0.020	-0.074
-619.361	-95.642	0.301	0.082
-618.346	-200.000	-0.038	-0.245
-617.332	-74.292	-0.119	0.044
-616.317	194.072	0.324	-0.501
-615.303	35.552	-0.162	-0.146
-614.288	110.805	-0.226	-0.278
-613.273	-46.544	-0.178	-0.089
-612.259	661.984	-0.016	0.043
-611.244	-103.893	0.149	0.036
-610.230	-185.653	-0.098	0.002
-609.215	33.258	-0.156	-0.138
-608.201	462.770	-0.105	-0.240
-607.186	215.692	0.232	-0.376
-606.171	296.391	-0.071	0.132
-605.157	27.410	-0.168	0.145
-604.142	-59.105	-0.265	0.117
-603.128	800.000	-0.077	-0.219
-602.113	17.996	0.133	0.108
-601.098	-133.745	-0.334	0.042
-600.084	44.508	-0.340	-0.319
-599.069	-200.000	0.000	-0.258
-598.055	-76.148	0.204	-0.074
-597.040	-107.133	-0.189	-0.043
-596.025	41.995	-0.119	-0.111
-595.011	180.132	-0.089	0.133
-593.996	-200.000	-0.051	-0.307
-592.982	-48.700	0.181	-0.089
-591.967	-99.864	0.284	0.073
-590.952	172.306	0.179	-0.262
-589.938	266.499	-0.186	-0.331
-588.923	11.124	-0.085	0.067
-587.909	-200.000	0.036	0.245
-586.894	325.271	-0.084	-0.164
-585.879	-31.179	0.042	-0.024
-584.865	-50.749	0.187	-0.090
-583.850	-75.243	0.191	0.070
-582.836	-200.000	0.107	0.634
-581.821	81.222	0.187	-0.207
-580.806	-50.522	0.171	0.082
-579.792	-200.000	-0.053	0.412
-578.777	-176.136	-0.151	-0.004
-577.763	22.009	0.096	0.080
-576.748	176.571	0.088	-0.130
-575.733	145.830	-0.135	-0.184
-574.719	-143.059	-0.270	0.027
-573.704	-7.660	-0.143	-0.099
-572.690	-82.915	0.186	0.061
-571.675	-109.872	-0.136	-0.029
-570.661	-200.000	0.113	-0.554
-569.646	-103.572	0.147	0.035
-568.631	-37.563	-0.120	-0.065
-567.617	660.199	-0.054	-0.142
-566.602	-135.800	-0.050	0.006
-565.588	-94.861	0.115	-0.032
-564.573	92.005	0.157	-0.181
-563.558	-23.253	0.275	0.169
-562.544	800.000	-0.009	-0.029
-561.529	61.759	0.048	0.049
-560.515	800.000	0.030	0.101
-559.500	250.382	0.085	0.147
-558.485	800.000	-0.112	0.332
-557.471	-118.809	-0.191	0.034
-556.456	-158.080	0.244	-0.015
-555.442	133.444	-0.168	-0.222
-554.427	-200.000	0.015	0.128
-553.412	-59.333	0.094	0.041
-552.398	39.142	0.110	0.101
-551.383	-200.000	-0.007	0.126
-550.369	800.000	0.021	-0.062
-549.354	145.393	0.061	0.083
-548.339	178.565	0.116	0.172
-547.325	-70.731	0.288	0.111
-546.310	3.300	-0.161	-0.119
-545.296	121.743	0.053	0.067
-544.281	-132.717	0.130	-0.017
-543.266	800.000	-0.031	-0.093
-542.252	-200.000	0.048	0.431
-541.237	-138.796	-0.383	-0.043
-540.223	33.140	0.156	0.138
-539.208	-124.694	-0.250	0.039
-538.193	482.987	-0.091	-0.210
-537.179	-200.000	-0.004	0.314
-536.164	800.000	0.098	-0.311
-535.150	292.265	-0.113	0.209
-534.135	-52.727	0.230	-0.108
-533.121	189.257	-0.094	-0.143
-532.106	-194.889	-0.125	0.001
-531.091	149.509	0.129	0.178
-530.077	-9.408	-0.204	0.139
-529.062	-142.307	0.194	-0.020
-528.048	96.862	0.044	-0.051
-527.033	36.768	0.290	0.261
-526.018	89.784	-0.233	-0.265
-525.004	-90.214	0.233	0.069
-523.989	124.052	-0.129	0.166
-522.975	-200.000	-0.008	0.279
-521.960	800.000	-0.050	0.185
-520.945	800.000	0.071	0.201
-519.931	65.586	-0.238	0.245
-518.916	-119.318	-0.346	-0.061
-517.902	-155.466	-0.125	-0.008
-516.887	-76.786	-0.269	-0.096
-515.872	-200.000	-0.045	-0.381
-514.858	-91.741	-0.116	-0.034
-513.843	303.637	0.036	0.069
-512.829	-29.322	-0.226	0.132
-511.814	263.545	-0.055	0.098
-510.799	9.431	-0.158	-0.122
-509.785	-144.168	-0.475	0.045
-508.770	338.934	0.030	-0.060
-507.756	293.791	-0.085	-0.158
-506.741	-0.222	-0.163	-0.118
-505.726	800.000	0.014	0.061
-504.712	-60.453	0.160	0.069
-503.697	-126.105	-0.174	0.027
-502.683	-17.493	0.178	0.114
-501.668	3.125	0.153	-0.113
-500.653	-200.000	0.009	-0.098
-499.639	-200.000	-0.011	0.172
-498.624	-200.000	0.097	0.480
-497.610	0.701	0.088	-0.064
-496.595	32.127	0.124	0.109
-495.581	-146.033	-0.306	0.028
-494.566	81.275	0.075	0.082
-493.551	-157.795	0.176	0.011
-492.537	354.886	0.105	0.212
-491.522	-200.000	-0.015	0.253
-490.508	123.392	0.263	-0.335
-489.493	-145.056	-0.087	0.008
-488.478	-43.000	0.183	0.094
-487.464	-54.983	0.202	0.093
-486.449	209.648	-0.144	-0.230
-485.435	504.477	0.038	0.089
-484.420	79.314	-0.343	0.374
-483.405	-197.349	0.079	-0.001
-482.391	763.374	0.059	-0.163
-481.376	158.371	0.072	-0.101
-480.362	102.751	-0.294	-0.350
-479.347	20.260	0.093	-0.076
-478.332	-105.068	-0.051	0.012
-477.318	-13.649	0.151	-0.099
-476.303	-27.654	-0.258	-0.152
-475.289	44.735	-0.067	0.062
-474.274	57.686	0.105	-0.104
-473.259	134.995	0.098	0.129
-472.245	-63.128	-0.169	0.071
-471.230	-17.013	-0.050	-0.032
-470.216	-109.151	0.219	-0.047
-469.201	139.289	-0.189	0.253
-468.186	237.723	-0.200	0.337
-467.172	-174.494	0.384	-0.011
-466.157	-121.219	-0.026	0.004
-465.143	-200.000	-0.006	0.264
-464.128	800.000	-0.145	0.438
-463.113	-100.357	-0.319	-0.080
-462.099	-200.000	0.068	-0.303
-461.084	800.000	-0.034	-0.126
-460.070	-200.000	-0.083	0.510
-459.055	13.621	-0.064	-0.051
-458.040	-142.330	0.289	0.029
-457.026	-25.737	0.288	-0.173
-456.011	-72.126	-0.092	-0.035
-454.997	280.596	-0.079	-0.144
-453.982	-200.000	-0.022	0.386
-452.968	56.089	-0.315	0.310
-451.953	-200.000	0.012	0.291
-450.938	400.394	0.077	0.164
-449.924	-51.833	-0.068	-0.032
-448.909	-50.277	0.227	0.109
-447.895	-87.371	-0.201	0.062
-446.880	-116.193	0.260	-0.049
-445.865	-66.648	0.524	-0.211
-444.851	171.861	0.215	0.314
-443.836	29.603	0.121	-0.105
-442.822	-117.504	0.264	0.048
-441.807	196.412	0.128	-0.197
-440.792	800.000	-0.050	-0.200
-439.778	-200.000	-0.007	0.285
-438.763	185.566	0.285	-0.430
-437.749	623.980	-0.043	-0.110
-436.734	115.208	0.152	-0.188
-435.719	-113.922	0.123	0.024
-434.705	13.023	-0.145	-0.113
-433.690	-3.512	-0.176	-0.124
-432.676	-200.000	-0.048	-0.241
-431.661	-107.129	0.128	0.029
-430.646	-200.000	0.020	-0.216
-429.632	-196.882	0.107	-0.001
-428.617	-200.000	0.020	0.106
-427.603	-28.796	-0.201	-0.117
-426.588	800.000	0.054	-0.178
-425.573	-8.101	-0.420	-0.287
-424.559	-167.795	-0.347	0.014
-423.544	-200.000	0.005	-0.205
-422.530	-129.321	-0.406	-0.057
-421.515	-147.078	0.184	-0.016
-420.500	289.482	0.096	0.177
-419.486	-139.920	-0.190	0.020
-418.471	191.821	-0.204	-0.312
-417.457	465.670	0.071	-0.161
-416.442	-120.782	-0.066	0.011
-415.428	454.475	0.106	0.239
-414.413	-140.501	0.255	-0.027
-413.398	378.430	-0.071	0.147
-412.384	76.606	-0.329	-0.353
-411.369	-200.000	0.019	-0.277
-410.355	362.174	0.043	-0.088
-409.340	-200.000	0.034	0.194
-408.325	245.001	-0.207	-0.352
-407.311	-68.806	0.148	-0.058
-406.296	392.007	0.077	-0.162
-405.282	-52.594	0.297	-0.139
-404.267	7.104	-0.216	-0.163
-403.252	-13.805	-0.053	0.035
-402.238	-200.000	-0.038	0.303
-401.223	132.663	-0.194	-0.254
-400.209	800.000	0.057	-0.193
-399.194	-200.000	0.023	-0.529
-398.179	487.849	0.111	0.258
-397.165	86.570	0.238	0.266
-396.150	67.248	0.201	-0.207
-395.136	507.830	-0.013	-0.030
-394.121	-110.469	-0.137	-0.029
-393.106	-40.353	-0.377	-0.198
-392.092	-21.114	0.173	-0.107
-391.077	-24.508	0.200	0.121
-390.063	-80.148	-0.558	0.189
-389.048	800.000	0.047	-0.153
-388.033	-200.000	0.014	0.180
-387.019	800.000	-0.013	0.039
-386.004	77.817	-0.196	0.211
-384.990	800.000	-0.051	0.145
-383.975	-0.082	-0.157	0.114
-382.960	-82.875	-0.079	0.026
-381.946	-110.621	-0.269	0.056
-380.931	-100.365	0.524	0.132
-379.917	-200.000	-0.013	-0.070
-378.902	154.786	-0.208	-0.289
-377.888	539.531	-0.117	0.281
-376.873	-200.000	0.037	0.194
-375.858	-166.552	0.259	0.011
-374.844	-91.538	-0.215	0.062
-373.829	-200.000	-0.045	0.220
-372.815	-77.150	-0.101	0.036
-371.800	800.000	-0.039	-0.111
-370.785	-190.993	-0.270	0.003
-369.771	339.026	0.253	-0.499
-368.756	6.156	0.215	-0.161
-367.742	-200.000	-0.035	-0.486
-366.727	-117.797	-0.163	-0.030
-365.712	-88.997	0.229	-0.069
-364.698	56.428	-0.212	-0.208
-363.683	-103.991	-0.159	0.038
-362.669	23.083	-0.220	0.183
-361.654	145.950	0.218	0.296
-360.639	-23.768	-0.123	-0.074
-359.625	-136.935	0.288	-0.033
-358.610	-122.430	-0.294	0.049
-357.596	-200.000	0.025	-0.312
-356.581	-200.000	0.005	-0.190
-355.566	61.277	-0.107	0.108
-354.552	-200.000	-0.012	0.128
-353.537	185.185	0.102	0.153
-352.523	303.155	-0.165	0.309
-351.508	800.000	-0.014	0.041
-350.493	-157.529	-0.384	0.023
-349.479	-123.529	0.092	-0.015
-348.464	-200.000	0.012	0.296
-347.450	84.997	0.199	-0.221
-346.435	-96.465	-0.169	-0.045
-345.420	37.007	-0.096	-0.086
-344.406	-110.018	-0.195	-0.041
-343.391	-138.331	0.384	0.043
-342.377	324.238	-0.130	-0.251
-341.362	-97.782	-0.086	-0.022
-340.348	113.897	-0.091	-0.111
-339.333	150.006	-0.246	-0.338
-338.318	-200.000	-0.017	0.209
-337.304	-200.000	-0.016	0.143
-336.289	-61.529	0.220	0.093
-335.275	-25.159	0.402	0.241
-334.260	-8.741	0.117	-0.079
-333.245	-24.124	0.307	-0.185
-332.231	-169.191	-0.120	0.004
-331.216	-157.941	-0.227	-0.014
-330.202	-42.607	0.346	0.178
-329.187	-7.253	0.064	-0.044
-328.172	-123.867	-0.311	-0.050
-327.158	293.748	0.051	0.095
-326.143	185.093	-0.086	-0.129
-325.129	-85.625	0.349	0.110
-324.114	712.272	0.077	0.205
-323.099	-57.318	-0.508	0.225
-322.085	800.000	-0.053	0.195
-321.070	70.469	-0.075	-0.078
-320.056	20.724	-0.234	-0.191
-319.041	-200.000	-0.032	0.205
-318.026	89.567	-0.204	-0.230
-317.012	-200.000	0.005	0.131
-315.997	299.392	0.170	0.316
-314.983	18.192	-0.275	0.222
-313.968	800.000	-0.051	-0.206
-312.953	342.698	-0.123	0.243
-311.939	-14.115	0.114	0.074
-310.924	304.544	-0.014	0.027
-309.910	-28.203	0.115	-0.067
-308.895	-169.097	0.358	0.013
-307.880	37.406	-0.333	-0.298
-306.866	170.417	-0.147	0.213
-305.851	800.000	0.035	-0.124
-304.837	-15.148	0.284	-0.183
-303.822	56.101	0.204	-0.200
-302.807	-200.000	0.063	0.368
-301.793	23.239	-0.094	0.078
-300.778	-200.000	-0.022	0.220
-299.764	-165.655	-0.021	0.001
-298.749	34.326	0.305	0.269
-297.735	60.815	0.098	-0.098
-296.720	-24.465	-0.150	0.090
-295.705	212.037	0.084	0.134
-294.691	-106.343	0.227	-0.051
-293.676	-89.133	0.194	0.058
-292.662	-200.000	-0.032	-0.156
-291.647	-200.000	-0.023	-0.232
-290.632	34.675	-0.175	-0.155
-289.618	97.925	0.189	0.219
-288.603	77.599	-0.071	-0.076
-287.589	-200.000	-0.028	-0.474
-286.574	285.853	0.235	0.427
-285.559	22.482	-0.204	0.168
-284.545	35.412	0.103	0.091
-283.530	-200.000	-0.043	0.255
-282.516	-86.557	0.273	0.084
-281.501	61.245	0.244	-0.245
-280.486	-163.909	0.194	0.009
-279.472	-126.316	0.191	-0.029
-278.457	-200.000	0.086	0.426
-277.443	-200.000	0.013	0.100
-276.428	566.194	-0.115	0.282
-275.413	-200.000	0.007	0.242
-274.399	178.315	-0.112	0.165
-273.384	-88.863	-0.075	0.023
-272.370	800.000	-0.056	0.236
-271.355	-182.592	-0.208	-0.004
-270.340	37.855	0.156	0.140
-269.326	800.000	-0.126	0.377
-268.311	-170.483	-0.153	-0.005
-267.297	340.890	-0.104	-0.204
-266.282	72.931	-0.131	0.138
-265.267	-43.903	-0.134	-0.068
-264.253	467.933	0.019	0.044
-263.238	18.904	-0.128	0.103
-262.224	131.872	0.255	-0.331
-261.209	800.000	0.059	-0.230
-260.195	-163.836	0.155	-0.007
-259.180	800.000	-0.057	0.166
-258.165	-200.000	0.006	-0.341
-257.151	-109.924	0.153	-0.032
-256.136	-200.000	-0.052	-0.278
-255.122	85.458	0.173	-0.192
-254.107	-185.896	-0.182	-0.003
-253.092	300.312	-0.036	-0.068
-252.078	800.000	0.042	0.139
-251.063	91.188	-0.224	0.253
-250.049	154.242	0.210	-0.290
-249.034	800.000	0.038	-0.124
-248.019	-110.734	0.119	0.025
-247.005	-41.802	0.209	-0.108
-245.990	-87.744	-0.201	-0.061
-244.976	-200.000	0.029	-0.220
-243.961	-146.978	0.219	0.019
-242.946	74.542	-0.063	-0.066
-241.932	-152.101	-0.130	-0.010
-240.917	66.410	-0.211	0.216
-239.903	-70.708	-0.086	-0.033
-238.888	-89.440	0.363	0.108
-237.873	-28.421	0.306	0.178
-236.859	4.460	0.395	-0.292
-235.844	44.232	-0.166	0.153
-234.830	145.270	0.324	0.437
-233.815	113.281	0.063	0.077
-232.800	181.424	-0.031	0.046
-231.786	-56.056	-0.170	-0.076
-230.771	-200.000	-0.045	-0.344
-229.757	-5.575	0.194	0.134
-228.742	800.000	0.100	0.331
-227.727	45.031	0.159	-0.147
-226.713	-61.385	0.432	-0.183
-225.698	124.866	0.014	-0.018
-224.684	183.095	0.103	-0.153
-223.669	-62.516	-0.146	0.061
-222.655	315.084	0.095	0.181
-221.640	-200.000	0.004	-0.062
-220.625	57.892	-0.422	-0.416
-219.611	152.425	0.122	-0.168
-218.596	21.227	-0.043	-0.035
-217.582	-6.059	0.191	-0.132
-216.567	-174.347	-0.178	-0.005
-215.552	-137.629	0.109	0.012
-214.538	-76.141	0.216	0.077
-213.523	-51.321	0.190	0.089
-212.509	-200.000	0.028	0.191
-211.494	800.000	0.004	-0.016
-210.479	-147.596	-0.264	-0.022
-209.465	15.869	-0.097	0.077
-208.450	194.409	0.130	0.199
-207.436	-33.205	-0.205	-0.114
-206.421	-61.298	0.337	0.143
-205.406	7.112	0.169	0.127
-204.392	-51.210	-0.196	0.092
-203.377	-200.000	0.035	0.272
-202.363	-200.000	0.018	-0.146
-201.348	-82.562	-0.048	0.016
-200.333	-76.385	0.160	0.057
-199.319	-117.482	0.144	-0.026
-198.304	-200.000	0.010	-0.075
-197.290	65.645	-0.102	-0.104
-196.275	28.245	-0.250	-0.212
-195.260	460.932	-0.047	0.106
-194.246	336.322	0.074	0.144
-193.231	-22.739	0.229	-0.139
-192.217	800.000	-0.033	-0.137
-191.202	-200.000	0.050	0.231
-190.187	-155.083	0.075	0.005
-189.173	-109.245	-0.098	-0.021
-188.158	407.894	-0.107	0.228
-187.144	8.444	0.043	0.032
-186.129	-155.125	0.196	-0.013
-185.114	800.000	-0.081	0.308
-184.100	-200.000	-0.024	0.229
-183.085	-82.238	-0.343	0.112
-182.071	-102.054	0.311	0.075
-181.056	-8.484	-0.359	0.242
-180.042	395.461	0.087	-0.183
-179.027	-49.434	0.299	-0.143
-178.012	174.811	-0.147	0.213
-176.998	87.393	0.071	0.079
-175.983	-200.000	-0.005	-0.140
-174.969	-200.000	0.039	-0.176
-173.954	233.422	0.205	0.339
-172.939	2.532	-0.059	0.043
-171.925	277.017	0.025	-0.044
-170.910	60.554	-0.149	0.148
-169.896	-12.928	-0.126	-0.083
-168.881	291.688	0.116	0.212
-167.866	-90.699	0.170	0.049
-166.852	-67.170	0.170	-0.067
-165.837	-57.344	-0.333	0.147
-164.823	-129.606	-0.212	0.029
-163.808	800.000	-0.056	0.205
-162.793	800.000	0.135	0.503
-161.779	-55.783	0.433	-0.194
-160.764	123.884	-0.177	-0.223
-159.750	-74.007	0.171	0.062
-158.735	-200.000	0.024	-0.269
-157.720	421.206	0.085	-0.183
-156.706	-200.000	0.024	0.181
-155.691	23.566	-0.231	0.191
-154.677	38.917	0.270	-0.242
-153.662	76.510	0.224	-0.238
-152.647	228.891	-0.124	0.203
-151.633	141.022	-0.091	0.121
-150.618	-200.000	-0.051	-0.324
-149.604	-20.877	-0.281	-0.173
-148.589	-74.266	-0.276	0.100
-147.574	-97.935	0.285	0.074
-146.560	-123.612	0.218	-0.035
-145.545	800.000	0.076	-0.264
-144.531	567.788	-0.055	0.134
-143.516	2.814	0.200	-0.145
-142.502	73.988	-0.098	-0.103
-141.487	5.521	-0.231	-0.171
-140.472	-132.002	-0.171	-0.022
-139.458	24.922	-0.145	-0.121
-138.443	-63.852	-0.010	0.004
-137.429	-159.551	0.136	0.008
-136.414	800.000	-0.051	-0.204
-135.399	800.000	-0.042	0.145
-134.385	-84.432	0.188	0.060
-133.370	116.308	-0.168	0.206
-132.356	-200.000	0.012	0.181
-131.341	7.924	0.164	0.123
-130.326	-37.147	0.299	0.161
-129.312	800.000	-0.041	-0.145
-128.297	-71.778	0.117	0.044
-127.283	273.606	0.059	0.105
-126.268	-200.000	-0.056	0.298
-125.253	-200.000	-0.040	0.175
-124.239	-156.438	0.342	-0.021
-123.224	-200.000	-0.028	0.286
-122.210	97.739	0.050	0.058
-121.195	800.000	-0.040	0.141
