DTS Sentinel unit serial number:	SN413079Multiplexer serial number:	ORYXHardware model number:	OX4-SRSoftware version number:	ORYX F/W v4.00 Oryx Data Collector v3.7.2.0data status	okinstallation	princeton_trtdifferential loss correction	single-endedforward channel	channel 2reverse channel	N/Adate	2019/09/15time	07:07:34forward acquisition time	60.00reverse acquisition time	0.00gamma	496.2192k internal	0.2326k external	0.2326temperature offset calibration	1.0031default loss term (dB/km)	0.3790temperature slope calibration	1.0000multiplexer offset coefficient	1.0000multiplexer slope coefficient	1.0000fibre end	0.00T internal ref (°C)	30.50T ext. ref 1 (°C)	4.86T ext. ref 2 (°C)	25.65length (m)	temperature (°C)	Stokes	anti-Stokes-747.200	134.834	-0.099	0.130
-746.185	429.357	-0.114	0.249
-745.171	-200.000	0.003	0.045
-744.156	-55.296	0.322	0.146
-743.142	-194.187	-0.089	-0.001
-742.127	800.000	0.051	0.159
-741.112	800.000	0.106	0.296
-740.098	-119.562	-0.254	0.044
-739.083	590.034	0.075	0.186
-738.069	20.825	-0.107	0.088
-737.054	-64.587	-0.180	0.074
-736.039	69.031	-0.079	-0.081
-735.025	-86.771	-0.140	0.043
-734.010	-97.964	-0.132	-0.034
-732.996	-48.043	0.312	0.152
-731.981	278.372	0.121	0.218
-730.966	-53.011	-0.117	-0.054
-729.952	486.198	-0.021	0.048
-728.937	-55.823	-0.166	-0.075
-727.923	800.000	-0.050	-0.207
-726.908	-12.349	-0.383	-0.252
-725.894	-68.267	0.055	-0.021
-724.879	-128.427	-0.325	-0.047
-723.864	152.638	0.018	-0.025
-722.850	-140.888	-0.453	0.047
-721.835	704.183	-0.193	0.512
-720.821	-200.000	0.040	-0.235
-719.806	-200.000	-0.001	-0.123
-718.791	-64.357	-0.222	0.091
-717.777	800.000	0.032	0.103
-716.762	-62.025	0.085	0.036
-715.748	198.829	-0.082	-0.127
-714.733	193.869	-0.078	0.119
-713.718	-110.257	-0.166	-0.035
-712.704	-11.409	-0.248	-0.165
-711.689	501.312	-0.073	0.170
-710.675	16.338	-0.040	0.032
-709.660	-35.677	0.110	0.060
-708.645	-75.976	0.189	0.067
-707.631	-41.233	-0.101	-0.052
-706.616	346.090	0.030	0.060
-705.602	-50.328	0.107	-0.051
-704.587	21.167	0.018	-0.015
-703.572	79.624	0.154	-0.167
-702.558	-118.289	0.072	0.013
-701.543	18.468	0.093	-0.075
-700.529	11.210	-0.095	-0.073
-699.514	-112.538	0.181	-0.036
-698.499	14.392	0.117	0.092
-697.485	-36.970	0.083	-0.045
-696.470	76.468	-0.296	-0.316
-695.456	23.829	0.142	-0.118
-694.441	-16.768	0.290	-0.185
-693.426	-59.635	-0.015	0.006
-692.412	176.808	-0.097	0.142
-691.397	47.417	0.053	0.050
-690.383	-200.000	0.018	0.280
-689.368	0.646	0.206	-0.148
-688.354	92.154	0.149	-0.169
-687.339	-200.000	0.007	0.131
-686.324	-113.679	0.243	0.048
-685.310	-134.678	-0.334	0.041
-684.295	289.221	0.078	0.142
-683.281	-26.336	-0.156	-0.092
-682.266	-23.661	-0.252	-0.152
-681.251	-200.000	-0.024	0.137
-680.237	104.887	0.160	-0.190
-679.222	800.000	-0.051	-0.200
-678.208	-19.986	-0.144	-0.089
-677.193	-19.843	0.182	0.113
-676.178	-18.836	0.081	0.051
-675.164	230.646	0.132	-0.217
-674.149	800.000	-0.024	0.091
-673.135	-200.000	0.025	0.228
-672.120	-117.714	0.162	0.029
-671.105	-95.149	0.240	0.065
-670.091	-121.255	0.492	0.083
-669.076	115.835	0.088	-0.109
-668.062	-78.542	-0.141	-0.048
-667.047	-30.468	-0.099	-0.056
-666.032	-200.000	-0.007	0.104
-665.018	100.468	0.149	-0.174
-664.003	800.000	0.085	0.313
-662.989	-117.637	0.140	0.025
-661.974	-131.190	0.241	0.032
-660.959	-200.000	0.032	-0.265
-659.945	-123.126	0.125	-0.020
-658.930	35.087	0.178	0.157
-657.916	-92.566	0.148	-0.042
-656.901	39.147	-0.133	0.119
-655.886	800.000	0.049	0.180
-654.872	87.241	-0.080	-0.089
-653.857	-115.214	0.187	-0.036
-652.843	-93.218	0.271	-0.076
-651.828	-26.745	0.053	0.031
-650.814	-200.000	-0.018	0.113
-649.799	-59.304	0.218	0.094
-648.784	-113.458	-0.215	0.042
-647.770	-131.366	-0.377	-0.050
-646.755	-200.000	-0.064	-0.289
-645.741	-15.535	-0.077	-0.049
-644.726	-200.000	0.010	0.211
-643.711	800.000	0.062	0.214
-642.697	-16.740	0.184	-0.117
-641.682	176.212	-0.046	-0.066
-640.668	-100.737	-0.432	0.107
-639.653	-134.186	0.151	-0.019
-638.638	-164.331	-0.097	-0.004
-637.624	-200.000	0.046	0.435
-636.609	239.389	0.121	0.203
-635.595	-46.399	0.369	0.182
-634.580	-200.000	0.017	-0.149
-633.565	-62.031	-0.212	-0.089
-632.551	39.502	0.210	-0.189
-631.536	65.612	0.243	0.247
-630.522	304.675	0.130	-0.242
-629.507	-200.000	-0.062	-0.291
-628.492	-124.631	0.074	-0.011
-627.478	-116.886	0.125	-0.023
-626.463	-200.000	0.036	-0.192
-625.449	605.990	0.140	-0.350
-624.434	-60.745	-0.256	-0.109
-623.419	800.000	-0.143	-0.507
-622.405	357.058	-0.064	0.127
-621.390	-200.000	0.002	-0.165
-620.376	-75.584	0.149	0.053
-619.361	2.056	-0.064	-0.046
-618.346	-58.917	-0.269	0.117
-617.332	-200.000	-0.092	-0.558
-616.317	628.863	0.172	0.438
-615.303	-111.073	-0.032	0.007
-614.288	-125.687	0.481	0.073
-613.273	162.337	-0.072	0.101
-612.259	-53.216	-0.155	-0.072
-611.244	30.171	-0.187	-0.160
-610.230	-139.552	0.396	-0.042
-609.215	-69.085	0.297	0.115
-608.201	-52.094	0.346	0.161
-607.186	-68.322	-0.143	0.056
-606.171	185.111	0.129	0.192
-605.157	755.376	0.024	-0.065
-604.142	-200.000	0.045	-0.277
-603.128	-200.000	-0.047	-0.343
-602.113	-192.751	-0.505	-0.005
-601.098	-200.000	0.057	-0.251
-600.084	-6.710	0.102	-0.069
-599.069	-89.717	0.330	-0.097
-598.055	-6.771	0.183	-0.125
-597.040	-200.000	0.008	-0.219
-596.025	-200.000	0.012	-0.245
-595.011	93.760	-0.124	0.141
-593.996	77.710	-0.128	0.136
-592.982	264.807	-0.121	-0.211
-591.967	-92.037	-0.231	-0.065
-590.952	-2.833	-0.139	-0.097
-589.938	304.275	-0.139	0.259
-588.923	81.039	-0.113	-0.123
-587.909	-9.333	0.044	-0.030
-586.894	-81.621	-0.389	0.128
-585.879	-99.594	0.145	-0.037
-584.865	121.556	-0.129	0.161
-583.850	133.653	-0.073	0.095
-582.836	193.449	0.108	0.164
-581.821	-124.703	-0.221	0.034
-580.806	800.000	-0.023	0.083
-579.792	8.685	0.095	-0.072
-578.777	-131.060	-0.218	0.029
-577.763	-190.389	-0.356	-0.004
-576.748	-190.524	-0.110	0.001
-575.733	140.418	-0.217	-0.286
-574.719	213.360	-0.100	-0.159
-573.704	232.695	-0.084	0.139
-572.690	-146.490	-0.250	-0.022
-571.675	208.432	-0.095	0.149
-570.661	-200.000	0.014	0.264
-569.646	-19.859	-0.110	-0.068
-568.631	-59.596	-0.194	-0.083
-567.617	10.458	0.116	-0.089
-566.602	114.290	0.035	0.043
-565.588	-33.760	0.303	-0.167
-564.573	247.763	0.150	0.254
-563.558	225.647	0.056	-0.090
-562.544	-200.000	-0.008	-0.038
-561.529	-114.066	0.170	-0.033
-560.515	367.925	0.049	-0.100
-559.500	-55.947	-0.415	-0.185
-558.485	452.412	0.042	-0.093
-557.471	-79.255	-0.046	-0.016
-556.456	-200.000	-0.011	0.264
-555.442	-172.731	0.136	0.004
-554.427	-200.000	-0.015	-0.272
-553.412	-106.013	-0.050	-0.011
-552.398	222.495	-0.066	-0.107
-551.383	591.102	-0.112	-0.277
-550.369	262.520	0.112	0.195
-549.354	-200.000	0.015	0.105
-548.339	277.659	0.112	-0.199
-547.325	-200.000	-0.032	0.144
-546.310	800.000	-0.138	0.438
-545.296	225.794	0.146	0.236
-544.281	4.390	-0.321	0.236
-543.266	-200.000	-0.004	-0.062
-542.252	-64.108	-0.137	-0.056
-541.237	-26.671	0.264	-0.155
-540.223	-67.709	0.107	0.042
-539.208	264.282	0.271	-0.473
-538.193	-200.000	0.004	-0.218
-537.179	-200.000	-0.082	-0.421
-536.164	87.828	0.238	-0.264
-535.150	189.928	0.179	-0.269
-534.135	344.770	0.255	-0.500
-533.121	257.657	0.174	-0.300
-532.106	-67.123	0.093	0.036
-531.091	-7.215	0.052	0.035
-530.077	-200.000	-0.004	0.163
-529.062	2.129	-0.206	0.149
-528.048	-38.794	-0.297	0.157
-527.033	101.497	0.056	0.066
-526.018	-200.000	0.022	0.106
-525.004	-11.502	0.232	0.153
-523.989	-130.166	0.306	0.042
-522.975	-200.000	-0.005	-0.078
-521.960	-200.000	0.053	-0.302
-520.945	62.659	-0.155	0.155
-519.931	-39.716	-0.376	0.196
-518.916	72.120	0.057	0.059
-517.902	-20.530	0.227	-0.139
-516.887	-200.000	-0.007	-0.095
-515.872	-200.000	-0.020	-0.319
-514.858	-9.103	-0.180	0.121
-513.843	-71.134	-0.074	0.028
-512.829	573.170	-0.108	0.263
-511.814	93.631	0.147	0.166
-510.799	-200.000	0.203	0.001
-509.785	239.948	-0.120	0.200
-508.770	411.659	-0.074	0.157
-507.756	800.000	-0.054	-0.234
-506.741	392.557	-0.059	-0.123
-505.726	-83.017	-0.180	-0.058
-504.712	-20.635	0.182	0.111
-503.697	-12.080	-0.287	0.188
-502.683	-52.873	-0.189	0.087
-501.668	-153.144	-0.419	-0.029
-500.653	129.654	-0.125	0.160
-499.639	740.174	-0.018	-0.049
-498.624	-11.319	0.041	-0.027
-497.610	52.992	-0.064	-0.061
-496.595	-200.000	-0.036	-0.273
-495.581	357.089	0.038	-0.077
-494.566	-99.626	-0.340	0.085
-493.551	-46.442	0.226	-0.111
-492.537	99.862	0.093	0.108
-491.522	81.529	-0.102	0.110
-490.508	343.261	0.177	-0.346
-489.493	-5.663	-0.474	-0.324
-488.478	-19.650	0.042	0.026
-487.464	-55.009	0.304	-0.137
-486.449	200.371	0.010	0.015
-485.435	-121.742	0.145	-0.024
-484.420	-200.000	0.045	-0.256
-483.405	-200.000	0.044	-0.217
-482.391	114.396	-0.254	-0.308
-481.376	-200.000	0.011	0.357
-480.362	190.674	-0.139	-0.208
-479.347	800.000	0.093	0.386
-478.332	-200.000	0.004	-0.194
-477.318	-149.343	-0.302	0.024
-476.303	82.019	0.138	-0.150
-475.289	-67.646	-0.333	0.130
-474.274	-161.202	0.192	-0.010
-473.259	63.846	-0.190	-0.190
-472.245	648.046	0.105	-0.268
-471.230	-105.465	-0.280	-0.063
-470.216	-200.000	-0.007	-0.120
-469.201	-138.848	0.450	0.049
-468.186	-39.238	0.118	-0.062
-467.172	-88.590	0.104	0.031
-466.157	85.770	-0.214	-0.235
-465.143	-69.421	-0.255	0.098
-464.128	-115.617	-0.194	-0.036
-463.113	136.748	0.181	-0.235
-462.099	-165.759	-0.135	-0.006
-461.084	-200.000	0.004	0.085
-460.070	249.013	0.212	0.358
-459.055	-21.627	0.228	0.138
-458.040	-32.091	-0.099	-0.055
-457.026	-114.597	-0.021	-0.004
-456.011	-200.000	0.034	0.161
-454.997	-60.119	0.136	0.058
-453.982	-200.000	-0.014	0.306
-452.968	-57.899	-0.331	0.144
-451.953	12.258	-0.191	-0.147
-450.938	-64.174	0.463	-0.188
-449.924	329.508	-0.104	-0.200
-448.909	-37.787	0.170	0.090
-447.895	-200.000	0.055	-0.000
-446.880	800.000	-0.016	-0.062
-445.865	-200.000	-0.012	-0.387
-444.851	-200.000	-0.007	0.112
-443.836	103.644	0.073	-0.086
-442.822	103.637	0.332	0.389
-441.807	257.504	0.164	0.281
-440.792	0.644	0.087	0.062
-439.778	-95.086	-0.259	0.070
-438.763	-67.311	0.259	0.101
-437.749	-98.603	0.225	0.057
-436.734	-55.539	-0.159	0.071
-435.719	-200.000	0.006	-0.164
-434.705	24.883	0.022	-0.018
-433.690	800.000	0.027	-0.093
-432.676	-180.785	0.439	0.009
-431.661	271.171	0.211	-0.371
-430.646	-75.495	0.276	-0.098
-429.632	-200.000	-0.005	-0.052
-428.617	800.000	-0.031	0.125
-427.603	466.104	0.109	-0.242
-426.588	-85.812	-0.280	-0.087
-425.573	271.763	0.153	0.268
-424.559	487.296	0.075	-0.170
-423.544	251.739	-0.064	-0.108
-422.530	709.825	-0.015	0.039
-421.515	-142.065	-0.214	-0.021
-420.500	529.826	-0.031	-0.072
-419.486	-93.670	-0.375	-0.103
-418.471	-140.428	0.244	-0.025
-417.457	-200.000	-0.023	-0.105
-416.442	-59.234	0.235	-0.101
-415.428	-200.000	0.050	-0.321
-414.413	-108.665	-0.043	-0.009
-413.398	192.841	0.128	-0.192
-412.384	79.263	0.233	-0.249
-411.369	-88.190	0.386	0.115
-410.355	120.804	0.075	-0.093
-409.340	-200.000	-0.030	0.403
-408.325	298.889	0.046	0.084
-407.311	-9.297	-0.377	-0.251
-406.296	4.934	-0.401	0.294
-405.282	-30.512	-0.145	0.082
-404.267	468.288	0.060	-0.133
-403.252	-200.000	0.101	0.535
-402.238	-166.448	-0.121	0.005
-401.223	-119.780	0.274	0.047
-400.209	-125.579	-0.150	0.023
-399.194	-130.254	0.124	0.017
-398.179	-137.286	0.481	0.054
-397.165	-200.000	0.027	0.161
-396.150	-44.489	0.207	-0.103
-395.136	-32.800	-0.162	0.090
-394.121	-10.677	-0.368	-0.242
-393.106	800.000	-0.091	0.383
-392.092	800.000	-0.044	-0.162
-391.077	-38.123	-0.063	0.033
-390.063	800.000	-0.052	0.194
-389.048	461.867	-0.123	0.273
-388.033	800.000	-0.129	-0.482
-387.019	-138.277	-0.072	-0.008
-386.004	-60.363	-0.097	0.041
-384.990	-200.000	-0.020	0.377
-383.975	800.000	0.027	0.095
-382.960	-84.016	0.367	0.116
-381.946	12.972	0.300	0.231
-380.931	-116.866	-0.225	-0.041
-379.917	-69.135	0.113	0.043
-378.902	800.000	0.063	0.181
-377.888	1.276	0.349	0.250
-376.873	208.714	0.098	0.152
-375.858	800.000	-0.055	0.227
-374.844	226.656	0.092	-0.148
-373.829	800.000	0.094	0.332
-372.815	-156.082	0.186	0.012
-371.800	-103.340	-0.071	0.017
-370.785	-26.106	-0.078	-0.045
-369.771	472.597	0.132	-0.296
-368.756	357.159	-0.056	-0.111
-367.742	33.696	-0.081	-0.070
-366.727	-73.024	-0.173	0.063
-365.712	-29.052	-0.306	0.174
-364.698	-30.079	0.141	0.080
-363.683	800.000	-0.093	0.264
-362.669	302.015	-0.083	-0.152
-361.654	-69.165	0.135	-0.052
-360.639	135.003	-0.132	-0.171
-359.625	60.871	0.103	0.101
-358.610	-67.523	0.300	0.117
-357.596	155.287	0.052	0.072
-356.581	-55.766	-0.133	-0.059
-355.566	-70.922	-0.164	0.062
-354.552	133.142	0.089	-0.114
-353.537	-115.718	0.491	0.091
-352.523	-200.000	-0.027	0.123
-351.508	131.932	0.078	0.099
-350.493	-57.882	0.236	0.102
-349.479	-103.856	-0.160	-0.037
-348.464	-141.936	0.219	-0.022
-347.450	800.000	-0.092	-0.360
-346.435	-3.548	0.116	-0.080
-345.420	-94.231	-0.171	0.046
-344.406	57.894	-0.155	0.150
-343.391	-200.000	0.021	-0.386
-342.377	255.007	0.103	-0.176
-341.362	211.999	0.066	-0.104
-340.348	-43.912	0.327	-0.163
-339.333	-200.000	0.001	-0.105
-338.318	-200.000	0.058	-0.489
-337.304	-125.753	0.410	-0.062
-336.289	-74.185	0.296	0.106
-335.275	-9.969	0.214	-0.141
-334.260	20.899	-0.204	0.164
-333.245	226.621	0.062	0.100
-332.231	46.280	-0.145	0.133
-331.216	800.000	-0.044	0.176
-330.202	-151.961	-0.259	0.019
-329.187	-200.000	-0.014	-0.072
-328.172	405.710	0.008	-0.017
-327.158	800.000	0.082	0.240
-326.143	101.168	-0.242	0.279
-325.129	-154.992	0.098	0.006
-324.114	-53.998	0.293	0.132
-323.099	-200.000	0.048	0.319
-322.085	-8.064	-0.167	0.112
-321.070	18.222	0.119	0.094
-320.056	800.000	0.106	0.355
-319.041	-181.939	-0.220	-0.004
-318.026	343.039	0.166	-0.322
-317.012	-45.713	0.274	-0.134
-315.997	-84.895	-0.258	-0.080
-314.983	-48.769	-0.227	-0.108
-313.968	-200.000	0.001	0.033
-312.953	260.733	-0.129	-0.221
-311.939	-200.000	-0.012	-0.166
-310.924	-117.738	-0.425	-0.076
-309.910	27.212	0.239	0.199
-308.895	-128.167	0.185	-0.026
-307.880	275.556	-0.124	-0.217
-306.866	800.000	-0.042	0.149
-305.851	-67.959	-0.475	0.184
-304.837	-199.439	-0.542	-0.003
-303.822	8.937	0.121	0.090
-302.807	-200.000	-0.024	-0.117
-301.793	12.366	-0.166	0.127
-300.778	-11.415	-0.209	-0.136
-299.764	-92.608	0.396	0.110
-298.749	-152.354	0.357	0.026
-297.735	-200.000	-0.051	0.288
-296.720	-62.338	-0.160	0.066
-295.705	67.020	0.108	-0.109
-294.691	-200.000	0.041	-0.197
-293.676	-192.855	-0.111	0.001
-292.662	65.452	-0.151	0.152
-291.647	63.100	-0.015	-0.015
-290.632	-136.689	0.157	0.018
-289.618	-125.535	-0.124	0.019
-288.603	-200.000	0.417	-0.000
-287.589	-134.829	-0.106	-0.013
-286.574	800.000	-0.074	-0.285
-285.559	-72.391	-0.095	-0.035
-284.545	-53.573	-0.225	-0.102
-283.530	800.000	-0.112	0.337
-282.516	-119.345	0.059	-0.010
-281.501	-158.200	0.334	-0.019
-280.486	43.718	-0.340	0.308
-279.472	-103.156	0.111	0.026
-278.457	30.890	0.228	0.194
-277.443	-89.825	0.205	-0.060
-276.428	-63.273	0.075	0.031
-275.413	-57.233	0.035	0.015
-274.399	-26.495	0.163	0.095
-273.384	-200.000	-0.017	-0.341
-272.370	-135.703	-0.302	0.035
-271.355	-188.739	-0.388	0.005
-270.340	-71.782	0.131	-0.048
-269.326	-146.287	-0.301	-0.026
-268.311	-200.000	-0.007	-0.082
-267.297	-200.000	-0.051	0.348
-266.282	-34.832	0.193	0.104
-265.267	18.714	0.203	0.161
-264.253	-147.964	0.266	-0.022
-263.238	-33.594	-0.224	-0.122
-262.224	-164.507	-0.063	0.003
-261.209	-63.173	-0.122	0.050
-260.195	800.000	0.140	0.521
-259.180	-72.865	-0.217	0.079
-258.165	-200.000	0.021	0.149
-257.151	-1.005	0.274	-0.192
-256.136	-131.241	0.158	0.021
-255.122	182.096	0.250	0.364
-254.107	32.345	-0.119	-0.102
-253.092	-17.006	0.105	0.066
-252.078	-159.827	-0.264	-0.014
-251.063	235.810	0.057	0.093
-250.049	-52.141	-0.231	-0.106
-249.034	-200.000	-0.026	-0.301
-248.019	-200.000	-0.022	0.143
-247.005	-200.000	-0.053	0.335
-245.990	-200.000	-0.044	-0.284
-244.976	155.148	-0.142	-0.193
-243.961	-188.678	0.098	0.001
-242.946	800.000	-0.076	0.218
-241.932	139.219	0.073	0.096
-240.917	395.606	0.167	0.345
-239.903	-200.000	-0.022	-0.209
-238.888	12.775	-0.184	0.141
-237.873	800.000	-0.041	-0.151
-236.859	332.400	0.254	-0.485
-235.844	-62.378	0.215	0.089
-234.830	-42.083	-0.279	0.141
-233.815	85.810	-0.117	0.127
-232.800	-168.819	-0.079	0.003
-231.786	72.120	0.147	0.151
-230.771	-200.000	0.024	0.105
-229.757	86.896	0.018	-0.019
-228.742	-57.568	0.239	0.104
-227.727	-75.354	-0.354	0.125
-226.713	-90.266	0.483	0.139
-225.698	101.514	0.063	0.073
-224.684	800.000	-0.026	0.101
-223.669	-200.000	0.038	0.303
-222.655	587.267	0.066	0.160
-221.640	13.781	0.074	0.057
-220.625	-200.000	-0.056	0.395
-219.611	19.069	0.195	0.155
-218.596	-49.573	0.094	0.044
-217.582	-43.502	-0.350	0.175
-216.567	-125.978	-0.186	-0.028
-215.552	82.966	0.175	0.188
-214.538	-7.975	-0.150	0.100
-213.523	800.000	0.033	0.118
-212.509	128.646	0.168	0.211
-211.494	-50.424	-0.301	-0.140
-210.479	63.647	0.217	-0.215
-209.465	-167.235	-0.200	-0.008
-208.450	800.000	-0.023	-0.077
-207.436	-200.000	0.029	-0.275
-206.421	0.971	0.174	-0.123
-205.406	326.727	-0.132	-0.251
-204.392	-84.600	0.316	-0.098
-203.377	9.791	-0.168	0.126
-202.363	800.000	0.027	0.083
-201.348	-4.147	0.156	-0.107
-200.333	800.000	-0.078	-0.228
-199.319	31.929	-0.106	-0.090
-198.304	800.000	0.040	0.121
-197.290	-200.000	-0.025	0.115
-196.275	-200.000	-0.036	0.472
-195.260	64.464	-0.147	-0.146
-194.246	103.225	-0.111	-0.129
-193.231	-34.014	0.239	0.130
-192.217	158.644	0.027	0.037
-191.202	-111.759	0.288	-0.058
-190.187	-19.526	-0.309	0.189
-189.173	800.000	-0.072	0.247
-188.158	71.985	-0.281	-0.289
-187.144	-200.000	-0.008	0.057
-186.129	-22.535	-0.110	-0.065
-185.114	-94.973	0.039	-0.010
-184.100	-160.769	-0.084	0.004
-183.085	-107.497	-0.258	0.056
-182.071	135.506	0.162	0.208
-181.056	-106.632	0.226	0.050
-180.042	-200.000	-0.030	-0.477
-179.027	41.364	-0.206	-0.184
-178.012	47.642	-0.258	0.237
-176.998	-200.000	-0.012	0.071
-175.983	41.788	0.240	-0.214
-174.969	-93.013	-0.072	-0.020
-173.954	25.345	-0.257	0.211
-172.939	-70.202	0.317	0.119
-171.925	410.836	-0.067	0.140
-170.910	103.506	-0.172	0.199
-169.896	-50.612	0.058	0.027
-168.881	-122.020	-0.170	0.028
-167.866	-71.060	0.321	0.119
-166.852	-200.000	0.042	-0.258
-165.837	-80.769	-0.245	-0.080
-164.823	-200.000	-0.021	0.278
-163.808	231.058	-0.201	-0.325
-162.793	145.785	0.223	-0.294
-161.779	344.286	-0.155	-0.300
-160.764	91.748	-0.174	0.193
-159.750	-200.000	-0.004	-0.087
-158.735	-128.234	0.233	-0.033
-157.720	-57.542	0.206	-0.089
-156.706	83.423	0.170	-0.182
-155.691	84.401	-0.138	0.149
-154.677	-200.000	-0.017	0.113
-153.662	-160.537	0.286	0.015
-152.647	-152.576	-0.242	-0.017
-151.633	-90.013	-0.272	-0.078
-150.618	-77.517	-0.250	-0.086
-149.604	54.861	-0.170	-0.162
-148.589	-41.608	0.309	0.157
-147.574	800.000	0.054	-0.188
-146.560	-200.000	0.010	-0.094
-145.545	-35.043	0.083	-0.044
-144.531	-200.000	0.019	-0.171
-143.516	4.844	0.102	-0.074
-142.502	-83.787	0.106	-0.033
-141.487	-200.000	0.019	-0.188
-140.472	800.000	-0.077	0.264
-139.458	-133.175	-0.146	0.018
-138.443	15.251	0.136	-0.105
-137.429	64.774	-0.254	0.253
-136.414	-96.746	-0.362	-0.094
-135.399	519.911	-0.071	0.165
-134.385	299.790	-0.096	0.175
-133.370	75.780	-0.113	-0.118
-132.356	-132.424	0.290	-0.037
-131.341	-200.000	0.021	-0.236
-130.326	-30.513	-0.200	-0.112
-129.312	-44.720	-0.460	-0.226
-128.297	146.643	-0.348	0.461
-127.283	-84.066	-0.142	-0.045
-126.268	-90.276	0.375	-0.107
-125.253	-26.567	0.192	-0.111
-124.239	-96.602	0.135	-0.035
-123.224	663.606	-0.029	0.073
-122.210	488.263	-0.115	0.258
