DTS Sentinel unit serial number:	SN413079Multiplexer serial number:	ORYXHardware model number:	OX4-SRSoftware version number:	ORYX F/W v4.00 Oryx Data Collector v3.7.2.0data status	okinstallation	princeton_trtdifferential loss correction	single-endedforward channel	channel 2reverse channel	N/Adate	2019/09/17time	16:51:35forward acquisition time	60.00reverse acquisition time	0.00gamma	496.2192k internal	0.2291k external	0.2291temperature offset calibration	0.9981default loss term (dB/km)	0.3790temperature slope calibration	1.0000multiplexer offset coefficient	1.0000multiplexer slope coefficient	1.0000fibre end	0.00T internal ref (°C)	42.28T ext. ref 1 (°C)	0.36T ext. ref 2 (°C)	38.35length (m)	temperature (°C)	Stokes	anti-Stokes-747.200	-180.423	-0.090	0.002
-746.185	72.862	0.030	-0.032
-745.171	258.496	-0.162	-0.287
-744.156	374.230	0.038	-0.079
-743.142	228.938	-0.078	-0.131
-742.127	40.152	0.325	0.299
-741.112	453.975	-0.085	-0.193
-740.098	-200.000	-0.089	0.423
-739.083	106.085	0.089	-0.107
-738.069	74.809	0.156	0.168
-737.054	766.484	0.045	0.124
-736.039	759.901	0.078	0.216
-735.025	-73.199	-0.331	0.124
-734.010	372.102	-0.156	-0.324
-732.996	104.876	-0.150	-0.181
-731.981	-75.640	-0.328	0.119
-730.966	341.546	0.070	0.141
-729.952	74.291	0.292	-0.314
-728.937	-113.598	-0.270	0.054
-727.923	238.451	0.152	-0.259
-726.908	304.113	0.113	0.215
-725.894	197.332	-0.106	-0.165
-724.879	-50.885	-0.274	0.132
-723.864	-133.794	-0.386	-0.049
-722.850	800.000	-0.033	-0.109
-721.835	-200.000	-0.189	-0.000
-720.821	242.805	-0.058	0.099
-719.806	-135.884	-0.218	-0.026
-718.791	54.493	0.171	0.168
-717.777	55.467	-0.163	0.162
-716.762	89.490	-0.251	0.286
-715.748	-60.542	-0.141	-0.061
-714.733	258.672	-0.084	0.148
-713.718	-200.000	-0.002	0.146
-712.704	-82.779	-0.373	-0.123
-711.689	-51.308	-0.113	-0.054
-710.675	-200.000	-0.030	-0.290
-709.660	-147.998	-0.196	-0.017
-708.645	-200.000	0.004	-0.157
-707.631	109.511	-0.102	-0.125
-706.616	-141.933	-0.282	-0.029
-705.602	-114.189	0.317	-0.063
-704.587	297.297	0.125	-0.234
-703.572	-55.123	-0.279	-0.129
-702.558	467.971	-0.156	0.358
-701.543	800.000	-0.029	0.103
-700.529	235.031	0.174	-0.294
-699.514	208.249	-0.039	-0.062
-698.499	219.516	0.059	0.097
-697.485	-124.263	0.151	0.024
-696.470	-200.000	0.005	-0.123
-695.456	738.826	0.043	-0.119
-694.441	-71.718	-0.311	-0.119
-693.426	93.588	0.284	-0.328
-692.412	-31.872	-0.075	-0.043
-691.397	800.000	0.042	0.118
-690.383	-45.963	-0.196	-0.099
-689.368	-200.000	-0.037	-0.292
-688.354	59.501	-0.107	0.108
-687.339	-112.236	0.175	0.036
-686.324	22.141	0.159	-0.133
-685.310	37.996	-0.257	0.234
-684.295	121.634	-0.059	0.075
-683.281	-101.359	0.152	0.038
-682.266	91.628	0.208	0.239
-681.251	-105.250	0.254	0.059
-680.237	-189.449	0.335	0.004
-679.222	75.077	0.153	-0.165
-678.208	-35.987	0.227	-0.125
-677.193	-46.734	-0.277	0.138
-676.178	386.775	0.087	0.183
-675.164	12.495	0.159	-0.125
-674.149	197.670	0.057	-0.090
-673.135	-88.167	-0.365	0.112
-672.120	195.956	0.166	0.258
-671.105	22.552	-0.318	0.266
-670.091	-23.445	-0.062	-0.038
-669.076	-136.646	0.271	-0.032
-668.062	-200.000	-0.024	0.154
-667.047	-200.000	0.003	0.216
-666.032	-200.000	-0.047	-0.260
-665.018	188.075	-0.042	0.065
-664.003	295.463	0.048	0.090
-662.989	-200.000	-0.053	-0.313
-661.974	-148.976	-0.213	0.017
-660.959	746.279	0.049	-0.134
-659.945	-78.146	0.193	0.068
-658.930	-176.780	0.257	0.007
-657.916	-62.077	-0.451	0.192
-656.901	0.144	-0.149	0.108
-655.886	-200.000	0.003	0.275
-654.872	-23.117	0.246	0.151
-653.857	-124.759	0.244	-0.039
-652.843	-85.976	-0.140	-0.044
-651.828	90.412	-0.101	0.115
-650.814	282.335	0.066	-0.120
-649.799	451.082	0.079	0.178
-648.784	-200.000	0.033	-0.263
-647.770	-48.929	-0.063	-0.031
-646.755	-113.754	-0.241	-0.048
-645.741	800.000	0.026	-0.081
-644.726	-119.228	0.320	-0.057
-643.711	76.494	-0.215	-0.232
-642.697	143.321	-0.130	0.176
-641.682	-95.129	0.215	-0.059
-640.668	-200.000	-0.047	-0.307
-639.653	51.743	-0.132	-0.128
-638.638	-81.399	-0.294	-0.099
-637.624	381.714	0.073	-0.153
-636.609	-200.000	-0.049	-0.340
-635.595	108.811	0.119	-0.144
-634.580	-129.041	-0.276	-0.039
-633.565	-200.000	0.010	-0.144
-632.551	800.000	-0.055	-0.225
-631.536	-104.075	-0.244	0.058
-630.522	131.665	-0.149	-0.195
-629.507	102.850	-0.147	-0.176
-628.492	30.395	-0.222	0.193
-627.478	-80.530	0.226	0.077
-626.463	-76.598	-0.034	0.012
-625.449	89.196	0.117	-0.133
-624.434	-115.960	0.285	0.054
-623.419	2.581	0.136	-0.101
-622.405	36.805	-0.298	0.269
-621.390	579.106	0.047	-0.118
-620.376	87.480	-0.086	0.097
-619.361	800.000	0.030	0.101
-618.346	800.000	0.197	-0.555
-617.332	-38.571	0.242	0.130
-616.317	380.495	0.125	0.261
-615.303	-57.065	-0.284	-0.127
-614.288	-29.727	0.160	-0.093
-613.273	-56.974	0.268	0.121
-612.259	25.454	0.108	0.091
-611.244	134.682	0.018	-0.024
-610.230	790.285	-0.048	0.133
-609.215	-200.000	0.002	0.012
-608.201	81.363	0.172	-0.189
-607.186	181.527	0.150	0.225
-606.171	43.092	0.051	0.047
-605.157	-200.000	0.015	-0.181
-604.142	7.943	-0.095	-0.073
-603.128	-32.273	-0.320	-0.182
-602.113	-150.625	-0.028	0.002
-601.098	43.190	0.112	0.105
-600.084	-5.308	0.305	0.213
-599.069	41.045	-0.232	0.213
-598.055	-10.285	-0.147	0.099
-597.040	-200.000	0.017	0.289
-596.025	-112.782	-0.079	-0.016
-595.011	-200.000	0.050	0.258
-593.996	-18.113	-0.157	0.100
-592.982	800.000	0.040	0.174
-591.967	-200.000	0.001	-0.044
-590.952	112.838	-0.157	0.194
-589.938	82.823	0.255	-0.282
-588.923	-189.053	0.244	-0.003
-587.909	-200.000	0.001	-0.021
-586.894	800.000	0.065	-0.261
-585.879	-200.000	0.013	0.261
-584.865	-200.000	0.010	-0.139
-583.850	12.440	-0.107	0.084
-582.836	222.599	-0.181	0.296
-581.821	-159.978	0.126	-0.007
-580.806	-188.170	0.239	0.003
-579.792	117.883	0.159	0.199
-578.777	172.302	0.045	0.066
-577.763	35.886	-0.118	0.106
-576.748	-35.192	0.107	-0.059
-575.733	-50.976	-0.338	0.161
-574.719	-200.000	-0.020	0.110
-573.704	46.071	-0.119	0.112
-572.690	14.752	0.147	-0.117
-571.675	-48.967	0.197	-0.096
-570.661	-200.000	0.009	0.046
-569.646	305.442	-0.161	-0.305
-568.631	-158.705	0.058	0.003
-567.617	800.000	-0.110	-0.364
-566.602	126.313	0.120	-0.155
-565.588	-69.726	0.247	-0.096
-564.573	-200.000	0.011	-0.085
-563.558	15.797	0.059	0.048
-562.544	52.867	0.221	-0.215
-561.529	-124.736	-0.143	-0.023
-560.515	-70.828	-0.203	-0.078
-559.500	144.830	0.094	0.128
-558.485	-200.000	0.022	0.127
-557.471	140.669	0.087	-0.117
-556.456	-200.000	0.052	0.397
-555.442	25.087	0.190	-0.160
-554.427	400.124	-0.070	0.148
-553.412	-81.124	-0.190	-0.064
-552.398	180.028	0.075	0.111
-551.383	-168.541	0.263	0.010
-550.369	700.741	-0.112	-0.299
-549.354	232.304	0.104	-0.174
-548.339	-200.000	0.004	0.127
-547.325	800.000	-0.015	-0.045
-546.310	33.333	-0.266	0.234
-545.296	-200.000	-0.040	-0.189
-544.281	117.500	0.069	0.086
-543.266	-19.086	0.130	-0.082
-542.252	-184.804	-0.054	0.001
-541.237	19.755	-0.235	0.192
-540.223	113.000	-0.087	0.107
-539.208	-168.932	-0.242	-0.009
-538.193	-200.000	-0.023	-0.192
-537.179	-156.357	-0.459	0.029
-536.164	-64.516	-0.107	-0.044
-535.150	-200.000	-0.041	-0.458
-534.135	-135.510	0.056	0.007
-533.121	-65.861	-0.067	0.027
-532.106	157.350	0.052	-0.073
-531.091	83.938	-0.129	-0.143
-530.077	333.158	0.071	0.139
-529.062	-200.000	0.006	-0.153
-528.048	161.735	0.090	-0.128
-527.033	-200.000	0.025	-0.242
-526.018	800.000	-0.028	-0.090
-525.004	-200.000	-0.033	0.366
-523.989	-148.967	-0.189	-0.015
-522.975	-91.383	-0.197	0.057
-521.960	125.776	0.079	-0.102
-520.945	-200.000	-0.038	0.267
-519.931	-11.974	-0.137	-0.091
-518.916	-200.000	-0.019	0.111
-517.902	-2.643	-0.147	0.104
-516.887	-39.877	0.061	0.032
-515.872	19.171	-0.076	-0.062
-514.858	-3.599	-0.266	0.188
-513.843	106.851	-0.154	0.185
-512.829	-5.127	-0.164	-0.115
-511.814	226.469	0.093	-0.153
-510.799	102.886	0.219	-0.260
-509.785	-200.000	-0.034	-0.320
-508.770	84.964	0.037	0.041
-507.756	-200.000	0.001	-0.201
-506.741	478.330	-0.094	-0.215
-505.726	26.943	0.365	-0.311
-504.712	-96.345	-0.350	0.094
-503.697	-114.652	0.238	-0.046
-502.683	50.651	-0.132	-0.127
-501.668	-117.899	-0.262	0.048
-500.653	90.702	0.250	0.284
-499.639	111.126	-0.155	-0.190
-498.624	110.170	0.111	-0.135
-497.610	800.000	-0.060	0.174
-496.595	-2.862	-0.013	-0.009
-495.581	-200.000	0.012	-0.120
-494.566	30.475	-0.171	-0.148
-493.551	69.624	-0.035	-0.036
-492.537	159.506	0.129	0.182
-491.522	800.000	0.040	0.139
-490.508	-200.000	-0.017	0.273
-489.493	37.719	-0.124	0.112
-488.478	-200.000	0.023	0.247
-487.464	-11.516	0.298	-0.199
-486.449	511.822	-0.124	0.292
-485.435	21.087	0.223	0.184
-484.420	602.932	0.103	0.260
-483.405	-200.000	0.006	0.061
-482.391	-200.000	0.016	-0.394
-481.376	-78.761	-0.225	-0.078
-480.362	-125.399	-0.299	-0.046
-479.347	25.260	0.060	0.050
-478.332	-200.000	0.008	-0.177
-477.318	396.872	-0.229	-0.485
-476.303	93.134	0.202	0.232
-475.289	-132.646	-0.202	-0.026
-474.274	-137.133	-0.226	0.026
-473.259	129.232	-0.168	0.218
-472.245	-200.000	-0.038	-0.356
-471.230	-8.482	-0.185	-0.126
-470.216	-200.000	0.014	-0.079
-469.201	-157.570	-0.528	0.032
-468.186	-200.000	-0.014	0.078
-467.172	21.812	-0.181	0.149
-466.157	368.342	-0.185	0.378
-465.143	-132.400	-0.337	0.044
-464.128	800.000	0.104	0.333
-463.113	24.021	-0.129	-0.108
-462.099	24.154	-0.031	-0.026
-461.084	245.062	-0.056	0.096
-460.070	-200.000	0.024	-0.216
-459.055	419.130	-0.034	0.074
-458.040	-164.927	-0.098	0.004
-457.026	800.000	0.079	0.256
-456.011	4.848	-0.264	0.197
-454.997	-200.000	0.004	-0.120
-453.982	21.308	-0.245	0.201
-452.968	-194.391	-0.144	0.001
-451.953	137.933	-0.196	-0.260
-450.938	-200.000	0.009	-0.305
-449.924	29.147	0.147	-0.127
-448.909	-200.000	0.025	-0.147
-447.895	-87.734	-0.255	0.078
-446.880	-104.881	0.248	-0.058
-445.865	242.158	0.095	0.161
-444.851	66.964	-0.227	0.234
-443.836	409.796	-0.053	0.113
-442.822	-200.000	0.016	0.082
-441.807	188.177	-0.179	-0.271
-440.792	-200.000	0.031	0.225
-439.778	68.330	-0.081	0.084
-438.763	-137.462	0.083	-0.010
-437.749	-76.050	-0.321	-0.115
-436.734	-63.588	0.306	-0.127
-435.719	-104.076	0.347	0.082
-434.705	22.034	0.151	0.125
-433.690	-89.146	-0.158	0.047
-432.676	393.627	-0.095	0.199
-431.661	-145.262	0.107	0.010
-430.646	-151.044	0.146	-0.011
-429.632	-135.015	-0.197	0.024
-428.617	-200.000	-0.063	-0.320
-427.603	-47.098	0.341	0.168
-426.588	-200.000	-0.024	0.445
-425.573	-200.000	0.034	-0.324
-424.559	-119.246	0.049	0.009
-423.544	-9.712	-0.058	0.039
-422.530	800.000	-0.055	-0.186
-421.515	-200.000	-0.023	0.168
-420.500	174.464	0.101	-0.148
-419.486	800.000	0.057	0.165
-418.471	451.145	-0.044	0.098
-417.457	52.338	-0.175	0.168
-416.442	-117.082	-0.150	0.028
-415.428	-200.000	-0.028	-0.426
-414.413	-128.139	0.204	0.029
-413.398	450.895	0.058	-0.129
-412.384	1.787	0.058	-0.042
-411.369	-102.362	0.211	0.051
-410.355	800.000	-0.137	0.448
-409.340	264.441	0.183	0.321
-408.325	-200.000	0.012	0.054
-407.311	-60.527	0.070	-0.030
-406.296	283.947	0.130	-0.236
-405.282	109.255	0.153	-0.186
-404.267	-158.879	0.072	0.004
-403.252	-99.818	0.094	-0.024
-402.238	800.000	0.091	-0.265
-401.223	800.000	0.067	-0.231
-400.209	25.764	0.137	-0.115
-399.194	155.584	0.050	0.070
-398.179	-102.037	-0.295	-0.072
-397.165	-97.612	-0.129	0.034
-396.150	-200.000	-0.012	0.111
-395.136	-200.000	-0.011	0.376
-394.121	-59.353	0.110	-0.048
-393.106	-42.793	-0.107	-0.055
-392.092	7.913	-0.086	0.065
-391.077	-200.000	0.004	0.074
-390.063	-157.124	0.504	0.031
-389.048	569.738	0.213	-0.524
-388.033	61.459	-0.114	0.115
-387.019	-119.286	-0.117	-0.021
-386.004	-200.000	0.069	0.340
-384.990	-184.991	-0.178	-0.003
-383.975	84.305	0.042	0.047
-382.960	-110.387	-0.160	-0.034
-381.946	-200.000	0.026	-0.171
-380.931	-200.000	0.002	0.159
-379.917	-154.771	-0.098	-0.007
-378.902	19.266	0.118	0.096
-377.888	486.897	-0.126	-0.290
-376.873	10.218	0.100	-0.077
-375.858	-4.458	0.078	0.055
-374.844	358.166	-0.133	-0.268
-373.829	-94.217	0.219	0.061
-372.815	-121.231	-0.193	-0.033
-371.800	800.000	-0.067	-0.207
-370.785	376.981	-0.052	0.107
-369.771	-147.664	0.245	0.021
-368.756	-170.602	0.072	0.003
-367.742	649.390	-0.109	0.282
-366.727	284.734	-0.253	0.460
-365.712	-137.879	-0.091	-0.010
-364.698	435.496	0.142	0.312
-363.683	147.558	-0.163	-0.222
-362.669	800.000	-0.035	-0.123
-361.654	800.000	0.025	-0.093
-360.639	41.942	0.110	-0.101
-359.625	-200.000	-0.014	0.208
-358.610	-130.773	-0.295	-0.040
-357.596	613.104	-0.112	-0.282
-356.581	49.398	0.137	-0.130
-355.566	440.320	-0.059	-0.129
-354.552	-44.479	-0.132	0.066
-353.537	800.000	0.149	0.535
-352.523	260.380	-0.065	0.113
-351.508	-133.291	0.107	-0.014
-350.493	172.553	-0.087	-0.126
-349.479	233.486	0.169	0.280
-348.464	-43.668	0.242	-0.123
-347.450	7.381	-0.185	-0.139
-346.435	-160.824	-0.114	0.006
-345.420	-133.693	0.100	-0.013
-344.406	-200.000	-0.034	0.293
-343.391	-200.000	0.014	0.223
-342.377	10.118	-0.370	0.284
-341.362	-121.032	-0.085	0.014
-340.348	-24.529	0.194	0.117
-339.333	-83.349	-0.138	0.045
-338.318	-200.000	0.014	-0.144
-337.304	800.000	0.053	0.178
-336.289	-49.620	0.423	0.203
-335.275	-101.557	-0.199	-0.049
-334.260	277.105	-0.134	-0.241
-333.245	-156.385	0.259	0.016
-332.231	50.643	0.113	0.107
-331.216	-111.926	0.356	0.072
-330.202	-200.000	0.013	0.111
-329.187	-172.411	0.277	0.009
-328.172	800.000	-0.111	-0.375
-327.158	-45.090	0.170	0.085
-326.143	115.725	-0.216	0.266
-325.129	373.766	0.153	0.313
-324.114	53.936	-0.171	-0.165
-323.099	143.369	-0.309	-0.414
-322.085	-200.000	0.032	-0.213
-321.070	-12.476	-0.225	-0.148
-320.056	-152.840	0.463	-0.033
-319.041	-155.932	-0.026	-0.002
-318.026	511.200	0.082	0.192
-317.012	-158.902	-0.476	0.027
-315.997	-200.000	0.025	-0.168
-314.983	211.694	-0.085	0.135
-313.968	-200.000	-0.010	0.075
-312.953	570.555	-0.100	0.245
-311.939	-154.551	0.128	-0.009
-310.924	-200.000	0.003	-0.121
-309.910	-6.129	-0.171	0.118
-308.895	-68.887	-0.179	0.070
-307.880	83.179	-0.251	-0.275
-306.866	121.240	0.154	0.193
-305.851	49.629	0.283	0.268
-304.837	-118.407	-0.313	0.056
-303.822	-26.523	-0.074	0.044
-302.807	-117.285	-0.112	0.020
-301.793	-98.496	-0.292	0.075
-300.778	-53.915	-0.258	-0.118
-299.764	-39.677	0.135	-0.071
-298.749	4.801	0.249	0.184
-297.735	-91.366	0.135	-0.039
-296.720	-200.000	0.012	0.064
-295.705	530.064	0.025	0.060
-294.691	-95.269	0.203	-0.055
-293.676	-7.298	0.389	-0.265
-292.662	17.228	0.227	0.181
-291.647	171.192	0.110	0.159
-290.632	800.000	-0.074	-0.307
-289.618	-63.514	-0.065	-0.027
-288.603	-55.347	-0.070	0.032
-287.589	169.342	0.209	-0.300
-286.574	145.767	0.226	0.304
-285.559	222.756	0.097	0.157
-284.545	176.431	-0.059	-0.086
-283.530	-47.792	0.207	0.101
-282.516	129.903	0.075	-0.096
-281.501	74.948	-0.103	-0.110
-280.486	285.101	0.069	-0.125
-279.472	-75.387	0.191	0.068
-278.457	-200.000	0.015	-0.110
-277.443	435.408	0.045	-0.098
-276.428	-37.251	-0.404	-0.217
-275.413	800.000	0.082	0.317
-274.399	-0.888	-0.197	-0.140
-273.384	-186.796	0.127	-0.002
-272.370	800.000	-0.096	-0.382
-271.355	-200.000	-0.069	-0.391
-270.340	598.897	0.157	-0.391
-269.326	-92.325	0.126	0.036
-268.311	347.623	-0.128	-0.253
-267.297	-200.000	-0.000	-0.176
-266.282	-14.435	-0.324	0.209
-265.267	-132.635	-0.173	-0.022
-264.253	-55.686	0.325	-0.146
-263.238	-76.196	-0.292	0.104
-262.224	539.845	-0.170	-0.407
-261.209	-103.217	0.190	0.045
-260.195	109.283	-0.027	0.033
-259.180	37.755	0.226	-0.202
-258.165	800.000	-0.078	0.246
-257.151	-75.774	0.126	0.045
-256.136	-46.825	0.208	-0.102
-255.122	-200.000	-0.036	-0.233
-254.107	-75.768	-0.213	-0.076
-253.092	-85.926	0.241	-0.075
-252.078	451.238	0.230	-0.511
-251.063	62.395	0.085	0.086
-250.049	340.443	0.022	0.043
-249.034	120.834	0.143	0.178
-248.019	-177.338	0.173	0.004
-247.005	319.626	-0.118	-0.225
-245.990	29.920	0.254	0.218
-244.976	-200.000	0.066	-0.566
-243.961	-32.591	0.268	-0.150
-242.946	-178.032	0.260	0.006
-241.932	-0.674	-0.148	0.105
-240.917	-200.000	-0.005	0.071
-239.903	-34.967	0.134	0.074
-238.888	-7.632	-0.078	0.053
-237.873	-68.713	-0.149	-0.058
-236.859	-200.000	0.074	0.361
-235.844	84.673	0.089	-0.098
-234.830	54.107	0.172	-0.166
-233.815	384.314	-0.103	-0.212
-232.800	-28.432	0.087	-0.051
-231.786	35.994	-0.095	0.084
-230.771	187.985	-0.147	0.220
-229.757	-28.546	0.342	0.198
-228.742	-43.273	-0.276	0.140
-227.727	-200.000	-0.004	-0.240
-226.713	40.049	0.242	0.218
-225.698	-78.545	0.366	-0.126
-224.684	224.474	-0.108	0.176
-223.669	24.619	0.450	0.374
-222.655	-200.000	-0.008	-0.278
-221.640	-78.334	-0.422	0.145
-220.625	507.008	-0.193	0.450
-219.611	131.596	-0.156	-0.201
-218.596	-64.050	0.350	0.143
-217.582	-200.000	0.027	-0.226
-216.567	-200.000	0.026	-0.416
-215.552	96.641	-0.011	0.013
-214.538	160.174	0.204	-0.286
-213.523	-48.302	-0.302	0.146
-212.509	-200.000	-0.016	0.073
-211.494	-200.000	0.007	-0.269
-210.479	-79.791	-0.029	-0.010
-209.465	133.916	-0.139	0.180
-208.450	-4.405	0.039	-0.027
-207.436	-200.000	-0.046	0.265
-206.421	117.529	0.211	-0.261
-205.406	42.278	-0.125	0.114
-204.392	-23.808	0.352	0.211
-203.377	-128.285	0.265	0.038
-202.363	800.000	0.023	-0.096
-201.348	-140.293	0.423	0.044
-200.333	773.530	-0.116	0.316
-199.319	-200.000	0.043	-0.202
-198.304	662.068	0.060	-0.154
-197.290	-200.000	-0.029	0.319
-196.275	257.226	-0.133	0.229
-195.260	-83.031	-0.393	0.127
-194.246	-200.000	0.049	-0.258
-193.231	-48.335	0.219	-0.106
-192.217	277.163	-0.077	0.138
-191.202	-90.694	-0.252	0.073
-190.187	-141.367	-0.293	-0.030
-189.173	-185.716	-0.237	-0.004
-188.158	303.977	-0.114	0.211
-187.144	-166.043	0.386	-0.016
-186.129	10.749	0.102	-0.078
-185.114	13.100	0.210	-0.163
-184.100	800.000	0.031	0.113
-183.085	800.000	-0.064	0.224
-182.071	-200.000	0.009	0.192
-181.056	-200.000	-0.017	0.141
-180.042	-126.053	0.101	0.015
-179.027	-200.000	-0.020	-0.152
-178.012	-120.081	-0.266	0.046
-176.998	-94.963	-0.102	-0.028
-175.983	198.558	0.071	0.109
-174.969	292.391	-0.091	0.166
-173.954	800.000	0.056	-0.192
-172.939	-51.895	0.253	0.118
-171.925	-118.227	0.357	0.064
-170.910	578.871	-0.134	0.328
-169.896	-83.623	0.257	0.082
-168.881	5.517	0.254	0.188
-167.866	-200.000	0.021	0.181
-166.852	-101.723	0.136	-0.033
-165.837	-4.311	0.175	-0.121
-164.823	-43.794	-0.241	0.121
-163.808	800.000	0.176	0.766
-162.793	-5.499	0.257	0.176
-161.779	-200.000	0.005	-0.238
-160.764	-74.740	0.068	-0.024
-159.750	727.162	0.065	-0.172
-158.735	-54.720	-0.388	0.175
-157.720	-77.478	-0.277	0.096
-156.706	800.000	-0.076	-0.274
-155.691	-33.356	0.214	-0.119
-154.677	-5.679	-0.029	-0.020
-153.662	-72.667	-0.086	0.032
-152.647	8.671	0.115	-0.087
-151.633	-169.121	-0.024	-0.001
-150.618	-73.684	0.326	0.119
-149.604	-200.000	-0.013	0.246
-148.589	166.976	-0.185	-0.263
-147.574	153.027	0.240	-0.328
-146.560	151.808	0.161	-0.219
-145.545	-126.938	0.114	0.017
-144.531	-137.921	0.374	-0.042
-143.516	-200.000	0.033	0.395
-142.502	101.931	0.135	0.158
-141.487	142.876	-0.063	-0.083
-140.472	-200.000	0.048	0.344
-139.458	800.000	0.077	-0.315
-138.443	800.000	0.103	0.436
-137.429	-200.000	0.011	0.116
-136.414	-156.698	0.201	0.012
-135.399	-86.582	-0.102	0.031
-134.385	58.937	-0.145	-0.143
-133.370	800.000	-0.057	0.235
-132.356	800.000	-0.087	0.341
-131.341	72.066	-0.129	0.134
-130.326	-25.664	-0.091	-0.054
-129.312	1.529	0.202	-0.145
-128.297	800.000	0.047	0.170
-127.283	7.689	-0.125	0.094
-126.268	-200.000	0.056	-0.285
-125.253	156.183	0.118	0.162
-124.239	-146.832	0.084	0.007
-123.224	800.000	0.079	0.233
-122.210	316.359	-0.090	0.169
-121.195	-87.917	-0.204	-0.061
