DTS Sentinel unit serial number:	SN413079Multiplexer serial number:	ORYXHardware model number:	OX4-SRSoftware version number:	ORYX F/W v4.00 Oryx Data Collector v3.7.2.0data status	okinstallation	princeton_trtdifferential loss correction	single-endedforward channel	channel 2reverse channel	N/Adate	2019/09/13time	02:03:35forward acquisition time	60.00reverse acquisition time	0.00gamma	496.2192k internal	0.2334k external	0.2334temperature offset calibration	1.0179default loss term (dB/km)	0.3790temperature slope calibration	1.0000multiplexer offset coefficient	1.0000multiplexer slope coefficient	1.0000fibre end	0.00T internal ref (°C)	27.62T ext. ref 1 (°C)	3.86T ext. ref 2 (°C)	22.25length (m)	temperature (°C)	Stokes	anti-Stokes-747.200	-103.557	-0.140	0.033
-746.185	366.587	-0.055	0.111
-745.171	638.913	-0.046	-0.116
-744.156	742.828	0.106	0.286
-743.142	-150.199	0.098	0.008
-742.127	66.595	0.118	0.121
-741.112	800.000	-0.052	0.207
-740.098	-200.000	0.053	0.346
-739.083	-200.000	0.032	-0.211
-738.069	702.061	-0.025	-0.066
-737.054	800.000	0.030	-0.101
-736.039	-83.539	0.161	-0.052
-735.025	-67.314	0.226	0.089
-734.010	800.000	-0.178	-0.659
-732.996	-71.161	-0.340	-0.128
-731.981	403.098	-0.045	-0.094
-730.966	-200.000	0.022	-0.102
-729.952	-62.022	-0.175	-0.073
-728.937	-149.185	0.183	0.015
-727.923	405.376	0.046	-0.097
-726.908	-200.000	0.043	-0.195
-725.894	53.706	-0.253	-0.244
-724.879	-73.010	-0.129	0.048
-723.864	-70.081	0.113	-0.043
-722.850	141.565	0.042	-0.055
-721.835	501.350	-0.058	0.135
-720.821	479.558	0.116	-0.263
-719.806	281.065	0.067	0.120
-718.791	-133.186	-0.025	0.003
-717.777	270.751	-0.200	0.354
-716.762	-200.000	-0.020	0.218
-715.748	-200.000	0.048	-0.221
-714.733	167.158	-0.075	-0.107
-713.718	310.316	-0.040	-0.076
-712.704	-61.807	-0.258	0.108
-711.689	-111.403	0.194	-0.040
-710.675	-101.240	-0.132	-0.032
-709.660	800.000	-0.047	-0.204
-708.645	124.220	-0.268	-0.339
-707.631	-47.879	0.210	0.102
-706.616	68.589	-0.063	0.065
-705.602	-92.994	0.058	0.016
-704.587	800.000	-0.077	-0.215
-703.572	202.659	-0.090	0.140
-702.558	-200.000	-0.006	0.253
-701.543	-50.985	-0.236	0.111
-700.529	-40.237	0.163	0.085
-699.514	-200.000	0.014	-0.085
-698.499	46.739	0.268	0.249
-697.485	-47.041	0.129	0.063
-696.470	148.593	0.197	-0.267
-695.456	36.787	-0.219	-0.194
-694.441	-51.651	0.214	-0.100
-693.426	-200.000	0.021	0.250
-692.412	171.167	-0.046	-0.065
-691.397	-36.267	-0.170	0.092
-690.383	72.372	-0.201	0.210
-689.368	626.195	-0.105	-0.266
-688.354	-184.516	0.223	0.004
-687.339	-9.021	-0.098	0.066
-686.324	-81.020	0.332	-0.110
-685.310	-24.693	-0.141	-0.084
-684.295	153.655	-0.106	-0.146
-683.281	251.650	0.085	-0.145
-682.266	414.500	0.085	-0.181
-681.251	-200.000	0.017	0.157
-680.237	187.866	-0.138	0.207
-679.222	-200.000	0.088	0.480
-678.208	-37.584	0.277	0.148
-677.193	549.700	0.140	-0.337
-676.178	384.330	-0.188	0.388
-675.164	127.305	0.094	-0.120
-674.149	359.383	-0.055	0.110
-673.135	147.797	0.083	0.113
-672.120	476.843	0.045	0.103
-671.105	-17.684	-0.185	0.116
-670.091	414.258	-0.086	0.184
-669.076	800.000	0.062	-0.216
-668.062	-200.000	-0.009	-0.180
-667.047	245.473	-0.137	-0.231
-666.032	-188.822	0.177	-0.002
-665.018	252.029	0.147	0.251
-664.003	-179.844	0.141	0.003
-662.989	428.370	-0.126	0.272
-661.974	201.787	-0.052	0.081
-660.959	-200.000	-0.019	-0.195
-659.945	59.165	-0.059	0.058
-658.930	-48.846	-0.326	0.157
-657.916	-162.881	-0.263	0.013
-656.901	-170.196	0.173	-0.006
-655.886	-16.796	-0.147	0.093
-654.872	46.503	0.062	0.057
-653.857	-200.000	-0.021	-0.123
-652.843	-200.000	0.052	-0.338
-651.828	-200.000	0.019	-0.329
-650.814	800.000	0.096	0.285
-649.799	-54.597	0.312	0.141
-648.784	-200.000	0.012	0.062
-647.770	5.893	-0.192	-0.142
-646.755	-94.114	0.398	-0.109
-645.741	251.124	0.063	-0.108
-644.726	-63.459	0.177	0.073
-643.711	253.457	0.137	0.235
-642.697	-127.011	0.207	-0.030
-641.682	11.005	-0.075	-0.057
-640.668	-135.290	-0.170	0.020
-639.653	-200.000	-0.007	-0.268
-638.638	-200.000	-0.035	0.224
-637.624	173.466	0.074	-0.107
-636.609	55.176	-0.117	0.113
-635.595	-108.911	-0.039	-0.008
-634.580	-200.000	-0.008	0.059
-633.565	-200.000	0.082	-0.513
-632.551	800.000	0.014	-0.062
-631.536	540.730	0.097	-0.231
-630.522	-200.000	-0.013	0.076
-629.507	14.364	0.098	0.076
-628.492	-100.302	-0.515	-0.128
-627.478	-144.799	0.148	0.014
-626.463	-74.405	-0.180	-0.065
-625.449	-160.208	0.179	-0.010
-624.434	-200.000	0.021	-0.291
-623.419	-130.738	0.106	-0.014
-622.405	117.194	0.057	-0.070
-621.390	-200.000	-0.032	-0.229
-620.376	-200.000	-0.031	-0.139
-619.361	-85.597	0.138	-0.043
-618.346	278.573	-0.190	-0.338
-617.332	-107.332	-0.109	-0.024
-616.317	-58.571	0.049	0.021
-615.303	-93.225	-0.073	-0.020
-614.288	222.118	0.080	-0.128
-613.273	200.815	0.111	-0.170
-612.259	46.011	0.136	-0.126
-611.244	-200.000	-0.012	0.210
-610.230	800.000	-0.024	-0.089
-609.215	265.441	0.085	-0.148
-608.201	-54.820	-0.261	-0.118
-607.186	-91.927	-0.152	0.043
-606.171	-200.000	0.005	0.325
-605.157	-200.000	0.026	-0.137
-604.142	-57.008	-0.224	-0.099
-603.128	218.138	-0.235	-0.375
-602.113	-66.767	-0.237	-0.094
-601.098	-13.878	-0.082	-0.053
-600.084	-74.310	0.320	0.116
-599.069	-110.484	0.483	-0.100
-598.055	473.439	-0.065	0.146
-597.040	-112.726	-0.425	0.084
-596.025	26.251	-0.202	-0.168
-595.011	-119.549	-0.266	-0.046
-593.996	-99.105	0.326	0.083
-592.982	-200.000	0.036	-0.263
-591.967	335.176	0.012	-0.024
-590.952	6.160	-0.233	-0.172
-589.938	10.407	0.214	-0.162
-588.923	158.832	-0.118	0.164
-587.909	800.000	-0.068	0.293
-586.894	402.179	-0.143	-0.300
-585.879	61.561	0.396	0.394
-584.865	800.000	-0.086	-0.273
-583.850	-101.360	-0.118	-0.029
-582.836	380.417	-0.045	-0.093
-581.821	-99.384	0.169	-0.042
-580.806	-145.720	0.084	0.007
-579.792	133.667	0.152	-0.196
-578.777	-162.889	-0.105	0.005
-577.763	6.584	-0.116	-0.086
-576.748	-200.000	-0.027	0.170
-575.733	-200.000	0.035	0.171
-574.719	800.000	-0.117	0.384
-573.704	-183.948	-0.120	0.002
-572.690	-98.745	-0.051	0.013
-571.675	-42.463	-0.172	0.088
-570.661	-55.578	-0.106	-0.048
-569.646	-114.900	-0.323	0.061
-568.631	173.285	-0.260	-0.374
-567.617	800.000	-0.058	0.213
-566.602	-7.666	-0.286	0.193
-565.588	-16.786	0.101	0.064
-564.573	800.000	0.170	-0.485
-563.558	-200.000	-0.020	0.180
-562.544	-200.000	-0.075	0.488
-561.529	752.695	0.021	0.058
-560.515	-173.473	0.067	-0.002
-559.500	83.136	0.140	-0.153
-558.485	-55.928	-0.186	0.083
-557.471	54.029	-0.170	0.164
-556.456	-34.982	-0.065	0.036
-555.442	-98.649	0.106	-0.027
-554.427	800.000	0.119	-0.364
-553.412	569.084	0.215	-0.521
-552.398	-71.218	0.059	0.022
-551.383	-147.923	0.211	-0.018
-550.369	58.011	0.157	-0.154
-549.354	-108.024	-0.165	0.036
-548.339	-130.100	-0.129	0.018
-547.325	-200.000	-0.164	0.000
-546.310	-200.000	0.005	-0.101
-545.296	139.639	-0.104	0.137
-544.281	645.506	0.020	0.051
-543.266	-200.000	0.006	0.116
-542.252	-197.668	0.351	0.002
-541.237	-184.406	0.078	0.001
-540.223	56.486	0.072	0.070
-539.208	81.094	0.228	-0.245
-538.193	637.192	-0.028	0.070
-537.179	-53.064	0.135	0.062
-536.164	318.298	-0.142	-0.268
-535.150	85.304	-0.051	0.056
-534.135	-62.685	-0.139	-0.058
-533.121	-200.000	-0.020	0.263
-532.106	-106.319	0.367	0.082
-531.091	111.212	0.123	0.148
-530.077	-93.755	-0.201	-0.055
-529.062	422.420	-0.072	-0.155
-528.048	7.662	0.306	0.229
-527.033	-171.491	0.275	-0.009
-526.018	169.652	0.097	-0.138
-525.004	214.465	-0.140	-0.220
-523.989	-200.000	-0.018	0.157
-522.975	650.190	-0.167	-0.426
-521.960	150.955	0.151	-0.204
-520.945	800.000	0.104	-0.301
-519.931	311.720	0.136	0.253
-518.916	239.136	0.105	-0.174
-517.902	94.362	-0.084	0.095
-516.887	-76.583	-0.218	-0.076
-515.872	-200.000	0.011	0.118
-514.858	-60.981	0.253	0.107
-513.843	172.863	-0.181	0.259
-512.829	-200.000	0.011	0.069
-511.814	800.000	0.070	-0.244
-510.799	800.000	0.041	-0.126
-509.785	346.188	-0.252	0.493
-508.770	-42.909	0.195	-0.099
-507.756	-95.256	-0.202	0.054
-506.741	-115.193	-0.140	-0.026
-505.726	53.297	0.076	-0.073
-504.712	-159.089	0.212	-0.012
-503.697	-10.134	-0.125	0.083
-502.683	-59.629	-0.202	-0.086
-501.668	-200.000	-0.012	-0.081
-500.653	-123.625	0.225	0.036
-499.639	23.632	0.222	0.182
-498.624	343.103	-0.038	0.073
-497.610	-200.000	0.038	-0.243
-496.595	-29.265	-0.097	0.055
-495.581	-45.771	0.176	0.087
-494.566	-74.537	-0.171	0.061
-493.551	-200.000	0.011	-0.211
-492.537	-58.649	0.143	-0.062
-491.522	223.975	-0.035	-0.056
-490.508	-100.268	0.364	0.090
-489.493	-200.000	-0.003	-0.283
-488.478	62.939	-0.099	0.098
-487.464	54.848	0.299	-0.287
-486.449	-148.028	-0.041	0.003
-485.435	800.000	0.064	-0.217
-484.420	-123.027	-0.351	-0.056
-483.405	-155.162	-0.111	-0.007
-482.391	800.000	-0.053	0.228
-481.376	110.528	0.088	-0.105
-480.362	800.000	-0.031	-0.126
-479.347	57.436	-0.154	0.150
-478.332	549.229	0.180	0.429
-477.318	800.000	-0.065	0.182
-476.303	55.108	0.162	0.155
-475.289	563.263	-0.081	-0.195
-474.274	-181.639	-0.089	0.002
-473.259	-200.000	-0.032	-0.281
-472.245	134.835	0.256	-0.330
-471.230	671.219	0.034	0.088
-470.216	-165.039	0.353	-0.016
-469.201	-139.896	-0.336	-0.035
-468.186	-184.985	-0.212	-0.003
-467.172	-76.436	0.194	0.068
-466.157	-200.000	0.021	-0.169
-465.143	-200.000	0.019	-0.187
-464.128	41.008	0.115	-0.103
-463.113	13.795	0.115	-0.089
-462.099	275.291	0.048	0.084
-461.084	-200.000	0.044	0.214
-460.070	245.416	0.129	0.216
-459.055	-36.534	-0.122	-0.065
-458.040	93.215	-0.135	-0.152
-457.026	101.964	0.121	0.140
-456.011	132.770	-0.251	0.322
-454.997	-96.546	-0.230	0.060
-453.982	111.511	-0.134	0.161
-452.968	-142.278	0.156	0.015
-451.953	178.693	-0.172	-0.250
-450.938	65.611	-0.083	0.083
-449.924	-90.500	0.201	-0.058
-448.909	800.000	0.025	0.090
-447.895	-134.901	-0.197	0.024
-446.880	-110.586	-0.235	-0.048
-445.865	-80.922	-0.345	0.114
-444.851	71.955	0.222	0.230
-443.836	-44.784	0.296	0.147
-442.822	184.952	-0.091	-0.134
-441.807	200.303	0.035	-0.053
-440.792	706.528	-0.093	0.245
-439.778	178.434	-0.084	0.122
-438.763	-37.724	0.138	0.073
-437.749	-169.464	-0.145	0.005
-436.734	-122.932	0.275	0.044
-435.719	448.683	0.173	0.379
-434.705	-107.322	-0.369	-0.081
-433.690	-32.031	0.087	0.048
-432.676	6.573	-0.138	0.102
-431.661	-95.740	0.228	0.060
-430.646	163.558	-0.027	0.038
-429.632	-200.000	0.039	0.293
-428.617	-125.589	0.430	-0.065
-427.603	17.182	-0.100	-0.079
-426.588	4.469	-0.089	-0.065
-425.573	499.322	-0.129	-0.295
-424.559	92.256	-0.031	0.034
-423.544	-31.960	-0.144	-0.080
-422.530	-58.973	-0.482	0.207
-421.515	191.643	-0.136	-0.203
-420.500	-75.229	0.169	0.060
-419.486	-200.000	-0.069	-0.354
-418.471	-200.000	0.007	0.265
-417.457	23.722	0.150	-0.122
-416.442	456.151	0.105	0.232
-415.428	16.732	0.159	-0.125
-414.413	104.205	0.115	0.134
-413.398	-119.985	-0.429	0.073
-412.384	-38.483	-0.070	-0.037
-411.369	-124.682	0.283	0.044
-410.355	-200.000	-0.018	0.181
-409.340	-83.117	0.164	-0.052
-408.325	324.872	0.027	0.051
-407.311	-134.244	0.245	0.030
-406.296	-198.783	0.417	0.002
-405.282	-200.000	-0.015	-0.212
-404.267	-200.000	-0.003	0.429
-403.252	191.142	0.107	-0.160
-402.238	-115.849	0.363	0.067
-401.223	-161.815	0.028	0.001
-400.209	800.000	-0.015	0.063
-399.194	18.653	0.177	-0.140
-398.179	614.585	0.011	-0.028
-397.165	159.333	0.083	-0.115
-396.150	33.337	-0.035	0.030
-395.136	733.985	0.135	0.358
-394.121	-25.148	-0.294	0.173
-393.106	23.402	-0.090	-0.073
-392.092	-200.000	0.014	-0.169
-391.077	180.733	-0.071	0.103
-390.063	-200.000	0.001	-0.047
-389.048	318.622	0.021	-0.040
-388.033	226.031	0.048	-0.077
-387.019	30.140	-0.085	-0.072
-386.004	-161.066	-0.204	0.011
-384.990	-66.187	0.011	0.004
-383.975	-162.520	0.283	-0.014
-382.960	-44.486	-0.246	0.122
-381.946	271.997	-0.061	-0.106
-380.931	0.714	-0.121	-0.086
-379.917	1.871	0.036	0.026
-378.902	31.873	-0.186	-0.159
-377.888	781.909	-0.054	0.146
-376.873	-162.129	0.138	-0.007
-375.858	-200.000	-0.063	-0.285
-374.844	-51.209	-0.044	-0.020
-373.829	93.298	0.115	-0.129
-372.815	-10.026	-0.233	0.153
-371.800	-24.581	-0.010	0.006
-370.785	715.089	-0.097	-0.255
-369.771	-200.000	0.003	0.137
-368.756	567.277	-0.022	-0.054
-367.742	-200.000	-0.041	-0.284
-366.727	685.092	0.137	-0.355
-365.712	-200.000	0.077	0.455
-364.698	800.000	-0.051	0.157
-363.683	-49.390	-0.150	-0.071
-362.669	-138.871	-0.301	0.032
-361.654	247.800	-0.236	-0.395
-360.639	-93.179	0.131	0.036
-359.625	-80.403	0.265	0.088
-358.610	-200.000	-0.009	-0.142
-357.596	-156.766	0.154	-0.009
-356.581	192.507	-0.206	0.308
-355.566	39.868	-0.247	-0.220
-354.552	21.013	0.048	-0.038
-353.537	-74.997	0.103	0.037
-352.523	-20.344	-0.310	0.189
-351.508	69.962	0.044	0.045
-350.493	548.517	-0.013	0.031
-349.479	47.977	0.155	0.144
-348.464	-55.360	-0.136	0.060
-347.450	-200.000	0.017	-0.162
-346.435	761.757	0.021	0.057
-345.420	-200.000	0.256	0.001
-344.406	-200.000	0.020	-0.128
-343.391	-200.000	0.006	-0.361
-342.377	-54.122	-0.251	-0.113
-341.362	182.768	-0.122	0.178
-340.348	-80.297	-0.289	-0.096
-339.333	399.282	-0.108	0.223
-338.318	-72.839	0.146	-0.053
-337.304	-117.557	-0.130	0.023
-336.289	-124.057	0.165	-0.026
-335.275	27.790	-0.182	0.152
-334.260	228.914	-0.094	0.152
-333.245	176.569	-0.042	0.060
-332.231	-200.000	0.036	-0.486
-331.216	800.000	-0.090	0.322
-330.202	-25.249	-0.114	0.067
-329.187	-20.926	-0.073	0.044
-328.172	-200.000	0.024	-0.121
-327.158	-50.295	-0.047	-0.022
-326.143	-47.229	-0.242	-0.116
-325.129	107.222	-0.114	0.134
-324.114	-200.000	-0.003	0.454
-323.099	-108.366	0.245	-0.052
-322.085	-65.013	0.168	0.067
-321.070	7.119	-0.206	-0.152
-320.056	-200.000	0.050	-0.473
-319.041	539.367	-0.033	-0.077
-318.026	-34.160	0.492	-0.267
-317.012	296.299	-0.116	0.209
-315.997	-62.713	0.047	-0.019
-314.983	158.168	0.068	-0.093
-313.968	800.000	0.183	-0.544
-312.953	-200.000	0.040	-0.177
-311.939	31.189	-0.137	0.116
-310.924	800.000	0.041	0.149
-309.910	18.907	-0.179	-0.141
-308.895	83.310	-0.042	-0.045
-307.880	-99.784	0.223	0.055
-306.866	210.489	-0.102	-0.158
-305.851	584.416	0.140	0.340
-304.837	317.103	0.033	-0.062
-303.822	99.428	-0.034	0.038
-302.807	-200.000	0.003	-0.430
-301.793	4.629	-0.209	0.152
-300.778	41.616	-0.292	0.262
-299.764	-200.000	-0.025	0.213
-298.749	261.072	-0.022	0.037
-297.735	147.538	-0.174	0.231
-296.720	31.123	-0.359	0.304
-295.705	-16.522	-0.101	0.063
-294.691	-45.841	0.213	0.104
-293.676	800.000	0.165	0.471
-292.662	-200.000	0.019	-0.292
-291.647	20.020	0.117	-0.093
-290.632	0.239	-0.249	-0.176
-289.618	-70.586	-0.244	-0.091
-288.603	-60.655	0.124	-0.052
-287.589	-148.617	0.102	-0.008
-286.574	-200.000	-0.009	-0.206
-285.559	47.419	-0.146	0.134
-284.545	78.934	0.108	0.114
-283.530	-154.067	0.360	0.024
-282.516	-71.092	-0.257	0.095
-281.501	-184.146	-0.221	-0.004
-280.486	800.000	0.081	-0.332
-279.472	387.128	-0.168	-0.343
-278.457	162.934	0.175	-0.242
-277.443	18.127	-0.054	-0.043
-276.428	-36.761	0.172	0.091
-275.413	-130.994	-0.322	0.042
-274.399	-200.000	-0.073	0.471
-273.384	64.713	0.212	-0.211
-272.370	-200.000	0.060	-0.283
-271.355	-200.000	-0.022	0.117
-270.340	516.891	-0.086	-0.198
-269.326	-157.648	-0.218	0.013
-268.311	580.215	-0.106	0.256
-267.297	91.748	0.101	-0.112
-266.282	-19.738	0.092	0.056
-265.267	-87.438	0.541	-0.162
-264.253	-200.000	-0.065	0.315
-263.238	-185.064	0.034	0.001
-262.224	-16.114	0.139	0.087
-261.209	-18.971	-0.131	-0.080
-260.195	-60.450	0.140	-0.059
-259.180	22.445	0.245	0.197
-258.165	-93.779	-0.217	-0.059
-257.151	-117.055	-0.150	-0.027
-256.136	128.649	0.202	-0.254
-255.122	-47.393	0.237	0.114
-254.107	-200.000	-0.024	-0.191
-253.092	-15.173	0.141	0.089
-252.078	-135.981	0.057	-0.007
-251.063	295.567	-0.257	0.463
-250.049	-189.211	0.286	-0.003
-249.034	-200.000	-0.015	0.411
-248.019	-200.000	0.004	0.029
-247.005	156.903	-0.145	0.197
-245.990	-130.575	0.059	-0.008
-244.976	510.414	0.137	0.314
-243.961	36.284	-0.126	-0.109
-242.946	77.637	0.067	-0.071
-241.932	-9.202	0.315	0.207
-240.917	-135.305	-0.166	-0.020
-239.903	-130.496	0.095	-0.013
-238.888	26.561	-0.287	0.237
-237.873	800.000	-0.111	-0.339
-236.859	-61.866	0.047	-0.019
-235.844	-43.746	-0.222	-0.110
-234.830	-80.215	0.064	-0.021
-233.815	-172.243	0.180	0.006
-232.800	-200.000	0.033	-0.229
-231.786	6.555	0.057	-0.042
-230.771	21.651	0.403	0.323
-229.757	-200.000	0.020	0.166
-228.742	-200.000	-0.004	0.229
-227.727	59.663	0.103	0.100
-226.713	59.509	-0.327	-0.317
-225.698	149.289	0.085	0.113
-224.684	-183.925	-0.398	0.007
-223.669	800.000	-0.068	-0.223
-222.655	87.888	0.167	-0.183
-221.640	-110.109	-0.312	-0.064
-220.625	800.000	-0.069	0.233
-219.611	627.269	-0.115	0.287
-218.596	43.912	0.132	0.119
-217.582	-200.000	0.006	0.222
-216.567	-45.498	0.096	0.047
-215.552	-115.422	0.149	-0.028
-214.538	-200.000	-0.000	0.037
-213.523	-71.007	0.056	0.021
-212.509	-119.382	0.324	-0.056
-211.494	28.891	-0.229	0.191
-210.479	112.934	-0.304	0.363
-209.465	800.000	-0.015	-0.042
-208.450	237.091	0.221	-0.361
-207.436	-68.506	-0.247	0.094
-206.421	-71.000	-0.052	-0.019
-205.406	-40.333	0.024	0.012
-204.392	-111.564	0.247	0.049
-203.377	-0.523	0.253	-0.177
-202.363	267.917	-0.120	-0.207
-201.348	227.373	0.218	0.349
-200.333	-74.570	0.163	-0.058
-199.319	169.338	0.147	0.207
-198.304	800.000	-0.084	-0.260
-197.290	50.459	-0.235	0.219
-196.275	7.313	-0.100	0.074
-195.260	50.839	0.108	-0.101
-194.246	13.200	-0.177	-0.135
-193.231	261.538	0.025	-0.043
-192.217	384.052	0.021	-0.043
-191.202	-79.996	0.185	0.061
-190.187	-174.766	0.338	-0.009
-189.173	-95.413	0.104	0.027
-188.158	-200.000	-0.001	0.256
-187.144	800.000	0.073	0.233
-186.129	-200.000	-0.034	0.220
-185.114	-101.349	0.071	0.017
-184.100	-200.000	0.007	0.046
-183.085	-154.407	-0.183	-0.012
-182.071	213.180	-0.142	-0.220
-181.056	-47.868	-0.235	-0.112
-180.042	185.354	0.148	0.216
-179.027	-200.000	0.020	0.336
-178.012	-18.609	0.119	0.073
-176.998	82.488	0.276	0.295
-175.983	-200.000	-0.008	-0.190
-174.969	800.000	-0.011	-0.047
-173.954	40.301	0.111	0.098
-172.939	-101.745	-0.099	-0.024
-171.925	298.273	0.192	0.347
-170.910	-106.313	-0.229	0.050
-169.896	-200.000	0.019	0.127
-168.881	-35.643	-0.155	-0.083
-167.866	116.989	-0.141	-0.171
-166.852	216.766	-0.080	0.126
-165.837	-82.785	0.144	-0.046
-164.823	0.777	0.177	-0.125
-163.808	188.428	-0.083	0.122
-162.793	-74.600	-0.120	0.042
-161.779	36.403	-0.333	-0.289
-160.764	126.130	0.148	0.184
-159.750	435.171	0.020	0.044
-158.735	-200.000	0.030	0.226
-157.720	800.000	0.100	-0.357
-156.706	137.140	0.101	-0.130
-155.691	-104.654	-0.329	-0.075
-154.677	189.148	0.146	0.215
-153.662	-200.000	0.017	0.478
-152.647	229.491	-0.113	-0.181
-151.633	210.649	0.156	-0.240
-150.618	-2.811	0.337	0.231
-149.604	126.104	-0.218	-0.271
-148.589	-39.902	-0.130	-0.067
-147.574	103.145	0.142	-0.163
-146.560	20.501	0.053	-0.042
-145.545	26.229	-0.064	0.052
-144.531	-200.000	-0.035	-0.240
-143.516	235.347	0.246	-0.400
-142.502	800.000	0.010	-0.038
-141.487	-200.000	-0.019	-0.174
-140.472	-47.584	-0.407	0.194
-139.458	-28.012	0.082	-0.046
-138.443	-120.604	-0.498	-0.083
-137.429	127.128	0.240	0.299
-136.414	76.895	0.128	-0.134
-135.399	-200.000	0.097	0.000
-134.385	-36.594	0.120	-0.063
-133.370	81.688	-0.149	-0.158
-132.356	-200.000	0.039	-0.276
-131.341	405.142	-0.093	-0.192
-130.326	-200.000	-0.026	0.280
-129.312	420.669	0.131	-0.275
-128.297	-200.000	-0.015	0.114
-127.283	551.282	0.060	0.142
-126.268	-102.793	0.089	0.021
-125.253	-187.299	0.185	0.002
-124.239	-20.281	0.152	0.092
-123.224	259.058	0.144	-0.244
-122.210	800.000	0.028	0.097
-121.195	-49.033	-0.313	-0.147
