DTS Sentinel unit serial number:	SN413079Multiplexer serial number:	ORYXHardware model number:	OX4-SRSoftware version number:	ORYX F/W v4.00 Oryx Data Collector v3.7.2.0data status	okinstallation	princeton_trtdifferential loss correction	single-endedforward channel	channel 2reverse channel	N/Adate	2019/09/19time	03:51:34forward acquisition time	60.00reverse acquisition time	0.00gamma	496.2192k internal	0.2352k external	0.2352temperature offset calibration	1.0012default loss term (dB/km)	0.3790temperature slope calibration	1.0000multiplexer offset coefficient	1.0000multiplexer slope coefficient	1.0000fibre end	0.00T internal ref (°C)	20.50T ext. ref 1 (°C)	0.64T ext. ref 2 (°C)	14.38length (m)	temperature (°C)	Stokes	anti-Stokes-747.200	-200.000	0.044	0.198
-746.185	-180.062	-0.455	0.010
-745.171	-96.098	-0.270	0.072
-744.156	800.000	-0.048	-0.195
-743.142	-200.000	0.011	-0.087
-742.127	800.000	-0.062	-0.260
-741.112	31.575	-0.187	-0.161
-740.098	248.354	-0.267	0.451
-739.083	140.169	-0.128	0.168
-738.069	397.028	-0.142	0.296
-737.054	13.535	-0.293	0.227
-736.039	24.050	-0.089	-0.073
-735.025	-56.580	-0.095	-0.042
-734.010	-200.000	0.036	-0.521
-732.996	-156.399	-0.236	-0.015
-731.981	-200.000	-0.026	0.235
-730.966	-200.000	0.026	0.116
-729.952	98.841	0.183	-0.211
-728.937	698.263	-0.035	-0.093
-727.923	88.142	-0.049	-0.055
-726.908	-2.542	0.243	-0.169
-725.894	-113.092	-0.241	-0.047
-724.879	-200.000	-0.018	-0.197
-723.864	-165.525	0.055	-0.002
-722.850	110.841	0.105	-0.126
-721.835	-34.876	-0.113	-0.062
-720.821	63.029	-0.170	0.170
-719.806	800.000	0.119	-0.345
-718.791	-35.490	-0.438	-0.237
-717.777	302.678	-0.122	-0.226
-716.762	-17.527	-0.196	0.123
-715.748	-157.008	-0.288	-0.018
-714.733	499.590	-0.142	-0.327
-713.718	-25.800	-0.447	-0.263
-712.704	170.173	0.189	0.269
-711.689	800.000	0.081	0.316
-710.675	-55.833	-0.414	-0.184
-709.660	103.875	-0.120	-0.141
-708.645	-200.000	-0.001	-0.123
-707.631	-142.084	0.215	0.021
-706.616	800.000	-0.034	0.142
-705.602	794.940	0.193	-0.529
-704.587	426.408	-0.123	-0.265
-703.572	-49.861	0.116	-0.055
-702.558	-117.830	-0.234	-0.042
-701.543	-51.322	-0.181	-0.085
-700.529	248.146	-0.082	0.139
-699.514	-23.089	-0.165	-0.099
-698.499	13.357	0.051	-0.039
-697.485	-200.000	0.037	-0.296
-696.470	128.705	-0.188	-0.238
-695.456	-101.684	0.266	-0.064
-694.441	-142.058	-0.080	0.008
-693.426	-200.000	0.027	-0.156
-692.412	-50.911	-0.175	-0.082
-691.397	201.182	-0.229	-0.351
-690.383	800.000	0.068	0.205
-689.368	354.887	0.070	-0.139
-688.354	-111.812	-0.051	0.010
-687.339	83.419	0.178	-0.193
-686.324	49.038	0.120	0.112
-685.310	31.676	-0.164	0.140
-684.295	54.106	0.193	0.185
-683.281	127.473	-0.062	-0.078
-682.266	5.277	0.176	0.129
-681.251	-200.000	-0.004	0.062
-680.237	100.036	-0.264	-0.305
-679.222	164.543	0.213	-0.299
-678.208	-89.137	0.103	-0.030
-677.193	-47.164	-0.146	-0.071
-676.178	667.495	0.038	0.098
-675.164	214.116	-0.208	0.328
-674.149	-73.814	0.126	-0.046
-673.135	-159.876	-0.033	-0.002
-672.120	800.000	-0.041	0.162
-671.105	-200.000	-0.003	0.263
-670.091	32.078	-0.160	-0.137
-669.076	193.674	-0.067	-0.101
-668.062	-148.834	0.123	0.010
-667.047	-200.000	0.027	-0.123
-666.032	18.459	-0.150	0.119
-665.018	206.280	0.079	0.122
-664.003	171.656	-0.171	0.245
-662.989	-118.423	0.328	0.058
-661.974	6.810	0.197	0.146
-660.959	-95.059	-0.266	-0.071
-659.945	-132.845	-0.065	-0.008
-658.930	-200.000	0.041	0.492
-657.916	58.050	-0.093	0.090
-656.901	476.529	-0.082	-0.184
-655.886	46.151	-0.050	0.046
-654.872	-200.000	0.036	-0.173
-653.857	-32.709	-0.279	0.154
-652.843	47.195	0.282	0.261
-651.828	-62.180	0.276	-0.115
-650.814	-47.888	-0.225	-0.108
-649.799	-74.203	0.269	-0.097
-648.784	-200.000	0.011	0.156
-647.770	-121.058	0.151	-0.025
-646.755	-200.000	0.025	-0.138
-645.741	270.831	0.091	-0.159
-644.726	83.743	-0.173	0.188
-643.711	-200.000	-0.013	0.150
-642.697	46.200	0.212	-0.195
-641.682	-200.000	0.008	-0.151
-640.668	-61.636	0.115	-0.048
-639.653	-105.935	0.096	-0.021
-638.638	-200.000	-0.052	-0.319
-637.624	-200.000	-0.064	-0.360
-636.609	800.000	0.046	0.187
-635.595	-46.187	-0.295	-0.144
-634.580	-116.188	0.275	-0.051
-633.565	-155.045	-0.258	-0.017
-632.551	597.643	0.068	0.167
-631.536	89.423	0.195	-0.216
-630.522	800.000	0.071	-0.212
-629.507	800.000	-0.022	0.089
-628.492	133.112	-0.087	0.111
-627.478	-200.000	-0.001	0.043
-626.463	800.000	-0.055	0.181
-625.449	72.559	-0.329	0.341
-624.434	-147.121	-0.067	-0.006
-623.419	54.935	-0.052	0.050
-622.405	48.317	-0.366	0.340
-621.390	593.868	0.061	-0.150
-620.376	-164.669	-0.196	-0.009
-619.361	-127.943	0.151	-0.022
-618.346	-71.867	-0.143	0.053
-617.332	-64.915	0.145	-0.058
-616.317	-114.828	-0.316	-0.060
-615.303	-9.278	0.091	-0.060
-614.288	-128.545	0.243	-0.034
-613.273	-72.792	0.296	-0.108
-612.259	-200.000	0.127	-0.000
-611.244	-176.318	0.107	0.003
-610.230	123.389	0.172	0.214
-609.215	-156.130	-0.159	-0.010
-608.201	-69.714	0.262	-0.100
-607.186	-69.422	0.156	-0.060
-606.171	-174.098	0.229	0.007
-605.157	-200.000	-0.032	-0.369
-604.142	77.461	0.268	-0.283
-603.128	-70.475	-0.050	-0.019
-602.113	203.586	0.152	-0.233
-601.098	17.859	-0.030	-0.024
-600.084	-100.197	-0.112	-0.028
-599.069	800.000	0.050	0.141
-598.055	-60.167	0.104	-0.044
-597.040	-149.763	-0.285	0.022
-596.025	-200.000	-0.043	-0.214
-595.011	-150.254	0.105	-0.008
-593.996	-114.981	-0.140	-0.026
-592.982	-29.210	0.234	0.133
-591.967	-71.932	0.300	-0.111
-590.952	-90.693	-0.106	-0.030
-589.938	-200.000	0.045	-0.285
-588.923	-12.469	-0.173	-0.112
-587.909	800.000	-0.060	-0.208
-586.894	-200.000	0.003	0.060
-585.879	554.075	0.103	-0.245
-584.865	25.860	-0.199	-0.165
-583.850	26.131	-0.023	-0.019
-582.836	-200.000	-0.062	-0.382
-581.821	576.950	-0.022	0.053
-580.806	-93.345	0.057	-0.016
-579.792	19.882	0.201	-0.160
-578.777	188.438	0.073	0.108
-577.763	792.016	0.131	-0.357
-576.748	69.898	-0.203	-0.208
-575.733	800.000	-0.056	0.226
-574.719	71.967	-0.381	-0.393
-573.704	-131.067	0.146	0.019
-572.690	-200.000	0.010	0.114
-571.675	-173.532	0.298	0.009
-570.661	36.616	-0.154	0.135
-569.646	-36.807	0.280	0.149
-568.631	-103.873	0.049	-0.011
-567.617	-60.442	-0.115	0.048
-566.602	-104.664	0.365	-0.083
-565.588	-200.000	-0.132	-0.000
-564.573	-200.000	0.033	0.415
-563.558	-200.000	0.092	-0.449
-562.544	540.989	-0.127	-0.299
-561.529	-200.000	0.003	0.516
-560.515	99.919	0.160	0.184
-559.500	128.819	-0.211	0.267
-558.485	554.808	-0.116	0.276
-557.471	260.398	-0.231	0.396
-556.456	62.520	-0.109	-0.107
-555.442	72.309	0.159	0.164
-554.427	-200.000	0.045	0.285
-553.412	41.689	-0.188	-0.169
-552.398	-96.367	0.151	-0.039
-551.383	-200.000	0.003	-0.392
-550.369	-70.974	-0.110	-0.041
-549.354	-40.409	-0.080	-0.041
-548.339	-78.463	-0.086	0.029
-547.325	-103.079	0.125	-0.029
-546.310	306.262	0.129	-0.238
-545.296	800.000	0.062	0.258
-544.281	98.036	0.186	-0.212
-543.266	-52.385	-0.151	0.069
-542.252	-97.680	0.049	-0.013
-541.237	-45.265	-0.241	0.118
-540.223	21.222	0.039	0.032
-539.208	0.468	-0.339	0.239
-538.193	-200.000	-0.051	0.321
-537.179	199.826	0.088	0.133
-536.164	-144.320	-0.293	0.027
-535.150	-94.263	0.221	0.060
-534.135	-73.127	-0.047	0.017
-533.121	147.001	0.146	-0.194
-532.106	-34.272	-0.199	0.108
-531.091	-77.299	0.449	-0.154
-530.077	-156.495	0.098	0.006
-529.062	-200.000	0.066	0.366
-528.048	-91.129	-0.317	-0.090
-527.033	-94.345	0.377	-0.102
-526.018	-92.864	-0.179	-0.049
-525.004	-9.476	0.149	0.098
-523.989	-200.000	0.009	0.056
-522.975	-200.000	-0.008	-0.369
-521.960	-5.654	0.324	0.220
-520.945	800.000	-0.098	0.399
-519.931	278.017	0.243	0.428
-518.916	-79.252	0.149	-0.050
-517.902	-38.807	-0.098	0.051
-516.887	-200.000	-0.031	0.315
-515.872	329.180	-0.148	0.282
-514.858	-200.000	0.008	0.275
-513.843	140.166	0.075	0.097
-512.829	800.000	-0.060	-0.225
-511.814	-59.998	-0.329	-0.139
-510.799	-41.862	0.213	-0.108
-509.785	-200.000	0.013	0.078
-508.770	-19.917	0.089	-0.054
-507.756	-200.000	0.004	-0.116
-506.741	-120.908	-0.467	-0.078
-505.726	-39.419	0.225	-0.117
-504.712	-151.007	0.075	0.006
-503.697	-9.404	-0.311	0.205
-502.683	-128.245	-0.169	0.024
-501.668	800.000	0.046	0.155
-500.653	-200.000	-0.333	-0.002
-499.639	-122.853	0.118	-0.019
-498.624	-35.255	-0.104	0.056
-497.610	67.241	0.181	0.183
-496.595	303.808	0.059	-0.108
-495.581	145.370	-0.201	0.266
-494.566	110.859	-0.182	0.217
-493.551	299.510	0.112	0.204
-492.537	-200.000	0.017	-0.135
-491.522	-15.510	-0.225	0.142
-490.508	211.649	0.121	0.189
-489.493	-33.223	0.184	0.101
-488.478	97.891	-0.152	0.172
-487.464	-40.314	0.230	-0.118
-486.449	-94.343	0.095	-0.026
-485.435	-52.055	0.217	0.099
-484.420	-70.695	-0.229	0.086
-483.405	18.494	-0.164	-0.129
-482.391	-200.000	-0.006	-0.183
-481.376	-200.000	-0.072	0.487
-480.362	800.000	0.117	-0.364
-479.347	-35.645	-0.284	0.152
-478.332	-200.000	0.029	-0.211
-477.318	-200.000	0.011	0.299
-476.303	-21.621	-0.220	-0.132
-475.289	535.798	0.114	0.267
-474.274	-107.318	-0.275	0.060
-473.259	182.081	-0.133	-0.193
-472.245	-6.629	0.204	0.137
-471.230	-133.444	-0.156	-0.019
-470.216	-200.000	0.004	0.021
-469.201	-56.324	0.290	-0.127
-468.186	-92.329	-0.322	0.089
-467.172	-83.183	-0.286	-0.091
-466.157	105.669	-0.145	-0.169
-465.143	-158.083	0.340	0.020
-464.128	57.156	0.315	0.303
-463.113	481.604	-0.071	-0.159
-462.099	507.575	-0.049	-0.112
-461.084	47.507	0.130	-0.119
-460.070	-89.072	0.071	-0.021
-459.055	5.423	0.135	-0.099
-458.040	-93.605	0.157	0.043
-457.026	-200.000	0.021	0.180
-456.011	60.072	0.111	-0.108
-454.997	-200.000	0.008	-0.108
-453.982	-200.000	0.062	0.315
-452.968	-175.282	0.401	-0.011
-451.953	-17.488	0.155	0.096
-450.938	-151.800	0.343	-0.025
-449.924	87.933	-0.242	0.265
-448.909	352.336	-0.106	0.206
-447.895	-200.000	-0.040	-0.187
-446.880	800.000	-0.066	-0.260
-445.865	-200.000	0.031	-0.257
-444.851	-200.000	0.005	0.272
-443.836	-15.516	-0.184	0.116
-442.822	-200.000	0.007	0.032
-441.807	-109.303	-0.063	-0.013
-440.792	-51.059	-0.417	-0.193
-439.778	-5.866	0.222	0.149
-438.763	-132.359	-0.409	0.052
-437.749	800.000	-0.035	0.128
-436.734	-134.272	0.313	0.038
-435.719	-143.957	0.323	0.030
-434.705	231.873	0.122	-0.197
-433.690	-44.798	0.076	-0.037
-432.676	396.983	0.055	-0.113
-431.661	-25.167	-0.385	0.224
-430.646	33.014	-0.135	0.115
-429.632	23.645	0.010	0.008
-428.617	412.972	-0.210	0.439
-427.603	-132.195	-0.394	-0.050
-426.588	543.225	0.038	0.089
-425.573	-200.000	-0.001	0.097
-424.559	800.000	0.121	-0.331
-423.544	-16.802	0.233	0.145
-422.530	67.164	0.131	-0.132
-421.515	178.360	0.088	0.126
-420.500	-200.000	-0.002	0.199
-419.486	-76.563	0.389	0.134
-418.471	134.189	-0.112	-0.143
-417.457	-7.514	-0.276	-0.184
-416.442	80.793	0.237	-0.251
-415.428	48.914	0.074	-0.069
-414.413	-41.492	-0.221	-0.112
-413.398	-133.989	-0.230	-0.028
-412.384	-143.116	0.126	0.012
-411.369	477.972	0.115	0.256
-410.355	490.751	0.058	0.130
-409.340	25.479	-0.156	0.128
-408.325	-160.463	-0.112	0.006
-407.311	-200.000	0.013	-0.320
-406.296	-65.817	0.231	-0.091
-405.282	-112.440	-0.180	-0.035
-404.267	-152.304	-0.223	0.016
-403.252	141.957	0.224	-0.293
-402.238	-103.614	-0.079	0.018
-401.223	-200.000	0.011	0.251
-400.209	-114.220	-0.250	-0.048
-399.194	327.226	0.123	0.233
-398.179	800.000	0.066	-0.193
-397.165	-191.987	-0.205	-0.002
-396.150	380.891	-0.129	0.260
-395.136	-70.701	-0.257	-0.095
-394.121	-55.388	-0.155	-0.069
-393.106	-81.852	-0.125	-0.040
-392.092	-26.451	-0.017	-0.010
-391.077	-200.000	0.015	0.194
-390.063	-126.136	0.354	-0.052
-389.048	-200.000	-0.074	-0.370
-388.033	-113.782	0.287	-0.055
-387.019	-200.000	0.003	0.106
-386.004	346.548	0.054	0.105
-384.990	173.208	-0.153	0.217
-383.975	-40.015	-0.089	-0.046
-382.960	250.735	0.150	0.251
-381.946	-119.889	-0.228	-0.039
-380.931	521.530	0.082	-0.189
-379.917	40.725	0.220	0.195
-378.902	-153.549	-0.199	-0.014
-377.888	800.000	0.057	-0.163
-376.873	39.429	-0.205	-0.180
-375.858	106.526	-0.267	-0.311
-374.844	159.290	0.101	0.138
-373.829	-19.646	-0.450	-0.274
-372.815	242.411	-0.082	-0.135
-371.800	-117.477	0.192	-0.034
-370.785	-200.000	0.008	0.197
-369.771	800.000	-0.059	0.195
-368.756	413.124	0.112	0.234
-367.742	36.910	-0.118	0.103
-366.727	-37.930	0.262	0.137
-365.712	800.000	0.031	-0.097
-364.698	695.725	0.041	0.106
-363.683	139.795	-0.157	0.203
-362.669	-91.733	0.083	-0.023
-361.654	-137.700	0.366	-0.040
-360.639	24.871	0.263	-0.214
-359.625	-6.763	-0.169	-0.113
-358.610	-200.000	-0.039	-0.229
-357.596	-200.000	0.020	-0.120
-356.581	-93.595	-0.317	0.086
-355.566	800.000	0.014	0.045
-354.552	-11.335	-0.100	0.065
-353.537	-131.119	-0.174	0.023
-352.523	172.124	0.023	-0.032
-351.508	-86.256	-0.300	-0.091
-350.493	176.277	-0.225	0.321
-349.479	-120.652	0.046	-0.008
-348.464	-200.000	-0.036	-0.260
-347.450	-89.527	-0.080	0.023
-346.435	67.855	-0.257	0.258
-345.420	-200.000	-0.040	-0.260
-344.406	93.391	0.108	-0.120
-343.391	100.111	0.261	-0.297
-342.377	-81.138	-0.329	-0.107
-341.362	199.913	-0.085	-0.128
-340.348	-38.950	-0.146	-0.076
-339.333	-200.000	-0.014	-0.097
-338.318	110.045	-0.027	0.032
-337.304	-200.000	0.023	-0.114
-336.289	256.417	0.189	-0.319
-335.275	-32.720	-0.203	0.111
-334.260	-101.811	-0.201	0.048
-333.245	-14.355	0.178	-0.112
-332.231	278.375	-0.196	-0.343
-331.216	-200.000	0.179	0.001
-330.202	-50.044	-0.372	0.173
-329.187	606.787	0.120	-0.294
-328.172	-23.439	-0.214	-0.126
-327.158	800.000	0.041	-0.173
-326.143	-49.851	0.238	-0.111
-325.129	60.066	-0.247	0.239
-324.114	12.765	0.307	0.233
-323.099	800.000	0.042	-0.157
-322.085	-129.531	0.153	0.021
-321.070	27.949	0.050	0.041
-320.056	0.877	0.128	-0.090
-319.041	41.896	-0.028	0.025
-318.026	-121.305	0.182	0.030
-317.012	-156.974	0.063	-0.004
-315.997	-131.362	-0.469	-0.061
-314.983	-148.030	0.107	0.009
-313.968	-200.000	-0.020	-0.108
-312.953	-23.900	0.227	-0.133
-311.939	149.244	0.215	0.285
-310.924	19.045	0.185	0.145
-309.910	-104.573	0.231	0.052
-308.895	184.604	-0.177	-0.257
-307.880	-97.237	-0.111	0.028
-306.866	-162.988	0.336	0.016
-305.851	-60.594	-0.149	0.062
-304.837	454.071	-0.187	0.407
-303.822	-200.000	-0.051	-0.254
-302.807	-93.761	0.205	-0.055
-301.793	234.669	-0.070	0.113
-300.778	185.524	-0.116	-0.169
-299.764	-200.000	0.080	-0.401
-298.749	425.477	0.121	0.255
-297.735	-88.423	-0.413	0.121
-296.720	-16.307	0.113	0.071
-295.705	432.496	0.078	-0.166
-294.691	75.635	-0.060	-0.062
-293.676	-200.000	-0.025	0.133
-292.662	-48.459	0.232	0.109
-291.647	412.957	-0.187	-0.389
-290.632	-69.519	0.064	-0.024
-289.618	-59.451	0.297	-0.125
-288.603	-117.059	0.124	0.022
-287.589	0.858	0.131	-0.092
-286.574	60.799	0.181	0.176
-285.559	800.000	0.020	0.074
-284.545	29.434	-0.048	-0.040
-283.530	-200.000	0.053	-0.324
-282.516	-200.000	0.031	0.187
-281.501	-101.032	0.293	0.070
-280.486	315.768	-0.146	0.270
-279.472	-200.000	-0.002	-0.223
-278.457	-200.000	-0.014	0.161
-277.443	-41.587	-0.260	0.131
-276.428	-200.000	-0.043	-0.203
-275.413	-142.825	0.168	0.016
-274.399	800.000	-0.051	-0.179
-273.384	107.213	0.311	-0.361
-272.370	-156.123	-0.188	-0.012
-271.355	-96.594	-0.317	0.082
-270.340	302.572	0.129	-0.233
-269.326	271.658	-0.152	-0.262
-268.311	-200.000	-0.007	0.178
-267.297	-96.944	-0.371	0.095
-266.282	-185.278	0.356	-0.005
-265.267	-200.000	0.011	-0.169
-264.253	-137.392	0.071	-0.008
-263.238	-98.050	-0.138	-0.035
-262.224	-200.000	-0.273	0.000
-261.209	-114.287	0.207	0.039
-260.195	-28.918	-0.224	0.126
-259.180	56.958	0.086	-0.082
-258.165	-93.056	0.122	-0.033
-257.151	116.441	-0.091	0.109
-256.136	800.000	-0.082	0.266
-255.122	50.111	-0.149	-0.138
-254.107	-106.820	0.134	0.029
-253.092	185.084	-0.109	0.158
-252.078	-200.000	0.032	-0.162
-251.063	800.000	0.044	0.120
-250.049	-51.741	-0.392	-0.178
-249.034	1.995	0.229	0.162
-248.019	211.585	-0.106	0.163
-247.005	32.345	0.081	-0.068
-245.990	-200.000	-0.058	-0.402
-244.976	148.253	0.018	0.024
-243.961	77.968	0.104	0.108
-242.946	12.303	-0.199	-0.150
-241.932	-39.659	-0.077	0.040
-240.917	134.129	0.113	0.143
-239.903	266.229	-0.156	0.266
-238.888	654.766	-0.047	0.117
-237.873	-94.906	-0.167	0.044
-236.859	36.404	0.149	0.128
-235.844	137.582	0.213	-0.273
-234.830	-48.329	0.159	-0.075
-233.815	-123.593	0.124	0.019
-232.800	-36.258	0.167	0.088
-231.786	-128.074	-0.205	-0.029
-230.771	-79.927	0.257	-0.085
-229.757	543.085	-0.056	0.131
-228.742	-119.327	0.208	0.035
-227.727	-36.905	0.254	-0.133
-226.713	105.447	0.262	0.303
-225.698	-81.841	0.411	0.131
-224.684	-98.717	0.246	0.061
-223.669	112.585	0.102	0.121
-222.655	55.293	0.137	-0.130
-221.640	97.779	0.132	0.148
-220.625	653.627	0.073	0.183
-219.611	27.264	0.213	0.174
-218.596	235.615	0.073	-0.119
-217.582	-42.556	-0.212	-0.106
-216.567	-200.000	-0.002	-0.062
-215.552	-120.939	0.344	-0.057
-214.538	-175.025	0.206	0.006
-213.523	274.925	-0.182	-0.316
-212.509	800.000	0.123	-0.394
-211.494	-39.633	0.257	0.131
-210.479	-160.101	-0.268	0.014
-209.465	4.869	0.098	0.071
-208.450	271.553	-0.160	0.275
-207.436	115.147	0.148	0.177
-206.421	38.418	0.191	0.166
-205.406	-200.000	0.028	-0.144
-204.392	-101.011	0.197	0.047
-203.377	24.571	-0.150	-0.121
-202.363	12.900	-0.159	-0.120
-201.348	-174.370	-0.378	0.011
-200.333	800.000	0.024	0.075
-199.319	125.818	-0.060	-0.074
-198.304	800.000	0.025	0.068
-197.290	-70.570	-0.351	-0.130
-196.275	100.458	0.176	-0.199
-195.260	-46.253	-0.301	-0.144
-194.246	31.024	-0.223	-0.187
-193.231	278.138	0.078	-0.135
-192.217	70.530	0.187	0.188
-191.202	109.831	0.321	-0.376
-190.187	-39.945	-0.190	0.097
-189.173	493.880	-0.019	0.042
-188.158	-144.329	-0.217	0.020
-187.144	-181.949	-0.166	0.003
-186.129	-22.427	0.181	0.107
-185.114	10.853	0.174	0.130
-184.100	-39.819	-0.232	-0.118
-183.085	-16.272	-0.505	0.313
-182.071	106.728	-0.156	0.181
-181.056	800.000	0.043	0.128
-180.042	-38.814	-0.018	-0.009
-179.027	149.703	0.191	-0.253
-178.012	-92.113	0.244	0.067
-176.998	-117.188	0.329	0.058
-175.983	-118.745	-0.106	0.018
-174.969	271.446	-0.060	-0.103
-173.954	-87.671	-0.319	-0.094
-172.939	42.864	-0.393	0.349
-171.925	-77.330	-0.127	0.043
-170.910	1.015	0.251	0.175
-169.896	321.480	-0.168	0.312
-168.881	-15.751	-0.147	0.091
-167.866	-200.000	0.004	-0.316
-166.852	-7.623	0.322	0.212
-165.837	800.000	0.092	-0.248
-164.823	-200.000	-0.022	-0.249
-163.808	116.352	-0.171	-0.205
-162.793	800.000	0.020	-0.081
-161.779	-84.228	-0.205	0.063
-160.764	800.000	-0.201	0.563
-159.750	-200.000	0.010	-0.194
-158.735	99.827	-0.083	0.094
-157.720	-200.000	0.267	0.001
-156.706	800.000	0.131	-0.389
-155.691	800.000	-0.103	0.385
-154.677	-63.511	-0.394	0.158
-153.662	643.241	0.088	-0.217
-152.647	-53.577	0.198	-0.088
-151.633	568.837	-0.124	0.295
-150.618	-75.756	0.141	-0.049
-149.604	-145.145	0.151	-0.013
-148.589	-200.000	0.008	0.148
-147.574	81.879	-0.212	0.224
-146.560	205.456	0.017	0.026
-145.545	176.033	0.160	0.226
-144.531	-157.714	0.448	-0.026
-143.516	-61.566	0.096	0.039
-142.502	427.592	0.021	-0.045
-141.487	-156.508	0.492	-0.030
-140.472	6.272	-0.075	-0.054
-139.458	152.843	0.071	0.095
-138.443	305.852	-0.096	0.173
-137.429	267.979	0.161	0.274
-136.414	-69.546	-0.195	-0.073
-135.399	-49.114	0.288	-0.134
-134.385	800.000	0.099	-0.378
-133.370	30.853	-0.117	-0.097
-132.356	-200.000	0.000	0.061
-131.341	1.151	-0.184	0.128
-130.326	263.598	0.142	-0.240
-129.312	-144.480	0.119	-0.011
-128.297	263.836	-0.082	-0.138
-127.283	31.346	-0.050	0.042
-126.268	-153.015	0.301	-0.021
-125.253	-200.000	0.050	0.228
-124.239	154.597	-0.110	0.147
-123.224	99.624	0.127	-0.143
-122.210	-200.000	0.026	-0.159
