DTS Sentinel unit serial number:	SN413079Multiplexer serial number:	ORYXHardware model number:	OX4-SRSoftware version number:	ORYX F/W v4.00 Oryx Data Collector v3.7.2.0data status	okinstallation	princeton_trtdifferential loss correction	single-endedforward channel	channel 2reverse channel	N/Adate	2019/09/13time	07:47:35forward acquisition time	60.00reverse acquisition time	0.00gamma	496.2192k internal	0.2335k external	0.2335temperature offset calibration	1.0193default loss term (dB/km)	0.3790temperature slope calibration	1.0000multiplexer offset coefficient	1.0000multiplexer slope coefficient	1.0000fibre end	0.00T internal ref (°C)	26.52T ext. ref 1 (°C)	4.21T ext. ref 2 (°C)	22.94length (m)	temperature (°C)	Stokes	anti-Stokes-747.200	-1.271	-0.114	-0.081
-746.185	101.374	-0.118	0.139
-745.171	-200.000	0.007	0.114
-744.156	800.000	0.079	0.230
-743.142	-141.028	-0.073	0.008
-742.127	-76.811	-0.151	0.053
-741.112	-200.000	-0.002	0.297
-740.098	-106.950	-0.167	0.037
-739.083	119.951	0.156	-0.194
-738.069	64.697	0.169	0.172
-737.054	-55.119	-0.263	-0.119
-736.039	-107.745	0.121	-0.026
-735.025	-15.122	-0.191	0.123
-734.010	-121.263	-0.148	-0.025
-732.996	569.686	0.038	-0.093
-731.981	-11.140	0.110	0.073
-730.966	162.049	-0.307	-0.433
-729.952	800.000	-0.091	-0.265
-728.937	-34.023	-0.331	-0.183
-727.923	800.000	-0.137	-0.522
-726.908	-200.000	0.028	0.203
-725.894	110.545	-0.041	-0.049
-724.879	275.179	-0.116	0.207
-723.864	3.579	0.338	0.248
-722.850	-80.073	-0.291	-0.098
-721.835	22.788	-0.252	-0.207
-720.821	-160.978	-0.228	0.012
-719.806	65.382	-0.191	-0.194
-718.791	800.000	-0.068	0.198
-717.777	-200.000	-0.027	0.205
-716.762	-80.078	-0.316	-0.106
-715.748	-123.163	-0.185	-0.030
-714.733	-17.711	-0.143	0.090
-713.718	-23.886	0.094	0.057
-712.704	52.793	-0.051	0.049
-711.689	-200.000	0.000	0.017
-710.675	90.481	-0.135	0.152
-709.660	92.307	-0.063	0.072
-708.645	106.614	-0.228	-0.272
-707.631	-200.000	0.084	-0.388
-706.616	-85.867	-0.249	-0.077
-705.602	-200.000	0.000	-0.005
-704.587	-111.012	-0.192	0.040
-703.572	3.315	0.216	0.158
-702.558	-200.000	0.026	-0.170
-701.543	-200.000	-0.033	-0.192
-700.529	-188.277	-0.059	-0.001
-699.514	-5.352	0.321	-0.221
-698.499	-77.503	-0.172	-0.060
-697.485	800.000	-0.088	-0.299
-696.470	-77.661	-0.129	0.045
-695.456	136.279	-0.214	0.280
-694.441	-31.304	-0.121	0.068
-693.426	-34.824	-0.297	0.162
-692.412	115.569	-0.138	-0.169
-691.397	13.562	-0.094	-0.074
-690.383	1.089	-0.123	0.089
-689.368	128.545	-0.260	-0.333
-688.354	-200.000	0.039	-0.200
-687.339	299.382	-0.139	-0.257
-686.324	183.051	-0.069	-0.102
-685.310	800.000	0.040	-0.169
-684.295	-82.033	0.141	-0.046
-683.281	-162.022	0.279	0.014
-682.266	-200.000	0.001	0.188
-681.251	-104.674	-0.326	0.075
-680.237	-45.564	-0.171	-0.085
-679.222	29.561	-0.235	-0.200
-678.208	12.080	-0.152	-0.117
-677.193	-200.000	-0.045	0.330
-676.178	-200.000	0.027	-0.135
-675.164	-50.865	-0.189	-0.089
-674.149	-77.742	0.178	-0.062
-673.135	-125.094	-0.180	-0.028
-672.120	800.000	0.096	-0.387
-671.105	99.962	0.113	0.131
-670.091	-87.818	-0.085	0.026
-669.076	274.287	-0.062	-0.109
-668.062	155.994	-0.025	0.035
-667.047	-76.194	-0.279	0.098
-666.032	27.524	-0.106	0.089
-665.018	212.786	0.104	-0.164
-664.003	-133.828	-0.108	0.014
-662.989	-200.000	0.030	-0.303
-661.974	-200.000	-0.013	-0.161
-660.959	-73.982	-0.211	0.077
-659.945	-200.000	-0.042	-0.401
-658.930	250.628	0.151	-0.258
-657.916	-69.687	0.258	-0.099
-656.901	-89.660	-0.054	0.016
-655.886	46.235	-0.201	0.187
-654.872	94.290	-0.231	0.263
-653.857	-85.576	-0.106	0.033
-652.843	-67.386	-0.227	-0.089
-651.828	-106.822	0.348	-0.077
-650.814	17.575	0.199	-0.158
-649.799	-60.810	0.138	0.058
-648.784	-81.221	0.258	-0.085
-647.770	58.780	-0.143	0.141
-646.755	-63.368	-0.136	0.056
-645.741	-200.000	0.026	-0.329
-644.726	184.337	-0.156	-0.231
-643.711	-2.576	-0.018	-0.013
-642.697	37.388	-0.040	-0.035
-641.682	262.167	-0.183	-0.317
-640.668	144.274	-0.154	-0.205
-639.653	142.855	-0.038	0.051
-638.638	-71.593	0.060	-0.023
-637.624	800.000	-0.125	0.359
-636.609	-53.824	-0.185	-0.085
-635.595	-121.753	-0.098	0.016
-634.580	24.261	0.488	0.403
-633.565	15.097	-0.038	0.030
-632.551	-6.374	-0.226	0.154
-631.536	0.687	0.165	-0.118
-630.522	-200.000	-0.048	0.365
-629.507	147.784	-0.192	-0.259
-628.492	203.825	0.079	-0.123
-627.478	-44.048	-0.094	0.047
-626.463	101.337	-0.120	0.139
-625.449	-125.039	0.154	0.024
-624.434	320.470	-0.086	-0.163
-623.419	-101.217	0.421	-0.103
-622.405	55.191	-0.446	0.431
-621.390	-200.000	0.027	-0.387
-620.376	-134.906	0.365	-0.044
-619.361	30.958	-0.117	-0.100
-618.346	21.956	-0.207	0.169
-617.332	-88.341	-0.100	-0.030
-616.317	-27.240	-0.225	-0.131
-615.303	240.905	-0.144	0.241
-614.288	-67.382	-0.267	-0.105
-613.273	-43.425	0.113	0.057
-612.259	-193.143	-0.333	0.003
-611.244	-141.370	-0.072	-0.007
-610.230	-200.000	0.031	-0.256
-609.215	-184.943	0.161	-0.003
-608.201	743.878	0.119	0.320
-607.186	290.472	0.235	0.426
-606.171	366.174	0.062	0.124
-605.157	53.198	-0.155	-0.148
-604.142	-102.670	0.081	-0.019
-603.128	-145.725	0.113	0.010
-602.113	-83.060	-0.188	-0.060
-601.098	-200.000	-0.047	-0.584
-600.084	-142.381	0.201	-0.020
-599.069	-69.107	0.064	-0.025
-598.055	-200.000	-0.001	0.079
-597.040	-91.468	-0.217	-0.062
-596.025	-107.815	0.412	-0.090
-595.011	-2.025	0.198	-0.139
-593.996	-89.764	0.157	0.046
-592.982	748.271	-0.087	0.235
-591.967	131.377	-0.109	0.140
-590.952	-46.265	-0.115	-0.057
-589.938	-99.857	0.199	-0.050
-588.923	-66.838	-0.273	0.108
-587.909	57.702	-0.027	0.026
-586.894	-14.416	-0.142	-0.091
-585.879	-52.064	0.218	-0.101
-584.865	137.737	-0.167	0.218
-583.850	800.000	-0.098	0.306
-582.836	478.802	0.039	-0.088
-581.821	61.824	-0.219	0.218
-580.806	800.000	-0.067	-0.274
-579.792	-60.511	-0.149	-0.063
-578.777	8.480	0.351	-0.263
-577.763	-114.846	0.361	-0.069
-576.748	-30.314	-0.058	0.033
-575.733	681.743	-0.053	0.138
-574.719	50.769	-0.181	-0.171
-573.704	-200.000	-0.051	-0.272
-572.690	166.586	0.091	-0.129
-571.675	3.167	0.379	0.275
-570.661	-129.572	-0.236	-0.033
-569.646	-97.540	-0.151	-0.039
-568.631	99.409	-0.113	0.130
-567.617	-200.000	0.014	-0.278
-566.602	-200.000	0.105	-0.514
-565.588	-200.000	0.040	0.223
-564.573	29.863	0.135	0.115
-563.558	-83.625	-0.023	-0.007
-562.544	197.586	0.177	-0.270
-561.529	-200.000	0.001	0.025
-560.515	20.316	-0.216	-0.174
-559.500	48.515	0.090	-0.084
-558.485	-113.755	-0.232	-0.045
-557.471	800.000	-0.086	0.347
-556.456	75.595	0.128	0.134
-555.442	91.263	0.286	-0.320
-554.427	-200.000	-0.026	0.292
-553.412	54.961	-0.089	0.086
-552.398	-119.285	0.156	0.027
-551.383	-200.000	-0.015	-0.208
-550.369	-200.000	0.045	-0.346
-549.354	135.503	0.118	-0.153
-548.339	-200.000	0.068	0.309
-547.325	-60.305	-0.323	-0.137
-546.310	800.000	0.092	0.372
-545.296	-127.566	-0.095	-0.014
-544.281	-200.000	0.099	0.543
-543.266	83.100	0.130	-0.141
-542.252	118.261	-0.306	0.376
-541.237	-33.577	-0.063	0.035
-540.223	739.208	0.111	-0.298
-539.208	-162.532	-0.486	0.024
-538.193	-30.739	0.202	0.114
-537.179	184.211	-0.205	-0.302
-536.164	278.329	-0.077	-0.137
-535.150	-3.812	-0.305	-0.211
-534.135	-200.000	0.007	-0.062
-533.121	-200.000	-0.011	0.367
-532.106	-150.463	0.264	-0.020
-531.091	800.000	-0.103	-0.286
-530.077	571.948	-0.057	-0.138
-529.062	-200.000	-0.031	0.161
-528.048	800.000	-0.015	-0.067
-527.033	1.943	0.024	0.017
-526.018	142.825	-0.102	-0.135
-525.004	-200.000	-0.054	-0.371
-523.989	-200.000	-0.022	0.158
-522.975	781.357	0.069	-0.187
-521.960	-200.000	0.067	0.303
-520.945	800.000	0.073	0.234
-519.931	-200.000	0.015	-0.119
-518.916	79.281	-0.110	-0.117
-517.902	-23.153	-0.296	0.178
-516.887	607.017	-0.052	0.129
-515.872	-104.450	0.165	0.038
-514.858	77.020	0.250	0.264
-513.843	3.615	-0.209	0.152
-512.829	283.681	0.018	0.031
-511.814	50.517	-0.221	-0.208
-510.799	-110.075	0.231	-0.048
-509.785	46.463	-0.176	0.163
-508.770	72.345	0.155	0.161
-507.756	59.072	0.124	0.122
-506.741	575.531	-0.129	-0.313
-505.726	-4.025	0.236	0.163
-504.712	-118.895	-0.093	-0.016
-503.697	384.357	-0.084	-0.172
-502.683	-200.000	0.057	-0.250
-501.668	112.394	-0.139	-0.168
-500.653	-114.494	-0.099	-0.019
-499.639	400.734	0.055	-0.115
-498.624	5.427	0.088	0.064
-497.610	800.000	0.013	-0.040
-496.595	106.076	-0.077	0.090
-495.581	-156.680	-0.191	-0.012
-494.566	-200.000	0.016	0.324
-493.551	46.436	0.258	-0.238
-492.537	573.877	-0.051	0.125
-491.522	-200.000	-0.032	0.154
-490.508	358.830	-0.053	0.106
-489.493	-200.000	-0.032	0.456
-488.478	68.988	-0.229	-0.234
-487.464	800.000	0.076	-0.261
-486.449	112.175	-0.073	-0.087
-485.435	78.700	0.077	-0.082
-484.420	25.781	0.296	-0.245
-483.405	54.792	-0.179	-0.172
-482.391	800.000	0.016	-0.046
-481.376	-179.360	0.088	-0.002
-480.362	-200.000	-0.049	0.331
-479.347	553.463	-0.115	0.276
-478.332	218.869	-0.146	-0.233
-477.318	-100.530	0.107	-0.026
-476.303	85.045	-0.133	-0.145
-475.289	149.939	-0.123	-0.166
-474.274	-106.285	-0.343	-0.076
-473.259	800.000	-0.030	-0.126
-472.245	116.861	0.076	-0.093
-471.230	502.299	-0.040	-0.092
-470.216	8.206	0.272	-0.203
-469.201	-15.193	0.029	-0.019
-468.186	22.116	0.053	-0.043
-467.172	-58.097	0.221	0.096
-466.157	32.982	-0.147	0.126
-465.143	-200.000	-0.010	0.114
-464.128	-18.279	-0.103	-0.064
-463.113	-200.000	0.045	-0.250
-462.099	71.103	-0.354	0.365
-461.084	-66.403	0.354	0.140
-460.070	77.205	-0.053	-0.056
-459.055	-38.846	0.238	-0.125
-458.040	-200.000	0.012	0.155
-457.026	-10.120	-0.204	0.135
-456.011	2.417	0.150	-0.108
-454.997	633.779	-0.040	-0.101
-453.982	27.776	-0.100	-0.084
-452.968	-117.299	0.226	-0.041
-451.953	-25.008	0.310	0.183
-450.938	800.000	-0.016	-0.059
-449.924	-172.998	-0.174	0.005
-448.909	-157.011	-0.428	-0.026
-447.895	-200.000	0.005	-0.210
-446.880	364.886	0.049	-0.099
-445.865	95.537	0.084	0.095
-444.851	-76.308	0.277	-0.097
-443.836	-87.056	0.437	0.132
-442.822	-8.842	0.069	0.046
-441.807	283.810	-0.074	0.132
-440.792	-111.740	0.179	0.036
-439.778	800.000	0.006	0.022
-438.763	-45.032	-0.134	-0.066
-437.749	-164.556	0.389	-0.018
-436.734	800.000	-0.057	0.181
-435.719	662.261	0.065	-0.168
-434.705	-96.627	0.236	0.062
-433.690	9.032	-0.176	-0.132
-432.676	-200.000	0.021	-0.222
-431.661	-43.323	-0.288	0.145
-430.646	800.000	0.017	-0.062
-429.632	-200.000	0.027	-0.239
-428.617	-170.165	0.228	0.008
-427.603	-12.241	-0.124	-0.081
-426.588	-200.000	0.016	-0.130
-425.573	-64.479	0.026	-0.010
-424.559	67.874	0.111	-0.112
-423.544	-107.790	-0.419	-0.091
-422.530	-117.140	-0.132	0.024
-421.515	207.825	0.174	-0.270
-420.500	-42.767	0.199	0.100
-419.486	-200.000	0.017	0.358
-418.471	438.421	-0.071	0.153
-417.457	175.189	0.020	-0.029
-416.442	-85.728	-0.482	-0.148
-415.428	800.000	0.093	-0.336
-414.413	-200.000	-0.058	0.261
-413.398	336.543	0.154	0.296
-412.384	-74.638	-0.454	-0.162
-411.369	74.537	-0.132	-0.137
-410.355	1.263	-0.168	0.120
-409.340	79.450	0.518	0.551
-408.325	-200.000	-0.049	0.271
-407.311	-123.465	0.066	0.010
-406.296	49.887	0.105	-0.098
-405.282	-89.078	0.411	-0.121
-404.267	-63.670	-0.351	-0.143
-403.252	-163.628	-0.250	0.012
-402.238	-156.226	-0.050	0.003
-401.223	-134.256	0.120	0.015
-400.209	-193.149	0.086	-0.001
-399.194	-55.179	0.227	-0.101
-398.179	800.000	-0.039	-0.144
-397.165	28.344	-0.385	-0.322
-396.150	-29.729	-0.190	-0.107
-395.136	714.223	-0.028	0.074
-394.121	80.846	-0.278	-0.298
-393.106	346.628	0.017	0.034
-392.092	-200.000	-0.029	0.247
-391.077	-146.220	0.091	-0.008
-390.063	286.804	0.115	0.207
-389.048	99.353	0.307	0.351
-388.033	-87.903	0.305	0.091
-387.019	800.000	0.117	-0.387
-386.004	-69.951	-0.451	0.170
-384.990	6.477	-0.133	-0.098
-383.975	-200.000	0.010	0.203
-382.960	34.965	0.144	0.125
-381.946	313.189	0.054	-0.101
-380.931	48.603	-0.112	0.104
-379.917	-111.810	0.277	-0.056
-378.902	-60.533	0.320	-0.134
-377.888	800.000	-0.219	-0.637
-376.873	26.073	0.079	0.065
-375.858	-200.000	0.002	0.100
-374.844	-135.963	0.186	0.022
-373.829	-165.204	-0.231	-0.010
-372.815	209.038	-0.115	-0.178
-371.800	354.873	0.106	-0.209
-370.785	-105.212	-0.288	0.065
-369.771	800.000	-0.080	-0.231
-368.756	-54.279	0.170	-0.076
-367.742	167.341	0.136	-0.191
-366.727	8.484	0.030	-0.022
-365.712	674.296	-0.189	0.485
-364.698	244.643	-0.258	-0.429
-363.683	-197.848	0.076	-0.000
-362.669	187.171	0.085	0.126
-361.654	800.000	0.024	0.085
-360.639	-13.255	-0.209	0.134
-359.625	800.000	0.073	-0.213
-358.610	41.575	0.091	0.082
-357.596	-33.536	-0.126	0.069
-356.581	-29.025	-0.067	-0.038
-355.566	408.695	0.069	0.144
-354.552	-123.634	0.230	0.036
-353.537	15.600	0.150	-0.116
-352.523	-120.717	0.026	0.004
-351.508	800.000	0.068	-0.237
-350.493	24.490	0.178	0.146
-349.479	186.041	-0.258	-0.380
-348.464	-47.146	-0.228	-0.110
-347.450	-22.585	0.080	0.048
-346.435	-87.303	-0.268	0.080
-345.420	189.769	-0.149	0.221
-344.406	-45.805	-0.208	-0.102
-343.391	-114.908	-0.114	-0.021
-342.377	239.305	0.149	0.245
-341.362	-200.000	0.017	0.094
-340.348	715.701	-0.015	-0.039
-339.333	-47.600	0.337	0.162
-338.318	800.000	-0.054	0.222
-337.304	-156.115	-0.245	0.015
-336.289	-34.466	-0.181	-0.098
-335.275	5.920	-0.082	0.060
-334.260	757.418	0.027	-0.072
-333.245	95.212	0.271	0.306
-332.231	16.617	0.022	0.018
-331.216	-200.000	-0.036	0.191
-330.202	-9.080	-0.164	-0.108
-329.187	-87.013	-0.185	0.056
-328.172	27.702	-0.153	0.128
-327.158	483.096	-0.029	-0.065
-326.143	309.990	-0.133	-0.246
-325.129	69.918	0.152	-0.155
-324.114	-200.000	-0.003	-0.115
-323.099	-85.023	0.204	0.063
-322.085	-13.024	0.288	0.185
-321.070	-75.901	0.095	0.033
-320.056	309.145	0.030	0.055
-319.041	36.062	-0.094	0.081
-318.026	-134.109	-0.137	0.017
-317.012	330.945	0.079	-0.151
-315.997	800.000	0.043	-0.131
-314.983	-200.000	0.032	-0.166
-313.968	-200.000	-0.144	0.000
-312.953	-7.654	0.171	-0.114
-311.939	-90.078	0.482	0.139
-310.924	589.612	-0.062	0.151
-309.910	-200.000	-0.105	0.000
-308.895	-56.590	-0.119	-0.052
-307.880	-105.297	-0.222	-0.050
-306.866	39.726	-0.030	-0.026
-305.851	-200.000	0.035	-0.363
-304.837	-98.267	-0.101	-0.026
-303.822	-44.478	-0.167	0.082
-302.807	-4.372	-0.169	-0.115
-301.793	-200.000	0.029	-0.216
-300.778	564.361	-0.133	0.319
-299.764	193.248	-0.049	0.073
-298.749	167.293	0.128	0.180
-297.735	-57.401	0.349	0.151
-296.720	3.393	0.241	0.173
-295.705	98.034	0.164	-0.186
-294.691	800.000	-0.065	0.276
-293.676	-139.514	0.062	-0.007
-292.662	335.289	0.059	0.113
-291.647	443.860	0.021	-0.046
-290.632	-200.000	0.024	-0.154
-289.618	118.231	0.239	0.291
-288.603	-44.104	0.116	-0.058
-287.589	-76.534	0.234	0.081
-286.574	144.104	-0.094	-0.124
-285.559	-22.921	-0.326	-0.194
-284.545	321.186	-0.227	-0.427
-283.530	-57.047	-0.244	-0.106
-282.516	314.019	0.195	0.361
-281.501	-73.453	0.345	0.124
-280.486	-71.881	-0.073	0.027
-279.472	-200.000	0.014	-0.137
-278.457	-20.422	0.060	-0.037
-277.443	-120.180	0.524	0.088
-276.428	193.344	0.172	0.257
-275.413	240.270	0.113	-0.185
-274.399	-200.000	0.002	0.146
-273.384	-54.282	0.058	0.026
-272.370	777.187	-0.093	0.250
-271.355	18.126	0.195	-0.154
-270.340	-67.111	0.122	-0.047
-269.326	-200.000	0.011	-0.109
-268.311	-109.890	0.188	-0.039
-267.297	-86.844	-0.206	-0.062
-266.282	-200.000	-0.033	-0.301
-265.267	249.616	0.062	-0.104
-264.253	-149.287	0.279	0.022
-263.238	-76.740	-0.122	0.042
-262.224	-200.000	-0.001	0.028
-261.209	128.937	0.110	-0.138
-260.195	-144.707	-0.139	-0.013
-259.180	800.000	0.011	0.032
-258.165	-122.118	-0.332	-0.054
-257.151	97.904	-0.078	0.089
-256.136	-130.364	-0.232	0.031
-255.122	172.581	0.108	0.153
-254.107	800.000	0.050	0.182
-253.092	410.216	-0.164	0.343
-252.078	101.267	0.126	0.144
-251.063	53.551	-0.177	-0.168
-250.049	-192.951	0.168	-0.001
-249.034	649.625	-0.085	0.215
-248.019	-129.066	-0.348	-0.048
-247.005	-48.713	0.285	0.135
-245.990	1.159	0.185	-0.131
-244.976	800.000	0.053	0.156
-243.961	73.935	-0.125	-0.130
-242.946	651.137	-0.054	0.136
-241.932	123.993	-0.060	0.074
-240.917	-89.516	-0.154	0.045
-239.903	-200.000	-0.008	-0.187
-238.888	14.328	-0.139	-0.107
-237.873	253.073	0.106	-0.178
-236.859	800.000	-0.061	-0.249
-235.844	-104.310	0.274	0.063
-234.830	280.923	0.141	0.249
-233.815	-101.878	0.176	0.042
-232.800	-200.000	-0.004	-0.084
-231.786	-37.903	0.253	-0.132
-230.771	-1.830	0.109	-0.075
-229.757	16.512	0.343	0.267
-228.742	-183.579	-0.448	-0.008
-227.727	-56.386	-0.164	0.072
-226.713	242.702	-0.089	-0.146
-225.698	-116.998	0.306	0.055
-224.684	-27.614	-0.179	-0.102
-223.669	-200.000	0.069	-0.299
-222.655	-97.746	-0.104	0.027
-221.640	-200.000	0.026	0.156
-220.625	705.634	0.115	-0.300
-219.611	-14.850	-0.105	-0.066
-218.596	-200.000	-0.001	-0.047
-217.582	22.719	-0.110	0.089
-216.567	-109.413	0.172	-0.036
-215.552	-125.794	0.261	0.039
-214.538	206.958	-0.070	-0.107
-213.523	25.097	-0.171	0.140
-212.509	-200.000	-0.031	0.147
-211.494	800.000	-0.065	-0.198
-210.479	-46.631	-0.175	-0.084
-209.465	-12.643	-0.262	0.168
-208.450	-200.000	0.057	0.406
-207.436	157.021	-0.057	-0.078
-206.421	124.248	0.138	0.171
-205.406	800.000	-0.037	-0.113
-204.392	391.697	0.185	0.379
-203.377	-140.532	0.183	0.019
-202.363	-4.294	-0.202	-0.138
-201.348	-147.199	-0.182	0.015
-200.333	29.865	0.183	-0.153
-199.319	279.294	0.198	0.348
-198.304	-65.567	-0.049	0.019
-197.290	-46.488	-0.342	0.165
-196.275	-8.842	-0.130	0.085
-195.260	115.467	-0.109	-0.131
-194.246	-149.960	-0.199	0.015
-193.231	184.381	0.204	0.297
-192.217	-200.000	0.024	-0.128
-191.202	-101.596	-0.140	0.033
-190.187	-60.658	0.114	0.047
-189.173	370.596	0.047	-0.094
-188.158	800.000	-0.091	0.259
-187.144	-200.000	-0.015	0.199
-186.129	5.627	-0.149	-0.108
-185.114	-87.366	0.325	0.097
-184.100	585.609	-0.066	0.159
-183.085	-62.186	-0.272	0.111
-182.071	-200.000	0.020	-0.139
-181.056	-27.418	-0.129	0.074
-180.042	-40.160	-0.061	0.031
-179.027	-1.570	0.156	-0.108
-178.012	163.344	-0.171	-0.236
-176.998	-168.468	0.044	-0.002
-175.983	-11.872	0.078	0.050
-174.969	34.267	-0.233	-0.200
-173.954	-200.000	-0.033	-0.256
-172.939	13.047	0.379	-0.288
-171.925	302.394	-0.127	0.230
-170.910	-41.671	0.464	0.234
-169.896	-200.000	-0.004	0.073
-168.881	800.000	-0.083	-0.252
-167.866	24.711	-0.079	-0.064
-166.852	-34.881	0.196	-0.105
-165.837	168.338	0.188	0.263
-164.823	-148.014	0.384	0.031
-163.808	-112.133	0.223	0.044
-162.793	-166.801	-0.235	0.009
-161.779	-29.812	0.341	0.191
-160.764	190.906	0.118	0.174
-159.750	104.091	0.287	0.332
-158.735	-200.000	0.054	0.471
-157.720	-41.251	0.106	0.053
-156.706	-174.255	-0.099	0.003
-155.691	-9.125	-0.191	-0.125
-154.677	-56.418	-0.266	-0.116
-153.662	800.000	0.016	0.068
-152.647	800.000	-0.062	0.211
-151.633	176.406	0.095	-0.136
-150.618	800.000	-0.099	0.339
-149.604	-44.861	0.143	-0.070
-148.589	-164.170	0.154	0.007
-147.574	-36.569	0.223	0.118
-146.560	-161.825	-0.230	-0.011
-145.545	591.881	0.143	-0.347
-144.531	-103.355	0.085	-0.020
-143.516	198.674	0.180	0.270
-142.502	705.841	0.082	0.214
-141.487	-135.715	0.113	-0.013
-140.472	-106.062	-0.125	-0.027
-139.458	800.000	-0.022	0.091
-138.443	-200.000	0.017	0.240
-137.429	91.061	-0.186	-0.205
-136.414	183.082	-0.056	0.081
-135.399	800.000	0.051	0.159
-134.385	-38.505	-0.121	-0.063
-133.370	-133.955	0.142	0.017
-132.356	162.581	-0.094	0.129
-131.341	-200.000	-0.025	-0.408
-130.326	475.631	-0.053	0.118
-129.312	85.572	-0.053	-0.058
-128.297	140.033	0.040	0.052
-127.283	551.354	0.082	-0.193
-126.268	204.566	0.027	-0.042
-125.253	-200.000	0.007	-0.142
-124.239	293.452	0.092	0.165
-123.224	-200.000	0.007	-0.167
-122.210	529.826	-0.128	0.296
-121.195	-93.208	0.271	-0.074
