DTS Sentinel unit serial number:	SN413079Multiplexer serial number:	ORYXHardware model number:	OX4-SRSoftware version number:	ORYX F/W v4.00 Oryx Data Collector v3.7.2.0data status	okinstallation	princeton_trtdifferential loss correction	single-endedforward channel	channel 2reverse channel	N/Adate	2019/09/18time	14:47:34forward acquisition time	60.00reverse acquisition time	0.00gamma	496.2192k internal	0.2317k external	0.2317temperature offset calibration	1.0003default loss term (dB/km)	0.3790temperature slope calibration	1.0000multiplexer offset coefficient	1.0000multiplexer slope coefficient	1.0000fibre end	0.00T internal ref (°C)	35.00T ext. ref 1 (°C)	0.72T ext. ref 2 (°C)	32.24length (m)	temperature (°C)	Stokes	anti-Stokes-747.200	211.947	0.201	0.321
-746.185	-126.104	0.167	0.025
-745.171	242.251	0.058	-0.098
-744.156	189.136	-0.159	0.241
-743.142	107.478	-0.181	-0.219
-742.127	210.504	0.090	0.143
-741.112	-72.375	0.130	-0.049
-740.098	56.042	-0.120	0.118
-739.083	-4.972	-0.470	0.328
-738.069	26.869	-0.363	0.308
-737.054	-200.000	-0.016	-0.318
-736.039	-200.000	-0.042	0.298
-735.025	-200.000	0.004	-0.027
-734.010	-10.126	-0.056	0.037
-732.996	-165.278	-0.476	0.021
-731.981	-200.000	0.015	0.317
-730.966	-24.065	-0.205	0.124
-729.952	29.106	-0.115	-0.099
-728.937	320.756	-0.238	-0.457
-727.923	553.501	0.068	0.166
-726.908	-120.267	0.255	0.044
-725.894	-200.000	-0.016	0.083
-724.879	-200.000	-0.001	-0.075
-723.864	5.669	0.190	0.142
-722.850	276.868	-0.097	0.174
-721.835	-200.000	0.071	-0.365
-720.821	-200.000	0.027	0.388
-719.806	-39.174	0.276	-0.147
-718.791	725.408	0.087	0.234
-717.777	-200.000	-0.032	0.175
-716.762	-50.601	-0.260	-0.124
-715.748	-139.106	0.221	0.024
-714.733	-200.000	0.042	0.301
-713.718	-145.184	0.150	0.014
-712.704	-48.349	0.125	0.061
-711.689	-200.000	0.005	0.029
-710.675	-179.597	-0.364	0.008
-709.660	-133.838	0.214	0.027
-708.645	108.302	-0.048	-0.057
-707.631	109.367	-0.094	0.114
-706.616	33.707	-0.312	-0.274
-705.602	200.961	-0.073	0.114
-704.587	0.681	-0.204	0.148
-703.572	59.499	-0.400	0.399
-702.558	18.630	0.165	0.134
-701.543	-6.368	-0.211	0.145
-700.529	14.805	-0.107	-0.084
-699.514	11.634	0.091	0.071
-698.499	-58.506	-0.086	0.038
-697.485	65.670	-0.136	0.139
-696.470	569.650	0.137	0.337
-695.456	-30.346	-0.191	-0.110
-694.441	282.971	0.101	-0.183
-693.426	-52.538	-0.377	-0.176
-692.412	-38.231	-0.230	-0.123
-691.397	-178.387	0.134	-0.003
-690.383	74.589	0.153	-0.163
-689.368	-95.482	0.478	0.129
-688.354	59.297	0.127	0.127
-687.339	-75.569	-0.277	0.100
-686.324	-200.000	-0.088	0.396
-685.310	326.971	-0.145	0.280
-684.295	-49.013	0.151	0.073
-683.281	94.023	-0.187	-0.214
-682.266	-200.000	0.013	0.096
-681.251	800.000	0.032	0.102
-680.237	281.026	-0.101	0.182
-679.222	-128.066	-0.262	0.038
-678.208	-200.000	0.005	-0.214
-677.193	112.098	-0.379	0.462
-676.178	-200.000	0.044	0.460
-675.164	-65.441	0.303	0.123
-674.149	-11.084	-0.132	-0.088
-673.135	-61.571	0.137	0.058
-672.120	279.604	0.057	-0.102
-671.105	59.449	0.070	0.070
-670.091	-200.000	-0.071	0.370
-669.076	498.992	0.051	0.119
-668.062	-45.792	0.248	-0.124
-667.047	-162.464	-0.085	0.004
-666.032	-200.000	-0.054	-0.512
-665.018	-200.000	-0.004	0.145
-664.003	-154.236	-0.455	0.031
-662.989	23.675	0.108	0.090
-661.974	-200.000	-0.012	-0.197
-660.959	126.503	-0.101	-0.129
-659.945	119.432	-0.173	0.216
-658.930	402.406	-0.074	-0.157
-657.916	-146.167	-0.264	0.023
-656.901	-9.148	0.058	-0.039
-655.886	-200.000	0.020	0.105
-654.872	121.085	-0.041	-0.052
-653.857	7.579	-0.396	-0.299
-652.843	-38.745	0.217	-0.116
-651.828	-200.000	0.191	-0.001
-650.814	-56.963	-0.258	0.115
-649.799	-119.985	-0.168	0.029
-648.784	-26.331	0.121	-0.072
-647.770	-200.000	-0.044	-0.362
-646.755	-148.060	-0.119	-0.010
-645.741	-200.000	0.050	0.462
-644.726	-200.000	0.011	0.150
-643.711	800.000	-0.039	-0.168
-642.697	-200.000	0.019	0.146
-641.682	-123.236	-0.404	-0.065
-640.668	-200.000	0.025	-0.385
-639.653	-45.403	-0.175	0.088
-638.638	-145.731	-0.151	0.014
-637.624	5.561	-0.428	-0.319
-636.609	-146.064	0.500	0.044
-635.595	69.577	-0.205	0.213
-634.580	-200.000	0.030	0.354
-633.565	-200.000	-0.058	-0.368
-632.551	44.999	0.084	0.078
-631.536	59.010	-0.050	0.050
-630.522	-200.000	0.010	0.245
-629.507	-200.000	-0.024	-0.150
-628.492	-200.000	-0.003	0.113
-627.478	17.057	-0.140	0.112
-626.463	181.699	0.021	0.031
-625.449	-200.000	-0.023	-0.251
-624.434	-47.002	-0.145	-0.071
-623.419	720.400	-0.089	0.238
-622.405	-35.852	0.294	0.160
-621.390	-200.000	0.026	-0.126
-620.376	-80.253	0.365	-0.123
-619.361	670.998	-0.068	0.177
-618.346	-120.857	0.300	-0.051
-617.332	572.189	-0.160	-0.392
-616.317	-200.000	0.004	-0.257
-615.303	-35.139	-0.225	0.124
-614.288	800.000	-0.049	0.145
-613.273	140.498	0.128	-0.170
-612.259	-111.768	-0.150	0.031
-611.244	155.168	0.104	0.144
-610.230	-34.079	-0.216	0.120
-609.215	-9.676	-0.181	-0.122
-608.201	-35.990	0.202	0.110
-607.186	-139.713	-0.297	-0.032
-606.171	95.670	-0.092	0.106
-605.157	-200.000	0.011	0.168
-604.142	156.904	-0.105	-0.146
-603.128	-121.406	-0.253	-0.042
-602.113	-9.368	0.189	0.127
-601.098	141.091	-0.178	-0.237
-600.084	800.000	-0.075	0.215
-599.069	-15.664	-0.155	0.099
-598.055	-7.651	0.246	0.167
-597.040	800.000	0.052	-0.173
-596.025	-68.529	0.027	-0.010
-595.011	229.095	0.135	-0.222
-593.996	-70.094	0.125	-0.048
-592.982	321.933	0.062	0.119
-591.967	-157.163	-0.122	-0.007
-590.952	134.991	-0.174	-0.228
-589.938	-200.000	-0.019	-0.093
-588.923	-200.000	0.048	-0.265
-587.909	-74.659	-0.031	-0.011
-586.894	-151.783	0.100	0.007
-585.879	24.261	-0.171	-0.142
-584.865	-40.110	0.149	0.078
-583.850	87.065	-0.215	-0.239
-582.836	-76.831	-0.270	0.095
-581.821	237.288	0.078	-0.131
-580.806	-11.552	-0.335	-0.221
-579.792	-106.895	0.377	0.084
-578.777	442.404	-0.091	0.200
-577.763	800.000	0.143	0.420
-576.748	615.669	0.088	-0.222
-575.733	602.792	0.072	-0.179
-574.719	-200.000	-0.054	-0.251
-573.704	800.000	-0.048	0.210
-572.690	-33.754	-0.030	-0.017
-571.675	183.097	0.059	0.087
-570.661	160.421	0.313	0.439
-569.646	23.221	0.152	-0.126
-568.631	800.000	0.053	0.233
-567.617	-200.000	0.034	-0.284
-566.602	168.515	0.152	-0.218
-565.588	-46.144	-0.173	0.086
-564.573	164.999	0.060	-0.086
-563.558	-104.671	-0.518	-0.120
-562.544	-200.000	-0.026	0.292
-561.529	-21.390	-0.209	-0.128
-560.515	-200.000	0.040	0.248
-559.500	388.113	-0.150	-0.311
-558.485	161.415	0.171	0.240
-557.471	800.000	-0.061	-0.179
-556.456	-128.134	0.260	0.037
-555.442	800.000	-0.068	0.229
-554.427	-50.702	0.272	0.129
-553.412	444.614	0.111	-0.245
-552.398	-41.754	-0.142	-0.073
-551.383	-36.354	-0.195	-0.106
-550.369	76.482	0.052	0.055
-549.354	76.115	0.282	0.300
-548.339	-98.954	0.035	0.009
-547.325	-114.971	-0.084	0.016
-546.310	-200.000	-0.008	0.127
-545.296	-200.000	-0.022	0.152
-544.281	-200.000	-0.033	0.261
-543.266	-40.162	-0.453	-0.237
-542.252	266.925	0.194	-0.340
-541.237	-200.000	-0.039	-0.281
-540.223	-71.736	0.300	0.112
-539.208	-200.000	0.004	0.032
-538.193	90.269	0.083	0.093
-537.179	-55.515	0.190	-0.085
-536.164	314.567	-0.057	-0.108
-535.150	225.044	-0.064	-0.105
-534.135	-200.000	-0.009	-0.265
-533.121	-139.737	-0.192	-0.021
-532.106	-32.053	-0.351	-0.197
-531.091	771.983	0.069	-0.188
-530.077	-200.000	-0.041	0.298
-529.062	-200.000	-0.012	-0.117
-528.048	102.097	-0.342	0.401
-527.033	-1.248	0.109	0.078
-526.018	359.624	0.159	0.319
-525.004	-141.884	0.133	0.013
-523.989	-90.582	0.245	0.071
-522.975	552.198	0.125	0.301
-521.960	-57.053	-0.111	0.049
-520.945	-73.151	0.094	-0.035
-519.931	-145.413	-0.120	-0.011
-518.916	77.935	-0.124	-0.132
-517.902	-132.360	0.211	-0.027
-516.887	56.126	-0.166	-0.161
-515.872	510.154	-0.052	-0.122
-514.858	-148.240	-0.323	-0.027
-513.843	-200.000	0.024	0.147
-512.829	-143.122	-0.150	0.015
-511.814	-38.062	-0.091	0.049
-510.799	747.223	0.054	0.145
-509.785	-143.959	-0.102	-0.010
-508.770	39.644	0.216	-0.194
-507.756	156.067	0.159	-0.220
-506.741	-200.000	0.031	-0.259
-505.726	116.146	-0.137	-0.168
-504.712	142.025	-0.140	-0.187
-503.697	-200.000	-0.030	0.265
-502.683	19.107	-0.153	-0.123
-501.668	97.856	-0.070	0.080
-500.653	-24.341	0.117	0.070
-499.639	138.938	-0.166	-0.218
-498.624	-21.949	-0.167	-0.102
-497.610	126.441	0.079	-0.101
-496.595	-36.920	0.030	0.016
-495.581	-133.143	-0.195	-0.025
-494.566	-200.000	0.087	0.400
-493.551	-156.248	0.245	-0.015
-492.537	89.974	0.103	0.116
-491.522	-36.306	-0.141	0.076
-490.508	-75.166	0.455	-0.163
-489.493	-149.271	-0.228	-0.018
-488.478	333.469	0.074	-0.144
-487.464	800.000	-0.065	0.242
-486.449	95.344	-0.250	-0.286
-485.435	-200.000	-0.036	-0.263
-484.420	800.000	0.064	0.182
-483.405	-115.478	0.203	-0.038
-482.391	-200.000	-0.008	-0.093
-481.376	53.825	0.271	-0.261
-480.362	656.939	0.073	0.188
-479.347	-36.397	-0.387	0.209
-478.332	-97.652	0.015	0.004
-477.318	-174.681	0.277	-0.008
-476.303	-92.218	0.193	0.055
-475.289	-119.221	-0.108	-0.019
-474.274	800.000	0.043	0.175
-473.259	176.385	-0.073	0.106
-472.245	-82.273	0.091	-0.030
-471.230	-200.000	-0.082	0.000
-470.216	694.440	0.071	0.187
-469.201	-52.108	0.208	0.097
-468.186	800.000	-0.041	0.138
-467.172	-200.000	0.004	0.158
-466.157	250.032	-0.068	0.115
-465.143	12.216	0.241	0.186
-464.128	-110.622	0.063	-0.013
-463.113	258.607	-0.063	0.108
-462.099	-95.095	-0.124	-0.034
-461.084	-25.945	-0.123	0.072
-460.070	121.444	0.097	-0.121
-459.055	-24.637	0.300	-0.179
-458.040	125.170	0.102	0.128
-457.026	-200.000	-0.008	0.169
-456.011	28.926	0.131	0.111
-454.997	-30.449	0.466	0.265
-453.982	-31.310	0.202	0.114
-452.968	-200.000	0.019	0.422
-451.953	-75.465	0.165	-0.059
-450.938	-200.000	-0.017	-0.183
-449.924	-200.000	-0.020	-0.303
-448.909	-112.557	-0.271	0.054
-447.895	800.000	-0.066	-0.254
-446.880	277.944	0.136	-0.242
-445.865	535.448	0.073	0.173
-444.851	800.000	0.024	0.088
-443.836	-134.310	-0.192	0.024
-442.822	-122.940	-0.187	-0.030
-441.807	-42.810	-0.170	-0.087
-440.792	-200.000	0.016	-0.082
-439.778	800.000	0.041	-0.140
-438.763	139.483	0.093	-0.123
-437.749	31.250	-0.055	-0.048
-436.734	-200.000	-0.024	-0.415
-435.719	27.471	-0.285	0.240
-434.705	88.623	-0.240	0.267
-433.690	-106.726	0.130	-0.029
-432.676	-73.354	0.255	0.093
-431.661	-78.755	0.088	0.030
-430.646	-99.269	0.276	-0.070
-429.632	303.663	-0.106	0.196
-428.617	800.000	0.046	0.152
-427.603	-45.363	-0.142	-0.070
-426.588	-200.000	-0.036	-0.327
-425.573	-25.183	0.233	0.138
-424.559	-63.797	0.134	-0.055
-423.544	53.992	-0.143	0.137
-422.530	-32.988	-0.169	0.094
-421.515	-86.275	-0.375	-0.115
-420.500	-200.000	-0.008	-0.076
-419.486	124.696	-0.041	-0.052
-418.471	800.000	0.057	0.189
-417.457	-200.000	0.070	-0.418
-416.442	-20.026	0.061	0.038
-415.428	800.000	-0.056	-0.164
-414.413	-34.050	-0.211	-0.116
-413.398	800.000	-0.044	0.184
-412.384	575.385	0.084	0.206
-411.369	-200.000	-0.028	0.158
-410.355	-124.663	0.162	-0.025
-409.340	-30.471	-0.044	-0.025
-408.325	-155.529	-0.304	-0.020
-407.311	-55.267	-0.278	0.125
-406.296	-200.000	0.041	-0.270
-405.282	720.957	0.156	0.415
-404.267	-109.058	-0.242	-0.051
-403.252	-143.090	0.037	0.004
-402.238	-200.000	0.005	-0.084
-401.223	78.976	0.146	0.157
-400.209	-200.000	0.017	0.255
-399.194	-70.514	0.344	0.130
-398.179	-110.586	0.248	0.051
-397.165	93.160	-0.137	0.155
-396.150	-129.712	-0.065	0.009
-395.136	-6.138	-0.280	-0.191
-394.121	190.119	0.198	0.297
-393.106	-135.695	-0.199	0.024
-392.092	131.657	-0.051	-0.065
-391.077	339.738	-0.068	0.132
-390.063	767.904	0.032	-0.088
-389.048	-200.000	-0.012	-0.284
-388.033	800.000	0.107	-0.447
-387.019	-80.474	0.212	-0.071
-386.004	350.516	0.083	-0.164
-384.990	37.121	-0.196	-0.173
-383.975	-79.503	-0.200	0.067
-382.960	-90.808	0.114	0.033
-381.946	115.957	-0.177	0.217
-380.931	-190.965	-0.189	-0.002
-379.917	-118.317	0.172	-0.031
-378.902	-12.062	0.245	0.160
-377.888	-94.722	-0.129	-0.035
-376.873	23.963	0.371	-0.305
-375.858	800.000	0.079	0.227
-374.844	-133.297	-0.247	-0.031
-373.829	-0.088	-0.226	-0.161
-372.815	-200.000	-0.054	0.448
-371.800	-27.517	0.225	-0.131
-370.785	2.587	-0.226	-0.164
-369.771	-67.184	0.191	-0.075
-368.756	-87.605	0.036	-0.011
-367.742	-87.043	0.213	-0.065
-366.727	-102.517	-0.166	0.040
-365.712	46.643	0.063	0.058
-364.698	800.000	0.152	0.427
-363.683	-200.000	-0.008	0.106
-362.669	491.909	-0.055	0.125
-361.654	90.761	-0.150	0.168
-360.639	-200.000	-0.001	-0.027
-359.625	-56.888	-0.561	-0.247
-358.610	-131.674	0.093	-0.012
-357.596	643.999	-0.115	0.292
-356.581	-141.047	0.316	0.032
-355.566	-200.000	-0.013	-0.385
-354.552	-83.813	-0.210	0.067
-353.537	-85.339	0.263	-0.082
-352.523	-93.629	-0.213	-0.059
-351.508	55.388	-0.159	0.154
-350.493	10.140	0.144	0.109
-349.479	61.141	0.198	0.196
-348.464	-79.719	-0.101	0.034
-347.450	-114.529	-0.271	-0.052
-346.435	21.045	-0.280	-0.226
-345.420	38.384	0.278	-0.247
-344.406	-104.210	0.257	-0.060
-343.391	25.662	0.064	-0.053
-342.377	-200.000	0.285	-0.001
-341.362	800.000	0.084	0.314
-340.348	563.539	0.095	-0.229
-339.333	139.310	0.277	-0.363
-338.318	110.531	-0.288	0.345
-337.304	91.928	0.250	0.280
-336.289	800.000	0.027	0.111
-335.275	-108.196	0.203	0.044
-334.260	61.073	-0.058	0.057
-333.245	157.564	-0.141	-0.195
-332.231	25.350	0.056	0.047
-331.216	-200.000	-0.047	0.447
-330.202	800.000	0.002	0.009
-329.187	135.641	-0.068	-0.088
-328.172	-50.225	-0.091	-0.043
-327.158	-200.000	0.028	-0.146
-326.143	-117.980	-0.114	0.020
-325.129	-200.000	0.032	0.266
-324.114	4.758	0.220	0.161
-323.099	-200.000	0.004	0.042
-322.085	100.724	-0.265	-0.307
-321.070	-66.253	0.181	-0.072
-320.056	-183.024	-0.370	-0.007
-319.041	-70.111	-0.169	-0.064
-318.026	273.358	-0.080	0.142
-317.012	-52.835	-0.288	0.132
-315.997	-200.000	-0.023	0.133
-314.983	-200.000	-0.001	0.149
-313.968	-78.054	-0.115	0.040
-312.953	-200.000	0.068	0.332
-311.939	280.048	0.101	0.179
-310.924	115.103	0.114	-0.138
-309.910	-200.000	0.008	0.086
-308.895	-118.459	0.175	-0.031
-307.880	174.451	0.060	-0.086
-306.866	471.203	-0.128	-0.287
-305.851	-82.923	-0.289	-0.093
-304.837	-61.264	0.243	-0.102
-303.822	63.667	-0.164	-0.164
-302.807	800.000	-0.048	-0.159
-301.793	-49.531	0.205	0.097
-300.778	284.421	-0.241	-0.432
-299.764	-70.290	-0.098	-0.037
-298.749	93.537	-0.149	-0.168
-297.735	-200.000	0.002	-0.114
-296.720	214.583	0.170	0.268
-295.705	-200.000	-0.071	-0.331
-294.691	800.000	-0.075	0.259
-293.676	409.135	-0.102	-0.216
-292.662	-200.000	-0.000	-0.376
-291.647	-200.000	-0.065	0.374
-290.632	-200.000	-0.013	-0.120
-289.618	80.789	-0.081	0.087
-288.603	298.583	-0.100	-0.183
-287.589	-200.000	-0.031	-0.381
-286.574	203.861	-0.116	0.179
-285.559	-200.000	0.013	0.175
-284.545	-99.223	-0.319	0.080
-283.530	93.437	0.228	0.256
-282.516	-4.948	0.312	0.214
-281.501	47.339	0.073	0.068
-280.486	-200.000	-0.017	0.156
-279.472	-25.806	0.069	-0.041
-278.457	-46.638	-0.255	0.124
-277.443	800.000	0.081	0.337
-276.428	269.711	0.133	-0.232
-275.413	-88.802	0.300	0.089
-274.399	61.579	0.234	-0.231
-273.384	-58.841	-0.153	0.066
-272.370	610.937	-0.126	-0.313
-271.355	-200.000	0.036	-0.414
-270.340	85.722	-0.223	0.243
-269.326	-86.818	-0.171	0.052
-268.311	53.121	-0.061	-0.058
-267.297	52.110	0.110	0.104
-266.282	43.819	0.277	-0.252
-265.267	108.711	0.037	-0.044
-264.253	-143.427	-0.109	0.010
-263.238	2.542	-0.078	-0.056
-262.224	72.031	0.195	0.202
-261.209	-200.000	-0.031	0.139
-260.195	-20.490	0.133	0.081
-259.180	-98.828	-0.111	0.028
-258.165	-200.000	-0.003	-0.161
-257.151	-200.000	0.007	-0.103
-256.136	192.123	0.026	0.038
-255.122	-200.000	-0.003	0.205
-254.107	-173.430	-0.109	0.003
-253.092	-62.140	-0.313	0.130
-252.078	74.953	0.134	0.141
-251.063	-152.703	-0.252	-0.018
-250.049	16.049	-0.099	0.077
-249.034	-200.000	-0.030	-0.204
-248.019	-65.234	0.298	0.119
-247.005	-200.000	-0.010	-0.159
-245.990	84.098	0.087	0.095
-244.976	-93.510	0.315	0.086
-243.961	355.313	-0.112	-0.221
-242.946	113.395	0.306	0.369
-241.932	16.123	0.156	0.122
-240.917	-92.122	0.268	0.075
-239.903	638.242	0.095	-0.239
-238.888	-115.711	0.620	0.115
-237.873	105.268	0.118	-0.138
-236.859	479.423	0.103	0.231
-235.844	-200.000	-0.018	-0.268
-234.830	775.092	-0.052	-0.140
-233.815	-109.214	0.189	0.040
-232.800	101.301	0.054	-0.062
-231.786	210.572	0.105	-0.164
-230.771	-200.000	-0.010	0.184
-229.757	800.000	0.031	-0.092
-228.742	283.392	0.046	0.082
-227.727	-109.418	0.356	-0.075
-226.713	800.000	0.051	0.152
-225.698	561.224	-0.017	0.041
-224.684	167.214	0.084	-0.119
-223.669	-64.065	-0.361	0.146
-222.655	-200.000	-0.066	-0.659
-221.640	-83.598	0.297	-0.094
-220.625	182.271	0.128	0.188
-219.611	163.593	-0.178	-0.248
-218.596	-129.774	0.110	-0.015
-217.582	-95.590	0.354	-0.094
-216.567	75.146	0.121	-0.127
-215.552	378.432	-0.043	-0.087
-214.538	40.383	0.229	-0.205
-213.523	-142.541	-0.169	0.016
-212.509	-162.989	-0.384	-0.018
-211.494	7.687	0.203	0.151
-210.479	-83.392	-0.204	0.065
-209.465	-200.000	-0.002	0.166
-208.450	-120.758	0.216	-0.036
-207.436	-41.239	-0.264	0.135
-206.421	-95.754	0.393	-0.104
-205.406	82.383	0.146	0.157
-204.392	-142.897	-0.370	0.036
-203.377	-102.524	0.238	0.057
-202.363	-167.732	-0.270	-0.011
-201.348	-58.171	-0.024	-0.010
-200.333	-11.465	-0.342	-0.223
-199.319	-200.000	-0.013	0.582
-198.304	-123.632	-0.200	0.031
-197.290	139.027	-0.078	0.102
-196.275	729.551	0.049	0.131
-195.260	-125.928	0.088	0.013
-194.246	2.005	0.268	0.191
-193.231	462.638	-0.089	-0.197
-192.217	127.492	0.048	-0.061
-191.202	244.413	-0.132	-0.220
-190.187	-15.851	-0.167	-0.105
-189.173	-17.148	0.197	0.123
-188.158	800.000	0.111	0.392
-187.144	-158.985	-0.143	-0.008
-186.129	1.771	0.305	-0.218
-185.114	232.393	-0.210	0.341
-184.100	800.000	0.099	0.286
-183.085	702.146	0.102	-0.267
-182.071	-200.000	0.009	-0.225
-181.056	-200.000	0.046	-0.271
-180.042	225.156	-0.287	-0.460
-179.027	441.304	-0.114	0.247
-178.012	106.604	-0.202	-0.238
-176.998	-104.915	-0.169	0.038
-175.983	-200.000	-0.053	0.257
-174.969	146.808	0.130	0.173
-173.954	-63.508	-0.120	-0.049
-172.939	-70.830	0.283	-0.105
-171.925	261.500	-0.217	-0.373
-170.910	-62.087	0.336	-0.139
-169.896	383.075	-0.172	-0.351
-168.881	800.000	0.037	0.144
-167.866	-140.726	0.441	0.045
-166.852	400.958	-0.177	-0.367
-165.837	800.000	0.090	-0.275
-164.823	97.574	0.149	0.169
-163.808	221.032	-0.155	0.246
-162.793	-200.000	0.002	0.138
-161.779	354.067	-0.164	-0.322
-160.764	-56.527	-0.159	-0.070
-159.750	-88.005	0.275	0.082
-158.735	131.066	0.156	-0.199
-157.720	153.770	0.019	0.026
-156.706	800.000	-0.084	0.244
-155.691	-156.858	-0.121	0.007
-154.677	-50.404	-0.070	0.033
-153.662	-40.453	0.098	0.050
-152.647	19.761	-0.268	0.213
-151.633	73.024	0.143	0.148
-150.618	77.630	0.055	-0.058
-149.604	-200.000	-0.042	-0.414
-148.589	800.000	0.034	-0.111
-147.574	235.973	-0.137	0.224
-146.560	800.000	0.095	0.307
-145.545	-111.898	0.043	0.009
-144.531	-84.884	0.302	-0.094
-143.516	-154.637	0.060	0.004
-142.502	3.223	0.104	0.075
-141.487	30.679	0.083	-0.070
-140.472	585.791	0.132	-0.322
-139.458	-86.191	0.160	0.049
-138.443	2.142	-0.179	0.128
-137.429	-51.193	-0.342	0.158
-136.414	655.349	0.138	0.350
-135.399	19.365	-0.106	-0.084
-134.385	27.415	-0.093	0.077
-133.370	214.364	-0.138	-0.216
-132.356	-200.000	-0.010	-0.057
-131.341	469.990	0.040	-0.088
-130.326	123.148	0.136	0.169
-129.312	-32.679	0.180	-0.099
-128.297	197.310	0.093	-0.140
-127.283	-200.000	0.053	0.244
-126.268	800.000	0.115	0.339
-125.253	-52.825	-0.146	0.066
-124.239	-159.610	-0.222	-0.012
-123.224	-73.372	-0.266	0.096
-122.210	-200.000	-0.044	-0.309
-121.195	112.929	0.095	-0.114
