DTS Sentinel unit serial number:	SN413079Multiplexer serial number:	ORYXHardware model number:	OX4-SRSoftware version number:	ORYX F/W v4.00 Oryx Data Collector v3.7.2.0data status	okinstallation	princeton_trtdifferential loss correction	single-endedforward channel	channel 2reverse channel	N/Adate	2019/09/11time	13:45:11forward acquisition time	60.00reverse acquisition time	0.00gamma	496.2192k internal	0.2293k external	0.2293temperature offset calibration	1.0004default loss term (dB/km)	0.3790temperature slope calibration	1.0000multiplexer offset coefficient	1.0000multiplexer slope coefficient	1.0000fibre end	0.00T internal ref (°C)	41.94T ext. ref 1 (°C)	0.84T ext. ref 2 (°C)	36.27length (m)	temperature (°C)	Stokes	anti-Stokes-747.200	-24.088	-0.076	0.047
-746.185	-200.000	-0.001	0.274
-745.171	-25.555	-0.308	-0.186
-744.156	-200.000	0.099	0.446
-743.142	-25.604	-0.235	0.142
-742.127	800.000	-0.048	0.139
-741.112	466.002	0.084	-0.192
-740.098	72.776	-0.234	0.250
-739.083	800.000	0.121	-0.378
-738.069	89.598	-0.104	0.119
-737.054	-111.649	0.097	-0.020
-736.039	-74.174	-0.267	-0.099
-735.025	110.867	0.090	0.110
-734.010	-200.000	0.007	-0.146
-732.996	781.071	-0.061	0.171
-731.981	39.973	-0.200	-0.184
-730.966	-103.115	0.080	0.019
-729.952	-106.166	-0.379	0.087
-728.937	-9.141	-0.037	-0.025
-727.923	-200.000	0.014	0.267
-726.908	-17.023	-0.028	-0.018
-725.894	-200.000	-0.018	-0.421
-724.879	397.126	-0.063	-0.135
-723.864	-163.649	0.083	0.004
-722.850	47.421	-0.096	-0.091
-721.835	406.343	-0.023	0.050
-720.821	27.664	0.135	-0.116
-719.806	-200.000	-0.017	0.164
-718.791	1.315	0.174	0.127
-717.777	-200.000	0.015	-0.103
-716.762	-200.000	-0.072	-0.455
-715.748	-200.000	0.022	-0.140
-714.733	-166.570	-0.265	0.011
-713.718	800.000	0.091	0.313
-712.704	-120.666	-0.268	0.046
-711.689	800.000	0.063	0.188
-710.675	800.000	0.082	-0.259
-709.660	64.314	-0.273	0.281
-708.645	800.000	0.082	-0.236
-707.631	-95.870	0.279	0.076
-706.616	-129.372	-0.305	-0.043
-705.602	-58.824	-0.173	0.077
-704.587	-59.283	-0.218	0.096
-703.572	-59.537	-0.301	-0.132
-702.558	182.498	-0.090	-0.135
-701.543	137.984	-0.215	0.288
-700.529	800.000	0.019	0.055
-699.514	101.592	-0.190	-0.227
-698.499	110.993	-0.173	0.213
-697.485	12.424	-0.374	-0.294
-696.470	-200.000	0.051	-0.555
-695.456	364.432	0.103	0.211
-694.441	800.000	-0.078	0.223
-693.426	79.127	-0.192	0.210
-692.412	-109.946	0.213	0.046
-691.397	-67.884	0.133	0.053
-690.383	203.367	0.070	0.110
-689.368	-145.183	0.301	-0.028
-688.354	-200.000	-0.009	-0.107
-687.339	-112.539	-0.092	0.019
-686.324	207.471	0.176	-0.280
-685.310	95.279	0.169	-0.196
-684.295	800.000	0.035	-0.127
-683.281	27.417	0.129	-0.111
-682.266	131.220	-0.155	-0.203
-681.251	20.488	0.184	0.152
-680.237	800.000	0.140	0.420
-679.222	52.252	-0.169	-0.165
-678.208	299.237	0.248	-0.465
-677.193	-200.000	0.022	-0.265
-676.178	-200.000	0.216	0.000
-675.164	-200.000	0.037	0.178
-674.149	229.298	0.180	-0.300
-673.135	394.219	0.213	-0.452
-672.120	-69.292	-0.192	0.075
-671.105	-66.441	-0.250	-0.101
-670.091	171.625	-0.113	-0.165
-669.076	401.661	0.060	0.129
-668.062	-127.280	-0.509	0.076
-667.047	-200.000	0.060	0.363
-666.032	-200.000	0.034	0.427
-665.018	-200.000	-0.002	0.112
-664.003	463.774	0.032	0.074
-662.989	-108.457	-0.267	-0.059
-661.974	-200.000	-0.018	-0.102
-660.959	-60.075	-0.435	0.189
-659.945	-169.704	-0.370	0.014
-658.930	213.273	0.119	-0.191
-657.916	702.833	-0.090	-0.243
-656.901	-200.000	-0.039	-0.282
-655.886	-200.000	0.039	-0.293
-654.872	-30.191	-0.151	0.087
-653.857	-148.620	0.412	-0.034
-652.843	191.583	-0.208	0.319
-651.828	142.477	0.223	-0.302
-650.814	-144.219	-0.315	-0.030
-649.799	138.399	-0.079	0.106
-648.784	-82.633	-0.231	-0.076
-647.770	-34.554	-0.130	0.073
-646.755	-93.162	0.281	-0.080
-645.741	-200.000	-0.012	-0.107
-644.726	133.890	-0.142	-0.187
-643.711	-200.000	-0.034	-0.289
-642.697	118.519	0.195	-0.245
-641.682	-200.000	-0.000	0.083
-640.668	-58.722	-0.180	0.080
-639.653	502.233	0.051	-0.121
-638.638	12.853	0.090	-0.071
-637.624	-57.973	0.053	0.024
-636.609	338.392	0.080	0.158
-635.595	398.431	-0.108	0.230
-634.580	-200.000	-0.019	-0.224
-633.565	-107.083	0.133	0.030
-632.551	44.849	-0.211	0.197
-631.536	-1.727	-0.057	0.041
-630.522	15.378	-0.051	-0.041
-629.507	30.817	0.361	-0.315
-628.492	-78.137	-0.033	0.012
-627.478	40.435	0.071	0.065
-626.463	-80.316	-0.225	0.077
-625.449	-200.000	0.002	-0.321
-624.434	-82.500	0.133	0.044
-623.419	800.000	-0.065	-0.230
-622.405	-200.000	-0.052	-0.237
-621.390	47.692	-0.145	-0.137
-620.376	-137.218	-0.229	-0.027
-619.361	-200.000	0.019	0.236
-618.346	307.326	-0.044	-0.083
-617.332	167.879	-0.101	0.147
-616.317	-21.522	0.114	0.071
-615.303	-37.904	-0.254	0.137
-614.288	26.238	0.171	0.145
-613.273	-110.951	0.460	0.096
-612.259	-57.443	0.286	-0.128
-611.244	146.109	0.078	-0.106
-610.230	-200.000	0.049	-0.303
-609.215	800.000	0.064	0.277
-608.201	-200.000	-0.003	0.023
-607.186	163.835	0.123	0.176
-606.171	-108.030	-0.271	0.060
-605.157	800.000	0.054	0.238
-604.142	-0.060	0.272	0.197
-603.128	635.303	-0.200	-0.517
-602.113	150.788	0.183	-0.253
-601.098	-46.665	0.045	-0.023
-600.084	800.000	-0.017	-0.060
-599.069	-124.881	0.395	0.062
-598.055	144.945	0.111	0.151
-597.040	800.000	0.026	-0.103
-596.025	126.505	0.109	-0.140
-595.011	-47.323	0.393	0.195
-593.996	800.000	0.112	-0.359
-592.982	-152.517	-0.428	0.031
-591.967	523.358	-0.088	0.210
-590.952	-85.258	0.241	-0.077
-589.938	135.050	-0.237	-0.314
-588.923	-17.113	-0.036	0.023
-587.909	-200.000	-0.033	0.148
-586.894	-41.019	0.114	-0.060
-585.879	-24.514	0.226	0.137
-584.865	-200.000	-0.054	0.254
-583.850	-77.366	0.155	-0.055
-582.836	-110.154	-0.062	0.013
-581.821	-200.000	-0.019	0.412
-580.806	-200.000	0.035	0.195
-579.792	-200.000	0.016	0.140
-578.777	260.003	-0.184	0.323
-577.763	49.087	0.084	-0.080
-576.748	26.499	-0.235	-0.200
-575.733	139.263	0.053	-0.072
-574.719	800.000	0.043	-0.182
-573.704	800.000	0.025	0.094
-572.690	-33.178	-0.014	0.008
-571.675	-82.251	-0.075	0.025
-570.661	-105.642	-0.273	0.063
-569.646	-30.210	0.069	0.040
-568.631	-137.867	-0.171	-0.019
-567.617	253.050	0.017	-0.029
-566.602	-200.000	0.019	0.303
-565.588	-87.056	-0.241	-0.074
-564.573	336.955	0.082	-0.162
-563.558	-72.009	-0.181	0.068
-562.544	800.000	0.066	0.201
-561.529	-69.449	0.204	0.080
-560.515	-134.715	0.310	0.038
-559.500	-65.176	-0.205	0.084
-558.485	800.000	0.038	-0.167
-557.471	-200.000	-0.014	-0.098
-556.456	800.000	0.077	-0.325
-555.442	-165.853	-0.231	0.010
-554.427	-102.624	0.281	-0.068
-553.412	30.562	0.160	0.139
-552.398	369.639	0.123	-0.252
-551.383	-16.961	-0.290	-0.186
-550.369	-134.891	-0.333	-0.041
-549.354	800.000	0.020	-0.080
-548.339	-31.996	0.235	0.134
-547.325	103.280	-0.115	0.137
-546.310	-103.254	-0.097	0.023
-545.296	-83.704	0.115	0.037
-544.281	-200.000	0.060	-0.411
-543.266	28.332	0.244	-0.209
-542.252	-167.163	-0.230	-0.009
-541.237	-200.000	0.015	0.073
-540.223	-134.314	0.041	0.005
-539.208	-155.598	0.209	-0.014
-538.193	800.000	-0.141	-0.421
-537.179	-55.023	-0.310	0.142
-536.164	-200.000	0.014	0.105
-535.150	-200.000	-0.034	-0.214
-534.135	-23.187	-0.216	0.132
-533.121	158.939	-0.062	-0.088
-532.106	-108.259	-0.129	-0.028
-531.091	-43.202	0.111	-0.057
-530.077	-200.000	-0.007	-0.221
-529.062	-131.289	0.490	-0.066
-528.048	51.008	-0.032	0.031
-527.033	449.205	0.133	-0.297
-526.018	-120.002	0.256	-0.044
-525.004	800.000	-0.158	0.454
-523.989	-175.973	-0.348	0.009
-522.975	-15.724	0.206	0.133
-521.960	-103.584	0.387	-0.092
-520.945	-200.000	-0.013	-0.287
-519.931	161.148	-0.127	-0.181
-518.916	42.164	0.134	0.124
-517.902	-119.963	-0.303	-0.053
-516.887	-183.729	0.275	-0.005
-515.872	-24.614	0.230	0.139
-514.858	-139.023	-0.167	-0.018
-513.843	61.287	-0.301	-0.303
-512.829	109.355	-0.117	0.142
-511.814	800.000	-0.046	-0.162
-510.799	-200.000	-0.015	0.251
-509.785	58.825	0.107	0.106
-508.770	-200.000	0.022	0.419
-507.756	800.000	0.058	0.199
-506.741	-41.651	-0.237	-0.124
-505.726	-22.955	-0.173	0.106
-504.712	70.478	0.094	0.099
-503.697	97.795	-0.086	0.100
-502.683	-200.000	0.017	0.261
-501.668	111.759	0.059	-0.072
-500.653	265.857	0.160	-0.283
-499.639	-70.898	-0.221	0.084
-498.624	-135.733	0.251	0.030
-497.610	353.712	-0.076	-0.154
-496.595	-10.287	-0.051	0.035
-495.581	103.276	-0.036	0.043
-494.566	470.319	-0.076	0.174
-493.551	-50.153	-0.079	-0.038
-492.537	-200.000	0.009	0.162
-491.522	800.000	0.017	0.071
-490.508	290.387	0.059	0.109
-489.493	-200.000	-0.036	0.344
-488.478	-27.077	-0.063	-0.037
-487.464	800.000	-0.172	0.485
-486.449	800.000	0.022	0.085
-485.435	93.550	-0.102	-0.116
-484.420	-132.180	0.202	0.027
-483.405	-200.000	0.012	0.343
-482.391	800.000	0.095	-0.355
-481.376	-187.044	0.065	0.001
-480.362	800.000	-0.094	0.309
-479.347	56.584	-0.085	-0.084
-478.332	800.000	-0.087	-0.244
-477.318	-100.388	0.142	-0.036
-476.303	800.000	-0.167	-0.561
-475.289	-200.000	0.020	-0.284
-474.274	-56.722	0.334	-0.150
-473.259	203.507	0.114	0.179
-472.245	45.968	0.006	0.005
-471.230	-200.000	0.021	-0.098
-470.216	3.187	-0.195	0.144
-469.201	379.931	-0.153	-0.318
-468.186	432.385	0.049	-0.109
-467.172	99.566	-0.046	-0.054
-466.157	60.540	0.276	-0.277
-465.143	11.804	-0.179	0.139
-464.128	216.494	-0.151	-0.242
-463.113	70.224	-0.101	0.105
-462.099	7.843	-0.068	0.051
-461.084	800.000	-0.031	0.123
-460.070	-200.000	-0.011	-0.077
-459.055	293.525	0.072	-0.133
-458.040	-85.642	-0.158	-0.050
-457.026	800.000	-0.069	0.228
-456.011	671.001	0.051	0.133
-454.997	800.000	-0.097	-0.278
-453.982	236.853	0.219	-0.367
-452.968	71.390	0.070	0.073
-451.953	-36.206	-0.382	-0.209
-450.938	156.519	-0.157	-0.219
-449.924	231.251	-0.180	0.299
-448.909	-146.765	0.115	-0.010
-447.895	-103.951	-0.091	-0.022
-446.880	46.783	-0.146	-0.137
-445.865	-200.000	0.014	0.087
-444.851	531.905	0.150	0.358
-443.836	-67.718	0.062	-0.025
-442.822	34.847	-0.141	-0.125
-441.807	-200.000	0.004	-0.050
-440.792	800.000	-0.049	0.165
-439.778	-25.808	-0.176	-0.105
-438.763	61.235	0.140	-0.140
-437.749	-93.618	0.089	0.025
-436.734	800.000	-0.068	0.252
-435.719	-87.397	-0.074	-0.023
-434.705	315.985	0.062	0.117
-433.690	412.459	-0.144	-0.310
-432.676	-82.428	0.122	0.040
-431.661	2.308	-0.232	-0.170
-430.646	-200.000	-0.021	-0.135
-429.632	-97.750	0.293	0.077
-428.617	-50.042	0.245	0.117
-427.603	-74.192	-0.245	0.090
-426.588	-200.000	0.003	-0.058
-425.573	20.318	-0.318	0.259
-424.559	-4.831	0.262	0.183
-423.544	580.027	-0.118	0.291
-422.530	800.000	-0.025	-0.090
-421.515	-200.000	0.011	0.131
-420.500	800.000	0.085	0.241
-419.486	-27.757	0.214	-0.126
-418.471	-200.000	0.014	0.111
-417.457	214.356	0.059	0.095
-416.442	-87.658	0.183	0.056
-415.428	-200.000	-0.001	-0.078
-414.413	-200.000	0.024	0.205
-413.398	-99.200	-0.191	0.049
-412.384	800.000	-0.114	-0.395
-411.369	800.000	-0.076	-0.291
-410.355	-6.119	0.201	0.139
-409.340	-23.889	-0.216	0.131
-408.325	-89.717	-0.244	-0.072
-407.311	150.461	0.155	0.212
-406.296	194.817	0.112	-0.171
-405.282	-200.000	-0.035	0.165
-404.267	-23.902	0.296	-0.179
-403.252	-144.918	0.230	-0.021
-402.238	-200.000	-0.014	-0.272
-401.223	-141.986	-0.040	-0.004
-400.209	-74.580	-0.414	-0.150
-399.194	16.604	0.280	0.224
-398.179	-200.000	-0.005	0.030
-397.165	-14.184	-0.226	-0.147
-396.150	60.343	-0.059	-0.059
-395.136	-200.000	0.002	0.021
-394.121	-200.000	0.039	0.322
-393.106	-51.403	-0.225	0.106
-392.092	800.000	-0.088	-0.360
-391.077	-41.122	-0.186	-0.097
-390.063	599.282	0.049	-0.123
-389.048	63.017	0.136	-0.137
-388.033	-40.036	0.219	-0.115
-387.019	800.000	-0.133	-0.424
-386.004	-100.471	0.472	0.118
-384.990	19.805	0.026	-0.022
-383.975	104.356	-0.119	0.142
-382.960	-91.010	-0.277	-0.080
-381.946	-155.779	-0.276	-0.018
-380.931	-63.412	0.357	-0.148
-379.917	800.000	-0.102	-0.326
-378.902	-200.000	0.050	-0.234
-377.888	-187.267	0.240	0.003
-376.873	800.000	-0.059	-0.253
-375.858	151.368	-0.154	-0.212
-374.844	-23.853	0.153	0.092
-373.829	325.007	-0.075	0.145
-372.815	-62.197	-0.193	0.081
-371.800	-81.485	-0.129	0.043
-370.785	-110.020	-0.079	0.017
-369.771	-38.153	-0.089	0.048
-368.756	-200.000	-0.014	0.235
-367.742	-134.355	-0.211	0.026
-366.727	-137.730	0.177	0.020
-365.712	-200.000	-0.010	-0.181
-364.698	41.947	-0.135	-0.123
-363.683	-102.714	0.081	-0.019
-362.669	-97.072	-0.258	-0.068
-361.654	-116.535	0.105	-0.020
-360.639	-97.321	-0.185	0.049
-359.625	-20.118	0.079	-0.049
-358.610	790.980	-0.060	-0.167
-357.596	-144.979	-0.153	0.014
-356.581	45.615	-0.042	0.039
-355.566	-57.172	-0.221	-0.098
-354.552	102.016	-0.234	-0.275
-353.537	-52.227	-0.069	-0.032
-352.523	-52.170	0.284	0.133
-351.508	-200.000	-0.002	0.176
-350.493	159.069	0.126	0.176
-349.479	27.966	0.202	-0.172
-348.464	-88.273	-0.063	0.019
-347.450	12.352	0.088	-0.068
-346.435	441.947	-0.172	-0.379
-345.420	-12.748	0.169	-0.111
-344.406	644.887	-0.084	-0.216
-343.391	800.000	-0.044	-0.154
-342.377	58.750	-0.193	-0.191
-341.362	-10.483	-0.312	-0.208
-340.348	-200.000	0.002	0.271
-339.333	-200.000	-0.026	-0.375
-338.318	-89.616	-0.450	-0.133
-337.304	-4.043	0.090	-0.063
-336.289	-43.724	0.126	-0.064
-335.275	-117.769	0.434	0.079
-334.260	-73.466	0.265	-0.097
-333.245	-72.645	0.425	-0.158
-332.231	-90.907	-0.411	-0.119
-331.216	506.441	0.088	0.206
-330.202	-86.153	0.231	0.072
-329.187	-42.192	-0.310	0.159
-328.172	-118.334	0.131	-0.023
-327.158	-179.394	0.039	-0.001
-326.143	-146.196	0.007	-0.001
-325.129	340.227	0.302	0.593
-324.114	800.000	0.124	0.391
-323.099	96.417	-0.208	-0.239
-322.085	-18.641	0.344	0.216
-321.070	11.591	-0.106	-0.082
-320.056	356.242	-0.163	0.326
-319.041	-48.237	-0.231	0.112
-318.026	181.666	-0.174	0.257
-317.012	274.548	-0.086	-0.154
-315.997	312.465	0.170	0.322
-314.983	-200.000	0.031	0.246
-313.968	800.000	-0.058	0.187
-312.953	-67.790	0.112	0.044
-311.939	243.861	0.121	-0.204
-310.924	-28.484	0.450	0.261
-309.910	50.756	0.155	-0.147
-308.895	44.766	0.212	0.196
-307.880	-77.413	0.029	0.010
-306.866	800.000	-0.049	-0.181
-305.851	-200.000	0.027	0.143
-304.837	-200.000	-0.009	0.229
-303.822	319.000	-0.075	0.142
-302.807	-64.916	0.181	0.073
-301.793	-43.258	0.129	-0.066
-300.778	800.000	0.072	0.268
-299.764	-128.260	-0.095	-0.014
-298.749	-151.574	0.311	-0.023
-297.735	800.000	0.114	0.447
-296.720	-185.239	-0.373	0.006
-295.705	73.183	0.343	-0.360
-294.691	-33.289	0.243	0.135
-293.676	-33.852	0.385	-0.213
-292.662	800.000	0.024	0.090
-291.647	-200.000	-0.004	0.121
-290.632	-101.081	-0.309	0.076
-289.618	-200.000	-0.005	-0.097
-288.603	-44.716	0.412	0.207
-287.589	68.809	-0.248	0.256
-286.574	1.915	-0.201	0.146
-285.559	90.277	-0.181	0.203
-284.545	-62.878	0.101	-0.042
-283.530	800.000	-0.076	-0.232
-282.516	296.011	-0.053	0.097
-281.501	262.907	0.094	0.164
-280.486	-200.000	0.006	0.154
-279.472	-200.000	0.079	-0.393
-278.457	-63.734	-0.045	0.019
-277.443	-36.455	0.222	0.120
-276.428	623.918	-0.114	-0.290
-275.413	-1.650	-0.126	0.089
-274.399	-89.038	0.319	-0.095
-273.384	-114.420	-0.253	-0.049
-272.370	490.625	0.162	0.372
-271.355	-169.212	-0.076	0.003
-270.340	356.745	-0.096	-0.193
-269.326	-0.969	-0.120	-0.085
-268.311	-2.750	-0.207	-0.145
-267.297	-200.000	0.046	0.357
-266.282	340.880	-0.113	0.222
-265.267	-56.570	-0.121	0.054
-264.253	54.681	-0.072	0.069
-263.238	120.696	0.182	-0.227
-262.224	172.967	0.162	-0.234
-261.209	375.843	0.071	-0.146
-260.195	-82.098	-0.406	-0.133
-259.180	8.569	-0.207	0.156
-258.165	80.452	-0.193	0.209
-257.151	-121.379	-0.398	-0.067
-256.136	-200.000	-0.150	-0.001
-255.122	-200.000	0.030	0.406
-254.107	-200.000	0.013	0.084
-253.092	1.019	0.181	0.131
-252.078	-153.821	-0.093	0.006
-251.063	-151.126	0.203	0.015
-250.049	-122.436	-0.164	0.027
-249.034	256.894	-0.090	-0.156
-248.019	-200.000	-0.015	-0.241
-247.005	800.000	-0.051	-0.171
-245.990	-130.407	-0.152	0.021
-244.976	-78.391	-0.224	-0.077
-243.961	-55.701	-0.225	-0.101
-242.946	-200.000	0.020	0.160
-241.932	800.000	-0.024	-0.079
-240.917	800.000	0.061	-0.176
-239.903	238.729	0.075	0.126
-238.888	-99.841	-0.015	0.004
-237.873	29.054	-0.061	-0.052
-236.859	-104.285	-0.415	0.097
-235.844	165.251	0.179	0.253
-234.830	-112.986	0.190	0.038
-233.815	-142.612	-0.054	-0.005
-232.800	487.218	-0.079	0.180
-231.786	-104.572	0.375	0.087
-230.771	-85.348	-0.018	-0.006
-229.757	-200.000	-0.061	0.303
-228.742	-132.631	-0.298	-0.038
-227.727	395.630	-0.073	-0.152
-226.713	-200.000	-0.056	0.258
-225.698	-200.000	0.009	-0.288
-224.684	-118.693	0.227	0.040
-223.669	-66.216	-0.226	0.090
-222.655	120.997	0.327	0.407
-221.640	615.279	0.095	-0.239
-220.625	800.000	0.043	-0.185
-219.611	-94.188	-0.484	-0.133
-218.596	79.534	0.052	-0.056
-217.582	236.663	0.079	-0.132
-216.567	-113.676	0.312	0.061
-215.552	-77.766	-0.064	0.022
-214.538	7.311	-0.140	-0.104
-213.523	253.455	0.117	-0.201
-212.509	199.123	-0.136	0.209
-211.494	-159.988	-0.307	0.017
-210.479	-100.591	0.114	0.028
-209.465	800.000	-0.055	0.238
-208.450	76.620	-0.226	0.240
-207.436	-76.936	0.088	0.031
-206.421	30.691	0.098	-0.084
-205.406	48.431	0.189	-0.178
-204.392	-0.238	0.208	0.148
-203.377	286.012	0.117	-0.211
-202.363	533.552	-0.058	-0.138
-201.348	328.987	0.096	0.184
-200.333	-200.000	0.015	0.236
-199.319	-200.000	0.039	-0.201
-198.304	-137.008	-0.366	-0.042
-197.290	-68.464	-0.202	0.079
-196.275	32.016	0.235	0.203
-195.260	28.200	0.090	0.076
-194.246	-200.000	-0.025	0.272
-193.231	236.842	-0.121	0.201
-192.217	0.406	-0.095	0.068
-191.202	-200.000	-0.025	-0.140
-190.187	-146.192	-0.202	0.018
-189.173	-82.452	-0.115	0.037
-188.158	-55.956	0.166	0.074
-187.144	800.000	0.076	-0.274
-186.129	-48.567	-0.042	-0.020
-185.114	7.113	0.233	0.174
-184.100	-127.976	-0.219	0.031
-183.085	-7.385	-0.267	-0.181
-182.071	-200.000	0.030	-0.239
-181.056	-102.591	0.112	0.027
-180.042	-104.982	0.416	-0.095
-179.027	-62.534	0.296	-0.123
-178.012	113.088	0.082	0.099
-176.998	-146.452	0.031	0.003
-175.983	-200.000	0.002	-0.576
-174.969	-81.348	-0.354	-0.117
-173.954	135.932	0.285	0.372
-172.939	106.675	0.258	0.306
-171.925	-200.000	0.030	-0.365
-170.910	-200.000	-0.021	-0.188
-169.896	-190.146	0.080	-0.001
-168.881	-31.381	-0.143	-0.081
-167.866	32.909	-0.128	0.111
-166.852	-200.000	0.043	0.246
-165.837	142.159	-0.188	-0.250
-164.823	22.693	0.235	0.192
-163.808	-93.309	-0.105	0.029
-162.793	-200.000	0.157	-0.000
-161.779	-200.000	-0.011	0.061
-160.764	-200.000	0.006	0.135
-159.750	228.193	-0.037	-0.061
-158.735	-200.000	0.051	0.448
-157.720	-72.010	0.411	0.153
-156.706	800.000	0.073	-0.236
-155.691	-10.346	0.276	-0.183
-154.677	-20.238	0.125	0.077
-153.662	800.000	0.114	-0.317
-152.647	109.763	-0.060	0.071
-151.633	166.123	0.132	0.187
-150.618	-115.817	0.016	0.003
-149.604	67.099	-0.051	-0.052
-148.589	292.074	0.124	-0.227
-147.574	12.014	-0.034	0.026
-146.560	-200.000	-0.021	-0.199
-145.545	718.951	-0.029	0.077
-144.531	-200.000	0.003	0.119
-143.516	-18.628	0.165	-0.103
-142.502	384.037	0.071	0.146
-141.487	81.735	0.248	0.268
-140.472	-86.501	-0.067	0.020
-139.458	99.745	-0.059	-0.068
-138.443	-101.896	0.337	0.081
-137.429	198.929	-0.089	0.136
-136.414	-126.060	-0.129	-0.019
-135.399	-200.000	0.038	0.198
-134.385	49.029	0.307	-0.288
-133.370	-140.894	-0.225	-0.023
-132.356	-200.000	0.022	-0.100
-131.341	-62.643	0.177	-0.073
-130.326	-200.000	0.002	0.035
-129.312	-115.537	-0.151	0.028
-128.297	174.529	-0.065	0.094
-127.283	288.720	0.101	0.183
-126.268	-39.040	-0.395	0.208
-125.253	68.214	-0.114	0.116
-124.239	192.962	-0.168	-0.254
-123.224	-75.683	-0.039	-0.014
-122.210	-162.158	-0.039	0.002
