DTS Sentinel unit serial number:	SN413079Multiplexer serial number:	ORYXHardware model number:	OX4-SRSoftware version number:	ORYX F/W v4.00 Oryx Data Collector v3.7.2.0data status	okinstallation	princeton_trtdifferential loss correction	single-endedforward channel	channel 2reverse channel	N/Adate	2019/09/15time	07:31:34forward acquisition time	60.00reverse acquisition time	0.00gamma	496.2192k internal	0.2326k external	0.2326temperature offset calibration	1.0031default loss term (dB/km)	0.3790temperature slope calibration	1.0000multiplexer offset coefficient	1.0000multiplexer slope coefficient	1.0000fibre end	0.00T internal ref (°C)	30.62T ext. ref 1 (°C)	4.94T ext. ref 2 (°C)	25.50length (m)	temperature (°C)	Stokes	anti-Stokes-747.200	-123.041	-0.321	-0.052
-746.185	800.000	0.097	0.290
-745.171	132.468	-0.115	0.149
-744.156	800.000	-0.056	-0.175
-743.142	62.865	-0.018	0.018
-742.127	-20.083	-0.157	0.097
-741.112	98.023	0.160	0.186
-740.098	-152.771	-0.138	-0.010
-739.083	-200.000	-0.010	0.289
-738.069	-200.000	-0.064	-0.406
-737.054	-200.000	0.074	-0.456
-736.039	-69.597	-0.448	-0.173
-735.025	306.392	-0.095	0.178
-734.010	285.851	-0.175	-0.318
-732.996	64.401	-0.267	-0.271
-731.981	252.652	-0.153	-0.263
-730.966	20.128	0.051	0.041
-729.952	800.000	-0.059	0.182
-728.937	-200.000	0.075	0.467
-727.923	-200.000	-0.003	0.089
-726.908	800.000	0.017	0.051
-725.894	-54.010	0.228	-0.104
-724.879	15.241	0.086	-0.068
-723.864	-112.634	-0.200	-0.040
-722.850	-38.333	0.051	0.027
-721.835	-131.374	-0.387	0.052
-720.821	800.000	-0.024	-0.076
-719.806	-96.739	-0.458	-0.121
-718.791	366.171	0.085	-0.173
-717.777	-40.190	-0.232	-0.122
-716.762	493.177	-0.066	0.151
-715.748	-76.481	0.189	-0.067
-714.733	318.753	-0.164	-0.313
-713.718	-124.564	-0.157	0.024
-712.704	-107.405	-0.233	-0.051
-711.689	32.437	0.182	-0.158
-710.675	-200.000	0.018	-0.240
-709.660	-110.683	0.351	-0.073
-708.645	16.960	-0.295	0.235
-707.631	-37.871	0.189	0.101
-706.616	85.358	0.136	-0.151
-705.602	-21.772	0.179	0.110
-704.587	22.243	-0.360	0.296
-703.572	-79.089	-0.203	0.069
-702.558	-80.645	-0.161	-0.054
-701.543	106.940	0.142	-0.170
-700.529	-200.000	0.064	-0.410
-699.514	-200.000	-0.012	0.142
-698.499	287.276	0.214	0.390
-697.485	-31.577	0.328	-0.185
-696.470	-138.723	0.485	-0.053
-695.456	538.615	0.080	0.192
-694.441	-192.528	-0.081	0.001
-693.426	-58.365	-0.188	-0.082
-692.412	33.081	0.221	-0.193
-691.397	800.000	0.140	-0.402
-690.383	-200.000	-0.108	-0.640
-689.368	-0.122	-0.158	-0.113
-688.354	-57.749	0.191	0.084
-687.339	224.545	-0.177	0.287
-686.324	-45.424	-0.149	-0.074
-685.310	603.906	0.114	-0.286
-684.295	215.734	0.287	0.458
-683.281	-6.439	0.085	0.059
-682.266	-154.131	-0.100	-0.007
-681.251	744.899	0.186	-0.503
-680.237	-67.682	-0.042	-0.017
-679.222	-88.465	0.169	-0.051
-678.208	-200.000	0.048	0.261
-677.193	-1.461	-0.171	-0.121
-676.178	10.713	-0.381	-0.292
-675.164	-36.092	0.045	-0.025
-674.149	-200.000	0.073	0.350
-673.135	131.269	0.099	0.128
-672.120	220.318	-0.196	-0.316
-671.105	-3.568	0.293	-0.205
-670.091	74.157	-0.063	-0.067
-669.076	-56.801	0.160	0.071
-668.062	62.141	0.098	-0.098
-667.047	393.571	0.191	-0.399
-666.032	-97.338	0.163	0.043
-665.018	-200.000	-0.005	-0.120
-664.003	-21.605	-0.066	-0.041
-662.989	-108.637	0.210	0.045
-661.974	103.904	-0.122	-0.144
-660.959	343.404	-0.085	0.167
-659.945	-200.000	-0.001	0.035
-658.930	332.554	-0.115	-0.224
-657.916	292.003	-0.026	-0.047
-656.901	-200.000	0.000	0.068
-655.886	42.814	-0.199	-0.182
-654.872	-200.000	-0.009	0.354
-653.857	-200.000	-0.002	0.023
-652.843	-200.000	0.015	-0.181
-651.828	480.155	0.051	-0.115
-650.814	-140.352	0.062	0.007
-649.799	800.000	-0.118	-0.411
-648.784	-200.000	-0.026	-0.342
-647.770	212.063	-0.137	0.216
-646.755	-132.645	-0.253	-0.033
-645.741	232.717	0.147	-0.243
-644.726	224.751	0.130	-0.212
-643.711	441.647	0.090	0.198
-642.697	-200.000	0.033	0.237
-641.682	-92.631	0.231	0.065
-640.668	357.995	-0.066	-0.132
-639.653	462.290	-0.055	-0.122
-638.638	-61.220	0.188	-0.080
-637.624	-102.896	-0.314	-0.075
-636.609	-200.000	0.007	0.182
-635.595	-189.358	-0.502	-0.006
-634.580	-200.000	-0.013	-0.092
-633.565	-150.769	-0.062	0.005
-632.551	-200.000	-0.095	0.426
-631.536	800.000	-0.052	0.190
-630.522	-48.171	0.077	0.037
-629.507	800.000	0.073	0.232
-628.492	-200.000	-0.031	0.164
-627.478	625.137	-0.062	-0.157
-626.463	-4.961	-0.242	0.167
-625.449	130.303	-0.105	-0.135
-624.434	-59.697	0.129	0.056
-623.419	-76.678	0.118	0.042
-622.405	-90.557	0.096	-0.028
-621.390	160.976	-0.179	-0.251
-620.376	-200.000	-0.001	0.114
-619.361	-171.938	-0.396	0.013
-618.346	-130.227	-0.112	-0.015
-617.332	204.487	0.100	-0.155
-616.317	-145.441	0.176	0.016
-615.303	-86.858	-0.324	0.099
-614.288	-123.949	0.375	-0.059
-613.273	197.022	0.077	0.118
-612.259	286.908	0.013	0.023
-611.244	21.854	-0.016	-0.013
-610.230	168.554	0.138	-0.198
-609.215	-78.006	0.199	-0.069
-608.201	-96.188	0.283	0.075
-607.186	-20.709	-0.292	-0.180
-606.171	-200.000	0.032	-0.209
-605.157	800.000	-0.020	0.081
-604.142	800.000	-0.066	-0.234
-603.128	132.317	-0.138	-0.179
-602.113	273.258	0.130	0.231
-601.098	-37.268	0.336	-0.180
-600.084	-200.000	-0.013	-0.168
-599.069	-58.567	-0.428	0.186
-598.055	22.900	0.363	-0.298
-597.040	108.125	0.056	-0.067
-596.025	52.251	0.130	-0.124
-595.011	-200.000	0.017	0.179
-593.996	255.760	0.126	-0.216
-592.982	-200.000	-0.094	-0.413
-591.967	41.418	-0.233	-0.211
-590.952	800.000	-0.074	-0.230
-589.938	20.969	-0.192	0.156
-588.923	-112.506	-0.184	-0.037
-587.909	-103.965	0.428	-0.100
-586.894	-24.746	-0.047	-0.028
-585.879	-68.068	-0.116	-0.045
-584.865	11.741	-0.223	-0.171
-583.850	6.389	-0.099	0.074
-582.836	800.000	0.082	0.301
-581.821	61.477	0.174	0.174
-580.806	-65.790	0.366	-0.147
-579.792	36.478	0.055	-0.049
-578.777	-89.029	0.157	-0.047
-577.763	-200.000	-0.033	-0.248
-576.748	771.466	0.050	-0.136
-575.733	196.835	0.175	-0.267
-574.719	-63.962	-0.202	0.083
-573.704	-75.585	0.064	0.023
-572.690	33.960	0.115	0.100
-571.675	-59.726	0.030	0.013
-570.661	-102.191	0.302	0.073
-569.646	75.027	-0.137	-0.144
-568.631	-32.045	0.324	-0.181
-567.617	484.656	-0.046	-0.104
-566.602	-200.000	0.004	0.029
-565.588	-123.467	-0.408	0.065
-564.573	-200.000	0.093	0.524
-563.558	33.422	-0.119	0.103
-562.544	-121.242	0.369	0.062
-561.529	800.000	0.054	0.207
-560.515	-100.558	0.227	-0.056
-559.500	-200.000	-0.029	-0.287
-558.485	-200.000	0.006	0.213
-557.471	-149.921	-0.385	-0.030
-556.456	84.273	0.143	0.157
-555.442	83.395	-0.161	0.176
-554.427	-112.716	-0.310	-0.062
-553.412	-100.443	0.042	0.010
-552.398	423.475	-0.133	-0.286
-551.383	-200.000	-0.038	0.170
-550.369	141.110	-0.346	-0.458
-549.354	-36.941	0.248	-0.133
-548.339	-30.903	-0.092	-0.052
-547.325	116.556	0.064	0.078
-546.310	705.742	0.107	0.282
-545.296	-57.488	0.109	0.048
-544.281	-200.000	-0.052	0.228
-543.266	-108.103	-0.187	0.041
-542.252	416.290	-0.069	-0.148
-541.237	21.233	-0.090	0.073
-540.223	393.795	0.234	-0.487
-539.208	166.691	-0.205	-0.290
-538.193	10.705	0.101	0.077
-537.179	-166.547	-0.230	-0.010
-536.164	105.599	0.132	0.156
-535.150	-71.737	0.134	0.050
-534.135	-69.528	-0.464	0.178
-533.121	456.614	0.095	-0.211
-532.106	81.224	-0.116	-0.125
-531.091	444.548	0.081	0.177
-530.077	486.951	0.080	0.182
-529.062	499.929	-0.139	-0.320
-528.048	-77.009	0.159	-0.056
-527.033	97.271	-0.141	-0.161
-526.018	725.845	0.106	0.283
-525.004	-33.865	-0.140	-0.077
-523.989	-200.000	0.010	-0.097
-522.975	357.797	-0.056	-0.113
-521.960	281.118	0.130	-0.232
-520.945	-127.576	-0.150	0.022
-519.931	-161.473	0.325	-0.017
-518.916	800.000	-0.059	0.170
-517.902	-47.234	0.341	0.166
-516.887	-144.694	-0.289	0.027
-515.872	-200.000	-0.021	0.124
-514.858	-72.009	-0.021	-0.008
-513.843	293.823	0.079	-0.144
-512.829	800.000	0.034	-0.111
-511.814	666.088	-0.081	0.209
-510.799	-4.376	-0.166	-0.114
-509.785	-51.243	0.223	0.105
-508.770	800.000	0.119	0.339
-507.756	-62.224	0.136	0.057
-506.741	800.000	0.057	0.207
-505.726	127.951	-0.198	0.252
-504.712	287.999	-0.122	0.220
-503.697	-52.665	0.376	-0.173
-502.683	-130.680	0.360	0.048
-501.668	-5.822	-0.245	-0.167
-500.653	-167.551	-0.141	-0.006
-499.639	-128.684	0.367	0.052
-498.624	-76.228	-0.144	0.051
-497.610	-200.000	0.026	-0.215
-496.595	800.000	-0.065	-0.220
-495.581	-200.000	0.067	-0.299
-494.566	-200.000	0.042	0.292
-493.551	116.298	-0.149	-0.182
-492.537	-151.724	-0.197	-0.015
-491.522	11.511	0.071	-0.054
-490.508	-15.576	-0.217	0.138
-489.493	-200.000	0.018	0.212
-488.478	51.279	0.208	-0.197
-487.464	-12.012	0.250	-0.164
-486.449	298.435	0.138	0.253
-485.435	64.593	-0.297	0.299
-484.420	-60.577	0.132	0.056
-483.405	-200.000	0.021	0.154
-482.391	-155.187	0.132	-0.009
-481.376	95.948	-0.074	0.085
-480.362	800.000	-0.055	0.174
-479.347	-200.000	0.001	-0.400
-478.332	-53.369	-0.178	-0.081
-477.318	-11.539	-0.124	-0.082
-476.303	800.000	0.101	-0.334
-475.289	80.789	0.222	-0.239
-474.274	-75.241	0.175	0.062
-473.259	114.442	0.209	-0.254
-472.245	716.259	-0.005	0.014
-471.230	-200.000	-0.011	-0.083
-470.216	-200.000	0.017	0.258
-469.201	54.534	0.139	-0.134
-468.186	800.000	-0.013	-0.051
-467.172	-101.417	0.195	-0.047
-466.157	-9.164	-0.079	-0.053
-465.143	-200.000	-0.006	0.244
-464.128	289.355	0.035	-0.063
-463.113	-119.027	0.229	-0.040
-462.099	-80.387	-0.403	0.134
-461.084	697.175	0.013	0.035
-460.070	-200.000	0.007	-0.060
-459.055	-74.726	-0.291	0.104
-458.040	164.615	0.158	-0.222
-457.026	-200.000	-0.030	-0.242
-456.011	294.883	-0.205	0.374
-454.997	80.762	0.133	0.143
-453.982	-173.171	-0.261	-0.008
-452.968	-95.256	-0.286	0.077
-451.953	227.498	0.152	-0.247
-450.938	430.356	0.104	0.224
-449.924	154.227	-0.358	-0.490
-448.909	54.983	0.116	-0.112
-447.895	340.647	0.026	-0.051
-446.880	69.266	-0.075	-0.077
-445.865	-51.146	0.089	-0.042
-444.851	124.140	0.115	-0.144
-443.836	-200.000	-0.009	-0.066
-442.822	-129.939	-0.436	0.059
-441.807	102.156	-0.171	0.199
-440.792	-12.364	0.172	0.112
-439.778	-23.428	0.160	-0.096
-438.763	-104.529	0.106	-0.024
-437.749	-16.656	-0.132	0.084
-436.734	71.441	0.112	-0.116
-435.719	800.000	-0.018	-0.061
-434.705	55.110	0.179	0.172
-433.690	800.000	-0.022	-0.072
-432.676	334.936	-0.023	0.045
-431.661	22.678	-0.286	-0.233
-430.646	800.000	-0.082	0.286
-429.632	800.000	-0.094	-0.276
-428.617	57.467	-0.292	-0.284
-427.603	-152.519	-0.306	0.022
-426.588	-70.297	0.080	0.030
-425.573	355.695	-0.083	-0.164
-424.559	-20.531	-0.095	0.058
-423.544	-200.000	-0.010	-0.045
-422.530	108.365	-0.237	0.282
-421.515	38.979	0.027	-0.024
-420.500	-142.321	-0.340	0.033
-419.486	28.841	0.249	-0.210
-418.471	-200.000	-0.026	0.117
-417.457	-13.928	-0.100	-0.064
-416.442	-135.046	0.018	-0.002
-415.428	-200.000	0.027	0.123
-414.413	-105.672	-0.285	-0.064
-413.398	60.366	-0.126	0.124
-412.384	-200.000	0.064	-0.293
-411.369	-122.936	0.286	-0.046
-410.355	800.000	-0.061	0.221
-409.340	-200.000	-0.036	0.361
-408.325	-23.643	0.219	0.131
-407.311	-193.465	0.227	0.002
-406.296	104.473	-0.193	0.227
-405.282	51.631	-0.145	0.137
-404.267	57.667	-0.142	0.138
-403.252	-80.586	-0.212	0.070
-402.238	707.477	0.071	-0.188
-401.223	-120.193	0.095	0.016
-400.209	30.167	0.221	0.188
-399.194	-88.779	0.078	0.023
-398.179	289.956	-0.050	-0.090
-397.165	136.871	0.085	0.111
-396.150	272.370	-0.093	0.164
-395.136	204.796	-0.258	-0.399
-394.121	-42.082	-0.212	-0.108
-393.106	-171.313	-0.319	-0.011
-392.092	-5.736	-0.466	0.318
-391.077	3.080	-0.181	0.131
-390.063	-86.420	0.266	-0.081
-389.048	800.000	0.076	-0.248
-388.033	615.881	-0.064	-0.159
-387.019	-74.806	-0.176	-0.063
-386.004	800.000	-0.097	0.313
-384.990	-200.000	0.028	-0.223
-383.975	236.564	0.090	-0.149
-382.960	122.316	-0.095	-0.119
-381.946	530.275	-0.047	0.111
-380.931	193.118	0.277	0.416
-379.917	779.704	-0.120	0.326
-378.902	-3.767	-0.160	-0.110
-377.888	-200.000	-0.005	-0.173
-376.873	-32.460	0.126	0.070
-375.858	144.050	0.273	0.362
-374.844	-16.142	0.174	0.110
-373.829	-83.454	-0.305	-0.097
-372.815	623.181	0.073	0.183
-371.800	686.698	0.055	0.144
-370.785	369.787	0.127	0.256
-369.771	745.830	-0.093	0.248
-368.756	-200.000	-0.010	0.240
-367.742	-89.694	0.252	-0.073
-366.727	157.510	0.054	0.074
-365.712	25.278	0.086	0.071
-364.698	43.176	-0.177	-0.160
-363.683	-38.916	-0.302	0.158
-362.669	-121.998	0.143	-0.023
-361.654	-200.000	0.008	0.068
-360.639	-60.343	-0.092	0.039
-359.625	69.179	0.062	-0.063
-358.610	18.515	-0.107	-0.085
-357.596	121.088	0.162	0.200
-356.581	221.016	-0.121	0.193
-355.566	364.595	0.132	-0.264
-354.552	-91.550	-0.090	-0.025
-353.537	-57.742	-0.021	-0.009
-352.523	51.660	0.140	-0.132
-351.508	800.000	0.039	0.135
-350.493	-200.000	0.077	0.362
-349.479	-17.392	0.159	0.099
-348.464	12.811	0.072	-0.055
-347.450	264.338	0.043	0.074
-346.435	-171.341	0.414	-0.014
-345.420	359.126	-0.098	-0.195
-344.406	251.393	-0.091	0.154
-343.391	3.998	-0.081	0.059
-342.377	-200.000	-0.033	0.148
-341.362	-127.661	-0.218	0.031
-340.348	374.739	0.153	0.310
-339.333	-116.183	0.141	-0.026
-338.318	14.333	0.184	0.142
-337.304	-78.109	-0.250	-0.085
-336.289	119.342	-0.108	0.133
-335.275	-68.411	0.154	0.059
-334.260	54.996	-0.086	-0.082
-333.245	-124.042	0.063	0.010
-332.231	-12.266	-0.182	0.118
-331.216	80.202	0.183	0.195
-330.202	468.885	0.060	-0.134
-329.187	-19.540	-0.034	0.021
-328.172	271.526	0.029	0.051
-327.158	430.681	-0.148	-0.318
-326.143	800.000	0.091	-0.279
-325.129	-200.000	-0.010	-0.133
-324.114	206.928	0.112	0.173
-323.099	-69.754	-0.480	-0.182
-322.085	-146.409	-0.319	0.028
-321.070	-66.106	-0.468	-0.185
-320.056	-200.000	-0.043	0.254
-319.041	247.545	0.014	0.024
-318.026	-47.184	0.232	0.112
-317.012	488.420	0.114	-0.257
-315.997	-88.039	-0.173	-0.051
-314.983	-200.000	0.001	0.165
-313.968	179.864	-0.177	0.257
-312.953	-168.675	-0.351	0.013
-311.939	18.667	0.381	-0.302
-310.924	47.754	0.113	0.105
-309.910	60.387	-0.298	0.293
-308.895	-111.486	-0.244	0.049
-307.880	340.217	0.125	-0.243
-306.866	26.060	-0.143	0.119
-305.851	-200.000	0.019	0.151
-304.837	130.683	-0.166	-0.211
-303.822	226.827	0.050	0.080
-302.807	-180.084	-0.395	-0.008
-301.793	368.504	-0.078	-0.157
-300.778	50.166	-0.095	0.089
-299.764	-5.083	0.418	-0.285
-298.749	69.937	-0.138	-0.141
-297.735	28.376	0.167	0.140
-296.720	284.670	-0.172	0.307
-295.705	45.826	0.050	-0.046
-294.691	32.556	0.252	0.216
-293.676	16.551	0.210	0.165
-292.662	-200.000	-0.006	-0.116
-291.647	646.417	0.064	-0.163
-290.632	-152.872	0.338	-0.024
-289.618	139.104	0.324	0.422
-288.603	316.670	0.122	-0.229
-287.589	-200.000	-0.027	0.140
-286.574	-24.365	-0.147	0.087
-285.559	18.512	0.328	0.260
-284.545	164.745	0.037	0.051
-283.530	-84.788	0.094	0.029
-282.516	223.561	-0.135	-0.216
-281.501	-200.000	-0.024	0.222
-280.486	247.618	0.093	0.155
-279.472	-57.357	0.080	-0.035
-278.457	-14.815	0.174	-0.110
-277.443	-141.754	0.311	0.031
-276.428	-21.114	0.245	-0.149
-275.413	-11.864	-0.333	0.216
-274.399	13.404	0.145	0.111
-273.384	274.919	-0.109	-0.191
-272.370	91.970	0.157	0.175
-271.355	800.000	0.061	0.195
-270.340	-62.641	-0.262	-0.107
-269.326	-1.520	0.120	0.084
-268.311	126.784	-0.171	-0.215
-267.297	-64.826	-0.114	0.046
-266.282	186.481	-0.044	0.065
-265.267	157.125	-0.234	-0.320
-264.253	-200.000	-0.016	0.216
-263.238	465.809	-0.059	0.130
-262.224	-160.335	-0.144	-0.008
-261.209	-200.000	-0.031	-0.375
-260.195	175.570	-0.083	-0.120
-259.180	800.000	-0.044	-0.160
-258.165	-54.941	-0.169	0.075
-257.151	-74.493	0.257	-0.092
-256.136	-200.000	0.014	-0.083
-255.122	103.495	0.149	-0.173
-254.107	752.316	-0.076	0.204
-253.092	396.207	0.026	-0.054
-252.078	-200.000	-0.058	-0.363
-251.063	124.931	-0.098	0.123
-250.049	612.169	-0.055	0.136
-249.034	-200.000	0.024	-0.108
-248.019	-66.455	0.023	-0.009
-247.005	299.261	-0.157	-0.287
-245.990	-98.708	0.138	0.035
-244.976	375.823	0.116	-0.234
-243.961	455.976	-0.040	-0.087
-242.946	800.000	0.082	0.237
-241.932	800.000	0.114	0.341
-240.917	68.786	-0.207	-0.210
-239.903	150.691	-0.088	0.118
-238.888	-129.275	-0.169	0.023
-237.873	332.351	-0.101	0.193
-236.859	-82.019	-0.197	-0.064
-235.844	3.564	0.230	-0.165
-234.830	-200.000	0.040	0.205
-233.815	-25.537	-0.225	-0.132
-232.800	115.150	0.150	-0.181
-231.786	800.000	-0.043	0.132
-230.771	77.422	0.160	-0.168
-229.757	97.119	0.207	0.235
-228.742	-37.333	-0.115	0.061
-227.727	68.439	0.056	-0.057
-226.713	-9.877	-0.169	0.111
-225.698	-58.569	0.037	-0.016
-224.684	-67.540	0.173	0.067
-223.669	22.146	-0.167	-0.135
-222.655	102.981	0.144	0.167
-221.640	39.610	0.207	-0.183
-220.625	-200.000	-0.022	-0.423
-219.611	74.856	0.136	-0.142
-218.596	-30.921	-0.158	-0.088
-217.582	-40.725	0.064	0.033
-216.567	119.883	0.117	-0.143
-215.552	100.309	0.185	0.212
-214.538	-92.144	-0.182	0.051
-213.523	191.574	0.092	-0.137
-212.509	53.646	-0.085	0.080
-211.494	-73.104	0.052	0.019
-210.479	20.715	0.205	-0.164
-209.465	-200.000	-0.001	0.131
-208.450	800.000	0.121	0.347
-207.436	-200.000	-0.010	-0.248
-206.421	-200.000	0.016	-0.318
-205.406	18.922	0.285	-0.225
-204.392	416.927	-0.079	0.167
-203.377	150.011	0.208	0.279
-202.363	800.000	0.105	0.309
-201.348	-63.819	0.259	-0.105
-200.333	26.803	-0.173	-0.143
-199.319	-163.668	-0.074	0.003
-198.304	-106.025	-0.243	0.054
-197.290	28.892	-0.171	0.143
-196.275	263.390	0.092	0.158
-195.260	307.115	-0.185	0.340
-194.246	462.306	-0.150	0.330
-193.231	-78.034	0.132	-0.045
-192.217	-80.509	0.365	-0.120
-191.202	74.388	0.073	0.075
-190.187	196.627	-0.207	-0.311
-189.173	-119.638	0.089	-0.015
-188.158	-123.831	0.123	0.019
-187.144	-153.584	0.296	-0.020
-186.129	22.802	-0.172	0.139
-185.114	3.879	-0.224	-0.161
-184.100	-113.017	0.137	-0.027
-183.085	-200.000	-0.010	-0.208
-182.071	-200.000	-0.005	-0.206
-181.056	-151.982	0.319	-0.023
-180.042	0.186	0.230	0.162
-179.027	378.996	-0.061	0.124
-178.012	-200.000	-0.035	0.350
-176.998	222.081	0.096	0.152
-175.983	800.000	-0.098	0.320
-174.969	-24.548	0.264	-0.155
-173.954	-200.000	-0.002	-0.055
-172.939	-200.000	-0.019	-0.348
-171.925	-2.322	0.365	-0.253
-170.910	29.130	0.267	-0.224
-169.896	24.353	0.202	-0.165
-168.881	183.072	0.114	0.166
-167.866	-110.618	-0.278	-0.057
-166.852	-200.000	0.086	-0.416
-165.837	800.000	-0.070	0.203
-164.823	106.860	0.302	0.354
-163.808	381.189	-0.041	0.084
-162.793	468.816	0.158	-0.350
-161.779	-200.000	0.050	-0.356
-160.764	192.852	-0.026	0.039
-159.750	-68.031	0.190	0.073
-158.735	691.135	-0.024	-0.062
-157.720	58.151	0.095	0.092
-156.706	800.000	0.107	0.386
-155.691	800.000	-0.057	0.224
-154.677	248.354	-0.212	0.354
-153.662	800.000	-0.014	-0.059
-152.647	76.126	-0.217	-0.227
-151.633	800.000	-0.064	-0.259
-150.618	-200.000	0.029	-0.281
-149.604	-177.707	0.080	-0.002
-148.589	684.903	0.053	-0.135
-147.574	22.929	0.020	0.016
-146.560	66.815	0.308	-0.309
-145.545	490.131	0.079	-0.177
-144.531	546.262	-0.105	-0.247
-143.516	-10.908	0.233	0.152
-142.502	-159.117	0.242	-0.013
-141.487	-200.000	-0.030	-0.134
-140.472	-106.005	0.269	-0.060
-139.458	-44.212	0.145	0.072
-138.443	-48.720	0.069	-0.033
-137.429	-200.000	0.008	0.082
-136.414	-179.032	0.597	0.013
-135.399	47.765	0.123	0.113
-134.385	4.837	-0.035	-0.025
-133.370	800.000	-0.054	-0.221
-132.356	-161.710	-0.104	0.005
-131.341	346.507	0.153	0.296
-130.326	-63.786	-0.227	0.091
-129.312	-200.000	0.024	-0.133
-128.297	374.355	0.163	-0.328
-127.283	-200.000	0.001	0.263
-126.268	-171.896	-0.083	-0.003
-125.253	-200.000	0.038	-0.217
-124.239	-200.000	-0.016	-0.253
-123.224	148.374	-0.153	0.203
-122.210	800.000	0.041	0.123
-121.195	-109.498	0.232	0.048
