DTS Sentinel unit serial number:	SN413079Multiplexer serial number:	ORYXHardware model number:	OX4-SRSoftware version number:	ORYX F/W v4.00 Oryx Data Collector v3.7.2.0data status	okinstallation	princeton_trtdifferential loss correction	single-endedforward channel	channel 2reverse channel	N/Adate	2019/09/11time	05:29:11forward acquisition time	60.00reverse acquisition time	0.00gamma	496.2192k internal	0.2329k external	0.2329temperature offset calibration	0.9937default loss term (dB/km)	0.3790temperature slope calibration	1.0000multiplexer offset coefficient	1.0000multiplexer slope coefficient	1.0000fibre end	0.00T internal ref (°C)	29.41T ext. ref 1 (°C)	-0.26T ext. ref 2 (°C)	23.30length (m)	temperature (°C)	Stokes	anti-Stokes-747.200	413.911	-0.038	0.081
-746.185	-22.263	0.102	0.062
-745.171	800.000	0.099	0.403
-744.156	800.000	0.125	0.420
-743.142	200.934	0.141	0.219
-742.127	224.256	-0.043	-0.070
-741.112	-58.942	-0.084	-0.036
-740.098	215.506	-0.015	0.023
-739.083	90.894	0.196	-0.221
-738.069	17.379	-0.232	0.185
-737.054	-37.479	-0.236	-0.127
-736.039	-100.339	-0.209	-0.052
-735.025	20.502	0.219	0.178
-734.010	-127.985	-0.086	0.012
-732.996	120.976	0.300	-0.375
-731.981	-94.013	0.238	-0.066
-730.966	-12.902	0.014	0.009
-729.952	-85.882	-0.349	-0.109
-728.937	56.304	-0.318	0.311
-727.923	-181.461	0.123	0.002
-726.908	98.362	-0.061	-0.071
-725.894	-30.512	-0.288	-0.164
-724.879	-200.000	-0.055	-0.438
-723.864	-113.649	0.126	-0.025
-722.850	419.160	0.123	-0.266
-721.835	-174.277	-0.068	0.002
-720.821	465.883	0.022	0.050
-719.806	22.640	-0.152	-0.125
-718.791	124.901	-0.123	-0.156
-717.777	-138.298	0.038	0.004
-716.762	-150.171	0.107	0.008
-715.748	-16.038	0.137	0.087
-714.733	-200.000	0.018	0.091
-713.718	292.062	0.091	-0.166
-712.704	-77.540	0.303	0.106
-711.689	800.000	0.036	0.111
-710.675	263.610	0.149	-0.261
-709.660	800.000	0.049	-0.174
-708.645	-200.000	0.027	-0.261
-707.631	-179.384	0.136	0.003
-706.616	235.046	0.076	-0.125
-705.602	80.215	-0.119	-0.129
-704.587	800.000	0.111	-0.431
-703.572	103.373	0.175	0.206
-702.558	70.130	-0.560	-0.581
-701.543	74.683	0.147	-0.156
-700.529	800.000	0.122	0.456
-699.514	-131.856	-0.133	-0.017
-698.499	-162.498	-0.048	-0.002
-697.485	140.218	-0.072	-0.096
-696.470	76.414	0.039	0.042
-695.456	-200.000	-0.002	-0.089
-694.441	262.801	-0.072	0.125
-693.426	-31.205	-0.114	-0.065
-692.412	281.529	-0.100	0.180
-691.397	-26.105	-0.053	-0.032
-690.383	-200.000	-0.006	-0.696
-689.368	-26.838	-0.195	-0.114
-688.354	277.500	0.106	0.190
-687.339	-49.531	0.198	-0.095
-686.324	800.000	0.052	-0.215
-685.310	-89.345	0.041	-0.012
-684.295	-11.596	-0.216	-0.143
-683.281	-79.351	-0.458	0.156
-682.266	62.283	-0.037	-0.037
-681.251	-116.722	-0.184	0.034
-680.237	406.450	0.121	-0.256
-679.222	-6.444	-0.238	0.163
-678.208	-200.000	-0.014	-0.284
-677.193	-176.381	-0.305	-0.008
-676.178	-126.285	0.239	-0.036
-675.164	800.000	-0.102	-0.339
-674.149	42.481	-0.074	-0.068
-673.135	800.000	-0.054	0.212
-672.120	493.939	-0.200	-0.461
-671.105	-158.851	0.349	-0.020
-670.091	146.561	0.213	0.287
-669.076	-200.000	-0.022	0.220
-668.062	-200.000	-0.014	-0.197
-667.047	-54.275	-0.250	0.114
-666.032	602.169	0.029	-0.071
-665.018	-31.135	0.073	-0.041
-664.003	-55.076	-0.200	-0.090
-662.989	525.029	-0.019	0.045
-661.974	64.955	-0.255	-0.259
-660.959	-73.071	-0.334	-0.123
-659.945	59.228	0.174	0.172
-658.930	-99.815	-0.178	0.045
-657.916	174.908	-0.276	-0.401
-656.901	-173.200	-0.292	0.009
-655.886	-14.382	0.125	-0.081
-654.872	-108.556	0.172	-0.037
-653.857	94.349	0.232	-0.264
-652.843	-82.230	0.353	0.115
-651.828	404.984	-0.125	-0.265
-650.814	-25.365	0.221	0.131
-649.799	-104.407	0.200	-0.047
-648.784	24.265	0.117	-0.097
-647.770	510.674	-0.109	-0.254
-646.755	434.730	-0.100	0.218
-645.741	-200.000	0.044	0.337
-644.726	-47.836	-0.235	-0.114
-643.711	-41.128	-0.210	-0.109
-642.697	-91.352	-0.130	-0.037
-641.682	406.946	-0.103	-0.218
-640.668	-200.000	0.207	0.000
-639.653	800.000	-0.050	0.182
-638.638	-101.433	-0.490	0.120
-637.624	579.575	-0.042	0.104
-636.609	-22.288	-0.272	-0.166
-635.595	-111.201	0.160	-0.033
-634.580	616.435	0.111	0.279
-633.565	800.000	0.059	-0.204
-632.551	275.296	0.071	-0.127
-631.536	-200.000	-0.111	-0.608
-630.522	-63.545	-0.327	-0.134
-629.507	-74.660	0.055	-0.020
-628.492	5.386	-0.201	0.149
-627.478	53.635	-0.154	0.148
-626.463	-185.865	0.155	-0.002
-625.449	210.603	-0.179	0.281
-624.434	800.000	0.022	-0.088
-623.419	-200.000	-0.070	0.348
-622.405	-200.000	0.028	-0.369
-621.390	111.932	0.126	0.152
-620.376	-200.000	-0.018	-0.169
-619.361	-102.557	0.268	-0.064
-618.346	15.780	-0.095	-0.075
-617.332	-12.472	-0.265	-0.173
-616.317	-68.656	0.409	-0.159
-615.303	-166.377	-0.130	-0.005
-614.288	2.851	-0.290	-0.211
-613.273	-7.404	-0.265	0.180
-612.259	-76.703	0.213	-0.075
-611.244	-103.808	-0.337	0.079
-610.230	247.586	-0.083	0.141
-609.215	-128.255	-0.157	-0.022
-608.201	-60.108	0.222	-0.095
-607.186	-200.000	-0.052	-0.448
-606.171	-200.000	0.028	0.244
-605.157	185.362	-0.068	0.101
-604.142	-70.463	-0.208	-0.079
-603.128	82.224	-0.211	0.229
-602.113	-72.552	-0.152	0.056
-601.098	-169.011	-0.178	-0.007
-600.084	-50.993	-0.284	-0.134
-599.069	800.000	0.033	-0.092
-598.055	640.767	0.064	-0.163
-597.040	-200.000	0.002	0.186
-596.025	-200.000	0.003	0.143
-595.011	29.914	0.265	0.226
-593.996	-6.618	-0.188	0.128
-592.982	77.819	-0.088	-0.094
-591.967	-87.194	0.114	-0.035
-590.952	-122.858	0.247	0.040
-589.938	40.758	-0.035	-0.032
-588.923	352.408	-0.090	-0.178
-587.909	504.366	-0.141	-0.326
-586.894	124.182	0.180	0.226
-585.879	800.000	-0.058	0.207
-584.865	800.000	-0.050	0.167
-583.850	7.706	0.167	-0.125
-582.836	-62.295	0.096	-0.040
-581.821	217.465	0.156	0.249
-580.806	219.770	-0.046	-0.074
-579.792	-5.842	-0.073	-0.050
-578.777	259.907	-0.077	0.133
-577.763	151.252	-0.180	-0.245
-576.748	-96.175	0.378	0.100
-575.733	-38.762	-0.167	-0.088
-574.719	-72.919	-0.159	-0.058
-573.704	436.670	-0.136	-0.296
-572.690	-95.267	0.143	0.038
-571.675	85.652	0.089	-0.098
-570.661	-200.000	-0.005	0.090
-569.646	-41.554	-0.225	-0.116
-568.631	-86.864	-0.169	0.051
-567.617	-200.000	0.008	-0.110
-566.602	170.592	0.059	-0.085
-565.588	-87.748	-0.372	0.112
-564.573	-200.000	-0.034	0.219
-563.558	113.046	-0.242	0.293
-562.544	-107.585	0.187	0.041
-561.529	-124.503	-0.352	0.055
-560.515	32.050	-0.093	-0.080
-559.500	-93.916	-0.157	0.043
-558.485	-55.135	-0.114	-0.051
-557.471	32.110	-0.150	-0.129
-556.456	7.522	0.351	0.262
-555.442	-200.000	-0.004	0.062
-554.427	-200.000	0.017	0.225
-553.412	-36.785	-0.155	0.083
-552.398	709.873	0.065	-0.171
-551.383	-156.183	-0.105	-0.007
-550.369	-149.894	-0.241	0.019
-549.354	-200.000	0.074	-0.339
-548.339	173.975	-0.057	0.083
-547.325	-73.881	0.238	0.087
-546.310	299.185	0.066	-0.122
-545.296	550.674	-0.116	-0.279
-544.281	28.109	-0.026	-0.022
-543.266	-90.808	-0.320	0.092
-542.252	-87.809	0.154	0.046
-541.237	472.364	0.038	-0.084
-540.223	-200.000	-0.024	-0.390
-539.208	-200.000	-0.005	0.426
-538.193	-200.000	-0.002	-0.040
-537.179	-76.271	-0.122	0.043
-536.164	51.649	0.159	0.151
-535.150	-200.000	0.018	0.143
-534.135	-59.024	0.316	-0.136
-533.121	800.000	-0.042	0.148
-532.106	67.756	-0.154	-0.157
-531.091	474.042	0.074	-0.166
-530.077	-200.000	0.012	-0.321
-529.062	750.541	0.099	-0.267
-528.048	800.000	-0.075	-0.301
-527.033	257.945	0.213	-0.366
-526.018	33.229	0.040	0.034
-525.004	-55.767	0.273	0.122
-523.989	-200.000	-0.007	-0.288
-522.975	-200.000	0.029	-0.250
-521.960	425.436	0.129	-0.277
-520.945	140.449	0.117	0.154
-519.931	-200.000	-0.026	0.170
-518.916	122.994	0.143	-0.178
-517.902	171.268	0.004	-0.005
-516.887	-25.855	0.093	0.055
-515.872	60.114	-0.260	-0.257
-514.858	177.646	0.070	0.102
-513.843	-200.000	-0.039	0.340
-512.829	-53.002	-0.208	0.096
-511.814	-200.000	-0.043	-0.248
-510.799	-117.799	-0.152	0.027
-509.785	800.000	0.072	-0.228
-508.770	300.871	0.040	-0.074
-507.756	1.671	0.167	0.120
-506.741	-6.868	-0.083	0.056
-505.726	-55.134	0.098	-0.044
-504.712	-121.418	-0.283	0.047
-503.697	0.519	-0.058	0.041
-502.683	-141.329	0.200	-0.020
-501.668	800.000	0.070	-0.288
-500.653	-137.779	-0.035	0.004
-499.639	-144.903	0.120	-0.011
-498.624	-86.648	0.249	-0.076
-497.610	-200.000	0.039	0.245
-496.595	196.339	0.054	-0.083
-495.581	800.000	0.024	0.071
-494.566	483.748	0.100	0.227
-493.551	224.820	-0.092	0.148
-492.537	-200.000	0.003	-0.305
-491.522	-139.166	0.328	-0.035
-490.508	-200.000	-0.034	-0.252
-489.493	-145.332	-0.105	0.009
-488.478	-127.465	0.262	0.038
-487.464	-200.000	-0.020	-0.125
-486.449	162.584	0.099	-0.139
-485.435	-81.576	0.318	0.104
-484.420	-200.000	0.073	0.367
-483.405	271.664	0.162	-0.284
-482.391	-125.618	0.144	0.022
-481.376	-11.022	0.137	-0.090
-480.362	800.000	-0.113	0.379
-479.347	218.430	0.108	0.171
-478.332	9.352	-0.233	-0.176
-477.318	-7.633	-0.038	0.026
-476.303	-200.000	0.030	0.172
-475.289	98.306	0.240	0.275
-474.274	800.000	0.054	0.170
-473.259	35.780	0.198	0.174
-472.245	306.663	-0.143	0.265
-471.230	-200.000	0.010	0.122
-470.216	-38.499	-0.258	-0.136
-469.201	-107.182	-0.051	0.011
-468.186	-200.000	0.035	0.238
-467.172	522.892	-0.181	-0.425
-466.157	-77.001	0.089	0.031
-465.143	-200.000	-0.006	0.104
-464.128	800.000	0.048	0.132
-463.113	-132.550	0.248	-0.032
-462.099	-16.014	0.065	-0.041
-461.084	800.000	0.039	0.161
-460.070	40.027	-0.156	0.139
-459.055	800.000	0.030	-0.113
-458.040	-200.000	0.079	0.379
-457.026	196.377	-0.113	0.171
-456.011	-0.139	-0.147	-0.104
-454.997	-51.273	-0.274	0.128
-453.982	415.034	-0.075	0.160
-452.968	800.000	-0.069	0.195
-451.953	-200.000	0.033	-0.172
-450.938	-23.996	0.201	-0.120
-449.924	-166.982	0.092	0.004
-448.909	-10.688	0.155	0.102
-447.895	-200.000	-0.017	0.147
-446.880	-53.992	-0.156	0.071
-445.865	106.905	0.175	0.206
-444.851	-79.736	0.283	-0.095
-443.836	-40.993	0.211	-0.108
-442.822	116.959	-0.155	-0.189
-441.807	-15.187	-0.303	0.193
-440.792	285.481	0.031	0.055
-439.778	266.297	0.092	-0.159
-438.763	-172.923	-0.086	-0.003
-437.749	226.708	-0.094	0.152
-436.734	153.648	-0.242	0.329
-435.719	-200.000	0.287	-0.001
-434.705	463.272	0.126	-0.279
-433.690	800.000	0.040	-0.121
-432.676	-200.000	-0.052	0.403
-431.661	800.000	0.041	-0.151
-430.646	119.046	-0.088	-0.108
-429.632	-101.278	0.245	-0.060
-428.617	-48.031	0.193	-0.093
-427.603	203.365	0.015	-0.023
-426.588	436.227	-0.109	-0.236
-425.573	800.000	0.107	-0.317
-424.559	323.694	0.144	-0.273
-423.544	83.775	-0.147	0.160
-422.530	-37.567	0.126	0.067
-421.515	-200.000	0.005	-0.223
-420.500	227.295	-0.026	-0.042
-419.486	-200.000	0.006	-0.108
-418.471	-140.742	-0.309	-0.032
-417.457	308.561	0.080	0.148
-416.442	-200.000	0.008	-0.140
-415.428	-119.583	0.400	0.069
-414.413	183.377	0.159	-0.234
-413.398	-121.959	0.111	0.018
-412.384	-54.645	0.261	0.117
-411.369	-200.000	-0.005	0.069
-410.355	144.076	-0.269	-0.357
-409.340	-43.417	0.229	-0.115
-408.325	8.602	-0.301	-0.226
-407.311	-87.333	0.385	-0.116
-406.296	5.476	0.340	-0.249
-405.282	-31.556	0.218	0.122
-404.267	292.818	-0.135	0.244
-403.252	-60.863	-0.098	-0.041
-402.238	256.326	0.093	-0.159
-401.223	-200.000	0.095	-0.521
-400.209	-200.000	-0.056	0.266
-399.194	572.852	0.044	-0.107
-398.179	-137.845	0.368	-0.041
-397.165	-200.000	0.015	0.303
-396.150	800.000	-0.056	0.180
-395.136	-179.504	-0.125	0.003
-394.121	84.706	-0.087	0.095
-393.106	-110.306	0.277	0.057
-392.092	-122.481	-0.265	-0.043
-391.077	-84.783	0.239	-0.075
-390.063	358.977	-0.095	-0.189
-389.048	-200.000	-0.055	0.245
-388.033	-200.000	0.025	0.117
-387.019	-200.000	0.088	-0.501
-386.004	532.629	-0.078	0.182
-384.990	-200.000	-0.034	-0.309
-383.975	429.965	-0.029	-0.063
-382.960	-101.988	-0.130	-0.031
-381.946	-35.518	0.133	-0.072
-380.931	-200.000	-0.038	0.231
-379.917	736.998	0.050	-0.133
-378.902	190.778	-0.141	0.210
-377.888	-200.000	0.000	0.112
-376.873	271.114	0.099	-0.173
-375.858	-16.167	0.107	-0.067
-374.844	800.000	-0.121	0.417
-373.829	-140.392	-0.268	0.028
-372.815	2.147	-0.128	-0.091
-371.800	800.000	-0.056	0.194
-370.785	-200.000	0.004	-0.230
-369.771	-200.000	0.015	0.476
-368.756	74.537	-0.131	0.137
-367.742	-41.758	-0.174	0.088
-366.727	-151.332	-0.253	0.019
-365.712	800.000	0.044	-0.161
-364.698	420.638	0.058	0.122
-363.683	204.300	0.159	0.244
-362.669	-19.062	-0.130	0.080
-361.654	-200.000	-0.048	0.392
-360.639	-55.469	-0.255	0.114
-359.625	-200.000	0.028	0.184
-358.610	-83.946	0.400	-0.126
-357.596	519.150	0.056	-0.130
-356.581	135.287	0.063	-0.082
-355.566	-93.182	-0.054	0.015
-354.552	-99.125	0.440	-0.111
-353.537	30.844	0.233	0.198
-352.523	88.552	-0.105	0.116
-351.508	83.743	0.071	0.077
-350.493	800.000	0.056	0.194
-349.479	-200.000	0.002	-0.065
-348.464	-112.389	-0.140	-0.028
-347.450	392.426	0.050	0.102
-346.435	28.931	0.091	0.076
-345.420	800.000	-0.024	-0.072
-344.406	-82.668	0.202	-0.065
-343.391	2.279	0.214	0.153
-342.377	85.870	-0.202	0.221
-341.362	-102.345	0.072	-0.017
-340.348	710.173	-0.048	0.125
-339.333	41.811	-0.059	0.053
-338.318	-200.000	0.005	-0.231
-337.304	49.821	0.067	0.063
-336.289	96.826	-0.165	0.188
-335.275	-83.210	-0.061	-0.020
-334.260	153.076	-0.163	-0.221
-333.245	554.122	-0.147	-0.351
-332.231	59.413	-0.104	0.102
-331.216	-20.709	0.135	0.082
-330.202	-200.000	-0.076	-0.353
-329.187	277.936	0.074	-0.130
-328.172	-200.000	0.004	0.026
-327.158	-200.000	-0.067	-0.394
-326.143	-68.839	0.245	0.094
-325.129	800.000	0.077	-0.223
-324.114	-81.765	0.077	-0.025
-323.099	-20.555	-0.363	0.221
-322.085	-200.000	0.028	0.210
-321.070	-200.000	-0.016	-0.127
-320.056	669.070	-0.092	0.236
-319.041	2.314	-0.208	0.149
-318.026	-108.520	-0.151	-0.032
-317.012	315.212	-0.034	-0.064
-315.997	767.384	-0.074	0.200
-314.983	51.719	0.184	-0.173
-313.968	-101.610	-0.196	0.047
-312.953	-63.903	0.286	-0.116
-311.939	112.200	-0.134	0.161
-310.924	-160.207	-0.321	0.017
-309.910	496.594	0.012	-0.028
-308.895	192.590	0.045	0.067
-307.880	-178.752	0.134	0.003
-306.866	-73.760	-0.276	0.100
-305.851	800.000	-0.050	-0.163
-304.837	-84.300	-0.266	-0.083
-303.822	-149.634	-0.142	-0.011
-302.807	-123.481	-0.301	-0.047
-301.793	-29.499	-0.271	-0.153
-300.778	-200.000	-0.081	-0.474
-299.764	311.887	-0.076	-0.141
-298.749	800.000	-0.080	0.220
-297.735	37.151	0.281	-0.246
-296.720	41.718	-0.107	0.096
-295.705	-171.196	-0.389	-0.013
-294.691	-77.148	0.277	0.096
-293.676	61.083	-0.128	-0.126
-292.662	-63.368	0.177	0.072
-291.647	-177.654	-0.220	-0.005
-290.632	-181.217	0.144	0.003
-289.618	534.955	-0.059	-0.138
-288.603	43.526	-0.207	-0.187
-287.589	800.000	-0.094	-0.307
-286.574	106.364	0.195	-0.229
-285.559	-88.744	0.064	-0.019
-284.545	-200.000	0.019	-0.231
-283.530	66.107	0.279	0.280
-282.516	265.212	0.043	-0.075
-281.501	0.149	-0.088	0.062
-280.486	-37.726	-0.211	-0.111
-279.472	-177.198	-0.311	-0.008
-278.457	-167.015	0.452	0.018
-277.443	-34.279	0.114	0.062
-276.428	-126.435	0.110	0.016
-275.413	-126.951	0.264	-0.038
-274.399	800.000	0.095	-0.325
-273.384	-200.000	0.045	-0.257
-272.370	-200.000	-0.032	0.265
-271.355	301.524	-0.139	0.254
-270.340	102.033	-0.156	0.180
-269.326	-159.821	-0.148	0.008
-268.311	800.000	-0.061	0.262
-267.297	-88.324	0.487	-0.144
-266.282	800.000	-0.131	-0.449
-265.267	343.650	-0.157	0.304
-264.253	-200.000	-0.027	0.157
-263.238	228.282	-0.150	-0.241
-262.224	-197.603	0.365	-0.002
-261.209	97.841	-0.039	-0.044
-260.195	152.811	-0.196	0.265
-259.180	-102.876	0.087	0.021
-258.165	-47.617	-0.110	0.053
-257.151	208.396	0.127	-0.196
-256.136	456.484	0.078	-0.171
-255.122	357.286	0.164	-0.324
-254.107	144.447	0.084	-0.111
-253.092	-37.927	0.128	-0.067
-252.078	53.220	-0.086	0.082
-251.063	124.102	0.145	0.179
-250.049	-59.021	-0.047	0.020
-249.034	-51.533	0.225	-0.104
-248.019	-49.675	0.142	0.067
-247.005	12.496	0.170	-0.130
-245.990	-116.162	-0.067	-0.012
-244.976	800.000	0.132	0.387
-243.961	800.000	0.082	0.295
-242.946	800.000	-0.050	-0.143
-241.932	-128.652	0.251	-0.035
-240.917	119.906	0.191	-0.234
-239.903	-70.549	0.074	-0.028
-238.888	89.183	0.084	-0.092
-237.873	-118.092	-0.350	-0.062
-236.859	56.445	-0.190	-0.182
-235.844	3.891	-0.293	0.211
-234.830	10.689	-0.122	0.092
-233.815	-179.395	-0.403	0.009
-232.800	-42.762	-0.152	0.076
-231.786	-24.913	-0.162	0.095
-230.771	-157.530	0.134	0.008
-229.757	488.677	-0.028	0.064
-228.742	236.978	-0.058	0.095
-227.727	800.000	-0.056	0.160
-226.713	-157.929	0.174	0.010
-225.698	104.815	0.070	-0.082
-224.684	-180.506	-0.257	0.005
-223.669	-53.989	0.077	-0.035
-222.655	-200.000	-0.020	0.182
-221.640	207.049	0.081	-0.124
-220.625	568.377	-0.104	0.248
-219.611	16.006	-0.087	-0.068
-218.596	-120.208	0.284	-0.048
-217.582	-158.038	0.146	-0.008
-216.567	-117.123	0.084	0.015
-215.552	800.000	-0.008	0.032
-214.538	-150.007	-0.157	0.012
-213.523	-200.000	-0.020	-0.115
-212.509	251.414	0.155	0.261
-211.494	-200.000	0.011	0.101
-210.479	216.468	-0.122	0.192
-209.465	93.684	-0.158	-0.176
-208.450	-59.224	0.256	-0.109
-207.436	-159.682	-0.207	0.011
-206.421	164.009	0.165	-0.230
-205.406	-125.340	-0.185	0.028
-204.392	-161.885	0.159	-0.008
-203.377	520.271	-0.050	0.115
-202.363	-70.541	0.222	0.083
-201.348	56.952	0.082	0.079
-200.333	-53.317	0.100	0.045
-199.319	16.146	0.469	0.365
-198.304	147.527	-0.156	0.208
-197.290	-66.380	0.499	0.196
-196.275	-12.107	0.259	0.167
-195.260	5.151	-0.119	0.087
-194.246	14.784	0.189	0.146
-193.231	18.359	-0.133	-0.104
-192.217	-125.812	0.094	0.014
-191.202	-7.046	0.096	0.064
-190.187	160.890	0.039	-0.054
-189.173	284.542	0.148	0.262
-188.158	-77.481	0.306	0.105
-187.144	172.462	-0.120	0.170
-186.129	-47.219	-0.290	-0.139
-185.114	80.885	0.222	0.236
-184.100	800.000	0.007	0.027
-183.085	660.870	-0.111	-0.282
-182.071	-102.062	-0.270	-0.064
-181.056	-133.856	-0.139	0.017
-180.042	210.074	0.133	0.206
-179.027	-44.377	-0.201	0.099
-178.012	-43.121	-0.053	-0.026
-176.998	-78.418	-0.239	-0.081
-175.983	800.000	-0.029	-0.083
-174.969	-80.521	0.195	-0.064
-173.954	193.588	-0.075	0.112
-172.939	-122.928	0.148	-0.023
-171.925	10.577	0.399	0.299
-170.910	800.000	0.060	0.248
-169.896	20.114	-0.322	0.256
-168.881	600.126	0.185	-0.452
-167.866	800.000	0.077	-0.320
-166.852	494.587	-0.101	0.228
-165.837	17.810	-0.236	0.185
-164.823	800.000	0.052	-0.172
-163.808	-148.563	0.211	-0.017
-162.793	200.674	-0.120	-0.182
-161.779	-7.019	-0.182	0.122
-160.764	-200.000	0.007	0.094
-159.750	-104.558	0.226	0.051
-158.735	-130.203	-0.171	-0.023
-157.720	800.000	0.033	-0.123
-156.706	74.232	0.063	-0.065
-155.691	-176.464	-0.033	-0.001
-154.677	-105.502	-0.088	0.020
-153.662	-200.000	-0.002	0.071
-152.647	800.000	0.035	-0.114
-151.633	152.818	-0.079	0.107
-150.618	-56.906	0.512	-0.222
-149.604	-52.483	-0.148	0.068
-148.589	780.931	0.020	0.053
-147.574	-186.335	-0.226	-0.003
-146.560	-112.980	-0.197	0.038
-145.545	-12.559	-0.295	-0.189
-144.531	800.000	-0.064	-0.204
-143.516	-80.204	0.294	0.097
-142.502	174.117	-0.088	0.125
-141.487	220.855	0.087	0.138
-140.472	39.486	-0.187	-0.164
-139.458	25.653	0.068	-0.056
-138.443	241.346	-0.128	0.211
-137.429	-91.012	-0.133	-0.037
-136.414	-103.978	-0.108	0.025
-135.399	41.182	0.177	-0.157
-134.385	-200.000	-0.110	-0.490
-133.370	-12.392	0.324	-0.208
-132.356	0.244	-0.236	-0.165
-131.341	800.000	-0.078	0.310
-130.326	539.182	0.044	-0.103
-129.312	-102.269	0.413	0.097
-128.297	105.306	0.086	0.100
-127.283	-200.000	0.002	0.244
-126.268	800.000	-0.119	-0.385
-125.253	10.674	-0.146	-0.109
-124.239	800.000	0.015	0.044
-123.224	-177.670	-0.195	0.005
-122.210	6.990	0.101	-0.074
