DTS Sentinel unit serial number:	SN413079Multiplexer serial number:	ORYXHardware model number:	OX4-SRSoftware version number:	ORYX F/W v4.00 Oryx Data Collector v3.7.2.0data status	okinstallation	princeton_trtdifferential loss correction	single-endedforward channel	channel 2reverse channel	N/Adate	2019/09/10time	20:29:10forward acquisition time	60.00reverse acquisition time	0.00gamma	496.2192k internal	0.2330k external	0.2330temperature offset calibration	0.9946default loss term (dB/km)	0.3790temperature slope calibration	1.0000multiplexer offset coefficient	1.0000multiplexer slope coefficient	1.0000fibre end	0.00T internal ref (°C)	32.05T ext. ref 1 (°C)	-0.31T ext. ref 2 (°C)	25.22length (m)	temperature (°C)	Stokes	anti-Stokes-747.200	23.817	-0.091	-0.075
-746.185	-200.000	-0.058	0.273
-745.171	-200.000	0.002	0.033
-744.156	30.524	0.227	-0.195
-743.142	800.000	-0.063	-0.217
-742.127	-200.000	0.037	0.181
-741.112	-21.170	0.282	-0.174
-740.098	-200.000	-0.031	-0.154
-739.083	-109.155	0.321	0.069
-738.069	151.948	0.167	0.229
-737.054	442.296	-0.054	-0.118
-736.039	-66.273	-0.312	0.125
-735.025	28.505	0.143	0.122
-734.010	64.014	0.163	-0.165
-732.996	-132.553	-0.188	0.024
-731.981	-200.000	-0.329	-0.001
-730.966	741.394	-0.091	-0.245
-729.952	141.965	0.144	0.192
-728.937	19.482	-0.113	-0.092
-727.923	800.000	0.090	-0.265
-726.908	-154.198	-0.238	0.016
-725.894	42.180	0.099	-0.091
-724.879	120.967	-0.141	-0.176
-723.864	800.000	0.072	0.212
-722.850	-185.249	-0.382	0.006
-721.835	-2.079	0.324	-0.229
-720.821	-86.470	0.245	-0.076
-719.806	166.358	-0.143	-0.204
-718.791	-49.635	-0.327	-0.157
-717.777	-106.974	0.109	0.024
-716.762	-103.082	-0.216	0.051
-715.748	-105.877	-0.280	-0.064
-714.733	800.000	-0.034	0.110
-713.718	132.004	-0.109	0.141
-712.704	184.742	0.065	-0.097
-711.689	-44.620	0.223	0.112
-710.675	313.692	-0.086	0.163
-709.660	-48.890	-0.368	-0.177
-708.645	92.620	0.276	0.313
-707.631	8.928	-0.108	0.082
-706.616	-110.395	-0.269	0.056
-705.602	-36.157	-0.228	-0.124
-704.587	25.306	0.023	0.019
-703.572	-0.617	-0.254	0.181
-702.558	-39.174	0.410	0.217
-701.543	-104.957	0.088	-0.020
-700.529	-8.144	-0.129	0.087
-699.514	97.542	-0.109	-0.126
-698.499	62.014	0.087	0.087
-697.485	-200.000	-0.010	0.125
-696.470	-18.474	0.025	-0.016
-695.456	-15.713	-0.090	-0.058
-694.441	327.498	0.200	0.385
-693.426	-100.347	0.210	0.052
-692.412	88.346	0.005	0.006
-691.397	-97.620	0.194	-0.051
-690.383	-93.699	-0.117	-0.032
-689.368	800.000	0.088	0.320
-688.354	-164.524	-0.136	-0.006
-687.339	18.262	-0.193	0.155
-686.324	229.425	-0.098	0.161
-685.310	52.690	0.104	0.100
-684.295	114.923	0.101	0.124
-683.281	-200.000	-0.010	-0.188
-682.266	-112.102	-0.313	-0.063
-681.251	-135.117	0.540	-0.065
-680.237	-200.000	-0.002	-0.322
-679.222	-20.076	-0.108	-0.067
-678.208	-96.349	-0.243	-0.064
-677.193	-134.157	-0.544	-0.067
-676.178	374.750	0.163	0.333
-675.164	-165.524	0.065	0.003
-674.149	530.410	-0.074	0.176
-673.135	-160.045	0.014	0.001
-672.120	-111.271	-0.146	0.030
-671.105	-137.517	-0.130	-0.015
-670.091	30.316	-0.196	-0.168
-669.076	99.291	0.102	-0.118
-668.062	-200.000	0.009	0.061
-667.047	-58.747	-0.235	0.102
-666.032	-71.771	0.137	-0.051
-665.018	683.704	0.075	-0.197
-664.003	-99.445	0.324	-0.082
-662.989	-200.000	0.004	-0.585
-661.974	800.000	0.075	-0.259
-660.959	800.000	0.055	0.160
-659.945	693.800	0.089	-0.233
-658.930	70.377	0.289	-0.300
-657.916	800.000	-0.067	0.231
-656.901	-135.457	-0.155	0.019
-655.886	800.000	-0.075	-0.251
-654.872	68.538	-0.026	-0.027
-653.857	-30.461	-0.501	-0.285
-652.843	-58.374	-0.629	-0.274
-651.828	-200.000	-0.026	0.191
-650.814	-200.000	0.054	-0.596
-649.799	-49.260	0.081	0.039
-648.784	-111.852	-0.267	0.054
-647.770	-200.000	0.036	0.320
-646.755	-85.580	-0.091	-0.028
-645.741	421.870	0.059	-0.128
-644.726	-200.000	0.051	0.250
-643.711	-159.616	0.280	-0.016
-642.697	76.356	-0.138	-0.146
-641.682	-91.961	-0.143	-0.041
-640.668	54.640	0.041	0.039
-639.653	534.768	0.069	0.165
-638.638	-22.123	0.151	-0.092
-637.624	260.774	-0.148	-0.257
-636.609	-54.910	-0.048	-0.022
-635.595	800.000	-0.040	0.119
-634.580	-101.709	-0.266	0.065
-633.565	-132.732	-0.081	-0.010
-632.551	16.091	-0.060	-0.047
-631.536	-0.874	-0.029	-0.021
-630.522	56.137	0.147	-0.143
-629.507	-200.000	0.076	-0.424
-628.492	510.166	-0.106	0.247
-627.478	-31.982	0.194	-0.109
-626.463	127.161	-0.069	0.087
-625.449	800.000	0.079	-0.259
-624.434	71.710	-0.150	-0.156
-623.419	-76.636	0.151	0.053
-622.405	-31.548	-0.048	0.027
-621.390	121.062	0.126	0.157
-620.376	14.617	-0.138	-0.108
-619.361	-68.142	-0.023	-0.009
-618.346	-200.000	-0.113	0.000
-617.332	27.458	-0.062	-0.052
-616.317	-92.488	-0.488	0.137
-615.303	-77.739	-0.114	0.040
-614.288	352.667	0.221	0.438
-613.273	-98.151	-0.192	0.050
-612.259	66.075	-0.068	0.069
-611.244	-47.057	-0.381	-0.186
-610.230	-146.176	-0.328	-0.029
-609.215	-84.506	-0.295	-0.093
-608.201	-92.495	0.231	-0.065
-607.186	5.390	-0.223	-0.165
-606.171	-200.000	0.002	0.158
-605.157	800.000	-0.046	-0.201
-604.142	-87.241	0.331	0.101
-603.128	323.278	0.152	0.290
-602.113	9.409	0.250	0.190
-601.098	-45.867	-0.356	-0.176
-600.084	-165.663	-0.365	-0.016
-599.069	-17.599	-0.184	0.116
-598.055	130.162	-0.162	0.208
-597.040	800.000	0.148	0.532
-596.025	-154.060	0.332	0.023
-595.011	-200.000	0.004	0.264
-593.996	617.929	0.017	-0.042
-592.982	-200.000	0.024	-0.194
-591.967	-117.033	-0.075	-0.014
-590.952	92.893	0.291	0.329
-589.938	261.605	-0.057	-0.099
-588.923	451.032	0.116	0.256
-587.909	-70.858	-0.244	-0.092
-586.894	-200.000	0.068	-0.381
-585.879	-200.000	0.002	0.017
-584.865	538.932	0.020	-0.048
-583.850	143.554	0.151	-0.202
-582.836	29.795	-0.191	-0.163
-581.821	174.597	-0.073	-0.105
-580.806	-65.746	-0.019	0.007
-579.792	-64.927	0.134	-0.054
-578.777	311.635	0.105	-0.198
-577.763	-46.860	0.204	0.100
-576.748	-85.677	0.367	0.114
-575.733	197.926	-0.058	0.089
-574.719	800.000	-0.059	-0.240
-573.704	-102.476	-0.051	0.012
-572.690	-66.221	-0.458	0.182
-571.675	-200.000	0.045	-0.311
-570.661	-25.775	-0.059	-0.035
-569.646	69.819	-0.148	-0.153
-568.631	-6.218	-0.347	0.237
-567.617	-34.692	-0.055	0.030
-566.602	389.085	0.215	-0.446
-565.588	743.308	-0.106	-0.285
-564.573	27.284	0.130	0.110
-563.558	800.000	-0.033	0.109
-562.544	-200.000	-0.012	0.174
-561.529	650.993	-0.105	-0.270
-560.515	162.448	0.100	0.141
-559.500	-185.888	-0.272	0.004
-558.485	-180.510	-0.057	-0.001
-557.471	-200.000	0.093	-0.415
-556.456	100.154	0.152	-0.176
-555.442	9.071	-0.193	-0.146
-554.427	333.657	0.146	-0.283
-553.412	-200.000	0.017	-0.102
-552.398	-2.706	0.147	0.103
-551.383	427.572	-0.158	0.341
-550.369	-41.341	0.144	-0.074
-549.354	10.245	-0.150	0.114
-548.339	392.250	-0.100	0.208
-547.325	65.032	0.143	0.144
-546.310	-84.058	0.149	-0.047
-545.296	324.135	0.048	-0.091
-544.281	-200.000	-0.047	-0.318
-543.266	106.965	0.215	-0.255
-542.252	437.690	-0.152	-0.332
-541.237	27.248	0.282	-0.237
-540.223	-200.000	-0.028	-0.182
-539.208	800.000	-0.061	-0.235
-538.193	-78.958	0.221	0.075
-537.179	-94.278	-0.073	-0.020
-536.164	97.911	-0.187	-0.215
-535.150	-77.702	-0.368	-0.127
-534.135	-113.794	0.346	0.067
-533.121	-82.463	-0.027	0.009
-532.106	-50.300	0.234	-0.110
-531.091	800.000	0.053	0.223
-530.077	158.386	-0.147	-0.203
-529.062	-200.000	0.034	-0.155
-528.048	-91.399	-0.245	0.070
-527.033	-85.765	0.294	-0.091
-526.018	-11.681	0.325	-0.213
-525.004	-200.000	0.036	-0.229
-523.989	-46.376	-0.223	0.109
-522.975	282.045	-0.187	0.334
-521.960	-200.000	-0.042	-0.328
-520.945	-81.140	0.192	-0.063
-519.931	-31.007	-0.142	-0.080
-518.916	-51.475	-0.189	0.088
-517.902	19.126	-0.153	0.123
-516.887	64.717	-0.243	-0.245
-515.872	-156.543	0.301	0.019
-514.858	380.796	0.088	-0.181
-513.843	83.191	-0.127	-0.138
-512.829	195.697	0.184	0.279
-511.814	-153.103	0.182	0.013
-510.799	217.670	-0.020	0.032
-509.785	-86.274	0.151	0.046
-508.770	-200.000	0.025	-0.154
-507.756	483.591	0.081	-0.183
-506.741	61.441	-0.156	0.154
-505.726	204.328	0.221	-0.341
-504.712	-142.276	-0.216	-0.021
-503.697	800.000	0.068	0.193
-502.683	99.787	0.085	-0.099
-501.668	113.816	0.070	0.085
-500.653	800.000	0.024	-0.089
-499.639	-52.318	0.170	-0.078
-498.624	-200.000	0.027	-0.216
-497.610	-200.000	-0.016	-0.340
-496.595	-22.711	0.361	0.217
-495.581	-200.000	0.038	-0.216
-494.566	445.506	0.079	0.174
-493.551	-200.000	0.035	0.190
-492.537	53.558	0.096	0.092
-491.522	-112.722	0.344	0.068
-490.508	-56.849	0.016	0.007
-489.493	-55.792	-0.318	0.142
-488.478	336.851	0.283	0.547
-487.464	-60.616	0.267	0.113
-486.449	189.639	0.161	0.240
-485.435	228.622	-0.077	0.126
-484.420	-46.945	0.130	-0.063
-483.405	-24.040	0.339	0.202
-482.391	-21.421	-0.333	-0.203
-481.376	-200.000	-0.054	0.345
-480.362	41.898	0.185	0.167
-479.347	246.813	-0.075	-0.127
-478.332	571.145	0.062	0.150
-477.318	-200.000	0.186	-0.001
-476.303	-43.502	0.172	-0.086
-475.289	800.000	0.032	-0.090
-474.274	66.144	0.118	0.119
-473.259	-119.767	-0.175	-0.030
-472.245	-73.022	-0.272	-0.100
-471.230	197.493	0.119	0.181
-470.216	-156.781	0.403	-0.025
-469.201	118.872	0.153	-0.189
-468.186	57.542	-0.094	-0.092
-467.172	-59.748	0.078	0.033
-466.157	800.000	-0.037	0.132
-465.143	678.599	-0.137	0.355
-464.128	400.676	0.063	-0.132
-463.113	60.409	0.125	-0.124
-462.099	-53.613	0.284	0.129
-461.084	-42.076	-0.234	0.119
-460.070	-14.548	-0.161	0.103
-459.055	-47.803	0.066	0.032
-458.040	39.269	-0.150	0.134
-457.026	182.502	0.032	0.047
-456.011	-200.000	-0.010	0.213
-454.997	-112.011	-0.224	0.045
-453.982	81.701	-0.064	0.069
-452.968	800.000	-0.073	0.233
-451.953	-173.310	0.219	-0.007
-450.938	185.785	-0.134	-0.198
-449.924	469.806	0.095	-0.212
-448.909	106.217	-0.110	0.130
-447.895	786.367	0.010	0.026
-446.880	-185.585	-0.198	0.003
-445.865	559.066	-0.087	-0.209
-444.851	-25.950	-0.087	-0.051
-443.836	26.709	-0.177	0.147
-442.822	-200.000	0.029	-0.197
-441.807	11.710	0.184	0.140
-440.792	52.693	0.311	-0.295
-439.778	-107.062	-0.027	0.006
-438.763	-20.297	0.269	0.165
-437.749	-180.152	0.242	0.005
-436.734	-200.000	0.016	0.197
-435.719	800.000	-0.097	-0.276
-434.705	-200.000	0.016	0.106
-433.690	-165.188	-0.299	-0.013
-432.676	-68.061	-0.304	0.118
-431.661	58.660	-0.073	0.072
-430.646	800.000	-0.177	0.490
-429.632	-19.987	-0.216	0.132
-428.617	-100.800	-0.241	0.059
-427.603	-109.595	0.221	-0.046
-426.588	14.172	0.217	-0.168
-425.573	800.000	-0.122	-0.404
-424.559	-45.283	-0.226	-0.111
-423.544	109.494	-0.113	-0.134
-422.530	187.125	-0.308	-0.456
-421.515	-123.567	-0.278	-0.044
-420.500	-84.534	0.158	0.050
-419.486	-53.802	0.276	0.125
-418.471	368.995	-0.115	-0.231
-417.457	-113.858	-0.085	0.017
-416.442	-53.232	-0.247	-0.113
-415.428	20.070	0.150	0.121
-414.413	11.045	0.290	-0.220
-413.398	136.915	-0.239	0.310
-412.384	233.940	0.152	-0.249
-411.369	-200.000	0.007	-0.212
-410.355	55.848	-0.278	-0.268
-409.340	-52.998	-0.134	-0.061
-408.325	-183.099	0.159	-0.003
-407.311	70.143	0.031	-0.032
-406.296	-51.583	-0.123	-0.057
-405.282	-62.708	-0.284	0.117
-404.267	18.207	-0.172	0.137
-403.252	114.795	-0.014	-0.017
-402.238	192.942	0.121	-0.181
-401.223	-116.132	0.156	-0.029
-400.209	-148.884	-0.445	-0.036
-399.194	-200.000	-0.037	-0.207
-398.179	800.000	-0.045	0.177
-397.165	83.054	-0.314	-0.340
-396.150	-147.606	-0.328	-0.027
-395.136	-12.998	0.263	-0.170
-394.121	183.796	0.097	0.143
-393.106	800.000	0.045	0.130
-392.092	-132.148	-0.695	-0.090
-391.077	501.810	0.136	0.312
-390.063	-42.180	0.304	0.154
-389.048	481.445	0.092	0.207
-388.033	-50.362	-0.311	0.146
-387.019	219.669	0.088	0.139
-386.004	746.042	0.042	0.111
-384.990	-200.000	-0.036	-0.437
-383.975	81.125	-0.105	-0.112
-382.960	-64.165	0.011	0.004
-381.946	-200.000	0.029	-0.146
-380.931	-200.000	0.002	-0.044
-379.917	-200.000	-0.015	-0.101
-378.902	-24.595	-0.104	-0.061
-377.888	-145.805	-0.302	0.027
-376.873	3.793	-0.194	0.141
-375.858	-101.129	-0.178	0.043
-374.844	-71.056	-0.170	-0.064
-373.829	-106.504	-0.101	0.022
-372.815	24.908	0.086	0.071
-371.800	-32.891	0.359	-0.198
-370.785	-17.128	0.067	-0.042
-369.771	19.185	-0.189	0.151
-368.756	-141.316	0.253	-0.025
-367.742	-200.000	0.031	-0.144
-366.727	-200.000	-0.012	0.286
-365.712	-20.763	-0.292	0.178
-364.698	-139.053	0.146	-0.016
-363.683	-128.429	0.218	-0.031
-362.669	59.730	-0.207	0.202
-361.654	-123.254	0.378	-0.060
-360.639	-68.781	-0.064	-0.024
-359.625	-20.111	-0.166	0.101
-358.610	-41.685	-0.395	0.201
-357.596	-200.000	0.059	0.265
-356.581	105.475	0.060	0.071
-355.566	-200.000	-0.029	0.254
-354.552	-72.479	-0.109	0.040
-353.537	440.519	-0.020	0.044
-352.523	-200.000	-0.003	-0.042
-351.508	138.883	-0.108	-0.141
-350.493	-54.348	-0.120	-0.054
-349.479	755.835	0.041	0.110
-348.464	-200.000	-0.002	0.220
-347.450	545.277	0.037	0.088
-346.435	800.000	0.074	0.233
-345.420	-33.461	0.084	0.046
-344.406	800.000	0.131	0.446
-343.391	31.743	0.150	0.128
-342.377	160.768	0.016	-0.022
-341.362	26.241	0.231	0.191
-340.348	-200.000	-0.001	-0.022
-339.333	-116.214	-0.417	-0.077
-338.318	391.382	0.045	0.093
-337.304	2.678	-0.109	0.078
-336.289	-137.248	-0.092	-0.010
-335.275	-200.000	-0.021	0.207
-334.260	800.000	0.052	-0.149
-333.245	800.000	0.072	-0.263
-332.231	-131.833	0.079	-0.010
-331.216	93.316	-0.201	-0.225
-330.202	-104.998	-0.032	-0.007
-329.187	-200.000	-0.006	0.273
-328.172	-200.000	0.011	0.073
-327.158	-112.187	-0.069	0.014
-326.143	48.630	0.174	0.162
-325.129	-55.301	0.158	-0.070
-324.114	-47.590	-0.094	0.045
-323.099	-200.000	-0.000	0.115
-322.085	-5.186	-0.090	0.062
-321.070	43.429	-0.121	-0.109
-320.056	-144.789	0.226	0.021
-319.041	-140.253	0.105	0.011
-318.026	-200.000	0.022	-0.121
-317.012	229.228	0.071	0.115
-315.997	520.776	0.057	-0.133
-314.983	34.365	-0.271	-0.234
-313.968	-200.000	0.036	-0.239
-312.953	568.245	-0.050	-0.120
-311.939	-102.577	-0.084	0.020
-310.924	561.113	-0.161	0.385
-309.910	449.206	0.163	-0.355
-308.895	-200.000	-0.014	0.087
-307.880	444.558	-0.167	0.362
-306.866	17.963	-0.078	-0.062
-305.851	137.255	0.066	0.086
-304.837	-200.000	-0.044	0.378
-303.822	-150.090	-0.084	-0.006
-302.807	-9.558	0.204	0.135
-301.793	-144.371	-0.079	0.007
-300.778	-200.000	-0.001	-0.260
-299.764	31.651	-0.328	-0.279
-298.749	-64.355	-0.274	-0.110
-297.735	800.000	0.010	-0.041
-296.720	-200.000	-0.029	0.250
-295.705	65.031	-0.246	-0.246
-294.691	230.110	-0.071	0.115
-293.676	-21.791	0.115	-0.069
-292.662	54.210	-0.142	0.135
-291.647	800.000	0.123	0.425
-290.632	-81.499	0.208	-0.068
-289.618	800.000	-0.033	-0.107
-288.603	-118.495	0.430	0.075
-287.589	-200.000	-0.000	0.112
-286.574	301.203	0.115	0.210
-285.559	114.012	-0.174	-0.209
-284.545	-153.591	-0.106	-0.007
-283.530	-200.000	-0.227	-0.000
-282.516	-200.000	0.005	0.264
-281.501	-71.882	-0.195	-0.072
-280.486	451.218	-0.055	-0.121
-279.472	769.019	-0.059	0.159
-278.457	800.000	-0.075	0.287
-277.443	-4.441	-0.197	-0.135
-276.428	33.410	-0.074	0.064
-275.413	414.674	0.125	0.263
-274.399	-200.000	-0.034	0.166
-273.384	162.288	0.079	0.109
-272.370	-49.372	0.080	0.038
-271.355	8.404	0.148	0.110
-270.340	-76.122	-0.068	-0.024
-269.326	-146.993	0.289	0.025
-268.311	-47.343	-0.359	0.172
-267.297	-200.000	-0.002	0.077
-266.282	-200.000	-0.019	-0.164
-265.267	-200.000	-0.027	-0.199
-264.253	467.388	-0.056	-0.123
-263.238	-200.000	0.003	-0.077
-262.224	-102.117	0.185	-0.044
-261.209	800.000	0.026	0.099
-260.195	83.672	0.249	-0.268
-259.180	270.973	-0.115	-0.200
-258.165	-52.213	-0.125	0.057
-257.151	-58.853	0.244	0.104
-256.136	27.149	0.099	-0.082
-255.122	117.702	0.153	0.186
-254.107	110.983	-0.333	0.396
-253.092	153.346	0.069	-0.093
-252.078	73.642	0.078	0.080
-251.063	100.384	-0.409	-0.468
-250.049	-200.000	-0.001	0.099
-249.034	53.151	0.086	-0.082
-248.019	-113.386	0.131	-0.025
-247.005	29.707	-0.278	-0.234
-245.990	21.839	0.287	0.231
-244.976	-200.000	0.058	0.332
-243.961	-200.000	-0.008	0.354
-242.946	288.273	-0.133	0.237
-241.932	-103.915	-0.107	-0.025
-240.917	-41.252	-0.080	-0.041
-239.903	-75.668	0.249	-0.087
-238.888	287.275	0.174	0.310
-237.873	246.135	0.083	0.138
-236.859	-58.838	0.337	0.144
-235.844	465.662	-0.112	-0.248
-234.830	-43.250	0.299	-0.149
-233.815	39.390	0.354	0.313
-232.800	245.302	0.062	0.103
-231.786	-26.938	0.182	-0.105
-230.771	153.818	-0.155	-0.210
-229.757	-77.248	0.390	0.134
-228.742	-43.165	-0.100	-0.050
-227.727	-18.135	0.177	0.109
-226.713	630.859	0.100	0.251
-225.698	800.000	-0.057	-0.173
-224.684	-200.000	-0.114	-0.508
-223.669	-200.000	-0.012	-0.101
-222.655	57.402	0.073	0.070
-221.640	202.519	0.242	-0.369
-220.625	146.779	0.083	0.110
-219.611	-200.000	-0.017	-0.123
-218.596	-169.601	0.204	0.007
-217.582	715.496	0.104	0.273
-216.567	800.000	0.029	-0.094
-215.552	-156.988	0.175	0.011
-214.538	-79.564	0.409	-0.136
-213.523	223.685	0.078	0.124
-212.509	-44.161	0.328	-0.162
-211.494	-3.438	0.105	-0.072
-210.479	788.348	-0.092	0.248
-209.465	-119.554	-0.117	0.020
-208.450	105.339	0.165	-0.193
-207.436	159.520	0.146	-0.201
-206.421	-200.000	-0.028	-0.293
-205.406	134.223	0.271	0.346
-204.392	-200.000	-0.023	-0.270
-203.377	416.964	0.070	-0.146
-202.363	80.079	-0.176	-0.186
-201.348	167.111	-0.035	0.048
-200.333	6.760	0.135	0.099
-199.319	362.218	0.167	-0.330
-198.304	-200.000	-0.050	0.405
-197.290	800.000	0.052	-0.181
-196.275	-121.248	-0.066	-0.011
-195.260	529.023	-0.049	0.113
-194.246	-121.225	-0.246	-0.041
-193.231	-200.000	-0.010	-0.327
-192.217	67.103	-0.207	-0.208
-191.202	-200.000	0.071	-0.317
-190.187	-100.757	0.230	0.056
-189.173	736.648	0.054	-0.142
-188.158	-200.000	0.034	0.214
-187.144	7.455	-0.259	0.191
-186.129	546.205	-0.104	0.244
-185.114	-63.990	0.208	0.084
-184.100	137.204	0.175	0.225
-183.085	246.060	0.017	0.028
-182.071	679.868	0.088	0.226
-181.056	-200.000	0.000	0.240
-180.042	-74.329	0.121	-0.043
-179.027	-200.000	-0.040	0.251
-178.012	-200.000	0.014	-0.116
-176.998	-147.167	-0.300	-0.025
-175.983	74.802	-0.146	-0.151
-174.969	800.000	-0.063	0.196
-173.954	539.944	0.054	-0.126
-172.939	-125.978	-0.232	0.034
-171.925	-200.000	0.001	-0.012
-170.910	-4.045	-0.095	0.065
-169.896	16.252	0.513	0.399
-168.881	-200.000	-0.062	-0.276
-167.866	-118.109	-0.242	-0.043
-166.852	-200.000	-0.008	0.100
-165.837	150.788	-0.271	-0.362
-164.823	-200.000	-0.049	-0.519
-163.808	155.591	0.097	0.132
-162.793	35.396	0.040	0.035
-161.779	110.108	-0.235	0.278
-160.764	47.067	0.105	0.096
-159.750	-180.184	0.338	0.007
-158.735	-143.588	0.281	0.026
-157.720	13.839	0.262	-0.201
-156.706	65.203	0.108	0.108
-155.691	-128.915	-0.339	-0.047
-154.677	-200.000	0.008	-0.040
-153.662	-46.026	0.439	-0.213
-152.647	132.700	-0.260	-0.330
-151.633	17.776	0.330	-0.258
-150.618	216.035	0.032	0.050
-149.604	-88.362	-0.112	-0.033
-148.589	-77.886	0.268	0.091
-147.574	-66.752	0.187	0.073
-146.560	-200.000	-0.023	0.179
-145.545	226.607	0.144	0.230
-144.531	-171.580	0.306	0.010
-143.516	3.937	0.238	-0.171
-142.502	476.994	-0.040	-0.088
-141.487	-82.581	-0.109	0.035
-140.472	-50.848	0.148	-0.068
-139.458	-129.903	-0.159	0.021
-138.443	104.961	0.118	0.137
-137.429	97.660	0.062	-0.070
-136.414	800.000	-0.102	-0.379
-135.399	144.837	-0.122	0.160
-134.385	800.000	0.079	0.306
-133.370	300.153	-0.012	-0.023
-132.356	287.844	0.123	0.219
-131.341	-108.194	0.304	-0.065
-130.326	377.975	0.047	0.095
-129.312	-164.637	-0.046	-0.002
-128.297	-110.700	0.260	-0.053
-127.283	109.236	-0.269	0.316
-126.268	78.924	0.205	-0.216
-125.253	139.001	0.163	0.210
-124.239	137.124	0.187	0.240
-123.224	800.000	-0.110	0.302
-122.210	90.067	0.152	-0.167
-121.195	362.660	-0.096	-0.190
