DTS Sentinel unit serial number:	SN413079Multiplexer serial number:	ORYXHardware model number:	OX4-SRSoftware version number:	ORYX F/W v4.00 Oryx Data Collector v3.7.2.0data status	okinstallation	princeton_trtdifferential loss correction	single-endedforward channel	channel 2reverse channel	N/Adate	2019/09/16time	19:15:35forward acquisition time	60.00reverse acquisition time	0.00gamma	496.2192k internal	0.2323k external	0.2323temperature offset calibration	0.9968default loss term (dB/km)	0.3790temperature slope calibration	1.0000multiplexer offset coefficient	1.0000multiplexer slope coefficient	1.0000fibre end	0.00T internal ref (°C)	35.02T ext. ref 1 (°C)	0.06T ext. ref 2 (°C)	28.18length (m)	temperature (°C)	Stokes	anti-Stokes-747.200	-200.000	-0.014	0.248
-746.185	-39.994	-0.353	0.186
-745.171	94.015	0.119	0.136
-744.156	145.282	0.122	0.164
-743.142	190.180	-0.089	-0.135
-742.127	-107.127	-0.190	0.042
-741.112	-126.969	0.035	0.005
-740.098	212.448	-0.082	0.130
-739.083	-60.242	-0.031	-0.013
-738.069	64.008	-0.063	-0.064
-737.054	84.428	0.178	-0.197
-736.039	-58.921	-0.263	-0.115
-735.025	-80.445	-0.350	0.118
-734.010	49.404	0.028	0.027
-732.996	800.000	0.077	-0.293
-731.981	2.660	0.345	0.253
-730.966	226.424	-0.111	0.182
-729.952	134.629	0.105	-0.137
-728.937	98.453	0.229	-0.266
-727.923	-21.271	-0.121	0.075
-726.908	-125.181	-0.163	0.025
-725.894	-86.823	-0.083	0.026
-724.879	-181.180	-0.447	-0.009
-723.864	-200.000	-0.034	-0.259
-722.850	-120.483	-0.245	-0.042
-721.835	-118.002	-0.346	-0.062
-720.821	-85.965	-0.541	-0.169
-719.806	337.379	-0.073	-0.144
-718.791	-155.490	0.047	-0.003
-717.777	-113.292	-0.178	-0.035
-716.762	-99.786	0.383	0.097
-715.748	-80.535	0.101	-0.034
-714.733	-104.900	0.235	-0.054
-713.718	-78.110	-0.164	0.057
-712.704	-108.320	0.269	0.059
-711.689	93.195	-0.065	-0.074
-710.675	-93.006	0.216	-0.061
-709.660	-2.536	0.240	0.169
-708.645	800.000	0.048	0.209
-707.631	-19.083	0.209	0.131
-706.616	13.321	-0.102	0.080
-705.602	-200.000	-0.009	0.117
-704.587	-200.000	-0.050	0.279
-703.572	-200.000	0.025	0.173
-702.558	800.000	0.051	0.213
-701.543	22.583	-0.212	-0.175
-700.529	-6.893	0.283	-0.194
-699.514	31.181	0.045	-0.039
-698.499	20.555	-0.364	-0.297
-697.485	800.000	0.032	-0.131
-696.470	240.362	-0.134	-0.225
-695.456	125.311	0.166	-0.211
-694.441	-67.178	0.043	-0.017
-693.426	-199.777	-0.440	-0.002
-692.412	-58.236	0.299	0.131
-691.397	409.427	-0.097	-0.207
-690.383	-200.000	-0.005	0.217
-689.368	19.984	-0.435	0.354
-688.354	-187.609	-0.161	-0.002
-687.339	-101.275	-0.163	-0.040
-686.324	-200.000	0.004	-0.240
-685.310	33.990	0.068	-0.060
-684.295	-92.759	-0.045	0.013
-683.281	151.754	-0.102	0.140
-682.266	-26.327	-0.122	-0.072
-681.251	634.731	-0.059	-0.151
-680.237	84.864	-0.149	0.164
-679.222	800.000	0.095	-0.336
-678.208	800.000	0.045	0.172
-677.193	800.000	0.062	-0.245
-676.178	-200.000	-0.004	-0.130
-675.164	800.000	0.073	-0.264
-674.149	2.094	0.176	-0.128
-673.135	613.907	0.084	0.211
-672.120	-15.329	0.230	0.148
-671.105	46.311	-0.189	-0.176
-670.091	-200.000	-0.001	0.158
-669.076	-200.000	-0.049	0.274
-668.062	-55.204	-0.336	-0.152
-667.047	75.997	-0.181	-0.193
-666.032	197.131	-0.209	0.321
-665.018	-64.735	0.085	-0.035
-664.003	800.000	0.028	0.098
-662.989	-200.000	0.012	-0.132
-661.974	-200.000	-0.019	-0.138
-660.959	-20.864	0.040	-0.025
-659.945	-22.861	0.161	0.098
-658.930	566.089	-0.108	0.263
-657.916	-200.000	-0.029	-0.451
-656.901	316.198	0.177	-0.336
-655.886	-68.438	-0.227	0.089
-654.872	42.323	-0.079	-0.072
-653.857	800.000	-0.042	0.122
-652.843	-200.000	-0.007	-0.163
-651.828	24.916	0.026	0.022
-650.814	800.000	0.008	-0.034
-649.799	26.904	-0.069	-0.058
-648.784	-82.409	0.209	0.068
-647.770	-4.910	0.070	-0.048
-646.755	-200.000	-0.009	-0.139
-645.741	41.448	-0.175	-0.159
-644.726	800.000	0.039	-0.112
-643.711	-200.000	-0.016	0.319
-642.697	-73.157	0.185	0.068
-641.682	-200.000	-0.021	0.103
-640.668	201.039	0.090	0.140
-639.653	41.401	-0.235	-0.214
-638.638	-87.278	0.039	-0.012
-637.624	113.845	-0.242	-0.296
-636.609	-119.112	0.357	0.063
-635.595	800.000	0.074	0.220
-634.580	-49.270	-0.208	-0.100
-633.565	17.606	-0.087	0.070
-632.551	87.172	-0.068	-0.076
-631.536	133.217	-0.248	0.322
-630.522	-200.000	0.063	-0.453
-629.507	-0.547	-0.302	-0.216
-628.492	-8.884	-0.149	0.100
-627.478	207.901	-0.155	-0.243
-626.463	800.000	-0.036	-0.156
-625.449	-109.119	0.159	0.034
-624.434	-188.841	0.256	-0.003
-623.419	-76.935	-0.029	-0.010
-622.405	800.000	-0.023	-0.069
-621.390	78.459	0.300	-0.322
-620.376	51.202	-0.149	-0.142
-619.361	-185.051	-0.268	-0.004
-618.346	-117.626	0.210	-0.038
-617.332	388.265	0.011	-0.022
-616.317	2.404	-0.185	-0.135
-615.303	-200.000	-0.028	-0.194
-614.288	-200.000	0.029	0.132
-613.273	25.956	-0.249	0.208
-612.259	-200.000	-0.038	0.191
-611.244	9.145	0.110	-0.084
-610.230	-119.349	-0.116	-0.020
-609.215	-22.472	-0.284	0.173
-608.201	-79.356	0.152	-0.052
-607.186	-200.000	-0.010	-0.479
-606.171	-88.979	-0.235	-0.070
-605.157	424.586	-0.125	-0.271
-604.142	660.552	0.078	-0.203
-603.128	-122.582	-0.404	0.066
-602.113	242.874	-0.074	-0.124
-601.098	67.724	0.137	0.141
-600.084	58.440	0.057	0.056
-599.069	-200.000	0.002	0.344
-598.055	-76.605	0.334	-0.118
-597.040	-121.838	0.375	0.062
-596.025	-0.733	0.325	0.231
-595.011	133.742	-0.154	-0.200
-593.996	448.778	0.027	-0.061
-592.982	-49.011	0.189	-0.091
-591.967	800.000	0.035	0.113
-590.952	-200.000	-0.017	-0.084
-589.938	48.370	-0.165	0.155
-588.923	-137.668	0.311	-0.035
-587.909	36.670	-0.130	0.116
-586.894	-59.269	0.207	-0.089
-585.879	-163.405	-0.326	-0.016
-584.865	104.146	0.127	-0.150
-583.850	-200.000	-0.026	0.263
-582.836	106.047	0.142	-0.169
-581.821	256.410	-0.130	-0.223
-580.806	-6.799	0.360	0.246
-579.792	374.643	0.104	0.212
-578.777	665.600	-0.030	-0.079
-577.763	385.212	0.041	-0.085
-576.748	-176.886	0.061	0.002
-575.733	104.339	-0.235	0.278
-574.719	100.462	0.191	-0.223
-573.704	-61.987	0.216	0.090
-572.690	-200.000	-0.028	0.363
-571.675	800.000	0.056	-0.164
-570.661	-54.561	0.103	0.047
-569.646	93.148	-0.141	0.160
-568.631	112.707	-0.198	0.241
-567.617	-200.000	0.009	0.066
-566.602	48.804	0.207	-0.195
-565.588	-200.000	-0.016	-0.307
-564.573	800.000	0.085	-0.346
-563.558	198.789	-0.108	0.166
-562.544	-193.602	-0.285	-0.002
-561.529	136.162	-0.100	0.131
-560.515	800.000	-0.040	0.112
-559.500	-66.525	-0.407	-0.162
-558.485	127.692	0.119	0.151
-557.471	-200.000	-0.071	-0.514
-556.456	-115.387	-0.256	0.048
-555.442	111.294	-0.098	0.119
-554.427	-84.675	0.170	-0.054
-553.412	800.000	0.163	-0.454
-552.398	84.787	-0.309	-0.339
-551.383	238.405	-0.197	0.328
-550.369	800.000	-0.052	0.228
-549.354	-112.694	0.217	-0.043
-548.339	-85.214	-0.137	-0.043
-547.325	-134.721	0.457	-0.056
-546.310	-106.352	-0.013	-0.003
-545.296	44.934	0.392	-0.362
-544.281	-95.210	-0.269	0.073
-543.266	-94.680	-0.199	0.054
-542.252	-200.000	-0.055	-0.356
-541.237	-89.207	0.308	0.091
-540.223	-17.054	-0.223	-0.141
-539.208	677.804	0.139	-0.363
-538.193	-200.000	-0.017	-0.195
-537.179	360.798	0.133	-0.267
-536.164	800.000	-0.133	0.437
-535.150	-14.979	0.138	0.089
-534.135	-88.791	-0.030	-0.009
-533.121	800.000	0.041	-0.149
-532.106	97.997	-0.355	-0.409
-531.091	-87.759	0.367	0.111
-530.077	-157.712	-0.280	0.017
-529.062	158.813	0.074	-0.103
-528.048	-121.395	0.196	-0.033
-527.033	51.155	-0.108	-0.103
-526.018	-200.000	0.010	-0.116
-525.004	273.004	0.184	-0.325
-523.989	457.839	0.123	-0.275
-522.975	365.198	-0.122	0.247
-521.960	104.329	0.104	0.122
-520.945	-83.013	-0.298	-0.096
-519.931	-114.518	0.043	-0.008
-518.916	89.776	0.149	-0.167
-517.902	73.403	0.169	-0.177
-516.887	-200.000	0.024	-0.149
-515.872	-104.254	-0.191	-0.044
-514.858	-199.706	0.287	0.001
-513.843	-54.409	-0.148	0.067
-512.829	800.000	0.111	-0.368
-511.814	800.000	0.060	-0.193
-510.799	562.796	-0.055	0.134
-509.785	303.416	-0.119	0.221
-508.770	-82.116	0.282	0.092
-507.756	71.987	0.196	0.204
-506.741	617.037	-0.053	0.133
-505.726	132.367	-0.119	0.153
-504.712	-2.360	-0.277	0.194
-503.697	-200.000	0.007	-0.097
-502.683	720.125	-0.061	0.161
-501.668	-120.668	-0.103	0.017
-500.653	71.604	-0.088	0.091
-499.639	-30.632	-0.216	0.122
-498.624	95.366	0.198	-0.226
-497.610	328.080	0.280	-0.537
-496.595	-74.943	0.038	0.013
-495.581	800.000	-0.036	0.134
-494.566	284.483	0.124	0.223
-493.551	46.934	-0.126	-0.117
-492.537	-200.000	0.019	0.124
-491.522	-12.864	0.091	-0.059
-490.508	-121.981	-0.083	0.014
-489.493	761.470	0.028	0.076
-488.478	-9.654	-0.177	-0.118
-487.464	800.000	0.030	0.087
-486.449	55.539	-0.100	-0.097
-485.435	527.622	0.098	-0.230
-484.420	-60.822	0.137	0.058
-483.405	362.994	0.066	0.132
-482.391	800.000	0.052	0.200
-481.376	-55.238	0.347	-0.156
-480.362	38.579	0.219	-0.196
-479.347	-49.309	-0.156	-0.075
-478.332	-200.000	-0.009	-0.128
-477.318	-3.352	0.068	0.047
-476.303	-138.975	0.238	-0.026
-475.289	-116.281	0.191	-0.035
-474.274	277.186	-0.115	-0.205
-473.259	800.000	-0.115	0.349
-472.245	12.457	0.128	-0.099
-471.230	115.413	0.267	0.326
-470.216	-115.529	-0.082	0.015
-469.201	-132.010	-0.252	-0.033
-468.186	407.947	0.050	-0.106
-467.172	-78.340	0.222	0.076
-466.157	-124.991	0.056	0.009
-465.143	-95.718	0.056	0.015
-464.128	-26.641	-0.133	-0.078
-463.113	189.638	0.192	0.288
-462.099	-200.000	0.005	0.104
-461.084	-168.816	0.100	0.004
-460.070	800.000	0.038	0.118
-459.055	-200.000	0.021	0.207
-458.040	40.738	-0.170	0.153
-457.026	158.004	0.117	0.162
-456.011	800.000	0.131	-0.407
-454.997	-132.381	0.239	0.031
-453.982	-7.174	-0.062	0.042
-452.968	-200.000	0.012	0.138
-451.953	97.806	0.036	0.042
-450.938	-200.000	0.036	-0.458
-449.924	-31.069	0.144	-0.081
-448.909	800.000	0.030	-0.092
-447.895	562.868	0.094	-0.227
-446.880	-200.000	0.014	0.337
-445.865	-128.947	-0.182	-0.026
-444.851	-200.000	0.012	0.158
-443.836	-119.458	0.186	0.032
-442.822	464.258	-0.035	-0.079
-441.807	-161.004	-0.221	-0.012
-440.792	800.000	-0.041	0.124
-439.778	-200.000	-0.010	-0.267
-438.763	800.000	0.056	-0.168
-437.749	425.485	-0.070	0.151
-436.734	-133.271	-0.122	-0.015
-435.719	-200.000	0.016	0.116
-434.705	-200.000	-0.004	0.075
-433.690	-96.070	0.099	0.026
-432.676	-88.002	0.170	0.051
-431.661	64.673	0.033	0.033
-430.646	85.858	-0.202	-0.221
-429.632	670.929	0.081	-0.209
-428.617	246.593	0.194	0.327
-427.603	-87.627	0.341	-0.103
-426.588	-73.410	0.112	-0.041
-425.573	-36.639	0.028	-0.015
-424.559	662.022	0.091	0.234
-423.544	-200.000	-0.048	0.309
-422.530	53.924	0.070	-0.067
-421.515	-200.000	0.026	0.124
-420.500	-12.176	-0.250	-0.163
-419.486	92.318	-0.164	-0.185
-418.471	-200.000	-0.050	0.554
-417.457	-37.681	-0.243	0.129
-416.442	16.898	0.150	0.118
-415.428	193.141	-0.166	-0.250
-414.413	-80.136	0.302	-0.101
-413.398	-133.817	-0.430	-0.053
-412.384	71.690	0.031	0.032
-411.369	-78.593	-0.090	-0.031
-410.355	336.016	0.143	-0.277
-409.340	-48.306	-0.260	0.125
-408.325	261.666	-0.079	-0.136
-407.311	800.000	-0.102	0.306
-406.296	-117.047	-0.217	-0.039
-405.282	104.939	-0.081	0.096
-404.267	800.000	-0.112	-0.325
-403.252	-50.903	0.222	0.104
-402.238	382.940	0.154	-0.315
-401.223	-200.000	0.012	-0.108
-400.209	678.556	-0.029	-0.074
-399.194	-74.859	0.261	-0.093
-398.179	39.299	-0.210	-0.187
-397.165	-95.506	-0.141	0.038
-396.150	-93.501	0.141	0.039
-395.136	200.409	-0.064	-0.097
-394.121	33.255	-0.179	-0.155
-393.106	-200.000	0.008	0.050
-392.092	800.000	0.035	-0.133
-391.077	85.889	-0.092	0.101
-390.063	-15.723	0.044	0.028
-389.048	-134.593	-0.279	0.034
-388.033	800.000	0.064	0.196
-387.019	-200.000	0.004	-0.031
-386.004	-200.000	-0.004	0.041
-384.990	800.000	0.069	0.238
-383.975	-200.000	0.027	-0.244
-382.960	159.156	0.098	-0.135
-381.946	-74.747	0.387	0.138
-380.931	204.864	0.062	-0.096
-379.917	324.614	0.064	0.122
-378.902	-73.317	-0.077	0.028
-377.888	-200.000	-0.255	0.000
-376.873	202.141	0.091	-0.140
-375.858	-200.000	-0.032	-0.282
-374.844	-87.982	0.208	-0.062
-373.829	131.166	-0.105	-0.134
-372.815	-48.814	0.105	0.050
-371.800	-112.635	0.284	-0.056
-370.785	-61.245	-0.173	0.072
-369.771	99.973	-0.088	0.102
-368.756	-200.000	-0.077	0.346
-367.742	86.440	0.178	0.195
-366.727	152.986	0.253	-0.344
-365.712	108.805	-0.261	-0.310
-364.698	-53.544	0.265	-0.121
-363.683	-26.363	0.356	0.208
-362.669	-39.691	0.262	0.136
-361.654	409.048	-0.084	-0.177
-360.639	-200.000	-0.016	-0.095
-359.625	-109.853	0.089	0.019
-358.610	21.581	0.104	0.084
-357.596	244.878	-0.066	0.111
-356.581	428.694	-0.106	-0.228
-355.566	800.000	0.142	-0.391
-354.552	225.780	0.111	0.178
-353.537	-76.913	0.061	-0.021
-352.523	-91.325	0.070	-0.020
-351.508	302.975	-0.160	-0.295
-350.493	185.428	0.050	0.074
-349.479	377.514	-0.120	-0.243
-348.464	58.880	0.110	0.108
-347.450	-139.267	-0.274	-0.029
-346.435	-173.971	-0.329	0.010
-345.420	208.919	0.163	0.253
-344.406	-200.000	-0.087	-0.392
-343.391	-30.030	0.098	0.055
-342.377	-21.528	-0.075	-0.046
-341.362	393.606	-0.065	-0.134
-340.348	-61.900	-0.406	-0.169
-339.333	800.000	0.090	-0.314
-338.318	-138.905	0.181	-0.020
-337.304	800.000	0.102	0.285
-336.289	368.743	-0.164	0.330
-335.275	-44.008	0.139	-0.070
-334.260	92.667	0.164	0.184
-333.245	-123.461	-0.149	-0.024
-332.231	-118.745	-0.168	-0.029
-331.216	-125.016	0.428	0.065
-330.202	-109.584	0.275	-0.058
-329.187	-28.498	-0.246	0.141
-328.172	655.323	0.111	0.284
-327.158	-1.250	-0.156	-0.110
-326.143	73.147	-0.033	-0.034
-325.129	800.000	0.043	0.145
-324.114	-145.936	0.128	0.011
-323.099	59.284	0.038	0.037
-322.085	130.496	0.126	-0.161
-321.070	116.931	-0.073	-0.089
-320.056	-123.334	-0.153	-0.024
-319.041	-2.788	0.330	-0.229
-318.026	800.000	-0.014	0.058
-317.012	-47.129	0.048	0.023
-315.997	-200.000	0.040	0.211
-314.983	248.138	-0.254	0.426
-313.968	178.618	0.059	-0.086
-312.953	-31.062	0.096	-0.054
-311.939	50.785	0.101	0.095
-310.924	-116.706	-0.100	-0.018
-309.910	-81.212	-0.239	0.078
-308.895	80.642	0.046	0.049
-307.880	153.787	-0.067	-0.091
-306.866	97.324	-0.208	0.237
-305.851	-125.637	0.145	-0.022
-304.837	800.000	-0.046	-0.169
-303.822	153.376	-0.240	0.327
-302.807	-24.775	-0.118	0.069
-301.793	318.102	0.027	0.051
-300.778	-15.943	0.128	0.081
-299.764	34.643	0.060	0.052
-298.749	-55.902	-0.117	0.052
-297.735	800.000	-0.023	0.082
-296.720	-200.000	-0.019	0.138
-295.705	-192.434	0.381	0.004
-294.691	-200.000	0.005	0.085
-293.676	800.000	0.082	-0.330
-292.662	-200.000	0.012	0.064
-291.647	70.320	0.155	0.159
-290.632	27.382	0.074	0.061
-289.618	64.781	0.166	0.166
-288.603	115.714	0.161	0.196
-287.589	-125.689	0.102	-0.015
-286.574	-64.393	0.297	0.120
-285.559	-200.000	0.051	0.351
-284.545	19.593	-0.222	-0.177
-283.530	66.064	0.150	-0.151
-282.516	-112.876	-0.212	-0.042
-281.501	-188.902	0.026	-0.000
-280.486	-55.532	-0.139	0.062
-279.472	-123.343	-0.198	-0.031
-278.457	-14.817	-0.217	0.138
-277.443	-200.000	-0.029	0.132
-276.428	197.020	-0.153	-0.232
-275.413	285.169	-0.015	0.026
-274.399	-200.000	0.027	-0.122
-273.384	14.114	-0.413	0.319
-272.370	-200.000	-0.017	0.105
-271.355	-35.613	-0.293	-0.158
-270.340	677.118	-0.049	-0.125
-269.326	258.017	-0.263	-0.448
-268.311	-79.713	0.103	0.034
-267.297	191.499	-0.133	-0.199
-266.282	-3.839	-0.158	-0.108
-265.267	116.901	-0.185	-0.226
-264.253	460.878	0.135	0.298
-263.238	-140.360	0.275	-0.028
-262.224	-187.476	-0.028	0.000
-261.209	800.000	0.036	0.153
-260.195	288.181	-0.117	0.210
-259.180	518.459	-0.092	-0.213
-258.165	56.191	-0.042	0.040
-257.151	561.027	-0.040	0.097
-256.136	198.498	-0.049	0.074
-255.122	-200.000	-0.048	-0.455
-254.107	800.000	-0.034	0.104
-253.092	44.713	-0.170	-0.155
-252.078	-104.627	0.379	-0.087
-251.063	362.540	-0.176	0.351
-250.049	-130.587	0.234	0.031
-249.034	-53.695	-0.227	0.103
-248.019	-54.708	0.055	-0.025
-247.005	-200.000	-0.009	-0.163
-245.990	800.000	0.038	-0.118
-244.976	111.114	0.060	-0.072
-243.961	4.673	0.064	0.046
-242.946	81.691	-0.106	-0.114
-241.932	-200.000	-0.048	0.239
-240.917	-77.461	-0.166	-0.057
-239.903	-126.946	-0.324	0.047
-238.888	-200.000	-0.011	-0.143
-237.873	-200.000	0.025	0.154
-236.859	-166.050	0.123	0.005
-235.844	800.000	0.149	-0.422
-234.830	-94.249	0.114	0.031
-233.815	64.469	-0.101	-0.101
-232.800	-88.218	0.097	-0.029
-231.786	319.334	0.154	0.289
-230.771	-200.000	0.057	0.400
-229.757	152.101	-0.272	0.367
-228.742	88.623	0.107	0.118
-227.727	41.157	-0.299	-0.267
-226.713	251.585	0.166	0.280
-225.698	-100.944	-0.215	0.052
-224.684	-121.743	-0.359	0.059
-223.669	-200.000	-0.031	0.579
-222.655	-200.000	-0.046	0.248
-221.640	50.161	-0.264	-0.246
-220.625	800.000	-0.072	0.225
-219.611	-200.000	-0.033	0.154
-218.596	67.461	-0.093	0.094
-217.582	-200.000	-0.046	0.261
-216.567	800.000	-0.046	-0.167
-215.552	-119.313	0.292	0.050
-214.538	-102.706	0.238	0.056
-213.523	-200.000	0.019	0.243
-212.509	448.043	-0.086	0.188
-211.494	108.731	0.124	-0.146
-210.479	15.268	0.154	-0.120
-209.465	-139.981	-0.168	0.018
-208.450	-115.748	-0.249	-0.046
-207.436	800.000	0.018	0.064
-206.421	800.000	-0.131	0.450
-205.406	-200.000	0.019	0.283
-204.392	-126.860	-0.184	-0.027
-203.377	-66.325	-0.192	0.076
-202.363	211.933	0.093	-0.146
-201.348	711.758	0.112	-0.292
-200.333	-61.993	-0.048	0.020
-199.319	-65.407	0.135	-0.054
-198.304	-14.167	-0.017	-0.011
-197.290	-200.000	0.027	0.158
-196.275	800.000	0.050	0.145
-195.260	62.910	0.077	0.076
-194.246	800.000	0.109	0.362
-193.231	187.569	-0.163	0.240
-192.217	-108.944	0.139	-0.029
-191.202	-92.915	0.204	0.056
-190.187	800.000	-0.043	-0.144
-189.173	63.018	-0.252	-0.250
-188.158	-114.852	0.303	0.057
-187.144	-200.000	0.059	0.392
-186.129	-79.767	-0.081	0.027
-185.114	-83.025	-0.171	0.054
-184.100	-200.000	-0.015	-0.115
-183.085	-154.529	0.273	0.018
-182.071	-200.000	0.022	0.147
-181.056	545.183	0.126	-0.297
-180.042	800.000	0.053	0.188
-179.027	18.380	0.052	-0.041
-178.012	-148.412	0.139	-0.011
-176.998	85.762	0.202	-0.220
-175.983	-144.458	-0.325	0.030
-174.969	-95.243	-0.106	-0.028
-173.954	-146.336	-0.247	0.021
-172.939	443.979	0.066	0.144
-171.925	38.046	-0.356	0.313
-170.910	800.000	0.071	0.207
-169.896	800.000	0.128	0.350
-168.881	100.158	0.199	-0.227
-167.866	115.006	-0.242	0.291
-166.852	726.685	0.035	0.092
-165.837	102.829	-0.054	-0.062
-164.823	800.000	0.041	-0.160
-163.808	-144.020	-0.288	-0.027
-162.793	408.903	-0.088	-0.184
-161.779	-200.000	0.071	-0.394
-160.764	-103.492	-0.209	0.048
-159.750	666.652	-0.151	-0.386
-158.735	66.151	0.254	0.254
-157.720	-200.000	-0.086	0.560
-156.706	-118.778	0.230	-0.040
-155.691	508.137	0.091	-0.209
-154.677	-200.000	-0.014	0.093
-153.662	-119.338	-0.096	0.016
-152.647	42.265	-0.206	-0.185
-151.633	-20.175	0.196	0.119
-150.618	106.534	0.165	-0.193
-149.604	204.082	0.094	0.144
-148.589	-86.760	-0.283	0.085
-147.574	27.135	-0.165	0.136
-146.560	-22.239	-0.175	0.105
-145.545	154.985	-0.221	-0.300
-144.531	-10.250	-0.289	0.189
-143.516	-200.000	0.009	-0.242
-142.502	190.250	-0.093	0.138
-141.487	-200.000	0.032	0.205
-140.472	-99.486	0.083	0.021
-139.458	-58.300	-0.279	0.120
-138.443	-158.985	0.033	0.002
-137.429	-200.000	-0.004	0.129
-136.414	421.452	0.078	0.165
-135.399	252.347	-0.232	0.389
-134.385	-75.837	0.231	0.081
-133.370	-200.000	0.043	-0.403
-132.356	800.000	-0.059	-0.222
-131.341	-27.215	-0.040	0.023
-130.326	112.911	0.105	-0.126
-129.312	116.415	0.282	0.341
-128.297	-200.000	0.001	0.142
-127.283	-200.000	0.024	0.336
-126.268	63.112	0.114	0.112
-125.253	-148.066	0.062	-0.005
-124.239	542.181	-0.098	0.231
-123.224	-75.790	0.348	-0.121
-122.210	-200.000	-0.017	-0.297
-121.195	-1.361	-0.160	0.111
