DTS Sentinel unit serial number:	SN413079Multiplexer serial number:	ORYXHardware model number:	OX4-SRSoftware version number:	ORYX F/W v4.00 Oryx Data Collector v3.7.2.0data status	okinstallation	princeton_trtdifferential loss correction	single-endedforward channel	channel 2reverse channel	N/Adate	2019/09/19time	12:35:35forward acquisition time	60.00reverse acquisition time	0.00gamma	496.2192k internal	0.2335k external	0.2335temperature offset calibration	1.0016default loss term (dB/km)	0.3790temperature slope calibration	1.0000multiplexer offset coefficient	1.0000multiplexer slope coefficient	1.0000fibre end	0.00T internal ref (°C)	27.31T ext. ref 1 (°C)	0.87T ext. ref 2 (°C)	25.04length (m)	temperature (°C)	Stokes	anti-Stokes-747.200	-48.822	0.126	-0.061
-746.185	138.722	-0.028	-0.037
-745.171	800.000	-0.048	0.187
-744.156	149.302	-0.155	-0.211
-743.142	-91.366	0.691	0.199
-742.127	6.972	-0.222	-0.167
-741.112	35.510	0.056	0.050
-740.098	-146.204	-0.426	-0.038
-739.083	490.928	-0.011	-0.026
-738.069	217.522	-0.138	0.221
-737.054	40.282	0.084	-0.076
-736.039	787.197	-0.100	-0.275
-735.025	-200.000	-0.053	-0.398
-734.010	471.101	-0.230	0.521
-732.996	-91.689	-0.312	0.089
-731.981	153.092	-0.112	-0.153
-730.966	-57.482	0.187	-0.083
-729.952	37.482	-0.040	-0.036
-728.937	-90.485	-0.181	0.053
-727.923	272.739	-0.074	-0.131
-726.908	-80.055	0.377	-0.127
-725.894	172.982	-0.101	-0.147
-724.879	252.479	0.018	0.030
-723.864	-200.000	-0.069	0.642
-722.850	-200.000	0.060	0.302
-721.835	-200.000	-0.016	-0.075
-720.821	800.000	0.064	-0.246
-719.806	-83.664	-0.234	0.075
-718.791	-141.200	0.449	-0.046
-717.777	186.144	-0.159	-0.237
-716.762	800.000	-0.087	-0.359
-715.748	-200.000	-0.013	-0.220
-714.733	-200.000	-0.016	-0.143
-713.718	3.981	-0.268	0.197
-712.704	-0.249	0.075	-0.054
-711.689	-44.169	-0.151	-0.076
-710.675	-78.155	0.218	0.075
-709.660	219.995	-0.192	0.308
-708.645	-102.947	-0.072	-0.017
-707.631	59.089	-0.227	0.225
-706.616	-18.981	-0.034	-0.021
-705.602	-100.113	-0.227	0.057
-704.587	-149.260	-0.378	0.030
-703.572	599.535	0.101	-0.251
-702.558	-200.000	-0.005	0.136
-701.543	33.212	0.110	0.096
-700.529	-109.403	0.249	0.053
-699.514	-87.121	-0.282	-0.086
-698.499	-118.668	-0.391	0.069
-697.485	87.398	0.194	0.215
-696.470	-1.517	0.069	-0.049
-695.456	-200.000	0.036	-0.340
-694.441	-200.000	0.028	0.258
-693.426	-74.729	-0.219	0.079
-692.412	-200.000	0.021	-0.215
-691.397	-148.030	0.162	-0.013
-690.383	-118.421	-0.313	0.056
-689.368	-38.180	-0.151	0.081
-688.354	374.361	-0.170	-0.346
-687.339	-74.479	-0.195	0.070
-686.324	638.735	-0.064	-0.164
-685.310	-200.000	-0.031	-0.268
-684.295	249.480	-0.059	0.100
-683.281	-104.451	-0.301	0.070
-682.266	214.055	0.224	-0.355
-681.251	-200.000	-0.020	-0.535
-680.237	-104.120	0.221	-0.052
-679.222	-200.000	0.007	-0.110
-678.208	-2.285	-0.237	-0.167
-677.193	180.817	-0.147	-0.217
-676.178	800.000	0.044	0.147
-675.164	-144.361	-0.178	0.017
-674.149	-148.195	-0.310	0.026
-673.135	-200.000	0.010	-0.046
-672.120	48.298	-0.198	-0.186
-671.105	-133.454	-0.253	-0.032
-670.091	-200.000	-0.045	-0.244
-669.076	39.860	-0.070	0.063
-668.062	101.365	-0.249	0.290
-667.047	376.480	0.059	-0.121
-666.032	214.421	0.160	-0.253
-665.018	126.712	-0.195	-0.248
-664.003	-6.341	-0.285	0.195
-662.989	-200.000	0.034	-0.252
-661.974	-143.755	-0.313	-0.030
-660.959	311.226	0.100	0.188
-659.945	224.556	-0.010	0.016
-658.930	149.962	-0.112	-0.153
-657.916	-200.000	0.042	-0.214
-656.901	800.000	0.039	0.122
-655.886	67.600	-0.187	-0.192
-654.872	367.802	-0.121	-0.245
-653.857	-182.674	0.122	0.002
-652.843	-190.049	-0.104	-0.001
-651.828	84.743	0.128	-0.140
-650.814	106.576	-0.101	0.120
-649.799	-200.000	-0.025	-0.125
-648.784	66.299	0.050	0.051
-647.770	-87.622	-0.047	0.014
-646.755	416.446	0.179	0.383
-645.741	-145.262	0.152	-0.014
-644.726	134.784	-0.040	-0.052
-643.711	105.789	0.171	-0.203
-642.697	-200.000	0.030	0.260
-641.682	800.000	-0.064	-0.178
-640.668	800.000	-0.077	-0.294
-639.653	800.000	0.053	-0.217
-638.638	63.430	-0.090	-0.090
-637.624	112.950	0.157	0.190
-636.609	205.320	0.085	-0.133
-635.595	-58.483	-0.053	0.023
-634.580	800.000	0.020	0.057
-633.565	338.511	0.061	-0.118
-632.551	-200.000	-0.102	-0.467
-631.536	81.330	0.163	-0.177
-630.522	-136.078	0.098	-0.012
-629.507	-200.000	0.005	0.052
-628.492	800.000	-0.149	0.472
-627.478	-108.143	-0.345	0.075
-626.463	800.000	0.062	-0.188
-625.449	-199.936	0.091	-0.000
-624.434	-200.000	0.006	-0.209
-623.419	-95.808	-0.223	-0.059
-622.405	86.166	0.116	-0.128
-621.390	-62.996	-0.065	0.027
-620.376	-42.756	-0.291	-0.148
-619.361	103.143	0.152	-0.178
-618.346	486.077	-0.198	-0.450
-617.332	142.976	0.086	-0.114
-616.317	-7.066	0.090	-0.061
-615.303	800.000	-0.029	-0.092
-614.288	43.825	-0.140	-0.128
-613.273	74.671	0.073	-0.076
-612.259	-35.008	0.111	0.061
-611.244	-29.132	0.328	0.188
-610.230	-16.878	-0.103	-0.065
-609.215	-16.606	0.053	-0.034
-608.201	-125.094	0.013	-0.002
-607.186	-79.740	-0.457	0.154
-606.171	800.000	-0.089	0.320
-605.157	113.147	-0.121	0.147
-604.142	-79.039	-0.217	-0.074
-603.128	-200.000	0.013	-0.399
-602.113	-154.897	-0.369	-0.024
-601.098	61.592	0.227	0.226
-600.084	-200.000	0.016	-0.188
-599.069	800.000	0.047	-0.142
-598.055	178.493	0.182	-0.266
-597.040	-113.827	0.201	-0.039
-596.025	-149.120	-0.276	0.022
-595.011	28.804	0.141	-0.120
-593.996	-8.089	0.292	0.197
-592.982	191.707	0.116	-0.175
-591.967	386.647	0.120	0.249
-590.952	800.000	0.039	0.110
-589.938	-67.130	0.160	-0.063
-588.923	-39.414	-0.291	-0.152
-587.909	191.415	-0.149	0.223
-586.894	800.000	-0.050	0.140
-585.879	160.964	0.071	-0.099
-584.865	-87.123	0.175	-0.053
-583.850	-200.000	0.047	-0.242
-582.836	-135.811	-0.224	-0.026
-581.821	-200.000	0.018	-0.150
-580.806	-112.566	-0.298	0.059
-579.792	681.683	0.051	-0.132
-578.777	-118.179	-0.106	0.019
-577.763	-95.253	-0.149	-0.040
-576.748	-200.000	0.016	-0.111
-575.733	145.946	-0.302	0.404
-574.719	125.615	0.065	-0.081
-573.704	-63.928	0.264	-0.108
-572.690	-14.922	0.180	0.115
-571.675	188.808	0.049	0.073
-570.661	454.393	0.086	0.190
-569.646	-200.000	-0.040	-0.231
-568.631	-200.000	0.034	-0.179
-567.617	549.946	0.130	0.311
-566.602	800.000	-0.039	0.156
-565.588	-129.577	-0.105	-0.015
-564.573	-189.221	-0.338	0.004
-563.558	-200.000	-0.018	-0.173
-562.544	-102.706	-0.100	-0.024
-561.529	-200.000	0.041	0.249
-560.515	800.000	0.080	-0.251
-559.500	-30.494	0.309	-0.175
-558.485	161.751	-0.198	0.276
-557.471	-200.000	0.017	0.174
-556.456	-71.984	0.391	-0.145
-555.442	-24.932	-0.292	0.173
-554.427	-108.014	0.147	-0.032
-553.412	-40.193	-0.353	0.183
-552.398	6.231	-0.196	0.145
-551.383	-200.000	-0.024	-0.130
-550.369	-200.000	-0.001	-0.054
-549.354	-171.120	-0.229	0.008
-548.339	13.258	-0.214	-0.165
-547.325	800.000	-0.035	-0.114
-546.310	-21.101	-0.254	0.155
-545.296	-112.551	-0.332	-0.066
-544.281	-99.879	-0.122	0.030
-543.266	209.461	-0.210	0.328
-542.252	-139.583	0.449	-0.048
-541.237	641.438	0.152	-0.385
-540.223	800.000	-0.030	-0.118
-539.208	252.133	0.054	-0.092
-538.193	398.342	0.058	0.121
-537.179	-200.000	-0.028	0.167
-536.164	7.459	-0.072	-0.053
-535.150	-110.942	-0.049	0.010
-534.135	349.596	0.115	0.226
-533.121	-20.681	0.314	-0.192
-532.106	-200.000	-0.003	-0.212
-531.091	157.595	-0.023	-0.031
-530.077	-84.009	-0.156	0.050
-529.062	109.269	0.204	0.243
-528.048	18.581	0.150	0.120
-527.033	-94.280	0.166	0.045
-526.018	-6.142	-0.196	0.133
-525.004	-35.329	-0.180	-0.097
-523.989	-29.827	0.057	-0.032
-522.975	-200.000	0.049	0.516
-521.960	-135.744	0.367	0.043
-520.945	125.378	0.121	0.152
-519.931	-70.216	-0.280	0.106
-518.916	800.000	0.115	-0.398
-517.902	231.274	0.052	0.085
-516.887	408.015	-0.134	0.283
-515.872	83.261	-0.087	0.095
-514.858	-81.440	-0.045	-0.015
-513.843	-136.176	0.333	-0.039
-512.829	83.900	-0.221	0.240
-511.814	-113.995	-0.290	0.056
-510.799	-200.000	-0.025	-0.145
-509.785	-200.000	0.036	0.159
-508.770	214.571	0.157	0.247
-507.756	-76.254	0.110	0.039
-506.741	54.348	0.221	-0.212
-505.726	150.543	0.105	0.141
-504.712	148.334	0.209	0.281
-503.697	142.619	0.217	-0.287
-502.683	319.822	-0.148	-0.280
-501.668	-66.777	0.183	0.072
-500.653	3.142	0.176	-0.128
-499.639	-200.000	0.038	-0.194
-498.624	138.925	0.208	-0.272
-497.610	87.558	-0.159	-0.175
-496.595	-26.237	-0.270	0.158
-495.581	800.000	-0.132	0.441
-494.566	79.929	0.066	0.070
-493.551	-200.000	0.003	-0.044
-492.537	170.116	-0.077	-0.110
-491.522	-76.405	0.317	0.111
-490.508	-178.338	-0.090	0.002
-489.493	800.000	0.029	0.111
-488.478	-62.171	-0.196	0.081
-487.464	129.295	0.171	0.217
-486.449	-91.994	0.157	0.044
-485.435	-77.086	-0.431	-0.149
-484.420	-200.000	0.081	0.398
-483.405	28.949	-0.278	0.235
-482.391	51.150	-0.267	-0.252
-481.376	72.039	0.069	-0.072
-480.362	24.522	0.284	0.234
-479.347	-146.105	-0.266	-0.023
-478.332	168.894	-0.108	0.153
-477.318	120.482	-0.209	0.258
-476.303	-200.000	0.011	-0.120
-475.289	103.569	-0.101	0.118
-474.274	17.881	0.242	-0.192
-473.259	-105.448	-0.433	0.098
-472.245	-11.351	0.247	0.161
-471.230	0.006	-0.194	-0.137
-470.216	-200.000	-0.031	0.343
-469.201	5.799	-0.230	0.169
-468.186	477.657	0.098	-0.221
-467.172	-39.255	0.186	0.097
-466.157	186.674	0.173	0.256
-465.143	28.115	0.090	-0.075
-464.128	-200.000	-0.009	0.164
-463.113	-24.674	0.204	0.121
-462.099	523.451	0.072	0.167
-461.084	800.000	-0.018	-0.064
-460.070	30.776	-0.158	0.135
-459.055	305.462	-0.074	-0.137
-458.040	79.190	-0.120	0.128
-457.026	96.672	-0.141	-0.160
-456.011	48.039	0.340	-0.316
-454.997	124.115	-0.182	-0.227
-453.982	544.633	-0.075	-0.177
-452.968	-141.508	0.282	0.028
-451.953	428.135	-0.172	-0.370
-450.938	-24.097	-0.314	-0.186
-449.924	472.733	-0.098	0.219
-448.909	229.826	0.040	-0.065
-447.895	-139.194	-0.102	-0.011
-446.880	-188.922	0.050	-0.001
-445.865	-79.815	-0.120	-0.040
-444.851	28.707	-0.244	-0.205
-443.836	-200.000	-0.067	-0.423
-442.822	-122.539	0.325	0.052
-441.807	-148.556	0.137	-0.011
-440.792	310.327	-0.131	-0.243
-439.778	25.989	-0.202	0.168
-438.763	-76.311	0.190	0.067
-437.749	0.174	-0.138	-0.098
-436.734	800.000	0.052	0.211
-435.719	40.559	-0.154	-0.138
-434.705	-200.000	-0.029	-0.240
-433.690	-200.000	0.005	0.126
-432.676	180.050	-0.162	-0.235
-431.661	56.569	0.105	0.101
-430.646	47.684	0.126	-0.117
-429.632	-200.000	-0.013	0.230
-428.617	-60.547	0.189	0.079
-427.603	-86.107	0.386	-0.118
-426.588	476.271	-0.044	0.099
-425.573	13.589	-0.076	0.058
-424.559	-158.071	0.214	0.012
-423.544	9.507	-0.349	0.262
-422.530	-200.000	0.062	-0.399
-421.515	-135.770	0.159	-0.019
-420.500	45.119	-0.144	-0.132
-419.486	-80.057	-0.255	-0.085
-418.471	-92.866	0.339	0.094
-417.457	310.521	0.056	0.104
-416.442	-92.418	-0.256	-0.071
-415.428	-69.021	-0.267	0.102
-414.413	-6.197	0.107	0.073
-413.398	5.762	0.182	-0.134
-412.384	201.356	-0.038	0.058
-411.369	171.324	0.196	-0.279
-410.355	4.657	-0.086	-0.063
-409.340	-91.078	0.016	-0.005
-408.325	92.026	0.064	0.071
-407.311	-3.995	-0.086	-0.059
-406.296	-49.915	0.257	0.121
-405.282	190.800	-0.053	0.079
-404.267	-147.159	-0.160	-0.014
-403.252	690.827	0.036	-0.093
-402.238	18.053	0.202	0.160
-401.223	-27.319	-0.118	0.068
-400.209	-111.342	0.136	-0.028
-399.194	-73.070	0.268	0.098
-398.179	354.736	0.104	0.205
-397.165	558.956	-0.064	-0.153
-396.150	347.011	-0.029	-0.056
-395.136	639.291	-0.017	-0.044
-394.121	27.008	0.308	-0.256
-393.106	800.000	-0.056	-0.176
-392.092	139.234	-0.123	-0.160
-391.077	247.929	0.125	-0.210
-390.063	-41.940	-0.082	0.042
-389.048	256.492	0.052	0.088
-388.033	-200.000	0.017	0.344
-387.019	46.485	-0.093	0.085
-386.004	800.000	0.096	-0.321
-384.990	-131.612	0.256	0.033
-383.975	78.428	0.161	0.170
-382.960	33.977	0.204	0.176
-381.946	342.817	-0.237	-0.459
-380.931	-21.429	-0.122	-0.074
-379.917	150.903	0.036	0.048
-378.902	800.000	-0.099	0.346
-377.888	41.472	0.285	-0.255
-376.873	385.140	0.088	-0.179
-375.858	-37.136	-0.224	-0.119
-374.844	202.680	0.211	0.323
-373.829	-73.596	0.106	0.038
-372.815	160.838	0.083	0.115
-371.800	59.707	0.038	0.037
-370.785	65.583	-0.086	0.086
-369.771	234.762	0.118	0.193
-368.756	24.696	-0.078	0.064
-367.742	608.606	0.071	-0.175
-366.727	-183.861	0.240	0.004
-365.712	356.115	0.097	0.191
-364.698	-71.993	-0.291	0.107
-363.683	-30.419	0.130	0.073
-362.669	-36.595	-0.181	-0.097
-361.654	75.783	-0.102	0.106
-360.639	277.943	-0.166	-0.293
-359.625	-171.074	-0.248	-0.008
-358.610	71.921	-0.113	0.117
-357.596	-151.955	0.279	-0.020
-356.581	454.120	-0.049	0.108
-355.566	-68.357	0.282	-0.108
-354.552	283.340	0.111	0.197
-353.537	-150.133	0.062	-0.005
-352.523	-87.718	-0.183	-0.055
-351.508	-112.817	-0.064	-0.012
-350.493	-83.499	-0.090	0.028
-349.479	-170.525	0.107	0.004
-348.464	800.000	-0.106	0.294
-347.450	-120.981	0.371	-0.062
-346.435	24.533	-0.313	-0.256
-345.420	-200.000	-0.031	0.144
-344.406	-200.000	0.023	-0.213
-343.391	-19.910	-0.156	0.095
-342.377	583.838	-0.077	-0.188
-341.362	151.413	-0.294	0.395
-340.348	-137.856	0.167	-0.019
-339.333	-68.368	-0.081	-0.031
-338.318	92.464	0.073	-0.081
-337.304	501.147	-0.112	0.255
-336.289	236.481	0.127	-0.208
-335.275	-200.000	0.018	-0.110
-334.260	34.734	0.301	-0.260
-333.245	-82.382	-0.166	-0.053
-332.231	28.466	0.074	-0.062
-331.216	417.974	0.124	-0.262
-330.202	495.543	0.090	-0.205
-329.187	-21.775	-0.085	0.051
-328.172	-200.000	-0.023	0.597
-327.158	42.252	-0.169	-0.152
-326.143	88.573	0.216	-0.237
-325.129	-200.000	0.001	0.229
-324.114	-84.063	0.405	-0.127
-323.099	-107.277	0.241	-0.052
-322.085	700.534	-0.061	-0.160
-321.070	-86.611	0.132	-0.040
-320.056	420.817	0.034	0.072
-319.041	136.249	-0.157	-0.202
-318.026	-200.000	0.063	0.347
-317.012	-200.000	0.028	0.243
-315.997	-132.179	-0.426	-0.055
-314.983	800.000	0.103	-0.386
-313.968	-89.840	0.291	0.084
-312.953	-14.730	-0.109	0.069
-311.939	-200.000	-0.035	0.266
-310.924	61.416	0.223	-0.219
-309.910	35.563	-0.185	0.161
-308.895	-96.024	-0.295	-0.078
-307.880	-108.768	0.240	-0.051
-306.866	0.193	0.070	0.049
-305.851	538.297	0.059	-0.139
-304.837	-78.117	0.315	-0.107
-303.822	23.929	0.139	-0.114
-302.807	-105.498	0.183	0.041
-301.793	-21.845	-0.461	0.277
-300.778	-161.958	-0.264	0.013
-299.764	-200.000	0.049	-0.526
-298.749	349.003	0.024	-0.047
-297.735	440.241	0.044	-0.095
-296.720	-125.220	0.361	0.055
-295.705	-200.000	0.039	-0.204
-294.691	-200.000	-0.021	0.350
-293.676	14.169	0.262	0.201
-292.662	240.264	-0.194	-0.320
-291.647	216.894	-0.061	0.096
-290.632	10.535	-0.264	0.198
-289.618	800.000	0.086	0.276
-288.603	0.135	0.036	0.026
-287.589	800.000	-0.064	-0.204
-286.574	31.715	-0.192	-0.163
-285.559	-59.603	0.239	-0.101
-284.545	-126.642	-0.153	-0.022
-283.530	24.331	0.158	0.129
-282.516	18.294	-0.085	-0.067
-281.501	737.778	-0.044	-0.116
-280.486	661.127	-0.151	0.383
-279.472	-95.188	-0.181	0.048
-278.457	-54.380	-0.064	-0.028
-277.443	632.803	-0.030	-0.075
-276.428	13.616	0.139	-0.106
-275.413	411.878	0.079	0.164
-274.399	142.319	0.154	0.202
-273.384	46.413	-0.086	0.079
-272.370	165.897	0.180	-0.251
-271.355	30.770	0.246	-0.207
-270.340	-81.557	-0.372	0.121
-269.326	77.700	0.286	-0.300
-268.311	800.000	0.046	0.133
-267.297	103.306	-0.317	-0.366
-266.282	-19.428	0.182	-0.111
-265.267	800.000	-0.031	-0.087
-264.253	-18.117	-0.221	0.137
-263.238	800.000	0.026	0.099
-262.224	-200.000	-0.033	0.153
-261.209	-65.063	0.180	0.072
-260.195	800.000	0.038	0.159
-259.180	-167.912	0.165	0.006
-258.165	-92.398	-0.323	0.090
-257.151	-129.792	-0.546	0.074
-256.136	-2.734	0.236	-0.163
-255.122	549.254	-0.023	-0.055
-254.107	-128.332	-0.245	-0.034
-253.092	192.238	-0.145	0.216
-252.078	-73.918	0.143	0.051
-251.063	72.974	-0.108	0.111
-250.049	230.461	-0.038	0.061
-249.034	800.000	0.085	0.267
-248.019	-200.000	0.062	0.284
-247.005	188.277	-0.245	-0.361
-245.990	800.000	0.033	-0.101
-244.976	-128.158	-0.427	-0.060
-243.961	-54.820	0.207	0.092
-242.946	446.529	0.146	0.317
-241.932	-3.901	-0.166	-0.113
-240.917	-200.000	-0.002	-0.293
-239.903	-133.892	-0.201	-0.025
-238.888	-200.000	-0.003	-0.126
-237.873	54.525	-0.200	-0.190
-236.859	-15.628	-0.336	0.211
-235.844	-61.239	0.229	0.095
-234.830	-18.403	-0.191	0.118
-233.815	57.107	0.074	0.071
-232.800	-80.492	0.240	-0.079
-231.786	-171.925	0.111	-0.004
-230.771	192.811	-0.075	0.111
-229.757	17.107	0.195	0.152
-228.742	-79.238	-0.182	-0.061
-227.727	723.992	0.118	-0.309
-226.713	-200.000	-0.003	-0.077
-225.698	800.000	0.108	0.301
-224.684	-38.570	-0.068	0.036
-223.669	-52.048	0.055	-0.025
-222.655	95.246	0.118	0.132
-221.640	471.840	0.095	-0.211
-220.625	-52.459	0.055	0.025
-219.611	12.821	0.095	0.073
-218.596	86.166	-0.379	0.411
-217.582	-200.000	-0.059	0.272
-216.567	-182.707	0.217	0.004
-215.552	-137.280	0.178	-0.020
-214.538	-35.052	-0.121	0.065
-213.523	78.321	-0.192	-0.202
-212.509	-200.000	0.025	-0.159
-211.494	247.607	-0.097	0.161
-210.479	590.407	-0.081	-0.198
-209.465	-200.000	-0.023	0.207
-208.450	11.207	0.040	0.030
-207.436	800.000	-0.017	0.055
-206.421	6.247	0.083	-0.060
-205.406	201.208	-0.144	0.218
-204.392	-200.000	0.019	-0.316
-203.377	594.792	-0.140	0.341
-202.363	-55.167	0.199	-0.088
-201.348	198.707	-0.093	-0.140
-200.333	-200.000	-0.021	0.438
-199.319	86.708	0.063	0.068
-198.304	383.968	0.076	-0.154
-197.290	172.284	-0.085	0.120
-196.275	-76.285	0.240	0.083
-195.260	444.647	-0.064	0.138
-194.246	-24.997	0.159	-0.093
-193.231	-33.163	0.240	-0.131
-192.217	-119.086	0.323	-0.056
-191.202	36.463	-0.190	0.164
-190.187	-54.407	-0.185	0.082
-189.173	-103.981	0.087	-0.020
-188.158	-200.000	0.017	0.179
-187.144	800.000	0.027	-0.078
-186.129	-53.528	0.298	-0.134
-185.114	56.146	-0.209	-0.200
-184.100	-200.000	-0.029	0.269
-183.085	-7.042	0.245	0.163
-182.071	-200.000	0.016	-0.085
-181.056	800.000	-0.045	-0.178
-180.042	128.570	-0.078	-0.098
-179.027	-144.699	-0.090	0.008
-178.012	-64.050	0.194	-0.078
-176.998	87.285	-0.298	0.324
-175.983	136.428	-0.140	0.179
-174.969	-51.611	-0.209	-0.096
-173.954	-200.000	0.040	0.179
-172.939	800.000	-0.083	0.350
-171.925	115.482	-0.119	0.142
-170.910	-45.330	-0.281	-0.137
-169.896	-130.113	-0.216	-0.029
-168.881	289.498	0.100	-0.178
-167.866	-49.390	0.161	0.076
-166.852	34.285	-0.193	-0.165
-165.837	97.769	0.095	0.107
-164.823	-96.003	0.279	0.073
-163.808	9.685	0.170	-0.126
-162.793	240.739	0.090	0.147
-161.779	-47.826	0.238	-0.113
-160.764	-98.310	0.441	-0.111
-159.750	50.592	-0.161	-0.149
-158.735	-162.622	-0.362	-0.018
-157.720	-200.000	-0.032	-0.303
-156.706	53.077	-0.305	-0.286
-155.691	799.673	0.051	-0.139
-154.677	34.551	0.235	-0.202
-153.662	603.708	0.051	0.124
-152.647	63.757	0.063	0.062
-151.633	60.833	0.036	0.035
-150.618	-141.502	0.338	0.034
-149.604	800.000	0.104	-0.433
-148.589	-165.503	0.131	0.006
-147.574	800.000	0.095	0.290
-146.560	-200.000	0.052	-0.229
-145.545	-147.216	-0.085	0.007
-144.531	160.089	0.055	-0.075
-143.516	-117.479	-0.390	-0.069
-142.502	-172.633	0.236	-0.007
-141.487	49.124	-0.039	-0.036
-140.472	48.742	0.173	-0.159
-139.458	-84.883	0.344	0.106
-138.443	20.786	-0.071	0.056
-137.429	-81.826	0.273	0.088
-136.414	-200.000	-0.004	0.335
-135.399	-200.000	-0.034	-0.166
-134.385	243.030	0.099	0.163
-133.370	-200.000	0.006	0.150
-132.356	-52.237	0.293	-0.133
-131.341	-73.622	-0.262	0.094
-130.326	-109.933	0.101	0.021
-129.312	49.535	-0.199	0.183
-128.297	261.280	0.067	-0.113
-127.283	209.419	0.041	-0.063
-126.268	183.231	0.042	-0.061
-125.253	85.696	0.022	-0.023
-124.239	22.829	-0.150	0.120
-123.224	239.032	0.214	0.348
-122.210	123.407	0.092	0.113
-121.195	-91.665	0.107	-0.030
-120.180	313.634	-0.269	0.497
