DTS Sentinel unit serial number:	SN413079Multiplexer serial number:	ORYXHardware model number:	OX4-SRSoftware version number:	ORYX F/W v4.00 Oryx Data Collector v3.7.2.0data status	okinstallation	princeton_trtdifferential loss correction	single-endedforward channel	channel 2reverse channel	N/Adate	2019/09/15time	10:03:35forward acquisition time	60.00reverse acquisition time	0.00gamma	496.2192k internal	0.2315k external	0.2315temperature offset calibration	1.0017default loss term (dB/km)	0.3790temperature slope calibration	1.0000multiplexer offset coefficient	1.0000multiplexer slope coefficient	1.0000fibre end	0.00T internal ref (°C)	34.14T ext. ref 1 (°C)	5.00T ext. ref 2 (°C)	30.05length (m)	temperature (°C)	Stokes	anti-Stokes-747.200	800.000	-0.045	-0.138
-746.185	-200.000	0.002	0.162
-745.171	574.373	-0.072	-0.177
-744.156	239.148	0.160	0.270
-743.142	-130.505	-0.272	0.037
-742.127	89.956	-0.118	0.133
-741.112	224.339	-0.174	-0.284
-740.098	-200.000	0.033	0.249
-739.083	-200.000	0.038	0.189
-738.069	-200.000	0.035	0.298
-737.054	54.096	0.160	0.155
-736.039	84.009	0.172	-0.190
-735.025	-21.787	0.126	0.078
-734.010	-63.763	0.313	-0.130
-732.996	-81.006	0.161	0.054
-731.981	-200.000	0.012	0.069
-730.966	-162.538	0.277	0.014
-729.952	-102.623	-0.106	-0.026
-728.937	-88.160	-0.213	0.065
-727.923	-145.795	0.107	-0.010
-726.908	-19.242	-0.474	-0.298
-725.894	-81.500	0.091	0.030
-724.879	277.841	0.257	0.463
-723.864	397.385	0.050	0.105
-722.850	-200.000	0.014	-0.101
-721.835	82.886	0.171	0.188
-720.821	708.657	0.123	0.330
-719.806	-99.469	-0.151	-0.039
-718.791	-67.590	0.350	-0.139
-717.777	105.355	0.068	0.082
-716.762	80.815	0.231	-0.253
-715.748	800.000	-0.019	-0.083
-714.733	-200.000	-0.043	-0.206
-713.718	-109.739	-0.346	0.074
-712.704	-160.539	-0.171	0.009
-711.689	-44.354	-0.120	-0.061
-710.675	312.045	0.062	0.118
-709.660	29.024	0.298	-0.256
-708.645	121.811	-0.272	-0.343
-707.631	49.997	0.033	0.031
-706.616	-200.000	0.062	-0.293
-705.602	-104.107	-0.253	-0.060
-704.587	345.179	-0.122	-0.242
-703.572	-122.348	-0.125	-0.021
-702.558	-122.997	0.044	-0.007
-701.543	-183.508	-0.324	-0.006
-700.529	-54.396	-0.086	0.039
-699.514	-180.077	0.077	-0.002
-698.499	567.927	-0.211	-0.519
-697.485	-200.000	0.024	-0.560
-696.470	561.757	-0.103	-0.251
-695.456	-200.000	-0.063	-0.406
-694.441	321.418	-0.172	-0.331
-693.426	-52.400	-0.169	-0.079
-692.412	-108.853	-0.313	-0.068
-691.397	216.999	0.033	0.053
-690.383	-200.000	0.006	-0.025
-689.368	-2.027	-0.260	0.185
-688.354	-155.553	-0.120	-0.008
-687.339	642.396	0.129	-0.332
-686.324	-2.568	0.253	-0.179
-685.310	31.821	0.102	-0.088
-684.295	278.341	-0.039	-0.071
-683.281	199.942	-0.093	-0.144
-682.266	-5.364	-0.191	-0.133
-681.251	-121.884	0.287	-0.048
-680.237	800.000	-0.109	-0.455
-679.222	-200.000	0.011	-0.162
-678.208	-134.620	0.191	-0.024
-677.193	800.000	-0.047	-0.135
-676.178	-200.000	-0.015	-0.095
-675.164	-100.980	-0.166	0.041
-674.149	-122.513	-0.109	-0.018
-673.135	210.200	-0.226	-0.359
-672.120	263.353	0.195	-0.342
-671.105	290.714	-0.274	0.503
-670.091	-128.384	-0.155	-0.022
-669.076	82.084	-0.197	-0.215
-668.062	-108.857	-0.128	-0.028
-667.047	225.654	0.090	-0.147
-666.032	-145.233	-0.169	0.015
-665.018	335.392	-0.059	0.115
-664.003	491.290	0.175	-0.405
-662.989	800.000	0.123	-0.349
-661.974	15.384	-0.230	0.183
-660.959	-124.567	-0.453	0.071
-659.945	137.139	-0.155	-0.205
-658.930	149.442	-0.194	0.266
-657.916	800.000	-0.023	0.078
-656.901	-40.134	0.160	-0.084
-655.886	-200.000	0.021	0.243
-654.872	-162.479	-0.267	0.013
-653.857	-79.322	-0.094	0.032
-652.843	77.414	0.190	0.204
-651.828	-7.891	-0.238	-0.162
-650.814	-108.575	0.394	-0.085
-649.799	4.902	-0.202	-0.150
-648.784	-98.870	0.038	-0.010
-647.770	0.096	0.115	0.083
-646.755	270.406	-0.076	0.134
-645.741	-113.998	-0.140	0.027
-644.726	440.676	-0.109	0.241
-643.711	46.228	-0.229	0.214
-642.697	194.407	0.043	-0.066
-641.682	-61.956	0.258	0.109
-640.668	-0.952	0.237	-0.169
-639.653	-200.000	-0.039	-0.328
-638.638	-200.000	0.023	0.414
-637.624	98.651	-0.217	0.253
-636.609	621.949	0.015	0.039
-635.595	287.469	-0.222	0.404
-634.580	-154.133	0.149	0.010
-633.565	495.860	0.123	-0.286
-632.551	230.171	-0.227	-0.374
-631.536	-86.502	-0.357	-0.110
-630.522	-130.260	0.280	0.038
-629.507	-89.943	0.079	0.023
-628.492	296.927	-0.161	0.297
-627.478	-71.324	-0.333	0.126
-626.463	-108.835	0.155	-0.033
-625.449	345.379	-0.196	-0.389
-624.434	-43.409	0.233	-0.119
-623.419	96.858	-0.297	-0.344
-622.405	-93.528	0.080	-0.022
-621.390	582.075	0.091	-0.224
-620.376	-66.786	-0.224	-0.089
-619.361	-105.875	0.064	0.015
-618.346	-168.113	-0.423	0.017
-617.332	508.047	0.054	0.127
-616.317	-200.000	0.050	-0.319
-615.303	-200.000	-0.013	0.161
-614.288	566.728	-0.034	-0.083
-613.273	-12.039	-0.167	-0.111
-612.259	130.962	-0.199	-0.257
-611.244	-200.000	-0.008	0.149
-610.230	-107.522	0.187	-0.041
-609.215	689.149	-0.075	-0.197
-608.201	264.871	0.022	-0.038
-607.186	6.775	-0.222	-0.167
-606.171	358.414	0.085	-0.171
-605.157	-70.136	-0.197	0.076
-604.142	44.594	0.133	0.123
-603.128	480.007	0.071	0.163
-602.113	27.282	-0.270	-0.228
-601.098	-200.000	-0.020	-0.128
-600.084	659.196	0.107	0.278
-599.069	215.134	0.049	-0.078
-598.055	249.310	0.066	-0.113
-597.040	478.693	-0.148	0.338
-596.025	-29.843	-0.216	0.124
-595.011	-194.875	0.281	-0.002
-593.996	-121.135	-0.106	-0.018
-592.982	-200.000	0.037	0.330
-591.967	9.950	-0.258	-0.197
-590.952	44.499	0.072	-0.066
-589.938	-200.000	0.007	0.057
-588.923	-117.709	-0.420	-0.076
-587.909	130.685	0.223	0.288
-586.894	0.388	-0.044	-0.032
-585.879	-110.348	-0.129	0.027
-584.865	8.951	0.134	-0.102
-583.850	142.534	0.037	-0.050
-582.836	-141.683	0.284	-0.029
-581.821	-72.011	-0.105	-0.039
-580.806	484.662	-0.142	0.324
-579.792	69.113	0.107	-0.111
-578.777	16.398	-0.128	-0.101
-577.763	266.455	-0.110	-0.194
-576.748	-141.887	-0.315	-0.032
-575.733	-144.838	-0.217	-0.020
-574.719	194.567	-0.072	0.109
-573.704	-200.000	0.039	0.345
-572.690	-88.833	-0.068	-0.020
-571.675	293.300	0.116	0.213
-570.661	19.874	0.284	0.231
-569.646	-200.000	0.030	0.437
-568.631	-81.710	-0.401	-0.133
-567.617	-89.519	-0.270	-0.080
-566.602	249.130	0.103	-0.176
-565.588	-200.000	0.013	-0.197
-564.573	-200.000	-0.057	-0.319
-563.558	-117.110	-0.326	-0.060
-562.544	-78.998	0.170	-0.058
-561.529	-147.283	-0.196	-0.017
-560.515	-27.572	0.160	0.094
-559.500	87.957	-0.219	0.245
-558.485	275.648	0.042	0.075
-557.471	-81.628	-0.311	0.103
-556.456	-156.857	-0.023	-0.001
-555.442	-141.892	-0.197	0.020
-554.427	800.000	-0.017	-0.065
-553.412	-200.000	-0.022	-0.108
-552.398	330.619	-0.136	-0.264
-551.383	800.000	0.106	-0.348
-550.369	-81.308	0.368	0.122
-549.354	154.484	0.257	-0.355
-548.339	-200.000	-0.031	-0.397
-547.325	99.304	-0.195	0.227
-546.310	-194.830	0.338	-0.003
-545.296	-48.246	-0.252	-0.122
-544.281	-200.000	-0.025	0.112
-543.266	800.000	-0.110	-0.433
-542.252	-158.535	-0.172	0.010
-541.237	501.446	0.093	-0.216
-540.223	98.682	-0.170	-0.198
-539.208	800.000	-0.079	0.255
-538.193	-111.769	-0.245	-0.050
-537.179	-200.000	-0.005	-0.132
-536.164	-63.227	-0.526	0.218
-535.150	-105.336	-0.215	-0.049
-534.135	-26.116	0.066	-0.039
-533.121	-33.186	-0.165	-0.092
-532.106	800.000	0.014	-0.048
-531.091	138.774	0.131	-0.173
-530.077	-100.683	0.237	-0.059
-529.062	-64.533	0.049	0.020
-528.048	-97.059	0.186	0.049
-527.033	-200.000	-0.022	0.108
-526.018	58.322	0.261	-0.257
-525.004	-0.032	-0.131	-0.094
-523.989	207.855	0.122	0.191
-522.975	181.075	-0.207	-0.306
-521.960	-100.617	0.375	-0.093
-520.945	287.030	0.138	-0.250
-519.931	-12.945	0.228	0.149
-518.916	14.062	-0.300	-0.235
-517.902	800.000	-0.023	-0.067
-516.887	221.632	-0.059	0.095
-515.872	-150.225	-0.336	0.026
-514.858	-157.853	-0.226	0.013
-513.843	800.000	0.076	0.334
-512.829	115.749	-0.084	-0.103
-511.814	95.309	0.187	-0.214
-510.799	8.417	-0.102	-0.077
-509.785	-200.000	-0.000	0.024
-508.770	275.571	0.184	-0.327
-507.756	86.076	0.039	0.043
-506.741	41.567	-0.046	0.042
-505.726	-94.060	0.301	-0.083
-504.712	800.000	-0.015	0.056
-503.697	-31.957	0.240	0.135
-502.683	-48.352	-0.431	0.209
-501.668	4.846	-0.138	-0.102
-500.653	22.203	0.303	-0.248
-499.639	-97.316	-0.176	-0.046
-498.624	71.998	0.105	-0.109
-497.610	-16.129	-0.070	0.045
-496.595	-200.000	0.068	0.326
-495.581	-160.314	0.095	-0.005
-494.566	-126.099	-0.166	-0.025
-493.551	-136.319	-0.050	0.006
-492.537	166.324	0.322	-0.458
-491.522	29.396	0.230	-0.196
-490.508	236.069	-0.060	-0.099
-489.493	72.623	-0.094	-0.098
-488.478	-200.000	0.009	0.142
-487.464	171.993	0.144	-0.207
-486.449	43.182	-0.030	-0.027
-485.435	-144.473	-0.372	0.035
-484.420	63.675	0.107	-0.108
-483.405	77.403	0.031	-0.033
-482.391	-200.000	-0.028	-0.217
-481.376	-125.758	0.183	-0.028
-480.362	120.571	-0.199	-0.249
-479.347	177.941	-0.207	-0.303
-478.332	-200.000	-0.086	0.494
-477.318	94.803	0.291	0.332
-476.303	60.377	-0.136	-0.135
-475.289	-139.711	-0.356	0.038
-474.274	175.477	0.130	-0.189
-473.259	-71.333	-0.174	-0.065
-472.245	632.575	0.028	0.072
-471.230	751.588	-0.177	0.480
-470.216	800.000	0.021	0.072
-469.201	-122.954	0.104	-0.017
-468.186	-163.527	-0.110	-0.005
-467.172	-200.000	-0.022	-0.230
-466.157	-103.228	0.319	0.076
-465.143	199.623	-0.154	0.236
-464.128	800.000	0.066	0.284
-463.113	-40.205	0.122	-0.064
-462.099	25.193	0.101	-0.084
-461.084	184.498	0.302	-0.449
-460.070	403.088	-0.118	-0.249
-459.055	120.376	0.117	0.145
-458.040	-119.086	-0.158	-0.028
-457.026	-200.000	0.017	0.312
-456.011	190.846	0.030	-0.045
-454.997	-200.000	-0.049	-0.317
-453.982	-113.789	-0.150	0.029
-452.968	352.642	-0.221	0.439
-451.953	-4.921	0.289	-0.199
-450.938	549.294	-0.037	-0.089
-449.924	727.810	-0.104	-0.277
-448.909	11.103	-0.079	0.061
-447.895	-51.445	0.128	0.060
-446.880	-200.000	-0.009	0.057
-445.865	800.000	0.031	-0.101
-444.851	703.887	-0.106	-0.280
-443.836	393.466	0.125	0.260
-442.822	11.175	-0.164	-0.126
-441.807	800.000	-0.133	-0.370
-440.792	-200.000	0.014	-0.231
-439.778	47.885	-0.167	-0.156
-438.763	-114.785	-0.233	-0.044
-437.749	593.231	-0.029	0.071
-436.734	-148.097	0.112	-0.009
-435.719	315.487	0.149	-0.282
-434.705	-78.643	0.189	-0.065
-433.690	-200.000	-0.005	0.054
-432.676	165.597	0.168	0.237
-431.661	136.060	-0.226	0.295
-430.646	-1.063	-0.204	0.144
-429.632	439.157	0.124	-0.272
-428.617	-137.379	0.327	0.037
-427.603	-96.992	-0.169	-0.044
-426.588	229.690	0.246	0.402
-425.573	-28.087	-0.183	0.106
-424.559	52.892	-0.268	-0.257
-423.544	-200.000	-0.012	-0.174
-422.530	-200.000	0.021	-0.102
-421.515	0.204	0.214	0.153
-420.500	157.021	-0.150	0.208
-419.486	-77.925	-0.156	-0.054
-418.471	800.000	-0.145	-0.402
-417.457	-81.984	-0.215	0.070
-416.442	800.000	0.048	-0.142
-415.428	16.892	-0.253	0.201
-414.413	800.000	0.091	0.278
-413.398	800.000	-0.019	-0.077
-412.384	800.000	0.085	0.335
-411.369	767.788	0.055	0.150
-410.355	-200.000	0.062	-0.348
-409.340	97.401	0.071	0.081
-408.325	100.375	0.096	0.112
-407.311	-200.000	0.007	-0.098
-406.296	211.651	0.091	-0.143
-405.282	2.812	0.219	0.159
-404.267	-200.000	0.001	0.119
-403.252	388.514	-0.115	-0.238
-402.238	116.842	0.014	-0.018
-401.223	7.956	0.050	0.037
-400.209	9.006	-0.075	-0.056
-399.194	-200.000	0.004	-0.144
-398.179	-46.128	-0.113	-0.055
-397.165	-200.000	0.023	0.137
-396.150	-10.851	-0.376	0.248
-395.136	800.000	-0.045	0.134
-394.121	-200.000	0.001	0.131
-393.106	2.153	0.056	-0.040
-392.092	800.000	0.070	0.238
-391.077	-200.000	-0.071	0.450
-390.063	-18.213	0.260	-0.163
-389.048	800.000	0.031	-0.103
-388.033	800.000	0.084	-0.337
-387.019	-45.405	0.208	-0.103
-386.004	-200.000	0.019	0.123
-384.990	-48.424	-0.098	-0.047
-383.975	27.949	-0.125	0.105
-382.960	800.000	0.050	0.187
-381.946	83.026	0.130	-0.141
-380.931	800.000	-0.026	0.081
-379.917	-104.488	-0.107	-0.025
-378.902	-88.022	0.264	0.079
-377.888	-123.142	0.393	0.063
-376.873	318.970	0.151	0.286
-375.858	-200.000	-0.050	0.266
-374.844	18.710	-0.150	0.120
-373.829	-200.000	0.003	0.077
-372.815	-70.809	0.352	-0.132
-371.800	-47.297	-0.323	0.157
-370.785	-200.000	0.102	0.497
-369.771	800.000	0.090	-0.281
-368.756	118.844	0.037	0.045
-367.742	-4.890	0.062	-0.043
-366.727	319.629	-0.137	-0.260
-365.712	220.167	0.085	0.137
-364.698	506.625	0.105	0.243
-363.683	240.687	0.140	-0.232
-362.669	17.699	0.053	0.042
-361.654	281.560	-0.117	0.209
-360.639	-16.712	0.259	0.164
-359.625	71.115	-0.041	-0.042
-358.610	760.478	-0.045	-0.120
-357.596	800.000	-0.047	0.181
-356.581	-184.455	0.211	-0.003
-355.566	-95.981	0.107	-0.028
-354.552	-96.025	-0.077	0.020
-353.537	-0.810	-0.034	-0.024
-352.523	379.114	-0.044	-0.090
-351.508	-80.813	0.324	0.107
-350.493	99.859	0.105	0.121
-349.479	-95.907	0.117	-0.031
-348.464	663.115	0.124	0.318
-347.450	-200.000	0.030	0.308
-346.435	-4.314	-0.057	0.039
-345.420	72.247	-0.095	0.098
-344.406	75.280	0.264	0.278
-343.391	800.000	-0.054	0.185
-342.377	-2.929	-0.158	-0.110
-341.362	385.025	-0.143	-0.293
-340.348	-52.085	0.246	-0.114
-339.333	-12.537	0.227	0.148
-338.318	107.097	-0.267	0.317
-337.304	-200.000	0.044	-0.228
-336.289	24.936	0.181	-0.149
-335.275	-5.751	0.072	0.049
-334.260	439.829	0.053	0.116
-333.245	-200.000	0.000	0.238
-332.231	16.137	-0.279	0.219
-331.216	-200.000	0.046	-0.299
-330.202	112.110	0.101	0.121
-329.187	-122.271	-0.242	-0.039
-328.172	800.000	-0.082	0.231
-327.158	137.191	0.135	0.176
-326.143	-111.163	-0.230	0.047
-325.129	-200.000	-0.023	-0.103
-324.114	-148.035	0.104	-0.009
-323.099	-12.410	0.125	-0.082
-322.085	-95.695	0.382	0.102
-321.070	10.537	-0.111	-0.084
-320.056	800.000	0.060	-0.260
-319.041	113.824	-0.072	-0.087
-318.026	-200.000	0.017	-0.301
-317.012	-156.303	0.234	-0.015
-315.997	499.271	-0.092	-0.212
-314.983	-98.638	0.346	-0.088
-313.968	133.126	-0.102	-0.131
-312.953	1.058	0.078	0.056
-311.939	11.950	-0.402	0.308
-310.924	-105.047	-0.103	-0.024
-309.910	-86.425	-0.183	-0.056
-308.895	-88.075	-0.340	0.102
-307.880	205.607	0.149	-0.230
-306.866	-32.689	0.116	-0.064
-305.851	239.875	-0.099	0.164
-304.837	29.618	-0.191	-0.162
-303.822	172.941	0.158	0.227
-302.807	66.944	0.087	0.088
-301.793	800.000	0.134	-0.489
-300.778	-51.299	0.147	-0.068
-299.764	506.592	0.034	0.079
-298.749	-49.854	-0.341	0.161
-297.735	-52.408	0.160	-0.074
-296.720	-32.582	0.186	0.103
-295.705	-18.373	0.156	0.097
-294.691	-200.000	0.035	0.260
-293.676	123.884	-0.233	0.291
-292.662	375.405	0.061	-0.124
-291.647	-133.886	0.086	0.011
-290.632	-68.722	-0.164	-0.063
-289.618	-144.593	-0.050	-0.005
-288.603	375.974	-0.110	0.223
-287.589	-158.809	0.107	-0.006
-286.574	800.000	0.063	-0.270
-285.559	109.956	0.185	0.221
-284.545	800.000	-0.085	0.238
-283.530	-59.196	0.236	0.101
-282.516	-94.261	-0.304	0.083
-281.501	800.000	0.038	-0.142
-280.486	-91.385	0.159	-0.045
-279.472	51.354	-0.194	-0.183
-278.457	800.000	0.062	-0.185
-277.443	-164.571	0.101	0.005
-276.428	-89.888	-0.105	-0.031
-275.413	800.000	0.037	0.105
-274.399	-200.000	-0.014	-0.212
-273.384	-89.871	-0.207	0.060
-272.370	86.981	-0.244	-0.268
-271.355	24.314	-0.017	-0.014
-270.340	-200.000	0.013	0.077
-269.326	17.173	0.255	0.201
-268.311	-5.809	0.095	-0.065
-267.297	10.173	0.292	-0.221
-266.282	-200.000	0.003	-0.253
-265.267	-200.000	-0.050	0.248
-264.253	-79.936	0.102	-0.034
-263.238	-72.639	0.184	-0.067
-262.224	236.402	0.076	-0.124
-261.209	-200.000	-0.063	-0.441
-260.195	224.583	-0.152	0.244
-259.180	214.972	-0.291	0.458
-258.165	-99.661	0.238	-0.059
-257.151	40.789	-0.106	-0.095
-256.136	-200.000	-0.038	0.213
-255.122	-99.431	0.155	0.039
-254.107	115.174	0.227	0.275
-253.092	-0.232	0.092	0.065
-252.078	-200.000	0.003	0.064
-251.063	-140.743	-0.307	0.032
-250.049	242.483	-0.175	-0.291
-249.034	-110.488	0.121	-0.025
-248.019	81.463	-0.112	-0.121
-247.005	-30.283	-0.128	-0.072
-245.990	132.224	-0.026	-0.033
-244.976	131.019	-0.081	-0.104
-243.961	-131.924	0.300	0.039
-242.946	204.340	0.123	-0.190
-241.932	-200.000	-0.029	-0.320
-240.917	347.184	-0.229	0.448
-239.903	-200.000	-0.058	0.307
-238.888	-24.708	0.107	0.063
-237.873	-81.920	0.115	-0.037
-236.859	537.265	-0.170	0.401
-235.844	-109.248	-0.238	-0.050
-234.830	60.196	0.182	-0.179
-233.815	119.294	0.246	-0.302
-232.800	-115.140	0.094	-0.018
-231.786	-200.000	-0.001	-0.025
-230.771	421.661	-0.190	0.405
-229.757	158.580	0.093	-0.128
-228.742	800.000	0.060	0.222
-227.727	-183.383	0.388	0.007
-226.713	38.545	0.159	0.141
-225.698	-179.303	0.055	0.001
-224.684	106.887	0.144	-0.170
-223.669	250.060	-0.161	0.272
-222.655	109.073	0.223	-0.265
-221.640	-96.200	0.125	-0.033
-220.625	157.006	-0.107	0.147
-219.611	-40.055	-0.052	0.027
-218.596	800.000	0.020	-0.066
-217.582	-77.252	0.057	0.020
-216.567	-200.000	-0.054	0.306
-215.552	-134.564	-0.259	0.031
-214.538	427.618	0.078	0.168
-213.523	-82.648	-0.308	-0.099
-212.509	-75.554	-0.056	-0.020
-211.494	-200.000	0.002	-0.097
-210.479	-122.293	0.281	0.046
-209.465	-200.000	0.012	-0.120
-208.450	-200.000	-0.002	-0.034
-207.436	-9.983	-0.137	-0.090
-206.421	800.000	0.118	-0.343
-205.406	-62.330	-0.170	0.070
-204.392	800.000	-0.049	-0.167
-203.377	-47.509	-0.384	-0.185
-202.363	-200.000	-0.016	0.184
-201.348	11.312	0.308	0.234
-200.333	52.171	-0.049	-0.046
-199.319	218.954	0.112	0.177
-198.304	-143.781	-0.397	-0.037
-197.290	11.733	-0.267	0.203
-196.275	461.010	-0.090	0.200
-195.260	198.825	-0.098	0.149
-194.246	-144.052	-0.277	0.026
-193.231	123.127	-0.038	-0.048
-192.217	-200.000	0.026	0.227
-191.202	800.000	0.088	0.345
-190.187	-10.513	0.252	-0.165
-189.173	286.989	-0.050	-0.089
-188.158	170.085	0.155	0.220
-187.144	157.970	0.076	-0.105
-186.129	-200.000	-0.044	-0.263
-185.114	800.000	0.062	0.171
-184.100	138.022	0.207	0.269
-183.085	90.690	-0.225	-0.250
-182.071	-90.331	0.227	0.065
-181.056	-32.047	0.209	0.116
-180.042	-33.386	0.316	-0.173
-179.027	-96.834	0.306	-0.080
-178.012	245.375	-0.161	-0.269
-176.998	223.807	0.142	-0.227
-175.983	-200.000	0.020	0.091
-174.969	95.425	0.244	0.275
-173.954	-84.622	0.269	0.084
-172.939	-36.470	0.081	-0.043
-171.925	148.919	0.083	-0.111
-170.910	278.200	0.031	0.054
-169.896	-99.366	0.092	0.023
-168.881	-60.936	0.103	-0.043
-167.866	350.806	0.037	0.072
-166.852	53.189	0.286	0.271
-165.837	-85.320	-0.048	0.015
-164.823	-2.843	-0.105	0.072
-163.808	-8.605	0.105	0.070
-162.793	7.179	0.337	-0.249
-161.779	34.759	0.327	-0.283
-160.764	-49.680	0.127	0.060
-159.750	-92.823	-0.104	-0.029
-158.735	226.706	-0.067	0.108
-157.720	800.000	-0.037	-0.118
-156.706	-12.305	-0.293	0.190
-155.691	-148.316	0.153	0.012
-154.677	-13.138	-0.183	0.118
-153.662	-200.000	0.029	0.146
-152.647	-52.579	0.351	0.160
-151.633	356.035	-0.084	-0.165
-150.618	-169.617	-0.434	0.016
-149.604	-187.620	-0.228	-0.003
-148.589	-200.000	-0.017	-0.111
-147.574	-32.421	-0.260	0.143
-146.560	211.311	0.001	0.002
-145.545	167.322	-0.122	0.171
-144.531	264.684	-0.127	0.220
-143.516	-35.537	0.247	-0.133
-142.502	-200.000	0.017	0.103
-141.487	108.098	-0.100	0.118
-140.472	-153.997	-0.071	0.005
-139.458	585.586	0.023	0.056
-138.443	109.497	0.107	0.127
-137.429	506.904	-0.130	0.298
-136.414	800.000	0.060	0.209
-135.399	-38.841	-0.228	-0.119
-134.385	247.058	0.025	0.042
-133.370	175.874	-0.117	0.168
-132.356	164.319	-0.103	0.143
-131.341	-124.897	-0.151	0.023
-130.326	58.625	-0.047	0.045
-129.312	-200.000	-0.049	-0.333
-128.297	-186.051	-0.165	0.002
-127.283	400.975	-0.105	0.217
-126.268	-136.610	-0.153	-0.017
-125.253	800.000	0.088	0.286
-124.239	-200.000	0.004	-0.030
-123.224	329.244	0.077	0.146
-122.210	-136.698	-0.069	0.008
-121.195	-21.172	0.167	0.101
