DTS Sentinel unit serial number:	SN413079Multiplexer serial number:	ORYXHardware model number:	OX4-SRSoftware version number:	ORYX F/W v4.00 Oryx Data Collector v3.7.2.0data status	okinstallation	princeton_trtdifferential loss correction	single-endedforward channel	channel 2reverse channel	N/Adate	2019/09/16time	07:23:35forward acquisition time	60.00reverse acquisition time	0.00gamma	496.2192k internal	0.2334k external	0.2334temperature offset calibration	0.9980default loss term (dB/km)	0.3790temperature slope calibration	1.0000multiplexer offset coefficient	1.0000multiplexer slope coefficient	1.0000fibre end	0.00T internal ref (°C)	27.47T ext. ref 1 (°C)	11.59T ext. ref 2 (°C)	23.08length (m)	temperature (°C)	Stokes	anti-Stokes-747.200	-79.586	-0.327	0.111
-746.185	83.910	0.051	-0.056
-745.171	-110.654	0.483	0.100
-744.156	-200.000	0.064	0.305
-743.142	-200.000	0.005	-0.186
-742.127	38.863	0.028	-0.025
-741.112	11.318	-0.244	0.188
-740.098	800.000	0.068	0.208
-739.083	800.000	-0.054	0.152
-738.069	-102.979	-0.255	0.061
-737.054	74.552	0.153	-0.162
-736.039	-69.555	-0.018	-0.007
-735.025	17.348	0.190	-0.151
-734.010	-37.109	-0.341	-0.183
-732.996	-200.000	0.023	-0.158
-731.981	-21.531	-0.133	0.082
-730.966	447.812	-0.073	0.160
-729.952	-6.089	-0.241	0.166
-728.937	-21.028	-0.252	-0.155
-727.923	142.646	0.095	-0.126
-726.908	-99.174	-0.422	0.107
-725.894	184.277	-0.065	-0.097
-724.879	-43.033	0.094	0.048
-723.864	-32.990	-0.167	-0.093
-722.850	97.735	0.150	-0.173
-721.835	2.774	-0.420	-0.306
-720.821	800.000	0.087	0.309
-719.806	67.904	-0.096	-0.099
-718.791	38.998	-0.245	-0.220
-717.777	-32.516	0.081	-0.045
-716.762	-141.416	0.593	-0.060
-715.748	-200.000	0.009	-0.047
-714.733	-200.000	0.032	0.145
-713.718	273.482	0.065	-0.115
-712.704	-200.000	-0.036	0.240
-711.689	-200.000	0.039	0.223
-710.675	30.173	-0.130	-0.111
-709.660	61.608	-0.334	-0.333
-708.645	-200.000	0.060	0.351
-707.631	10.636	-0.148	0.114
-706.616	-108.912	-0.242	-0.052
-705.602	-163.798	0.102	0.005
-704.587	-157.092	0.164	-0.010
-703.572	-104.285	0.163	-0.038
-702.558	-86.358	0.461	-0.142
-701.543	-10.707	0.237	-0.157
-700.529	113.273	-0.053	-0.064
-699.514	-200.000	0.016	0.246
-698.499	208.015	0.105	0.165
-697.485	99.894	-0.030	0.035
-696.470	-136.384	-0.603	0.070
-695.456	800.000	0.024	0.100
-694.441	-33.159	0.108	0.060
-693.426	-200.000	-0.021	0.147
-692.412	64.259	0.081	0.081
-691.397	-90.418	-0.295	-0.086
-690.383	583.698	-0.060	0.147
-689.368	-200.000	-0.002	0.072
-688.354	-46.176	0.304	-0.150
-687.339	800.000	-0.081	0.285
-686.324	800.000	-0.060	-0.218
-685.310	-114.133	0.141	0.027
-684.295	-94.990	-0.303	0.082
-683.281	170.058	0.129	-0.185
-682.266	66.954	0.184	-0.188
-681.251	-49.615	-0.333	0.159
-680.237	-68.980	0.253	-0.098
-679.222	396.948	0.015	0.031
-678.208	-18.490	-0.325	-0.204
-677.193	214.988	0.139	-0.221
-676.178	-200.000	-0.004	-0.214
-675.164	-130.754	-0.220	-0.030
-674.149	-58.139	-0.272	-0.119
-673.135	800.000	0.016	0.062
-672.120	-91.872	-0.200	-0.057
-671.105	-200.000	-0.069	-0.430
-670.091	-200.000	0.038	-0.236
-669.076	-33.308	0.328	0.182
-668.062	-141.385	-0.203	0.021
-667.047	-133.393	-0.135	-0.017
-666.032	-54.375	-0.234	-0.106
-665.018	-110.432	-0.214	0.045
-664.003	367.315	-0.087	-0.177
-662.989	291.601	0.059	0.108
-661.974	-154.558	-0.163	-0.011
-660.959	-103.296	0.257	0.061
-659.945	-169.189	-0.142	0.005
-658.930	800.000	-0.109	-0.417
-657.916	-128.422	-0.206	0.029
-656.901	211.998	-0.084	-0.133
-655.886	-200.000	0.001	-0.161
-654.872	-110.526	-0.356	0.074
-653.857	-85.341	-0.210	-0.065
-652.843	-138.253	-0.307	-0.034
-651.828	800.000	0.075	-0.280
-650.814	-96.220	-0.163	0.043
-649.799	72.484	-0.029	-0.030
-648.784	-0.476	-0.002	-0.001
-647.770	7.327	0.216	-0.162
-646.755	-41.980	-0.316	0.162
-645.741	401.976	0.082	-0.173
-644.726	-56.486	-0.150	0.067
-643.711	92.730	-0.110	-0.124
-642.697	-180.165	-0.171	0.004
-641.682	-166.173	0.085	0.004
-640.668	9.071	-0.176	0.133
-639.653	-79.059	0.267	0.091
-638.638	-200.000	-0.001	0.151
-637.624	35.693	-0.100	0.088
-636.609	246.555	-0.040	-0.068
-635.595	68.973	0.108	-0.111
-634.580	-110.876	-0.171	-0.035
-633.565	-145.485	-0.223	0.020
-632.551	110.955	-0.071	0.086
-631.536	-200.000	-0.037	-0.173
-630.522	-126.668	-0.280	-0.041
-629.507	-153.802	0.018	0.001
-628.492	-74.989	-0.074	-0.027
-627.478	800.000	-0.009	-0.026
-626.463	-81.047	0.094	-0.031
-625.449	30.219	0.098	-0.084
-624.434	-98.065	-0.246	0.063
-623.419	-133.375	-0.074	0.009
-622.405	-200.000	0.080	-0.484
-621.390	-200.000	0.012	0.084
-620.376	3.153	0.163	-0.119
-619.361	46.791	-0.104	-0.096
-618.346	250.865	-0.091	0.155
-617.332	-200.000	-0.053	0.337
-616.317	-200.000	-0.023	0.382
-615.303	-78.399	0.219	0.075
-614.288	-81.708	-0.247	-0.081
-613.273	-109.214	-0.147	0.031
-612.259	-101.372	0.386	0.094
-611.244	-23.461	0.156	-0.094
-610.230	186.179	0.121	-0.180
-609.215	125.485	-0.152	0.191
-608.201	102.500	0.159	0.186
-607.186	-130.884	-0.206	-0.028
-606.171	221.334	-0.133	0.214
-605.157	-135.477	-0.284	-0.034
-604.142	9.183	0.211	0.160
-603.128	-68.193	-0.416	0.162
-602.113	49.180	0.204	-0.192
-601.098	326.314	0.143	0.273
-600.084	111.134	-0.108	0.130
-599.069	-42.063	0.315	0.161
-598.055	-24.747	0.118	0.070
-597.040	188.561	0.131	-0.196
-596.025	32.144	-0.042	0.036
-595.011	4.718	0.250	-0.183
-593.996	746.625	0.156	-0.421
-592.982	-196.328	-0.334	0.002
-591.967	-182.979	-0.113	-0.002
-590.952	164.258	-0.219	0.308
-589.938	800.000	0.007	-0.025
-588.923	16.758	-0.176	0.139
-587.909	-66.851	-0.048	0.019
-586.894	109.255	0.129	-0.154
-585.879	-142.667	-0.332	0.032
-584.865	46.277	-0.059	-0.054
-583.850	-80.967	0.317	-0.105
-582.836	800.000	-0.036	-0.112
-581.821	-85.250	-0.117	-0.036
-580.806	320.948	-0.139	-0.264
-579.792	-8.290	-0.220	0.148
-578.777	762.203	0.022	0.059
-577.763	683.400	-0.025	0.065
-576.748	-200.000	-0.031	0.760
-575.733	800.000	-0.047	-0.183
-574.719	9.707	0.212	-0.161
-573.704	-100.207	-0.183	-0.045
-572.690	-200.000	0.004	0.105
-571.675	-39.045	-0.181	0.095
-570.661	3.920	-0.223	-0.163
-569.646	-31.789	0.232	-0.130
-568.631	-112.858	-0.137	0.027
-567.617	-103.337	0.123	-0.029
-566.602	307.938	0.153	-0.285
-565.588	52.063	0.146	-0.139
-564.573	-200.000	-0.011	0.054
-563.558	-155.775	0.069	-0.004
-562.544	780.982	-0.116	0.315
-561.529	397.896	-0.119	0.249
-560.515	35.069	0.057	-0.050
-559.500	422.737	-0.125	0.267
-558.485	800.000	-0.094	0.277
-557.471	-102.701	0.331	0.079
-556.456	-104.599	-0.252	-0.058
-555.442	187.674	-0.084	-0.126
-554.427	31.898	0.207	0.178
-553.412	-141.374	0.122	-0.012
-552.398	800.000	-0.060	-0.180
-551.383	800.000	-0.035	0.151
-550.369	41.914	-0.097	0.088
-549.354	-86.335	0.198	-0.061
-548.339	-200.000	-0.285	0.001
-547.325	-96.187	-0.176	0.046
-546.310	-12.049	-0.232	0.152
-545.296	59.942	0.063	-0.062
-544.281	102.818	0.058	-0.068
-543.266	277.218	0.028	0.050
-542.252	-150.147	-0.174	-0.013
-541.237	-27.851	0.134	0.077
-540.223	292.365	-0.123	-0.224
-539.208	800.000	0.071	-0.264
-538.193	40.523	0.148	-0.133
-537.179	800.000	-0.059	-0.199
-536.164	-146.540	-0.114	0.010
-535.150	-84.101	-0.387	0.123
-534.135	-200.000	-0.047	-0.311
-533.121	-35.093	0.055	-0.030
-532.106	-200.000	-0.015	-0.370
-531.091	-176.551	-0.350	-0.009
-530.077	784.017	0.042	-0.115
-529.062	-200.000	0.005	0.105
-528.048	-200.000	0.005	-0.045
-527.033	-86.428	0.103	0.032
-526.018	-109.654	0.238	-0.050
-525.004	203.764	0.068	0.105
-523.989	-54.847	-0.491	-0.221
-522.975	-143.557	-0.507	-0.048
-521.960	-200.000	-0.017	-0.195
-520.945	0.744	-0.117	0.083
-519.931	309.059	-0.133	0.248
-518.916	-52.471	0.270	0.125
-517.902	66.666	-0.061	-0.062
-516.887	-54.473	-0.105	-0.047
-515.872	-200.000	-0.052	-0.252
-514.858	-85.571	-0.124	0.038
-513.843	286.653	-0.045	-0.081
-512.829	47.729	0.129	-0.120
-511.814	-17.873	0.059	-0.037
-510.799	-28.542	0.270	0.155
-509.785	226.002	0.130	-0.211
-508.770	439.752	-0.081	0.177
-507.756	92.430	0.108	0.121
-506.741	800.000	0.137	-0.406
-505.726	800.000	0.056	0.205
-504.712	-79.758	-0.117	-0.039
-503.697	-5.113	0.342	-0.234
-502.683	-65.727	0.355	-0.141
-501.668	-114.014	-0.267	-0.052
-500.653	-44.214	-0.143	0.071
-499.639	0.916	-0.076	-0.054
-498.624	-97.786	-0.225	0.058
-497.610	-20.887	-0.222	0.135
-496.595	-106.527	-0.163	0.036
-495.581	800.000	-0.109	-0.348
-494.566	800.000	-0.053	0.208
-493.551	23.188	0.080	-0.065
-492.537	800.000	0.036	0.153
-491.522	215.380	-0.183	0.290
-490.508	-75.945	0.098	0.034
-489.493	44.955	0.226	0.207
-488.478	18.703	0.243	0.193
-487.464	80.333	0.139	-0.149
-486.449	800.000	0.123	0.395
-485.435	-65.174	0.152	-0.061
-484.420	-98.571	0.556	0.141
-483.405	800.000	0.026	0.073
-482.391	-85.342	-0.320	-0.099
-481.376	-71.357	0.247	0.092
-480.362	-83.909	-0.296	0.094
-479.347	4.495	-0.196	0.143
-478.332	174.903	-0.020	0.029
-477.318	-200.000	-0.080	0.351
-476.303	-63.456	-0.089	-0.037
-475.289	-40.317	0.086	-0.045
-474.274	-113.983	-0.301	0.058
-473.259	64.757	-0.112	-0.112
-472.245	23.886	0.172	0.141
-471.230	-200.000	0.027	0.120
-470.216	213.007	0.068	0.106
-469.201	1.787	-0.399	-0.286
-468.186	252.895	-0.058	0.098
-467.172	800.000	-0.098	-0.296
-466.157	800.000	0.014	0.049
-465.143	-200.000	0.014	-0.215
-464.128	-200.000	-0.006	0.035
-463.113	-40.338	-0.206	0.106
-462.099	-16.211	0.041	-0.026
-461.084	187.660	-0.106	0.157
-460.070	-200.000	0.010	0.049
-459.055	-114.986	-0.087	-0.016
-458.040	19.756	-0.163	0.131
-457.026	-200.000	0.009	0.123
-456.011	-63.142	0.167	0.068
-454.997	-200.000	-0.043	0.197
-453.982	-180.944	-0.114	0.002
-452.968	-102.123	0.192	-0.046
-451.953	136.553	0.104	0.134
-450.938	248.650	-0.107	0.179
-449.924	-181.339	0.050	-0.001
-448.909	-200.000	-0.052	-0.257
-447.895	-200.000	-0.027	0.300
-446.880	-152.896	0.202	-0.014
-445.865	-170.346	-0.061	0.002
-444.851	-141.431	0.104	0.010
-443.836	-73.146	0.347	0.126
-442.822	-92.263	0.164	-0.046
-441.807	556.404	0.208	-0.498
-440.792	163.493	0.157	-0.220
-439.778	-83.030	-0.053	-0.017
-438.763	-15.020	-0.278	0.177
-437.749	-81.707	0.349	-0.114
-436.734	-24.224	0.285	-0.169
-435.719	-200.000	0.032	-0.143
-434.705	-167.468	-0.170	-0.007
-433.690	-200.000	0.010	0.138
-432.676	-200.000	-0.001	-0.089
-431.661	82.544	-0.124	-0.134
-430.646	800.000	-0.021	0.066
-429.632	395.476	-0.109	0.225
-428.617	195.914	0.135	0.203
-427.603	17.330	-0.131	0.103
-426.588	800.000	-0.029	0.080
-425.573	-62.957	-0.317	-0.130
-424.559	526.487	0.096	0.225
-423.544	173.253	-0.331	0.473
-422.530	-200.000	-0.028	0.280
-421.515	-5.817	0.264	-0.179
-420.500	168.082	-0.135	0.191
-419.486	-28.911	0.331	0.189
-418.471	-78.172	-0.148	-0.051
-417.457	-61.881	-0.259	0.108
-416.442	-177.209	0.171	0.004
-415.428	35.674	-0.148	-0.129
-414.413	204.572	0.086	0.132
-413.398	-200.000	0.000	0.333
-412.384	-200.000	-0.034	0.299
-411.369	-50.292	0.069	-0.032
-410.355	144.383	-0.115	0.152
-409.340	-113.944	-0.140	-0.027
-408.325	497.597	0.085	-0.193
-407.311	-200.000	0.010	0.044
-406.296	573.713	0.018	-0.042
-405.282	9.625	0.357	-0.268
-404.267	-200.000	-0.035	-0.153
-403.252	800.000	0.009	-0.029
-402.238	-6.861	-0.256	-0.172
-401.223	-48.232	0.354	-0.170
-400.209	800.000	-0.043	-0.124
-399.194	33.899	-0.326	0.282
-398.179	83.014	-0.046	0.050
-397.165	-129.007	0.162	-0.022
-396.150	-21.288	0.204	-0.124
-395.136	-4.746	-0.145	-0.099
-394.121	-64.355	0.285	0.115
-393.106	-62.036	-0.214	0.089
-392.092	-89.692	0.206	0.060
-391.077	-135.188	0.080	0.010
-390.063	306.269	-0.074	-0.136
-389.048	-53.029	-0.357	-0.163
-388.033	-61.990	-0.322	0.133
-387.019	-9.533	0.059	0.039
-386.004	-108.022	-0.188	-0.040
-384.990	-200.000	-0.023	0.191
-383.975	-19.161	0.229	0.141
-382.960	170.740	0.201	-0.286
-381.946	800.000	-0.036	-0.124
-380.931	55.077	-0.058	0.056
-379.917	-44.709	-0.043	0.021
-378.902	-117.539	-0.202	0.036
-377.888	-111.068	-0.172	-0.035
-376.873	-119.027	-0.232	0.040
-375.858	252.909	0.070	-0.119
-374.844	-126.351	-0.388	0.057
-373.829	627.386	0.104	0.261
-372.815	800.000	-0.081	0.330
-371.800	-1.368	-0.156	0.109
-370.785	800.000	0.017	-0.075
-369.771	800.000	-0.065	0.268
-368.756	800.000	0.061	-0.184
-367.742	800.000	0.116	0.328
-366.727	-94.426	0.325	0.088
-365.712	-124.683	-0.223	0.034
-364.698	-124.385	0.243	-0.038
-363.683	-90.323	0.329	0.095
-362.669	-46.956	0.147	0.071
-361.654	-200.000	0.003	-0.028
-360.639	-200.000	0.026	-0.365
-359.625	-200.000	0.011	-0.361
-358.610	-93.868	0.107	0.029
-357.596	-200.000	0.047	-0.295
-356.581	15.678	0.221	-0.172
-355.566	-57.195	-0.253	-0.110
-354.552	-91.699	0.161	-0.045
-353.537	-42.437	0.262	-0.132
-352.523	126.215	-0.131	-0.164
-351.508	-117.112	0.190	-0.034
-350.493	26.192	0.091	0.075
-349.479	204.378	-0.126	-0.194
-348.464	-200.000	0.003	0.241
-347.450	285.433	0.115	0.205
-346.435	-154.978	0.142	0.009
-345.420	66.789	0.417	0.420
-344.406	-113.526	-0.150	-0.029
-343.391	-200.000	0.033	-0.189
-342.377	373.897	-0.168	-0.338
-341.362	-200.000	0.052	-0.238
-340.348	-19.549	-0.203	0.124
-339.333	441.747	-0.079	-0.172
-338.318	800.000	-0.078	0.241
-337.304	-137.833	0.092	-0.010
-336.289	800.000	0.097	-0.301
-335.275	194.826	-0.150	-0.225
-334.260	-83.402	0.251	0.080
-333.245	132.898	-0.253	-0.323
-332.231	-38.686	0.209	-0.109
-331.216	162.213	0.054	0.075
-330.202	113.465	-0.111	-0.134
-329.187	42.460	0.253	-0.228
-328.172	-104.014	0.259	0.060
-327.158	76.127	-0.164	0.171
-326.143	126.792	0.289	-0.363
-325.129	-105.295	0.073	-0.017
-324.114	-33.989	-0.154	0.084
-323.099	0.823	0.135	0.096
-322.085	-38.842	-0.057	-0.029
-321.070	-92.874	-0.237	-0.065
-320.056	-13.522	0.259	0.166
-319.041	690.951	0.073	0.189
-318.026	-28.474	-0.061	-0.034
-317.012	800.000	0.043	0.147
-315.997	-164.305	0.211	0.010
-314.983	-175.839	-0.395	0.010
-313.968	-128.760	0.347	-0.048
-312.953	44.473	-0.134	0.122
-311.939	302.478	0.025	0.045
-310.924	-63.710	-0.221	-0.090
-309.910	-83.218	-0.229	0.073
-308.895	800.000	-0.014	-0.055
-307.880	-76.309	0.157	-0.055
-306.866	449.534	0.125	0.273
-305.851	800.000	-0.106	0.299
-304.837	269.556	-0.091	0.159
-303.822	174.553	0.052	-0.074
-302.807	-116.199	0.334	-0.061
-301.793	-200.000	0.023	-0.341
-300.778	-123.815	-0.262	-0.041
-299.764	-78.204	0.147	0.050
-298.749	-138.467	0.233	0.025
-297.735	800.000	0.072	-0.252
-296.720	-200.000	0.054	-0.669
-295.705	-121.123	-0.298	-0.049
-294.691	65.340	-0.058	-0.058
-293.676	-200.000	-0.007	-0.238
-292.662	-200.000	-0.004	0.026
-291.647	51.495	-0.124	-0.116
-290.632	221.684	-0.083	-0.133
-289.618	-200.000	0.012	-0.098
-288.603	-200.000	-0.036	0.247
-287.589	-200.000	0.005	0.243
-286.574	178.349	0.100	-0.144
-285.559	-70.018	0.066	0.025
-284.545	296.985	0.140	0.253
-283.530	-200.000	-0.007	0.182
-282.516	-47.029	0.042	0.020
-281.501	800.000	-0.074	-0.300
-280.486	6.812	0.108	-0.079
-279.472	-62.726	-0.260	0.107
-278.457	401.440	0.228	0.472
-277.443	47.514	0.088	-0.081
-276.428	442.538	-0.124	0.269
-275.413	380.667	-0.099	0.200
-274.399	129.805	-0.283	0.357
-273.384	13.006	0.149	0.114
-272.370	-200.000	0.015	-0.102
-271.355	51.277	-0.158	-0.148
-270.340	800.000	-0.037	-0.132
-269.326	-21.532	-0.051	0.031
-268.311	572.936	-0.064	-0.155
-267.297	-84.995	0.169	-0.052
-266.282	-41.664	0.339	0.172
-265.267	-28.790	-0.237	-0.134
-264.253	-102.345	0.176	-0.042
-263.238	-10.184	-0.244	0.159
-262.224	640.899	0.084	-0.212
-261.209	-22.898	-0.256	0.152
-260.195	441.905	0.126	0.272
-259.180	43.572	0.333	-0.301
-258.165	-45.652	-0.330	-0.161
-257.151	135.399	-0.320	-0.411
-256.136	800.000	-0.037	-0.106
-255.122	130.693	-0.291	-0.368
-254.107	152.391	-0.115	-0.154
-253.092	-87.238	0.078	-0.023
-252.078	91.568	-0.117	0.130
-251.063	-77.382	0.287	0.098
-250.049	-200.000	0.001	0.050
-249.034	42.661	0.148	-0.133
-248.019	135.855	0.098	0.126
-247.005	253.364	-0.093	0.156
-245.990	800.000	-0.083	-0.245
-244.976	800.000	-0.058	-0.159
-243.961	-200.000	-0.015	-0.125
-242.946	800.000	-0.036	-0.142
-241.932	-89.953	-0.265	0.076
-240.917	260.742	0.154	0.262
-239.903	94.380	-0.285	0.319
-238.888	-131.332	0.211	-0.028
-237.873	135.015	0.309	0.395
-236.859	-200.000	-0.000	-0.178
-235.844	-200.000	0.057	0.260
-234.830	142.783	-0.071	0.092
-233.815	800.000	0.048	-0.175
-232.800	0.988	0.015	0.011
-231.786	-123.324	0.133	0.021
-230.771	-44.397	0.238	-0.118
-229.757	800.000	-0.132	-0.368
-228.742	70.117	0.050	-0.051
-227.727	-85.605	0.187	0.057
-226.713	-91.436	-0.076	-0.021
-225.698	533.497	-0.042	0.097
-224.684	164.444	-0.035	-0.049
-223.669	8.870	0.218	0.162
-222.655	-72.801	0.186	-0.067
-221.640	-200.000	0.001	0.215
-220.625	263.830	0.282	0.483
-219.611	23.564	0.281	-0.228
-218.596	-77.764	0.182	-0.062
-217.582	-5.741	0.123	-0.083
-216.567	120.610	-0.100	0.123
-215.552	800.000	0.047	0.150
-214.538	-200.000	0.013	-0.347
-213.523	-158.082	0.530	0.031
-212.509	2.780	-0.065	-0.047
-211.494	778.347	0.073	-0.196
-210.479	-200.000	0.001	0.173
-209.465	-200.000	-0.080	0.346
-208.450	26.052	0.209	-0.172
-207.436	-45.013	-0.280	0.137
-206.421	-136.450	-0.215	-0.025
-205.406	-200.000	0.023	-0.278
-204.392	-29.712	-0.118	0.066
-203.377	-200.000	0.003	0.341
-202.363	149.924	0.167	0.223
-201.348	286.513	-0.059	0.104
-200.333	800.000	0.118	-0.390
-199.319	110.648	-0.264	0.313
-198.304	-86.691	-0.199	-0.060
-197.290	6.355	0.167	0.122
-196.275	527.480	0.197	0.456
-195.260	97.514	0.141	-0.159
-194.246	-172.304	0.168	-0.005
-193.231	-190.979	0.268	-0.003
-192.217	-32.674	0.130	0.071
-191.202	44.029	-0.073	-0.066
-190.187	-108.068	-0.227	-0.048
-189.173	-94.527	0.318	-0.085
-188.158	129.738	-0.187	-0.235
-187.144	388.389	0.069	-0.141
-186.129	-184.545	-0.274	0.004
-185.114	610.910	0.110	-0.270
-184.100	-134.770	-0.317	0.038
-183.085	-25.135	0.175	-0.102
-182.071	-13.629	-0.040	-0.026
-181.056	-129.419	0.198	-0.027
-180.042	-155.665	0.417	-0.026
-179.027	-200.000	0.070	-0.356
-178.012	147.598	-0.185	0.245
-176.998	-200.000	-0.072	-0.504
-175.983	-21.432	-0.082	-0.049
-174.969	-124.108	0.115	-0.018
-173.954	-73.103	0.250	0.090
-172.939	568.038	-0.033	-0.078
-171.925	-57.290	-0.253	0.110
-170.910	800.000	-0.031	-0.129
-169.896	-200.000	0.095	-0.413
-168.881	109.150	0.105	0.123
-167.866	-200.000	0.024	-0.212
-166.852	18.517	-0.312	0.245
-165.837	800.000	0.049	0.135
-164.823	231.613	0.019	0.030
-163.808	800.000	0.059	-0.248
-162.793	800.000	0.069	0.244
-161.779	64.582	-0.133	-0.132
-160.764	-5.573	0.073	-0.049
-159.750	138.695	-0.053	-0.069
-158.735	-50.835	-0.113	-0.052
-157.720	-121.196	0.193	-0.032
-156.706	14.332	-0.223	-0.171
-155.691	-200.000	-0.016	0.087
-154.677	67.742	0.246	0.247
-153.662	43.410	0.165	-0.149
-152.647	12.395	0.154	-0.117
-151.633	14.126	0.074	0.057
-150.618	-39.126	-0.292	-0.151
-149.604	83.049	0.147	-0.157
-148.589	103.958	0.053	-0.062
-147.574	30.859	0.073	-0.061
-146.560	32.172	-0.206	0.174
-145.545	358.880	-0.041	-0.081
-144.531	-200.000	-0.009	0.300
-143.516	-54.456	0.141	-0.063
-142.502	480.525	0.053	-0.119
-141.487	100.438	0.021	-0.024
-140.472	143.571	-0.083	-0.108
-139.458	-63.130	-0.147	0.060
-138.443	444.451	-0.100	0.215
-137.429	-200.000	-0.014	0.198
-136.414	-119.809	0.138	0.023
-135.399	343.424	0.236	0.454
-134.385	-47.509	-0.186	0.089
-133.370	-122.681	0.037	0.006
-132.356	800.000	0.066	0.221
-131.341	33.956	-0.208	0.177
-130.326	-64.509	0.133	-0.053
-129.312	124.167	-0.174	-0.215
-128.297	-200.000	-0.019	0.136
-127.283	-70.320	0.148	0.055
-126.268	-200.000	-0.017	-0.285
-125.253	-200.000	-0.068	0.353
-124.239	-98.921	0.205	-0.051
-123.224	800.000	-0.031	-0.103
-122.210	-200.000	0.050	-0.280
-121.195	-200.000	-0.036	0.279
