DTS Sentinel unit serial number:	SN413079Multiplexer serial number:	ORYXHardware model number:	OX4-SRSoftware version number:	ORYX F/W v4.00 Oryx Data Collector v3.7.2.0data status	okinstallation	princeton_trtdifferential loss correction	single-endedforward channel	channel 2reverse channel	N/Adate	2019/09/15time	17:35:35forward acquisition time	60.00reverse acquisition time	0.00gamma	496.2192k internal	0.2284k external	0.2284temperature offset calibration	0.9921default loss term (dB/km)	0.3790temperature slope calibration	1.0000multiplexer offset coefficient	1.0000multiplexer slope coefficient	1.0000fibre end	0.00T internal ref (°C)	44.87T ext. ref 1 (°C)	6.20T ext. ref 2 (°C)	40.27length (m)	temperature (°C)	Stokes	anti-Stokes-747.200	800.000	0.104	-0.421
-746.185	-200.000	-0.000	0.153
-745.171	32.671	0.095	0.085
-744.156	-200.000	0.021	0.357
-743.142	42.077	-0.181	-0.168
-742.127	800.000	-0.117	0.496
-741.112	-33.763	0.166	0.094
-740.098	-181.043	-0.499	-0.010
-739.083	144.541	0.133	0.183
-738.069	800.000	0.099	0.310
-737.054	-200.000	0.009	0.106
-736.039	173.310	0.054	0.080
-735.025	152.155	0.132	0.185
-734.010	-200.000	0.049	-0.310
-732.996	-36.541	0.220	-0.122
-731.981	-136.368	-0.076	0.009
-730.966	-97.795	-0.430	-0.114
-729.952	-76.795	-0.193	-0.070
-728.937	222.500	0.070	-0.115
-727.923	800.000	0.014	-0.047
-726.908	272.062	-0.020	-0.037
-725.894	-200.000	-0.041	-0.253
-724.879	600.481	0.094	0.240
-723.864	-200.000	-0.002	-0.133
-722.850	142.681	-0.085	0.116
-721.835	-25.460	-0.115	-0.070
-720.821	149.694	-0.358	-0.497
-719.806	-73.539	-0.156	0.058
-718.791	-200.000	-0.013	-0.261
-717.777	-74.873	-0.281	0.104
-716.762	24.776	-0.267	-0.227
-715.748	-105.781	0.222	0.052
-714.733	5.675	-0.173	-0.131
-713.718	115.973	0.152	0.191
-712.704	-153.900	0.452	0.032
-711.689	-37.689	-0.144	-0.079
-710.675	-200.000	0.028	-0.161
-709.660	164.176	0.145	0.209
-708.645	-24.016	0.160	-0.098
-707.631	232.789	-0.092	0.155
-706.616	-93.478	0.169	0.048
-705.602	800.000	0.140	0.479
-704.587	116.373	-0.186	0.233
-703.572	1.998	0.305	-0.226
-702.558	8.419	0.246	0.190
-701.543	-200.000	0.016	-0.353
-700.529	-59.784	-0.300	-0.132
-699.514	-134.775	-0.255	-0.032
-698.499	25.845	-0.176	-0.151
-697.485	-200.000	0.008	-0.083
-696.470	35.477	-0.084	-0.076
-695.456	36.419	-0.056	0.050
-694.441	-0.403	0.149	-0.109
-693.426	-17.194	0.235	0.152
-692.412	2.563	-0.075	0.056
-691.397	133.632	0.198	-0.263
-690.383	-129.390	-0.119	-0.017
-689.368	-200.000	0.031	-0.157
-688.354	-131.147	-0.101	-0.014
-687.339	255.866	0.121	0.213
-686.324	-92.207	0.261	0.075
-685.310	39.211	-0.145	0.133
-684.295	-200.000	-0.007	-0.110
-683.281	-145.982	-0.157	-0.014
-682.266	-65.735	-0.022	0.009
-681.251	533.067	0.113	0.275
-680.237	-119.045	0.203	-0.036
-679.222	800.000	-0.077	-0.249
-678.208	104.430	0.137	-0.166
-677.193	-200.000	0.080	-0.387
-676.178	-200.000	0.019	-0.121
-675.164	-30.071	0.250	0.146
-674.149	800.000	0.095	-0.373
-673.135	224.953	0.074	-0.122
-672.120	77.674	-0.104	0.113
-671.105	-61.305	-0.328	-0.142
-670.091	199.060	-0.042	-0.066
-669.076	800.000	0.082	0.359
-668.062	-19.852	-0.205	-0.130
-667.047	-131.818	0.259	-0.035
-666.032	-200.000	-0.033	-0.280
-665.018	-1.645	-0.107	-0.077
-664.003	800.000	0.099	0.305
-662.989	103.281	0.168	-0.201
-661.974	-46.531	0.235	0.118
-660.959	-200.000	-0.012	0.384
-659.945	-29.296	0.367	0.215
-658.930	-116.970	0.124	0.023
-657.916	157.760	0.169	0.240
-656.901	-200.000	0.038	0.311
-655.886	319.004	0.050	-0.096
-654.872	-84.588	0.213	-0.069
-653.857	87.482	-0.164	-0.185
-652.843	800.000	0.048	-0.213
-651.828	-200.000	-0.050	-0.232
-650.814	239.509	-0.076	-0.130
-649.799	33.390	0.244	0.217
-648.784	-200.000	-0.006	-0.105
-647.770	-36.520	-0.089	0.049
-646.755	-200.000	-0.009	-0.089
-645.741	-136.891	-0.208	0.024
-644.726	-130.067	-0.129	-0.018
-643.711	-105.684	0.325	-0.075
-642.697	-17.682	-0.205	-0.132
-641.682	800.000	0.072	-0.230
-640.668	800.000	-0.037	0.156
-639.653	800.000	0.049	0.161
-638.638	376.116	0.071	-0.149
-637.624	53.575	0.143	0.140
-636.609	-18.441	0.166	0.106
-635.595	5.299	0.199	-0.150
-634.580	108.860	0.044	0.054
-633.565	167.190	0.102	-0.149
-632.551	-200.000	0.023	-0.106
-631.536	176.657	-0.029	0.043
-630.522	-66.044	0.148	-0.061
-629.507	-200.000	0.017	0.156
-628.492	-52.372	-0.195	-0.092
-627.478	-54.082	0.147	-0.068
-626.463	139.691	-0.079	-0.107
-625.449	-200.000	-0.090	-0.530
-624.434	144.782	0.171	0.233
-623.419	-200.000	0.047	-0.377
-622.405	-200.000	-0.073	-0.380
-621.390	41.843	-0.301	-0.279
-620.376	-200.000	0.017	-0.087
-619.361	-200.000	0.001	-0.023
-618.346	-195.929	-0.222	-0.002
-617.332	-160.143	0.441	0.024
-616.317	150.777	-0.233	0.324
-615.303	-200.000	-0.010	-0.105
-614.288	-200.000	-0.006	-0.241
-613.273	394.603	0.007	-0.015
-612.259	170.444	-0.005	0.007
-611.244	-135.643	-0.200	-0.024
-610.230	800.000	-0.039	0.166
-609.215	-200.000	-0.009	0.103
-608.201	642.153	0.074	0.192
-607.186	44.231	0.323	-0.303
-606.171	800.000	-0.039	-0.115
-605.157	47.540	-0.071	-0.068
-604.142	42.514	-0.225	-0.210
-603.128	-103.268	-0.276	0.067
-602.113	800.000	-0.046	-0.194
-601.098	-136.201	0.197	-0.024
-600.084	611.099	-0.066	-0.169
-599.069	524.398	-0.103	0.247
-598.055	-200.000	-0.026	-0.325
-597.040	133.937	0.184	-0.244
-596.025	-200.000	-0.013	-0.117
-595.011	-44.904	-0.076	0.039
-593.996	-200.000	-0.009	0.134
-592.982	-155.834	0.246	0.016
-591.967	-200.000	0.021	0.263
-590.952	95.272	-0.174	0.202
-589.938	14.572	0.295	-0.235
-588.923	-14.314	0.086	0.057
-587.909	-84.581	0.152	-0.049
-586.894	505.500	-0.129	-0.306
-585.879	402.344	0.098	0.210
-584.865	58.804	-0.388	0.389
-583.850	-200.000	0.005	0.036
-582.836	-118.337	0.458	-0.083
-581.821	256.640	-0.274	-0.480
-580.806	-32.856	0.101	0.057
-579.792	-113.227	-0.239	0.048
-578.777	15.642	0.207	-0.166
-577.763	-18.312	-0.169	0.108
-576.748	-64.241	-0.278	0.116
-575.733	564.372	0.093	-0.230
-574.719	-65.712	-0.308	0.126
-573.704	-200.000	0.003	0.206
-572.690	425.669	0.027	0.059
-571.675	146.035	-0.099	0.135
-570.661	32.481	0.168	0.148
-569.646	13.973	-0.198	0.157
-568.631	-53.594	0.174	0.081
-567.617	800.000	0.110	-0.318
-566.602	142.006	0.193	0.261
-565.588	533.536	0.034	-0.082
-564.573	64.879	-0.173	-0.179
-563.558	725.306	0.051	-0.138
-562.544	240.127	-0.041	-0.070
-561.529	33.722	0.084	-0.075
-560.515	30.994	0.282	0.247
-559.500	-109.453	0.269	0.058
-558.485	-200.000	-0.003	0.105
-557.471	-9.248	-0.168	0.115
-556.456	-200.000	0.045	-0.205
-555.442	-52.677	-0.222	-0.104
-554.427	-200.000	-0.166	0.000
-553.412	202.458	0.113	0.179
-552.398	650.557	0.064	-0.168
-551.383	-134.619	0.389	0.048
-550.369	153.214	0.073	-0.102
-549.354	91.753	-0.074	-0.085
-548.339	8.969	-0.048	0.037
-547.325	-144.084	-0.163	0.016
-546.310	-200.000	-0.008	-0.119
-545.296	1.730	-0.014	0.011
-544.281	69.550	-0.065	-0.068
-543.266	698.951	0.095	-0.255
-542.252	283.318	0.033	-0.061
-541.237	113.549	-0.156	0.193
-540.223	-123.403	0.138	-0.022
-539.208	-28.315	0.239	0.141
-538.193	-15.692	0.238	-0.154
-537.179	69.769	0.221	0.232
-536.164	-42.315	-0.076	-0.039
-535.150	-76.962	-0.085	-0.030
-534.135	-42.717	-0.047	-0.025
-533.121	-23.614	0.306	-0.187
-532.106	-130.374	-0.339	-0.047
-531.091	-121.205	0.277	0.047
-530.077	-171.215	-0.201	0.007
-529.062	-200.000	0.038	-0.277
-528.048	-79.058	0.149	-0.052
-527.033	-200.000	0.043	0.288
-526.018	800.000	0.126	0.473
-525.004	-94.188	-0.068	0.019
-523.989	58.736	0.187	0.187
-522.975	22.299	0.308	-0.256
-521.960	-96.181	-0.041	-0.011
-520.945	-200.000	-0.031	-0.327
-519.931	-91.221	0.194	0.057
-518.916	127.087	-0.098	-0.127
-517.902	-53.926	0.281	0.130
-516.887	-54.474	0.156	-0.072
-515.872	156.525	-0.033	0.046
-514.858	254.093	0.116	-0.202
-513.843	73.254	-0.327	-0.348
-512.829	2.069	-0.200	-0.147
-511.814	800.000	-0.081	-0.240
-510.799	257.042	-0.104	-0.182
-509.785	-39.827	0.171	0.091
-508.770	4.972	0.237	0.177
-507.756	131.942	0.100	-0.131
-506.741	104.394	-0.233	-0.279
-505.726	16.762	0.141	-0.113
-504.712	-128.647	-0.220	-0.032
-503.697	-152.850	0.172	0.012
-502.683	-200.000	-0.008	0.194
-501.668	-182.692	-0.177	0.003
-500.653	400.944	0.162	0.346
-499.639	-104.978	-0.242	-0.056
-498.624	-164.262	0.476	0.022
-497.610	-8.400	0.252	-0.172
-496.595	-200.000	-0.005	-0.283
-495.581	-200.000	0.015	0.312
-494.566	3.862	0.103	-0.077
-493.551	-200.000	0.021	0.268
-492.537	-80.881	-0.396	0.134
-491.522	122.761	-0.159	0.202
-490.508	-200.000	-0.001	0.060
-489.493	135.987	0.237	0.314
-488.478	-22.600	-0.314	-0.193
-487.464	-96.966	0.266	-0.071
-486.449	-200.000	-0.024	0.312
-485.435	-38.842	0.368	-0.197
-484.420	-94.020	-0.067	-0.019
-483.405	-173.547	0.132	0.004
-482.391	111.238	-0.148	-0.181
-481.376	7.644	0.114	0.087
-480.362	-5.259	0.176	-0.123
-479.347	-120.706	0.185	0.032
-478.332	75.344	0.276	0.296
-477.318	772.522	0.051	0.142
-476.303	82.679	0.077	-0.085
-475.289	-200.000	0.038	-0.177
-474.274	-78.137	-0.029	-0.010
-473.259	800.000	-0.042	-0.132
-472.245	-10.878	0.255	-0.171
-471.230	68.239	-0.192	0.200
-470.216	-200.000	-0.002	0.420
-469.201	95.678	0.162	0.188
-468.186	166.250	-0.138	-0.199
-467.172	-42.898	0.032	-0.016
-466.157	800.000	-0.030	0.125
-465.143	124.601	-0.059	-0.076
-464.128	64.988	-0.327	-0.335
-463.113	800.000	-0.120	-0.446
-462.099	474.730	0.063	-0.144
-461.084	-200.000	-0.004	0.048
-460.070	255.873	0.127	0.221
-459.055	-71.443	0.160	0.061
-458.040	1.883	0.025	0.018
-457.026	-23.335	-0.244	-0.149
-456.011	-63.941	-0.140	-0.058
-454.997	200.610	-0.281	-0.438
-453.982	94.211	-0.232	0.267
-452.968	-85.576	0.160	-0.051
-451.953	-200.000	0.034	-0.165
-450.938	34.838	-0.168	-0.149
-449.924	-200.000	0.016	0.185
-448.909	39.463	0.112	0.102
-447.895	-200.000	0.061	0.319
-446.880	-200.000	-0.001	-0.237
-445.865	-171.906	0.308	-0.010
-444.851	329.247	-0.152	-0.298
-443.836	-139.028	0.163	-0.018
-442.822	184.215	-0.128	-0.192
-441.807	76.080	0.380	-0.409
-440.792	-200.000	0.000	-0.107
-439.778	299.413	0.044	-0.082
-438.763	-126.297	-0.281	0.043
-437.749	-38.135	-0.142	0.077
-436.734	-98.531	0.161	-0.042
-435.719	121.391	0.159	0.201
-434.705	310.385	-0.043	-0.081
-433.690	-110.515	0.198	-0.042
-432.676	641.345	0.009	-0.023
-431.661	-200.000	0.008	-0.096
-430.646	473.858	0.091	0.209
-429.632	-102.498	0.387	0.094
-428.617	-94.383	0.057	0.016
-427.603	82.419	-0.051	-0.056
-426.588	-157.380	-0.319	0.020
-425.573	-107.890	-0.141	0.031
-424.559	-200.000	0.002	0.398
-423.544	709.813	0.095	0.256
-422.530	-31.873	-0.205	0.116
-421.515	-128.785	0.302	0.043
-420.500	-79.019	0.240	-0.083
-419.486	-63.019	-0.222	0.093
-418.471	-200.000	-0.017	-0.196
-417.457	-5.628	-0.142	0.099
-416.442	194.525	0.024	0.038
-415.428	-171.045	0.287	0.010
-414.413	-200.000	-0.044	-0.407
-413.398	93.514	0.355	0.408
-412.384	-105.817	0.036	-0.008
-411.369	176.879	-0.154	-0.228
-410.355	-200.000	0.051	0.373
-409.340	800.000	0.111	-0.329
-408.325	39.372	-0.249	-0.226
-407.311	-82.572	-0.022	-0.007
-406.296	358.550	0.257	0.520
-405.282	-24.643	-0.461	0.278
-404.267	-200.000	-0.033	-0.234
-403.252	-101.337	0.244	0.060
-402.238	-44.338	0.285	-0.145
-401.223	-200.000	-0.022	0.192
-400.209	-200.000	0.024	0.399
-399.194	-17.329	-0.076	-0.049
-398.179	-66.664	-0.128	-0.051
-397.165	-34.143	0.267	0.149
-396.150	-73.605	0.360	0.133
-395.136	-200.000	-0.053	-0.319
-394.121	-143.083	-0.398	-0.039
-393.106	-200.000	0.037	-0.167
-392.092	-55.196	-0.235	0.107
-391.077	470.061	-0.176	-0.401
-390.063	-73.081	-0.336	0.125
-389.048	-81.257	0.264	-0.088
-388.033	800.000	0.006	0.028
-387.019	123.916	0.083	0.106
-386.004	105.147	-0.124	-0.148
-384.990	306.414	0.069	-0.130
-383.975	151.296	0.182	-0.251
-382.960	-131.033	-0.459	-0.062
-381.946	147.408	-0.142	-0.193
-380.931	-83.873	-0.476	0.154
-379.917	-182.373	-0.023	-0.000
-378.902	320.813	-0.139	0.268
-377.888	-0.793	-0.064	-0.046
-376.873	-118.087	0.057	-0.010
-375.858	-200.000	0.014	-0.061
-374.844	-200.000	-0.022	0.305
-373.829	-84.219	-0.079	0.025
-372.815	-173.558	-0.169	0.005
-371.800	-200.000	0.007	0.130
-370.785	67.674	-0.044	0.045
-369.771	705.156	-0.080	0.214
-368.756	62.857	-0.170	-0.172
-367.742	-155.851	0.201	0.013
-366.727	49.192	-0.162	-0.154
-365.712	-142.880	-0.203	-0.020
-364.698	736.749	0.017	0.046
-363.683	-200.000	0.154	-0.000
-362.669	800.000	0.085	0.262
-361.654	-70.325	0.123	-0.047
-360.639	-2.954	0.131	0.092
-359.625	91.980	0.127	0.145
-358.610	-107.751	0.102	0.023
-357.596	58.511	0.156	0.155
-356.581	-200.000	-0.073	-0.360
-355.566	391.854	-0.155	-0.326
-354.552	-7.179	-0.063	-0.043
-353.537	800.000	-0.049	-0.201
-352.523	-105.220	-0.136	-0.031
-351.508	-200.000	0.013	0.185
-350.493	95.863	-0.054	0.062
-349.479	-200.000	0.002	0.225
-348.464	800.000	0.026	0.072
-347.450	-136.992	-0.267	-0.031
-346.435	-82.814	-0.229	-0.075
-345.420	362.863	0.067	-0.137
-344.406	-200.000	0.010	-0.193
-343.391	55.882	-0.386	-0.379
-342.377	-97.001	-0.291	0.077
-341.362	78.325	0.215	-0.232
-340.348	-74.933	0.377	-0.137
-339.333	72.033	-0.094	-0.099
-338.318	-154.021	0.055	-0.004
-337.304	432.851	-0.132	0.290
-336.289	211.549	0.055	0.088
-335.275	-49.952	-0.119	0.057
-334.260	-14.420	0.253	0.164
-333.245	249.310	-0.105	0.179
-332.231	-101.965	0.222	0.054
-331.216	-142.336	-0.302	-0.030
-330.202	-200.000	0.067	-0.301
-329.187	-167.967	0.072	0.003
-328.172	-69.749	0.191	0.074
-327.158	467.936	0.012	-0.027
-326.143	174.923	0.088	0.129
-325.129	800.000	-0.148	0.472
-324.114	324.157	0.061	0.118
-323.099	-200.000	0.013	0.130
-322.085	4.701	-0.181	0.135
-321.070	-135.129	0.187	-0.023
-320.056	229.918	0.184	0.304
-319.041	-200.000	-0.004	-0.231
-318.026	608.518	0.125	0.316
-317.012	81.076	-0.073	0.079
-315.997	-99.048	0.234	-0.060
-314.983	369.659	-0.086	0.177
-313.968	-200.000	0.025	-0.183
-312.953	56.397	0.253	-0.249
-311.939	-2.937	-0.076	0.053
-310.924	-200.000	-0.001	0.024
-309.910	375.393	0.028	-0.057
-308.895	800.000	0.030	0.126
-307.880	800.000	-0.084	0.273
-306.866	-96.887	-0.093	-0.025
-305.851	-200.000	0.021	0.108
-304.837	-149.908	-0.253	-0.020
-303.822	164.767	0.117	-0.166
-302.807	107.203	0.156	0.187
-301.793	177.555	-0.127	0.187
-300.778	98.955	-0.070	-0.081
-299.764	11.579	0.159	0.123
-298.749	800.000	0.121	0.426
-297.735	-106.393	-0.372	-0.084
-296.720	147.796	0.198	-0.269
-295.705	-161.080	-0.086	0.005
-294.691	35.781	-0.095	0.084
-293.676	-54.608	-0.044	-0.020
-292.662	33.573	0.185	-0.162
-291.647	-7.682	-0.173	-0.118
-290.632	-200.000	0.051	-0.343
-289.618	-26.208	-0.222	-0.132
-288.603	-200.000	-0.031	-0.235
-287.589	-142.375	0.029	-0.003
-286.574	-200.000	-0.014	0.080
-285.559	-200.000	0.015	0.217
-284.545	-104.945	-0.101	-0.023
-283.530	-21.653	0.034	0.021
-282.516	613.218	0.071	-0.179
-281.501	483.074	0.052	0.119
-280.486	750.023	0.158	0.431
-279.472	800.000	0.086	0.308
-278.457	-7.672	-0.171	0.116
-277.443	267.861	-0.125	0.220
-276.428	800.000	-0.078	0.249
-275.413	-84.717	0.126	-0.040
-274.399	-186.459	0.124	0.002
-273.384	578.869	0.037	0.091
-272.370	-200.000	-0.047	-0.251
-271.355	800.000	0.085	0.258
-270.340	-200.000	0.000	0.351
-269.326	-21.777	0.223	-0.137
-268.311	-200.000	0.036	0.167
-267.297	41.763	-0.068	-0.062
-266.282	-153.905	0.257	-0.018
-265.267	228.133	-0.180	0.296
-264.253	361.158	-0.072	0.146
-263.238	-200.000	0.000	0.253
-262.224	-68.289	-0.480	0.188
-261.209	-136.164	0.154	0.018
-260.195	-200.000	-0.015	0.177
-259.180	106.424	0.160	0.192
-258.165	-200.000	0.005	0.162
-257.151	72.659	-0.186	0.195
-256.136	-5.975	-0.139	-0.095
-255.122	-200.000	-0.008	-0.195
-254.107	-159.290	-0.321	-0.018
-253.092	-104.685	-0.191	0.044
-252.078	114.023	-0.153	0.188
-251.063	123.645	-0.265	0.335
-250.049	10.184	-0.039	0.030
-249.034	26.358	0.076	-0.064
-248.019	76.550	-0.174	0.186
-247.005	-84.874	-0.151	-0.048
-245.990	-55.454	0.118	0.053
-244.976	-77.059	0.231	0.081
-243.961	800.000	0.085	0.321
-242.946	214.756	0.105	-0.168
-241.932	92.199	-0.070	0.079
-240.917	-37.148	0.038	-0.021
-239.903	264.070	0.135	-0.237
-238.888	-200.000	-0.003	0.017
-237.873	-39.969	-0.070	0.037
-236.859	-31.613	0.139	0.079
-235.844	589.959	0.080	0.199
-234.830	-79.087	-0.107	-0.036
-233.815	16.700	-0.086	-0.069
-232.800	295.797	-0.127	0.234
-231.786	-42.324	0.055	0.028
-230.771	-14.420	-0.191	0.124
-229.757	298.594	0.147	-0.273
-228.742	64.488	-0.175	-0.178
-227.727	110.986	0.032	0.039
-226.713	-200.000	0.019	-0.309
-225.698	-200.000	0.024	-0.213
-224.684	112.790	-0.077	0.094
-223.669	16.697	-0.215	0.171
-222.655	-200.000	-0.050	0.308
-221.640	-128.909	-0.370	-0.052
-220.625	169.835	-0.071	0.101
-219.611	-113.155	-0.200	0.040
-218.596	-177.246	-0.106	-0.003
-217.582	26.402	0.124	-0.104
-216.567	-11.509	-0.242	-0.160
-215.552	-81.390	0.097	0.032
-214.538	-200.000	-0.025	0.371
-213.523	-64.112	0.321	0.132
-212.509	800.000	-0.012	-0.044
-211.494	-148.902	-0.139	-0.011
-210.479	-43.450	-0.154	-0.078
-209.465	-88.034	0.264	0.080
-208.450	135.237	-0.108	0.141
-207.436	-79.436	-0.500	0.170
-206.421	-200.000	-0.009	0.106
-205.406	294.813	-0.069	0.127
-204.392	56.010	0.227	0.221
-203.377	-155.307	0.069	-0.005
-202.363	-200.000	0.022	-0.183
-201.348	-38.351	-0.120	-0.064
-200.333	-129.496	-0.117	-0.016
-199.319	51.766	-0.038	0.036
-198.304	-156.879	-0.183	0.011
-197.290	20.388	-0.120	-0.098
-196.275	92.752	-0.129	-0.147
-195.260	-89.569	-0.118	0.035
-194.246	11.377	0.288	0.222
-193.231	-12.366	-0.420	0.276
-192.217	684.931	0.103	-0.270
-191.202	-50.123	0.228	0.109
-190.187	112.620	-0.275	-0.335
-189.173	137.825	0.189	-0.249
-188.158	-200.000	0.034	-0.177
-187.144	552.155	0.102	-0.247
-186.129	-131.461	0.222	-0.029
-185.114	263.399	-0.024	0.042
-184.100	-200.000	-0.009	0.077
-183.085	-79.654	-0.103	-0.035
-182.071	-200.000	-0.033	-0.275
-181.056	800.000	-0.094	0.301
-180.042	521.502	-0.060	-0.142
-179.027	-200.000	0.030	-0.147
-178.012	-200.000	-0.009	-0.047
-176.998	-80.999	-0.168	-0.056
-175.983	-200.000	0.009	-0.171
-174.969	-39.988	-0.050	0.026
-173.954	456.553	0.145	-0.324
-172.939	-112.620	-0.184	-0.037
-171.925	312.989	-0.145	-0.274
-170.910	-196.246	0.147	-0.001
-169.896	113.162	-0.138	0.168
-168.881	50.068	0.205	-0.195
-167.866	-200.000	0.006	-0.178
-166.852	166.119	0.049	-0.070
-165.837	-150.354	0.234	-0.018
-164.823	-118.545	0.285	-0.051
-163.808	55.943	0.155	-0.151
-162.793	588.864	-0.054	-0.133
-161.779	373.905	-0.130	0.265
-160.764	565.251	-0.096	-0.232
-159.750	-72.305	0.237	0.088
-158.735	-14.821	0.260	-0.167
-157.720	800.000	0.064	-0.192
-156.706	81.528	0.095	0.104
-155.691	800.000	-0.013	0.057
-154.677	111.168	-0.028	0.034
-153.662	-45.060	-0.284	0.142
-152.647	20.382	0.168	0.136
-151.633	-11.983	-0.121	0.079
-150.618	-200.000	0.005	0.066
-149.604	800.000	0.087	0.374
-148.589	-200.000	0.015	0.176
-147.574	-39.050	0.131	-0.069
-146.560	800.000	0.063	-0.178
-145.545	-73.614	-0.443	0.162
-144.531	26.125	0.123	0.103
-143.516	173.439	-0.026	0.037
-142.502	59.946	-0.070	-0.070
-141.487	800.000	0.116	-0.468
-140.472	-200.000	0.009	-0.336
-139.458	159.608	0.036	0.050
-138.443	-110.778	-0.205	-0.042
-137.429	24.153	0.251	0.208
-136.414	346.142	-0.033	0.065
-135.399	-200.000	-0.007	0.325
-134.385	800.000	-0.077	-0.274
-133.370	191.144	0.123	-0.185
-132.356	800.000	-0.047	-0.158
-131.341	-159.679	0.280	0.016
-130.326	8.535	0.315	0.238
-129.312	243.611	0.255	-0.429
-128.297	-79.412	0.274	-0.093
-127.283	128.659	0.291	-0.372
-126.268	-57.845	-0.298	-0.131
-125.253	-60.294	-0.269	-0.115
-124.239	230.788	0.221	-0.363
-123.224	49.117	-0.441	0.415
-122.210	29.607	-0.198	0.169
-121.195	435.309	0.062	0.135
