DTS Sentinel unit serial number:	SN413079Multiplexer serial number:	ORYXHardware model number:	OX4-SRSoftware version number:	ORYX F/W v4.00 Oryx Data Collector v3.7.2.0data status	okinstallation	princeton_trtdifferential loss correction	single-endedforward channel	channel 2reverse channel	N/Adate	2019/09/12time	11:01:11forward acquisition time	60.00reverse acquisition time	0.00gamma	496.2192k internal	0.2305k external	0.2305temperature offset calibration	1.0068default loss term (dB/km)	0.3790temperature slope calibration	1.0000multiplexer offset coefficient	1.0000multiplexer slope coefficient	1.0000fibre end	0.00T internal ref (°C)	38.44T ext. ref 1 (°C)	1.93T ext. ref 2 (°C)	36.26length (m)	temperature (°C)	Stokes	anti-Stokes-747.200	-200.000	0.012	0.119
-746.185	-110.850	-0.132	0.028
-745.171	-200.000	0.018	0.118
-744.156	133.568	0.272	0.358
-743.142	-84.826	0.269	0.086
-742.127	-200.000	-0.004	0.141
-741.112	800.000	-0.082	-0.283
-740.098	-200.000	-0.107	0.663
-739.083	363.236	0.100	-0.204
-738.069	-141.199	-0.070	-0.007
-737.054	-6.235	0.078	-0.054
-736.039	-28.610	-0.373	-0.219
-735.025	196.073	-0.109	0.169
-734.010	-151.635	-0.441	-0.033
-732.996	-98.752	-0.137	-0.035
-731.981	404.169	-0.114	0.245
-730.966	51.077	-0.176	-0.170
-729.952	-200.000	-0.025	-0.189
-728.937	-54.996	-0.131	0.060
-727.923	800.000	0.025	-0.104
-726.908	-200.000	0.005	0.338
-725.894	353.481	0.140	0.282
-724.879	337.059	-0.150	0.297
-723.864	-200.000	-0.095	-0.572
-722.850	800.000	-0.048	0.161
-721.835	111.324	0.064	-0.078
-720.821	-200.000	-0.021	0.157
-719.806	298.293	0.110	-0.205
-718.791	-149.685	0.182	0.015
-717.777	800.000	-0.071	-0.218
-716.762	-68.723	-0.307	0.121
-715.748	156.791	0.165	-0.232
-714.733	231.451	-0.133	-0.222
-713.718	556.755	-0.020	0.049
-712.704	20.667	-0.113	-0.093
-711.689	2.110	-0.071	0.052
-710.675	96.794	-0.129	-0.150
-709.660	-32.506	0.203	-0.115
-708.645	591.954	0.083	-0.209
-707.631	5.933	0.472	-0.355
-706.616	-200.000	-0.031	-0.296
-705.602	-200.000	-0.063	-0.482
-704.587	-200.000	0.023	-0.376
-703.572	133.251	0.051	-0.067
-702.558	153.510	0.175	0.244
-701.543	-31.398	-0.198	-0.113
-700.529	-46.438	-0.212	0.105
-699.514	-133.139	0.183	0.024
-698.499	-86.416	0.293	0.092
-697.485	800.000	0.066	-0.224
-696.470	-200.000	-0.018	-0.253
-695.456	-153.126	-0.436	-0.031
-694.441	800.000	0.036	0.159
-693.426	-200.000	-0.090	-0.405
-692.412	-167.758	-0.108	0.004
-691.397	355.553	-0.018	0.036
-690.383	-97.938	-0.093	0.024
-689.368	-137.133	-0.338	0.039
-688.354	523.718	0.068	-0.163
-687.339	-200.000	0.048	-0.380
-686.324	220.988	0.132	0.216
-685.310	170.388	-0.098	-0.143
-684.295	117.556	0.192	-0.240
-683.281	93.624	0.032	0.037
-682.266	394.925	0.051	0.108
-681.251	-81.498	0.182	0.061
-680.237	-107.098	-0.329	0.074
-679.222	-200.000	-0.025	-0.127
-678.208	-200.000	0.013	-0.206
-677.193	-123.636	-0.234	-0.038
-676.178	-200.000	0.008	0.058
-675.164	-109.347	-0.138	0.030
-674.149	-42.711	0.213	-0.110
-673.135	-107.724	0.061	0.013
-672.120	490.391	-0.029	-0.068
-671.105	128.552	-0.118	0.153
-670.091	800.000	-0.077	0.261
-669.076	97.250	0.228	-0.266
-668.062	-96.418	-0.091	0.025
-667.047	-162.015	0.241	0.012
-666.032	-108.953	-0.273	0.059
-665.018	123.953	-0.051	-0.065
-664.003	800.000	-0.075	-0.305
-662.989	-81.837	-0.263	0.087
-661.974	-200.000	-0.002	-0.095
-660.959	-40.883	0.297	-0.156
-659.945	-200.000	0.004	-0.196
-658.930	115.105	-0.157	-0.194
-657.916	-200.000	0.010	0.231
-656.901	167.688	0.226	0.326
-655.886	-51.561	0.219	0.104
-654.872	800.000	-0.041	0.175
-653.857	159.381	-0.110	0.155
-652.843	-113.517	0.204	-0.041
-651.828	721.419	0.026	0.069
-650.814	313.221	-0.106	-0.202
-649.799	217.496	-0.103	0.167
-648.784	-52.988	-0.382	0.178
-647.770	-131.376	-0.349	-0.047
-646.755	240.577	0.080	-0.135
-645.741	2.857	0.236	0.174
-644.726	170.553	-0.038	-0.055
-643.711	136.022	0.113	0.149
-642.697	108.652	-0.064	0.078
-641.682	-188.566	0.097	0.001
-640.668	81.350	0.149	0.163
-639.653	43.504	-0.088	0.082
-638.638	800.000	0.032	0.103
-637.624	-67.946	-0.165	0.065
-636.609	-88.266	0.145	-0.044
-635.595	-15.732	-0.247	-0.160
-634.580	70.819	0.247	-0.260
-633.565	331.983	0.073	0.143
-632.551	-112.953	0.063	0.013
-631.536	-40.929	-0.182	-0.095
-630.522	800.000	-0.030	0.107
-629.507	-149.175	-0.090	0.007
-628.492	-26.099	-0.368	0.219
-627.478	-126.208	-0.169	-0.026
-626.463	136.435	-0.205	0.271
-625.449	-200.000	0.008	0.155
-624.434	155.192	0.128	-0.178
-623.419	144.920	-0.197	0.267
-622.405	-79.212	-0.112	0.038
-621.390	800.000	-0.040	0.161
-620.376	-200.000	-0.018	0.171
-619.361	-200.000	0.002	0.147
-618.346	225.840	0.100	-0.164
-617.332	-200.000	-0.030	-0.200
-616.317	-200.000	0.006	-0.141
-615.303	-200.000	-0.012	-0.198
-614.288	800.000	0.027	-0.100
-613.273	40.499	0.062	0.057
-612.259	-200.000	0.020	0.211
-611.244	-200.000	-0.008	-0.111
-610.230	461.093	-0.054	-0.121
-609.215	68.799	-0.162	-0.169
-608.201	403.484	-0.102	0.218
-607.186	-53.128	0.124	0.058
-606.171	243.692	-0.161	0.273
-605.157	-23.498	-0.094	-0.057
-604.142	679.540	-0.073	0.192
-603.128	124.736	-0.187	0.238
-602.113	-3.750	-0.123	-0.087
-601.098	31.317	-0.207	-0.180
-600.084	-200.000	-0.035	-0.313
-599.069	-87.807	-0.252	0.077
-598.055	94.671	0.069	-0.079
-597.040	118.834	-0.157	0.196
-596.025	-164.642	-0.071	0.003
-595.011	-51.392	-0.142	0.067
-593.996	690.432	-0.057	0.151
-592.982	683.334	0.148	-0.390
-591.967	8.449	-0.127	0.097
-590.952	130.631	-0.145	0.188
-589.938	800.000	-0.057	-0.200
-588.923	800.000	0.039	0.119
-587.909	394.981	-0.019	-0.040
-586.894	184.981	0.127	-0.191
-585.879	39.834	0.150	-0.136
-584.865	586.142	-0.007	0.016
-583.850	100.570	0.235	0.276
-582.836	-200.000	-0.024	-0.168
-581.821	800.000	-0.067	-0.195
-580.806	-200.000	0.011	-0.056
-579.792	-71.572	-0.213	0.081
-578.777	8.032	0.334	-0.254
-577.763	800.000	0.005	-0.017
-576.748	25.145	0.271	-0.228
-575.733	-130.198	0.328	0.045
-574.719	10.258	-0.219	0.168
-573.704	-97.045	-0.516	-0.137
-572.690	46.371	-0.197	-0.184
-571.675	800.000	-0.070	-0.300
-570.661	800.000	0.070	-0.257
-569.646	147.197	-0.151	-0.206
-568.631	121.334	0.062	-0.079
-567.617	107.189	-0.159	0.191
-566.602	71.715	0.159	-0.167
-565.588	-46.435	-0.348	0.172
-564.573	-74.166	0.287	0.105
-563.558	335.967	0.145	0.285
-562.544	-94.503	0.348	-0.096
-561.529	100.015	-0.277	-0.325
-560.515	-139.468	0.067	-0.007
-559.500	800.000	0.061	-0.195
-558.485	-59.564	0.086	-0.037
-557.471	639.566	0.128	-0.329
-556.456	-60.379	-0.145	0.062
-555.442	-76.170	-0.210	0.075
-554.427	-131.207	-0.160	-0.022
-553.412	800.000	-0.085	-0.348
-552.398	-200.000	-0.061	-0.347
-551.383	13.052	0.223	-0.174
-550.369	-42.670	-0.126	-0.065
-549.354	-86.046	-0.220	0.069
-548.339	-200.000	-0.025	0.222
-547.325	-200.000	0.016	-0.122
-546.310	113.470	-0.199	-0.244
-545.296	800.000	0.050	0.159
-544.281	-12.500	0.264	-0.174
-543.266	-47.763	0.392	-0.192
-542.252	800.000	-0.076	-0.282
-541.237	800.000	-0.113	-0.471
-540.223	-200.000	0.002	-0.014
-539.208	310.597	-0.244	-0.462
-538.193	800.000	0.084	-0.338
-537.179	-61.598	-0.385	-0.163
-536.164	-200.000	-0.020	0.151
-535.150	178.349	0.200	0.294
-534.135	-97.192	-0.179	-0.047
-533.121	48.937	0.137	0.130
-532.106	30.768	0.170	-0.147
-531.091	-42.932	0.275	0.141
-530.077	-133.318	-0.199	-0.025
-529.062	140.390	-0.075	-0.100
-528.048	-104.369	0.099	0.023
-527.033	205.748	0.111	-0.174
-526.018	29.047	-0.079	-0.068
-525.004	800.000	0.071	-0.259
-523.989	800.000	0.122	-0.455
-522.975	-200.000	0.022	-0.362
-521.960	184.470	-0.139	-0.207
-520.945	90.319	0.106	0.119
-519.931	74.275	0.113	0.119
-518.916	-200.000	0.011	-0.187
-517.902	-200.000	-0.013	0.076
-516.887	-21.609	0.050	0.030
-515.872	-105.867	-0.152	0.035
-514.858	-200.000	-0.048	0.218
-513.843	-200.000	-0.048	-0.439
-512.829	-137.629	-0.318	-0.036
-511.814	374.350	0.108	-0.221
-510.799	446.217	0.077	0.171
-509.785	800.000	0.096	0.276
-508.770	25.593	0.107	-0.090
-507.756	54.648	-0.169	0.165
-506.741	-200.000	-0.037	0.208
-505.726	94.341	-0.132	0.151
-504.712	800.000	-0.012	0.036
-503.697	800.000	-0.151	-0.444
-502.683	667.564	0.021	-0.056
-501.668	-98.750	0.104	0.027
-500.653	187.695	0.155	0.233
-499.639	-200.000	-0.009	0.227
-498.624	-94.857	0.233	-0.064
-497.610	220.657	0.165	0.267
-496.595	11.267	-0.223	-0.172
-495.581	-200.000	0.033	0.153
-494.566	210.170	-0.095	0.151
-493.551	-29.302	-0.246	0.142
-492.537	68.787	0.107	-0.111
-491.522	-200.000	0.002	0.086
-490.508	-169.360	0.502	-0.019
-489.493	800.000	-0.102	-0.333
-488.478	-0.778	-0.140	0.100
-487.464	-109.795	0.186	-0.039
-486.449	800.000	0.036	0.132
-485.435	-200.000	0.042	-0.196
-484.420	53.944	0.230	-0.222
-483.405	-200.000	0.063	0.278
-482.391	431.650	0.133	0.290
-481.376	-117.994	-0.069	-0.012
-480.362	-148.664	-0.234	-0.019
-479.347	-88.652	0.157	-0.047
-478.332	800.000	-0.152	0.452
-477.318	-38.824	-0.134	0.071
-476.303	-90.516	-0.225	0.066
-475.289	3.360	-0.337	0.247
-474.274	-26.426	0.318	0.188
-473.259	-69.224	-0.373	0.144
-472.245	64.806	0.162	0.165
-471.230	87.433	-0.127	0.141
-470.216	-36.767	-0.141	0.076
-469.201	-200.000	-0.054	0.347
-468.186	-158.570	-0.099	0.006
-467.172	-64.510	0.133	0.055
-466.157	-200.000	0.031	0.210
-465.143	275.804	-0.066	0.119
-464.128	40.761	0.181	-0.164
-463.113	-99.912	0.225	0.056
-462.099	-200.000	0.014	-0.130
-461.084	-53.132	-0.133	-0.061
-460.070	29.206	0.182	-0.155
-459.055	-36.578	-0.042	0.023
-458.040	-200.000	0.030	0.302
-457.026	-109.153	0.126	-0.027
-456.011	-89.911	0.190	-0.056
-454.997	-93.357	-0.087	0.024
-453.982	256.034	0.134	-0.232
-452.968	-145.037	0.188	0.017
-451.953	-159.634	0.310	-0.017
-450.938	463.202	0.101	-0.227
-449.924	-103.994	0.069	-0.016
-448.909	-200.000	0.016	-0.113
-447.895	-50.480	-0.399	-0.190
-446.880	-35.229	0.357	0.196
-445.865	-200.000	0.005	0.312
-444.851	143.254	0.081	0.108
-443.836	350.994	0.081	-0.161
-442.822	-200.000	0.019	0.108
-441.807	800.000	0.012	0.043
-440.792	-89.149	-0.185	0.055
-439.778	-115.834	0.166	0.031
-438.763	-151.197	0.259	0.019
-437.749	-200.000	0.017	0.364
-436.734	471.830	-0.166	0.375
-435.719	-54.672	-0.289	0.131
-434.705	485.081	-0.039	0.090
-433.690	24.924	0.265	0.221
-432.676	800.000	0.049	0.207
-431.661	88.676	0.239	0.267
-430.646	115.820	-0.119	0.146
-429.632	-103.889	-0.186	0.044
-428.617	-159.644	-0.252	0.014
-427.603	35.175	-0.167	0.147
-426.588	-86.894	0.176	0.054
-425.573	158.386	-0.298	0.415
-424.559	374.314	0.137	-0.281
-423.544	800.000	-0.050	-0.187
-422.530	513.821	0.146	-0.343
-421.515	-176.731	-0.196	0.005
-420.500	-122.930	0.189	0.031
-419.486	-31.925	-0.183	-0.103
-418.471	110.334	0.154	-0.186
-417.457	-104.468	0.405	-0.094
-416.442	482.389	-0.179	0.409
-415.428	-200.000	0.030	-0.141
-414.413	-200.000	-0.035	0.286
-413.398	158.715	-0.116	0.162
-412.384	488.727	0.052	0.120
-411.369	-58.037	0.153	0.067
-410.355	-200.000	-0.008	0.135
-409.340	555.556	-0.084	-0.204
-408.325	15.785	-0.059	-0.046
-407.311	-126.883	0.136	0.020
-406.296	-200.000	0.006	-0.200
-405.282	514.257	0.027	-0.062
-404.267	-117.965	-0.081	-0.015
-403.252	-200.000	-0.021	-0.305
-402.238	-120.606	0.243	-0.041
-401.223	800.000	-0.037	-0.148
-400.209	-67.895	0.204	0.080
-399.194	622.271	-0.139	0.351
-398.179	440.619	-0.133	0.292
-397.165	800.000	0.075	-0.238
-396.150	-96.109	-0.140	0.037
-395.136	-55.813	-0.338	0.152
-394.121	342.001	-0.075	0.147
-393.106	-112.044	0.056	0.011
-392.092	35.926	-0.116	0.103
-391.077	800.000	-0.053	0.170
-390.063	800.000	0.068	-0.274
-389.048	-133.444	0.411	-0.052
-388.033	127.378	-0.060	-0.077
-387.019	-8.951	0.208	0.140
-386.004	-170.756	0.160	0.006
-384.990	-138.032	0.119	0.013
-383.975	-200.000	-0.012	-0.322
-382.960	46.902	0.173	0.161
-381.946	-26.538	-0.177	-0.104
-380.931	-49.189	0.297	-0.143
-379.917	-200.000	0.005	0.068
-378.902	162.600	-0.237	-0.334
-377.888	87.445	0.111	0.123
-376.873	-89.450	0.129	0.038
-375.858	123.457	-0.306	-0.385
-374.844	-102.169	0.170	0.041
-373.829	597.500	0.117	0.291
-372.815	-87.906	-0.391	-0.118
-371.800	230.405	0.165	-0.271
-370.785	-151.483	-0.084	0.006
-369.771	180.055	0.111	0.164
-368.756	-73.046	-0.317	0.117
-367.742	-49.650	0.228	-0.109
-366.727	555.136	-0.157	-0.379
-365.712	-158.760	0.382	-0.022
-364.698	800.000	-0.008	-0.036
-363.683	350.973	0.112	-0.223
-362.669	205.079	0.137	0.213
-361.654	-200.000	0.024	-0.132
-360.639	37.488	-0.272	0.242
-359.625	-200.000	0.005	0.033
-358.610	-166.485	0.387	-0.016
-357.596	13.228	-0.183	0.142
-356.581	-125.253	-0.237	-0.036
-355.566	195.583	-0.188	0.287
-354.552	-200.000	-0.051	0.297
-353.537	128.988	-0.188	0.241
-352.523	-68.095	-0.289	-0.113
-351.508	-77.210	0.196	0.068
-350.493	213.720	0.092	-0.145
-349.479	-142.825	0.023	0.002
-348.464	323.293	0.167	-0.319
-347.450	-200.000	0.005	-0.432
-346.435	56.364	-0.178	-0.174
-345.420	-104.927	-0.138	-0.032
-344.406	-2.438	0.096	-0.068
-343.391	-3.730	-0.335	-0.233
-342.377	61.628	-0.377	0.376
-341.362	777.289	0.025	-0.067
-340.348	800.000	0.085	-0.253
-339.333	-117.158	0.313	-0.057
-338.318	-130.928	0.082	0.011
-337.304	800.000	-0.057	-0.175
-336.289	18.642	-0.218	0.175
-335.275	30.516	0.024	-0.021
-334.260	-135.124	-0.462	-0.056
-333.245	53.902	-0.292	-0.281
-332.231	-14.108	0.060	0.039
-331.216	-200.000	-0.005	-0.149
-330.202	248.958	0.074	-0.126
-329.187	206.592	-0.087	0.136
-328.172	-119.754	0.238	0.041
-327.158	-105.206	-0.239	0.055
-326.143	165.545	0.238	0.337
-325.129	-1.252	-0.202	0.143
-324.114	317.348	0.167	0.317
-323.099	66.987	0.329	-0.336
-322.085	-200.000	0.001	-0.075
-321.070	156.514	0.143	0.198
-320.056	96.332	-0.112	-0.129
-319.041	127.206	0.103	0.130
-318.026	465.455	0.074	0.165
-317.012	40.676	0.390	-0.352
-315.997	-53.006	-0.371	-0.171
-314.983	800.000	0.056	0.164
-313.968	24.184	0.122	-0.100
-312.953	76.105	-0.049	0.052
-311.939	350.471	0.113	-0.224
-310.924	800.000	-0.065	-0.194
-309.910	69.833	0.153	0.158
-308.895	-24.982	0.212	-0.126
-307.880	4.346	0.188	-0.138
-306.866	114.435	0.093	0.114
-305.851	-64.828	-0.208	0.084
-304.837	-200.000	0.027	-0.154
-303.822	36.209	-0.267	-0.235
-302.807	-100.617	-0.332	0.082
-301.793	790.928	0.037	0.101
-300.778	-200.000	0.009	0.201
-299.764	-200.000	-0.011	0.272
-298.749	342.457	-0.048	-0.095
-297.735	-9.516	0.206	-0.137
-296.720	-200.000	-0.011	0.067
-295.705	800.000	-0.100	-0.387
-294.691	-143.984	0.233	0.022
-293.676	-81.139	0.277	0.091
-292.662	-117.452	0.143	0.026
-291.647	-67.033	-0.422	0.166
-290.632	9.587	0.227	-0.172
-289.618	-126.645	-0.119	0.018
-288.603	-156.867	0.073	0.004
-287.589	163.789	0.157	0.221
-286.574	-200.000	-0.016	0.213
-285.559	234.647	-0.228	0.376
-284.545	-200.000	0.033	0.496
-283.530	115.500	0.208	-0.255
-282.516	-124.454	-0.116	0.018
-281.501	234.187	0.071	0.117
-280.486	-68.897	-0.299	0.115
-279.472	16.641	-0.138	-0.109
-278.457	97.630	-0.066	0.076
-277.443	-94.952	-0.168	0.045
-276.428	-124.008	-0.132	0.021
-275.413	764.629	-0.097	0.262
-274.399	564.906	0.090	0.218
-273.384	-200.000	0.001	0.332
-272.370	1.419	0.180	0.129
-271.355	-3.025	-0.216	0.150
-270.340	42.794	0.120	0.110
-269.326	-86.737	0.160	0.049
-268.311	-86.738	0.541	-0.165
-267.297	262.978	-0.229	0.397
-266.282	-61.371	0.249	-0.105
-265.267	537.564	0.134	0.317
-264.253	-200.000	-0.032	0.363
-263.238	800.000	-0.019	0.066
-262.224	27.405	-0.262	0.220
-261.209	10.387	0.325	0.247
-260.195	-200.000	0.020	0.128
-259.180	-118.697	0.071	0.012
-258.165	-175.339	-0.099	0.003
-257.151	155.054	-0.251	-0.344
-256.136	-96.993	-0.148	0.039
-255.122	-200.000	-0.001	-0.304
-254.107	-165.664	0.223	-0.010
-253.092	-162.571	-0.190	0.009
-252.078	-15.097	-0.145	0.093
-251.063	-200.000	-0.012	-0.338
-250.049	-133.987	0.095	-0.012
-249.034	800.000	-0.058	0.204
-248.019	90.670	-0.124	-0.139
-247.005	-131.525	-0.358	-0.047
-245.990	800.000	-0.084	0.309
-244.976	-102.713	0.155	0.037
-243.961	80.524	-0.095	-0.102
-242.946	-34.626	0.111	-0.061
-241.932	248.650	0.044	0.075
-240.917	68.758	-0.032	0.033
-239.903	-38.428	-0.050	-0.026
-238.888	42.687	-0.194	-0.176
-237.873	33.065	-0.113	-0.098
-236.859	-22.444	0.096	-0.058
-235.844	223.355	0.201	0.324
-234.830	40.556	-0.185	-0.167
-233.815	800.000	0.116	-0.339
-232.800	587.369	0.019	-0.046
-231.786	-14.738	0.123	-0.079
-230.771	214.500	-0.241	0.381
-229.757	416.695	0.075	0.160
-228.742	-68.249	0.219	0.085
-227.727	-200.000	0.004	-0.261
-226.713	73.512	-0.102	0.106
-225.698	30.363	-0.289	-0.246
-224.684	-200.000	0.044	-0.309
-223.669	-139.191	-0.236	0.025
-222.655	-126.216	0.130	0.019
-221.640	-76.686	-0.109	-0.038
-220.625	34.684	0.159	0.138
-219.611	107.983	0.129	-0.154
-218.596	-167.702	0.150	0.006
-217.582	800.000	0.078	0.292
-216.567	-179.069	0.152	0.003
-215.552	-109.045	0.224	0.048
-214.538	-76.452	0.235	-0.082
-213.523	-155.872	-0.384	0.024
-212.509	245.251	0.290	0.486
-211.494	163.435	-0.214	0.300
-210.479	48.339	0.233	0.218
-209.465	39.045	0.247	-0.220
-208.450	-130.518	-0.314	0.042
-207.436	-119.309	-0.056	0.010
-206.421	-78.191	0.309	0.106
-205.406	-200.000	0.018	-0.367
-204.392	-18.764	0.167	0.104
-203.377	-200.000	0.079	-0.507
-202.363	514.433	-0.048	-0.112
-201.348	-30.499	-0.236	-0.133
-200.333	-64.354	-0.290	-0.118
-199.319	-61.132	-0.187	0.078
-198.304	-72.877	0.201	-0.074
-197.290	800.000	0.080	0.260
-196.275	457.024	-0.063	-0.139
-195.260	472.944	0.107	0.239
-194.246	800.000	-0.010	-0.039
-193.231	-121.767	0.137	0.023
-192.217	-140.005	0.069	0.007
-191.202	694.344	-0.062	0.162
-190.187	-200.000	0.008	-0.059
-189.173	800.000	-0.041	-0.169
-188.158	120.909	0.071	-0.088
-187.144	-61.508	0.258	0.108
-186.129	800.000	-0.062	0.213
-185.114	2.926	-0.281	0.203
-184.100	109.235	-0.051	-0.060
-183.085	-9.956	-0.165	-0.109
-182.071	-26.116	-0.233	-0.137
-181.056	17.073	-0.115	0.091
-180.042	70.509	0.090	-0.093
-179.027	266.369	0.206	0.357
-178.012	343.039	-0.173	-0.337
-176.998	-134.987	0.118	-0.014
-175.983	68.542	0.150	-0.153
-174.969	426.280	0.101	-0.217
-173.954	-145.772	0.154	-0.014
-172.939	70.135	-0.083	0.085
-171.925	-20.417	-0.191	-0.117
-170.910	109.225	0.171	0.204
-169.896	-138.980	0.139	0.015
-168.881	34.353	0.046	0.040
-167.866	380.091	0.122	-0.249
-166.852	-162.022	0.142	-0.007
-165.837	-142.983	0.197	0.019
-164.823	-118.515	0.082	0.014
-163.808	800.000	-0.085	-0.296
-162.793	137.938	-0.150	-0.195
-161.779	101.640	-0.161	-0.187
-160.764	-200.000	0.042	-0.289
-159.750	151.681	0.082	0.111
-158.735	-49.461	0.437	-0.207
-157.720	-112.986	0.329	0.065
-156.706	800.000	0.027	-0.094
-155.691	-200.000	-0.014	-0.191
-154.677	-115.560	-0.216	-0.040
-153.662	37.742	0.092	-0.081
-152.647	147.780	0.138	0.185
-151.633	-74.240	0.346	-0.124
-150.618	151.458	0.006	0.007
-149.604	-200.000	0.014	0.190
-148.589	-46.405	-0.237	0.116
-147.574	738.853	-0.048	-0.129
-146.560	87.909	0.259	0.286
-145.545	-140.134	-0.267	0.028
-144.531	439.910	-0.121	0.262
-143.516	800.000	-0.114	-0.463
-142.502	-98.909	-0.171	-0.043
-141.487	377.144	0.149	-0.303
-140.472	800.000	0.067	0.246
-139.458	377.282	0.045	0.091
-138.443	-74.593	-0.241	0.086
-137.429	-94.409	0.253	0.069
-136.414	-157.429	0.265	-0.016
-135.399	-26.917	0.212	0.123
-134.385	800.000	0.028	-0.122
-133.370	-109.954	0.181	-0.038
-132.356	800.000	-0.032	-0.109
-131.341	-35.819	0.374	0.201
-130.326	800.000	-0.049	0.142
-129.312	-89.046	-0.150	0.044
-128.297	-200.000	-0.100	0.438
-127.283	-60.617	-0.316	0.133
-126.268	-200.000	-0.056	-0.257
-125.253	800.000	0.053	0.158
-124.239	-58.151	-0.074	0.032
-123.224	800.000	0.043	-0.158
-122.210	473.777	0.115	0.257
-121.195	800.000	-0.109	0.341
