DTS Sentinel unit serial number:	SN413079Multiplexer serial number:	ORYXHardware model number:	OX4-SRSoftware version number:	ORYX F/W v4.00 Oryx Data Collector v3.7.2.0data status	okinstallation	princeton_trtdifferential loss correction	single-endedforward channel	channel 2reverse channel	N/Adate	2019/09/17time	03:07:34forward acquisition time	60.00reverse acquisition time	0.00gamma	496.2192k internal	0.2326k external	0.2326temperature offset calibration	0.9973default loss term (dB/km)	0.3790temperature slope calibration	1.0000multiplexer offset coefficient	1.0000multiplexer slope coefficient	1.0000fibre end	0.00T internal ref (°C)	29.94T ext. ref 1 (°C)	0.13T ext. ref 2 (°C)	24.87length (m)	temperature (°C)	Stokes	anti-Stokes-747.200	55.097	-0.032	-0.031
-746.185	800.000	-0.080	-0.267
-745.171	235.125	0.133	-0.221
-744.156	159.281	-0.137	0.192
-743.142	348.957	0.023	0.046
-742.127	302.238	-0.131	-0.245
-741.112	-96.003	0.359	0.096
-740.098	95.190	-0.131	0.150
-739.083	-19.289	0.225	0.141
-738.069	800.000	0.041	0.159
-737.054	82.217	0.211	-0.230
-736.039	-96.665	-0.456	0.121
-735.025	-47.130	0.197	0.097
-734.010	79.780	-0.256	0.277
-732.996	13.971	-0.114	0.089
-731.981	193.371	-0.085	-0.129
-730.966	-101.670	-0.069	0.017
-729.952	252.225	0.009	0.015
-728.937	-65.952	0.385	-0.155
-727.923	-154.470	0.184	-0.012
-726.908	60.084	0.059	0.059
-725.894	-200.000	-0.033	-0.333
-724.879	-200.000	-0.038	0.206
-723.864	55.590	-0.124	0.121
-722.850	-155.575	-0.134	0.009
-721.835	800.000	-0.041	-0.113
-720.821	-69.166	-0.093	0.036
-719.806	17.641	-0.151	0.121
-718.791	-48.780	0.314	-0.152
-717.777	50.634	-0.090	0.085
-716.762	37.535	0.109	-0.098
-715.748	-200.000	0.038	0.316
-714.733	442.608	-0.086	0.189
-713.718	-200.000	-0.002	-0.349
-712.704	510.511	0.101	-0.236
-711.689	84.048	-0.162	-0.178
-710.675	52.971	0.312	-0.301
-709.660	209.137	-0.177	-0.279
-708.645	-200.000	-0.038	0.239
-707.631	430.127	0.036	-0.079
-706.616	-106.511	-0.249	0.056
-705.602	-200.000	-0.018	-0.254
-704.587	-89.119	0.635	-0.189
-703.572	800.000	-0.014	0.060
-702.558	16.725	0.148	0.118
-701.543	-200.000	0.007	0.136
-700.529	431.586	0.039	-0.085
-699.514	-175.054	-0.231	-0.006
-698.499	-179.883	-0.128	-0.003
-697.485	-200.000	0.040	-0.200
-696.470	31.123	0.034	0.030
-695.456	-91.001	0.123	0.036
-694.441	-50.030	-0.194	-0.092
-693.426	171.809	-0.138	0.200
-692.412	-18.111	0.160	-0.101
-691.397	800.000	-0.013	0.055
-690.383	53.614	-0.197	-0.190
-689.368	-89.081	-0.198	0.059
-688.354	800.000	-0.079	0.341
-687.339	-112.407	0.192	0.039
-686.324	-83.232	0.441	0.143
-685.310	-200.000	-0.005	0.128
-684.295	800.000	-0.116	-0.332
-683.281	745.656	-0.110	-0.299
-682.266	-46.591	-0.056	0.028
-681.251	-146.163	0.168	0.015
-680.237	-96.419	-0.118	0.031
-679.222	353.329	0.151	0.302
-678.208	143.171	0.064	0.085
-677.193	432.973	-0.088	-0.191
-676.178	800.000	0.065	-0.250
-675.164	-180.775	-0.531	0.011
-674.149	223.342	0.167	-0.270
-673.135	55.345	0.136	-0.132
-672.120	102.654	-0.312	0.367
-671.105	-122.017	-0.205	0.034
-670.091	800.000	0.158	-0.463
-669.076	66.060	0.071	0.073
-668.062	-39.692	0.086	0.045
-667.047	47.271	-0.264	0.247
-666.032	-41.093	-0.267	-0.139
-665.018	2.685	0.158	-0.115
-664.003	-42.222	-0.190	-0.097
-662.989	-41.971	0.149	0.077
-661.974	546.992	-0.049	-0.118
-660.959	-101.771	0.371	0.090
-659.945	125.681	0.303	-0.385
-658.930	-152.508	0.358	-0.026
-657.916	689.285	-0.027	-0.072
-656.901	-200.000	0.057	-0.315
-655.886	-21.023	0.201	0.123
-654.872	-6.719	0.245	-0.168
-653.857	800.000	-0.057	0.249
-652.843	25.198	0.103	0.086
-651.828	129.530	0.112	-0.143
-650.814	-89.107	0.221	-0.066
-649.799	281.858	-0.082	-0.148
-648.784	800.000	0.066	-0.219
-647.770	-69.170	0.097	-0.038
-646.755	176.595	-0.060	0.087
-645.741	-123.239	0.255	0.041
-644.726	-200.000	-0.003	-0.052
-643.711	-120.580	0.301	0.051
-642.697	-82.917	-0.568	0.184
-641.682	800.000	-0.104	-0.324
-640.668	312.795	-0.095	-0.179
-639.653	392.671	0.100	-0.208
-638.638	87.572	-0.135	-0.151
-637.624	-39.176	0.230	-0.121
-636.609	193.731	-0.092	-0.140
-635.595	-200.000	-0.013	-0.058
-634.580	-165.847	0.143	-0.006
-633.565	-74.242	-0.142	-0.052
-632.551	-200.000	0.040	-0.237
-631.536	-200.000	-0.036	-0.217
-630.522	-86.079	0.120	0.037
-629.507	576.465	0.042	-0.104
-628.492	-79.367	0.170	0.058
-627.478	6.475	0.206	0.153
-626.463	-152.734	0.153	-0.011
-625.449	160.927	-0.134	0.187
-624.434	-51.155	0.283	0.133
-623.419	-200.000	-0.024	-0.113
-622.405	-81.241	-0.364	0.120
-621.390	89.005	-0.253	0.283
-620.376	44.271	0.233	-0.214
-619.361	8.255	-0.150	-0.113
-618.346	-200.000	0.004	-0.169
-617.332	-86.975	0.091	0.028
-616.317	-13.245	-0.134	-0.087
-615.303	186.363	0.141	-0.211
-614.288	295.427	0.064	-0.118
-613.273	32.909	-0.168	0.146
-612.259	-200.000	0.016	0.082
-611.244	-96.427	-0.135	-0.036
-610.230	-77.346	0.275	0.096
-609.215	-115.129	0.151	0.029
-608.201	239.318	0.104	0.173
-607.186	-100.005	0.294	0.074
-606.171	40.528	0.180	0.163
-605.157	-57.565	-0.277	-0.122
-604.142	255.256	-0.179	-0.308
-603.128	-181.994	-0.090	-0.002
-602.113	-101.003	0.145	0.036
-601.098	268.968	-0.078	0.137
-600.084	49.307	-0.110	0.104
-599.069	-85.795	0.239	0.074
-598.055	92.256	-0.080	0.090
-597.040	317.876	-0.093	-0.177
-596.025	-57.758	-0.103	0.045
-595.011	-143.382	-0.347	0.033
-593.996	800.000	0.057	-0.229
-592.982	102.173	-0.146	0.171
-591.967	-80.115	0.309	-0.104
-590.952	752.280	-0.071	0.192
-589.938	-77.989	0.249	0.086
-588.923	-105.314	-0.139	0.032
-587.909	-200.000	0.051	-0.407
-586.894	-18.388	-0.081	-0.051
-585.879	139.204	0.053	-0.070
-584.865	-45.245	-0.294	-0.146
-583.850	-24.458	0.123	-0.073
-582.836	585.450	-0.043	-0.105
-581.821	78.926	0.067	0.072
-580.806	-47.760	0.291	0.142
-579.792	550.554	-0.121	-0.290
-578.777	-5.101	-0.157	-0.108
-577.763	387.682	-0.112	0.232
-576.748	-6.494	0.134	-0.091
-575.733	-24.200	-0.204	0.122
-574.719	-163.385	-0.116	0.006
-573.704	104.877	-0.067	-0.079
-572.690	525.584	0.054	0.128
-571.675	102.039	0.184	0.215
-570.661	421.532	0.068	0.147
-569.646	-200.000	0.035	0.230
-568.631	-15.225	0.229	-0.147
-567.617	-181.714	0.121	-0.002
-566.602	35.920	-0.248	0.218
-565.588	-200.000	-0.000	-0.056
-564.573	-47.620	0.288	0.140
-563.558	102.199	-0.193	-0.226
-562.544	-90.052	-0.301	-0.088
-561.529	128.933	0.047	0.060
-560.515	-124.298	0.193	-0.030
-559.500	-79.936	-0.301	0.101
-558.485	368.031	-0.131	-0.265
-557.471	24.081	0.237	0.195
-556.456	-200.000	0.027	0.000
-555.442	-200.000	0.045	0.521
-554.427	-200.000	-0.016	0.099
-553.412	-200.000	-0.006	-0.060
-552.398	-200.000	0.028	0.185
-551.383	-200.000	0.044	-0.490
-550.369	-91.818	-0.148	0.042
-549.354	35.872	0.283	-0.250
-548.339	71.303	-0.218	0.227
-547.325	64.905	0.174	-0.176
-546.310	79.968	0.166	0.178
-545.296	-200.000	0.001	-0.112
-544.281	800.000	-0.225	-0.727
-543.266	-68.132	-0.200	0.078
-542.252	-200.000	0.047	0.286
-541.237	-134.888	0.295	-0.036
-540.223	-152.373	-0.304	0.022
-539.208	-47.124	-0.037	-0.018
-538.193	50.913	-0.042	0.039
-537.179	-200.000	0.085	0.488
-536.164	-84.574	0.290	0.091
-535.150	269.942	0.169	0.298
-534.135	-150.983	0.154	-0.012
-533.121	800.000	-0.090	-0.293
-532.106	49.640	-0.273	0.257
-531.091	-178.808	-0.158	0.004
-530.077	-9.044	0.318	-0.213
-529.062	800.000	0.096	0.382
-528.048	13.552	-0.042	0.033
-527.033	-200.000	-0.026	-0.345
-526.018	-200.000	0.007	0.145
-525.004	-42.153	0.150	-0.077
-523.989	-41.876	0.259	0.133
-522.975	800.000	0.066	0.212
-521.960	111.433	0.069	-0.083
-520.945	-21.554	-0.019	0.012
-519.931	800.000	-0.077	0.260
-518.916	15.080	-0.248	0.194
-517.902	-111.522	-0.020	0.004
-516.887	-18.094	-0.123	0.077
-515.872	263.479	0.094	-0.164
-514.858	22.429	-0.150	-0.122
-513.843	-121.189	0.357	0.060
-512.829	164.660	0.211	0.298
-511.814	299.737	0.074	0.137
-510.799	-126.561	-0.091	0.014
-509.785	126.779	0.079	-0.100
-508.770	-200.000	0.047	0.232
-507.756	-111.355	-0.136	-0.028
-506.741	-101.112	-0.267	0.065
-505.726	-60.982	-0.036	0.015
-504.712	-139.458	-0.167	-0.018
-503.697	169.856	0.140	-0.200
-502.683	-96.189	-0.163	-0.043
-501.668	-200.000	0.036	-0.223
-500.653	800.000	-0.069	-0.219
-499.639	-200.000	0.000	0.046
-498.624	800.000	0.029	0.095
-497.610	318.766	0.187	-0.354
-496.595	-200.000	0.053	0.238
-495.581	-153.411	0.350	-0.024
-494.566	-200.000	0.030	0.285
-493.551	-68.088	-0.181	-0.071
-492.537	18.085	0.045	-0.036
-491.522	-200.000	0.006	-0.212
-490.508	703.574	-0.148	-0.389
-489.493	43.299	0.326	-0.297
-488.478	11.364	0.150	0.114
-487.464	154.947	-0.097	0.134
-486.449	-67.710	0.343	-0.134
-485.435	800.000	-0.099	0.295
-484.420	-200.000	-0.003	-0.126
-483.405	70.451	-0.081	-0.084
-482.391	-200.000	-0.023	0.153
-481.376	51.857	-0.055	0.052
-480.362	386.057	0.040	0.082
-479.347	-200.000	-0.019	0.321
-478.332	-200.000	-0.029	0.198
-477.318	18.007	-0.028	-0.022
-476.303	445.632	-0.041	-0.089
-475.289	-118.161	-0.157	0.028
-474.274	-51.421	-0.146	-0.068
-473.259	-125.281	0.275	0.042
-472.245	53.990	-0.174	-0.167
-471.230	-200.000	-0.197	0.001
-470.216	-200.000	0.007	0.079
-469.201	800.000	0.064	-0.199
-468.186	12.323	0.118	-0.091
-467.172	-149.885	0.111	0.009
-466.157	-179.184	-0.138	-0.003
-465.143	-55.505	0.298	-0.133
-464.128	11.560	0.189	-0.145
-463.113	-58.673	-0.062	-0.027
-462.099	547.867	-0.145	0.347
-461.084	800.000	-0.034	0.138
-460.070	-41.200	0.547	0.282
-459.055	-92.921	0.113	0.032
-458.040	-153.541	-0.175	0.012
-457.026	-21.670	0.231	-0.141
-456.011	-200.000	0.043	-0.199
-454.997	180.870	-0.128	-0.187
-453.982	-200.000	-0.015	0.219
-452.968	528.165	-0.052	-0.122
-451.953	257.748	-0.107	0.183
-450.938	-118.636	-0.412	-0.073
-449.924	10.836	0.071	-0.054
-448.909	-30.551	-0.328	0.185
-447.895	261.810	-0.116	-0.200
-446.880	-200.000	0.034	-0.366
-445.865	-55.082	0.438	-0.197
-444.851	-84.512	-0.212	-0.067
-443.836	329.763	-0.094	-0.180
-442.822	-200.000	-0.046	0.224
-441.807	228.154	0.113	0.183
-440.792	800.000	-0.056	0.219
-439.778	462.679	-0.099	0.221
-438.763	643.914	-0.073	-0.185
-437.749	-53.772	0.077	-0.035
-436.734	800.000	0.102	-0.373
-435.719	-200.000	-0.038	-0.228
-434.705	71.725	0.169	-0.175
-433.690	-117.936	0.109	0.019
-432.676	-139.455	0.376	-0.040
-431.661	-78.740	0.115	-0.039
-430.646	-86.861	-0.182	-0.055
-429.632	-118.523	0.130	-0.023
-428.617	357.745	-0.140	0.279
-427.603	115.305	-0.124	0.151
-426.588	800.000	-0.143	-0.433
-425.573	-71.960	0.163	-0.060
-424.559	-36.290	0.228	-0.123
-423.544	76.986	0.105	0.111
-422.530	-40.560	-0.079	0.041
-421.515	75.881	-0.159	0.168
-420.500	800.000	-0.088	-0.318
-419.486	-200.000	0.007	-0.075
-418.471	623.076	-0.139	0.347
-417.457	343.114	-0.204	0.398
-416.442	315.496	0.139	-0.261
-415.428	144.622	-0.060	0.079
-414.413	-200.000	0.049	-0.234
-413.398	146.651	0.122	0.163
-412.384	-21.891	0.030	0.018
-411.369	-11.400	-0.089	-0.058
-410.355	-172.432	-0.405	0.013
-409.340	150.501	-0.041	-0.055
-408.325	23.798	0.169	0.138
-407.311	-109.733	-0.185	-0.039
-406.296	-200.000	-0.062	-0.287
-405.282	-95.827	0.227	-0.060
-404.267	-200.000	-0.012	0.197
-403.252	11.457	0.147	-0.112
-402.238	-200.000	0.002	0.062
-401.223	14.645	-0.270	0.210
-400.209	-51.029	0.089	-0.042
-399.194	-89.876	0.262	0.076
-398.179	800.000	0.104	0.292
-397.165	5.073	0.364	0.267
-396.150	84.779	0.178	0.194
-395.136	-200.000	-0.054	-0.348
-394.121	365.536	0.091	-0.182
-393.106	-200.000	0.026	-0.194
-392.092	-94.692	0.231	-0.063
-391.077	-31.618	-0.215	-0.120
-390.063	800.000	-0.052	0.220
-389.048	226.275	0.200	0.322
-388.033	-128.019	0.133	-0.019
-387.019	-4.289	-0.134	-0.092
-386.004	-101.581	0.231	0.056
-384.990	159.494	-0.080	0.111
-383.975	0.595	0.134	-0.095
-382.960	-51.762	0.049	-0.022
-381.946	-30.505	0.226	-0.127
-380.931	-56.651	0.059	-0.026
-379.917	502.664	0.132	-0.303
-378.902	-200.000	-0.022	-0.280
-377.888	42.578	0.083	0.075
-376.873	-200.000	0.035	0.283
-375.858	-28.411	-0.176	-0.101
-374.844	60.849	0.076	0.075
-373.829	-68.045	0.175	0.068
-372.815	-127.598	0.265	-0.038
-371.800	-100.603	-0.228	-0.056
-370.785	-64.347	-0.258	-0.104
-369.771	122.255	-0.147	-0.182
-368.756	800.000	-0.109	0.337
-367.742	800.000	-0.106	-0.302
-366.727	189.627	0.128	0.191
-365.712	-200.000	0.000	-0.391
-364.698	-36.501	-0.384	0.205
-363.683	-103.275	-0.371	-0.087
-362.669	25.137	0.171	0.141
-361.654	-122.938	-0.146	0.023
-360.639	52.755	0.110	0.104
-359.625	800.000	-0.155	0.529
-358.610	800.000	-0.102	-0.417
-357.596	-200.000	-0.013	0.133
-356.581	789.769	0.149	-0.407
-355.566	-200.000	0.004	-0.118
-354.552	90.423	0.341	0.379
-353.537	-115.417	0.184	-0.034
-352.523	121.138	-0.202	-0.250
-351.508	133.300	-0.042	-0.054
-350.493	-189.671	-0.108	0.001
-349.479	-10.296	0.046	-0.030
-348.464	800.000	0.082	-0.326
-347.450	302.422	0.022	-0.041
-346.435	14.061	0.036	0.028
-345.420	-65.449	-0.330	-0.132
-344.406	-23.694	0.098	-0.058
-343.391	-200.000	-0.053	-0.283
-342.377	-50.850	0.185	-0.086
-341.362	16.206	0.308	0.241
-340.348	-60.672	0.237	0.100
-339.333	358.279	-0.088	0.174
-338.318	-62.630	-0.117	-0.048
-337.304	6.334	0.100	-0.074
-336.289	-57.060	-0.126	0.055
-335.275	2.391	0.104	0.075
-334.260	232.894	-0.052	-0.084
-333.245	-25.604	0.231	0.136
-332.231	800.000	0.102	0.393
-331.216	300.096	0.160	0.292
-330.202	-200.000	-0.022	0.141
-329.187	800.000	0.134	0.368
-328.172	800.000	-0.054	0.225
-327.158	-200.000	-0.075	-0.451
-326.143	379.858	-0.024	0.049
-325.129	-200.000	-0.029	0.163
-324.114	-154.445	-0.251	-0.017
-323.099	-200.000	0.001	0.281
-322.085	-200.000	-0.021	0.242
-321.070	-200.000	0.042	0.197
-320.056	437.823	0.071	0.154
-319.041	508.550	-0.068	0.156
-318.026	-42.474	0.263	0.133
-317.012	266.262	0.255	0.441
-315.997	-3.145	-0.194	0.134
-314.983	230.366	-0.028	-0.045
-313.968	-95.168	-0.186	-0.050
-312.953	-89.954	0.080	0.023
-311.939	-130.126	-0.194	-0.026
-310.924	-78.008	0.340	0.116
-309.910	160.784	0.273	0.378
-308.895	-200.000	0.030	0.247
-307.880	114.490	-0.115	0.139
-306.866	-200.000	0.041	0.241
-305.851	-84.515	0.176	0.055
-304.837	148.339	-0.066	-0.088
-303.822	629.414	-0.049	-0.122
-302.807	-93.334	0.041	0.011
-301.793	-131.932	-0.170	0.022
-300.778	-64.552	0.219	-0.088
-299.764	96.357	0.113	-0.128
-298.749	-36.364	-0.256	0.137
-297.735	-80.031	-0.439	-0.146
-296.720	328.198	0.173	0.329
-295.705	-103.796	0.242	-0.056
-294.691	-133.470	0.074	0.009
-293.676	-92.141	0.199	0.056
-292.662	140.750	-0.112	0.146
-291.647	129.280	-0.090	-0.114
-290.632	263.348	0.067	-0.116
-289.618	171.729	-0.061	0.087
-288.603	-128.585	-0.282	0.040
-287.589	-200.000	0.046	0.254
-286.574	-200.000	-0.054	0.438
-285.559	-182.683	0.171	-0.003
-284.545	-54.690	-0.495	-0.222
-283.530	-53.704	-0.274	-0.124
-282.516	-200.000	0.015	0.124
-281.501	517.032	0.081	-0.189
-280.486	-126.891	-0.182	-0.026
-279.472	26.603	-0.223	0.185
-278.457	-74.233	-0.168	0.060
-277.443	463.824	-0.066	-0.146
-276.428	213.966	-0.158	-0.248
-275.413	-200.000	-0.017	0.207
-274.399	-159.956	0.174	-0.009
-273.384	-76.619	-0.188	0.065
-272.370	-16.107	-0.257	-0.162
-271.355	-142.593	0.155	0.015
-270.340	-50.961	-0.218	0.101
-269.326	-143.698	-0.148	-0.014
-268.311	43.111	-0.166	-0.150
-267.297	114.512	0.092	-0.111
-266.282	27.056	0.210	0.175
-265.267	-200.000	-0.052	0.271
-264.253	800.000	0.067	0.285
-263.238	243.460	-0.272	0.452
-262.224	156.116	0.200	0.273
-261.209	64.881	0.126	-0.126
-260.195	-200.000	0.040	-0.362
-259.180	413.831	0.137	-0.289
-258.165	-200.000	-0.007	-0.290
-257.151	236.584	-0.107	0.175
-256.136	800.000	-0.092	0.338
-255.122	-47.716	-0.359	-0.172
-254.107	30.300	0.109	0.092
-253.092	-55.289	0.307	-0.136
-252.078	-72.677	-0.373	-0.136
-251.063	800.000	-0.041	-0.136
-250.049	-10.414	0.097	0.064
-249.034	-116.274	0.089	-0.016
-248.019	-141.710	0.539	0.054
-247.005	-149.932	0.181	0.014
-245.990	-41.335	0.108	0.055
-244.976	439.886	0.103	-0.223
-243.961	14.460	-0.155	-0.120
-242.946	161.369	0.170	-0.235
-241.932	116.095	0.070	-0.085
-240.917	13.451	0.164	-0.125
-239.903	22.908	-0.154	0.125
-238.888	496.343	0.067	-0.151
-237.873	-200.000	0.022	0.225
-236.859	-102.764	0.290	-0.068
-235.844	-106.553	0.280	0.062
-234.830	-124.299	-0.207	-0.032
-233.815	413.429	-0.070	0.147
-232.800	-42.869	0.244	-0.122
-231.786	-200.000	0.007	-0.199
-230.771	-53.654	-0.190	-0.086
-229.757	594.642	0.131	-0.321
-228.742	-102.810	-0.073	0.017
-227.727	-200.000	0.001	-0.225
-226.713	-117.311	-0.188	0.034
-225.698	-109.469	-0.323	-0.068
-224.684	130.991	-0.163	0.207
-223.669	54.063	0.136	-0.129
-222.655	32.564	0.037	-0.032
-221.640	149.786	0.221	-0.295
-220.625	-200.000	-0.011	-0.148
-219.611	-23.152	-0.124	0.074
-218.596	-97.378	-0.326	0.084
-217.582	155.340	0.117	0.159
-216.567	-96.292	0.185	-0.048
-215.552	-95.642	-0.259	0.069
-214.538	3.193	0.090	0.065
-213.523	-100.251	0.243	0.060
-212.509	-68.277	-0.216	-0.083
-211.494	800.000	-0.050	0.147
-210.479	800.000	-0.146	-0.506
-209.465	-111.413	-0.321	-0.065
-208.450	-66.624	0.219	0.086
-207.436	-51.768	-0.072	-0.033
-206.421	800.000	-0.033	-0.111
-205.406	375.625	0.028	-0.056
-204.392	-97.164	-0.332	-0.086
-203.377	-115.734	0.453	0.084
-202.363	-31.482	0.148	0.082
-201.348	13.094	-0.203	0.155
-200.333	202.989	-0.205	-0.313
-199.319	-176.634	0.050	-0.001
-198.304	-40.198	0.180	-0.092
-197.290	608.291	-0.180	0.444
-196.275	-5.184	-0.297	-0.202
-195.260	323.143	-0.110	-0.207
-194.246	32.214	0.116	-0.099
-193.231	183.052	-0.164	0.238
-192.217	-200.000	0.001	0.079
-191.202	-100.077	0.119	0.029
-190.187	41.801	-0.313	0.280
-189.173	-200.000	0.067	0.330
-188.158	-46.932	-0.067	-0.032
-187.144	-8.500	0.222	-0.147
-186.129	431.874	-0.060	-0.128
-185.114	-200.000	-0.005	0.021
-184.100	-43.246	0.015	-0.007
-183.085	-61.189	-0.346	0.144
-182.071	-38.425	0.283	-0.148
-181.056	79.368	0.150	-0.159
-180.042	15.721	0.106	0.082
-179.027	20.130	-0.164	-0.130
-178.012	-200.000	-0.005	0.065
-176.998	297.548	-0.121	0.219
-175.983	598.690	-0.110	0.268
-174.969	79.791	0.144	-0.152
-173.954	-144.554	-0.474	0.043
-172.939	-200.000	0.017	-0.096
-171.925	-200.000	-0.002	0.036
-170.910	133.769	-0.168	-0.214
-169.896	-200.000	-0.018	0.165
-168.881	-52.976	0.136	-0.062
-167.866	71.196	-0.285	-0.291
-166.852	-100.881	0.238	-0.058
-165.837	-147.595	-0.178	-0.015
-164.823	-83.420	-0.221	0.070
-163.808	171.179	0.063	-0.089
-162.793	19.903	-0.201	0.160
-161.779	-35.281	0.222	-0.119
-160.764	-151.289	0.094	0.007
-159.750	89.508	-0.070	0.077
-158.735	-200.000	0.055	-0.350
-157.720	199.403	0.178	-0.270
-156.706	-34.288	-0.234	0.126
-155.691	-86.704	-0.063	-0.019
-154.677	-5.812	-0.251	0.169
-153.662	-200.000	0.007	-0.278
-152.647	-200.000	0.010	-0.211
-151.633	-109.778	-0.231	-0.048
-150.618	-200.000	-0.024	-0.134
-149.604	208.221	0.152	-0.234
-148.589	425.371	-0.136	0.288
-147.574	-80.534	0.067	0.022
-146.560	-200.000	0.009	0.057
-145.545	58.900	-0.222	0.215
-144.531	46.668	0.091	0.084
-143.516	-22.905	-0.408	0.242
-142.502	706.511	0.035	-0.090
-141.487	259.117	-0.020	-0.034
-140.472	-75.922	-0.263	0.092
-139.458	-200.000	0.079	0.485
-138.443	38.106	0.256	0.224
-137.429	527.188	0.127	0.296
-136.414	-200.000	-0.001	0.089
-135.399	-108.422	-0.037	-0.008
-134.385	-200.000	0.021	-0.224
-133.370	-61.227	0.104	-0.043
-132.356	-129.341	-0.358	0.049
-131.341	-200.000	-0.022	0.352
-130.326	-13.991	0.096	0.061
-129.312	-200.000	-0.015	0.117
-128.297	-146.114	-0.213	0.018
-127.283	57.975	0.161	0.155
-126.268	-200.000	-0.011	-0.074
-125.253	-61.729	-0.179	-0.074
-124.239	229.818	-0.085	0.137
-123.224	-115.838	0.091	-0.017
-122.210	-200.000	0.004	0.057
-121.195	800.000	0.018	-0.052
