DTS Sentinel unit serial number:	SN413079Multiplexer serial number:	ORYXHardware model number:	OX4-SRSoftware version number:	ORYX F/W v4.00 Oryx Data Collector v3.7.2.0data status	okinstallation	princeton_trtdifferential loss correction	single-endedforward channel	channel 2reverse channel	N/Adate	2019/09/11time	05:05:11forward acquisition time	60.00reverse acquisition time	0.00gamma	496.2192k internal	0.2329k external	0.2329temperature offset calibration	0.9940default loss term (dB/km)	0.3790temperature slope calibration	1.0000multiplexer offset coefficient	1.0000multiplexer slope coefficient	1.0000fibre end	0.00T internal ref (°C)	29.44T ext. ref 1 (°C)	-0.28T ext. ref 2 (°C)	23.30length (m)	temperature (°C)	Stokes	anti-Stokes-747.200	110.582	0.208	-0.252
-746.185	-33.372	-0.110	-0.061
-745.171	-89.106	0.248	-0.074
-744.156	-25.896	0.090	0.053
-743.142	-18.459	-0.321	-0.202
-742.127	-61.610	-0.165	-0.070
-741.112	74.500	0.073	-0.078
-740.098	800.000	-0.072	-0.254
-739.083	-81.640	-0.275	0.091
-738.069	-111.808	-0.291	0.059
-737.054	-192.685	0.235	-0.002
-736.039	-200.000	0.036	0.444
-735.025	-123.271	0.169	0.027
-734.010	20.320	0.006	0.005
-732.996	-18.661	-0.034	-0.021
-731.981	-32.411	-0.266	0.150
-730.966	-126.117	-0.127	0.019
-729.952	-200.000	0.037	-0.429
-728.937	64.991	-0.148	0.151
-727.923	25.564	-0.419	0.351
-726.908	-200.000	0.028	0.316
-725.894	-200.000	-0.039	0.194
-724.879	-26.899	0.146	-0.086
-723.864	41.050	0.017	-0.015
-722.850	-63.966	-0.207	-0.085
-721.835	-74.963	0.159	-0.057
-720.821	295.864	0.031	-0.057
-719.806	-200.000	0.054	-0.344
-718.791	65.063	-0.179	-0.182
-717.777	45.486	0.098	0.091
-716.762	-147.324	-0.348	0.030
-715.748	-109.637	-0.393	-0.083
-714.733	-2.627	0.060	0.042
-713.718	-128.747	0.091	-0.013
-712.704	800.000	0.036	0.109
-711.689	37.446	-0.147	0.131
-710.675	76.732	-0.270	0.288
-709.660	800.000	-0.054	-0.165
-708.645	-39.528	-0.332	-0.175
-707.631	188.594	-0.037	0.056
-706.616	16.609	0.159	-0.127
-705.602	189.451	0.157	-0.237
-704.587	-39.052	-0.181	0.096
-703.572	118.657	0.098	-0.122
-702.558	26.028	-0.089	-0.075
-701.543	800.000	-0.156	-0.464
-700.529	-200.000	-0.007	-0.195
-699.514	78.055	0.093	0.099
-698.499	-86.974	0.094	0.029
-697.485	-121.073	-0.048	0.008
-696.470	800.000	0.196	0.605
-695.456	-101.879	-0.401	0.097
-694.441	-69.564	-0.197	-0.076
-693.426	-80.096	0.374	-0.126
-692.412	709.796	-0.004	0.012
-691.397	-71.189	0.259	-0.098
-690.383	-135.014	0.060	0.007
-689.368	218.420	0.091	0.147
-688.354	-65.169	0.070	0.029
-687.339	98.963	0.149	-0.173
-686.324	-127.641	-0.135	0.020
-685.310	-43.006	-0.280	-0.143
-684.295	277.240	-0.170	-0.304
-683.281	-131.564	0.188	-0.025
-682.266	627.755	0.072	-0.184
-681.251	163.752	0.143	-0.202
-680.237	-25.206	0.158	0.094
-679.222	-30.448	-0.042	0.024
-678.208	28.461	0.125	-0.106
-677.193	4.875	-0.085	-0.063
-676.178	-62.733	-0.191	-0.079
-675.164	37.777	-0.118	0.105
-674.149	262.812	-0.103	-0.180
-673.135	-155.000	-0.103	-0.007
-672.120	32.906	-0.098	-0.085
-671.105	261.246	0.102	-0.178
-670.091	-69.696	-0.278	-0.107
-669.076	62.132	0.185	0.186
-668.062	-46.401	-0.168	-0.083
-667.047	800.000	-0.070	0.203
-666.032	57.179	-0.204	-0.200
-665.018	527.469	0.045	0.106
-664.003	-85.567	-0.138	-0.043
-662.989	59.870	0.330	0.327
-661.974	800.000	0.170	0.609
-660.959	800.000	0.046	0.163
-659.945	-200.000	-0.040	-0.187
-658.930	800.000	-0.052	-0.178
-657.916	-79.723	-0.358	-0.121
-656.901	75.172	0.349	-0.370
-655.886	113.462	0.221	-0.269
-654.872	-38.649	0.171	-0.091
-653.857	88.949	-0.054	0.061
-652.843	213.076	0.034	-0.055
-651.828	13.222	-0.287	0.224
-650.814	0.161	0.107	0.076
-649.799	-76.561	0.190	0.067
-648.784	-143.486	-0.165	-0.016
-647.770	136.167	0.137	-0.179
-646.755	-200.000	0.008	-0.151
-645.741	-200.000	-0.087	-0.398
-644.726	-200.000	-0.056	-0.341
-643.711	800.000	0.076	0.274
-642.697	112.062	-0.055	-0.067
-641.682	-122.560	0.083	-0.013
-640.668	349.181	0.066	0.130
-639.653	-19.082	0.231	0.144
-638.638	427.564	-0.027	-0.057
-637.624	-118.372	-0.616	0.110
-636.609	396.802	-0.102	0.215
-635.595	-137.196	0.169	0.019
-634.580	27.728	0.020	0.017
-633.565	197.023	0.189	-0.289
-632.551	289.163	0.024	-0.043
-631.536	-55.491	0.175	-0.079
-630.522	18.110	-0.360	0.288
-629.507	723.073	0.074	-0.198
-628.492	-200.000	-0.024	-0.150
-627.478	38.867	-0.165	-0.148
-626.463	262.274	-0.050	-0.087
-625.449	5.273	-0.021	0.016
-624.434	97.895	0.074	-0.086
-623.419	-148.704	0.226	0.018
-622.405	-53.742	-0.250	-0.114
-621.390	800.000	-0.005	0.020
-620.376	-122.708	0.130	0.021
-619.361	512.846	0.161	0.377
-618.346	-78.291	0.142	-0.049
-617.332	72.632	-0.104	-0.109
-616.317	-82.904	-0.156	-0.051
-615.303	155.847	-0.263	-0.363
-614.288	-26.744	-0.307	0.180
-613.273	-200.000	-0.009	0.126
-612.259	114.130	-0.063	0.077
-611.244	-7.719	-0.358	0.243
-610.230	145.994	0.001	-0.002
-609.215	-163.094	0.298	0.014
-608.201	-75.275	-0.307	-0.110
-607.186	-200.000	0.061	-0.291
-606.171	-157.789	-0.043	0.003
-605.157	111.154	0.233	0.281
-604.142	-200.000	-0.200	0.000
-603.128	240.811	-0.076	0.127
-602.113	-126.683	-0.015	-0.002
-601.098	-200.000	-0.038	-0.215
-600.084	-200.000	-0.019	0.196
-599.069	-77.365	0.075	0.026
-598.055	433.037	0.079	0.171
-597.040	-79.886	-0.022	0.007
-596.025	-111.142	-0.146	0.030
-595.011	-4.059	0.210	-0.146
-593.996	-26.319	-0.098	0.058
-592.982	-200.000	-0.038	-0.190
-591.967	-68.298	-0.212	-0.083
-590.952	-83.654	-0.248	0.079
-589.938	-117.055	-0.199	0.036
-588.923	-200.000	0.049	-0.280
-587.909	-200.000	0.012	0.333
-586.894	31.959	-0.168	-0.145
-585.879	800.000	0.116	0.426
-584.865	449.433	-0.018	0.040
-583.850	617.074	-0.033	0.082
-582.836	719.869	-0.043	0.114
-581.821	-18.504	-0.124	-0.078
-580.806	-200.000	0.001	-0.043
-579.792	-76.284	0.332	-0.117
-578.777	55.676	0.078	-0.075
-577.763	19.794	0.106	-0.085
-576.748	416.175	-0.084	0.179
-575.733	378.079	-0.081	-0.166
-574.719	-28.373	-0.108	-0.062
-573.704	800.000	0.026	0.094
-572.690	-200.000	-0.007	0.106
-571.675	45.231	-0.129	-0.119
-570.661	-200.000	0.004	0.180
-569.646	103.839	-0.110	0.129
-568.631	23.142	0.130	0.107
-567.617	799.884	-0.048	0.131
-566.602	-63.760	0.044	0.018
-565.588	-59.563	-0.175	-0.075
-564.573	78.062	-0.250	0.266
-563.558	-67.169	0.142	-0.056
-562.544	87.960	0.177	-0.196
-561.529	87.430	-0.049	0.054
-560.515	800.000	-0.061	0.180
-559.500	-103.258	0.464	-0.110
-558.485	-115.893	-0.206	0.038
-557.471	94.251	-0.104	0.119
-556.456	-87.552	-0.061	0.019
-555.442	-119.494	0.223	0.039
-554.427	136.744	-0.147	0.192
-553.412	1.452	0.128	0.092
-552.398	-45.442	0.157	-0.078
-551.383	-200.000	0.025	-0.110
-550.369	30.170	-0.139	0.118
-549.354	162.273	0.110	-0.155
-548.339	-66.471	-0.184	-0.073
-547.325	-84.963	-0.411	0.129
-546.310	38.877	0.137	-0.122
-545.296	456.068	0.164	-0.363
-544.281	-200.000	-0.017	-0.075
-543.266	83.959	-0.120	-0.130
-542.252	-53.463	-0.407	-0.186
-541.237	-200.000	0.013	0.125
-540.223	-50.227	-0.122	0.058
-539.208	-200.000	0.020	0.095
-538.193	89.767	-0.093	-0.103
-537.179	-75.450	-0.246	0.087
-536.164	-42.569	-0.158	0.081
-535.150	-200.000	-0.012	-0.182
-534.135	45.120	0.244	0.225
-533.121	-46.220	-0.136	0.067
-532.106	-98.237	-0.007	-0.002
-531.091	800.000	-0.028	-0.106
-530.077	-200.000	-0.007	-0.322
-529.062	-91.729	0.311	-0.088
-528.048	292.462	0.076	-0.139
-527.033	163.362	-0.104	-0.146
-526.018	-166.465	0.189	0.008
-525.004	-95.476	-0.140	0.038
-523.989	208.217	0.190	-0.297
-522.975	800.000	-0.090	-0.345
-521.960	-30.528	-0.126	-0.071
-520.945	-200.000	-0.046	0.243
-519.931	-152.949	0.306	-0.022
-518.916	-42.015	0.213	-0.109
-517.902	-200.000	0.002	0.124
-516.887	176.420	-0.200	0.290
-515.872	279.460	0.140	0.250
-514.858	-151.847	0.186	-0.014
-513.843	39.891	-0.066	0.059
-512.829	800.000	0.056	0.220
-511.814	800.000	0.141	-0.438
-510.799	-16.097	0.086	-0.055
-509.785	-178.605	-0.166	-0.004
-508.770	26.281	0.176	-0.147
-507.756	71.064	0.102	0.105
-506.741	-200.000	0.037	0.202
-505.726	-7.079	0.248	0.168
-504.712	-22.467	-0.169	0.102
-503.697	-200.000	0.023	-0.156
-502.683	377.900	0.102	-0.208
-501.668	148.303	0.154	0.207
-500.653	-35.229	0.248	-0.135
-499.639	-10.494	0.350	-0.232
-498.624	-140.706	-0.168	-0.017
-497.610	-179.776	0.230	0.005
-496.595	800.000	0.121	-0.383
-495.581	302.901	0.146	-0.270
-494.566	800.000	-0.028	-0.109
-493.551	3.305	-0.218	0.159
-492.537	-73.637	-0.107	-0.039
-491.522	102.199	-0.260	-0.302
-490.508	90.841	-0.188	-0.210
-489.493	-142.569	-0.276	-0.027
-488.478	190.225	-0.082	0.123
-487.464	163.359	-0.115	-0.161
-486.449	-25.044	-0.343	-0.203
-485.435	-24.948	-0.090	-0.053
-484.420	46.143	0.158	-0.146
-483.405	-95.056	-0.188	-0.051
-482.391	-41.052	0.140	-0.072
-481.376	-200.000	0.006	0.078
-480.362	225.501	0.108	0.175
-479.347	-117.108	-0.221	0.040
-478.332	-41.208	0.106	-0.055
-477.318	-200.000	0.042	-0.366
-476.303	-2.024	-0.256	0.180
-475.289	177.324	-0.118	-0.172
-474.274	59.968	-0.023	-0.023
-473.259	39.235	0.102	0.091
-472.245	-2.905	0.087	-0.061
-471.230	-85.810	0.090	0.028
-470.216	800.000	0.067	-0.263
-469.201	-200.000	0.022	-0.140
-468.186	-200.000	0.037	0.185
-467.172	140.807	-0.126	0.166
-466.157	57.134	0.347	0.337
-465.143	38.799	0.195	0.174
-464.128	7.021	-0.184	-0.136
-463.113	-44.836	0.189	-0.094
-462.099	-60.183	-0.311	0.132
-461.084	-200.000	-0.131	-0.001
-460.070	-200.000	0.016	-0.185
-459.055	143.817	0.029	-0.038
-458.040	365.568	0.140	-0.281
-457.026	134.215	-0.110	-0.142
-456.011	-63.441	-0.256	-0.105
-454.997	-7.170	0.193	-0.130
-453.982	186.294	0.013	0.020
-452.968	519.089	0.077	-0.180
-451.953	800.000	-0.115	-0.317
-450.938	747.712	0.027	0.073
-449.924	-106.609	-0.100	-0.022
-448.909	-90.449	-0.044	-0.013
-447.895	-43.353	-0.265	0.134
-446.880	-93.998	0.126	0.034
-445.865	-200.000	0.099	-0.000
-444.851	-200.000	-0.041	0.237
-443.836	-200.000	-0.092	-0.437
-442.822	3.148	0.128	-0.093
-441.807	-96.212	-0.360	-0.095
-440.792	9.984	-0.272	-0.205
-439.778	-100.412	0.141	0.035
-438.763	-200.000	0.020	-0.168
-437.749	800.000	-0.047	-0.134
-436.734	395.966	0.127	-0.265
-435.719	-192.890	-0.324	-0.003
-434.705	-41.590	-0.159	-0.082
-433.690	-145.329	0.123	0.011
-432.676	800.000	-0.076	-0.225
-431.661	-12.362	-0.207	-0.134
-430.646	85.019	-0.109	0.119
-429.632	-3.589	0.235	0.163
-428.617	124.744	0.287	0.359
-427.603	-190.071	-0.303	-0.003
-426.588	800.000	-0.064	-0.179
-425.573	3.333	-0.240	0.174
-424.559	156.638	-0.317	0.436
-423.544	52.916	0.084	-0.080
-422.530	-122.649	0.099	0.016
-421.515	-137.889	0.398	-0.044
-420.500	158.199	0.099	0.137
-419.486	-84.564	0.253	0.079
-418.471	141.534	0.135	-0.177
-417.457	-200.000	-0.043	-0.195
-416.442	59.895	-0.201	0.198
-415.428	-200.000	0.020	0.124
-414.413	7.104	-0.267	0.198
-413.398	80.644	-0.237	-0.254
-412.384	-101.438	-0.260	-0.063
-411.369	36.274	0.267	0.234
-410.355	200.223	-0.118	0.179
-409.340	73.242	-0.083	0.086
-408.325	666.665	-0.074	0.190
-407.311	-54.957	0.121	-0.054
-406.296	297.237	0.015	-0.027
-405.282	-142.526	0.048	0.005
-404.267	21.525	0.053	0.043
-403.252	495.095	0.135	0.308
-402.238	-200.000	-0.014	0.072
-401.223	279.609	-0.139	0.246
-400.209	-8.315	-0.192	-0.129
-399.194	-200.000	0.004	0.167
-398.179	24.477	0.260	0.214
-397.165	20.730	0.149	0.120
-396.150	72.672	0.087	0.091
-395.136	706.079	-0.060	-0.156
-394.121	32.194	-0.217	0.186
-393.106	-200.000	0.037	0.247
-392.092	13.149	0.196	0.151
-391.077	-200.000	0.106	0.472
-390.063	800.000	-0.087	-0.287
-389.048	-29.022	-0.276	-0.157
-388.033	-200.000	-0.014	-0.236
-387.019	-29.337	-0.327	0.186
-386.004	70.048	-0.187	0.192
-384.990	800.000	0.074	-0.226
-383.975	362.225	0.148	0.295
-382.960	276.501	0.176	-0.310
-381.946	412.408	0.116	0.245
-380.931	129.345	-0.044	0.056
-379.917	-200.000	0.022	0.099
-378.902	-200.000	-0.030	-0.207
-377.888	-40.415	-0.361	-0.186
-376.873	-101.605	-0.325	-0.078
-375.858	46.540	-0.074	0.068
-374.844	-200.000	-0.061	-0.347
-373.829	-86.138	0.330	-0.101
-372.815	96.448	-0.109	0.124
-371.800	-62.016	-0.298	0.124
-370.785	-124.642	-0.206	-0.032
-369.771	492.960	-0.109	-0.248
-368.756	800.000	-0.050	0.147
-367.742	-113.026	-0.531	0.104
-366.727	545.671	0.046	0.108
-365.712	40.947	0.294	-0.263
-364.698	62.165	0.200	-0.198
-363.683	-141.270	-0.126	-0.013
-362.669	-200.000	0.007	-0.104
-361.654	800.000	0.081	0.344
-360.639	100.330	0.208	-0.240
-359.625	392.834	-0.152	-0.314
-358.610	-56.144	-0.403	-0.178
-357.596	-125.036	0.298	0.045
-356.581	-185.139	-0.265	-0.004
-355.566	-3.944	-0.310	-0.213
-354.552	-78.231	0.262	0.089
-353.537	541.084	-0.138	-0.326
-352.523	-121.600	0.516	0.085
-351.508	267.177	-0.212	0.368
-350.493	-200.000	-0.023	0.207
-349.479	-200.000	0.021	-0.283
-348.464	5.502	-0.219	0.160
-347.450	-200.000	-0.041	0.261
-346.435	-84.690	0.280	-0.087
-345.420	32.158	0.314	-0.269
-344.406	-17.958	0.147	0.092
-343.391	138.671	-0.107	0.139
-342.377	-200.000	-0.246	-0.001
-341.362	-136.586	-0.296	0.034
-340.348	76.318	-0.223	-0.234
-339.333	249.667	-0.221	0.372
-338.318	163.718	-0.112	0.156
-337.304	-200.000	0.018	-0.184
-336.289	-67.616	0.264	0.103
-335.275	-133.885	-0.381	-0.047
-334.260	-83.119	-0.252	-0.080
-333.245	-128.766	-0.282	-0.039
-332.231	-120.286	-0.060	0.010
-331.216	-4.679	-0.065	0.045
-330.202	172.248	-0.108	-0.154
-329.187	-200.000	0.033	0.315
-328.172	-10.480	-0.282	-0.185
-327.158	15.486	0.144	-0.112
-326.143	362.909	-0.114	-0.227
-325.129	-117.410	0.107	0.019
-324.114	282.177	0.059	0.105
-323.099	6.604	-0.416	0.307
-322.085	-200.000	0.024	0.254
-321.070	470.774	0.060	-0.134
-320.056	-95.905	0.256	0.068
-319.041	-113.716	0.234	0.045
-318.026	-145.467	0.225	0.020
-317.012	-16.381	-0.145	-0.091
-315.997	-33.802	0.117	0.064
-314.983	-42.751	-0.222	0.112
-313.968	-17.696	0.193	-0.120
-312.953	-83.747	-0.178	0.056
-311.939	99.613	-0.171	-0.196
-310.924	76.712	0.072	0.076
-309.910	-200.000	0.006	0.136
-308.895	-110.040	-0.050	-0.010
-307.880	422.115	0.043	0.091
-306.866	-200.000	0.074	0.327
-305.851	38.238	-0.114	0.100
-304.837	-160.558	0.229	-0.012
-303.822	147.380	-0.133	0.178
-302.807	-57.920	-0.161	-0.070
-301.793	10.276	0.306	0.231
-300.778	303.048	-0.107	-0.196
-299.764	-200.000	0.025	0.117
-298.749	-172.976	0.173	-0.005
-297.735	-200.000	-0.027	0.235
-296.720	-12.078	0.176	0.114
-295.705	224.755	0.279	0.447
-294.691	33.627	-0.284	0.244
-293.676	-70.041	0.318	0.120
-292.662	-200.000	-0.009	0.164
-291.647	-128.688	0.272	0.038
-290.632	172.092	-0.147	0.209
-289.618	258.579	-0.061	0.104
-288.603	-200.000	-0.005	0.218
-287.589	-200.000	0.011	-0.202
-286.574	-159.312	0.189	-0.010
-285.559	175.699	0.119	0.171
-284.545	-82.838	0.168	-0.054
-283.530	-42.391	0.300	-0.151
-282.516	123.411	-0.081	0.101
-281.501	380.802	-0.126	0.255
-280.486	723.380	-0.058	-0.153
-279.472	-12.029	0.210	-0.136
-278.457	-200.000	0.013	0.207
-277.443	277.198	0.108	-0.190
-276.428	28.994	-0.163	-0.136
-275.413	56.240	-0.400	0.384
-274.399	800.000	0.145	0.422
-273.384	787.063	-0.054	-0.147
-272.370	289.773	0.104	-0.187
-271.355	239.396	0.087	0.143
-270.340	-41.190	0.341	-0.174
-269.326	-71.794	0.243	-0.090
-268.311	153.381	0.048	-0.065
-267.297	-200.000	-0.006	-0.140
-266.282	-37.349	-0.258	0.136
-265.267	-200.000	0.057	-0.380
-264.253	494.402	-0.119	-0.271
-263.238	-51.986	-0.173	0.079
-262.224	-200.000	-0.043	0.314
-261.209	-163.904	0.239	0.011
-260.195	-74.198	-0.158	0.056
-259.180	800.000	0.097	0.268
-258.165	-120.327	0.536	0.090
-257.151	391.116	0.082	-0.169
-256.136	-83.002	-0.122	-0.039
-255.122	126.917	0.148	-0.185
-254.107	-143.622	0.202	-0.019
-253.092	-195.011	0.445	-0.003
-252.078	168.961	0.282	-0.397
-251.063	323.473	-0.176	-0.331
-250.049	-200.000	0.002	0.138
-249.034	-7.607	0.268	0.179
-248.019	-89.136	0.360	-0.105
-247.005	-174.755	0.187	0.005
-245.990	800.000	-0.101	-0.310
-244.976	18.257	0.387	-0.305
-243.961	231.886	-0.095	-0.155
-242.946	-61.967	-0.068	0.028
-241.932	91.572	0.115	0.128
-240.917	161.729	-0.036	0.049
-239.903	111.942	-0.039	0.047
-238.888	-3.658	-0.142	0.098
-237.873	659.169	-0.052	0.133
-236.859	170.265	-0.271	0.384
-235.844	800.000	-0.050	-0.165
-234.830	83.873	0.253	-0.272
-233.815	-23.166	-0.057	0.034
-232.800	-66.507	-0.314	-0.123
-231.786	226.444	0.099	0.159
-230.771	-200.000	0.012	-0.120
-229.757	-5.727	0.181	0.122
-228.742	157.922	0.118	-0.161
-227.727	18.005	0.198	-0.156
-226.713	66.048	0.122	0.122
-225.698	85.358	0.156	-0.169
-224.684	-81.830	0.310	-0.100
-223.669	-200.000	0.008	0.095
-222.655	-200.000	-0.000	-0.060
-221.640	140.094	0.109	-0.142
-220.625	800.000	-0.058	0.233
-219.611	32.336	0.228	-0.195
-218.596	-200.000	-0.061	-0.288
-217.582	-74.887	0.395	-0.140
-216.567	-99.292	0.129	-0.032
-215.552	150.310	0.111	-0.148
-214.538	30.551	-0.100	0.085
-213.523	54.398	-0.129	0.123
-212.509	800.000	-0.083	-0.244
-211.494	-200.000	-0.036	-0.160
-210.479	-24.591	0.089	-0.052
-209.465	800.000	0.069	0.233
-208.450	-117.005	0.131	-0.024
-207.436	-200.000	-0.006	-0.514
-206.421	-116.296	-0.289	0.053
-205.406	503.980	0.099	0.226
-204.392	102.037	0.061	-0.071
-203.377	16.157	-0.127	0.099
-202.363	-175.242	-0.173	-0.005
-201.348	-73.330	-0.162	0.058
-200.333	-120.969	0.215	-0.036
-199.319	-71.242	0.116	0.043
-198.304	-45.468	0.267	-0.130
-197.290	319.611	-0.181	0.338
-196.275	800.000	-0.065	0.232
-195.260	32.545	-0.235	0.200
-194.246	-126.899	0.327	0.048
-193.231	-200.000	-0.012	0.142
-192.217	-200.000	-0.003	-0.076
-191.202	800.000	-0.082	0.232
-190.187	183.412	-0.022	-0.032
-189.173	695.303	0.073	-0.190
-188.158	23.194	-0.208	0.169
-187.144	-200.000	0.021	0.210
-186.129	138.205	-0.140	0.181
-185.114	45.152	-0.170	-0.154
-184.100	20.348	0.251	-0.200
-183.085	229.208	-0.083	-0.133
-182.071	573.966	0.133	0.321
-181.056	-8.322	-0.311	0.206
-180.042	-200.000	-0.013	-0.182
-179.027	-123.944	0.251	-0.039
-178.012	173.314	-0.044	0.063
-176.998	-21.069	-0.438	-0.264
-175.983	-29.643	0.374	-0.210
-174.969	109.162	-0.175	0.206
-173.954	-200.000	0.003	0.129
-172.939	-8.419	-0.113	-0.075
-171.925	-5.465	-0.099	-0.067
-170.910	-28.906	0.477	-0.270
-169.896	251.106	0.090	0.150
-168.881	-140.718	0.513	0.052
-167.866	-126.953	-0.222	0.032
-166.852	-45.145	0.171	0.084
-165.837	141.978	0.372	0.486
-164.823	29.320	0.190	0.159
-163.808	368.850	-0.045	-0.090
-162.793	-120.664	0.174	-0.029
-161.779	772.929	-0.126	0.337
-160.764	5.052	0.328	-0.238
-159.750	-200.000	-0.067	0.374
-158.735	2.287	0.304	0.216
-157.720	226.314	-0.191	0.306
-156.706	-3.373	0.214	0.147
-155.691	800.000	0.120	-0.381
-154.677	-114.446	-0.123	0.023
-153.662	185.898	0.106	0.155
-152.647	-200.000	0.023	-0.200
-151.633	31.338	-0.185	-0.157
-150.618	286.524	-0.058	0.102
-149.604	228.651	0.069	0.110
-148.589	-54.071	-0.246	-0.110
-147.574	193.511	-0.154	-0.230
-146.560	73.169	0.183	0.188
-145.545	-92.454	0.127	-0.035
-144.531	461.011	-0.124	-0.272
-143.516	-49.921	0.143	-0.067
-142.502	116.914	-0.122	-0.147
-141.487	800.000	-0.063	-0.220
-140.472	-150.372	0.363	0.027
-139.458	-200.000	-0.006	0.135
-138.443	-62.849	0.150	0.061
-137.429	78.159	-0.138	0.145
-136.414	247.000	0.093	0.154
-135.399	39.604	0.332	0.293
-134.385	-171.848	0.121	0.004
-133.370	732.424	0.037	0.098
-132.356	-200.000	0.032	0.177
-131.341	491.286	-0.269	0.606
-130.326	-77.185	0.244	-0.084
-129.312	-200.000	0.036	0.169
-128.297	-200.000	0.047	0.260
-127.283	-31.562	0.235	-0.130
-126.268	-76.786	0.251	0.086
-125.253	-200.000	-0.009	-0.224
-124.239	-55.012	-0.176	-0.078
-123.224	-75.104	0.326	0.115
-122.210	91.754	0.189	-0.209
-121.195	800.000	0.051	-0.151
-120.180	181.799	-0.098	0.142
