DTS Sentinel unit serial number:	SN413079Multiplexer serial number:	ORYXHardware model number:	OX4-SRSoftware version number:	ORYX F/W v4.00 Oryx Data Collector v3.7.2.0data status	okinstallation	princeton_trtdifferential loss correction	single-endedforward channel	channel 2reverse channel	N/Adate	2019/09/16time	22:07:35forward acquisition time	60.00reverse acquisition time	0.00gamma	496.2192k internal	0.2328k external	0.2328temperature offset calibration	0.9966default loss term (dB/km)	0.3790temperature slope calibration	1.0000multiplexer offset coefficient	1.0000multiplexer slope coefficient	1.0000fibre end	0.00T internal ref (°C)	31.12T ext. ref 1 (°C)	0.08T ext. ref 2 (°C)	24.91length (m)	temperature (°C)	Stokes	anti-Stokes-747.200	-154.538	-0.261	0.018
-746.185	-112.489	-0.101	-0.020
-745.171	-77.698	-0.215	-0.075
-744.156	-109.405	-0.188	-0.040
-743.142	185.078	0.210	-0.315
-742.127	284.052	-0.137	0.248
-741.112	582.060	-0.083	0.204
-740.098	-200.000	-0.315	0.000
-739.083	-32.656	0.171	-0.096
-738.069	155.256	-0.274	0.380
-737.054	35.923	-0.043	0.038
-736.039	17.984	0.164	-0.132
-735.025	-124.276	-0.235	-0.037
-734.010	-16.837	-0.281	-0.179
-732.996	-133.383	-0.494	-0.063
-731.981	-94.829	0.421	0.115
-730.966	-120.041	0.322	-0.056
-729.952	646.863	0.110	-0.283
-728.937	38.249	-0.115	0.103
-727.923	164.491	0.092	-0.131
-726.908	-6.248	-0.193	-0.132
-725.894	31.087	-0.036	-0.031
-724.879	398.857	-0.133	-0.281
-723.864	-176.890	-0.602	0.015
-722.850	-200.000	-0.030	-0.200
-721.835	800.000	-0.079	0.240
-720.821	49.576	-0.099	0.094
-719.806	-96.234	-0.128	0.034
-718.791	20.471	-0.265	0.215
-717.777	-99.712	0.286	0.072
-716.762	569.996	-0.076	0.187
-715.748	-129.094	0.334	0.047
-714.733	43.384	0.037	0.034
-713.718	151.191	0.173	-0.238
-712.704	-181.371	-0.408	-0.008
-711.689	-109.481	-0.437	-0.093
-710.675	-200.000	0.019	-0.405
-709.660	306.833	-0.066	-0.124
-708.645	170.927	0.113	-0.163
-707.631	-80.388	0.030	-0.010
-706.616	-95.893	0.307	0.082
-705.602	9.690	-0.345	-0.263
-704.587	-200.000	-0.014	0.073
-703.572	-176.237	-0.229	-0.006
-702.558	53.364	0.039	-0.037
-701.543	-126.946	-0.090	0.013
-700.529	-25.140	0.179	0.107
-699.514	102.571	-0.019	-0.022
-698.499	94.859	0.040	-0.045
-697.485	-200.000	-0.019	-0.417
-696.470	1.492	0.258	0.186
-695.456	-54.720	0.117	0.053
-694.441	-24.187	-0.242	-0.145
-693.426	-137.233	0.125	-0.014
-692.412	-200.000	-0.030	-0.149
-691.397	-200.000	-0.041	-0.401
-690.383	-113.100	-0.256	0.051
-689.368	20.089	-0.130	-0.105
-688.354	520.013	0.028	-0.066
-687.339	548.215	-0.160	0.385
-686.324	-175.616	-0.249	0.007
-685.310	-132.385	0.128	0.017
-684.295	-71.766	0.247	0.093
-683.281	-87.693	-0.452	0.137
-682.266	-200.000	-0.011	0.126
-681.251	194.572	-0.062	-0.094
-680.237	-34.885	0.131	-0.072
-679.222	283.723	0.074	-0.134
-678.208	444.476	-0.084	0.186
-677.193	-157.497	-0.201	-0.012
-676.178	34.128	0.173	-0.151
-675.164	-200.000	0.062	0.410
-674.149	196.732	-0.066	0.100
-673.135	39.234	-0.099	0.089
-672.120	107.732	0.187	-0.223
-671.105	60.223	-0.184	0.182
-670.091	32.388	-0.231	0.200
-669.076	-76.169	-0.223	-0.079
-668.062	-28.240	0.166	0.096
-667.047	800.000	0.064	-0.248
-666.032	-49.093	-0.125	-0.060
-665.018	-200.000	0.037	-0.394
-664.003	149.679	0.125	0.170
-662.989	114.766	-0.163	0.199
-661.974	0.234	-0.124	0.089
-660.959	64.975	-0.140	-0.142
-659.945	-84.764	0.165	0.052
-658.930	-136.886	-0.142	-0.016
-657.916	107.509	0.137	-0.164
-656.901	-137.942	0.167	0.019
-655.886	507.123	0.098	-0.229
-654.872	-200.000	-0.167	-0.001
-653.857	-200.000	-0.061	-0.296
-652.843	-150.202	0.260	0.020
-651.828	-108.385	0.119	0.026
-650.814	-30.187	0.168	0.096
-649.799	-187.388	0.268	-0.004
-648.784	-200.000	-0.035	0.182
-647.770	-145.933	0.101	-0.009
-646.755	106.132	-0.136	-0.161
-645.741	-200.000	-0.032	0.247
-644.726	-89.321	-0.088	0.026
-643.711	-97.750	0.165	0.043
-642.697	-124.719	0.166	0.026
-641.682	602.262	-0.126	-0.314
-640.668	-200.000	-0.005	-0.107
-639.653	800.000	-0.064	0.231
-638.638	-19.890	0.215	-0.133
-637.624	-76.067	0.160	0.057
-636.609	-200.000	-0.010	0.049
-635.595	3.944	-0.210	0.154
-634.580	8.058	-0.181	0.136
-633.565	142.399	0.243	-0.324
-632.551	101.410	-0.058	0.068
-631.536	-31.792	0.127	0.072
-630.522	185.598	0.242	0.361
-629.507	-124.093	-0.189	-0.030
-628.492	-164.918	-0.431	0.019
-627.478	-200.000	0.016	-0.093
-626.463	88.928	0.176	0.196
-625.449	-60.898	-0.284	0.121
-624.434	-200.000	0.011	0.048
-623.419	-29.827	-0.331	-0.190
-622.405	71.155	0.127	-0.133
-621.390	204.222	-0.063	-0.097
-620.376	-49.778	-0.422	0.201
-619.361	800.000	-0.079	-0.224
-618.346	-113.818	-0.275	0.054
-617.332	-144.850	-0.282	0.026
-616.317	1.356	-0.122	0.088
-615.303	-101.471	-0.176	0.043
-614.288	650.973	0.121	-0.310
-613.273	258.450	0.065	-0.112
-612.259	-61.106	0.253	0.107
-611.244	-60.024	-0.211	0.090
-610.230	-70.043	-0.115	0.044
-609.215	15.678	0.278	0.219
-608.201	-200.000	0.069	-0.328
-607.186	-20.897	-0.151	0.093
-606.171	137.997	-0.031	0.041
-605.157	-200.000	-0.026	0.231
-604.142	10.065	-0.146	0.112
-603.128	364.893	0.216	-0.435
-602.113	-4.720	-0.168	0.116
-601.098	-200.000	-0.008	0.059
-600.084	47.713	0.306	-0.286
-599.069	-23.930	0.308	-0.184
-598.055	-43.107	0.076	-0.039
-597.040	-200.000	0.043	0.326
-596.025	379.477	0.023	-0.048
-595.011	-200.000	0.004	0.180
-593.996	-162.106	-0.293	0.015
-592.982	-118.211	0.173	-0.031
-591.967	20.809	0.064	0.052
-590.952	42.185	0.190	-0.173
-589.938	-200.000	0.030	0.211
-588.923	297.501	0.012	0.022
-587.909	3.502	-0.219	-0.160
-586.894	-60.167	-0.263	-0.112
-585.879	281.632	0.219	-0.393
-584.865	229.994	0.171	0.279
-583.850	-200.000	-0.019	0.174
-582.836	-120.536	-0.413	0.070
-581.821	27.545	-0.214	0.181
-580.806	18.611	0.268	0.214
-579.792	-130.940	-0.395	-0.053
-578.777	-22.831	0.262	0.159
-577.763	22.212	-0.235	0.193
-576.748	119.684	-0.072	0.089
-575.733	-200.000	0.004	0.212
-574.719	-11.015	0.148	0.098
-573.704	203.048	-0.073	-0.113
-572.690	-19.176	0.146	0.091
-571.675	-200.000	0.052	0.532
-570.661	-200.000	0.030	-0.367
-569.646	-200.000	-0.012	-0.121
-568.631	-48.895	-0.217	0.104
-567.617	-200.000	-0.025	0.150
-566.602	-28.241	-0.230	0.133
-565.588	-45.444	-0.319	-0.158
-564.573	-114.511	0.333	-0.064
-563.558	-44.604	0.056	-0.028
-562.544	-8.860	-0.213	-0.143
-561.529	800.000	-0.097	-0.356
-560.515	800.000	-0.083	-0.312
-559.500	76.160	-0.107	-0.114
-558.485	705.002	0.045	0.120
-557.471	-59.103	0.132	-0.057
-556.456	139.233	-0.087	0.115
-555.442	20.306	-0.163	0.131
-554.427	-48.435	-0.311	-0.150
-553.412	-102.317	-0.348	-0.084
-552.398	67.159	0.096	0.098
-551.383	29.355	0.137	-0.116
-550.369	800.000	0.039	0.126
-549.354	-200.000	-0.012	0.133
-548.339	225.647	0.142	-0.230
-547.325	800.000	0.046	0.144
-546.310	-200.000	0.269	0.001
-545.296	148.548	0.159	0.214
-544.281	256.814	0.147	-0.253
-543.266	-44.692	-0.265	-0.133
-542.252	-51.291	0.185	-0.087
-541.237	37.853	0.271	0.241
-540.223	800.000	0.045	-0.170
-539.208	-53.480	-0.363	-0.166
-538.193	-90.933	0.180	-0.052
-537.179	335.937	-0.160	-0.310
-536.164	-153.541	0.109	0.008
-535.150	-23.257	0.076	0.046
-534.135	369.219	0.085	0.172
-533.121	165.116	0.093	-0.132
-532.106	-132.621	-0.144	-0.018
-531.091	-123.065	0.358	0.057
-530.077	-200.000	-0.013	0.103
-529.062	203.452	-0.195	0.302
-528.048	-200.000	-0.003	-0.144
-527.033	-200.000	0.027	0.140
-526.018	-160.437	0.181	-0.010
-525.004	-200.000	0.016	-0.123
-523.989	-143.086	0.070	-0.007
-522.975	-200.000	0.026	0.260
-521.960	3.193	-0.279	-0.203
-520.945	-18.123	0.223	-0.139
-519.931	-60.643	-0.049	-0.021
-518.916	1.517	-0.301	0.216
-517.902	-200.000	-0.014	0.134
-516.887	176.657	0.100	-0.145
-515.872	-57.229	-0.178	0.078
-514.858	513.495	-0.059	-0.138
-513.843	-4.642	0.309	-0.213
-512.829	-45.913	0.182	0.089
-511.814	-150.548	-0.277	0.021
-510.799	19.214	-0.047	0.037
-509.785	551.815	0.061	0.147
-508.770	112.808	-0.118	0.143
-507.756	800.000	0.047	0.187
-506.741	639.795	0.170	-0.431
-505.726	67.680	-0.103	-0.105
-504.712	-31.166	-0.059	-0.033
-503.697	309.454	0.051	-0.095
-502.683	-141.236	-0.536	0.054
-501.668	-22.334	-0.174	-0.105
-500.653	-21.766	-0.328	0.199
-499.639	800.000	0.087	0.272
-498.624	-99.877	0.302	-0.075
-497.610	249.341	0.051	0.087
-496.595	523.428	-0.134	-0.314
-495.581	542.723	0.031	-0.073
-494.566	-200.000	0.018	0.155
-493.551	800.000	0.114	-0.389
-492.537	-200.000	0.004	-0.085
-491.522	-93.429	-0.261	-0.072
-490.508	-154.557	0.081	0.005
-489.493	140.069	-0.122	-0.160
-488.478	47.719	-0.132	-0.123
-487.464	-24.679	-0.203	0.121
-486.449	-200.000	0.003	0.245
-485.435	-155.053	0.255	-0.017
-484.420	800.000	0.092	0.364
-483.405	-200.000	0.003	0.112
-482.391	739.090	0.105	0.282
-481.376	20.600	-0.077	0.063
-480.362	-125.628	-0.175	-0.026
-479.347	193.088	0.055	-0.083
-478.332	-200.000	-0.019	0.299
-477.318	800.000	0.080	-0.250
-476.303	-200.000	0.006	-0.146
-475.289	96.373	0.339	-0.387
-474.274	634.385	-0.044	0.112
-473.259	-16.529	-0.249	0.157
-472.245	-4.905	0.231	-0.158
-471.230	86.802	0.282	0.311
-470.216	5.061	0.285	0.210
-469.201	32.650	-0.202	0.174
-468.186	67.438	0.171	-0.174
-467.172	178.087	0.185	-0.269
-466.157	-200.000	-0.059	-0.323
-465.143	69.519	-0.262	-0.269
-464.128	622.827	0.126	0.316
-463.113	117.470	-0.196	0.240
-462.099	16.917	0.041	0.033
-461.084	12.730	-0.081	0.062
-460.070	-2.627	-0.204	0.142
-459.055	512.431	0.110	0.256
-458.040	71.601	-0.087	-0.090
-457.026	-81.417	-0.370	-0.121
-456.011	-149.594	0.172	0.014
-454.997	-53.676	0.417	-0.190
-453.982	76.197	-0.183	-0.193
-452.968	-200.000	-0.008	0.279
-451.953	577.738	-0.008	-0.020
-450.938	-82.457	-0.431	-0.139
-449.924	483.156	-0.107	0.243
-448.909	438.188	0.037	-0.080
-447.895	197.297	0.187	0.284
-446.880	60.225	-0.039	-0.039
-445.865	-200.000	0.014	0.142
-444.851	800.000	-0.096	-0.268
-443.836	-79.237	-0.361	0.122
-442.822	-200.000	0.003	0.422
-441.807	95.516	-0.141	0.161
-440.792	-10.640	0.171	-0.113
-439.778	-134.262	0.242	-0.030
-438.763	800.000	0.010	-0.035
-437.749	80.958	-0.208	-0.224
-436.734	-75.117	-0.263	0.094
-435.719	-159.041	-0.030	0.002
-434.705	-153.508	0.214	-0.015
-433.690	22.433	0.209	-0.170
-432.676	-200.000	0.054	-0.282
-431.661	515.807	0.102	-0.237
-430.646	45.933	0.158	0.146
-429.632	72.469	0.252	-0.261
-428.617	-147.022	0.177	0.015
-427.603	800.000	-0.061	0.230
-426.588	40.948	0.239	-0.214
-425.573	252.036	0.108	-0.183
-424.559	-193.799	-0.184	-0.002
-423.544	362.509	-0.075	-0.150
-422.530	-50.377	-0.371	-0.174
-421.515	-200.000	0.010	0.301
-420.500	-60.252	0.059	0.025
-419.486	180.044	0.141	-0.206
-418.471	800.000	-0.054	-0.184
-417.457	800.000	0.031	-0.111
-416.442	90.844	-0.050	0.056
-415.428	800.000	-0.049	0.203
-414.413	-41.221	0.346	0.178
-413.398	-112.526	-0.094	-0.019
-412.384	207.830	-0.187	0.290
-411.369	800.000	0.032	0.106
-410.355	314.331	-0.111	-0.208
-409.340	-200.000	-0.014	0.075
-408.325	-2.217	-0.348	-0.243
-407.311	308.194	-0.050	0.092
-406.296	-40.869	-0.494	0.254
-405.282	-18.677	0.097	-0.060
-404.267	-200.000	-0.007	0.032
-403.252	800.000	-0.025	0.077
-402.238	328.088	-0.049	-0.094
-401.223	-57.993	0.228	-0.099
-400.209	-200.000	0.043	0.333
-399.194	51.942	-0.135	0.128
-398.179	-121.961	0.179	-0.029
-397.165	103.972	0.151	-0.176
-396.150	-50.733	-0.135	-0.063
-395.136	636.072	0.081	-0.205
-394.121	-107.333	-0.116	0.025
-393.106	119.076	-0.033	0.041
-392.092	242.614	-0.102	0.169
-391.077	-200.000	-0.028	0.259
-390.063	93.175	0.264	-0.297
-389.048	738.474	-0.063	-0.168
-388.033	-200.000	0.030	-0.164
-387.019	800.000	-0.079	0.246
-386.004	164.364	0.377	0.528
-384.990	-200.000	-0.003	0.083
-383.975	98.913	0.096	0.111
-382.960	5.729	0.105	-0.077
-381.946	-83.333	-0.162	0.052
-380.931	-175.456	-0.113	-0.003
-379.917	-43.517	-0.130	0.065
-378.902	50.875	-0.188	0.177
-377.888	-200.000	-0.014	0.078
-376.873	-168.441	0.449	0.017
-375.858	-35.547	-0.114	-0.062
-374.844	800.000	-0.101	0.332
-373.829	-200.000	-0.029	-0.358
-372.815	-46.696	-0.176	0.086
-371.800	123.864	0.062	-0.077
-370.785	-200.000	0.010	-0.158
-369.771	-28.926	0.204	0.117
-368.756	-39.783	-0.159	0.083
-367.742	800.000	0.035	-0.122
-366.727	800.000	-0.109	0.318
-365.712	-109.552	-0.160	-0.034
-364.698	-64.503	0.425	-0.172
-363.683	170.032	-0.103	0.146
-362.669	553.067	-0.072	0.172
-361.654	-128.748	0.644	0.090
-360.639	800.000	-0.074	-0.212
-359.625	-200.000	0.030	0.192
-358.610	800.000	0.057	0.162
-357.596	365.354	-0.129	-0.257
-356.581	-5.431	0.155	0.106
-355.566	-75.900	-0.150	-0.053
-354.552	-164.450	-0.129	0.006
-353.537	206.963	0.038	0.059
-352.523	-112.365	0.154	-0.031
-351.508	-41.331	0.140	0.072
-350.493	-59.750	0.130	-0.055
-349.479	-161.501	0.286	0.015
-348.464	-80.494	0.171	-0.056
-347.450	67.033	0.185	0.187
-346.435	-38.038	-0.246	0.129
-345.420	110.027	0.137	-0.163
-344.406	-200.000	-0.005	-0.246
-343.391	-64.248	-0.198	0.080
-342.377	-200.000	0.001	0.198
-341.362	-127.457	-0.303	-0.044
-340.348	-52.469	-0.126	0.058
-339.333	-200.000	-0.060	0.317
-338.318	-103.154	0.127	-0.030
-337.304	-200.000	0.052	-0.253
-336.289	-39.668	0.082	-0.043
-335.275	800.000	0.082	0.251
-334.260	-6.263	-0.222	0.150
-333.245	800.000	-0.041	0.144
-332.231	-200.000	-0.033	-0.199
-331.216	-31.015	-0.151	0.085
-330.202	-36.891	-0.465	-0.247
-329.187	-63.622	0.240	-0.097
-328.172	800.000	-0.125	-0.359
-327.158	-200.000	0.014	0.085
-326.143	-200.000	0.029	-0.328
-325.129	194.533	0.077	-0.116
-324.114	-128.816	0.277	-0.039
-323.099	-86.373	-0.129	-0.039
-322.085	-135.652	-0.183	0.022
-321.070	45.992	-0.204	0.188
-320.056	398.004	-0.245	0.508
-319.041	-104.832	0.161	0.037
-318.026	-200.000	-0.015	0.119
-317.012	-165.434	0.224	0.010
-315.997	127.254	0.178	-0.223
-314.983	-154.403	0.237	-0.016
-313.968	500.170	-0.112	0.257
-312.953	226.504	-0.271	-0.435
-311.939	-106.059	-0.381	-0.085
-310.924	129.500	-0.167	0.212
-309.910	800.000	-0.055	0.234
-308.895	-46.106	0.235	-0.115
-307.880	216.010	0.103	0.162
-306.866	-35.083	0.174	-0.094
-305.851	309.430	-0.166	-0.307
-304.837	-200.000	0.040	-0.330
-303.822	365.293	-0.034	-0.067
-302.807	120.568	0.087	-0.107
-301.793	-74.476	0.266	0.095
-300.778	800.000	-0.159	0.480
-299.764	257.954	-0.059	-0.100
-298.749	800.000	0.070	0.208
-297.735	-90.197	-0.337	0.097
-296.720	-86.297	0.095	-0.029
-295.705	-200.000	-0.067	0.330
-294.691	-41.946	-0.015	-0.008
-293.676	800.000	-0.009	0.029
-292.662	-89.207	-0.282	0.083
-291.647	40.588	-0.103	-0.092
-290.632	-88.091	-0.120	-0.036
-289.618	800.000	0.063	0.184
-288.603	-200.000	-0.001	-0.023
-287.589	538.609	0.014	0.034
-286.574	-73.758	-0.084	0.030
-285.559	19.113	-0.134	0.106
-284.545	4.382	-0.144	-0.104
-283.530	-99.585	0.100	0.025
-282.516	120.301	-0.170	0.209
-281.501	-200.000	-0.155	0.000
-280.486	634.654	-0.018	0.045
-279.472	-200.000	0.007	-0.053
-278.457	37.535	0.161	0.141
-277.443	-171.818	0.244	0.008
-276.428	-12.367	-0.148	0.096
-275.413	-109.243	-0.175	0.037
-274.399	223.678	0.054	0.087
-273.384	-131.012	0.164	0.022
-272.370	-118.383	-0.083	-0.015
-271.355	-171.987	0.214	0.007
-270.340	48.821	-0.225	-0.209
-269.326	140.827	0.159	0.208
-268.311	800.000	0.198	0.583
-267.297	-10.652	0.328	0.215
-266.282	423.912	-0.035	-0.074
-265.267	50.445	-0.056	0.052
-264.253	65.194	0.429	-0.429
-263.238	-74.156	-0.114	-0.041
-262.224	126.638	-0.139	0.174
-261.209	800.000	-0.039	0.110
-260.195	-19.336	0.252	-0.154
-259.180	78.220	-0.274	-0.290
-258.165	787.354	-0.111	-0.300
-257.151	28.456	0.106	-0.089
-256.136	14.771	-0.206	-0.159
-255.122	190.917	-0.111	-0.166
-254.107	-200.000	-0.041	-0.199
-253.092	127.679	-0.145	-0.182
-252.078	178.840	0.112	0.162
-251.063	-29.174	-0.207	-0.117
-250.049	17.562	-0.112	0.088
-249.034	-53.053	0.108	0.049
-248.019	-32.507	-0.278	0.153
-247.005	149.235	0.116	0.155
-245.990	-200.000	0.044	0.252
-244.976	573.860	-0.111	-0.268
-243.961	58.558	0.205	0.199
-242.946	-200.000	-0.016	-0.142
-241.932	397.909	-0.156	-0.323
-240.917	-74.904	-0.040	-0.014
-239.903	12.733	-0.234	-0.179
-238.888	-102.819	-0.217	0.051
-237.873	-148.836	0.251	0.020
-236.859	-167.848	0.261	0.010
-235.844	-105.767	0.140	-0.031
-234.830	76.941	-0.204	0.214
-233.815	800.000	0.024	0.104
-232.800	-82.036	0.413	-0.133
-231.786	79.403	-0.142	-0.151
-230.771	-75.772	0.227	0.079
-229.757	61.666	-0.070	-0.069
-228.742	-54.122	-0.475	-0.213
-227.727	800.000	-0.046	-0.177
-226.713	225.071	-0.133	0.213
-225.698	-13.076	-0.094	0.061
-224.684	762.352	0.104	0.279
-223.669	11.277	0.183	-0.138
-222.655	-174.127	0.235	-0.007
-221.640	800.000	-0.024	-0.103
-220.625	-107.657	-0.143	0.031
-219.611	-13.658	0.183	0.117
-218.596	4.759	0.373	-0.271
-217.582	-132.207	0.207	0.026
-216.567	-85.664	0.466	-0.143
-215.552	-105.210	-0.317	-0.071
-214.538	-24.620	0.159	-0.093
-213.523	-94.254	0.396	-0.107
-212.509	17.783	0.274	-0.215
-211.494	-76.075	-0.072	0.025
-210.479	229.358	0.146	0.235
-209.465	-152.112	0.239	-0.017
-208.450	119.009	-0.173	0.212
-207.436	-200.000	0.008	0.232
-206.421	-16.361	-0.142	0.089
-205.406	752.541	0.055	-0.147
-204.392	-86.802	-0.081	-0.024
-203.377	-33.880	0.168	0.091
-202.363	-200.000	-0.008	-0.161
-201.348	800.000	0.061	0.214
-200.333	-149.860	-0.396	0.031
-199.319	16.217	0.375	-0.292
-198.304	368.285	0.177	-0.353
-197.290	-110.238	0.194	0.040
-196.275	-81.188	0.075	-0.025
-195.260	54.856	-0.093	-0.088
-194.246	-200.000	0.023	-0.173
-193.231	-44.009	-0.112	-0.055
-192.217	244.965	0.098	-0.162
-191.202	-125.897	-0.558	-0.083
-190.187	361.134	0.019	0.037
-189.173	800.000	-0.057	0.167
-188.158	-136.035	0.164	0.019
-187.144	-200.000	-0.025	0.184
-186.129	-200.000	0.014	-0.090
-185.114	-73.915	-0.246	-0.088
-184.100	179.987	0.205	-0.296
-183.085	18.791	0.197	0.155
-182.071	-47.819	0.186	-0.089
-181.056	-96.662	-0.105	-0.027
-180.042	20.898	0.144	-0.115
-179.027	-16.193	-0.270	-0.169
-178.012	800.000	0.074	-0.217
-176.998	-192.973	-0.077	0.001
-175.983	73.007	0.324	-0.333
-174.969	800.000	0.048	-0.164
-173.954	-19.573	0.245	-0.149
-172.939	-200.000	0.045	0.435
-171.925	-200.000	-0.011	-0.272
-170.910	-61.668	-0.257	0.106
-169.896	345.697	-0.056	-0.109
-168.881	91.324	-0.106	0.117
-167.866	-97.873	0.322	0.082
-166.852	-157.534	-0.172	-0.010
-165.837	-200.000	-0.008	-0.240
-164.823	-76.446	0.349	-0.121
-163.808	26.765	0.240	0.198
-162.793	-71.777	-0.256	-0.094
-161.779	481.337	0.081	0.181
-160.764	-200.000	-0.027	-0.212
-159.750	33.922	-0.028	0.024
-158.735	-200.000	-0.004	0.053
-157.720	-58.529	0.289	-0.124
-156.706	-119.204	0.184	-0.032
-155.691	-70.978	0.274	-0.102
-154.677	4.659	0.202	0.146
-153.662	85.835	-0.360	-0.390
-152.647	373.319	0.065	0.129
-151.633	-104.449	0.213	0.049
-150.618	-113.102	0.170	-0.033
-149.604	75.956	0.122	0.127
-148.589	200.419	0.038	-0.058
-147.574	673.090	0.083	0.211
-146.560	6.324	-0.150	0.109
-145.545	444.482	-0.041	-0.090
-144.531	-76.462	-0.242	0.084
-143.516	186.954	-0.141	0.208
-142.502	-45.259	0.332	-0.162
-141.487	800.000	-0.074	0.235
-140.472	-200.000	0.016	-0.241
-139.458	-53.221	-0.154	0.069
-138.443	-200.000	-0.002	0.021
-137.429	642.414	-0.190	-0.477
-136.414	800.000	-0.024	0.087
-135.399	-200.000	-0.047	0.246
-134.385	9.884	0.271	-0.202
-133.370	236.805	0.225	-0.367
-132.356	-97.726	-0.248	0.063
-131.341	715.203	-0.073	0.192
-130.326	800.000	0.063	-0.255
-129.312	-145.822	0.276	-0.024
-128.297	613.309	0.078	-0.191
-127.283	-125.317	-0.424	0.064
-126.268	800.000	-0.029	0.097
-125.253	-200.000	-0.026	-0.238
-124.239	800.000	0.033	0.102
-123.224	800.000	0.069	0.231
-122.210	157.082	0.126	0.171
-121.195	89.919	0.227	0.249
