DTS Sentinel unit serial number:	SN413079Multiplexer serial number:	ORYXHardware model number:	OX4-SRSoftware version number:	ORYX F/W v4.00 Oryx Data Collector v3.7.2.0data status	okinstallation	princeton_trtdifferential loss correction	single-endedforward channel	channel 2reverse channel	N/Adate	2019/09/12time	05:21:11forward acquisition time	60.00reverse acquisition time	0.00gamma	496.2192k internal	0.2325k external	0.2325temperature offset calibration	1.0069default loss term (dB/km)	0.3790temperature slope calibration	1.0000multiplexer offset coefficient	1.0000multiplexer slope coefficient	1.0000fibre end	0.00T internal ref (°C)	31.87T ext. ref 1 (°C)	1.63T ext. ref 2 (°C)	27.33length (m)	temperature (°C)	Stokes	anti-Stokes-747.200	-200.000	-0.011	-0.191
-746.185	778.772	0.148	-0.408
-745.171	800.000	0.050	0.147
-744.156	-15.343	-0.255	-0.165
-743.142	203.085	0.132	-0.206
-742.127	-130.128	-0.319	0.044
-741.112	-200.000	0.002	-0.073
-740.098	-33.627	-0.214	0.119
-739.083	30.913	-0.029	-0.025
-738.069	-149.822	-0.178	0.014
-737.054	1.715	-0.278	-0.202
-736.039	-18.566	-0.024	0.015
-735.025	800.000	0.017	-0.065
-734.010	-123.329	0.145	0.023
-732.996	-15.061	-0.278	-0.180
-731.981	52.526	0.128	-0.123
-730.966	-200.000	-0.015	-0.074
-729.952	-184.877	-0.175	0.003
-728.937	-33.805	0.265	0.147
-727.923	-103.560	-0.021	-0.005
-726.908	736.322	0.054	-0.146
-725.894	-200.000	0.033	-0.612
-724.879	90.032	-0.154	-0.174
-723.864	121.845	0.124	0.156
-722.850	142.172	0.126	-0.168
-721.835	159.945	-0.108	-0.151
-720.821	-149.899	-0.112	0.009
-719.806	-200.000	0.048	-0.501
-718.791	800.000	0.024	-0.089
-717.777	320.315	-0.163	-0.313
-716.762	800.000	0.064	-0.213
-715.748	-113.725	-0.069	-0.014
-714.733	212.212	0.159	0.253
-713.718	246.882	0.135	-0.230
-712.704	-49.554	-0.172	0.082
-711.689	-200.000	0.020	0.090
-710.675	-200.000	-0.061	-0.294
-709.660	49.583	0.212	0.202
-708.645	-200.000	-0.019	-0.119
-707.631	164.131	0.211	-0.299
-706.616	51.191	0.122	-0.117
-705.602	-200.000	-0.001	-0.060
-704.587	190.330	-0.147	-0.222
-703.572	-104.488	-0.332	0.077
-702.558	52.282	0.187	0.180
-701.543	-72.556	0.220	-0.082
-700.529	800.000	0.022	0.092
-699.514	-141.671	-0.163	-0.016
-698.499	96.980	0.225	0.260
-697.485	-73.816	0.345	-0.126
-696.470	451.091	-0.139	-0.310
-695.456	82.309	0.119	-0.130
-694.441	-101.857	-0.182	0.044
-693.426	-98.938	0.154	-0.039
-692.412	123.131	0.257	-0.324
-691.397	-46.462	0.225	0.111
-690.383	-136.030	-0.175	0.021
-689.368	-200.000	-0.007	0.140
-688.354	-179.103	0.162	-0.004
-687.339	46.229	0.146	-0.136
-686.324	186.011	-0.073	-0.109
-685.310	289.278	0.092	-0.168
-684.295	-200.000	0.007	-0.314
-683.281	-125.122	0.382	-0.059
-682.266	59.872	-0.213	0.212
-681.251	-39.681	0.100	0.053
-680.237	-4.193	-0.389	-0.271
-679.222	-95.767	-0.084	-0.023
-678.208	-82.660	-0.120	0.039
-677.193	-135.844	-0.341	-0.041
-676.178	-31.439	0.081	-0.046
-675.164	-200.000	-0.004	-0.058
-674.149	800.000	-0.151	-0.543
-673.135	-103.800	0.392	-0.092
-672.120	246.268	-0.080	0.136
-671.105	72.814	-0.109	0.114
-670.091	684.642	0.110	-0.290
-669.076	-70.715	-0.123	-0.047
-668.062	-118.833	-0.409	0.072
-667.047	-200.000	0.013	-0.075
-666.032	-63.386	-0.162	0.067
-665.018	-200.000	-0.018	0.147
-664.003	-70.421	0.598	0.228
-662.989	-52.783	-0.211	0.098
-661.974	46.332	-0.199	-0.185
-660.959	-70.081	0.086	0.033
-659.945	127.811	0.180	-0.230
-658.930	142.406	-0.125	0.166
-657.916	-131.050	0.083	0.011
-656.901	800.000	0.043	0.147
-655.886	-9.967	-0.298	-0.199
-654.872	-200.000	-0.015	0.222
-653.857	-59.626	-0.281	0.121
-652.843	-109.477	0.315	0.067
-651.828	-200.000	0.017	-0.076
-650.814	-123.717	0.309	0.049
-649.799	-200.000	0.083	0.495
-648.784	200.089	-0.099	0.153
-647.770	111.654	-0.157	-0.191
-646.755	-103.825	-0.276	-0.065
-645.741	46.195	-0.189	0.176
-644.726	-200.000	-0.008	-0.131
-643.711	-200.000	-0.025	-0.268
-642.697	-200.000	-0.062	-0.297
-641.682	800.000	-0.137	0.428
-640.668	-200.000	0.010	0.285
-639.653	12.474	-0.276	0.214
-638.638	-200.000	0.018	0.200
-637.624	-113.503	-0.197	-0.039
-636.609	15.514	0.090	0.071
-635.595	126.110	-0.143	-0.181
-634.580	-200.000	0.006	0.061
-633.565	-178.988	-0.280	-0.006
-632.551	800.000	-0.063	-0.183
-631.536	-200.000	0.015	0.305
-630.522	267.317	-0.150	-0.263
-629.507	779.564	-0.057	-0.157
-628.492	9.946	-0.103	0.078
-627.478	90.930	-0.167	0.188
-626.463	11.022	0.169	-0.129
-625.449	-63.054	0.055	-0.023
-624.434	-75.825	0.056	0.020
-623.419	-85.524	0.149	0.047
-622.405	-200.000	0.010	0.074
-621.390	396.908	-0.096	0.201
-620.376	39.516	0.525	-0.472
-619.361	-117.855	-0.068	0.012
-618.346	-22.085	0.287	-0.175
-617.332	-11.538	0.134	-0.089
-616.317	-157.496	-0.350	-0.021
-615.303	-0.640	-0.096	-0.068
-614.288	-200.000	0.032	-0.237
-613.273	-108.767	-0.110	-0.024
-612.259	-200.000	0.003	0.070
-611.244	212.540	-0.119	0.188
-610.230	45.816	-0.105	-0.097
-609.215	-200.000	0.003	-0.206
-608.201	-200.000	-0.018	-0.148
-607.186	334.041	0.026	-0.050
-606.171	-200.000	-0.002	-0.008
-605.157	-23.286	-0.178	-0.107
-604.142	-200.000	-0.023	-0.219
-603.128	-200.000	0.000	-0.304
-602.113	587.214	-0.088	-0.217
-601.098	-39.674	0.171	-0.090
-600.084	800.000	0.028	0.101
-599.069	427.836	0.096	0.209
-598.055	-63.306	-0.201	0.083
-597.040	800.000	-0.110	-0.410
-596.025	463.063	-0.080	0.180
-595.011	800.000	-0.065	0.183
-593.996	-55.786	0.159	-0.071
-592.982	-21.208	-0.283	0.174
-591.967	26.699	-0.124	0.104
-590.952	-20.881	0.252	-0.155
-589.938	162.227	0.188	0.264
-588.923	-200.000	0.052	0.346
-587.909	-200.000	0.024	0.242
-586.894	230.696	-0.098	0.160
-585.879	430.108	0.079	0.172
-584.865	178.884	0.089	0.130
-583.850	103.550	0.146	-0.172
-582.836	472.640	-0.112	0.252
-581.821	-200.000	0.000	-0.199
-580.806	-41.343	0.155	-0.080
-579.792	119.206	-0.014	-0.018
-578.777	-200.000	-0.040	-0.270
-577.763	218.008	0.016	-0.025
-576.748	158.170	-0.254	0.353
-575.733	567.803	0.087	0.212
-574.719	237.085	-0.136	-0.226
-573.704	183.006	-0.064	-0.094
-572.690	69.365	0.231	-0.238
-571.675	-119.294	-0.284	0.050
-570.661	257.238	0.155	-0.268
-569.646	-31.595	-0.271	-0.153
-568.631	-87.175	0.270	0.082
-567.617	-39.113	-0.069	0.036
-566.602	4.042	-0.104	-0.076
-565.588	-23.902	0.369	0.222
-564.573	505.325	0.005	-0.012
-563.558	800.000	0.093	-0.352
-562.544	-1.584	0.259	-0.183
-561.529	-162.598	0.347	-0.017
-560.515	54.654	-0.059	-0.057
-559.500	104.012	-0.140	-0.165
-558.485	-200.000	0.063	-0.360
-557.471	357.085	0.109	-0.217
-556.456	-36.705	-0.257	-0.138
-555.442	-200.000	0.012	0.142
-554.427	800.000	0.134	-0.436
-553.412	551.180	-0.110	0.264
-552.398	800.000	-0.048	0.205
-551.383	-200.000	-0.019	0.137
-550.369	-200.000	-0.024	0.221
-549.354	-77.086	0.229	-0.080
-548.339	-77.430	0.101	-0.035
-547.325	574.833	0.053	-0.130
-546.310	56.278	-0.097	0.094
-545.296	16.606	0.080	0.063
-544.281	-200.000	0.035	0.187
-543.266	-200.000	0.052	0.235
-542.252	388.407	0.012	0.024
-541.237	102.876	-0.170	0.199
-540.223	242.041	-0.091	0.153
-539.208	-32.392	-0.202	0.113
-538.193	217.987	0.138	0.221
-537.179	-120.055	0.234	0.040
-536.164	-114.931	-0.014	0.003
-535.150	-118.001	-0.152	-0.027
-534.135	-54.963	0.222	-0.100
-533.121	-107.686	-0.288	-0.063
-532.106	55.730	0.140	0.136
-531.091	800.000	-0.057	0.162
-530.077	-200.000	-0.072	0.419
-529.062	-68.867	0.106	0.041
-528.048	86.885	-0.122	0.135
-527.033	800.000	0.089	0.272
-526.018	-63.930	-0.156	0.064
-525.004	-200.000	0.013	0.195
-523.989	-156.753	0.246	0.015
-522.975	146.555	-0.062	-0.083
-521.960	62.454	-0.121	0.121
-520.945	800.000	-0.045	-0.144
-519.931	-27.110	0.079	0.046
-518.916	-195.186	0.214	0.002
-517.902	628.723	0.025	0.063
-516.887	123.915	-0.091	-0.115
-515.872	128.553	0.060	0.077
-514.858	-90.926	0.177	0.051
-513.843	56.049	-0.314	-0.304
-512.829	-145.540	0.286	0.026
-511.814	124.424	0.084	0.105
-510.799	-58.331	-0.265	0.115
-509.785	-200.000	-0.004	0.048
-508.770	490.972	0.016	-0.036
-507.756	-25.253	-0.288	0.170
-506.741	174.465	-0.023	0.033
-505.726	-53.019	-0.095	-0.044
-504.712	-88.815	-0.033	-0.010
-503.697	162.776	0.186	-0.261
-502.683	-174.708	0.240	0.007
-501.668	22.871	0.201	-0.164
-500.653	-200.000	-0.004	-0.033
-499.639	61.643	0.145	-0.144
-498.624	-74.669	-0.162	-0.058
-497.610	150.335	0.125	0.169
-496.595	417.039	-0.027	-0.058
-495.581	-0.702	0.282	-0.200
-494.566	97.222	-0.193	0.222
-493.551	195.105	0.182	0.276
-492.537	84.729	-0.059	-0.064
-491.522	-137.995	0.224	0.025
-490.508	-43.073	0.329	0.167
-489.493	800.000	-0.084	-0.337
-488.478	204.985	-0.029	-0.045
-487.464	-29.799	0.152	0.087
-486.449	800.000	-0.058	-0.245
-485.435	305.815	0.101	0.188
-484.420	91.716	0.126	0.142
-483.405	144.602	0.264	0.352
-482.391	-200.000	0.008	-0.239
-481.376	-149.707	-0.350	0.028
-480.362	-200.000	0.026	-0.305
-479.347	-37.599	0.336	0.179
-478.332	-132.922	-0.081	-0.010
-477.318	800.000	-0.059	-0.229
-476.303	109.805	0.248	-0.296
-475.289	2.053	0.148	-0.107
-474.274	741.358	0.151	0.404
-473.259	3.044	-0.206	-0.149
-472.245	800.000	-0.013	-0.051
-471.230	86.643	-0.207	-0.228
-470.216	-66.045	-0.173	0.069
-469.201	-200.000	0.007	0.215
-468.186	697.758	-0.049	-0.128
-467.172	81.982	-0.064	0.070
-466.157	-96.716	-0.264	-0.069
-465.143	-15.302	-0.138	-0.088
-464.128	46.306	-0.136	-0.126
-463.113	-70.475	0.418	-0.158
-462.099	-200.000	0.047	0.362
-461.084	-51.349	-0.177	0.083
-460.070	301.723	-0.045	0.082
-459.055	41.422	0.240	-0.217
-458.040	137.373	0.106	-0.138
-457.026	-200.000	0.001	-0.260
-456.011	18.333	0.189	0.150
-454.997	41.807	0.146	-0.132
-453.982	-58.926	-0.218	-0.094
-452.968	224.723	-0.053	0.086
-451.953	-13.732	-0.201	-0.130
-450.938	299.279	0.051	-0.094
-449.924	-200.000	0.081	-0.528
-448.909	800.000	-0.165	-0.552
-447.895	-78.316	-0.147	-0.050
-446.880	-131.281	0.151	0.020
-445.865	-77.813	-0.216	0.074
-444.851	-75.104	0.032	0.011
-443.836	-200.000	-0.009	0.215
-442.822	-121.510	0.124	-0.021
-441.807	21.175	0.101	-0.082
-440.792	-47.503	0.147	-0.071
-439.778	-200.000	0.021	-0.099
-438.763	259.064	-0.070	-0.120
-437.749	-2.692	-0.234	-0.163
-436.734	321.339	-0.167	-0.318
-435.719	-137.782	0.384	-0.043
-434.705	-51.382	-0.224	0.105
-433.690	108.142	-0.129	-0.154
-432.676	32.404	0.121	0.104
-431.661	-194.867	-0.325	0.003
-430.646	-128.960	0.318	0.044
-429.632	107.430	-0.088	0.104
-428.617	30.409	-0.344	-0.293
-427.603	-130.505	-0.249	0.034
-426.588	18.987	-0.065	0.052
-425.573	-14.422	-0.246	0.158
-424.559	746.271	-0.053	-0.143
-423.544	-200.000	-0.105	0.477
-422.530	-193.134	-0.275	0.002
-421.515	341.771	-0.187	-0.364
-420.500	-108.513	0.146	-0.031
-419.486	-89.048	-0.135	0.040
-418.471	42.369	0.211	-0.191
-417.457	-91.287	-0.367	-0.105
-416.442	800.000	0.040	-0.134
-415.428	800.000	-0.029	-0.095
-414.413	-127.396	0.175	-0.025
-413.398	-73.822	0.218	-0.079
-412.384	7.112	-0.224	-0.166
-411.369	48.853	-0.057	0.053
-410.355	-200.000	-0.023	0.260
-409.340	279.267	0.079	0.140
-408.325	-106.998	0.238	0.052
-407.311	-19.221	-0.161	0.100
-406.296	295.026	-0.060	0.109
-405.282	-20.430	0.387	-0.237
-404.267	11.420	0.205	-0.156
-403.252	800.000	0.046	-0.162
-402.238	347.467	0.203	0.398
-401.223	61.339	-0.226	0.223
-400.209	-73.158	-0.322	-0.117
-399.194	368.429	0.102	0.204
-398.179	93.184	-0.201	0.227
-397.165	72.036	0.094	0.098
-396.150	-105.730	0.294	0.066
-395.136	-38.336	0.241	0.127
-394.121	-152.340	-0.135	0.010
-393.106	36.621	0.279	-0.245
-392.092	-167.292	-0.223	0.009
-391.077	-200.000	-0.003	-0.115
-390.063	252.790	-0.040	0.067
-389.048	-118.812	0.173	-0.030
-388.033	-200.000	0.041	0.509
-387.019	-200.000	-0.054	0.324
-386.004	-200.000	-0.004	0.109
-384.990	-133.017	0.122	0.015
-383.975	-200.000	0.011	0.139
-382.960	-197.409	-0.075	-0.000
-381.946	-200.000	-0.027	-0.268
-380.931	-30.324	-0.224	-0.127
-379.917	-5.587	-0.302	-0.206
-378.902	-108.596	-0.291	-0.062
-377.888	274.361	-0.149	-0.262
-376.873	457.379	-0.028	0.061
-375.858	-200.000	-0.038	-0.247
-374.844	-31.981	-0.285	0.159
-373.829	800.000	-0.066	-0.270
-372.815	-165.050	-0.053	0.002
-371.800	-64.044	0.358	0.145
-370.785	-200.000	-0.038	0.212
-369.771	-200.000	0.003	-0.492
-368.756	16.043	0.251	-0.196
-367.742	-123.893	-0.115	0.018
-366.727	-120.474	0.354	-0.060
-365.712	800.000	0.023	0.076
-364.698	268.991	0.177	-0.309
-363.683	38.896	-0.205	0.182
-362.669	-200.000	-0.013	0.336
-361.654	-62.392	0.169	0.070
-360.639	-103.721	0.215	0.050
-359.625	-200.000	0.004	0.107
-358.610	273.117	0.088	-0.155
-357.596	186.723	0.061	-0.091
-356.581	-143.352	-0.396	0.038
-355.566	263.382	0.083	-0.143
-354.552	69.583	-0.120	0.123
-353.537	-200.000	-0.012	0.345
-352.523	109.061	-0.303	-0.360
-351.508	-97.130	0.181	0.047
-350.493	-154.554	0.177	0.012
-349.479	-200.000	-0.023	0.252
-348.464	800.000	0.038	0.142
-347.450	-117.514	0.121	-0.022
-346.435	55.131	-0.055	-0.053
-345.420	-109.601	0.268	-0.056
-344.406	-200.000	0.046	0.234
-343.391	381.250	-0.097	-0.198
-342.377	553.642	0.092	0.220
-341.362	-200.000	0.024	-0.152
-340.348	122.239	0.099	0.122
-339.333	-1.158	-0.036	0.025
-338.318	-200.000	0.027	0.391
-337.304	-91.588	-0.323	-0.091
-336.289	418.132	0.052	-0.110
-335.275	274.342	-0.008	0.014
-334.260	20.320	-0.203	-0.163
-333.245	-200.000	0.016	-0.079
-332.231	-118.646	-0.165	0.029
-331.216	-61.745	0.247	0.103
-330.202	367.879	-0.131	0.262
-329.187	-200.000	-0.055	0.313
-328.172	553.492	-0.066	0.157
-327.158	-200.000	0.004	0.058
-326.143	207.327	0.142	-0.221
-325.129	800.000	-0.072	-0.250
-324.114	-44.986	0.144	0.071
-323.099	28.191	0.245	-0.205
-322.085	800.000	-0.123	-0.390
-321.070	-92.545	-0.110	0.031
-320.056	-200.000	0.003	-0.248
-319.041	800.000	-0.104	-0.298
-318.026	27.146	-0.009	0.007
-317.012	-200.000	-0.005	0.134
-315.997	-113.412	-0.353	-0.069
-314.983	542.287	-0.105	-0.247
-313.968	-25.022	0.199	-0.117
-312.953	800.000	0.034	0.134
-311.939	-84.736	0.298	0.093
-310.924	-166.160	0.167	0.007
-309.910	133.255	0.196	0.252
-308.895	34.098	0.249	0.215
-307.880	276.247	0.100	-0.177
-306.866	800.000	-0.090	-0.368
-305.851	800.000	0.069	-0.236
-304.837	800.000	0.042	0.170
-303.822	-200.000	0.024	0.107
-302.807	331.975	-0.191	0.365
-301.793	-131.274	0.139	-0.018
-300.778	-56.260	0.072	0.032
-299.764	224.529	-0.082	0.132
-298.749	5.947	-0.204	0.150
-297.735	175.359	0.047	-0.068
-296.720	-200.000	-0.022	-0.119
-295.705	800.000	0.055	0.180
-294.691	232.414	0.194	-0.316
-293.676	-93.496	-0.082	-0.022
-292.662	109.273	0.161	0.191
-291.647	-102.754	-0.204	-0.048
-290.632	-200.000	0.004	0.052
-289.618	394.620	-0.050	0.103
-288.603	-75.315	0.040	0.014
-287.589	-200.000	-0.006	0.143
-286.574	-18.654	-0.191	0.118
-285.559	25.227	-0.221	0.182
-284.545	-200.000	0.007	0.219
-283.530	709.155	0.099	0.260
-282.516	-200.000	-0.030	0.229
-281.501	140.723	-0.073	0.096
-280.486	-119.690	0.240	0.041
-279.472	-87.828	-0.321	-0.096
-278.457	-200.000	-0.012	-0.318
-277.443	-47.126	0.211	-0.102
-276.428	-53.530	0.064	-0.029
-275.413	6.699	-0.158	0.116
-274.399	-120.955	0.445	-0.074
-273.384	-126.230	0.184	0.027
-272.370	180.164	-0.140	0.203
-271.355	14.649	-0.213	0.165
-270.340	-54.025	-0.092	-0.041
-269.326	-40.926	-0.136	-0.070
-268.311	-108.583	-0.274	0.058
-267.297	-200.000	-0.041	0.347
-266.282	-200.000	-0.018	-0.202
-265.267	-148.476	0.047	0.004
-264.253	-72.236	0.278	0.102
-263.238	23.863	-0.122	-0.099
-262.224	-200.000	0.213	-0.001
-261.209	166.245	-0.042	0.058
-260.195	-90.244	0.285	-0.082
-259.180	-63.409	-0.343	-0.140
-258.165	138.166	0.189	0.245
-257.151	-200.000	-0.000	0.155
-256.136	9.160	-0.067	-0.050
-255.122	-100.278	0.094	0.023
-254.107	438.612	0.074	-0.160
-253.092	-166.400	0.276	-0.011
-252.078	536.536	0.051	-0.120
-251.063	14.995	0.176	0.137
-250.049	-11.046	0.036	-0.023
-249.034	-77.491	-0.292	0.100
-248.019	83.820	-0.255	0.275
-247.005	-121.450	0.312	0.051
-245.990	-80.554	-0.299	0.098
-244.976	-200.000	0.018	-0.198
-243.961	-61.598	0.448	-0.186
-242.946	115.829	-0.244	-0.296
-241.932	-200.000	0.031	0.213
-240.917	731.569	-0.034	-0.089
-239.903	-200.000	0.031	-0.399
-238.888	-104.330	-0.092	-0.021
-237.873	-79.668	-0.303	0.101
-236.859	27.751	-0.116	0.096
-235.844	-200.000	-0.046	0.228
-234.830	-200.000	0.006	-0.189
-233.815	-120.682	0.207	-0.035
-232.800	-200.000	-0.025	-0.116
-231.786	-12.987	-0.124	-0.080
-230.771	-200.000	-0.018	-0.123
-229.757	-200.000	-0.015	-0.223
-228.742	195.110	0.066	0.099
-227.727	-61.480	-0.241	-0.100
-226.713	-55.751	0.239	-0.106
-225.698	-36.903	-0.201	-0.107
-224.684	800.000	0.074	-0.281
-223.669	800.000	-0.034	0.142
-222.655	-72.620	0.259	0.095
-221.640	-200.000	0.010	0.079
-220.625	-124.978	-0.066	-0.010
-219.611	264.002	0.024	-0.041
-218.596	72.830	-0.154	-0.159
-217.582	-23.662	0.096	0.057
-216.567	281.426	0.128	-0.226
-215.552	-0.981	0.167	-0.116
-214.538	227.748	-0.177	0.284
-213.523	-200.000	0.024	-0.113
-212.509	3.150	0.245	-0.176
-211.494	-167.208	0.302	0.012
-210.479	-200.000	0.066	-0.376
-209.465	-200.000	-0.029	-0.155
-208.450	-135.429	0.247	-0.029
-207.436	7.796	-0.150	-0.111
-206.421	597.600	0.110	-0.269
-205.406	315.105	0.195	0.364
-204.392	171.407	0.113	0.161
-203.377	-200.000	0.015	-0.082
-202.363	-36.826	0.196	0.104
-201.348	21.050	-0.219	0.176
-200.333	-70.421	-0.155	0.058
-199.319	771.157	0.098	0.264
-198.304	180.969	-0.186	0.270
-197.290	140.796	0.057	0.074
-196.275	419.916	-0.066	-0.141
-195.260	127.723	0.168	0.211
-194.246	35.576	0.062	0.054
-193.231	15.523	-0.215	-0.167
-192.217	115.356	-0.059	-0.071
-191.202	-74.678	0.094	-0.033
-190.187	-70.275	0.383	-0.144
-189.173	-200.000	-0.005	0.187
-188.158	426.328	0.067	-0.143
-187.144	-95.252	-0.401	-0.107
-186.129	95.444	-0.209	0.236
-185.114	-116.606	0.218	0.040
-184.100	-131.924	-0.156	-0.020
-183.085	-200.000	0.023	-0.184
-182.071	-140.607	-0.225	-0.023
-181.056	44.608	0.103	0.094
-180.042	244.959	0.118	0.196
-179.027	-106.247	-0.365	-0.081
-178.012	338.632	-0.145	0.279
-176.998	274.108	-0.147	-0.257
-175.983	-200.000	-0.043	-0.279
-174.969	251.780	0.043	0.073
-173.954	644.704	0.061	-0.153
-172.939	-41.391	-0.121	-0.061
-171.925	-68.590	0.089	-0.034
-170.910	-105.601	0.168	0.038
-169.896	768.144	0.010	-0.026
-168.881	-170.410	-0.260	0.009
-167.866	-7.856	0.166	0.111
-166.852	-200.000	0.024	-0.179
-165.837	6.991	0.088	0.064
-164.823	800.000	-0.074	0.312
-163.808	-80.829	0.331	0.108
-162.793	800.000	-0.042	0.156
-161.779	86.713	-0.062	0.068
-160.764	-153.029	-0.414	-0.029
-159.750	-162.173	0.301	-0.015
-158.735	216.483	-0.012	-0.019
-157.720	-65.985	0.211	0.083
-156.706	800.000	0.055	0.149
-155.691	-3.814	-0.086	0.059
-154.677	110.901	0.081	-0.096
-153.662	-26.498	0.092	0.053
-152.647	109.507	-0.193	0.228
-151.633	-200.000	0.029	0.316
-150.618	704.970	-0.068	-0.176
-149.604	797.213	0.046	0.125
-148.589	-107.934	0.418	-0.090
-147.574	-200.000	0.065	-0.377
-146.560	192.487	-0.104	-0.154
-145.545	-87.052	-0.118	0.035
-144.531	157.355	-0.155	-0.212
-143.516	-117.180	-0.297	-0.053
-142.502	-131.390	0.060	-0.008
-141.487	-97.649	-0.140	0.036
-140.472	-200.000	0.069	-0.382
-139.458	53.375	0.241	-0.228
-138.443	-123.964	-0.066	0.010
-137.429	-129.864	-0.242	0.033
-136.414	-200.000	0.014	0.226
-135.399	83.501	-0.151	-0.163
-134.385	189.392	0.136	0.200
-133.370	-90.369	-0.067	0.019
-132.356	-156.383	0.165	0.010
-131.341	-200.000	0.010	-0.084
-130.326	-121.266	-0.279	-0.046
-129.312	53.803	0.036	-0.034
-128.297	167.031	0.083	-0.116
-127.283	107.387	0.291	-0.341
-126.268	-106.016	-0.447	-0.099
-125.253	-104.993	-0.237	0.053
-124.239	-200.000	-0.001	-0.111
-123.224	-52.083	-0.396	0.181
-122.210	-155.333	-0.293	0.019
