DTS Sentinel unit serial number:	SN413079Multiplexer serial number:	ORYXHardware model number:	OX4-SRSoftware version number:	ORYX F/W v4.00 Oryx Data Collector v3.7.2.0data status	okinstallation	princeton_trtdifferential loss correction	single-endedforward channel	channel 2reverse channel	N/Adate	2019/09/14time	04:35:35forward acquisition time	60.00reverse acquisition time	0.00gamma	496.2192k internal	0.2336k external	0.2336temperature offset calibration	1.0129default loss term (dB/km)	0.3790temperature slope calibration	1.0000multiplexer offset coefficient	1.0000multiplexer slope coefficient	1.0000fibre end	0.00T internal ref (°C)	26.80T ext. ref 1 (°C)	3.34T ext. ref 2 (°C)	22.00length (m)	temperature (°C)	Stokes	anti-Stokes-747.200	3.355	-0.351	-0.257
-746.185	-200.000	0.021	0.232
-745.171	-117.618	-0.188	-0.034
-744.156	259.363	0.161	0.279
-743.142	8.781	0.211	0.160
-742.127	-200.000	-0.025	0.130
-741.112	118.205	0.210	0.260
-740.098	-159.230	-0.087	0.005
-739.083	53.525	-0.120	-0.116
-738.069	167.426	0.135	-0.193
-737.054	-127.260	-0.128	-0.019
-736.039	161.681	0.115	0.162
-735.025	-200.000	0.038	0.296
-734.010	17.462	-0.394	-0.314
-732.996	-103.742	0.183	0.043
-731.981	-200.000	0.044	-0.254
-730.966	244.432	-0.159	0.268
-729.952	-50.377	0.172	-0.082
-728.937	-42.467	-0.258	0.132
-727.923	800.000	0.124	-0.361
-726.908	-200.000	0.004	0.124
-725.894	-59.640	-0.100	0.043
-724.879	-133.465	-0.226	0.028
-723.864	800.000	0.022	-0.062
-722.850	-162.184	0.112	-0.006
-721.835	-200.000	0.017	0.215
-720.821	-140.852	-0.228	0.024
-719.806	-76.903	0.253	-0.089
-718.791	-59.582	0.042	0.018
-717.777	5.326	-0.060	0.044
-716.762	346.470	0.177	0.349
-715.748	-41.614	-0.148	-0.076
-714.733	-165.255	0.258	-0.011
-713.718	-50.720	-0.096	-0.045
-712.704	800.000	-0.071	-0.234
-711.689	117.142	0.151	-0.186
-710.675	197.455	-0.083	0.128
-709.660	-70.087	0.183	0.070
-708.645	140.395	-0.043	-0.057
-707.631	-57.875	0.123	0.054
-706.616	-200.000	-0.028	-0.252
-705.602	1.871	0.125	0.090
-704.587	54.268	-0.210	0.202
-703.572	139.529	-0.072	-0.095
-702.558	-200.000	-0.013	-0.085
-701.543	-182.835	0.255	-0.005
-700.529	222.407	-0.077	0.124
-699.514	-132.225	-0.196	0.026
-698.499	-200.000	0.044	0.238
-697.485	441.708	0.174	-0.382
-696.470	800.000	0.083	0.234
-695.456	73.334	0.124	0.130
-694.441	297.064	-0.080	-0.148
-693.426	800.000	0.086	-0.341
-692.412	-200.000	-0.008	-0.080
-691.397	-159.774	0.169	-0.009
-690.383	55.888	0.059	0.058
-689.368	93.495	-0.127	0.144
-688.354	-200.000	-0.004	0.210
-687.339	661.312	-0.049	0.126
-686.324	661.627	0.024	-0.062
-685.310	800.000	-0.052	-0.192
-684.295	-103.430	-0.222	0.052
-683.281	800.000	-0.072	-0.211
-682.266	-70.828	-0.398	0.151
-681.251	82.429	0.129	0.140
-680.237	105.638	0.083	-0.098
-679.222	137.490	-0.223	-0.292
-678.208	-200.000	0.050	0.437
-677.193	99.650	-0.096	-0.111
-676.178	-187.420	-0.054	0.001
-675.164	58.471	0.173	-0.170
-674.149	3.883	0.236	-0.172
-673.135	734.006	0.164	0.441
-672.120	17.385	-0.250	0.199
-671.105	287.328	-0.067	-0.122
-670.091	-121.791	-0.257	-0.042
-669.076	800.000	0.093	0.349
-668.062	-141.210	-0.452	-0.046
-667.047	-113.335	0.296	0.058
-666.032	143.022	0.362	-0.482
-665.018	-177.171	0.179	-0.004
-664.003	800.000	0.122	0.371
-662.989	93.930	-0.103	-0.117
-661.974	36.217	0.206	-0.182
-660.959	-200.000	-0.035	-0.292
-659.945	-123.091	-0.154	-0.025
-658.930	-14.579	-0.310	0.199
-657.916	-62.185	0.171	0.071
-656.901	-5.918	0.166	-0.113
-655.886	-103.278	-0.036	-0.009
-654.872	-200.000	0.000	0.266
-653.857	89.621	0.127	-0.142
-652.843	468.334	0.101	-0.228
-651.828	15.730	0.171	-0.135
-650.814	-109.436	-0.212	-0.045
-649.799	269.610	-0.136	0.239
-648.784	-200.000	0.052	0.243
-647.770	-200.000	0.014	0.122
-646.755	-200.000	0.026	-0.278
-645.741	21.567	0.131	-0.106
-644.726	800.000	0.077	0.223
-643.711	-39.466	-0.144	-0.075
-642.697	-36.376	0.440	0.237
-641.682	-131.975	0.117	0.015
-640.668	-146.360	0.247	0.022
-639.653	-23.519	0.332	-0.199
-638.638	-192.273	-0.172	-0.002
-637.624	723.808	0.035	-0.094
-636.609	-169.522	0.053	-0.002
-635.595	40.300	0.247	-0.223
-634.580	-118.362	-0.344	-0.061
-633.565	-73.808	-0.103	0.037
-632.551	81.762	-0.266	-0.288
-631.536	185.511	0.243	0.361
-630.522	340.384	-0.162	-0.316
-629.507	-104.963	-0.386	-0.089
-628.492	800.000	0.017	-0.060
-627.478	400.276	-0.048	-0.101
-626.463	0.668	0.100	0.071
-625.449	-71.886	0.130	-0.048
-624.434	-200.000	-0.025	-0.144
-623.419	-200.000	0.007	0.187
-622.405	-118.799	0.436	0.077
-621.390	-200.000	0.040	-0.207
-620.376	800.000	0.028	-0.110
-619.361	800.000	0.044	0.122
-618.346	20.717	0.142	-0.115
-617.332	3.139	-0.320	-0.232
-616.317	800.000	0.050	-0.213
-615.303	-26.740	0.013	-0.008
-614.288	-200.000	0.029	-0.319
-613.273	-30.378	-0.048	-0.027
-612.259	371.976	0.108	0.219
-611.244	-12.697	-0.175	0.114
-610.230	90.158	-0.148	-0.166
-609.215	-200.000	0.020	-0.213
-608.201	-80.666	0.158	0.053
-607.186	800.000	-0.017	0.056
-606.171	376.476	-0.106	-0.216
-605.157	-200.000	0.028	-0.131
-604.142	184.355	-0.221	-0.327
-603.128	150.292	-0.052	-0.071
-602.113	-94.062	-0.111	0.030
-601.098	55.986	0.072	-0.070
-600.084	-46.978	-0.097	-0.047
-599.069	-200.000	-0.072	0.315
-598.055	28.489	0.247	0.209
-597.040	800.000	0.077	-0.279
-596.025	660.120	-0.080	-0.206
-595.011	-198.499	0.337	0.002
-593.996	-200.000	-0.053	-0.265
-592.982	236.554	-0.066	0.109
-591.967	618.410	0.148	0.372
-590.952	-76.339	0.249	0.087
-589.938	-200.000	0.018	0.202
-588.923	15.013	-0.070	-0.055
-587.909	179.494	-0.135	0.197
-586.894	53.603	-0.229	0.219
-585.879	278.680	-0.101	0.180
-584.865	800.000	0.034	0.120
-583.850	800.000	-0.083	-0.266
-582.836	-30.203	-0.082	0.046
-581.821	446.574	0.043	0.095
-580.806	317.267	0.020	-0.038
-579.792	158.761	0.059	-0.082
-578.777	195.622	-0.141	-0.214
-577.763	-200.000	-0.013	-0.153
-576.748	800.000	-0.042	0.158
-575.733	383.188	0.180	-0.370
-574.719	192.327	-0.168	-0.253
-573.704	-200.000	0.068	-0.426
-572.690	483.901	0.094	-0.214
-571.675	800.000	-0.048	-0.135
-570.661	92.439	-0.173	0.195
-569.646	12.114	-0.101	0.077
-568.631	-107.026	-0.231	-0.051
-567.617	349.199	-0.091	-0.180
-566.602	-79.050	-0.388	0.132
-565.588	-167.516	0.179	0.007
-564.573	300.134	0.031	0.056
-563.558	0.804	0.237	-0.169
-562.544	-200.000	-0.028	0.178
-561.529	186.687	0.090	0.134
-560.515	-200.000	0.001	0.081
-559.500	-42.796	0.326	-0.165
-558.485	238.835	0.138	-0.228
-557.471	594.645	0.184	0.455
-556.456	217.869	-0.138	-0.220
-555.442	50.569	-0.157	0.148
-554.427	-32.087	0.264	-0.147
-553.412	468.775	0.049	0.109
-552.398	-12.914	-0.266	-0.172
-551.383	-116.459	-0.143	0.026
-550.369	-200.000	0.014	0.094
-549.354	-200.000	-0.011	-0.074
-548.339	171.597	0.054	-0.077
-547.325	77.585	0.235	0.250
-546.310	-50.582	0.295	-0.138
-545.296	-111.101	0.027	0.005
-544.281	-200.000	-0.041	-0.218
-543.266	-116.773	0.045	-0.008
-542.252	-135.427	-0.428	0.051
-541.237	148.670	-0.079	-0.106
-540.223	-98.557	-0.210	0.054
-539.208	-35.306	0.265	0.144
-538.193	800.000	0.094	-0.345
-537.179	81.243	-0.270	0.291
-536.164	67.448	0.193	-0.196
-535.150	-130.746	0.120	-0.016
-534.135	-66.428	0.282	-0.112
-533.121	-67.097	-0.119	0.047
-532.106	-42.673	0.216	-0.110
-531.091	800.000	-0.084	-0.255
-530.077	-20.914	0.130	0.079
-529.062	265.812	-0.102	-0.177
-528.048	-200.000	0.014	0.480
-527.033	800.000	0.055	-0.195
-526.018	-154.243	-0.103	0.007
-525.004	-119.622	-0.249	-0.043
-523.989	-51.867	0.103	-0.048
-522.975	-51.633	-0.242	0.112
-521.960	800.000	0.020	-0.079
-520.945	-90.525	-0.236	0.068
-519.931	377.552	-0.116	-0.236
-518.916	-53.151	0.279	0.128
-517.902	52.655	0.164	-0.156
-516.887	-86.418	-0.195	0.060
-515.872	684.807	-0.108	0.281
-514.858	-18.255	0.206	0.128
-513.843	657.974	-0.084	0.214
-512.829	-129.967	-0.072	0.010
-511.814	-101.500	0.188	-0.046
-510.799	38.318	0.142	-0.126
-509.785	120.785	0.104	-0.128
-508.770	293.194	-0.070	-0.127
-507.756	56.956	0.241	-0.234
-506.741	-106.446	0.354	0.079
-505.726	-46.667	0.085	0.041
-504.712	-121.536	-0.357	-0.059
-503.697	800.000	0.043	-0.166
-502.683	800.000	0.097	-0.367
-501.668	45.193	-0.165	0.151
-500.653	250.237	0.058	-0.097
-499.639	-150.696	0.266	-0.020
-498.624	172.091	0.062	-0.089
-497.610	-200.000	0.039	0.187
-496.595	236.781	-0.129	0.213
-495.581	10.145	0.054	-0.041
-494.566	-200.000	0.016	-0.432
-493.551	-200.000	-0.020	0.189
-492.537	-41.265	-0.255	0.131
-491.522	-37.528	-0.432	-0.229
-490.508	-6.391	0.257	-0.174
-489.493	206.846	-0.073	0.114
-488.478	-113.513	0.111	0.022
-487.464	-118.083	0.141	-0.025
-486.449	-53.669	0.050	0.023
-485.435	151.354	0.208	0.281
-484.420	113.715	0.163	0.196
-483.405	-96.453	0.068	-0.018
-482.391	-200.000	-0.008	-0.094
-481.376	-7.314	-0.178	0.120
-480.362	-74.781	-0.275	0.098
-479.347	641.506	0.054	0.137
-478.332	72.960	-0.077	0.080
-477.318	-25.159	0.215	-0.127
-476.303	-185.245	0.482	-0.007
-475.289	-200.000	-0.007	0.106
-474.274	-40.868	-0.140	-0.072
-473.259	-156.432	-0.378	-0.023
-472.245	219.914	0.153	0.243
-471.230	-66.696	0.226	-0.089
-470.216	-126.140	-0.087	0.013
-469.201	232.849	0.092	0.151
-468.186	800.000	-0.076	-0.310
-467.172	165.371	0.041	0.057
-466.157	800.000	-0.077	-0.325
-465.143	93.832	0.165	-0.185
-464.128	-71.190	0.159	0.059
-463.113	-118.883	-0.134	0.023
-462.099	800.000	-0.045	-0.137
-461.084	-56.150	0.245	0.109
-460.070	-165.303	0.339	-0.015
-459.055	-14.127	-0.222	-0.143
-458.040	157.865	0.302	0.416
-457.026	-105.816	-0.179	0.040
-456.011	-21.976	-0.239	-0.144
-454.997	319.066	0.075	0.141
-453.982	110.937	0.111	0.132
-452.968	-61.106	0.218	0.091
-451.953	-135.680	0.043	-0.005
-450.938	-200.000	-0.021	0.220
-449.924	138.707	-0.179	-0.233
-448.909	800.000	-0.050	-0.194
-447.895	-85.765	0.134	0.041
-446.880	-94.789	-0.325	-0.088
-445.865	106.477	-0.161	0.189
-444.851	-53.312	0.139	-0.063
-443.836	-84.614	0.082	-0.026
-442.822	-75.214	0.036	0.013
-441.807	-121.527	0.382	0.063
-440.792	800.000	-0.117	0.325
-439.778	800.000	0.078	0.235
-438.763	83.846	-0.036	0.039
-437.749	-154.855	0.260	0.017
-436.734	476.102	0.052	-0.116
-435.719	-53.777	0.363	0.164
-434.705	133.927	0.156	-0.200
-433.690	-73.014	-0.112	0.041
-432.676	-104.548	0.059	0.014
-431.661	-200.000	-0.053	0.241
-430.646	8.060	0.223	-0.166
-429.632	229.399	0.069	-0.112
-428.617	-57.894	-0.336	0.146
-427.603	272.791	-0.211	-0.369
-426.588	-89.717	-0.189	0.055
-425.573	-200.000	0.010	-0.105
-424.559	188.370	0.103	0.153
-423.544	0.153	-0.167	0.118
-422.530	-85.339	-0.171	-0.053
-421.515	708.804	0.033	0.086
-420.500	-152.625	0.291	0.021
-419.486	-4.949	-0.378	0.258
-418.471	258.063	-0.129	0.221
-417.457	14.405	0.213	0.165
-416.442	78.149	-0.292	-0.308
-415.428	-16.526	0.191	-0.120
-414.413	538.072	-0.084	0.198
-413.398	84.772	-0.095	0.103
-412.384	-140.841	-0.084	-0.009
-411.369	-63.033	-0.121	0.050
-410.355	165.556	-0.077	-0.108
-409.340	-26.600	0.261	-0.151
-408.325	-141.059	-0.212	-0.022
-407.311	-200.000	-0.030	-0.230
-406.296	-69.785	-0.234	0.089
-405.282	800.000	0.111	-0.340
-404.267	-81.666	-0.072	-0.023
-403.252	-200.000	0.001	-0.134
-402.238	-127.235	-0.160	-0.023
-401.223	61.025	-0.191	0.188
-400.209	115.434	0.108	0.131
-399.194	-111.259	0.072	-0.015
-398.179	-13.637	0.205	-0.131
-397.165	255.165	-0.100	0.170
-396.150	-80.198	-0.156	0.052
-395.136	800.000	0.081	-0.310
-394.121	313.294	-0.039	0.072
-393.106	415.314	-0.093	0.197
-392.092	150.486	-0.183	-0.246
-391.077	-148.615	-0.375	-0.030
-390.063	-200.000	0.030	0.338
-389.048	-47.046	0.193	0.093
-388.033	-53.853	0.327	0.148
-387.019	-114.212	0.284	-0.054
-386.004	31.247	0.097	-0.082
-384.990	-39.994	0.157	-0.081
-383.975	-70.984	-0.132	-0.049
-382.960	-52.455	-0.225	0.103
-381.946	177.735	-0.102	-0.147
-380.931	17.528	-0.060	0.047
-379.917	-163.535	-0.290	0.014
-378.902	-200.000	-0.047	-0.209
-377.888	76.696	0.074	-0.077
-376.873	-200.000	-0.027	0.146
-375.858	800.000	-0.018	0.065
-374.844	-200.000	0.001	0.208
-373.829	67.037	0.116	0.117
-372.815	800.000	0.078	0.263
-371.800	-120.554	0.275	0.046
-370.785	-68.335	0.120	0.046
-369.771	-72.951	0.135	-0.049
-368.756	26.724	-0.136	0.113
-367.742	-77.500	-0.037	-0.013
-366.727	514.516	0.189	0.437
-365.712	-123.228	-0.290	0.046
-364.698	-105.098	0.194	-0.044
-363.683	47.124	0.113	0.104
-362.669	800.000	0.078	0.247
-361.654	800.000	0.044	-0.123
-360.639	-64.194	0.132	0.053
-359.625	-200.000	-0.001	-0.280
-358.610	110.899	0.213	-0.254
-357.596	-137.533	-0.238	-0.027
-356.581	-33.639	-0.077	-0.042
-355.566	-200.000	0.025	0.143
-354.552	122.898	-0.063	0.079
-353.537	-122.387	-0.335	0.054
-352.523	-200.000	-0.007	-0.312
-351.508	402.902	-0.086	-0.178
-350.493	-200.000	-0.033	0.145
-349.479	114.981	-0.134	-0.161
-348.464	-183.133	-0.314	-0.005
-347.450	436.190	0.029	0.062
-346.435	-200.000	-0.019	0.304
-345.420	299.567	0.222	0.404
-344.406	86.157	-0.043	0.047
-343.391	-29.181	0.227	-0.128
-342.377	-200.000	-0.023	-0.282
-341.362	-67.941	-0.209	0.081
-340.348	93.766	-0.271	0.304
-339.333	-11.912	0.149	0.097
-338.318	143.878	-0.055	-0.072
-337.304	-17.292	0.155	0.097
-336.289	107.328	-0.174	-0.205
-335.275	-200.000	0.019	0.157
-334.260	-41.766	0.317	0.161
-333.245	144.957	0.071	0.094
-332.231	313.931	-0.062	-0.116
-331.216	800.000	0.095	-0.295
-330.202	800.000	0.007	0.025
-329.187	-129.520	0.026	-0.004
-328.172	-46.325	0.213	-0.103
-327.158	44.765	0.095	-0.086
-326.143	13.136	-0.113	0.086
-325.129	-27.521	-0.060	0.034
-324.114	-11.957	-0.275	-0.178
-323.099	-119.116	0.174	-0.030
-322.085	124.581	0.157	-0.195
-321.070	167.426	-0.274	-0.384
-320.056	-16.425	0.037	0.023
-319.041	-27.835	0.144	0.082
-318.026	-200.000	-0.004	-0.236
-317.012	-200.000	0.343	0.001
-315.997	27.589	-0.151	0.126
-314.983	44.174	-0.146	-0.133
-313.968	-38.531	-0.131	0.068
-312.953	47.262	-0.116	0.107
-311.939	-13.076	0.098	-0.063
-310.924	-116.581	0.438	0.080
-309.910	-162.082	0.239	-0.012
-308.895	226.151	-0.184	0.295
-307.880	790.072	0.107	0.290
-306.866	-121.022	-0.122	0.020
-305.851	-139.125	-0.231	-0.025
-304.837	-200.000	0.025	0.468
-303.822	99.610	0.082	-0.094
-302.807	-200.000	-0.112	0.549
-301.793	102.397	-0.259	0.299
-300.778	-18.598	-0.192	-0.118
-299.764	84.525	-0.255	-0.276
-298.749	-43.088	0.157	0.079
-297.735	749.941	0.021	-0.057
-296.720	-78.636	-0.167	-0.056
-295.705	800.000	0.042	-0.179
-294.691	2.943	0.154	0.110
-293.676	144.133	0.041	-0.054
-292.662	-8.143	0.326	0.216
-291.647	96.355	-0.162	0.183
-290.632	-0.724	0.318	-0.222
-289.618	429.151	0.063	-0.133
-288.603	91.460	0.143	-0.159
-287.589	-34.765	-0.378	-0.204
-286.574	34.357	-0.075	-0.065
-285.559	-35.166	-0.229	0.123
-284.545	-89.947	-0.284	-0.082
-283.530	-140.768	0.157	-0.016
-282.516	73.592	0.120	-0.124
-281.501	-200.000	0.001	-0.012
-280.486	-200.000	0.020	-0.157
-279.472	-67.154	0.252	0.098
-278.457	71.830	-0.042	-0.043
-277.443	-200.000	0.015	-0.078
-276.428	740.611	-0.135	0.357
-275.413	800.000	0.039	0.136
-274.399	86.075	-0.172	-0.187
-273.384	-63.197	-0.290	0.118
-272.370	773.497	0.075	-0.202
-271.355	-44.329	0.074	0.037
-270.340	380.645	0.092	-0.185
-269.326	607.674	0.025	-0.062
-268.311	514.936	-0.100	0.230
-267.297	195.250	0.026	-0.038
-266.282	-200.000	-0.051	0.231
-265.267	167.468	0.065	-0.091
-264.253	406.006	0.065	-0.134
-263.238	718.244	-0.063	-0.166
-262.224	800.000	0.058	-0.189
-261.209	32.770	0.118	-0.101
-260.195	-49.641	0.115	-0.054
-259.180	181.205	0.142	0.205
-258.165	374.633	0.156	0.313
-257.151	15.168	-0.250	0.193
-256.136	207.347	-0.197	0.303
-255.122	473.064	-0.058	-0.128
-254.107	-75.088	0.007	0.002
-253.092	32.175	-0.286	0.243
-252.078	-116.806	-0.314	0.057
-251.063	-200.000	-0.009	0.253
-250.049	-13.426	-0.199	0.127
-249.034	-78.925	-0.216	-0.073
-248.019	-83.985	0.313	0.098
-247.005	168.272	0.325	0.456
-245.990	35.435	-0.030	-0.026
-244.976	-49.108	-0.110	-0.052
-243.961	-112.673	0.202	0.040
-242.946	-90.785	0.075	0.021
-241.932	211.536	0.128	0.198
-240.917	-93.638	-0.317	0.086
-239.903	124.520	-0.067	-0.083
-238.888	-200.000	-0.009	-0.065
-237.873	-60.431	-0.273	-0.114
-236.859	13.914	0.075	-0.057
-235.844	-67.651	0.190	-0.073
-234.830	3.624	-0.311	0.223
-233.815	800.000	-0.081	0.318
-232.800	-78.989	0.093	0.031
-231.786	-200.000	0.057	-0.345
-230.771	-42.973	-0.012	0.006
-229.757	-23.065	0.119	0.070
-228.742	27.245	0.067	-0.055
-227.727	-3.810	-0.275	0.188
-226.713	800.000	-0.086	-0.360
-225.698	-200.000	-0.014	-0.082
-224.684	-69.480	0.202	-0.076
-223.669	-200.000	0.003	0.064
-222.655	283.607	0.035	-0.061
-221.640	-110.589	0.381	0.078
-220.625	-200.000	-0.042	0.497
-219.611	-56.024	-0.143	0.063
-218.596	-73.039	0.153	0.055
-217.582	-3.992	0.165	-0.113
-216.567	-77.362	-0.336	-0.115
-215.552	800.000	0.098	0.369
-214.538	21.712	0.163	0.131
-213.523	419.955	-0.121	0.255
-212.509	800.000	-0.066	-0.237
-211.494	559.168	0.080	0.191
-210.479	-88.147	0.149	-0.044
-209.465	-4.797	0.117	0.079
-208.450	-83.208	-0.173	0.055
-207.436	4.432	0.125	0.090
-206.421	-197.345	-0.311	0.002
-205.406	302.352	-0.273	-0.497
-204.392	80.591	0.097	0.103
-203.377	-200.000	0.012	-0.108
-202.363	-200.000	0.013	0.239
-201.348	43.155	0.041	0.037
-200.333	-117.489	-0.104	0.019
-199.319	-184.141	0.101	-0.002
-198.304	31.043	-0.371	-0.313
-197.290	-11.445	0.148	0.096
-196.275	-148.004	0.338	-0.028
-195.260	-143.336	-0.294	-0.028
-194.246	-200.000	0.010	0.255
-193.231	-200.000	0.011	-0.259
-192.217	-30.811	-0.084	-0.047
-191.202	267.825	-0.133	-0.228
-190.187	-119.639	-0.346	0.059
-189.173	-30.027	0.053	-0.029
-188.158	-63.802	-0.270	-0.109
-187.144	334.474	-0.177	-0.336
-186.129	507.499	0.097	-0.221
-185.114	266.526	-0.074	0.128
-184.100	-200.000	-0.007	0.183
-183.085	106.154	-0.122	-0.143
-182.071	-71.240	0.252	-0.093
-181.056	53.995	0.217	0.205
-180.042	-159.704	-0.273	-0.015
-179.027	-200.000	-0.059	-0.256
-178.012	-10.996	0.048	-0.031
-176.998	-25.815	-0.056	0.033
-175.983	373.882	0.152	0.305
-174.969	311.579	0.164	-0.301
-173.954	800.000	0.026	-0.082
-172.939	-48.385	0.125	0.059
-171.925	659.064	0.022	-0.056
-170.910	-20.087	0.179	0.109
-169.896	626.483	-0.014	-0.035
-168.881	800.000	-0.048	-0.145
-167.866	-200.000	0.007	-0.116
-166.852	-61.754	-0.145	-0.059
-165.837	-165.374	-0.103	0.004
-164.823	-200.000	-0.025	-0.236
-163.808	-200.000	-0.003	0.364
-162.793	235.066	-0.105	0.171
-161.779	-20.468	-0.220	-0.133
-160.764	-200.000	0.034	-0.352
-159.750	-54.138	0.385	-0.172
-158.735	-127.279	0.122	-0.018
-157.720	110.252	-0.211	-0.249
-156.706	-159.304	-0.302	-0.017
-155.691	121.697	0.136	0.167
-154.677	239.901	0.047	-0.077
-153.662	-200.000	-0.057	0.272
-152.647	800.000	0.085	0.295
-151.633	800.000	0.092	0.291
-150.618	800.000	0.055	0.221
-149.604	55.646	0.180	-0.171
-148.589	800.000	0.056	-0.197
-147.574	-200.000	0.006	0.218
-146.560	84.803	0.071	0.076
-145.545	800.000	0.039	0.118
-144.531	31.057	-0.177	0.149
-143.516	-44.035	0.156	0.077
-142.502	-25.835	0.102	0.059
-141.487	77.240	0.276	0.288
-140.472	0.686	0.115	-0.081
-139.458	-200.000	-0.021	-0.123
-138.443	-109.638	0.278	0.057
-137.429	800.000	0.067	0.202
-136.414	-200.000	-0.036	0.247
-135.399	46.434	-0.245	-0.222
-134.385	-103.807	0.121	0.028
-133.370	37.423	0.115	0.100
-132.356	-84.988	0.413	-0.127
-131.341	-174.516	-0.196	-0.005
-130.326	800.000	-0.068	0.254
-129.312	-179.385	0.151	-0.003
-128.297	-13.868	0.175	0.111
-127.283	-200.000	-0.114	0.506
-126.268	-200.000	0.015	0.271
-125.253	170.676	0.117	0.164
-124.239	131.704	0.071	0.089
-123.224	-130.987	-0.334	-0.044
-122.210	800.000	0.024	-0.103
-121.195	738.985	0.139	0.366
-120.180	-77.735	0.072	-0.024
