DTS Sentinel unit serial number:	SN413079Multiplexer serial number:	ORYXHardware model number:	OX4-SRSoftware version number:	ORYX F/W v4.00 Oryx Data Collector v3.7.2.0data status	okinstallation	princeton_trtdifferential loss correction	single-endedforward channel	channel 2reverse channel	N/Adate	2019/09/17time	01:23:35forward acquisition time	60.00reverse acquisition time	0.00gamma	496.2192k internal	0.2328k external	0.2328temperature offset calibration	0.9974default loss term (dB/km)	0.3790temperature slope calibration	1.0000multiplexer offset coefficient	1.0000multiplexer slope coefficient	1.0000fibre end	0.00T internal ref (°C)	29.50T ext. ref 1 (°C)	0.12T ext. ref 2 (°C)	24.25length (m)	temperature (°C)	Stokes	anti-Stokes-747.200	800.000	0.073	0.276
-746.185	-38.530	0.203	0.108
-745.171	151.831	-0.084	0.116
-744.156	-41.687	0.078	0.040
-743.142	-91.440	-0.341	-0.098
-742.127	609.824	-0.144	0.362
-741.112	143.550	0.109	0.147
-740.098	74.776	-0.140	0.148
-739.083	-200.000	-0.003	-0.111
-738.069	-21.252	-0.328	-0.202
-737.054	-12.352	-0.054	-0.036
-736.039	17.385	-0.383	-0.306
-735.025	585.859	-0.082	-0.203
-734.010	-159.839	-0.456	0.025
-732.996	-161.892	-0.431	-0.022
-731.981	382.434	0.167	-0.345
-730.966	259.112	-0.034	-0.059
-729.952	-200.000	0.019	0.087
-728.937	800.000	-0.029	0.114
-727.923	188.607	-0.104	-0.156
-726.908	-200.000	0.002	0.130
-725.894	226.015	0.130	0.213
-724.879	-35.065	0.278	0.153
-723.864	94.484	-0.122	-0.140
-722.850	-41.363	-0.320	-0.166
-721.835	-200.000	0.011	-0.258
-720.821	76.830	0.103	-0.110
-719.806	-73.058	-0.302	0.112
-718.791	-56.437	0.317	0.141
-717.777	43.443	0.231	0.212
-716.762	-21.446	0.111	0.068
-715.748	192.671	-0.142	-0.215
-714.733	-73.739	0.164	-0.060
-713.718	800.000	-0.134	0.396
-712.704	-128.117	0.216	-0.031
-711.689	9.629	0.149	-0.113
-710.675	63.769	-0.513	-0.518
-709.660	95.923	0.231	-0.265
-708.645	259.935	0.150	0.260
-707.631	800.000	0.032	-0.099
-706.616	-200.000	-0.003	-0.192
-705.602	-200.000	0.023	-0.139
-704.587	-15.775	0.214	-0.137
-703.572	232.787	0.155	0.256
-702.558	-200.000	0.036	-0.311
-701.543	-61.366	0.101	0.043
-700.529	800.000	-0.067	-0.260
-699.514	378.507	0.055	0.112
-698.499	-200.000	-0.045	-0.295
-697.485	-200.000	0.031	-0.283
-696.470	-83.428	0.210	-0.068
-695.456	525.696	-0.063	-0.150
-694.441	-200.000	0.025	0.144
-693.426	800.000	-0.050	-0.202
-692.412	-116.652	0.401	-0.074
-691.397	45.247	-0.066	-0.062
-690.383	-82.423	-0.094	-0.031
-689.368	-39.632	0.327	0.172
-688.354	417.100	-0.069	-0.149
-687.339	-10.185	-0.337	0.225
-686.324	74.992	-0.339	-0.359
-685.310	-119.331	-0.226	0.040
-684.295	-118.809	0.228	0.040
-683.281	480.472	-0.037	0.084
-682.266	38.946	-0.091	0.082
-681.251	231.305	-0.093	-0.154
-680.237	-61.885	-0.026	0.011
-679.222	641.750	0.136	0.349
-678.208	-200.000	0.011	0.239
-677.193	-182.749	-0.235	0.004
-676.178	-88.765	0.085	-0.025
-675.164	-108.927	-0.168	-0.036
-674.149	-74.041	0.072	-0.026
-673.135	296.473	0.026	0.048
-672.120	-184.355	-0.250	0.004
-671.105	-11.495	0.405	0.268
-670.091	134.387	-0.070	-0.091
-669.076	-200.000	-0.006	-0.124
-668.062	60.097	0.273	0.271
-667.047	139.129	0.030	0.039
-666.032	-155.044	-0.219	-0.014
-665.018	211.221	-0.062	0.098
-664.003	293.471	-0.071	-0.130
-662.989	50.745	0.145	-0.138
-661.974	-200.000	0.038	-0.279
-660.959	-128.868	0.226	-0.032
-659.945	154.705	0.044	-0.061
-658.930	800.000	-0.046	0.135
-657.916	49.750	-0.108	-0.103
-656.901	-200.000	0.032	0.518
-655.886	-200.000	0.029	0.136
-654.872	-2.964	0.107	-0.075
-653.857	800.000	-0.116	0.321
-652.843	-2.317	-0.424	-0.298
-651.828	-92.916	-0.201	-0.056
-650.814	174.130	-0.066	-0.096
-649.799	23.376	-0.038	-0.032
-648.784	-81.582	-0.518	-0.171
-647.770	352.088	0.214	-0.425
-646.755	-200.000	0.033	-0.181
-645.741	-200.000	0.021	0.268
-644.726	-79.937	0.271	0.091
-643.711	281.183	0.223	-0.400
-642.697	800.000	-0.068	-0.261
-641.682	-182.019	0.338	-0.006
-640.668	-14.663	0.233	-0.150
-639.653	-52.424	0.187	-0.087
-638.638	-12.063	-0.105	-0.069
-637.624	138.571	-0.133	-0.175
-636.609	187.849	-0.093	-0.139
-635.595	-200.000	-0.016	-0.181
-634.580	246.844	-0.058	-0.098
-633.565	-137.397	-0.094	0.011
-632.551	508.029	0.086	-0.200
-631.536	-51.009	-0.155	-0.073
-630.522	-165.063	-0.074	-0.003
-629.507	800.000	0.075	0.270
-628.492	-200.000	0.003	-0.066
-627.478	206.861	-0.025	-0.039
-626.463	284.254	-0.017	0.030
-625.449	5.436	0.177	0.131
-624.434	800.000	0.109	-0.448
-623.419	-200.000	-0.013	0.454
-622.405	318.897	-0.206	-0.392
-621.390	164.971	-0.112	-0.159
-620.376	-87.278	-0.217	-0.066
-619.361	172.951	-0.163	-0.235
-618.346	-148.063	-0.349	0.029
-617.332	-200.000	0.157	0.001
-616.317	120.791	-0.249	0.310
-615.303	-81.990	0.350	0.115
-614.288	-108.372	0.275	-0.059
-613.273	182.102	0.103	0.153
-612.259	-145.716	0.218	-0.019
-611.244	253.703	-0.019	0.032
-610.230	214.313	0.040	0.064
-609.215	303.435	-0.005	0.010
-608.201	-33.861	-0.135	0.074
-607.186	-130.397	-0.317	0.043
-606.171	-200.000	-0.007	-0.134
-605.157	-200.000	0.009	-0.122
-604.142	345.146	-0.171	0.336
-603.128	-200.000	0.017	-0.245
-602.113	-74.324	-0.214	0.077
-601.098	337.328	0.097	0.190
-600.084	-62.803	-0.156	0.065
-599.069	36.088	-0.144	0.127
-598.055	185.181	0.090	0.134
-597.040	-200.000	0.036	0.157
-596.025	-23.579	0.103	-0.062
-595.011	-77.043	0.226	-0.079
-593.996	-200.000	-0.002	-0.308
-592.982	60.231	0.364	0.361
-591.967	-72.840	-0.174	0.064
-590.952	103.155	-0.162	0.191
-589.938	86.209	-0.173	-0.191
-588.923	340.888	0.012	0.023
-587.909	223.862	0.085	0.138
-586.894	-105.511	-0.186	0.042
-585.879	-200.000	-0.074	0.377
-584.865	289.219	0.060	0.109
-583.850	-28.730	-0.181	0.104
-582.836	-200.000	0.012	-0.075
-581.821	-200.000	-0.025	-0.215
-580.806	-119.781	-0.142	-0.025
-579.792	-72.773	0.102	-0.037
-578.777	115.251	-0.227	-0.278
-577.763	323.967	0.148	-0.283
-576.748	401.405	0.040	0.084
-575.733	800.000	0.099	0.281
-574.719	-113.740	-0.133	-0.026
-573.704	302.758	0.087	-0.161
-572.690	-200.000	0.002	-0.065
-571.675	-142.470	-0.361	-0.036
-570.661	17.918	0.164	-0.130
-569.646	17.425	-0.187	-0.149
-568.631	-127.614	0.334	0.048
-567.617	-165.716	0.106	0.005
-566.602	-186.557	-0.023	-0.000
-565.588	371.479	-0.061	-0.125
-564.573	-162.829	0.271	-0.013
-563.558	23.042	0.124	0.102
-562.544	-179.604	-0.189	0.004
-561.529	-84.844	-0.222	-0.070
-560.515	38.740	-0.083	0.074
-559.500	-200.000	-0.021	-0.164
-558.485	-200.000	0.041	-0.501
-557.471	-116.022	0.517	0.096
-556.456	-172.014	-0.257	-0.008
-555.442	-182.960	0.197	0.004
-554.427	-200.000	-0.037	-0.228
-553.412	-84.614	-0.148	-0.047
-552.398	-90.590	-0.005	-0.002
-551.383	326.433	-0.116	-0.223
-550.369	-200.000	-0.121	-0.585
-549.354	238.597	0.127	-0.211
-548.339	681.087	-0.178	0.464
-547.325	800.000	0.070	0.208
-546.310	140.632	-0.137	0.181
-545.296	290.865	-0.057	0.103
-544.281	5.087	0.182	0.134
-543.266	62.494	-0.244	0.244
-542.252	800.000	0.052	-0.220
-541.237	377.738	0.071	-0.145
-540.223	142.296	0.269	-0.357
-539.208	1.267	-0.265	-0.190
-538.193	-200.000	0.048	-0.237
-537.179	90.733	-0.060	-0.067
-536.164	20.785	0.056	-0.045
-535.150	-69.687	0.119	0.045
-534.135	258.000	0.094	0.162
-533.121	-93.912	-0.243	-0.067
-532.106	-43.090	0.102	0.051
-531.091	-89.735	-0.078	0.023
-530.077	-51.891	0.150	0.070
-529.062	-200.000	-0.002	0.042
-528.048	109.785	-0.377	-0.451
-527.033	31.702	0.162	0.139
-526.018	-133.563	-0.372	-0.046
-525.004	75.305	-0.252	-0.266
-523.989	-6.284	-0.193	-0.131
-522.975	-200.000	-0.012	0.145
-521.960	-200.000	-0.043	-0.334
-520.945	678.382	0.191	-0.496
-519.931	-10.201	-0.117	0.078
-518.916	262.461	0.135	-0.233
-517.902	-200.000	-0.036	0.314
-516.887	64.925	-0.335	0.338
-515.872	432.281	-0.058	0.126
-514.858	1.003	0.135	0.097
-513.843	-38.202	-0.245	0.130
-512.829	464.208	-0.066	-0.146
-511.814	324.865	-0.190	-0.363
-510.799	494.280	-0.036	0.083
-509.785	340.893	0.050	-0.098
-508.770	146.570	-0.208	0.279
-507.756	-200.000	0.038	0.198
-506.741	-71.099	-0.345	-0.129
-505.726	431.735	-0.091	0.196
-504.712	467.423	0.051	0.115
-503.697	-129.196	0.064	-0.009
-502.683	-41.867	-0.175	0.090
-501.668	291.544	-0.081	-0.148
-500.653	-128.956	0.059	0.008
-499.639	76.250	0.007	-0.007
-498.624	800.000	0.064	-0.278
-497.610	-200.000	-0.017	0.245
-496.595	49.294	0.121	0.114
-495.581	612.779	0.065	0.163
-494.566	46.989	-0.175	0.163
-493.551	-123.828	-0.133	-0.021
-492.537	685.595	-0.019	-0.050
-491.522	-83.178	-0.147	0.047
-490.508	305.954	0.106	-0.197
-489.493	800.000	0.036	-0.133
-488.478	800.000	-0.061	-0.199
-487.464	39.955	0.099	-0.089
-486.449	-38.927	-0.438	0.230
-485.435	-200.000	-0.032	0.428
-484.420	-98.803	-0.100	0.025
-483.405	75.122	-0.091	0.095
-482.391	78.657	0.126	0.135
-481.376	111.804	-0.090	0.109
-480.362	472.247	-0.113	0.254
-479.347	429.906	0.138	-0.297
-478.332	-127.923	-0.101	0.015
-477.318	69.302	0.093	0.095
-476.303	-53.974	0.130	0.059
-475.289	-92.937	0.331	-0.092
-474.274	278.535	-0.050	-0.088
-473.259	349.919	0.173	-0.340
-472.245	-43.802	-0.178	0.089
-471.230	-180.227	0.080	-0.002
-470.216	15.879	0.120	0.094
-469.201	27.759	-0.238	0.200
-468.186	-200.000	-0.056	-0.423
-467.172	-72.498	0.365	-0.135
-466.157	436.835	0.158	-0.343
-465.143	-131.904	0.300	-0.039
-464.128	150.524	-0.120	-0.163
-463.113	-152.041	-0.245	0.018
-462.099	176.288	-0.259	0.375
-461.084	-60.072	0.105	-0.045
-460.070	9.679	0.212	0.160
-459.055	137.448	0.084	0.110
-458.040	45.997	0.051	-0.047
-457.026	149.973	-0.238	-0.321
-456.011	-200.000	0.002	0.032
-454.997	-200.000	0.010	-0.063
-453.982	-144.421	0.057	-0.005
-452.968	800.000	-0.043	0.161
-451.953	-63.273	-0.104	0.043
-450.938	-200.000	0.102	0.524
-449.924	537.819	0.117	-0.277
-448.909	195.655	-0.074	0.112
-447.895	267.830	-0.146	-0.255
-446.880	50.558	-0.192	0.181
-445.865	29.889	0.286	0.243
-444.851	-96.387	-0.129	-0.034
-443.836	-200.000	-0.009	-0.065
-442.822	151.647	0.132	-0.179
-441.807	-83.248	-0.116	0.037
-440.792	-80.719	0.114	0.038
-439.778	-200.000	-0.094	0.550
-438.763	-200.000	-0.039	-0.254
-437.749	170.631	-0.179	0.256
-436.734	163.209	-0.179	-0.251
-435.719	-0.389	0.202	0.143
-434.705	263.794	-0.088	-0.152
-433.690	-79.085	-0.147	0.050
-432.676	-122.621	-0.047	-0.008
-431.661	-93.173	0.124	0.034
-430.646	-76.087	0.361	-0.127
-429.632	277.916	0.076	-0.135
-428.617	-200.000	0.062	0.355
-427.603	30.514	0.060	0.051
-426.588	35.764	-0.189	-0.165
-425.573	-11.412	-0.335	-0.220
-424.559	73.443	0.024	-0.025
-423.544	-49.261	-0.283	0.134
-422.530	-200.000	-0.016	-0.135
-421.515	52.821	0.166	0.158
-420.500	494.448	-0.144	0.328
-419.486	616.205	0.159	0.397
-418.471	-200.000	-0.034	-0.257
-417.457	20.385	0.221	0.177
-416.442	-58.133	0.293	0.127
-415.428	16.354	0.105	-0.082
-414.413	-142.473	-0.199	-0.019
-413.398	-155.571	-0.183	0.012
-412.384	-7.939	0.063	-0.042
-411.369	-41.662	0.057	0.029
-410.355	86.505	-0.181	-0.199
-409.340	46.485	0.229	0.211
-408.325	57.708	-0.093	-0.090
-407.311	440.866	0.147	0.319
-406.296	-96.715	-0.187	0.049
-405.282	-112.057	0.281	0.056
-404.267	-28.724	-0.178	0.102
-403.252	73.442	-0.043	0.045
-402.238	-96.637	0.107	0.028
-401.223	800.000	-0.118	0.408
-400.209	-34.556	-0.323	0.176
-399.194	-200.000	-0.024	-0.227
-398.179	32.677	-0.090	-0.078
-397.165	61.191	0.064	0.063
-396.150	-73.171	-0.023	-0.008
-395.136	-28.927	0.147	0.084
-394.121	-200.000	-0.012	0.289
-393.106	-200.000	-0.003	-0.352
-392.092	17.846	-0.139	-0.110
-391.077	-86.958	0.058	-0.018
-390.063	116.578	0.096	0.118
-389.048	98.264	0.141	0.162
-388.033	-200.000	0.031	0.207
-387.019	294.577	-0.124	0.225
-386.004	-112.031	0.148	-0.030
-384.990	800.000	-0.037	-0.124
-383.975	-55.024	-0.264	-0.118
-382.960	686.710	0.015	-0.039
-381.946	-200.000	0.038	0.398
-380.931	-200.000	0.015	0.199
-379.917	190.445	0.071	-0.106
-378.902	120.130	0.148	-0.182
-377.888	377.301	0.051	-0.103
-376.873	800.000	0.120	0.523
-375.858	-78.412	0.102	0.035
-374.844	60.751	-0.150	-0.147
-373.829	-200.000	-0.026	0.256
-372.815	633.363	0.085	-0.215
-371.800	-200.000	0.021	0.292
-370.785	66.547	-0.198	0.200
-369.771	-22.757	0.224	-0.134
-368.756	-75.513	0.070	0.025
-367.742	-133.978	-0.043	-0.005
-366.727	-60.571	0.214	-0.090
-365.712	23.545	0.079	-0.064
-364.698	-200.000	0.020	0.210
-363.683	5.705	0.117	0.086
-362.669	-200.000	0.035	0.214
-361.654	-14.141	-0.348	-0.223
-360.639	402.687	-0.093	-0.194
-359.625	-200.000	0.013	0.071
-358.610	-200.000	0.050	-0.249
-357.596	800.000	0.050	-0.196
-356.581	-60.521	-0.216	-0.091
-355.566	800.000	0.014	-0.060
-354.552	284.863	-0.035	0.063
-353.537	283.195	-0.081	0.145
-352.523	-112.137	-0.110	0.022
-351.508	562.544	-0.153	0.366
-350.493	-95.099	-0.237	-0.064
-349.479	800.000	-0.026	-0.084
-348.464	650.872	0.025	-0.063
-347.450	43.102	0.149	0.134
-346.435	-69.636	0.137	0.052
-345.420	79.697	0.217	0.231
-344.406	207.787	0.024	0.038
-343.391	187.793	0.095	0.141
-342.377	85.478	0.150	0.164
-341.362	-102.515	-0.207	0.049
-340.348	130.504	-0.158	-0.201
-339.333	-200.000	0.004	0.137
-338.318	-132.639	0.224	0.028
-337.304	-11.391	0.175	-0.114
-336.289	-68.858	0.149	0.057
-335.275	-11.887	0.175	0.114
-334.260	-200.000	0.011	-0.053
-333.245	-42.537	0.227	0.115
-332.231	109.842	0.197	-0.234
-331.216	116.271	-0.164	-0.199
-330.202	-138.059	0.568	0.063
-329.187	486.096	-0.082	0.186
-328.172	-67.572	0.130	0.050
-327.158	-94.456	-0.138	0.037
-326.143	-55.897	0.470	-0.208
-325.129	111.055	-0.131	0.156
-324.114	202.970	-0.038	-0.057
-323.099	-132.752	-0.072	0.009
-322.085	-4.347	0.094	0.065
-321.070	164.981	0.048	0.067
-320.056	541.959	-0.132	0.313
-319.041	800.000	0.041	0.145
-318.026	-102.208	-0.151	0.036
-317.012	-96.222	-0.454	0.119
-315.997	-18.836	-0.243	-0.150
-314.983	-200.000	0.009	-0.284
-313.968	223.170	-0.130	-0.208
-312.953	-175.528	0.211	-0.006
-311.939	519.927	-0.113	-0.263
-310.924	-200.000	0.010	0.129
-309.910	800.000	-0.031	0.115
-308.895	800.000	0.021	0.081
-307.880	263.406	0.114	0.197
-306.866	800.000	0.047	0.164
-305.851	119.785	-0.184	-0.225
-304.837	-15.027	0.526	-0.334
-303.822	-89.319	-0.158	0.046
-302.807	-42.147	-0.071	0.036
-301.793	-200.000	0.009	-0.361
-300.778	800.000	-0.070	-0.273
-299.764	173.067	0.229	-0.326
-298.749	-82.556	-0.158	0.051
-297.735	-200.000	-0.037	-0.262
-296.720	54.019	-0.039	0.037
-295.705	39.959	0.201	-0.179
-294.691	94.429	-0.183	0.205
-293.676	85.853	-0.265	0.289
-292.662	4.933	-0.110	0.080
-291.647	-151.949	-0.128	-0.009
-290.632	-200.000	-0.005	-0.173
-289.618	-200.000	-0.004	0.025
-288.603	-51.264	0.156	0.072
-287.589	-200.000	0.033	0.204
-286.574	215.138	-0.146	0.230
-285.559	-10.226	-0.204	0.134
-284.545	220.600	-0.139	0.220
-283.530	-31.024	0.205	0.114
-282.516	374.869	0.281	0.566
-281.501	24.966	0.128	0.105
-280.486	-200.000	-0.017	0.193
-279.472	-200.000	-0.006	0.143
-278.457	-170.752	-0.219	-0.007
-277.443	411.218	0.170	-0.357
-276.428	132.533	0.148	-0.189
-275.413	-0.983	-0.143	0.100
-274.399	402.915	-0.100	-0.209
-273.384	-66.944	-0.304	-0.119
-272.370	-41.711	-0.340	0.173
-271.355	-47.640	-0.261	-0.125
-270.340	-70.995	0.276	-0.103
-269.326	-200.000	0.017	0.187
-268.311	544.743	0.179	0.422
-267.297	473.843	-0.031	-0.068
-266.282	233.094	-0.071	0.116
-265.267	-39.815	0.077	-0.040
-264.253	-200.000	0.006	-0.213
-263.238	-71.583	0.228	-0.084
-262.224	34.375	0.188	-0.162
-261.209	-5.857	0.346	0.234
-260.195	-12.078	-0.223	0.145
-259.180	-200.000	-0.068	-0.339
-258.165	-13.274	-0.041	0.026
-257.151	-12.005	-0.306	-0.198
-256.136	-200.000	0.006	-0.313
-255.122	509.721	0.086	-0.198
-254.107	43.766	0.094	-0.085
-253.092	-33.792	-0.074	0.040
-252.078	-5.648	-0.063	-0.043
-251.063	50.819	-0.225	-0.210
-250.049	-39.756	0.142	-0.074
-249.034	74.825	0.149	0.155
-248.019	-64.439	0.119	-0.048
-247.005	29.971	0.211	0.178
-245.990	800.000	0.093	-0.326
-244.976	166.940	0.138	0.193
-243.961	583.324	0.059	-0.144
-242.946	-198.359	0.202	0.001
-241.932	-154.977	0.118	0.008
-240.917	-200.000	0.003	-0.095
-239.903	418.522	-0.114	-0.241
-238.888	-95.479	-0.264	0.070
-237.873	800.000	0.142	0.482
-236.859	-132.528	0.073	0.009
-235.844	450.813	0.103	-0.224
-234.830	249.697	0.142	-0.238
-233.815	-200.000	-0.002	0.196
-232.800	-56.145	0.156	0.069
-231.786	-200.000	0.003	0.070
-230.771	-200.000	0.032	0.316
-229.757	-142.434	-0.063	-0.006
-228.742	-36.933	-0.082	-0.044
-227.727	241.661	0.083	0.138
-226.713	800.000	-0.083	0.271
-225.698	705.260	-0.115	0.298
-224.684	-8.497	-0.107	-0.071
-223.669	-200.000	0.034	0.201
-222.655	744.011	0.095	-0.251
-221.640	-108.199	0.534	0.114
-220.625	-200.000	-0.006	-0.151
-219.611	3.494	-0.141	-0.102
-218.596	-191.921	0.259	0.002
-217.582	298.331	0.062	0.113
-216.567	-134.660	0.047	0.006
-215.552	-200.000	0.028	-0.179
-214.538	214.857	-0.256	0.401
-213.523	-200.000	0.044	-0.247
-212.509	-69.397	-0.105	0.040
-211.494	741.143	0.054	-0.143
-210.479	377.500	-0.010	0.020
-209.465	75.784	-0.122	0.128
-208.450	-59.670	0.129	-0.055
-207.436	-200.000	0.024	-0.270
-206.421	60.518	-0.146	-0.143
-205.406	692.018	-0.115	-0.296
-204.392	-200.000	0.018	-0.230
-203.377	-200.000	-0.028	-0.162
-202.363	-200.000	0.011	0.186
-201.348	-26.852	-0.332	-0.192
-200.333	187.750	-0.196	0.288
-199.319	-56.353	0.366	0.160
-198.304	-163.626	-0.219	0.010
-197.290	167.171	-0.150	-0.210
-196.275	-79.688	0.102	0.034
-195.260	4.078	-0.265	0.191
-194.246	-109.047	-0.216	-0.045
-193.231	800.000	0.031	-0.095
-192.217	-200.000	0.011	-0.166
-191.202	-149.047	-0.110	0.009
-190.187	-96.411	0.114	0.030
-189.173	70.554	0.178	-0.181
-188.158	121.450	0.150	-0.184
-187.144	59.677	0.189	0.184
-186.129	-200.000	0.027	0.155
-185.114	505.963	-0.163	-0.372
-184.100	-138.824	0.295	-0.032
-183.085	-21.976	0.161	-0.097
-182.071	-200.000	-0.005	-0.040
-181.056	-200.000	0.021	0.193
-180.042	-24.972	-0.208	0.122
-179.027	-200.000	-0.027	-0.206
-178.012	-17.856	-0.086	-0.053
-176.998	-73.080	-0.168	0.061
-175.983	-141.043	0.378	0.038
-174.969	-131.104	0.440	-0.058
-173.954	-88.919	0.375	-0.109
-172.939	-200.000	-0.041	0.186
-171.925	161.144	0.146	0.201
-170.910	98.923	-0.022	-0.026
-169.896	317.587	0.137	0.255
-168.881	-128.296	0.199	-0.028
-167.866	-131.201	-0.152	0.020
-166.852	362.638	-0.100	0.198
-165.837	-200.000	0.005	-0.209
-164.823	-12.937	0.087	0.056
-163.808	136.213	0.324	0.416
-162.793	45.259	0.183	0.166
-161.779	-147.629	0.098	0.008
-160.764	-156.532	-0.396	-0.024
-159.750	-45.056	-0.062	-0.030
-158.735	-10.197	-0.163	0.107
-157.720	-147.852	-0.089	-0.007
-156.706	498.843	0.114	-0.258
-155.691	-191.203	0.136	-0.001
-154.677	-93.207	0.192	-0.052
-153.662	-71.207	0.253	-0.094
-152.647	67.629	-0.357	-0.359
-151.633	160.156	0.266	0.365
-150.618	-70.498	0.057	-0.021
-149.604	-129.595	-0.135	0.018
-148.589	43.340	0.237	0.213
-147.574	-67.273	0.552	0.214
-146.560	-200.000	-0.031	0.221
-145.545	120.610	0.340	0.416
-144.531	28.547	-0.353	-0.294
-143.516	-200.000	0.032	0.000
-142.502	-200.000	-0.013	0.164
-141.487	-110.320	0.088	-0.018
-140.472	15.194	-0.241	0.186
-139.458	-40.540	-0.109	0.055
-138.443	98.601	0.284	0.323
-137.429	-79.445	0.198	-0.066
-136.414	-55.934	-0.400	0.176
-135.399	-43.989	-0.058	0.029
-134.385	116.422	0.089	0.107
-133.370	-30.756	-0.069	-0.038
-132.356	-200.000	-0.035	0.238
-131.341	-52.575	-0.126	0.057
-130.326	-200.000	0.087	0.398
-129.312	800.000	0.074	0.209
-128.297	-61.053	-0.187	-0.078
-127.283	-121.857	-0.029	0.005
-126.268	800.000	-0.044	0.159
-125.253	160.072	0.026	0.035
-124.239	-200.000	-0.037	0.204
-123.224	-200.000	-0.000	-0.197
-122.210	586.828	-0.161	-0.391
-121.195	-29.664	0.195	0.110
