DTS Sentinel unit serial number:	SN413079Multiplexer serial number:	ORYXHardware model number:	OX4-SRSoftware version number:	ORYX F/W v4.00 Oryx Data Collector v3.7.2.0data status	okinstallation	princeton_trtdifferential loss correction	single-endedforward channel	channel 2reverse channel	N/Adate	2019/09/17time	19:19:34forward acquisition time	60.00reverse acquisition time	0.00gamma	496.2192k internal	0.2318k external	0.2318temperature offset calibration	0.9988default loss term (dB/km)	0.3790temperature slope calibration	1.0000multiplexer offset coefficient	1.0000multiplexer slope coefficient	1.0000fibre end	0.00T internal ref (°C)	38.08T ext. ref 1 (°C)	0.25T ext. ref 2 (°C)	26.31length (m)	temperature (°C)	Stokes	anti-Stokes-747.200	-17.647	0.454	0.289
-746.185	800.000	0.128	0.385
-745.171	-2.138	0.255	0.181
-744.156	800.000	0.046	-0.144
-743.142	-12.615	-0.144	-0.095
-742.127	201.229	-0.042	0.065
-741.112	102.126	0.200	-0.237
-740.098	-84.980	-0.046	0.015
-739.083	402.402	0.046	0.097
-738.069	800.000	0.138	0.400
-737.054	800.000	-0.097	0.329
-736.039	-178.388	-0.306	0.007
-735.025	-45.752	0.305	-0.153
-734.010	129.781	-0.057	-0.074
-732.996	122.728	0.178	-0.225
-731.981	-200.000	-0.011	-0.209
-730.966	-94.934	-0.230	0.063
-729.952	800.000	-0.061	-0.212
-728.937	-200.000	-0.006	0.303
-727.923	-95.363	0.155	0.042
-726.908	369.722	0.134	-0.274
-725.894	33.709	0.075	-0.066
-724.879	269.220	0.079	-0.140
-723.864	-101.789	0.076	0.018
-722.850	-10.836	0.122	-0.082
-721.835	-157.039	0.064	0.004
-720.821	-107.238	-0.433	0.096
-719.806	251.579	-0.043	0.074
-718.791	-126.059	-0.249	0.038
-717.777	-136.326	0.049	0.006
-716.762	66.244	-0.259	-0.266
-715.748	-111.577	-0.097	-0.020
-714.733	-200.000	-0.000	-0.250
-713.718	108.675	0.117	0.141
-712.704	800.000	0.068	0.244
-711.689	-178.633	0.034	-0.001
-710.675	280.321	0.111	0.200
-709.660	-73.302	0.179	0.066
-708.645	-200.000	0.008	-0.046
-707.631	464.025	0.131	0.297
-706.616	78.634	0.101	0.110
-705.602	289.467	0.036	0.066
-704.587	223.248	-0.094	-0.154
-703.572	800.000	-0.090	0.342
-702.558	-200.000	-0.094	-0.730
-701.543	-200.000	-0.048	-0.381
-700.529	541.694	-0.107	0.258
-699.514	24.518	-0.306	0.256
-698.499	18.157	-0.197	-0.159
-697.485	-124.348	0.133	-0.021
-696.470	-78.545	-0.265	-0.092
-695.456	-15.989	0.299	-0.192
-694.441	199.998	0.011	-0.017
-693.426	-11.369	-0.444	0.296
-692.412	800.000	0.096	-0.401
-691.397	264.421	0.026	0.046
-690.383	-200.000	-0.001	-0.141
-689.368	800.000	0.088	0.282
-688.354	53.981	0.076	0.074
-687.339	-12.888	0.180	0.118
-686.324	-30.010	0.068	-0.039
-685.310	-200.000	0.034	0.000
-684.295	-23.778	0.048	0.029
-683.281	698.461	0.102	-0.272
-682.266	123.302	0.097	-0.123
-681.251	-2.727	0.267	0.189
-680.237	800.000	-0.069	0.245
-679.222	-59.862	-0.167	-0.072
-678.208	-60.560	-0.183	-0.079
-677.193	-118.406	0.318	-0.057
-676.178	30.155	-0.024	0.021
-675.164	-200.000	0.007	0.266
-674.149	800.000	-0.097	0.376
-673.135	357.029	-0.018	-0.036
-672.120	-60.400	0.424	0.182
-671.105	-200.000	0.018	0.205
-670.091	231.745	0.093	0.154
-669.076	-119.533	-0.151	0.026
-668.062	3.417	0.324	-0.238
-667.047	800.000	0.077	0.241
-666.032	514.449	-0.113	0.265
-665.018	388.912	0.042	0.088
-664.003	-40.889	0.180	0.094
-662.989	800.000	0.118	0.396
-661.974	800.000	0.122	0.453
-660.959	328.725	-0.097	0.187
-659.945	-108.813	-0.095	-0.021
-658.930	-200.000	-0.004	0.233
-657.916	-200.000	-0.016	0.205
-656.901	259.430	-0.105	0.184
-655.886	-200.000	-0.027	0.196
-654.872	133.845	0.149	-0.194
-653.857	-57.802	0.196	-0.087
-652.843	-200.000	0.006	0.239
-651.828	-70.895	0.226	0.086
-650.814	-200.000	0.022	0.235
-649.799	-115.217	-0.127	-0.024
-648.784	-72.512	-0.237	-0.088
-647.770	66.521	-0.093	-0.095
-646.755	-200.000	-0.012	-0.245
-645.741	-100.427	0.334	-0.083
-644.726	11.743	0.168	0.130
-643.711	-46.932	0.350	-0.173
-642.697	-64.068	0.065	-0.027
-641.682	-154.506	-0.101	-0.007
-640.668	-13.617	-0.261	-0.170
-639.653	85.287	-0.148	0.164
-638.638	-66.069	0.190	0.077
-637.624	-200.000	-0.089	-0.474
-636.609	140.527	-0.115	-0.152
-635.595	121.691	0.053	-0.067
-634.580	-96.789	0.126	0.033
-633.565	-144.882	-0.238	0.022
-632.551	-133.724	-0.092	0.012
-631.536	800.000	-0.041	-0.137
-630.522	66.831	0.106	0.109
-629.507	800.000	0.044	-0.162
-628.492	-135.195	0.333	0.040
-627.478	-11.486	-0.192	0.127
-626.463	-88.350	-0.319	-0.096
-625.449	-200.000	-0.015	-0.170
-624.434	-119.133	-0.174	0.031
-623.419	-99.389	-0.430	0.109
-622.405	-92.723	0.115	0.032
-621.390	-85.858	-0.398	0.124
-620.376	-48.152	-0.127	-0.062
-619.361	-52.154	0.174	-0.081
-618.346	-62.371	-0.178	0.074
-617.332	-10.028	-0.137	0.092
-616.317	800.000	-0.044	-0.142
-615.303	343.770	0.178	0.352
-614.288	-200.000	0.062	-0.378
-613.273	-36.138	0.294	0.160
-612.259	170.052	0.099	0.143
-611.244	355.005	-0.250	0.501
-610.230	-200.000	0.013	0.114
-609.215	753.220	0.112	0.305
-608.201	-37.751	-0.237	-0.127
-607.186	800.000	0.007	0.026
-606.171	503.368	-0.083	-0.193
-605.157	-77.174	-0.207	0.073
-604.142	77.092	0.078	0.083
-603.128	-134.926	-0.203	-0.025
-602.113	110.685	-0.072	0.087
-601.098	-108.746	-0.139	0.030
-600.084	-158.460	-0.085	-0.005
-599.069	-124.825	0.294	0.046
-598.055	-53.913	0.076	-0.035
-597.040	-0.849	-0.123	-0.087
-596.025	800.000	-0.020	0.081
-595.011	-17.281	-0.248	-0.157
-593.996	80.354	-0.196	0.212
-592.982	-89.969	-0.430	0.126
-591.967	800.000	-0.055	0.220
-590.952	208.344	-0.170	-0.268
-589.938	-200.000	0.036	-0.173
-588.923	38.393	-0.096	-0.086
-587.909	-6.597	0.088	0.060
-586.894	800.000	0.004	0.017
-585.879	-58.178	-0.100	0.044
-584.865	-171.624	0.044	-0.001
-583.850	61.415	0.219	-0.219
-582.836	800.000	-0.222	0.650
-581.821	-200.000	-0.010	-0.402
-580.806	-183.291	-0.221	0.004
-579.792	37.483	-0.247	-0.220
-578.777	-200.000	0.089	-0.489
-577.763	-152.717	-0.293	-0.021
-576.748	-108.438	0.148	-0.032
-575.733	98.957	0.185	0.214
-574.719	154.297	0.067	0.093
-573.704	-80.329	-0.130	-0.044
-572.690	-135.787	-0.093	-0.011
-571.675	-200.000	-0.090	0.414
-570.661	-155.074	-0.237	0.016
-569.646	96.540	0.036	-0.041
-568.631	45.907	0.058	-0.054
-567.617	-200.000	-0.001	0.028
-566.602	666.869	0.061	-0.160
-565.588	-175.270	0.159	0.004
-564.573	-80.230	-0.290	0.098
-563.558	1.932	-0.387	-0.281
-562.544	126.078	0.134	-0.170
-561.529	88.834	-0.127	-0.142
-560.515	-7.820	0.292	-0.198
-559.500	419.572	-0.089	0.192
-558.485	-148.773	-0.145	-0.012
-557.471	432.460	-0.084	0.184
-556.456	35.591	-0.045	0.040
-555.442	219.835	0.116	0.187
-554.427	167.022	-0.130	-0.185
-553.412	-30.003	0.092	0.053
-552.398	800.000	0.064	0.233
-551.383	-69.493	-0.066	0.025
-550.369	800.000	-0.073	-0.230
-549.354	-22.312	0.065	-0.040
-548.339	-15.622	0.147	0.094
-547.325	41.942	-0.210	-0.191
-546.310	-22.564	0.165	-0.100
-545.296	182.865	0.122	0.181
-544.281	-16.943	-0.176	-0.112
-543.266	800.000	0.088	0.249
-542.252	-100.426	0.217	0.054
-541.237	-107.908	-0.368	-0.080
-540.223	-18.424	0.128	0.081
-539.208	-167.709	0.267	0.011
-538.193	-200.000	-0.009	-0.056
-537.179	-110.277	-0.405	-0.085
-536.164	-98.964	-0.039	0.010
-535.150	-160.538	-0.100	-0.005
-534.135	57.991	0.243	0.239
-533.121	-200.000	0.059	-0.380
-532.106	10.896	0.057	0.044
-531.091	-73.048	-0.231	0.085
-530.077	110.728	0.171	-0.207
-529.062	-54.221	0.134	0.061
-528.048	-55.412	0.190	-0.086
-527.033	380.968	-0.211	0.435
-526.018	13.934	0.084	-0.066
-525.004	99.037	0.119	0.138
-523.989	-61.156	0.155	-0.066
-522.975	-62.913	-0.120	-0.050
-521.960	-200.000	0.009	0.070
-520.945	-71.138	-0.129	-0.049
-519.931	-99.694	0.136	0.034
-518.916	184.285	0.037	0.054
-517.902	118.279	0.069	-0.085
-516.887	38.113	-0.453	-0.404
-515.872	146.649	-0.204	-0.275
-514.858	603.757	0.177	0.441
-513.843	-59.155	-0.157	0.068
-512.829	71.710	0.304	-0.317
-511.814	-145.976	0.240	-0.021
-510.799	-31.736	0.130	0.073
-509.785	-12.152	0.145	-0.095
-508.770	-48.010	0.185	-0.090
-507.756	51.546	-0.161	0.153
-506.741	675.520	-0.224	-0.583
-505.726	-36.785	-0.152	-0.082
-504.712	-128.600	0.107	-0.015
-503.697	800.000	0.128	0.418
-502.683	800.000	-0.035	0.124
-501.668	-200.000	-0.008	0.080
-500.653	-200.000	0.012	-0.203
-499.639	377.602	-0.084	-0.172
-498.624	-24.273	0.015	0.009
-497.610	373.195	0.050	0.103
-496.595	25.891	-0.233	0.195
-495.581	-200.000	0.013	-0.313
-494.566	406.046	0.082	0.173
-493.551	278.878	-0.085	-0.152
-492.537	-110.673	-0.313	0.065
-491.522	-200.000	0.007	0.338
-490.508	800.000	-0.056	0.157
-489.493	800.000	-0.114	-0.346
-488.478	-146.667	0.158	-0.014
-487.464	-167.337	-0.440	-0.018
-486.449	-59.594	-0.154	0.066
-485.435	-92.494	0.204	-0.058
-484.420	-66.576	0.103	0.041
-483.405	-28.225	0.221	-0.128
-482.391	408.307	-0.090	-0.191
-481.376	800.000	-0.044	-0.158
-480.362	174.395	0.130	0.188
-479.347	800.000	0.031	-0.111
-478.332	12.328	-0.283	-0.219
-477.318	5.739	0.165	0.122
-476.303	476.318	0.077	-0.173
-475.289	169.580	-0.152	0.217
-474.274	149.778	0.054	0.074
-473.259	-106.725	-0.317	0.071
-472.245	92.094	-0.232	0.261
-471.230	224.303	-0.040	0.065
-470.216	45.640	0.152	-0.141
-469.201	33.253	-0.198	-0.172
-468.186	-147.443	-0.407	-0.034
-467.172	-161.085	0.460	0.024
-466.157	235.863	0.156	-0.258
-465.143	96.537	-0.110	0.126
-464.128	192.847	-0.177	-0.268
-463.113	-8.469	0.105	-0.071
-462.099	-200.000	0.011	-0.139
-461.084	185.386	-0.067	-0.099
-460.070	242.333	0.286	0.478
-459.055	-3.477	0.125	0.087
-458.040	-31.648	0.099	-0.056
-457.026	191.657	-0.109	-0.164
-456.011	152.247	0.087	0.119
-454.997	800.000	-0.017	0.071
-453.982	51.290	0.058	0.055
-452.968	331.062	-0.033	0.063
-451.953	800.000	0.058	0.182
-450.938	-3.228	0.313	-0.218
-449.924	-200.000	-0.017	-0.219
-448.909	-145.422	0.125	-0.011
-447.895	46.755	-0.140	-0.130
-446.880	-112.145	-0.108	-0.022
-445.865	-200.000	0.077	0.387
-444.851	579.789	0.034	-0.083
-443.836	504.659	-0.061	0.141
-442.822	-16.546	-0.319	-0.202
-441.807	-173.616	0.447	-0.013
-440.792	800.000	0.072	-0.276
-439.778	-102.469	-0.284	0.068
-438.763	-82.887	0.158	0.051
-437.749	46.561	-0.100	0.093
-436.734	-95.419	0.147	-0.040
-435.719	-200.000	0.001	-0.077
-434.705	73.741	-0.140	0.146
-433.690	-200.000	0.002	0.182
-432.676	184.366	-0.135	0.200
-431.661	205.146	-0.031	-0.048
-430.646	93.050	0.220	0.249
-429.632	-62.759	-0.151	0.063
-428.617	-200.000	-0.013	0.216
-427.603	800.000	0.074	0.215
-426.588	-58.045	-0.163	-0.071
-425.573	-106.323	0.260	-0.058
-424.559	800.000	0.035	0.110
-423.544	-35.213	-0.297	-0.161
-422.530	25.292	0.115	0.095
-421.515	-15.739	0.133	0.085
-420.500	800.000	-0.109	-0.317
-419.486	-200.000	0.080	0.409
-418.471	-115.384	-0.416	0.079
-417.457	-200.000	-0.021	-0.174
-416.442	-200.000	-0.038	-0.191
-415.428	197.773	0.154	0.235
-414.413	564.837	-0.137	0.332
-413.398	-51.453	0.058	0.027
-412.384	-200.000	0.005	-0.249
-411.369	-74.955	0.178	-0.064
-410.355	-135.434	-0.303	0.036
-409.340	-46.362	-0.051	-0.025
-408.325	-44.831	0.183	0.091
-407.311	47.485	-0.175	0.163
-406.296	226.312	0.059	-0.096
-405.282	-154.499	0.318	-0.021
-404.267	299.204	0.147	0.270
-403.252	134.018	0.185	-0.240
-402.238	75.389	-0.114	0.120
-401.223	315.997	-0.169	0.319
-400.209	16.557	-0.206	-0.163
-399.194	-16.366	0.015	-0.010
-398.179	-13.039	-0.190	0.123
-397.165	-84.319	0.132	-0.042
-396.150	-100.618	0.173	-0.043
-395.136	-196.692	0.141	-0.001
-394.121	-200.000	0.313	-0.001
-393.106	-200.000	0.061	0.314
-392.092	58.505	0.083	-0.081
-391.077	-200.000	-0.052	0.255
-390.063	-59.847	0.101	-0.043
-389.048	295.615	-0.065	0.118
-388.033	-200.000	-0.074	0.413
-387.019	627.408	0.063	0.160
-386.004	199.422	0.027	0.042
-384.990	697.874	-0.141	-0.371
-383.975	589.461	0.035	-0.086
-382.960	-167.216	-0.204	0.008
-381.946	3.352	-0.123	0.089
-380.931	-48.071	-0.043	-0.021
-379.917	-143.128	0.227	0.022
-378.902	85.135	0.150	0.164
-377.888	17.436	0.223	-0.177
-376.873	-200.000	-0.022	-0.169
-375.858	-42.977	-0.172	0.087
-374.844	-38.002	-0.156	-0.083
-373.829	-148.768	0.426	0.034
-372.815	121.961	-0.215	0.268
-371.800	-200.000	-0.032	0.152
-370.785	-52.044	0.070	0.033
-369.771	-78.225	0.276	0.095
-368.756	800.000	0.042	0.127
-367.742	42.930	-0.179	-0.162
-366.727	-144.202	-0.254	0.024
-365.712	119.207	-0.175	-0.216
-364.698	415.310	-0.014	-0.029
-363.683	158.218	-0.085	0.118
-362.669	-200.000	0.025	0.179
-361.654	72.239	0.122	-0.126
-360.639	-126.995	0.192	-0.028
-359.625	651.978	0.030	0.076
-358.610	-67.385	0.284	0.111
-357.596	-2.688	0.100	-0.070
-356.581	-18.396	0.165	-0.103
-355.566	-114.988	0.319	-0.061
-354.552	63.540	-0.214	0.214
-353.537	-200.000	-0.003	0.091
-352.523	108.403	-0.278	0.331
-351.508	-163.880	0.115	0.005
-350.493	-88.367	0.230	0.068
-349.479	800.000	-0.084	0.290
-348.464	-163.766	-0.107	0.005
-347.450	147.862	-0.074	-0.100
-346.435	-200.000	0.033	0.158
-345.420	-174.441	0.128	-0.004
-344.406	-90.165	-0.121	-0.035
-343.391	-44.676	-0.477	0.237
-342.377	168.301	-0.056	-0.079
-341.362	21.555	0.097	-0.078
-340.348	-200.000	-0.004	-0.461
-339.333	-102.128	0.245	-0.059
-338.318	-138.217	-0.022	-0.002
-337.304	800.000	0.128	0.391
-336.289	122.582	-0.071	-0.088
-335.275	-200.000	-0.019	0.295
-334.260	-200.000	-0.058	0.397
-333.245	51.499	0.023	-0.022
-332.231	34.850	-0.092	-0.080
-331.216	-159.674	-0.131	-0.007
-330.202	-92.420	0.325	0.091
-329.187	-200.000	0.001	-0.462
-328.172	9.391	0.271	-0.204
-327.158	-200.000	-0.015	-0.206
-326.143	136.145	0.107	-0.139
-325.129	96.549	-0.131	-0.150
-324.114	-30.349	-0.096	-0.054
-323.099	628.951	-0.069	-0.175
-322.085	-196.404	-0.138	-0.001
-321.070	-129.757	0.148	-0.020
-320.056	22.501	0.124	0.101
-319.041	-194.652	0.496	0.004
-318.026	-167.785	0.194	-0.008
-317.012	-10.196	0.015	-0.010
-315.997	-5.243	-0.138	-0.094
-314.983	-200.000	0.028	-0.255
-313.968	800.000	-0.028	-0.087
-312.953	-72.790	0.078	-0.029
-311.939	-88.262	0.148	0.044
-310.924	-20.650	-0.322	-0.197
-309.910	-58.292	-0.050	-0.022
-308.895	360.614	0.082	0.163
-307.880	91.556	-0.072	-0.080
-306.866	-200.000	-0.020	0.295
-305.851	800.000	0.049	0.186
-304.837	-200.000	-0.006	-0.170
-303.822	-200.000	0.077	-0.342
-302.807	230.388	0.067	0.109
-301.793	-9.526	-0.046	-0.031
-300.778	-129.450	0.063	-0.009
-299.764	-80.526	0.255	0.085
-298.749	800.000	-0.094	-0.281
-297.735	-100.435	-0.247	0.061
-296.720	110.397	0.059	-0.071
-295.705	-47.323	0.299	0.145
-294.691	142.240	0.097	0.127
-293.676	606.331	0.063	0.157
-292.662	-200.000	-0.016	-0.145
-291.647	-83.390	-0.279	-0.089
-290.632	-130.679	-0.053	-0.007
-289.618	-58.474	0.239	-0.103
-288.603	667.352	0.070	0.181
-287.589	-35.301	0.313	-0.169
-286.574	-8.660	-0.396	-0.264
-285.559	-6.735	0.247	-0.167
-284.545	67.829	-0.093	0.094
-283.530	-66.546	0.250	-0.099
-282.516	-67.484	0.465	-0.181
-281.501	312.870	-0.128	0.239
-280.486	428.287	0.092	-0.197
-279.472	800.000	-0.102	-0.294
-278.457	460.949	-0.175	-0.388
-277.443	-43.522	0.361	-0.181
-276.428	45.285	0.135	0.124
-275.413	153.843	0.057	-0.078
-274.399	58.587	-0.340	0.332
-273.384	-88.700	0.183	0.054
-272.370	15.129	0.252	-0.196
-271.355	-19.095	0.029	-0.018
-270.340	-127.381	-0.215	0.031
-269.326	-200.000	0.009	-0.043
-268.311	-200.000	-0.009	0.297
-267.297	-20.933	0.339	0.207
-266.282	-86.772	-0.280	-0.085
-265.267	-44.544	0.264	0.131
-264.253	211.544	-0.142	-0.222
-263.238	407.274	0.111	-0.233
-262.224	112.185	-0.171	0.205
-261.209	-9.783	-0.203	0.135
-260.195	-200.000	0.020	0.274
-259.180	-200.000	0.002	-0.086
-258.165	-21.898	0.061	0.037
-257.151	292.781	0.154	-0.279
-256.136	-79.977	0.112	-0.038
-255.122	-65.609	-0.145	-0.058
-254.107	-200.000	0.008	-0.076
-253.092	-124.177	-0.334	0.052
-252.078	-151.572	0.266	-0.020
-251.063	24.755	0.145	0.119
-250.049	800.000	0.072	0.282
-249.034	165.062	-0.124	0.174
-248.019	293.133	0.170	-0.308
-247.005	800.000	-0.143	-0.415
-245.990	228.361	-0.035	-0.057
-244.976	18.334	-0.077	-0.061
-243.961	-145.557	0.210	-0.019
-242.946	-43.029	0.208	-0.105
-241.932	722.832	0.105	-0.277
-240.917	-182.288	-0.147	-0.003
-239.903	-131.534	-0.150	0.020
-238.888	-17.170	0.087	0.055
-237.873	-200.000	0.003	0.053
-236.859	22.057	-0.123	0.099
-235.844	-200.000	-0.028	0.375
-234.830	-14.158	-0.183	-0.117
-233.815	-91.164	-0.126	0.036
-232.800	-61.460	0.195	-0.082
-231.786	419.371	0.129	0.273
-230.771	800.000	0.067	-0.240
-229.757	-88.022	-0.338	0.101
-228.742	-87.548	0.016	-0.005
-227.727	-200.000	-0.005	-0.250
-226.713	-200.000	0.014	0.134
-225.698	-20.978	0.238	0.145
-224.684	591.129	-0.068	-0.166
-223.669	-182.856	-0.098	-0.002
-222.655	106.902	-0.231	0.272
-221.640	-116.973	0.168	-0.030
-220.625	-200.000	-0.011	0.228
-219.611	-73.142	-0.255	0.093
-218.596	-200.000	0.069	-0.372
-217.582	560.163	-0.104	-0.248
-216.567	-138.381	0.142	0.016
-215.552	327.912	0.142	0.270
-214.538	800.000	-0.031	-0.129
-213.523	-98.683	0.257	-0.065
-212.509	-47.342	0.150	-0.073
-211.494	-200.000	0.095	0.704
-210.479	345.970	-0.079	0.153
-209.465	-63.767	0.155	-0.063
-208.450	-166.297	0.112	0.005
-207.436	800.000	0.104	0.362
-206.421	285.216	0.143	0.255
-205.406	-55.625	-0.143	-0.063
-204.392	-74.891	0.136	-0.048
-203.377	105.687	0.282	-0.331
-202.363	-115.560	0.235	0.044
-201.348	800.000	0.190	-0.549
-200.333	303.373	-0.120	-0.220
-199.319	-89.732	0.384	0.111
-198.304	59.403	0.103	0.101
-197.290	590.567	0.024	-0.058
-196.275	800.000	-0.032	0.132
-195.260	-103.637	-0.181	-0.042
-194.246	267.802	0.161	0.280
-193.231	-200.000	0.067	0.488
-192.217	-114.819	-0.107	0.020
-191.202	499.893	-0.095	0.216
-190.187	387.027	-0.024	-0.049
-189.173	-33.165	0.036	-0.020
-188.158	66.061	0.245	-0.246
-187.144	463.361	0.054	0.119
-186.129	-200.000	0.017	-0.124
-185.114	-200.000	0.010	0.094
-184.100	517.289	-0.058	-0.135
-183.085	-18.795	-0.094	0.058
-182.071	-200.000	-0.023	0.354
-181.056	476.909	-0.011	-0.025
-180.042	506.982	-0.070	0.162
-179.027	65.483	0.189	-0.190
-178.012	-36.545	0.150	0.080
-176.998	-200.000	-0.003	0.044
-175.983	16.178	0.424	-0.331
-174.969	492.809	-0.107	0.242
-173.954	-200.000	-0.078	-0.375
-172.939	-60.047	-0.396	-0.167
-171.925	-200.000	-0.021	-0.100
-170.910	-116.409	0.127	0.023
-169.896	479.639	0.101	0.226
-168.881	27.064	-0.120	-0.100
-167.866	47.192	-0.150	-0.138
-166.852	44.509	0.211	0.192
-165.837	10.638	-0.118	-0.089
-164.823	95.335	-0.108	0.122
-163.808	27.280	-0.281	-0.234
-162.793	730.922	-0.073	-0.193
-161.779	-188.742	-0.241	0.003
-160.764	52.390	-0.089	0.084
-159.750	-72.728	-0.103	0.038
-158.735	40.291	-0.076	-0.067
-157.720	-137.243	0.346	-0.039
-156.706	-181.891	-0.258	-0.005
-155.691	-163.749	-0.242	0.011
-154.677	-159.085	0.198	-0.011
-153.662	800.000	0.016	0.054
-152.647	-200.000	-0.001	-0.254
-151.633	170.477	-0.082	0.116
-150.618	-12.347	0.202	-0.131
-149.604	265.775	0.149	0.257
-148.589	95.823	0.182	0.205
-147.574	31.101	0.081	-0.069
-146.560	163.217	0.136	0.188
-145.545	420.351	0.205	0.434
-144.531	-77.613	0.202	-0.069
-143.516	17.194	0.168	-0.132
-142.502	800.000	-0.021	-0.064
-141.487	70.689	-0.011	0.012
-140.472	-182.212	0.287	-0.005
-139.458	-160.262	0.101	-0.005
-138.443	503.357	-0.087	0.198
-137.429	-179.795	0.302	-0.006
-136.414	-102.911	-0.258	-0.061
-135.399	-200.000	-0.018	0.267
-134.385	-86.067	0.289	0.088
-133.370	-69.440	-0.337	0.128
-132.356	40.916	0.073	0.065
-131.341	294.868	-0.165	-0.299
-130.326	40.497	-0.155	0.138
-129.312	370.327	-0.053	0.105
-128.297	162.476	-0.043	0.060
-127.283	700.886	-0.159	-0.414
-126.268	208.207	0.187	-0.288
-125.253	288.490	0.113	0.202
-124.239	776.807	-0.073	0.197
-123.224	-134.852	0.383	-0.046
-122.210	-187.441	0.199	-0.003
-121.195	800.000	-0.114	0.312
