DTS Sentinel unit serial number:	SN413079Multiplexer serial number:	ORYXHardware model number:	OX4-SRSoftware version number:	ORYX F/W v4.00 Oryx Data Collector v3.7.2.0data status	okinstallation	princeton_trtdifferential loss correction	single-endedforward channel	channel 2reverse channel	N/Adate	2019/09/11time	13:33:10forward acquisition time	60.00reverse acquisition time	0.00gamma	496.2192k internal	0.2293k external	0.2293temperature offset calibration	1.0004default loss term (dB/km)	0.3790temperature slope calibration	1.0000multiplexer offset coefficient	1.0000multiplexer slope coefficient	1.0000fibre end	0.00T internal ref (°C)	42.00T ext. ref 1 (°C)	0.82T ext. ref 2 (°C)	36.38length (m)	temperature (°C)	Stokes	anti-Stokes-747.200	275.538	-0.148	0.268
-746.185	800.000	0.031	0.120
-745.171	800.000	0.068	-0.214
-744.156	102.667	-0.122	0.146
-743.142	800.000	-0.053	0.208
-742.127	800.000	-0.059	0.190
-741.112	-33.465	-0.180	0.102
-740.098	325.616	0.149	0.291
-739.083	29.484	0.070	-0.061
-738.069	-125.580	0.341	-0.053
-737.054	4.051	-0.078	-0.058
-736.039	800.000	0.080	0.307
-735.025	-191.955	0.544	0.005
-734.010	375.458	0.159	-0.331
-732.996	800.000	-0.065	-0.234
-731.981	-200.000	0.025	-0.357
-730.966	102.320	-0.235	-0.281
-729.952	119.658	-0.158	-0.201
-728.937	106.024	0.075	-0.091
-727.923	800.000	-0.105	0.464
-726.908	20.188	-0.100	-0.083
-725.894	-101.218	-0.118	0.030
-724.879	-45.876	0.046	0.023
-723.864	52.149	0.253	-0.246
-722.850	800.000	-0.108	-0.367
-721.835	-200.000	0.014	0.309
-720.821	-39.677	-0.143	-0.077
-719.806	153.630	-0.117	-0.164
-718.791	549.539	0.048	0.117
-717.777	-200.000	0.046	-0.263
-716.762	465.168	-0.083	-0.190
-715.748	-1.466	0.187	-0.135
-714.733	234.529	0.084	0.142
-713.718	325.864	-0.046	-0.090
-712.704	-166.569	-0.117	-0.005
-711.689	-200.000	0.003	0.131
-710.675	159.673	-0.014	-0.020
-709.660	10.401	-0.094	-0.073
-708.645	-200.000	-0.009	0.114
-707.631	600.424	-0.049	0.124
-706.616	-170.397	-0.072	0.003
-705.602	-101.243	0.313	0.078
-704.587	-60.374	0.120	0.052
-703.572	181.601	0.134	0.201
-702.558	800.000	0.055	-0.200
-701.543	-90.750	-0.276	0.081
-700.529	-128.230	0.343	-0.050
-699.514	-69.131	-0.420	-0.165
-698.499	121.061	0.214	0.271
-697.485	-46.102	0.520	0.261
-696.470	68.146	-0.340	-0.356
-695.456	-51.593	-0.283	0.135
-694.441	61.455	0.081	-0.083
-693.426	156.025	0.191	0.269
-692.412	186.405	-0.068	0.103
-691.397	44.620	-0.265	-0.249
-690.383	-9.775	0.327	0.222
-689.368	363.504	-0.130	0.267
-688.354	-200.000	0.030	-0.161
-687.339	-10.596	-0.112	-0.076
-686.324	-118.566	0.576	0.104
-685.310	-200.000	-0.027	0.262
-684.295	-200.000	0.013	0.059
-683.281	-45.359	0.332	-0.168
-682.266	-145.381	-0.062	0.006
-681.251	-155.602	-0.488	-0.032
-680.237	800.000	-0.073	0.207
-679.222	88.829	-0.170	-0.193
-678.208	800.000	0.072	-0.275
-677.193	-141.301	-0.305	0.032
-676.178	-84.509	-0.364	0.117
-675.164	34.712	0.151	-0.134
-674.149	346.737	0.066	-0.132
-673.135	275.010	0.004	-0.006
-672.120	49.109	-0.234	-0.224
-671.105	-41.627	0.179	-0.094
-670.091	3.104	-0.204	-0.151
-669.076	50.206	-0.088	-0.085
-668.062	-160.472	-0.053	0.003
-667.047	-200.000	-0.026	-0.161
-666.032	-200.000	-0.001	-0.144
-665.018	67.587	0.101	-0.105
-664.003	-200.000	0.005	-0.079
-662.989	-200.000	-0.026	-0.154
-661.974	-200.000	-0.033	-0.260
-660.959	396.924	-0.040	0.086
-659.945	-74.038	-0.134	-0.050
-658.930	436.583	0.088	-0.194
-657.916	-124.884	-0.027	0.004
-656.901	-200.000	0.063	0.323
-655.886	37.949	-0.029	0.027
-654.872	-200.000	0.004	0.150
-653.857	137.787	-0.201	0.268
-652.843	114.234	0.295	0.365
-651.828	-152.476	-0.090	-0.007
-650.814	-137.657	-0.085	0.010
-649.799	-131.567	-0.320	-0.043
-648.784	-20.543	-0.181	0.114
-647.770	-45.761	-0.098	0.049
-646.755	-53.427	-0.153	-0.071
-645.741	-150.252	0.191	0.015
-644.726	-141.954	-0.045	0.005
-643.711	-64.729	-0.097	0.040
-642.697	800.000	-0.112	0.417
-641.682	-143.253	0.306	0.030
-640.668	643.377	0.013	-0.035
-639.653	-200.000	-0.002	-0.275
-638.638	63.229	-0.019	0.019
-637.624	136.127	0.081	0.108
-636.609	800.000	0.020	0.088
-635.595	-38.969	-0.153	-0.082
-634.580	-200.000	-0.008	-0.101
-633.565	-43.434	-0.136	0.070
-632.551	-81.548	0.007	0.002
-631.536	290.058	0.083	-0.154
-630.522	-60.113	-0.035	0.015
-629.507	800.000	0.018	0.060
-628.492	-152.174	0.080	0.006
-627.478	1.802	-0.215	-0.158
-626.463	14.380	0.451	-0.358
-625.449	-56.472	-0.103	0.047
-624.434	-14.705	0.208	0.136
-623.419	346.361	0.178	-0.356
-622.405	30.046	0.187	-0.162
-621.390	-35.442	0.253	0.140
-620.376	-95.688	-0.274	-0.075
-619.361	-3.200	0.233	-0.165
-618.346	545.578	0.048	0.117
-617.332	-67.448	-0.180	0.072
-616.317	800.000	0.133	-0.417
-615.303	-88.585	-0.229	0.069
-614.288	-2.648	-0.047	0.033
-613.273	-200.000	-0.000	-0.177
-612.259	685.092	0.081	0.215
-611.244	88.354	-0.070	0.079
-610.230	-19.399	-0.136	-0.086
-609.215	-134.250	-0.277	0.035
-608.201	800.000	0.082	0.338
-607.186	-96.616	-0.445	0.119
-606.171	800.000	0.028	0.121
-605.157	-101.174	-0.134	-0.033
-604.142	159.759	0.076	-0.108
-603.128	800.000	0.041	-0.131
-602.113	-151.577	-0.094	0.007
-601.098	43.205	-0.245	0.227
-600.084	-200.000	0.008	-0.039
-599.069	76.388	0.201	-0.216
-598.055	-50.523	0.248	0.119
-597.040	-114.482	-0.248	0.048
-596.025	128.123	0.208	-0.269
-595.011	365.503	-0.086	-0.176
-593.996	-81.624	-0.278	0.093
-592.982	800.000	0.151	0.476
-591.967	573.261	0.073	-0.181
-590.952	407.481	-0.051	-0.110
-589.938	232.229	-0.053	0.089
-588.923	-183.706	0.379	0.007
-587.909	-28.866	0.170	0.099
-586.894	62.777	-0.047	0.048
-585.879	-22.628	-0.063	-0.039
-584.865	-140.546	-0.131	0.014
-583.850	800.000	0.092	-0.392
-582.836	-78.371	-0.278	0.097
-581.821	800.000	0.038	0.122
-580.806	-29.427	-0.057	0.033
-579.792	148.669	-0.070	0.096
-578.777	377.171	-0.150	0.311
-577.763	126.762	0.144	0.185
-576.748	-123.333	-0.266	0.043
-575.733	-200.000	-0.023	-0.165
-574.719	141.152	0.215	0.289
-573.704	166.043	-0.138	0.198
-572.690	-23.784	0.104	-0.063
-571.675	-28.786	0.056	0.033
-570.661	385.090	-0.192	0.403
-569.646	245.021	0.107	0.183
-568.631	188.189	-0.052	0.078
-567.617	84.871	0.059	0.065
-566.602	800.000	-0.022	-0.090
-565.588	-112.853	0.093	-0.019
-564.573	-200.000	-0.035	0.162
-563.558	800.000	0.032	0.092
-562.544	-89.076	-0.234	0.070
-561.529	-48.022	-0.247	-0.121
-560.515	232.790	0.162	0.270
-559.500	52.287	-0.113	-0.109
-558.485	800.000	0.063	-0.242
-557.471	-200.000	0.004	0.091
-556.456	12.392	-0.213	0.167
-555.442	-16.028	-0.127	0.082
-554.427	-85.709	-0.176	-0.055
-553.412	57.397	-0.095	0.094
-552.398	14.216	0.438	-0.346
-551.383	529.801	0.050	-0.121
-550.369	456.289	-0.080	-0.180
-549.354	800.000	0.031	-0.105
-548.339	252.432	-0.116	-0.201
-547.325	-200.000	0.005	-0.293
-546.310	120.450	0.094	0.118
-545.296	-116.572	-0.179	-0.034
-544.281	-55.535	-0.181	0.082
-543.266	139.110	0.137	-0.183
-542.252	-200.000	-0.004	0.435
-541.237	-200.000	0.016	0.083
-540.223	195.485	-0.225	-0.346
-539.208	-123.958	-0.448	-0.072
-538.193	-9.933	0.120	0.081
-537.179	149.207	0.211	0.290
-536.164	119.288	-0.123	0.154
-535.150	74.773	-0.070	-0.075
-534.135	-70.865	-0.439	-0.168
-533.121	-200.000	0.000	-0.047
-532.106	-200.000	-0.047	-0.248
-531.091	-100.004	-0.025	-0.006
-530.077	-73.149	0.235	0.087
-529.062	-22.198	0.063	-0.039
-528.048	-200.000	-0.021	-0.110
-527.033	122.058	0.052	0.066
-526.018	-200.000	-0.037	-0.383
-525.004	-181.090	0.090	-0.002
-523.989	46.868	-0.234	-0.221
-522.975	-112.369	-0.463	0.094
-521.960	-94.884	-0.236	0.065
-520.945	120.963	-0.159	0.201
-519.931	198.633	-0.095	-0.148
-518.916	-40.207	0.020	0.010
-517.902	800.000	-0.089	0.361
-516.887	57.135	-0.086	0.085
-515.872	-197.612	0.320	0.002
-514.858	195.925	-0.103	-0.159
-513.843	-25.146	0.475	0.285
-512.829	-91.233	0.321	0.093
-511.814	184.951	-0.116	0.175
-510.799	-18.550	0.032	0.020
-509.785	-200.000	0.031	0.210
-508.770	800.000	0.057	-0.188
-507.756	800.000	0.022	0.084
-506.741	-190.068	0.135	-0.002
-505.726	54.373	0.097	0.095
-504.712	-18.942	0.013	0.008
-503.697	121.870	0.071	-0.090
-502.683	-200.000	-0.005	0.157
-501.668	-200.000	-0.019	-0.424
-500.653	-200.000	0.027	-0.286
-499.639	-141.172	-0.141	-0.015
-498.624	-61.944	0.112	-0.047
-497.610	36.651	-0.099	-0.089
-496.595	-200.000	-0.011	0.306
-495.581	494.771	0.130	0.302
-494.566	-200.000	-0.013	0.251
-493.551	-109.782	-0.201	-0.043
-492.537	5.127	0.311	-0.232
-491.522	14.737	-0.198	0.157
-490.508	-200.000	-0.031	-0.163
-489.493	212.066	0.258	-0.412
-488.478	-200.000	-0.009	0.228
-487.464	-118.226	0.363	0.066
-486.449	-141.753	-0.109	0.011
-485.435	-46.588	0.215	-0.107
-484.420	-69.929	0.274	-0.106
-483.405	-86.901	0.172	0.053
-482.391	800.000	0.107	0.379
-481.376	-53.028	-0.069	0.032
-480.362	800.000	-0.039	-0.154
-479.347	-200.000	0.044	0.257
-478.332	108.717	-0.064	-0.077
-477.318	27.954	-0.330	-0.281
-476.303	-28.653	-0.320	-0.187
-475.289	-200.000	-0.035	-0.320
-474.274	386.882	0.106	-0.221
-473.259	272.746	-0.068	-0.121
-472.245	-115.771	-0.103	-0.020
-471.230	109.119	-0.031	0.037
-470.216	-93.885	-0.228	-0.063
-469.201	-200.000	-0.021	-0.103
-468.186	-124.809	-0.378	0.059
-467.172	-200.000	0.019	0.170
-466.157	-9.091	0.268	0.182
-465.143	-200.000	-0.003	0.025
-464.128	-200.000	0.019	0.332
-463.113	-124.829	0.222	-0.035
-462.099	38.216	-0.336	-0.303
-461.084	727.079	-0.170	-0.460
-460.070	134.070	0.023	0.030
-459.055	-200.000	-0.015	-0.298
-458.040	407.282	0.048	-0.102
-457.026	-188.907	-0.091	-0.001
-456.011	294.300	0.067	0.124
-454.997	-154.544	-0.201	-0.014
-453.982	313.467	0.013	-0.025
-452.968	800.000	-0.093	-0.332
-451.953	-86.092	-0.035	0.011
-450.938	-57.024	0.322	0.144
-449.924	-5.199	0.071	0.049
-448.909	334.066	-0.203	-0.396
-447.895	271.514	-0.043	-0.076
-446.880	-103.478	-0.306	-0.073
-445.865	36.586	0.136	-0.122
-444.851	282.116	-0.114	0.206
-443.836	-200.000	0.027	0.332
-442.822	-171.243	-0.290	-0.010
-441.807	-200.000	0.027	-0.196
-440.792	197.061	-0.137	0.212
-439.778	-151.882	-0.250	0.018
-438.763	800.000	-0.035	0.101
-437.749	117.842	-0.221	0.275
-436.734	800.000	0.035	-0.125
-435.719	-63.523	-0.215	-0.089
-434.705	-29.193	-0.165	-0.096
-433.690	-87.394	-0.225	-0.069
-432.676	-117.992	0.100	-0.018
-431.661	156.971	-0.195	-0.272
-430.646	152.305	0.154	0.213
-429.632	543.221	-0.099	0.239
-428.617	151.187	-0.246	0.339
-427.603	-168.212	-0.200	0.008
-426.588	273.311	-0.163	0.291
-425.573	-200.000	0.023	-0.132
-424.559	-28.403	0.114	0.067
-423.544	-42.611	-0.131	-0.067
-422.530	-175.688	-0.389	0.011
-421.515	378.519	-0.164	0.340
-420.500	189.333	-0.075	0.113
-419.486	-165.099	0.164	0.007
-418.471	-31.217	-0.169	0.096
-417.457	800.000	0.054	-0.184
-416.442	57.482	0.297	0.293
-415.428	73.500	-0.127	-0.134
-414.413	-200.000	-0.034	-0.306
-413.398	-200.000	-0.041	0.231
-412.384	-123.360	0.308	-0.050
-411.369	-137.009	-0.247	0.029
-410.355	-52.404	0.343	0.160
-409.340	-130.614	0.189	-0.026
-408.325	20.870	-0.161	0.132
-407.311	-200.000	0.030	-0.155
-406.296	8.511	-0.230	0.175
-405.282	-1.319	-0.126	0.090
-404.267	30.983	-0.060	0.052
-403.252	149.329	-0.149	-0.203
-402.238	318.347	0.105	0.201
-401.223	-112.912	-0.492	0.098
-400.209	206.473	-0.106	-0.167
-399.194	74.181	0.178	0.188
-398.179	800.000	-0.046	-0.179
-397.165	-200.000	0.034	0.234
-396.150	542.049	0.248	-0.596
-395.136	25.644	0.167	0.140
-394.121	45.775	0.050	0.047
-393.106	-78.476	0.237	-0.082
-392.092	-27.659	0.117	-0.069
-391.077	-96.654	-0.131	0.035
-390.063	495.976	-0.054	-0.124
-389.048	729.058	-0.096	0.260
-388.033	197.617	0.085	0.131
-387.019	-30.601	0.099	0.057
-386.004	-200.000	-0.002	0.424
-384.990	-110.209	-0.136	0.029
-383.975	201.970	0.171	-0.266
-382.960	317.238	0.257	-0.489
-381.946	-200.000	0.027	-0.193
-380.931	582.450	0.047	-0.117
-379.917	-184.759	-0.298	0.005
-378.902	25.550	-0.064	-0.054
-377.888	-181.081	-0.107	-0.002
-376.873	800.000	0.046	0.143
-375.858	496.993	0.029	0.067
-374.844	-27.355	-0.144	-0.084
-373.829	102.576	-0.163	0.192
-372.815	-200.000	0.024	-0.138
-371.800	-200.000	-0.022	0.117
-370.785	-200.000	0.001	-0.209
-369.771	-200.000	-0.002	-0.118
-368.756	-156.299	0.095	0.006
-367.742	-6.087	0.317	0.218
-366.727	162.612	0.269	-0.380
-365.712	10.703	-0.139	-0.107
-364.698	-138.623	0.138	0.015
-363.683	-200.000	-0.053	-0.298
-362.669	-67.256	-0.102	0.041
-361.654	232.559	0.179	-0.297
-360.639	-200.000	-0.019	0.183
-359.625	-0.363	0.246	0.176
-358.610	-200.000	-0.019	-0.101
-357.596	-200.000	0.007	0.071
-356.581	-15.281	0.127	0.082
-355.566	17.801	0.233	0.187
-354.552	286.756	0.146	0.265
-353.537	-158.234	0.198	-0.012
-352.523	-200.000	0.087	-0.475
-351.508	-8.755	-0.226	-0.152
-350.493	-200.000	0.047	0.302
-349.479	-52.495	-0.089	-0.041
-348.464	-71.663	0.352	-0.133
-347.450	-79.100	-0.354	0.121
-346.435	372.724	0.067	-0.138
-345.420	128.704	0.016	-0.021
-344.406	126.356	0.306	-0.390
-343.391	147.239	0.143	-0.194
-342.377	257.839	-0.044	0.076
-341.362	-108.720	0.230	-0.050
-340.348	-48.646	0.413	0.200
-339.333	-8.182	-0.170	-0.115
-338.318	-96.069	-0.434	0.116
-337.304	178.198	-0.219	0.322
-336.289	-200.000	-0.011	-0.113
-335.275	169.955	-0.072	-0.104
-334.260	-200.000	0.033	-0.233
-333.245	800.000	-0.068	-0.190
-332.231	32.695	0.102	0.089
-331.216	167.505	0.204	0.292
-330.202	-1.292	-0.261	-0.185
-329.187	-135.833	-0.055	0.007
-328.172	-86.078	0.062	-0.019
-327.158	560.710	-0.034	-0.082
-326.143	45.897	0.145	0.135
-325.129	88.289	-0.098	0.109
-324.114	120.145	-0.136	0.169
-323.099	-114.641	-0.153	0.029
-322.085	307.045	-0.023	0.043
-321.070	46.220	0.100	0.093
-320.056	752.170	-0.057	-0.154
-319.041	-104.078	0.475	-0.111
-318.026	800.000	0.060	0.193
-317.012	158.038	0.261	-0.364
-315.997	415.993	-0.131	-0.282
-314.983	-61.526	-0.265	0.112
-313.968	3.460	-0.108	-0.079
-312.953	93.904	0.260	0.296
-311.939	169.682	-0.262	0.377
-310.924	62.752	-0.206	0.207
-309.910	140.566	-0.050	0.066
-308.895	-200.000	-0.058	-0.428
-307.880	-74.084	-0.364	0.133
-306.866	-200.000	0.008	-0.205
-305.851	29.504	0.248	-0.212
-304.837	-64.328	-0.205	-0.084
-303.822	-49.860	-0.298	-0.142
-302.807	444.955	-0.023	-0.050
-301.793	0.938	0.272	-0.196
-300.778	-145.605	-0.108	-0.010
-299.764	-116.589	0.384	0.071
-298.749	-47.739	0.202	0.098
-297.735	-89.902	-0.079	-0.023
-296.720	-11.786	0.149	0.098
-295.705	-200.000	0.001	0.043
-294.691	800.000	0.021	-0.090
-293.676	132.319	0.158	-0.204
-292.662	-53.969	0.211	-0.096
-291.647	-200.000	0.017	-0.146
-290.632	49.309	-0.134	-0.126
-289.618	-34.646	0.114	-0.063
-288.603	-116.269	0.269	0.050
-287.589	47.306	0.083	-0.077
-286.574	616.359	0.049	0.124
-285.559	-80.720	0.144	0.048
-284.545	507.425	0.117	0.272
-283.530	401.451	0.175	0.369
-282.516	228.908	0.151	0.248
-281.501	-200.000	-0.018	0.417
-280.486	-71.157	0.156	-0.059
-279.472	-200.000	-0.019	-0.280
-278.457	601.665	0.083	-0.208
-277.443	109.767	-0.187	-0.225
-276.428	-74.081	0.323	-0.118
-275.413	-21.808	0.216	0.132
-274.399	-74.344	0.301	0.109
-273.384	202.072	0.153	0.237
-272.370	-170.623	0.185	-0.006
-271.355	178.522	0.039	0.057
-270.340	59.922	-0.176	0.174
-269.326	-98.104	-0.385	0.100
-268.311	10.950	0.053	0.041
-267.297	-171.416	0.043	0.001
-266.282	-42.681	0.290	0.148
-265.267	800.000	-0.065	0.226
-264.253	82.783	0.057	0.063
-263.238	-65.836	0.311	0.125
-262.224	-200.000	-0.090	-0.500
-261.209	-75.028	0.112	0.040
-260.195	84.549	0.348	-0.382
-259.180	245.332	0.114	-0.193
-258.165	-124.416	0.105	0.016
-257.151	57.042	0.136	-0.134
-256.136	800.000	0.078	0.266
-255.122	469.913	-0.092	-0.207
-254.107	157.882	0.109	0.152
-253.092	-60.458	0.221	0.094
-252.078	-153.666	0.245	0.017
-251.063	455.497	0.069	-0.153
-250.049	-200.000	0.018	-0.202
-249.034	33.799	-0.276	-0.241
-248.019	45.848	0.121	0.112
-247.005	65.403	-0.065	0.066
-245.990	-8.956	-0.089	-0.060
-244.976	23.254	0.262	-0.216
-243.961	-53.237	0.198	-0.091
-242.946	46.853	0.192	-0.179
-241.932	-125.874	0.191	-0.029
-240.917	-70.948	0.123	-0.047
-239.903	-57.028	0.090	0.040
-238.888	6.778	-0.182	0.136
-237.873	60.866	0.130	-0.129
-236.859	-50.684	-0.028	0.013
-235.844	-51.919	-0.144	0.067
-234.830	199.606	-0.170	0.262
-233.815	-200.000	-0.037	0.181
-232.800	800.000	0.128	0.556
-231.786	-200.000	0.033	0.146
-230.771	28.221	-0.074	-0.063
-229.757	471.875	0.174	-0.393
-228.742	800.000	-0.065	0.200
-227.727	102.785	-0.127	0.149
-226.713	72.283	-0.107	-0.112
-225.698	-200.000	0.031	-0.406
-224.684	53.525	0.146	-0.140
-223.669	28.115	0.128	-0.109
-222.655	14.380	-0.207	-0.162
-221.640	34.232	-0.226	0.197
-220.625	309.594	0.057	-0.107
-219.611	-108.187	-0.204	0.044
-218.596	-154.828	-0.107	0.007
-217.582	-200.000	0.012	-0.207
-216.567	-36.084	-0.213	0.116
-215.552	800.000	0.043	-0.172
-214.538	800.000	-0.036	0.136
-213.523	-107.519	-0.356	0.078
-212.509	-200.000	-0.004	-0.089
-211.494	-63.466	0.135	0.056
-210.479	800.000	-0.181	0.577
-209.465	-191.104	0.135	0.001
-208.450	800.000	-0.009	0.024
-207.436	59.096	0.016	-0.015
-206.421	18.834	0.351	0.282
-205.406	789.985	0.117	0.322
-204.392	120.942	-0.107	-0.133
-203.377	289.020	-0.029	0.053
-202.363	-116.889	0.118	-0.022
-201.348	398.482	-0.079	-0.166
-200.333	-115.911	-0.361	-0.067
-199.319	-56.760	0.311	-0.138
-198.304	103.307	-0.080	-0.094
-197.290	-200.000	0.022	0.225
-196.275	148.318	0.278	0.376
-195.260	-189.087	-0.080	0.001
-194.246	-131.377	0.361	0.048
-193.231	-109.235	-0.278	-0.059
-192.217	-50.260	-0.214	0.101
-191.202	31.383	-0.160	-0.138
-190.187	0.274	-0.297	-0.212
-189.173	-9.998	-0.208	0.139
-188.158	9.703	0.183	-0.139
-187.144	-200.000	0.046	0.343
-186.129	-64.196	0.058	0.024
-185.114	-45.721	0.216	-0.107
-184.100	277.651	0.037	0.065
-183.085	800.000	0.165	0.559
-182.071	-200.000	-0.004	-0.218
-181.056	101.216	-0.210	-0.244
-180.042	-171.327	0.063	-0.002
-179.027	-99.080	-0.041	0.010
-178.012	16.116	-0.060	-0.047
-176.998	-200.000	-0.020	-0.231
-175.983	479.923	-0.144	0.327
-174.969	203.615	-0.107	0.166
-173.954	-200.000	0.040	-0.254
-172.939	125.696	0.035	0.044
-171.925	41.572	-0.100	-0.091
-170.910	723.004	-0.177	0.471
-169.896	800.000	0.017	-0.064
-168.881	30.194	0.248	0.212
-167.866	116.266	-0.052	-0.064
-166.852	-108.442	0.211	0.046
-165.837	-143.373	0.125	0.012
-164.823	361.224	0.147	-0.294
-163.808	-200.000	-0.034	-0.176
-162.793	725.469	-0.019	-0.050
-161.779	-147.174	0.060	0.005
-160.764	800.000	0.064	-0.178
-159.750	-4.587	0.279	-0.193
-158.735	144.015	-0.127	-0.169
-157.720	800.000	0.052	-0.153
-156.706	229.213	0.057	0.094
-155.691	-73.987	-0.258	0.093
-154.677	259.654	0.126	0.218
-153.662	42.515	0.013	0.012
-152.647	-117.094	-0.038	0.007
-151.633	800.000	0.050	0.193
-150.618	55.674	-0.096	-0.093
-149.604	-14.816	0.246	-0.158
-148.589	217.001	-0.216	0.343
-147.574	23.013	-0.295	0.242
-146.560	-123.670	-0.060	0.010
-145.545	588.514	0.028	0.069
-144.531	-96.002	-0.244	-0.065
-143.516	266.048	-0.270	0.471
-142.502	-200.000	-0.059	0.412
-141.487	-83.223	0.290	0.093
-140.472	800.000	-0.071	-0.200
-139.458	-200.000	0.005	-0.148
-138.443	334.848	-0.100	0.194
-137.429	145.297	0.225	0.301
-136.414	-36.016	-0.220	0.119
-135.399	-9.203	0.151	-0.101
-134.385	498.081	0.055	0.126
-133.370	-120.629	0.383	0.065
-132.356	29.507	-0.116	-0.098
-131.341	90.794	-0.112	-0.125
-130.326	-38.937	-0.404	-0.213
-129.312	-0.393	0.148	-0.105
-128.297	-15.015	0.226	-0.145
-127.283	-3.319	-0.191	0.133
-126.268	458.268	-0.115	-0.255
-125.253	-136.765	0.269	0.031
-124.239	-54.618	0.187	0.085
-123.224	-32.514	0.086	-0.048
-122.210	-199.964	0.252	0.001
-121.195	-26.561	0.187	-0.109
