DTS Sentinel unit serial number:	SN413079Multiplexer serial number:	ORYXHardware model number:	OX4-SRSoftware version number:	ORYX F/W v4.00 Oryx Data Collector v3.7.2.0data status	okinstallation	princeton_trtdifferential loss correction	single-endedforward channel	channel 2reverse channel	N/Adate	2019/09/12time	09:45:11forward acquisition time	60.00reverse acquisition time	0.00gamma	496.2192k internal	0.2315k external	0.2315temperature offset calibration	1.0069default loss term (dB/km)	0.3790temperature slope calibration	1.0000multiplexer offset coefficient	1.0000multiplexer slope coefficient	1.0000fibre end	0.00T internal ref (°C)	35.91T ext. ref 1 (°C)	1.84T ext. ref 2 (°C)	32.60length (m)	temperature (°C)	Stokes	anti-Stokes-747.200	45.750	-0.275	-0.258
-746.185	32.130	-0.288	0.251
-745.171	439.237	0.172	0.380
-744.156	-200.000	-0.011	0.291
-743.142	82.409	-0.171	0.188
-742.127	-78.420	0.104	-0.036
-741.112	-91.943	-0.092	-0.027
-740.098	800.000	-0.110	0.320
-739.083	-19.646	-0.145	0.091
-738.069	-106.252	-0.097	0.022
-737.054	-127.964	0.426	-0.062
-736.039	-58.608	-0.375	-0.165
-735.025	-200.000	-0.066	0.295
-734.010	-200.000	-0.032	-0.393
-732.996	-93.306	-0.360	0.101
-731.981	-200.000	0.017	0.426
-730.966	140.194	0.132	-0.176
-729.952	247.803	0.054	-0.093
-728.937	-136.481	0.234	0.028
-727.923	-91.989	-0.349	-0.100
-726.908	-200.000	0.001	-0.206
-725.894	3.766	-0.125	-0.092
-724.879	17.148	0.057	-0.046
-723.864	-55.749	-0.104	0.047
-722.850	42.539	0.102	0.094
-721.835	795.468	0.050	-0.139
-720.821	-89.578	0.170	-0.051
-719.806	-57.841	0.066	-0.029
-718.791	-200.000	0.041	-0.234
-717.777	-200.000	0.046	-0.247
-716.762	488.808	-0.085	-0.197
-715.748	-75.402	-0.187	0.068
-714.733	80.652	0.161	0.176
-713.718	124.128	0.090	-0.115
-712.704	800.000	-0.117	-0.456
-711.689	-103.987	0.201	0.047
-710.675	-157.525	-0.119	-0.007
-709.660	64.886	-0.069	0.071
-708.645	800.000	0.055	-0.217
-707.631	39.795	-0.048	0.044
-706.616	225.072	-0.149	0.244
-705.602	800.000	-0.059	-0.207
-704.587	-200.000	0.024	-0.220
-703.572	-200.000	-0.013	0.134
-702.558	152.649	-0.102	-0.141
-701.543	-200.000	0.037	0.167
-700.529	-200.000	-0.000	-0.455
-699.514	-200.000	-0.002	-0.118
-698.499	-200.000	-0.002	0.101
-697.485	-139.264	-0.024	0.003
-696.470	-131.731	-0.202	-0.027
-695.456	135.317	-0.095	-0.124
-694.441	471.792	0.140	0.319
-693.426	-15.551	-0.187	-0.120
-692.412	59.303	-0.204	0.203
-691.397	157.499	0.195	0.273
-690.383	-128.929	0.263	0.037
-689.368	530.682	0.123	-0.294
-688.354	154.796	0.201	0.280
-687.339	-175.476	0.214	0.006
-686.324	285.263	0.010	-0.019
-685.310	-92.069	0.174	0.050
-684.295	-200.000	0.006	-0.412
-683.281	-200.000	0.008	0.050
-682.266	-160.723	0.225	0.012
-681.251	108.477	-0.138	-0.166
-680.237	282.635	-0.097	-0.176
-679.222	40.012	-0.225	0.204
-678.208	-0.148	-0.055	0.040
-677.193	-146.726	0.311	-0.027
-676.178	69.985	-0.127	0.133
-675.164	800.000	0.123	-0.372
-674.149	800.000	0.026	-0.087
-673.135	-200.000	-0.059	-0.344
-672.120	800.000	-0.014	0.052
-671.105	33.491	0.184	0.162
-670.091	-200.000	-0.008	-0.066
-669.076	-200.000	0.050	0.341
-668.062	24.043	0.075	0.063
-667.047	-200.000	0.033	-0.269
-666.032	-150.943	0.356	-0.027
-665.018	0.019	-0.245	-0.176
-664.003	-100.497	0.439	-0.110
-662.989	800.000	-0.062	-0.243
-661.974	-97.604	-0.288	-0.075
-660.959	131.853	0.192	-0.250
-659.945	-68.974	-0.388	-0.151
-658.930	82.872	0.149	0.163
-657.916	-8.660	0.074	0.050
-656.901	-44.171	0.365	-0.185
-655.886	13.685	0.114	-0.089
-654.872	800.000	0.076	-0.243
-653.857	705.666	0.018	-0.048
-652.843	-17.342	0.187	-0.119
-651.828	217.407	-0.089	0.144
-650.814	-40.466	0.150	-0.078
-649.799	-74.295	-0.209	0.076
-648.784	132.221	-0.148	0.192
-647.770	49.792	-0.342	0.325
-646.755	-200.000	0.217	0.000
-645.741	333.515	0.018	0.035
-644.726	-77.475	-0.074	-0.026
-643.711	800.000	0.009	0.035
-642.697	367.678	-0.208	0.423
-641.682	719.151	-0.122	0.326
-640.668	800.000	0.078	0.220
-639.653	122.241	-0.151	-0.190
-638.638	800.000	-0.059	-0.240
-637.624	15.842	-0.251	-0.199
-636.609	-33.906	0.083	-0.046
-635.595	-59.843	-0.237	0.103
-634.580	-33.623	0.141	0.078
-633.565	45.118	-0.118	-0.110
-632.551	397.652	0.155	-0.326
-631.536	55.188	-0.146	0.143
-630.522	-59.201	-0.104	0.045
-629.507	-200.000	-0.024	-0.145
-628.492	40.388	-0.166	0.151
-627.478	-11.818	0.070	-0.046
-626.463	-200.000	-0.006	-0.036
-625.449	-99.877	0.112	-0.028
-624.434	800.000	-0.102	-0.341
-623.419	53.519	-0.187	-0.181
-622.405	800.000	-0.024	0.098
-621.390	-64.863	-0.219	0.089
-620.376	214.641	0.133	-0.213
-619.361	339.787	-0.133	0.261
-618.346	152.537	-0.072	0.099
-617.332	-200.000	-0.028	0.155
-616.317	-75.026	-0.104	-0.038
-615.303	800.000	0.055	-0.196
-614.288	-138.209	-0.126	0.014
-613.273	-200.000	-0.018	0.384
-612.259	800.000	-0.094	0.300
-611.244	-200.000	0.003	0.130
-610.230	-114.486	-0.219	-0.042
-609.215	443.233	0.105	0.232
-608.201	-140.322	0.295	-0.031
-607.186	-200.000	-0.054	-0.311
-606.171	800.000	-0.105	-0.304
-605.157	602.975	0.024	0.059
-604.142	-39.764	-0.268	-0.141
-603.128	365.718	-0.044	0.089
-602.113	37.659	-0.065	0.058
-601.098	185.150	-0.132	0.198
-600.084	-7.530	0.426	0.291
-599.069	-80.351	-0.190	-0.064
-598.055	-31.803	0.176	0.099
-597.040	-110.114	-0.198	0.042
-596.025	800.000	-0.029	-0.093
-595.011	31.839	-0.184	-0.159
-593.996	-200.000	-0.047	-0.242
-592.982	235.864	-0.119	-0.198
-591.967	112.679	0.048	0.059
-590.952	-42.339	0.120	-0.062
-589.938	53.282	0.167	-0.161
-588.923	-22.674	-0.122	0.074
-587.909	17.975	-0.270	0.217
-586.894	71.932	0.208	0.218
-585.879	622.932	-0.088	0.224
-584.865	-200.000	0.001	-0.164
-583.850	-8.631	0.217	0.147
-582.836	13.572	0.144	0.113
-581.821	-47.907	-0.283	-0.138
-580.806	-200.000	-0.000	0.206
-579.792	188.607	0.201	0.302
-578.777	232.471	-0.193	-0.319
-577.763	-55.884	-0.160	0.072
-576.748	-11.027	0.268	0.178
-575.733	-122.533	0.086	-0.014
-574.719	-200.000	0.004	-0.103
-573.704	-32.908	-0.159	0.089
-572.690	339.809	0.109	-0.215
-571.675	-131.978	-0.096	0.013
-570.661	479.617	-0.030	-0.068
-569.646	36.551	-0.076	-0.068
-568.631	534.883	-0.080	-0.191
-567.617	-87.744	0.167	-0.051
-566.602	-138.968	0.125	0.014
-565.588	-124.185	0.186	-0.029
-564.573	738.267	0.055	-0.148
-563.558	-12.299	0.288	0.190
-562.544	587.477	0.074	0.184
-561.529	-2.846	-0.281	0.197
-560.515	149.226	-0.107	0.146
-559.500	-200.000	0.033	-0.154
-558.485	-200.000	0.034	0.378
-557.471	800.000	0.142	-0.459
-556.456	-131.116	0.213	-0.028
-555.442	-46.506	-0.255	-0.126
-554.427	-77.012	-0.357	0.125
-553.412	31.668	0.118	0.102
-552.398	-200.000	-0.001	-0.133
-551.383	-200.000	0.116	-0.568
-550.369	-200.000	-0.044	-0.223
-549.354	440.655	-0.113	0.249
-548.339	-178.871	0.252	-0.006
-547.325	-200.000	-0.056	0.261
-546.310	47.603	-0.023	-0.022
-545.296	107.939	-0.140	-0.168
-544.281	-200.000	-0.088	-0.455
-543.266	59.189	-0.057	0.056
-542.252	-133.327	0.193	0.024
-541.237	-95.377	0.186	0.050
-540.223	296.619	0.109	-0.200
-539.208	-99.049	0.105	0.027
-538.193	14.714	-0.123	0.097
-537.179	-117.193	-0.270	0.049
-536.164	93.515	0.064	-0.073
-535.150	-200.000	-0.449	0.001
-534.135	-61.574	-0.315	0.133
-533.121	800.000	0.112	-0.315
-532.106	544.358	0.082	-0.198
-531.091	-200.000	-0.013	0.241
-530.077	-200.000	0.000	0.138
-529.062	349.743	0.166	-0.329
-528.048	-45.320	-0.234	0.117
-527.033	-46.413	-0.253	0.125
-526.018	90.184	0.068	0.077
-525.004	-200.000	0.017	-0.178
-523.989	32.487	-0.132	-0.114
-522.975	403.732	-0.018	-0.039
-521.960	90.341	-0.224	-0.252
-520.945	-71.944	-0.238	0.089
-519.931	-146.409	-0.198	-0.017
-518.916	150.630	0.140	-0.192
-517.902	-200.000	-0.342	0.001
-516.887	-9.844	-0.259	-0.173
-515.872	-200.000	-0.016	-0.198
-514.858	160.881	-0.149	0.208
-513.843	-33.538	0.197	0.109
-512.829	348.161	-0.192	-0.379
-511.814	444.171	0.018	0.041
-510.799	-200.000	-0.040	0.248
-509.785	-200.000	-0.001	-0.039
-508.770	-71.432	-0.378	-0.142
-507.756	-200.000	-0.040	-0.275
-506.741	-200.000	-0.051	0.272
-505.726	282.585	0.087	0.157
-504.712	122.295	0.077	0.096
-503.697	-14.675	-0.290	-0.187
-502.683	96.001	-0.209	-0.240
-501.668	-62.576	0.068	0.028
-500.653	-180.786	-0.402	-0.008
-499.639	-122.748	-0.251	-0.041
-498.624	-50.390	0.337	-0.160
-497.610	-161.456	-0.421	-0.022
-496.595	97.880	-0.223	-0.257
-495.581	144.492	0.088	-0.118
-494.566	-162.907	-0.214	-0.010
-493.551	183.100	0.066	0.097
-492.537	800.000	0.107	-0.306
-491.522	121.803	0.081	-0.101
-490.508	-94.723	0.283	0.077
-489.493	-200.000	0.085	-0.452
-488.478	800.000	0.010	-0.034
-487.464	-14.719	0.402	-0.259
-486.449	-113.682	-0.049	0.010
-485.435	452.680	0.104	0.231
-484.420	33.590	-0.158	0.137
-483.405	306.260	-0.151	-0.281
-482.391	-58.294	-0.231	-0.101
-481.376	-43.179	0.371	0.189
-480.362	800.000	-0.121	-0.338
-479.347	-54.751	0.192	0.087
-478.332	-144.669	0.049	0.005
-477.318	72.928	0.074	0.078
-476.303	-61.608	-0.426	-0.179
-475.289	-200.000	0.013	-0.074
-474.274	-36.090	0.232	-0.126
-473.259	-141.779	0.029	-0.003
-472.245	484.230	0.093	-0.212
-471.230	-132.619	-0.280	0.036
-470.216	-200.000	0.010	-0.115
-469.201	331.218	-0.150	0.289
-468.186	88.150	0.093	0.103
-467.172	-60.859	0.113	-0.048
-466.157	99.918	-0.151	0.175
-465.143	223.186	0.127	0.206
-464.128	120.473	0.223	-0.278
-463.113	-54.316	0.192	0.088
-462.099	65.774	-0.233	-0.236
-461.084	277.498	-0.151	0.270
-460.070	-200.000	-0.006	0.192
-459.055	-19.578	0.165	-0.102
-458.040	23.040	-0.075	0.062
-457.026	-200.000	-0.018	-0.406
-456.011	-200.000	-0.015	0.229
-454.997	-200.000	0.019	-0.176
-453.982	-200.000	0.028	0.220
-452.968	207.931	0.162	-0.254
-451.953	191.234	-0.100	-0.151
-450.938	-152.513	0.145	0.010
-449.924	-200.000	0.001	0.141
-448.909	222.844	-0.202	-0.326
-447.895	453.752	-0.091	-0.203
-446.880	-40.583	0.230	0.120
-445.865	-166.183	-0.012	-0.000
-444.851	21.126	-0.182	-0.148
-443.836	39.395	-0.358	-0.321
-442.822	281.546	0.015	0.027
-441.807	-98.493	-0.308	-0.079
-440.792	-140.822	0.241	0.025
-439.778	-56.771	0.191	-0.085
-438.763	-200.000	-0.006	-0.255
-437.749	-200.000	-0.061	-0.305
-436.734	-200.000	-0.094	-0.444
-435.719	800.000	-0.087	-0.246
-434.705	23.057	0.203	0.167
-433.690	-200.000	-0.022	-0.212
-432.676	-90.840	0.259	-0.075
-431.661	-79.217	0.211	-0.072
-430.646	151.167	-0.165	-0.225
-429.632	-179.234	-0.262	-0.006
-428.617	150.050	-0.070	0.095
-427.603	-29.822	0.189	0.108
-426.588	-200.000	0.027	0.601
-425.573	354.300	-0.176	0.351
-424.559	-200.000	-0.025	0.194
-423.544	497.596	-0.161	0.370
-422.530	-99.507	-0.098	-0.025
-421.515	88.695	0.327	0.364
-420.500	106.973	0.292	-0.347
-419.486	-134.364	0.499	0.061
-418.471	-200.000	-0.001	0.179
-417.457	22.332	0.113	0.092
-416.442	-200.000	-0.013	0.324
-415.428	135.891	0.222	0.289
-414.413	-85.993	0.088	0.027
-413.398	-82.787	0.406	-0.131
-412.384	-1.030	0.186	0.131
-411.369	-200.000	-0.041	0.464
-410.355	392.951	-0.151	0.314
-409.340	-200.000	-0.044	0.217
-408.325	800.000	0.051	0.198
-407.311	203.909	0.089	-0.138
-406.296	626.895	-0.077	0.194
-405.282	115.361	-0.111	0.135
-404.267	157.621	0.193	0.268
-403.252	437.989	-0.152	0.332
-402.238	-51.100	0.103	0.048
-401.223	-4.247	0.205	0.142
-400.209	95.501	-0.275	0.314
-399.194	163.066	0.175	0.246
-398.179	372.595	0.016	0.032
-397.165	-28.529	-0.173	-0.099
-396.150	332.675	0.096	0.186
-395.136	-151.270	-0.138	-0.010
-394.121	800.000	-0.096	0.317
-393.106	-200.000	0.042	-0.262
-392.092	-122.412	0.194	0.032
-391.077	552.343	-0.077	-0.184
-390.063	-200.000	-0.006	-0.176
-389.048	129.126	0.203	-0.258
-388.033	-79.785	0.181	0.061
-387.019	76.817	-0.139	-0.147
-386.004	-200.000	-0.193	-0.001
-384.990	-177.756	0.460	0.011
-383.975	-183.958	0.356	0.006
-382.960	800.000	0.080	0.306
-381.946	800.000	-0.021	0.092
-380.931	-200.000	-0.076	0.338
-379.917	-49.775	-0.274	-0.130
-378.902	18.853	-0.452	-0.362
-377.888	24.354	0.406	0.335
-376.873	160.387	0.120	0.167
-375.858	-101.512	-0.125	-0.030
-374.844	-146.089	-0.067	0.006
-373.829	800.000	0.044	-0.181
-372.815	-200.000	0.256	0.000
-371.800	-148.405	0.155	-0.013
-370.785	-53.715	0.316	0.144
-369.771	694.188	0.073	0.192
-368.756	143.972	0.074	0.099
-367.742	447.556	0.101	0.221
-366.727	-186.754	0.219	0.003
-365.712	-153.406	0.218	-0.015
-364.698	800.000	0.101	-0.347
-363.683	-99.223	-0.348	-0.088
-362.669	-200.000	0.018	-0.216
-361.654	233.560	-0.053	-0.087
-360.639	-142.914	-0.363	0.035
-359.625	65.371	0.259	-0.261
-358.610	317.642	-0.060	-0.113
-357.596	-53.180	0.346	0.158
-356.581	124.994	-0.168	0.212
-355.566	-62.832	-0.210	0.087
-354.552	-104.598	-0.253	-0.058
-353.537	161.574	0.183	0.256
-352.523	105.666	-0.086	-0.102
-351.508	-200.000	0.013	-0.414
-350.493	-39.517	0.294	-0.154
-349.479	451.319	0.074	-0.163
-348.464	-200.000	0.027	0.242
-347.450	-2.204	-0.208	0.146
-346.435	-200.000	0.030	-0.141
-345.420	-127.666	0.234	0.034
-344.406	-29.444	0.123	0.070
-343.391	483.808	0.118	-0.267
-342.377	-200.000	-0.062	-0.273
-341.362	116.101	0.258	0.316
-340.348	-118.876	-0.192	0.034
-339.333	215.006	-0.063	0.099
-338.318	232.970	0.082	0.135
-337.304	-200.000	-0.003	-0.019
-336.289	800.000	0.048	0.190
-335.275	1.885	-0.058	-0.041
-334.260	-97.376	-0.131	0.034
-333.245	604.641	-0.061	0.151
-332.231	800.000	0.028	0.088
-331.216	-65.989	-0.131	0.052
-330.202	-39.673	-0.253	0.132
-329.187	-200.000	-0.006	0.219
-328.172	-76.844	0.354	-0.123
-327.158	438.589	-0.103	-0.224
-326.143	-26.037	-0.108	-0.063
-325.129	224.237	0.152	-0.244
-324.114	-155.343	0.151	0.010
-323.099	88.152	0.129	-0.143
-322.085	-146.440	0.264	0.023
-321.070	272.771	-0.106	0.187
-320.056	358.971	0.140	-0.279
-319.041	2.166	0.222	-0.160
-318.026	39.800	0.125	0.112
-317.012	166.202	-0.185	-0.260
-315.997	-144.510	-0.236	0.022
-314.983	145.870	-0.256	-0.343
-313.968	-48.685	-0.074	0.035
-312.953	-56.575	-0.355	0.157
-311.939	-17.587	0.294	0.184
-310.924	15.255	0.050	0.039
-309.910	-113.309	0.445	-0.087
-308.895	-200.000	-0.008	0.142
-307.880	-93.089	0.361	-0.100
-306.866	31.342	-0.105	-0.090
-305.851	800.000	0.026	-0.100
-304.837	-126.316	-0.259	0.039
-303.822	216.921	0.134	0.212
-302.807	-31.982	0.347	-0.193
-301.793	-189.282	0.072	0.001
-300.778	125.561	-0.100	0.126
-299.764	-86.046	-0.109	0.034
-298.749	104.698	-0.093	-0.109
-297.735	395.692	0.082	0.170
-296.720	16.955	0.230	0.182
-295.705	500.551	0.074	0.171
-294.691	-157.478	-0.297	-0.018
-293.676	-60.241	0.395	-0.167
-292.662	-200.000	-0.001	0.056
-291.647	198.301	-0.068	-0.103
-290.632	-22.832	-0.188	0.113
-289.618	-65.296	0.183	0.073
-288.603	107.398	-0.062	-0.074
-287.589	-20.265	0.087	0.054
-286.574	-132.270	0.222	0.029
-285.559	-200.000	0.021	0.344
-284.545	684.905	-0.102	-0.265
-283.530	35.324	-0.050	0.044
-282.516	-200.000	-0.010	-0.264
-281.501	-85.724	0.124	0.038
-280.486	470.344	0.041	-0.092
-279.472	-200.000	0.034	-0.211
-278.457	3.878	0.090	0.065
-277.443	103.181	-0.139	-0.162
-276.428	-72.264	0.128	-0.047
-275.413	-168.059	0.221	0.009
-274.399	-70.771	0.290	0.109
-273.384	-45.462	-0.215	-0.106
-272.370	-62.694	0.212	0.088
-271.355	-64.984	0.599	-0.241
-270.340	25.924	0.205	0.170
-269.326	60.734	0.157	0.155
-268.311	341.277	-0.093	-0.181
-267.297	201.171	0.166	-0.254
-266.282	-69.600	-0.063	-0.024
-265.267	-89.618	0.290	0.085
-264.253	719.047	-0.018	0.047
-263.238	800.000	0.008	0.026
-262.224	-141.032	-0.126	0.013
-261.209	-107.230	-0.313	0.069
-260.195	-35.295	0.346	0.187
-259.180	377.781	0.207	0.421
-258.165	-176.561	-0.559	0.014
-257.151	-125.083	0.216	0.033
-256.136	-100.993	-0.243	-0.059
-255.122	749.024	0.079	-0.211
-254.107	-200.000	-0.013	-0.242
-253.092	800.000	-0.033	-0.116
-252.078	17.906	0.139	-0.110
-251.063	15.589	0.154	0.120
-250.049	110.321	0.185	0.221
-249.034	88.534	-0.077	0.085
-248.019	-34.128	-0.283	0.154
-247.005	-110.044	0.224	0.047
-245.990	-200.000	-0.051	-0.401
-244.976	98.591	-0.164	-0.188
-243.961	55.730	0.061	0.059
-242.946	108.695	-0.242	0.287
-241.932	164.439	0.223	0.313
-240.917	-49.563	-0.061	0.029
-239.903	154.838	0.103	-0.141
-238.888	-0.599	0.218	0.154
-237.873	800.000	-0.053	0.210
-236.859	-170.895	0.174	0.006
-235.844	800.000	0.054	-0.190
-234.830	-58.705	0.034	-0.015
-233.815	-200.000	0.007	-0.119
-232.800	-200.000	-0.017	-0.242
-231.786	-71.081	0.076	-0.028
-230.771	-200.000	0.002	-0.331
-229.757	-86.237	0.149	-0.046
-228.742	-35.319	-0.066	0.036
-227.727	-12.071	-0.088	-0.057
-226.713	-200.000	0.026	-0.149
-225.698	128.760	-0.064	-0.081
-224.684	72.269	0.060	-0.062
-223.669	-200.000	0.002	0.066
-222.655	-200.000	0.002	-0.023
-221.640	-150.264	0.089	-0.007
-220.625	-65.895	-0.172	0.068
-219.611	-73.190	0.373	-0.136
-218.596	-200.000	0.023	0.186
-217.582	44.382	0.173	0.158
-216.567	-101.519	-0.090	0.022
-215.552	-104.542	0.042	-0.010
-214.538	18.594	0.243	0.193
-213.523	-46.361	-0.188	-0.091
-212.509	564.474	-0.085	-0.204
-211.494	81.797	-0.206	-0.221
-210.479	-91.560	-0.106	0.030
-209.465	-0.608	-0.127	0.089
-208.450	-6.957	-0.072	0.049
-207.436	-153.832	-0.393	-0.027
-206.421	-11.361	0.102	0.067
-205.406	220.283	0.130	0.206
-204.392	309.330	0.020	0.036
-203.377	339.632	0.121	-0.233
-202.363	-73.313	-0.213	-0.077
-201.348	-200.000	-0.007	-0.096
-200.333	800.000	-0.014	0.050
-199.319	-28.237	-0.158	0.091
-198.304	-11.105	-0.356	0.233
-197.290	45.095	-0.094	0.086
-196.275	454.736	-0.064	0.141
-195.260	641.040	0.070	0.176
-194.246	-200.000	0.007	0.154
-193.231	-200.000	0.014	0.398
-192.217	138.114	-0.203	-0.264
-191.202	-74.080	0.269	0.097
-190.187	229.612	0.077	-0.124
-189.173	-200.000	0.033	-0.191
-188.158	-101.057	-0.250	0.061
-187.144	-138.364	0.227	0.025
-186.129	-200.000	-0.057	0.294
-185.114	-136.812	-0.457	0.052
-184.100	171.971	0.107	-0.153
-183.085	209.125	0.147	-0.228
-182.071	250.800	0.185	-0.311
-181.056	463.868	0.165	-0.365
-180.042	800.000	0.037	0.108
-179.027	-106.042	0.073	0.016
-178.012	665.113	-0.033	0.085
-176.998	-11.510	0.134	0.087
-175.983	216.472	0.086	0.135
-174.969	-116.584	-0.044	-0.008
-173.954	-20.318	-0.105	-0.064
-172.939	242.222	0.123	0.204
-171.925	513.319	-0.091	-0.211
-170.910	800.000	0.074	-0.215
-169.896	-89.412	-0.259	-0.076
-168.881	30.853	0.192	0.163
-167.866	-200.000	0.030	-0.146
-166.852	-128.112	-0.285	0.040
-165.837	-131.639	-0.255	-0.033
-164.823	311.769	0.107	0.198
-163.808	-200.000	0.067	0.505
-162.793	-200.000	-0.007	0.139
-161.779	-200.000	-0.259	-0.000
-160.764	-186.840	0.255	-0.004
-159.750	-184.181	0.314	0.005
-158.735	800.000	-0.061	-0.235
-157.720	453.358	-0.093	-0.204
-156.706	-97.954	-0.118	0.030
-155.691	-115.972	-0.203	0.038
-154.677	347.457	-0.073	-0.142
-153.662	-200.000	0.017	0.136
-152.647	-65.134	-0.201	-0.080
-151.633	265.667	0.104	0.179
-150.618	-200.000	-0.039	0.301
-149.604	-158.781	0.280	0.016
-148.589	26.169	-0.212	0.175
-147.574	-47.841	-0.392	-0.188
-146.560	99.788	0.129	0.148
-145.545	259.129	-0.156	0.267
-144.531	297.688	0.075	-0.136
-143.516	-31.024	0.241	-0.134
-142.502	800.000	0.134	-0.517
-141.487	-4.280	-0.308	0.211
-140.472	-0.517	-0.148	-0.104
-139.458	-39.214	0.265	0.138
-138.443	48.261	-0.103	0.095
-137.429	97.167	0.250	-0.284
-136.414	800.000	-0.034	-0.096
-135.399	437.737	-0.051	-0.110
-134.385	681.753	-0.053	-0.136
-133.370	368.348	-0.205	0.410
-132.356	-49.581	0.123	-0.058
-131.341	-61.403	0.185	-0.077
-130.326	-200.000	-0.005	-0.118
-129.312	51.722	-0.055	0.052
-128.297	183.319	0.180	0.263
-127.283	-102.650	-0.124	-0.029
-126.268	-92.604	-0.194	-0.054
-125.253	-200.000	0.058	0.355
-124.239	-126.465	0.182	-0.027
-123.224	-25.355	-0.038	0.022
-122.210	-93.872	-0.075	-0.020
