DTS Sentinel unit serial number:	SN413079Multiplexer serial number:	ORYXHardware model number:	OX4-SRSoftware version number:	ORYX F/W v4.00 Oryx Data Collector v3.7.2.0data status	okinstallation	princeton_trtdifferential loss correction	single-endedforward channel	channel 2reverse channel	N/Adate	2019/09/11time	20:25:10forward acquisition time	60.00reverse acquisition time	0.00gamma	496.2192k internal	0.2318k external	0.2318temperature offset calibration	1.0054default loss term (dB/km)	0.3790temperature slope calibration	1.0000multiplexer offset coefficient	1.0000multiplexer slope coefficient	1.0000fibre end	0.00T internal ref (°C)	37.83T ext. ref 1 (°C)	1.48T ext. ref 2 (°C)	31.55length (m)	temperature (°C)	Stokes	anti-Stokes-747.200	-174.908	0.107	-0.003
-746.185	104.263	-0.091	0.109
-745.171	-109.870	0.277	0.059
-744.156	112.890	-0.375	0.460
-743.142	-154.793	0.360	0.024
-742.127	216.000	-0.109	-0.176
-741.112	192.444	-0.156	-0.239
-740.098	93.813	-0.200	0.229
-739.083	-200.000	-0.043	0.208
-738.069	-10.877	0.225	0.150
-737.054	250.166	-0.098	0.168
-736.039	178.469	-0.174	-0.257
-735.025	84.834	0.187	0.208
-734.010	-71.948	-0.382	-0.144
-732.996	505.570	0.058	0.137
-731.981	215.972	0.156	0.251
-730.966	-63.546	-0.344	0.143
-729.952	-32.984	-0.258	0.145
-728.937	76.130	-0.300	-0.321
-727.923	17.275	-0.149	0.120
-726.908	-52.545	-0.121	-0.057
-725.894	-169.608	-0.112	0.004
-724.879	110.108	0.152	-0.185
-723.864	800.000	-0.008	-0.036
-722.850	193.666	-0.140	0.215
-721.835	5.613	0.145	-0.108
-720.821	-200.000	-0.013	-0.337
-719.806	800.000	0.063	0.178
-718.791	-67.367	-0.128	0.051
-717.777	378.476	-0.121	-0.250
-716.762	800.000	-0.102	-0.327
-715.748	-12.148	-0.324	-0.215
-714.733	113.181	0.189	0.232
-713.718	-200.000	-0.094	0.425
-712.704	-11.523	0.079	-0.052
-711.689	123.171	-0.137	-0.174
-710.675	-200.000	-0.040	-0.210
-709.660	113.338	0.041	-0.050
-708.645	94.980	0.090	-0.104
-707.631	75.894	-0.199	-0.213
-706.616	-174.560	-0.208	-0.006
-705.602	-200.000	-0.015	-0.082
-704.587	34.201	0.093	-0.082
-703.572	-26.756	-0.310	0.183
-702.558	231.553	-0.025	0.041
-701.543	221.368	0.102	-0.166
-700.529	-6.298	-0.178	-0.123
-699.514	-57.953	0.350	-0.154
-698.499	800.000	-0.061	-0.197
-697.485	-67.370	-0.132	0.052
-696.470	-28.820	0.232	0.135
-695.456	-36.123	-0.168	0.092
-694.441	-200.000	-0.015	0.386
-693.426	-86.341	-0.172	0.054
-692.412	-55.466	0.275	0.124
-691.397	-33.215	-0.094	0.053
-690.383	-200.000	-0.030	-0.148
-689.368	-30.015	-0.287	-0.165
-688.354	-200.000	-0.001	0.037
-687.339	-32.313	0.384	-0.216
-686.324	284.346	-0.102	0.185
-685.310	191.858	0.045	0.068
-684.295	644.070	-0.100	0.256
-683.281	-38.697	0.246	0.131
-682.266	116.670	0.063	-0.077
-681.251	103.471	-0.196	0.232
-680.237	157.322	-0.076	0.107
-679.222	800.000	0.042	0.175
-678.208	-42.079	-0.075	-0.039
-677.193	18.208	0.092	0.074
-676.178	-200.000	-0.079	-0.352
-675.164	-17.197	0.028	-0.018
-674.149	47.062	0.214	-0.201
-673.135	-118.797	-0.211	-0.037
-672.120	-200.000	0.023	-0.301
-671.105	-200.000	-0.036	-0.389
-670.091	-164.231	0.359	-0.017
-669.076	56.958	0.320	0.315
-668.062	800.000	0.088	0.304
-667.047	-7.653	0.225	0.153
-666.032	-155.068	-0.104	-0.007
-665.018	-95.581	0.039	-0.010
-664.003	-185.467	-0.246	0.004
-662.989	-42.264	0.261	0.134
-661.974	-200.000	-0.074	0.354
-660.959	26.491	-0.146	-0.123
-659.945	-200.000	-0.014	0.153
-658.930	432.694	0.175	0.382
-657.916	-54.005	-0.117	-0.054
-656.901	33.270	-0.116	-0.102
-655.886	-91.259	-0.082	-0.024
-654.872	113.493	-0.013	0.016
-653.857	96.057	-0.200	0.230
-652.843	800.000	-0.031	-0.124
-651.828	259.609	-0.118	-0.206
-650.814	-38.892	0.206	-0.109
-649.799	-97.079	-0.186	0.049
-648.784	689.276	0.041	0.109
-647.770	-200.000	0.050	-0.322
-646.755	-68.292	0.031	-0.012
-645.741	20.756	-0.168	0.138
-644.726	-200.000	-0.091	-0.464
-643.711	17.179	0.145	0.116
-642.697	-31.234	-0.223	0.127
-641.682	341.208	0.068	0.133
-640.668	-200.000	-0.039	-0.192
-639.653	-27.988	-0.259	0.151
-638.638	-3.311	0.077	-0.054
-637.624	-65.000	-0.117	-0.048
-636.609	-66.733	0.131	-0.052
-635.595	-96.969	0.452	-0.119
-634.580	-200.000	0.032	0.153
-633.565	229.600	0.101	0.166
-632.551	-30.103	-0.186	-0.107
-631.536	-134.053	0.208	-0.026
-630.522	81.478	-0.177	0.193
-629.507	-200.000	-0.036	-0.203
-628.492	-200.000	-0.012	-0.178
-627.478	-90.347	-0.142	0.041
-626.463	-56.504	-0.214	-0.096
-625.449	-10.805	-0.172	-0.115
-624.434	-200.000	0.055	-0.384
-623.419	166.487	-0.094	-0.134
-622.405	-200.000	-0.027	0.203
-621.390	401.485	0.161	-0.341
-620.376	-110.300	-0.198	-0.041
-619.361	106.985	-0.193	0.231
-618.346	59.868	-0.116	0.116
-617.332	800.000	-0.024	0.075
-616.317	-10.205	0.163	0.109
-615.303	-122.663	-0.370	0.060
-614.288	800.000	-0.088	-0.246
-613.273	772.600	-0.042	0.115
-612.259	214.992	-0.069	0.109
-611.244	-92.265	0.122	-0.035
-610.230	800.000	0.018	0.051
-609.215	-200.000	0.039	-0.287
-608.201	-20.475	-0.213	-0.132
-607.186	-5.253	0.328	-0.227
-606.171	677.746	0.040	-0.104
-605.157	-10.831	0.106	-0.071
-604.142	-143.758	-0.339	0.032
-603.128	139.429	-0.136	0.180
-602.113	-118.583	0.193	-0.034
-601.098	-41.158	-0.164	-0.085
-600.084	-200.000	-0.195	0.001
-599.069	-200.000	0.058	0.645
-598.055	365.676	-0.222	0.451
-597.040	-69.578	-0.441	-0.170
-596.025	96.032	-0.121	0.140
-595.011	382.022	-0.096	0.197
-593.996	-111.285	0.242	0.050
-592.982	-170.105	-0.214	-0.008
-591.967	-124.256	-0.419	-0.066
-590.952	302.824	0.126	-0.235
-589.938	-164.480	-0.376	-0.017
-588.923	-57.821	0.276	-0.122
-587.909	21.556	0.087	0.071
-586.894	-70.022	0.158	-0.060
-585.879	-50.863	0.224	-0.106
-584.865	-104.077	-0.236	0.055
-583.850	800.000	-0.036	0.109
-582.836	-200.000	-0.012	-0.232
-581.821	293.699	-0.027	-0.050
-580.806	-45.249	-0.361	0.180
-579.792	-145.509	0.510	-0.046
-578.777	-77.968	0.312	0.108
-577.763	152.083	-0.119	-0.163
-576.748	-5.782	0.352	0.243
-575.733	212.222	-0.114	-0.180
-574.719	-39.990	-0.087	-0.046
-573.704	461.299	-0.127	-0.285
-572.690	-200.000	-0.323	0.000
-571.675	-87.839	-0.165	-0.050
-570.661	377.278	-0.053	0.109
-569.646	213.366	-0.177	-0.280
-568.631	-200.000	-0.042	0.517
-567.617	-23.490	-0.324	0.196
-566.602	-200.000	0.026	0.157
-565.588	61.210	-0.292	0.292
-564.573	363.234	-0.072	0.145
-563.558	194.347	0.138	0.210
-562.544	-96.177	0.231	-0.062
-561.529	-85.241	-0.228	-0.072
-560.515	260.236	-0.075	-0.131
-559.500	-51.719	-0.179	-0.084
-558.485	151.746	-0.069	0.094
-557.471	146.548	-0.287	0.387
-556.456	800.000	-0.035	-0.108
-555.442	303.452	-0.072	0.135
-554.427	-86.167	-0.224	-0.069
-553.412	-44.386	0.095	0.048
-552.398	537.187	0.042	-0.101
-551.383	-144.911	-0.089	-0.008
-550.369	-200.000	-0.009	-0.144
-549.354	-200.000	0.019	-0.169
-548.339	137.229	-0.074	0.097
-547.325	-113.248	-0.124	-0.025
-546.310	-60.823	-0.271	0.115
-545.296	800.000	0.017	-0.074
-544.281	800.000	-0.050	-0.172
-543.266	-200.000	-0.026	-0.284
-542.252	-104.723	0.104	-0.024
-541.237	-93.251	-0.102	-0.029
-540.223	-200.000	0.016	0.120
-539.208	138.753	0.200	-0.264
-538.193	174.982	-0.063	0.091
-537.179	-101.946	0.190	-0.046
-536.164	800.000	-0.028	-0.120
-535.150	-200.000	-0.024	-0.365
-534.135	-200.000	-0.003	0.192
-533.121	98.153	0.111	0.129
-532.106	66.062	-0.317	-0.323
-531.091	305.911	0.169	0.315
-530.077	303.824	0.137	-0.256
-529.062	-157.333	0.142	-0.009
-528.048	-200.000	-0.019	-0.154
-527.033	-21.802	0.139	0.085
-526.018	398.979	0.031	-0.064
-525.004	-149.441	0.141	0.011
-523.989	-4.317	-0.211	0.147
-522.975	308.610	0.133	-0.249
-521.960	210.321	-0.065	-0.102
-520.945	389.898	0.128	-0.266
-519.931	-189.375	0.284	0.003
-518.916	39.481	0.100	0.090
-517.902	550.951	0.078	0.188
-516.887	800.000	-0.059	-0.172
-515.872	34.991	0.100	-0.088
-514.858	-156.216	0.137	-0.009
-513.843	800.000	0.101	0.379
-512.829	-21.809	0.349	-0.213
-511.814	-200.000	0.000	-0.113
-510.799	138.360	0.249	0.327
-509.785	800.000	0.021	-0.063
-508.770	-156.787	-0.265	-0.016
-507.756	201.439	-0.279	0.431
-506.741	43.966	-0.257	-0.236
-505.726	-24.638	0.080	0.048
-504.712	-42.868	-0.148	0.075
-503.697	143.165	-0.065	-0.087
-502.683	383.029	-0.028	-0.058
-501.668	800.000	0.056	0.156
-500.653	-13.499	0.285	-0.185
-499.639	-43.875	0.224	-0.113
-498.624	-200.000	0.023	-0.378
-497.610	243.560	0.157	-0.264
-496.595	-200.000	0.076	0.351
-495.581	-102.049	0.245	0.059
-494.566	737.814	0.022	-0.059
-493.551	-55.150	0.253	-0.114
-492.537	89.295	0.165	0.184
-491.522	160.637	-0.035	0.049
-490.508	-98.456	-0.213	-0.055
-489.493	800.000	-0.090	-0.249
-488.478	-116.560	0.175	0.032
-487.464	79.132	-0.140	-0.150
-486.449	-200.000	-0.024	-0.125
-485.435	177.770	-0.078	0.114
-484.420	36.591	0.103	-0.091
-483.405	-68.049	0.258	-0.101
-482.391	-32.144	0.083	0.046
-481.376	186.215	0.101	-0.150
-480.362	-200.000	0.031	0.163
-479.347	800.000	-0.052	-0.215
-478.332	-200.000	-0.004	-0.049
-477.318	156.967	0.292	-0.404
-476.303	100.973	0.348	-0.405
-475.289	-123.561	-0.343	-0.055
-474.274	-79.773	0.229	0.077
-473.259	-75.928	0.237	0.084
-472.245	21.825	-0.236	0.193
-471.230	-92.180	0.187	-0.053
-470.216	-18.588	0.137	-0.086
-469.201	522.279	0.054	0.127
-468.186	164.622	0.122	0.172
-467.172	32.750	0.137	-0.118
-466.157	-47.492	-0.294	0.143
-465.143	-0.835	-0.061	0.043
-464.128	73.891	0.055	-0.058
-463.113	-200.000	0.020	-0.131
-462.099	252.008	0.075	-0.128
-461.084	60.338	0.297	-0.294
-460.070	191.561	-0.267	-0.403
-459.055	694.225	0.082	0.216
-458.040	-30.947	0.148	-0.083
-457.026	-190.851	-0.064	0.001
-456.011	-165.993	-0.202	-0.009
-454.997	-200.000	0.031	-0.297
-453.982	-72.826	0.311	0.115
-452.968	686.178	-0.150	0.393
-451.953	46.768	0.097	0.090
-450.938	-39.986	0.278	-0.145
-449.924	51.976	-0.205	0.196
-448.909	-1.024	-0.187	-0.132
-447.895	-200.000	-0.025	-0.310
-446.880	-200.000	0.002	-0.086
-445.865	800.000	0.012	0.035
-444.851	-119.714	-0.621	-0.107
-443.836	-200.000	0.020	0.218
-442.822	-86.069	0.142	-0.044
-441.807	-16.616	0.289	0.183
-440.792	-144.306	-0.144	-0.013
-439.778	696.587	0.081	-0.213
-438.763	-200.000	-0.035	-0.202
-437.749	800.000	0.129	0.365
-436.734	347.309	-0.114	0.225
-435.719	-11.593	0.051	-0.034
-434.705	495.157	0.050	0.114
-433.690	267.734	-0.054	-0.094
-432.676	42.602	-0.097	-0.088
-431.661	-200.000	-0.004	-0.207
-430.646	-200.000	-0.003	-0.056
-429.632	-117.887	-0.436	-0.078
-428.617	133.746	-0.321	0.416
-427.603	-39.353	-0.490	0.257
-426.588	-100.353	0.281	-0.070
-425.573	800.000	0.069	0.189
-424.559	800.000	-0.028	-0.085
-423.544	418.358	-0.023	-0.048
-422.530	-148.596	0.232	-0.019
-421.515	229.726	0.071	-0.115
-420.500	-23.296	-0.109	0.066
-419.486	-200.000	0.005	-0.276
-418.471	-200.000	0.042	-0.306
-417.457	-142.695	-0.185	0.018
-416.442	-72.889	0.194	0.071
-415.428	-116.209	0.121	0.023
-414.413	800.000	-0.029	-0.123
-413.398	107.548	-0.268	0.319
-412.384	51.912	-0.281	0.267
-411.369	-200.000	-0.018	-0.121
-410.355	-200.000	0.012	-0.235
-409.340	89.395	0.076	-0.085
-408.325	-121.531	0.280	-0.046
-407.311	-111.037	-0.278	0.057
-406.296	177.342	0.070	0.102
-405.282	27.892	0.167	0.140
-404.267	-175.898	0.025	-0.001
-403.252	-200.000	0.002	-0.062
-402.238	-47.008	0.107	-0.052
-401.223	800.000	0.083	0.257
-400.209	-92.239	-0.311	0.088
-399.194	178.775	0.168	-0.246
-398.179	-30.359	-0.101	0.057
-397.165	218.390	-0.082	-0.131
-396.150	-18.347	0.111	0.069
-395.136	-85.366	0.230	-0.072
-394.121	-61.780	-0.054	-0.022
-393.106	196.781	-0.031	0.047
-392.092	-6.494	0.037	0.025
-391.077	-32.903	-0.028	0.015
-390.063	-52.554	-0.216	0.100
-389.048	-11.292	-0.165	0.108
-388.033	-84.399	0.228	0.072
-387.019	-200.000	-0.016	0.105
-386.004	130.886	-0.122	-0.156
-384.990	-200.000	-0.003	-0.086
-383.975	-24.158	-0.184	-0.110
-382.960	-22.807	-0.261	-0.157
-381.946	-200.000	-0.063	-0.391
-380.931	-129.241	-0.248	-0.034
-379.917	-200.000	-0.058	0.309
-378.902	419.156	-0.094	0.201
-377.888	-150.544	0.063	-0.005
-376.873	2.219	-0.111	-0.080
-375.858	-102.979	0.021	0.005
-374.844	-200.000	-0.008	0.074
-373.829	30.379	-0.124	0.106
-372.815	-85.438	0.130	0.040
-371.800	231.609	-0.076	0.123
-370.785	-152.922	-0.267	0.019
-369.771	-102.761	0.140	-0.033
-368.756	196.055	0.064	0.098
-367.742	699.217	0.039	-0.101
-366.727	-121.136	0.037	-0.006
-365.712	-200.000	0.004	-0.089
-364.698	131.141	0.206	0.263
-363.683	45.880	-0.081	0.075
-362.669	-200.000	0.020	-0.308
-361.654	11.168	0.111	0.084
-360.639	60.899	-0.241	-0.238
-359.625	373.351	0.107	-0.218
-358.610	800.000	-0.077	0.298
-357.596	12.379	0.182	-0.140
-356.581	40.040	0.220	-0.197
-355.566	-67.620	0.231	0.090
-354.552	-19.076	0.288	0.178
-353.537	61.406	-0.158	-0.157
-352.523	-200.000	0.007	-0.325
-351.508	-139.945	0.101	0.011
-350.493	-61.570	0.309	-0.129
-349.479	-141.316	-0.238	-0.024
-348.464	-200.000	0.010	0.089
-347.450	234.166	0.107	0.176
-346.435	-48.513	0.433	0.207
-345.420	-112.547	-0.054	0.011
-344.406	-160.051	-0.122	0.007
-343.391	-25.154	-0.232	-0.137
-342.377	90.706	0.146	-0.163
-341.362	-39.303	-0.334	0.174
-340.348	-63.289	0.074	-0.030
-339.333	-200.000	-0.046	-0.379
-338.318	-200.000	-0.037	0.234
-337.304	800.000	0.126	0.350
-336.289	-200.000	0.018	0.084
-335.275	107.227	-0.216	0.255
-334.260	-144.057	-0.167	-0.016
-333.245	-200.000	-0.004	-0.113
-332.231	-200.000	0.224	-0.001
-331.216	-200.000	0.038	0.254
-330.202	-200.000	0.017	-0.212
-329.187	-18.457	-0.179	-0.112
-328.172	-118.477	-0.210	0.037
-327.158	-101.087	-0.015	-0.004
-326.143	28.342	-0.084	0.070
-325.129	372.832	-0.122	0.246
-324.114	536.392	-0.103	0.244
-323.099	800.000	0.065	-0.281
-322.085	-200.000	0.008	0.294
-321.070	-33.486	-0.219	0.120
-320.056	-148.379	-0.051	-0.004
-319.041	20.531	0.066	-0.053
-318.026	-169.193	0.154	-0.006
-317.012	-55.978	0.088	-0.039
-315.997	-37.240	-0.264	0.140
-314.983	105.938	0.067	-0.079
-313.968	798.373	0.103	-0.281
-312.953	-175.686	0.208	0.006
-311.939	-111.027	0.259	-0.053
-310.924	-200.000	-0.016	-0.174
-309.910	-166.314	-0.406	0.017
-308.895	380.860	0.043	-0.087
-307.880	32.787	-0.051	-0.044
-306.866	-57.651	-0.353	0.154
-305.851	418.907	0.053	-0.113
-304.837	-200.000	0.002	-0.154
-303.822	-71.137	0.311	-0.116
-302.807	-200.000	-0.111	0.545
-301.793	473.020	-0.192	0.430
-300.778	568.380	-0.062	0.150
-299.764	-17.447	0.085	-0.053
-298.749	800.000	-0.107	0.352
-297.735	55.356	0.174	-0.168
-296.720	-137.724	0.188	0.021
-295.705	78.340	-0.116	0.124
-294.691	14.333	0.109	0.085
-293.676	207.207	0.084	0.130
-292.662	-30.976	0.192	0.108
-291.647	-6.724	0.130	0.088
-290.632	623.564	-0.045	-0.113
-289.618	-121.753	0.287	-0.047
-288.603	-15.876	-0.179	-0.114
-287.589	25.938	0.098	-0.082
-286.574	132.692	0.154	-0.198
-285.559	-135.055	-0.150	0.018
-284.545	65.561	0.249	-0.250
-283.530	800.000	0.083	0.318
-282.516	-84.133	-0.103	0.033
-281.501	-52.687	-0.184	-0.084
-280.486	-8.682	-0.195	-0.130
-279.472	-125.649	0.278	-0.042
-278.457	86.533	0.175	0.191
-277.443	800.000	-0.092	-0.268
-276.428	-126.070	-0.252	-0.038
-275.413	-18.985	0.163	-0.101
-274.399	-165.041	0.180	0.008
-273.384	18.190	0.151	0.120
-272.370	-91.549	0.056	0.016
-271.355	55.534	-0.093	-0.090
-270.340	-126.288	-0.099	-0.015
-269.326	-173.962	0.194	-0.006
-268.311	-116.521	0.285	-0.052
-267.297	-13.532	0.099	0.064
-266.282	-9.030	-0.168	-0.112
-265.267	-200.000	-0.015	0.261
-264.253	-200.000	-0.002	-0.110
-263.238	141.293	-0.106	-0.140
-262.224	800.000	0.041	-0.132
-261.209	800.000	-0.018	0.060
-260.195	-200.000	0.054	-0.453
-259.180	-46.559	0.298	-0.145
-258.165	-57.818	0.099	0.043
-257.151	-200.000	0.000	0.480
-256.136	12.782	0.168	-0.129
-255.122	1.168	-0.362	-0.258
-254.107	123.731	0.206	0.256
-253.092	232.833	0.209	-0.341
-252.078	-45.306	0.099	0.049
-251.063	-200.000	-0.017	0.109
-250.049	178.462	0.031	0.045
-249.034	4.436	0.246	0.179
-248.019	100.571	0.167	-0.192
-247.005	87.644	-0.179	0.197
-245.990	800.000	0.080	0.238
-244.976	-82.540	0.192	0.062
-243.961	569.988	0.061	-0.148
-242.946	49.249	0.282	-0.263
-241.932	-159.826	0.078	0.004
-240.917	-200.000	0.026	0.135
-239.903	-126.617	-0.024	0.003
-238.888	330.696	0.080	0.153
-237.873	800.000	0.034	-0.118
-236.859	-58.480	-0.244	0.105
-235.844	3.852	0.081	0.059
-234.830	-110.234	-0.308	0.064
-233.815	-53.969	-0.165	-0.075
-232.800	-126.045	-0.423	0.063
-231.786	281.824	-0.049	-0.088
-230.771	644.179	-0.168	0.426
-229.757	204.360	-0.186	-0.285
-228.742	-33.913	-0.068	-0.037
-227.727	376.845	0.034	-0.069
-226.713	800.000	-0.061	0.263
-225.698	-22.198	-0.142	0.085
-224.684	138.900	-0.084	-0.109
-223.669	181.540	0.082	-0.120
-222.655	360.057	0.036	0.071
-221.640	318.490	0.207	0.388
-220.625	38.404	0.059	0.052
-219.611	800.000	0.074	0.219
-218.596	362.793	-0.106	0.210
-217.582	-184.139	-0.185	0.003
-216.567	51.914	-0.491	-0.463
-215.552	279.384	0.081	-0.143
-214.538	130.336	0.170	0.216
-213.523	230.475	-0.168	0.273
-212.509	-105.521	0.169	-0.038
-211.494	-147.923	0.358	0.030
-210.479	124.443	0.162	-0.202
-209.465	60.821	-0.084	-0.082
-208.450	-63.267	0.149	0.061
-207.436	-200.000	0.008	0.253
-206.421	14.757	0.364	-0.282
-205.406	184.675	0.077	-0.113
-204.392	-52.478	0.105	-0.048
-203.377	-89.273	-0.308	0.090
-202.363	-0.455	-0.229	0.161
-201.348	-200.000	0.017	0.220
-200.333	-29.879	0.260	-0.147
-199.319	85.637	0.033	0.036
-198.304	-200.000	0.029	0.206
-197.290	-200.000	0.063	-0.536
-196.275	-148.836	0.258	-0.021
-195.260	-200.000	0.068	0.309
-194.246	167.157	-0.056	-0.079
-193.231	342.862	-0.080	0.155
-192.217	-35.054	0.226	-0.122
-191.202	-27.498	-0.036	0.021
-190.187	-200.000	0.020	-0.412
-189.173	-200.000	0.008	0.388
-188.158	-97.288	0.095	-0.025
-187.144	11.562	0.173	-0.131
-186.129	-188.541	-0.039	-0.000
-185.114	-59.524	0.248	0.106
-184.100	14.248	-0.096	-0.074
-183.085	-200.000	-0.053	0.322
-182.071	-20.357	-0.272	0.166
-181.056	-73.842	-0.250	0.090
-180.042	-13.250	-0.083	0.053
-179.027	-33.540	-0.141	-0.077
-178.012	246.881	0.062	0.103
-176.998	-200.000	-0.006	-0.083
-175.983	99.049	0.011	0.013
-174.969	91.761	-0.104	-0.116
-173.954	-118.558	0.157	0.027
-172.939	-200.000	-0.022	0.192
-171.925	800.000	0.081	0.249
-170.910	-187.380	0.250	-0.003
-169.896	-200.000	0.025	-0.203
-168.881	161.504	-0.223	-0.308
-167.866	207.302	0.070	-0.108
-166.852	-127.212	0.215	0.031
-165.837	800.000	0.097	-0.309
-164.823	677.510	-0.016	0.040
-163.808	34.882	-0.146	-0.126
-162.793	-107.199	0.286	0.062
-161.779	558.749	0.166	0.395
-160.764	-154.190	-0.148	0.010
-159.750	8.103	-0.217	0.161
-158.735	-200.000	-0.003	0.095
-157.720	659.687	-0.114	0.291
-156.706	800.000	0.066	-0.220
-155.691	-200.000	-0.004	0.222
-154.677	-200.000	-0.020	0.378
-153.662	36.274	0.438	0.381
-152.647	62.059	0.214	0.211
-151.633	220.474	-0.136	-0.216
-150.618	-200.000	-0.007	0.297
-149.604	-200.000	-0.040	0.182
-148.589	-36.966	-0.334	0.177
-147.574	-200.000	-0.004	-0.165
-146.560	800.000	-0.106	0.410
-145.545	-200.000	-0.072	-0.391
-144.531	-77.244	-0.264	-0.091
-143.516	357.127	0.157	0.310
-142.502	-141.057	-0.306	0.031
-141.487	-31.730	-0.049	-0.027
-140.472	800.000	-0.027	0.094
-139.458	43.425	0.198	0.179
-138.443	-91.156	-0.376	-0.107
-137.429	-200.000	-0.016	-0.230
-136.414	-35.819	-0.133	0.071
-135.399	-129.349	0.293	0.040
-134.385	-74.422	0.237	0.084
-133.370	175.653	0.123	0.176
-132.356	-184.903	-0.364	-0.006
-131.341	800.000	0.187	0.618
-130.326	-72.872	0.248	0.090
-129.312	416.327	-0.081	-0.171
-128.297	350.672	-0.154	0.300
-127.283	139.740	0.113	-0.148
-126.268	735.966	0.055	0.144
-125.253	800.000	-0.061	-0.243
-124.239	-116.021	0.195	-0.036
-123.224	105.761	-0.185	0.216
-122.210	-200.000	0.012	-0.262
