DTS Sentinel unit serial number:	SN413079Multiplexer serial number:	ORYXHardware model number:	OX4-SRSoftware version number:	ORYX F/W v4.00 Oryx Data Collector v3.7.2.0data status	okinstallation	princeton_trtdifferential loss correction	single-endedforward channel	channel 2reverse channel	N/Adate	2019/09/12time	06:33:11forward acquisition time	60.00reverse acquisition time	0.00gamma	496.2192k internal	0.2324k external	0.2324temperature offset calibration	1.0062default loss term (dB/km)	0.3790temperature slope calibration	1.0000multiplexer offset coefficient	1.0000multiplexer slope coefficient	1.0000fibre end	0.00T internal ref (°C)	32.16T ext. ref 1 (°C)	1.57T ext. ref 2 (°C)	27.25length (m)	temperature (°C)	Stokes	anti-Stokes-747.200	-200.000	0.024	0.231
-746.185	541.705	0.108	0.261
-745.171	-200.000	0.005	0.142
-744.156	-200.000	-0.074	0.425
-743.142	72.700	0.206	0.217
-742.127	-74.668	-0.091	0.033
-741.112	2.931	0.190	-0.139
-740.098	-119.756	-0.340	-0.059
-739.083	-167.743	0.105	0.004
-738.069	-200.000	-0.039	0.570
-737.054	510.795	0.038	0.089
-736.039	5.602	-0.279	-0.208
-735.025	-132.886	0.474	-0.061
-734.010	65.485	-0.146	0.149
-732.996	-84.886	-0.296	-0.094
-731.981	162.947	0.317	0.450
-730.966	-168.713	0.232	-0.009
-729.952	69.029	-0.193	0.200
-728.937	84.120	-0.045	0.050
-727.923	-54.555	0.397	0.181
-726.908	47.696	-0.048	0.045
-725.894	-93.887	-0.289	0.080
-724.879	-22.862	-0.260	-0.158
-723.864	-11.144	-0.196	-0.130
-722.850	-200.000	-0.035	-0.268
-721.835	-0.751	-0.167	-0.119
-720.821	668.905	-0.156	-0.407
-719.806	389.887	0.097	-0.203
-718.791	193.358	0.212	-0.324
-717.777	-73.621	-0.086	-0.032
-716.762	-88.802	0.133	0.040
-715.748	94.391	-0.021	0.025
-714.733	8.363	-0.450	-0.341
-713.718	60.239	0.110	-0.110
-712.704	153.659	0.007	0.009
-711.689	83.310	-0.156	-0.171
-710.675	-84.780	-0.521	-0.165
-709.660	-42.408	0.225	0.116
-708.645	325.249	0.099	-0.191
-707.631	800.000	-0.051	-0.186
-706.616	-200.000	-0.000	0.056
-705.602	-62.284	-0.142	-0.060
-704.587	16.873	-0.061	0.049
-703.572	-10.286	-0.229	0.153
-702.558	-33.746	0.134	0.074
-701.543	7.281	-0.293	0.220
-700.529	488.069	0.099	0.227
-699.514	-71.304	0.330	0.125
-698.499	339.994	0.129	0.254
-697.485	800.000	0.020	-0.069
-696.470	-54.735	0.278	0.127
-695.456	800.000	0.031	-0.097
-694.441	800.000	0.050	-0.149
-693.426	671.151	-0.079	-0.205
-692.412	64.114	-0.096	-0.097
-691.397	-165.315	-0.029	-0.001
-690.383	286.804	-0.068	-0.124
-689.368	222.722	-0.010	0.016
-688.354	8.382	0.068	0.052
-687.339	-6.637	-0.037	0.026
-686.324	-126.925	-0.056	0.008
-685.310	38.894	0.024	-0.021
-684.295	353.105	0.067	0.135
-683.281	-99.261	0.195	-0.050
-682.266	-200.000	-0.006	0.105
-681.251	-103.727	-0.112	0.026
-680.237	-200.000	0.008	0.104
-679.222	-200.000	-0.022	0.205
-678.208	84.924	-0.142	0.157
-677.193	-40.833	-0.096	0.050
-676.178	-200.000	-0.015	-0.066
-675.164	-78.219	0.165	-0.057
-674.149	-35.671	-0.161	-0.088
-673.135	454.979	0.073	-0.164
-672.120	-90.321	-0.267	-0.078
-671.105	-200.000	-0.021	0.379
-670.091	713.683	0.071	-0.190
-669.076	-52.678	0.302	-0.140
-668.062	-200.000	-0.026	-0.202
-667.047	800.000	0.029	0.118
-666.032	107.790	-0.133	-0.159
-665.018	219.929	-0.069	0.111
-664.003	-200.000	-0.017	0.162
-662.989	395.066	-0.096	0.201
-661.974	800.000	-0.060	0.220
-660.959	266.004	0.160	0.281
-659.945	-117.019	0.269	0.049
-658.930	524.339	-0.051	0.121
-657.916	12.494	0.288	-0.223
-656.901	15.946	0.154	-0.122
-655.886	-200.000	0.004	-0.028
-654.872	-83.813	0.116	-0.037
-653.857	-29.791	-0.270	-0.155
-652.843	13.495	-0.059	0.046
-651.828	118.061	-0.102	0.126
-650.814	-29.525	-0.032	0.018
-649.799	188.128	0.064	-0.096
-648.784	448.043	-0.083	0.185
-647.770	-86.417	0.180	-0.056
-646.755	800.000	0.139	-0.404
-645.741	66.168	0.112	-0.115
-644.726	-200.000	-0.023	-0.277
-643.711	800.000	0.054	-0.151
-642.697	-37.474	-0.147	0.079
-641.682	-137.567	-0.157	0.018
-640.668	-88.241	-0.274	0.082
-639.653	27.749	-0.068	-0.058
-638.638	-10.378	-0.278	0.185
-637.624	103.576	-0.067	0.079
-636.609	-18.714	0.056	0.035
-635.595	54.519	-0.080	0.077
-634.580	35.113	-0.153	-0.135
-633.565	173.936	-0.096	0.139
-632.551	-95.814	0.201	0.054
-631.536	-73.703	0.241	0.088
-630.522	-200.000	0.006	-0.071
-629.507	305.261	0.118	0.221
-628.492	-200.000	0.008	0.266
-627.478	-200.000	0.019	0.346
-626.463	-87.191	0.257	0.079
-625.449	273.968	-0.191	-0.340
-624.434	-3.286	0.065	0.046
-623.419	67.165	0.025	0.026
-622.405	17.549	0.134	0.107
-621.390	-200.000	0.070	-0.413
-620.376	-200.000	0.043	-0.220
-619.361	-200.000	-0.045	-0.394
-618.346	-134.947	-0.263	-0.032
-617.332	59.228	-0.337	0.333
-616.317	-200.000	-0.054	0.338
-615.303	-200.000	-0.027	0.340
-614.288	78.034	-0.167	0.178
-613.273	94.278	0.229	0.261
-612.259	226.091	0.051	-0.083
-611.244	356.226	0.084	0.167
-610.230	-31.892	0.201	0.113
-609.215	-57.241	-0.316	-0.140
-608.201	65.365	-0.263	-0.268
-607.186	42.314	0.156	0.142
-606.171	800.000	-0.060	0.180
-605.157	-52.615	0.481	-0.223
-604.142	-126.206	-0.191	0.029
-603.128	429.025	0.037	0.080
-602.113	-13.573	-0.138	0.090
-601.098	-45.659	0.249	-0.124
-600.084	28.089	-0.136	0.115
-599.069	-39.454	0.146	-0.077
-598.055	-200.000	-0.021	-0.106
-597.040	237.279	0.075	-0.125
-596.025	135.902	-0.181	-0.237
-595.011	-103.222	0.051	-0.012
-593.996	-87.111	0.317	0.097
-592.982	-54.580	-0.209	-0.095
-591.967	-157.871	0.119	0.007
-590.952	128.424	0.054	0.069
-589.938	18.475	-0.122	-0.098
-588.923	-49.254	-0.145	-0.069
-587.909	187.960	0.050	0.075
-586.894	388.917	0.088	0.183
-585.879	-200.000	0.076	0.423
-584.865	-94.173	0.152	0.042
-583.850	-48.445	0.164	-0.079
-582.836	-143.818	0.188	0.018
-581.821	27.442	-0.192	0.162
-580.806	17.721	-0.126	-0.100
-579.792	-1.082	0.162	0.115
-578.777	-144.529	0.325	0.030
-577.763	454.861	-0.055	0.122
-576.748	-141.227	0.156	0.016
-575.733	-66.942	-0.188	0.075
-574.719	-136.595	-0.215	0.025
-573.704	29.904	-0.219	0.188
-572.690	-37.984	-0.294	0.157
-571.675	-100.910	0.178	-0.044
-570.661	100.610	-0.125	0.145
-569.646	-74.325	0.036	-0.013
-568.631	716.851	-0.049	0.130
-567.617	69.903	0.031	-0.032
-566.602	-23.642	0.075	-0.045
-565.588	29.642	0.117	-0.100
-564.573	-97.229	-0.269	-0.070
-563.558	88.624	0.044	-0.049
-562.544	-187.444	0.112	0.002
-561.529	-43.630	-0.185	-0.094
-560.515	-72.923	-0.305	0.113
-559.500	307.975	0.161	-0.302
-558.485	485.659	0.114	0.260
-557.471	-1.119	-0.171	-0.121
-556.456	-200.000	0.055	-0.285
-555.442	-77.281	-0.108	-0.038
-554.427	-161.076	-0.220	-0.012
-553.412	-200.000	-0.011	0.109
-552.398	-200.000	-0.004	-0.024
-551.383	-68.878	-0.173	-0.067
-550.369	-107.382	0.062	0.014
-549.354	-64.046	0.212	0.087
-548.339	-90.898	-0.122	0.035
-547.325	-66.161	-0.246	-0.098
-546.310	-0.876	-0.196	-0.139
-545.296	-69.148	-0.311	-0.120
-544.281	-150.459	-0.579	0.045
-543.266	-104.517	0.190	-0.044
-542.252	308.061	-0.016	0.029
-541.237	-30.083	0.272	0.155
-540.223	800.000	0.040	-0.149
-539.208	-140.967	-0.129	-0.013
-538.193	-103.237	-0.173	-0.041
-537.179	190.123	-0.107	-0.161
-536.164	75.596	0.093	0.099
-535.150	-184.327	0.204	-0.003
-534.135	-116.272	-0.076	-0.014
-533.121	1.693	-0.131	0.094
-532.106	-91.929	0.139	0.040
-531.091	-122.605	-0.274	-0.044
-530.077	108.176	-0.331	-0.395
-529.062	-99.775	0.398	0.100
-528.048	-200.000	-0.015	0.373
-527.033	-200.000	0.008	0.314
-526.018	294.686	0.151	-0.276
-525.004	91.810	0.230	-0.259
-523.989	273.110	0.148	-0.262
-522.975	163.087	0.204	0.286
-521.960	322.048	0.148	0.282
-520.945	-140.771	0.222	-0.023
-519.931	-56.477	0.324	-0.144
-518.916	-1.480	-0.135	-0.095
-517.902	70.093	0.175	-0.181
-516.887	22.090	-0.091	0.074
-515.872	-69.148	0.064	0.025
-514.858	560.739	0.165	-0.399
-513.843	-17.066	-0.184	0.116
-512.829	-26.279	0.041	0.024
-511.814	283.144	-0.083	0.149
-510.799	396.132	0.134	-0.279
-509.785	-133.227	-0.144	-0.018
-508.770	518.833	-0.040	0.093
-507.756	-83.452	-0.143	0.046
-506.741	-200.000	-0.076	0.409
-505.726	800.000	0.061	0.236
-504.712	788.384	-0.049	-0.136
-503.697	605.814	-0.076	0.190
-502.683	114.688	-0.105	-0.128
-501.668	-200.000	-0.025	0.202
-500.653	-134.063	0.098	0.012
-499.639	60.362	-0.173	-0.171
-498.624	-200.000	-0.051	0.363
-497.610	-78.927	0.081	0.027
-496.595	-102.050	-0.335	-0.081
-495.581	-200.000	0.025	0.135
-494.566	436.672	0.098	-0.214
-493.551	-148.762	-0.122	-0.010
-492.537	-17.545	-0.085	-0.053
-491.522	-200.000	-0.035	-0.193
-490.508	-119.603	-0.193	-0.033
-489.493	345.088	0.132	-0.259
-488.478	-25.668	-0.216	0.128
-487.464	41.246	0.395	0.357
-486.449	-172.859	0.308	0.010
-485.435	-200.000	0.005	0.077
-484.420	800.000	-0.056	0.193
-483.405	800.000	0.054	0.155
-482.391	-168.320	0.202	0.008
-481.376	-200.000	0.002	0.127
-480.362	476.155	0.088	-0.198
-479.347	800.000	0.018	0.054
-478.332	-15.632	-0.131	0.083
-477.318	-36.832	0.058	0.031
-476.303	268.431	0.087	-0.153
-475.289	61.620	-0.030	-0.029
-474.274	245.522	0.039	0.065
-473.259	108.895	0.051	-0.061
-472.245	-9.619	0.171	0.114
-471.230	-185.936	-0.353	0.005
-470.216	-50.851	0.199	0.093
-469.201	-168.872	0.221	-0.008
-468.186	377.685	0.095	-0.193
-467.172	134.287	-0.169	0.219
-466.157	189.145	-0.131	0.196
-465.143	1.478	0.083	-0.059
-464.128	48.552	-0.246	-0.231
-463.113	323.411	-0.140	-0.266
-462.099	-84.502	-0.167	0.053
-461.084	195.094	0.136	0.206
-460.070	-200.000	0.016	0.417
-459.055	800.000	-0.125	0.402
-458.040	800.000	-0.098	0.344
-457.026	-200.000	-0.006	0.166
-456.011	-82.947	0.202	0.065
-454.997	-88.871	-0.237	-0.070
-453.982	-98.443	-0.097	0.025
-452.968	110.918	0.017	0.021
-451.953	-108.447	0.275	0.059
-450.938	40.149	0.175	0.157
-449.924	87.798	-0.181	0.200
-448.909	-6.035	-0.126	0.086
-447.895	105.800	0.230	-0.271
-446.880	-200.000	-0.036	-0.162
-445.865	-173.571	0.200	0.006
-444.851	-53.638	-0.087	0.040
-443.836	183.506	-0.140	0.206
-442.822	-200.000	0.043	-0.449
-441.807	-200.000	-0.015	-0.129
-440.792	-170.473	-0.089	-0.003
-439.778	-109.733	0.225	-0.047
-438.763	571.470	0.084	-0.204
-437.749	162.984	-0.118	-0.165
-436.734	514.381	-0.028	0.066
-435.719	405.073	0.138	0.290
-434.705	3.132	0.173	0.125
-433.690	-174.925	-0.024	-0.001
-432.676	-32.341	0.083	-0.046
-431.661	-200.000	0.046	0.346
-430.646	88.940	-0.058	-0.064
-429.632	-13.592	0.050	0.032
-428.617	-144.297	-0.467	0.043
-427.603	66.836	0.098	-0.100
-426.588	0.117	0.132	0.094
-425.573	260.806	0.194	-0.334
-424.559	-200.000	0.020	-0.207
-423.544	304.443	0.121	0.225
-422.530	-125.608	0.212	-0.032
-421.515	207.941	-0.179	-0.279
-420.500	-140.424	-0.225	0.023
-419.486	-200.000	-0.002	0.097
-418.471	49.382	-0.316	0.297
-417.457	25.806	-0.217	-0.180
-416.442	-24.990	0.132	-0.078
-415.428	258.586	0.049	-0.083
-414.413	197.366	0.052	-0.078
-413.398	-200.000	-0.045	-0.223
-412.384	153.100	-0.177	-0.241
-411.369	800.000	-0.108	-0.402
-410.355	351.217	0.047	0.093
-409.340	-14.590	0.117	0.075
-408.325	-129.764	0.315	-0.043
-407.311	-200.000	-0.067	0.324
-406.296	-200.000	0.021	-0.245
-405.282	-200.000	-0.059	-0.282
-404.267	-71.155	-0.378	0.142
-403.252	-163.213	0.315	-0.015
-402.238	-155.347	0.117	-0.008
-401.223	-110.763	0.095	0.020
-400.209	-8.835	0.121	0.081
-399.194	414.773	-0.093	-0.196
-398.179	-200.000	0.019	-0.091
-397.165	-32.301	-0.060	0.033
-396.150	96.689	-0.186	0.212
-395.136	-83.831	-0.123	-0.039
-394.121	-200.000	0.056	-0.316
-393.106	-200.000	-0.004	0.088
-392.092	800.000	0.039	-0.121
-391.077	229.444	0.096	-0.156
-390.063	-113.951	0.245	-0.047
-389.048	167.033	0.042	0.059
-388.033	-200.000	-0.000	-0.490
-387.019	238.045	-0.040	-0.066
-386.004	-91.573	0.226	0.064
-384.990	-52.219	0.198	-0.091
-383.975	291.372	0.150	-0.272
-382.960	192.051	0.114	-0.171
-381.946	-130.358	0.370	0.050
-380.931	-51.664	-0.143	-0.066
-379.917	298.757	-0.151	0.277
-378.902	-200.000	-0.079	0.365
-377.888	-20.434	-0.106	-0.065
-376.873	59.304	0.291	-0.286
-375.858	-125.447	0.287	0.044
-374.844	91.552	0.110	0.123
-373.829	474.097	0.105	0.236
-372.815	-90.702	-0.071	-0.020
-371.800	143.659	-0.149	-0.198
-370.785	28.848	0.228	0.192
-369.771	182.153	0.277	0.406
-368.756	345.325	0.060	0.118
-367.742	-78.425	0.642	-0.219
-366.727	-47.674	-0.074	-0.036
-365.712	15.714	-0.196	0.153
-364.698	82.916	0.251	0.271
-363.683	800.000	-0.093	-0.265
-362.669	-200.000	-0.007	-0.087
-361.654	-112.691	0.082	0.016
-360.639	28.239	0.227	0.191
-359.625	639.887	0.074	0.187
-358.610	-65.337	-0.326	0.130
-357.596	164.030	-0.082	0.115
-356.581	800.000	-0.122	0.417
-355.566	127.021	-0.032	-0.041
-354.552	-200.000	-0.012	0.135
-353.537	55.474	0.086	0.083
-352.523	-23.112	0.218	0.130
-351.508	-200.000	0.002	-0.020
-350.493	35.498	0.194	0.169
-349.479	-200.000	0.024	0.260
-348.464	313.886	-0.108	-0.202
-347.450	-11.661	0.243	-0.159
-346.435	-141.498	0.222	-0.022
-345.420	-200.000	0.062	-0.355
-344.406	800.000	0.067	0.201
-343.391	181.954	0.056	0.083
-342.377	-28.359	-0.153	-0.088
-341.362	222.808	-0.122	0.195
-340.348	-160.158	0.249	0.013
-339.333	66.818	0.229	-0.232
-338.318	-67.575	-0.110	0.043
-337.304	-3.845	0.122	-0.084
-336.289	136.115	-0.062	-0.080
-335.275	-85.991	0.114	-0.035
-334.260	23.678	0.107	0.087
-333.245	222.582	-0.092	-0.147
-332.231	-63.744	-0.316	-0.129
-331.216	436.547	-0.130	0.282
-330.202	151.076	-0.060	0.081
-329.187	631.687	0.112	-0.281
-328.172	-87.677	-0.338	-0.101
-327.158	-184.969	0.292	-0.005
-326.143	-118.083	0.048	-0.009
-325.129	254.678	-0.109	0.185
-324.114	-200.000	0.034	0.199
-323.099	-69.115	0.062	0.024
-322.085	-60.621	0.089	0.038
-321.070	379.517	0.118	0.240
-320.056	-200.000	-0.005	-0.181
-319.041	-93.603	-0.238	0.065
-318.026	-43.644	0.304	-0.152
-317.012	-86.977	0.073	-0.022
-315.997	40.332	0.010	-0.009
-314.983	47.853	-0.137	-0.127
-313.968	-154.609	-0.243	0.016
-312.953	-59.616	-0.154	-0.066
-311.939	-8.300	-0.191	-0.127
-310.924	-62.335	-0.198	0.082
-309.910	-200.000	-0.055	-0.280
-308.895	54.923	0.264	-0.253
-307.880	-200.000	0.038	0.282
-306.866	-200.000	0.014	0.149
-305.851	-169.225	-0.451	0.017
-304.837	798.786	0.159	0.435
-303.822	-15.841	-0.130	-0.082
-302.807	-200.000	-0.007	-0.222
-301.793	123.174	-0.180	-0.224
-300.778	-15.320	-0.131	-0.083
-299.764	78.842	0.130	0.138
-298.749	24.319	0.154	-0.126
-297.735	221.067	0.035	-0.055
-296.720	800.000	-0.127	0.367
-295.705	382.916	0.087	-0.177
-294.691	320.141	-0.173	-0.326
-293.676	514.948	-0.165	-0.382
-292.662	-75.516	0.047	-0.016
-291.647	-200.000	0.055	-0.469
-290.632	-3.572	-0.328	-0.226
-289.618	82.046	0.343	0.369
-288.603	-61.761	0.313	-0.130
-287.589	13.183	-0.231	-0.177
-286.574	800.000	-0.028	-0.108
-285.559	-93.192	0.339	-0.093
-284.545	-200.000	-0.010	-0.066
-283.530	-82.201	-0.242	0.078
-282.516	-29.916	-0.376	-0.212
-281.501	-200.000	-0.003	-0.045
-280.486	510.075	-0.080	-0.185
-279.472	800.000	-0.047	-0.176
-278.457	-13.963	-0.159	-0.101
-277.443	1.842	0.057	0.041
-276.428	-200.000	-0.008	0.215
-275.413	-108.255	0.273	0.058
-274.399	641.110	-0.061	-0.155
-273.384	800.000	0.064	0.276
-272.370	423.577	-0.077	-0.165
-271.355	800.000	-0.044	0.178
-270.340	108.122	-0.119	-0.141
-269.326	-139.503	-0.291	0.031
-268.311	220.489	0.131	-0.209
-267.297	588.606	0.103	-0.251
-266.282	144.719	-0.162	0.215
-265.267	19.747	0.329	-0.263
-264.253	92.361	-0.263	0.294
-263.238	-133.071	0.258	0.032
-262.224	76.547	0.135	-0.142
-261.209	219.139	0.040	0.063
-260.195	-200.000	0.070	-0.312
-259.180	800.000	-0.060	-0.207
-258.165	-58.549	-0.133	-0.057
-257.151	8.680	-0.077	-0.058
-256.136	-200.000	-0.018	0.109
-255.122	-137.493	-0.181	-0.020
-254.107	-200.000	0.022	-0.146
-253.092	-26.829	0.017	-0.010
-252.078	-49.830	0.071	-0.033
-251.063	0.768	-0.228	-0.162
-250.049	-33.023	0.136	-0.075
-249.034	-36.341	0.107	-0.057
-248.019	-108.317	-0.287	-0.061
-247.005	320.454	-0.194	-0.365
-245.990	108.916	-0.196	-0.232
-244.976	800.000	-0.041	0.147
-243.961	78.801	-0.067	-0.071
-242.946	-17.058	0.029	0.018
-241.932	729.307	-0.103	-0.272
-240.917	-200.000	-0.003	-0.112
-239.903	-39.377	-0.230	0.119
-238.888	-200.000	0.031	-0.354
-237.873	-55.884	0.270	-0.119
-236.859	-115.328	0.183	-0.034
-235.844	-200.000	0.018	0.366
-234.830	598.489	0.093	0.229
-233.815	800.000	0.075	0.306
-232.800	-186.961	-0.351	0.005
-231.786	59.841	-0.063	0.062
-230.771	87.348	0.050	-0.055
-229.757	-110.719	-0.339	-0.069
-228.742	-200.000	-0.008	0.118
-227.727	674.979	0.070	-0.180
-226.713	48.587	0.106	-0.098
-225.698	-52.999	-0.387	0.176
-224.684	144.081	-0.070	0.092
-223.669	800.000	-0.027	0.093
-222.655	24.313	0.063	-0.051
-221.640	-58.652	0.362	-0.155
-220.625	-13.245	0.421	0.270
-219.611	-6.835	0.340	-0.229
-218.596	390.123	0.036	0.074
-217.582	177.682	-0.209	-0.302
-216.567	-48.727	0.229	0.109
-215.552	71.196	0.170	0.174
-214.538	-61.420	0.089	-0.037
-213.523	-177.354	0.354	0.009
-212.509	800.000	0.147	-0.522
-211.494	403.600	-0.153	0.317
-210.479	-92.878	-0.176	0.049
-209.465	42.953	0.225	-0.202
-208.450	567.924	0.103	-0.248
-207.436	-154.034	-0.260	-0.017
-206.421	229.561	-0.123	-0.198
-205.406	-200.000	0.022	-0.130
-204.392	-69.212	0.076	-0.029
-203.377	-200.000	0.049	-0.321
-202.363	-200.000	-0.001	0.066
-201.348	-200.000	-0.034	0.203
-200.333	-43.785	0.236	-0.117
-199.319	800.000	-0.035	0.098
-198.304	800.000	-0.072	0.202
-197.290	-12.229	-0.079	0.051
-196.275	91.462	-0.097	0.108
-195.260	800.000	-0.059	0.171
-194.246	-47.423	-0.131	-0.063
-193.231	144.131	0.099	-0.131
-192.217	800.000	-0.035	0.147
-191.202	171.242	-0.090	0.128
-190.187	131.383	-0.150	0.190
-189.173	53.496	-0.257	0.243
-188.158	525.299	0.062	0.145
-187.144	-200.000	0.003	-0.103
-186.129	-200.000	0.070	-0.384
-185.114	-109.888	-0.038	-0.008
-184.100	81.237	0.219	0.234
-183.085	-46.686	-0.112	0.054
-182.071	51.254	0.071	-0.067
-181.056	120.508	-0.164	-0.201
-180.042	-103.774	-0.203	-0.047
-179.027	-153.729	0.215	0.015
-178.012	-144.633	-0.175	-0.016
-176.998	-58.908	-0.235	0.100
-175.983	800.000	-0.104	0.287
-174.969	800.000	0.153	0.435
-173.954	-200.000	-0.003	0.177
-172.939	-200.000	0.003	0.285
-171.925	-52.170	0.117	-0.054
-170.910	57.078	0.108	-0.104
-169.896	-103.378	0.141	-0.033
-168.881	-200.000	0.021	0.306
-167.866	-84.232	-0.201	-0.063
-166.852	-17.687	-0.196	0.122
-165.837	-59.902	-0.354	-0.150
-164.823	101.322	0.131	-0.151
-163.808	-21.691	-0.263	0.158
-162.793	167.163	0.083	0.116
-161.779	238.258	0.170	0.278
-160.764	90.788	0.084	-0.093
-159.750	-125.342	-0.078	0.012
-158.735	539.373	-0.119	0.279
-157.720	-64.566	-0.253	0.101
-156.706	-66.563	0.248	0.097
-155.691	-90.077	-0.122	0.035
-154.677	90.175	0.147	-0.162
-153.662	-200.000	-0.048	-0.365
-152.647	-200.000	0.008	0.104
-151.633	754.333	0.065	0.172
-150.618	-200.000	-0.006	-0.215
-149.604	-143.449	0.172	0.016
-148.589	-200.000	-0.012	0.180
-147.574	132.257	0.054	0.068
-146.560	-200.000	0.079	0.479
-145.545	-81.863	0.072	0.023
-144.531	800.000	0.074	0.205
-143.516	-125.349	-0.238	0.036
-142.502	745.155	0.046	-0.121
-141.487	-200.000	-0.070	0.457
-140.472	139.012	-0.163	0.211
-139.458	32.446	-0.228	-0.194
-138.443	800.000	0.045	0.142
-137.429	-90.045	-0.165	-0.047
-136.414	800.000	-0.053	0.218
-135.399	-200.000	0.071	0.339
-134.385	-200.000	0.022	0.163
-133.370	125.662	0.044	-0.055
-132.356	114.676	0.149	-0.180
-131.341	134.707	0.089	0.113
-130.326	800.000	0.047	0.168
-129.312	52.446	0.208	0.196
-128.297	-135.841	0.162	0.019
-127.283	6.804	0.234	0.171
-126.268	-180.407	-0.255	0.005
-125.253	-30.936	-0.176	0.098
-124.239	-106.082	0.376	0.083
-123.224	-200.000	0.015	-0.175
-122.210	800.000	-0.031	0.128
-121.195	58.578	0.312	-0.302
-120.180	41.684	0.162	-0.145
