DTS Sentinel unit serial number:	SN413079Multiplexer serial number:	ORYXHardware model number:	OX4-SRSoftware version number:	ORYX F/W v4.00 Oryx Data Collector v3.7.2.0data status	okinstallation	princeton_trtdifferential loss correction	single-endedforward channel	channel 2reverse channel	N/Adate	2019/09/11time	20:05:10forward acquisition time	60.00reverse acquisition time	0.00gamma	496.2192k internal	0.2314k external	0.2314temperature offset calibration	1.0048default loss term (dB/km)	0.3790temperature slope calibration	1.0000multiplexer offset coefficient	1.0000multiplexer slope coefficient	1.0000fibre end	0.00T internal ref (°C)	38.59T ext. ref 1 (°C)	1.42T ext. ref 2 (°C)	32.03length (m)	temperature (°C)	Stokes	anti-Stokes-747.200	9.189	0.102	0.078
-746.185	86.335	0.185	0.206
-745.171	50.792	0.164	0.157
-744.156	-200.000	0.030	0.258
-743.142	-36.401	-0.101	0.055
-742.127	800.000	-0.102	0.414
-741.112	-134.669	-0.150	0.019
-740.098	-200.000	0.025	0.543
-739.083	-200.000	0.047	0.354
-738.069	185.753	-0.060	-0.091
-737.054	800.000	0.017	0.077
-736.039	22.019	-0.367	0.303
-735.025	119.839	-0.177	0.222
-734.010	27.806	-0.160	0.136
-732.996	-130.500	0.160	-0.022
-731.981	800.000	0.123	-0.397
-730.966	40.837	0.073	-0.067
-729.952	9.343	0.226	-0.173
-728.937	59.033	0.131	0.130
-727.923	166.135	-0.175	-0.251
-726.908	-65.637	0.175	-0.071
-725.894	800.000	-0.099	-0.295
-724.879	-45.219	0.298	0.150
-723.864	-131.781	0.103	-0.014
-722.850	800.000	-0.024	-0.080
-721.835	23.144	-0.250	-0.208
-720.821	-107.043	-0.209	0.047
-719.806	-107.760	-0.293	0.065
-718.791	-200.000	0.013	-0.511
-717.777	-200.000	0.020	-0.357
-716.762	-30.981	-0.139	-0.079
-715.748	44.939	0.176	0.164
-714.733	274.027	0.200	0.358
-713.718	555.568	0.187	-0.456
-712.704	-143.282	0.344	-0.033
-711.689	21.814	0.210	0.173
-710.675	81.872	0.233	-0.255
-709.660	-86.537	0.070	-0.022
-708.645	-71.290	-0.254	0.096
-707.631	-16.325	0.090	-0.058
-706.616	785.847	0.073	-0.203
-705.602	-99.643	-0.350	-0.089
-704.587	-149.749	-0.274	0.022
-703.572	-200.000	0.016	-0.377
-702.558	-200.000	-0.002	-0.036
-701.543	24.641	0.178	0.149
-700.529	21.076	0.114	-0.093
-699.514	75.002	0.072	-0.077
-698.499	800.000	0.060	0.247
-697.485	-58.622	0.082	0.036
-696.470	-58.574	0.169	0.074
-695.456	-129.540	0.227	-0.032
-694.441	-111.645	0.090	-0.019
-693.426	-200.000	0.029	0.207
-692.412	2.557	0.178	-0.131
-691.397	-179.146	-0.223	0.005
-690.383	800.000	-0.061	-0.271
-689.368	-121.108	-0.370	-0.063
-688.354	-47.989	0.134	-0.066
-687.339	-4.965	0.310	-0.216
-686.324	-118.117	-0.035	-0.006
-685.310	-52.147	-0.088	0.041
-684.295	-200.000	-0.002	-0.042
-683.281	-63.718	0.348	0.144
-682.266	58.594	0.131	-0.130
-681.251	-200.000	0.012	-0.263
-680.237	-38.380	-0.146	-0.078
-679.222	-200.000	-0.004	-0.222
-678.208	800.000	-0.025	-0.111
-677.193	800.000	-0.049	-0.200
-676.178	-121.272	-0.166	0.028
-675.164	409.002	-0.167	-0.357
-674.149	152.695	-0.096	-0.132
-673.135	579.923	0.111	-0.276
-672.120	-26.038	-0.163	0.097
-671.105	-200.000	0.022	-0.233
-670.091	628.014	-0.140	0.357
-669.076	-84.114	-0.272	-0.087
-668.062	-200.000	-0.010	-0.267
-667.047	124.836	0.004	-0.006
-666.032	327.719	0.072	0.141
-665.018	34.746	0.126	0.112
-664.003	-27.761	-0.092	-0.054
-662.989	-200.000	-0.021	0.264
-661.974	-132.554	0.315	-0.041
-660.959	166.632	0.078	0.112
-659.945	-118.588	0.308	-0.055
-658.930	800.000	-0.060	-0.176
-657.916	-139.065	0.168	-0.018
-656.901	-89.477	-0.261	-0.078
-655.886	-200.000	-0.075	-0.366
-654.872	137.884	0.190	0.252
-653.857	22.885	0.055	0.046
-652.843	-72.876	0.109	-0.040
-651.828	-76.121	-0.189	-0.067
-650.814	-148.956	0.062	-0.005
-649.799	-110.298	-0.485	0.102
-648.784	-24.073	0.169	-0.102
-647.770	104.795	-0.213	-0.253
-646.755	-200.000	-0.049	0.260
-645.741	-60.218	-0.099	0.043
-644.726	-98.810	0.149	-0.038
-643.711	202.310	-0.096	0.150
-642.697	464.237	0.177	0.400
-641.682	-200.000	0.008	0.301
-640.668	604.504	0.068	-0.170
-639.653	-96.042	-0.534	-0.144
-638.638	-200.000	0.003	-0.299
-637.624	-200.000	-0.041	-0.222
-636.609	-200.000	-0.047	0.297
-635.595	416.660	0.028	-0.060
-634.580	-43.292	0.124	-0.063
-633.565	-133.301	0.182	0.023
-632.551	-200.000	0.351	0.001
-631.536	23.978	-0.260	-0.216
-630.522	-98.766	-0.527	-0.135
-629.507	-200.000	0.030	-0.429
-628.492	-200.000	0.042	-0.284
-627.478	800.000	-0.044	-0.168
-626.463	-155.366	0.231	0.015
-625.449	-21.134	-0.236	0.146
-624.434	-200.000	0.017	-0.284
-623.419	8.061	0.127	0.096
-622.405	-137.268	0.222	-0.025
-621.390	-112.889	0.344	-0.069
-620.376	-44.295	-0.138	-0.070
-619.361	800.000	0.087	0.309
-618.346	-69.288	-0.149	0.058
-617.332	-24.367	-0.140	0.084
-616.317	335.807	-0.071	-0.139
-615.303	-146.422	-0.144	-0.013
-614.288	62.666	-0.116	-0.117
-613.273	-103.115	-0.366	0.087
-612.259	328.913	-0.064	-0.124
-611.244	-200.000	0.042	0.196
-610.230	-200.000	0.067	0.313
-609.215	460.296	0.040	-0.091
-608.201	-118.532	-0.496	0.089
-607.186	-76.737	0.301	-0.106
-606.171	147.896	-0.143	-0.195
-605.157	-74.565	-0.107	0.039
-604.142	-77.645	-0.159	0.056
-603.128	82.492	0.127	0.139
-602.113	142.813	0.042	0.057
-601.098	-200.000	-0.035	0.213
-600.084	123.346	-0.075	0.095
-599.069	-70.393	0.322	-0.123
-598.055	-160.531	-0.170	-0.009
-597.040	-32.534	0.136	0.077
-596.025	-130.981	-0.127	0.017
-595.011	-200.000	-0.007	0.270
-593.996	-93.430	0.227	-0.063
-592.982	800.000	-0.054	0.156
-591.967	-200.000	0.028	0.156
-590.952	194.226	-0.176	-0.268
-589.938	72.359	0.251	0.264
-588.923	-164.071	-0.096	0.004
-587.909	-74.927	-0.150	0.054
-586.894	800.000	-0.089	-0.327
-585.879	344.610	0.063	0.125
-584.865	-200.000	-0.005	-0.193
-583.850	238.963	-0.133	-0.223
-582.836	767.099	-0.139	0.382
-581.821	214.293	0.094	0.150
-580.806	592.130	-0.081	-0.202
-579.792	-43.487	-0.267	-0.136
-578.777	82.343	-0.136	-0.149
-577.763	0.604	-0.118	-0.085
-576.748	-85.272	-0.070	0.022
-575.733	685.786	0.056	0.146
-574.719	285.040	0.236	-0.428
-573.704	72.419	0.146	-0.153
-572.690	28.603	0.192	0.164
-571.675	83.137	-0.128	0.140
-570.661	-39.401	0.270	0.142
-569.646	-96.897	-0.207	-0.055
-568.631	68.244	-0.273	0.282
-567.617	-38.023	-0.198	0.106
-566.602	15.920	0.159	0.126
-565.588	1.984	0.103	-0.075
-564.573	-97.160	-0.244	-0.064
-563.558	215.682	0.072	0.115
-562.544	-86.738	-0.196	-0.060
-561.529	-125.559	-0.289	0.044
-560.515	333.941	-0.127	-0.247
-559.500	49.416	-0.085	0.080
-558.485	0.663	-0.259	-0.187
-557.471	17.354	-0.201	-0.161
-556.456	-71.887	0.300	0.113
-555.442	-164.022	-0.482	0.023
-554.427	800.000	0.059	-0.183
-553.412	296.994	0.209	0.386
-552.398	-200.000	-0.038	-0.242
-551.383	-94.815	0.182	0.050
-550.369	-200.000	-0.027	-0.554
-549.354	-91.927	-0.223	0.064
-548.339	-153.989	0.180	0.012
-547.325	53.356	-0.256	-0.247
-546.310	-1.776	-0.125	0.089
-545.296	-148.921	-0.079	0.006
-544.281	560.801	-0.121	0.293
-543.266	-46.779	0.385	0.190
-542.252	-127.416	0.176	0.026
-541.237	40.721	0.290	-0.263
-540.223	-112.282	0.239	-0.048
-539.208	-130.492	-0.426	0.058
-538.193	-200.000	0.002	0.246
-537.179	91.437	-0.103	0.116
-536.164	-127.889	0.331	0.048
-535.150	21.751	-0.149	0.122
-534.135	36.429	0.166	-0.147
-533.121	166.890	-0.103	0.147
-532.106	61.177	0.132	-0.132
-531.091	800.000	-0.055	-0.177
-530.077	-148.218	-0.258	0.021
-529.062	800.000	0.107	-0.414
-528.048	-64.945	-0.013	-0.005
-527.033	-42.713	-0.427	0.218
-526.018	39.335	0.243	0.219
-525.004	52.463	-0.376	-0.361
-523.989	19.381	0.095	-0.077
-522.975	-121.509	0.200	-0.033
-521.960	800.000	-0.068	-0.259
-520.945	-59.812	0.353	-0.152
-519.931	-92.037	0.315	-0.090
-518.916	-59.843	-0.462	-0.199
-517.902	-32.852	0.085	-0.047
-516.887	49.876	-0.097	-0.092
-515.872	793.008	-0.063	0.173
-514.858	302.427	0.129	0.240
-513.843	-180.957	0.138	-0.003
-512.829	-82.378	-0.223	0.073
-511.814	443.378	0.154	-0.340
-510.799	-200.000	-0.004	-0.051
-509.785	-102.433	-0.429	0.103
-508.770	-91.471	-0.204	0.058
-507.756	-181.973	-0.211	0.004
-506.741	-144.542	-0.239	-0.022
-505.726	800.000	0.025	0.090
-504.712	297.732	0.095	-0.175
-503.697	800.000	0.065	0.210
-502.683	193.690	0.082	0.125
-501.668	-55.450	0.077	-0.035
-500.653	286.866	-0.055	0.099
-499.639	-36.339	-0.245	-0.132
-498.624	-28.227	0.090	-0.052
-497.610	-100.803	-0.398	-0.098
-496.595	-155.093	-0.248	0.016
-495.581	-200.000	-0.002	-0.157
-494.566	800.000	-0.073	0.261
-493.551	136.264	-0.068	0.089
-492.537	800.000	0.032	-0.112
-491.522	-41.068	0.250	-0.130
-490.508	154.009	0.224	-0.308
-489.493	-147.290	0.212	0.018
-488.478	-200.000	0.011	0.263
-487.464	279.124	0.148	-0.266
-486.449	135.840	0.012	-0.016
-485.435	256.513	-0.068	0.117
-484.420	-200.000	0.050	0.506
-483.405	-200.000	0.003	0.231
-482.391	223.286	-0.070	0.113
-481.376	-11.574	0.094	-0.062
-480.362	451.302	-0.032	0.071
-479.347	-200.000	0.037	0.176
-478.332	-26.471	-0.122	0.072
-477.318	800.000	-0.043	0.152
-476.303	-98.310	0.218	0.056
-475.289	-148.329	0.180	0.015
-474.274	-200.000	-0.151	-0.000
-473.259	335.686	0.018	0.035
-472.245	-54.863	-0.319	-0.144
-471.230	109.536	-0.077	-0.092
-470.216	24.135	-0.137	0.114
-469.201	800.000	0.190	0.552
-468.186	-17.671	0.317	-0.200
-467.172	106.477	-0.214	-0.254
-466.157	-155.328	-0.146	0.009
-465.143	62.552	-0.261	0.262
-464.128	800.000	-0.026	0.074
-463.113	697.049	-0.135	0.357
-462.099	-200.000	0.034	-0.374
-461.084	17.701	0.227	-0.181
-460.070	800.000	-0.098	0.295
-459.055	-107.172	0.319	0.070
-458.040	800.000	0.033	0.123
-457.026	667.657	0.085	-0.221
-456.011	-63.461	0.187	0.077
-454.997	736.883	0.006	-0.016
-453.982	36.958	-0.047	-0.042
-452.968	57.699	0.136	-0.133
-451.953	147.258	0.129	-0.174
-450.938	-112.434	-0.230	0.046
-449.924	-93.932	-0.237	-0.065
-448.909	-136.711	-0.186	-0.021
-447.895	406.926	0.041	-0.087
-446.880	-8.495	-0.448	-0.302
-445.865	800.000	-0.069	0.231
-444.851	726.403	-0.073	0.195
-443.836	318.737	-0.029	-0.054
-442.822	-98.283	-0.211	0.054
-441.807	-155.528	0.312	-0.020
-440.792	42.969	-0.039	0.036
-439.778	-141.098	-0.279	-0.029
-438.763	-30.913	-0.056	0.032
-437.749	-5.165	0.097	-0.067
-436.734	-95.115	0.090	-0.024
-435.719	-64.107	0.111	-0.046
-434.705	-40.087	0.203	0.106
-433.690	185.283	-0.233	-0.346
-432.676	324.712	0.182	0.348
-431.661	-32.228	-0.169	0.095
-430.646	101.215	0.118	-0.137
-429.632	-120.187	-0.210	-0.036
-428.617	-200.000	-0.018	0.427
-427.603	-200.000	0.034	0.221
-426.588	-10.284	-0.487	-0.323
-425.573	-34.101	-0.142	-0.078
-424.559	-200.000	-0.001	0.015
-423.544	800.000	-0.047	0.149
-422.530	170.059	-0.124	0.177
-421.515	800.000	0.156	0.465
-420.500	72.720	-0.033	0.035
-419.486	483.389	-0.033	0.074
-418.471	286.717	0.219	0.396
-417.457	73.013	0.094	-0.098
-416.442	800.000	0.022	0.062
-415.428	-0.438	-0.152	0.108
-414.413	275.370	-0.016	0.028
-413.398	-112.095	0.281	-0.057
-412.384	800.000	-0.045	0.141
-411.369	782.056	0.027	-0.074
-410.355	186.237	-0.203	0.303
-409.340	61.270	-0.137	0.137
-408.325	-131.181	-0.125	0.017
-407.311	58.915	-0.214	0.211
-406.296	-105.323	-0.268	0.061
-405.282	161.700	0.280	0.393
-404.267	-60.236	-0.030	0.013
-403.252	702.194	0.033	-0.087
-402.238	474.782	-0.055	-0.124
-401.223	-13.163	-0.063	0.041
-400.209	-200.000	0.044	-0.397
-399.194	-80.537	0.237	0.079
-398.179	443.852	-0.133	0.292
-397.165	61.325	-0.237	-0.236
-396.150	424.354	0.059	-0.126
-395.136	-56.369	0.254	0.113
-394.121	44.790	0.159	0.147
-393.106	-174.130	0.325	0.009
-392.092	-107.083	0.094	0.021
-391.077	-105.291	-0.276	-0.063
-390.063	-29.259	0.268	-0.154
-389.048	-52.332	0.231	-0.107
-388.033	739.167	-0.177	-0.474
-387.019	317.197	-0.095	-0.180
-386.004	204.904	-0.040	0.062
-384.990	138.953	-0.090	-0.118
-383.975	-29.095	0.109	0.063
-382.960	-58.965	-0.291	0.126
-381.946	159.626	-0.087	0.121
-380.931	98.788	-0.126	0.146
-379.917	-56.274	-0.192	0.085
-378.902	38.257	-0.147	-0.131
-377.888	-91.630	-0.124	-0.035
-376.873	-69.185	-0.189	0.073
-375.858	303.041	0.020	0.038
-374.844	-163.334	0.428	-0.020
-373.829	-107.080	0.359	0.079
-372.815	-119.864	0.277	0.048
-371.800	178.575	-0.033	-0.048
-370.785	72.714	-0.110	0.115
-369.771	-95.099	-0.287	-0.078
-368.756	38.910	-0.317	0.283
-367.742	-142.419	-0.130	0.013
-366.727	-68.167	-0.429	0.167
-365.712	800.000	-0.061	0.191
-364.698	263.066	-0.230	0.400
-363.683	94.402	-0.065	0.074
-362.669	800.000	-0.038	-0.117
-361.654	-96.075	0.247	0.066
-360.639	2.072	0.433	0.312
-359.625	-200.000	0.071	0.357
-358.610	-47.843	0.434	-0.210
-357.596	-200.000	-0.020	-0.214
-356.581	41.760	0.408	-0.370
-355.566	-102.349	0.246	-0.059
-354.552	635.621	0.030	0.076
-353.537	-141.600	-0.069	-0.007
-352.523	-118.212	0.463	-0.082
-351.508	15.114	0.302	-0.236
-350.493	-62.523	0.142	0.059
-349.479	12.017	-0.235	-0.180
-348.464	-93.583	0.306	-0.084
-347.450	-31.533	0.291	0.163
-346.435	800.000	-0.077	-0.329
-345.420	-200.000	-0.044	0.195
-344.406	44.949	0.240	-0.221
-343.391	-108.087	0.214	-0.046
-342.377	19.935	-0.182	-0.146
-341.362	-52.632	0.059	-0.027
-340.348	-111.504	-0.073	-0.015
-339.333	-128.365	-0.277	0.039
-338.318	395.961	0.045	-0.094
-337.304	185.658	0.060	-0.089
-336.289	10.755	-0.092	0.070
-335.275	-73.998	-0.194	0.070
-334.260	450.390	0.128	-0.281
-333.245	-200.000	-0.010	-0.064
-332.231	-34.133	0.129	0.071
-331.216	-200.000	0.008	-0.396
-330.202	15.864	-0.338	0.266
-329.187	-200.000	0.050	0.270
-328.172	-70.959	-0.029	-0.011
-327.158	106.040	0.163	0.193
-326.143	800.000	0.023	0.089
-325.129	29.255	-0.155	0.131
-324.114	-102.233	0.189	0.045
-323.099	800.000	-0.071	-0.196
-322.085	-110.809	-0.276	0.057
-321.070	76.760	0.227	0.240
-320.056	-149.939	0.293	-0.023
-319.041	800.000	-0.051	-0.184
-318.026	-7.971	0.193	-0.130
-317.012	-200.000	-0.005	0.081
-315.997	-17.400	0.235	-0.147
-314.983	97.288	0.111	-0.127
-313.968	-59.763	-0.109	-0.047
-312.953	-200.000	-0.007	-0.182
-311.939	87.278	0.189	-0.209
-310.924	756.100	-0.023	0.062
-309.910	800.000	-0.043	0.168
-308.895	-200.000	0.016	-0.084
-307.880	154.645	0.192	0.263
-306.866	-200.000	-0.019	0.237
-305.851	-200.000	-0.018	-0.217
-304.837	-115.761	0.164	-0.031
-303.822	-200.000	0.011	-0.163
-302.807	317.482	-0.145	-0.273
-301.793	-200.000	0.038	-0.228
-300.778	-85.667	-0.416	0.129
-299.764	288.733	-0.051	0.093
-298.749	-132.353	0.286	-0.037
-297.735	-141.279	-0.177	-0.018
-296.720	-200.000	0.005	-0.482
-295.705	44.229	0.043	-0.039
-294.691	-79.176	-0.428	-0.145
-293.676	800.000	0.115	0.331
-292.662	-79.844	0.103	0.034
-291.647	171.490	0.100	-0.143
-290.632	245.019	-0.004	-0.007
-289.618	600.990	-0.029	-0.072
-288.603	-110.834	0.381	-0.078
-287.589	800.000	0.063	0.201
-286.574	407.274	-0.116	0.244
-285.559	-105.914	-0.108	-0.024
-284.545	-85.714	-0.497	-0.154
-283.530	61.002	0.201	0.199
-282.516	800.000	0.095	-0.312
-281.501	44.195	0.140	0.128
-280.486	-98.525	0.254	0.065
-279.472	-126.377	-0.394	-0.058
-278.457	119.061	0.137	0.168
-277.443	800.000	0.050	0.212
-276.428	493.727	0.027	-0.061
-275.413	-200.000	-0.014	-0.063
-274.399	-99.019	-0.225	0.057
-273.384	-200.000	0.007	0.051
-272.370	-54.098	-0.224	0.101
-271.355	190.875	-0.112	0.167
-270.340	-200.000	0.008	-0.046
-269.326	626.178	-0.112	-0.282
-268.311	-124.410	-0.255	0.040
-267.297	-172.504	0.236	0.007
-266.282	-93.423	0.293	-0.081
-265.267	-72.445	0.645	-0.237
-264.253	-15.016	0.142	-0.091
-263.238	-27.537	0.085	-0.049
-262.224	-113.413	0.207	-0.040
-261.209	-200.000	-0.031	-0.237
-260.195	-27.125	0.054	-0.032
-259.180	800.000	-0.093	0.257
-258.165	-200.000	-0.009	-0.229
-257.151	-3.646	0.259	-0.179
-256.136	-200.000	0.007	0.268
-255.122	66.351	-0.302	-0.306
-254.107	27.185	-0.210	-0.175
-253.092	75.060	0.133	-0.139
-252.078	65.883	0.296	-0.298
-251.063	-122.441	-0.186	-0.030
-250.049	434.630	-0.176	0.380
-249.034	-105.359	0.172	0.039
-248.019	-142.206	-0.232	0.023
-247.005	187.243	-0.059	0.087
-245.990	170.454	0.134	-0.191
-244.976	-26.289	0.173	-0.101
-243.961	-8.872	0.239	-0.159
-242.946	57.168	0.102	0.099
-241.932	-102.458	0.200	-0.048
-240.917	-47.834	-0.154	-0.074
-239.903	-104.898	0.124	0.028
-238.888	108.617	0.156	-0.185
-237.873	-200.000	-0.026	-0.321
-236.859	-117.342	0.376	-0.068
-235.844	-200.000	-0.002	-0.055
-234.830	333.310	-0.199	0.383
-233.815	49.228	-0.165	0.154
-232.800	-134.823	0.262	0.032
-231.786	101.137	0.123	0.143
-230.771	-104.252	-0.569	-0.131
-229.757	183.823	0.141	-0.208
-228.742	6.905	0.163	-0.121
-227.727	137.021	0.153	0.198
-226.713	-134.364	-0.022	-0.003
-225.698	95.971	0.254	0.288
-224.684	-58.798	0.150	-0.065
-223.669	-200.000	0.026	-0.140
-222.655	-200.000	0.027	0.200
-221.640	-25.976	0.028	0.017
-220.625	-45.585	0.286	0.141
-219.611	230.837	-0.148	0.241
-218.596	-18.053	-0.145	0.090
-217.582	800.000	0.102	0.306
-216.567	800.000	0.044	-0.187
-215.552	-31.510	0.175	-0.098
-214.538	-90.638	0.110	0.031
-213.523	372.654	-0.078	-0.157
-212.509	-128.847	0.340	0.047
-211.494	92.449	0.088	-0.098
-210.479	54.703	0.137	-0.131
-209.465	91.946	0.095	0.106
-208.450	-98.220	-0.188	-0.048
-207.436	-145.592	0.040	0.004
-206.421	183.835	-0.222	0.327
-205.406	-200.000	0.041	0.286
-204.392	166.571	-0.230	-0.323
-203.377	558.381	-0.108	-0.258
-202.363	-200.000	-0.004	-0.247
-201.348	-200.000	0.041	-0.342
-200.333	495.272	-0.097	0.222
-199.319	-64.181	-0.155	0.063
-198.304	296.078	-0.082	0.149
-197.290	530.149	-0.161	0.377
-196.275	800.000	0.082	0.314
-195.260	662.498	-0.032	0.083
-194.246	-200.000	-0.019	0.130
-193.231	-62.309	0.354	0.146
-192.217	206.285	0.094	0.146
-191.202	800.000	0.007	0.024
-190.187	95.611	-0.183	0.207
-189.173	785.210	0.074	-0.202
-188.158	178.278	-0.154	0.223
-187.144	-83.789	-0.121	0.038
-186.129	-200.000	0.048	-0.295
-185.114	-32.096	0.138	-0.076
-184.100	31.103	0.122	-0.104
-183.085	233.621	0.225	0.368
-182.071	109.429	-0.073	-0.087
-181.056	-200.000	-0.049	0.215
-180.042	107.564	-0.246	0.290
-179.027	-133.552	0.182	-0.023
-178.012	61.100	-0.069	0.068
-176.998	301.946	-0.173	-0.318
-175.983	-92.738	-0.139	-0.039
-174.969	-40.464	-0.114	0.059
-173.954	34.620	0.302	-0.262
-172.939	-101.822	0.220	-0.053
-171.925	204.616	-0.162	-0.248
-170.910	7.171	0.045	-0.033
-169.896	-52.517	0.277	0.127
-168.881	11.919	-0.054	0.041
-167.866	-111.649	-0.170	-0.034
-166.852	76.989	0.204	-0.215
-165.837	135.655	0.080	-0.103
-164.823	311.007	0.036	-0.067
-163.808	61.954	-0.051	0.050
-162.793	574.903	-0.112	0.272
-161.779	-21.920	0.248	-0.149
-160.764	-2.835	-0.152	0.106
-159.750	45.437	0.141	-0.129
-158.735	2.879	0.098	0.071
-157.720	-200.000	0.015	-0.217
-156.706	800.000	0.048	-0.173
-155.691	62.083	0.161	-0.159
-154.677	-150.265	-0.106	-0.008
-153.662	-60.809	0.094	0.039
-152.647	800.000	0.039	-0.123
-151.633	-79.587	0.561	-0.188
-150.618	-200.000	-0.011	0.121
-149.604	79.477	-0.217	0.231
-148.589	-123.410	0.093	-0.015
-147.574	-74.077	0.102	-0.037
-146.560	91.889	-0.083	0.092
-145.545	132.053	0.148	-0.189
-144.531	-106.804	0.096	-0.021
-143.516	-72.343	0.361	0.132
-142.502	41.351	-0.105	0.094
-141.487	-2.853	-0.103	0.071
-140.472	-200.000	0.100	0.000
-139.458	-200.000	-0.026	0.176
-138.443	-200.000	-0.033	-0.396
-137.429	287.665	0.162	0.291
-136.414	-200.000	0.006	0.179
-135.399	-200.000	0.044	0.242
-134.385	460.040	0.099	0.218
-133.370	777.618	0.089	-0.240
-132.356	-200.000	-0.001	0.133
-131.341	10.631	-0.058	0.044
-130.326	67.228	0.155	-0.156
-129.312	-116.457	-0.088	0.016
-128.297	-200.000	0.035	-0.184
-127.283	-79.863	-0.315	0.105
-126.268	90.647	0.231	0.256
-125.253	-198.856	0.246	0.001
-124.239	-85.541	0.279	0.086
-123.224	16.027	0.210	0.164
-122.210	-144.359	-0.108	0.010
-121.195	-156.696	0.376	0.023
