DTS Sentinel unit serial number:	SN413079Multiplexer serial number:	ORYXHardware model number:	OX4-SRSoftware version number:	ORYX F/W v4.00 Oryx Data Collector v3.7.2.0data status	okinstallation	princeton_trtdifferential loss correction	single-endedforward channel	channel 2reverse channel	N/Adate	2019/09/17time	16:55:34forward acquisition time	60.00reverse acquisition time	0.00gamma	496.2192k internal	0.2290k external	0.2290temperature offset calibration	0.9982default loss term (dB/km)	0.3790temperature slope calibration	1.0000multiplexer offset coefficient	1.0000multiplexer slope coefficient	1.0000fibre end	0.00T internal ref (°C)	42.37T ext. ref 1 (°C)	0.35T ext. ref 2 (°C)	38.81length (m)	temperature (°C)	Stokes	anti-Stokes-747.200	396.350	-0.159	0.341
-746.185	-200.000	-0.011	0.229
-745.171	-166.670	0.184	-0.008
-744.156	-200.000	-0.022	0.458
-743.142	204.791	-0.031	-0.049
-742.127	800.000	-0.038	0.119
-741.112	167.203	-0.059	0.086
-740.098	800.000	0.042	-0.165
-739.083	-78.714	0.128	0.045
-738.069	337.522	-0.096	0.191
-737.054	800.000	0.083	-0.257
-736.039	-200.000	0.008	0.254
-735.025	-89.549	-0.214	-0.064
-734.010	-2.762	-0.141	0.101
-732.996	-32.482	-0.165	-0.094
-731.981	-200.000	0.056	-0.282
-730.966	28.953	-0.284	-0.246
-729.952	197.147	-0.193	-0.302
-728.937	-52.737	0.094	-0.044
-727.923	12.518	-0.164	-0.130
-726.908	-80.571	-0.461	0.157
-725.894	113.237	-0.241	0.300
-724.879	35.845	0.105	-0.095
-723.864	-200.000	0.021	-0.109
-722.850	-194.088	0.083	-0.001
-721.835	-200.000	0.041	0.289
-720.821	-68.863	-0.343	-0.135
-719.806	-44.030	-0.512	-0.263
-718.791	17.219	-0.141	-0.114
-717.777	-200.000	-0.019	-0.234
-716.762	326.933	0.049	0.097
-715.748	-73.036	0.369	-0.139
-714.733	-27.023	-0.436	0.261
-713.718	-26.158	-0.164	0.099
-712.704	800.000	0.070	-0.211
-711.689	-83.393	0.236	0.077
-710.675	-77.486	-0.064	-0.023
-709.660	-200.000	-0.033	-0.191
-708.645	-66.478	-0.218	0.089
-707.631	-200.000	0.081	-0.432
-706.616	370.666	-0.133	-0.276
-705.602	-97.707	-0.176	0.047
-704.587	144.143	0.193	-0.264
-703.572	-146.546	0.238	0.021
-702.558	-179.263	-0.436	-0.010
-701.543	-16.150	-0.258	-0.168
-700.529	79.565	-0.267	-0.293
-699.514	-39.452	0.250	0.134
-698.499	113.152	-0.104	-0.129
-697.485	-200.000	-0.030	-0.255
-696.470	709.424	0.063	0.170
-695.456	800.000	0.018	0.075
-694.441	-56.163	0.163	-0.074
-693.426	324.401	0.222	0.433
-692.412	116.936	-0.359	-0.450
-691.397	-72.975	-0.065	-0.024
-690.383	74.382	0.036	-0.039
-689.368	-118.015	-0.137	-0.025
-688.354	-109.231	-0.217	-0.047
-687.339	-27.997	-0.149	0.088
-686.324	32.192	-0.298	-0.263
-685.310	-200.000	0.058	-0.284
-684.295	131.572	0.205	-0.269
-683.281	374.353	0.075	-0.156
-682.266	-60.690	-0.284	-0.123
-681.251	529.037	-0.137	-0.331
-680.237	144.032	-0.121	0.165
-679.222	-0.560	-0.204	0.148
-678.208	491.251	0.031	0.072
-677.193	61.699	0.229	-0.233
-676.178	-83.952	-0.185	-0.060
-675.164	-200.000	0.006	-0.102
-674.149	-200.000	0.018	0.290
-673.135	-200.000	-0.218	0.000
-672.120	598.351	0.083	-0.210
-671.105	41.929	-0.370	0.343
-670.091	85.089	-0.217	-0.243
-669.076	-92.892	-0.138	-0.039
-668.062	655.773	0.096	0.252
-667.047	308.270	-0.050	-0.096
-666.032	5.335	0.118	-0.089
-665.018	-155.286	0.069	-0.005
-664.003	-165.272	-0.396	0.018
-662.989	-38.401	-0.236	-0.128
-661.974	-20.991	0.074	-0.046
-660.959	-15.177	0.140	-0.092
-659.945	-128.619	0.112	0.016
-658.930	162.756	-0.062	0.089
-657.916	12.250	-0.151	0.118
-656.901	-167.854	0.144	-0.006
-655.886	694.994	-0.103	0.275
-654.872	-200.000	0.030	0.142
-653.857	9.489	-0.172	-0.133
-652.843	72.568	-0.167	-0.177
-651.828	51.311	-0.297	0.288
-650.814	-200.000	0.048	-0.302
-649.799	189.247	-0.147	0.224
-648.784	-89.519	0.163	-0.049
-647.770	-200.000	-0.046	0.288
-646.755	800.000	-0.018	0.063
-645.741	800.000	-0.070	-0.232
-644.726	-200.000	0.049	-0.227
-643.711	-176.929	0.310	-0.008
-642.697	156.877	0.136	-0.192
-641.682	-200.000	-0.040	-0.228
-640.668	-50.662	0.025	0.012
-639.653	386.071	-0.069	-0.145
-638.638	-103.497	-0.196	-0.047
-637.624	252.113	0.173	0.301
-636.609	549.896	-0.052	0.127
-635.595	-54.864	0.190	-0.088
-634.580	-72.429	-0.252	-0.095
-633.565	0.316	-0.164	-0.119
-632.551	97.063	-0.247	-0.289
-631.536	-200.000	-0.031	-0.241
-630.522	-200.000	0.006	0.213
-629.507	800.000	0.075	-0.280
-628.492	757.680	-0.046	0.127
-627.478	94.667	0.066	-0.077
-626.463	270.532	0.129	-0.231
-625.449	383.627	-0.135	0.282
-624.434	-193.445	0.050	-0.000
-623.419	303.122	-0.024	-0.045
-622.405	800.000	-0.069	-0.219
-621.390	-200.000	-0.048	0.224
-620.376	-47.478	-0.171	-0.085
-619.361	-200.000	0.046	0.303
-618.346	-200.000	-0.012	-0.101
-617.332	-200.000	-0.029	0.188
-616.317	-79.315	-0.239	-0.083
-615.303	-76.086	-0.413	-0.149
-614.288	-97.750	0.114	-0.030
-613.273	404.471	-0.106	-0.227
-612.259	52.524	0.080	-0.078
-611.244	800.000	-0.047	-0.199
-610.230	-16.146	0.137	0.089
-609.215	465.719	-0.033	0.075
-608.201	-142.327	-0.488	0.049
-607.186	-200.000	0.028	-0.290
-606.171	-98.222	-0.173	0.045
-605.157	-29.827	0.084	0.049
-604.142	-50.614	-0.362	0.174
-603.128	-80.059	0.217	-0.074
-602.113	-56.110	0.260	-0.118
-601.098	-159.857	0.213	0.012
-600.084	800.000	-0.042	0.184
-599.069	-90.790	-0.416	0.122
-598.055	-67.772	0.202	0.080
-597.040	800.000	0.049	0.146
-596.025	-30.981	0.271	-0.156
-595.011	800.000	0.011	0.039
-593.996	421.226	0.093	0.203
-592.982	-200.000	0.062	0.350
-591.967	-143.245	0.245	-0.024
-590.952	-86.100	0.072	0.023
-589.938	-123.096	0.497	-0.081
-588.923	-126.180	0.118	-0.018
-587.909	-200.000	-0.002	0.051
-586.894	-69.221	0.259	0.101
-585.879	-167.257	-0.148	-0.006
-584.865	800.000	-0.038	-0.110
-583.850	176.157	0.148	-0.219
-582.836	249.000	0.159	-0.274
-581.821	31.223	-0.267	-0.233
-580.806	-25.402	0.224	0.135
-579.792	-75.123	-0.343	0.125
-578.777	-37.869	-0.117	0.063
-577.763	-126.708	0.214	0.032
-576.748	-29.728	-0.155	-0.090
-575.733	-139.275	-0.345	-0.038
-574.719	800.000	-0.065	0.282
-573.704	800.000	-0.034	-0.099
-572.690	202.969	0.186	-0.293
-571.675	-27.934	-0.197	0.116
-570.661	-145.337	-0.258	-0.024
-569.646	-200.000	0.010	-0.073
-568.631	-200.000	-0.019	-0.130
-567.617	-200.000	-0.015	-0.109
-566.602	21.225	-0.244	-0.202
-565.588	92.803	-0.129	0.149
-564.573	-200.000	0.048	-0.356
-563.558	230.376	-0.108	0.180
-562.544	-200.000	-0.018	-0.302
-561.529	-200.000	0.020	0.191
-560.515	-73.173	-0.364	0.136
-559.500	-200.000	-0.020	-0.246
-558.485	57.677	0.178	-0.177
-557.471	800.000	-0.067	-0.281
-556.456	800.000	-0.114	0.360
-555.442	172.247	0.113	0.166
-554.427	-181.076	-0.206	0.004
-553.412	151.275	-0.119	-0.164
-552.398	213.337	0.159	-0.255
-551.383	-120.645	0.061	-0.011
-550.369	-35.397	-0.230	-0.127
-549.354	-200.000	0.096	0.516
-548.339	-105.430	0.441	0.102
-547.325	-45.571	0.101	0.051
-546.310	800.000	-0.029	-0.099
-545.296	74.262	-0.133	0.142
-544.281	21.362	0.305	0.252
-543.266	-112.593	0.230	-0.047
-542.252	65.379	-0.155	-0.159
-541.237	155.265	0.019	0.026
-540.223	-104.560	-0.112	-0.026
-539.208	95.175	0.220	-0.254
-538.193	-200.000	-0.001	-0.230
-537.179	126.557	-0.120	-0.154
-536.164	800.000	-0.055	-0.221
-535.150	-200.000	0.029	-0.342
-534.135	-75.273	-0.203	0.074
-533.121	-131.744	-0.336	-0.045
-532.106	584.768	0.068	0.171
-531.091	800.000	0.030	-0.114
-530.077	-200.000	0.036	-0.174
-529.062	-73.947	0.183	-0.067
-528.048	396.277	0.061	0.130
-527.033	-45.170	-0.087	0.044
-526.018	800.000	0.062	0.206
-525.004	54.230	-0.075	-0.073
-523.989	-141.354	0.202	0.021
-522.975	-92.353	-0.175	0.050
-521.960	67.960	-0.168	0.174
-520.945	88.049	-0.327	0.368
-519.931	115.899	-0.110	-0.137
-518.916	424.267	0.176	-0.385
-517.902	-174.695	-0.143	-0.004
-516.887	687.114	-0.027	-0.072
-515.872	800.000	-0.026	0.073
-514.858	-200.000	-0.052	-0.259
-513.843	-98.583	0.235	-0.061
-512.829	-200.000	-0.001	0.027
-511.814	-42.496	-0.304	0.157
-510.799	-200.000	0.004	-0.060
-509.785	429.831	0.134	0.295
-508.770	-66.198	0.163	0.066
-507.756	-116.303	-0.334	-0.063
-506.741	101.456	0.108	0.128
-505.726	-70.361	0.297	-0.114
-504.712	-87.147	-0.205	-0.063
-503.697	-66.845	-0.181	0.073
-502.683	378.514	0.079	-0.165
-501.668	-82.899	-0.226	0.074
-500.653	46.909	0.174	-0.164
-499.639	-45.397	-0.215	0.108
-498.624	-200.000	0.012	0.224
-497.610	-185.566	0.263	0.004
-496.595	-200.000	0.019	0.227
-495.581	-185.751	0.246	0.004
-494.566	-200.000	0.020	-0.153
-493.551	-200.000	0.023	0.124
-492.537	76.571	-0.241	-0.259
-491.522	-18.867	0.052	0.033
-490.508	246.859	-0.101	-0.172
-489.493	-90.562	-0.361	0.106
-488.478	800.000	0.079	0.250
-487.464	-75.019	-0.282	-0.102
-486.449	100.718	-0.148	0.175
-485.435	-28.144	0.236	0.139
-484.420	-193.604	0.273	-0.002
-483.405	-15.095	0.129	-0.084
-482.391	-164.459	-0.135	-0.006
-481.376	-149.918	-0.109	0.009
-480.362	100.378	0.205	-0.241
-479.347	58.498	-0.106	-0.105
-478.332	310.797	0.125	0.237
-477.318	800.000	0.041	-0.158
-476.303	-47.946	0.199	-0.097
-475.289	800.000	0.068	0.241
-474.274	-122.237	-0.230	-0.038
-473.259	-77.304	-0.210	0.074
-472.245	-200.000	0.002	0.107
-471.230	165.366	0.101	-0.145
-470.216	304.320	-0.125	-0.235
-469.201	51.243	0.114	0.109
-468.186	38.453	-0.039	0.035
-467.172	800.000	0.028	0.094
-466.157	-200.000	0.111	0.519
-465.143	-200.000	-0.030	0.477
-464.128	-96.161	0.275	0.074
-463.113	-91.831	-0.273	0.078
-462.099	-200.000	0.009	-0.156
-461.084	9.087	0.185	-0.141
-460.070	-99.134	0.312	0.080
-459.055	-92.337	0.057	-0.016
-458.040	-164.821	-0.176	0.008
-457.026	-73.881	-0.199	-0.073
-456.011	-78.884	0.315	-0.109
-454.997	190.980	0.084	-0.128
-453.982	-200.000	0.021	0.094
-452.968	224.513	0.191	-0.312
-451.953	-21.868	0.223	0.137
-450.938	-145.963	0.338	0.030
-449.924	-122.183	0.300	0.050
-448.909	-200.000	0.016	-0.154
-447.895	800.000	0.077	-0.218
-446.880	-116.942	0.142	0.026
-445.865	572.489	-0.058	-0.144
-444.851	-99.385	0.161	-0.041
-443.836	-131.649	0.269	0.036
-442.822	-62.605	0.306	-0.128
-441.807	-200.000	0.069	-0.376
-440.792	782.245	0.061	0.168
-439.778	142.998	-0.021	-0.028
-438.763	31.794	0.062	-0.054
-437.749	-21.043	-0.135	0.084
-436.734	-96.508	0.395	0.106
-435.719	-114.998	-0.220	0.042
-434.705	26.371	0.190	0.161
-433.690	-200.000	-0.123	0.558
-432.676	137.080	-0.050	0.066
-431.661	658.850	-0.042	0.108
-430.646	800.000	-0.067	-0.201
-429.632	-107.470	-0.112	0.025
-428.617	-95.882	-0.100	-0.027
-427.603	-142.172	-0.168	-0.017
-426.588	0.159	-0.044	0.032
-425.573	47.956	0.034	0.032
-424.559	233.155	-0.056	-0.094
-423.544	584.762	0.169	-0.421
-422.530	800.000	-0.008	-0.031
-421.515	30.425	0.037	0.032
-420.500	800.000	0.050	0.210
-419.486	-58.128	-0.344	-0.152
-418.471	-200.000	-0.024	0.112
-417.457	-151.341	-0.346	-0.026
-416.442	25.272	-0.089	0.075
-415.428	264.588	-0.209	0.368
-414.413	-51.014	-0.204	-0.097
-413.398	-64.929	0.044	0.018
-412.384	-200.000	0.047	0.231
-411.369	47.646	0.216	0.204
-410.355	111.228	0.104	-0.127
-409.340	-32.670	-0.197	-0.111
-408.325	169.342	-0.307	-0.442
-407.311	-81.751	0.119	0.039
-406.296	46.623	-0.244	0.229
-405.282	-200.000	0.001	0.208
-404.267	-47.370	-0.135	-0.066
-403.252	-69.826	0.299	0.115
-402.238	-59.513	0.377	0.163
-401.223	714.576	-0.049	-0.130
-400.209	-200.000	-0.041	-0.262
-399.194	32.720	-0.150	-0.131
-398.179	66.631	-0.143	0.147
-397.165	12.740	-0.104	0.081
-396.150	153.573	0.104	0.144
-395.136	-125.290	-0.166	-0.026
-394.121	-98.819	-0.167	-0.043
-393.106	139.972	-0.056	-0.074
-392.092	130.450	0.319	-0.413
-391.077	-122.471	-0.112	0.018
-390.063	-74.985	-0.158	0.057
-389.048	-142.566	0.192	-0.019
-388.033	110.897	0.096	-0.116
-387.019	-86.523	-0.130	0.040
-386.004	-72.676	-0.122	0.045
-384.990	-31.646	0.138	-0.078
-383.975	52.376	-0.386	-0.372
-382.960	-29.673	0.289	-0.167
-381.946	-200.000	-0.002	-0.048
-380.931	80.484	0.175	0.190
-379.917	-200.000	-0.010	0.127
-378.902	800.000	0.056	0.214
-377.888	69.134	-0.202	0.210
-376.873	-74.184	0.123	-0.045
-375.858	7.393	0.225	-0.170
-374.844	26.525	-0.124	-0.105
-373.829	143.659	0.014	0.019
-372.815	86.585	0.089	-0.099
-371.800	347.111	-0.119	-0.236
-370.785	129.153	0.259	0.333
-369.771	115.013	0.148	0.183
-368.756	-200.000	-0.022	-0.121
-367.742	-156.213	-0.125	-0.008
-366.727	-1.163	-0.211	0.150
-365.712	96.706	-0.149	0.172
-364.698	-10.899	0.141	0.094
-363.683	62.605	0.199	0.201
-362.669	17.592	-0.130	-0.104
-361.654	264.591	0.009	-0.016
-360.639	-200.000	-0.042	-0.221
-359.625	700.334	0.090	0.238
-358.610	-200.000	-0.009	0.329
-357.596	121.415	-0.091	-0.114
-356.581	330.035	-0.132	0.256
-355.566	-89.911	0.354	-0.104
-354.552	800.000	0.116	0.405
-353.537	-135.171	0.077	-0.009
-352.523	39.258	-0.159	-0.144
-351.508	800.000	-0.066	-0.291
-350.493	-124.515	-0.198	-0.031
-349.479	-15.374	0.134	0.086
-348.464	-200.000	-0.056	0.416
-347.450	23.475	0.081	-0.067
-346.435	175.503	-0.006	0.009
-345.420	11.159	-0.429	-0.331
-344.406	-41.322	0.171	-0.089
-343.391	-100.871	0.209	0.052
-342.377	-31.523	-0.120	-0.068
-341.362	-200.000	-0.001	-0.058
-340.348	-115.299	0.321	-0.061
-339.333	1.638	0.187	-0.135
-338.318	-65.040	0.307	0.125
-337.304	-112.043	0.139	-0.028
-336.289	328.351	-0.069	0.133
-335.275	-102.279	0.306	0.074
-334.260	549.012	0.029	0.070
-333.245	-72.164	-0.202	0.076
-332.231	13.610	0.081	-0.063
-331.216	-132.601	-0.284	-0.037
-330.202	80.865	-0.050	-0.055
-329.187	-102.463	-0.150	-0.036
-328.172	584.053	0.125	-0.310
-327.158	-128.432	0.450	-0.064
-326.143	-20.784	-0.139	-0.086
-325.129	-74.973	0.201	-0.073
-324.114	380.922	-0.174	-0.359
-323.099	-200.000	-0.006	-0.106
-322.085	2.842	-0.162	0.119
-321.070	147.799	-0.211	-0.286
-320.056	51.191	0.153	-0.147
-319.041	-200.000	-0.013	-0.138
-318.026	315.841	-0.092	-0.176
-317.012	139.680	0.152	-0.202
-315.997	118.198	-0.255	-0.317
-314.983	-200.000	-0.071	0.356
-313.968	745.599	-0.037	0.101
-312.953	356.435	0.092	0.184
-311.939	-200.000	0.073	-0.388
-310.924	10.086	-0.108	-0.083
-309.910	-200.000	0.004	-0.171
-308.895	-96.377	0.184	0.049
-307.880	142.576	0.140	0.188
-306.866	-118.733	-0.322	-0.057
-305.851	205.748	0.023	-0.036
-304.837	-95.686	-0.276	-0.074
-303.822	800.000	-0.063	-0.244
-302.807	-200.000	-0.050	-0.000
-301.793	-78.975	0.265	-0.091
-300.778	-96.040	0.439	-0.118
-299.764	141.927	0.028	0.037
-298.749	800.000	-0.026	-0.099
-297.735	-83.101	0.167	0.054
-296.720	-153.510	-0.054	0.004
-295.705	39.355	-0.194	0.175
-294.691	38.602	0.193	-0.173
-293.676	-122.093	-0.164	0.027
-292.662	800.000	0.087	0.313
-291.647	-71.414	0.115	0.043
-290.632	-153.075	0.155	-0.011
-289.618	140.260	-0.065	0.087
-288.603	470.962	-0.086	0.194
-287.589	-153.330	0.596	-0.042
-286.574	-200.000	0.046	0.000
-285.559	292.655	-0.054	-0.100
-284.545	106.444	-0.220	0.262
-283.530	-96.823	0.076	-0.020
-282.516	394.885	-0.144	0.302
-281.501	-32.805	0.113	-0.063
-280.486	115.454	-0.159	-0.195
-279.472	250.971	-0.183	-0.314
-278.457	-200.000	0.005	0.148
-277.443	-48.227	-0.305	0.148
-276.428	800.000	-0.101	0.337
-275.413	-200.000	0.014	0.120
-274.399	-135.298	-0.140	-0.017
-273.384	-2.800	-0.060	-0.042
-272.370	205.947	-0.032	-0.049
-271.355	-25.798	0.104	0.061
-270.340	-78.789	0.347	-0.119
-269.326	800.000	-0.068	0.260
-268.311	524.192	-0.100	-0.236
-267.297	409.230	0.091	0.193
-266.282	-200.000	-0.011	-0.205
-265.267	-157.978	-0.273	0.016
-264.253	-7.247	-0.063	0.043
-263.238	457.342	0.123	-0.274
-262.224	-171.820	-0.042	0.001
-261.209	-88.713	-0.191	0.057
-260.195	-200.000	0.038	0.238
-259.180	-0.396	0.161	0.115
-258.165	-200.000	0.047	-0.402
-257.151	-127.156	-0.088	0.013
-256.136	800.000	0.036	-0.103
-255.122	-200.000	0.041	-0.201
-254.107	-34.870	0.347	0.190
-253.092	415.192	0.148	-0.317
-252.078	-95.102	-0.225	-0.061
-251.063	89.593	-0.063	-0.071
-250.049	800.000	0.029	0.109
-249.034	641.710	-0.113	0.289
-248.019	-168.079	0.234	-0.009
-247.005	800.000	0.077	0.231
-245.990	298.461	-0.218	-0.403
-244.976	81.200	0.222	0.241
-243.961	-66.844	0.325	0.129
-242.946	-128.673	-0.160	0.023
-241.932	800.000	-0.174	-0.584
-240.917	141.084	-0.190	0.252
-239.903	-200.000	-0.031	-0.521
-238.888	-33.473	0.298	-0.165
-237.873	-200.000	-0.096	0.440
-236.859	-168.422	0.216	-0.008
-235.844	422.046	-0.024	0.053
-234.830	-43.394	0.280	-0.142
-233.815	270.489	0.055	0.097
-232.800	20.804	0.498	0.405
-231.786	66.345	0.142	-0.145
-230.771	43.257	-0.065	-0.059
-229.757	-135.818	-0.181	-0.021
-228.742	-200.000	-0.408	-0.001
-227.727	186.813	-0.124	0.186
-226.713	134.219	0.335	0.435
-225.698	346.045	0.089	0.176
-224.684	-200.000	0.001	-0.052
-223.669	-200.000	0.065	-0.293
-222.655	-105.456	0.289	-0.066
-221.640	149.376	0.109	0.149
-220.625	-98.653	-0.166	0.042
-219.611	-200.000	0.065	0.357
-218.596	-200.000	0.017	0.107
-217.582	350.177	-0.085	0.168
-216.567	-155.268	-0.220	0.014
-215.552	642.871	-0.142	0.364
-214.538	800.000	-0.123	0.360
-213.523	800.000	0.069	-0.238
-212.509	234.627	0.044	0.073
-211.494	-122.403	0.187	-0.031
-210.479	-78.836	-0.359	-0.123
-209.465	-200.000	0.025	-0.149
-208.450	-64.955	-0.531	-0.215
-207.436	-200.000	0.024	0.164
-206.421	-147.194	0.201	-0.017
-205.406	2.832	-0.322	-0.234
-204.392	-200.000	0.005	0.218
-203.377	126.230	-0.123	0.155
-202.363	-200.000	0.026	-0.120
-201.348	57.003	-0.093	0.091
-200.333	263.777	0.089	-0.154
-199.319	-200.000	-0.018	0.184
-198.304	68.574	0.143	-0.147
-197.290	578.145	-0.016	-0.040
-196.275	37.715	-0.214	0.191
-195.260	-179.863	-0.226	-0.005
-194.246	-200.000	0.003	-0.020
-193.231	40.481	0.065	0.058
-192.217	369.846	0.043	0.088
-191.202	-34.528	0.128	-0.071
-190.187	250.681	0.089	0.152
-189.173	-48.428	0.189	0.091
-188.158	502.650	0.062	-0.144
-187.144	-39.961	0.242	0.127
-186.129	21.877	-0.038	-0.031
-185.114	30.622	-0.178	0.152
-184.100	-200.000	-0.027	-0.125
-183.085	94.314	0.198	0.225
-182.071	135.554	0.051	-0.066
-181.056	-29.918	-0.233	0.133
-180.042	-200.000	-0.025	0.345
-179.027	244.750	-0.125	0.210
-178.012	263.807	0.015	-0.026
-176.998	-43.267	-0.225	-0.114
-175.983	58.482	-0.292	0.288
-174.969	-200.000	-0.027	0.233
-173.954	85.469	-0.159	0.175
-172.939	-130.975	-0.079	0.011
-171.925	-190.971	-0.226	-0.002
-170.910	-200.000	-0.039	-0.261
-169.896	800.000	-0.071	0.228
-168.881	17.248	0.196	0.156
-167.866	800.000	-0.114	-0.385
-166.852	642.801	-0.129	-0.329
-165.837	2.218	-0.122	0.088
-164.823	-123.527	0.377	-0.060
-163.808	-17.951	0.378	-0.237
-162.793	-161.725	-0.256	0.013
-161.779	-98.620	0.009	-0.002
-160.764	120.248	0.162	0.201
-159.750	188.444	0.228	0.342
-158.735	800.000	0.075	0.214
-157.720	-98.639	-0.128	-0.033
-156.706	-35.320	0.060	-0.033
-155.691	800.000	0.070	-0.255
-154.677	108.708	-0.044	0.052
-153.662	800.000	0.070	-0.246
-152.647	199.239	-0.138	0.212
-151.633	186.548	0.073	0.108
-150.618	595.870	0.044	0.110
-149.604	-3.369	-0.298	-0.208
-148.589	800.000	0.056	0.164
-147.574	800.000	-0.041	0.173
-146.560	-62.262	-0.330	-0.138
-145.545	-141.386	-0.148	0.015
-144.531	96.312	0.059	-0.067
-143.516	-200.000	0.010	-0.294
-142.502	-151.136	-0.200	0.015
-141.487	-84.994	-0.109	-0.034
-140.472	-200.000	0.010	-0.167
-139.458	250.495	-0.076	-0.129
-138.443	-84.763	0.189	-0.059
-137.429	208.932	0.133	-0.209
-136.414	32.354	-0.217	0.187
-135.399	4.302	-0.046	0.034
-134.385	77.698	0.129	0.137
-133.370	62.790	0.135	-0.135
-132.356	-120.089	-0.150	-0.026
-131.341	313.402	0.132	0.247
-130.326	-126.802	-0.087	0.013
-129.312	275.862	0.110	-0.195
-128.297	286.138	0.104	0.188
-127.283	-70.246	-0.183	-0.069
-126.268	311.072	0.043	0.081
-125.253	108.062	-0.192	-0.229
-124.239	-31.160	-0.379	0.214
-123.224	800.000	-0.055	0.210
-122.210	-23.662	-0.168	-0.101
