DTS Sentinel unit serial number:	SN413079Multiplexer serial number:	ORYXHardware model number:	OX4-SRSoftware version number:	ORYX F/W v4.00 Oryx Data Collector v3.7.2.0data status	okinstallation	princeton_trtdifferential loss correction	single-endedforward channel	channel 2reverse channel	N/Adate	2019/09/18time	06:43:35forward acquisition time	60.00reverse acquisition time	0.00gamma	496.2192k internal	0.2349k external	0.2349temperature offset calibration	0.9985default loss term (dB/km)	0.3790temperature slope calibration	1.0000multiplexer offset coefficient	1.0000multiplexer slope coefficient	1.0000fibre end	0.00T internal ref (°C)	23.25T ext. ref 1 (°C)	0.19T ext. ref 2 (°C)	17.10length (m)	temperature (°C)	Stokes	anti-Stokes-747.200	-114.161	0.369	-0.071
-746.185	-7.615	-0.147	-0.100
-745.171	-200.000	-0.048	0.404
-744.156	800.000	-0.105	0.374
-743.142	142.546	0.196	-0.260
-742.127	205.106	0.089	0.138
-741.112	571.016	0.071	0.173
-740.098	230.637	-0.074	0.121
-739.083	-200.000	0.009	0.168
-738.069	-94.426	0.194	-0.053
-737.054	-105.109	-0.174	0.040
-736.039	258.207	-0.026	-0.044
-735.025	107.230	0.089	0.106
-734.010	800.000	0.073	-0.212
-732.996	643.848	0.059	0.150
-731.981	-85.537	-0.179	0.056
-730.966	-57.597	0.231	0.101
-729.952	-187.744	-0.403	0.005
-728.937	61.102	0.074	0.074
-727.923	226.686	-0.008	0.013
-726.908	-63.701	0.177	-0.072
-725.894	39.353	-0.147	-0.132
-724.879	-12.992	-0.117	0.076
-723.864	-61.392	-0.062	0.026
-722.850	-200.000	-0.035	0.165
-721.835	-200.000	0.058	-0.296
-720.821	495.962	-0.023	0.052
-719.806	-146.721	-0.023	0.002
-718.791	-200.000	0.017	0.210
-717.777	-200.000	0.027	-0.256
-716.762	39.488	-0.271	-0.242
-715.748	-75.812	0.109	0.038
-714.733	-20.312	0.148	0.091
-713.718	-59.670	-0.401	-0.172
-712.704	-25.086	0.156	-0.092
-711.689	-76.770	-0.328	-0.115
-710.675	-82.902	-0.182	-0.059
-709.660	129.954	-0.015	0.020
-708.645	-146.096	0.296	0.026
-707.631	184.120	-0.152	-0.224
-706.616	-62.429	-0.277	-0.115
-705.602	-179.217	0.076	-0.002
-704.587	-163.073	0.153	0.007
-703.572	800.000	-0.113	-0.370
-702.558	-106.361	-0.072	-0.016
-701.543	320.911	0.087	-0.166
-700.529	-131.242	-0.083	-0.011
-699.514	-179.774	0.080	0.002
-698.499	211.968	-0.061	0.096
-697.485	111.698	-0.138	0.166
-696.470	-65.658	-0.196	-0.078
-695.456	160.144	0.080	0.111
-694.441	-131.729	-0.264	0.034
-693.426	-47.435	-0.196	-0.095
-692.412	-35.799	-0.159	-0.086
-691.397	-200.000	0.050	-0.337
-690.383	-149.012	-0.191	-0.015
-689.368	-88.316	-0.087	0.026
-688.354	255.090	0.237	0.405
-687.339	181.369	-0.093	-0.136
-686.324	419.779	-0.034	0.072
-685.310	-125.032	-0.276	-0.042
-684.295	58.412	-0.055	0.054
-683.281	-102.801	-0.423	-0.100
-682.266	290.474	-0.064	-0.115
-681.251	-57.131	-0.125	-0.055
-680.237	729.920	-0.152	0.406
-679.222	-200.000	-0.003	-0.047
-678.208	-200.000	-0.043	-0.431
-677.193	800.000	0.058	0.182
-676.178	800.000	0.029	-0.081
-675.164	22.524	0.132	-0.108
-674.149	-21.050	-0.146	-0.089
-673.135	-31.219	0.083	-0.047
-672.120	-67.813	-0.126	0.049
-671.105	298.632	-0.113	0.208
-670.091	-172.095	-0.195	-0.006
-669.076	193.913	0.126	0.189
-668.062	-55.277	-0.289	0.129
-667.047	-191.328	0.258	0.003
-666.032	-147.150	0.123	-0.010
-665.018	145.943	0.238	-0.318
-664.003	-200.000	-0.019	0.428
-662.989	-77.395	-0.371	0.128
-661.974	-98.733	0.067	-0.017
-660.959	-44.561	-0.216	0.108
-659.945	185.445	-0.166	-0.245
-658.930	-86.438	0.189	-0.058
-657.916	-193.414	-0.216	0.002
-656.901	-19.193	0.060	0.037
-655.886	33.210	0.223	0.193
-654.872	214.779	0.100	0.157
-653.857	-133.245	-0.251	-0.031
-652.843	-200.000	-0.027	0.163
-651.828	-19.569	-0.124	-0.077
-650.814	236.504	0.218	-0.360
-649.799	800.000	-0.060	0.169
-648.784	83.806	0.144	0.157
-647.770	-20.350	0.363	-0.222
-646.755	140.195	-0.150	0.197
-645.741	-142.826	-0.403	-0.039
-644.726	-0.299	-0.258	0.182
-643.711	800.000	0.061	-0.200
-642.697	-31.655	0.156	0.087
-641.682	-76.291	-0.101	-0.035
-640.668	-200.000	0.080	-0.440
-639.653	45.180	-0.030	-0.027
-638.638	-200.000	-0.006	-0.219
-637.624	80.518	-0.177	-0.190
-636.609	-200.000	0.003	0.014
-635.595	-200.000	0.014	-0.131
-634.580	-200.000	-0.002	-0.116
-633.565	-200.000	0.016	0.236
-632.551	174.000	-0.078	-0.112
-631.536	113.578	-0.054	0.065
-630.522	-13.908	-0.057	0.037
-629.507	56.489	0.151	-0.146
-628.492	280.487	-0.062	0.111
-627.478	-150.757	0.341	0.026
-626.463	197.218	0.083	0.126
-625.449	-200.000	-0.032	-0.211
-624.434	-40.182	-0.161	0.083
-623.419	-57.477	-0.073	-0.032
-622.405	-200.000	-0.001	-0.113
-621.390	-44.058	-0.241	-0.120
-620.376	287.281	0.024	0.044
-619.361	-200.000	0.034	0.194
-618.346	-69.982	0.214	-0.081
-617.332	-67.017	-0.225	-0.088
-616.317	-200.000	0.053	-0.337
-615.303	-86.872	0.051	-0.015
-614.288	103.836	0.136	0.159
-613.273	800.000	0.042	-0.146
-612.259	-91.261	-0.131	0.037
-611.244	-40.262	-0.197	0.102
-610.230	185.349	0.150	0.221
-609.215	800.000	-0.080	0.242
-608.201	800.000	-0.091	-0.321
-607.186	-200.000	0.061	-0.305
-606.171	-19.773	-0.277	-0.170
-605.157	-94.503	0.400	0.108
-604.142	471.050	0.037	-0.082
-603.128	-52.103	-0.171	0.079
-602.113	28.652	-0.329	0.277
-601.098	83.024	-0.257	0.278
-600.084	-36.166	-0.312	0.167
-599.069	71.029	0.083	-0.085
-598.055	612.263	0.083	0.207
-597.040	-41.760	0.177	0.090
-596.025	-148.891	-0.165	-0.013
-595.011	-200.000	-0.038	0.000
-593.996	-200.000	0.024	-0.292
-592.982	800.000	0.134	-0.453
-591.967	-78.518	0.128	-0.044
-590.952	-200.000	0.062	0.574
-589.938	-86.202	-0.422	-0.129
-588.923	-148.452	0.145	-0.012
-587.909	-158.538	0.172	-0.010
-586.894	-200.000	0.075	0.329
-585.879	65.011	0.247	0.248
-584.865	-200.000	0.050	0.261
-583.850	58.240	-0.024	0.023
-582.836	-183.702	0.012	-0.000
-581.821	-124.016	-0.137	-0.021
-580.806	-200.000	0.070	-0.315
-579.792	60.354	-0.135	0.133
-578.777	-12.468	-0.330	-0.214
-577.763	96.392	-0.117	-0.132
-576.748	800.000	0.047	-0.168
-575.733	-138.867	-0.123	0.013
-574.719	-87.061	-0.119	0.036
-573.704	11.622	0.087	-0.066
-572.690	251.056	-0.071	-0.120
-571.675	386.763	0.046	0.095
-570.661	129.114	0.143	-0.182
-569.646	266.501	-0.035	-0.061
-568.631	1.733	-0.219	0.156
-567.617	800.000	-0.036	-0.130
-566.602	-69.383	-0.161	-0.061
-565.588	-34.179	0.185	0.101
-564.573	85.971	-0.093	0.102
-563.558	254.623	0.122	0.207
-562.544	133.026	0.103	-0.131
-561.529	800.000	0.057	-0.219
-560.515	123.548	-0.045	0.056
-559.500	-135.442	-0.480	-0.057
-558.485	-53.129	-0.268	0.122
-557.471	-200.000	0.022	-0.214
-556.456	-200.000	0.021	0.222
-555.442	-136.576	0.260	0.030
-554.427	-161.317	-0.318	-0.016
-553.412	-72.473	0.094	0.034
-552.398	-200.000	0.025	0.299
-551.383	600.646	0.133	-0.328
-550.369	-200.000	-0.034	0.175
-549.354	-166.921	-0.188	0.008
-548.339	149.699	-0.160	-0.214
-547.325	-28.410	-0.092	0.053
-546.310	-200.000	-0.015	0.206
-545.296	-136.071	0.312	0.036
-544.281	-123.717	-0.348	-0.055
-543.266	-200.000	-0.021	-0.256
-542.252	-104.131	0.364	0.084
-541.237	155.256	-0.134	0.183
-540.223	71.602	-0.250	0.257
-539.208	167.348	-0.137	0.193
-538.193	800.000	0.150	-0.484
-537.179	44.089	0.158	0.143
-536.164	-200.000	0.020	-0.191
-535.150	-200.000	-0.003	0.107
-534.135	-14.210	-0.042	-0.027
-533.121	-107.398	-0.153	0.033
-532.106	404.556	-0.030	-0.062
-531.091	-200.000	-0.018	0.113
-530.077	2.173	-0.329	0.235
-529.062	-70.237	-0.306	-0.115
-528.048	-200.000	0.207	0.001
-527.033	-108.514	0.098	0.021
-526.018	530.915	-0.021	-0.049
-525.004	162.287	-0.007	-0.009
-523.989	113.228	0.085	-0.102
-522.975	43.335	-0.248	-0.224
-521.960	-200.000	-0.008	-0.414
-520.945	-103.182	0.158	-0.037
-519.931	-200.000	0.009	-0.055
-518.916	-200.000	-0.036	0.266
-517.902	-7.978	-0.222	0.148
-516.887	14.791	0.310	0.240
-515.872	-200.000	0.006	0.039
-514.858	82.722	-0.109	0.117
-513.843	463.104	-0.119	0.264
-512.829	-200.000	-0.027	0.386
-511.814	65.334	-0.050	-0.050
-510.799	27.445	0.177	0.147
-509.785	102.243	-0.196	-0.226
-508.770	-106.263	-0.221	-0.049
-507.756	601.002	-0.076	0.186
-506.741	-200.000	0.009	-0.082
-505.726	800.000	-0.066	-0.253
-504.712	-181.458	-0.416	-0.008
-503.697	-24.593	0.302	-0.178
-502.683	388.990	-0.080	-0.164
-501.668	161.054	0.154	-0.213
-500.653	226.701	0.197	-0.316
-499.639	-70.940	0.116	-0.043
-498.624	-135.658	0.501	0.059
-497.610	-159.965	-0.122	-0.007
-496.595	325.776	-0.078	0.147
-495.581	-78.481	-0.099	0.033
-494.566	56.694	-0.166	-0.160
-493.551	44.641	-0.143	-0.130
-492.537	800.000	-0.063	0.182
-491.522	-200.000	-0.041	-0.223
-490.508	-200.000	0.037	0.000
-489.493	35.203	0.046	0.040
-488.478	587.411	-0.065	0.158
-487.464	94.422	0.245	-0.275
-486.449	197.115	-0.150	-0.226
-485.435	-200.000	0.051	-0.309
-484.420	314.534	-0.068	0.127
-483.405	800.000	0.050	-0.200
-482.391	79.717	0.124	0.132
-481.376	125.568	-0.260	-0.324
-480.362	312.384	-0.123	-0.229
-479.347	800.000	-0.062	-0.257
-478.332	242.832	0.209	-0.346
-477.318	800.000	-0.042	0.130
-476.303	54.316	-0.232	-0.221
-475.289	-181.695	-0.191	0.004
-474.274	-39.851	-0.077	-0.040
-473.259	-200.000	-0.003	0.059
-472.245	-82.714	-0.295	-0.095
-471.230	183.059	-0.144	-0.210
-470.216	800.000	-0.092	-0.272
-469.201	251.239	-0.059	0.099
-468.186	234.740	-0.232	0.378
-467.172	-78.892	-0.334	0.112
-466.157	-36.451	-0.211	0.112
-465.143	-125.407	-0.182	0.027
-464.128	-200.000	-0.009	-0.482
-463.113	353.307	-0.096	-0.188
-462.099	1.933	-0.072	0.051
-461.084	800.000	-0.065	-0.260
-460.070	-200.000	0.027	0.133
-459.055	-200.000	-0.034	0.160
-458.040	596.378	-0.058	0.142
-457.026	800.000	-0.106	0.322
-456.011	-167.975	0.244	0.009
-454.997	57.621	0.186	0.180
-453.982	-200.000	-0.044	-0.221
-452.968	187.061	-0.157	-0.231
-451.953	125.663	0.070	0.087
-450.938	167.272	-0.289	-0.406
-449.924	222.427	0.102	0.162
-448.909	800.000	0.045	0.156
-447.895	-35.841	0.310	-0.166
-446.880	260.718	-0.100	0.170
-445.865	789.520	-0.094	0.256
-444.851	-108.651	-0.153	0.032
-443.836	9.704	0.186	-0.139
-442.822	44.068	0.172	0.156
-441.807	-39.883	-0.055	0.028
-440.792	0.653	-0.194	-0.137
-439.778	72.088	0.180	-0.185
-438.763	71.862	0.109	-0.111
-437.749	-97.667	0.086	0.022
-436.734	-32.590	-0.319	-0.175
-435.719	-1.707	-0.145	-0.101
-434.705	-200.000	-0.074	-0.327
-433.690	-200.000	-0.018	-0.330
-432.676	-147.148	0.226	-0.019
-431.661	-200.000	-0.022	0.347
-430.646	-200.000	0.001	-0.063
-429.632	64.199	-0.184	-0.183
-428.617	122.938	0.208	-0.257
-427.603	257.227	0.045	-0.076
-426.588	392.998	0.098	0.201
-425.573	-151.574	0.220	-0.016
-424.559	24.045	0.114	-0.093
-423.544	201.156	0.128	-0.194
-422.530	106.359	0.077	0.090
-421.515	-32.899	0.120	-0.066
-420.500	-200.000	-0.011	-0.198
-419.486	-200.000	-0.058	-0.279
-418.471	423.720	-0.072	0.153
-417.457	-68.290	-0.120	-0.046
-416.442	75.982	-0.095	0.099
-415.428	-144.412	-0.281	0.026
-414.413	-200.000	-0.033	0.192
-413.398	-40.383	-0.032	0.016
-412.384	40.719	-0.085	0.075
-411.369	-107.239	0.370	-0.080
-410.355	18.444	0.373	0.294
-409.340	-131.355	0.104	-0.014
-408.325	800.000	-0.055	-0.181
-407.311	-61.498	-0.163	-0.067
-406.296	-200.000	-0.059	0.529
-405.282	279.540	0.173	0.304
-404.267	-200.000	-0.011	-0.117
-403.252	-68.163	0.294	0.113
-402.238	-122.455	-0.220	-0.035
-401.223	40.401	0.058	0.052
-400.209	-92.453	0.077	-0.021
-399.194	101.353	-0.164	0.189
-398.179	729.317	-0.095	-0.251
-397.165	187.662	-0.197	-0.289
-396.150	46.140	-0.273	-0.249
-395.136	800.000	0.030	-0.124
-394.121	800.000	-0.072	0.246
-393.106	-94.648	-0.223	0.060
-392.092	-200.000	-0.035	0.208
-391.077	-46.483	0.152	0.073
-390.063	127.510	0.192	0.240
-389.048	800.000	-0.043	0.179
-388.033	229.398	0.163	0.262
-387.019	148.781	0.165	-0.220
-386.004	32.310	-0.136	-0.116
-384.990	443.556	0.142	-0.307
-383.975	800.000	0.029	0.087
-382.960	68.505	-0.188	-0.189
-381.946	800.000	0.008	-0.028
-380.931	-183.531	0.195	-0.003
-379.917	3.522	0.160	0.115
-378.902	374.061	0.152	0.304
-377.888	698.425	0.055	-0.142
-376.873	-14.257	-0.196	0.124
-375.858	641.439	-0.042	0.105
-374.844	-23.247	-0.226	-0.134
-373.829	-139.359	-0.169	0.018
-372.815	-74.543	0.137	0.048
-371.800	229.410	-0.149	0.240
-370.785	224.936	-0.149	-0.238
-369.771	-123.304	-0.127	0.020
-368.756	-200.000	-0.005	-0.219
-367.742	-78.580	0.146	0.049
-366.727	-112.961	0.472	0.092
-365.712	210.716	-0.178	-0.276
-364.698	-200.000	-0.005	-0.147
-363.683	252.250	-0.101	0.169
-362.669	-115.279	0.191	0.036
-361.654	-86.077	0.069	-0.021
-360.639	142.621	0.142	0.186
-359.625	93.370	0.103	0.114
-358.610	133.723	0.237	0.302
-357.596	285.033	0.164	-0.291
-356.581	21.278	-0.122	0.098
-355.566	-55.004	-0.215	0.095
-354.552	-88.376	-0.206	0.060
-353.537	28.761	0.060	0.050
-352.523	76.526	-0.150	-0.157
-351.508	-32.030	0.189	-0.104
-350.493	-18.770	0.506	0.310
-349.479	71.218	-0.114	-0.116
-348.464	477.731	-0.047	0.104
-347.450	-200.000	0.043	0.210
-346.435	800.000	-0.028	-0.101
-345.420	643.607	0.029	0.073
-344.406	208.931	0.040	-0.062
-343.391	135.233	-0.096	0.123
-342.377	-98.817	0.132	0.033
-341.362	800.000	-0.080	0.335
-340.348	800.000	-0.070	0.192
-339.333	-200.000	-0.039	0.250
-338.318	-73.504	-0.080	0.029
-337.304	96.537	-0.144	0.162
-336.289	-122.878	-0.271	0.043
-335.275	83.320	0.238	-0.255
-334.260	-200.000	-0.035	0.213
-333.245	290.985	0.246	-0.439
-332.231	-61.535	0.568	-0.234
-331.216	142.322	0.098	-0.127
-330.202	-7.060	-0.227	-0.151
-329.187	-56.541	-0.154	-0.067
-328.172	-77.399	-0.217	-0.074
-327.158	188.517	-0.036	0.053
-326.143	-190.554	0.187	-0.002
-325.129	-94.587	0.110	0.029
-324.114	-200.000	-0.003	0.323
-323.099	-200.000	0.058	0.370
-322.085	-67.387	-0.220	0.085
-321.070	617.893	-0.037	0.091
-320.056	283.874	-0.132	0.233
-319.041	23.016	-0.126	-0.101
-318.026	-121.364	-0.346	0.057
-317.012	135.044	0.087	-0.111
-315.997	-200.000	0.032	-0.376
-314.983	462.443	0.086	-0.188
-313.968	224.365	-0.152	-0.241
-312.953	780.722	0.080	0.215
-311.939	258.091	-0.169	0.286
-310.924	800.000	-0.043	0.169
-309.910	14.458	-0.198	-0.152
-308.895	-107.266	-0.168	-0.036
-307.880	-88.094	-0.135	0.040
-306.866	-122.892	0.386	-0.061
-305.851	800.000	0.047	0.148
-304.837	-35.729	-0.048	-0.026
-303.822	-200.000	-0.050	-0.351
-302.807	-200.000	-0.001	-0.132
-301.793	-116.795	0.618	-0.111
-300.778	277.394	-0.155	0.271
-299.764	-11.726	-0.312	-0.201
-298.749	800.000	0.096	0.271
-297.735	173.886	-0.115	0.163
-296.720	34.365	-0.094	0.081
-295.705	-33.868	-0.172	0.093
-294.691	485.123	0.027	-0.060
-293.676	-120.860	0.099	0.016
-292.662	-200.000	-0.003	-0.104
-291.647	163.885	0.125	-0.172
-290.632	373.298	0.091	-0.181
-289.618	-49.144	-0.193	-0.091
-288.603	-67.350	0.156	-0.060
-287.589	800.000	-0.078	-0.220
-286.574	-200.000	0.027	-0.201
-285.559	83.044	0.118	0.126
-284.545	800.000	-0.096	0.367
-283.530	443.594	0.062	0.134
-282.516	37.057	0.144	0.125
-281.501	800.000	0.043	0.147
-280.486	-16.679	0.352	0.219
-279.472	3.694	0.216	0.154
-278.457	-74.085	0.128	0.045
-277.443	-200.000	-0.030	-0.129
-276.428	247.471	0.052	0.085
-275.413	254.031	-0.123	-0.206
-274.399	-159.932	0.057	0.003
-273.384	-178.701	0.266	-0.006
-272.370	-9.577	0.256	0.168
-271.355	-51.612	0.012	0.005
-270.340	-22.920	0.128	-0.076
-269.326	-97.601	0.181	-0.046
-268.311	13.375	0.252	-0.192
-267.297	371.268	-0.033	-0.066
-266.282	-24.179	0.224	-0.131
-265.267	7.306	0.207	0.152
-264.253	-21.755	-0.216	0.129
-263.238	50.426	0.141	-0.131
-262.224	-103.981	-0.309	0.071
-261.209	-49.473	-0.232	0.108
-260.195	-55.350	0.282	0.124
-259.180	444.781	-0.063	-0.136
-258.165	-200.000	0.029	0.181
-257.151	110.624	0.123	0.145
-256.136	-56.666	-0.260	0.113
-255.122	-200.000	0.024	0.169
-254.107	-181.484	-0.129	0.002
-253.092	51.215	-0.292	0.272
-252.078	-168.543	0.279	-0.010
-251.063	-95.076	0.166	-0.044
-250.049	129.893	-0.051	0.064
-249.034	-45.041	0.385	0.188
-248.019	-200.000	-0.048	0.277
-247.005	48.607	-0.109	0.100
-245.990	115.456	0.196	0.235
-244.976	59.795	-0.024	0.023
-243.961	-200.000	-0.005	0.068
-242.946	-115.814	0.261	0.048
-241.932	15.589	0.118	0.091
-240.917	729.370	-0.122	0.320
-239.903	-146.323	-0.241	-0.021
-238.888	-112.029	0.302	0.060
-237.873	15.403	0.116	0.089
-236.859	301.043	0.038	0.069
-235.844	800.000	0.009	-0.035
-234.830	-84.441	0.285	-0.088
-233.815	9.798	-0.289	0.215
-232.800	505.746	-0.081	-0.185
-231.786	-200.000	0.162	-0.001
-230.771	-200.000	0.060	-0.357
-229.757	-200.000	0.004	-0.241
-228.742	75.650	0.216	0.223
-227.727	641.316	-0.039	0.096
-226.713	-109.256	0.081	0.017
-225.698	-101.744	-0.345	0.082
-224.684	99.382	-0.185	0.209
-223.669	-71.606	-0.269	0.098
-222.655	-89.648	0.414	0.119
-221.640	-200.000	-0.024	-0.109
-220.625	-157.389	-0.320	-0.019
-219.611	-200.000	0.052	-0.403
-218.596	-200.000	0.011	-0.049
-217.582	800.000	-0.120	-0.379
-216.567	44.988	-0.121	-0.109
-215.552	-64.077	0.348	0.139
-214.538	25.355	0.116	0.095
-213.523	-41.377	0.645	-0.325
-212.509	800.000	-0.087	-0.353
-211.494	200.040	0.115	0.173
-210.479	-50.753	-0.236	-0.109
-209.465	102.146	0.160	0.183
-208.450	-117.098	0.301	-0.054
-207.436	-91.429	-0.228	0.064
-206.421	800.000	0.057	0.200
-205.406	-110.193	0.180	0.037
-204.392	466.018	-0.026	0.058
-203.377	107.463	-0.110	0.128
-202.363	-200.000	-0.019	0.104
-201.348	353.772	0.174	0.338
-200.333	182.008	0.151	0.218
-199.319	92.728	-0.203	-0.225
-198.304	800.000	-0.038	-0.114
-197.290	210.263	0.087	-0.133
-196.275	-112.707	-0.360	-0.070
-195.260	800.000	0.062	-0.232
-194.246	-88.220	0.318	-0.093
-193.231	65.484	-0.216	0.214
-192.217	-138.067	0.421	0.046
-191.202	-200.000	-0.014	-0.064
-190.187	-93.515	0.331	0.090
-189.173	-95.672	0.566	0.148
-188.158	-16.761	-0.059	0.037
-187.144	-200.000	0.013	-0.164
-186.129	-200.000	-0.006	-0.240
-185.114	755.500	-0.071	-0.189
-184.100	127.123	-0.145	-0.180
-183.085	800.000	-0.012	0.038
-182.071	-175.548	0.091	-0.002
-181.056	-16.875	-0.196	-0.121
-180.042	-40.637	-0.204	0.103
-179.027	-174.392	0.325	0.009
-178.012	-104.285	0.069	0.016
-176.998	-123.939	0.208	0.032
-175.983	-200.000	-0.070	0.340
-174.969	-4.976	-0.203	-0.137
-173.954	300.782	-0.097	-0.174
-172.939	159.672	0.159	0.216
-171.925	-22.183	-0.147	-0.087
-170.910	-139.293	0.413	-0.043
-169.896	353.311	-0.171	0.331
-168.881	19.124	-0.327	0.256
-167.866	-8.673	-0.193	0.127
-166.852	-200.000	-0.032	-0.282
-165.837	-200.000	0.002	-0.048
-164.823	-83.451	0.245	-0.077
-163.808	-96.016	0.356	0.093
-162.793	-40.271	0.238	-0.121
-161.779	115.061	0.150	0.178
-160.764	-82.213	0.345	0.110
-159.750	-200.000	-0.049	-0.314
-158.735	-150.946	0.075	-0.006
-157.720	-144.809	-0.246	0.022
-156.706	-56.702	-0.127	-0.055
-155.691	-102.433	-0.273	-0.064
-154.677	-78.174	0.479	-0.161
-153.662	-157.432	-0.183	0.011
-152.647	75.901	-0.290	0.299
-151.633	-40.869	0.372	0.188
-150.618	-88.920	0.206	-0.060
-149.604	31.485	0.171	0.143
-148.589	-113.223	0.034	0.006
-147.574	-25.472	0.361	-0.208
-146.560	-200.000	-0.021	0.110
-145.545	-200.000	0.033	0.397
-144.531	159.388	0.157	0.213
-143.516	-200.000	-0.008	0.150
-142.502	-26.181	0.131	0.075
-141.487	38.445	0.032	0.028
-140.472	58.623	-0.111	0.106
-139.458	196.281	-0.138	0.205
-138.443	547.787	0.065	0.151
-137.429	222.862	-0.110	-0.172
-136.414	374.043	-0.199	-0.394
-135.399	-44.256	0.235	0.115
-134.385	-60.483	0.499	-0.207
-133.370	228.134	-0.058	0.092
-132.356	23.757	-0.149	-0.120
-131.341	-200.000	0.058	0.335
-130.326	-61.195	-0.099	-0.041
-129.312	0.607	0.180	0.125
-128.297	72.157	0.112	0.114
-127.283	-40.035	-0.047	0.024
-126.268	-58.663	-0.264	0.112
-125.253	-200.000	0.016	0.135
-124.239	800.000	0.033	-0.113
-123.224	50.489	-0.128	-0.118
-122.210	298.088	-0.139	0.249
