DTS Sentinel unit serial number:	SN413079Multiplexer serial number:	ORYXHardware model number:	OX4-SRSoftware version number:	ORYX F/W v4.00 Oryx Data Collector v3.7.2.0data status	okinstallation	princeton_trtdifferential loss correction	single-endedforward channel	channel 2reverse channel	N/Adate	2019/09/11time	15:29:10forward acquisition time	60.00reverse acquisition time	0.00gamma	496.2192k internal	0.2289k external	0.2289temperature offset calibration	1.0014default loss term (dB/km)	0.3790temperature slope calibration	1.0000multiplexer offset coefficient	1.0000multiplexer slope coefficient	1.0000fibre end	0.00T internal ref (°C)	42.87T ext. ref 1 (°C)	0.98T ext. ref 2 (°C)	38.23length (m)	temperature (°C)	Stokes	anti-Stokes-747.200	235.735	0.153	0.260
-746.185	106.045	-0.197	0.239
-745.171	-88.830	0.309	0.094
-744.156	58.020	-0.189	0.190
-743.142	-21.184	-0.157	0.099
-742.127	-200.000	-0.034	0.158
-741.112	-151.210	0.291	0.022
-740.098	-192.180	-0.201	0.002
-739.083	-83.914	0.077	0.025
-738.069	-200.000	0.024	0.244
-737.054	800.000	0.160	0.547
-736.039	-96.945	-0.215	-0.058
-735.025	-45.311	-0.063	0.032
-734.010	-63.895	0.341	-0.143
-732.996	58.340	-0.206	-0.207
-731.981	-200.000	0.064	-0.467
-730.966	-200.000	0.060	-0.280
-729.952	-96.177	-0.376	-0.102
-728.937	-129.145	-0.234	-0.034
-727.923	547.815	-0.088	0.216
-726.908	800.000	-0.042	-0.173
-725.894	-200.000	-0.067	-0.380
-724.879	33.036	-0.116	-0.103
-723.864	800.000	-0.013	-0.044
-722.850	-123.449	-0.149	-0.024
-721.835	800.000	-0.046	-0.136
-720.821	800.000	-0.051	0.178
-719.806	76.274	-0.071	-0.077
-718.791	-111.567	0.374	-0.078
-717.777	-118.300	-0.135	0.025
-716.762	-200.000	-0.005	0.256
-715.748	58.837	0.132	0.133
-714.733	-14.901	0.124	-0.081
-713.718	-111.527	-0.076	-0.016
-712.704	20.963	-0.093	-0.077
-711.689	-28.248	-0.254	-0.151
-710.675	-134.954	0.337	-0.042
-709.660	-96.585	-0.303	-0.082
-708.645	500.616	0.045	0.107
-707.631	-200.000	0.192	-0.000
-706.616	-200.000	-0.007	0.126
-705.602	55.821	0.025	0.024
-704.587	-26.296	-0.284	-0.170
-703.572	800.000	-0.042	0.145
-702.558	-78.128	0.084	-0.030
-701.543	-58.843	-0.340	-0.151
-700.529	-160.150	-0.034	0.002
-699.514	-137.452	-0.324	0.038
-698.499	61.393	0.167	-0.170
-697.485	800.000	0.105	0.324
-696.470	-184.406	0.256	0.004
-695.456	-5.245	0.128	-0.090
-694.441	0.425	0.275	-0.201
-693.426	78.695	0.096	0.105
-692.412	-25.429	0.103	0.062
-691.397	74.386	0.180	-0.193
-690.383	-45.579	-0.218	-0.111
-689.368	285.996	0.101	-0.186
-688.354	-47.748	-0.217	-0.107
-687.339	-200.000	-0.009	0.173
-686.324	148.718	0.023	0.032
-685.310	433.706	-0.025	-0.056
-684.295	-123.668	0.310	-0.050
-683.281	119.790	0.106	-0.134
-682.266	3.719	-0.060	0.045
-681.251	70.901	-0.194	-0.205
-680.237	-48.286	-0.179	0.088
-679.222	-21.127	0.467	0.292
-678.208	-18.416	-0.166	0.106
-677.193	-200.000	-0.012	-0.134
-676.178	-38.388	-0.243	-0.132
-675.164	-200.000	0.009	-0.051
-674.149	80.821	0.110	0.121
-673.135	178.967	0.268	-0.401
-672.120	-66.644	-0.213	-0.086
-671.105	-200.000	0.052	-0.312
-670.091	17.079	-0.190	0.154
-669.076	171.384	0.203	-0.298
-668.062	-200.000	-0.010	-0.163
-667.047	-74.392	-0.414	0.153
-666.032	783.271	-0.075	0.210
-665.018	-14.193	0.135	-0.089
-664.003	-67.626	0.157	0.063
-662.989	-83.253	0.092	-0.030
-661.974	83.194	0.177	-0.197
-660.959	800.000	-0.119	-0.384
-659.945	-45.925	0.048	-0.024
-658.930	-32.227	-0.281	-0.160
-657.916	-200.000	-0.117	-0.529
-656.901	-142.202	0.068	0.007
-655.886	-68.900	0.121	-0.048
-654.872	406.465	0.027	0.057
-653.857	152.984	-0.136	0.190
-652.843	110.518	0.128	-0.157
-651.828	170.468	-0.267	-0.391
-650.814	-200.000	0.005	0.393
-649.799	160.806	0.028	0.040
-648.784	-200.000	0.010	0.073
-647.770	-18.140	0.104	-0.067
-646.755	-200.000	0.017	-0.083
-645.741	-97.819	0.150	0.040
-644.726	-200.000	-0.057	-0.267
-643.711	10.307	-0.178	-0.138
-642.697	181.603	-0.066	-0.099
-641.682	459.262	-0.086	-0.195
-640.668	-8.553	0.056	0.039
-639.653	-13.694	-0.226	0.150
-638.638	-200.000	0.029	0.293
-637.624	-83.884	-0.125	-0.041
-636.609	-38.202	0.101	0.055
-635.595	34.461	-0.044	-0.039
-634.580	394.060	0.031	0.065
-633.565	800.000	-0.076	0.302
-632.551	47.558	-0.116	-0.110
-631.536	155.150	-0.065	0.091
-630.522	597.121	-0.030	0.076
-629.507	-6.620	-0.226	0.157
-628.492	-38.327	0.266	0.144
-627.478	-34.135	-0.033	-0.018
-626.463	143.199	0.091	-0.123
-625.449	-200.000	-0.004	0.267
-624.434	-30.317	-0.138	0.080
-623.419	-150.007	-0.238	0.019
-622.405	90.801	-0.094	-0.108
-621.390	-42.052	-0.235	0.123
-620.376	-200.000	0.046	0.251
-619.361	-200.000	-0.028	-0.169
-618.346	88.886	-0.031	-0.035
-617.332	-178.037	0.182	0.004
-616.317	-200.000	-0.003	-0.323
-615.303	127.346	-0.018	-0.023
-614.288	232.743	0.207	0.347
-613.273	-200.000	-0.038	0.172
-612.259	426.245	0.045	-0.098
-611.244	-38.701	0.406	0.218
-610.230	-81.490	0.189	0.063
-609.215	225.731	0.054	-0.090
-608.201	-200.000	0.012	-0.121
-607.186	-139.208	-0.052	0.006
-606.171	-64.525	-0.235	0.097
-605.157	-154.084	0.297	0.021
-604.142	-24.433	0.236	-0.143
-603.128	-1.330	-0.225	-0.162
-602.113	-56.255	0.091	-0.041
-601.098	-86.139	-0.309	-0.097
-600.084	80.844	0.146	-0.161
-599.069	-78.097	-0.147	0.052
-598.055	137.933	-0.157	0.210
-597.040	-145.010	-0.102	-0.010
-596.025	88.280	0.050	-0.056
-595.011	-125.772	-0.200	0.031
-593.996	391.721	0.151	-0.320
-592.982	-200.000	0.074	-0.399
-591.967	15.860	-0.074	0.059
-590.952	416.786	-0.063	0.136
-589.938	800.000	-0.021	-0.065
-588.923	308.682	0.038	-0.073
-587.909	-30.867	0.227	0.131
-586.894	29.095	-0.113	-0.098
-585.879	-200.000	-0.017	-0.293
-584.865	-116.463	-0.072	0.014
-583.850	-200.000	-0.010	0.077
-582.836	800.000	-0.125	0.455
-581.821	-158.336	0.158	0.009
-580.806	-63.177	-0.246	-0.103
-579.792	-120.452	-0.044	0.008
-578.777	-137.000	0.325	-0.038
-577.763	-132.144	-0.240	-0.032
-576.748	182.857	-0.150	-0.225
-575.733	-140.797	0.196	-0.021
-574.719	208.212	-0.159	-0.254
-573.704	-134.471	-0.368	0.046
-572.690	-128.646	-0.031	0.004
-571.675	-148.208	0.069	0.006
-570.661	321.678	-0.044	-0.085
-569.646	-130.214	0.245	0.034
-568.631	454.181	-0.143	0.323
-567.617	-38.890	-0.293	-0.157
-566.602	345.448	0.091	-0.182
-565.588	-200.000	-0.035	-0.275
-564.573	-62.621	0.122	-0.052
-563.558	572.447	0.039	-0.098
-562.544	-50.688	0.164	0.079
-561.529	-200.000	0.036	0.253
-560.515	12.644	0.108	0.085
-559.500	-5.501	-0.145	-0.101
-558.485	32.615	-0.234	0.206
-557.471	218.223	-0.121	0.197
-556.456	800.000	-0.081	0.280
-555.442	-200.000	-0.006	-0.081
-554.427	-76.365	0.502	-0.180
-553.412	-77.300	-0.329	0.116
-552.398	-14.923	-0.109	0.071
-551.383	9.008	-0.102	-0.078
-550.369	22.426	-0.220	0.183
-549.354	-62.511	0.331	0.140
-548.339	150.538	-0.276	-0.382
-547.325	477.982	-0.070	0.161
-546.310	-10.801	0.246	0.166
-545.296	-64.905	0.213	-0.088
-544.281	-25.225	0.019	0.011
-543.266	112.965	0.200	0.247
-542.252	-97.739	0.217	0.057
-541.237	800.000	0.088	-0.329
-540.223	8.807	-0.103	0.079
-539.208	800.000	-0.003	-0.009
-538.193	-80.816	0.299	0.101
-537.179	800.000	-0.030	0.133
-536.164	268.682	0.053	-0.095
-535.150	-200.000	-0.017	-0.288
-534.135	-126.149	0.320	0.049
-533.121	557.287	-0.017	0.042
-532.106	-200.000	0.025	0.190
-531.091	-200.000	0.020	0.172
-530.077	800.000	-0.067	-0.244
-529.062	105.216	0.233	-0.279
-528.048	800.000	0.029	0.094
-527.033	-91.454	0.224	0.065
-526.018	458.048	-0.088	-0.199
-525.004	-55.129	0.109	0.050
-523.989	410.723	-0.014	-0.030
-522.975	-75.991	-0.342	0.123
-521.960	88.054	-0.006	-0.006
-520.945	250.721	0.048	0.082
-519.931	-57.334	-0.107	-0.048
-518.916	229.936	-0.102	-0.170
-517.902	-35.276	0.216	-0.119
-516.887	800.000	-0.063	-0.198
-515.872	-38.748	0.138	0.074
-514.858	-130.681	0.193	-0.026
-513.843	800.000	0.077	0.291
-512.829	-34.498	0.198	-0.110
-511.814	-67.069	0.123	-0.049
-510.799	-130.481	0.196	-0.027
-509.785	-50.256	0.147	0.071
-508.770	-200.000	-0.019	0.343
-507.756	-15.620	-0.085	0.055
-506.741	182.150	0.085	0.127
-505.726	-200.000	0.033	0.212
-504.712	800.000	-0.057	-0.217
-503.697	21.579	-0.182	-0.150
-502.683	30.126	0.102	0.089
-501.668	-7.014	0.163	0.112
-500.653	-200.000	-0.005	-0.033
-499.639	50.473	-0.187	-0.179
-498.624	800.000	-0.058	-0.179
-497.610	-200.000	-0.034	-0.308
-496.595	-200.000	0.043	0.253
-495.581	800.000	-0.023	-0.080
-494.566	-200.000	0.072	-0.489
-493.551	90.498	-0.222	-0.253
-492.537	-91.461	0.332	0.096
-491.522	545.165	0.078	-0.189
-490.508	46.205	-0.137	0.129
-489.493	-174.738	0.309	0.009
-488.478	-16.555	-0.177	-0.114
-487.464	-156.676	-0.234	-0.015
-486.449	-200.000	0.006	-0.134
-485.435	-144.890	0.137	0.013
-484.420	-125.220	0.343	0.053
-483.405	-10.509	-0.261	0.175
-482.391	201.085	0.094	0.147
-481.376	78.507	-0.101	0.110
-480.362	-60.702	-0.383	0.165
-479.347	205.738	0.104	0.163
-478.332	208.998	-0.188	0.299
-477.318	-17.604	-0.201	0.128
-476.303	30.049	0.057	0.050
-475.289	-18.856	0.389	-0.245
-474.274	73.776	0.228	-0.242
-473.259	-173.114	-0.319	-0.010
-472.245	800.000	0.091	-0.312
-471.230	-12.862	0.068	0.045
-470.216	213.483	-0.063	-0.102
-469.201	129.026	0.155	0.200
-468.186	-149.518	0.311	0.025
-467.172	-200.000	0.058	-0.274
-466.157	251.976	-0.108	-0.187
-465.143	-200.000	-0.007	0.124
-464.128	-200.000	0.035	0.159
-463.113	-147.632	-0.428	-0.036
-462.099	-6.489	0.120	-0.083
-461.084	800.000	-0.048	-0.136
-460.070	800.000	-0.062	0.260
-459.055	349.598	-0.093	-0.186
-458.040	-127.020	0.241	-0.036
-457.026	104.197	-0.123	-0.147
-456.011	233.288	0.206	0.344
-454.997	-110.959	0.272	0.057
-453.982	17.268	0.132	-0.106
-452.968	-35.330	-0.220	-0.121
-451.953	774.723	0.105	0.289
-450.938	-81.960	0.099	0.033
-449.924	-111.245	0.318	0.066
-448.909	800.000	-0.105	0.299
-447.895	-25.168	-0.273	0.164
-446.880	-200.000	0.154	0.000
-445.865	-98.381	-0.230	-0.060
-444.851	389.360	-0.174	-0.365
-443.836	800.000	-0.097	-0.305
-442.822	107.159	0.045	-0.055
-441.807	-12.010	0.106	0.071
-440.792	-71.741	-0.166	-0.063
-439.778	-200.000	-0.009	-0.156
-438.763	-84.277	0.075	-0.024
-437.749	-127.773	-0.420	-0.061
-436.734	306.055	-0.005	-0.009
-435.719	-118.745	-0.121	0.022
-434.705	211.180	0.053	0.084
-433.690	-200.000	-0.012	0.147
-432.676	-3.005	-0.141	0.100
-431.661	800.000	-0.074	0.322
-430.646	260.264	0.058	0.102
-429.632	115.360	0.174	-0.215
-428.617	-94.082	-0.242	0.067
-427.603	-200.000	0.001	-0.088
-426.588	97.149	-0.153	-0.178
-425.573	504.477	0.058	-0.137
-424.559	94.243	0.154	-0.178
-423.544	-200.000	0.024	-0.121
-422.530	43.111	0.356	-0.329
-421.515	-108.542	0.113	0.024
-420.500	-120.354	-0.206	0.036
-419.486	-200.000	-0.023	-0.229
-418.471	62.113	0.182	-0.183
-417.457	-200.000	-0.067	0.588
-416.442	285.539	0.087	-0.159
-415.428	235.246	0.074	-0.123
-414.413	-90.639	0.255	-0.075
-413.398	800.000	-0.086	-0.291
-412.384	257.026	-0.011	-0.018
-411.369	800.000	-0.079	0.256
-410.355	-40.593	-0.183	0.096
-409.340	-200.000	-0.009	0.056
-408.325	176.756	0.107	-0.158
-407.311	98.927	0.327	-0.382
-406.296	-177.997	-0.075	-0.002
-405.282	215.017	-0.168	0.269
-404.267	154.338	0.213	-0.295
-403.252	-136.566	-0.288	-0.034
-402.238	132.169	0.267	0.348
-401.223	778.135	-0.025	0.069
-400.209	-154.656	-0.306	-0.021
-399.194	-50.036	-0.158	-0.076
-398.179	89.778	0.206	0.232
-397.165	175.345	0.040	-0.058
-396.150	306.813	-0.178	-0.336
-395.136	-7.726	-0.165	0.113
-394.121	750.619	0.060	0.162
-393.106	138.122	0.118	-0.156
-392.092	-200.000	0.026	0.254
-391.077	-200.000	-0.001	-0.250
-390.063	-181.870	-0.239	-0.005
-389.048	-99.214	-0.083	-0.021
-388.033	-200.000	-0.068	-0.394
-387.019	-35.338	-0.161	0.089
-386.004	-81.779	0.243	0.080
-384.990	-179.772	0.175	-0.004
-383.975	-138.040	0.350	0.039
-382.960	-175.326	-0.194	0.005
-381.946	800.000	-0.049	0.207
-380.931	800.000	0.067	0.227
-379.917	-15.784	-0.070	0.045
-378.902	-7.630	-0.120	-0.082
-377.888	156.924	-0.071	-0.099
-376.873	-69.198	-0.305	-0.119
-375.858	800.000	-0.068	0.267
-374.844	-71.305	-0.296	-0.112
-373.829	800.000	0.043	-0.130
-372.815	437.890	-0.059	-0.130
-371.800	-200.000	-0.058	-0.258
-370.785	48.743	-0.219	-0.208
-369.771	-200.000	0.001	-0.140
-368.756	-200.000	-0.013	-0.115
-367.742	-184.186	0.123	0.002
-366.727	3.115	-0.347	-0.255
-365.712	-116.560	0.126	0.024
-364.698	-200.000	0.015	-0.237
-363.683	-65.522	-0.231	-0.094
-362.669	45.192	0.250	0.233
-361.654	-179.543	0.174	0.004
-360.639	800.000	-0.087	0.329
-359.625	261.145	-0.056	-0.098
-358.610	-145.558	0.327	-0.030
-357.596	25.568	0.065	0.054
-356.581	-162.162	-0.221	0.011
-355.566	66.623	0.095	0.097
-354.552	800.000	0.050	0.144
-353.537	800.000	0.028	0.095
-352.523	113.432	-0.101	-0.124
-351.508	-99.898	-0.213	0.054
-350.493	-19.588	0.238	0.149
-349.479	800.000	0.079	0.227
-348.464	-200.000	-0.005	-0.032
-347.450	-121.100	0.111	-0.019
-346.435	800.000	-0.026	0.104
-345.420	-2.612	0.142	-0.100
-344.406	61.619	0.107	-0.107
-343.391	-158.794	-0.221	-0.013
-342.377	56.899	-0.086	-0.084
-341.362	800.000	0.084	0.241
-340.348	123.405	0.033	0.042
-339.333	-200.000	-0.013	-0.121
-338.318	-200.000	-0.032	-0.385
-337.304	497.164	-0.091	0.211
-336.289	800.000	0.069	0.293
-335.275	-13.133	0.168	0.110
-334.260	-76.434	-0.211	0.075
-333.245	-73.713	-0.184	-0.068
-332.231	-7.027	-0.164	-0.112
-331.216	-200.000	0.002	-0.326
-330.202	6.832	-0.216	0.162
-329.187	-114.330	0.220	0.043
-328.172	-136.158	-0.335	-0.040
-327.158	-22.498	0.295	0.180
-326.143	-200.000	0.040	0.284
-325.129	-63.827	0.194	0.080
-324.114	17.027	0.061	-0.049
-323.099	348.606	-0.117	-0.232
-322.085	143.257	0.015	0.020
-321.070	-160.002	0.092	-0.005
-320.056	-90.280	-0.266	0.078
-319.041	82.276	-0.094	0.103
-318.026	-6.000	-0.298	-0.205
-317.012	372.182	-0.023	-0.047
-315.997	108.534	0.121	0.146
-314.983	26.032	0.245	-0.206
-313.968	-120.068	-0.329	0.057
-312.953	-157.308	0.112	-0.007
-311.939	307.290	-0.057	0.106
-310.924	-59.071	0.212	0.092
-309.910	-200.000	-0.011	-0.180
-308.895	141.321	-0.125	-0.166
-307.880	-200.000	0.013	-0.170
-306.866	-5.689	-0.150	0.104
-305.851	-94.408	0.186	-0.051
-304.837	-200.000	0.008	-0.100
-303.822	-39.859	-0.073	-0.039
-302.807	64.544	0.078	0.079
-301.793	800.000	0.098	-0.316
-300.778	-113.870	0.343	0.067
-299.764	67.205	0.080	0.082
-298.749	-200.000	-0.017	0.276
-297.735	270.761	-0.156	-0.276
-296.720	-85.490	-0.233	-0.073
-295.705	-200.000	0.033	0.391
-294.691	-200.000	0.028	-0.152
-293.676	332.065	-0.156	-0.303
-292.662	-200.000	-0.002	0.217
-291.647	800.000	-0.078	-0.237
-290.632	800.000	0.057	-0.217
-289.618	-47.466	-0.190	0.093
-288.603	-166.780	-0.275	-0.011
-287.589	-43.393	0.305	-0.155
-286.574	-59.736	0.170	-0.073
-285.559	-51.963	-0.067	-0.032
-284.545	-166.694	-0.175	-0.007
-283.530	-81.215	0.212	0.071
-282.516	69.886	0.091	-0.095
-281.501	450.828	0.059	-0.131
-280.486	108.213	0.157	0.188
-279.472	-200.000	-0.011	0.287
-278.457	-102.910	0.119	-0.028
-277.443	279.991	0.050	-0.089
-276.428	19.350	-0.020	0.016
-275.413	-63.050	-0.081	-0.034
-274.399	-37.891	0.150	0.080
-273.384	9.609	0.129	0.098
-272.370	-92.434	0.217	0.061
-271.355	-25.507	-0.321	0.191
-270.340	-96.819	0.131	0.035
-269.326	-200.000	0.001	0.088
-268.311	230.037	-0.063	0.104
-267.297	-60.622	0.172	-0.074
-266.282	-148.948	0.156	-0.013
-265.267	8.161	0.332	0.250
-264.253	-98.552	-0.344	0.088
-263.238	-200.000	0.018	-0.186
-262.224	150.434	0.197	0.269
-261.209	-26.719	-0.217	-0.128
-260.195	-200.000	-0.010	0.153
-259.180	-124.498	-0.170	-0.027
-258.165	-80.147	0.258	-0.087
-257.151	247.105	-0.177	0.301
-256.136	800.000	-0.058	0.239
-255.122	410.571	0.038	0.081
-254.107	-161.516	0.369	0.019
-253.092	-200.000	0.027	0.336
-252.078	321.668	-0.031	0.059
-251.063	-171.260	0.102	0.003
-250.049	-82.175	-0.062	-0.020
-249.034	-171.246	0.345	-0.012
-248.019	-200.000	-0.050	-0.452
-247.005	68.330	0.176	0.181
-245.990	43.797	-0.219	0.201
-244.976	-19.517	0.019	0.012
-243.961	217.509	-0.108	-0.173
-242.946	31.866	-0.108	-0.093
-241.932	-116.853	0.101	0.019
-240.917	651.040	-0.163	-0.419
-239.903	800.000	-0.066	-0.216
-238.888	301.878	0.259	-0.482
-237.873	272.942	0.136	0.241
-236.859	254.907	-0.190	0.326
-235.844	134.738	0.026	-0.033
-234.830	-64.881	-0.210	-0.085
-233.815	361.263	-0.033	0.066
-232.800	-109.926	-0.197	0.041
-231.786	-62.130	-0.222	-0.093
-230.771	-200.000	0.042	0.499
-229.757	19.389	-0.169	-0.137
-228.742	295.754	0.071	0.131
-227.727	366.550	0.028	-0.056
-226.713	-200.000	0.025	-0.225
-225.698	-104.197	0.149	-0.035
-224.684	4.763	-0.123	-0.091
-223.669	-6.030	-0.071	-0.048
-222.655	-136.899	-0.460	0.053
-221.640	349.390	-0.035	0.069
-220.625	800.000	0.018	0.072
-219.611	800.000	0.095	-0.274
-218.596	-200.000	0.055	-0.340
-217.582	-139.976	0.260	0.028
-216.567	-167.779	-0.358	-0.014
-215.552	-1.400	-0.338	0.239
-214.538	-200.000	0.559	0.003
-213.523	-127.337	0.099	-0.015
-212.509	-56.080	-0.114	-0.051
-211.494	120.021	0.166	0.206
-210.479	20.928	0.417	0.340
-209.465	800.000	0.128	0.491
-208.450	-83.402	0.293	-0.094
-207.436	146.896	-0.172	0.232
-206.421	168.151	0.103	0.147
-205.406	-130.293	-0.419	-0.057
-204.392	-172.442	-0.169	0.005
-203.377	228.156	-0.112	-0.183
-202.363	-113.877	-0.472	-0.092
-201.348	-200.000	-0.002	0.176
-200.333	-31.579	-0.276	0.155
-199.319	-82.185	0.119	0.039
-198.304	-81.076	0.172	0.057
-197.290	53.664	-0.142	-0.136
-196.275	800.000	0.017	-0.067
-195.260	-114.018	-0.271	-0.053
-194.246	-200.000	0.089	0.436
-193.231	94.616	-0.190	-0.216
-192.217	-123.087	0.157	0.025
-191.202	-16.279	-0.290	0.185
-190.187	-78.651	-0.197	-0.068
-189.173	-36.694	-0.180	-0.097
-188.158	68.387	0.032	-0.033
-187.144	-177.455	-0.254	-0.006
-186.129	121.192	0.071	0.089
-185.114	448.861	-0.049	0.109
-184.100	61.271	0.122	-0.121
-183.085	-134.285	0.270	0.033
-182.071	-69.928	0.334	0.128
-181.056	297.574	0.074	-0.136
-180.042	1.559	0.132	-0.095
-179.027	-200.000	-0.030	-0.137
-178.012	800.000	-0.017	0.055
-176.998	-108.283	0.217	0.047
-175.983	616.045	0.081	-0.204
-174.969	169.125	-0.241	0.345
-173.954	-200.000	-0.005	-0.187
-172.939	-200.000	-0.034	-0.243
-171.925	574.655	-0.059	-0.144
-170.910	235.655	-0.044	0.073
-169.896	-73.622	-0.202	-0.074
-168.881	-131.889	0.086	-0.011
-167.866	176.103	0.045	0.065
-166.852	-200.000	0.019	-0.102
-165.837	-142.024	-0.245	-0.024
-164.823	-135.500	0.232	-0.028
-163.808	800.000	0.108	0.331
-162.793	35.383	0.079	0.070
-161.779	-132.076	-0.049	0.006
-160.764	-200.000	-0.017	0.149
-159.750	625.990	0.110	0.278
-158.735	356.683	0.090	-0.179
-157.720	46.466	-0.097	0.090
-156.706	-135.366	-0.126	0.015
-155.691	-94.051	0.332	-0.091
-154.677	-20.747	0.291	-0.179
-153.662	121.082	0.267	0.333
-152.647	-200.000	0.017	0.111
-151.633	800.000	-0.038	0.154
-150.618	-80.781	0.236	0.079
-149.604	84.188	-0.142	-0.155
-148.589	-9.410	0.085	0.057
-147.574	-10.597	0.148	0.098
-146.560	-96.681	0.284	0.075
-145.545	84.280	-0.147	0.161
-144.531	800.000	-0.045	-0.130
-143.516	-28.111	0.196	-0.113
-142.502	20.521	-0.116	-0.094
-141.487	-19.533	0.230	-0.143
-140.472	-130.878	0.033	0.004
-139.458	-200.000	-0.010	-0.366
-138.443	-139.335	0.268	0.029
-137.429	217.765	0.065	-0.104
-136.414	-102.702	0.147	-0.035
-135.399	584.027	0.049	-0.120
-134.385	-200.000	-0.010	-0.276
-133.370	42.135	0.071	-0.065
-132.356	-2.184	0.141	-0.099
-131.341	-200.000	0.018	-0.088
-130.326	-200.000	-0.059	-0.290
-129.312	68.664	0.156	-0.160
-128.297	-200.000	0.016	0.133
-127.283	-200.000	0.010	0.083
-126.268	793.203	0.059	0.162
-125.253	-41.666	0.239	0.123
-124.239	-0.859	0.176	0.125
-123.224	-121.164	0.390	-0.065
-122.210	-118.141	0.444	-0.079
