DTS Sentinel unit serial number:	SN413079Multiplexer serial number:	ORYXHardware model number:	OX4-SRSoftware version number:	ORYX F/W v4.00 Oryx Data Collector v3.7.2.0data status	okinstallation	princeton_trtdifferential loss correction	single-endedforward channel	channel 2reverse channel	N/Adate	2019/09/17time	23:23:34forward acquisition time	60.00reverse acquisition time	0.00gamma	496.2192k internal	0.2348k external	0.2348temperature offset calibration	0.9984default loss term (dB/km)	0.3790temperature slope calibration	1.0000multiplexer offset coefficient	1.0000multiplexer slope coefficient	1.0000fibre end	0.00T internal ref (°C)	24.37T ext. ref 1 (°C)	0.17T ext. ref 2 (°C)	17.56length (m)	temperature (°C)	Stokes	anti-Stokes-747.200	-200.000	-0.007	0.093
-746.185	-76.339	-0.262	0.092
-745.171	-200.000	0.035	-0.168
-744.156	-184.846	0.023	0.000
-743.142	-200.000	0.022	-0.107
-742.127	-200.000	-0.026	-0.118
-741.112	-200.000	-0.006	-0.053
-740.098	-200.000	-0.012	-0.079
-739.083	36.139	-0.107	-0.094
-738.069	-200.000	-0.085	0.386
-737.054	-152.559	-0.339	-0.024
-736.039	-200.000	-0.024	0.261
-735.025	-3.895	0.249	0.173
-734.010	-200.000	-0.003	0.042
-732.996	81.648	0.208	-0.224
-731.981	274.684	0.044	-0.078
-730.966	16.478	0.218	0.172
-729.952	63.766	-0.064	-0.064
-728.937	9.164	-0.322	-0.243
-727.923	162.154	-0.227	-0.317
-726.908	55.252	0.071	0.068
-725.894	152.091	-0.167	-0.227
-724.879	-200.000	0.040	0.488
-723.864	172.911	0.232	0.334
-722.850	125.378	-0.189	0.238
-721.835	-200.000	0.047	-0.255
-720.821	-3.042	-0.119	-0.083
-719.806	800.000	0.091	-0.352
-718.791	40.492	-0.132	-0.118
-717.777	-200.000	0.013	-0.219
-716.762	153.186	0.113	-0.154
-715.748	43.676	-0.041	0.037
-714.733	362.247	0.126	0.252
-713.718	-119.080	-0.244	-0.043
-712.704	89.153	0.100	0.112
-711.689	498.658	-0.169	-0.388
-710.675	212.970	-0.183	0.288
-709.660	-200.000	-0.044	0.215
-708.645	115.287	0.193	-0.236
-707.631	800.000	0.074	0.240
-706.616	37.399	-0.095	0.084
-705.602	-200.000	0.012	0.259
-704.587	-30.514	0.359	0.203
-703.572	-150.800	0.258	-0.020
-702.558	10.905	-0.282	0.215
-701.543	213.490	0.093	0.147
-700.529	96.239	0.060	0.068
-699.514	188.973	-0.141	-0.210
-698.499	-31.319	-0.333	0.187
-697.485	-8.675	-0.154	-0.103
-696.470	381.633	0.175	-0.358
-695.456	-184.249	-0.104	-0.002
-694.441	-164.942	0.209	0.009
-693.426	95.106	-0.203	-0.230
-692.412	800.000	-0.112	-0.347
-691.397	685.301	0.055	0.143
-690.383	11.544	-0.205	-0.157
-689.368	141.954	0.100	0.132
-688.354	-200.000	0.027	0.410
-687.339	-104.434	-0.240	-0.055
-686.324	489.476	0.116	0.263
-685.310	-53.374	-0.165	-0.075
-684.295	-145.897	-0.173	-0.015
-683.281	-113.177	-0.076	-0.015
-682.266	-21.875	-0.138	-0.084
-681.251	-98.820	-0.277	0.070
-680.237	203.833	0.043	-0.066
-679.222	26.341	0.106	0.088
-678.208	-159.663	-0.017	-0.001
-677.193	800.000	-0.084	-0.311
-676.178	800.000	0.065	-0.271
-675.164	-106.784	-0.224	-0.049
-674.149	-126.039	-0.120	-0.018
-673.135	-130.437	-0.099	0.013
-672.120	331.697	-0.097	0.186
-671.105	83.589	-0.052	0.056
-670.091	247.089	0.070	-0.118
-669.076	-200.000	0.053	-0.312
-668.062	-158.870	0.214	0.012
-667.047	-200.000	-0.006	0.225
-666.032	-81.082	0.051	0.017
-665.018	-200.000	0.004	-0.139
-664.003	-200.000	-0.280	-0.001
-662.989	-64.946	-0.111	0.045
-661.974	-82.356	0.104	0.034
-660.959	211.260	-0.041	0.065
-659.945	227.974	-0.023	0.038
-658.930	-144.824	-0.181	-0.017
-657.916	-106.967	0.099	-0.022
-656.901	-71.562	-0.237	-0.088
-655.886	732.469	0.143	0.380
-654.872	-87.034	0.173	-0.052
-653.857	73.031	-0.181	-0.188
-652.843	-75.933	-0.236	0.083
-651.828	-105.000	-0.164	-0.037
-650.814	-55.565	-0.394	-0.176
-649.799	-200.000	0.033	-0.178
-648.784	-200.000	-0.028	0.149
-647.770	-150.983	0.175	0.013
-646.755	-158.452	-0.230	-0.013
-645.741	25.491	-0.301	-0.249
-644.726	283.387	-0.017	-0.030
-643.711	-15.118	-0.095	0.060
-642.697	-53.701	-0.166	-0.076
-641.682	250.377	-0.109	0.183
-640.668	25.044	0.324	0.267
-639.653	-200.000	-0.011	0.151
-638.638	-145.599	0.475	-0.042
-637.624	-102.802	-0.331	-0.078
-636.609	-194.030	0.259	0.002
-635.595	-12.044	0.102	-0.067
-634.580	288.094	0.101	-0.182
-633.565	-80.032	-0.615	-0.205
-632.551	-134.490	0.196	-0.024
-631.536	-71.415	0.125	-0.047
-630.522	-142.621	-0.287	-0.028
-629.507	-120.397	-0.343	0.058
-628.492	-66.293	-0.066	0.026
-627.478	65.269	0.128	-0.128
-626.463	437.445	0.083	0.180
-625.449	124.616	0.068	0.084
-624.434	336.543	-0.123	0.237
-623.419	-173.628	0.402	0.012
-622.405	-47.469	-0.176	0.085
-621.390	-136.956	-0.138	-0.016
-620.376	-91.909	0.495	-0.140
-619.361	-200.000	0.018	0.222
-618.346	-96.897	-0.167	-0.044
-617.332	267.610	0.277	-0.482
-616.317	213.933	-0.194	0.305
-615.303	60.905	0.145	0.143
-614.288	-2.165	0.136	-0.095
-613.273	80.777	-0.108	-0.116
-612.259	202.567	-0.142	-0.218
-611.244	-112.502	0.171	-0.034
-610.230	-200.000	-0.027	0.268
-609.215	-110.938	-0.144	-0.029
-608.201	-200.000	-0.023	0.178
-607.186	98.536	-0.105	0.120
-606.171	-57.112	0.060	0.026
-605.157	-65.440	-0.270	-0.108
-604.142	-103.599	-0.354	-0.083
-603.128	281.667	-0.146	0.259
-602.113	-111.699	-0.248	-0.050
-601.098	242.147	0.148	0.246
-600.084	-200.000	-0.014	-0.114
-599.069	100.710	0.112	-0.130
-598.055	-49.042	0.039	0.019
-597.040	800.000	-0.113	-0.331
-596.025	-12.908	0.359	0.232
-595.011	99.919	-0.057	-0.066
-593.996	-69.628	0.081	-0.031
-592.982	-146.082	0.173	-0.015
-591.967	13.205	0.192	0.148
-590.952	-121.140	-0.456	0.076
-589.938	503.352	0.123	0.282
-588.923	-5.970	-0.304	0.207
-587.909	-175.520	0.200	0.005
-586.894	-176.895	0.223	0.006
-585.879	-90.374	-0.149	-0.043
-584.865	-11.220	0.242	0.158
-583.850	800.000	0.090	-0.287
-582.836	-200.000	0.044	0.234
-581.821	183.171	-0.105	-0.154
-580.806	82.320	-0.129	0.139
-579.792	-200.000	0.065	-0.329
-578.777	418.770	-0.143	-0.303
-577.763	800.000	-0.061	0.166
-576.748	-152.246	-0.188	0.013
-575.733	-200.000	0.007	-0.220
-574.719	129.784	0.117	0.149
-573.704	-63.650	-0.398	0.162
-572.690	-21.694	-0.238	0.144
-571.675	166.854	-0.156	0.220
-570.661	800.000	-0.009	-0.034
-569.646	682.428	-0.104	-0.269
-568.631	537.776	-0.092	-0.217
-567.617	-200.000	-0.022	-0.435
-566.602	-1.441	0.089	0.062
-565.588	13.735	0.103	0.079
-564.573	39.183	-0.059	-0.052
-563.558	-200.000	0.067	-0.338
-562.544	-194.576	0.174	-0.001
-561.529	-151.299	-0.197	-0.015
-560.515	80.860	-0.196	-0.209
-559.500	-148.595	0.283	-0.023
-558.485	35.912	-0.121	0.106
-557.471	-89.575	-0.504	0.147
-556.456	-200.000	0.058	0.259
-555.442	-112.015	0.135	0.027
-554.427	-89.691	-0.107	-0.031
-553.412	0.298	0.102	-0.072
-552.398	44.954	0.296	0.271
-551.383	-86.724	0.015	-0.005
-550.369	-200.000	-0.004	0.260
-549.354	18.304	-0.082	-0.065
-548.339	-47.582	0.143	-0.069
-547.325	-133.735	0.239	0.030
-546.310	589.749	0.042	-0.103
-545.296	-5.993	0.279	-0.189
-544.281	-112.639	0.182	-0.036
-543.266	-53.024	-0.323	-0.147
-542.252	-138.482	-0.261	-0.029
-541.237	-100.103	-0.137	0.034
-540.223	20.228	0.282	0.226
-539.208	800.000	-0.064	-0.201
-538.193	-56.722	-0.076	-0.034
-537.179	-63.505	0.113	0.046
-536.164	-200.000	-0.008	-0.135
-535.150	56.571	-0.213	-0.206
-534.135	38.948	-0.106	-0.094
-533.121	96.751	-0.091	0.104
-532.106	-200.000	-0.024	-0.106
-531.091	-104.548	0.135	0.031
-530.077	-124.573	-0.363	-0.056
-529.062	-200.000	0.018	-0.092
-528.048	-47.326	-0.119	-0.057
-527.033	-15.845	0.183	-0.115
-526.018	-12.852	-0.060	-0.038
-525.004	-89.842	0.136	-0.039
-523.989	149.761	-0.086	0.115
-522.975	362.578	0.092	-0.182
-521.960	-143.670	0.194	0.018
-520.945	-130.716	0.126	-0.017
-519.931	-13.631	-0.139	0.089
-518.916	270.225	0.200	0.348
-517.902	-98.791	-0.274	-0.069
-516.887	-75.365	-0.146	0.051
-515.872	75.093	0.102	-0.106
-514.858	-200.000	-0.019	0.351
-513.843	-33.966	-0.257	0.140
-512.829	-94.617	0.182	0.049
-511.814	800.000	0.042	0.118
-510.799	-26.554	0.150	0.087
-509.785	-70.403	-0.239	0.090
-508.770	-15.834	0.191	0.121
-507.756	-59.269	0.259	-0.111
-506.741	-200.000	-0.021	-0.180
-505.726	-178.535	-0.079	-0.002
-504.712	-171.606	0.283	0.009
-503.697	776.028	0.196	-0.529
-502.683	800.000	0.012	-0.037
-501.668	-200.000	0.027	0.142
-500.653	800.000	-0.044	-0.171
-499.639	800.000	0.081	-0.236
-498.624	-181.111	-0.153	0.003
-497.610	-155.635	0.046	0.003
-496.595	-200.000	0.026	0.178
-495.581	-200.000	-0.032	0.144
-494.566	-54.478	0.250	-0.112
-493.551	-159.639	0.347	-0.019
-492.537	516.579	-0.027	0.061
-491.522	-200.000	0.015	-0.291
-490.508	-128.852	-0.059	0.008
-489.493	60.769	0.297	0.291
-488.478	-200.000	0.039	0.188
-487.464	-80.042	-0.172	-0.057
-486.449	800.000	-0.076	0.219
-485.435	200.238	0.107	0.162
-484.420	147.651	-0.168	-0.224
-483.405	-200.000	-0.020	-0.277
-482.391	108.668	-0.237	0.280
-481.376	800.000	0.076	-0.220
-480.362	-59.065	-0.043	0.018
-479.347	72.832	-0.196	0.202
-478.332	-47.616	-0.105	0.050
-477.318	-105.705	-0.049	0.011
-476.303	-200.000	0.004	0.022
-475.289	-51.011	-0.180	-0.084
-474.274	-66.095	0.072	-0.028
-473.259	-200.000	-0.047	-0.380
-472.245	415.030	0.131	-0.276
-471.230	124.328	-0.137	0.170
-470.216	8.855	0.163	0.122
-469.201	-23.665	-0.285	0.169
-468.186	-91.497	0.214	-0.060
-467.172	800.000	0.057	0.223
-466.157	-93.379	-0.165	-0.045
-465.143	800.000	0.064	-0.189
-464.128	-45.269	0.160	0.079
-463.113	-98.011	0.336	-0.086
-462.099	-84.468	0.042	-0.013
-461.084	-30.728	-0.484	-0.270
-460.070	478.866	0.162	0.363
-459.055	177.158	-0.079	0.114
-458.040	-200.000	-0.000	0.088
-457.026	287.776	-0.110	-0.197
-456.011	800.000	-0.032	0.122
-454.997	-32.801	0.291	0.160
-453.982	-119.996	0.066	0.011
-452.968	-200.000	-0.034	-0.149
-451.953	-200.000	-0.038	-0.202
-450.938	-59.897	-0.272	-0.115
-449.924	-85.359	-0.213	-0.065
-448.909	-91.253	0.080	0.023
-447.895	220.415	-0.035	-0.056
-446.880	-59.246	-0.177	0.075
-445.865	-62.458	0.447	-0.184
-444.851	-200.000	0.021	-0.343
-443.836	-200.000	0.006	0.261
-442.822	-200.000	0.013	-0.282
-441.807	211.701	-0.073	-0.113
-440.792	313.795	-0.204	0.379
-439.778	-72.177	-0.106	-0.039
-438.763	-200.000	-0.037	-0.253
-437.749	-200.000	-0.082	-0.365
-436.734	-61.954	-0.297	0.122
-435.719	-29.319	-0.047	0.027
-434.705	-106.722	0.417	-0.091
-433.690	200.008	-0.145	0.219
-432.676	800.000	0.181	0.516
-431.661	147.249	-0.153	-0.204
-430.646	628.072	-0.041	-0.102
-429.632	242.768	-0.228	0.377
-428.617	-200.000	-0.027	0.208
-427.603	800.000	0.037	0.147
-426.588	2.825	0.163	0.117
-425.573	55.815	-0.119	0.114
-424.559	-200.000	0.043	0.246
-423.544	39.211	-0.188	-0.166
-422.530	-178.185	-0.190	0.004
-421.515	-104.592	0.173	0.039
-420.500	-200.000	-0.021	0.145
-419.486	-200.000	-0.044	0.348
-418.471	-144.847	-0.210	0.019
-417.457	-43.100	-0.166	-0.083
-416.442	99.947	0.116	-0.133
-415.428	130.837	0.164	0.208
-414.413	-200.000	0.082	0.576
-413.398	800.000	0.091	0.335
-412.384	18.544	-0.278	-0.219
-411.369	-200.000	0.056	-0.272
-410.355	-12.741	0.122	0.079
-409.340	84.903	-0.098	0.106
-408.325	-84.949	0.076	0.024
-407.311	132.874	0.073	-0.093
-406.296	-187.774	-0.278	-0.004
-405.282	-99.096	-0.556	-0.139
-404.267	18.586	0.318	0.251
-403.252	-200.000	-0.016	-0.207
-402.238	-200.000	-0.003	0.111
-401.223	800.000	-0.116	-0.456
-400.209	-200.000	0.029	0.228
-399.194	-76.854	0.066	0.023
-398.179	80.224	0.071	-0.075
-397.165	-111.981	0.228	0.045
-396.150	-200.000	-0.004	-0.039
-395.136	258.035	-0.182	0.309
-394.121	440.261	0.198	-0.427
-393.106	355.920	-0.082	-0.160
-392.092	-131.878	-0.122	-0.016
-391.077	484.618	-0.067	0.150
-390.063	730.923	0.012	-0.033
-389.048	-59.222	0.154	0.065
-388.033	-141.513	0.277	-0.028
-387.019	-137.417	-0.297	-0.033
-386.004	108.014	-0.089	-0.104
-384.990	800.000	0.026	-0.091
-383.975	-162.531	0.299	-0.015
-382.960	211.039	0.248	0.385
-381.946	667.360	0.043	0.111
-380.931	235.855	0.096	-0.156
-379.917	14.944	-0.079	0.061
-378.902	300.145	-0.185	-0.335
-377.888	373.172	0.071	0.143
-376.873	123.162	-0.067	0.083
-375.858	166.227	0.143	-0.200
-374.844	280.102	-0.061	0.108
-373.829	243.522	0.047	-0.078
-372.815	-56.549	-0.391	0.171
-371.800	800.000	0.086	0.369
-370.785	-18.578	0.042	-0.026
-369.771	-200.000	-0.072	0.000
-368.756	251.569	0.064	-0.107
-367.742	-200.000	-0.008	-0.044
-366.727	-8.936	0.110	-0.072
-365.712	-14.182	0.145	0.092
-364.698	129.250	-0.176	0.221
-363.683	65.875	-0.121	-0.121
-362.669	104.646	0.339	0.393
-361.654	88.347	0.031	0.034
-360.639	-52.086	0.293	-0.134
-359.625	206.989	0.071	-0.109
-358.610	-105.680	0.030	0.007
-357.596	-159.377	0.052	-0.003
-356.581	51.984	-0.009	0.008
-355.566	800.000	0.111	-0.367
-354.552	800.000	0.077	-0.214
-353.537	251.962	0.129	0.217
-352.523	800.000	-0.048	0.190
-351.508	-200.000	-0.006	-0.053
-350.493	81.628	-0.223	0.238
-349.479	-200.000	-0.014	0.102
-348.464	527.094	0.065	-0.150
-347.450	-93.080	0.291	-0.080
-346.435	18.087	-0.053	0.041
-345.420	-37.660	0.256	-0.134
-344.406	12.495	0.228	0.173
-343.391	-200.000	0.025	-0.326
-342.377	34.768	0.139	0.120
-341.362	800.000	-0.040	-0.134
-340.348	359.201	0.149	-0.294
-339.333	-74.489	-0.265	0.094
-338.318	113.827	0.102	-0.122
-337.304	-185.514	0.200	-0.003
-336.289	-200.000	-0.029	-0.286
-335.275	30.604	-0.094	0.079
-334.260	103.169	0.200	-0.231
-333.245	-200.000	0.012	-0.302
-332.231	354.810	-0.049	-0.095
-331.216	587.485	-0.030	-0.073
-330.202	-15.266	0.361	0.227
-329.187	-200.000	-0.046	-0.307
-328.172	38.791	0.249	-0.219
-327.158	-91.286	-0.208	-0.059
-326.143	-103.540	0.045	0.010
-325.129	-84.213	0.175	0.054
-324.114	800.000	-0.030	0.117
-323.099	329.309	0.020	-0.039
-322.085	-49.861	-0.144	-0.067
-321.070	4.825	0.362	-0.262
-320.056	-16.556	-0.129	0.080
-319.041	-26.797	-0.320	-0.184
-318.026	794.839	-0.079	-0.214
-317.012	-29.943	0.300	0.168
-315.997	-200.000	-0.022	0.266
-314.983	-118.701	-0.364	0.063
-313.968	-200.000	0.005	-0.066
-312.953	-122.516	0.325	0.052
-311.939	24.686	-0.073	0.059
-310.924	59.859	0.200	0.194
-309.910	670.814	0.083	-0.212
-308.895	158.564	-0.213	-0.290
-307.880	59.368	0.204	-0.197
-306.866	-84.492	0.104	0.032
-305.851	-45.176	-0.133	0.065
-304.837	-92.626	0.277	0.076
-303.822	59.293	-0.194	0.188
-302.807	231.005	-0.137	-0.221
-301.793	253.455	-0.183	0.306
-300.778	-31.474	0.232	-0.128
-299.764	800.000	-0.054	-0.174
-298.749	-49.225	0.211	0.099
-297.735	-116.358	-0.398	0.072
-296.720	336.814	0.207	0.395
-295.705	-57.000	-0.181	0.079
-294.691	88.578	0.266	0.290
-293.676	-38.844	-0.123	-0.064
-292.662	-136.707	-0.214	-0.024
-291.647	-200.000	0.022	0.196
-290.632	-49.738	0.230	0.107
-289.618	800.000	0.059	0.203
-288.603	271.663	0.124	-0.215
-287.589	-73.123	0.053	0.019
-286.574	659.483	0.046	-0.117
-285.559	-89.559	-0.433	0.125
-284.545	338.888	-0.022	-0.043
-283.530	-48.476	-0.229	0.108
-282.516	-64.662	-0.052	0.021
-281.501	93.245	0.241	-0.268
-280.486	-200.000	0.020	-0.172
-279.472	232.055	0.135	-0.217
-278.457	-152.173	0.216	0.015
-277.443	-200.000	-0.017	0.249
-276.428	32.938	-0.109	-0.093
-275.413	-200.000	0.007	-0.245
-274.399	-98.171	-0.087	-0.022
-273.384	-79.939	-0.123	-0.040
-272.370	-200.000	-0.002	0.027
-271.355	234.319	0.157	0.253
-270.340	-139.105	0.281	0.030
-269.326	-200.000	0.009	-0.095
-268.311	372.934	0.099	-0.197
-267.297	156.872	0.184	0.250
-266.282	-200.000	0.039	-0.216
-265.267	800.000	-0.093	0.340
-264.253	-200.000	-0.001	0.027
-263.238	146.094	0.224	0.295
-262.224	-200.000	0.006	0.242
-261.209	-200.000	-0.008	-0.039
-260.195	36.695	0.355	0.307
-259.180	-21.408	-0.344	0.206
-258.165	-144.142	-0.079	0.007
-257.151	-42.572	0.291	-0.145
-256.136	800.000	0.006	-0.023
-255.122	800.000	-0.033	-0.126
-254.107	-69.476	-0.278	0.105
-253.092	52.010	-0.113	0.106
-252.078	-84.866	0.289	0.089
-251.063	680.792	-0.079	0.201
-250.049	211.202	0.119	-0.184
-249.034	-66.636	0.158	0.061
-248.019	43.604	-0.185	-0.166
-247.005	547.772	0.020	-0.046
-245.990	450.591	0.085	-0.185
-244.976	-200.000	-0.016	0.147
-243.961	-183.244	0.140	-0.002
-242.946	626.487	-0.041	-0.100
-241.932	-200.000	0.038	0.193
-240.917	-200.000	-0.014	-0.227
-239.903	9.453	-0.296	0.219
-238.888	16.633	0.106	0.082
-237.873	143.820	0.174	-0.227
-236.859	78.298	0.131	0.137
-235.844	-159.295	-0.198	-0.011
-234.830	5.194	0.186	0.134
-233.815	25.626	-0.182	-0.148
-232.800	787.820	0.050	0.133
-231.786	-200.000	0.020	0.113
-230.771	800.000	0.034	0.103
-229.757	800.000	-0.045	0.131
-228.742	4.578	-0.190	0.136
-227.727	-200.000	0.099	0.427
-226.713	-52.447	0.275	-0.125
-225.698	48.400	0.184	0.169
-224.684	-11.230	0.217	0.140
-223.669	-70.026	0.118	-0.044
-222.655	-114.228	-0.208	-0.039
-221.640	-5.418	0.241	0.162
-220.625	-7.966	0.107	-0.071
-219.611	800.000	0.040	0.117
-218.596	-123.858	0.602	-0.093
-217.582	-79.784	-0.121	0.040
-216.567	800.000	-0.094	0.390
-215.552	-85.534	0.204	-0.062
-214.538	-200.000	-0.006	-0.035
-213.523	-200.000	-0.014	-0.208
-212.509	-107.126	0.028	0.006
-211.494	79.495	-0.263	-0.276
-210.479	93.643	-0.111	-0.123
-209.465	-65.788	0.187	0.073
-208.450	800.000	0.034	0.120
-207.436	800.000	0.031	-0.115
-206.421	-121.967	-0.193	-0.031
-205.406	-62.806	-0.187	0.076
-204.392	-200.000	-0.015	-0.193
-203.377	54.832	0.182	0.172
-202.363	-200.000	0.013	0.159
-201.348	-48.321	0.291	0.137
-200.333	-200.000	-0.024	-0.258
-199.319	-198.455	-0.059	-0.000
-198.304	-200.000	-0.009	-0.269
-197.290	-80.856	-0.130	-0.042
-196.275	-200.000	0.045	-0.264
-195.260	307.085	-0.090	-0.164
-194.246	-200.000	-0.021	-0.139
-193.231	-78.762	-0.398	0.133
-192.217	-127.265	-0.094	0.013
-191.202	-20.606	-0.240	0.144
-190.187	-200.000	-0.097	-0.524
-189.173	-71.645	0.258	-0.094
-188.158	-124.181	-0.234	-0.036
-187.144	-9.975	0.047	-0.031
-186.129	-200.000	-0.037	-0.255
-185.114	800.000	-0.032	0.100
-184.100	-42.929	-0.316	-0.157
-183.085	5.855	-0.151	-0.109
-182.071	-200.000	0.021	0.128
-181.056	85.845	0.020	-0.021
-180.042	-200.000	0.007	0.249
-179.027	-200.000	-0.028	0.209
-178.012	-64.951	0.228	0.090
-176.998	-200.000	0.030	-0.317
-175.983	-64.275	-0.140	-0.056
-174.969	-49.201	0.107	-0.050
-173.954	-200.000	0.028	-0.165
-172.939	163.502	-0.098	0.135
-171.925	297.437	-0.189	-0.338
-170.910	-200.000	0.002	-0.211
-169.896	800.000	0.023	-0.088
-168.881	174.773	-0.117	0.165
-167.866	-42.928	-0.237	-0.118
-166.852	26.528	-0.199	-0.163
-165.837	800.000	-0.063	-0.211
-164.823	-200.000	0.018	0.175
-163.808	54.285	0.011	0.010
-162.793	-200.000	-0.024	0.210
-161.779	-29.804	-0.160	-0.089
-160.764	-83.398	-0.408	-0.128
-159.750	800.000	0.053	0.173
-158.735	92.072	0.064	-0.070
-157.720	-94.513	-0.155	-0.041
-156.706	-200.000	0.012	0.284
-155.691	237.525	0.210	-0.339
-154.677	-197.097	-0.171	-0.001
-153.662	259.226	-0.062	0.104
-152.647	331.372	-0.249	0.468
-151.633	-154.984	0.168	-0.011
-150.618	-200.000	-0.019	0.123
-149.604	570.970	0.184	-0.438
-148.589	603.137	0.252	0.611
-147.574	136.313	-0.170	0.217
-146.560	698.402	-0.116	0.297
-145.545	208.816	-0.154	0.236
-144.531	-114.389	0.185	0.035
-143.516	-200.000	0.028	-0.136
-142.502	-200.000	0.032	-0.393
-141.487	82.984	-0.297	0.315
-140.472	176.104	0.099	-0.141
-139.458	20.038	-0.109	-0.086
-138.443	-100.425	0.121	0.029
-137.429	800.000	-0.108	0.337
-136.414	181.765	-0.186	-0.267
-135.399	-80.668	-0.090	0.029
-134.385	-37.007	0.255	0.133
-133.370	-200.000	-0.022	-0.306
-132.356	319.073	0.060	-0.111
-131.341	479.737	0.058	0.128
-130.326	152.075	-0.179	0.238
-129.312	736.697	-0.057	0.150
-128.297	-64.843	0.232	-0.091
-127.283	-200.000	-0.024	-0.429
-126.268	102.741	0.128	0.147
-125.253	34.775	0.277	0.236
-124.239	-9.208	-0.175	-0.114
-123.224	-69.262	0.172	0.065
-122.210	-41.617	0.146	-0.073
