DTS Sentinel unit serial number:	SN413079Multiplexer serial number:	ORYXHardware model number:	OX4-SRSoftware version number:	ORYX F/W v4.00 Oryx Data Collector v3.7.2.0data status	okinstallation	princeton_trtdifferential loss correction	single-endedforward channel	channel 2reverse channel	N/Adate	2019/09/13time	07:03:34forward acquisition time	60.00reverse acquisition time	0.00gamma	496.2192k internal	0.2338k external	0.2338temperature offset calibration	1.0195default loss term (dB/km)	0.3790temperature slope calibration	1.0000multiplexer offset coefficient	1.0000multiplexer slope coefficient	1.0000fibre end	0.00T internal ref (°C)	26.00T ext. ref 1 (°C)	4.14T ext. ref 2 (°C)	21.16length (m)	temperature (°C)	Stokes	anti-Stokes-747.200	-64.589	0.289	-0.118
-746.185	46.162	-0.113	-0.105
-745.171	-23.506	0.136	0.082
-744.156	800.000	0.067	0.226
-743.142	267.741	0.125	0.219
-742.127	-59.258	-0.107	0.046
-741.112	-200.000	0.029	0.303
-740.098	541.994	0.035	-0.083
-739.083	-96.173	0.278	-0.074
-738.069	800.000	-0.098	0.429
-737.054	1.228	0.268	0.193
-736.039	19.423	-0.155	0.125
-735.025	185.554	0.124	0.185
-734.010	252.947	0.118	-0.201
-732.996	97.705	-0.062	0.072
-731.981	66.509	-0.231	-0.235
-730.966	-126.479	-0.254	0.038
-729.952	70.510	-0.179	0.186
-728.937	-113.993	0.179	-0.035
-727.923	107.167	0.052	0.062
-726.908	26.166	-0.256	-0.215
-725.894	-15.544	-0.177	-0.113
-724.879	452.060	-0.067	0.149
-723.864	244.438	-0.337	-0.568
-722.850	-39.637	0.231	0.121
-721.835	11.636	-0.089	0.069
-720.821	-200.000	-0.053	-0.263
-719.806	709.430	-0.047	0.125
-718.791	30.100	0.167	0.143
-717.777	33.661	-0.017	-0.015
-716.762	100.036	0.193	0.224
-715.748	308.199	0.016	-0.030
-714.733	-200.000	0.003	-0.041
-713.718	800.000	-0.073	-0.235
-712.704	-200.000	-0.027	-0.496
-711.689	53.621	0.177	-0.170
-710.675	-200.000	0.014	0.088
-709.660	-156.186	-0.225	-0.014
-708.645	55.256	0.111	-0.107
-707.631	-16.139	-0.112	0.071
-706.616	33.879	0.284	-0.248
-705.602	1.688	-0.259	-0.187
-704.587	276.465	-0.144	-0.257
-703.572	-200.000	-0.047	0.416
-702.558	-30.654	-0.052	-0.030
-701.543	-200.000	-0.037	-0.171
-700.529	61.351	0.110	-0.109
-699.514	-11.545	-0.106	0.070
-698.499	38.546	-0.037	-0.033
-697.485	-200.000	0.007	-0.094
-696.470	578.241	0.113	-0.277
-695.456	-84.648	-0.205	0.065
-694.441	-101.133	-0.446	-0.109
-693.426	219.464	-0.239	0.383
-692.412	-117.355	-0.126	-0.023
-691.397	-109.476	-0.113	0.024
-690.383	101.438	0.171	0.200
-689.368	101.402	0.092	-0.107
-688.354	261.660	0.148	-0.257
-687.339	37.866	-0.183	0.163
-686.324	12.590	-0.109	0.084
-685.310	-158.866	-0.301	-0.017
-684.295	136.190	-0.184	-0.240
-683.281	800.000	0.111	0.336
-682.266	-33.461	-0.328	0.181
-681.251	-200.000	0.010	-0.247
-680.237	-66.756	-0.214	-0.085
-679.222	96.983	0.181	0.207
-678.208	-51.677	-0.076	0.036
-677.193	168.912	0.076	-0.109
-676.178	800.000	-0.017	-0.069
-675.164	-106.331	0.340	-0.076
-674.149	-43.725	0.102	0.051
-673.135	98.429	-0.170	0.196
-672.120	26.111	-0.258	0.215
-671.105	125.170	-0.073	-0.092
-670.091	8.205	-0.054	0.040
-669.076	-24.327	0.108	-0.065
-668.062	241.017	0.069	0.115
-667.047	-200.000	0.041	0.243
-666.032	-200.000	0.014	-0.147
-665.018	514.367	-0.108	-0.253
-664.003	-200.000	0.024	-0.169
-662.989	-36.446	0.222	0.120
-661.974	-111.058	-0.265	0.054
-660.959	-77.155	-0.189	0.066
-659.945	-90.899	0.363	-0.104
-658.930	-145.070	-0.441	-0.040
-657.916	-68.981	-0.069	0.027
-656.901	-81.642	-0.238	0.078
-655.886	176.043	-0.197	0.286
-654.872	261.134	0.131	-0.227
-653.857	-200.000	0.021	-0.251
-652.843	-1.010	-0.096	-0.068
-651.828	-119.865	0.286	0.049
-650.814	-200.000	0.018	-0.225
-649.799	-71.519	-0.090	0.034
-648.784	27.257	0.190	-0.160
-647.770	70.709	-0.110	-0.114
-646.755	-200.000	0.046	-0.257
-645.741	-200.000	0.018	-0.152
-644.726	73.445	0.047	0.049
-643.711	-118.864	-0.080	-0.014
-642.697	-200.000	-0.049	0.249
-641.682	-200.000	-0.004	-0.191
-640.668	-200.000	-0.062	-0.370
-639.653	-147.685	-0.062	0.005
-638.638	800.000	0.086	-0.368
-637.624	-200.000	-0.026	0.216
-636.609	-13.308	0.217	0.140
-635.595	39.095	-0.117	-0.105
-634.580	-164.155	0.171	0.008
-633.565	-46.050	-0.094	-0.046
-632.551	-200.000	-0.016	-0.160
-631.536	-12.274	-0.270	0.177
-630.522	-57.293	0.143	-0.063
-629.507	19.824	-0.260	-0.209
-628.492	3.733	0.279	-0.203
-627.478	284.272	0.062	0.111
-626.463	-93.104	0.116	-0.032
-625.449	-83.860	0.146	-0.046
-624.434	84.230	-0.150	-0.163
-623.419	120.504	0.128	-0.159
-622.405	-200.000	-0.022	-0.284
-621.390	-200.000	0.049	0.219
-620.376	12.055	-0.115	-0.089
-619.361	73.192	0.006	-0.006
-618.346	-67.075	0.381	-0.150
-617.332	-200.000	-0.053	-0.287
-616.317	137.238	-0.092	0.120
-615.303	289.452	0.155	-0.281
-614.288	-109.571	0.361	0.076
-613.273	-15.260	-0.127	0.081
-612.259	-22.389	0.156	0.094
-611.244	800.000	-0.155	0.476
-610.230	4.540	-0.012	0.009
-609.215	142.172	0.126	-0.167
-608.201	413.853	-0.097	-0.206
-607.186	-200.000	-0.065	-0.325
-606.171	256.649	0.238	0.409
-605.157	309.014	0.243	-0.453
-604.142	-85.494	0.308	0.096
-603.128	0.927	-0.057	-0.041
-602.113	-99.393	0.155	-0.039
-601.098	-4.017	0.123	-0.085
-600.084	559.847	-0.074	-0.179
-599.069	-200.000	0.023	0.131
-598.055	294.934	-0.054	0.099
-597.040	499.010	0.072	0.166
-596.025	-114.438	0.158	0.030
-595.011	517.845	-0.102	-0.238
-593.996	6.590	0.128	-0.095
-592.982	-200.000	-0.004	0.031
-591.967	-11.657	-0.131	-0.086
-590.952	190.708	-0.097	-0.146
-589.938	-158.994	0.110	0.006
-588.923	-200.000	0.018	-0.270
-587.909	-181.063	-0.289	-0.006
-586.894	-176.260	-0.030	0.001
-585.879	800.000	0.076	-0.254
-584.865	107.062	-0.247	0.292
-583.850	645.529	0.052	-0.133
-582.836	-149.795	-0.344	0.027
-581.821	-72.507	-0.285	-0.105
-580.806	800.000	0.022	-0.063
-579.792	-200.000	0.050	-0.356
-578.777	289.668	0.120	0.217
-577.763	-142.033	0.151	-0.015
-576.748	-91.164	0.100	0.029
-575.733	-5.330	0.137	0.094
-574.719	-64.833	-0.116	-0.047
-573.704	800.000	0.034	0.134
-572.690	361.075	0.158	-0.315
-571.675	-200.000	0.025	-0.153
-570.661	77.162	0.077	-0.082
-569.646	-200.000	-0.031	-0.190
-568.631	800.000	-0.077	-0.310
-567.617	236.000	0.072	-0.119
-566.602	800.000	-0.014	0.057
-565.588	-76.315	0.062	-0.022
-564.573	444.775	0.022	0.048
-563.558	384.602	0.120	0.247
-562.544	-200.000	-0.031	-0.229
-561.529	-121.910	-0.222	-0.036
-560.515	-200.000	0.004	0.371
-559.500	-200.000	-0.038	-0.279
-558.485	98.294	0.186	0.214
-557.471	800.000	0.009	0.028
-556.456	99.370	-0.155	0.178
-555.442	78.702	0.226	-0.241
-554.427	-83.708	-0.135	-0.043
-553.412	432.938	0.081	-0.175
-552.398	117.268	0.176	-0.216
-551.383	143.028	-0.145	0.192
-550.369	41.864	-0.213	-0.192
-549.354	-80.661	-0.335	-0.111
-548.339	-22.345	0.280	0.169
-547.325	-97.833	-0.197	-0.051
-546.310	141.687	-0.142	0.188
-545.296	-39.783	0.240	0.125
-544.281	-200.000	0.004	0.103
-543.266	-131.419	-0.185	0.024
-542.252	-86.498	0.317	0.097
-541.237	-142.808	-0.277	0.027
-540.223	-27.713	-0.338	-0.195
-539.208	242.020	0.123	0.205
-538.193	-200.000	-0.001	0.087
-537.179	-33.166	-0.055	-0.030
-536.164	176.193	0.115	0.167
-535.150	800.000	0.068	0.258
-534.135	-200.000	0.002	0.056
-533.121	-200.000	-0.003	-0.142
-532.106	800.000	0.014	-0.039
-531.091	800.000	-0.106	-0.388
-530.077	-46.391	-0.209	-0.102
-529.062	503.874	0.033	-0.077
-528.048	101.820	-0.158	0.183
-527.033	-110.097	0.451	0.094
-526.018	-94.900	0.191	-0.051
-525.004	118.815	-0.176	-0.217
-523.989	800.000	0.140	0.425
-522.975	144.151	-0.059	0.079
-521.960	-76.450	-0.051	-0.018
-520.945	478.254	-0.031	0.071
-519.931	-122.344	-0.260	0.042
-518.916	2.124	0.139	0.100
-517.902	-122.513	-0.045	0.007
-516.887	800.000	-0.094	0.264
-515.872	-200.000	0.310	-0.000
-514.858	800.000	-0.067	-0.213
-513.843	-200.000	0.007	0.068
-512.829	-200.000	0.052	0.249
-511.814	-80.901	-0.346	0.114
-510.799	199.212	0.040	0.060
-509.785	218.831	0.071	-0.114
-508.770	-39.089	-0.296	-0.155
-507.756	62.760	0.146	0.145
-506.741	19.217	-0.177	-0.141
-505.726	352.246	-0.101	-0.199
-504.712	80.808	0.372	0.399
-503.697	-97.845	-0.125	0.032
-502.683	-128.371	0.343	-0.048
-501.668	56.464	-0.109	0.106
-500.653	800.000	-0.084	-0.353
-499.639	32.255	0.207	0.177
-498.624	478.688	-0.172	0.387
-497.610	560.616	0.083	-0.199
-496.595	211.923	-0.067	0.105
-495.581	668.242	0.137	-0.353
-494.566	-200.000	0.037	-0.200
-493.551	113.209	-0.252	-0.304
-492.537	-39.320	-0.190	0.099
-491.522	-200.000	0.010	0.104
-490.508	-200.000	0.009	-0.216
-489.493	-87.575	-0.214	-0.064
-488.478	800.000	-0.050	0.162
-487.464	143.267	0.172	-0.227
-486.449	-125.739	-0.381	-0.057
-485.435	383.999	0.011	0.023
-484.420	-200.000	-0.025	-0.205
-483.405	666.242	0.038	-0.097
-482.391	-160.984	0.069	0.004
-481.376	-200.000	-0.052	-0.249
-480.362	800.000	-0.055	0.238
-479.347	-89.649	0.114	0.033
-478.332	-123.573	-0.115	0.018
-477.318	231.310	0.142	-0.232
-476.303	533.409	-0.112	0.263
-475.289	-109.486	-0.140	-0.029
-474.274	262.745	0.166	-0.286
-473.259	151.335	-0.155	-0.209
-472.245	207.475	-0.209	-0.324
-471.230	125.693	0.155	0.195
-470.216	-123.628	-0.153	-0.024
-469.201	-89.501	-0.156	0.045
-468.186	-200.000	-0.095	-0.503
-467.172	537.864	0.136	-0.321
-466.157	88.225	0.040	0.044
-465.143	77.375	-0.235	0.248
-464.128	-200.000	-0.039	0.180
-463.113	-162.264	0.209	-0.010
-462.099	-34.030	0.114	0.062
-461.084	445.638	0.079	0.173
-460.070	168.743	0.152	0.215
-459.055	-151.827	-0.145	0.011
-458.040	-88.071	-0.194	-0.058
-457.026	501.211	0.170	0.389
-456.011	-55.094	-0.101	-0.045
-454.997	-94.116	0.209	-0.057
-453.982	-49.304	-0.296	0.140
-452.968	-66.870	-0.360	0.141
-451.953	-200.000	0.002	0.072
-450.938	56.725	0.110	0.107
-449.924	-115.308	-0.313	-0.059
-448.909	197.541	-0.032	-0.048
-447.895	741.002	0.112	-0.298
-446.880	121.410	0.207	-0.256
-445.865	-148.008	0.106	0.009
-444.851	32.411	-0.024	-0.021
-443.836	-200.000	-0.003	-0.061
-442.822	127.545	0.177	0.224
-441.807	352.262	-0.127	-0.250
-440.792	216.199	-0.165	0.261
-439.778	3.768	0.157	0.113
-438.763	61.489	-0.047	-0.046
-437.749	-74.568	-0.076	-0.027
-436.734	800.000	-0.050	-0.190
-435.719	-200.000	-0.004	-0.094
-434.705	-40.792	-0.048	0.025
-433.690	28.044	-0.137	-0.115
-432.676	-87.236	0.086	-0.026
-431.661	-44.033	-0.225	0.112
-430.646	99.442	0.218	-0.250
-429.632	-74.736	0.104	0.037
-428.617	-112.749	0.231	0.045
-427.603	-31.025	-0.210	0.117
-426.588	34.550	-0.138	-0.120
-425.573	-37.308	-0.125	0.066
-424.559	-0.837	-0.130	0.091
-423.544	-78.813	0.384	-0.130
-422.530	47.385	-0.080	-0.074
-421.515	197.746	0.039	-0.060
-420.500	-129.548	-0.399	-0.055
-419.486	52.987	-0.096	-0.091
-418.471	683.126	-0.040	0.104
-417.457	-42.055	0.267	-0.136
-416.442	-23.334	0.140	-0.083
-415.428	201.583	-0.067	-0.102
-414.413	-200.000	-0.003	0.209
-413.398	800.000	0.059	-0.228
-412.384	176.813	0.059	0.085
-411.369	-61.189	-0.308	-0.129
-410.355	275.429	0.101	0.177
-409.340	332.541	0.281	0.538
-408.325	48.099	-0.218	0.201
-407.311	-6.932	0.167	-0.112
-406.296	-200.000	0.001	0.302
-405.282	173.907	0.093	0.133
-404.267	-79.069	0.064	0.022
-403.252	341.816	-0.095	-0.184
-402.238	-32.647	-0.285	-0.157
-401.223	-22.416	0.277	0.166
-400.209	-144.077	-0.322	0.030
-399.194	-41.449	0.240	0.122
-398.179	-34.314	0.173	0.094
-397.165	448.726	0.094	0.206
-396.150	513.589	0.091	-0.210
-395.136	-133.467	-0.213	-0.027
-394.121	-113.217	0.180	0.035
-393.106	-200.000	-0.009	-0.354
-392.092	-95.573	0.425	-0.113
-391.077	140.706	-0.201	-0.263
-390.063	312.431	0.126	0.234
-389.048	800.000	-0.099	0.279
-388.033	-200.000	-0.023	0.131
-387.019	172.304	0.225	-0.321
-386.004	-58.159	-0.112	-0.048
-384.990	-33.167	0.151	-0.083
-383.975	-138.182	0.378	0.041
-382.960	-200.000	0.019	0.092
-381.946	-86.685	-0.250	-0.076
-380.931	-1.927	0.239	-0.166
-379.917	-31.492	0.050	-0.028
-378.902	128.151	-0.283	-0.356
-377.888	-18.340	0.128	-0.079
-376.873	22.705	0.175	0.142
-375.858	800.000	0.013	0.049
-374.844	-200.000	0.017	-0.088
-373.829	379.876	-0.047	-0.096
-372.815	-57.035	0.086	-0.037
-371.800	211.631	0.164	0.256
-370.785	351.709	0.071	0.139
-369.771	252.266	0.196	0.331
-368.756	-70.904	-0.317	-0.118
-367.742	-28.538	-0.355	0.202
-366.727	25.107	0.183	-0.150
-365.712	800.000	0.019	-0.077
-364.698	59.976	-0.104	0.101
-363.683	-200.000	0.052	0.266
-362.669	51.721	0.190	-0.179
-361.654	267.790	-0.048	0.084
-360.639	-19.256	-0.294	0.180
-359.625	9.257	0.247	0.185
-358.610	154.744	-0.144	-0.195
-357.596	95.668	-0.147	-0.166
-356.581	235.002	-0.162	-0.265
-355.566	155.657	-0.131	-0.178
-354.552	-200.000	0.076	0.332
-353.537	89.644	0.183	-0.202
-352.523	64.157	0.175	-0.174
-351.508	-82.198	-0.183	-0.059
-350.493	170.878	-0.351	-0.497
-349.479	-74.667	0.059	-0.021
-348.464	800.000	0.040	-0.144
-347.450	202.968	0.097	-0.147
-346.435	410.277	0.060	-0.125
-345.420	2.306	0.174	-0.124
-344.406	134.418	0.169	-0.216
-343.391	-73.081	-0.082	0.030
-342.377	-40.818	-0.061	-0.031
-341.362	-113.906	-0.307	0.059
-340.348	40.244	-0.136	0.121
-339.333	-146.256	-0.082	-0.007
-338.318	170.225	-0.172	0.243
-337.304	329.379	0.162	-0.307
-336.289	-121.940	-0.106	0.017
-335.275	-41.174	0.091	0.047
-334.260	281.255	-0.202	0.356
-333.245	-83.535	0.408	-0.129
-332.231	-23.962	0.157	0.093
-331.216	800.000	-0.070	-0.272
-330.202	156.507	0.054	0.073
-329.187	-119.137	-0.254	0.044
-328.172	-80.664	-0.340	-0.112
-327.158	-169.688	0.318	-0.011
-326.143	-168.917	-0.300	-0.011
-325.129	43.256	0.029	-0.026
-324.114	800.000	0.095	0.291
-323.099	-200.000	-0.085	0.438
-322.085	-200.000	0.003	0.317
-321.070	111.502	-0.106	0.126
-320.056	-147.532	0.263	-0.022
-319.041	-91.522	0.069	-0.020
-318.026	28.507	-0.133	0.111
-317.012	-141.744	-0.153	0.015
-315.997	-124.091	-0.377	0.058
-314.983	-65.036	0.277	0.110
-313.968	-200.000	-0.076	0.495
-312.953	95.387	-0.056	0.063
-311.939	800.000	0.044	0.167
-310.924	320.594	0.151	0.283
-309.910	-28.966	0.336	-0.190
-308.895	800.000	-0.056	0.193
-307.880	-57.560	-0.277	0.120
-306.866	-62.636	0.256	-0.105
-305.851	678.096	-0.100	-0.256
-304.837	800.000	0.053	-0.164
-303.822	-135.690	0.109	-0.013
-302.807	197.772	-0.058	-0.088
-301.793	-174.149	-0.139	-0.004
-300.778	800.000	0.033	0.126
-299.764	800.000	-0.019	-0.070
-298.749	-7.040	-0.215	-0.144
-297.735	-37.290	-0.069	-0.037
-296.720	153.498	0.154	0.208
-295.705	28.331	0.147	0.122
-294.691	-99.633	-0.078	-0.019
-293.676	262.446	0.072	0.123
-292.662	791.652	0.020	-0.054
-291.647	-16.128	-0.131	-0.082
-290.632	17.218	-0.126	0.099
-289.618	549.708	0.124	0.293
-288.603	-141.125	-0.445	0.045
-287.589	136.969	0.132	-0.170
-286.574	182.000	0.100	-0.145
-285.559	800.000	-0.098	0.280
-284.545	-80.043	-0.399	0.132
-283.530	44.485	-0.182	0.165
-282.516	-69.704	-0.179	-0.067
-281.501	47.175	0.085	0.078
-280.486	-16.065	0.108	0.068
-279.472	148.451	0.121	0.161
-278.457	343.335	-0.105	-0.203
-277.443	-36.009	0.179	0.095
-276.428	800.000	0.041	-0.154
-275.413	0.306	-0.305	-0.214
-274.399	168.915	0.193	0.271
-273.384	194.038	-0.124	0.185
-272.370	32.350	0.286	0.243
-271.355	-200.000	0.001	-0.236
-270.340	-125.495	0.457	-0.068
-269.326	123.155	0.133	0.164
-268.311	-102.239	0.285	0.067
-267.297	575.798	0.109	-0.263
-266.282	-34.766	0.141	0.076
-265.267	42.439	0.014	-0.012
-264.253	53.544	-0.273	0.258
-263.238	-101.432	0.226	0.054
-262.224	212.129	-0.047	-0.074
-261.209	-80.847	0.082	-0.027
-260.195	-132.806	-0.357	-0.045
-259.180	221.958	0.117	0.185
-258.165	4.852	-0.201	-0.145
-257.151	-200.000	-0.068	0.447
-256.136	800.000	-0.057	0.164
-255.122	-200.000	0.128	0.000
-254.107	55.554	0.175	-0.166
-253.092	16.618	-0.263	0.205
-252.078	33.021	-0.050	0.043
-251.063	-12.807	0.141	0.090
-250.049	42.403	0.232	-0.207
-249.034	-200.000	-0.048	0.291
-248.019	112.641	0.259	-0.308
-247.005	363.445	-0.025	0.049
-245.990	150.661	0.139	0.186
-244.976	-19.777	0.036	0.022
-243.961	-70.585	-0.284	-0.106
-242.946	194.485	-0.188	-0.281
-241.932	-47.039	-0.174	0.084
-240.917	-40.348	0.008	-0.004
-239.903	-40.994	-0.198	0.101
-238.888	154.182	0.144	0.194
-237.873	-23.386	-0.222	-0.131
-236.859	326.774	-0.063	-0.119
-235.844	800.000	0.009	0.027
-234.830	581.531	0.044	-0.105
-233.815	374.604	0.116	0.232
-232.800	52.818	-0.066	-0.062
-231.786	-200.000	-0.009	-0.051
-230.771	87.596	-0.220	0.239
-229.757	95.977	0.124	-0.139
-228.742	92.511	0.167	0.185
-227.727	293.134	-0.096	-0.172
-226.713	34.215	-0.139	-0.119
-225.698	270.364	-0.040	-0.070
-224.684	-103.747	-0.238	0.055
-223.669	235.909	-0.036	-0.059
-222.655	35.224	0.242	0.208
-221.640	-114.858	-0.126	-0.024
-220.625	-85.732	0.367	-0.112
-219.611	-47.177	-0.144	0.069
-218.596	-87.793	-0.407	-0.120
-217.582	800.000	-0.051	0.193
-216.567	-28.902	0.205	0.116
-215.552	-33.862	0.268	-0.145
-214.538	-14.306	0.200	0.127
-213.523	-78.525	-0.064	0.021
-212.509	728.984	0.035	-0.091
-211.494	-56.501	-0.109	-0.048
-210.479	-200.000	0.020	0.443
-209.465	405.425	0.028	0.057
-208.450	-200.000	0.030	-0.205
-207.436	-14.938	0.132	-0.083
-206.421	169.567	-0.144	0.203
-205.406	-200.000	0.034	-0.165
-204.392	51.116	-0.055	0.051
-203.377	34.675	0.003	-0.003
-202.363	-200.000	0.007	-0.043
-201.348	-77.020	0.037	-0.013
-200.333	-49.694	-0.190	0.089
-199.319	-49.615	-0.020	-0.009
-198.304	77.584	-0.132	0.138
-197.290	134.689	-0.073	-0.093
-196.275	-200.000	-0.030	-0.131
-195.260	-29.510	-0.410	0.230
-194.246	-200.000	0.001	0.205
-193.231	-70.557	0.263	0.098
-192.217	-200.000	-0.042	-0.352
-191.202	3.316	0.147	0.105
-190.187	338.955	-0.161	0.307
-189.173	-200.000	0.009	0.149
-188.158	-92.383	0.371	-0.103
-187.144	-200.000	0.055	0.247
-186.129	92.663	0.134	0.149
-185.114	800.000	-0.006	0.018
-184.100	-85.338	0.168	-0.051
-183.085	154.849	0.171	-0.230
-182.071	64.565	0.161	0.159
-181.056	554.481	0.113	-0.266
-180.042	-168.115	-0.310	-0.012
-179.027	538.285	-0.073	0.171
-178.012	-74.378	0.038	-0.013
-176.998	-111.752	-0.034	0.007
-175.983	197.224	0.115	0.173
-174.969	104.764	0.141	0.163
-173.954	84.541	0.271	0.291
-172.939	-92.954	0.035	0.010
-171.925	67.583	-0.102	-0.103
-170.910	-29.621	-0.273	-0.153
-169.896	148.293	-0.166	0.220
-168.881	-200.000	0.070	0.422
-167.866	218.718	-0.151	0.236
-166.852	-27.438	0.278	-0.159
-165.837	-87.038	0.299	-0.089
-164.823	242.048	-0.070	0.116
-163.808	65.951	-0.326	-0.325
-162.793	15.699	0.184	-0.142
-161.779	-9.389	-0.082	0.054
-160.764	-22.082	-0.185	0.110
-159.750	-200.000	-0.001	0.315
-158.735	39.603	-0.101	-0.089
-157.720	-128.670	0.116	0.016
-156.706	-85.247	0.227	-0.070
-155.691	-48.515	-0.195	0.092
-154.677	186.624	0.108	-0.158
-153.662	405.832	0.113	0.233
-152.647	-200.000	0.009	-0.063
-151.633	-117.849	0.143	-0.025
-150.618	72.758	-0.176	-0.180
-149.604	-82.777	0.057	-0.018
-148.589	47.904	-0.154	-0.141
-147.574	-19.441	0.225	-0.137
-146.560	370.527	0.158	-0.313
-145.545	-44.792	-0.211	-0.103
-144.531	-156.712	-0.118	0.007
-143.516	800.000	0.065	0.215
-142.502	-200.000	0.034	0.315
-141.487	89.275	-0.160	-0.175
-140.472	-61.679	0.051	0.021
-139.458	800.000	0.025	0.070
-138.443	-94.966	-0.163	0.043
-137.429	247.735	0.122	0.201
-136.414	-200.000	0.021	-0.117
-135.399	-90.548	-0.249	0.071
-134.385	-57.704	-0.126	-0.054
-133.370	179.800	-0.205	-0.294
-132.356	125.173	-0.092	0.113
-131.341	-126.697	-0.170	-0.025
-130.326	19.797	-0.199	0.157
-129.312	273.136	-0.047	-0.081
-128.297	-200.000	0.021	-0.199
-127.283	-85.070	-0.112	0.034
-126.268	-200.000	-0.054	0.330
-125.253	-23.052	-0.190	0.112
-124.239	64.288	-0.349	0.344
-123.224	-59.148	0.076	0.032
-122.210	376.776	0.177	0.353
-121.195	800.000	0.099	-0.295
-120.180	-94.607	-0.133	-0.035
