DTS Sentinel unit serial number:	SN413079Multiplexer serial number:	ORYXHardware model number:	OX4-SRSoftware version number:	ORYX F/W v4.00 Oryx Data Collector v3.7.2.0data status	okinstallation	princeton_trtdifferential loss correction	single-endedforward channel	channel 2reverse channel	N/Adate	2019/09/11time	20:21:11forward acquisition time	60.00reverse acquisition time	0.00gamma	496.2192k internal	0.2317k external	0.2317temperature offset calibration	1.0056default loss term (dB/km)	0.3790temperature slope calibration	1.0000multiplexer offset coefficient	1.0000multiplexer slope coefficient	1.0000fibre end	0.00T internal ref (°C)	37.94T ext. ref 1 (°C)	1.47T ext. ref 2 (°C)	31.50length (m)	temperature (°C)	Stokes	anti-Stokes-747.200	17.581	-0.059	0.048
-746.185	316.564	0.212	0.406
-745.171	-200.000	0.010	0.225
-744.156	800.000	0.078	0.241
-743.142	-39.067	-0.174	0.093
-742.127	122.565	-0.317	0.401
-741.112	-35.948	0.356	0.195
-740.098	-1.199	0.380	0.272
-739.083	-173.683	-0.124	-0.004
-738.069	-150.511	0.324	0.025
-737.054	-30.271	0.098	-0.057
-736.039	800.000	-0.042	0.179
-735.025	800.000	-0.027	-0.121
-734.010	800.000	-0.020	0.076
-732.996	42.117	-0.347	-0.319
-731.981	97.321	-0.058	-0.068
-730.966	754.481	-0.043	0.118
-729.952	48.338	0.098	0.093
-728.937	-56.561	-0.133	0.060
-727.923	-77.226	-0.325	-0.115
-726.908	-193.776	-0.370	-0.003
-725.894	-153.887	-0.020	0.001
-724.879	-28.041	0.147	-0.086
-723.864	-134.098	-0.294	-0.037
-722.850	-181.235	-0.094	0.002
-721.835	-46.053	-0.078	-0.039
-720.821	68.322	-0.189	-0.196
-719.806	-33.046	-0.281	0.158
-718.791	-132.372	-0.250	0.033
-717.777	150.269	0.020	-0.028
-716.762	-108.857	0.096	0.021
-715.748	62.295	-0.160	0.161
-714.733	-114.083	-0.283	-0.055
-713.718	-97.203	0.224	0.059
-712.704	339.594	-0.096	-0.189
-711.689	-79.143	0.460	0.158
-710.675	800.000	0.054	-0.155
-709.660	-101.601	0.033	0.008
-708.645	338.201	-0.093	-0.184
-707.631	-96.318	-0.366	0.098
-706.616	282.114	0.078	-0.141
-705.602	-134.020	0.131	0.016
-704.587	619.402	-0.048	0.122
-703.572	800.000	0.070	-0.252
-702.558	283.227	0.185	-0.336
-701.543	-25.464	-0.189	0.113
-700.529	73.207	-0.308	-0.326
-699.514	-124.311	-0.077	0.012
-698.499	800.000	0.009	-0.027
-697.485	268.435	-0.045	-0.080
-696.470	72.822	-0.060	-0.064
-695.456	-12.042	0.147	-0.097
-694.441	-139.038	0.347	-0.038
-693.426	-77.891	-0.321	0.112
-692.412	-112.348	0.327	-0.066
-691.397	-164.050	0.276	0.013
-690.383	126.080	-0.088	-0.112
-689.368	-125.464	-0.070	-0.011
-688.354	421.759	-0.209	-0.452
-687.339	800.000	0.093	0.286
-686.324	266.476	0.182	0.320
-685.310	-61.733	0.094	0.040
-684.295	-122.864	0.029	-0.005
-683.281	800.000	0.068	-0.234
-682.266	800.000	-0.049	0.162
-681.251	800.000	-0.053	0.219
-680.237	-64.868	-0.065	0.027
-679.222	800.000	0.042	-0.118
-678.208	-200.000	0.006	-0.029
-677.193	-113.136	-0.179	-0.036
-676.178	-14.953	-0.451	-0.292
-675.164	143.204	-0.097	-0.131
-674.149	-70.925	0.184	0.070
-673.135	131.145	-0.250	-0.324
-672.120	309.625	0.028	-0.053
-671.105	88.471	-0.110	0.124
-670.091	-83.966	0.090	-0.029
-669.076	-200.000	0.033	-0.323
-668.062	7.457	-0.116	-0.088
-667.047	21.486	0.097	0.079
-666.032	-200.000	0.027	-0.300
-665.018	-200.000	-0.014	-0.296
-664.003	-41.296	-0.226	0.117
-662.989	-200.000	0.044	-0.204
-661.974	-75.668	0.252	-0.090
-660.959	-77.990	0.289	0.101
-659.945	79.751	-0.098	-0.106
-658.930	-111.356	-0.109	-0.023
-657.916	20.497	0.052	-0.042
-656.901	-200.000	0.006	-0.456
-655.886	79.983	-0.131	-0.142
-654.872	299.493	0.154	-0.285
-653.857	44.813	-0.065	0.060
-652.843	-11.497	0.061	-0.040
-651.828	-73.215	0.192	-0.071
-650.814	115.989	-0.235	-0.290
-649.799	333.443	0.053	0.103
-648.784	-42.374	0.203	-0.105
-647.770	-81.372	-0.160	-0.053
-646.755	424.651	-0.146	-0.317
-645.741	138.196	0.181	-0.240
-644.726	-117.194	-0.082	0.015
-643.711	110.588	0.038	-0.047
-642.697	22.479	0.118	-0.097
-641.682	-162.141	-0.119	0.006
-640.668	-118.783	-0.314	0.056
-639.653	684.401	-0.023	0.061
-638.638	23.733	-0.154	0.128
-637.624	-66.919	-0.364	-0.145
-636.609	381.349	-0.157	-0.324
-635.595	422.477	-0.032	0.070
-634.580	433.204	-0.094	-0.205
-633.565	363.934	0.007	0.015
-632.551	-72.399	0.101	-0.038
-631.536	-124.655	0.188	0.029
-630.522	-107.507	0.056	0.012
-629.507	800.000	-0.082	-0.300
-628.492	27.382	-0.133	0.113
-627.478	190.723	0.150	0.228
-626.463	-200.000	0.092	-0.500
-625.449	53.491	-0.091	-0.088
-624.434	-53.367	-0.462	-0.213
-623.419	52.990	-0.119	-0.114
-622.405	-200.000	-0.008	-0.434
-621.390	-97.534	0.288	-0.075
-620.376	122.246	-0.051	-0.065
-619.361	30.140	-0.269	-0.232
-618.346	800.000	-0.047	0.162
-617.332	-136.610	-0.054	-0.006
-616.317	84.629	-0.250	0.276
-615.303	-200.000	-0.025	0.192
-614.288	47.244	-0.175	-0.165
-613.273	800.000	0.094	-0.287
-612.259	-200.000	-0.009	0.262
-611.244	-11.542	0.170	0.113
-610.230	-200.000	0.075	0.382
-609.215	226.560	0.139	-0.227
-608.201	458.350	-0.126	-0.281
-607.186	-63.381	0.377	-0.156
-606.171	-112.815	-0.258	0.052
-605.157	-193.797	0.187	0.002
-604.142	-57.451	-0.334	0.148
-603.128	21.456	0.101	0.083
-602.113	800.000	0.031	-0.121
-601.098	43.144	-0.255	-0.235
-600.084	-200.000	-0.049	0.249
-599.069	-125.348	0.064	0.010
-598.055	800.000	-0.041	0.150
-597.040	-113.353	-0.207	0.041
-596.025	-200.000	0.016	-0.155
-595.011	-200.000	0.009	-0.212
-593.996	-200.000	-0.008	-0.147
-592.982	118.718	0.049	0.061
-591.967	-71.039	-0.324	-0.123
-590.952	166.289	0.087	-0.124
-589.938	-200.000	-0.022	0.325
-588.923	800.000	-0.051	-0.216
-587.909	-64.521	0.261	-0.107
-586.894	494.089	0.073	-0.168
-585.879	53.464	-0.169	0.163
-584.865	31.988	0.218	0.189
-583.850	136.167	-0.077	-0.101
-582.836	37.447	0.159	0.142
-581.821	-138.995	0.419	0.046
-580.806	84.212	-0.078	-0.086
-579.792	160.371	0.280	0.394
-578.777	-132.574	0.131	0.017
-577.763	33.995	0.141	-0.123
-576.748	-30.922	0.044	-0.025
-575.733	-200.000	-0.478	0.000
-574.719	-61.388	-0.100	0.042
-573.704	-138.192	0.231	-0.026
-572.690	-17.472	0.254	0.161
-571.675	-138.510	-0.506	0.056
-570.661	-200.000	0.009	-0.304
-569.646	800.000	-0.075	-0.279
-568.631	-200.000	-0.057	0.284
-567.617	152.574	-0.126	-0.173
-566.602	-42.718	0.170	0.087
-565.588	800.000	0.060	0.209
-564.573	-70.330	-0.072	0.028
-563.558	-112.997	-0.161	0.032
-562.544	-177.080	0.140	0.004
-561.529	-86.120	-0.155	0.048
-560.515	-53.991	-0.203	0.093
-559.500	-200.000	0.049	0.302
-558.485	-200.000	-0.060	-0.478
-557.471	203.229	0.034	0.052
-556.456	-86.415	0.088	-0.027
-555.442	800.000	0.018	-0.059
-554.427	66.556	-0.263	0.268
-553.412	-153.003	-0.150	-0.011
-552.398	278.249	-0.093	-0.167
-551.383	-200.000	-0.023	-0.128
-550.369	25.793	-0.268	-0.224
-549.354	-17.483	0.051	-0.032
-548.339	357.859	-0.250	0.500
-547.325	-59.368	0.308	-0.133
-546.310	9.469	0.054	0.041
-545.296	-56.704	-0.056	-0.025
-544.281	-200.000	-0.001	-0.141
-543.266	-200.000	0.093	-0.429
-542.252	-109.720	-0.185	-0.039
-541.237	800.000	0.065	0.183
-540.223	155.713	-0.140	0.194
-539.208	87.921	-0.187	-0.208
-538.193	-104.145	0.129	0.030
-537.179	-32.273	-0.163	0.091
-536.164	-68.159	0.546	0.213
-535.150	-200.000	-0.014	0.241
-534.135	-79.525	-0.362	-0.123
-533.121	312.833	-0.077	0.145
-532.106	-200.000	0.005	-0.060
-531.091	265.672	0.168	0.295
-530.077	-30.190	0.195	-0.111
-529.062	10.092	-0.293	-0.224
-528.048	160.006	0.058	-0.081
-527.033	5.614	0.108	0.080
-526.018	-58.927	0.102	0.044
-525.004	11.968	-0.288	-0.222
-523.989	-58.924	-0.087	-0.038
-522.975	-139.065	0.285	-0.031
-521.960	-40.723	-0.103	-0.053
-520.945	-76.588	0.217	-0.077
-519.931	-31.479	-0.319	0.180
-518.916	-98.080	0.363	-0.094
-517.902	179.546	0.002	-0.003
-516.887	28.095	-0.175	0.148
-515.872	82.837	-0.205	-0.223
-514.858	-140.002	-0.179	-0.019
-513.843	-107.515	0.404	0.089
-512.829	-75.684	0.141	-0.050
-511.814	-162.908	-0.500	-0.024
-510.799	-200.000	0.002	-0.012
-509.785	-86.769	-0.203	-0.062
-508.770	-200.000	0.009	-0.303
-507.756	227.471	-0.202	-0.330
-506.741	-58.706	0.226	-0.098
-505.726	-200.000	0.025	-0.213
-504.712	-103.286	0.249	0.059
-503.697	163.649	0.110	0.155
-502.683	-94.682	-0.073	0.020
-501.668	-4.984	0.293	-0.202
-500.653	289.954	-0.099	-0.181
-499.639	-200.000	0.078	0.441
-498.624	-63.841	0.313	0.128
-497.610	-158.272	0.126	0.007
-496.595	800.000	-0.074	-0.269
-495.581	73.410	0.219	-0.230
-494.566	800.000	-0.085	-0.267
-493.551	-125.309	0.475	0.073
-492.537	-78.536	-0.204	-0.070
-491.522	-200.000	-0.014	-0.149
-490.508	412.623	-0.051	-0.108
-489.493	-175.036	-0.269	0.008
-488.478	-17.834	0.126	0.079
-487.464	-200.000	0.015	-0.162
-486.449	560.431	-0.152	-0.369
-485.435	-68.304	0.251	0.098
-484.420	653.523	-0.094	-0.241
-483.405	-150.235	0.150	-0.012
-482.391	-144.080	0.212	0.020
-481.376	-50.954	-0.203	-0.095
-480.362	-121.916	0.447	0.074
-479.347	-71.181	0.184	-0.069
-478.332	-185.568	0.374	0.006
-477.318	41.014	0.132	0.119
-476.303	-200.000	-0.001	0.251
-475.289	-12.003	-0.339	0.223
-474.274	-51.995	0.204	-0.095
-473.259	-18.361	-0.124	-0.078
-472.245	-100.344	0.076	-0.019
-471.230	-200.000	-0.025	-0.145
-470.216	-81.386	0.163	-0.054
-469.201	-4.611	0.188	0.130
-468.186	800.000	0.033	0.116
-467.172	698.949	-0.024	-0.063
-466.157	75.449	0.106	-0.112
-465.143	36.726	-0.162	-0.143
-464.128	-132.181	-0.326	-0.042
-463.113	72.993	0.048	-0.051
-462.099	-200.000	-0.039	0.175
-461.084	94.102	-0.163	-0.185
-460.070	-200.000	0.019	0.316
-459.055	-1.032	-0.326	0.231
-458.040	73.966	0.129	-0.135
-457.026	2.487	0.201	-0.145
-456.011	800.000	-0.013	0.057
-454.997	-185.750	-0.280	-0.004
-453.982	36.852	0.126	0.112
-452.968	-106.137	0.136	0.031
-451.953	516.083	-0.078	0.183
-450.938	-51.472	-0.138	-0.065
-449.924	800.000	-0.033	-0.100
-448.909	-160.104	-0.486	-0.026
-447.895	578.448	0.121	0.297
-446.880	-87.644	0.016	-0.005
-445.865	-137.686	0.199	-0.022
-444.851	-200.000	-0.216	0.001
-443.836	-200.000	0.016	-0.097
-442.822	150.282	0.217	0.295
-441.807	-117.775	-0.247	0.044
-440.792	-200.000	-0.081	0.480
-439.778	-115.617	0.165	-0.031
-438.763	708.413	0.102	0.270
-437.749	480.311	-0.055	-0.125
-436.734	-200.000	0.027	0.156
-435.719	-83.601	0.050	-0.016
-434.705	-125.951	-0.228	0.034
-433.690	-2.265	-0.221	0.155
-432.676	-143.893	-0.169	-0.016
-431.661	800.000	-0.037	0.118
-430.646	-200.000	-0.021	-0.137
-429.632	-43.321	-0.196	-0.099
-428.617	-81.044	-0.339	0.112
-427.603	-95.580	-0.133	0.036
-426.588	210.588	-0.085	-0.133
-425.573	260.227	0.084	-0.145
-424.559	81.458	-0.161	0.174
-423.544	-107.961	0.061	-0.013
-422.530	-200.000	0.016	0.174
-421.515	-114.718	-0.180	0.034
-420.500	-83.522	0.249	-0.080
-419.486	12.306	-0.169	-0.130
-418.471	-76.429	-0.071	-0.025
-417.457	-90.846	0.309	-0.089
-416.442	-200.000	0.005	0.054
-415.428	55.840	0.249	0.242
-414.413	293.874	0.114	-0.208
-413.398	381.831	0.024	-0.050
-412.384	-111.439	0.135	0.028
-411.369	123.031	-0.077	0.096
-410.355	-71.744	0.088	0.033
-409.340	-108.467	0.277	0.060
-408.325	-118.435	0.092	0.016
-407.311	800.000	-0.129	0.380
-406.296	-200.000	-0.035	0.276
-405.282	-66.336	-0.389	0.155
-404.267	-133.814	0.164	-0.020
-403.252	149.668	-0.115	0.156
-402.238	49.934	-0.222	0.209
-401.223	-47.045	0.297	0.145
-400.209	800.000	0.147	0.469
-399.194	-37.745	0.127	0.068
-398.179	-200.000	0.028	0.313
-397.165	800.000	0.099	0.377
-396.150	39.072	-0.108	0.097
-395.136	-24.730	0.073	-0.043
-394.121	416.087	-0.029	-0.062
-393.106	40.781	-0.327	0.295
-392.092	-200.000	-0.023	-0.288
-391.077	175.602	-0.114	0.165
-390.063	-130.555	0.390	0.053
-389.048	124.059	0.323	0.405
-388.033	-94.518	0.155	-0.042
-387.019	-136.841	0.091	0.010
-386.004	-164.483	-0.177	-0.008
-384.990	-96.085	0.336	0.089
-383.975	-124.502	0.093	0.014
-382.960	0.990	0.401	0.287
-381.946	-49.057	0.099	0.047
-380.931	-36.887	-0.181	0.097
-379.917	-49.868	0.104	0.050
-378.902	-200.000	-0.015	0.109
-377.888	155.322	0.069	0.095
-376.873	-174.889	-0.205	-0.006
-375.858	-26.286	-0.124	-0.073
-374.844	227.561	-0.082	-0.132
-373.829	80.573	0.076	0.082
-372.815	138.660	0.087	0.114
-371.800	-122.094	-0.339	0.055
-370.785	42.094	0.056	0.051
-369.771	169.918	-0.173	0.247
-368.756	-200.000	0.029	0.277
-367.742	-41.395	-0.100	0.051
-366.727	-116.381	-0.071	-0.013
-365.712	215.531	-0.182	0.288
-364.698	585.191	0.029	-0.071
-363.683	323.275	0.106	-0.202
-362.669	-27.090	0.211	0.123
-361.654	800.000	-0.062	-0.181
-360.639	258.742	0.082	0.142
-359.625	391.703	0.132	-0.273
-358.610	743.466	0.016	-0.043
-357.596	120.579	-0.145	0.180
-356.581	366.243	0.070	0.142
-355.566	605.167	0.092	-0.228
-354.552	-98.599	-0.097	-0.025
-353.537	-124.914	-0.235	0.036
-352.523	236.981	0.097	0.160
-351.508	-152.015	-0.447	0.032
-350.493	107.583	-0.128	0.152
-349.479	428.767	0.023	-0.050
-348.464	66.328	-0.073	0.074
-347.450	66.250	0.138	0.140
-346.435	-47.419	0.233	-0.113
-345.420	102.668	0.127	-0.148
-344.406	-24.949	-0.303	-0.179
-343.391	217.699	-0.083	0.132
-342.377	180.703	-0.129	-0.189
-341.362	111.044	-0.181	0.217
-340.348	-9.114	-0.095	-0.064
-339.333	350.080	-0.173	-0.340
-338.318	-200.000	-0.009	0.180
-337.304	-103.370	0.297	-0.070
-336.289	98.756	-0.217	0.250
-335.275	-200.000	0.020	-0.146
-334.260	405.979	-0.074	0.156
-333.245	0.557	-0.434	0.310
-332.231	-82.201	0.336	-0.109
-331.216	-200.000	-0.044	0.265
-330.202	-60.172	0.389	-0.165
-329.187	197.270	-0.136	0.207
-328.172	372.828	-0.185	-0.374
-327.158	800.000	-0.057	0.213
-326.143	184.564	0.148	0.218
-325.129	-26.762	0.081	0.047
-324.114	576.211	0.150	-0.364
-323.099	40.842	0.119	0.107
-322.085	269.445	-0.131	0.230
-321.070	61.117	-0.255	0.253
-320.056	214.302	0.053	-0.083
-319.041	-2.435	-0.386	-0.269
-318.026	29.880	0.292	0.247
-317.012	-169.678	0.406	0.015
-315.997	-34.302	0.231	-0.126
-314.983	111.149	-0.183	0.219
-313.968	-139.735	0.268	0.028
-312.953	-154.008	-0.455	0.031
-311.939	-157.648	-0.229	-0.014
-310.924	-100.203	0.224	-0.056
-309.910	-88.196	0.437	0.130
-308.895	9.732	-0.183	-0.138
-307.880	180.416	0.095	-0.139
-306.866	253.620	0.127	-0.216
-305.851	-70.056	0.111	0.042
-304.837	-200.000	-0.021	-0.186
-303.822	318.993	-0.098	-0.185
-302.807	302.495	-0.127	0.234
-301.793	-200.000	0.006	0.294
-300.778	367.628	0.014	-0.028
-299.764	-126.389	-0.543	0.080
-298.749	-50.539	-0.290	-0.136
-297.735	-68.100	0.203	-0.079
-296.720	-152.520	0.366	0.026
-295.705	-87.878	0.353	0.106
-294.691	214.685	-0.193	0.305
-293.676	505.068	0.012	0.028
-292.662	-70.950	-0.227	0.085
-291.647	141.484	0.132	0.173
-290.632	158.786	0.126	-0.174
-289.618	-133.989	-0.295	-0.036
-288.603	-68.757	0.383	0.147
-287.589	-200.000	-0.034	-0.211
-286.574	260.575	-0.182	0.313
-285.559	338.499	-0.056	-0.109
-284.545	112.620	0.351	-0.422
-283.530	800.000	-0.013	0.046
-282.516	-200.000	0.033	0.152
-281.501	-123.475	0.299	-0.047
-280.486	-200.000	0.069	-0.426
-279.472	800.000	-0.110	-0.416
-278.457	474.519	-0.074	-0.166
-277.443	-186.457	-0.336	0.005
-276.428	214.543	0.096	0.151
-275.413	-200.000	-0.066	0.497
-274.399	-200.000	-0.001	0.240
-273.384	-88.740	0.306	-0.090
-272.370	-200.000	0.026	0.267
-271.355	-113.918	-0.273	-0.053
-270.340	79.733	0.224	0.239
-269.326	88.649	0.210	0.232
-268.311	-63.674	0.127	0.052
-267.297	-38.563	-0.167	-0.088
-266.282	516.681	0.040	-0.094
-265.267	800.000	0.021	-0.073
-264.253	800.000	-0.021	-0.080
-263.238	783.721	0.061	0.166
-262.224	121.964	-0.206	0.255
-261.209	-125.478	0.237	-0.036
-260.195	-200.000	-0.036	-0.293
-259.180	-62.771	-0.633	-0.261
-258.165	747.989	0.025	-0.067
-257.151	800.000	-0.026	0.103
-256.136	-118.958	0.177	0.031
-255.122	366.662	-0.101	-0.203
-254.107	-118.223	-0.322	-0.057
-253.092	-130.197	0.277	0.037
-252.078	-55.296	0.351	-0.156
-251.063	183.251	-0.238	-0.350
-250.049	-174.425	0.154	0.004
-249.034	71.660	-0.122	0.126
-248.019	-183.009	0.422	-0.007
-247.005	-144.280	0.389	-0.036
-245.990	-57.822	-0.170	-0.074
-244.976	-22.628	0.413	-0.248
-243.961	-200.000	0.071	-0.342
-242.946	800.000	-0.076	-0.284
-241.932	160.326	0.096	-0.134
-240.917	182.829	0.207	0.304
-239.903	87.093	0.329	0.361
-238.888	-119.681	0.218	0.037
-237.873	-37.153	0.220	-0.117
-236.859	-101.465	-0.240	0.058
-235.844	464.747	-0.119	-0.264
-234.830	-200.000	-0.009	0.229
-233.815	409.842	-0.097	0.203
-232.800	564.178	-0.177	0.426
-231.786	290.545	-0.114	0.205
-230.771	-200.000	-0.015	0.125
-229.757	54.425	-0.108	0.103
-228.742	320.265	0.146	-0.276
-227.727	-200.000	0.002	0.119
-226.713	-200.000	0.006	-0.185
-225.698	-200.000	-0.084	-0.507
-224.684	-12.326	-0.101	-0.065
-223.669	-95.388	0.402	-0.107
-222.655	800.000	0.053	-0.157
-221.640	-36.505	0.116	0.062
-220.625	-200.000	0.005	-0.087
-219.611	-200.000	0.027	-0.320
-218.596	33.276	-0.126	0.109
-217.582	135.711	-0.071	0.091
-216.567	-157.616	0.347	-0.021
-215.552	-57.508	-0.075	0.033
-214.538	16.057	0.215	-0.168
-213.523	-61.829	-0.295	0.123
-212.509	800.000	-0.128	-0.521
-211.494	88.111	-0.159	-0.175
-210.479	260.005	0.069	-0.119
-209.465	-123.525	-0.302	-0.048
-208.450	478.306	0.107	-0.239
-207.436	360.200	0.160	0.317
-206.421	800.000	-0.012	0.050
-205.406	800.000	-0.015	-0.049
-204.392	272.793	0.079	-0.138
-203.377	-62.648	-0.013	0.005
-202.363	-84.001	0.157	-0.050
-201.348	-132.382	-0.392	-0.050
-200.333	176.321	-0.165	-0.237
-199.319	60.774	0.213	-0.210
-198.304	-200.000	-0.002	0.086
-197.290	-71.300	0.259	-0.096
-196.275	-148.845	0.352	0.028
-195.260	-79.708	0.304	-0.102
-194.246	42.174	0.078	-0.070
-193.231	708.157	0.026	0.068
-192.217	109.688	-0.187	0.222
-191.202	-200.000	0.003	-0.075
-190.187	57.904	0.151	0.146
-189.173	470.306	-0.100	0.223
-188.158	334.421	-0.052	0.100
-187.144	33.481	0.357	-0.308
-186.129	-163.272	-0.149	-0.007
-185.114	800.000	0.149	0.491
-184.100	-156.498	-0.706	0.044
-183.085	205.812	-0.115	-0.177
-182.071	-135.770	-0.247	-0.029
-181.056	-123.921	0.181	-0.028
-180.042	-178.865	0.348	-0.008
-179.027	-200.000	0.019	0.142
-178.012	194.572	-0.169	0.255
-176.998	-21.753	0.381	0.230
-175.983	357.180	0.139	0.275
-174.969	113.478	-0.168	-0.202
-173.954	-200.000	-0.005	0.208
-172.939	-106.923	0.308	0.067
-171.925	-25.984	-0.240	-0.140
-170.910	-131.742	0.106	0.014
-169.896	-108.605	-0.206	-0.044
-168.881	705.747	-0.050	0.131
-167.866	-35.304	-0.225	-0.121
-166.852	-193.966	0.402	-0.003
-165.837	412.389	0.230	-0.483
-164.823	-53.131	-0.422	0.192
-163.808	58.791	-0.077	-0.075
-162.793	-113.018	0.443	-0.087
-161.779	-200.000	0.014	-0.133
-160.764	-200.000	0.068	-0.514
-159.750	800.000	-0.062	-0.249
-158.735	-43.104	-0.085	-0.042
-157.720	-200.000	0.028	0.152
-156.706	-95.559	-0.269	-0.071
-155.691	-58.441	-0.260	0.112
-154.677	127.929	0.037	0.046
-153.662	-86.000	-0.138	-0.042
-152.647	-21.854	-0.118	-0.071
-151.633	323.970	0.025	0.047
-150.618	-169.791	-0.118	-0.004
-149.604	800.000	-0.073	0.283
-148.589	535.380	-0.100	0.235
-147.574	134.537	0.026	-0.033
-146.560	-200.000	0.010	-0.066
-145.545	100.518	0.051	0.059
-144.531	226.771	0.098	0.157
-143.516	800.000	0.080	0.347
-142.502	-11.756	0.013	-0.008
-141.487	-200.000	-0.010	-0.467
-140.472	328.352	-0.148	0.281
-139.458	172.572	0.088	0.126
-138.443	22.629	0.243	0.197
-137.429	-84.611	0.304	0.095
-136.414	-200.000	-0.025	-0.189
-135.399	37.640	-0.138	0.121
-134.385	-200.000	-0.012	-0.123
-133.370	76.313	0.109	-0.115
-132.356	800.000	-0.033	0.098
-131.341	-107.831	0.282	-0.061
-130.326	-178.653	0.172	-0.004
-129.312	800.000	-0.048	-0.205
-128.297	-200.000	-0.008	-0.052
-127.283	800.000	0.037	0.105
-126.268	-110.322	-0.422	0.087
-125.253	523.049	-0.079	0.183
-124.239	370.094	-0.116	-0.233
-123.224	800.000	-0.108	-0.379
