DTS Sentinel unit serial number:	SN413079Multiplexer serial number:	ORYXHardware model number:	OX4-SRSoftware version number:	ORYX F/W v4.00 Oryx Data Collector v3.7.2.0data status	okinstallation	princeton_trtdifferential loss correction	single-endedforward channel	channel 2reverse channel	N/Adate	2019/09/11time	19:09:11forward acquisition time	60.00reverse acquisition time	0.00gamma	496.2192k internal	0.2298k external	0.2298temperature offset calibration	1.0041default loss term (dB/km)	0.3790temperature slope calibration	1.0000multiplexer offset coefficient	1.0000multiplexer slope coefficient	1.0000fibre end	0.00T internal ref (°C)	41.75T ext. ref 1 (°C)	1.30T ext. ref 2 (°C)	33.94length (m)	temperature (°C)	Stokes	anti-Stokes-747.200	-42.286	-0.260	-0.136
-746.185	224.886	0.144	0.238
-745.171	-200.000	0.041	-0.317
-744.156	283.352	0.099	0.182
-743.142	221.583	0.075	-0.122
-742.127	262.463	-0.082	0.145
-741.112	-98.336	-0.242	0.063
-740.098	291.561	-0.207	0.384
-739.083	-110.220	-0.213	-0.045
-738.069	-200.000	0.005	0.530
-737.054	-75.569	0.094	0.034
-736.039	-68.042	-0.173	0.069
-735.025	-105.272	0.087	0.020
-734.010	800.000	0.032	-0.109
-732.996	-98.752	-0.424	0.110
-731.981	-0.656	0.079	0.057
-730.966	-44.159	-0.229	-0.117
-729.952	-140.304	-0.444	0.047
-728.937	-200.000	-0.006	0.026
-727.923	-200.000	-0.023	-0.176
-726.908	-77.662	-0.415	-0.146
-725.894	11.291	0.098	0.077
-724.879	-140.600	-0.312	0.033
-723.864	-152.128	-0.223	-0.017
-722.850	355.655	0.116	0.235
-721.835	15.844	0.161	0.129
-720.821	98.352	-0.034	-0.040
-719.806	68.639	-0.116	0.122
-718.791	-21.194	0.068	-0.042
-717.777	-8.359	0.172	0.118
-716.762	800.000	-0.036	0.136
-715.748	119.349	-0.228	-0.288
-714.733	-115.181	-0.085	0.016
-713.718	57.338	0.221	0.220
-712.704	-72.270	-0.118	-0.044
-711.689	-200.000	0.000	0.144
-710.675	199.869	-0.214	-0.335
-709.660	-114.370	-0.031	0.006
-708.645	-59.275	0.257	0.113
-707.631	-200.000	0.003	0.135
-706.616	-135.147	-0.318	0.039
-705.602	460.671	0.131	-0.298
-704.587	-26.918	-0.223	-0.133
-703.572	264.686	0.169	-0.300
-702.558	800.000	0.030	-0.096
-701.543	-147.413	-0.213	0.018
-700.529	-134.129	-0.070	0.009
-699.514	-89.008	-0.127	-0.038
-698.499	277.487	0.216	-0.391
-697.485	-2.016	-0.104	0.075
-696.470	-119.576	0.197	-0.035
-695.456	-15.923	-0.346	-0.224
-694.441	800.000	-0.122	0.348
-693.426	-116.776	0.294	-0.055
-692.412	31.176	0.086	0.075
-691.397	708.778	-0.079	-0.213
-690.383	-200.000	-0.000	-0.075
-689.368	27.112	-0.199	-0.170
-688.354	800.000	0.007	-0.021
-687.339	31.308	0.299	-0.262
-686.324	80.838	-0.094	-0.103
-685.310	180.879	-0.102	-0.152
-684.295	-151.310	-0.027	-0.002
-683.281	558.882	-0.081	-0.200
-682.266	-200.000	-0.069	-0.376
-681.251	-200.000	0.001	-0.088
-680.237	-200.000	-0.029	-0.431
-679.222	800.000	-0.051	-0.219
-678.208	-123.503	0.038	0.006
-677.193	168.775	-0.123	0.179
-676.178	-103.459	-0.090	-0.022
-675.164	800.000	0.046	0.184
-674.149	-38.351	-0.145	-0.078
-673.135	800.000	0.032	-0.131
-672.120	212.136	-0.121	0.194
-671.105	800.000	-0.032	0.115
-670.091	-78.357	-0.307	0.107
-669.076	-166.533	-0.411	0.017
-668.062	-95.710	-0.101	0.027
-667.047	72.952	0.162	0.172
-666.032	-62.030	-0.262	-0.111
-665.018	-200.000	0.013	0.184
-664.003	0.088	-0.118	0.086
-662.989	260.914	0.075	0.131
-661.974	99.851	-0.061	-0.072
-660.959	-4.527	-0.229	0.161
-659.945	-200.000	-0.001	0.121
-658.930	-146.102	-0.079	0.007
-657.916	-110.627	-0.212	0.045
-656.901	-200.000	-0.022	0.321
-655.886	-131.031	-0.155	0.021
-654.872	538.419	-0.048	-0.117
-653.857	319.725	0.040	-0.078
-652.843	53.197	0.207	0.201
-651.828	-78.714	-0.294	-0.102
-650.814	800.000	0.145	0.414
-649.799	604.659	0.033	0.084
-648.784	105.196	-0.249	0.300
-647.770	-0.933	-0.036	-0.026
-646.755	92.699	-0.022	-0.025
-645.741	311.982	0.166	0.316
-644.726	357.761	0.140	0.284
-643.711	-102.322	0.231	0.056
-642.697	48.028	0.388	0.368
-641.682	-87.510	-0.192	-0.059
-640.668	200.887	-0.098	-0.153
-639.653	112.742	0.098	-0.121
-638.638	-5.393	-0.373	-0.260
-637.624	-200.000	-0.029	-0.149
-636.609	466.418	0.078	-0.178
-635.595	508.822	0.132	-0.312
-634.580	207.196	-0.065	-0.103
-633.565	116.753	-0.127	0.158
-632.551	-84.250	-0.111	-0.036
-631.536	66.261	-0.201	0.208
-630.522	-137.935	-0.221	-0.025
-629.507	-19.215	0.253	0.160
-628.492	-36.310	-0.339	0.186
-627.478	556.232	0.050	0.124
-626.463	388.683	-0.167	-0.351
-625.449	-127.953	-0.419	-0.061
-624.434	218.585	-0.091	-0.148
-623.419	450.880	0.030	-0.067
-622.405	-139.330	-0.335	-0.037
-621.390	-200.000	-0.044	0.205
-620.376	28.256	-0.165	0.141
-619.361	-200.000	0.007	-0.054
-618.346	-34.334	-0.148	0.082
-617.332	271.251	0.240	0.429
-616.317	-22.924	-0.194	-0.119
-615.303	-200.000	-0.023	0.317
-614.288	-82.894	0.194	0.064
-613.273	607.872	-0.052	0.131
-612.259	800.000	-0.036	0.134
-611.244	-200.000	-0.014	0.286
-610.230	61.811	0.170	0.172
-609.215	-36.620	-0.244	-0.133
-608.201	-59.027	-0.144	0.063
-607.186	-118.569	-0.114	-0.020
-606.171	511.921	0.119	-0.281
-605.157	88.703	-0.062	-0.070
-604.142	26.761	0.022	0.018
-603.128	800.000	0.064	0.234
-602.113	268.407	-0.171	-0.304
-601.098	-163.833	-0.112	-0.005
-600.084	-59.794	0.364	0.158
-599.069	-112.320	0.167	-0.034
-598.055	-200.000	0.003	0.112
-597.040	800.000	-0.097	-0.418
-596.025	-100.042	-0.164	0.041
-595.011	-200.000	-0.007	0.190
-593.996	-98.412	0.089	-0.023
-592.982	800.000	0.044	0.129
-591.967	-170.669	-0.231	0.008
-590.952	-26.789	0.272	0.161
-589.938	138.866	-0.235	0.313
-588.923	401.474	-0.085	-0.181
-587.909	28.777	0.163	-0.140
-586.894	-128.942	-0.137	-0.020
-585.879	-200.000	-0.037	-0.272
-584.865	-90.199	-0.336	-0.099
-583.850	89.916	0.162	-0.184
-582.836	-121.991	-0.261	-0.044
-581.821	-75.079	-0.462	0.168
-580.806	-25.227	-0.119	0.071
-579.792	-22.543	0.214	-0.131
-578.777	-135.597	0.123	0.015
-577.763	249.010	0.179	0.308
-576.748	90.164	-0.165	-0.187
-575.733	-29.777	0.150	0.087
-574.719	-12.330	-0.294	0.195
-573.704	137.435	0.207	-0.275
-572.690	83.517	-0.136	-0.150
-571.675	-32.704	-0.220	0.124
-570.661	-43.568	0.390	0.199
-569.646	403.067	0.035	-0.074
-568.631	607.568	-0.050	0.127
-567.617	7.922	0.064	-0.049
-566.602	65.846	-0.164	0.169
-565.588	-24.802	-0.268	-0.162
-564.573	-139.146	-0.129	0.014
-563.558	800.000	-0.028	-0.099
-562.544	581.572	-0.012	-0.029
-561.529	800.000	0.157	0.588
-560.515	-46.400	-0.040	0.020
-559.500	-31.765	-0.072	-0.041
-558.485	-128.080	-0.457	-0.066
-557.471	229.129	-0.114	-0.189
-556.456	-36.142	-0.113	-0.062
-555.442	2.532	-0.329	-0.242
-554.427	-200.000	-0.014	-0.325
-553.412	31.733	0.156	0.136
-552.398	-89.548	-0.210	0.062
-551.383	-72.265	0.158	0.059
-550.369	105.877	-0.283	0.339
-549.354	245.591	0.088	-0.150
-548.339	189.020	-0.121	0.184
-547.325	135.278	0.137	-0.181
-546.310	-200.000	-0.049	-0.423
-545.296	241.077	0.276	-0.466
-544.281	800.000	-0.079	-0.249
-543.266	-52.728	0.235	-0.110
-542.252	-200.000	-0.033	-0.407
-541.237	-200.000	-0.016	0.362
-540.223	57.882	0.143	-0.141
-539.208	800.000	0.041	-0.148
-538.193	224.865	-0.089	0.146
-537.179	-120.582	0.047	0.008
-536.164	800.000	0.024	0.079
-535.150	51.548	0.071	0.068
-534.135	128.005	-0.255	0.328
-533.121	117.845	0.263	0.327
-532.106	-200.000	-0.004	0.166
-531.091	-121.949	-0.121	0.020
-530.077	8.645	0.108	-0.082
-529.062	395.387	0.159	-0.335
-528.048	86.297	-0.195	-0.217
-527.033	9.641	-0.042	0.033
-526.018	492.270	0.036	0.082
-525.004	-200.000	0.173	-0.000
-523.989	-50.030	0.167	-0.080
-522.975	-135.416	-0.191	0.023
-521.960	-17.973	-0.181	-0.115
-520.945	36.978	0.275	-0.246
-519.931	800.000	-0.031	0.109
-518.916	299.720	0.103	0.193
-517.902	211.868	0.166	0.264
-516.887	-76.952	-0.092	-0.033
-515.872	-119.255	0.305	-0.054
-514.858	-200.000	0.039	-0.203
-513.843	-70.856	-0.336	-0.128
-512.829	-99.043	0.132	-0.034
-511.814	-115.667	-0.103	-0.020
-510.799	-114.442	0.393	-0.076
-509.785	-113.600	0.357	0.071
-508.770	46.789	0.361	0.340
-507.756	44.516	0.190	-0.177
-506.741	-200.000	0.045	-0.283
-505.726	733.029	-0.112	-0.304
-504.712	-80.077	0.141	-0.048
-503.697	-70.365	-0.270	-0.103
-502.683	55.459	-0.235	0.230
-501.668	-110.906	-0.127	-0.026
-500.653	246.729	0.099	-0.168
-499.639	222.984	0.018	0.029
-498.624	-200.000	-0.014	0.324
-497.610	-200.000	0.010	0.153
-496.595	-200.000	0.001	0.166
-495.581	-200.000	0.031	0.178
-494.566	-200.000	-0.110	-0.491
-493.551	-15.054	0.198	-0.129
-492.537	3.319	0.134	0.099
-491.522	-93.374	0.175	-0.049
-490.508	-200.000	0.380	0.001
-489.493	242.060	0.143	-0.242
-488.478	-158.985	0.084	-0.005
-487.464	800.000	-0.152	-0.613
-486.449	800.000	0.065	-0.286
-485.435	-200.000	-0.058	-0.520
-484.420	685.183	0.185	-0.487
-483.405	-111.203	-0.059	0.012
-482.391	-71.220	-0.169	-0.064
-481.376	122.516	-0.076	0.096
-480.362	21.761	-0.163	-0.134
-479.347	325.554	-0.144	-0.278
-478.332	-11.152	0.180	-0.120
-477.318	-66.880	0.033	0.013
-476.303	-91.941	0.158	-0.045
-475.289	-165.242	-0.114	0.005
-474.274	1.795	0.131	-0.095
-473.259	-133.850	-0.290	0.036
-472.245	-143.792	0.108	0.010
-471.230	45.766	-0.111	-0.104
-470.216	63.543	0.143	0.145
-469.201	104.788	-0.221	-0.263
-468.186	-200.000	0.041	-0.483
-467.172	31.892	0.131	0.114
-466.157	-200.000	0.034	0.343
-465.143	434.701	0.070	-0.154
-464.128	198.270	-0.090	-0.139
-463.113	800.000	-0.022	0.065
-462.099	161.167	0.030	-0.043
-461.084	162.342	0.079	0.112
-460.070	207.346	-0.257	0.404
-459.055	155.869	0.298	-0.414
-458.040	-200.000	-0.010	0.087
-457.026	583.148	-0.057	-0.142
-456.011	577.171	-0.046	-0.114
-454.997	-49.296	0.438	0.211
-453.982	23.827	0.154	-0.128
-452.968	-1.136	0.118	0.084
-451.953	800.000	-0.051	0.144
-450.938	444.950	0.163	-0.361
-449.924	800.000	-0.019	-0.054
-448.909	57.021	-0.189	-0.186
-447.895	707.712	-0.120	0.321
-446.880	-31.692	0.221	-0.125
-445.865	63.307	0.155	0.157
-444.851	-200.000	-0.019	0.207
-443.836	-134.683	-0.090	-0.011
-442.822	-46.142	0.109	-0.054
-441.807	800.000	0.054	0.181
-440.792	-200.000	-0.068	-0.439
-439.778	-129.523	-0.273	0.038
-438.763	-148.986	-0.307	0.025
-437.749	13.424	-0.455	-0.356
-436.734	270.705	0.127	0.225
-435.719	509.221	-0.030	-0.070
-434.705	-200.000	0.022	0.217
-433.690	-0.116	-0.113	0.081
-432.676	190.057	-0.162	-0.245
-431.661	-64.760	-0.137	-0.056
-430.646	81.073	-0.255	-0.277
-429.632	-200.000	0.011	0.111
-428.617	55.398	-0.181	-0.177
-427.603	-126.683	0.393	0.059
-426.588	-122.680	-0.064	-0.010
-425.573	50.945	0.114	-0.109
-424.559	-162.751	0.324	-0.016
-423.544	31.920	-0.062	-0.054
-422.530	-200.000	0.009	-0.080
-421.515	-107.551	0.086	0.019
-420.500	-40.630	-0.307	-0.161
-419.486	-86.259	-0.279	-0.087
-418.471	-200.000	0.011	0.172
-417.457	-200.000	0.061	0.339
-416.442	-0.739	0.274	-0.196
-415.428	-200.000	-0.029	-0.302
-414.413	-99.818	0.186	-0.047
-413.398	-104.174	0.151	-0.035
-412.384	217.807	0.055	0.088
-411.369	59.605	-0.183	0.182
-410.355	392.256	0.050	-0.105
-409.340	122.238	-0.300	-0.378
-408.325	-112.749	-0.088	0.018
-407.311	-7.258	0.024	0.016
-406.296	12.943	-0.223	-0.173
-405.282	79.063	0.142	-0.154
-404.267	-200.000	-0.052	-0.251
-403.252	115.030	0.117	-0.144
-402.238	-173.671	0.356	0.011
-401.223	134.239	-0.088	-0.115
-400.209	-200.000	0.414	0.002
-399.194	351.595	0.175	-0.349
-398.179	800.000	-0.003	0.014
-397.165	287.055	0.068	0.123
-396.150	800.000	-0.028	0.111
-395.136	-200.000	-0.013	-0.267
-394.121	73.358	0.099	0.104
-393.106	-200.000	0.021	-0.161
-392.092	-38.285	-0.104	0.055
-391.077	-200.000	0.010	-0.198
-390.063	-78.016	-0.128	0.044
-389.048	127.095	-0.057	-0.073
-388.033	50.483	-0.341	0.324
-387.019	800.000	0.052	0.144
-386.004	-78.285	0.403	-0.139
-384.990	-35.829	0.240	0.131
-383.975	-60.463	-0.114	0.049
-382.960	-200.000	-0.012	0.230
-381.946	-26.763	0.241	-0.142
-380.931	46.984	-0.229	-0.214
-379.917	108.883	0.132	-0.159
-378.902	74.832	0.157	0.167
-377.888	-108.065	-0.202	-0.044
-376.873	-200.000	0.009	0.051
-375.858	321.053	-0.058	-0.112
-374.844	660.299	0.097	-0.251
-373.829	-200.000	0.044	-0.297
-372.815	-62.163	-0.189	-0.079
-371.800	-58.670	-0.197	-0.086
-370.785	-26.469	0.331	0.195
-369.771	-154.705	-0.107	0.007
-368.756	-73.311	-0.228	-0.084
-367.742	26.349	0.148	-0.124
-366.727	-91.816	0.072	0.021
-365.712	-200.000	0.025	-0.274
-364.698	800.000	0.074	0.213
-363.683	101.254	-0.171	0.200
-362.669	53.573	0.055	0.053
-361.654	-200.000	-0.010	-0.074
-360.639	-89.653	0.111	-0.033
-359.625	-101.142	-0.362	0.089
-358.610	-200.000	0.003	0.142
-357.596	127.684	-0.095	-0.121
-356.581	-86.703	-0.221	0.068
-355.566	-94.085	0.210	-0.058
-354.552	23.701	-0.114	-0.094
-353.537	-85.844	0.042	0.013
-352.523	-87.510	0.187	0.057
-351.508	-41.963	0.134	0.069
-350.493	247.743	-0.065	0.110
-349.479	178.292	0.074	-0.108
-348.464	133.681	0.130	0.169
-347.450	-200.000	0.020	-0.155
-346.435	216.106	-0.090	0.144
-345.420	-4.637	0.173	0.120
-344.406	53.988	0.076	-0.073
-343.391	9.646	0.027	0.021
-342.377	-66.878	-0.214	0.085
-341.362	-39.704	-0.136	0.072
-340.348	544.471	-0.075	-0.179
-339.333	-200.000	-0.005	0.276
-338.318	-139.452	0.073	-0.008
-337.304	-200.000	0.016	0.248
-336.289	-200.000	-0.021	-0.236
-335.275	370.864	0.164	-0.335
-334.260	-200.000	-0.056	-0.328
-333.245	800.000	-0.092	0.388
-332.231	-20.240	0.292	-0.181
-331.216	-200.000	0.011	0.112
-330.202	-54.128	-0.087	-0.040
-329.187	641.840	-0.073	0.186
-328.172	163.402	-0.096	-0.135
-327.158	31.498	0.173	-0.149
-326.143	-200.000	0.056	0.266
-325.129	185.823	-0.241	0.359
-324.114	-62.042	-0.211	0.088
-323.099	8.246	0.073	0.055
-322.085	-85.022	-0.107	-0.034
-321.070	47.153	0.099	-0.092
-320.056	-200.000	0.021	0.208
-319.041	-115.995	-0.158	-0.029
-318.026	-196.205	0.156	-0.001
-317.012	-18.243	0.299	0.187
-315.997	-200.000	-0.071	-0.315
-314.983	471.788	-0.069	0.156
-313.968	26.481	-0.317	0.266
-312.953	118.669	-0.113	0.140
-311.939	-179.156	-0.243	0.005
-310.924	118.724	0.218	0.270
-309.910	-200.000	-0.009	0.279
-308.895	800.000	0.095	0.331
-307.880	-6.978	-0.270	0.184
-306.866	800.000	-0.058	-0.196
-305.851	-97.244	0.338	-0.088
-304.837	164.486	0.246	0.348
-303.822	185.527	0.117	0.174
-302.807	-63.308	0.260	0.108
-301.793	800.000	0.061	0.183
-300.778	28.214	-0.169	0.143
-299.764	-87.702	0.044	0.013
-298.749	18.210	-0.164	-0.131
-297.735	-34.269	0.220	-0.121
-296.720	-28.758	0.160	-0.092
-295.705	681.428	0.130	0.341
-294.691	-107.871	0.097	0.021
-293.676	-41.990	-0.136	0.070
-292.662	-136.797	-0.090	-0.010
-291.647	-33.809	-0.034	0.019
-290.632	260.011	-0.083	0.144
-289.618	800.000	-0.078	0.223
-288.603	-63.665	-0.359	0.147
-287.589	-200.000	-0.050	-0.263
-286.574	-21.467	-0.264	-0.162
-285.559	239.883	-0.149	0.249
-284.545	-145.989	0.108	-0.010
-283.530	-91.459	-0.022	-0.006
-282.516	99.145	0.086	0.100
-281.501	800.000	-0.058	-0.169
-280.486	800.000	-0.041	0.139
-279.472	-200.000	0.026	0.137
-278.457	-200.000	0.179	0.000
-277.443	-68.601	-0.134	-0.052
-276.428	27.203	0.236	0.199
-275.413	-84.854	-0.236	0.074
-274.399	10.761	0.191	-0.146
-273.384	109.867	0.174	-0.210
-272.370	69.812	0.100	-0.103
-271.355	-200.000	0.025	0.353
-270.340	-52.689	-0.286	0.132
-269.326	594.668	-0.002	0.005
-268.311	-115.985	0.267	-0.050
-267.297	65.221	0.215	-0.218
-266.282	-91.325	0.015	0.004
-265.267	-200.000	-0.003	-0.166
-264.253	32.345	-0.307	-0.266
-263.238	38.378	0.154	0.138
-262.224	-200.000	0.011	0.107
-261.209	106.461	0.273	0.324
-260.195	321.453	0.092	0.174
-259.180	-106.264	-0.154	0.035
-258.165	172.775	-0.175	-0.252
-257.151	-93.831	-0.104	0.029
-256.136	146.704	-0.187	0.251
-255.122	-115.993	-0.346	0.065
-254.107	-200.000	0.011	0.071
-253.092	-14.533	-0.220	-0.142
-252.078	322.511	0.070	0.133
-251.063	-46.649	-0.095	0.047
-250.049	21.149	-0.149	0.121
-249.034	570.942	0.181	0.440
-248.019	13.777	-0.048	-0.037
-247.005	-195.193	-0.242	-0.002
-245.990	-200.000	0.094	-0.437
-244.976	247.035	-0.054	-0.091
-243.961	-61.945	0.103	0.043
-242.946	141.260	0.013	0.018
-241.932	-72.211	0.080	0.030
-240.917	800.000	0.030	-0.084
-239.903	21.352	0.309	0.251
-238.888	28.702	0.189	0.160
-237.873	94.100	0.228	0.258
-236.859	-200.000	0.032	0.214
-235.844	47.768	0.016	0.015
-234.830	800.000	0.049	-0.159
-233.815	-200.000	-0.022	0.157
-232.800	114.338	-0.218	0.266
-231.786	-11.041	-0.119	0.078
-230.771	-85.720	0.239	-0.074
-229.757	-50.141	-0.076	-0.036
-228.742	-61.539	0.234	0.098
-227.727	-33.198	-0.235	0.130
-226.713	-138.862	0.116	-0.013
-225.698	-53.168	0.257	-0.118
-224.684	-15.400	0.200	0.128
-223.669	192.453	-0.137	-0.207
-222.655	-62.986	0.086	-0.035
-221.640	-56.194	0.160	-0.071
-220.625	-117.176	0.374	0.068
-219.611	800.000	0.125	0.394
-218.596	11.730	-0.239	0.183
-217.582	-200.000	0.039	0.411
-216.567	800.000	0.054	0.167
-215.552	-132.114	0.221	0.029
-214.538	-162.979	0.088	0.004
-213.523	-200.000	-0.022	-0.125
-212.509	-26.787	-0.160	-0.093
-211.494	-88.458	-0.184	0.055
-210.479	-163.208	0.239	-0.011
-209.465	-72.553	0.116	-0.043
-208.450	206.074	0.062	-0.096
-207.436	-200.000	0.047	-0.213
-206.421	56.269	-0.157	0.153
-205.406	286.813	0.080	0.144
-204.392	-71.612	0.335	-0.125
-203.377	67.913	0.217	-0.222
-202.363	-48.102	-0.240	-0.116
-201.348	397.880	0.087	-0.182
-200.333	330.370	-0.107	-0.205
-199.319	-138.695	0.306	-0.033
-198.304	529.585	-0.134	-0.317
-197.290	174.211	0.115	0.166
-196.275	-200.000	-0.073	0.420
-195.260	59.713	0.044	0.043
-194.246	88.067	-0.135	0.149
-193.231	143.421	0.076	0.101
-192.217	167.995	-0.127	-0.180
-191.202	67.614	0.207	-0.211
-190.187	76.076	-0.224	-0.236
-189.173	-200.000	-0.016	-0.125
-188.158	162.875	0.187	0.263
-187.144	-132.903	-0.118	0.015
-186.129	-155.809	0.046	0.003
-185.114	-200.000	0.017	0.265
-184.100	-6.251	-0.129	-0.088
-183.085	-32.159	-0.136	0.076
-182.071	-38.700	-0.066	0.035
-181.056	-80.554	0.390	-0.130
-180.042	121.076	0.092	0.114
-179.027	-200.000	0.015	0.249
-178.012	22.990	0.189	-0.154
-176.998	-106.718	-0.245	0.054
-175.983	-200.000	-0.027	0.310
-174.969	380.929	0.092	-0.188
-173.954	-100.745	-0.448	0.110
-172.939	-200.000	-0.056	0.485
-171.925	291.278	0.062	0.113
-170.910	-10.533	0.160	0.106
-169.896	91.038	-0.142	0.159
-168.881	85.287	-0.264	0.289
-167.866	116.377	0.066	-0.081
-166.852	-29.479	0.348	0.198
-165.837	577.146	-0.035	0.086
-164.823	-200.000	-0.043	-0.193
-163.808	76.952	0.146	-0.155
-162.793	146.041	-0.029	-0.039
-161.779	-78.622	-0.355	-0.121
-160.764	566.849	0.080	-0.193
-159.750	-63.614	0.202	0.083
-158.735	-38.805	0.331	-0.174
-157.720	-73.580	0.185	0.067
-156.706	-6.740	-0.211	-0.143
-155.691	-10.870	0.053	0.035
-154.677	-200.000	-0.008	-0.037
-153.662	571.850	-0.092	-0.223
-152.647	64.286	-0.180	-0.180
-151.633	-87.079	-0.325	-0.099
-150.618	-14.578	-0.157	0.101
-149.604	-200.000	-0.047	0.292
-148.589	-200.000	0.028	0.153
-147.574	-47.383	-0.094	-0.045
-146.560	42.217	0.175	0.159
-145.545	-173.314	0.222	-0.007
-144.531	-200.000	0.052	0.307
-143.516	280.980	0.200	0.356
-142.502	-114.825	0.167	-0.032
-141.487	72.043	0.038	-0.040
-140.472	-200.000	0.011	-0.474
-139.458	-200.000	0.010	0.265
-138.443	800.000	0.043	-0.186
-137.429	-139.539	0.202	-0.022
-136.414	23.259	0.278	-0.228
-135.399	800.000	-0.098	-0.298
-134.385	45.068	0.085	-0.078
-133.370	232.108	0.008	0.013
-132.356	-200.000	0.039	0.259
-131.341	139.699	-0.047	-0.062
-130.326	-12.056	-0.098	0.064
-129.312	-29.607	0.100	0.057
-128.297	8.573	-0.246	0.185
-127.283	800.000	0.058	-0.211
-126.268	692.509	-0.065	-0.169
-125.253	-200.000	-0.045	0.276
-124.239	75.481	-0.182	0.192
-123.224	120.037	0.308	-0.381
-122.210	-69.882	0.093	-0.035
-121.195	-82.709	0.341	0.110
