DTS Sentinel unit serial number:	SN413079Multiplexer serial number:	ORYXHardware model number:	OX4-SRSoftware version number:	ORYX F/W v4.00 Oryx Data Collector v3.7.2.0data status	okinstallation	princeton_trtdifferential loss correction	single-endedforward channel	channel 2reverse channel	N/Adate	2019/09/12time	19:18:49forward acquisition time	15.00reverse acquisition time	0.00gamma	496.2192k internal	0.2325k external	0.2325temperature offset calibration	1.0146default loss term (dB/km)	0.3790temperature slope calibration	1.0000multiplexer offset coefficient	1.0000multiplexer slope coefficient	1.0000fibre end	0.00T internal ref (°C)	32.44T ext. ref 1 (°C)	3.17T ext. ref 2 (°C)	27.01length (m)	temperature (°C)	Stokes	anti-Stokes-747.200	800.000	-0.088	-0.320
-746.185	156.011	-0.068	0.095
-745.171	-144.716	0.450	-0.042
-744.156	67.337	-0.197	0.203
-743.142	-67.235	0.277	0.110
-742.127	-200.000	0.043	0.546
-741.112	-154.444	0.957	-0.065
-740.098	58.212	0.860	0.850
-739.083	-25.323	0.606	0.362
-738.069	-60.193	-0.643	0.277
-737.054	234.288	-0.404	0.672
-736.039	-26.836	-0.218	0.128
-735.025	377.432	0.166	0.342
-734.010	-30.257	0.799	0.458
-732.996	70.874	0.461	-0.481
-731.981	-161.787	0.556	0.029
-730.966	-21.237	-0.600	0.370
-729.952	-200.000	-0.035	-0.685
-728.937	-117.770	0.019	0.003
-727.923	-130.429	-0.301	0.041
-726.908	118.862	0.211	-0.263
-725.894	78.634	0.260	0.280
-724.879	-21.131	-0.878	-0.541
-723.864	-5.816	0.399	0.275
-722.850	800.000	0.087	0.323
-721.835	-135.524	-0.518	-0.062
-720.821	-200.000	-0.022	-0.824
-719.806	428.631	0.136	-0.297
-718.791	-116.490	-1.003	0.187
-717.777	343.425	-0.228	0.450
-716.762	-78.969	0.568	0.195
-715.748	7.473	-0.675	-0.508
-714.733	800.000	0.114	-0.341
-713.718	55.089	-0.144	0.140
-712.704	35.374	-0.307	0.272
-711.689	800.000	-0.101	-0.316
-710.675	-49.034	0.324	0.156
-709.660	800.000	-0.131	-0.390
-708.645	-166.601	0.664	-0.028
-707.631	-200.000	-0.042	-0.354
-706.616	42.613	-0.818	-0.750
-705.602	-33.766	-0.651	0.362
-704.587	98.185	0.500	-0.580
-703.572	-141.826	1.036	-0.104
-702.558	10.667	-0.085	0.065
-701.543	-79.141	-0.446	0.153
-700.529	18.501	-0.488	0.393
-699.514	12.342	0.389	0.302
-698.499	-81.282	-0.329	0.109
-697.485	212.538	-0.455	0.723
-696.470	272.929	0.376	-0.668
-695.456	-81.872	-0.961	0.317
-694.441	53.837	-0.290	-0.281
-693.426	-200.000	-0.116	0.762
-692.412	257.594	-0.287	-0.497
-691.397	131.564	-0.353	0.456
-690.383	-136.350	-0.830	0.097
-689.368	-34.540	-0.892	-0.492
-688.354	-37.717	0.453	-0.243
-687.339	119.928	-0.645	0.805
-686.324	-41.309	0.347	0.180
-685.310	797.033	0.159	-0.442
-684.295	-138.729	-0.393	0.043
-683.281	-102.560	0.074	-0.018
-682.266	-200.000	0.018	-1.008
-681.251	-111.061	-0.799	0.165
-680.237	149.311	-0.337	-0.459
-679.222	99.600	-0.215	0.250
-678.208	800.000	-0.162	-0.551
-677.193	-200.000	-0.102	0.892
-676.178	-100.793	-0.372	0.092
-675.164	-120.343	-1.304	0.224
-674.149	-87.773	0.196	0.059
-673.135	-200.000	-0.050	-0.577
-672.120	-57.211	0.622	0.276
-671.105	800.000	-0.090	-0.272
-670.091	-200.000	0.121	-0.969
-669.076	-154.470	-0.705	0.047
-668.062	800.000	0.094	-0.306
-667.047	800.000	0.063	0.261
-666.032	-200.000	-0.073	0.367
-665.018	124.690	-0.472	-0.598
-664.003	-190.275	-0.373	-0.004
-662.989	-200.000	0.103	-0.497
-661.974	-169.039	-0.673	0.025
-660.959	-19.371	-0.448	-0.279
-659.945	436.736	0.389	0.851
-658.930	-82.260	0.253	0.083
-657.916	-48.296	0.937	0.454
-656.901	-156.886	-0.769	0.047
-655.886	-85.249	0.533	0.167
-654.872	-78.823	-0.867	-0.297
-653.857	283.788	0.195	0.353
-652.843	-98.544	-0.425	-0.109
-651.828	558.629	-0.350	0.850
-650.814	149.891	-0.511	0.696
-649.799	155.308	-0.191	-0.265
-648.784	-2.151	0.738	0.521
-647.770	-18.471	-0.170	-0.107
-646.755	56.595	-0.484	0.473
-645.741	-115.352	-0.189	0.036
-644.726	-125.955	-0.348	-0.053
-643.711	-28.694	0.124	-0.072
-642.697	406.059	-0.089	0.189
-641.682	-73.948	0.962	-0.351
-640.668	-126.167	-0.528	-0.079
-639.653	-107.076	-1.063	-0.236
-638.638	800.000	0.187	0.646
-637.624	335.858	0.164	0.319
-636.609	800.000	0.167	0.716
-635.595	-69.899	0.340	-0.130
-634.580	-128.865	0.258	0.036
-633.565	-167.204	0.511	0.021
-632.551	-116.378	-0.734	0.136
-631.536	-200.000	-0.046	-0.328
-630.522	144.185	-0.317	-0.425
-629.507	6.696	-0.701	-0.524
-628.492	-33.366	-0.212	-0.118
-627.478	-24.545	-0.231	0.138
-626.463	-200.000	-0.187	0.874
-625.449	-200.000	-0.009	-0.133
-624.434	800.000	-0.227	-0.667
-623.419	-64.768	0.742	-0.302
-622.405	-35.682	0.353	-0.192
-621.390	223.567	0.318	-0.515
-620.376	800.000	-0.102	-0.329
-619.361	763.228	-0.099	0.269
-618.346	-85.201	0.676	-0.212
-617.332	-110.850	0.541	0.112
-616.317	-42.567	-0.735	-0.376
-615.303	92.233	-0.331	-0.374
-614.288	72.357	0.442	-0.463
-613.273	800.000	-0.217	0.783
-612.259	-71.054	-0.243	-0.092
-611.244	-25.113	-0.415	-0.247
-610.230	137.053	-0.495	0.649
-609.215	-133.081	-0.639	-0.081
-608.201	712.307	0.113	0.301
-607.186	-18.124	0.220	-0.138
-606.171	93.772	-0.441	0.501
-605.157	492.932	0.063	-0.144
-604.142	224.765	0.192	0.312
-603.128	51.442	0.818	0.779
-602.113	43.027	0.479	0.438
-601.098	34.908	-0.512	-0.450
-600.084	-200.000	0.001	0.214
-599.069	800.000	0.071	0.230
-598.055	-101.709	-0.385	0.094
-597.040	-46.319	-0.993	0.489
-596.025	218.635	-0.180	0.289
-595.011	143.412	-0.365	-0.487
-593.996	-39.791	0.445	0.233
-592.982	-32.944	-0.472	-0.263
-591.967	79.888	-0.472	-0.508
-590.952	-122.889	0.242	-0.039
-589.938	290.735	-0.219	0.400
-588.923	800.000	0.100	0.392
-587.909	160.346	0.398	-0.556
-586.894	496.470	0.342	-0.789
-585.879	-200.000	-0.020	0.125
-584.865	-200.000	-0.041	0.179
-583.850	-2.318	0.484	-0.341
-582.836	139.839	0.312	0.412
-581.821	-87.862	-1.012	-0.305
-580.806	138.599	0.605	0.796
-579.792	609.322	0.257	0.643
-578.777	-60.507	-0.326	0.139
-577.763	-83.335	0.615	0.198
-576.748	264.947	0.082	-0.142
-575.733	800.000	0.164	0.655
-574.719	110.323	0.410	0.494
-573.704	-74.395	0.143	-0.052
-572.690	-61.973	0.124	-0.052
-571.675	-84.403	0.305	-0.097
-570.661	-200.000	0.062	-0.376
-569.646	581.237	0.300	-0.736
-568.631	-121.029	-0.566	-0.095
-567.617	266.791	0.300	0.525
-566.602	69.237	-0.138	0.142
-565.588	-109.318	0.714	0.152
-564.573	800.000	0.188	-0.642
-563.558	-200.000	-0.071	-0.373
-562.544	800.000	-0.231	0.983
-561.529	-200.000	-0.005	0.172
-560.515	800.000	-0.118	-0.361
-559.500	108.586	0.168	-0.202
-558.485	79.361	0.728	0.782
-557.471	-61.861	-0.546	0.229
-556.456	-200.000	-0.054	-0.243
-555.442	121.418	0.028	0.035
-554.427	216.035	-0.324	-0.516
-553.412	-200.000	-0.025	0.154
-552.398	-200.000	0.050	0.342
-551.383	800.000	-0.050	-0.209
-550.369	48.975	-0.290	0.273
-549.354	-68.491	0.218	0.085
-548.339	233.086	-0.238	0.392
-547.325	373.280	-0.364	-0.741
-546.310	-10.653	-0.680	0.451
-545.296	27.240	-0.472	-0.397
-544.281	-200.000	-0.069	-0.465
-543.266	33.684	0.671	-0.584
-542.252	56.575	-0.523	0.510
-541.237	-67.737	-1.004	-0.393
-540.223	33.737	0.111	-0.096
-539.208	-37.194	-0.295	-0.158
-538.193	-200.000	0.105	-0.634
-537.179	181.853	0.481	0.708
-536.164	-200.000	0.034	-0.149
-535.150	-200.000	0.032	-0.307
-534.135	800.000	0.094	-0.297
-533.121	-200.000	0.025	-0.642
-532.106	-200.000	-0.053	0.340
-531.091	531.709	-0.241	-0.570
-530.077	-185.161	0.378	0.006
-529.062	389.677	0.090	0.186
-528.048	-54.407	0.526	-0.239
-527.033	1.563	-0.504	0.363
-526.018	-25.485	0.406	0.240
-525.004	-35.479	0.823	0.447
-523.989	-16.888	0.208	-0.132
-522.975	281.542	0.353	-0.633
-521.960	-112.693	0.633	0.126
-520.945	-200.000	0.103	-0.898
-519.931	-43.737	-0.374	-0.188
-518.916	303.862	0.276	0.511
-517.902	553.093	-0.300	-0.721
-516.887	68.799	0.669	-0.687
-515.872	-200.000	-0.054	0.434
-514.858	-200.000	-0.087	-0.391
-513.843	-200.000	0.028	0.202
-512.829	46.085	-0.496	-0.459
-511.814	-5.783	-0.392	-0.268
-510.799	548.910	0.296	-0.708
-509.785	-200.000	0.154	1.084
-508.770	-50.915	-0.590	0.277
-507.756	114.097	0.432	-0.525
-506.741	120.632	0.487	0.605
-505.726	598.480	0.207	0.513
-504.712	102.643	-0.452	-0.529
-503.697	726.305	-0.123	-0.327
-502.683	-43.622	-0.708	-0.357
-501.668	-59.483	-0.575	-0.247
-500.653	-64.879	-0.684	0.277
-499.639	67.908	-0.156	0.159
-498.624	334.330	0.140	-0.271
-497.610	-132.275	0.295	0.038
-496.595	51.499	0.212	0.201
-495.581	-119.089	-0.474	-0.083
-494.566	800.000	-0.218	0.717
-493.551	170.746	-0.460	-0.658
-492.537	72.551	0.149	-0.155
-491.522	-85.805	0.555	0.172
-490.508	-43.987	0.245	0.123
-489.493	523.376	0.093	-0.218
-488.478	254.390	0.215	-0.367
-487.464	-139.416	-1.026	-0.110
-486.449	-200.000	0.015	0.602
-485.435	161.319	0.335	0.468
-484.420	-200.000	-0.076	0.556
-483.405	5.642	-0.412	-0.304
-482.391	-61.325	-0.321	0.135
-481.376	200.040	-0.301	-0.462
-480.362	353.504	-0.028	0.055
-479.347	-160.534	0.450	-0.024
-478.332	74.521	0.428	0.450
-477.318	-200.000	-0.027	0.233
-476.303	108.207	0.176	-0.209
-475.289	-33.668	-0.049	0.027
-474.274	0.562	-0.814	0.581
-473.259	277.974	0.498	-0.886
-472.245	800.000	0.080	-0.259
-471.230	-200.000	0.010	-0.141
-470.216	101.640	-0.705	0.820
-469.201	800.000	-0.167	-0.619
-468.186	-200.000	-0.059	-0.574
-467.172	-57.356	0.485	0.213
-466.157	141.756	0.401	0.531
-465.143	-115.762	0.316	-0.059
-464.128	-200.000	0.047	-0.590
-463.113	321.124	0.198	0.375
-462.099	407.133	0.096	-0.203
-461.084	-49.154	-0.211	-0.101
-460.070	-200.000	-0.002	-0.090
-459.055	293.015	0.223	-0.405
-458.040	-58.283	-0.651	0.283
-457.026	-200.000	-0.086	-0.485
-456.011	245.261	-0.315	-0.528
-454.997	-200.000	-0.096	-0.891
-453.982	-71.718	-0.297	0.111
-452.968	-26.316	0.621	0.364
-451.953	675.477	0.264	-0.683
-450.938	305.857	0.291	0.539
-449.924	-111.758	-0.226	-0.046
-448.909	-200.000	-0.035	0.268
-447.895	254.409	-0.242	0.412
-446.880	800.000	0.206	-0.661
-445.865	-136.601	0.715	0.083
-444.851	32.862	-0.362	-0.312
-443.836	12.487	0.211	-0.162
-442.822	-122.866	-0.229	-0.037
-441.807	613.306	0.291	-0.726
-440.792	152.556	-0.566	0.771
-439.778	-71.370	0.728	-0.272
-438.763	-40.209	0.759	-0.394
-437.749	773.884	-0.128	-0.349
-436.734	-87.267	0.192	-0.058
-435.719	2.649	-0.337	-0.243
-434.705	146.393	0.504	-0.675
-433.690	800.000	0.113	-0.381
-432.676	33.979	0.639	0.555
-431.661	-113.020	0.356	0.070
-430.646	800.000	0.102	-0.292
-429.632	196.524	-0.319	-0.484
-428.617	146.374	-0.181	0.242
-427.603	121.472	0.574	-0.713
-426.588	504.371	0.292	-0.675
-425.573	-101.083	0.224	-0.055
-424.559	-200.000	0.181	-0.877
-423.544	-19.770	-0.023	-0.014
-422.530	90.674	-0.109	0.122
-421.515	115.230	-0.088	-0.107
-420.500	-39.324	-0.280	-0.147
-419.486	197.783	-0.323	-0.492
-418.471	7.928	0.580	0.433
-417.457	-67.557	0.090	0.035
-416.442	-200.000	0.053	0.257
-415.428	-159.913	0.599	0.033
-414.413	-200.000	-0.091	1.057
-413.398	734.728	0.378	1.008
-412.384	-69.626	-0.093	0.036
-411.369	-8.646	0.450	0.301
-410.355	800.000	-0.409	1.136
-409.340	-133.762	0.966	0.120
-408.325	-17.914	-0.493	0.308
-407.311	171.420	0.335	-0.479
-406.296	-104.198	0.935	-0.216
-405.282	-200.000	0.053	-0.392
-404.267	189.450	-0.300	0.448
-403.252	-186.420	-0.807	-0.012
-402.238	71.588	0.588	0.608
-401.223	-146.420	0.209	0.018
-400.209	268.665	0.063	-0.111
-399.194	-53.948	-0.242	0.110
-398.179	-151.710	0.610	0.045
-397.165	-33.909	-0.159	0.087
-396.150	159.835	-0.406	0.564
-395.136	-99.997	0.493	-0.122
-394.121	679.509	0.294	0.761
-393.106	388.738	0.229	0.472
-392.092	173.372	-0.305	-0.437
-391.077	50.461	0.268	-0.252
-390.063	118.025	0.244	0.299
-389.048	-200.000	-0.206	0.900
-388.033	800.000	0.102	-0.362
-387.019	260.770	0.151	-0.259
-386.004	-119.238	-0.884	-0.153
-384.990	141.385	0.270	0.355
-383.975	191.343	0.284	0.425
-382.960	-136.496	-0.755	-0.087
-381.946	20.181	-0.336	-0.270
-380.931	17.090	-0.262	0.206
-379.917	17.053	0.171	-0.135
-378.902	-65.899	-0.653	0.259
-377.888	96.056	-0.179	-0.204
-376.873	800.000	0.121	-0.504
-375.858	1.947	-0.561	-0.403
-374.844	29.887	-0.488	-0.414
-373.829	-115.798	0.557	0.104
-372.815	92.717	0.790	-0.887
-371.800	-23.972	0.672	-0.400
-370.785	800.000	0.253	-0.806
-369.771	-170.171	0.566	0.020
-368.756	800.000	-0.125	0.501
-367.742	-8.883	0.065	-0.043
-366.727	25.976	0.227	-0.188
-365.712	-141.191	0.379	0.038
-364.698	-200.000	0.029	0.203
-363.683	289.262	0.237	0.426
-362.669	660.209	-0.173	-0.442
-361.654	-103.724	0.087	0.020
-360.639	-74.203	-0.329	-0.118
-359.625	800.000	-0.297	0.881
-358.610	-32.498	0.274	-0.152
-357.596	692.111	0.080	0.208
-356.581	-200.000	-0.046	-0.356
-355.566	116.204	-0.168	-0.204
-354.552	52.017	-0.502	0.475
-353.537	305.466	-0.144	-0.266
-352.523	211.610	0.658	1.030
-351.508	-59.017	-0.433	0.186
-350.493	189.574	-0.556	0.828
-349.479	-17.445	0.177	0.111
-348.464	-101.902	-0.796	-0.191
-347.450	-67.639	0.227	-0.088
-346.435	-134.734	0.224	-0.027
-345.420	-82.740	0.268	0.086
-344.406	353.055	0.303	-0.597
-343.391	723.877	0.139	0.367
-342.377	501.289	-0.144	0.331
-341.362	692.666	-0.101	0.262
-340.348	115.452	-0.215	0.261
-339.333	-14.894	0.578	-0.368
-338.318	800.000	0.041	0.127
-337.304	-5.205	-0.299	-0.204
-336.289	-20.090	-0.611	0.374
-335.275	122.900	-0.530	0.659
-334.260	-14.104	0.160	-0.103
-333.245	800.000	0.298	-0.935
-332.231	330.521	-0.441	-0.843
-331.216	-7.049	-0.219	-0.147
-330.202	-54.355	-0.424	0.191
-329.187	8.954	-1.219	0.913
-328.172	34.353	-0.295	-0.256
-327.158	-118.301	-0.656	-0.116
-326.143	-200.000	-0.052	0.441
-325.129	-33.036	-0.346	0.191
-324.114	-112.639	-0.225	0.044
-323.099	-200.000	0.014	1.003
-322.085	177.907	-0.254	0.367
-321.070	-148.916	-0.716	0.057
-320.056	74.948	0.288	0.301
-319.041	-21.098	0.326	-0.198
-318.026	-69.213	1.411	0.538
-317.012	800.000	0.433	1.257
-315.997	-78.776	0.479	-0.162
-314.983	-200.000	0.017	0.605
-313.968	199.284	-0.690	-1.049
-312.953	141.072	0.067	0.088
-311.939	-200.000	0.063	0.360
-310.924	-2.592	0.196	-0.136
-309.910	-200.000	0.027	0.428
-308.895	-21.935	0.759	0.458
-307.880	42.966	0.816	-0.738
-306.866	94.533	0.239	0.270
-305.851	-199.244	-0.245	-0.001
-304.837	-200.000	-0.001	-0.221
-303.822	334.910	-0.303	-0.582
-302.807	-161.032	-0.358	0.019
-301.793	287.732	0.121	0.218
-300.778	41.940	-0.677	-0.609
-299.764	800.000	-0.214	0.675
-298.749	-47.805	-0.540	0.259
-297.735	-149.389	-0.487	-0.038
-296.720	629.339	0.186	-0.466
-295.705	800.000	0.116	-0.497
-294.691	620.495	0.249	0.620
-293.676	-94.653	0.542	0.146
-292.662	126.317	-0.118	0.148
-291.647	-148.776	0.716	0.058
-290.632	117.990	0.099	0.120
-289.618	36.565	-0.292	-0.255
-288.603	-82.917	-0.475	-0.152
-287.589	32.374	-0.500	0.428
-286.574	189.697	0.206	-0.307
-285.559	338.394	-0.234	0.451
-284.545	151.336	0.566	-0.763
-283.530	-200.000	-0.064	0.502
-282.516	161.187	-0.620	-0.858
-281.501	472.585	0.323	0.721
-280.486	-90.274	0.627	0.180
-279.472	33.088	-0.616	-0.529
-278.457	-157.432	0.351	0.021
-277.443	-78.883	-0.263	-0.089
-276.428	-29.516	-0.501	0.284
-275.413	13.888	0.382	0.294
-274.399	800.000	0.037	0.105
-273.384	-53.689	-1.068	-0.483
-272.370	-58.810	-0.673	-0.288
-271.355	124.635	0.283	0.352
-270.340	259.787	-0.331	-0.567
-269.326	65.574	0.322	-0.323
-268.311	-38.489	0.765	-0.401
-267.297	-6.655	0.892	0.602
-266.282	-200.000	0.013	-0.091
-265.267	-145.869	0.254	0.022
-264.253	441.272	0.221	-0.479
-263.238	-109.630	-0.066	-0.014
-262.224	317.382	0.046	0.086
-261.209	589.977	-0.066	0.160
-260.195	-37.961	-1.043	-0.549
-259.180	-116.746	-0.245	0.045
-258.165	800.000	0.081	0.310
-257.151	73.664	-0.530	0.550
-256.136	656.288	0.274	-0.697
-255.122	-5.390	0.616	0.419
-254.107	-117.852	0.974	-0.173
-253.092	28.888	-0.385	0.323
-252.078	-143.569	-0.748	-0.070
-251.063	800.000	0.200	-0.851
-250.049	-155.204	0.134	0.009
-249.034	20.604	0.221	-0.177
-248.019	-38.755	0.426	-0.222
-247.005	-122.696	-0.043	0.007
-245.990	800.000	0.085	0.327
-244.976	-4.458	-0.360	-0.246
-243.961	251.309	0.187	-0.315
-242.946	82.277	-0.355	-0.381
-241.932	193.274	0.578	-0.865
-240.917	105.771	0.298	-0.348
-239.903	800.000	-0.233	-0.781
-238.888	50.918	0.342	0.320
-237.873	-95.773	0.743	-0.196
-236.859	40.682	0.436	-0.389
-235.844	-141.348	-0.514	-0.052
-234.830	-200.000	0.255	1.211
-233.815	82.703	0.533	0.573
-232.800	254.431	0.186	-0.315
-231.786	440.301	0.344	0.744
-230.771	20.680	0.081	0.065
-229.757	-74.946	0.191	-0.068
-228.742	132.275	0.224	0.286
-227.727	-200.000	-0.012	-0.261
-226.713	-81.397	-1.394	0.454
-225.698	-200.000	-0.068	0.371
-224.684	-47.807	-0.009	-0.004
-223.669	-9.315	-0.489	-0.323
-222.655	208.152	0.097	-0.151
-221.640	-104.848	-1.096	-0.249
-220.625	-200.000	0.062	0.305
-219.611	-200.000	-0.004	-0.171
-218.596	-72.205	0.159	-0.058
-217.582	-135.554	0.836	-0.098
-216.567	609.715	0.096	0.236
-215.552	229.393	-0.561	-0.905
-214.538	-200.000	-0.055	0.574
-213.523	-117.284	-0.624	0.112
-212.509	-200.000	-0.011	-0.110
-211.494	-200.000	-0.069	-0.349
-210.479	-200.000	0.008	0.789
-209.465	-92.655	-0.664	-0.184
-208.450	-200.000	0.099	-0.880
-207.436	-66.279	-0.105	-0.041
-206.421	-91.372	0.694	-0.196
-205.406	142.626	0.119	-0.156
-204.392	800.000	-0.142	-0.419
-203.377	-151.833	-0.521	0.038
-202.363	623.616	-0.123	-0.306
-201.348	756.007	0.218	-0.582
-200.333	137.547	-0.314	0.406
-199.319	73.767	0.408	-0.422
-198.304	102.048	-0.590	0.681
-197.290	-22.504	-0.334	-0.200
-196.275	800.000	0.192	0.681
-195.260	-82.077	-0.250	0.081
-194.246	-14.939	-0.766	-0.485
-193.231	388.261	-0.314	-0.642
-192.217	168.208	0.273	0.384
-191.202	800.000	-0.286	0.977
-190.187	-109.991	0.550	0.114
-189.173	800.000	0.307	0.912
-188.158	68.931	0.341	-0.345
-187.144	164.517	0.288	0.401
-186.129	-200.000	-0.044	-0.436
-185.114	800.000	0.307	0.905
-184.100	-65.940	-0.111	-0.044
-183.085	238.395	-0.513	0.842
-182.071	-200.000	0.008	-0.187
-181.056	58.748	0.488	0.473
-180.042	800.000	0.174	0.556
-179.027	-136.161	-0.309	0.036
-178.012	23.615	-0.334	0.272
-176.998	-200.000	-0.102	-0.855
-175.983	238.248	-0.411	0.673
-174.969	117.013	-0.269	0.326
-173.954	-68.890	-0.408	-0.155
-172.939	800.000	-0.087	-0.238
-171.925	-75.388	-0.760	-0.267
-170.910	-18.744	-0.540	0.332
-169.896	-91.994	-0.352	0.098
-168.881	151.757	-0.223	0.299
-167.866	-7.768	0.089	0.060
-166.852	701.579	-0.130	0.337
-165.837	304.420	-0.281	0.515
-164.823	42.276	0.284	0.255
-163.808	-103.337	0.310	0.072
-162.793	119.641	0.190	-0.233
-161.779	-30.548	0.359	-0.201
-160.764	800.000	-0.165	-0.584
-159.750	435.922	0.510	-1.095
-158.735	-60.716	-0.284	0.119
-157.720	-84.661	-0.128	0.040
-156.706	-10.044	0.704	0.461
-155.691	-26.615	0.740	-0.427
-154.677	565.110	0.227	0.542
-153.662	123.149	0.608	-0.750
-152.647	367.858	0.093	0.186
-151.633	96.486	0.251	-0.283
-150.618	-75.140	-0.147	0.052
-149.604	-23.330	-0.337	0.200
-148.589	561.520	0.193	0.459
-147.574	5.762	-0.319	0.233
-146.560	301.419	0.437	0.795
-145.545	-200.000	-0.009	-0.845
-144.531	220.257	-0.312	0.494
-143.516	271.936	-0.327	0.568
-142.502	-200.000	-0.071	-0.422
-141.487	-81.109	0.143	-0.047
-140.472	-184.891	-0.421	-0.007
-139.458	-154.565	1.004	0.066
-138.443	-104.878	-0.932	0.211
-137.429	-152.679	-0.356	0.025
-136.414	90.297	-0.169	0.186
-135.399	-19.308	0.273	-0.167
-134.385	567.347	0.292	-0.699
-133.370	-200.000	-0.141	-0.638
-132.356	-92.800	-0.270	-0.074
-131.341	20.466	-0.495	-0.394
-130.326	-200.000	0.062	0.326
-129.312	-93.632	0.766	0.208
-128.297	-5.484	0.369	-0.250
-127.283	-96.635	-1.070	-0.278
-126.268	-151.797	-0.608	0.044
-125.253	800.000	0.044	0.187
-124.239	17.706	0.405	-0.317
-123.224	9.419	0.437	0.326
-122.210	290.311	-0.519	0.929
-121.195	118.444	-0.771	-0.937
-120.180	-72.923	0.411	-0.149
