DTS Sentinel unit serial number:	SN413079Multiplexer serial number:	ORYXHardware model number:	OX4-SRSoftware version number:	ORYX F/W v4.00 Oryx Data Collector v3.7.2.0data status	okinstallation	princeton_trtdifferential loss correction	single-endedforward channel	channel 2reverse channel	N/Adate	2019/09/14time	13:19:35forward acquisition time	60.00reverse acquisition time	0.00gamma	496.2192k internal	0.2306k external	0.2306temperature offset calibration	1.0154default loss term (dB/km)	0.3790temperature slope calibration	1.0000multiplexer offset coefficient	1.0000multiplexer slope coefficient	1.0000fibre end	0.00T internal ref (°C)	37.97T ext. ref 1 (°C)	4.91T ext. ref 2 (°C)	33.54length (m)	temperature (°C)	Stokes	anti-Stokes-747.200	-152.956	0.066	-0.005
-746.185	-72.106	-0.216	-0.082
-745.171	233.942	0.154	0.259
-744.156	-17.893	-0.145	-0.092
-743.142	-57.377	0.301	0.134
-742.127	201.078	-0.149	0.233
-741.112	785.165	-0.161	-0.450
-740.098	-200.000	-0.028	0.369
-739.083	19.092	0.149	-0.122
-738.069	-39.676	-0.327	-0.174
-737.054	114.965	-0.122	-0.152
-736.039	193.089	-0.208	-0.320
-735.025	217.228	0.143	0.232
-734.010	-200.000	-0.024	-0.213
-732.996	405.021	0.037	-0.080
-731.981	-102.334	-0.290	0.071
-730.966	56.698	0.102	-0.101
-729.952	174.960	-0.078	-0.115
-728.937	-164.055	-0.444	0.021
-727.923	353.615	-0.079	-0.159
-726.908	-200.000	-0.075	-0.336
-725.894	800.000	-0.008	-0.033
-724.879	-43.477	-0.062	0.032
-723.864	308.200	0.146	-0.277
-722.850	210.416	-0.146	-0.233
-721.835	-200.000	-0.375	-0.001
-720.821	-200.000	0.033	-0.281
-719.806	-101.579	-0.187	0.046
-718.791	-51.318	0.430	0.205
-717.777	401.450	-0.014	-0.030
-716.762	333.827	-0.044	0.087
-715.748	-200.000	-0.031	-0.175
-714.733	36.878	0.102	-0.092
-713.718	-200.000	-0.002	-0.078
-712.704	402.121	0.206	0.441
-711.689	613.375	-0.031	0.079
-710.675	287.639	-0.093	-0.170
-709.660	800.000	0.043	-0.160
-708.645	-200.000	0.031	0.181
-707.631	-200.000	-0.127	-0.000
-706.616	-29.867	0.313	-0.181
-705.602	-187.948	-0.183	-0.002
-704.587	-74.956	-0.326	0.119
-703.572	-200.000	0.003	0.014
-702.558	-161.301	0.267	-0.014
-701.543	-200.000	-0.019	-0.210
-700.529	-63.940	-0.242	0.101
-699.514	-31.904	-0.197	-0.112
-698.499	7.623	0.174	0.132
-697.485	121.072	-0.112	-0.142
-696.470	-93.866	-0.260	-0.073
-695.456	173.447	-0.042	-0.062
-694.441	239.232	-0.239	-0.404
-693.426	41.306	0.294	0.270
-692.412	206.142	-0.043	-0.068
-691.397	227.379	0.250	0.413
-690.383	68.251	0.246	0.256
-689.368	138.619	-0.117	0.156
-688.354	90.818	0.089	-0.102
-687.339	-133.884	-0.229	0.029
-686.324	-200.000	0.021	0.240
-685.310	800.000	-0.103	0.311
-684.295	328.269	0.125	-0.243
-683.281	243.922	-0.163	0.278
-682.266	800.000	0.077	0.238
-681.251	223.790	0.170	0.279
-680.237	-109.480	-0.089	0.019
-679.222	96.325	-0.094	0.109
-678.208	72.323	-0.091	0.096
-677.193	-6.134	0.068	0.047
-676.178	235.869	0.033	-0.055
-675.164	101.564	0.022	0.026
-674.149	522.731	-0.044	-0.104
-673.135	-100.070	-0.235	-0.059
-672.120	87.104	-0.355	-0.398
-671.105	451.684	0.039	0.088
-670.091	800.000	-0.075	-0.262
-669.076	-28.204	0.125	-0.073
-668.062	-59.817	-0.132	-0.057
-667.047	7.546	-0.073	0.056
-666.032	106.494	0.088	-0.106
-665.018	521.912	-0.103	0.244
-664.003	800.000	0.046	-0.160
-662.989	-141.122	-0.045	0.005
-661.974	387.352	-0.069	-0.144
-660.959	-120.569	-0.487	-0.084
-659.945	-200.000	0.029	0.181
-658.930	-123.625	-0.130	-0.021
-657.916	41.568	-0.013	-0.012
-656.901	160.365	-0.134	-0.190
-655.886	268.177	-0.038	0.067
-654.872	71.421	-0.164	-0.173
-653.857	29.552	-0.191	0.164
-652.843	-200.000	0.000	-0.047
-651.828	174.486	0.119	0.174
-650.814	-200.000	-0.004	-0.162
-649.799	773.938	-0.127	-0.350
-648.784	-39.429	0.384	0.204
-647.770	116.611	0.050	0.062
-646.755	-43.556	-0.344	0.176
-645.741	-104.069	-0.362	0.085
-644.726	-42.878	0.412	-0.212
-643.711	-182.347	-0.301	0.006
-642.697	-40.991	0.286	-0.150
-641.682	76.571	0.082	0.088
-640.668	-104.151	-0.127	0.030
-639.653	-142.084	-0.127	0.013
-638.638	800.000	0.035	0.143
-637.624	-117.359	-0.228	0.042
-636.609	-107.119	-0.523	0.117
-635.595	-2.484	-0.038	-0.027
-634.580	134.209	0.008	-0.010
-633.565	-200.000	-0.038	0.295
-632.551	-200.000	-0.069	0.443
-631.536	54.207	-0.264	0.258
-630.522	30.030	-0.105	0.091
-629.507	54.214	0.094	-0.092
-628.492	53.564	0.278	0.270
-627.478	-31.767	0.040	-0.023
-626.463	-100.306	-0.049	-0.012
-625.449	179.594	-0.096	0.142
-624.434	-200.000	-0.016	0.103
-623.419	-148.594	-0.289	-0.024
-622.405	635.270	0.091	-0.233
-621.390	164.078	-0.084	-0.120
-620.376	741.327	0.117	-0.319
-619.361	78.285	0.170	-0.184
-618.346	-200.000	-0.019	-0.190
-617.332	800.000	0.056	-0.224
-616.317	-38.197	-0.112	-0.060
-615.303	110.785	-0.248	-0.302
-614.288	-13.405	-0.079	0.052
-613.273	-200.000	0.007	-0.345
-612.259	206.605	-0.166	0.261
-611.244	-11.311	-0.205	-0.136
-610.230	-200.000	-0.012	0.092
-609.215	520.368	-0.113	-0.268
-608.201	94.144	-0.319	-0.366
-607.186	-62.628	-0.277	0.116
-606.171	75.429	0.093	-0.099
-605.157	-145.152	-0.346	0.032
-604.142	-191.247	-0.261	-0.003
-603.128	671.478	-0.080	0.209
-602.113	18.473	-0.013	0.010
-601.098	95.424	0.064	-0.074
-600.084	-200.000	-0.020	0.199
-599.069	-69.268	0.330	0.128
-598.055	-200.000	-0.042	-0.339
-597.040	549.543	-0.086	-0.210
-596.025	35.159	-0.253	-0.224
-595.011	-6.651	0.087	0.060
-593.996	-57.569	0.116	0.051
-592.982	351.643	-0.090	-0.181
-591.967	-177.600	0.547	0.013
-590.952	-175.862	-0.094	0.003
-589.938	559.719	0.125	0.304
-588.923	-26.902	0.173	-0.102
-587.909	722.961	-0.043	0.116
-586.894	7.113	0.059	-0.045
-585.879	84.265	-0.161	0.178
-584.865	-200.000	0.058	-0.448
-583.850	32.860	0.231	-0.203
-582.836	-70.372	-0.101	-0.039
-581.821	-186.223	0.169	0.002
-580.806	-200.000	-0.010	0.227
-579.792	639.599	-0.050	0.128
-578.777	-103.764	-0.354	-0.084
-577.763	-12.007	0.088	-0.058
-576.748	-200.000	0.011	0.070
-575.733	-68.516	0.117	-0.046
-574.719	800.000	-0.022	0.096
-573.704	-90.301	0.208	0.061
-572.690	-65.758	0.228	0.092
-571.675	-61.215	-0.249	-0.106
-570.661	-200.000	0.011	-0.180
-569.646	-41.555	0.177	-0.092
-568.631	-2.173	0.083	-0.059
-567.617	144.107	-0.084	-0.114
-566.602	-200.000	-0.016	-0.087
-565.588	-128.301	-0.244	0.035
-564.573	-98.749	-0.216	0.056
-563.558	-51.269	0.162	-0.077
-562.544	-57.106	0.163	-0.072
-561.529	218.922	0.333	-0.538
-560.515	124.866	-0.145	-0.185
-559.500	-21.754	0.198	-0.122
-558.485	353.071	-0.118	0.235
-557.471	-200.000	-0.002	0.095
-556.456	-200.000	0.018	0.098
-555.442	-79.978	-0.111	0.038
-554.427	800.000	-0.051	0.158
-553.412	800.000	0.063	-0.240
-552.398	-19.145	-0.169	0.106
-551.383	8.516	-0.106	0.081
-550.369	-127.586	0.219	0.032
-549.354	357.353	0.121	0.243
-548.339	-71.058	-0.454	-0.172
-547.325	800.000	-0.133	-0.458
-546.310	-111.051	-0.354	-0.073
-545.296	800.000	0.084	-0.340
-544.281	62.696	0.268	-0.271
-543.266	800.000	0.064	0.243
-542.252	510.874	-0.100	-0.235
-541.237	-33.024	-0.204	0.114
-540.223	-53.868	0.326	-0.150
-539.208	-76.336	-0.241	-0.086
-538.193	-10.493	0.177	-0.119
-537.179	-145.934	0.221	-0.020
-536.164	173.517	-0.143	0.208
-535.150	-145.663	0.370	0.033
-534.135	-52.636	0.245	0.114
-533.121	57.860	0.165	0.163
-532.106	-200.000	0.013	-0.140
-531.091	68.493	0.095	0.098
-530.077	770.899	0.104	0.285
-529.062	391.072	-0.078	-0.164
-528.048	800.000	0.050	-0.155
-527.033	13.614	0.236	-0.185
-526.018	41.090	0.226	-0.206
-525.004	564.028	-0.165	-0.402
-523.989	731.005	-0.146	0.394
-522.975	30.122	0.085	0.073
-521.960	293.929	0.081	0.148
-520.945	262.638	-0.151	0.265
-519.931	-61.909	-0.101	-0.043
-518.916	90.674	-0.137	0.154
-517.902	21.566	0.322	0.264
-516.887	-58.730	-0.149	-0.065
-515.872	-24.763	0.014	-0.008
-514.858	138.461	-0.021	-0.027
-513.843	86.037	-0.255	0.284
-512.829	-24.736	-0.198	-0.119
-511.814	-119.351	0.245	-0.043
-510.799	2.875	-0.210	0.154
-509.785	89.274	0.138	-0.155
-508.770	-69.907	-0.203	0.078
-507.756	-142.373	0.143	-0.014
-506.741	-200.000	0.082	-0.427
-505.726	-129.380	0.406	-0.057
-504.712	-200.000	-0.009	0.203
-503.697	800.000	-0.033	-0.123
-502.683	-200.000	0.034	0.258
-501.668	387.597	0.076	-0.159
-500.653	-180.756	0.078	0.002
-499.639	321.350	-0.020	-0.038
-498.624	201.951	0.043	0.067
-497.610	-102.446	0.167	0.040
-496.595	-97.907	-0.219	0.057
-495.581	800.000	-0.017	-0.053
-494.566	-80.542	-0.020	0.007
-493.551	-90.587	-0.229	-0.067
-492.537	-89.719	-0.369	0.109
-491.522	-15.298	0.106	-0.069
-490.508	-200.000	0.025	-0.132
-489.493	263.907	0.096	-0.169
-488.478	577.617	0.033	0.081
-487.464	800.000	0.128	-0.555
-486.449	279.533	0.103	-0.185
-485.435	-128.079	0.163	0.023
-484.420	-39.853	-0.152	-0.080
-483.405	-200.000	0.005	-0.140
-482.391	75.205	0.094	0.099
-481.376	-35.753	-0.102	-0.056
-480.362	25.152	0.221	-0.185
-479.347	800.000	0.090	-0.277
-478.332	800.000	0.096	-0.282
-477.318	-160.460	0.176	0.010
-476.303	-51.653	0.465	0.218
-475.289	272.668	-0.095	-0.170
-474.274	-5.120	-0.111	-0.077
-473.259	20.968	0.240	0.196
-472.245	587.717	0.132	0.326
-471.230	115.420	0.054	0.066
-470.216	-114.399	-0.223	-0.043
-469.201	105.816	0.108	0.128
-468.186	-80.613	-0.186	-0.062
-467.172	331.538	0.163	0.316
-466.157	-200.000	-0.007	-0.126
-465.143	-61.124	-0.098	0.042
-464.128	-95.761	0.178	0.048
-463.113	-157.842	0.132	-0.008
-462.099	7.856	0.187	0.141
-461.084	162.889	0.093	-0.131
-460.070	342.609	0.129	0.255
-459.055	-200.000	-0.037	0.181
-458.040	-68.718	-0.188	0.073
-457.026	193.142	0.160	-0.244
-456.011	9.707	-0.343	-0.262
-454.997	101.283	-0.143	-0.167
-453.982	-49.993	-0.147	-0.070
-452.968	-24.467	-0.064	0.038
-451.953	-136.220	-0.251	0.029
-450.938	-75.528	-0.268	-0.096
-449.924	-42.613	0.140	0.071
-448.909	236.464	-0.127	0.211
-447.895	256.264	0.189	-0.325
-446.880	-21.264	0.428	-0.263
-445.865	-200.000	-0.005	0.224
-444.851	-200.000	-0.060	-0.387
-443.836	-33.105	-0.052	-0.029
-442.822	29.290	-0.132	0.113
-441.807	-134.325	-0.226	0.028
-440.792	640.710	0.096	-0.246
-439.778	49.337	0.142	0.134
-438.763	-200.000	-0.021	-0.114
-437.749	-81.364	-0.085	-0.028
-436.734	235.297	0.188	0.312
-435.719	-148.282	0.068	0.006
-434.705	-85.131	-0.062	-0.019
-433.690	201.235	0.134	-0.207
-432.676	170.753	-0.071	-0.102
-431.661	44.417	-0.227	-0.210
-430.646	24.658	0.084	-0.070
-429.632	-200.000	0.063	-0.396
-428.617	-88.821	-0.290	-0.086
-427.603	341.404	0.167	0.327
-426.588	-64.876	-0.108	0.044
-425.573	800.000	0.105	0.379
-424.559	-124.972	0.252	-0.039
-423.544	-6.004	0.144	-0.099
-422.530	-200.000	-0.029	-0.315
-421.515	272.474	-0.119	-0.211
-420.500	312.516	-0.115	-0.218
-419.486	-123.975	-0.262	-0.041
-418.471	0.101	0.372	0.267
-417.457	18.108	0.075	0.060
-416.442	109.388	-0.085	0.102
-415.428	41.553	0.016	-0.014
-414.413	6.141	-0.115	-0.085
-413.398	85.673	-0.214	0.236
-412.384	-200.000	-0.001	0.129
-411.369	-150.646	-0.140	-0.011
-410.355	-46.619	-0.255	0.125
-409.340	-29.691	-0.085	-0.049
-408.325	-47.822	-0.193	-0.094
-407.311	18.560	-0.018	0.014
-406.296	-12.701	0.115	-0.075
-405.282	159.695	-0.236	-0.329
-404.267	154.138	0.186	0.256
-403.252	800.000	0.071	0.277
-402.238	396.244	-0.141	0.295
-401.223	-12.999	-0.042	-0.028
-400.209	-151.827	0.067	0.005
-399.194	454.965	0.100	0.222
-398.179	-19.426	0.339	0.211
-397.165	39.241	0.111	0.100
-396.150	158.383	0.036	-0.050
-395.136	-56.239	-0.219	-0.098
-394.121	3.610	-0.119	0.087
-393.106	-60.987	0.198	-0.084
-392.092	19.563	0.167	-0.135
-391.077	-125.121	0.291	-0.045
-390.063	-94.493	-0.254	-0.069
-389.048	261.984	-0.252	-0.439
-388.033	-69.502	-0.149	-0.057
-387.019	-26.749	-0.175	0.102
-386.004	-200.000	0.004	-0.039
-384.990	-200.000	-0.033	0.288
-383.975	148.387	-0.103	0.139
-382.960	-200.000	-0.015	0.180
-381.946	-62.764	0.270	0.112
-380.931	-73.785	-0.035	-0.013
-379.917	736.433	0.104	-0.279
-378.902	-34.463	0.139	0.076
-377.888	-178.737	0.331	0.008
-376.873	40.206	0.164	-0.148
-375.858	-152.772	-0.250	-0.018
-374.844	-200.000	0.001	0.261
-373.829	33.441	-0.100	-0.087
-372.815	-38.117	-0.184	-0.098
-371.800	347.089	-0.139	-0.274
-370.785	800.000	-0.022	0.091
-369.771	800.000	0.031	0.124
-368.756	-54.876	-0.175	0.079
-367.742	-119.484	-0.107	-0.019
-366.727	-159.301	-0.346	-0.019
-365.712	62.687	-0.244	-0.245
-364.698	-148.457	0.312	0.026
-363.683	38.912	-0.207	0.186
-362.669	-39.703	-0.231	0.121
-361.654	18.903	0.096	-0.077
-360.639	426.858	0.153	-0.331
-359.625	238.844	0.069	-0.115
-358.610	800.000	0.065	-0.223
-357.596	-150.333	-0.194	0.015
-356.581	523.273	-0.070	0.166
-355.566	-97.809	-0.132	-0.034
-354.552	225.347	0.082	0.134
-353.537	74.998	-0.117	-0.123
-352.523	-130.078	-0.244	-0.033
-351.508	-59.325	0.186	-0.080
-350.493	-200.000	0.002	0.112
-349.479	256.965	0.086	0.147
-348.464	79.590	-0.227	-0.244
-347.450	-121.070	-0.206	-0.035
-346.435	-174.286	0.193	0.006
-345.420	-15.408	-0.247	0.158
-344.406	-200.000	-0.019	0.119
-343.391	93.436	0.203	-0.230
-342.377	800.000	0.042	-0.125
-341.362	-200.000	0.048	-0.252
-340.348	211.087	-0.140	-0.220
-339.333	373.756	0.124	0.252
-338.318	-200.000	0.111	0.539
-337.304	-85.356	-0.223	0.070
-336.289	150.832	0.154	-0.210
-335.275	-200.000	0.050	0.271
-334.260	-77.161	0.224	-0.078
-333.245	145.684	0.162	-0.218
-332.231	308.412	-0.079	-0.148
-331.216	256.047	0.060	0.103
-330.202	86.630	0.217	-0.239
-329.187	118.667	0.062	-0.076
-328.172	313.152	0.112	-0.210
-327.158	636.577	0.052	-0.132
-326.143	-29.863	0.148	0.085
-325.129	-13.102	-0.135	0.088
-324.114	45.878	0.084	0.078
-323.099	-200.000	0.004	-0.221
-322.085	-36.952	0.132	0.071
-321.070	-200.000	0.003	-0.151
-320.056	-138.977	-0.317	0.034
-319.041	421.647	-0.113	0.243
-318.026	743.251	-0.110	0.295
-317.012	800.000	0.054	-0.194
-315.997	-200.000	0.040	-0.223
-314.983	-162.236	-0.324	0.016
-313.968	93.134	-0.110	0.125
-312.953	-38.241	0.280	-0.148
-311.939	-200.000	0.018	-0.462
-310.924	75.991	-0.114	-0.121
-309.910	76.252	-0.234	0.248
-308.895	-200.000	0.037	0.400
-307.880	-5.154	-0.281	-0.194
-306.866	-64.408	0.308	0.125
-305.851	-134.652	0.162	0.020
-304.837	800.000	-0.045	0.186
-303.822	-200.000	0.052	-0.266
-302.807	800.000	-0.082	-0.304
-301.793	10.719	-0.177	0.135
-300.778	-14.825	-0.263	0.169
-299.764	-86.180	-0.069	0.021
-298.749	800.000	0.078	0.257
-297.735	-148.157	0.283	0.023
-296.720	-99.247	-0.035	0.009
-295.705	-145.929	0.064	-0.006
-294.691	243.875	-0.069	-0.116
-293.676	56.088	0.095	0.092
-292.662	-89.573	0.578	0.170
-291.647	-74.368	0.260	0.094
-290.632	-14.489	-0.072	-0.047
-289.618	276.783	0.235	0.417
-288.603	106.966	-0.152	0.181
-287.589	-164.707	0.277	-0.013
-286.574	512.277	0.126	-0.293
-285.559	48.844	-0.173	0.162
-284.545	105.247	0.095	0.112
-283.530	800.000	-0.063	0.191
-282.516	16.006	0.199	0.157
-281.501	-43.189	-0.302	-0.153
-280.486	800.000	-0.069	0.201
-279.472	-91.582	0.107	0.031
-278.457	-40.500	-0.199	0.103
-277.443	-88.371	0.194	0.058
-276.428	549.596	-0.025	0.059
-275.413	-58.812	-0.112	0.049
-274.399	470.802	0.067	-0.150
-273.384	352.852	-0.216	0.428
-272.370	58.425	-0.154	0.151
-271.355	800.000	-0.084	-0.266
-270.340	99.488	0.213	0.246
-269.326	-200.000	-0.035	0.208
-268.311	107.103	-0.118	-0.139
-267.297	-200.000	0.027	0.256
-266.282	40.172	0.178	0.160
-265.267	-63.720	0.314	-0.129
-264.253	-98.429	-0.096	-0.024
-263.238	409.350	0.064	-0.136
-262.224	800.000	0.077	-0.265
-261.209	69.493	0.088	-0.090
-260.195	384.882	0.083	0.171
-259.180	98.080	0.094	-0.108
-258.165	-52.483	0.199	-0.092
-257.151	17.174	0.283	0.224
-256.136	78.692	0.071	0.076
-255.122	-62.196	-0.095	-0.040
-254.107	800.000	-0.072	-0.309
-253.092	27.129	-0.142	0.119
-252.078	-200.000	-0.045	-0.314
-251.063	-200.000	0.081	0.354
-250.049	-200.000	0.022	-0.314
-249.034	10.926	-0.307	-0.234
-248.019	-151.315	0.071	-0.005
-247.005	-39.132	0.250	-0.131
-245.990	51.837	0.255	0.243
-244.976	260.923	0.077	0.134
-243.961	-69.873	0.501	-0.191
-242.946	-200.000	-0.032	-0.229
-241.932	-87.822	-0.352	-0.106
-240.917	-144.425	-0.040	0.004
-239.903	285.668	-0.103	0.185
-238.888	-200.000	0.028	-0.141
-237.873	-77.998	-0.396	0.136
-236.859	-200.000	-0.009	0.227
-235.844	146.308	0.072	-0.097
-234.830	-121.353	0.371	-0.062
-233.815	-200.000	-0.002	-0.124
-232.800	237.638	0.199	-0.328
-231.786	659.126	-0.069	0.178
-230.771	172.598	-0.147	-0.211
-229.757	-126.792	-0.432	0.064
-228.742	155.589	-0.308	0.423
-227.727	120.756	0.174	0.215
-226.713	-38.822	-0.125	-0.066
-225.698	-52.687	-0.198	0.091
-224.684	-39.043	0.223	0.117
-223.669	-100.637	0.524	0.129
-222.655	-50.237	0.316	0.149
-221.640	120.057	-0.167	-0.206
-220.625	800.000	-0.057	-0.181
-219.611	160.357	-0.176	0.245
-218.596	-111.566	-0.118	-0.024
-217.582	-5.596	-0.119	-0.081
-216.567	800.000	-0.035	-0.124
-215.552	-106.102	-0.274	0.061
-214.538	376.574	-0.184	-0.375
-213.523	-36.889	-0.026	0.014
-212.509	-200.000	0.029	0.318
-211.494	126.536	0.203	-0.256
-210.479	536.387	-0.052	-0.122
-209.465	62.624	0.146	-0.146
-208.450	182.468	-0.087	-0.127
-207.436	104.631	-0.134	0.157
-206.421	-118.859	-0.215	-0.038
-205.406	455.509	0.119	0.264
-204.392	128.620	0.077	-0.098
-203.377	155.958	0.171	0.235
-202.363	-109.641	0.592	-0.124
-201.348	20.008	0.130	-0.105
-200.333	-155.176	0.217	-0.014
-199.319	-86.023	0.320	0.099
-198.304	-200.000	-0.043	-0.201
-197.290	-200.000	-0.023	0.100
-196.275	-77.580	-0.395	-0.136
-195.260	-200.000	0.005	-0.122
-194.246	-200.000	0.019	0.253
-193.231	-200.000	0.010	0.302
-192.217	-94.353	-0.377	0.102
-191.202	263.531	0.179	0.309
-190.187	-29.756	0.231	-0.131
-189.173	-187.724	-0.375	0.005
-188.158	714.846	0.106	0.280
-187.144	-59.491	0.318	0.136
-186.129	796.468	0.142	-0.389
-185.114	-53.458	-0.479	-0.218
-184.100	155.548	-0.020	0.028
-183.085	393.896	0.201	0.416
-182.071	-161.585	-0.050	-0.003
-181.056	55.504	-0.187	0.180
-180.042	91.760	0.164	0.184
-179.027	-93.521	-0.128	-0.035
-178.012	175.389	0.145	0.209
-176.998	-200.000	-0.019	-0.101
-175.983	73.740	-0.222	-0.231
-174.969	-61.109	-0.247	0.104
-173.954	115.012	-0.041	0.049
-172.939	546.449	0.128	0.304
-171.925	-167.207	-0.084	0.003
-170.910	-200.000	0.023	-0.274
-169.896	87.618	-0.138	0.152
-168.881	800.000	0.077	0.217
-167.866	283.380	-0.153	0.273
-166.852	-200.000	0.557	0.003
-165.837	51.994	-0.232	0.220
-164.823	-200.000	0.008	0.108
-163.808	-140.976	0.142	0.014
-162.793	-200.000	-0.065	0.346
-161.779	-200.000	0.042	0.276
-160.764	368.715	0.096	0.194
-159.750	709.562	0.060	0.158
-158.735	206.700	0.187	0.289
-157.720	629.634	-0.006	0.016
-156.706	-200.000	-0.028	0.248
-155.691	-26.963	0.156	0.090
-154.677	-200.000	-0.018	-0.150
-153.662	7.308	-0.063	0.047
-152.647	-200.000	0.014	0.353
-151.633	134.292	-0.316	-0.407
-150.618	61.308	-0.088	-0.087
-149.604	4.755	-0.160	0.117
-148.589	-36.726	0.125	0.067
-147.574	14.536	-0.089	-0.069
-146.560	272.584	-0.096	-0.169
-145.545	-200.000	-0.010	0.170
-144.531	800.000	0.025	0.101
-143.516	-200.000	0.065	0.285
-142.502	800.000	0.051	-0.221
-141.487	-37.446	-0.304	-0.161
-140.472	0.571	0.154	0.109
-139.458	77.010	-0.164	-0.173
-138.443	-43.630	-0.430	0.215
-137.429	139.714	-0.164	0.215
-136.414	800.000	0.112	0.358
-135.399	261.882	0.194	0.334
-134.385	-46.963	0.089	0.043
-133.370	-200.000	0.000	-0.177
-132.356	-200.000	0.032	-0.437
-131.341	-14.210	0.270	0.173
-130.326	800.000	0.019	-0.052
-129.312	1.135	-0.294	-0.210
-128.297	18.713	-0.131	0.104
-127.283	-52.789	0.159	0.073
-126.268	-83.513	-0.219	0.070
-125.253	-200.000	0.027	0.237
-124.239	775.069	0.126	0.342
-123.224	-133.729	-0.293	0.036
-122.210	88.364	0.189	-0.209
-121.195	800.000	-0.071	-0.201
