DTS Sentinel unit serial number:	SN413079Multiplexer serial number:	ORYXHardware model number:	OX4-SRSoftware version number:	ORYX F/W v4.00 Oryx Data Collector v3.7.2.0data status	okinstallation	princeton_trtdifferential loss correction	single-endedforward channel	channel 2reverse channel	N/Adate	2019/09/11time	17:53:11forward acquisition time	60.00reverse acquisition time	0.00gamma	496.2192k internal	0.2284k external	0.2284temperature offset calibration	1.0021default loss term (dB/km)	0.3790temperature slope calibration	1.0000multiplexer offset coefficient	1.0000multiplexer slope coefficient	1.0000fibre end	0.00T internal ref (°C)	44.00T ext. ref 1 (°C)	1.12T ext. ref 2 (°C)	38.72length (m)	temperature (°C)	Stokes	anti-Stokes-747.200	800.000	-0.065	-0.257
-746.185	-200.000	0.094	0.436
-745.171	-55.836	0.101	0.046
-744.156	800.000	-0.003	0.013
-743.142	800.000	-0.042	0.186
-742.127	91.264	-0.184	0.212
-741.112	13.101	0.198	-0.157
-740.098	-200.000	-0.047	0.482
-739.083	800.000	0.092	-0.302
-738.069	133.818	-0.072	0.095
-737.054	-87.836	-0.146	-0.045
-736.039	422.433	-0.155	-0.341
-735.025	274.680	0.204	0.371
-734.010	800.000	0.054	-0.169
-732.996	-16.258	-0.185	-0.121
-731.981	-36.037	-0.210	-0.117
-730.966	-100.775	0.090	-0.023
-729.952	-72.234	0.295	-0.112
-728.937	98.397	0.099	-0.117
-727.923	111.833	-0.195	-0.241
-726.908	8.437	-0.207	0.160
-725.894	95.799	-0.183	-0.215
-724.879	42.996	0.291	-0.272
-723.864	116.264	-0.165	-0.207
-722.850	28.480	0.069	0.059
-721.835	-22.878	0.143	-0.088
-720.821	-88.070	-0.429	-0.132
-719.806	243.743	-0.271	-0.466
-718.791	-71.773	-0.363	-0.139
-717.777	112.581	0.051	0.063
-716.762	-65.443	0.195	0.081
-715.748	-196.335	-0.123	0.001
-714.733	154.091	-0.203	-0.285
-713.718	-200.000	0.013	-0.231
-712.704	-73.879	0.065	0.024
-711.689	-200.000	0.011	-0.241
-710.675	-76.288	-0.047	0.017
-709.660	-136.865	-0.097	-0.011
-708.645	286.955	0.076	-0.140
-707.631	173.162	0.017	0.025
-706.616	-67.474	-0.178	0.071
-705.602	15.683	-0.140	0.113
-704.587	-20.543	0.182	0.114
-703.572	368.006	-0.089	-0.185
-702.558	-200.000	-0.036	0.175
-701.543	-109.148	-0.082	-0.018
-700.529	-43.911	-0.122	-0.063
-699.514	352.829	-0.078	-0.158
-698.499	517.533	0.135	-0.324
-697.485	-2.449	0.156	0.112
-696.470	-147.781	-0.224	-0.019
-695.456	-200.000	-0.006	-0.093
-694.441	-14.223	-0.138	-0.091
-693.426	61.038	0.258	0.263
-692.412	-83.437	-0.388	-0.127
-691.397	-111.304	-0.327	-0.069
-690.383	-200.000	-0.025	0.257
-689.368	-29.739	0.196	0.115
-688.354	800.000	0.056	-0.249
-687.339	-200.000	-0.064	0.365
-686.324	490.835	0.039	-0.091
-685.310	-60.853	0.337	-0.146
-684.295	113.367	-0.144	-0.179
-683.281	57.350	-0.125	-0.125
-682.266	-200.000	-0.008	-0.073
-681.251	-200.000	-0.063	-0.286
-680.237	-131.317	-0.230	-0.031
-679.222	-39.340	0.149	0.080
-678.208	110.995	0.093	-0.115
-677.193	372.316	0.190	-0.395
-676.178	374.468	0.092	-0.191
-675.164	-200.000	-0.026	-0.218
-674.149	-133.875	0.019	0.002
-673.135	-200.000	0.007	-0.191
-672.120	-95.006	0.248	-0.069
-671.105	473.282	0.080	-0.184
-670.091	18.702	-0.112	-0.092
-669.076	800.000	-0.110	0.350
-668.062	-200.000	-0.025	-0.141
-667.047	-115.638	0.356	-0.068
-666.032	-86.938	-0.187	-0.058
-665.018	483.804	-0.114	-0.265
-664.003	-116.075	0.016	0.003
-662.989	-200.000	0.008	0.177
-661.974	656.611	-0.022	0.059
-660.959	146.931	0.207	-0.284
-659.945	263.736	-0.076	0.135
-658.930	-51.981	-0.114	0.054
-657.916	5.965	-0.131	0.099
-656.901	800.000	0.075	0.268
-655.886	-79.277	0.237	-0.082
-654.872	9.285	-0.175	-0.135
-653.857	-151.076	-0.351	0.027
-652.843	-200.000	-0.025	0.318
-651.828	623.469	-0.039	0.102
-650.814	-23.023	-0.157	-0.097
-649.799	-173.910	0.178	0.005
-648.784	-96.494	0.150	0.041
-647.770	-200.000	0.040	-0.242
-646.755	25.653	0.179	-0.153
-645.741	-200.000	0.009	0.050
-644.726	-108.500	-0.114	0.025
-643.711	428.071	-0.127	-0.281
-642.697	-200.000	-0.054	0.482
-641.682	-32.248	0.319	0.182
-640.668	-44.052	0.013	0.007
-639.653	398.425	-0.039	-0.084
-638.638	-22.261	0.033	0.020
-637.624	-106.432	-0.134	-0.031
-636.609	-124.657	0.269	0.043
-635.595	535.920	-0.027	-0.064
-634.580	-42.801	0.083	-0.043
-633.565	800.000	0.098	0.295
-632.551	182.341	-0.275	-0.415
-631.536	145.446	-0.169	0.232
-630.522	100.275	0.099	0.118
-629.507	-140.942	0.176	-0.019
-628.492	800.000	-0.031	0.123
-627.478	-62.349	-0.376	0.160
-626.463	91.449	0.173	0.199
-625.449	-56.699	0.131	-0.059
-624.434	608.831	0.130	-0.331
-623.419	396.260	0.219	0.467
-622.405	-93.154	-0.070	-0.020
-621.390	-94.385	0.118	0.033
-620.376	-4.695	0.273	-0.193
-619.361	-6.004	0.043	0.030
-618.346	-200.000	-0.040	-0.218
-617.332	279.838	0.129	0.235
-616.317	28.635	0.235	0.204
-615.303	80.484	0.020	-0.022
-614.288	-200.000	-0.026	0.178
-613.273	800.000	0.124	0.400
-612.259	-129.415	0.141	-0.020
-611.244	800.000	0.025	-0.079
-610.230	52.728	0.228	-0.223
-609.215	95.042	0.199	-0.232
-608.201	-200.000	0.024	0.306
-607.186	-36.908	-0.283	-0.155
-606.171	800.000	-0.164	-0.574
-605.157	800.000	0.009	0.030
-604.142	31.703	-0.272	-0.239
-603.128	572.758	0.136	0.337
-602.113	-200.000	-0.055	-0.354
-601.098	-143.211	0.147	0.014
-600.084	311.436	0.135	-0.258
-599.069	601.984	-0.104	-0.264
-598.055	701.396	-0.100	-0.269
-597.040	-200.000	0.037	-0.184
-596.025	54.757	-0.121	0.119
-595.011	-147.295	-0.372	-0.032
-593.996	-123.536	-0.181	0.029
-592.982	-85.359	0.049	0.016
-591.967	-200.000	-0.028	-0.343
-590.952	69.432	-0.262	-0.275
-589.938	-14.258	0.092	0.060
-588.923	226.046	-0.099	-0.164
-587.909	259.925	-0.098	0.173
-586.894	-83.311	0.121	-0.040
-585.879	-181.203	-0.126	-0.003
-584.865	-65.503	0.332	0.136
-583.850	-20.944	0.091	0.057
-582.836	-200.000	0.005	0.113
-581.821	-200.000	-0.056	0.273
-580.806	-200.000	-0.027	-0.132
-579.792	54.817	0.138	-0.136
-578.777	266.510	-0.010	0.017
-577.763	77.735	-0.213	-0.232
-576.748	-86.092	0.407	0.128
-575.733	388.786	-0.131	-0.277
-574.719	107.328	-0.057	0.069
-573.704	-155.127	-0.304	0.020
-572.690	800.000	-0.055	0.202
-571.675	800.000	0.108	-0.367
-570.661	800.000	-0.111	0.464
-569.646	-72.140	0.224	0.085
-568.631	643.664	0.062	-0.162
-567.617	-200.000	-0.028	0.218
-566.602	800.000	-0.026	-0.090
-565.588	-76.059	-0.182	-0.066
-564.573	-200.000	0.043	0.433
-563.558	674.206	-0.125	0.331
-562.544	-132.552	0.513	0.067
-561.529	-64.060	0.428	0.178
-560.515	22.330	-0.111	-0.093
-559.500	-101.946	0.074	-0.018
-558.485	800.000	0.027	-0.099
-557.471	140.207	-0.090	-0.120
-556.456	-26.599	-0.174	-0.104
-555.442	-76.192	0.323	-0.116
-554.427	212.530	0.165	-0.265
-553.412	84.103	0.026	0.028
-552.398	141.642	0.183	0.247
-551.383	-128.464	-0.164	-0.024
-550.369	-142.670	0.168	0.017
-549.354	541.131	0.140	0.341
-548.339	-144.364	-0.039	-0.004
-547.325	800.000	-0.126	-0.383
-546.310	-200.000	0.035	-0.474
-545.296	-81.754	-0.166	-0.055
-544.281	261.812	0.052	0.092
-543.266	54.672	-0.216	0.212
-542.252	12.300	-0.204	-0.160
-541.237	141.883	-0.145	0.196
-540.223	-111.392	0.286	0.059
-539.208	-200.000	0.001	0.107
-538.193	-13.418	-0.151	0.100
-537.179	490.959	-0.156	-0.364
-536.164	264.443	-0.067	-0.119
-535.150	152.928	0.134	-0.187
-534.135	800.000	0.069	-0.200
-533.121	800.000	0.102	-0.288
-532.106	135.149	0.066	0.087
-531.091	221.444	0.205	0.336
-530.077	-158.894	0.350	-0.020
-529.062	332.431	-0.124	0.244
-528.048	-200.000	0.025	0.187
-527.033	-92.111	0.227	0.065
-526.018	-53.869	-0.193	-0.090
-525.004	82.173	-0.138	0.152
-523.989	-118.305	-0.170	-0.031
-522.975	41.597	0.108	0.099
-521.960	129.993	0.032	0.041
-520.945	-200.000	-0.011	-0.114
-519.931	800.000	0.040	-0.115
-518.916	-200.000	0.014	0.211
-517.902	208.681	-0.108	0.172
-516.887	4.357	-0.075	-0.056
-515.872	-165.184	-0.251	0.011
-514.858	-63.844	-0.202	0.084
-513.843	385.470	-0.092	0.193
-512.829	-200.000	0.013	0.329
-511.814	-200.000	0.007	-0.302
-510.799	92.895	-0.090	-0.103
-509.785	-200.000	0.026	0.168
-508.770	-178.661	-0.075	0.002
-507.756	-200.000	-0.008	0.201
-506.741	-11.692	-0.316	0.211
-505.726	-139.440	-0.244	0.027
-504.712	89.573	0.111	0.126
-503.697	-60.073	-0.013	-0.005
-502.683	-200.000	-0.041	0.193
-501.668	374.423	-0.030	0.063
-500.653	800.000	-0.066	0.221
-499.639	-107.698	-0.239	-0.053
-498.624	800.000	-0.109	-0.367
-497.610	800.000	-0.035	0.151
-496.595	-24.387	-0.100	0.061
-495.581	800.000	-0.028	0.096
-494.566	267.713	-0.065	0.115
-493.551	-75.185	-0.077	-0.028
-492.537	-0.224	-0.188	-0.136
-491.522	-178.439	0.409	0.010
-490.508	140.211	0.183	-0.245
-489.493	310.291	0.132	-0.251
-488.478	80.017	0.205	-0.224
-487.464	-98.785	-0.006	-0.002
-486.449	-62.042	0.186	0.079
-485.435	-98.772	0.073	0.019
-484.420	-200.000	-0.001	-0.101
-483.405	16.348	-0.107	0.086
-482.391	-36.154	-0.163	0.090
-481.376	48.000	-0.169	-0.161
-480.362	160.383	-0.195	0.277
-479.347	-200.000	0.003	-0.040
-478.332	-91.847	0.327	-0.094
-477.318	-155.694	0.336	-0.022
-476.303	762.944	-0.085	0.235
-475.289	-83.675	-0.125	0.041
-474.274	120.792	-0.153	-0.194
-473.259	800.000	0.058	0.200
-472.245	-56.644	-0.299	-0.135
-471.230	258.907	0.085	-0.149
-470.216	-19.955	-0.259	-0.162
-469.201	364.681	-0.047	-0.096
-468.186	800.000	-0.032	-0.130
-467.172	-200.000	-0.019	-0.452
-466.157	88.373	0.182	-0.206
-465.143	-200.000	-0.447	0.002
-464.128	-159.219	0.158	0.009
-463.113	-200.000	0.024	0.231
-462.099	-104.937	0.118	0.027
-461.084	-200.000	0.061	-0.319
-460.070	-149.655	-0.195	-0.016
-459.055	-43.858	0.407	-0.208
-458.040	800.000	-0.057	0.254
-457.026	-19.467	0.175	0.110
-456.011	-200.000	-0.001	0.222
-454.997	-200.000	0.028	0.181
-453.982	222.146	0.080	0.130
-452.968	404.791	0.052	-0.111
-451.953	-179.163	0.237	-0.005
-450.938	237.290	0.085	0.143
-449.924	-24.822	0.160	-0.096
-448.909	146.674	0.053	0.073
-447.895	0.419	0.295	-0.214
-446.880	51.420	0.152	-0.147
-445.865	-124.613	0.068	-0.011
-444.851	-84.306	0.102	0.033
-443.836	800.000	0.044	0.161
-442.822	-81.490	0.097	0.033
-441.807	-81.162	-0.061	0.021
-440.792	325.123	-0.149	-0.289
-439.778	144.028	0.183	-0.248
-438.763	-80.802	0.346	-0.117
-437.749	-200.000	-0.029	-0.139
-436.734	-91.913	0.061	0.018
-435.719	153.249	0.116	-0.160
-434.705	58.273	0.131	-0.130
-433.690	44.914	-0.276	-0.258
-432.676	-200.000	-0.001	-0.482
-431.661	272.980	0.117	0.209
-430.646	32.035	0.211	0.184
-429.632	-121.886	-0.235	0.039
-428.617	-70.771	-0.160	-0.061
-427.603	340.825	0.060	0.118
-426.588	5.444	0.079	-0.059
-425.573	642.359	-0.053	-0.136
-424.559	-200.000	-0.009	-0.053
-423.544	105.395	0.192	-0.230
-422.530	512.939	0.046	-0.108
-421.515	-14.646	0.260	-0.169
-420.500	21.076	0.030	-0.024
-419.486	213.254	0.247	0.396
-418.471	800.000	0.056	0.192
-417.457	58.774	-0.153	-0.153
-416.442	-150.172	-0.169	-0.013
-415.428	-58.455	0.101	-0.044
-414.413	123.339	0.095	-0.121
-413.398	49.947	-0.078	0.075
-412.384	800.000	-0.081	-0.243
-411.369	-200.000	-0.003	0.182
-410.355	462.664	0.127	0.286
-409.340	127.840	-0.199	0.257
-408.325	36.431	0.340	-0.304
-407.311	99.657	0.160	-0.187
-406.296	-74.018	-0.303	0.111
-405.282	-171.189	-0.062	-0.002
-404.267	217.928	-0.107	-0.174
-403.252	-63.325	-0.279	0.116
-402.238	482.570	-0.091	0.209
-401.223	-176.468	0.559	0.015
-400.209	-29.411	0.107	0.062
-399.194	224.097	0.142	0.233
-398.179	-112.608	0.043	0.009
-397.165	218.583	-0.191	-0.309
-396.150	-137.163	0.462	0.053
-395.136	-162.008	-0.169	-0.009
-394.121	-89.612	-0.192	0.057
-393.106	-16.577	-0.086	0.055
-392.092	82.110	-0.085	-0.093
-391.077	361.088	-0.070	0.143
-390.063	-140.610	0.259	0.027
-389.048	40.060	0.182	-0.166
-388.033	-114.185	0.036	-0.007
-387.019	-105.870	0.285	0.065
-386.004	-23.533	-0.119	-0.072
-384.990	-30.961	0.232	0.133
-383.975	-200.000	-0.010	0.165
-382.960	800.000	-0.136	-0.462
-381.946	43.200	0.130	0.120
-380.931	104.098	-0.168	0.200
-379.917	247.446	-0.184	-0.315
-378.902	14.729	-0.278	0.220
-377.888	793.267	0.025	-0.070
-376.873	60.912	-0.244	-0.245
-375.858	-200.000	0.026	0.128
-374.844	-200.000	-0.017	-0.280
-373.829	-200.000	-0.047	0.267
-372.815	-58.631	-0.199	0.087
-371.800	-191.600	-0.150	0.002
-370.785	-200.000	0.033	-0.208
-369.771	-28.280	0.263	-0.154
-368.756	-183.071	-0.213	0.004
-367.742	-50.421	0.093	0.045
-366.727	-183.305	-0.199	0.004
-365.712	133.210	-0.144	-0.188
-364.698	-178.943	-0.427	0.010
-363.683	-200.000	-0.011	0.139
-362.669	670.858	-0.082	-0.214
-361.654	-73.999	0.307	-0.113
-360.639	111.272	0.242	0.295
-359.625	186.403	-0.164	0.247
-358.610	-200.000	-0.062	-0.327
-357.596	-104.504	-0.091	0.021
-356.581	-138.557	-0.044	-0.005
-355.566	272.999	-0.085	0.152
-354.552	-127.352	0.242	-0.036
-353.537	77.818	0.195	-0.210
-352.523	181.820	-0.048	-0.072
-351.508	118.739	0.225	0.281
-350.493	-115.669	0.287	-0.054
-349.479	-45.932	-0.241	-0.121
-348.464	12.638	0.263	0.205
-347.450	-200.000	-0.011	0.106
-346.435	136.075	-0.147	0.194
-345.420	-128.018	-0.196	0.028
-344.406	800.000	-0.072	0.272
-343.391	800.000	0.018	-0.054
-342.377	-178.559	-0.285	0.007
-341.362	-67.794	-0.093	0.037
-340.348	152.850	-0.137	-0.190
-339.333	-200.000	-0.145	0.000
-338.318	341.827	-0.088	0.174
-337.304	37.113	0.285	0.255
-336.289	-160.503	-0.310	-0.017
-335.275	45.753	-0.228	-0.213
-334.260	-76.475	-0.254	-0.090
-333.245	-37.290	-0.079	0.042
-332.231	334.578	-0.024	0.046
-331.216	-20.926	-0.049	-0.030
-330.202	170.187	-0.152	0.220
-329.187	-200.000	0.054	0.333
-328.172	-4.686	0.082	0.057
-327.158	64.864	-0.077	0.079
-326.143	17.435	-0.043	0.034
-325.129	-39.427	0.093	-0.049
-324.114	-32.696	0.371	0.209
-323.099	-129.748	-0.357	0.050
-322.085	-98.404	0.272	0.070
-321.070	-126.751	-0.161	-0.024
-320.056	800.000	0.048	0.157
-319.041	-117.149	-0.306	0.056
-318.026	-200.000	0.022	-0.142
-317.012	-140.872	0.100	0.010
-315.997	-200.000	-0.031	0.203
-314.983	-88.384	0.130	-0.039
-313.968	800.000	0.031	0.113
-312.953	-175.155	-0.619	-0.017
-311.939	54.847	0.302	0.295
-310.924	-185.809	-0.120	0.002
-309.910	195.015	-0.059	0.090
-308.895	-200.000	-0.039	0.213
-307.880	14.420	0.188	0.148
-306.866	-155.479	-0.170	-0.011
-305.851	-133.684	0.057	0.007
-304.837	23.360	-0.025	0.021
-303.822	-53.363	-0.372	-0.172
-302.807	-7.793	-0.268	0.183
-301.793	-86.020	-0.089	0.028
-300.778	-152.033	-0.169	-0.012
-299.764	-127.726	-0.114	0.017
-298.749	800.000	0.062	0.180
-297.735	-62.598	-0.044	-0.019
-296.720	-126.351	-0.093	0.014
-295.705	-200.000	-0.002	0.378
-294.691	-96.208	0.230	-0.062
-293.676	-34.673	0.204	0.113
-292.662	-200.000	-0.008	0.046
-291.647	121.521	0.107	0.135
-290.632	-200.000	-0.049	-0.245
-289.618	73.714	0.123	0.130
-288.603	-200.000	0.008	0.080
-287.589	-29.465	0.199	-0.115
-286.574	2.752	-0.221	-0.161
-285.559	215.773	-0.090	0.144
-284.545	200.196	-0.219	-0.340
-283.530	-9.310	0.216	0.145
-282.516	-200.000	0.042	-0.317
-281.501	800.000	0.138	-0.419
-280.486	235.314	0.092	-0.153
-279.472	-35.603	-0.084	0.046
-278.457	497.808	-0.063	0.146
-277.443	123.031	-0.021	0.026
-276.428	-125.790	0.194	-0.030
-275.413	567.450	0.082	0.200
-274.399	-186.377	0.155	0.002
-273.384	180.447	0.104	-0.153
-272.370	-200.000	-0.022	0.232
-271.355	-155.833	0.136	-0.009
-270.340	-0.620	0.132	-0.094
-269.326	279.215	-0.115	-0.206
-268.311	220.643	0.151	-0.244
-267.297	-60.536	-0.104	-0.044
-266.282	215.817	0.022	-0.035
-265.267	-22.674	0.320	0.195
-264.253	36.302	-0.249	-0.221
-263.238	-79.242	0.412	-0.141
-262.224	-81.449	-0.170	0.056
-261.209	70.335	0.084	0.088
-260.195	-170.005	0.115	-0.004
-259.180	58.928	0.122	0.121
-258.165	800.000	-0.108	-0.326
-257.151	-200.000	0.069	0.306
-256.136	90.113	-0.189	-0.213
-255.122	80.315	0.173	-0.188
-254.107	-200.000	0.035	0.249
-253.092	-25.706	-0.195	0.116
-252.078	-200.000	0.003	-0.095
-251.063	-38.157	-0.204	-0.109
-250.049	94.223	-0.207	0.237
-249.034	660.424	-0.044	-0.115
-248.019	800.000	-0.050	-0.141
-247.005	-195.337	0.273	0.002
-245.990	15.382	0.035	0.027
-244.976	78.918	0.024	0.026
-243.961	-61.425	-0.291	-0.123
-242.946	278.655	0.033	0.059
-241.932	-200.000	-0.001	-0.068
-240.917	596.391	0.030	0.075
-239.903	-59.678	-0.191	-0.083
-238.888	800.000	0.105	-0.372
-237.873	595.926	-0.032	-0.080
-236.859	-104.505	0.236	0.055
-235.844	127.950	-0.134	0.172
-234.830	-200.000	-0.014	-0.338
-233.815	482.366	-0.067	-0.153
-232.800	-84.561	0.109	-0.035
-231.786	324.068	0.053	-0.101
-230.771	-200.000	0.026	-0.215
-229.757	-200.000	0.016	-0.226
-228.742	-93.080	0.048	-0.014
-227.727	31.125	0.117	-0.101
-226.713	26.752	0.126	-0.106
-225.698	107.572	-0.121	-0.145
-224.684	-25.971	-0.072	-0.043
-223.669	67.434	0.095	-0.098
-222.655	571.610	0.061	-0.151
-221.640	-59.792	0.145	-0.063
-220.625	-14.907	0.224	-0.144
-219.611	229.992	-0.103	0.170
-218.596	-200.000	-0.005	0.185
-217.582	-8.864	0.280	-0.189
-216.567	-61.897	-0.105	-0.044
-215.552	11.942	-0.174	0.134
-214.538	56.409	0.172	0.168
-213.523	192.474	-0.220	0.334
-212.509	-105.911	-0.129	0.029
-211.494	-49.777	-0.072	0.034
-210.479	-132.772	-0.092	-0.012
-209.465	-119.010	-0.179	0.032
-208.450	345.268	-0.130	-0.257
-207.436	-68.904	-0.172	0.067
-206.421	-200.000	-0.002	-0.018
-205.406	-200.000	0.019	0.273
-204.392	-50.729	-0.092	0.044
-203.377	525.873	-0.132	0.312
-202.363	-134.965	-0.239	-0.029
-201.348	-51.599	-0.128	0.060
-200.333	-88.252	0.100	0.030
-199.319	-41.016	-0.287	-0.149
-198.304	15.029	0.033	-0.026
-197.290	-200.000	0.002	0.268
-196.275	91.587	0.179	-0.202
-195.260	-4.432	0.258	-0.179
-194.246	61.443	0.014	-0.014
-193.231	290.161	-0.049	0.090
-192.217	182.071	-0.223	0.331
-191.202	12.746	0.316	-0.245
-190.187	-9.415	-0.282	-0.189
-189.173	74.827	0.217	0.229
-188.158	26.737	-0.088	-0.074
-187.144	363.053	0.108	0.218
-186.129	-152.857	-0.056	0.004
-185.114	-182.442	0.258	0.005
-184.100	-84.331	-0.256	-0.081
-183.085	-200.000	-0.019	-0.210
-182.071	40.817	0.180	0.163
-181.056	250.010	-0.123	-0.209
-180.042	9.542	0.262	0.199
-179.027	-121.819	-0.143	-0.024
-178.012	-38.905	-0.412	-0.218
-176.998	-200.000	0.019	0.091
-175.983	1.951	-0.312	-0.226
-174.969	320.839	0.082	0.157
-173.954	29.101	-0.176	0.150
-172.939	-87.766	0.291	0.088
-171.925	328.452	0.162	0.313
-170.910	170.350	0.197	-0.284
-169.896	-49.772	0.155	0.074
-168.881	-200.000	-0.021	0.292
-167.866	-51.842	-0.126	0.059
-166.852	49.145	-0.138	0.131
-165.837	-154.053	-0.110	0.008
-164.823	-5.299	0.125	0.086
-163.808	-151.626	-0.264	-0.020
-162.793	154.194	-0.082	0.113
-161.779	0.276	0.139	0.099
-160.764	179.592	-0.153	-0.225
-159.750	-172.508	0.176	0.006
-158.735	74.882	-0.180	0.191
-157.720	-200.000	-0.002	0.039
-156.706	166.726	0.043	-0.061
-155.691	-107.624	-0.109	0.024
-154.677	71.636	-0.053	0.056
-153.662	71.401	-0.121	0.126
-152.647	-9.551	0.218	0.146
-151.633	-114.744	-0.143	0.027
-150.618	98.113	-0.025	-0.029
-149.604	377.037	0.129	0.264
-148.589	-70.539	0.379	0.144
-147.574	-58.176	0.267	-0.117
-146.560	-200.000	0.034	0.229
-145.545	-161.080	-0.076	0.004
-144.531	22.474	-0.108	-0.089
-143.516	800.000	0.030	0.120
-142.502	-200.000	0.022	-0.195
-141.487	-86.021	0.252	0.078
-140.472	71.299	-0.149	-0.155
-139.458	-200.000	-0.079	0.393
-138.443	-39.777	-0.284	-0.149
-137.429	84.210	0.283	-0.311
-136.414	-200.000	-0.034	0.220
-135.399	-149.435	0.259	-0.021
-134.385	-138.743	-0.271	0.030
-133.370	436.540	-0.100	-0.218
-132.356	-161.035	-0.431	-0.023
-131.341	182.596	-0.103	-0.153
-130.326	-177.179	-0.183	-0.005
-129.312	-200.000	0.017	-0.429
-128.297	23.352	-0.091	-0.075
-127.283	-151.196	-0.278	0.021
-126.268	142.576	0.172	-0.229
-125.253	18.849	0.370	-0.297
-124.239	-200.000	-0.449	0.002
-123.224	-91.332	0.175	0.050
-122.210	193.946	-0.233	-0.354
