DTS Sentinel unit serial number:	SN413079Multiplexer serial number:	ORYXHardware model number:	OX4-SRSoftware version number:	ORYX F/W v4.00 Oryx Data Collector v3.7.2.0data status	okinstallation	princeton_trtdifferential loss correction	single-endedforward channel	channel 2reverse channel	N/Adate	2019/09/11time	18:57:10forward acquisition time	60.00reverse acquisition time	0.00gamma	496.2192k internal	0.2294k external	0.2294temperature offset calibration	1.0034default loss term (dB/km)	0.3790temperature slope calibration	1.0000multiplexer offset coefficient	1.0000multiplexer slope coefficient	1.0000fibre end	0.00T internal ref (°C)	42.52T ext. ref 1 (°C)	1.26T ext. ref 2 (°C)	34.65length (m)	temperature (°C)	Stokes	anti-Stokes-747.200	-38.619	-0.213	0.115
-746.185	0.129	0.398	-0.290
-745.171	-135.874	0.604	0.073
-744.156	186.264	0.127	-0.192
-743.142	88.188	-0.136	-0.154
-742.127	-200.000	-0.011	0.168
-741.112	-63.354	0.193	-0.081
-740.098	800.000	-0.052	0.229
-739.083	-86.222	0.263	0.083
-738.069	-61.312	-0.118	-0.051
-737.054	137.331	0.115	-0.154
-736.039	-200.000	-0.027	-0.248
-735.025	-87.001	0.051	-0.016
-734.010	108.794	0.114	-0.139
-732.996	-200.000	0.045	-0.308
-731.981	-70.941	-0.110	-0.043
-730.966	45.844	0.141	0.133
-729.952	39.477	-0.259	-0.237
-728.937	-24.594	0.199	-0.121
-727.923	-50.926	-0.191	0.092
-726.908	-1.308	-0.121	0.087
-725.894	129.147	-0.156	-0.204
-724.879	-61.660	-0.024	-0.010
-723.864	-112.442	-0.267	0.054
-722.850	-200.000	-0.010	0.291
-721.835	-30.289	0.135	-0.079
-720.821	-200.000	-0.029	0.191
-719.806	-63.779	-0.198	0.083
-718.791	-170.720	-0.285	-0.010
-717.777	51.634	-0.233	-0.226
-716.762	236.408	0.043	-0.072
-715.748	-200.000	-0.027	0.241
-714.733	-200.000	-0.012	-0.228
-713.718	-1.337	0.233	-0.168
-712.704	230.201	0.171	-0.286
-711.689	-18.557	0.076	0.048
-710.675	105.586	-0.229	-0.277
-709.660	-65.194	0.305	-0.125
-708.645	500.830	-0.081	0.191
-707.631	161.278	0.056	0.080
-706.616	800.000	0.090	-0.295
-705.602	243.361	-0.138	-0.236
-704.587	-35.001	0.299	0.167
-703.572	-136.939	-0.283	-0.033
-702.558	28.611	-0.145	0.125
-701.543	51.410	0.128	-0.124
-700.529	-200.000	0.003	-0.200
-699.514	-105.554	-0.283	0.066
-698.499	31.087	0.187	-0.163
-697.485	-200.000	-0.018	-0.246
-696.470	-31.382	0.056	0.032
-695.456	446.077	0.140	0.314
-694.441	13.686	-0.311	0.246
-693.426	-127.315	-0.238	-0.035
-692.412	-113.015	-0.207	-0.042
-691.397	203.931	0.043	-0.068
-690.383	-60.219	0.126	0.055
-689.368	34.100	0.146	-0.130
-688.354	-200.000	-0.010	-0.139
-687.339	-77.364	0.197	-0.070
-686.324	78.881	0.133	-0.145
-685.310	140.380	0.118	-0.158
-684.295	-70.614	-0.315	-0.121
-683.281	129.787	0.149	-0.194
-682.266	431.911	0.179	-0.396
-681.251	-54.590	-0.328	0.152
-680.237	23.194	0.069	0.057
-679.222	-188.160	0.168	-0.002
-678.208	-92.553	0.290	0.083
-677.193	800.000	0.010	0.040
-676.178	156.609	-0.045	0.063
-675.164	-66.131	-0.124	0.050
-674.149	800.000	-0.103	-0.351
-673.135	61.957	-0.181	-0.184
-672.120	140.205	-0.157	-0.211
-671.105	-126.517	0.017	0.003
-670.091	-200.000	-0.037	-0.167
-669.076	-62.399	0.175	-0.074
-668.062	256.657	-0.144	-0.252
-667.047	-36.914	0.204	-0.111
-666.032	194.108	0.060	0.093
-665.018	370.775	-0.140	-0.289
-664.003	-8.364	0.047	-0.032
-662.989	742.924	0.092	-0.251
-661.974	174.743	-0.026	0.038
-660.959	703.920	0.183	0.492
-659.945	-200.000	0.049	0.572
-658.930	800.000	-0.034	-0.113
-657.916	59.366	-0.145	0.146
-656.901	148.433	-0.202	-0.278
-655.886	31.948	-0.323	0.284
-654.872	-97.210	-0.211	-0.056
-653.857	-111.709	-0.295	0.061
-652.843	-17.724	0.133	0.085
-651.828	800.000	-0.101	-0.385
-650.814	37.138	0.274	-0.247
-649.799	608.685	-0.133	-0.339
-648.784	-200.000	-0.011	0.155
-647.770	90.845	0.115	0.131
-646.755	-30.593	-0.332	0.191
-645.741	244.047	-0.091	-0.156
-644.726	79.647	-0.186	-0.203
-643.711	-181.458	0.340	-0.007
-642.697	-200.000	-0.094	-0.513
-641.682	175.714	0.076	-0.112
-640.668	-13.859	-0.175	-0.115
-639.653	-200.000	0.016	-0.087
-638.638	-89.461	-0.184	0.055
-637.624	641.016	-0.070	0.181
-636.609	108.239	0.135	-0.164
-635.595	89.766	-0.152	-0.173
-634.580	-60.901	-0.085	-0.037
-633.565	168.586	-0.316	-0.458
-632.551	800.000	-0.112	0.495
-631.536	800.000	-0.023	-0.086
-630.522	549.706	-0.198	-0.484
-629.507	-128.831	0.478	-0.068
-628.492	206.615	-0.075	-0.119
-627.478	-200.000	-0.043	0.226
-626.463	-200.000	-0.089	0.454
-625.449	-72.549	0.236	0.089
-624.434	-6.637	-0.140	-0.097
-623.419	-200.000	-0.033	-0.189
-622.405	-99.821	0.143	-0.036
-621.390	-134.751	-0.221	0.027
-620.376	-174.344	0.410	0.012
-619.361	39.760	-0.140	0.128
-618.346	800.000	0.098	0.295
-617.332	-47.860	-0.180	0.089
-616.317	-133.359	-0.314	0.040
-615.303	-108.716	-0.305	0.066
-614.288	800.000	-0.050	-0.212
-613.273	-38.808	0.360	-0.193
-612.259	758.694	-0.070	-0.194
-611.244	71.237	0.043	-0.046
-610.230	-87.992	-0.126	-0.039
-609.215	216.994	0.126	-0.204
-608.201	284.071	0.059	-0.109
-607.186	-113.018	0.250	0.050
-606.171	113.443	0.066	-0.081
-605.157	-38.205	-0.365	0.197
-604.142	60.173	0.072	-0.073
-603.128	-48.463	-0.157	-0.077
-602.113	-116.370	-0.421	-0.079
-601.098	-200.000	0.027	-0.240
-600.084	-57.440	-0.217	-0.097
-599.069	-89.431	-0.447	-0.134
-598.055	146.082	-0.182	0.248
-597.040	210.833	0.179	0.286
-596.025	61.662	0.065	0.066
-595.011	-200.000	0.014	-0.096
-593.996	-200.000	-0.000	-0.040
-592.982	-128.169	-0.336	-0.049
-591.967	75.077	0.140	0.150
-590.952	-132.292	0.185	0.024
-589.938	800.000	0.086	-0.309
-588.923	-188.636	0.264	0.003
-587.909	-29.505	-0.165	-0.096
-586.894	103.645	0.160	0.191
-585.879	-90.487	0.290	0.085
-584.865	121.903	0.232	-0.294
-583.850	-93.197	0.230	-0.065
-582.836	75.311	0.209	-0.224
-581.821	48.159	-0.114	-0.108
-580.806	-155.503	-0.550	0.036
-579.792	800.000	-0.078	0.252
-578.777	168.584	-0.287	-0.415
-577.763	-43.163	0.028	0.014
-576.748	-24.175	-0.255	0.155
-575.733	-83.522	0.312	0.101
-574.719	-200.000	-0.029	-0.247
-573.704	752.401	-0.069	-0.189
-572.690	-102.714	0.332	0.080
-571.675	313.086	-0.040	0.076
-570.661	434.202	0.107	0.237
-569.646	-200.000	0.054	0.352
-568.631	250.095	-0.156	0.269
-567.617	661.090	0.062	-0.161
-566.602	266.111	0.120	-0.213
-565.588	65.783	0.192	-0.198
-564.573	86.535	-0.092	0.103
-563.558	-200.000	0.011	-0.281
-562.544	99.040	-0.211	-0.247
-561.529	780.775	0.051	-0.142
-560.515	167.271	-0.150	-0.216
-559.500	189.456	-0.105	0.160
-558.485	194.001	-0.117	0.180
-557.471	217.025	0.037	-0.060
-556.456	-64.181	-0.143	0.059
-555.442	-57.009	0.131	-0.059
-554.427	-200.000	-0.024	0.245
-553.412	59.927	0.014	0.014
-552.398	127.764	0.126	0.162
-551.383	157.165	-0.057	0.080
-550.369	463.173	-0.053	-0.119
-549.354	-45.260	-0.279	0.140
-548.339	339.253	0.187	0.370
-547.325	-91.497	-0.328	0.095
-546.310	-105.259	-0.199	-0.046
-545.296	800.000	-0.043	-0.173
-544.281	116.777	-0.106	0.132
-543.266	800.000	-0.063	0.257
-542.252	-22.371	0.197	0.121
-541.237	111.760	0.108	0.132
-540.223	-126.867	-0.160	0.024
-539.208	-200.000	-0.017	0.354
-538.193	-110.406	-0.166	-0.035
-537.179	800.000	0.037	-0.128
-536.164	194.070	-0.181	-0.278
-535.150	-114.698	-0.202	-0.039
-534.135	-158.938	0.156	-0.009
-533.121	-169.582	0.283	0.010
-532.106	34.375	0.124	-0.109
-531.091	-116.955	-0.246	0.046
-530.077	-103.035	0.265	-0.064
-529.062	505.560	-0.049	-0.115
-528.048	-91.077	0.184	0.054
-527.033	-50.399	0.138	-0.066
-526.018	-38.035	-0.180	-0.097
-525.004	-176.056	-0.380	-0.010
-523.989	-200.000	-0.001	-0.143
-522.975	-90.402	0.030	0.009
-521.960	-200.000	0.013	-0.111
-520.945	115.435	0.140	-0.174
-519.931	-31.025	-0.329	-0.188
-518.916	-111.895	-0.244	0.050
-517.902	-43.628	0.272	-0.139
-516.887	34.188	-0.204	-0.180
-515.872	250.972	-0.158	-0.272
-514.858	86.336	0.214	-0.239
-513.843	800.000	-0.051	-0.194
-512.829	650.401	-0.067	0.175
-511.814	800.000	-0.097	0.278
-510.799	212.902	-0.153	0.244
-509.785	628.213	0.013	0.032
-508.770	-118.212	-0.397	-0.072
-507.756	29.627	0.088	-0.076
-506.741	-152.585	0.497	-0.036
-505.726	-143.149	-0.222	0.022
-504.712	-200.000	0.011	0.072
-503.697	19.270	-0.130	-0.106
-502.683	-200.000	0.030	0.172
-501.668	-130.767	-0.083	0.011
-500.653	-22.839	0.167	0.102
-499.639	-200.000	-0.068	-0.310
-498.624	-78.341	0.414	-0.144
-497.610	71.573	0.095	-0.100
-496.595	800.000	0.061	-0.172
-495.581	119.304	-0.113	0.142
-494.566	-200.000	0.037	-0.228
-493.551	-200.000	0.013	0.287
-492.537	60.083	0.141	-0.141
-491.522	-200.000	-0.025	-0.254
-490.508	-91.707	-0.214	-0.062
-489.493	-17.719	-0.265	-0.169
-488.478	-103.200	0.380	0.091
-487.464	128.101	-0.032	-0.041
-486.449	93.504	0.192	-0.220
-485.435	12.027	0.018	0.014
-484.420	800.000	-0.021	-0.082
-483.405	18.353	-0.162	-0.131
-482.391	152.843	-0.043	0.060
-481.376	266.863	-0.074	-0.131
-480.362	-124.174	-0.045	-0.007
-479.347	800.000	-0.012	0.051
-478.332	27.357	0.134	0.114
-477.318	177.077	0.074	-0.109
-476.303	67.749	0.225	-0.232
-475.289	538.889	0.080	-0.193
-474.274	231.908	-0.140	0.233
-473.259	-167.071	-0.438	-0.018
-472.245	664.143	0.097	0.252
-471.230	189.402	-0.095	-0.145
-470.216	-120.996	-0.253	-0.043
-469.201	-200.000	-0.007	0.206
-468.186	-59.050	0.363	0.158
-467.172	-200.000	0.027	0.211
-466.157	-200.000	-0.019	-0.398
-465.143	4.794	-0.072	-0.054
-464.128	-200.000	-0.061	0.299
-463.113	8.049	-0.114	0.086
-462.099	-130.751	-0.200	0.027
-461.084	-200.000	0.016	-0.150
-460.070	-5.684	-0.177	-0.123
-459.055	111.471	0.047	-0.058
-458.040	-32.543	-0.169	-0.095
-457.026	153.561	-0.172	0.239
-456.011	400.495	0.051	0.107
-454.997	-200.000	0.041	0.302
-453.982	566.797	0.017	0.042
-452.968	168.384	-0.086	0.123
-451.953	765.357	0.131	-0.361
-450.938	534.137	0.007	-0.018
-449.924	-115.779	0.123	0.023
-448.909	132.582	-0.222	-0.290
-447.895	-152.642	-0.160	-0.012
-446.880	800.000	0.090	-0.286
-445.865	-200.000	-0.021	-0.201
-444.851	-84.101	0.133	-0.043
-443.836	139.866	0.182	-0.243
-442.822	-117.095	-0.104	0.019
-441.807	-73.180	0.114	-0.042
-440.792	-166.470	0.373	0.016
-439.778	-1.286	0.096	0.068
-438.763	-200.000	-0.028	0.235
-437.749	800.000	-0.085	-0.324
-436.734	13.125	0.242	-0.189
-435.719	-200.000	0.000	0.250
-434.705	-127.492	0.209	0.031
-433.690	302.763	0.118	0.221
-432.676	0.883	0.291	-0.211
-431.661	299.554	-0.204	-0.379
-430.646	-36.352	0.099	0.054
-429.632	-117.813	-0.340	0.062
-428.617	800.000	0.035	0.114
-427.603	-200.000	0.015	0.299
-426.588	800.000	-0.073	0.218
-425.573	248.759	0.176	0.300
-424.559	-170.783	0.113	0.004
-423.544	-127.498	-0.056	0.008
-422.530	800.000	0.120	-0.352
-421.515	-200.000	0.003	-0.410
-420.500	191.042	0.228	0.346
-419.486	-137.411	0.125	-0.014
-418.471	170.207	-0.154	-0.222
-417.457	-45.968	0.053	0.026
-416.442	-167.334	0.083	-0.003
-415.428	-200.000	0.008	-0.039
-414.413	-108.010	-0.371	0.081
-413.398	539.895	-0.106	0.255
-412.384	199.545	-0.033	0.051
-411.369	17.664	0.133	-0.106
-410.355	-117.015	0.257	0.047
-409.340	-73.258	0.226	-0.084
-408.325	-16.158	-0.157	0.101
-407.311	-51.776	0.160	-0.075
-406.296	-200.000	-0.029	-0.319
-405.282	-107.210	0.239	-0.053
-404.267	142.584	-0.118	0.158
-403.252	-200.000	-0.001	0.092
-402.238	261.074	-0.056	-0.098
-401.223	-81.866	0.046	-0.015
-400.209	240.398	-0.213	0.358
-399.194	-200.000	0.035	-0.218
-398.179	-152.151	0.086	-0.006
-397.165	-63.388	-0.102	-0.043
-396.150	-200.000	-0.044	0.197
-395.136	800.000	0.110	0.389
-394.121	800.000	0.080	0.239
-393.106	-159.179	0.164	-0.009
-392.092	102.198	0.099	0.117
-391.077	-200.000	-0.021	-0.215
-390.063	-200.000	-0.038	0.265
-389.048	192.523	-0.059	-0.089
-388.033	-69.452	-0.221	-0.086
-387.019	-200.000	0.016	-0.191
-386.004	71.170	0.032	0.034
-384.990	800.000	-0.063	0.236
-383.975	409.848	-0.069	-0.148
-382.960	-162.736	0.122	-0.006
-381.946	800.000	0.087	0.244
-380.931	504.868	-0.153	-0.356
-379.917	-60.247	0.145	-0.062
-378.902	-200.000	0.037	0.222
-377.888	-6.622	0.227	0.156
-376.873	-102.947	0.253	-0.060
-375.858	98.606	-0.118	-0.137
-374.844	-111.593	-0.110	0.023
-373.829	109.302	-0.391	-0.472
-372.815	480.816	-0.087	-0.199
-371.800	516.828	-0.106	-0.250
-370.785	-41.458	-0.222	-0.115
-369.771	-124.148	-0.243	0.038
-368.756	-53.283	0.261	0.121
-367.742	-18.792	0.192	0.120
-366.727	800.000	0.086	-0.290
-365.712	-200.000	-0.002	0.165
-364.698	-200.000	0.018	-0.080
-363.683	329.287	-0.193	-0.375
-362.669	719.099	0.038	-0.101
-361.654	174.803	0.209	0.305
-360.639	800.000	-0.090	-0.369
-359.625	448.942	-0.205	0.454
-358.610	-86.775	-0.177	-0.054
-357.596	-153.166	0.329	-0.023
-356.581	-147.523	0.236	0.020
-355.566	201.348	-0.213	0.330
-354.552	-200.000	0.051	0.283
-353.537	383.117	0.013	0.027
-352.523	-44.309	0.220	0.111
-351.508	268.461	0.109	0.192
-350.493	264.723	-0.084	-0.147
-349.479	800.000	0.036	-0.130
-348.464	149.566	-0.195	-0.266
-347.450	1.835	0.115	0.084
-346.435	-32.288	0.046	0.026
-345.420	620.246	0.031	0.079
-344.406	179.871	0.061	-0.091
-343.391	192.653	0.032	-0.049
-342.377	800.000	-0.177	-0.498
-341.362	-110.564	0.150	-0.031
-340.348	-47.559	0.268	0.131
-339.333	721.165	0.037	0.100
-338.318	800.000	-0.043	-0.121
-337.304	-145.560	0.324	0.029
-336.289	-126.394	-0.263	0.039
-335.275	-200.000	-0.010	0.064
-334.260	131.501	0.280	-0.363
-333.245	800.000	-0.041	-0.131
-332.231	594.992	-0.056	0.140
-331.216	51.032	0.158	0.151
-330.202	800.000	0.079	-0.275
-329.187	727.443	-0.103	0.278
-328.172	540.748	0.112	-0.267
-327.158	-90.755	0.499	-0.145
-326.143	-79.239	0.321	-0.109
-325.129	250.085	-0.067	0.114
-324.114	-96.881	-0.143	-0.038
-323.099	800.000	0.071	0.199
-322.085	666.142	0.108	0.281
-321.070	11.238	-0.281	-0.216
-320.056	-91.046	-0.156	0.045
-319.041	206.223	0.156	-0.244
-318.026	800.000	-0.066	-0.196
-317.012	-142.557	0.134	0.013
-315.997	-200.000	0.000	0.545
-314.983	-143.954	-0.159	0.015
-313.968	-126.210	-0.129	-0.019
-312.953	-185.774	-0.151	0.002
-311.939	669.545	-0.040	0.105
-310.924	142.234	0.157	-0.209
-309.910	-121.292	-0.190	0.032
-308.895	-124.025	-0.188	-0.030
-307.880	-200.000	0.030	-0.177
-306.866	137.468	0.082	0.108
-305.851	-52.376	0.223	-0.104
-304.837	800.000	-0.073	-0.313
-303.822	-63.011	-0.196	-0.082
-302.807	208.571	-0.095	-0.149
-301.793	-200.000	-0.014	0.213
-300.778	-200.000	0.024	0.157
-299.764	-77.388	-0.368	0.128
-298.749	-200.000	-0.017	0.161
-297.735	-200.000	0.007	-0.133
-296.720	-96.361	-0.170	-0.045
-295.705	-39.854	0.280	0.147
-294.691	-22.736	0.185	-0.112
-293.676	800.000	-0.031	0.109
-292.662	349.159	-0.116	-0.230
-291.647	-114.324	-0.245	0.047
-290.632	133.315	-0.202	0.262
-289.618	34.068	0.152	-0.133
-288.603	-81.390	0.341	-0.113
-287.589	-157.220	-0.245	-0.015
-286.574	-200.000	0.076	-0.397
-285.559	245.792	-0.153	-0.259
-284.545	117.735	-0.117	-0.144
-283.530	800.000	-0.136	0.441
-282.516	-124.125	-0.137	-0.022
-281.501	-175.924	0.320	-0.009
-280.486	-19.268	0.213	0.133
-279.472	-54.867	-0.157	0.071
-278.457	403.509	0.180	0.381
-277.443	290.258	0.084	-0.154
-276.428	587.837	0.035	-0.087
-275.413	-200.000	0.052	0.446
-274.399	-45.755	-0.321	0.159
-273.384	-200.000	-0.017	-0.410
-272.370	369.624	0.108	-0.220
-271.355	83.772	0.097	0.106
-270.340	207.326	0.123	0.193
-269.326	-137.218	-0.150	-0.017
-268.311	2.848	0.210	0.153
-267.297	-79.388	-0.243	0.083
-266.282	800.000	0.050	0.173
-265.267	159.555	0.145	0.202
-264.253	-106.049	0.180	-0.041
-263.238	-162.060	-0.296	-0.015
-262.224	-117.739	-0.434	-0.078
-261.209	25.920	0.047	-0.039
-260.195	-200.000	-0.021	-0.130
-259.180	-200.000	-0.011	0.420
-258.165	114.961	-0.115	0.141
-257.151	800.000	0.068	0.264
-256.136	54.771	-0.416	0.402
-255.122	800.000	-0.085	0.323
-254.107	800.000	-0.049	-0.183
-253.092	-94.549	0.321	-0.088
-252.078	618.227	-0.141	0.355
-251.063	-44.095	-0.114	-0.057
-250.049	800.000	-0.003	-0.014
-249.034	-20.787	-0.082	-0.051
-248.019	-85.907	0.387	0.120
-247.005	-200.000	-0.040	0.210
-245.990	-32.483	0.091	0.051
-244.976	-200.000	-0.055	0.336
-243.961	-75.234	0.205	-0.073
-242.946	429.631	0.162	0.352
-241.932	-200.000	-0.066	-0.458
-240.917	-24.981	-0.144	-0.085
-239.903	-108.792	-0.173	-0.037
-238.888	-136.974	-0.412	-0.047
-237.873	-199.098	0.347	-0.002
-236.859	34.412	-0.162	0.142
-235.844	40.448	0.248	0.224
-234.830	208.383	0.091	0.143
-233.815	-17.071	0.073	-0.046
-232.800	-110.594	-0.185	0.038
-231.786	-152.458	-0.098	0.007
-230.771	-61.250	-0.120	-0.051
-229.757	800.000	0.056	0.208
-228.742	-151.695	0.274	0.020
-227.727	-7.156	0.368	0.250
-226.713	134.414	-0.086	0.112
-225.698	108.742	-0.074	0.089
-224.684	281.385	0.171	0.306
-223.669	125.700	-0.125	-0.159
-222.655	72.035	0.151	0.157
-221.640	-200.000	0.033	-0.204
-220.625	391.481	-0.097	-0.203
-219.611	-140.180	0.222	-0.023
-218.596	-200.000	0.005	-0.211
-217.582	13.191	-0.114	0.088
-216.567	36.278	0.214	0.189
-215.552	800.000	0.146	0.511
-214.538	-200.000	0.015	0.167
-213.523	800.000	0.008	0.023
-212.509	80.072	-0.084	0.090
-211.494	347.639	0.035	-0.069
-210.479	234.109	0.152	0.251
-209.465	-31.119	0.171	0.097
-208.450	241.536	-0.159	0.265
-207.436	-85.467	-0.201	-0.063
-206.421	-34.603	0.036	0.020
-205.406	-167.881	0.319	-0.013
-204.392	-8.416	0.129	0.087
-203.377	-125.481	0.289	-0.044
-202.363	800.000	0.080	0.223
-201.348	333.255	-0.186	0.360
-200.333	134.114	0.189	0.245
-199.319	-146.003	-0.247	-0.022
-198.304	79.449	-0.108	0.115
-197.290	800.000	0.067	-0.244
-196.275	86.370	-0.335	-0.370
-195.260	800.000	0.034	0.101
-194.246	-76.197	0.088	0.031
-193.231	-200.000	-0.004	0.294
-192.217	-26.839	-0.075	0.044
-191.202	-200.000	0.042	-0.193
-190.187	173.496	0.018	0.026
-189.173	288.647	-0.102	-0.185
-188.158	-61.363	0.104	-0.044
-187.144	626.821	0.048	-0.122
-186.129	-2.413	0.018	0.013
-185.114	-200.000	0.018	0.312
-184.100	59.938	-0.102	-0.101
-183.085	-105.104	-0.131	-0.030
-182.071	-200.000	0.091	-0.461
-181.056	5.473	-0.086	0.063
-180.042	-98.819	0.226	-0.057
-179.027	-61.843	-0.127	0.053
-178.012	198.778	0.124	-0.191
-176.998	-200.000	0.027	0.418
-175.983	-200.000	-0.010	0.306
-174.969	-200.000	-0.024	0.118
-173.954	312.775	-0.037	0.070
-172.939	-24.069	0.227	0.136
-171.925	800.000	0.100	0.330
-170.910	-163.266	0.141	-0.007
-169.896	-22.964	-0.081	0.049
-168.881	125.797	-0.328	-0.414
-167.866	-141.786	-0.282	-0.028
-166.852	-51.991	0.317	-0.147
-165.837	-161.597	0.117	0.006
-164.823	-200.000	-0.005	-0.388
-163.808	800.000	-0.087	-0.275
-162.793	62.012	-0.086	0.086
-161.779	800.000	0.076	0.236
-160.764	800.000	0.032	0.140
-159.750	-67.443	0.361	-0.142
-158.735	247.283	0.172	0.290
-157.720	88.041	0.208	0.231
-156.706	-60.982	0.108	-0.046
-155.691	-5.073	0.183	0.126
-154.677	57.498	0.169	0.165
-153.662	-138.994	0.183	-0.020
-152.647	-200.000	-0.026	-0.286
-151.633	-28.656	-0.212	-0.122
-150.618	206.459	-0.086	0.134
-149.604	-6.328	-0.089	0.061
-148.589	800.000	0.069	-0.263
-147.574	800.000	-0.071	-0.281
-146.560	800.000	0.053	0.179
-145.545	-200.000	-0.044	-0.199
-144.531	-129.431	0.477	0.066
-143.516	373.107	0.166	0.337
-142.502	32.877	0.212	0.183
-141.487	16.218	0.200	-0.157
-140.472	85.590	-0.043	-0.047
-139.458	84.908	0.271	0.296
-138.443	-200.000	0.027	0.196
-137.429	-91.115	0.077	0.022
-136.414	-5.295	-0.191	0.131
-135.399	-105.739	-0.137	0.031
-134.385	269.271	-0.049	0.087
-133.370	356.255	0.095	-0.188
-132.356	632.668	-0.073	-0.185
-131.341	36.748	-0.149	-0.131
-130.326	-2.721	-0.231	0.161
-129.312	-141.843	-0.196	0.020
-128.297	-200.000	0.046	0.243
-127.283	-0.349	0.048	-0.034
-126.268	117.151	-0.119	-0.146
-125.253	-200.000	0.004	0.265
-124.239	800.000	-0.095	0.387
-123.224	-89.352	0.289	0.085
-122.210	3.709	0.190	0.138
