DTS Sentinel unit serial number:	SN413079Multiplexer serial number:	ORYXHardware model number:	OX4-SRSoftware version number:	ORYX F/W v4.00 Oryx Data Collector v3.7.2.0data status	okinstallation	princeton_trtdifferential loss correction	single-endedforward channel	channel 2reverse channel	N/Adate	2019/09/18time	06:47:35forward acquisition time	60.00reverse acquisition time	0.00gamma	496.2192k internal	0.2349k external	0.2349temperature offset calibration	0.9985default loss term (dB/km)	0.3790temperature slope calibration	1.0000multiplexer offset coefficient	1.0000multiplexer slope coefficient	1.0000fibre end	0.00T internal ref (°C)	23.25T ext. ref 1 (°C)	0.20T ext. ref 2 (°C)	16.99length (m)	temperature (°C)	Stokes	anti-Stokes-747.200	-6.262	-0.313	0.213
-746.185	-200.000	0.004	0.461
-745.171	-63.633	-0.136	-0.056
-744.156	331.584	0.038	-0.073
-743.142	80.389	0.179	0.193
-742.127	-69.200	-0.037	-0.014
-741.112	71.067	0.139	-0.144
-740.098	-200.000	0.021	0.334
-739.083	800.000	0.038	0.124
-738.069	221.398	0.169	0.271
-737.054	79.321	-0.308	-0.329
-736.039	-200.000	-0.015	-0.261
-735.025	252.581	-0.087	-0.149
-734.010	800.000	-0.187	-0.535
-732.996	-79.784	-0.129	-0.043
-731.981	551.404	-0.012	-0.029
-730.966	-41.795	-0.469	-0.240
-729.952	-110.271	-0.261	0.054
-728.937	242.002	-0.174	-0.291
-727.923	-141.309	0.483	0.049
-726.908	-200.000	-0.029	0.335
-725.894	-200.000	-0.013	0.060
-724.879	-101.092	-0.231	-0.057
-723.864	125.150	-0.294	-0.370
-722.850	71.947	-0.179	-0.186
-721.835	200.030	-0.190	-0.291
-720.821	199.449	-0.200	-0.306
-719.806	-79.605	-0.149	0.050
-718.791	359.797	0.033	-0.066
-717.777	-200.000	-0.062	-0.331
-716.762	-111.271	0.123	0.025
-715.748	-131.586	0.343	-0.045
-714.733	215.658	0.091	0.144
-713.718	-200.000	0.022	0.346
-712.704	800.000	0.077	-0.244
-711.689	-14.928	0.205	-0.131
-710.675	250.795	0.130	-0.221
-709.660	-73.422	-0.506	-0.184
-708.645	97.819	0.187	0.214
-707.631	13.037	0.142	0.109
-706.616	707.905	0.086	0.225
-705.602	-200.000	0.051	-0.425
-704.587	-150.856	0.354	0.027
-703.572	-61.786	-0.112	0.047
-702.558	37.672	0.086	-0.076
-701.543	561.893	0.151	0.364
-700.529	-200.000	0.005	0.140
-699.514	-200.000	0.022	0.288
-698.499	800.000	-0.081	-0.292
-697.485	-8.546	-0.346	-0.232
-696.470	-163.310	0.148	-0.007
-695.456	26.235	-0.298	0.248
-694.441	40.605	-0.211	-0.190
-693.426	201.486	0.082	-0.126
-692.412	153.446	0.139	0.189
-691.397	131.717	0.188	0.241
-690.383	-94.778	-0.180	0.049
-689.368	127.380	0.051	0.064
-688.354	-200.000	0.009	-0.094
-687.339	-63.624	0.261	0.107
-686.324	-200.000	-0.004	-0.297
-685.310	357.379	0.164	0.326
-684.295	-200.000	-0.045	0.330
-683.281	-23.834	-0.179	0.107
-682.266	-58.333	0.161	-0.070
-681.251	-200.000	0.008	0.357
-680.237	-200.000	-0.011	-0.125
-679.222	-33.201	-0.214	0.118
-678.208	-89.669	-0.245	0.072
-677.193	-55.240	0.361	-0.162
-676.178	-101.423	-0.129	-0.031
-675.164	19.386	-0.030	-0.024
-674.149	-44.131	-0.264	0.132
-673.135	-140.084	0.359	0.038
-672.120	-200.000	0.044	-0.279
-671.105	-111.371	-0.181	0.037
-670.091	-28.055	-0.185	0.106
-669.076	-103.297	0.046	0.011
-668.062	27.358	0.174	0.145
-667.047	-200.000	0.092	0.542
-666.032	61.357	-0.228	0.225
-665.018	539.772	0.053	-0.127
-664.003	175.447	0.086	-0.124
-662.989	103.763	-0.081	-0.094
-661.974	-77.750	0.217	-0.075
-660.959	-118.764	-0.247	0.043
-659.945	799.946	-0.055	-0.152
-658.930	143.132	-0.069	-0.092
-657.916	-200.000	0.021	-0.104
-656.901	800.000	0.137	-0.509
-655.886	451.348	-0.039	0.087
-654.872	-40.084	-0.145	0.075
-653.857	-135.293	0.244	0.029
-652.843	-66.735	-0.288	0.114
-651.828	324.178	0.078	0.149
-650.814	318.446	-0.196	0.369
-649.799	285.060	-0.103	-0.185
-648.784	-20.978	-0.087	0.053
-647.770	-64.865	-0.102	-0.041
-646.755	-200.000	0.001	0.053
-645.741	-91.864	0.123	-0.035
-644.726	116.484	0.071	-0.087
-643.711	26.272	-0.174	-0.144
-642.697	54.573	-0.093	-0.089
-641.682	-107.402	0.077	-0.017
-640.668	228.207	-0.197	-0.319
-639.653	-200.000	-0.058	0.370
-638.638	71.403	-0.065	-0.067
-637.624	60.596	0.112	0.111
-636.609	192.657	0.041	0.061
-635.595	264.536	-0.014	0.025
-634.580	-137.030	0.084	0.010
-633.565	-128.923	-0.412	0.057
-632.551	-2.536	-0.399	-0.278
-631.536	116.264	-0.118	0.143
-630.522	23.783	-0.277	-0.227
-629.507	800.000	0.124	0.446
-628.492	220.362	0.201	0.321
-627.478	412.726	-0.022	0.047
-626.463	800.000	-0.043	0.147
-625.449	-57.730	-0.111	0.048
-624.434	-20.026	-0.278	-0.170
-623.419	619.368	0.050	-0.126
-622.405	800.000	0.033	-0.133
-621.390	-200.000	0.046	0.223
-620.376	576.150	0.078	-0.190
-619.361	800.000	-0.085	-0.338
-618.346	-117.262	-0.423	-0.076
-617.332	166.586	0.121	0.171
-616.317	5.021	-0.142	-0.104
-615.303	74.911	0.067	0.070
-614.288	198.147	0.139	-0.212
-613.273	-91.398	-0.104	0.029
-612.259	6.343	-0.247	-0.182
-611.244	-179.344	-0.260	-0.006
-610.230	-200.000	-0.030	0.264
-609.215	-88.338	0.488	0.145
-608.201	-73.139	-0.295	0.107
-607.186	-143.215	0.196	-0.019
-606.171	-89.440	0.196	0.057
-605.157	256.105	-0.111	-0.190
-604.142	-16.683	0.141	-0.089
-603.128	-141.455	-0.122	-0.012
-602.113	23.333	0.178	-0.145
-601.098	205.495	-0.275	-0.424
-600.084	-94.069	0.434	0.118
-599.069	-85.050	-0.196	-0.061
-598.055	-16.922	0.229	0.144
-597.040	50.861	0.233	0.219
-596.025	-117.583	-0.258	0.046
-595.011	-13.601	-0.086	-0.056
-593.996	238.991	0.138	-0.227
-592.982	-124.137	0.232	-0.036
-591.967	-200.000	0.006	-0.268
-590.952	373.593	-0.135	-0.272
-589.938	12.509	-0.192	-0.147
-588.923	-17.348	-0.080	0.050
-587.909	800.000	-0.056	-0.225
-586.894	59.726	-0.144	-0.141
-585.879	144.186	0.167	0.221
-584.865	-99.762	0.302	0.075
-583.850	-200.000	0.023	-0.197
-582.836	556.667	0.133	-0.317
-581.821	-97.877	0.312	0.080
-580.806	-79.911	0.290	0.097
-579.792	-14.136	-0.314	0.201
-578.777	-25.978	0.249	-0.146
-577.763	701.054	-0.081	-0.212
-576.748	-200.000	0.070	0.387
-575.733	-87.587	-0.199	0.060
-574.719	-167.576	-0.051	0.002
-573.704	-61.735	-0.097	0.040
-572.690	402.597	-0.161	0.335
-571.675	-70.490	0.182	-0.068
-570.661	800.000	-0.040	0.130
-569.646	28.680	0.157	0.132
-568.631	-200.000	-0.047	-0.320
-567.617	-124.690	0.234	-0.036
-566.602	-83.885	0.401	0.127
-565.588	13.201	-0.275	0.211
-564.573	-200.000	0.037	0.344
-563.558	0.743	0.309	0.219
-562.544	-200.000	0.013	0.144
-561.529	541.331	0.105	-0.248
-560.515	-43.393	0.268	-0.134
-559.500	296.223	-0.089	-0.163
-558.485	-133.031	0.418	0.053
-557.471	4.308	0.266	-0.193
-556.456	-147.590	0.260	-0.022
-555.442	34.168	-0.063	0.055
-554.427	10.428	-0.241	0.182
-553.412	590.719	0.081	-0.197
-552.398	-2.035	0.091	0.064
-551.383	-200.000	0.015	0.073
-550.369	552.539	-0.084	0.200
-549.354	-77.118	0.207	-0.072
-548.339	162.126	0.097	-0.134
-547.325	-27.738	-0.103	0.059
-546.310	-150.647	0.238	-0.018
-545.296	800.000	0.079	-0.235
-544.281	407.688	-0.073	-0.153
-543.266	74.908	-0.202	-0.210
-542.252	257.557	0.130	0.221
-541.237	-37.849	-0.326	0.172
-540.223	19.719	0.013	0.010
-539.208	800.000	0.051	0.210
-538.193	-40.836	0.251	-0.129
-537.179	-58.642	-0.173	0.074
-536.164	260.038	0.040	0.068
-535.150	62.504	0.189	0.187
-534.135	-104.020	-0.316	-0.073
-533.121	-155.047	0.033	0.002
-532.106	-143.470	-0.169	0.016
-531.091	-81.836	-0.076	-0.025
-530.077	336.428	-0.037	-0.071
-529.062	-200.000	-0.016	0.345
-528.048	21.060	-0.073	0.059
-527.033	-143.664	0.116	0.011
-526.018	40.322	-0.337	0.301
-525.004	-81.685	0.248	-0.080
-523.989	346.522	-0.166	-0.323
-522.975	176.294	-0.105	0.150
-521.960	-200.000	-0.001	-0.374
-520.945	105.581	0.161	0.188
-519.931	662.331	-0.157	-0.400
-518.916	-200.000	0.014	-0.258
-517.902	-126.264	0.242	0.036
-516.887	-73.833	0.325	-0.117
-515.872	-60.562	0.125	0.053
-514.858	268.022	0.031	0.054
-513.843	-140.348	-0.375	-0.039
-512.829	-101.322	-0.176	-0.042
-511.814	-77.948	0.216	-0.074
-510.799	-136.346	-0.151	-0.017
-509.785	-122.809	-0.161	-0.026
-508.770	800.000	-0.117	0.330
-507.756	-200.000	0.001	0.138
-506.741	-123.754	-0.288	0.045
-505.726	800.000	0.114	-0.436
-504.712	-103.812	-0.268	0.062
-503.697	596.500	-0.061	-0.148
-502.683	83.518	0.119	0.128
-501.668	24.258	0.132	0.108
-500.653	-62.314	-0.091	0.038
-499.639	-24.368	-0.129	0.076
-498.624	604.866	-0.038	0.093
-497.610	-167.227	0.143	0.006
-496.595	84.151	-0.072	0.078
-495.581	82.192	0.086	-0.092
-494.566	800.000	0.025	0.086
-493.551	800.000	-0.016	-0.057
-492.537	-200.000	-0.020	-0.165
-491.522	9.982	-0.115	0.087
-490.508	289.387	-0.040	0.071
-489.493	-200.000	0.006	-0.180
-488.478	-113.147	0.037	0.007
-487.464	-38.194	0.188	0.099
-486.449	51.750	-0.054	-0.051
-485.435	336.793	-0.038	-0.072
-484.420	-124.052	0.281	0.044
-483.405	-200.000	0.001	0.297
-482.391	800.000	-0.029	0.124
-481.376	-30.088	0.196	0.110
-480.362	-200.000	0.019	-0.142
-479.347	81.251	0.172	-0.184
-478.332	-200.000	-0.053	0.328
-477.318	499.717	-0.063	0.144
-476.303	-96.825	-0.231	-0.060
-475.289	106.289	-0.242	-0.283
-474.274	-200.000	0.012	0.159
-473.259	2.091	0.094	0.067
-472.245	-200.000	0.132	-0.001
-471.230	-42.082	-0.406	-0.205
-470.216	49.247	0.207	-0.192
-469.201	48.563	-0.222	-0.205
-468.186	231.849	-0.142	-0.229
-467.172	-126.413	-0.123	-0.018
-466.157	-200.000	0.203	-0.001
-465.143	499.065	0.105	-0.238
-464.128	-151.341	0.224	0.017
-463.113	436.646	-0.142	-0.305
-462.099	-1.495	-0.092	-0.064
-461.084	66.113	-0.316	0.317
-460.070	79.983	-0.241	-0.256
-459.055	-134.914	-0.222	0.026
-458.040	-14.613	0.048	0.030
-457.026	-83.474	0.423	-0.134
-456.011	-120.790	-0.338	0.056
-454.997	-160.462	0.158	-0.008
-453.982	-81.991	-0.297	0.096
-452.968	306.601	-0.190	-0.349
-451.953	-107.736	0.358	-0.077
-450.938	324.111	-0.200	0.377
-449.924	-86.212	-0.338	0.103
-448.909	-94.982	0.189	0.050
-447.895	-134.030	0.433	0.053
-446.880	6.069	0.219	-0.160
-445.865	-98.949	0.098	-0.025
-444.851	311.259	0.096	0.177
-443.836	-48.678	0.200	-0.095
-442.822	91.030	-0.280	-0.310
-441.807	-13.339	0.098	0.063
-440.792	-200.000	0.037	-0.215
-439.778	-59.080	0.117	-0.050
-438.763	-159.151	-0.193	0.011
-437.749	238.084	-0.046	0.075
-436.734	-7.480	-0.571	-0.381
-435.719	269.022	0.274	0.475
-434.705	-188.498	-0.415	-0.005
-433.690	500.559	-0.072	0.165
-432.676	-200.000	-0.015	-0.112
-431.661	299.428	-0.096	-0.174
-430.646	-2.178	-0.380	-0.263
-429.632	-66.135	0.142	0.056
-428.617	800.000	0.012	0.044
-427.603	462.449	-0.144	-0.317
-426.588	-6.092	-0.139	0.094
-425.573	373.347	0.227	0.455
-424.559	43.227	-0.244	0.220
-423.544	-68.981	0.248	0.094
-422.530	87.505	-0.113	-0.124
-421.515	-200.000	0.109	-0.571
-420.500	116.470	0.018	0.022
-419.486	398.495	-0.125	0.257
-418.471	21.716	-0.141	-0.113
-417.457	170.474	-0.093	0.132
-416.442	-29.869	-0.238	0.134
-415.428	-200.000	-0.016	-0.240
-414.413	569.639	-0.139	0.334
-413.398	-142.973	0.297	-0.028
-412.384	-200.000	0.067	-0.335
-411.369	-110.126	0.371	-0.076
-410.355	654.638	-0.102	-0.258
-409.340	-50.712	-0.277	0.129
-408.325	-36.299	0.196	-0.104
-407.311	-149.638	-0.224	0.017
-406.296	136.660	-0.103	0.132
-405.282	-200.000	0.026	0.153
-404.267	51.175	0.423	-0.395
-403.252	26.190	0.302	0.249
-402.238	800.000	-0.089	-0.245
-401.223	-177.218	-0.221	-0.005
-400.209	-130.412	-0.149	-0.020
-399.194	-154.893	0.122	-0.008
-398.179	46.358	0.153	0.140
-397.165	800.000	-0.069	-0.234
-396.150	800.000	-0.070	-0.194
-395.136	63.868	0.198	-0.196
-394.121	224.225	0.074	0.117
-393.106	-146.952	-0.099	0.008
-392.092	-52.507	-0.056	-0.025
-391.077	800.000	0.044	0.161
-390.063	-82.997	-0.237	-0.075
-389.048	-138.248	0.384	0.042
-388.033	800.000	-0.074	-0.209
-387.019	-73.158	0.193	0.070
-386.004	435.891	-0.022	-0.046
-384.990	-53.791	0.207	-0.093
-383.975	-200.000	0.045	0.263
-382.960	-66.813	0.389	-0.151
-381.946	121.840	0.390	-0.479
-380.931	-81.266	-0.271	0.088
-379.917	800.000	0.059	0.246
-378.902	800.000	-0.079	0.315
-377.888	-143.745	0.305	0.028
-376.873	800.000	0.021	-0.076
-375.858	23.165	0.205	0.166
-374.844	-107.099	-0.322	-0.070
-373.829	-5.323	0.258	0.174
-372.815	-87.079	0.212	0.063
-371.800	416.743	-0.089	-0.188
-370.785	-50.944	0.204	-0.094
-369.771	242.719	0.055	0.091
-368.756	348.637	0.101	-0.195
-367.742	-132.555	-0.276	-0.035
-366.727	-71.972	0.475	0.174
-365.712	180.711	0.121	0.175
-364.698	-81.034	0.158	0.052
-363.683	155.478	-0.171	-0.232
-362.669	-69.547	-0.291	0.110
-361.654	317.981	0.156	0.290
-360.639	800.000	-0.092	0.276
-359.625	-200.000	-0.035	-0.381
-358.610	-68.635	-0.103	0.039
-357.596	-42.629	-0.163	0.082
-356.581	28.429	-0.164	-0.136
-355.566	-97.372	0.166	0.042
-354.552	-200.000	-0.062	0.330
-353.537	684.625	-0.113	0.291
-352.523	800.000	0.093	-0.349
-351.508	-126.776	-0.451	-0.065
-350.493	800.000	0.042	0.152
-349.479	-200.000	0.025	0.322
-348.464	51.161	-0.205	-0.192
-347.450	-73.448	0.201	0.072
-346.435	-200.000	-0.037	0.171
-345.420	-102.498	-0.044	-0.010
-344.406	800.000	-0.146	-0.417
-343.391	180.186	-0.145	0.209
-342.377	-200.000	-0.049	0.242
-341.362	-117.432	-0.295	0.053
-340.348	-11.100	0.370	0.240
-339.333	-58.329	0.166	-0.071
-338.318	343.643	0.119	-0.229
-337.304	-50.503	-0.372	0.173
-336.289	-200.000	0.018	0.093
-335.275	2.318	-0.200	0.142
-334.260	-88.790	0.101	-0.030
-333.245	221.085	0.122	-0.192
-332.231	15.130	0.196	-0.151
-331.216	221.981	-0.134	0.212
-330.202	74.641	0.096	-0.099
-329.187	400.985	-0.173	-0.357
-328.172	722.546	-0.140	0.366
-327.158	-200.000	0.009	0.190
-326.143	2.834	-0.197	0.140
-325.129	361.836	0.044	0.087
-324.114	-5.979	0.114	0.076
-323.099	-88.206	-0.181	-0.053
-322.085	107.408	-0.064	-0.075
-321.070	-12.156	0.256	-0.165
-320.056	584.689	-0.023	-0.055
-319.041	394.344	-0.124	-0.254
-318.026	17.987	-0.065	0.051
-317.012	-28.824	0.405	-0.229
-315.997	-142.449	0.202	-0.020
-314.983	-69.282	-0.178	0.067
-313.968	-11.753	0.307	-0.198
-312.953	-20.709	-0.041	0.025
-311.939	155.986	0.133	-0.180
-310.924	-200.000	0.018	0.217
-309.910	112.963	-0.065	0.077
-308.895	52.472	0.062	-0.058
-307.880	159.990	-0.033	0.045
-306.866	11.406	-0.139	0.105
-305.851	800.000	-0.031	0.091
-304.837	54.260	0.184	0.173
-303.822	218.477	0.092	-0.145
-302.807	-53.955	-0.135	-0.060
-301.793	-17.109	0.073	0.045
-300.778	125.013	-0.128	0.158
-299.764	119.383	0.159	-0.194
-298.749	12.539	0.067	-0.050
-297.735	-106.731	0.030	-0.006
-296.720	262.086	0.108	-0.183
-295.705	-65.780	0.207	0.081
-294.691	-200.000	0.029	0.149
-293.676	-25.677	-0.313	-0.181
-292.662	-82.490	0.390	0.124
-291.647	57.221	-0.250	0.239
-290.632	74.834	0.076	0.078
-289.618	282.369	0.156	-0.274
-288.603	179.040	-0.129	0.186
-287.589	-200.000	-0.020	0.104
-286.574	-59.387	0.193	0.081
-285.559	231.078	0.118	0.190
-284.545	293.802	-0.147	0.264
-283.530	-29.422	-0.151	-0.085
-282.516	744.665	-0.060	-0.159
-281.501	-200.000	0.009	-0.075
-280.486	-77.227	-0.184	-0.063
-279.472	-108.820	-0.171	-0.036
-278.457	-200.000	-0.059	0.376
-277.443	145.517	0.087	-0.114
-276.428	800.000	-0.024	-0.074
-275.413	-200.000	0.002	-0.299
-274.399	110.053	-0.148	0.174
-273.384	-74.622	-0.084	-0.030
-272.370	-148.377	0.137	0.011
-271.355	158.274	-0.225	0.305
-270.340	154.870	-0.098	-0.132
-269.326	-40.207	0.232	-0.118
-268.311	800.000	-0.095	0.289
-267.297	-200.000	-0.002	0.074
-266.282	553.783	0.044	0.103
-265.267	-151.216	-0.365	-0.027
-264.253	224.009	0.270	0.428
-263.238	-33.080	0.414	0.225
-262.224	-23.667	0.176	0.103
-261.209	7.903	-0.126	-0.092
-260.195	-20.376	-0.143	-0.086
-259.180	800.000	0.048	-0.155
-258.165	17.727	-0.122	0.095
-257.151	-54.405	-0.261	0.116
-256.136	261.844	0.046	-0.077
-255.122	-62.910	-0.175	-0.071
-254.107	-138.572	-0.176	0.019
-253.092	-168.123	0.239	0.009
-252.078	42.406	-0.117	-0.104
-251.063	-200.000	-0.063	0.358
-250.049	44.929	0.206	-0.186
-249.034	401.529	-0.036	-0.074
-248.019	494.860	-0.059	-0.134
-247.005	-116.351	-0.266	0.048
-245.990	-142.959	0.327	0.031
-244.976	-108.882	-0.323	0.068
-243.961	-22.293	-0.082	-0.049
-242.946	-115.093	0.279	0.052
-241.932	800.000	0.018	-0.073
-240.917	171.585	-0.039	0.056
-239.903	85.206	0.311	-0.334
-238.888	547.125	0.055	0.130
-237.873	-126.057	0.308	-0.045
-236.859	145.657	-0.057	-0.075
-235.844	-126.285	-0.287	-0.042
-234.830	-105.257	-0.055	0.012
-233.815	-161.807	-0.344	-0.017
-232.800	-35.771	0.165	-0.087
-231.786	800.000	-0.111	0.341
-230.771	-75.072	0.113	0.040
-229.757	-38.478	0.271	0.140
-228.742	800.000	-0.042	-0.126
-227.727	546.770	0.104	0.243
-226.713	567.818	-0.015	-0.035
-225.698	-172.634	0.056	0.002
-224.684	177.371	-0.164	0.234
-223.669	-200.000	0.079	0.376
-222.655	113.793	-0.256	0.305
-221.640	258.574	0.033	-0.056
-220.625	-71.836	0.290	0.106
-219.611	-61.188	-0.179	-0.074
-218.596	-200.000	0.009	0.108
-217.582	-43.835	0.202	0.100
-216.567	-61.886	-0.069	0.028
-215.552	-98.044	0.190	-0.048
-214.538	-48.510	-0.161	0.076
-213.523	-200.000	-0.072	-0.350
-212.509	147.999	-0.161	-0.213
-211.494	471.267	0.066	0.145
-210.479	-200.000	0.008	-0.061
-209.465	76.048	0.187	0.193
-208.450	-200.000	-0.057	0.325
-207.436	800.000	-0.111	0.413
-206.421	76.411	0.220	0.228
-205.406	-35.914	-0.162	-0.086
-204.392	-51.024	-0.277	0.127
-203.377	380.130	0.137	0.275
-202.363	617.499	-0.105	-0.257
-201.348	-22.697	0.140	-0.083
-200.333	-169.631	-0.357	-0.013
-199.319	-136.226	0.236	0.027
-198.304	769.720	0.128	0.340
-197.290	-3.405	0.115	0.078
-196.275	166.012	-0.237	0.328
-195.260	11.883	-0.065	-0.049
-194.246	-200.000	0.028	-0.179
-193.231	-200.000	-0.036	0.175
-192.217	-200.000	-0.007	-0.429
-191.202	3.913	0.183	-0.131
-190.187	-60.179	-0.246	-0.102
-189.173	553.309	0.081	-0.190
-188.158	-45.805	-0.096	0.046
-187.144	-121.634	0.200	0.032
-186.129	52.493	-0.313	-0.292
-185.114	-200.000	-0.056	0.382
-184.100	-47.831	-0.195	-0.092
-183.085	401.913	-0.095	-0.196
-182.071	87.628	0.201	0.217
-181.056	-69.293	0.078	0.029
-180.042	-200.000	-0.051	-0.266
-179.027	-16.073	-0.302	-0.188
-178.012	8.469	0.233	-0.171
-176.998	-51.948	0.110	-0.050
-175.983	145.070	0.155	-0.203
-174.969	800.000	0.031	-0.126
-173.954	-69.354	0.278	0.104
-172.939	534.627	-0.101	-0.233
-171.925	36.087	0.170	0.146
-170.910	528.039	0.076	-0.176
-169.896	50.391	0.214	-0.198
-168.881	800.000	-0.110	0.325
-167.866	14.433	-0.109	-0.083
-166.852	55.770	0.363	-0.344
-165.837	800.000	0.026	0.110
-164.823	43.012	0.188	-0.168
-163.808	-8.216	-0.155	0.102
-162.793	-30.614	0.172	0.095
-161.779	83.789	-0.185	-0.197
-160.764	59.216	0.184	0.176
-159.750	-41.702	-0.035	0.018
-158.735	78.176	0.121	0.126
-157.720	-87.955	-0.237	-0.070
-156.706	-43.985	-0.199	0.098
-155.691	-38.108	-0.111	-0.057
-154.677	-84.124	0.404	0.125
-153.662	-36.918	0.166	-0.087
-152.647	800.000	-0.098	-0.301
-151.633	-133.174	-0.166	-0.021
-150.618	-30.070	0.069	0.038
-149.604	253.739	0.149	-0.249
-148.589	-200.000	-0.000	-0.028
-147.574	-175.552	0.087	-0.002
-146.560	16.535	-0.237	-0.183
-145.545	-66.617	-0.285	-0.110
-144.531	71.337	0.239	0.242
-143.516	-124.727	0.398	0.060
-142.502	-29.024	-0.423	0.237
-141.487	572.727	-0.038	-0.091
-140.472	-80.608	-0.345	-0.112
-139.458	800.000	0.086	-0.255
-138.443	-57.545	0.203	0.087
-137.429	-200.000	-0.020	0.115
-136.414	-154.815	-0.089	0.006
-135.399	-200.000	-0.011	0.325
-134.385	-67.998	0.098	-0.037
-133.370	-145.898	-0.090	0.008
-132.356	-200.000	0.001	-0.204
-131.341	-86.935	-0.027	-0.008
-130.326	800.000	-0.050	-0.137
-129.312	-200.000	0.028	0.134
-128.297	-200.000	-0.015	0.199
-127.283	-52.632	-0.152	-0.068
-126.268	-200.000	-0.006	0.156
-125.253	105.877	0.159	-0.184
-124.239	-200.000	-0.037	-0.227
-123.224	-93.829	0.239	-0.064
-122.210	800.000	-0.056	0.208
-121.195	-24.649	0.356	0.206
