DTS Sentinel unit serial number:	SN413079Multiplexer serial number:	ORYXHardware model number:	OX4-SRSoftware version number:	ORYX F/W v4.00 Oryx Data Collector v3.7.2.0data status	okinstallation	princeton_trtdifferential loss correction	single-endedforward channel	channel 2reverse channel	N/Adate	2019/09/15time	19:03:35forward acquisition time	60.00reverse acquisition time	0.00gamma	496.2192k internal	0.2298k external	0.2298temperature offset calibration	0.9927default loss term (dB/km)	0.3790temperature slope calibration	1.0000multiplexer offset coefficient	1.0000multiplexer slope coefficient	1.0000fibre end	0.00T internal ref (°C)	41.78T ext. ref 1 (°C)	7.05T ext. ref 2 (°C)	31.22length (m)	temperature (°C)	Stokes	anti-Stokes-747.200	472.246	-0.100	0.230
-746.185	403.633	-0.233	0.501
-745.171	141.453	-0.129	0.175
-744.156	15.669	-0.147	0.118
-743.142	800.000	-0.098	-0.351
-742.127	-73.146	-0.224	-0.084
-741.112	-141.045	0.073	0.008
-740.098	-200.000	-0.004	-0.029
-739.083	800.000	-0.058	-0.177
-738.069	36.006	-0.251	-0.225
-737.054	496.045	-0.053	0.124
-736.039	297.596	0.040	0.074
-735.025	655.986	-0.090	-0.236
-734.010	41.774	-0.148	-0.137
-732.996	116.170	-0.203	-0.254
-731.981	180.860	0.082	0.123
-730.966	32.948	0.100	0.088
-729.952	17.755	-0.101	-0.082
-728.937	166.913	-0.045	0.065
-727.923	-114.895	0.220	0.043
-726.908	20.347	-0.106	-0.088
-725.894	-147.137	-0.271	-0.024
-724.879	124.134	-0.200	-0.256
-723.864	-62.415	0.336	0.143
-722.850	-20.301	-0.106	-0.067
-721.835	-65.177	0.281	-0.116
-720.821	-46.811	-0.289	-0.144
-719.806	800.000	-0.085	0.300
-718.791	800.000	-0.086	0.253
-717.777	91.308	0.115	-0.132
-716.762	-200.000	-0.029	-0.220
-715.748	-22.710	-0.043	0.027
-714.733	580.183	0.064	-0.159
-713.718	-115.828	0.599	0.114
-712.704	-22.045	0.032	-0.020
-711.689	-38.318	0.134	0.073
-710.675	-107.981	-0.211	0.047
-709.660	-56.091	0.144	0.065
-708.645	249.128	0.121	0.208
-707.631	157.731	0.143	0.202
-706.616	800.000	-0.087	0.273
-705.602	244.928	0.160	-0.274
-704.587	-189.989	-0.279	-0.003
-703.572	-150.488	-0.107	0.008
-702.558	800.000	0.065	-0.259
-701.543	104.923	0.103	0.124
-700.529	-32.306	0.183	0.104
-699.514	800.000	-0.057	-0.253
-698.499	-132.457	-0.157	0.021
-697.485	-163.972	0.081	-0.004
-696.470	-152.516	-0.186	0.014
-695.456	-177.895	-0.154	0.004
-694.441	-10.859	0.218	0.147
-693.426	27.941	0.136	-0.117
-692.412	-200.000	0.006	-0.050
-691.397	384.647	-0.072	0.151
-690.383	-200.000	-0.008	-0.281
-689.368	114.852	-0.010	0.013
-688.354	203.185	0.056	0.088
-687.339	81.268	-0.085	-0.093
-686.324	269.374	0.099	0.176
-685.310	301.433	0.054	-0.101
-684.295	107.429	-0.271	-0.329
-683.281	800.000	-0.057	-0.161
-682.266	-81.856	-0.194	0.065
-681.251	5.144	-0.089	0.067
-680.237	-122.679	0.560	0.092
-679.222	292.697	0.207	0.384
-678.208	-200.000	0.006	-0.104
-677.193	800.000	-0.076	0.239
-676.178	-200.000	-0.010	-0.126
-675.164	26.229	-0.249	-0.212
-674.149	7.389	0.102	-0.077
-673.135	-200.000	-0.046	-0.516
-672.120	-200.000	0.018	0.250
-671.105	103.952	-0.055	-0.065
-670.091	312.530	0.048	0.092
-669.076	-200.000	-0.003	0.491
-668.062	27.008	-0.233	0.199
-667.047	0.305	0.266	0.193
-666.032	-42.428	-0.202	0.105
-665.018	481.841	-0.126	0.292
-664.003	776.507	0.081	0.225
-662.989	-149.739	0.321	-0.026
-661.974	37.143	0.020	0.018
-660.959	-109.843	0.451	-0.096
-659.945	727.663	0.065	-0.176
-658.930	570.330	-0.136	0.337
-657.916	-157.671	0.070	0.004
-656.901	62.090	-0.125	-0.127
-655.886	-178.277	-0.265	-0.006
-654.872	-57.822	0.114	0.051
-653.857	409.187	-0.052	-0.112
-652.843	-61.189	-0.223	-0.096
-651.828	93.965	-0.240	-0.276
-650.814	-6.949	0.249	-0.172
-649.799	209.146	-0.045	-0.072
-648.784	-200.000	-0.074	0.331
-647.770	800.000	0.091	0.288
-646.755	146.321	0.209	-0.286
-645.741	1.161	0.142	0.104
-644.726	-200.000	0.004	-0.045
-643.711	459.569	-0.079	-0.179
-642.697	-145.475	-0.142	0.013
-641.682	38.354	-0.126	-0.114
-640.668	14.649	0.168	0.133
-639.653	-134.772	-0.203	-0.025
-638.638	-86.576	-0.256	0.080
-637.624	-172.586	0.327	0.010
-636.609	133.413	0.085	0.111
-635.595	102.650	0.190	0.226
-634.580	57.232	-0.159	-0.157
-633.565	53.972	-0.063	-0.062
-632.551	122.298	-0.130	0.166
-631.536	-179.291	-0.129	0.003
-630.522	-130.573	0.162	0.022
-629.507	-63.850	0.092	-0.038
-628.492	8.036	0.096	0.073
-627.478	50.089	0.011	-0.011
-626.463	-27.148	0.073	0.043
-625.449	42.786	-0.153	0.142
-624.434	-200.000	0.040	0.177
-623.419	-77.541	0.452	-0.159
-622.405	550.715	0.185	-0.451
-621.390	-93.179	0.024	-0.007
-620.376	-32.558	-0.271	-0.153
-619.361	-39.513	0.260	-0.138
-618.346	800.000	-0.045	0.128
-617.332	187.414	-0.098	-0.148
-616.317	-200.000	0.050	-0.269
-615.303	-79.059	0.305	-0.105
-614.288	-52.577	0.036	0.017
-613.273	199.570	-0.098	0.153
-612.259	-112.176	-0.388	0.079
-611.244	-36.048	-0.221	-0.121
-610.230	-108.459	0.253	-0.055
-609.215	-102.891	-0.069	-0.017
-608.201	11.816	0.092	-0.072
-607.186	800.000	0.084	-0.281
-606.171	266.427	-0.116	-0.205
-605.157	-56.046	0.124	-0.056
-604.142	277.333	0.115	-0.207
-603.128	26.329	-0.272	0.231
-602.113	800.000	-0.039	-0.136
-601.098	-85.217	-0.159	-0.051
-600.084	800.000	-0.073	-0.270
-599.069	25.643	0.190	-0.160
-598.055	-47.027	-0.149	0.074
-597.040	-44.497	-0.201	0.102
-596.025	-94.397	0.369	0.102
-595.011	115.787	0.122	-0.151
-593.996	-200.000	-0.015	-0.093
-592.982	-19.702	0.069	0.044
-591.967	-47.364	-0.274	0.135
-590.952	-38.291	0.179	-0.096
-589.938	800.000	-0.006	0.024
-588.923	193.024	-0.038	-0.058
-587.909	-118.393	0.069	0.012
-586.894	62.545	0.216	-0.219
-585.879	-7.877	0.240	0.164
-584.865	182.789	-0.047	-0.070
-583.850	-94.040	-0.277	-0.077
-582.836	91.932	-0.167	-0.191
-581.821	135.566	-0.172	-0.228
-580.806	-200.000	0.051	-0.260
-579.792	-127.643	-0.141	0.021
-578.777	-104.221	-0.278	0.065
-577.763	-56.674	-0.192	-0.086
-576.748	66.076	-0.026	0.027
-575.733	-200.000	-0.051	-0.270
-574.719	800.000	0.129	0.470
-573.704	259.063	0.074	-0.129
-572.690	800.000	-0.044	-0.182
-571.675	15.290	0.008	0.006
-570.661	273.525	-0.086	0.154
-569.646	-132.078	-0.511	-0.067
-568.631	660.727	-0.112	-0.293
-567.617	-131.465	-0.150	0.020
-566.602	43.317	0.114	-0.106
-565.588	362.712	-0.080	0.164
-564.573	111.944	0.191	0.233
-563.558	613.357	0.025	-0.064
-562.544	-200.000	-0.011	-0.169
-561.529	-200.000	-0.013	0.120
-560.515	-200.000	0.001	-0.167
-559.500	36.065	-0.190	-0.169
-558.485	-25.004	0.242	-0.146
-557.471	-98.937	-0.079	0.020
-556.456	-200.000	-0.048	-0.237
-555.442	-94.662	0.288	0.079
-554.427	328.510	0.101	0.197
-553.412	-56.791	-0.130	0.058
-552.398	-200.000	-0.070	0.349
-551.383	115.474	0.306	0.379
-550.369	58.049	0.116	0.115
-549.354	-123.412	-0.427	0.069
-548.339	40.576	-0.200	-0.183
-547.325	-18.568	0.254	0.160
-546.310	14.202	0.064	-0.050
-545.296	-1.578	-0.166	0.119
-544.281	94.161	-0.122	-0.140
-543.266	-120.408	-0.220	0.038
-542.252	-33.740	-0.230	0.128
-541.237	-92.287	-0.161	-0.046
-540.223	-105.491	0.168	0.039
-539.208	-86.149	0.210	-0.066
-538.193	-200.000	0.030	-0.268
-537.179	13.163	0.159	-0.125
-536.164	-29.372	0.317	0.183
-535.150	445.016	0.063	-0.141
-534.135	124.254	-0.129	0.164
-533.121	-34.464	-0.239	-0.132
-532.106	224.028	0.045	-0.073
-531.091	588.405	-0.029	0.073
-530.077	128.325	0.050	-0.064
-529.062	800.000	0.031	-0.095
-528.048	56.648	-0.166	0.164
-527.033	-83.399	-0.219	-0.071
-526.018	-200.000	-0.032	0.227
-525.004	-68.410	-0.137	0.054
-523.989	-200.000	-0.054	0.314
-522.975	59.725	-0.292	-0.292
-521.960	193.816	0.142	-0.217
-520.945	19.162	-0.151	-0.122
-519.931	38.271	0.276	-0.249
-518.916	59.685	-0.198	0.197
-517.902	199.853	0.147	0.228
-516.887	-142.256	-0.491	-0.049
-515.872	283.108	0.037	0.067
-514.858	800.000	-0.018	-0.076
-513.843	-123.394	0.131	-0.021
-512.829	97.091	0.177	0.205
-511.814	-114.806	-0.191	-0.037
-510.799	22.380	0.297	0.245
-509.785	800.000	-0.052	0.169
-508.770	89.360	0.109	-0.123
-507.756	-200.000	0.007	0.048
-506.741	548.443	-0.086	-0.209
-505.726	-200.000	-0.027	-0.222
-504.712	792.673	-0.133	-0.369
-503.697	107.198	-0.232	0.279
-502.683	-132.119	-0.156	0.021
-501.668	800.000	-0.013	-0.043
-500.653	-127.843	-0.241	-0.035
-499.639	-116.652	0.089	0.017
-498.624	-200.000	-0.044	-0.296
-497.610	4.024	-0.209	0.155
-496.595	800.000	-0.042	0.151
-495.581	800.000	0.027	0.105
-494.566	425.925	0.092	0.201
-493.551	-127.256	-0.255	-0.038
-492.537	3.726	0.079	0.059
-491.522	63.296	-0.182	-0.184
-490.508	-200.000	0.052	-0.291
-489.493	50.292	0.168	-0.161
-488.478	800.000	-0.084	0.248
-487.464	-200.000	-0.007	0.329
-486.449	95.365	0.336	0.387
-485.435	1.934	-0.170	0.124
-484.420	70.354	-0.160	0.167
-483.405	-200.000	0.023	0.167
-482.391	129.248	0.151	0.195
-481.376	393.959	-0.076	-0.159
-480.362	-85.735	0.156	0.049
-479.347	494.073	0.101	0.235
-478.332	338.606	0.087	0.171
-477.318	11.957	-0.278	0.216
-476.303	-112.509	0.128	0.026
-475.289	198.562	-0.285	-0.440
-474.274	295.130	0.135	-0.249
-473.259	-110.203	0.151	0.032
-472.245	-200.000	-0.074	-0.395
-471.230	-13.556	0.166	-0.109
-470.216	-75.742	0.354	0.127
-469.201	-200.000	-0.014	0.445
-468.186	-73.480	0.182	-0.067
-467.172	-18.266	0.282	0.178
-466.157	-200.000	0.018	0.140
-465.143	-92.442	0.116	-0.033
-464.128	-5.686	-0.178	0.123
-463.113	-41.378	-0.338	0.176
-462.099	-200.000	0.004	0.028
-461.084	800.000	0.021	-0.065
-460.070	733.619	0.086	0.231
-459.055	800.000	-0.087	-0.254
-458.040	6.401	0.081	-0.061
-457.026	-124.537	-0.109	-0.017
-456.011	-200.000	0.034	-0.276
-454.997	611.710	0.108	-0.273
-453.982	177.380	0.095	0.140
-452.968	588.543	-0.073	0.181
-451.953	53.380	-0.075	0.072
-450.938	121.384	0.036	0.045
-449.924	595.348	0.151	-0.378
-448.909	800.000	0.031	-0.094
-447.895	-21.439	-0.092	0.056
-446.880	-46.956	-0.264	0.130
-445.865	305.588	0.202	0.379
-444.851	554.276	-0.046	-0.112
-443.836	-84.609	0.171	-0.054
-442.822	-26.781	-0.260	0.154
-441.807	293.620	0.199	0.367
-440.792	547.135	-0.056	-0.134
-439.778	333.754	-0.259	-0.506
-438.763	-200.000	0.060	-0.299
-437.749	305.859	-0.155	0.291
-436.734	49.097	-0.113	0.107
-435.719	-63.581	-0.134	0.055
-434.705	-119.485	-0.137	-0.024
-433.690	-200.000	0.029	-0.148
-432.676	121.818	0.280	-0.352
-431.661	225.561	0.075	-0.123
-430.646	-152.974	-0.220	0.016
-429.632	284.298	0.100	-0.181
-428.617	-63.496	-0.198	-0.082
-427.603	37.374	-0.132	-0.118
-426.588	-170.567	0.375	0.013
-425.573	374.888	0.127	-0.261
-424.559	314.825	0.141	-0.268
-423.544	122.142	0.030	0.038
-422.530	111.649	0.109	-0.133
-421.515	465.525	0.106	-0.240
-420.500	800.000	-0.057	-0.240
-419.486	-49.754	0.229	-0.110
-418.471	388.994	0.149	0.311
-417.457	-106.460	0.116	0.026
-416.442	47.276	0.090	0.084
-415.428	800.000	-0.030	-0.090
-414.413	-142.594	0.175	-0.017
-413.398	-200.000	-0.016	0.286
-412.384	-52.809	-0.157	-0.073
-411.369	-200.000	-0.032	0.525
-410.355	96.513	-0.090	-0.104
-409.340	485.048	-0.077	-0.177
-408.325	-83.466	-0.069	0.022
-407.311	-165.831	-0.298	-0.013
-406.296	-200.000	0.030	0.389
-405.282	800.000	-0.032	-0.096
-404.267	-200.000	0.038	-0.206
-403.252	276.387	0.043	0.077
-402.238	-104.195	-0.182	0.043
-401.223	237.109	-0.232	-0.386
-400.209	-43.588	-0.255	-0.129
-399.194	260.308	-0.057	0.099
-398.179	323.845	0.212	0.407
-397.165	800.000	0.101	0.331
-396.150	72.751	0.058	-0.061
-395.136	-124.882	0.089	-0.014
-394.121	-50.079	-0.275	0.131
-393.106	800.000	0.078	0.318
-392.092	343.087	0.120	0.236
-391.077	-200.000	-0.021	0.139
-390.063	93.679	0.182	-0.207
-389.048	195.701	0.169	0.258
-388.033	489.704	0.135	-0.310
-387.019	-200.000	0.009	0.149
-386.004	800.000	0.019	0.073
-384.990	-126.951	0.202	0.030
-383.975	-26.973	0.174	-0.102
-382.960	11.923	0.424	0.328
-381.946	800.000	0.066	0.233
-380.931	119.637	-0.140	-0.174
-379.917	-200.000	0.002	-0.193
-378.902	11.584	0.061	0.047
-377.888	-200.000	-0.021	-0.140
-376.873	-169.584	0.249	0.009
-375.858	-53.541	-0.171	0.079
-374.844	800.000	-0.057	0.184
-373.829	17.058	0.247	-0.197
-372.815	800.000	0.016	0.055
-371.800	750.730	0.060	-0.163
-370.785	124.040	-0.185	0.234
-369.771	-29.813	0.029	0.016
-368.756	-87.715	-0.393	0.119
-367.742	-136.643	0.220	0.026
-366.727	-17.060	0.183	0.116
-365.712	-200.000	-0.045	0.317
-364.698	47.487	-0.216	-0.202
-363.683	-200.000	0.075	-0.393
-362.669	-83.154	0.061	-0.020
-361.654	-11.237	-0.315	-0.208
-360.639	11.446	0.092	0.071
-359.625	-200.000	0.064	-0.520
-358.610	-78.311	0.109	-0.038
-357.596	-200.000	-0.038	-0.362
-356.581	307.667	0.217	0.408
-355.566	-51.669	0.334	-0.157
-354.552	243.449	0.208	-0.350
-353.537	-76.361	-0.075	-0.027
-352.523	-50.832	-0.171	-0.081
-351.508	-122.752	0.159	-0.026
-350.493	24.110	-0.117	0.097
-349.479	-132.799	0.598	-0.077
-348.464	65.134	0.141	0.143
-347.450	67.060	-0.371	-0.380
-346.435	-200.000	0.035	0.157
-345.420	-81.561	-0.244	0.081
-344.406	-78.910	-0.347	0.119
-343.391	-49.862	0.099	-0.047
-342.377	-78.462	-0.300	-0.103
-341.362	-105.409	0.105	0.024
-340.348	239.111	0.073	-0.122
-339.333	367.782	0.036	0.073
-338.318	800.000	-0.132	0.547
-337.304	-200.000	-0.068	0.365
-336.289	385.418	0.153	-0.317
-335.275	-64.667	-0.570	0.232
-334.260	-82.598	0.153	-0.050
-333.245	-200.000	0.014	0.217
-332.231	-174.992	0.181	0.005
-331.216	-9.398	-0.087	-0.058
-330.202	-200.000	0.012	0.112
-329.187	800.000	-0.059	0.165
-328.172	-33.780	-0.132	0.073
-327.158	-178.474	-0.252	-0.006
-326.143	800.000	0.029	-0.093
-325.129	-145.482	0.202	-0.018
-324.114	22.333	0.061	0.050
-323.099	100.976	-0.192	0.225
-322.085	-106.375	0.191	-0.043
-321.070	-187.506	0.393	0.005
-320.056	-162.446	-0.162	0.008
-319.041	-24.596	0.199	-0.119
-318.026	324.044	0.113	0.216
-317.012	-124.064	0.131	0.021
-315.997	-32.349	0.227	0.127
-314.983	267.867	0.189	0.333
-313.968	63.491	0.092	-0.093
-312.953	-186.073	-0.267	-0.004
-311.939	-172.562	-0.175	0.006
-310.924	-200.000	0.000	-0.045
-309.910	-83.013	-0.054	0.018
-308.895	-99.385	-0.241	-0.061
-307.880	800.000	0.023	-0.078
-306.866	-157.755	-0.181	0.011
-305.851	197.354	0.034	0.052
-304.837	578.996	-0.120	0.295
-303.822	-200.000	-0.024	-0.120
-302.807	-174.522	-0.080	-0.002
-301.793	-200.000	-0.028	0.190
-300.778	-200.000	-0.016	-0.072
-299.764	27.262	-0.073	-0.062
-298.749	800.000	-0.084	-0.256
-297.735	-200.000	0.000	0.068
-296.720	104.959	0.179	-0.211
-295.705	-200.000	0.006	-0.082
-294.691	-95.551	-0.070	-0.019
-293.676	-200.000	0.014	-0.538
-292.662	468.666	-0.035	0.078
-291.647	-200.000	0.025	-0.233
-290.632	-200.000	-0.026	0.198
-289.618	57.731	-0.195	0.191
-288.603	131.023	-0.055	-0.071
-287.589	236.347	-0.128	0.213
-286.574	762.737	0.039	0.105
-285.559	-19.074	-0.107	-0.067
-284.545	-200.000	0.031	0.266
-283.530	21.410	-0.085	0.070
-282.516	447.447	0.036	-0.080
-281.501	-56.460	-0.236	0.105
-280.486	-106.794	0.101	-0.022
-279.472	800.000	0.073	-0.248
-278.457	108.519	-0.328	0.392
-277.443	283.686	0.157	0.283
-276.428	-135.704	-0.052	0.006
-275.413	328.116	0.111	-0.214
-274.399	229.618	-0.009	0.014
-273.384	45.367	-0.049	-0.045
-272.370	-87.097	0.171	0.052
-271.355	45.904	0.236	0.219
-270.340	494.196	0.085	-0.195
-269.326	3.957	-0.177	0.130
-268.311	494.821	-0.051	0.118
-267.297	6.563	0.148	-0.110
-266.282	-200.000	0.032	-0.172
-265.267	91.181	0.222	-0.249
-264.253	-200.000	-0.007	0.105
-263.238	-200.000	0.035	-0.437
-262.224	93.449	-0.220	-0.250
-261.209	-200.000	0.021	0.127
-260.195	800.000	0.162	-0.490
-259.180	800.000	-0.103	0.392
-258.165	-3.189	0.112	-0.078
-257.151	-160.994	-0.163	-0.009
-256.136	800.000	-0.103	0.419
-255.122	-18.800	0.149	-0.093
-254.107	209.122	0.067	0.105
-253.092	800.000	0.017	0.055
-252.078	-78.215	-0.227	-0.078
-251.063	80.332	0.302	0.325
-250.049	-200.000	0.153	0.000
-249.034	-58.583	0.445	-0.193
-248.019	559.294	-0.052	-0.126
-247.005	158.754	-0.121	-0.169
-245.990	63.861	-0.226	-0.228
-244.976	390.821	-0.181	0.376
-243.961	-109.736	0.342	-0.072
-242.946	120.525	-0.196	0.244
-241.932	-46.163	-0.237	-0.117
-240.917	800.000	0.043	-0.183
-239.903	-86.580	-0.312	0.096
-238.888	-60.011	-0.083	-0.035
-237.873	-77.171	0.243	0.085
-236.859	-99.789	0.191	0.048
-235.844	69.614	0.047	0.049
-234.830	-0.371	-0.168	0.120
-233.815	800.000	0.116	0.365
-232.800	-90.757	0.453	-0.131
-231.786	800.000	0.046	0.160
-230.771	91.865	0.161	-0.181
-229.757	82.774	-0.148	0.161
-228.742	312.095	0.153	0.288
-227.727	-16.076	-0.322	-0.204
-226.713	328.303	0.030	-0.057
-225.698	-77.153	0.235	0.082
-224.684	-200.000	-0.011	0.293
-223.669	-79.197	-0.093	-0.032
-222.655	98.414	-0.165	0.190
-221.640	-200.000	-0.054	0.256
-220.625	800.000	0.117	-0.421
-219.611	-89.570	-0.375	0.110
-218.596	-126.181	-0.158	0.024
-217.582	-200.000	0.018	0.400
-216.567	-200.000	-0.028	0.334
-215.552	231.797	0.110	-0.180
-214.538	150.888	-0.142	0.193
-213.523	5.135	0.276	0.203
-212.509	-6.163	-0.181	-0.123
-211.494	800.000	0.058	-0.244
-210.479	-200.000	-0.012	0.309
-209.465	-35.258	-0.182	-0.099
-208.450	-190.983	0.537	-0.006
-207.436	156.217	-0.202	0.278
-206.421	180.459	0.090	-0.132
-205.406	20.041	0.168	-0.135
-204.392	-200.000	-0.116	-0.559
-203.377	70.082	0.164	-0.170
-202.363	-78.731	0.302	0.103
-201.348	525.002	-0.149	0.351
-200.333	43.695	0.109	-0.099
-199.319	-98.319	0.587	-0.150
-198.304	-172.414	0.261	-0.008
-197.290	-108.981	0.191	-0.041
-196.275	-97.875	0.109	-0.028
-195.260	96.798	0.111	-0.127
-194.246	-53.421	-0.320	0.147
-193.231	15.259	-0.297	-0.233
-192.217	-43.047	0.184	-0.093
-191.202	800.000	-0.047	0.168
-190.187	138.941	-0.255	-0.334
-189.173	800.000	-0.138	0.381
-188.158	160.582	-0.156	0.217
-187.144	648.176	-0.117	0.298
-186.129	47.712	-0.242	-0.226
-185.114	161.874	0.021	0.030
-184.100	-67.448	-0.101	0.040
-183.085	207.101	-0.107	-0.167
-182.071	52.220	0.329	0.313
-181.056	-45.904	-0.117	0.057
-180.042	-187.791	0.025	0.000
-179.027	-55.466	0.035	0.016
-178.012	-27.986	0.169	-0.098
-176.998	800.000	-0.073	0.215
-175.983	33.246	-0.174	-0.151
-174.969	-200.000	-0.006	-0.131
-173.954	-200.000	-0.012	-0.233
-172.939	-200.000	-0.017	-0.159
-171.925	52.430	0.171	-0.163
-170.910	-200.000	0.019	0.131
-169.896	375.256	-0.189	-0.384
-168.881	-200.000	-0.006	0.207
-167.866	-63.053	-0.152	0.063
-166.852	-200.000	-0.024	-0.263
-165.837	28.800	0.026	0.022
-164.823	432.024	-0.059	-0.128
-163.808	267.068	-0.196	0.341
-162.793	-48.982	0.126	0.060
-161.779	-200.000	-0.008	-0.240
-160.764	261.885	0.058	0.100
-159.750	302.389	0.103	-0.190
-158.735	-118.407	0.162	0.029
-157.720	49.998	-0.348	-0.328
-156.706	-72.641	0.076	-0.028
-155.691	-101.336	0.276	0.067
-154.677	-137.316	0.132	-0.015
-153.662	-200.000	0.002	0.010
-152.647	311.199	0.150	0.280
-151.633	624.051	-0.107	-0.270
-150.618	123.235	0.109	-0.136
-149.604	-111.588	0.161	0.033
-148.589	125.311	0.183	0.230
-147.574	67.382	0.071	-0.072
-146.560	-200.000	0.025	-0.140
-145.545	800.000	-0.060	-0.246
-144.531	102.484	0.101	-0.118
-143.516	101.056	0.191	-0.221
-142.502	-30.423	0.368	0.208
-141.487	10.492	0.125	0.095
-140.472	134.824	-0.208	0.269
-139.458	800.000	0.022	-0.095
-138.443	19.173	0.241	-0.193
-137.429	257.548	0.202	0.346
-136.414	-200.000	-0.003	-0.034
-135.399	-15.846	-0.112	-0.071
-134.385	-98.917	0.327	0.083
-133.370	-12.026	-0.081	0.053
-132.356	-68.167	-0.285	0.110
-131.341	20.418	0.084	-0.067
-130.326	-28.289	0.234	-0.135
-129.312	800.000	-0.032	0.094
-128.297	800.000	-0.124	0.359
-127.283	-105.636	-0.099	0.022
-126.268	238.480	0.106	0.175
-125.253	-97.541	-0.130	-0.034
-124.239	-200.000	-0.010	-0.093
-123.224	88.364	0.223	0.247
-122.210	16.470	-0.238	-0.187
-121.195	661.150	0.166	0.425
-120.180	-13.561	0.238	-0.154
