DTS Sentinel unit serial number:	SN413079Multiplexer serial number:	ORYXHardware model number:	OX4-SRSoftware version number:	ORYX F/W v4.00 Oryx Data Collector v3.7.2.0data status	okinstallation	princeton_trtdifferential loss correction	single-endedforward channel	channel 2reverse channel	N/Adate	2019/09/13time	17:51:35forward acquisition time	60.00reverse acquisition time	0.00gamma	496.2192k internal	0.2317k external	0.2317temperature offset calibration	1.0217default loss term (dB/km)	0.3790temperature slope calibration	1.0000multiplexer offset coefficient	1.0000multiplexer slope coefficient	1.0000fibre end	0.00T internal ref (°C)	35.44T ext. ref 1 (°C)	5.00T ext. ref 2 (°C)	28.65length (m)	temperature (°C)	Stokes	anti-Stokes-747.200	-200.000	0.003	0.178
-746.185	800.000	-0.132	0.581
-745.171	122.725	0.172	0.218
-744.156	-35.045	0.123	0.068
-743.142	-176.177	0.248	0.007
-742.127	-97.788	-0.282	0.074
-741.112	3.626	0.158	-0.117
-740.098	-200.000	-0.069	0.412
-739.083	-125.187	0.189	0.029
-738.069	-200.000	-0.005	0.377
-737.054	-200.000	-0.029	0.254
-736.039	-199.699	-0.442	0.002
-735.025	-102.799	0.327	-0.079
-734.010	-200.000	0.095	-0.563
-732.996	-123.592	-0.133	-0.021
-731.981	-136.333	0.240	-0.028
-730.966	12.696	-0.102	0.080
-729.952	800.000	-0.038	-0.131
-728.937	174.402	-0.214	-0.313
-727.923	16.191	-0.125	-0.100
-726.908	116.490	0.319	-0.396
-725.894	-123.863	-0.010	0.002
-724.879	-12.892	0.236	-0.156
-723.864	-200.000	-0.004	-0.034
-722.850	437.031	-0.042	-0.093
-721.835	-61.442	-0.140	0.060
-720.821	800.000	0.050	-0.153
-719.806	800.000	-0.024	0.102
-718.791	-66.748	-0.319	0.128
-717.777	-200.000	-0.052	-0.248
-716.762	304.540	0.189	-0.355
-715.748	-136.902	0.276	-0.032
-714.733	149.700	-0.172	0.235
-713.718	-65.530	-0.196	0.080
-712.704	-40.709	0.110	-0.058
-711.689	800.000	-0.114	-0.350
-710.675	-176.965	0.452	-0.012
-709.660	-117.645	0.122	0.022
-708.645	-177.548	-0.154	-0.004
-707.631	35.540	0.145	0.129
-706.616	-200.000	-0.026	0.152
-705.602	-200.000	0.003	0.388
-704.587	393.194	-0.043	-0.091
-703.572	-149.812	-0.342	-0.027
-702.558	23.679	-0.215	0.179
-701.543	-200.000	0.000	0.000
-700.529	543.718	0.163	-0.393
-699.514	-200.000	0.033	-0.420
-698.499	-200.000	-0.010	0.140
-697.485	-200.000	-0.013	0.151
-696.470	800.000	-0.049	-0.211
-695.456	-103.793	0.295	-0.070
-694.441	-8.629	0.187	0.127
-693.426	-200.000	-0.034	0.281
-692.412	533.838	-0.178	0.427
-691.397	129.921	-0.040	0.051
-690.383	75.148	-0.079	-0.085
-689.368	192.975	0.139	0.213
-688.354	-74.478	0.190	0.069
-687.339	-26.854	-0.255	-0.150
-686.324	-200.000	-0.001	-0.109
-685.310	699.872	-0.049	0.130
-684.295	-200.000	0.002	0.061
-683.281	61.470	0.114	-0.114
-682.266	486.613	-0.259	0.597
-681.251	-109.933	-0.201	0.042
-680.237	800.000	0.032	0.121
-679.222	-87.717	-0.321	-0.098
-678.208	18.090	-0.099	-0.080
-677.193	-92.497	-0.060	-0.017
-676.178	-120.745	-0.264	-0.045
-675.164	-200.000	-0.031	-0.311
-674.149	-71.026	0.311	-0.118
-673.135	-85.160	-0.141	0.045
-672.120	50.854	-0.144	-0.138
-671.105	476.886	0.069	-0.159
-670.091	-200.000	0.055	-0.475
-669.076	42.820	-0.349	-0.321
-668.062	-135.470	0.388	0.047
-667.047	307.962	0.127	0.239
-666.032	12.276	-0.200	-0.155
-665.018	-147.655	0.286	0.024
-664.003	-159.650	-0.150	0.008
-662.989	11.561	-0.229	-0.178
-661.974	-200.000	-0.003	-0.182
-660.959	-106.475	-0.389	-0.088
-659.945	380.304	0.083	0.172
-658.930	-73.805	-0.137	-0.050
-657.916	-200.000	0.037	-0.198
-656.901	-200.000	-0.139	0.000
-655.886	-200.000	-0.069	-0.543
-654.872	-30.184	-0.207	0.118
-653.857	75.815	-0.158	0.168
-652.843	-125.409	-0.151	0.023
-651.828	-49.430	-0.199	0.096
-650.814	226.011	0.100	-0.164
-649.799	-123.502	-0.383	0.061
-648.784	122.125	0.169	-0.213
-647.770	143.227	-0.080	0.107
-646.755	-131.683	-0.127	-0.017
-645.741	800.000	0.019	-0.060
-644.726	800.000	-0.096	0.323
-643.711	51.062	0.153	0.146
-642.697	131.663	0.203	-0.263
-641.682	-2.069	0.115	0.082
-640.668	-200.000	-0.006	0.095
-639.653	-200.000	0.035	0.217
-638.638	266.408	0.155	-0.273
-637.624	800.000	0.039	-0.113
-636.609	727.793	0.047	-0.126
-635.595	31.244	-0.114	-0.098
-634.580	-200.000	-0.029	0.159
-633.565	529.741	-0.148	0.353
-632.551	246.407	0.069	-0.118
-631.536	-141.626	0.262	-0.027
-630.522	800.000	-0.053	-0.190
-629.507	-200.000	-0.020	0.144
-628.492	27.577	-0.190	-0.161
-627.478	800.000	-0.008	-0.033
-626.463	-85.832	0.116	-0.036
-625.449	800.000	0.077	0.233
-624.434	-32.202	-0.178	-0.100
-623.419	230.851	0.133	0.219
-622.405	421.849	0.103	0.222
-621.390	-90.981	-0.219	-0.063
-620.376	-42.010	0.103	-0.053
-619.361	-59.207	-0.158	-0.069
-618.346	-87.045	0.344	0.106
-617.332	-200.000	0.032	0.236
-616.317	-19.177	-0.249	-0.156
-615.303	-105.135	0.175	-0.040
-614.288	800.000	-0.097	0.375
-613.273	-83.657	-0.176	-0.057
-612.259	-47.600	-0.113	-0.055
-611.244	254.685	-0.228	-0.393
-610.230	-17.895	-0.106	-0.067
-609.215	2.536	-0.275	0.201
-608.201	-96.427	-0.202	-0.054
-607.186	206.289	-0.038	-0.060
-606.171	-200.000	0.016	-0.168
-605.157	555.000	0.062	0.150
-604.142	800.000	-0.031	-0.086
-603.128	62.311	-0.138	-0.138
-602.113	-81.640	-0.203	-0.067
-601.098	-102.859	-0.492	-0.118
-600.084	-15.062	0.289	-0.187
-599.069	-3.213	0.122	-0.086
-598.055	-154.250	-0.122	-0.008
-597.040	72.847	0.079	-0.083
-596.025	-57.571	0.347	-0.153
-595.011	208.835	0.081	-0.127
-593.996	-200.000	0.024	0.249
-592.982	127.617	0.096	-0.123
-591.967	-56.636	0.174	-0.077
-590.952	104.967	-0.112	-0.133
-589.938	-64.969	-0.055	-0.022
-588.923	-103.249	0.139	-0.033
-587.909	69.595	-0.172	0.178
-586.894	159.050	0.115	-0.161
-585.879	48.573	0.046	0.044
-584.865	-148.833	0.063	-0.005
-583.850	-135.623	-0.290	0.035
-582.836	124.849	0.094	-0.119
-581.821	257.117	-0.083	0.144
-580.806	208.575	0.132	-0.208
-579.792	218.617	0.085	-0.137
-578.777	119.806	0.198	-0.247
-577.763	-36.278	0.166	-0.090
-576.748	87.514	-0.108	-0.121
-575.733	370.010	0.158	0.322
-574.719	800.000	0.068	0.247
-573.704	-101.114	0.379	-0.093
-572.690	-111.724	0.243	0.049
-571.675	-83.153	0.087	-0.028
-570.661	8.867	0.217	0.164
-569.646	-25.669	-0.347	-0.206
-568.631	-3.449	-0.229	-0.161
-567.617	14.033	0.209	-0.164
-566.602	-52.727	-0.198	-0.092
-565.588	-145.206	-0.128	0.012
-564.573	-200.000	0.017	-0.337
-563.558	-93.332	0.153	-0.043
-562.544	67.867	-0.063	-0.064
-561.529	-64.620	-0.295	-0.120
-560.515	800.000	-0.087	-0.368
-559.500	-30.501	0.277	-0.158
-558.485	-200.000	0.012	-0.099
-557.471	-62.216	0.252	0.106
-556.456	105.858	0.058	-0.069
-555.442	-200.000	0.040	-0.197
-554.427	179.580	-0.103	0.152
-553.412	-127.153	0.210	0.031
-552.398	209.654	-0.148	0.233
-551.383	609.867	0.088	0.221
-550.369	-43.982	-0.205	0.104
-549.354	-200.000	-0.017	-0.229
-548.339	94.603	0.206	0.235
-547.325	186.961	-0.235	0.353
-546.310	-200.000	-0.031	0.441
-545.296	-200.000	0.000	0.349
-544.281	515.105	-0.093	0.218
-543.266	-200.000	-0.085	0.398
-542.252	-155.457	-0.357	0.023
-541.237	30.849	0.065	0.056
-540.223	-1.640	-0.261	0.185
-539.208	-200.000	0.007	0.181
-538.193	52.775	0.186	-0.178
-537.179	73.829	-0.192	-0.202
-536.164	-28.137	-0.248	-0.144
-535.150	174.795	0.139	-0.202
-534.135	-118.649	0.340	-0.060
-533.121	347.625	0.116	0.229
-532.106	38.693	-0.132	-0.118
-531.091	-112.503	-0.085	-0.017
-530.077	-200.000	0.048	0.304
-529.062	72.984	-0.083	0.087
-528.048	103.748	-0.054	0.064
-527.033	-200.000	0.004	-0.189
-526.018	-200.000	-0.030	0.138
-525.004	-149.288	0.082	0.007
-523.989	463.741	-0.050	-0.112
-522.975	1.600	0.237	-0.171
-521.960	-200.000	0.051	-0.339
-520.945	-13.831	-0.061	-0.040
-519.931	444.997	-0.070	-0.154
-518.916	32.171	0.167	0.144
-517.902	409.729	0.199	-0.424
-516.887	-136.764	0.230	0.027
-515.872	515.717	-0.187	0.437
-514.858	-68.010	-0.220	-0.086
-513.843	191.709	0.301	0.455
-512.829	-63.507	0.338	0.139
-511.814	22.136	0.142	0.116
-510.799	-89.870	-0.228	-0.067
-509.785	466.064	-0.047	-0.106
-508.770	13.325	0.275	0.214
-507.756	159.430	0.095	0.132
-506.741	312.120	0.131	-0.247
-505.726	-200.000	-0.001	0.094
-504.712	-79.058	-0.104	-0.035
-503.697	-200.000	0.068	0.324
-502.683	-150.319	0.256	0.020
-501.668	-17.529	0.332	-0.210
-500.653	-200.000	0.025	0.173
-499.639	-190.599	-0.159	-0.002
-498.624	-110.773	-0.237	0.049
-497.610	-45.506	0.192	-0.095
-496.595	-61.641	-0.187	-0.079
-495.581	111.537	0.105	-0.127
-494.566	-12.288	0.191	-0.125
-493.551	161.020	-0.164	-0.230
-492.537	103.530	-0.085	0.100
-491.522	-138.967	-0.250	-0.027
-490.508	800.000	-0.062	0.180
-489.493	800.000	0.078	0.303
-488.478	-200.000	-0.186	-0.001
-487.464	-200.000	0.006	0.127
-486.449	-24.175	-0.230	0.138
-485.435	-103.264	0.248	-0.059
-484.420	-45.955	-0.129	-0.064
-483.405	354.565	0.060	0.120
-482.391	-167.331	0.097	0.004
-481.376	39.512	-0.191	-0.172
-480.362	-46.240	-0.267	0.132
-479.347	75.024	-0.262	0.277
-478.332	-200.000	-0.016	0.174
-477.318	-53.781	0.297	-0.136
-476.303	800.000	-0.025	-0.075
-475.289	-128.604	0.145	-0.021
-474.274	711.529	-0.043	-0.114
-473.259	59.283	-0.114	-0.112
-472.245	-200.000	-0.028	-0.397
-471.230	-200.000	0.036	-0.356
-470.216	196.861	0.064	0.098
-469.201	-200.000	0.056	0.000
-468.186	-200.000	0.021	0.140
-467.172	36.115	0.170	0.150
-466.157	21.906	0.249	0.203
-465.143	66.166	-0.254	0.259
-464.128	385.457	0.188	-0.388
-463.113	-41.490	-0.064	0.033
-462.099	74.868	0.252	-0.266
-461.084	-38.810	0.436	0.230
-460.070	-65.069	0.253	0.102
-459.055	800.000	0.027	0.094
-458.040	73.517	-0.161	-0.169
-457.026	800.000	-0.055	-0.168
-456.011	678.303	-0.092	-0.240
-454.997	-12.250	-0.053	-0.035
-453.982	-135.021	0.158	-0.019
-452.968	800.000	0.109	-0.375
-451.953	-200.000	-0.001	-0.055
-450.938	-200.000	-0.062	-0.294
-449.924	-200.000	-0.012	0.336
-448.909	-159.552	-0.324	0.018
-447.895	61.255	0.019	0.019
-446.880	502.523	0.075	0.174
-445.865	237.273	-0.156	-0.258
-444.851	67.443	0.270	-0.276
-443.836	-54.851	-0.307	0.139
-442.822	-183.703	-0.247	0.004
-441.807	511.354	0.230	0.535
-440.792	-114.373	0.339	-0.065
-439.778	800.000	-0.126	-0.502
-438.763	-76.244	-0.106	0.037
-437.749	-87.196	-0.486	0.148
-436.734	-24.127	0.153	-0.092
-435.719	-200.000	-0.019	0.091
-434.705	800.000	-0.078	0.256
-433.690	800.000	0.024	0.099
-432.676	0.894	0.029	-0.021
-431.661	800.000	0.077	-0.299
-430.646	-122.578	0.190	-0.031
-429.632	-200.000	-0.019	-0.209
-428.617	183.793	0.072	0.107
-427.603	800.000	-0.007	0.023
-426.588	-74.738	-0.123	0.044
-425.573	-152.504	-0.050	0.004
-424.559	460.811	0.052	0.115
-423.544	154.835	0.050	-0.069
-422.530	105.763	0.098	-0.116
-421.515	-87.563	0.158	-0.048
-420.500	5.277	0.171	0.126
-419.486	-21.721	-0.083	-0.050
-418.471	-112.181	-0.357	0.072
-417.457	-19.829	0.187	-0.116
-416.442	-200.000	-0.049	-0.427
-415.428	78.625	-0.066	0.070
-414.413	-28.593	-0.127	-0.073
-413.398	13.391	0.299	0.232
-412.384	-110.452	-0.144	-0.030
-411.369	176.412	0.169	-0.246
-410.355	-42.603	0.090	-0.046
-409.340	323.687	-0.139	-0.265
-408.325	128.138	0.004	0.005
-407.311	-200.000	-0.008	0.279
-406.296	-76.885	0.330	0.115
-405.282	-138.523	0.284	0.031
-404.267	-200.000	0.022	-0.122
-403.252	-49.317	0.096	-0.046
-402.238	-64.917	0.159	-0.064
-401.223	-92.341	-0.165	-0.046
-400.209	-46.048	0.306	0.151
-399.194	800.000	-0.053	-0.158
-398.179	368.738	-0.175	-0.353
-397.165	211.417	-0.095	0.149
-396.150	45.017	0.145	0.133
-395.136	-146.521	-0.347	-0.030
-394.121	-131.588	-0.152	0.020
-393.106	365.835	-0.097	0.195
-392.092	-101.617	-0.049	0.012
-391.077	-200.000	-0.002	-0.299
-390.063	-4.937	0.265	-0.182
-389.048	-200.000	-0.040	0.311
-388.033	-200.000	-0.011	0.210
-387.019	-200.000	0.001	-0.149
-386.004	142.864	0.078	-0.104
-384.990	-109.299	0.250	0.053
-383.975	298.769	-0.147	-0.269
-382.960	-116.377	-0.432	-0.080
-381.946	-73.123	-0.213	0.078
-380.931	-44.192	0.247	0.124
-379.917	-63.389	0.085	0.035
-378.902	-175.442	0.046	0.001
-377.888	-200.000	-0.028	-0.147
-376.873	-40.669	-0.172	-0.089
-375.858	85.713	0.048	0.052
-374.844	-200.000	0.030	-0.174
-373.829	-70.384	0.178	0.067
-372.815	-78.630	0.273	-0.093
-371.800	-94.701	0.295	0.080
-370.785	-200.000	-0.066	0.477
-369.771	30.502	0.110	-0.094
-368.756	-200.000	-0.007	0.156
-367.742	-200.000	0.040	-0.257
-366.727	-180.720	0.187	-0.004
-365.712	366.608	-0.106	-0.214
-364.698	-200.000	-0.035	-0.288
-363.683	75.943	0.098	-0.103
-362.669	121.378	-0.127	0.158
-361.654	-127.216	-0.116	-0.017
-360.639	342.869	0.109	-0.213
-359.625	-200.000	0.022	-0.247
-358.610	-73.284	-0.212	-0.078
-357.596	-5.994	-0.154	0.105
-356.581	-132.669	0.133	0.017
-355.566	101.643	0.155	-0.181
-354.552	800.000	0.050	-0.189
-353.537	-98.933	-0.076	-0.019
-352.523	35.562	-0.177	0.155
-351.508	383.145	-0.145	0.297
-350.493	260.921	0.059	0.101
-349.479	319.591	-0.059	-0.111
-348.464	-171.673	-0.292	-0.010
-347.450	155.782	0.192	0.264
-346.435	-136.247	-0.269	0.031
-345.420	686.651	-0.073	-0.189
-344.406	800.000	0.063	-0.185
-343.391	-23.675	-0.229	-0.137
-342.377	52.182	0.089	0.084
-341.362	99.160	-0.079	0.091
-340.348	-200.000	-0.003	0.144
-339.333	-200.000	-0.017	-0.086
-338.318	-200.000	-0.045	0.338
-337.304	-200.000	0.067	0.369
-336.289	-121.144	0.129	0.022
-335.275	70.109	0.187	-0.193
-334.260	-200.000	-0.037	-0.364
-333.245	263.437	0.074	0.128
-332.231	606.246	-0.013	0.032
-331.216	-122.023	0.184	-0.030
-330.202	-7.936	-0.253	-0.170
-329.187	-108.256	0.193	-0.041
-328.172	-57.880	-0.092	0.040
-327.158	800.000	-0.081	-0.348
-326.143	-59.651	-0.375	0.160
-325.129	68.580	0.274	0.280
-324.114	-34.102	-0.132	-0.072
-323.099	61.638	-0.244	0.242
-322.085	-200.000	0.129	0.000
-321.070	61.536	0.125	-0.124
-320.056	-94.064	0.076	-0.021
-319.041	-100.835	0.198	0.048
-318.026	133.690	0.144	0.186
-317.012	800.000	0.057	-0.183
-315.997	372.577	0.041	-0.083
-314.983	-164.414	-0.230	0.010
-313.968	40.837	0.217	0.195
-312.953	-158.937	-0.237	0.013
-311.939	-111.811	0.196	-0.040
-310.924	43.392	-0.171	0.156
-309.910	3.550	0.130	0.095
-308.895	36.292	-0.108	-0.095
-307.880	-129.169	0.189	-0.026
-306.866	7.443	-0.099	-0.074
-305.851	-200.000	-0.059	0.332
-304.837	5.807	-0.264	0.194
-303.822	20.281	-0.198	-0.159
-302.807	-24.647	-0.269	0.159
-301.793	-12.027	-0.178	0.116
-300.778	14.129	-0.131	0.101
-299.764	-33.249	0.092	0.051
-298.749	77.289	-0.224	-0.237
-297.735	-200.000	-0.010	-0.085
-296.720	-162.770	0.233	0.011
-295.705	-69.521	-0.181	-0.069
-294.691	107.650	-0.128	0.151
-293.676	-24.343	-0.190	0.113
-292.662	-142.010	0.194	-0.019
-291.647	-200.000	0.011	0.319
-290.632	-151.660	0.363	-0.027
-289.618	-200.000	-0.001	-0.063
-288.603	-145.713	0.253	-0.022
-287.589	-200.000	0.024	-0.110
-286.574	-200.000	-0.012	-0.206
-285.559	-200.000	0.001	-0.090
-284.545	134.875	-0.137	-0.177
-283.530	-142.720	-0.139	-0.013
-282.516	414.101	-0.079	-0.167
-281.501	-8.970	-0.212	-0.141
-280.486	-200.000	0.010	-0.064
-279.472	-132.826	0.038	0.005
-278.457	-181.968	-0.343	-0.006
-277.443	-98.099	-0.123	0.032
-276.428	-9.658	0.149	0.099
-275.413	278.845	-0.087	0.155
-274.399	82.110	0.287	0.309
-273.384	-85.676	-0.319	-0.099
-272.370	-55.672	-0.165	0.073
-271.355	14.269	0.275	-0.213
-270.340	108.898	-0.246	-0.292
-269.326	-200.000	-0.017	-0.083
-268.311	-73.754	0.107	0.039
-267.297	-57.197	0.437	0.191
-266.282	-200.000	-0.073	0.423
-265.267	-40.664	0.067	0.034
-264.253	747.401	-0.111	0.298
-263.238	227.940	-0.030	0.048
-262.224	-1.284	0.287	0.201
-261.209	-0.839	-0.171	0.120
-260.195	-69.928	-0.158	0.060
-259.180	606.803	0.099	0.245
-258.165	38.224	-0.451	0.399
-257.151	-128.739	-0.360	-0.050
-256.136	-143.283	0.278	0.026
-255.122	112.082	-0.146	0.175
-254.107	-149.018	0.270	-0.022
-253.092	275.846	0.233	-0.411
-252.078	-2.326	0.124	-0.086
-251.063	-33.817	0.369	-0.202
-250.049	-200.000	0.033	-0.412
-249.034	145.695	-0.077	-0.102
-248.019	-46.755	-0.090	0.044
-247.005	-31.808	-0.171	0.095
-245.990	800.000	-0.023	-0.080
-244.976	-200.000	0.053	0.290
-243.961	210.971	0.089	0.138
-242.946	-200.000	0.049	0.246
-241.932	-6.389	0.381	0.258
-240.917	-200.000	0.287	0.001
-239.903	428.508	0.084	-0.180
-238.888	800.000	-0.068	-0.284
-237.873	-200.000	-0.016	0.326
-236.859	-44.036	0.193	0.096
-235.844	-192.342	-0.199	-0.002
-234.830	287.128	0.004	0.007
-233.815	800.000	0.027	-0.092
-232.800	190.342	-0.178	0.266
-231.786	221.954	-0.137	0.219
-230.771	-115.958	-0.219	0.041
-229.757	-100.131	-0.269	-0.067
-228.742	-200.000	0.076	-0.346
-227.727	267.345	0.147	-0.255
-226.713	-66.841	-0.210	0.083
-225.698	-173.963	-0.409	-0.012
-224.684	-65.347	-0.135	-0.054
-223.669	-46.737	0.308	-0.150
-222.655	-200.000	0.012	0.106
-221.640	-194.091	0.353	0.003
-220.625	-157.959	-0.354	-0.021
-219.611	118.056	-0.140	-0.171
-218.596	-38.596	0.143	-0.075
-217.582	526.741	-0.035	-0.081
-216.567	43.253	0.144	-0.130
-215.552	364.183	-0.029	0.057
-214.538	-105.071	-0.459	0.104
-213.523	123.627	-0.106	-0.131
-212.509	226.599	-0.073	0.117
-211.494	-9.365	0.067	-0.044
-210.479	-200.000	-0.009	0.094
-209.465	-123.796	-0.219	-0.034
-208.450	-77.806	-0.091	-0.031
-207.436	425.581	-0.116	0.248
-206.421	-27.657	-0.353	0.203
-205.406	-31.094	0.296	-0.166
-204.392	-200.000	-0.015	0.351
-203.377	47.682	-0.088	0.081
-202.363	-89.485	-0.129	-0.037
-201.348	-200.000	-0.007	-0.100
-200.333	107.804	0.119	0.141
-199.319	-97.439	0.213	-0.055
-198.304	800.000	-0.075	0.270
-197.290	-5.785	0.086	-0.058
-196.275	-95.296	-0.128	0.034
-195.260	412.833	0.047	0.099
-194.246	-35.076	0.269	0.145
-193.231	39.443	-0.113	0.100
-192.217	154.541	0.152	-0.207
-191.202	-36.902	-0.267	-0.142
-190.187	-32.479	-0.095	0.052
-189.173	-22.645	0.155	0.093
-188.158	-1.171	0.098	-0.069
-187.144	-121.852	-0.385	0.063
-186.129	-200.000	-0.051	-0.253
-185.114	-11.317	-0.194	0.127
-184.100	233.348	0.037	-0.060
-183.085	800.000	-0.088	0.266
-182.071	-200.000	-0.020	-0.089
-181.056	-35.821	0.163	-0.087
-180.042	-25.321	0.389	0.228
-179.027	189.104	0.115	-0.171
-178.012	116.044	0.016	-0.019
-176.998	122.349	0.143	-0.177
-175.983	-46.194	-0.178	0.087
-174.969	253.328	-0.119	0.201
-173.954	11.646	0.035	0.027
-172.939	-74.656	0.228	-0.081
-171.925	-200.000	-0.001	-0.105
-170.910	-3.977	-0.135	-0.092
-169.896	135.919	-0.102	0.131
-168.881	800.000	0.065	0.231
-167.866	-106.740	0.056	0.012
-166.852	153.335	0.056	-0.075
-165.837	-92.978	0.161	0.044
-164.823	-4.937	0.207	-0.141
-163.808	800.000	0.054	-0.210
-162.793	570.659	-0.101	0.242
-161.779	-200.000	0.451	0.001
-160.764	465.168	0.143	0.317
-159.750	800.000	0.117	-0.367
-158.735	-145.449	-0.349	-0.031
-157.720	800.000	-0.029	0.097
-156.706	-130.443	-0.225	0.030
-155.691	-48.862	-0.171	-0.081
-154.677	800.000	-0.010	0.031
-153.662	800.000	-0.050	-0.144
-152.647	296.656	-0.024	0.044
-151.633	-128.301	0.315	-0.044
-150.618	-87.293	-0.267	0.080
-149.604	146.417	-0.048	-0.064
-148.589	-22.451	-0.340	0.204
-147.574	-85.125	-0.073	0.022
-146.560	-20.732	0.134	0.081
-145.545	-200.000	0.010	-0.051
-144.531	53.095	-0.129	-0.122
-143.516	800.000	-0.055	0.166
-142.502	26.225	0.123	-0.101
-141.487	800.000	-0.067	-0.190
-140.472	-134.326	0.251	-0.030
-139.458	15.573	0.234	-0.182
-138.443	-200.000	-0.002	0.125
-137.429	349.363	-0.195	0.381
-136.414	2.786	0.126	-0.090
-135.399	-166.947	0.207	-0.008
-134.385	-92.657	-0.234	0.065
-133.370	-65.261	-0.259	0.103
-132.356	-77.233	-0.170	-0.058
-131.341	-200.000	-0.043	-0.374
-130.326	92.413	-0.066	0.073
-129.312	-100.900	0.192	-0.047
-128.297	-128.080	-0.180	0.025
-127.283	235.725	0.066	-0.108
-126.268	80.057	-0.175	-0.186
-125.253	32.554	0.052	-0.045
-124.239	196.028	0.152	0.229
-123.224	-110.660	0.319	-0.065
