DTS Sentinel unit serial number:	SN413079Multiplexer serial number:	ORYXHardware model number:	OX4-SRSoftware version number:	ORYX F/W v4.00 Oryx Data Collector v3.7.2.0data status	okinstallation	princeton_trtdifferential loss correction	single-endedforward channel	channel 2reverse channel	N/Adate	2019/09/19time	07:27:34forward acquisition time	60.00reverse acquisition time	0.00gamma	496.2192k internal	0.2350k external	0.2350temperature offset calibration	1.0013default loss term (dB/km)	0.3790temperature slope calibration	1.0000multiplexer offset coefficient	1.0000multiplexer slope coefficient	1.0000fibre end	0.00T internal ref (°C)	19.19T ext. ref 1 (°C)	0.55T ext. ref 2 (°C)	13.90length (m)	temperature (°C)	Stokes	anti-Stokes-747.200	-11.318	-0.350	0.230
-746.185	-64.256	0.317	-0.129
-745.171	-27.944	0.097	0.056
-744.156	-84.624	-0.173	-0.055
-743.142	-127.277	-0.204	-0.030
-742.127	22.728	-0.134	-0.109
-741.112	-23.014	0.172	-0.103
-740.098	57.448	-0.152	0.148
-739.083	-17.233	0.149	-0.094
-738.069	-200.000	-0.049	0.319
-737.054	-53.245	-0.343	0.157
-736.039	-92.670	-0.485	-0.136
-735.025	-19.691	0.172	0.106
-734.010	-165.557	-0.254	-0.011
-732.996	595.575	-0.053	0.132
-731.981	800.000	0.064	-0.208
-730.966	-59.903	-0.139	-0.059
-729.952	472.750	-0.014	-0.031
-728.937	-84.530	-0.073	0.023
-727.923	-95.992	0.403	-0.107
-726.908	-132.469	-0.384	-0.049
-725.894	-200.000	-0.040	0.523
-724.879	-13.613	-0.215	0.139
-723.864	735.866	0.081	0.216
-722.850	-154.413	0.233	0.016
-721.835	23.133	0.181	0.148
-720.821	-94.899	0.103	0.028
-719.806	800.000	-0.072	-0.211
-718.791	-200.000	-0.360	-0.001
-717.777	408.768	-0.150	-0.317
-716.762	-13.065	-0.269	-0.175
-715.748	-120.126	0.175	-0.030
-714.733	288.843	0.076	0.137
-713.718	-8.446	-0.374	-0.251
-712.704	800.000	-0.049	0.149
-711.689	-98.363	-0.128	-0.033
-710.675	-83.610	-0.109	0.035
-709.660	187.486	-0.169	-0.251
-708.645	-200.000	-0.018	-0.280
-707.631	141.190	-0.136	0.179
-706.616	787.817	-0.124	-0.338
-705.602	-200.000	0.035	0.246
-704.587	800.000	0.018	0.059
-703.572	42.382	0.140	0.127
-702.558	-200.000	0.004	0.136
-701.543	117.071	0.173	-0.212
-700.529	-200.000	0.006	-0.081
-699.514	-200.000	0.032	-0.288
-698.499	46.602	-0.195	-0.181
-697.485	-53.499	-0.241	0.110
-696.470	-139.805	-0.441	-0.047
-695.456	-104.844	0.517	0.118
-694.441	-30.847	-0.267	0.150
-693.426	55.068	0.315	-0.303
-692.412	-154.261	0.187	-0.013
-691.397	10.984	-0.300	0.229
-690.383	-85.944	-0.277	-0.085
-689.368	112.709	-0.107	-0.130
-688.354	-14.891	0.066	-0.042
-687.339	-200.000	0.017	0.221
-686.324	-123.170	-0.326	-0.052
-685.310	151.607	0.249	0.338
-684.295	672.870	0.038	0.097
-683.281	-200.000	0.005	-0.327
-682.266	419.299	-0.117	0.250
-681.251	800.000	0.082	0.238
-680.237	73.694	-0.254	0.265
-679.222	63.344	-0.263	-0.262
-678.208	-200.000	-0.051	-0.266
-677.193	-55.458	0.302	0.135
-676.178	406.617	-0.172	-0.361
-675.164	-200.000	0.068	0.297
-674.149	-80.559	-0.372	0.124
-673.135	268.260	0.095	-0.165
-672.120	-200.000	0.027	-0.193
-671.105	-200.000	0.003	-0.174
-670.091	-44.509	-0.290	0.145
-669.076	800.000	-0.057	-0.236
-668.062	-200.000	-0.021	0.136
-667.047	-11.293	0.134	-0.088
-666.032	119.102	0.165	-0.203
-665.018	800.000	0.030	0.103
-664.003	-35.186	-0.174	-0.094
-662.989	800.000	-0.041	-0.169
-661.974	-75.769	-0.308	-0.109
-660.959	1.444	-0.155	0.111
-659.945	-186.581	-0.167	-0.002
-658.930	-60.673	0.283	-0.119
-657.916	800.000	-0.052	-0.218
-656.901	-200.000	-0.269	-0.001
-655.886	612.598	0.062	0.156
-654.872	-200.000	0.034	0.226
-653.857	800.000	-0.019	0.055
-652.843	-200.000	0.043	0.248
-651.828	-122.508	0.200	-0.032
-650.814	-147.206	-0.088	-0.007
-649.799	-100.930	-0.052	-0.013
-648.784	-42.782	-0.104	0.052
-647.770	-92.396	-0.361	-0.101
-646.755	-101.569	-0.179	0.043
-645.741	-65.095	-0.078	0.031
-644.726	-192.055	0.100	0.001
-643.711	-59.645	0.107	-0.046
-642.697	98.219	0.028	0.032
-641.682	-81.301	0.155	-0.051
-640.668	34.616	-0.113	-0.098
-639.653	269.082	-0.079	-0.138
-638.638	-58.392	0.228	0.099
-637.624	-82.328	-0.186	0.060
-636.609	128.080	0.138	0.174
-635.595	-200.000	-0.044	-0.444
-634.580	90.341	-0.134	-0.149
-633.565	182.382	-0.119	0.174
-632.551	-200.000	0.007	0.214
-631.536	-200.000	-0.004	-0.294
-630.522	82.256	0.123	0.132
-629.507	45.517	-0.275	0.252
-628.492	-200.000	-0.007	0.127
-627.478	2.030	-0.179	0.129
-626.463	296.221	0.058	-0.105
-625.449	-169.567	-0.337	0.012
-624.434	-60.457	-0.287	-0.121
-623.419	-200.000	-0.017	0.172
-622.405	-40.907	0.118	-0.061
-621.390	555.578	0.096	-0.229
-620.376	18.643	-0.175	-0.139
-619.361	129.559	-0.172	-0.218
-618.346	-78.366	-0.130	-0.044
-617.332	8.416	-0.235	0.175
-616.317	126.026	0.101	0.127
-615.303	82.726	-0.167	-0.180
-614.288	350.975	0.078	0.154
-613.273	118.018	-0.109	0.133
-612.259	-110.665	0.442	-0.091
-611.244	655.911	-0.065	-0.167
-610.230	261.710	-0.049	0.085
-609.215	-134.382	-0.091	0.011
-608.201	-70.251	-0.013	0.005
-607.186	-106.569	0.250	-0.055
-606.171	800.000	0.012	0.036
-605.157	-95.985	-0.342	-0.090
-604.142	-91.999	0.210	0.059
-603.128	-200.000	-0.010	0.072
-602.113	-200.000	0.030	-0.172
-601.098	-200.000	-0.026	0.247
-600.084	-15.717	0.238	0.150
-599.069	118.666	0.071	-0.087
-598.055	-0.663	-0.165	0.116
-597.040	525.871	0.087	-0.203
-596.025	-200.000	0.024	-0.232
-595.011	-192.128	0.266	0.003
-593.996	800.000	-0.066	-0.218
-592.982	-140.088	-0.378	-0.039
-591.967	-44.181	-0.181	0.090
-590.952	195.184	-0.170	0.257
-589.938	-102.543	0.194	-0.046
-588.923	604.887	-0.083	0.205
-587.909	-33.697	-0.150	-0.082
-586.894	-162.977	0.213	0.010
-585.879	44.906	-0.093	-0.085
-584.865	-39.568	-0.172	-0.089
-583.850	-16.644	0.175	0.110
-582.836	800.000	-0.048	0.197
-581.821	90.142	0.202	-0.224
-580.806	800.000	-0.016	-0.060
-579.792	-200.000	0.005	0.294
-578.777	21.311	0.162	-0.131
-577.763	-200.000	-0.036	-0.333
-576.748	28.306	0.214	0.180
-575.733	-106.730	0.119	0.026
-574.719	141.943	-0.226	-0.297
-573.704	-200.000	-0.044	-0.191
-572.690	-45.353	-0.322	-0.159
-571.675	-200.000	0.005	-0.046
-570.661	-88.529	-0.224	0.066
-569.646	431.376	0.202	-0.434
-568.631	327.949	-0.164	0.311
-567.617	-200.000	-0.086	0.448
-566.602	9.363	0.190	0.143
-565.588	-73.157	-0.239	0.087
-564.573	-57.824	0.134	0.058
-563.558	361.314	-0.144	-0.286
-562.544	-200.000	-0.047	-0.257
-561.529	372.319	-0.015	-0.029
-560.515	-91.289	-0.153	-0.043
-559.500	32.717	-0.220	-0.189
-558.485	800.000	-0.014	0.049
-557.471	-200.000	-0.088	0.509
-556.456	-76.743	0.198	-0.069
-555.442	-141.491	-0.346	0.035
-554.427	267.796	-0.095	-0.165
-553.412	800.000	-0.127	-0.489
-552.398	569.845	-0.150	-0.362
-551.383	150.941	-0.194	0.261
-550.369	-119.246	0.111	0.019
-549.354	-39.628	-0.112	-0.058
-548.339	-81.397	-0.198	-0.065
-547.325	800.000	0.046	-0.160
-546.310	-36.610	0.167	0.089
-545.296	63.426	-0.203	0.201
-544.281	539.797	-0.046	0.108
-543.266	-27.176	-0.190	-0.110
-542.252	-200.000	0.043	-0.250
-541.237	-114.205	0.545	0.104
-540.223	28.818	-0.219	-0.184
-539.208	-102.046	-0.221	0.053
-538.193	-38.050	-0.146	0.077
-537.179	70.028	0.099	-0.101
-536.164	-89.980	-0.216	-0.062
-535.150	-50.313	-0.353	-0.165
-534.135	542.109	-0.045	-0.106
-533.121	-51.957	0.278	0.128
-532.106	81.873	0.016	0.017
-531.091	-200.000	0.070	0.339
-530.077	12.934	0.217	0.166
-529.062	-146.196	-0.210	-0.018
-528.048	-200.000	0.301	-0.000
-527.033	-15.492	-0.200	0.127
-526.018	117.316	-0.092	-0.113
-525.004	266.527	0.196	0.338
-523.989	-45.527	0.119	-0.058
-522.975	-200.000	0.042	-0.224
-521.960	394.262	-0.113	0.232
-520.945	-200.000	0.051	-0.349
-519.931	83.211	0.065	0.070
-518.916	26.832	-0.180	0.150
-517.902	84.539	0.110	0.120
-516.887	141.097	0.108	0.142
-515.872	800.000	0.010	-0.030
-514.858	429.519	0.177	-0.379
-513.843	54.754	-0.037	0.036
-512.829	-105.423	-0.360	0.081
-511.814	-200.000	-0.019	-0.173
-510.799	0.176	0.219	-0.154
-509.785	69.173	0.307	-0.312
-508.770	-200.000	0.014	-0.262
-507.756	-63.771	-0.243	0.098
-506.741	800.000	0.171	-0.470
-505.726	591.575	-0.060	0.148
-504.712	-200.000	-0.008	-0.153
-503.697	16.562	-0.182	0.142
-502.683	-55.782	-0.120	0.053
-501.668	-200.000	0.024	-0.329
-500.653	-108.505	-0.227	-0.048
-499.639	-118.109	0.314	0.055
-498.624	154.209	-0.138	0.187
-497.610	104.141	0.028	0.032
-496.595	-200.000	-0.010	-0.239
-495.581	-99.166	0.126	-0.031
-494.566	27.260	-0.216	-0.179
-493.551	-73.427	-0.119	-0.043
-492.537	107.657	0.306	-0.360
-491.522	205.998	-0.103	0.159
-490.508	-200.000	0.038	0.234
-489.493	-118.754	-0.049	-0.009
-488.478	-200.000	-0.019	0.107
-487.464	800.000	0.079	-0.278
-486.449	-57.784	-0.442	0.191
-485.435	97.154	0.269	0.305
-484.420	-200.000	0.046	-0.234
-483.405	-104.852	0.066	0.015
-482.391	291.393	-0.110	-0.197
-481.376	-141.843	0.155	0.015
-480.362	-83.133	0.379	-0.120
-479.347	-69.864	-0.170	0.064
-478.332	800.000	-0.097	-0.292
-477.318	-143.250	0.220	-0.021
-476.303	-56.270	-0.143	0.063
-475.289	800.000	0.082	-0.270
-474.274	31.519	0.260	0.221
-473.259	459.642	0.058	-0.128
-472.245	-76.534	0.254	-0.088
-471.230	800.000	-0.063	0.213
-470.216	-44.454	0.049	-0.024
-469.201	7.209	0.204	-0.150
-468.186	-83.600	-0.277	0.087
-467.172	589.331	0.097	-0.236
-466.157	-200.000	0.047	-0.252
-465.143	569.845	-0.109	-0.261
-464.128	424.399	-0.126	0.267
-463.113	458.419	0.095	0.209
-462.099	-200.000	-0.028	-0.469
-461.084	-33.867	0.197	-0.107
-460.070	800.000	-0.083	0.254
-459.055	-200.000	-0.030	0.151
-458.040	-200.000	0.007	-0.254
-457.026	21.503	0.019	0.015
-456.011	91.182	0.236	0.261
-454.997	156.470	-0.080	-0.109
-453.982	-131.607	-0.071	0.009
-452.968	565.858	0.085	-0.203
-451.953	-82.828	0.262	0.083
-450.938	-64.883	-0.279	-0.112
-449.924	800.000	-0.039	-0.117
-448.909	74.060	0.064	-0.067
-447.895	193.390	-0.124	-0.184
-446.880	129.133	0.255	-0.321
-445.865	-163.567	-0.268	0.013
-444.851	-17.813	0.184	-0.114
-443.836	26.675	-0.235	0.194
-442.822	-55.337	0.141	-0.063
-441.807	26.898	0.144	0.119
-440.792	800.000	0.061	0.252
-439.778	-200.000	0.012	0.186
-438.763	-176.730	0.159	-0.004
-437.749	-200.000	-0.033	-0.240
-436.734	132.692	-0.027	-0.035
-435.719	-200.000	0.067	0.331
-434.705	-13.011	-0.080	0.052
-433.690	112.897	0.252	-0.301
-432.676	800.000	0.033	0.107
-431.661	800.000	0.093	0.358
-430.646	17.037	-0.109	0.085
-429.632	142.779	-0.143	-0.187
-428.617	115.441	-0.084	0.101
-427.603	-5.342	-0.099	-0.067
-426.588	616.167	0.142	-0.352
-425.573	-6.719	0.160	0.107
-424.559	-88.572	-0.483	0.142
-423.544	-72.964	-0.208	0.075
-422.530	-200.000	0.014	-0.132
-421.515	800.000	-0.059	-0.166
-420.500	-40.875	0.279	0.142
-419.486	117.377	0.078	0.095
-418.471	93.678	0.183	0.204
-417.457	113.551	0.203	0.243
-416.442	-200.000	-0.003	0.019
-415.428	-114.037	0.290	0.055
-414.413	611.640	-0.157	-0.388
-413.398	-133.294	-0.355	-0.044
-412.384	265.031	-0.150	-0.258
-411.369	-121.303	0.153	-0.025
-410.355	-200.000	0.040	0.201
-409.340	43.421	-0.257	-0.232
-408.325	-118.406	0.149	0.026
-407.311	120.491	-0.232	-0.283
-406.296	-73.804	-0.179	-0.064
-405.282	-52.991	0.564	0.256
-404.267	-200.000	0.006	0.071
-403.252	37.231	-0.144	0.126
-402.238	233.358	0.118	-0.191
-401.223	-102.368	-0.217	-0.051
-400.209	149.052	-0.163	0.217
-399.194	549.133	0.097	0.230
-398.179	37.461	-0.145	0.126
-397.165	233.981	-0.205	0.333
-396.150	-200.000	0.000	-0.071
-395.136	263.436	-0.148	0.253
-394.121	-106.839	-0.132	-0.029
-393.106	-66.995	0.109	0.042
-392.092	-17.466	0.395	0.245
-391.077	228.757	0.071	-0.114
-390.063	153.869	0.170	-0.229
-389.048	-136.112	0.258	0.030
-388.033	-200.000	0.019	-0.244
-387.019	309.608	-0.018	0.034
-386.004	-73.357	0.068	-0.024
-384.990	145.262	-0.074	-0.098
-383.975	-200.000	-0.008	-0.045
-382.960	153.540	0.228	-0.308
-381.946	-200.000	-0.026	0.248
-380.931	-87.653	-0.042	-0.012
-379.917	-200.000	-0.017	0.303
-378.902	65.342	-0.252	0.251
-377.888	-200.000	-0.040	0.179
-376.873	800.000	0.016	-0.065
-375.858	-119.169	-0.263	0.045
-374.844	289.372	-0.065	0.115
-373.829	-101.048	-0.077	0.019
-372.815	-20.353	-0.199	0.121
-371.800	-74.646	0.121	-0.043
-370.785	-8.079	-0.066	0.044
-369.771	66.924	-0.099	-0.100
-368.756	498.046	0.174	0.394
-367.742	167.613	-0.061	0.085
-366.727	-58.633	0.030	-0.013
-365.712	-15.109	0.394	0.248
-364.698	-93.634	-0.154	-0.042
-363.683	94.851	0.127	0.142
-362.669	800.000	-0.125	-0.377
-361.654	-96.979	0.251	-0.065
-360.639	-89.199	-0.434	0.126
-359.625	52.706	-0.105	0.098
-358.610	-48.981	-0.399	-0.188
-357.596	-63.624	0.108	0.044
-356.581	296.935	-0.151	-0.272
-355.566	-200.000	-0.016	0.172
-354.552	242.524	0.161	0.266
-353.537	55.319	0.171	-0.163
-352.523	346.368	0.151	0.291
-351.508	-200.000	0.001	-0.233
-350.493	117.128	-0.220	0.266
-349.479	-153.351	0.201	-0.014
-348.464	312.104	0.152	0.281
-347.450	-104.215	0.106	0.024
-346.435	-96.164	0.221	-0.058
-345.420	-200.000	0.017	0.099
-344.406	247.817	-0.094	0.155
-343.391	-133.939	0.392	-0.048
-342.377	-88.830	0.073	0.021
-341.362	-200.000	-0.026	0.261
-340.348	-97.190	-0.127	0.033
-339.333	102.350	-0.181	0.208
-338.318	-74.393	-0.201	0.071
-337.304	342.930	-0.084	0.162
-336.289	-45.545	0.424	-0.206
-335.275	-198.534	-0.242	0.001
-334.260	-123.545	0.223	0.035
-333.245	800.000	0.041	0.149
-332.231	-128.684	0.065	0.009
-331.216	-7.856	-0.164	0.109
-330.202	800.000	0.096	-0.376
-329.187	39.196	0.276	0.242
-328.172	103.757	0.234	0.270
-327.158	24.250	-0.286	-0.232
-326.143	45.143	0.162	0.146
-325.129	201.421	-0.113	-0.171
-324.114	115.118	0.184	-0.221
-323.099	-162.330	-0.142	-0.007
-322.085	172.536	-0.228	0.323
-321.070	800.000	-0.022	0.086
-320.056	-200.000	0.043	-0.209
-319.041	37.066	0.192	-0.167
-318.026	-70.889	0.153	-0.057
-317.012	238.214	-0.038	-0.062
-315.997	119.607	0.113	0.137
-314.983	59.490	0.149	-0.145
-313.968	237.672	-0.073	-0.119
-312.953	97.626	0.175	-0.198
-311.939	-200.000	-0.002	-0.346
-310.924	-200.000	0.033	0.178
-309.910	-101.440	0.227	0.054
-308.895	-200.000	0.003	-0.080
-307.880	-200.000	-0.043	0.226
-306.866	20.715	-0.196	0.156
-305.851	-200.000	0.024	-0.314
-304.837	800.000	0.034	-0.094
-303.822	77.978	-0.152	-0.159
-302.807	-104.087	0.225	-0.051
-301.793	800.000	0.038	0.105
-300.778	-110.771	-0.185	-0.037
-299.764	153.803	0.101	-0.135
-298.749	-21.294	0.077	-0.046
-297.735	540.972	0.163	-0.380
-296.720	-116.820	-0.414	0.074
-295.705	236.319	0.100	-0.163
-294.691	-134.818	0.272	0.032
-293.676	-68.846	0.192	-0.073
-292.662	544.831	0.116	-0.273
-291.647	110.294	-0.125	0.147
-290.632	-200.000	-0.032	0.215
-289.618	-14.585	0.119	-0.075
-288.603	-63.041	0.381	-0.155
-287.589	624.065	-0.093	0.229
-286.574	405.846	0.082	-0.169
-285.559	-10.161	-0.092	0.060
-284.545	56.907	-0.271	0.259
-283.530	800.000	-0.128	-0.385
-282.516	82.613	-0.129	0.137
-281.501	6.318	0.130	-0.095
-280.486	234.174	0.129	0.208
-279.472	-119.263	-0.306	0.052
-278.457	519.737	-0.114	-0.262
-277.443	-91.276	0.076	0.021
-276.428	638.886	-0.063	-0.156
-275.413	800.000	0.013	-0.038
-274.399	-121.452	-0.137	0.022
-273.384	20.488	-0.110	-0.087
-272.370	800.000	-0.040	0.123
-271.355	-123.109	0.068	0.011
-270.340	155.859	0.048	0.064
-269.326	376.491	-0.102	0.203
-268.311	237.672	0.077	0.126
-267.297	163.114	-0.096	0.132
-266.282	55.753	-0.113	0.108
-265.267	348.363	-0.056	0.109
-264.253	800.000	-0.053	-0.220
-263.238	-200.000	-0.022	-0.238
-262.224	800.000	-0.017	-0.055
-261.209	800.000	0.078	0.274
-260.195	30.268	-0.235	-0.197
-259.180	-50.250	0.313	0.145
-258.165	-52.946	0.443	0.200
-257.151	761.334	0.032	-0.085
-256.136	216.652	-0.153	-0.238
-255.122	-49.069	0.443	0.207
-254.107	800.000	0.060	0.232
-253.092	-200.000	-0.010	-0.352
-252.078	-169.629	0.305	0.011
-251.063	-90.744	-0.483	-0.137
-250.049	291.784	-0.057	-0.102
-249.034	392.619	-0.054	0.111
-248.019	-200.000	0.011	0.216
-247.005	-200.000	0.027	0.161
-245.990	312.252	-0.049	-0.090
-244.976	73.479	-0.174	0.179
-243.961	-200.000	0.002	-0.167
-242.946	693.733	0.208	0.535
-241.932	326.694	0.083	-0.156
-240.917	579.866	-0.083	-0.200
-239.903	38.320	-0.173	0.151
-238.888	254.949	0.182	0.305
-237.873	-3.375	-0.155	-0.106
-236.859	371.313	-0.080	0.158
-235.844	-148.679	0.183	0.015
-234.830	713.816	-0.121	0.313
-233.815	39.299	-0.130	-0.114
-232.800	56.237	-0.080	-0.076
-231.786	-7.347	-0.098	-0.065
-230.771	-86.451	0.224	0.067
-229.757	-200.000	-0.004	0.222
-228.742	348.273	0.160	-0.308
-227.727	578.328	0.080	0.191
-226.713	-91.358	-0.293	-0.082
-225.698	-200.000	-0.005	0.057
-224.684	-200.000	0.010	0.142
-223.669	-105.309	-0.223	-0.050
-222.655	-111.863	-0.144	-0.029
-221.640	43.440	0.083	0.074
-220.625	-200.000	0.027	-0.219
-219.611	-200.000	0.046	0.403
-218.596	614.838	0.081	0.197
-217.582	478.769	0.147	0.326
-216.567	107.129	0.181	0.210
-215.552	38.667	-0.033	0.029
-214.538	468.017	0.177	0.388
-213.523	-120.871	0.276	-0.046
-212.509	207.282	0.060	0.091
-211.494	-200.000	0.004	0.285
-210.479	-88.077	0.063	-0.019
-209.465	108.156	-0.145	-0.169
-208.450	-104.503	-0.365	0.083
-207.436	-200.000	0.035	-0.349
-206.421	153.581	-0.026	0.035
-205.406	-200.000	0.006	0.180
-204.392	800.000	-0.088	-0.296
-203.377	-67.620	0.332	-0.127
-202.363	-67.500	0.265	-0.102
-201.348	-200.000	0.060	0.303
-200.333	-60.590	-0.178	-0.074
-199.319	-200.000	-0.023	0.296
-198.304	-200.000	-0.012	-0.237
-197.290	800.000	0.054	0.172
-196.275	800.000	-0.071	-0.298
-195.260	15.557	-0.141	-0.108
-194.246	792.575	0.050	0.135
-193.231	-200.000	-0.075	0.341
-192.217	14.279	0.099	0.076
-191.202	104.095	0.021	-0.025
-190.187	522.901	0.082	0.189
-189.173	-6.869	0.287	0.191
-188.158	61.554	-0.309	0.300
-187.144	-179.036	0.338	0.007
-186.129	-2.949	0.214	-0.146
-185.114	-133.596	-0.079	0.010
-184.100	-36.818	0.224	-0.117
-183.085	-48.544	-0.144	-0.068
-182.071	-122.266	-0.080	-0.013
-181.056	-104.826	0.332	0.074
-180.042	-82.139	-0.412	0.131
-179.027	104.669	-0.136	-0.157
-178.012	107.012	-0.042	-0.049
-176.998	800.000	-0.015	-0.050
-175.983	-116.399	0.151	-0.027
-174.969	800.000	0.066	0.200
-173.954	215.792	-0.098	0.152
-172.939	51.527	0.118	-0.110
-171.925	200.550	0.052	-0.078
-170.910	-127.504	0.282	0.040
-169.896	792.980	0.098	0.264
-168.881	-0.226	-0.202	-0.140
-167.866	298.175	0.155	-0.279
-166.852	-157.382	-0.202	0.012
-165.837	800.000	0.021	-0.061
-164.823	-45.002	0.210	0.102
-163.808	-1.064	0.056	-0.039
-162.793	-93.261	-0.310	0.084
-161.779	430.176	-0.027	-0.057
-160.764	406.223	-0.141	-0.291
-159.750	-83.343	0.349	0.109
-158.735	800.000	-0.075	-0.233
-157.720	52.164	0.321	-0.298
-156.706	-112.949	0.274	0.053
-155.691	-9.030	-0.079	0.052
-154.677	265.582	-0.090	0.152
-153.662	800.000	-0.015	0.063
-152.647	-15.929	-0.144	-0.090
-151.633	-12.936	0.027	0.017
-150.618	-2.281	-0.089	-0.061
-149.604	534.690	0.105	0.243
-148.589	-117.114	0.137	-0.024
-147.574	-200.000	0.003	-0.043
-146.560	96.046	0.164	0.183
-145.545	-200.000	-0.014	-0.060
-144.531	-200.000	0.041	-0.235
-143.516	251.919	-0.065	-0.108
-142.502	-160.002	0.342	-0.018
-141.487	-103.500	0.329	-0.075
-140.472	629.699	-0.049	0.122
-139.458	-69.900	0.052	0.019
-138.443	66.553	0.314	0.311
-137.429	-200.000	-0.031	-0.264
-136.414	-200.000	-0.005	0.166
-135.399	-200.000	0.022	0.234
-134.385	-99.238	0.453	-0.112
-133.370	-89.870	-0.287	0.082
-132.356	82.721	-0.061	0.065
-131.341	319.768	0.117	-0.217
-130.326	800.000	-0.030	-0.114
-129.312	-37.090	0.139	0.073
-128.297	-120.756	0.047	-0.008
-127.283	29.836	0.300	0.249
-126.268	139.054	0.074	0.095
-125.253	800.000	-0.050	0.197
-124.239	-192.072	-0.220	-0.002
-123.224	142.460	0.198	-0.256
-122.210	-200.000	-0.085	-0.410
