DTS Sentinel unit serial number:	SN413079Multiplexer serial number:	ORYXHardware model number:	OX4-SRSoftware version number:	ORYX F/W v4.00 Oryx Data Collector v3.7.2.0data status	okinstallation	princeton_trtdifferential loss correction	single-endedforward channel	channel 2reverse channel	N/Adate	2019/09/10time	21:25:11forward acquisition time	60.00reverse acquisition time	0.00gamma	496.2192k internal	0.2330k external	0.2330temperature offset calibration	0.9948default loss term (dB/km)	0.3790temperature slope calibration	1.0000multiplexer offset coefficient	1.0000multiplexer slope coefficient	1.0000fibre end	0.00T internal ref (°C)	31.19T ext. ref 1 (°C)	-0.32T ext. ref 2 (°C)	24.35length (m)	temperature (°C)	Stokes	anti-Stokes-747.200	399.711	-0.144	0.304
-746.185	-184.657	-0.128	0.002
-745.171	-103.002	0.101	0.024
-744.156	74.066	0.063	0.066
-743.142	-87.735	0.252	-0.076
-742.127	-100.921	-0.105	0.026
-741.112	265.532	-0.071	0.124
-740.098	77.659	0.191	0.205
-739.083	-9.210	-0.080	0.054
-738.069	163.790	0.084	0.118
-737.054	-69.133	0.056	0.022
-736.039	138.369	-0.021	-0.028
-735.025	30.705	0.329	0.284
-734.010	-46.196	-0.465	-0.230
-732.996	12.494	0.092	-0.072
-731.981	800.000	0.109	-0.420
-730.966	800.000	0.102	-0.284
-729.952	-2.077	-0.143	0.101
-728.937	-114.719	0.193	0.037
-727.923	800.000	0.034	0.126
-726.908	97.661	-0.224	-0.259
-725.894	-98.751	-0.197	-0.050
-724.879	274.265	-0.071	-0.126
-723.864	333.701	-0.097	-0.189
-722.850	-91.627	-0.449	0.129
-721.835	52.817	-0.207	-0.199
-720.821	220.105	-0.043	-0.069
-719.806	220.840	-0.197	-0.318
-718.791	144.388	-0.035	0.047
-717.777	-200.000	0.019	0.248
-716.762	-123.869	0.186	-0.030
-715.748	133.604	-0.171	0.222
-714.733	783.767	-0.070	-0.193
-713.718	772.709	-0.067	-0.185
-712.704	-133.374	-0.353	0.045
-711.689	-200.000	0.001	-0.400
-710.675	800.000	-0.109	-0.348
-709.660	-200.000	-0.063	0.376
-708.645	-200.000	-0.041	-0.290
-707.631	-200.000	0.004	-0.095
-706.616	-12.411	-0.358	0.235
-705.602	-200.000	-0.004	0.120
-704.587	-108.823	-0.241	-0.052
-703.572	93.425	-0.163	-0.186
-702.558	3.120	-0.246	0.180
-701.543	-200.000	0.051	-0.345
-700.529	-101.483	-0.205	-0.050
-699.514	-120.768	-0.337	-0.057
-698.499	-139.123	0.205	-0.022
-697.485	-200.000	-0.000	-0.299
-696.470	50.610	-0.151	0.144
-695.456	-23.868	-0.398	-0.240
-694.441	-200.000	-0.009	-0.082
-693.426	273.294	0.115	-0.204
-692.412	-4.571	-0.184	-0.127
-691.397	-104.071	0.321	-0.075
-690.383	-71.404	-0.102	-0.038
-689.368	-138.912	-0.164	0.018
-688.354	456.559	-0.060	0.134
-687.339	-184.934	-0.141	-0.002
-686.324	-63.145	0.178	-0.074
-685.310	-89.480	-0.088	-0.026
-684.295	27.906	-0.186	-0.157
-683.281	24.181	-0.118	0.098
-682.266	-55.027	-0.132	-0.060
-681.251	-192.988	0.215	-0.002
-680.237	-107.958	-0.054	-0.012
-679.222	-24.218	-0.419	-0.251
-678.208	108.113	0.071	0.085
-677.193	-25.009	-0.236	-0.141
-676.178	-16.094	0.049	0.031
-675.164	800.000	-0.028	0.119
-674.149	-68.949	0.117	0.045
-673.135	34.883	-0.208	0.183
-672.120	137.773	0.076	-0.100
-671.105	481.640	0.152	0.346
-670.091	-22.384	-0.277	-0.168
-669.076	155.768	0.181	-0.251
-668.062	-111.604	-0.042	-0.009
-667.047	579.747	-0.064	-0.156
-666.032	-24.597	0.249	-0.149
-665.018	23.738	0.053	-0.044
-664.003	-70.178	-0.191	0.073
-662.989	800.000	0.072	-0.291
-661.974	-200.000	0.015	-0.134
-660.959	448.875	-0.147	0.324
-659.945	343.832	-0.162	-0.319
-658.930	206.683	-0.072	-0.113
-657.916	-93.527	-0.230	-0.064
-656.901	800.000	0.050	0.183
-655.886	-134.100	-0.309	0.038
-654.872	-200.000	-0.044	0.210
-653.857	6.331	0.100	0.074
-652.843	-200.000	-0.061	-0.380
-651.828	-99.527	-0.269	-0.068
-650.814	11.120	-0.158	-0.121
-649.799	-148.552	0.235	-0.019
-648.784	2.813	-0.230	0.168
-647.770	-70.623	-0.163	0.062
-646.755	394.267	0.073	-0.153
-645.741	-146.635	0.266	0.023
-644.726	-112.542	-0.242	0.048
-643.711	78.273	0.029	0.031
-642.697	-139.001	0.142	-0.015
-641.682	170.840	-0.106	0.152
-640.668	-49.539	0.296	0.141
-639.653	-74.843	-0.166	-0.060
-638.638	-39.285	-0.316	0.166
-637.624	-200.000	-0.026	0.119
-636.609	734.875	0.068	0.182
-635.595	800.000	0.100	0.279
-634.580	171.840	0.144	0.208
-633.565	-200.000	0.001	-0.035
-632.551	-200.000	-0.028	0.159
-631.536	-200.000	-0.014	-0.156
-630.522	-132.728	0.147	-0.019
-629.507	156.308	-0.039	-0.054
-628.492	-69.259	0.253	0.098
-627.478	233.451	-0.187	0.308
-626.463	-41.630	0.046	-0.024
-625.449	71.926	-0.276	-0.288
-624.434	-94.064	-0.153	-0.042
-623.419	12.903	-0.209	-0.162
-622.405	387.129	-0.181	0.374
-621.390	-15.840	-0.188	0.120
-620.376	4.917	0.064	-0.047
-619.361	-25.306	-0.322	0.191
-618.346	152.948	0.140	0.192
-617.332	-200.000	0.032	-0.249
-616.317	-200.000	-0.024	-0.194
-615.303	-47.753	0.194	0.094
-614.288	-200.000	-0.016	0.203
-613.273	351.014	0.046	-0.091
-612.259	800.000	0.073	0.268
-611.244	-43.120	0.300	-0.152
-610.230	-200.000	-0.071	0.333
-609.215	425.358	-0.095	-0.205
-608.201	-141.905	0.342	-0.034
-607.186	-7.304	0.092	0.062
-606.171	-132.830	-0.281	0.036
-605.157	-199.036	0.029	-0.000
-604.142	-28.516	0.110	-0.063
-603.128	-141.139	-0.370	0.038
-602.113	449.326	0.099	-0.218
-601.098	-200.000	0.048	-0.211
-600.084	3.039	-0.175	0.128
-599.069	12.259	-0.224	0.173
-598.055	800.000	0.055	-0.166
-597.040	-15.791	0.166	0.106
-596.025	-139.519	0.234	-0.025
-595.011	259.607	-0.219	0.379
-593.996	141.095	-0.039	-0.051
-592.982	41.424	0.265	0.240
-591.967	-83.172	-0.306	-0.099
-590.952	34.912	0.070	0.061
-589.938	13.803	-0.408	-0.317
-588.923	-39.806	-0.192	-0.100
-587.909	367.469	-0.124	0.250
-586.894	800.000	-0.118	0.334
-585.879	40.810	-0.116	-0.105
-584.865	-200.000	-0.005	0.235
-583.850	574.899	0.092	0.225
-582.836	-200.000	0.070	-0.395
-581.821	41.849	-0.108	0.098
-580.806	144.601	0.147	0.196
-579.792	-200.000	-0.002	0.121
-578.777	-56.289	0.360	-0.160
-577.763	-181.609	0.397	0.008
-576.748	-200.000	-0.030	-0.376
-575.733	111.361	-0.213	0.257
-574.719	-200.000	-0.051	-0.335
-573.704	78.589	0.339	-0.362
-572.690	-200.000	-0.010	0.422
-571.675	-79.635	0.176	-0.059
-570.661	-200.000	-0.005	0.151
-569.646	55.118	-0.364	0.352
-568.631	-200.000	-0.050	-0.512
-567.617	-142.806	0.103	0.010
-566.602	800.000	-0.075	0.211
-565.588	114.149	0.032	-0.039
-564.573	-76.789	-0.170	-0.059
-563.558	489.530	-0.103	-0.235
-562.544	-0.085	0.103	-0.073
-561.529	-126.538	-0.190	-0.028
-560.515	-99.049	-0.045	0.011
-559.500	20.857	0.203	-0.164
-558.485	-41.187	0.393	0.203
-557.471	-131.414	-0.167	-0.022
-556.456	-99.616	-0.134	-0.034
-555.442	68.522	-0.219	-0.225
-554.427	800.000	0.068	-0.209
-553.412	-79.427	-0.070	0.024
-552.398	583.686	-0.069	0.169
-551.383	800.000	-0.123	0.382
-550.369	800.000	-0.093	-0.318
-549.354	63.536	0.163	-0.163
-548.339	116.903	0.214	-0.263
-547.325	800.000	0.036	-0.101
-546.310	-50.471	0.310	-0.146
-545.296	-138.978	0.040	0.004
-544.281	800.000	-0.042	0.167
-543.266	800.000	0.044	0.143
-542.252	188.969	-0.127	-0.190
-541.237	-147.261	0.187	-0.016
-540.223	-46.823	0.269	-0.132
-539.208	-200.000	-0.036	0.281
-538.193	-119.328	0.201	0.035
-537.179	-82.572	-0.120	-0.039
-536.164	502.575	-0.036	0.084
-535.150	-59.996	0.222	-0.095
-534.135	54.322	-0.235	0.226
-533.121	-58.855	0.050	-0.022
-532.106	800.000	-0.064	-0.229
-531.091	-200.000	-0.049	-0.246
-530.077	25.097	0.300	-0.249
-529.062	-104.838	0.140	-0.032
-528.048	655.472	-0.087	0.223
-527.033	-17.244	-0.289	0.182
-526.018	-155.174	-0.209	-0.014
-525.004	53.816	0.141	0.135
-523.989	800.000	-0.097	0.367
-522.975	-200.000	0.030	-0.300
-521.960	-136.671	-0.211	-0.024
-520.945	-200.000	0.009	-0.063
-519.931	-200.000	-0.022	-0.160
-518.916	-87.138	0.323	-0.098
-517.902	368.978	-0.042	0.085
-516.887	175.607	0.076	0.109
-515.872	-114.009	0.175	0.034
-514.858	13.992	-0.175	0.136
-513.843	229.754	0.271	0.442
-512.829	81.926	-0.264	-0.285
-511.814	11.259	-0.023	0.018
-510.799	453.125	-0.063	-0.140
-509.785	800.000	0.019	0.062
-508.770	5.999	-0.372	-0.275
-507.756	84.809	0.174	-0.190
-506.741	265.761	0.069	0.120
-505.726	-200.000	0.001	-0.354
-504.712	334.769	0.122	-0.236
-503.697	477.499	-0.155	0.350
-502.683	37.259	-0.210	-0.186
-501.668	309.623	0.062	-0.116
-500.653	-4.606	-0.111	0.077
-499.639	-107.432	-0.184	-0.040
-498.624	702.598	0.096	0.252
-497.610	-100.773	-0.254	0.062
-496.595	-200.000	-0.006	0.104
-495.581	-11.265	0.197	0.129
-494.566	-146.268	0.227	0.020
-493.551	187.750	0.170	-0.252
-492.537	25.015	0.060	-0.050
-491.522	108.452	0.156	-0.185
-490.508	-21.237	0.326	-0.198
-489.493	520.392	0.027	-0.063
-488.478	-112.455	-0.244	-0.049
-487.464	-184.234	-0.406	-0.007
-486.449	146.805	-0.142	0.190
-485.435	-88.073	0.039	-0.012
-484.420	231.255	0.240	0.393
-483.405	-65.560	-0.249	0.100
-482.391	-200.000	0.001	0.361
-481.376	193.676	-0.162	0.245
-480.362	-88.604	-0.311	-0.092
-479.347	168.190	-0.095	0.135
-478.332	-2.297	-0.202	-0.141
-477.318	11.641	0.191	0.146
-476.303	-200.000	-0.008	-0.046
-475.289	-63.488	-0.095	0.039
-474.274	-7.337	0.145	-0.098
-473.259	-200.000	0.086	-0.384
-472.245	81.052	0.154	-0.165
-471.230	-89.513	0.121	0.035
-470.216	800.000	0.024	-0.067
-469.201	480.071	-0.053	-0.120
-468.186	102.094	-0.334	-0.389
-467.172	-117.401	-0.395	0.071
-466.157	-200.000	-0.035	0.207
-465.143	190.873	-0.182	-0.273
-464.128	-76.591	0.126	-0.044
-463.113	52.344	0.090	-0.085
-462.099	-93.197	0.310	0.086
-461.084	800.000	-0.019	-0.073
-460.070	12.681	-0.116	0.089
-459.055	-193.390	-0.189	-0.002
-458.040	-103.482	-0.199	-0.047
-457.026	323.289	-0.052	-0.098
-456.011	-57.272	-0.213	0.093
-454.997	-200.000	-0.018	0.164
-453.982	-67.441	0.194	-0.076
-452.968	81.208	0.090	0.097
-451.953	96.164	0.112	0.127
-450.938	-72.441	-0.029	-0.011
-449.924	-200.000	0.023	0.108
-448.909	-4.012	0.026	0.018
-447.895	800.000	0.058	0.240
-446.880	-13.326	0.253	-0.164
-445.865	6.538	0.228	-0.169
-444.851	99.641	-0.068	-0.078
-443.836	-200.000	-0.002	-0.070
-442.822	463.514	0.064	-0.143
-441.807	800.000	0.058	0.200
-440.792	86.519	-0.058	0.064
-439.778	-166.816	0.076	-0.003
-438.763	-46.030	0.064	-0.031
-437.749	-200.000	-0.024	-0.117
-436.734	226.921	-0.061	-0.099
-435.719	270.287	-0.191	-0.334
-434.705	-106.882	0.322	0.071
-433.690	800.000	0.053	-0.147
-432.676	6.485	-0.065	-0.048
-431.661	800.000	-0.026	0.108
-430.646	213.933	0.151	-0.238
-429.632	6.550	0.074	-0.055
-428.617	-128.912	-0.325	-0.045
-427.603	-200.000	0.023	0.149
-426.588	-49.777	-0.126	-0.060
-425.573	-32.422	0.090	0.050
-424.559	385.181	-0.049	-0.100
-423.544	-200.000	-0.009	0.151
-422.530	-153.113	0.030	-0.002
-421.515	-200.000	-0.071	-0.416
-420.500	122.927	-0.220	-0.273
-419.486	4.563	0.061	-0.044
-418.471	-200.000	0.002	-0.012
-417.457	181.780	-0.076	-0.111
-416.442	138.967	0.136	0.177
-415.428	-200.000	0.057	-0.518
-414.413	-136.119	-0.213	-0.025
-413.398	-121.833	0.280	0.046
-412.384	-125.786	-0.317	-0.048
-411.369	59.217	-0.146	-0.143
-410.355	-200.000	0.054	0.318
-409.340	-200.000	-0.144	0.000
-408.325	-200.000	0.030	0.369
-407.311	-3.926	-0.115	-0.079
-406.296	385.081	0.138	0.282
-405.282	800.000	0.068	0.233
-404.267	-200.000	-0.027	-0.208
-403.252	-200.000	-0.018	0.161
-402.238	-200.000	-0.003	0.027
-401.223	707.219	0.087	-0.228
-400.209	377.652	0.075	-0.152
-399.194	640.784	0.035	-0.089
-398.179	585.346	0.022	0.054
-397.165	57.846	0.116	0.113
-396.150	-31.468	-0.175	-0.098
-395.136	43.005	0.027	0.024
-394.121	800.000	-0.006	-0.020
-393.106	18.578	0.197	-0.157
-392.092	-80.355	0.133	-0.044
-391.077	15.252	0.288	-0.224
-390.063	35.625	0.235	0.205
-389.048	-12.945	-0.235	-0.152
-388.033	45.166	-0.035	0.032
-387.019	-17.145	-0.138	0.086
-386.004	-87.711	0.260	-0.078
-384.990	-36.759	-0.190	-0.101
-383.975	-122.253	-0.236	-0.038
-382.960	-108.964	-0.400	0.085
-381.946	205.602	0.076	-0.118
-380.931	634.728	0.087	0.220
-379.917	196.666	0.193	0.291
-378.902	-71.265	-0.091	-0.034
-377.888	-142.009	0.262	0.026
-376.873	-200.000	0.020	-0.359
-375.858	81.682	-0.036	0.039
-374.844	-29.017	-0.234	-0.133
-373.829	-58.443	0.388	-0.167
-372.815	-133.960	0.372	-0.046
-371.800	55.456	0.076	-0.073
-370.785	-76.765	-0.423	-0.147
-369.771	10.786	-0.084	0.063
-368.756	112.161	-0.185	-0.222
-367.742	-141.668	0.064	-0.006
-366.727	-56.797	0.100	0.044
-365.712	-56.587	-0.194	0.085
-364.698	113.481	-0.182	0.219
-363.683	298.956	0.021	0.038
-362.669	370.545	0.044	0.089
-361.654	-200.000	0.032	0.173
-360.639	-175.131	-0.134	0.004
-359.625	577.176	-0.033	0.081
-358.610	53.438	-0.098	0.093
-357.596	24.818	0.158	-0.130
-356.581	20.666	0.212	-0.170
-355.566	145.434	-0.232	-0.308
-354.552	161.422	-0.242	0.335
-353.537	87.789	-0.101	0.111
-352.523	-104.436	0.072	0.017
-351.508	-200.000	0.039	-0.274
-350.493	250.613	-0.097	-0.164
-349.479	-200.000	0.005	-0.193
-348.464	-200.000	0.025	0.300
-347.450	198.756	0.038	0.057
-346.435	-200.000	-0.040	-0.274
-345.420	800.000	-0.106	-0.336
-344.406	-49.455	-0.104	0.049
-343.391	36.533	0.044	0.039
-342.377	800.000	-0.031	-0.096
-341.362	67.509	0.071	-0.072
-340.348	30.260	0.060	0.051
-339.333	19.615	-0.259	-0.206
-338.318	504.144	0.102	0.234
-337.304	-59.243	-0.252	0.108
-336.289	554.756	0.124	-0.295
-335.275	323.564	-0.021	-0.039
-334.260	138.515	-0.192	-0.249
-333.245	282.651	-0.045	-0.080
-332.231	800.000	-0.017	-0.068
-331.216	-21.069	0.151	-0.092
-330.202	59.478	0.100	-0.098
-329.187	-59.614	-0.282	0.120
-328.172	-74.070	0.331	0.119
-327.158	-200.000	-0.003	-0.038
-326.143	67.116	-0.121	-0.122
-325.129	-200.000	0.002	0.174
-324.114	-142.842	0.339	-0.033
-323.099	-200.000	0.078	0.474
-322.085	-200.000	0.049	0.240
-321.070	-200.000	0.012	-0.180
-320.056	800.000	0.079	0.246
-319.041	-200.000	0.025	-0.161
-318.026	-200.000	-0.028	-0.301
-317.012	-200.000	0.025	0.313
-315.997	-47.072	-0.165	0.080
-314.983	-140.126	0.220	-0.023
-313.968	-44.042	-0.066	0.033
-312.953	-92.376	0.297	0.083
-311.939	-21.361	0.424	-0.257
-310.924	-38.681	0.081	-0.043
-309.910	-114.003	-0.160	0.031
-308.895	-113.996	-0.326	-0.063
-307.880	-125.357	0.198	-0.030
-306.866	800.000	0.113	0.378
-305.851	490.599	-0.038	0.087
-304.837	-98.092	-0.281	0.071
-303.822	282.235	0.112	0.198
-302.807	694.414	0.106	0.276
-301.793	-95.790	-0.143	-0.038
-300.778	233.055	-0.108	-0.176
-299.764	32.589	0.127	-0.109
-298.749	-62.573	-0.243	-0.100
-297.735	-200.000	0.018	-0.436
-296.720	-47.608	-0.127	-0.061
-295.705	-114.933	-0.225	0.042
-294.691	-200.000	-0.086	-0.382
-293.676	-103.881	0.338	0.078
-292.662	-200.000	0.002	0.043
-291.647	467.365	0.095	0.210
-290.632	424.838	-0.055	0.116
-289.618	-108.403	-0.373	0.080
-288.603	-133.519	-0.197	-0.024
-287.589	800.000	0.022	-0.085
-286.574	800.000	-0.030	-0.082
-285.559	9.465	0.183	-0.137
-284.545	-79.841	0.386	-0.129
-283.530	-200.000	0.065	0.287
-282.516	-64.975	-0.330	0.132
-281.501	158.552	0.024	-0.032
-280.486	-108.896	-0.133	-0.028
-279.472	-188.353	-0.108	-0.001
-278.457	-49.322	0.382	0.180
-277.443	-200.000	-0.013	0.131
-276.428	443.637	-0.127	-0.275
-275.413	105.513	-0.259	0.302
-274.399	2.617	-0.058	0.042
-273.384	1.584	0.117	-0.083
-272.370	-83.986	0.164	-0.052
-271.355	223.095	0.087	0.139
-270.340	-144.766	0.292	-0.027
-269.326	-93.248	0.233	-0.064
-268.311	10.806	-0.097	0.073
-267.297	71.739	-0.227	0.233
-266.282	800.000	0.121	0.469
-265.267	-81.256	-0.169	0.055
-264.253	253.820	-0.046	-0.078
-263.238	-200.000	0.039	0.190
-262.224	800.000	-0.097	-0.313
-261.209	55.990	0.247	-0.237
-260.195	90.583	-0.218	-0.241
-259.180	-69.036	-0.237	-0.090
-258.165	-59.506	0.294	0.125
-257.151	-99.461	0.032	0.008
-256.136	306.057	-0.173	-0.318
-255.122	-180.861	-0.438	-0.009
-254.107	155.523	-0.065	-0.088
-253.092	-110.761	0.185	0.038
-252.078	53.069	-0.125	0.118
-251.063	-157.921	0.160	-0.009
-250.049	137.531	0.139	-0.179
-249.034	-78.534	0.205	-0.069
-248.019	591.102	0.070	0.171
-247.005	-65.521	0.069	0.027
-245.990	-200.000	0.002	-0.075
-244.976	-200.000	0.013	-0.231
-243.961	203.401	0.085	-0.130
-242.946	-26.829	-0.089	-0.052
-241.932	-65.788	0.198	0.078
-240.917	169.284	0.028	0.039
-239.903	508.808	0.121	0.279
-238.888	-117.188	0.191	0.034
-237.873	31.768	0.132	0.112
-236.859	-110.943	-0.214	0.043
-235.844	315.162	0.127	0.237
-234.830	122.343	-0.134	0.165
-233.815	287.622	-0.075	-0.134
-232.800	-194.156	0.182	0.001
-231.786	-61.033	0.088	-0.036
-230.771	609.448	-0.117	-0.288
-229.757	109.634	0.347	0.410
-228.742	696.740	-0.100	-0.259
-227.727	-200.000	0.018	-0.235
-226.713	120.113	0.162	0.198
-225.698	455.430	0.082	0.180
-224.684	-200.000	-0.010	-0.217
-223.669	62.185	0.183	0.180
-222.655	-134.266	-0.381	0.046
-221.640	63.262	0.258	-0.255
-220.625	556.816	-0.060	-0.142
-219.611	215.888	0.174	0.272
-218.596	-103.336	0.420	-0.098
-217.582	334.293	0.083	0.158
-216.567	125.308	0.050	-0.062
-215.552	291.747	0.040	-0.072
-214.538	-28.701	-0.106	-0.060
-213.523	-200.000	-0.007	-0.076
-212.509	-200.000	-0.015	0.332
-211.494	-152.696	-0.118	0.008
-210.479	14.228	0.216	0.166
-209.465	-200.000	-0.016	0.269
-208.450	-91.588	-0.163	-0.046
-207.436	800.000	-0.071	-0.226
-206.421	-200.000	-0.049	-0.393
-205.406	-170.239	-0.247	-0.009
-204.392	71.168	-0.325	-0.332
-203.377	-200.000	-0.009	-0.100
-202.363	-66.407	-0.118	0.046
-201.348	79.856	-0.104	-0.110
-200.333	800.000	0.042	0.125
-199.319	-200.000	-0.028	-0.334
-198.304	-119.501	-0.212	0.036
-197.290	46.382	0.130	0.119
-196.275	89.344	-0.141	0.155
-195.260	-23.763	0.277	0.163
-194.246	-30.776	0.269	0.150
-193.231	286.103	-0.099	0.175
-192.217	-200.000	-0.029	0.222
-191.202	20.883	0.092	0.073
-190.187	411.966	-0.121	-0.254
-189.173	-54.654	0.081	0.036
-188.158	-200.000	0.008	0.091
-187.144	800.000	0.025	-0.096
-186.129	-52.957	-0.272	0.124
-185.114	99.371	-0.070	-0.079
-184.100	800.000	0.048	0.193
-183.085	-200.000	-0.052	0.301
-182.071	-200.000	0.002	0.175
-181.056	-200.000	0.044	-0.338
-180.042	4.176	0.256	0.185
-179.027	-200.000	-0.011	0.113
-178.012	-30.791	0.236	-0.131
-176.998	800.000	-0.064	0.203
-175.983	-33.891	0.165	0.089
-174.969	34.725	-0.023	0.020
-173.954	39.482	0.311	0.275
-172.939	150.594	-0.125	-0.168
-171.925	-200.000	0.022	-0.399
-170.910	48.363	-0.146	0.134
-169.896	-200.000	0.017	0.226
-168.881	43.265	-0.195	-0.175
-167.866	151.251	-0.114	0.153
-166.852	477.702	0.225	-0.502
-165.837	32.086	-0.135	-0.115
-164.823	150.871	-0.147	0.197
-163.808	-128.063	0.432	-0.061
-162.793	-151.451	-0.187	0.014
-161.779	230.030	0.128	-0.206
-160.764	-200.000	-0.029	0.158
-159.750	-200.000	-0.024	0.230
-158.735	506.034	-0.068	0.156
-157.720	229.819	-0.146	-0.234
-156.706	88.356	0.230	0.251
-155.691	-154.801	-0.276	-0.018
-154.677	-109.469	0.061	0.013
-153.662	800.000	0.087	0.346
-152.647	123.805	0.118	0.146
-151.633	-56.369	0.166	0.073
-150.618	800.000	-0.015	0.049
-149.604	-164.923	0.172	0.008
-148.589	-200.000	-0.026	-0.196
-147.574	108.345	-0.091	0.107
-146.560	2.792	-0.259	0.185
-145.545	-32.202	0.227	-0.125
-144.531	20.328	-0.281	0.224
-143.516	-76.369	-0.131	-0.045
-142.502	-147.982	0.446	-0.036
-141.487	335.467	0.078	0.148
-140.472	478.722	0.105	0.235
-139.458	68.926	-0.230	0.233
-138.443	800.000	-0.118	-0.369
-137.429	-29.484	-0.323	-0.182
-136.414	-3.446	0.337	-0.231
-135.399	-200.000	0.023	-0.206
-134.385	706.482	0.091	-0.236
-133.370	133.840	0.114	-0.145
-132.356	-91.924	-0.148	-0.041
-131.341	-134.072	0.115	0.014
-130.326	-39.126	0.136	-0.070
-129.312	-200.000	-0.043	0.296
-128.297	283.257	0.246	0.434
-127.283	38.816	0.272	0.238
-126.268	-81.793	-0.104	-0.033
-125.253	24.186	0.316	-0.257
-124.239	-99.066	-0.476	0.118
-123.224	800.000	-0.089	0.251
-122.210	66.769	-0.208	-0.208
