DTS Sentinel unit serial number:	SN413079Multiplexer serial number:	ORYXHardware model number:	OX4-SRSoftware version number:	ORYX F/W v4.00 Oryx Data Collector v3.7.2.0data status	okinstallation	princeton_trtdifferential loss correction	single-endedforward channel	channel 2reverse channel	N/Adate	2019/09/12time	04:05:10forward acquisition time	60.00reverse acquisition time	0.00gamma	496.2192k internal	0.2326k external	0.2326temperature offset calibration	1.0096default loss term (dB/km)	0.3790temperature slope calibration	1.0000multiplexer offset coefficient	1.0000multiplexer slope coefficient	1.0000fibre end	0.00T internal ref (°C)	32.00T ext. ref 1 (°C)	2.18T ext. ref 2 (°C)	25.96length (m)	temperature (°C)	Stokes	anti-Stokes-747.200	42.296	-0.082	0.075
-746.185	69.242	0.311	0.323
-745.171	664.329	0.064	-0.166
-744.156	540.816	0.062	0.149
-743.142	800.000	0.065	0.217
-742.127	427.029	-0.060	0.130
-741.112	127.850	0.105	-0.134
-740.098	108.118	-0.178	-0.215
-739.083	210.981	0.033	-0.052
-738.069	-179.065	0.322	-0.007
-737.054	-200.000	0.041	-0.214
-736.039	-94.376	-0.443	-0.122
-735.025	-86.131	0.245	0.076
-734.010	-154.729	-0.397	-0.027
-732.996	-113.774	-0.096	-0.019
-731.981	-49.547	0.181	0.087
-730.966	-200.000	0.005	0.122
-729.952	-172.529	-0.033	-0.001
-728.937	-58.680	0.274	-0.120
-727.923	430.853	-0.224	-0.490
-726.908	-27.646	-0.203	0.119
-725.894	165.443	-0.044	0.063
-724.879	765.719	-0.153	-0.419
-723.864	-81.621	0.144	-0.048
-722.850	-72.104	0.316	0.118
-721.835	-110.854	0.251	0.052
-720.821	88.862	-0.095	0.107
-719.806	-200.000	-0.070	-0.330
-718.791	214.625	0.227	-0.362
-717.777	-199.948	-0.291	0.001
-716.762	-58.985	-0.212	0.092
-715.748	-138.891	-0.375	0.041
-714.733	-200.000	-0.086	-0.513
-713.718	-200.000	0.025	-0.222
-712.704	395.016	-0.018	0.038
-711.689	-124.678	-0.412	-0.064
-710.675	800.000	-0.041	0.180
-709.660	-200.000	0.000	-0.107
-708.645	-200.000	0.056	0.273
-707.631	-161.831	-0.203	0.010
-706.616	29.567	-0.382	0.327
-705.602	1.655	-0.488	-0.354
-704.587	15.227	0.290	0.229
-703.572	-53.770	-0.072	-0.033
-702.558	314.908	-0.273	-0.518
-701.543	-200.000	-0.019	-0.116
-700.529	417.448	0.041	0.087
-699.514	147.596	-0.135	0.184
-698.499	423.970	-0.059	0.127
-697.485	-36.982	-0.219	-0.118
-696.470	-30.723	-0.188	0.107
-695.456	-200.000	-0.007	-0.118
-694.441	88.401	-0.191	-0.213
-693.426	-156.677	-0.081	-0.005
-692.412	800.000	0.044	-0.140
-691.397	-106.880	-0.366	0.082
-690.383	-65.070	0.212	-0.086
-689.368	68.842	0.257	-0.266
-688.354	-88.325	-0.193	0.058
-687.339	34.247	0.070	-0.062
-686.324	251.751	0.202	0.346
-685.310	411.514	-0.059	-0.126
-684.295	-106.565	-0.206	-0.046
-683.281	95.278	0.114	-0.131
-682.266	-77.393	0.094	0.033
-681.251	-123.546	-0.199	-0.032
-680.237	253.188	-0.219	0.376
-679.222	74.360	0.186	0.197
-678.208	-200.000	0.015	-0.100
-677.193	-200.000	0.069	-0.423
-676.178	-200.000	0.038	-0.174
-675.164	599.020	0.103	0.257
-674.149	-133.982	0.466	-0.058
-673.135	-200.000	0.035	-0.339
-672.120	23.629	0.146	0.121
-671.105	800.000	-0.122	-0.475
-670.091	-190.833	-0.284	-0.003
-669.076	101.165	-0.070	-0.082
-668.062	-200.000	-0.024	-0.244
-667.047	45.966	-0.214	-0.199
-666.032	109.462	0.207	-0.249
-665.018	173.618	0.223	-0.323
-664.003	366.531	-0.091	0.185
-662.989	-162.429	-0.083	0.004
-661.974	42.669	0.388	-0.356
-660.959	242.186	-0.163	-0.274
-659.945	800.000	-0.122	-0.424
-658.930	321.330	-0.061	0.117
-657.916	-44.893	0.295	-0.148
-656.901	234.391	0.174	-0.288
-655.886	-98.620	0.241	-0.062
-654.872	-200.000	0.002	0.132
-653.857	-140.752	0.323	-0.034
-652.843	-50.771	0.098	-0.046
-651.828	-83.715	0.362	0.116
-650.814	355.475	0.146	-0.292
-649.799	-86.610	-0.534	-0.165
-648.784	-200.000	0.047	-0.347
-647.770	-116.552	-0.306	0.057
-646.755	800.000	0.037	-0.129
-645.741	-96.447	-0.263	0.070
-644.726	108.012	0.090	0.107
-643.711	-200.000	0.037	-0.173
-642.697	-200.000	0.007	-0.383
-641.682	11.303	0.349	-0.269
-640.668	-43.935	0.180	0.091
-639.653	139.851	-0.085	-0.113
-638.638	-200.000	0.001	-0.051
-637.624	753.949	-0.176	-0.478
-636.609	-73.844	-0.111	0.040
-635.595	-94.211	-0.351	-0.097
-634.580	151.362	-0.035	-0.048
-633.565	201.319	-0.058	0.090
-632.551	204.415	-0.074	0.116
-631.536	-30.058	-0.297	0.170
-630.522	31.948	0.282	-0.244
-629.507	800.000	0.063	-0.216
-628.492	-88.216	0.222	-0.067
-627.478	-114.151	-0.052	0.010
-626.463	183.869	-0.101	0.150
-625.449	-188.980	-0.274	-0.003
-624.434	-42.543	0.078	-0.040
-623.419	144.441	0.155	0.208
-622.405	-200.000	-0.012	0.114
-621.390	546.110	0.007	0.016
-620.376	-96.062	-0.147	-0.039
-619.361	-39.618	-0.128	0.067
-618.346	-161.357	0.239	0.012
-617.332	-17.133	0.287	0.182
-616.317	-41.103	0.229	-0.119
-615.303	66.364	0.262	0.267
-614.288	79.832	0.220	0.237
-613.273	217.738	0.198	0.317
-612.259	800.000	0.110	-0.387
-611.244	-91.508	0.227	-0.065
-610.230	71.059	-0.150	0.156
-609.215	-9.884	0.334	-0.223
-608.201	800.000	-0.067	0.239
-607.186	325.131	-0.191	0.366
-606.171	-200.000	-0.069	-0.328
-605.157	111.285	0.146	0.176
-604.142	132.344	-0.129	0.167
-603.128	-80.178	0.150	0.051
-602.113	-200.000	0.004	0.083
-601.098	-200.000	-0.032	0.334
-600.084	47.854	0.360	-0.337
-599.069	-26.764	-0.025	-0.015
-598.055	-146.837	-0.411	0.036
-597.040	446.761	0.152	0.336
-596.025	426.482	-0.104	0.225
-595.011	-9.993	-0.344	0.229
-593.996	508.320	0.093	0.217
-592.982	118.406	-0.245	0.303
-591.967	47.748	0.142	0.133
-590.952	161.525	0.148	-0.207
-589.938	-200.000	-0.004	-0.054
-588.923	-200.000	-0.043	-0.315
-587.909	-200.000	0.011	-0.249
-586.894	-92.063	-0.270	-0.076
-585.879	-144.759	-0.082	-0.008
-584.865	-68.171	-0.112	0.044
-583.850	40.084	0.332	0.299
-582.836	-139.227	0.106	-0.011
-581.821	800.000	-0.091	-0.259
-580.806	-15.240	-0.295	-0.189
-579.792	-172.121	-0.366	0.012
-578.777	-101.125	-0.074	-0.018
-577.763	273.495	-0.090	-0.159
-576.748	-42.734	-0.455	0.232
-575.733	-114.380	-0.146	0.028
-574.719	146.024	0.123	0.165
-573.704	56.175	-0.401	-0.390
-572.690	-200.000	0.030	-0.193
-571.675	184.289	-0.034	-0.051
-570.661	59.358	-0.331	-0.327
-569.646	-200.000	0.046	-0.382
-568.631	98.504	0.159	0.184
-567.617	800.000	-0.051	-0.217
-566.602	-102.445	0.207	-0.050
-565.588	60.359	0.158	0.157
-564.573	49.677	-0.032	-0.031
-563.558	253.028	-0.060	-0.103
-562.544	-71.331	0.338	-0.127
-561.529	-103.200	0.027	-0.006
-560.515	471.308	0.149	0.336
-559.500	-87.930	0.158	0.047
-558.485	-200.000	-0.009	-0.084
-557.471	-50.457	-0.147	-0.069
-556.456	-200.000	0.040	0.229
-555.442	-11.162	-0.265	-0.175
-554.427	-150.468	-0.124	-0.010
-553.412	-200.000	0.007	0.045
-552.398	445.649	-0.074	-0.162
-551.383	800.000	0.054	-0.231
-550.369	-44.015	0.178	0.089
-549.354	287.718	0.134	0.243
-548.339	-71.037	-0.160	-0.060
-547.325	370.738	-0.056	-0.113
-546.310	22.507	-0.153	-0.125
-545.296	98.140	-0.059	-0.068
-544.281	-132.524	-0.168	-0.022
-543.266	168.113	0.035	0.051
-542.252	32.974	-0.172	-0.149
-541.237	93.754	-0.109	-0.124
-540.223	130.500	-0.127	-0.163
-539.208	-14.948	0.124	-0.080
-538.193	-48.121	0.291	0.141
-537.179	580.543	-0.040	0.099
-536.164	-187.839	0.447	-0.006
-535.150	-19.342	-0.056	-0.035
-534.135	83.058	0.328	-0.357
-533.121	278.726	0.027	0.047
-532.106	115.111	-0.141	-0.173
-531.091	105.703	-0.109	0.129
-530.077	-44.851	0.235	-0.117
-529.062	800.000	0.061	0.233
-528.048	-200.000	0.014	0.245
-527.033	-6.198	0.109	0.075
-526.018	16.876	-0.204	-0.161
-525.004	459.953	0.051	-0.114
-523.989	-46.099	-0.113	0.056
-522.975	800.000	0.069	0.208
-521.960	421.376	-0.144	0.309
-520.945	68.412	-0.081	-0.083
-519.931	-124.566	-0.310	0.048
-518.916	-119.286	0.128	-0.022
-517.902	-47.381	0.046	-0.023
-516.887	74.853	-0.038	-0.040
-515.872	-200.000	-0.133	-0.651
-514.858	-88.265	0.170	-0.051
-513.843	-200.000	-0.070	-0.345
-512.829	540.817	-0.105	-0.250
-511.814	189.982	-0.227	-0.340
-510.799	-35.646	0.268	-0.146
-509.785	45.748	-0.117	-0.108
-508.770	-73.312	-0.169	0.062
-507.756	-103.762	0.315	0.074
-506.741	379.008	0.229	-0.468
-505.726	138.171	-0.134	-0.176
-504.712	-198.456	0.152	0.001
-503.697	800.000	0.074	0.276
-502.683	105.965	-0.346	-0.409
-501.668	800.000	0.029	-0.118
-500.653	-28.596	-0.178	0.102
-499.639	-200.000	0.047	-0.354
-498.624	-73.928	-0.235	0.085
-497.610	182.943	-0.156	0.230
-496.595	109.582	0.055	0.066
-495.581	112.366	-0.279	0.337
-494.566	-200.000	-0.001	-0.069
-493.551	215.868	0.037	0.058
-492.537	-200.000	0.041	0.259
-491.522	263.438	0.113	0.195
-490.508	65.539	0.034	0.034
-489.493	420.209	-0.212	-0.454
-488.478	1.181	-0.526	0.377
-487.464	-158.016	0.044	-0.003
-486.449	-58.524	0.531	0.230
-485.435	-81.594	-0.165	0.054
-484.420	-36.001	0.069	-0.037
-483.405	-200.000	-0.001	-0.107
-482.391	22.732	-0.024	-0.020
-481.376	56.134	-0.183	0.177
-480.362	260.930	-0.060	-0.103
-479.347	27.864	0.185	0.155
-478.332	110.874	0.270	0.324
-477.318	-200.000	0.061	0.311
-476.303	132.692	0.091	0.117
-475.289	-117.284	-0.224	-0.041
-474.274	-27.824	-0.335	-0.194
-473.259	334.464	0.035	0.067
-472.245	370.275	0.132	-0.266
-471.230	800.000	0.088	-0.245
-470.216	307.980	-0.079	-0.148
-469.201	-109.210	0.259	0.055
-468.186	800.000	0.026	0.107
-467.172	800.000	-0.039	-0.130
-466.157	-121.838	-0.326	-0.054
-465.143	-45.598	0.137	-0.068
-464.128	-8.555	-0.194	-0.130
-463.113	323.617	-0.151	0.287
-462.099	-31.335	0.077	-0.043
-461.084	-8.115	0.364	-0.245
-460.070	99.287	0.119	-0.137
-459.055	-93.078	0.016	-0.005
-458.040	738.086	-0.095	0.255
-457.026	39.943	0.247	-0.221
-456.011	93.176	0.132	-0.149
-454.997	209.620	-0.125	0.195
-453.982	115.756	-0.154	0.188
-452.968	-139.132	-0.178	-0.019
-451.953	-200.000	-0.058	-0.261
-450.938	204.323	0.084	0.130
-449.924	455.744	-0.122	-0.270
-448.909	-9.850	0.257	0.170
-447.895	-200.000	-0.077	-0.344
-446.880	475.407	0.075	-0.169
-445.865	-68.919	0.163	0.063
-444.851	493.223	0.107	0.244
-443.836	-200.000	0.033	-0.158
-442.822	800.000	0.022	-0.095
-441.807	249.095	0.144	0.243
-440.792	469.993	0.064	-0.144
-439.778	-128.005	0.101	-0.014
-438.763	199.478	-0.146	-0.224
-437.749	323.723	0.079	-0.150
-436.734	307.276	-0.111	0.206
-435.719	-200.000	-0.004	-0.123
-434.705	-200.000	-0.055	-0.300
-433.690	137.272	0.103	-0.134
-432.676	-75.320	-0.153	-0.054
-431.661	-200.000	0.003	-0.098
-430.646	-55.464	0.277	0.124
-429.632	-119.784	-0.188	0.032
-428.617	-170.266	0.062	0.002
-427.603	293.688	-0.211	0.383
-426.588	-40.961	0.304	-0.157
-425.573	-33.495	-0.248	-0.137
-424.559	19.423	0.363	-0.291
-423.544	-118.801	-0.087	-0.015
-422.530	-54.501	-0.087	0.039
-421.515	308.454	0.168	0.313
-420.500	800.000	0.054	0.201
-419.486	800.000	-0.089	0.356
-418.471	-34.529	-0.127	0.069
-417.457	-200.000	0.008	-0.128
-416.442	438.584	-0.061	0.133
-415.428	800.000	0.071	0.239
-414.413	-96.101	-0.183	0.048
-413.398	407.356	-0.076	0.161
-412.384	782.989	0.049	-0.132
-411.369	43.321	0.200	0.182
-410.355	663.177	-0.091	0.234
-409.340	-76.298	-0.134	-0.047
-408.325	-200.000	-0.011	-0.217
-407.311	-60.497	-0.169	-0.072
-406.296	254.589	0.048	0.082
-405.282	-200.000	-0.028	0.125
-404.267	327.484	0.104	-0.199
-403.252	-200.000	0.037	0.218
-402.238	-59.094	-0.341	-0.146
-401.223	-133.235	0.232	0.029
-400.209	7.066	-0.100	0.074
-399.194	91.108	-0.050	0.056
-398.179	379.845	-0.149	0.304
-397.165	800.000	-0.061	0.228
-396.150	46.928	-0.176	0.163
-395.136	340.119	0.097	0.189
-394.121	48.833	0.098	-0.091
-393.106	-153.033	-0.195	0.014
-392.092	30.390	-0.029	0.024
-391.077	-200.000	-0.070	-0.526
-390.063	-141.226	0.336	0.034
-389.048	-111.715	-0.359	0.072
-388.033	-200.000	0.025	0.192
-387.019	381.142	0.135	-0.276
-386.004	-36.136	0.065	-0.035
-384.990	-200.000	-0.031	0.143
-383.975	-66.564	-0.141	0.056
-382.960	-79.409	0.245	0.083
-381.946	-93.368	-0.188	-0.052
-380.931	-107.917	0.281	-0.061
-379.917	167.168	-0.178	0.251
-378.902	152.271	0.112	0.151
-377.888	-168.962	-0.185	-0.007
-376.873	8.077	-0.041	-0.030
-375.858	68.965	0.142	0.145
-374.844	-87.040	0.309	0.093
-373.829	800.000	-0.027	0.116
-372.815	-200.000	-0.074	0.431
-371.800	127.011	-0.167	0.210
-370.785	-79.386	-0.294	-0.099
-369.771	-79.676	0.110	-0.037
-368.756	602.300	-0.032	-0.080
-367.742	621.325	0.090	-0.225
-366.727	-130.292	0.257	-0.035
-365.712	13.562	0.043	-0.033
-364.698	-200.000	0.006	0.089
-363.683	-111.793	-0.145	-0.029
-362.669	93.286	0.297	-0.333
-361.654	-120.753	-0.407	0.068
-360.639	-200.000	0.047	0.277
-359.625	-200.000	-0.000	-0.113
-358.610	-200.000	-0.005	0.383
-357.596	-200.000	-0.011	-0.136
-356.581	391.847	-0.118	0.243
-355.566	-73.737	-0.157	0.057
-354.552	166.333	-0.236	0.332
-353.537	800.000	-0.038	0.156
-352.523	689.786	0.077	-0.199
-351.508	-89.504	-0.380	-0.111
-350.493	800.000	0.068	0.258
-349.479	-113.874	0.015	-0.003
-348.464	-68.420	0.128	-0.049
-347.450	-138.956	0.479	-0.052
-346.435	3.339	-0.084	0.061
-345.420	-87.722	-0.293	0.088
-344.406	-101.951	0.244	-0.059
-343.391	77.966	-0.280	-0.296
-342.377	2.152	-0.054	0.039
-341.362	92.418	0.256	0.287
-340.348	-200.000	0.033	-0.169
-339.333	17.544	0.179	-0.141
-338.318	62.036	-0.112	0.111
-337.304	-94.284	0.188	-0.051
-336.289	60.459	0.096	-0.094
-335.275	-26.360	0.161	-0.094
-334.260	800.000	0.038	0.148
-333.245	-41.756	-0.238	-0.121
-332.231	226.916	-0.200	0.323
-331.216	-114.256	0.218	0.042
-330.202	-35.723	-0.163	0.088
-329.187	-119.030	0.177	-0.031
-328.172	123.581	0.106	0.132
-327.158	8.769	0.210	0.157
-326.143	0.991	0.057	0.041
-325.129	-121.401	-0.253	0.042
-324.114	41.599	0.348	0.313
-323.099	-189.883	0.203	-0.002
-322.085	-185.406	0.086	0.001
-321.070	-70.470	0.395	-0.148
-320.056	158.884	-0.151	0.208
-319.041	-69.316	-0.053	0.020
-318.026	691.105	-0.053	0.139
-317.012	406.578	0.102	-0.214
-315.997	-200.000	-0.013	0.320
-314.983	145.988	-0.162	-0.216
-313.968	-200.000	0.034	-0.218
-312.953	-146.047	0.236	0.021
-311.939	76.604	0.069	-0.072
-310.924	-61.782	-0.287	-0.119
-309.910	314.820	-0.088	-0.164
-308.895	-200.000	0.060	-0.448
-307.880	192.454	-0.116	-0.174
-306.866	800.000	0.059	0.190
-305.851	-47.067	0.410	0.198
-304.837	-41.706	0.091	0.046
-303.822	-10.741	-0.265	-0.174
-302.807	7.197	0.172	-0.127
-301.793	705.414	0.115	-0.300
-300.778	-179.225	0.157	-0.003
-299.764	186.622	0.127	0.187
-298.749	-200.000	0.008	-0.085
-297.735	85.178	-0.082	0.089
-296.720	291.569	-0.184	-0.332
-295.705	17.803	-0.153	0.121
-294.691	-200.000	-0.006	-0.030
-293.676	-200.000	0.033	0.171
-292.662	-130.412	0.262	-0.035
-291.647	-130.657	0.295	-0.039
-290.632	-200.000	0.027	-0.139
-289.618	-109.020	0.109	0.023
-288.603	210.817	-0.208	-0.323
-287.589	-200.000	0.004	0.107
-286.574	-60.737	0.092	-0.039
-285.559	-77.724	0.076	0.026
-284.545	-8.157	-0.230	0.153
-283.530	-170.314	-0.327	0.011
-282.516	800.000	0.107	0.298
-281.501	-88.490	0.169	-0.050
-280.486	-80.887	-0.152	0.050
-279.472	-62.010	0.207	-0.086
-278.457	-78.158	-0.507	0.173
-277.443	-35.686	0.174	0.093
-276.428	-99.255	0.511	-0.128
-275.413	-105.175	0.133	-0.030
-274.399	484.335	0.101	0.227
-273.384	-200.000	0.172	0.001
-272.370	800.000	0.051	0.194
-271.355	304.355	-0.066	-0.121
-270.340	0.607	0.223	-0.158
-269.326	131.113	0.239	0.304
-268.311	-117.202	0.320	-0.058
-267.297	-41.461	-0.174	0.089
-266.282	-200.000	0.008	-0.063
-265.267	-99.915	0.268	-0.066
-264.253	-106.608	0.092	-0.020
-263.238	800.000	0.008	0.034
-262.224	51.553	-0.093	0.087
-261.209	-200.000	-0.070	0.413
-260.195	800.000	-0.087	0.336
-259.180	-58.152	-0.303	-0.131
-258.165	174.791	0.035	0.051
-257.151	-200.000	-0.010	0.183
-256.136	-200.000	0.034	-0.300
-255.122	97.335	0.081	0.092
-254.107	800.000	-0.126	0.373
-253.092	250.973	0.058	0.097
-252.078	-29.826	0.199	-0.112
-251.063	-79.921	-0.375	0.125
-250.049	-200.000	-0.058	0.346
-249.034	-97.069	0.172	0.045
-248.019	-30.360	0.143	0.080
-247.005	800.000	-0.041	-0.122
-245.990	-22.339	0.243	-0.146
-244.976	800.000	-0.093	-0.281
-243.961	-24.019	-0.304	-0.180
-242.946	-123.862	-0.164	0.026
-241.932	-119.494	-0.181	-0.031
-240.917	-57.035	0.383	-0.167
-239.903	-106.560	0.271	0.060
-238.888	549.527	-0.031	-0.073
-237.873	-49.432	0.297	-0.140
-236.859	-152.504	0.153	-0.011
-235.844	106.226	-0.181	-0.212
-234.830	-112.834	-0.139	0.027
-233.815	-122.540	0.262	-0.042
-232.800	-89.966	0.069	0.020
-231.786	-41.465	-0.142	0.072
-230.771	-32.987	0.330	0.181
-229.757	-5.447	0.269	0.182
-228.742	-58.441	-0.336	0.144
-227.727	-79.349	0.262	-0.088
-226.713	-200.000	0.010	-0.108
-225.698	-10.296	-0.382	0.250
-224.684	-51.265	0.187	-0.086
-223.669	-25.629	0.105	0.061
-222.655	-182.845	-0.274	0.005
-221.640	164.999	0.096	-0.134
-220.625	189.392	-0.064	-0.095
-219.611	157.716	0.120	-0.164
-218.596	-200.000	0.029	-0.141
-217.582	37.578	-0.190	-0.167
-216.567	65.937	0.305	-0.306
-215.552	559.661	-0.141	0.337
-214.538	-2.666	0.060	-0.042
-213.523	193.800	-0.188	-0.281
-212.509	-91.331	0.078	0.022
-211.494	-200.000	-0.041	-0.251
-210.479	170.273	-0.415	-0.586
-209.465	-112.413	0.135	-0.027
-208.450	-171.090	-0.475	-0.016
-207.436	-81.211	0.140	0.046
-206.421	-100.793	-0.140	-0.034
-205.406	-81.250	0.103	0.033
-204.392	-70.454	0.095	-0.035
-203.377	195.459	0.127	-0.191
-202.363	-56.526	0.159	-0.069
-201.348	73.076	-0.193	-0.200
-200.333	-91.021	-0.201	0.057
-199.319	-170.085	0.404	0.014
-198.304	-73.374	-0.201	-0.073
-197.290	763.761	-0.026	0.069
-196.275	225.487	-0.117	-0.186
-195.260	120.480	0.280	0.343
-194.246	-103.727	0.135	-0.031
-193.231	-74.054	-0.173	-0.062
-192.217	148.119	-0.146	-0.194
-191.202	26.661	0.305	-0.252
-190.187	-90.428	0.256	-0.073
-189.173	-13.129	0.128	0.082
-188.158	-31.537	0.325	-0.180
-187.144	-200.000	-0.018	0.229
-186.129	-200.000	0.026	0.167
-185.114	-80.791	-0.164	-0.054
-184.100	292.266	0.154	-0.277
-183.085	800.000	-0.126	0.375
-182.071	-200.000	-0.020	-0.122
-181.056	400.063	-0.139	0.288
-180.042	-100.091	0.069	0.017
-179.027	173.421	0.150	0.214
-178.012	-112.575	-0.428	-0.084
-176.998	348.605	-0.150	0.291
-175.983	95.195	-0.220	0.247
-174.969	32.027	0.226	-0.193
-173.954	-54.151	-0.294	0.132
-172.939	8.189	-0.280	0.207
-171.925	-91.067	0.297	0.084
-170.910	36.106	0.103	0.090
-169.896	143.082	-0.157	0.206
-168.881	39.992	-0.203	0.180
-167.866	800.000	0.011	0.044
-166.852	-200.000	0.042	0.319
-165.837	91.731	0.102	-0.113
-164.823	-200.000	0.062	0.415
-163.808	-155.138	-0.401	-0.026
-162.793	-185.683	0.276	0.004
-161.779	451.999	-0.125	0.272
-160.764	-126.297	-0.228	-0.034
-159.750	800.000	0.032	-0.125
-158.735	800.000	-0.039	-0.143
-157.720	143.148	0.071	-0.094
-156.706	-4.089	-0.072	-0.049
-155.691	59.722	-0.048	0.046
-154.677	-200.000	0.017	-0.196
-153.662	-200.000	0.018	0.205
-152.647	-93.000	-0.142	-0.039
-151.633	-200.000	-0.013	-0.061
-150.618	-81.893	0.056	0.018
-149.604	800.000	-0.092	0.329
-148.589	-26.586	-0.132	-0.076
-147.574	-200.000	0.135	-0.000
-146.560	139.326	0.143	-0.185
-145.545	800.000	0.034	0.102
-144.531	-200.000	0.023	0.272
-143.516	67.672	0.103	0.104
-142.502	-74.264	0.180	0.064
-141.487	-200.000	-0.011	0.178
-140.472	-13.748	0.469	0.299
-139.458	-128.443	-0.120	0.017
-138.443	-113.748	0.227	0.044
-137.429	-200.000	0.043	0.265
-136.414	800.000	0.026	-0.084
-135.399	176.306	0.092	0.132
-134.385	-101.826	-0.232	-0.055
-133.370	-200.000	0.025	-0.244
-132.356	800.000	-0.072	0.264
-131.341	-65.854	0.180	0.071
-130.326	31.985	0.317	0.269
-129.312	-200.000	-0.062	0.461
-128.297	-108.340	0.120	-0.026
-127.283	-200.000	-0.318	-0.001
-126.268	-128.227	0.071	-0.010
-125.253	-171.802	-0.151	0.005
-124.239	-26.767	0.038	-0.022
-123.224	26.232	-0.146	0.120
-122.210	58.942	-0.130	0.125
-121.195	-77.127	0.077	0.027
