DTS Sentinel unit serial number:	SN413079Multiplexer serial number:	ORYXHardware model number:	OX4-SRSoftware version number:	ORYX F/W v4.00 Oryx Data Collector v3.7.2.0data status	okinstallation	princeton_trtdifferential loss correction	single-endedforward channel	channel 2reverse channel	N/Adate	2019/09/13time	08:43:35forward acquisition time	60.00reverse acquisition time	0.00gamma	496.2192k internal	0.2332k external	0.2332temperature offset calibration	1.0193default loss term (dB/km)	0.3790temperature slope calibration	1.0000multiplexer offset coefficient	1.0000multiplexer slope coefficient	1.0000fibre end	0.00T internal ref (°C)	27.87T ext. ref 1 (°C)	4.32T ext. ref 2 (°C)	24.76length (m)	temperature (°C)	Stokes	anti-Stokes-747.200	39.160	0.205	0.185
-746.185	-84.000	-0.163	0.052
-745.171	-125.891	-0.345	0.052
-744.156	-200.000	0.062	0.352
-743.142	14.638	0.160	-0.126
-742.127	8.039	-0.071	0.053
-741.112	-46.582	0.055	-0.027
-740.098	-200.000	-0.003	-0.021
-739.083	122.068	-0.239	0.300
-738.069	800.000	0.095	0.292
-737.054	-5.437	0.083	0.057
-736.039	-37.443	-0.198	0.106
-735.025	76.220	0.196	-0.209
-734.010	522.598	-0.120	-0.283
-732.996	91.467	-0.049	0.055
-731.981	70.017	0.113	0.117
-730.966	800.000	0.084	0.281
-729.952	-88.272	0.114	0.034
-728.937	-200.000	-0.036	-0.240
-727.923	-200.000	0.037	-0.254
-726.908	-200.000	-0.004	0.121
-725.894	94.939	-0.139	-0.159
-724.879	-200.000	0.010	-0.215
-723.864	-85.188	0.449	0.141
-722.850	99.106	0.074	-0.086
-721.835	83.605	-0.155	-0.170
-720.821	251.956	-0.036	0.062
-719.806	-19.349	-0.256	-0.159
-718.791	-62.037	-0.136	-0.057
-717.777	800.000	0.054	0.154
-716.762	-118.682	0.298	0.053
-715.748	-114.191	-0.147	-0.028
-714.733	-8.042	-0.087	-0.059
-713.718	55.627	0.063	0.061
-712.704	-133.520	0.204	0.026
-711.689	-144.166	-0.236	0.022
-710.675	172.415	-0.105	0.152
-709.660	-53.631	0.086	-0.039
-708.645	-46.158	-0.142	-0.070
-707.631	-70.060	0.207	-0.079
-706.616	-117.536	-0.352	0.064
-705.602	-200.000	0.006	-0.158
-704.587	800.000	0.046	0.134
-703.572	-63.517	-0.291	0.120
-702.558	-200.000	-0.005	0.089
-701.543	-0.484	-0.160	0.114
-700.529	-200.000	-0.006	0.106
-699.514	528.935	-0.058	-0.137
-698.499	365.237	-0.054	-0.109
-697.485	-64.949	-0.023	-0.009
-696.470	35.894	0.301	-0.266
-695.456	-136.073	-0.269	0.032
-694.441	-119.594	-0.266	0.046
-693.426	42.440	0.282	-0.257
-692.412	-133.651	-0.384	0.048
-691.397	131.378	-0.178	-0.230
-690.383	642.558	0.059	0.151
-689.368	-120.839	0.247	-0.042
-688.354	-140.976	-0.266	0.027
-687.339	-144.777	-0.236	-0.022
-686.324	592.168	0.043	0.106
-685.310	391.213	-0.103	0.216
-684.295	800.000	-0.103	0.288
-683.281	800.000	-0.096	0.350
-682.266	-118.867	-0.170	0.030
-681.251	-130.136	0.100	0.014
-680.237	212.539	0.155	-0.245
-679.222	-76.984	-0.283	-0.099
-678.208	-200.000	0.056	0.351
-677.193	-200.000	0.052	0.683
-676.178	229.926	0.103	0.170
-675.164	180.669	-0.118	-0.174
-674.149	-200.000	-0.004	-0.167
-673.135	800.000	-0.017	0.056
-672.120	106.004	-0.061	0.073
-671.105	-150.256	-0.290	-0.023
-670.091	158.409	0.075	-0.104
-669.076	-8.646	0.147	0.099
-668.062	554.172	0.126	0.304
-667.047	-77.601	-0.223	-0.077
-666.032	800.000	-0.020	0.083
-665.018	-200.000	0.048	0.528
-664.003	42.145	-0.093	-0.084
-662.989	1.687	-0.099	-0.071
-661.974	-200.000	0.016	-0.083
-660.959	-200.000	-0.004	-0.044
-659.945	-45.829	-0.108	0.053
-658.930	-43.949	-0.308	0.155
-657.916	-10.026	-0.233	-0.155
-656.901	75.786	-0.197	-0.209
-655.886	-52.557	-0.356	-0.165
-654.872	-83.399	-0.304	-0.098
-653.857	208.056	0.108	-0.168
-652.843	-92.851	-0.113	0.032
-651.828	29.831	-0.025	-0.021
-650.814	-11.013	0.282	0.187
-649.799	-111.222	-0.408	-0.084
-648.784	-170.670	-0.118	-0.004
-647.770	12.708	0.112	0.087
-646.755	53.357	0.276	0.266
-645.741	63.432	0.126	-0.126
-644.726	-200.000	0.004	0.073
-643.711	-139.033	-0.394	0.043
-642.697	217.502	0.215	-0.343
-641.682	-200.000	0.046	0.261
-640.668	86.791	-0.160	-0.177
-639.653	18.965	-0.015	0.012
-638.638	-200.000	-0.026	0.303
-637.624	99.141	-0.064	-0.074
-636.609	-40.305	0.356	0.185
-635.595	-127.824	-0.126	0.018
-634.580	-63.697	-0.114	0.047
-633.565	-200.000	-0.013	0.067
-632.551	43.196	0.340	-0.311
-631.536	94.091	-0.081	0.092
-630.522	-79.028	0.181	-0.062
-629.507	44.473	-0.112	0.103
-628.492	-12.153	-0.443	0.291
-627.478	392.391	-0.115	0.239
-626.463	463.992	-0.192	-0.431
-625.449	406.911	0.068	-0.143
-624.434	132.916	-0.067	-0.086
-623.419	-55.940	-0.339	-0.151
-622.405	-27.361	-0.015	0.009
-621.390	-200.000	0.004	0.020
-620.376	46.852	0.265	-0.246
-619.361	376.173	0.089	0.182
-618.346	-200.000	0.007	0.163
-617.332	6.732	-0.137	-0.102
-616.317	-44.904	-0.105	0.053
-615.303	-200.000	-0.027	-0.190
-614.288	79.011	-0.133	-0.142
-613.273	352.688	0.050	0.100
-612.259	2.734	0.207	0.150
-611.244	76.425	-0.200	0.212
-610.230	-65.647	-0.296	-0.119
-609.215	249.227	-0.044	0.075
-608.201	-96.169	-0.254	0.067
-607.186	113.367	-0.167	0.203
-606.171	129.457	0.095	0.121
-605.157	-174.427	0.251	0.007
-604.142	800.000	0.043	0.137
-603.128	261.677	0.188	0.326
-602.113	-200.000	-0.029	-0.135
-601.098	-200.000	-0.026	-0.511
-600.084	-200.000	0.010	-0.068
-599.069	325.285	-0.044	0.083
-598.055	800.000	0.095	0.350
-597.040	64.377	0.069	-0.070
-596.025	215.546	-0.180	-0.286
-595.011	-200.000	0.017	0.138
-593.996	389.136	0.071	0.147
-592.982	-200.000	0.004	0.065
-591.967	800.000	0.042	-0.120
-590.952	353.753	-0.070	-0.140
-589.938	124.358	0.078	-0.098
-588.923	-114.589	-0.370	0.071
-587.909	-108.572	0.285	-0.061
-586.894	800.000	0.065	0.257
-585.879	25.439	-0.104	0.086
-584.865	76.491	-0.332	0.351
-583.850	-200.000	-0.038	0.333
-582.836	20.709	-0.071	-0.058
-581.821	38.610	-0.108	-0.096
-580.806	-200.000	0.004	-0.047
-579.792	-200.000	0.056	-0.401
-578.777	800.000	0.053	-0.208
-577.763	726.910	-0.061	0.162
-576.748	-24.066	-0.260	-0.156
-575.733	-28.785	0.190	0.109
-574.719	565.777	-0.150	0.364
-573.704	-200.000	-0.040	-0.306
-572.690	-200.000	-0.239	-0.000
-571.675	134.704	0.032	0.041
-570.661	-61.366	0.295	0.124
-569.646	492.264	-0.106	0.242
-568.631	310.980	0.085	-0.159
-567.617	800.000	-0.097	-0.421
-566.602	-109.147	-0.243	-0.052
-565.588	-44.753	0.146	0.073
-564.573	-200.000	0.009	0.197
-563.558	22.736	-0.180	0.147
-562.544	-8.097	0.199	0.134
-561.529	-91.858	0.051	-0.014
-560.515	-129.446	-0.288	0.040
-559.500	-161.298	-0.239	0.012
-558.485	-52.258	0.192	-0.089
-557.471	305.103	0.181	-0.336
-556.456	49.122	0.188	0.177
-555.442	318.410	0.110	-0.208
-554.427	74.844	0.230	-0.241
-553.412	117.791	-0.090	0.111
-552.398	-73.751	0.331	-0.120
-551.383	41.842	0.172	-0.156
-550.369	-21.962	0.291	-0.177
-549.354	56.691	-0.032	0.031
-548.339	219.484	-0.086	-0.138
-547.325	-107.453	0.187	0.041
-546.310	-200.000	-0.021	-0.480
-545.296	411.637	-0.167	0.355
-544.281	-0.179	0.126	0.090
-543.266	-53.903	-0.102	0.046
-542.252	-34.408	0.177	-0.097
-541.237	-136.566	0.251	0.029
-540.223	-32.405	-0.153	0.085
-539.208	59.638	-0.220	0.217
-538.193	-54.624	-0.100	-0.045
-537.179	-173.133	-0.065	0.002
-536.164	140.904	-0.184	-0.243
-535.150	-200.000	0.085	0.470
-534.135	3.672	0.153	-0.111
-533.121	-87.899	0.169	-0.051
-532.106	67.175	-0.157	-0.160
-531.091	-53.561	0.174	-0.079
-530.077	-192.092	-0.288	0.003
-529.062	74.113	-0.368	0.385
-528.048	800.000	0.050	0.162
-527.033	-200.000	-0.008	0.064
-526.018	-123.060	-0.451	-0.072
-525.004	-134.963	0.092	-0.011
-523.989	189.029	-0.048	0.072
-522.975	-89.531	0.304	0.089
-521.960	515.315	0.084	0.195
-520.945	-200.000	0.040	-0.278
-519.931	-86.425	-0.316	-0.097
-518.916	-44.391	-0.401	0.200
-517.902	-32.048	-0.167	-0.093
-516.887	-200.000	0.044	0.214
-515.872	-200.000	0.023	0.123
-514.858	-91.975	0.273	-0.077
-513.843	-48.646	-0.100	-0.048
-512.829	-11.737	0.172	-0.113
-511.814	-133.840	-0.308	-0.038
-510.799	-48.705	-0.310	0.148
-509.785	-165.546	-0.207	0.009
-508.770	-125.638	-0.524	-0.079
-507.756	-200.000	0.055	-0.358
-506.741	10.337	0.107	-0.081
-505.726	269.850	-0.177	0.310
-504.712	312.459	0.046	-0.085
-503.697	-12.511	0.298	-0.194
-502.683	28.649	0.216	0.183
-501.668	34.201	-0.096	-0.083
-500.653	-41.144	-0.295	-0.152
-499.639	800.000	0.090	0.263
-498.624	-145.658	-0.116	0.010
-497.610	85.324	0.169	0.185
-496.595	76.563	0.289	0.305
-495.581	74.207	-0.065	-0.068
-494.566	-20.743	0.086	-0.052
-493.551	311.557	-0.093	0.174
-492.537	800.000	-0.108	-0.419
-491.522	416.588	-0.148	-0.314
-490.508	-200.000	0.022	0.143
-489.493	422.198	-0.090	0.192
-488.478	-59.185	-0.200	-0.086
-487.464	-200.000	0.038	0.296
-486.449	-200.000	-0.005	-0.150
-485.435	0.264	-0.394	0.280
-484.420	-71.993	0.319	-0.118
-483.405	-22.972	-0.296	-0.178
-482.391	-200.000	-0.044	-0.348
-481.376	-27.825	-0.129	-0.075
-480.362	-49.036	-0.094	0.045
-479.347	54.422	0.034	-0.033
-478.332	-97.879	0.211	0.054
-477.318	800.000	-0.085	0.340
-476.303	-200.000	-0.002	0.315
-475.289	-95.035	-0.417	-0.112
-474.274	-38.894	-0.168	0.088
-473.259	127.244	0.117	-0.148
-472.245	-148.224	0.183	0.015
-471.230	28.298	0.168	0.141
-470.216	-9.698	0.017	-0.011
-469.201	-102.326	-0.201	0.048
-468.186	-89.855	-0.244	0.071
-467.172	800.000	-0.168	0.473
-466.157	-200.000	0.026	0.137
-465.143	-86.869	0.396	0.120
-464.128	-200.000	0.005	0.070
-463.113	20.025	0.189	-0.152
-462.099	-34.624	-0.263	-0.143
-461.084	-76.928	0.107	0.037
-460.070	800.000	0.064	-0.221
-459.055	-83.769	-0.158	0.050
-458.040	11.252	-0.295	0.225
-457.026	-131.476	0.315	0.041
-456.011	-18.580	0.246	0.153
-454.997	1.800	-0.432	-0.310
-453.982	162.818	0.230	-0.322
-452.968	800.000	-0.144	-0.460
-451.953	-200.000	0.001	0.352
-450.938	-200.000	-0.021	-0.349
-449.924	28.148	-0.101	0.085
-448.909	-85.710	0.301	0.093
-447.895	-122.612	-0.454	-0.073
-446.880	86.705	0.138	0.152
-445.865	-100.903	0.206	0.050
-444.851	-31.595	0.151	0.085
-443.836	-162.546	-0.297	0.015
-442.822	800.000	0.034	0.138
-441.807	-142.999	0.162	0.016
-440.792	-185.432	0.425	0.006
-439.778	14.407	-0.090	-0.070
-438.763	4.220	0.322	0.234
-437.749	800.000	0.053	-0.215
-436.734	84.297	-0.113	-0.123
-435.719	98.978	0.054	-0.062
-434.705	15.212	-0.041	0.032
-433.690	-25.473	-0.357	0.210
-432.676	-200.000	0.001	-0.032
-431.661	800.000	0.092	-0.281
-430.646	6.394	-0.094	-0.070
-429.632	151.151	-0.120	0.162
-428.617	35.841	0.073	0.064
-427.603	-200.000	-0.017	-0.080
-426.588	-172.438	0.185	-0.006
-425.573	-37.029	-0.136	0.072
-424.559	-89.718	0.081	0.024
-423.544	-200.000	0.028	0.324
-422.530	1.456	-0.207	-0.148
-421.515	-107.279	-0.026	0.006
-420.500	-30.951	0.096	0.054
-419.486	112.459	0.151	-0.182
-418.471	800.000	-0.011	-0.039
-417.457	-116.817	0.367	0.067
-416.442	-89.002	-0.163	0.048
-415.428	219.385	-0.031	0.050
-414.413	-59.423	-0.359	0.153
-413.398	87.763	-0.185	-0.204
-412.384	-200.000	0.048	0.261
-411.369	-13.082	0.106	0.068
-410.355	-97.908	-0.313	-0.080
-409.340	-200.000	0.015	0.069
-408.325	-47.358	-0.147	-0.071
-407.311	-75.365	-0.440	-0.156
-406.296	341.640	0.079	-0.153
-405.282	-200.000	-0.071	-0.369
-404.267	800.000	-0.034	0.093
-403.252	800.000	-0.072	-0.252
-402.238	16.823	-0.387	-0.304
-401.223	795.787	0.042	-0.115
-400.209	-128.596	0.222	-0.031
-399.194	114.812	0.148	-0.179
-398.179	-200.000	-0.023	-0.111
-397.165	-101.458	-0.094	0.023
-396.150	-169.984	0.236	-0.008
-395.136	-68.539	0.305	0.117
-394.121	-200.000	-0.006	-0.208
-393.106	323.708	-0.145	0.275
-392.092	190.941	0.203	0.303
-391.077	-200.000	0.002	-0.167
-390.063	50.072	0.089	0.084
-389.048	-200.000	-0.013	-0.101
-388.033	-97.911	-0.307	-0.079
-387.019	121.429	0.026	0.032
-386.004	40.941	0.147	-0.132
-384.990	0.886	0.105	-0.075
-383.975	-200.000	-0.011	0.081
-382.960	612.998	0.044	0.110
-381.946	609.701	0.053	0.132
-380.931	8.737	0.195	0.146
-379.917	-129.973	-0.196	-0.027
-378.902	-149.913	-0.336	-0.026
-377.888	58.107	0.022	0.022
-376.873	-109.166	0.182	0.038
-375.858	-93.648	-0.356	0.097
-374.844	-120.877	0.251	0.042
-373.829	618.571	0.119	0.297
-372.815	34.649	-0.301	0.261
-371.800	219.096	0.049	-0.077
-370.785	35.255	-0.107	0.093
-369.771	-59.305	-0.219	0.093
-368.756	-90.527	-0.134	-0.038
-367.742	-200.000	0.047	-0.269
-366.727	800.000	-0.091	0.370
-365.712	-92.416	0.317	-0.088
-364.698	9.474	0.174	-0.130
-363.683	-92.629	0.139	0.039
-362.669	47.124	0.166	-0.153
-361.654	-200.000	0.020	-0.214
-360.639	312.562	-0.063	0.116
-359.625	-24.523	-0.202	-0.119
-358.610	-178.045	-0.406	0.010
-357.596	151.046	-0.257	-0.347
-356.581	-200.000	-0.005	-0.074
-355.566	-54.407	-0.058	0.026
-354.552	465.686	0.058	0.129
-353.537	759.527	-0.005	0.014
-352.523	671.413	-0.052	-0.134
-351.508	-81.323	-0.305	-0.100
-350.493	55.423	0.235	0.225
-349.479	57.946	-0.180	-0.175
-348.464	800.000	0.061	-0.245
-347.450	-200.000	0.043	-0.354
-346.435	175.899	0.169	0.242
-345.420	800.000	0.024	-0.084
-344.406	-55.014	0.269	-0.120
-343.391	199.759	0.032	0.049
-342.377	-136.932	0.142	-0.016
-341.362	-100.891	0.204	-0.050
-340.348	518.612	-0.233	0.541
-339.333	499.261	-0.029	0.066
-338.318	-200.000	-0.033	-0.196
-337.304	31.571	0.086	-0.074
-336.289	101.715	-0.127	-0.147
-335.275	-183.100	-0.299	-0.005
-334.260	66.784	0.059	-0.060
-333.245	-126.528	0.188	0.028
-332.231	-76.829	-0.450	0.156
-331.216	800.000	0.146	0.415
-330.202	-121.631	-0.407	0.067
-329.187	-129.793	0.128	0.017
-328.172	162.846	0.206	-0.286
-327.158	174.997	-0.045	-0.064
-326.143	-159.541	-0.209	0.011
-325.129	166.797	-0.073	-0.102
-324.114	-0.994	0.319	0.223
-323.099	29.914	0.131	0.110
-322.085	-29.040	0.076	-0.043
-321.070	-176.474	0.379	-0.010
-320.056	-187.840	0.372	0.005
-319.041	-146.303	0.136	0.012
-318.026	141.288	0.360	0.472
-317.012	96.200	0.120	0.135
-315.997	-106.885	0.148	-0.032
-314.983	569.258	0.048	0.115
-313.968	-200.000	-0.003	-0.119
-312.953	-22.679	0.275	0.164
-311.939	-200.000	0.014	0.169
-310.924	-16.619	0.292	0.183
-309.910	33.963	0.262	0.226
-308.895	531.686	-0.094	-0.219
-307.880	14.224	-0.172	0.132
-306.866	800.000	0.031	-0.107
-305.851	-135.083	-0.614	-0.073
-304.837	-150.400	-0.177	0.013
-303.822	-200.000	0.017	0.138
-302.807	448.199	-0.034	0.073
-301.793	478.637	0.173	-0.388
-300.778	800.000	-0.083	-0.298
-299.764	-157.079	-0.232	0.014
-298.749	50.546	0.081	-0.076
-297.735	800.000	-0.102	0.285
-296.720	-27.570	0.144	-0.083
-295.705	-95.140	0.277	0.074
-294.691	-174.544	-0.313	0.009
-293.676	-200.000	0.044	-0.207
-292.662	185.371	0.086	0.126
-291.647	264.793	-0.119	0.204
-290.632	-126.166	0.026	0.004
-289.618	800.000	-0.068	0.201
-288.603	-38.732	0.126	0.066
-287.589	-200.000	0.010	-0.160
-286.574	-56.274	0.288	0.127
-285.559	-122.697	-0.150	0.024
-284.545	147.183	-0.071	-0.094
-283.530	-128.188	0.346	0.049
-282.516	-197.492	0.131	-0.001
-281.501	800.000	-0.028	0.092
-280.486	746.251	-0.050	0.132
-279.472	-2.712	-0.193	-0.134
-278.457	173.087	-0.190	0.270
-277.443	482.303	-0.153	-0.343
-276.428	252.021	-0.105	-0.177
-275.413	-23.805	-0.320	-0.189
-274.399	-50.741	0.094	0.044
-273.384	179.088	0.045	-0.065
-272.370	-9.051	-0.335	-0.222
-271.355	-131.054	-0.072	-0.009
-270.340	-200.000	0.020	-0.205
-269.326	-23.028	0.227	-0.135
-268.311	-200.000	0.012	-0.148
-267.297	800.000	-0.067	-0.254
-266.282	800.000	0.131	0.366
-265.267	67.952	-0.167	-0.169
-264.253	687.800	0.193	-0.498
-263.238	-94.635	0.390	-0.105
-262.224	-84.713	-0.213	0.066
-261.209	334.068	-0.147	0.280
-260.195	-200.000	-0.024	-0.199
-259.180	189.303	0.066	-0.097
-258.165	-160.548	-0.117	-0.006
-257.151	-200.000	-0.001	0.011
-256.136	95.618	-0.243	-0.273
-255.122	-200.000	0.082	-0.442
-254.107	141.546	-0.134	-0.175
-253.092	117.480	0.114	-0.138
-252.078	-142.405	0.253	0.025
-251.063	-59.545	0.112	-0.047
-250.049	455.438	0.122	-0.267
-249.034	525.899	-0.135	-0.313
-248.019	175.385	-0.024	-0.034
-247.005	-200.000	-0.038	0.000
-245.990	-118.092	0.348	0.061
-244.976	-72.839	-0.236	0.086
-243.961	-126.141	0.085	-0.013
-242.946	-26.974	-0.205	-0.118
-241.932	-98.413	0.165	0.042
-240.917	201.403	-0.188	0.286
-239.903	-200.000	0.037	-0.191
-238.888	-63.288	0.167	-0.068
-237.873	286.630	-0.246	0.438
-236.859	-105.583	0.172	0.038
-235.844	313.301	0.083	-0.154
-234.830	800.000	0.008	0.022
-233.815	-42.709	0.222	-0.111
-232.800	-200.000	0.017	0.075
-231.786	-136.140	0.433	-0.050
-230.771	800.000	0.063	0.190
-229.757	-7.167	0.186	0.124
-228.742	-200.000	0.011	0.291
-227.727	-143.381	-0.248	0.023
-226.713	370.674	0.095	0.190
-225.698	-123.143	0.415	0.066
-224.684	260.145	-0.032	0.055
-223.669	-22.072	-0.150	0.090
-222.655	-19.068	0.156	-0.096
-221.640	-65.966	0.350	-0.138
-220.625	800.000	0.029	0.114
-219.611	-36.702	0.066	0.035
-218.596	-130.894	-0.213	-0.028
-217.582	-200.000	0.016	-0.174
-216.567	-10.214	-0.272	0.178
-215.552	-143.905	-0.065	0.006
-214.538	151.510	-0.217	-0.291
-213.523	-78.942	0.212	0.071
-212.509	368.078	0.163	-0.324
-211.494	-63.970	0.201	0.081
-210.479	-200.000	-0.010	0.166
-209.465	2.409	0.190	0.135
-208.450	151.648	0.158	-0.212
-207.436	152.748	0.158	0.212
-206.421	70.129	0.166	-0.169
-205.406	800.000	0.124	0.345
-204.392	-8.342	0.161	-0.107
-203.377	-57.257	0.195	-0.084
-202.363	677.196	0.046	0.119
-201.348	-90.938	-0.135	0.038
-200.333	185.223	0.062	0.091
-199.319	113.670	0.068	-0.082
-198.304	800.000	0.152	-0.428
-197.290	-33.813	-0.389	-0.211
-196.275	17.778	-0.017	-0.013
-195.260	-77.011	0.328	0.113
-194.246	-4.228	0.092	0.063
-193.231	-200.000	-0.015	0.337
-192.217	446.640	-0.114	-0.247
-191.202	-92.117	0.136	-0.038
-190.187	-27.576	-0.251	-0.143
-189.173	588.162	-0.042	-0.102
-188.158	-200.000	-0.053	0.236
-187.144	-44.016	0.285	0.141
-186.129	-48.818	-0.131	-0.062
-185.114	800.000	0.055	-0.177
-184.100	-112.266	0.395	-0.078
-183.085	-200.000	0.049	-0.260
-182.071	226.308	0.136	0.218
-181.056	-22.506	0.361	0.215
-180.042	416.074	0.071	0.148
-179.027	-117.518	-0.221	0.039
-178.012	-120.902	0.277	0.046
-176.998	328.910	0.132	0.250
-175.983	413.590	0.034	-0.072
-174.969	800.000	0.023	0.091
-173.954	-200.000	-0.041	0.293
-172.939	-29.037	-0.418	-0.236
-171.925	800.000	-0.039	-0.162
-170.910	-30.400	0.139	0.078
-169.896	279.599	0.131	-0.230
-168.881	-127.442	0.146	0.021
-167.866	-32.121	-0.181	-0.100
-166.852	-200.000	-0.026	-0.143
-165.837	800.000	-0.057	-0.197
-164.823	-188.794	-0.178	-0.002
-163.808	57.677	0.258	-0.249
-162.793	-76.993	0.244	-0.084
-161.779	-200.000	-0.022	-0.121
-160.764	-35.597	0.307	-0.164
-159.750	-35.878	-0.217	0.116
-158.735	800.000	-0.122	0.365
-157.720	24.563	-0.174	0.142
-156.706	151.492	0.098	0.132
-155.691	800.000	0.047	0.168
-154.677	-35.973	0.071	0.038
-153.662	-80.213	-0.189	0.062
-152.647	-76.459	-0.116	0.040
-151.633	1.134	0.512	0.361
-150.618	800.000	-0.079	-0.260
-149.604	-48.391	-0.345	-0.163
-148.589	-2.714	-0.257	-0.177
-147.574	-200.000	-0.027	0.144
-146.560	-80.562	-0.024	-0.008
-145.545	-200.000	-0.045	-0.233
-144.531	434.590	-0.017	0.036
-143.516	41.889	0.234	0.208
-142.502	116.672	0.147	-0.177
-141.487	-99.700	0.013	0.003
-140.472	800.000	0.051	-0.184
-139.458	800.000	0.024	0.084
-138.443	125.289	-0.115	-0.143
-137.429	-70.484	-0.131	-0.049
-136.414	-169.391	0.105	0.004
-135.399	-34.135	0.322	0.174
-134.385	-200.000	0.031	-0.182
-133.370	-137.324	0.103	-0.012
-132.356	-25.037	-0.097	0.057
-131.341	-141.854	-0.205	-0.020
-130.326	-200.000	-0.030	-0.203
-129.312	-102.651	0.019	-0.004
-128.297	800.000	0.091	-0.251
-127.283	284.636	-0.134	-0.236
-126.268	-43.288	-0.077	-0.038
-125.253	386.494	0.152	-0.307
-124.239	-200.000	-0.030	-0.158
-123.224	371.425	-0.067	0.134
-122.210	41.274	0.122	-0.109
-121.195	81.096	-0.238	-0.252
-120.180	-121.229	-0.102	0.017
