DTS Sentinel unit serial number:	SN413079Multiplexer serial number:	ORYXHardware model number:	OX4-SRSoftware version number:	ORYX F/W v4.00 Oryx Data Collector v3.7.2.0data status	okinstallation	princeton_trtdifferential loss correction	single-endedforward channel	channel 2reverse channel	N/Adate	2019/09/12time	02:29:10forward acquisition time	60.00reverse acquisition time	0.00gamma	496.2192k internal	0.2327k external	0.2327temperature offset calibration	1.0090default loss term (dB/km)	0.3790temperature slope calibration	1.0000multiplexer offset coefficient	1.0000multiplexer slope coefficient	1.0000fibre end	0.00T internal ref (°C)	32.50T ext. ref 1 (°C)	2.09T ext. ref 2 (°C)	27.09length (m)	temperature (°C)	Stokes	anti-Stokes-747.200	-78.425	0.249	0.086
-746.185	338.689	-0.066	0.129
-745.171	-46.732	0.303	0.150
-744.156	-93.734	-0.243	0.067
-743.142	800.000	0.047	-0.199
-742.127	-200.000	-0.010	-0.108
-741.112	800.000	-0.101	0.312
-740.098	-200.000	-0.039	0.239
-739.083	800.000	0.096	0.335
-738.069	341.695	-0.229	0.451
-737.054	-15.719	0.109	-0.070
-736.039	-146.674	-0.346	0.030
-735.025	-8.373	0.223	0.151
-734.010	111.180	-0.151	0.183
-732.996	215.429	0.161	-0.257
-731.981	270.494	0.053	0.094
-730.966	-134.479	-0.241	-0.030
-729.952	4.365	-0.111	-0.082
-728.937	491.474	-0.081	0.188
-727.923	-152.736	0.166	-0.012
-726.908	-200.000	-0.027	-0.282
-725.894	39.510	0.063	0.056
-724.879	-200.000	0.000	0.006
-723.864	-141.579	-0.281	-0.029
-722.850	-124.678	0.260	0.041
-721.835	-200.000	0.010	0.108
-720.821	-56.064	0.318	-0.143
-719.806	255.759	-0.270	-0.466
-718.791	95.202	0.144	-0.165
-717.777	-190.360	0.400	0.004
-716.762	650.676	-0.104	-0.268
-715.748	-200.000	-0.008	-0.191
-714.733	-104.508	-0.109	-0.025
-713.718	-24.097	0.229	0.138
-712.704	-140.988	-0.303	-0.031
-711.689	-180.055	-0.127	-0.003
-710.675	-200.000	0.027	-0.176
-709.660	-66.328	0.223	-0.089
-708.645	800.000	0.129	0.375
-707.631	152.332	-0.170	-0.233
-706.616	-55.622	-0.282	-0.127
-705.602	-82.819	0.189	0.061
-704.587	466.989	0.023	0.052
-703.572	-62.930	-0.230	0.096
-702.558	-200.000	-0.021	-0.419
-701.543	-181.985	0.254	0.005
-700.529	223.251	0.060	0.097
-699.514	800.000	-0.036	0.111
-698.499	180.539	-0.122	0.181
-697.485	202.878	0.121	-0.188
-696.470	-2.601	-0.046	-0.032
-695.456	66.867	0.184	-0.189
-694.441	-200.000	-0.017	0.136
-693.426	21.806	0.327	0.268
-692.412	-200.000	0.023	-0.155
-691.397	796.749	-0.131	-0.364
-690.383	173.505	0.165	0.240
-689.368	30.522	0.162	0.140
-688.354	-200.000	-0.012	-0.212
-687.339	-200.000	-0.024	-0.200
-686.324	-200.000	0.001	-0.029
-685.310	51.208	-0.147	-0.141
-684.295	497.872	-0.044	0.102
-683.281	-146.523	-0.438	0.038
-682.266	-95.471	-0.339	0.092
-681.251	177.079	-0.011	-0.017
-680.237	800.000	0.102	0.297
-679.222	231.164	-0.062	-0.102
-678.208	800.000	-0.076	-0.289
-677.193	-123.959	0.180	0.028
-676.178	102.686	-0.099	-0.117
-675.164	800.000	0.080	-0.243
-674.149	58.439	0.115	0.114
-673.135	64.428	0.155	-0.157
-672.120	163.920	0.088	-0.124
-671.105	107.214	0.111	-0.133
-670.091	-50.182	0.223	0.106
-669.076	-200.000	0.069	-0.348
-668.062	-8.102	-0.230	-0.156
-667.047	-60.628	0.141	0.060
-666.032	89.699	-0.103	-0.115
-665.018	155.490	-0.041	-0.057
-664.003	30.569	0.100	-0.086
-662.989	674.878	-0.011	-0.028
-661.974	19.559	0.257	-0.208
-660.959	13.052	-0.227	-0.177
-659.945	-127.517	-0.317	-0.046
-658.930	-104.120	-0.225	-0.053
-657.916	800.000	0.066	-0.271
-656.901	-200.000	-0.000	0.053
-655.886	-200.000	0.028	0.191
-654.872	-200.000	-0.037	0.166
-653.857	-200.000	0.002	0.020
-652.843	145.322	0.151	0.204
-651.828	62.773	-0.201	0.202
-650.814	19.249	0.023	0.018
-649.799	-90.764	-0.061	0.018
-648.784	-200.000	0.063	0.291
-647.770	299.120	0.097	0.179
-646.755	-19.226	-0.086	-0.054
-645.741	726.670	0.102	0.275
-644.726	-20.719	0.210	-0.129
-643.711	-108.794	-0.070	0.015
-642.697	800.000	-0.025	0.099
-641.682	-71.046	0.085	-0.032
-640.668	-139.122	-0.180	0.020
-639.653	-200.000	0.041	0.278
-638.638	-200.000	0.038	-0.400
-637.624	87.027	0.138	0.153
-636.609	-161.885	0.416	0.021
-635.595	32.789	0.111	0.097
-634.580	-200.000	0.022	0.148
-633.565	-104.143	0.140	0.033
-632.551	-200.000	-0.003	0.144
-631.536	-21.455	0.263	0.161
-630.522	185.879	-0.027	0.040
-629.507	26.977	0.167	-0.140
-628.492	-200.000	0.033	0.388
-627.478	68.237	0.060	-0.061
-626.463	800.000	0.087	0.271
-625.449	-59.056	0.422	0.183
-624.434	800.000	-0.122	0.405
-623.419	187.915	0.209	0.313
-622.405	-61.573	-0.307	-0.129
-621.390	222.899	-0.132	0.214
-620.376	800.000	-0.133	-0.378
-619.361	28.938	0.091	0.077
-618.346	35.774	0.032	-0.028
-617.332	-98.976	0.151	0.038
-616.317	12.341	-0.354	-0.273
-615.303	800.000	-0.025	-0.106
-614.288	-200.000	0.009	-0.225
-613.273	-41.493	-0.172	0.089
-612.259	-64.695	0.145	0.059
-611.244	800.000	0.041	-0.149
-610.230	-200.000	-0.011	-0.098
-609.215	-99.843	-0.155	0.039
-608.201	-200.000	0.040	0.309
-607.186	-176.872	0.127	0.003
-606.171	800.000	-0.027	-0.113
-605.157	800.000	-0.046	-0.181
-604.142	15.461	-0.089	-0.070
-603.128	442.018	-0.155	0.340
-602.113	-81.339	0.208	0.069
-601.098	194.664	0.253	0.386
-600.084	-180.365	0.225	0.005
-599.069	300.263	-0.114	-0.212
-598.055	75.023	0.053	0.056
-597.040	-38.268	0.234	0.124
-596.025	-81.626	-0.236	-0.078
-595.011	310.371	0.126	-0.237
-593.996	-108.172	-0.238	0.052
-592.982	800.000	0.118	-0.379
-591.967	-21.008	-0.096	0.059
-590.952	-68.550	-0.032	0.013
-589.938	377.232	-0.093	0.190
-588.923	28.568	-0.301	-0.255
-587.909	259.176	-0.070	0.121
-586.894	31.355	0.191	0.164
-585.879	-133.310	0.124	-0.016
-584.865	621.601	0.037	0.094
-583.850	412.144	0.066	-0.140
-582.836	427.184	-0.123	-0.267
-581.821	-45.677	-0.184	0.091
-580.806	426.430	0.061	-0.133
-579.792	24.041	-0.204	-0.168
-578.777	-141.882	-0.227	-0.023
-577.763	37.782	-0.187	0.166
-576.748	-200.000	0.017	-0.115
-575.733	-62.236	0.130	0.054
-574.719	800.000	-0.100	0.285
-573.704	158.138	-0.196	-0.272
-572.690	-74.127	0.035	-0.013
-571.675	92.674	-0.124	0.141
-570.661	-56.997	0.163	0.072
-569.646	-29.916	-0.040	0.023
-568.631	-69.549	0.062	-0.024
-567.617	-200.000	0.046	0.000
-566.602	87.787	0.018	-0.020
-565.588	-200.000	-0.029	-0.152
-564.573	-117.483	0.105	0.019
-563.558	-65.083	0.230	-0.093
-562.544	265.989	-0.121	0.212
-561.529	-119.362	-0.242	0.042
-560.515	522.910	0.073	0.172
-559.500	-200.000	-0.034	0.328
-558.485	-26.380	0.183	0.107
-557.471	605.069	0.025	-0.062
-556.456	-120.828	0.213	-0.036
-555.442	-85.490	0.154	-0.048
-554.427	-96.402	-0.218	-0.058
-553.412	-88.493	0.127	0.038
-552.398	-106.908	0.150	0.033
-551.383	800.000	-0.089	-0.389
-550.369	-56.160	-0.040	-0.018
-549.354	-200.000	-0.002	-0.067
-548.339	-68.021	0.339	-0.132
-547.325	78.037	0.085	-0.091
-546.310	94.222	-0.047	-0.054
-545.296	734.830	0.032	0.084
-544.281	800.000	0.059	0.167
-543.266	7.509	-0.019	-0.015
-542.252	-28.604	-0.195	0.112
-541.237	68.610	-0.181	-0.185
-540.223	312.784	0.064	-0.120
-539.208	335.966	0.081	0.158
-538.193	-7.808	-0.204	-0.138
-537.179	169.722	0.112	0.160
-536.164	-200.000	-0.011	-0.081
-535.150	-111.017	0.337	0.069
-534.135	-41.759	-0.299	0.153
-533.121	-6.140	-0.210	0.144
-532.106	-90.317	-0.222	0.064
-531.091	800.000	0.035	-0.106
-530.077	-96.794	0.216	0.057
-529.062	100.842	-0.213	0.248
-528.048	-0.213	-0.167	-0.119
-527.033	-200.000	-0.075	0.352
-526.018	387.053	0.099	-0.205
-525.004	-153.697	0.239	0.016
-523.989	-175.332	0.532	-0.015
-522.975	800.000	0.079	-0.335
-521.960	-200.000	0.042	-0.381
-520.945	-200.000	0.004	-0.320
-519.931	152.472	-0.108	0.148
-518.916	690.492	0.110	0.288
-517.902	259.828	-0.133	-0.230
-516.887	-112.391	-0.297	0.059
-515.872	-174.285	0.227	-0.007
-514.858	800.000	0.042	-0.174
-513.843	-200.000	-0.060	-0.298
-512.829	-74.104	0.175	-0.063
-511.814	-77.385	0.355	-0.123
-510.799	158.176	-0.145	0.201
-509.785	279.028	-0.041	-0.073
-508.770	101.719	-0.222	-0.258
-507.756	-20.254	0.139	-0.085
-506.741	-81.945	-0.293	-0.096
-505.726	-15.537	0.110	-0.070
-504.712	451.952	0.105	-0.232
-503.697	-103.480	0.229	-0.054
-502.683	-119.445	-0.289	0.050
-501.668	-110.958	-0.367	-0.075
-500.653	-129.831	-0.042	-0.006
-499.639	-55.598	-0.019	0.009
-498.624	13.402	-0.118	0.091
-497.610	1.923	-0.154	-0.111
-496.595	384.811	-0.159	-0.327
-495.581	-200.000	0.005	0.208
-494.566	228.673	-0.023	-0.037
-493.551	530.609	0.055	0.130
-492.537	4.331	0.331	-0.242
-491.522	717.554	-0.093	-0.247
-490.508	193.428	-0.126	-0.190
-489.493	95.144	-0.135	-0.153
-488.478	-143.350	-0.141	0.013
-487.464	-22.735	-0.129	-0.078
-486.449	800.000	-0.107	-0.331
-485.435	-83.913	-0.158	-0.050
-484.420	556.833	0.161	-0.387
-483.405	800.000	0.060	-0.216
-482.391	-98.851	-0.361	0.092
-481.376	-59.350	-0.127	-0.055
-480.362	-200.000	-0.048	-0.212
-479.347	-47.168	0.175	0.085
-478.332	-84.217	-0.076	0.024
-477.318	557.344	0.100	-0.239
-476.303	-35.671	-0.121	0.066
-475.289	-126.007	0.263	0.039
-474.274	-12.844	-0.210	-0.137
-473.259	-23.849	-0.067	-0.040
-472.245	41.441	0.072	0.065
-471.230	-200.000	0.074	0.364
-470.216	-65.045	-0.267	-0.107
-469.201	-200.000	0.061	0.342
-468.186	13.519	0.108	0.083
-467.172	188.134	-0.122	0.181
-466.157	-200.000	-0.026	0.127
-465.143	-124.909	-0.227	0.035
-464.128	-37.572	-0.035	0.019
-463.113	-183.802	-0.128	0.002
-462.099	-200.000	0.015	-0.195
-461.084	25.099	-0.227	0.188
-460.070	-31.783	0.193	-0.108
-459.055	-130.321	0.109	0.015
-458.040	-2.212	-0.140	-0.098
-457.026	-200.000	0.004	-0.249
-456.011	-131.498	-0.034	-0.004
-454.997	-200.000	-0.021	0.282
-453.982	-57.100	-0.208	-0.091
-452.968	800.000	-0.114	-0.374
-451.953	305.668	-0.034	-0.063
-450.938	292.893	-0.022	-0.041
-449.924	-50.042	0.097	-0.046
-448.909	-103.947	0.133	-0.031
-447.895	-32.715	-0.082	-0.045
-446.880	-165.066	-0.247	0.011
-445.865	84.524	0.360	0.393
-444.851	300.916	0.120	-0.221
-443.836	-200.000	-0.026	-0.168
-442.822	32.258	0.148	-0.127
-441.807	83.896	-0.049	-0.053
-440.792	-129.180	0.210	-0.029
-439.778	38.353	-0.310	0.275
-438.763	-200.000	0.015	0.337
-437.749	-200.000	-0.022	0.114
-436.734	-96.211	-0.082	0.022
-435.719	176.912	-0.220	-0.319
-434.705	119.964	-0.119	0.147
-433.690	29.477	0.164	0.139
-432.676	-13.224	-0.192	0.125
-431.661	-81.929	-0.023	-0.007
-430.646	-33.642	0.128	-0.070
-429.632	63.953	-0.032	0.032
-428.617	-11.624	0.126	-0.082
-427.603	-200.000	0.064	0.292
-426.588	800.000	-0.033	0.094
-425.573	168.803	-0.295	-0.419
-424.559	-45.173	0.501	-0.248
-423.544	9.143	-0.236	0.177
-422.530	-135.253	0.234	0.028
-421.515	-200.000	0.046	-0.238
-420.500	439.920	0.137	0.297
-419.486	-200.000	0.036	0.315
-418.471	418.669	0.060	-0.128
-417.457	102.019	0.149	0.173
-416.442	-52.595	-0.395	-0.182
-415.428	69.474	-0.142	-0.146
-414.413	54.228	-0.055	-0.053
-413.398	363.773	0.012	-0.024
-412.384	-200.000	0.016	-0.244
-411.369	-1.599	-0.096	0.067
-410.355	-200.000	0.033	0.156
-409.340	-1.139	-0.193	0.136
-408.325	55.753	0.250	-0.241
-407.311	-35.577	0.239	-0.129
-406.296	-43.502	-0.235	-0.118
-405.282	152.129	0.207	-0.281
-404.267	115.163	0.143	-0.174
-403.252	307.613	-0.110	0.203
-402.238	652.280	0.045	-0.114
-401.223	88.312	-0.130	-0.144
-400.209	65.875	-0.270	0.272
-399.194	-155.292	-0.185	0.012
-398.179	35.948	-0.139	-0.121
-397.165	-121.546	0.169	0.028
-396.150	-31.160	0.284	-0.159
-395.136	800.000	0.073	0.296
-394.121	800.000	0.014	-0.056
-393.106	-200.000	0.038	0.394
-392.092	688.299	0.077	0.201
-391.077	-97.982	0.136	-0.035
-390.063	252.819	0.019	-0.033
-389.048	-165.737	0.381	-0.016
-388.033	272.922	0.146	0.257
-387.019	-13.951	-0.361	-0.232
-386.004	-200.000	0.003	-0.025
-384.990	-144.393	0.363	-0.034
-383.975	-200.000	0.043	-0.190
-382.960	-200.000	-0.001	0.039
-381.946	745.223	-0.083	-0.223
-380.931	106.190	0.033	-0.039
-379.917	24.529	0.114	-0.094
-378.902	1.363	0.430	-0.307
-377.888	-200.000	-0.023	0.101
-376.873	-161.250	0.163	0.008
-375.858	-127.347	-0.240	0.035
-374.844	294.439	0.096	0.174
-373.829	-200.000	0.001	-0.115
-372.815	-66.890	0.302	0.118
-371.800	800.000	-0.093	-0.299
-370.785	-63.920	0.062	0.025
-369.771	92.327	0.082	-0.092
-368.756	-200.000	0.006	0.283
-367.742	63.815	0.068	-0.068
-366.727	-60.270	-0.325	-0.138
-365.712	800.000	0.028	-0.120
-364.698	101.304	0.068	0.079
-363.683	171.631	-0.067	0.096
-362.669	-200.000	-0.012	-0.266
-361.654	800.000	-0.063	0.221
-360.639	250.912	-0.256	0.432
-359.625	385.838	0.030	-0.062
-358.610	-44.882	-0.427	-0.212
-357.596	124.366	0.036	-0.045
-356.581	-200.000	0.031	-0.184
-355.566	-51.242	-0.218	0.101
-354.552	-131.567	0.234	0.031
-353.537	-63.557	-0.242	0.099
-352.523	-80.212	-0.179	-0.060
-351.508	5.931	-0.058	0.043
-350.493	6.208	0.163	-0.120
-349.479	-140.770	-0.261	-0.027
-348.464	61.479	0.093	0.092
-347.450	2.792	0.092	0.066
-346.435	-71.415	0.177	0.066
-345.420	130.870	-0.169	0.215
-344.406	9.923	-0.134	-0.101
-343.391	800.000	-0.011	0.034
-342.377	800.000	-0.125	0.372
-341.362	-200.000	0.016	0.271
-340.348	4.604	-0.086	0.062
-339.333	-6.014	-0.128	0.087
-338.318	-200.000	-0.049	0.309
-337.304	25.604	0.045	-0.037
-336.289	215.849	0.118	-0.185
-335.275	800.000	-0.021	-0.083
-334.260	800.000	-0.035	0.138
-333.245	53.557	0.191	-0.182
-332.231	210.224	0.077	0.120
-331.216	-2.582	-0.085	-0.059
-330.202	436.996	0.133	-0.288
-329.187	-95.464	0.170	0.045
-328.172	-147.223	0.178	0.015
-327.158	-104.975	-0.145	-0.033
-326.143	69.076	0.285	-0.291
-325.129	-1.179	0.227	-0.159
-324.114	-200.000	-0.013	0.155
-323.099	181.155	0.195	-0.284
-322.085	7.607	-0.129	0.096
-321.070	94.198	0.071	0.080
-320.056	800.000	0.111	-0.438
-319.041	800.000	-0.013	0.051
-318.026	145.943	-0.133	0.177
-317.012	800.000	-0.050	-0.200
-315.997	800.000	0.056	0.166
-314.983	-95.622	0.068	-0.018
-313.968	-18.061	0.176	-0.109
-312.953	150.654	0.178	-0.240
-311.939	144.763	0.206	-0.273
-310.924	296.915	0.034	-0.062
-309.910	-182.236	0.334	0.006
-308.895	147.659	-0.087	0.116
-307.880	-51.517	-0.315	-0.146
-306.866	-200.000	-0.023	0.216
-305.851	-200.000	-0.018	-0.194
-304.837	50.547	0.027	0.025
-303.822	-62.952	0.403	-0.165
-302.807	800.000	-0.067	-0.257
-301.793	-148.370	-0.383	-0.031
-300.778	-200.000	-0.020	0.131
-299.764	3.269	-0.266	0.192
-298.749	200.755	0.125	0.190
-297.735	-104.007	0.467	0.108
-296.720	-28.843	-0.498	0.284
-295.705	324.957	-0.152	0.288
-294.691	623.887	0.114	0.286
-293.676	198.171	-0.177	-0.269
-292.662	324.689	-0.043	0.082
-291.647	230.424	0.113	-0.183
-290.632	-26.008	-0.183	-0.107
-289.618	75.222	0.134	0.140
-288.603	-106.059	-0.134	0.030
-287.589	22.110	0.061	-0.049
-286.574	1.579	0.044	0.031
-285.559	-62.388	-0.127	0.052
-284.545	51.587	0.225	-0.212
-283.530	8.011	-0.180	0.134
-282.516	156.277	0.133	-0.182
-281.501	-35.972	0.267	-0.143
-280.486	-121.830	-0.593	-0.097
-279.472	-104.600	-0.212	-0.048
-278.457	-200.000	0.007	0.138
-277.443	-52.526	0.119	-0.054
-276.428	-200.000	0.017	-0.081
-275.413	800.000	-0.090	0.368
-274.399	-158.235	0.102	0.006
-273.384	-200.000	0.044	0.219
-272.370	-123.772	0.083	-0.013
-271.355	31.455	-0.141	0.120
-270.340	-113.120	-0.253	0.049
-269.326	-76.687	-0.176	-0.061
-268.311	182.067	0.342	0.499
-267.297	415.467	0.066	0.138
-266.282	-16.018	-0.056	0.035
-265.267	284.133	-0.046	0.082
-264.253	-85.986	-0.278	0.085
-263.238	-65.390	-0.033	-0.013
-262.224	-65.764	-0.153	0.060
-261.209	352.137	-0.100	-0.195
-260.195	-200.000	-0.103	0.455
-259.180	-128.809	0.254	-0.035
-258.165	80.412	-0.206	0.220
-257.151	54.002	-0.193	0.184
-256.136	-111.928	-0.221	0.044
-255.122	-10.187	0.140	0.092
-254.107	-5.266	-0.187	-0.127
-253.092	-129.380	-0.214	-0.029
-252.078	256.187	0.186	0.316
-251.063	-88.332	-0.038	0.011
-250.049	149.530	-0.120	-0.161
-249.034	-200.000	0.017	-0.163
-248.019	-140.518	-0.045	-0.005
-247.005	20.886	-0.182	-0.146
-245.990	92.971	-0.112	-0.125
-244.976	-91.877	-0.418	0.117
-243.961	-64.315	0.200	0.080
-242.946	800.000	0.047	0.155
-241.932	-200.000	-0.092	-0.450
-240.917	-200.000	-0.006	-0.269
-239.903	23.052	-0.143	-0.116
-238.888	-179.383	0.148	0.003
-237.873	800.000	-0.081	0.291
-236.859	-91.678	0.063	0.018
-235.844	303.398	0.109	-0.200
-234.830	-200.000	-0.204	0.000
-233.815	1.788	-0.025	-0.018
-232.800	800.000	0.129	0.363
-231.786	-105.060	-0.125	0.028
-230.771	-200.000	-0.031	-0.313
-229.757	-90.724	0.367	0.105
-228.742	-72.704	0.137	-0.050
-227.727	-69.097	-0.164	0.062
-226.713	-200.000	0.023	0.219
-225.698	-200.000	-0.002	-0.299
-224.684	-33.881	0.241	0.131
-223.669	285.849	-0.125	0.222
-222.655	-163.476	-0.069	0.003
-221.640	290.674	-0.080	-0.144
-220.625	212.995	0.075	-0.118
-219.611	-173.396	-0.264	-0.008
-218.596	-70.430	-0.049	-0.018
-217.582	-12.319	0.261	0.168
-216.567	800.000	0.124	0.341
-215.552	800.000	-0.013	0.037
-214.538	18.273	-0.108	0.085
-213.523	-15.702	-0.061	0.039
-212.509	-38.775	0.238	-0.124
-211.494	-105.186	-0.161	0.036
-210.479	-109.243	-0.078	0.016
-209.465	-122.968	0.275	-0.044
-208.450	-200.000	0.015	0.283
-207.436	-40.466	0.007	0.004
-206.421	668.835	0.048	0.123
-205.406	695.142	-0.132	-0.341
-204.392	-42.905	-0.069	-0.035
-203.377	-76.724	-0.276	0.095
-202.363	-85.664	0.523	0.160
-201.348	-72.432	-0.234	0.085
-200.333	78.292	0.399	0.421
-199.319	-200.000	0.004	0.299
-198.304	360.082	0.105	0.208
-197.290	197.589	0.094	0.142
-196.275	398.957	0.145	-0.299
-195.260	800.000	0.120	-0.406
-194.246	-200.000	0.035	-0.502
-193.231	395.516	-0.012	0.025
-192.217	74.729	0.078	0.080
-191.202	-37.448	0.059	0.031
-190.187	73.234	-0.215	0.222
-189.173	-200.000	0.014	-0.202
-188.158	-193.687	0.224	0.002
-187.144	-141.443	0.074	0.007
-186.129	144.467	-0.054	0.072
-185.114	-200.000	-0.019	-0.257
-184.100	-109.275	0.243	-0.051
-183.085	218.261	0.164	-0.259
-182.071	-200.000	-0.021	-0.228
-181.056	-142.763	-0.205	0.020
-180.042	81.225	-0.177	0.189
-179.027	100.938	0.086	-0.099
-178.012	-200.000	-0.085	0.452
-176.998	-30.052	-0.212	-0.119
-175.983	-49.631	0.167	-0.078
-174.969	-49.896	0.067	0.031
-173.954	-200.000	-0.044	-0.433
-172.939	398.711	-0.172	-0.354
-171.925	313.981	-0.070	0.130
-170.910	40.351	-0.165	0.146
-169.896	355.413	0.110	0.217
-168.881	158.313	-0.216	0.296
-167.866	482.171	-0.099	-0.223
-166.852	-190.686	-0.277	0.003
-165.837	63.969	0.241	-0.239
-164.823	800.000	0.118	0.327
-163.808	-82.763	-0.188	-0.060
-162.793	220.500	-0.115	0.181
-161.779	-7.860	0.220	0.146
-160.764	-159.777	0.400	-0.022
-159.750	-154.511	-0.229	0.015
-158.735	-76.914	0.204	0.070
-157.720	-29.838	0.457	-0.257
-156.706	12.567	-0.235	-0.179
-155.691	119.922	0.158	0.193
-154.677	-144.932	0.129	-0.012
-153.662	219.791	-0.134	-0.211
-152.647	237.544	0.135	0.220
-151.633	-78.870	0.116	0.039
-150.618	-103.645	-0.134	0.031
-149.604	-200.000	-0.039	-0.652
-148.589	-116.750	0.205	-0.037
-147.574	-10.822	-0.151	-0.099
-146.560	-107.177	0.296	-0.064
-145.545	30.624	0.367	0.309
-144.531	-142.564	-0.290	0.028
-143.516	-115.594	0.349	-0.065
-142.502	-200.000	-0.023	0.215
-141.487	36.228	0.074	0.064
-140.472	800.000	-0.086	-0.356
-139.458	-9.903	-0.144	0.095
-138.443	-200.000	0.061	-0.267
-137.429	-41.767	0.081	0.041
-136.414	249.168	0.045	-0.074
-135.399	118.266	-0.191	0.232
-134.385	-200.000	-0.013	-0.201
-133.370	-78.318	0.199	-0.067
-132.356	42.603	0.167	-0.149
-131.341	-56.569	0.214	-0.093
-130.326	-58.040	-0.262	-0.113
-129.312	-173.550	-0.209	0.006
-128.297	-22.025	-0.127	-0.076
-127.283	-200.000	-0.031	-0.177
-126.268	800.000	0.049	-0.179
-125.253	112.337	-0.144	0.172
-124.239	-200.000	0.006	-0.114
-123.224	800.000	-0.056	0.226
-122.210	-90.456	0.022	0.006
-121.195	-200.000	-0.026	0.275
