DTS Sentinel unit serial number:	SN413079Multiplexer serial number:	ORYXHardware model number:	OX4-SRSoftware version number:	ORYX F/W v4.00 Oryx Data Collector v3.7.2.0data status	okinstallation	princeton_trtdifferential loss correction	single-endedforward channel	channel 2reverse channel	N/Adate	2019/09/12time	00:13:11forward acquisition time	60.00reverse acquisition time	0.00gamma	496.2192k internal	0.2325k external	0.2325temperature offset calibration	1.0085default loss term (dB/km)	0.3790temperature slope calibration	1.0000multiplexer offset coefficient	1.0000multiplexer slope coefficient	1.0000fibre end	0.00T internal ref (°C)	33.62T ext. ref 1 (°C)	2.00T ext. ref 2 (°C)	28.06length (m)	temperature (°C)	Stokes	anti-Stokes-747.200	-43.033	0.470	-0.241
-746.185	344.908	-0.114	0.225
-745.171	-21.490	-0.205	0.126
-744.156	235.706	-0.160	0.267
-743.142	-78.740	-0.198	0.068
-742.127	-60.258	0.402	0.173
-741.112	663.321	-0.102	-0.265
-740.098	22.619	-0.189	-0.156
-739.083	13.991	0.236	-0.185
-738.069	-66.578	-0.234	0.094
-737.054	-131.945	0.011	-0.001
-736.039	-87.928	-0.234	-0.071
-735.025	-78.146	0.275	0.096
-734.010	283.139	-0.126	-0.228
-732.996	-175.257	-0.291	0.008
-731.981	-200.000	0.018	-0.502
-730.966	498.573	0.138	0.320
-729.952	267.422	-0.028	-0.050
-728.937	-49.986	0.119	-0.057
-727.923	161.360	-0.135	0.190
-726.908	-20.728	-0.235	-0.145
-725.894	800.000	-0.047	-0.185
-724.879	-200.000	-0.049	-0.230
-723.864	-200.000	0.022	-0.163
-722.850	-123.131	-0.283	-0.046
-721.835	231.922	0.219	-0.362
-720.821	800.000	0.075	-0.294
-719.806	-200.000	-0.007	-0.045
-718.791	340.906	-0.163	-0.322
-717.777	134.273	0.266	0.348
-716.762	103.065	-0.251	-0.296
-715.748	-200.000	0.002	-0.260
-714.733	-180.745	-0.221	0.005
-713.718	-42.287	-0.273	0.141
-712.704	800.000	-0.022	0.086
-711.689	-55.113	-0.288	-0.131
-710.675	800.000	0.035	-0.114
-709.660	800.000	0.065	-0.194
-708.645	-64.961	-0.292	-0.119
-707.631	471.617	0.051	0.116
-706.616	800.000	0.062	-0.210
-705.602	-135.024	-0.073	0.009
-704.587	3.321	-0.136	-0.100
-703.572	119.118	-0.078	0.097
-702.558	200.083	-0.256	-0.397
-701.543	-200.000	-0.024	0.267
-700.529	-200.000	0.055	0.254
-699.514	-75.717	0.153	-0.055
-698.499	-152.799	-0.325	-0.023
-697.485	-84.704	0.018	-0.006
-696.470	-200.000	0.042	-0.268
-695.456	276.379	0.176	-0.315
-694.441	364.616	-0.191	-0.386
-693.426	800.000	-0.144	-0.424
-692.412	-63.119	-0.214	-0.089
-691.397	73.179	-0.072	0.076
-690.383	-14.869	-0.246	-0.159
-689.368	-133.431	0.295	-0.037
-688.354	-98.507	-0.124	0.032
-687.339	67.621	0.040	0.041
-686.324	16.940	-0.197	0.157
-685.310	-35.784	-0.452	-0.247
-684.295	-139.644	-0.402	0.043
-683.281	124.169	-0.132	-0.167
-682.266	-200.000	-0.006	-0.099
-681.251	-105.771	0.115	-0.026
-680.237	-117.014	-0.145	-0.027
-679.222	-34.703	-0.480	-0.264
-678.208	-200.000	-0.019	-0.367
-677.193	-22.481	-0.500	-0.304
-676.178	100.082	-0.091	-0.106
-675.164	800.000	0.040	0.172
-674.149	-140.084	-0.212	0.022
-673.135	-47.142	0.107	-0.053
-672.120	21.726	-0.127	-0.104
-671.105	110.468	0.137	-0.166
-670.091	64.368	0.173	-0.175
-669.076	-200.000	-0.057	-0.280
-668.062	191.181	0.247	0.373
-667.047	800.000	-0.016	0.048
-666.032	-62.810	0.177	-0.074
-665.018	138.548	-0.145	-0.191
-664.003	800.000	0.099	-0.280
-662.989	-112.371	-0.356	-0.072
-661.974	-56.279	0.193	-0.087
-660.959	533.383	0.158	-0.376
-659.945	-200.000	0.033	-0.281
-658.930	-151.059	-0.193	-0.015
-657.916	266.496	0.146	0.257
-656.901	-107.625	-0.323	-0.071
-655.886	-136.763	-0.390	0.045
-654.872	193.242	0.121	-0.184
-653.857	-121.547	0.086	-0.014
-652.843	213.705	-0.130	0.206
-651.828	255.726	-0.023	-0.039
-650.814	-200.000	-0.015	-0.234
-649.799	-200.000	0.025	-0.174
-648.784	98.363	0.176	-0.204
-647.770	70.734	0.222	-0.231
-646.755	114.830	0.126	-0.155
-645.741	-186.021	0.326	0.005
-644.726	-117.782	0.145	0.026
-643.711	174.576	-0.128	-0.186
-642.697	-40.243	-0.149	0.078
-641.682	800.000	0.053	0.176
-640.668	-50.299	0.097	0.046
-639.653	0.818	0.061	0.044
-638.638	577.184	0.081	-0.200
-637.624	-92.508	0.222	-0.063
-636.609	73.104	-0.133	-0.140
-635.595	-200.000	0.010	0.248
-634.580	104.372	0.207	0.245
-633.565	-33.886	-0.023	-0.013
-632.551	-200.000	0.007	0.201
-631.536	59.760	-0.070	-0.069
-630.522	737.030	0.055	-0.148
-629.507	-69.642	0.102	-0.039
-628.492	-139.944	-0.228	-0.024
-627.478	19.665	0.184	0.149
-626.463	144.678	-0.194	-0.261
-625.449	135.323	-0.088	-0.115
-624.434	-29.420	0.139	0.080
-623.419	257.933	0.079	0.137
-622.405	-122.744	0.228	0.037
-621.390	253.959	0.151	-0.259
-620.376	85.963	0.084	0.093
-619.361	-16.353	0.166	-0.106
-618.346	16.439	-0.088	0.070
-617.332	-97.199	-0.186	-0.049
-616.317	-15.536	-0.137	-0.088
-615.303	800.000	0.033	0.144
-614.288	-161.346	-0.252	-0.013
-613.273	800.000	-0.004	0.015
-612.259	-200.000	-0.012	-0.062
-611.244	800.000	-0.088	-0.295
-610.230	208.570	0.047	-0.074
-609.215	-102.077	-0.227	-0.055
-608.201	-177.896	-0.459	-0.011
-607.186	52.167	-0.089	0.085
-606.171	800.000	-0.094	0.277
-605.157	-17.677	-0.279	0.176
-604.142	59.334	-0.179	-0.177
-603.128	-84.722	-0.286	-0.090
-602.113	43.410	0.179	0.165
-601.098	-81.332	0.140	0.046
-600.084	-200.000	0.035	-0.238
-599.069	23.217	-0.046	-0.038
-598.055	-126.526	-0.105	0.016
-597.040	13.939	0.193	-0.151
-596.025	-200.000	-0.017	-0.117
-595.011	469.601	-0.067	0.151
-593.996	-49.385	0.167	-0.080
-592.982	-12.486	0.266	0.174
-591.967	-83.726	0.049	-0.016
-590.952	-92.746	-0.345	0.097
-589.938	53.874	-0.101	-0.097
-588.923	-49.290	-0.280	-0.134
-587.909	800.000	-0.037	-0.124
-586.894	-24.742	-0.319	-0.190
-585.879	151.599	-0.135	-0.184
-584.865	800.000	0.151	-0.568
-583.850	-200.000	-0.059	-0.329
-582.836	-45.041	-0.414	-0.207
-581.821	-16.755	-0.210	-0.133
-580.806	764.719	-0.051	0.138
-579.792	-26.589	-0.209	-0.123
-578.777	-97.928	-0.241	0.062
-577.763	-200.000	-0.003	-0.250
-576.748	44.938	-0.021	-0.019
-575.733	-9.317	0.064	-0.043
-574.719	800.000	-0.081	0.323
-573.704	35.401	0.091	0.080
-572.690	-200.000	-0.001	0.083
-571.675	-40.525	0.192	-0.100
-570.661	-73.478	-0.172	0.063
-569.646	292.714	0.077	-0.141
-568.631	-55.466	-0.278	-0.125
-567.617	-25.891	0.230	0.135
-566.602	-124.856	-0.238	-0.037
-565.588	-72.037	-0.401	-0.149
-564.573	614.033	-0.045	-0.114
-563.558	-18.639	0.344	-0.215
-562.544	8.226	-0.085	0.064
-561.529	-52.276	0.016	0.007
-560.515	-200.000	0.024	0.109
-559.500	31.412	0.114	-0.098
-558.485	-109.649	-0.069	-0.015
-557.471	192.609	-0.186	-0.281
-556.456	-157.435	-0.154	0.009
-555.442	184.244	-0.234	0.347
-554.427	87.186	0.189	-0.209
-553.412	-105.902	0.222	-0.050
-552.398	-9.525	-0.185	-0.124
-551.383	-200.000	0.036	0.402
-550.369	61.684	-0.145	-0.145
-549.354	800.000	-0.034	-0.118
-548.339	-7.921	-0.296	0.200
-547.325	800.000	-0.045	0.152
-546.310	327.272	-0.071	-0.136
-545.296	151.525	-0.165	0.226
-544.281	632.054	0.050	0.126
-543.266	104.919	-0.203	0.240
-542.252	170.148	0.090	-0.129
-541.237	12.454	0.147	-0.114
-540.223	76.934	-0.059	-0.063
-539.208	-166.489	-0.093	-0.004
-538.193	800.000	0.012	0.045
-537.179	-155.561	0.118	-0.008
-536.164	-68.269	-0.159	0.062
-535.150	-120.790	0.288	-0.049
-534.135	348.603	-0.082	0.162
-533.121	152.328	0.172	0.234
-532.106	-200.000	-0.018	0.097
-531.091	-200.000	0.020	-0.138
-530.077	800.000	-0.030	0.126
-529.062	-93.093	0.026	-0.007
-528.048	73.323	0.224	-0.234
-527.033	-89.606	0.249	0.073
-526.018	-200.000	0.019	0.180
-525.004	-27.598	-0.032	0.019
-523.989	-82.919	0.334	0.108
-522.975	-43.580	-0.176	0.089
-521.960	27.153	0.093	-0.078
-520.945	-81.612	-0.450	-0.148
-519.931	28.398	-0.192	-0.162
-518.916	8.335	0.064	-0.048
-517.902	92.376	-0.106	0.119
-516.887	185.750	0.127	-0.189
-515.872	27.026	0.222	-0.186
-514.858	-76.917	0.150	0.052
-513.843	-33.616	0.066	0.037
-512.829	-153.250	-0.105	0.007
-511.814	189.366	0.211	0.316
-510.799	98.424	-0.103	-0.119
-509.785	-24.104	-0.165	0.099
-508.770	800.000	-0.024	0.104
-507.756	-200.000	-0.014	-0.123
-506.741	135.356	-0.240	0.313
-505.726	-187.453	-0.193	-0.003
-504.712	-16.442	0.174	-0.110
-503.697	-109.122	-0.287	0.061
-502.683	280.366	-0.078	0.139
-501.668	18.941	-0.147	0.118
-500.653	475.392	0.025	0.056
-499.639	-200.000	0.001	-0.145
-498.624	689.011	-0.127	-0.332
-497.610	-158.710	0.312	0.018
-496.595	171.110	0.180	-0.258
-495.581	-55.403	0.019	0.009
-494.566	-68.728	0.190	-0.073
-493.551	137.834	-0.186	-0.244
-492.537	-34.500	0.087	0.047
-491.522	-200.000	0.017	0.137
-490.508	-200.000	0.025	-0.144
-489.493	-200.000	-0.034	0.173
-488.478	-67.903	0.198	0.077
-487.464	-135.901	-0.135	0.016
-486.449	12.239	0.340	0.261
-485.435	25.610	-0.249	-0.207
-484.420	13.680	0.102	-0.079
-483.405	-117.771	0.387	0.069
-482.391	-58.721	0.074	-0.032
-481.376	-72.743	0.356	-0.131
-480.362	-200.000	0.002	-0.235
-479.347	73.457	-0.137	-0.143
-478.332	154.537	0.140	-0.192
-477.318	-34.879	-0.140	0.077
-476.303	-96.277	-0.224	-0.059
-475.289	25.028	0.060	0.049
-474.274	-200.000	-0.118	0.524
-473.259	-67.045	-0.304	-0.120
-472.245	146.914	0.187	0.251
-471.230	-84.434	0.216	0.068
-470.216	242.218	-0.219	-0.366
-469.201	-9.775	0.131	-0.087
-468.186	88.351	-0.058	0.065
-467.172	-141.539	-0.099	0.010
-466.157	-200.000	-0.035	-0.176
-465.143	239.206	0.095	-0.158
-464.128	20.218	-0.292	-0.236
-463.113	141.941	-0.073	0.096
-462.099	-46.526	-0.291	0.142
-461.084	-38.342	0.197	0.104
-460.070	42.869	-0.210	0.191
-459.055	800.000	-0.041	0.156
-458.040	220.506	-0.162	0.260
-457.026	-200.000	0.004	0.275
-456.011	800.000	-0.081	-0.224
-454.997	-159.266	-0.094	-0.005
-453.982	746.363	-0.131	0.351
-452.968	-95.456	0.050	-0.013
-451.953	-170.153	0.157	-0.006
-450.938	537.154	-0.009	-0.022
-449.924	80.921	0.159	0.171
-448.909	-200.000	0.002	-0.238
-447.895	-200.000	0.012	0.118
-446.880	-95.581	-0.102	-0.027
-445.865	-111.890	-0.259	-0.052
-444.851	111.936	-0.287	0.346
-443.836	60.565	0.143	-0.142
-442.822	-71.486	0.445	0.166
-441.807	-114.423	-0.045	0.009
-440.792	53.359	0.205	0.196
-439.778	-200.000	0.042	-0.378
-438.763	-77.519	0.203	0.070
-437.749	-97.446	-0.045	-0.012
-436.734	58.472	0.152	0.148
-435.719	-65.734	-0.212	0.085
-434.705	269.067	0.103	-0.180
-433.690	800.000	-0.029	0.092
-432.676	-200.000	-0.021	0.237
-431.661	-200.000	-0.010	-0.071
-430.646	-110.255	-0.355	0.074
-429.632	172.955	-0.053	0.076
-428.617	-190.330	-0.212	0.002
-427.603	-57.035	-0.072	-0.031
-426.588	-200.000	0.002	-0.010
-425.573	250.953	-0.129	0.218
-424.559	-6.475	-0.245	-0.166
-423.544	540.320	0.104	-0.248
-422.530	403.952	-0.107	-0.224
-421.515	92.058	-0.150	0.169
-420.500	23.417	-0.159	0.130
-419.486	-31.075	-0.233	0.131
-418.471	-13.061	0.200	-0.129
-417.457	129.540	0.081	-0.103
-416.442	55.434	-0.141	-0.136
-415.428	103.126	0.219	-0.256
-414.413	310.001	0.130	-0.241
-413.398	-153.572	-0.124	0.009
-412.384	134.883	0.165	-0.213
-411.369	408.951	-0.106	0.224
-410.355	401.845	-0.110	0.231
-409.340	339.948	-0.099	0.193
-408.325	629.045	0.079	0.199
-407.311	27.535	0.109	-0.092
-406.296	-144.831	-0.141	0.013
-405.282	-60.202	0.225	-0.096
-404.267	-55.210	-0.165	0.074
-403.252	-48.599	0.299	0.143
-402.238	54.368	0.206	0.198
-401.223	107.924	-0.187	0.222
-400.209	385.917	-0.143	-0.293
-399.194	481.552	-0.120	0.271
-398.179	-190.226	-0.264	0.003
-397.165	-200.000	0.040	-0.436
-396.150	-65.139	-0.143	0.057
-395.136	396.307	0.137	-0.284
-394.121	-200.000	0.001	0.181
-393.106	54.097	-0.297	0.284
-392.092	-117.795	0.120	-0.021
-391.077	-200.000	-0.028	-0.197
-390.063	-76.952	0.268	-0.093
-389.048	800.000	-0.023	-0.096
-388.033	-200.000	-0.031	0.212
-387.019	-110.448	-0.375	-0.077
-386.004	117.992	0.214	0.263
-384.990	800.000	-0.053	0.205
-383.975	123.860	-0.080	0.100
-382.960	430.381	-0.092	-0.198
-381.946	382.610	-0.041	-0.084
-380.931	42.350	0.295	0.267
-379.917	351.721	0.093	0.184
-378.902	13.430	0.133	0.103
-377.888	-24.600	-0.182	-0.108
-376.873	-108.183	-0.240	-0.052
-375.858	360.198	0.176	0.351
-374.844	165.997	-0.042	0.060
-373.829	29.841	0.056	-0.047
-372.815	71.835	-0.064	0.066
-371.800	-27.577	-0.120	-0.069
-370.785	406.844	-0.101	0.213
-369.771	-148.362	-0.177	-0.014
-368.756	-126.409	-0.239	-0.035
-367.742	-200.000	-0.024	0.170
-366.727	0.613	0.187	0.133
-365.712	225.210	0.175	-0.282
-364.698	-81.408	0.415	0.136
-363.683	-83.184	-0.181	-0.058
-362.669	-200.000	0.054	-0.415
-361.654	-83.677	0.103	0.033
-360.639	800.000	-0.143	-0.396
-359.625	-78.566	0.229	0.078
-358.610	-200.000	0.009	0.301
-357.596	-25.799	0.431	0.253
-356.581	-200.000	0.017	0.257
-355.566	-200.000	-0.004	-0.263
-354.552	-128.525	-0.127	-0.018
-353.537	-95.019	0.247	-0.066
-352.523	19.448	-0.255	0.204
-351.508	58.414	0.202	-0.197
-350.493	91.254	-0.252	0.281
-349.479	116.900	-0.122	0.149
-348.464	-200.000	0.046	0.235
-347.450	800.000	0.031	0.092
-346.435	238.044	-0.043	-0.070
-345.420	103.331	-0.288	-0.336
-344.406	-99.933	0.251	-0.062
-343.391	172.007	0.323	0.462
-342.377	-65.831	0.295	-0.117
-341.362	-200.000	0.031	-0.213
-340.348	178.822	0.158	0.230
-339.333	800.000	-0.119	0.338
-338.318	800.000	-0.074	0.292
-337.304	-100.434	0.111	-0.027
-336.289	236.102	0.259	-0.426
-335.275	473.448	0.062	-0.139
-334.260	14.294	0.104	-0.081
-333.245	382.376	-0.093	0.190
-332.231	800.000	0.059	0.219
-331.216	-142.796	-0.304	-0.029
-330.202	248.892	0.122	0.205
-329.187	-129.855	-0.430	0.059
-328.172	17.517	0.169	-0.134
-327.158	-148.047	-0.161	-0.013
-326.143	-108.755	-0.105	-0.022
-325.129	39.222	-0.244	-0.217
-324.114	-200.000	-0.051	0.263
-323.099	121.938	0.160	-0.198
-322.085	-85.313	-0.233	0.072
-321.070	-188.913	0.092	-0.001
-320.056	-200.000	-0.007	0.063
-319.041	-97.227	-0.366	-0.095
-318.026	-200.000	-0.020	-0.424
-317.012	800.000	-0.089	-0.250
-315.997	-44.029	-0.230	-0.115
-314.983	90.997	0.104	0.115
-313.968	-85.860	0.106	0.033
-312.953	-200.000	0.041	0.218
-311.939	-106.422	0.203	0.045
-310.924	-32.537	-0.109	-0.060
-309.910	780.946	-0.019	0.053
-308.895	661.953	0.096	0.246
-307.880	125.022	0.248	0.310
-306.866	126.495	-0.254	-0.319
-305.851	348.544	-0.013	-0.025
-304.837	279.085	-0.183	-0.324
-303.822	-55.891	-0.506	-0.224
-302.807	-89.042	0.341	0.100
-301.793	508.337	-0.051	0.117
-300.778	-105.105	0.067	-0.015
-299.764	-200.000	-0.019	0.116
-298.749	800.000	-0.053	0.194
-297.735	-200.000	-0.041	-0.270
-296.720	-100.147	0.114	-0.028
-295.705	-200.000	0.041	-0.197
-294.691	-31.750	0.482	-0.268
-293.676	800.000	-0.044	-0.152
-292.662	800.000	0.110	-0.380
-291.647	-48.565	-0.193	-0.092
-290.632	265.343	0.183	-0.316
-289.618	-89.719	-0.053	0.015
-288.603	-142.944	-0.214	-0.021
-287.589	-105.822	0.237	0.053
-286.574	-200.000	0.003	-0.051
-285.559	-200.000	-0.011	-0.055
-284.545	-2.886	-0.147	0.102
-283.530	800.000	0.038	0.146
-282.516	14.397	0.170	0.131
-281.501	-7.019	-0.127	0.085
-280.486	-87.565	0.039	0.012
-279.472	-183.580	0.128	0.002
-278.457	75.751	-0.174	0.182
-277.443	800.000	-0.038	0.119
-276.428	-155.495	0.342	-0.022
-275.413	712.779	0.059	0.154
-274.399	167.831	-0.221	0.311
-273.384	-78.428	0.352	0.119
-272.370	92.049	-0.215	0.239
-271.355	800.000	0.014	0.046
-270.340	36.378	0.223	-0.195
-269.326	23.236	0.099	0.080
-268.311	368.530	-0.034	-0.069
-267.297	-200.000	0.207	-0.001
-266.282	-92.444	-0.094	-0.026
-265.267	-172.010	0.197	0.006
-264.253	800.000	0.002	-0.007
-263.238	237.500	-0.109	-0.179
-262.224	-136.983	-0.103	-0.012
-261.209	432.862	-0.112	-0.241
-260.195	-62.831	0.384	0.157
-259.180	-51.829	-0.041	0.019
-258.165	-21.979	0.276	-0.166
-257.151	-63.756	-0.123	0.050
-256.136	-126.689	0.118	-0.017
-255.122	5.720	0.353	0.258
-254.107	-151.267	-0.135	-0.010
-253.092	38.491	0.070	-0.062
-252.078	-84.255	-0.221	-0.069
-251.063	-5.422	0.179	0.122
-250.049	800.000	0.073	0.307
-249.034	108.735	0.326	-0.385
-248.019	-184.183	0.439	0.007
-247.005	-19.524	-0.104	-0.064
-245.990	-130.765	-0.075	0.010
-244.976	-67.722	0.422	0.164
-243.961	91.424	0.245	-0.273
-242.946	-59.256	0.189	-0.081
-241.932	-200.000	-0.025	0.310
-240.917	-96.824	-0.195	-0.051
-239.903	-108.533	0.257	-0.055
-238.888	751.862	-0.060	-0.160
-237.873	-134.575	0.100	0.012
-236.859	-112.841	0.065	-0.013
-235.844	-78.319	-0.240	-0.081
-234.830	-28.434	-0.143	-0.081
-233.815	-29.816	0.236	0.133
-232.800	85.885	-0.219	-0.239
-231.786	71.982	-0.108	0.111
-230.771	800.000	-0.127	0.358
-229.757	-200.000	0.016	0.071
-228.742	100.194	-0.138	0.158
-227.727	-200.000	-0.050	0.336
-226.713	334.868	0.202	-0.387
-225.698	-200.000	0.017	-0.198
-224.684	-139.069	0.638	-0.068
-223.669	-51.568	-0.282	0.130
-222.655	39.253	0.033	0.029
-221.640	-138.390	0.399	0.044
-220.625	-172.048	0.091	0.003
-219.611	-200.000	0.058	-0.265
-218.596	714.417	-0.062	0.161
-217.582	-137.796	-0.078	-0.009
-216.567	32.547	-0.153	-0.131
-215.552	-52.618	0.106	0.049
-214.538	-200.000	-0.032	0.205
-213.523	303.161	0.122	0.223
-212.509	-69.917	-0.253	0.095
-211.494	713.114	0.016	0.041
-210.479	-92.465	-0.356	0.099
-209.465	-181.699	0.315	-0.006
-208.450	-200.000	0.019	-0.208
-207.436	-39.315	0.307	-0.159
-206.421	4.242	0.138	-0.100
-205.406	59.789	-0.215	0.210
-204.392	-176.327	-0.355	0.009
-203.377	204.955	-0.226	-0.346
-202.363	-70.205	-0.156	0.059
-201.348	156.791	-0.107	0.145
-200.333	505.684	0.107	0.245
-199.319	121.369	-0.212	0.261
-198.304	19.950	-0.194	-0.155
-197.290	-171.381	0.146	0.005
-196.275	-104.314	0.131	0.030
-195.260	149.597	0.136	0.182
-194.246	34.160	-0.109	0.094
-193.231	-200.000	-0.003	0.125
-192.217	-115.556	0.128	0.024
-191.202	-128.380	-0.181	0.025
-190.187	-102.551	0.089	-0.021
-189.173	-86.467	0.107	-0.033
-188.158	-115.260	0.341	-0.064
-187.144	25.947	-0.033	0.028
-186.129	-86.469	-0.215	-0.065
-185.114	-49.799	0.277	-0.130
-184.100	-130.669	-0.285	-0.038
-183.085	-200.000	0.047	-0.212
-182.071	-200.000	-0.070	0.000
-181.056	-47.519	0.195	0.093
-180.042	78.775	0.087	0.091
-179.027	800.000	0.033	-0.133
-178.012	-58.703	0.169	-0.072
-176.998	-117.448	-0.249	0.044
-175.983	87.702	-0.082	0.090
-174.969	-200.000	-0.024	-0.225
-173.954	233.371	-0.042	-0.069
-172.939	82.650	-0.208	-0.223
-171.925	84.731	0.155	-0.167
-170.910	130.536	0.039	-0.049
-169.896	-189.362	0.137	0.002
-168.881	327.338	0.110	-0.208
-167.866	110.853	0.166	-0.197
-166.852	302.885	-0.088	0.161
-165.837	-143.348	0.316	-0.030
-164.823	79.080	0.272	0.288
-163.808	270.824	0.131	0.228
-162.793	-70.117	-0.290	0.109
-161.779	-200.000	0.020	0.225
-160.764	-28.264	0.242	-0.138
-159.750	48.960	-0.123	0.114
-158.735	-114.590	0.109	-0.021
-157.720	195.493	-0.115	0.172
-156.706	-200.000	-0.021	-0.401
-155.691	-153.048	0.266	0.018
-154.677	-123.612	-0.099	-0.015
-153.662	-200.000	-0.025	0.270
-152.647	-91.701	0.355	0.100
-151.633	-94.239	-0.089	-0.024
-150.618	-200.000	-0.039	0.187
-149.604	-146.294	0.303	-0.026
-148.589	58.917	-0.144	0.140
-147.574	68.181	0.105	0.106
-146.560	-200.000	0.007	-0.050
-145.545	-147.764	0.233	0.019
-144.531	-200.000	-0.007	0.040
-143.516	137.533	-0.089	0.115
-142.502	-156.560	-0.333	-0.020
-141.487	-155.812	-0.048	-0.003
-140.472	20.867	-0.350	0.279
-139.458	39.241	0.060	-0.053
-138.443	540.879	-0.178	0.417
-137.429	-36.983	0.375	-0.198
-136.414	-7.215	-0.356	0.238
-135.399	-200.000	-0.001	0.232
-134.385	4.621	-0.148	-0.107
-133.370	-83.662	0.226	0.071
-132.356	276.856	-0.100	0.175
-131.341	-200.000	0.062	0.298
-130.326	800.000	-0.055	0.228
-129.312	-145.563	-0.107	0.009
-128.297	-105.821	0.195	-0.043
-127.283	-200.000	0.024	-0.122
-126.268	-142.826	0.261	-0.025
-125.253	31.859	0.180	-0.153
-124.239	127.195	-0.014	-0.018
-123.224	192.900	0.121	-0.180
-122.210	326.861	0.104	0.196
