DTS Sentinel unit serial number:	SN413079Multiplexer serial number:	ORYXHardware model number:	OX4-SRSoftware version number:	ORYX F/W v4.00 Oryx Data Collector v3.7.2.0data status	okinstallation	princeton_trtdifferential loss correction	single-endedforward channel	channel 2reverse channel	N/Adate	2019/09/12time	22:11:34forward acquisition time	60.00reverse acquisition time	0.00gamma	496.2192k internal	0.2330k external	0.2330temperature offset calibration	1.0176default loss term (dB/km)	0.3790temperature slope calibration	1.0000multiplexer offset coefficient	1.0000multiplexer slope coefficient	1.0000fibre end	0.00T internal ref (°C)	29.94T ext. ref 1 (°C)	3.75T ext. ref 2 (°C)	24.44length (m)	temperature (°C)	Stokes	anti-Stokes-747.200	-89.309	-0.202	0.060
-746.185	123.503	0.358	0.452
-745.171	186.916	0.220	-0.331
-744.156	-52.391	-0.237	-0.110
-743.142	-200.000	-0.053	0.270
-742.127	519.185	0.037	0.087
-741.112	-78.611	0.639	0.220
-740.098	-200.000	-0.035	0.277
-739.083	-55.476	0.173	-0.078
-738.069	800.000	-0.073	0.264
-737.054	258.633	0.046	-0.079
-736.039	-10.423	-0.378	-0.252
-735.025	-181.234	0.131	-0.003
-734.010	452.130	0.134	0.298
-732.996	-181.455	0.123	0.002
-731.981	79.660	-0.129	-0.140
-730.966	77.370	0.119	0.128
-729.952	800.000	0.074	0.303
-728.937	458.078	-0.106	-0.236
-727.923	-77.088	-0.349	-0.123
-726.908	-32.655	0.164	0.092
-725.894	-56.108	0.356	0.159
-724.879	-200.000	0.021	-0.130
-723.864	-200.000	-0.078	0.000
-722.850	-200.000	0.001	-0.194
-721.835	-200.000	-0.054	-0.245
-720.821	-162.957	-0.297	-0.014
-719.806	-49.877	-0.179	-0.086
-718.791	275.751	0.048	0.086
-717.777	-33.305	-0.163	-0.091
-716.762	39.823	-0.204	-0.184
-715.748	152.903	-0.085	-0.118
-714.733	161.822	-0.173	-0.244
-713.718	189.240	-0.076	0.115
-712.704	-200.000	-0.015	-0.436
-711.689	-100.797	-0.249	-0.062
-710.675	-200.000	0.014	-0.222
-709.660	20.358	0.358	-0.291
-708.645	44.368	0.093	0.086
-707.631	-200.000	0.076	-0.384
-706.616	-200.000	-0.006	0.200
-705.602	-56.558	0.009	0.004
-704.587	58.193	0.002	0.002
-703.572	62.983	-0.254	0.256
-702.558	-93.240	-0.180	0.050
-701.543	303.371	-0.146	-0.272
-700.529	-136.997	0.295	0.034
-699.514	640.708	0.110	0.282
-698.499	-77.383	-0.348	-0.122
-697.485	-168.885	0.242	0.009
-696.470	-200.000	-0.035	0.344
-695.456	181.516	0.028	0.041
-694.441	-104.842	-0.260	0.060
-693.426	384.466	-0.174	0.361
-692.412	-8.714	-0.066	-0.045
-691.397	47.176	0.104	-0.097
-690.383	-90.359	0.398	0.116
-689.368	-15.439	-0.114	0.073
-688.354	800.000	0.070	0.270
-687.339	-200.000	0.022	-0.104
-686.324	237.289	0.068	-0.114
-685.310	145.281	0.156	0.210
-684.295	-91.811	0.032	0.009
-683.281	-139.446	0.225	-0.024
-682.266	-200.000	0.010	-0.125
-681.251	188.529	-0.124	0.186
-680.237	22.504	0.234	-0.192
-679.222	113.336	-0.300	0.366
-678.208	-117.596	0.091	0.017
-677.193	-108.055	-0.185	-0.040
-676.178	0.706	-0.284	0.204
-675.164	800.000	0.123	-0.353
-674.149	-121.997	0.371	-0.061
-673.135	-48.818	-0.172	0.083
-672.120	-200.000	0.002	-0.196
-671.105	-200.000	0.006	0.174
-670.091	-17.708	0.049	0.031
-669.076	-77.158	-0.334	0.117
-668.062	-42.520	-0.236	-0.121
-667.047	-194.584	-0.662	-0.005
-666.032	473.536	-0.053	0.121
-665.018	48.933	0.083	-0.078
-664.003	800.000	0.040	-0.149
-662.989	-200.000	0.005	-0.218
-661.974	-67.508	-0.429	-0.169
-660.959	-136.976	0.068	-0.008
-659.945	6.104	0.164	-0.122
-658.930	-200.000	0.013	-0.174
-657.916	97.084	0.141	-0.163
-656.901	-132.225	-0.255	-0.033
-655.886	-149.068	-0.378	-0.030
-654.872	-200.000	-0.002	0.012
-653.857	379.073	-0.091	0.188
-652.843	167.655	-0.162	-0.231
-651.828	-48.681	-0.107	-0.052
-650.814	-90.379	-0.207	-0.060
-649.799	-59.670	0.277	-0.119
-648.784	-200.000	0.012	0.342
-647.770	-105.496	-0.134	0.030
-646.755	276.777	-0.113	-0.201
-645.741	-134.276	-0.243	0.030
-644.726	-97.905	0.204	0.053
-643.711	207.718	-0.092	-0.145
-642.697	-126.433	-0.412	-0.061
-641.682	-112.232	0.064	-0.013
-640.668	34.411	-0.143	-0.125
-639.653	282.833	-0.154	-0.276
-638.638	67.228	0.123	-0.126
-637.624	1.792	-0.181	-0.131
-636.609	-159.267	-0.228	0.013
-635.595	91.356	0.031	-0.035
-634.580	67.019	-0.105	-0.107
-633.565	91.769	0.073	-0.083
-632.551	-159.144	0.282	0.016
-631.536	-30.478	0.034	-0.020
-630.522	332.694	0.067	-0.130
-629.507	-22.327	-0.383	-0.233
-628.492	-131.623	-0.364	-0.048
-627.478	-153.045	-0.182	0.013
-626.463	-146.715	0.300	-0.026
-625.449	419.212	-0.017	-0.037
-624.434	-119.524	-0.140	-0.024
-623.419	-161.422	-0.101	0.005
-622.405	-200.000	-0.017	0.109
-621.390	767.083	0.055	-0.150
-620.376	7.603	-0.164	-0.123
-619.361	-183.958	0.103	-0.002
-618.346	260.701	0.083	-0.143
-617.332	82.565	-0.069	-0.076
-616.317	-200.000	-0.003	0.158
-615.303	125.532	-0.242	-0.306
-614.288	272.860	0.065	-0.115
-613.273	-200.000	0.041	-0.201
-612.259	58.374	-0.219	-0.216
-611.244	-200.000	-0.003	-0.122
-610.230	257.923	-0.098	0.169
-609.215	37.470	-0.251	0.223
-608.201	-200.000	-0.036	-0.212
-607.186	31.064	-0.151	-0.130
-606.171	244.522	-0.030	0.051
-605.157	-121.382	0.209	0.035
-604.142	107.780	0.168	-0.201
-603.128	98.620	0.045	-0.052
-602.113	800.000	-0.029	0.111
-601.098	154.170	0.011	0.015
-600.084	170.271	-0.172	-0.247
-599.069	89.312	-0.013	-0.015
-598.055	31.101	-0.210	0.180
-597.040	-54.757	-0.187	0.085
-596.025	800.000	-0.032	-0.134
-595.011	-107.351	-0.058	-0.013
-593.996	-177.428	0.226	0.006
-592.982	57.702	0.203	-0.199
-591.967	31.250	-0.048	-0.041
-590.952	-113.451	-0.194	-0.038
-589.938	119.967	0.215	-0.267
-588.923	-173.498	-0.085	0.003
-587.909	-114.879	-0.213	0.041
-586.894	-62.110	0.293	0.123
-585.879	9.632	-0.254	-0.193
-584.865	-45.887	0.248	-0.123
-583.850	-180.598	-0.278	-0.006
-582.836	360.193	-0.098	-0.197
-581.821	190.523	-0.192	-0.288
-580.806	-165.865	-0.057	-0.002
-579.792	-64.664	0.173	-0.070
-578.777	3.972	-0.369	-0.270
-577.763	800.000	-0.033	0.131
-576.748	15.061	0.037	0.029
-575.733	800.000	-0.038	-0.125
-574.719	-200.000	-0.033	0.317
-573.704	-200.000	-0.026	-0.243
-572.690	-200.000	0.039	-0.209
-571.675	-47.769	0.198	0.096
-570.661	-200.000	0.014	-0.158
-569.646	-144.471	0.230	-0.021
-568.631	161.598	-0.163	0.229
-567.617	-41.648	0.326	-0.167
-566.602	-200.000	0.042	0.473
-565.588	800.000	0.071	0.206
-564.573	-45.508	0.126	0.062
-563.558	79.874	-0.094	-0.101
-562.544	2.736	-0.233	-0.169
-561.529	-104.663	-0.316	-0.073
-560.515	230.430	0.148	-0.242
-559.500	-90.542	-0.342	-0.099
-558.485	662.490	-0.085	-0.218
-557.471	166.550	-0.111	0.157
-556.456	-200.000	-0.009	-0.061
-555.442	44.475	-0.268	-0.246
-554.427	46.898	-0.156	-0.145
-553.412	40.326	-0.154	-0.139
-552.398	-144.986	0.163	0.015
-551.383	29.041	0.236	-0.200
-550.369	-46.443	-0.093	0.045
-549.354	-200.000	0.237	0.000
-548.339	-93.139	0.425	0.118
-547.325	-200.000	-0.024	0.228
-546.310	-107.603	-0.342	0.075
-545.296	-149.578	-0.240	-0.019
-544.281	20.768	0.108	0.088
-543.266	-45.551	-0.215	-0.106
-542.252	-149.629	-0.311	0.025
-541.237	102.207	0.098	0.114
-540.223	-200.000	-0.004	0.092
-539.208	194.134	0.083	-0.125
-538.193	-200.000	-0.037	-0.213
-537.179	29.939	0.133	-0.113
-536.164	-73.361	-0.330	-0.121
-535.150	481.643	-0.208	0.472
-534.135	36.527	0.263	0.232
-533.121	-134.403	-0.152	-0.019
-532.106	-80.536	-0.313	0.104
-531.091	-200.000	0.017	-0.220
-530.077	-44.755	-0.240	0.120
-529.062	36.887	-0.129	0.114
-528.048	800.000	0.058	0.224
-527.033	800.000	-0.138	-0.417
-526.018	800.000	-0.038	0.118
-525.004	-200.000	0.022	0.228
-523.989	-108.381	0.121	0.026
-522.975	-39.144	-0.329	-0.173
-521.960	-200.000	-0.004	0.037
-520.945	43.771	0.214	0.195
-519.931	-189.235	-0.293	0.003
-518.916	-130.065	-0.212	0.029
-517.902	-200.000	-0.037	0.319
-516.887	207.109	0.141	-0.220
-515.872	175.790	-0.065	-0.095
-514.858	29.174	-0.139	-0.118
-513.843	144.790	-0.048	0.064
-512.829	800.000	-0.066	-0.226
-511.814	92.247	0.338	0.380
-510.799	19.837	0.070	-0.056
-509.785	-25.248	0.111	0.066
-508.770	-200.000	-0.055	-0.262
-507.756	-0.806	0.053	0.037
-506.741	-68.640	0.221	-0.085
-505.726	724.829	0.048	-0.127
-504.712	-200.000	-0.044	-0.211
-503.697	36.469	0.134	0.118
-502.683	511.493	0.089	0.208
-501.668	-31.551	-0.172	-0.096
-500.653	-200.000	-0.041	-0.182
-499.639	-123.125	0.252	0.040
-498.624	81.522	-0.070	-0.076
-497.610	-156.446	0.104	-0.006
-496.595	-42.180	0.109	-0.055
-495.581	36.740	-0.318	-0.280
-494.566	-117.011	0.354	0.064
-493.551	-134.334	0.423	-0.052
-492.537	173.578	0.186	0.268
-491.522	343.079	-0.045	0.088
-490.508	800.000	-0.052	0.186
-489.493	324.724	0.209	0.397
-488.478	-81.878	0.022	-0.007
-487.464	-51.698	-0.096	0.045
-486.449	-27.670	0.091	0.053
-485.435	58.422	-0.119	-0.117
-484.420	303.901	-0.102	-0.188
-483.405	-96.275	0.168	0.044
-482.391	316.837	0.042	0.079
-481.376	30.761	-0.065	0.055
-480.362	285.214	-0.036	0.065
-479.347	-72.379	0.169	0.062
-478.332	-61.694	-0.068	0.028
-477.318	48.850	-0.085	0.079
-476.303	26.113	-0.054	-0.045
-475.289	-169.719	0.184	-0.007
-474.274	-167.158	0.262	0.011
-473.259	-130.015	-0.351	0.048
-472.245	-200.000	-0.021	0.092
-471.230	596.678	0.067	0.165
-470.216	3.767	-0.252	0.184
-469.201	-200.000	0.015	-0.232
-468.186	-33.544	0.043	0.024
-467.172	800.000	-0.149	0.486
-466.157	220.670	-0.108	0.172
-465.143	-200.000	-0.021	-0.106
-464.128	55.621	0.102	-0.098
-463.113	243.330	-0.202	-0.338
-462.099	-200.000	0.008	0.286
-461.084	-124.456	-0.382	0.059
-460.070	-39.827	0.313	-0.163
-459.055	600.098	0.051	0.125
-458.040	558.531	-0.043	0.103
-457.026	3.745	0.102	0.074
-456.011	-200.000	0.011	-0.326
-454.997	-200.000	0.003	-0.284
-453.982	-132.305	-0.213	0.027
-452.968	650.660	0.103	0.264
-451.953	800.000	0.093	0.262
-450.938	-200.000	0.122	0.000
-449.924	332.977	-0.165	0.318
-448.909	71.460	0.008	0.008
-447.895	269.843	-0.067	0.117
-446.880	568.205	-0.058	-0.141
-445.865	31.098	-0.348	-0.297
-444.851	26.168	-0.197	-0.164
-443.836	-126.369	-0.150	0.022
-442.822	-7.356	-0.354	0.239
-441.807	-40.107	0.185	0.096
-440.792	-45.425	0.121	0.060
-439.778	-69.981	-0.182	-0.069
-438.763	134.734	-0.083	0.108
-437.749	-103.380	0.195	-0.046
-436.734	137.591	-0.119	-0.155
-435.719	-129.082	-0.132	0.018
-434.705	-94.999	-0.145	0.039
-433.690	-200.000	0.011	-0.089
-432.676	192.000	0.229	-0.344
-431.661	28.422	-0.100	0.084
-430.646	-200.000	-0.028	0.213
-429.632	-65.745	-0.341	0.136
-428.617	-120.564	0.281	-0.047
-427.603	528.831	-0.015	-0.036
-426.588	-91.553	0.215	-0.061
-425.573	-80.906	0.100	0.033
-424.559	-164.039	0.163	-0.008
-423.544	-70.741	0.329	-0.123
-422.530	257.314	0.141	0.242
-421.515	-136.924	-0.307	-0.035
-420.500	-71.956	-0.119	-0.044
-419.486	800.000	0.039	-0.108
-418.471	28.037	-0.222	-0.186
-417.457	800.000	-0.056	0.165
-416.442	16.532	0.208	0.163
-415.428	-67.887	0.137	0.053
-414.413	800.000	-0.044	0.135
-413.398	-108.102	-0.110	0.024
-412.384	-200.000	0.063	-0.303
-411.369	30.997	0.290	0.247
-410.355	190.712	0.232	-0.347
-409.340	-200.000	0.002	-0.302
-408.325	80.078	-0.167	-0.178
-407.311	800.000	0.080	0.309
-406.296	-131.748	-0.013	-0.002
-405.282	347.199	0.109	-0.213
-404.267	-113.079	0.106	0.021
-403.252	237.913	0.127	0.209
-402.238	18.505	0.172	0.136
-401.223	-187.425	0.161	0.002
-400.209	27.674	-0.243	0.203
-399.194	62.484	0.082	0.081
-398.179	-129.035	0.279	0.039
-397.165	18.650	-0.044	0.035
-396.150	800.000	-0.064	-0.199
-395.136	41.602	-0.190	-0.171
-394.121	639.300	-0.062	-0.158
-393.106	-5.243	0.400	-0.273
-392.092	127.534	-0.298	-0.375
-391.077	800.000	-0.094	-0.282
-390.063	800.000	-0.005	-0.013
-389.048	88.900	0.176	-0.195
-388.033	22.503	-0.130	-0.106
-387.019	-35.271	0.135	0.073
-386.004	88.841	-0.135	0.149
-384.990	-87.908	-0.144	0.043
-383.975	-10.486	0.222	0.146
-382.960	-200.000	-0.030	0.215
-381.946	-200.000	0.039	0.352
-380.931	-122.204	0.169	0.028
-379.917	-126.051	-0.034	-0.005
-378.902	-200.000	0.073	-0.335
-377.888	490.407	0.152	-0.345
-376.873	-86.200	-0.052	0.016
-375.858	50.462	0.169	0.159
-374.844	164.509	-0.201	-0.281
-373.829	200.536	0.032	0.049
-372.815	111.047	-0.129	-0.155
-371.800	231.548	-0.150	-0.244
-370.785	-82.503	0.359	-0.116
-369.771	800.000	0.087	-0.261
-368.756	202.042	-0.125	-0.192
-367.742	-23.662	0.263	0.156
-366.727	-200.000	0.010	0.056
-365.712	226.367	0.050	-0.080
-364.698	-78.084	-0.321	0.110
-363.683	800.000	0.041	0.113
-362.669	-161.451	-0.074	0.004
-361.654	82.773	0.197	0.212
-360.639	-200.000	-0.028	-0.140
-359.625	-200.000	0.011	0.111
-358.610	-108.698	-0.329	0.070
-357.596	-69.162	-0.286	-0.109
-356.581	-117.989	-0.237	0.042
-355.566	482.080	0.031	-0.071
-354.552	-138.922	-0.349	-0.038
-353.537	-85.627	-0.068	-0.021
-352.523	6.521	0.184	0.136
-351.508	133.133	0.204	-0.262
-350.493	-35.939	0.250	-0.134
-349.479	114.337	-0.130	0.156
-348.464	-97.098	0.503	0.130
-347.450	60.554	0.142	0.139
-346.435	-200.000	-0.168	0.001
-345.420	-200.000	0.205	-0.000
-344.406	-5.532	-0.102	0.070
-343.391	800.000	-0.060	0.246
-342.377	17.353	-0.038	-0.030
-341.362	-74.721	0.176	0.063
-340.348	800.000	-0.048	0.138
-339.333	216.676	-0.035	0.056
-338.318	45.860	-0.190	-0.174
-337.304	-51.691	0.399	0.185
-336.289	-27.268	0.246	0.142
-335.275	34.253	0.119	-0.103
-334.260	257.602	-0.043	0.073
-333.245	-200.000	0.033	0.165
-332.231	58.560	-0.210	-0.205
-331.216	51.826	-0.192	-0.181
-330.202	257.745	0.248	0.422
-329.187	237.409	0.098	0.161
-328.172	97.683	0.072	0.083
-327.158	262.741	-0.132	0.227
-326.143	315.035	0.049	-0.091
-325.129	-200.000	0.044	-0.263
-324.114	5.410	0.060	-0.044
-323.099	77.145	0.233	0.245
-322.085	-113.227	0.172	0.033
-321.070	-200.000	0.045	0.240
-320.056	-200.000	-0.080	0.413
-319.041	-200.000	-0.030	0.276
-318.026	-139.856	-0.105	0.011
-317.012	-120.536	-0.084	-0.014
-315.997	-200.000	0.005	-0.131
-314.983	-52.581	-0.127	0.058
-313.968	800.000	0.059	-0.217
-312.953	-200.000	0.010	0.100
-311.939	-200.000	0.041	-0.207
-310.924	-80.685	0.142	-0.047
-309.910	372.170	0.002	-0.004
-308.895	-115.879	-0.132	-0.024
-307.880	-46.549	0.208	0.101
-306.866	800.000	0.028	0.114
-305.851	-159.898	-0.466	0.025
-304.837	400.480	-0.048	0.099
-303.822	-128.271	0.472	-0.067
-302.807	-133.820	-0.196	0.024
-301.793	-18.238	0.029	-0.018
-300.778	17.345	-0.135	-0.106
-299.764	-85.134	-0.140	0.043
-298.749	153.071	0.085	-0.115
-297.735	800.000	0.017	-0.054
-296.720	-96.502	0.105	-0.028
-295.705	332.500	0.109	0.209
-294.691	-94.035	0.224	-0.061
-293.676	-184.277	0.414	-0.007
-292.662	-33.779	-0.429	0.234
-291.647	800.000	-0.079	-0.277
-290.632	127.254	0.204	-0.256
-289.618	-70.054	0.167	0.063
-288.603	-200.000	-0.025	-0.166
-287.589	-200.000	0.004	0.407
-286.574	-135.248	-0.210	0.025
-285.559	5.881	-0.402	0.294
-284.545	-107.662	0.239	-0.052
-283.530	15.841	0.377	-0.294
-282.516	58.642	0.125	0.121
-281.501	-200.000	0.023	0.310
-280.486	-200.000	0.010	-0.116
-279.472	11.689	-0.113	0.086
-278.457	225.623	-0.105	-0.169
-277.443	800.000	0.039	0.108
-276.428	-31.177	0.227	-0.127
-275.413	-200.000	0.041	-0.304
-274.399	800.000	0.063	-0.265
-273.384	-200.000	0.000	0.169
-272.370	800.000	-0.143	0.530
-271.355	-145.977	0.277	-0.024
-270.340	495.568	-0.093	-0.211
-269.326	800.000	-0.067	0.251
-268.311	-178.918	0.168	0.004
-267.297	-101.515	0.462	0.111
-266.282	-9.360	-0.407	0.269
-265.267	436.212	0.046	-0.099
-264.253	246.844	0.201	0.335
-263.238	321.042	-0.083	0.156
-262.224	800.000	0.065	-0.266
-261.209	-25.939	0.289	-0.168
-260.195	800.000	-0.055	0.203
-259.180	-146.441	0.233	-0.020
-258.165	-142.179	0.194	0.019
-257.151	98.805	-0.248	0.282
-256.136	0.413	0.309	0.218
-255.122	800.000	0.057	0.241
-254.107	-200.000	0.072	0.381
-253.092	-102.583	-0.164	-0.039
-252.078	-90.522	0.333	-0.095
-251.063	-40.853	0.135	-0.069
-250.049	39.370	-0.200	0.177
-249.034	139.797	-0.057	0.074
-248.019	222.099	0.192	-0.305
-247.005	-200.000	0.095	-0.495
-245.990	15.765	-0.124	-0.096
-244.976	-200.000	-0.006	-0.155
-243.961	44.118	-0.027	0.024
-242.946	-18.300	0.390	0.240
-241.932	-101.439	0.311	-0.075
-240.917	-33.611	0.173	-0.095
-239.903	-125.008	0.349	-0.053
-238.888	344.797	0.148	0.286
-237.873	-166.417	-0.246	-0.010
-236.859	-200.000	0.322	0.001
-235.844	798.073	-0.057	0.156
-234.830	-200.000	-0.013	-0.178
-233.815	-136.157	0.043	0.005
-232.800	-47.943	-0.302	-0.144
-231.786	-42.981	-0.318	0.159
-230.771	-200.000	0.029	-0.238
-229.757	388.580	-0.123	0.252
-228.742	168.331	-0.052	0.074
-227.727	-74.992	-0.341	0.120
-226.713	41.650	-0.391	0.349
-225.698	32.522	-0.369	0.314
-224.684	-200.000	-0.007	0.089
-223.669	284.163	0.046	-0.081
-222.655	-200.000	0.033	0.297
-221.640	-200.000	0.005	-0.251
-220.625	-81.231	-0.135	-0.044
-219.611	-61.265	0.305	-0.127
-218.596	94.717	-0.135	0.152
-217.582	-3.755	0.161	-0.110
-216.567	800.000	-0.073	0.231
-215.552	356.818	0.059	-0.116
-214.538	-200.000	-0.039	-0.170
-213.523	-158.144	-0.412	0.024
-212.509	-45.029	0.296	0.145
-211.494	50.665	0.205	-0.191
-210.479	800.000	-0.017	-0.058
-209.465	-43.223	0.213	-0.107
-208.450	218.062	0.123	0.194
-207.436	-149.461	-0.447	-0.035
-206.421	-64.538	-0.317	-0.127
-205.406	-24.866	0.041	0.024
-204.392	-117.384	-0.258	-0.046
-203.377	62.154	0.270	0.266
-202.363	-200.000	-0.016	0.068
-201.348	-37.848	0.189	-0.099
-200.333	-124.261	0.120	-0.018
-199.319	-34.334	-0.219	0.118
-198.304	111.038	0.083	0.099
-197.290	-200.000	0.008	-0.158
-196.275	11.381	0.150	-0.113
-195.260	-151.353	0.197	-0.014
-194.246	-24.661	-0.229	0.134
-193.231	2.180	0.064	0.046
-192.217	-116.137	0.094	0.017
-191.202	-56.789	0.147	0.064
-190.187	-171.082	0.131	0.004
-189.173	-200.000	-0.032	-0.223
-188.158	-54.895	0.186	0.083
-187.144	-43.164	-0.086	-0.043
-186.129	344.084	0.085	0.164
-185.114	-200.000	-0.004	-0.065
-184.100	-34.460	0.189	0.102
-183.085	84.856	-0.230	0.248
-182.071	-116.314	-0.259	-0.047
-181.056	-10.504	0.133	-0.087
-180.042	39.144	0.152	-0.134
-179.027	43.820	-0.079	0.071
-178.012	-29.648	0.297	0.167
-176.998	-130.761	0.102	0.014
-175.983	-178.122	0.035	-0.001
-174.969	-82.668	0.159	-0.051
-173.954	-156.838	0.207	-0.013
-172.939	-22.631	-0.309	0.184
-171.925	-200.000	-0.007	-0.213
-170.910	-111.310	-0.039	0.008
-169.896	-138.367	-0.279	0.030
-168.881	800.000	0.121	-0.361
-167.866	82.982	0.146	0.157
-166.852	142.156	0.159	0.208
-165.837	-200.000	0.033	0.249
-164.823	800.000	0.114	-0.324
-163.808	-126.465	-0.500	0.073
-162.793	9.178	-0.111	-0.083
-161.779	-73.219	-0.104	-0.038
-160.764	-33.059	0.103	-0.056
-159.750	800.000	0.057	0.225
-158.735	1.912	0.289	-0.205
-157.720	535.318	0.116	0.271
-156.706	800.000	-0.077	0.276
-155.691	-200.000	-0.022	0.128
-154.677	66.970	0.067	-0.067
-153.662	730.563	-0.025	-0.067
-152.647	19.210	-0.211	-0.167
-151.633	-56.003	0.112	0.049
-150.618	800.000	0.063	-0.189
-149.604	800.000	-0.130	-0.388
-148.589	-108.757	0.213	-0.045
-147.574	-144.972	-0.176	-0.016
-146.560	800.000	0.059	0.244
-145.545	31.710	-0.090	0.076
-144.531	27.552	0.111	-0.092
-143.516	-132.667	0.207	0.026
-142.502	-76.844	-0.188	0.065
-141.487	22.383	-0.063	-0.051
-140.472	-168.658	-0.176	0.007
-139.458	516.501	-0.083	-0.192
-138.443	-200.000	-0.015	-0.309
-137.429	11.348	-0.122	-0.092
-136.414	24.007	0.232	-0.188
-135.399	17.663	0.114	-0.089
-134.385	630.682	0.014	0.035
-133.370	-200.000	-0.006	0.087
-132.356	-61.336	0.194	0.080
-131.341	238.252	-0.157	0.257
-130.326	-200.000	0.038	-0.276
-129.312	34.730	0.168	0.144
-128.297	432.087	-0.022	-0.048
-127.283	-86.774	0.024	0.007
-126.268	-52.826	0.264	0.120
-125.253	40.743	-0.177	0.157
-124.239	800.000	0.058	-0.169
-123.224	-55.485	0.566	0.249
-122.210	27.068	-0.019	0.016
-121.195	292.475	0.121	-0.217
