DTS Sentinel unit serial number:	SN413079Multiplexer serial number:	ORYXHardware model number:	OX4-SRSoftware version number:	ORYX F/W v4.00 Oryx Data Collector v3.7.2.0data status	okinstallation	princeton_trtdifferential loss correction	single-endedforward channel	channel 2reverse channel	N/Adate	2019/09/12time	04:21:11forward acquisition time	60.00reverse acquisition time	0.00gamma	496.2192k internal	0.2328k external	0.2328temperature offset calibration	1.0097default loss term (dB/km)	0.3790temperature slope calibration	1.0000multiplexer offset coefficient	1.0000multiplexer slope coefficient	1.0000fibre end	0.00T internal ref (°C)	31.75T ext. ref 1 (°C)	2.24T ext. ref 2 (°C)	25.33length (m)	temperature (°C)	Stokes	anti-Stokes-747.200	1.604	0.194	-0.141
-746.185	-200.000	0.001	0.270
-745.171	-57.431	-0.114	-0.050
-744.156	-90.985	-0.253	0.073
-743.142	-119.583	0.273	0.048
-742.127	-2.323	0.197	0.139
-741.112	-156.015	0.205	-0.013
-740.098	-200.000	0.027	0.165
-739.083	-200.000	-0.009	0.159
-738.069	-138.090	0.013	-0.001
-737.054	-200.000	-0.010	0.112
-736.039	-71.639	-0.375	-0.141
-735.025	35.666	0.151	0.134
-734.010	-65.140	-0.478	-0.194
-732.996	-200.000	-0.015	0.252
-731.981	0.047	0.152	0.109
-730.966	-95.314	-0.152	0.041
-729.952	800.000	-0.059	-0.219
-728.937	51.344	-0.253	-0.242
-727.923	-99.786	0.072	-0.018
-726.908	-140.523	-0.121	0.013
-725.894	-167.335	-0.298	0.012
-724.879	562.984	0.081	-0.197
-723.864	184.842	0.045	0.067
-722.850	19.103	-0.022	-0.018
-721.835	-189.074	-0.102	0.001
-720.821	-66.445	0.088	-0.035
-719.806	414.864	-0.063	0.135
-718.791	78.030	-0.247	-0.265
-717.777	-51.557	-0.326	0.153
-716.762	-200.000	-0.016	-0.173
-715.748	-153.908	0.271	0.019
-714.733	29.427	0.158	-0.136
-713.718	800.000	0.033	0.109
-712.704	312.975	-0.076	-0.143
-711.689	800.000	-0.098	-0.342
-710.675	115.202	-0.093	0.114
-709.660	98.514	-0.212	-0.246
-708.645	800.000	-0.086	-0.304
-707.631	-30.180	-0.196	0.112
-706.616	18.209	-0.315	0.253
-705.602	479.567	-0.124	0.283
-704.587	417.226	0.132	0.283
-703.572	-76.602	0.244	0.086
-702.558	73.308	-0.110	0.115
-701.543	75.691	-0.115	0.122
-700.529	-200.000	0.064	-0.343
-699.514	-17.156	0.299	-0.190
-698.499	-85.192	-0.285	0.090
-697.485	526.338	0.053	0.126
-696.470	800.000	-0.095	-0.315
-695.456	-52.489	-0.247	0.115
-694.441	29.427	0.217	0.186
-693.426	-200.000	-0.035	-0.229
-692.412	-182.024	0.156	-0.003
-691.397	620.959	0.135	-0.341
-690.383	-130.752	-0.363	-0.049
-689.368	404.457	-0.040	-0.084
-688.354	28.794	0.201	0.171
-687.339	800.000	0.081	-0.316
-686.324	-52.094	0.080	0.038
-685.310	156.358	-0.189	-0.262
-684.295	448.432	0.015	0.034
-683.281	-89.480	-0.275	-0.081
-682.266	800.000	-0.050	-0.143
-681.251	396.574	-0.201	0.422
-680.237	214.401	0.155	0.247
-679.222	43.520	0.091	0.083
-678.208	-200.000	-0.006	0.380
-677.193	800.000	-0.067	0.192
-676.178	-147.379	0.199	-0.017
-675.164	-200.000	-0.009	0.117
-674.149	308.180	0.186	-0.349
-673.135	800.000	-0.073	-0.233
-672.120	703.963	0.083	0.219
-671.105	-15.441	0.347	0.223
-670.091	-200.000	0.018	0.183
-669.076	336.100	0.105	-0.206
-668.062	-56.986	-0.293	0.130
-667.047	800.000	-0.106	0.347
-666.032	-130.164	-0.227	-0.031
-665.018	147.511	-0.074	0.101
-664.003	84.351	-0.021	-0.023
-662.989	-8.368	0.266	0.180
-661.974	-4.070	-0.152	0.106
-660.959	-99.736	0.177	-0.045
-659.945	15.962	-0.048	-0.038
-658.930	-14.269	0.157	-0.101
-657.916	-200.000	0.003	0.285
-656.901	-200.000	-0.025	-0.115
-655.886	372.028	-0.075	-0.152
-654.872	-2.149	0.180	-0.127
-653.857	-76.108	-0.271	0.096
-652.843	-200.000	0.011	-0.153
-651.828	-200.000	0.037	-0.291
-650.814	-113.348	-0.179	0.035
-649.799	-24.266	-0.228	0.137
-648.784	-82.288	0.195	0.064
-647.770	-200.000	-0.042	0.373
-646.755	243.167	0.035	0.058
-645.741	-144.909	0.196	0.018
-644.726	244.802	0.097	0.164
-643.711	14.129	0.415	0.324
-642.697	31.562	0.316	-0.273
-641.682	63.942	0.385	-0.389
-640.668	-50.370	-0.132	0.063
-639.653	-135.721	-0.231	0.027
-638.638	276.526	-0.022	0.040
-637.624	-108.146	-0.034	0.007
-636.609	-77.470	0.256	0.089
-635.595	-106.300	-0.272	-0.061
-634.580	29.692	-0.130	0.111
-633.565	5.858	-0.294	0.218
-632.551	-196.434	0.203	0.001
-631.536	200.151	0.264	0.407
-630.522	-135.582	0.110	-0.013
-629.507	299.248	0.119	-0.220
-628.492	-34.648	0.285	-0.157
-627.478	172.991	-0.090	-0.131
-626.463	96.671	-0.382	-0.439
-625.449	-117.505	-0.304	-0.055
-624.434	800.000	0.028	-0.120
-623.419	-89.552	-0.176	-0.052
-622.405	49.206	0.248	0.234
-621.390	-45.314	-0.312	0.156
-620.376	-150.833	0.165	0.013
-619.361	-100.025	-0.285	-0.071
-618.346	99.572	0.204	0.237
-617.332	800.000	-0.039	0.117
-616.317	800.000	0.094	0.336
-615.303	800.000	0.111	0.337
-614.288	65.676	0.167	0.169
-613.273	-200.000	0.000	0.005
-612.259	350.274	0.111	-0.221
-611.244	-200.000	-0.012	0.228
-610.230	82.606	0.187	-0.204
-609.215	800.000	-0.057	-0.202
-608.201	10.395	0.113	0.086
-607.186	-23.742	-0.199	-0.120
-606.171	-23.301	-0.245	-0.148
-605.157	-200.000	-0.010	0.231
-604.142	239.209	0.081	-0.136
-603.128	4.605	-0.239	0.176
-602.113	210.863	-0.053	0.084
-601.098	-146.819	-0.290	0.025
-600.084	-200.000	0.004	0.070
-599.069	-200.000	0.021	-0.222
-598.055	-85.594	0.326	-0.102
-597.040	445.080	0.112	-0.246
-596.025	310.076	-0.079	-0.148
-595.011	-200.000	0.087	0.421
-593.996	-96.470	0.291	-0.077
-592.982	-169.294	0.173	-0.006
-591.967	1.423	-0.095	-0.068
-590.952	427.720	0.098	0.212
-589.938	-104.067	-0.139	-0.032
-588.923	800.000	-0.044	-0.170
-587.909	800.000	0.039	-0.133
-586.894	232.607	0.211	0.348
-585.879	221.422	0.212	0.341
-584.865	-200.000	-0.076	-0.401
-583.850	243.876	0.085	-0.143
-582.836	-100.179	0.168	-0.042
-581.821	61.262	-0.096	0.095
-580.806	-49.380	-0.191	0.091
-579.792	125.551	-0.232	-0.293
-578.777	-136.772	-0.400	0.046
-577.763	-200.000	0.049	0.251
-576.748	-200.000	-0.032	0.166
-575.733	-3.222	-0.132	-0.092
-574.719	582.740	-0.149	-0.366
-573.704	-85.278	0.289	0.090
-572.690	-200.000	0.034	-0.207
-571.675	-100.484	-0.384	0.095
-570.661	24.750	-0.117	0.097
-569.646	425.079	0.117	-0.251
-568.631	-141.393	0.140	0.014
-567.617	800.000	-0.140	0.459
-566.602	-74.888	-0.253	0.091
-565.588	-55.975	-0.424	0.189
-564.573	96.355	-0.055	-0.063
-563.558	449.490	0.046	-0.101
-562.544	-133.375	-0.195	-0.025
-561.529	-153.715	-0.033	0.002
-560.515	-141.866	0.301	-0.030
-559.500	-88.353	-0.225	0.067
-558.485	-87.450	-0.228	-0.069
-557.471	-179.779	0.333	0.007
-556.456	-200.000	-0.021	-0.257
-555.442	-200.000	0.018	-0.132
-554.427	-200.000	-0.041	-0.231
-553.412	-63.960	-0.262	-0.107
-552.398	-21.753	0.380	0.231
-551.383	90.163	0.129	0.144
-550.369	-94.850	0.229	-0.062
-549.354	-200.000	0.006	0.099
-548.339	-200.000	0.035	0.165
-547.325	800.000	-0.027	-0.088
-546.310	-53.421	-0.057	0.026
-545.296	268.546	-0.189	-0.331
-544.281	96.017	-0.233	-0.266
-543.266	-39.137	-0.313	0.164
-542.252	-200.000	0.014	0.313
-541.237	-101.364	0.177	0.043
-540.223	569.293	0.028	0.067
-539.208	17.266	0.080	0.063
-538.193	800.000	-0.034	0.102
-537.179	348.026	-0.094	0.186
-536.164	-62.194	-0.358	0.149
-535.150	800.000	-0.034	0.108
-534.135	-200.000	0.006	0.306
-533.121	38.336	-0.106	0.094
-532.106	88.238	-0.274	0.304
-531.091	77.690	0.220	0.234
-530.077	-146.644	0.392	-0.034
-529.062	178.338	0.071	-0.104
-528.048	477.542	0.120	0.270
-527.033	144.824	0.133	-0.178
-526.018	-200.000	0.000	0.166
-525.004	800.000	0.141	0.406
-523.989	800.000	0.121	-0.431
-522.975	129.672	-0.298	-0.380
-521.960	154.457	-0.128	-0.176
-520.945	111.690	-0.229	0.276
-519.931	195.070	0.145	0.220
-518.916	84.171	0.047	0.051
-517.902	227.042	-0.061	-0.099
-516.887	-33.525	0.189	0.104
-515.872	-130.535	0.251	0.034
-514.858	-21.639	-0.253	0.154
-513.843	0.166	0.083	-0.059
-512.829	61.000	0.242	0.240
-511.814	-120.183	0.056	0.010
-510.799	332.625	-0.185	-0.356
-509.785	-18.230	-0.226	0.141
-508.770	489.067	-0.059	0.135
-507.756	-29.077	0.246	-0.141
-506.741	-141.681	-0.163	0.016
-505.726	800.000	-0.071	-0.247
-504.712	-200.000	0.017	-0.167
-503.697	226.363	-0.205	-0.331
-502.683	-84.664	-0.138	0.043
-501.668	-23.332	-0.119	-0.071
-500.653	132.246	-0.183	-0.235
-499.639	-200.000	0.014	0.276
-498.624	-40.407	-0.182	-0.094
-497.610	149.237	0.099	-0.133
-496.595	800.000	0.080	-0.235
-495.581	71.610	-0.233	0.242
-494.566	97.494	0.120	0.138
-493.551	-16.847	0.192	0.121
-492.537	82.345	-0.140	0.151
-491.522	404.787	-0.178	-0.375
-490.508	-33.667	0.151	0.083
-489.493	306.326	0.051	0.094
-488.478	-133.805	-0.188	0.023
-487.464	623.609	0.081	-0.203
-486.449	123.832	-0.191	-0.239
-485.435	554.441	0.181	-0.436
-484.420	387.007	-0.064	0.131
-483.405	-200.000	-0.018	-0.245
-482.391	39.473	-0.085	-0.076
-481.376	-200.000	0.090	0.410
-480.362	-46.335	0.108	-0.053
-479.347	-109.732	-0.067	0.014
-478.332	-103.946	-0.026	0.006
-477.318	102.884	0.065	-0.076
-476.303	-79.558	-0.457	-0.154
-475.289	94.583	-0.040	0.045
-474.274	17.968	0.038	-0.030
-473.259	4.355	-0.035	0.026
-472.245	800.000	-0.059	0.171
-471.230	-200.000	0.044	-0.203
-470.216	-200.000	0.024	0.186
-469.201	117.083	0.158	0.194
-468.186	-84.332	-0.193	-0.061
-467.172	-109.258	0.154	0.033
-466.157	-84.634	-0.066	-0.021
-465.143	-3.267	-0.139	-0.097
-464.128	31.171	-0.177	-0.152
-463.113	155.644	0.129	0.177
-462.099	-200.000	-0.039	-0.445
-461.084	-78.217	0.264	-0.090
-460.070	117.493	-0.229	-0.280
-459.055	-51.587	-0.302	-0.141
-458.040	-200.000	0.016	-0.252
-457.026	485.161	0.016	-0.036
-456.011	800.000	0.064	0.270
-454.997	-88.337	-0.271	-0.081
-453.982	9.022	0.461	0.347
-452.968	335.828	0.177	0.342
-451.953	129.228	0.187	-0.238
-450.938	387.060	-0.123	-0.253
-449.924	800.000	0.038	-0.124
-448.909	-38.154	0.235	-0.124
-447.895	138.024	-0.094	0.122
-446.880	800.000	0.082	-0.232
-445.865	279.540	-0.155	0.275
-444.851	54.100	-0.206	-0.198
-443.836	582.855	0.055	-0.135
-442.822	301.993	-0.086	-0.158
-441.807	-157.218	-0.170	0.010
-440.792	261.884	-0.046	-0.080
-439.778	-200.000	-0.025	0.221
-438.763	28.083	0.044	0.037
-437.749	-35.910	-0.081	0.043
-436.734	681.495	-0.123	0.319
-435.719	-142.635	0.067	-0.006
-434.705	260.575	0.027	0.047
-433.690	-106.462	0.298	-0.066
-432.676	115.686	0.147	-0.179
-431.661	800.000	-0.146	-0.477
-430.646	-170.074	0.315	0.011
-429.632	570.977	-0.024	-0.058
-428.617	-39.729	0.145	0.075
-427.603	-94.992	0.091	-0.025
-426.588	39.990	-0.236	0.211
-425.573	24.953	-0.131	0.108
-424.559	167.770	0.047	-0.067
-423.544	-200.000	0.040	0.221
-422.530	94.250	0.205	0.231
-421.515	114.886	0.111	-0.135
-420.500	107.107	0.090	0.106
-419.486	445.246	-0.100	-0.218
-418.471	207.854	0.061	-0.094
-417.457	-33.225	0.343	0.189
-416.442	167.071	0.095	0.134
-415.428	-42.733	-0.186	0.094
-414.413	77.053	-0.161	-0.171
-413.398	299.426	-0.158	-0.290
-412.384	106.846	0.040	0.048
-411.369	-59.130	0.367	0.157
-410.355	209.707	-0.175	0.273
-409.340	-116.339	0.275	-0.051
-408.325	800.000	-0.098	-0.301
-407.311	-200.000	0.006	0.060
-406.296	-35.579	0.181	0.098
-405.282	-29.917	-0.238	-0.135
-404.267	-200.000	0.072	0.320
-403.252	-200.000	-0.007	-0.056
-402.238	800.000	0.020	-0.073
-401.223	105.761	0.184	0.217
-400.209	800.000	-0.014	0.044
-399.194	126.626	-0.122	-0.153
-398.179	562.557	-0.045	0.109
-397.165	64.065	0.112	-0.112
-396.150	-85.242	0.063	0.020
-395.136	-70.815	-0.326	0.122
-394.121	-200.000	-0.003	0.247
-393.106	-200.000	-0.329	-0.001
-392.092	-200.000	-0.004	0.126
-391.077	800.000	-0.059	0.207
-390.063	-144.199	-0.187	0.017
-389.048	-0.334	0.069	0.049
-388.033	-105.879	-0.216	0.048
-387.019	-74.313	0.117	-0.042
-386.004	-123.276	-0.220	-0.035
-384.990	604.025	0.111	0.276
-383.975	31.292	0.150	0.128
-382.960	83.165	-0.078	0.084
-381.946	-200.000	0.030	0.392
-380.931	-200.000	-0.010	0.149
-379.917	277.913	0.128	0.227
-378.902	-200.000	-0.035	-0.202
-377.888	725.491	0.057	-0.150
-376.873	194.614	0.181	0.273
-375.858	-200.000	0.048	0.214
-374.844	-83.326	-0.294	-0.094
-373.829	173.438	-0.219	0.314
-372.815	-77.554	0.259	0.089
-371.800	800.000	-0.059	-0.209
-370.785	800.000	0.026	0.073
-369.771	-9.357	0.073	-0.049
-368.756	281.285	-0.070	-0.125
-367.742	-200.000	0.025	-0.207
-366.727	-90.444	0.139	-0.040
-365.712	-14.649	-0.049	0.031
-364.698	-135.291	-0.095	0.011
-363.683	-94.851	-0.284	0.076
-362.669	86.158	-0.166	-0.181
-361.654	-200.000	0.010	-0.152
-360.639	177.434	0.201	0.290
-359.625	743.112	0.122	0.325
-358.610	800.000	-0.080	-0.257
-357.596	42.494	-0.155	0.140
-356.581	-42.049	0.147	0.075
-355.566	11.989	-0.120	-0.091
-354.552	-72.712	0.261	0.096
-353.537	86.525	0.295	-0.323
-352.523	-114.057	-0.088	-0.017
-351.508	-40.158	0.132	0.068
-350.493	-89.807	-0.255	-0.074
-349.479	95.797	-0.200	0.226
-348.464	151.368	-0.173	0.234
-347.450	-6.261	0.337	0.229
-346.435	-173.946	0.306	0.009
-345.420	177.910	0.226	-0.327
-344.406	241.138	0.077	-0.128
-343.391	-65.541	0.190	0.076
-342.377	-200.000	-0.076	-0.341
-341.362	800.000	0.100	-0.307
-340.348	34.870	0.372	-0.323
-339.333	40.976	0.026	-0.023
-338.318	84.155	-0.205	0.222
-337.304	-107.021	0.259	0.057
-336.289	-70.458	0.340	-0.128
-335.275	569.253	0.178	0.428
-334.260	130.022	0.083	-0.105
-333.245	284.522	0.171	-0.306
-332.231	-73.999	0.280	0.101
-331.216	44.562	-0.206	-0.188
-330.202	800.000	0.106	-0.304
-329.187	-46.661	-0.294	-0.143
-328.172	-72.232	-0.067	-0.025
-327.158	-50.333	-0.090	-0.042
-326.143	-125.875	-0.216	0.032
-325.129	-121.016	-0.441	-0.073
-324.114	23.449	0.196	0.160
-323.099	-200.000	-0.059	-0.463
-322.085	-5.947	-0.048	-0.032
-321.070	-79.787	-0.256	-0.086
-320.056	513.109	-0.027	-0.062
-319.041	-200.000	0.082	-0.485
-318.026	-153.452	0.263	-0.018
-317.012	30.734	0.241	-0.205
-315.997	-89.077	0.189	-0.055
-314.983	58.704	0.151	0.147
-313.968	-114.223	0.407	0.078
-312.953	77.994	-0.141	0.149
-311.939	-200.000	-0.067	0.322
-310.924	28.708	-0.160	-0.134
-309.910	-2.589	-0.156	-0.108
-308.895	169.947	-0.091	-0.129
-307.880	800.000	-0.056	0.218
-306.866	51.976	0.276	-0.261
-305.851	-190.904	0.138	-0.001
-304.837	-30.064	-0.251	0.141
-303.822	-81.233	0.148	0.048
-302.807	101.885	-0.329	-0.380
-301.793	800.000	0.090	0.252
-300.778	24.523	-0.044	-0.036
-299.764	29.988	0.014	0.011
-298.749	-200.000	0.067	0.393
-297.735	148.666	0.165	0.221
-296.720	14.104	-0.162	0.125
-295.705	-200.000	0.000	-0.230
-294.691	-200.000	0.020	-0.100
-293.676	282.321	-0.033	0.058
-292.662	-99.548	-0.070	-0.018
-291.647	-200.000	0.031	-0.324
-290.632	-200.000	0.074	0.379
-289.618	88.040	0.058	-0.063
-288.603	-68.546	-0.346	-0.133
-287.589	-200.000	-0.112	0.492
-286.574	-36.205	0.245	-0.131
-285.559	264.429	0.040	-0.070
-284.545	425.688	-0.075	0.160
-283.530	-15.995	-0.256	0.161
-282.516	218.051	-0.073	-0.115
-281.501	-200.000	0.008	0.057
-280.486	-200.000	-0.020	-0.132
-279.472	-200.000	-0.027	0.134
-278.457	800.000	0.017	-0.072
-277.443	-102.633	0.083	-0.020
-276.428	-124.458	0.285	-0.044
-275.413	174.693	-0.211	-0.303
-274.399	11.366	-0.172	0.131
-273.384	-41.365	-0.078	0.040
-272.370	-97.712	0.209	0.053
-271.355	-26.911	-0.126	0.073
-270.340	-200.000	-0.022	0.218
-269.326	18.864	-0.045	-0.036
-268.311	63.165	0.271	-0.269
-267.297	-14.641	0.358	0.227
-266.282	-47.056	0.306	-0.148
-265.267	607.478	-0.084	-0.206
-264.253	1.987	-0.070	0.050
-263.238	41.656	0.224	-0.201
-262.224	-95.645	0.081	-0.021
-261.209	191.155	-0.222	0.330
-260.195	83.924	-0.071	0.076
-259.180	-150.564	-0.247	-0.019
-258.165	9.924	0.061	0.046
-257.151	-95.203	-0.209	0.056
-256.136	183.943	0.113	-0.165
-255.122	250.142	0.227	0.381
-254.107	-200.000	0.014	-0.190
-253.092	-46.189	-0.167	-0.081
-252.078	-155.306	0.268	-0.017
-251.063	78.596	0.298	-0.315
-250.049	-77.669	-0.331	0.113
-249.034	-136.970	0.143	-0.016
-248.019	800.000	0.041	-0.124
-247.005	124.831	-0.058	0.072
-245.990	107.146	0.119	0.140
-244.976	-82.684	0.162	0.052
-243.961	-41.499	0.097	-0.049
-242.946	-200.000	0.038	-0.241
-241.932	-92.622	-0.115	0.032
-240.917	-65.011	0.158	-0.063
-239.903	85.221	0.116	0.126
-238.888	124.698	0.128	-0.159
-237.873	210.934	-0.157	0.244
-236.859	-200.000	0.017	-0.184
-235.844	231.357	0.113	-0.183
-234.830	-200.000	-0.076	0.425
-233.815	144.020	-0.209	0.275
-232.800	112.834	-0.107	-0.128
-231.786	-18.350	0.292	0.180
-230.771	340.978	0.066	-0.127
-229.757	-200.000	-0.020	-0.137
-228.742	-164.980	-0.207	0.009
-227.727	-87.363	0.127	0.038
-226.713	473.763	-0.044	-0.099
-225.698	-53.314	-0.400	-0.181
-224.684	191.247	-0.177	-0.262
-223.669	502.118	0.088	-0.200
-222.655	583.607	-0.108	0.262
-221.640	651.519	0.026	-0.065
-220.625	-86.220	-0.151	0.046
-219.611	35.018	0.075	-0.064
-218.596	800.000	0.088	-0.262
-217.582	55.795	0.291	-0.278
-216.567	-13.313	-0.101	0.065
-215.552	616.703	0.070	-0.172
-214.538	800.000	-0.080	-0.298
-213.523	-128.094	0.341	0.048
-212.509	327.382	-0.055	0.104
-211.494	800.000	0.066	-0.216
-210.479	-83.672	-0.316	-0.099
-209.465	28.098	0.216	-0.180
-208.450	104.971	-0.070	-0.081
-207.436	72.333	-0.167	0.172
-206.421	-61.236	0.259	-0.108
-205.406	-103.544	0.205	-0.048
-204.392	-111.347	0.695	0.140
-203.377	-200.000	-0.211	0.000
-202.363	8.236	0.270	0.200
-201.348	83.923	0.158	0.170
-200.333	43.608	-0.116	0.105
-199.319	451.561	0.037	0.081
-198.304	5.603	0.142	-0.104
-197.290	28.916	-0.261	-0.218
-196.275	232.204	0.095	-0.153
-195.260	101.794	0.204	-0.235
-194.246	-200.000	-0.039	0.262
-193.231	-42.291	0.120	-0.061
-192.217	-132.182	0.050	0.006
-191.202	-103.713	-0.098	-0.023
-190.187	-114.832	0.113	-0.021
-189.173	-200.000	-0.014	-0.108
-188.158	-14.945	0.178	0.112
-187.144	-200.000	-0.021	0.258
-186.129	-5.026	0.213	0.145
-185.114	800.000	0.048	0.197
-184.100	194.499	-0.109	-0.163
-183.085	601.058	-0.059	0.144
-182.071	218.740	-0.149	-0.234
-181.056	-200.000	0.016	0.227
-180.042	-132.101	-0.101	0.013
-179.027	-200.000	-0.045	-0.357
-178.012	800.000	-0.066	0.231
-176.998	191.512	0.183	-0.272
-175.983	-170.552	-0.393	-0.013
-174.969	328.010	-0.098	0.185
-173.954	-200.000	-0.027	-0.179
-172.939	-146.267	-0.107	0.009
-171.925	34.260	0.109	-0.094
-170.910	-33.660	-0.046	-0.025
-169.896	-142.767	-0.643	-0.062
-168.881	-152.749	-0.138	0.010
-167.866	-200.000	-0.020	-0.346
-166.852	-153.317	-0.108	0.007
-165.837	755.434	0.013	0.035
-164.823	-9.526	0.179	-0.117
-163.808	-45.842	-0.220	0.107
-162.793	-200.000	-0.014	-0.126
-161.779	800.000	-0.020	0.071
-160.764	207.435	-0.066	-0.101
-159.750	121.109	-0.140	0.171
-158.735	150.531	0.172	0.231
-157.720	330.560	0.023	0.043
-156.706	44.775	0.188	0.171
-155.691	-77.352	-0.273	0.093
-154.677	264.337	-0.184	0.315
-153.662	-17.609	-0.396	-0.245
-152.647	68.086	-0.147	-0.148
-151.633	269.202	-0.106	0.184
-150.618	800.000	-0.052	-0.181
-149.604	300.361	0.032	0.058
-148.589	-200.000	0.007	-0.059
-147.574	-69.884	-0.260	-0.098
-146.560	265.040	0.230	0.394
-145.545	-76.186	0.136	-0.047
-144.531	-33.395	0.195	0.106
-143.516	-200.000	-0.033	0.374
-142.502	267.349	0.084	0.145
-141.487	4.953	0.130	0.095
-140.472	-200.000	-0.015	-0.252
-139.458	212.590	-0.271	-0.421
-138.443	75.573	-0.211	0.219
-137.429	-200.000	-0.023	-0.203
-136.414	-200.000	0.001	-0.233
-135.399	-200.000	-0.047	-0.439
-134.385	-200.000	0.030	0.209
-133.370	224.259	-0.069	0.110
-132.356	-198.818	0.410	0.002
-131.341	79.127	0.010	0.011
-130.326	-168.717	0.407	0.015
-129.312	-67.194	-0.150	0.058
-128.297	-200.000	0.028	0.123
-127.283	-200.000	0.034	0.556
-126.268	164.319	0.125	0.173
-125.253	88.422	-0.323	0.353
-124.239	421.142	0.104	0.218
-123.224	745.928	0.078	0.208
-122.210	-50.873	0.335	-0.155
-121.195	-200.000	0.005	-0.222
-120.180	175.820	0.366	0.522
