DTS Sentinel unit serial number:	SN413079Multiplexer serial number:	ORYXHardware model number:	OX4-SRSoftware version number:	ORYX F/W v4.00 Oryx Data Collector v3.7.2.0data status	okinstallation	princeton_trtdifferential loss correction	single-endedforward channel	channel 2reverse channel	N/Adate	2019/09/16time	22:59:35forward acquisition time	60.00reverse acquisition time	0.00gamma	496.2192k internal	0.2330k external	0.2330temperature offset calibration	0.9972default loss term (dB/km)	0.3790temperature slope calibration	1.0000multiplexer offset coefficient	1.0000multiplexer slope coefficient	1.0000fibre end	0.00T internal ref (°C)	30.36T ext. ref 1 (°C)	0.09T ext. ref 2 (°C)	23.97length (m)	temperature (°C)	Stokes	anti-Stokes-747.200	800.000	-0.103	0.431
-746.185	161.573	-0.177	0.249
-745.171	67.356	0.085	-0.087
-744.156	222.536	-0.155	0.251
-743.142	-125.736	0.206	-0.031
-742.127	-154.237	0.486	0.033
-741.112	-98.197	-0.160	0.041
-740.098	800.000	-0.041	0.128
-739.083	800.000	0.087	-0.246
-738.069	-83.393	-0.087	-0.028
-737.054	-182.253	0.267	0.005
-736.039	-200.000	-0.025	-0.373
-735.025	706.840	-0.086	-0.229
-734.010	427.531	-0.091	-0.197
-732.996	61.502	-0.548	-0.548
-731.981	785.503	-0.124	0.341
-730.966	-54.283	-0.222	-0.102
-729.952	-32.049	-0.060	-0.034
-728.937	-10.500	-0.305	0.203
-727.923	-163.789	-0.352	-0.017
-726.908	800.000	-0.103	-0.350
-725.894	105.605	-0.271	-0.322
-724.879	57.421	-0.167	-0.164
-723.864	-100.778	-0.146	-0.036
-722.850	-86.346	0.131	0.040
-721.835	-24.814	-0.238	0.142
-720.821	203.329	0.111	-0.173
-719.806	262.221	-0.190	-0.332
-718.791	300.724	-0.164	-0.304
-717.777	-94.373	0.272	-0.075
-716.762	-200.000	0.013	-0.260
-715.748	-136.597	-0.345	0.040
-714.733	143.577	0.174	-0.233
-713.718	387.946	-0.071	-0.148
-712.704	-18.685	0.246	0.154
-711.689	287.714	-0.224	-0.408
-710.675	352.538	-0.122	-0.242
-709.660	51.688	-0.159	-0.152
-708.645	-130.735	0.350	-0.047
-707.631	124.194	0.145	0.183
-706.616	-200.000	0.006	0.284
-705.602	-167.259	-0.161	0.007
-704.587	18.990	0.169	-0.136
-703.572	-110.565	0.342	-0.071
-702.558	-80.817	-0.289	0.096
-701.543	-64.342	-0.206	-0.084
-700.529	-97.031	0.302	0.080
-699.514	-45.061	-0.163	-0.081
-698.499	252.054	-0.032	-0.055
-697.485	-19.390	-0.340	-0.212
-696.470	-122.866	0.063	0.010
-695.456	-200.000	-0.006	0.037
-694.441	-118.301	-0.399	-0.071
-693.426	800.000	-0.052	-0.188
-692.412	-134.996	-0.242	-0.029
-691.397	-200.000	0.016	-0.437
-690.383	-200.000	-0.001	0.028
-689.368	-98.591	-0.268	-0.069
-688.354	-133.323	0.206	-0.026
-687.339	800.000	-0.139	0.464
-686.324	-200.000	0.011	-0.324
-685.310	309.245	-0.033	-0.062
-684.295	-163.593	-0.147	-0.007
-683.281	26.418	0.194	0.163
-682.266	110.296	-0.173	0.209
-681.251	641.167	0.046	-0.118
-680.237	-82.128	0.182	-0.060
-679.222	158.520	0.059	-0.082
-678.208	-96.735	-0.177	-0.047
-677.193	-65.491	0.296	0.119
-676.178	-67.388	-0.256	-0.101
-675.164	-9.462	0.197	-0.132
-674.149	-200.000	-0.003	-0.108
-673.135	90.588	-0.054	0.061
-672.120	208.484	-0.072	-0.113
-671.105	-53.471	0.447	-0.206
-670.091	-85.279	-0.223	0.070
-669.076	169.122	0.194	-0.278
-668.062	-17.334	-0.217	-0.137
-667.047	800.000	0.048	-0.148
-666.032	-200.000	-0.045	-0.290
-665.018	62.180	0.157	-0.157
-664.003	675.552	-0.063	0.163
-662.989	-177.602	-0.170	-0.004
-661.974	393.823	-0.131	-0.275
-660.959	215.136	-0.090	-0.143
-659.945	508.755	-0.078	0.182
-658.930	699.548	0.017	0.044
-657.916	-200.000	0.047	-0.297
-656.901	800.000	0.042	0.139
-655.886	-61.724	-0.097	-0.041
-654.872	158.977	0.130	0.182
-653.857	-67.622	0.252	0.099
-652.843	55.683	-0.260	-0.253
-651.828	-200.000	0.013	-0.116
-650.814	-96.905	0.203	0.054
-649.799	503.136	0.090	-0.208
-648.784	-4.992	-0.114	-0.078
-647.770	-128.876	-0.143	-0.020
-646.755	-200.000	-0.016	-0.341
-645.741	-200.000	-0.007	-0.261
-644.726	34.684	0.035	0.031
-643.711	579.710	-0.127	0.311
-642.697	-200.000	-0.034	0.283
-641.682	-47.571	-0.207	0.101
-640.668	273.922	0.067	-0.118
-639.653	-38.603	0.098	0.052
-638.638	-119.350	0.468	-0.082
-637.624	336.668	0.146	-0.284
-636.609	149.045	-0.129	-0.175
-635.595	800.000	0.011	0.036
-634.580	128.616	0.154	0.197
-633.565	-128.444	-0.187	0.027
-632.551	296.133	-0.202	0.371
-631.536	-108.436	-0.155	-0.033
-630.522	-184.103	0.258	-0.004
-629.507	800.000	0.069	-0.298
-628.492	-35.307	-0.087	-0.048
-627.478	-200.000	-0.033	-0.152
-626.463	-200.000	-0.043	-0.259
-625.449	-6.390	-0.178	0.122
-624.434	251.915	-0.063	-0.108
-623.419	456.595	-0.014	0.030
-622.405	-38.078	0.020	0.011
-621.390	181.131	-0.246	0.362
-620.376	-200.000	-0.037	-0.212
-619.361	-72.841	0.268	-0.099
-618.346	13.131	-0.297	-0.230
-617.332	787.894	0.079	-0.216
-616.317	-4.649	-0.266	-0.184
-615.303	55.579	0.148	0.144
-614.288	-122.916	-0.462	-0.075
-613.273	86.464	0.186	0.206
-612.259	112.584	0.177	0.214
-611.244	347.377	0.038	0.076
-610.230	800.000	0.036	0.157
-609.215	297.633	0.189	-0.347
-608.201	201.339	0.212	-0.326
-607.186	118.239	-0.249	-0.308
-606.171	-20.072	0.334	-0.206
-605.157	800.000	-0.126	-0.351
-604.142	-200.000	0.052	0.248
-603.128	84.113	-0.205	0.224
-602.113	-78.921	0.230	0.078
-601.098	27.910	-0.466	0.394
-600.084	165.624	-0.113	-0.160
-599.069	800.000	0.082	0.301
-598.055	230.802	-0.138	-0.226
-597.040	800.000	-0.067	0.222
-596.025	-1.848	-0.151	0.107
-595.011	766.533	0.068	-0.186
-593.996	45.099	0.148	-0.137
-592.982	-70.190	0.364	0.138
-591.967	227.465	-0.079	-0.129
-590.952	-77.193	-0.255	0.089
-589.938	-77.124	0.170	-0.059
-588.923	800.000	-0.125	-0.494
-587.909	-144.392	-0.075	-0.007
-586.894	-94.124	-0.170	0.047
-585.879	223.091	-0.033	-0.053
-584.865	-75.400	-0.291	-0.104
-583.850	-200.000	0.044	-0.216
-582.836	287.057	-0.073	-0.133
-581.821	184.191	0.016	0.024
-580.806	14.755	-0.236	0.184
-579.792	800.000	-0.081	-0.257
-578.777	234.329	-0.237	-0.390
-577.763	-200.000	-0.041	-0.237
-576.748	-200.000	0.022	-0.215
-575.733	-4.336	-0.134	-0.093
-574.719	-42.005	-0.144	-0.074
-573.704	800.000	0.030	0.128
-572.690	-75.231	-0.404	-0.144
-571.675	-17.335	0.060	0.038
-570.661	182.646	0.075	-0.111
-569.646	-200.000	-0.001	0.099
-568.631	-200.000	0.031	0.144
-567.617	-105.792	-0.123	-0.028
-566.602	119.351	-0.217	0.268
-565.588	132.401	-0.077	-0.099
-564.573	-200.000	0.021	0.095
-563.558	-34.159	0.045	-0.024
-562.544	107.903	-0.068	-0.081
-561.529	-114.737	-0.205	0.039
-560.515	23.581	0.193	-0.159
-559.500	-179.062	-0.178	0.004
-558.485	-83.793	0.251	0.080
-557.471	-143.096	0.272	0.026
-556.456	-200.000	0.010	0.234
-555.442	-111.649	-0.194	-0.039
-554.427	415.015	0.019	-0.040
-553.412	56.954	-0.170	0.166
-552.398	-132.007	0.500	-0.065
-551.383	652.149	0.117	0.300
-550.369	-200.000	-0.046	0.229
-549.354	-118.995	0.395	-0.069
-548.339	86.491	-0.142	-0.156
-547.325	591.255	-0.091	0.224
-546.310	17.616	-0.135	-0.108
-545.296	-30.410	0.124	0.070
-544.281	76.906	0.142	0.151
-543.266	-41.599	0.113	-0.058
-542.252	-172.775	0.267	-0.008
-541.237	217.175	-0.126	-0.200
-540.223	216.478	0.083	0.132
-539.208	-200.000	-0.012	-0.305
-538.193	-31.566	-0.340	0.191
-537.179	323.853	0.088	-0.168
-536.164	339.026	-0.190	0.370
-535.150	-200.000	-0.013	0.146
-534.135	-20.178	0.310	0.191
-533.121	-113.325	-0.255	-0.050
-532.106	196.087	0.072	0.110
-531.091	-13.683	0.238	0.154
-530.077	-47.257	-0.093	0.045
-529.062	800.000	-0.017	0.065
-528.048	-200.000	0.029	0.295
-527.033	-25.063	-0.100	-0.059
-526.018	-200.000	-0.069	-0.322
-525.004	116.863	0.108	-0.133
-523.989	34.146	-0.105	0.091
-522.975	-167.867	-0.128	0.005
-521.960	50.653	-0.173	-0.164
-520.945	-200.000	-0.067	-0.316
-519.931	-200.000	0.001	0.179
-518.916	184.176	0.174	-0.258
-517.902	-50.723	-0.192	0.090
-516.887	-71.064	-0.218	-0.082
-515.872	23.668	-0.200	0.164
-514.858	234.393	0.086	-0.142
-513.843	800.000	-0.011	0.033
-512.829	-23.067	0.096	0.058
-511.814	344.835	-0.061	-0.120
-510.799	105.274	0.189	0.222
-509.785	648.848	0.135	-0.343
-508.770	308.277	-0.245	-0.456
-507.756	800.000	0.060	0.195
-506.741	-200.000	-0.055	0.387
-505.726	217.388	-0.233	0.370
-504.712	-105.766	0.017	-0.004
-503.697	-22.237	-0.252	-0.152
-502.683	800.000	0.105	0.320
-501.668	162.789	-0.079	0.111
-500.653	-142.932	0.242	-0.023
-499.639	-114.026	0.144	-0.028
-498.624	-52.751	-0.146	0.067
-497.610	66.852	-0.130	-0.132
-496.595	-200.000	0.018	-0.200
-495.581	800.000	0.098	-0.282
-494.566	-124.189	0.271	0.042
-493.551	-100.553	-0.014	0.004
-492.537	1.650	-0.153	-0.110
-491.522	-21.718	0.078	0.048
-490.508	800.000	0.050	0.153
-489.493	-186.560	-0.343	0.005
-488.478	-26.757	-0.471	-0.274
-487.464	-166.808	0.259	0.011
-486.449	-200.000	-0.022	0.214
-485.435	-196.597	0.329	0.002
-484.420	-13.936	0.198	0.128
-483.405	50.981	-0.055	-0.052
-482.391	-47.698	0.105	-0.051
-481.376	672.719	-0.084	-0.218
-480.362	61.863	-0.415	-0.412
-479.347	-63.388	0.018	-0.007
-478.332	165.564	-0.183	-0.258
-477.318	-83.094	0.197	0.063
-476.303	-87.838	-0.022	-0.007
-475.289	-152.516	-0.415	0.030
-474.274	-200.000	-0.005	0.028
-473.259	-189.074	0.333	0.004
-472.245	800.000	-0.059	0.227
-471.230	-69.066	-0.160	-0.061
-470.216	62.902	-0.137	-0.137
-469.201	211.007	0.043	-0.067
-468.186	-81.961	-0.179	0.058
-467.172	143.119	-0.140	0.185
-466.157	101.285	-0.222	0.257
-465.143	800.000	0.048	0.169
-464.128	-110.827	0.201	0.041
-463.113	298.217	0.062	-0.114
-462.099	-111.143	0.315	-0.064
-461.084	-34.203	0.180	-0.098
-460.070	418.738	0.129	-0.275
-459.055	-23.807	-0.032	-0.019
-458.040	-90.423	0.101	0.029
-457.026	-103.425	0.195	-0.046
-456.011	-139.698	0.223	-0.024
-454.997	20.189	0.161	-0.129
-453.982	107.005	0.041	-0.049
-452.968	-117.940	0.042	-0.007
-451.953	482.339	-0.090	-0.204
-450.938	-82.487	0.237	-0.077
-449.924	270.020	0.037	0.065
-448.909	28.176	0.248	0.208
-447.895	-58.219	0.400	0.173
-446.880	-130.295	0.210	0.028
-445.865	-44.990	0.173	0.086
-444.851	265.094	-0.139	-0.241
-443.836	800.000	0.114	0.461
-442.822	800.000	0.047	-0.158
-441.807	-200.000	-0.022	-0.157
-440.792	-180.609	-0.103	-0.002
-439.778	-36.662	-0.243	-0.130
-438.763	325.873	0.117	-0.223
-437.749	404.461	-0.132	0.277
-436.734	76.471	0.075	0.079
-435.719	-200.000	-0.031	0.159
-434.705	91.363	-0.108	0.120
-433.690	454.112	-0.041	-0.091
-432.676	-200.000	-0.049	0.334
-431.661	-160.050	0.134	-0.007
-430.646	-96.323	0.353	0.093
-429.632	800.000	0.055	0.175
-428.617	465.933	-0.031	0.069
-427.603	249.765	-0.095	0.160
-426.588	-152.866	0.063	0.004
-425.573	22.509	0.166	-0.135
-424.559	239.365	0.053	0.087
-423.544	-11.334	0.078	-0.051
-422.530	-200.000	0.029	0.332
-421.515	-142.241	-0.099	0.010
-420.500	158.717	0.106	-0.146
-419.486	149.384	0.014	-0.019
-418.471	-200.000	-0.032	-0.333
-417.457	-106.083	-0.392	0.088
-416.442	-130.130	0.327	0.044
-415.428	800.000	0.038	-0.115
-414.413	26.662	-0.241	-0.201
-413.398	99.394	-0.002	-0.003
-412.384	800.000	0.013	0.054
-411.369	-89.916	-0.058	-0.017
-410.355	-200.000	0.019	-0.115
-409.340	800.000	0.135	0.424
-408.325	229.796	0.165	-0.268
-407.311	-52.184	-0.351	0.162
-406.296	-200.000	-0.005	-0.224
-405.282	-152.128	0.111	0.008
-404.267	-60.769	0.304	0.128
-403.252	-33.195	-0.156	0.086
-402.238	40.972	0.139	0.125
-401.223	-200.000	-0.015	0.468
-400.209	-98.626	-0.185	0.047
-399.194	-161.830	-0.132	0.007
-398.179	106.888	-0.154	-0.182
-397.165	-29.411	0.294	-0.167
-396.150	151.595	0.089	-0.120
-395.136	-108.315	0.178	-0.038
-394.121	-158.856	-0.136	0.008
-393.106	37.974	-0.071	0.062
-392.092	779.154	0.027	0.074
-391.077	-53.791	0.035	-0.016
-390.063	433.390	0.064	0.137
-389.048	-114.380	0.342	0.065
-388.033	-68.269	0.266	-0.103
-387.019	668.146	-0.101	0.260
-386.004	-48.122	-0.390	0.187
-384.990	133.249	-0.197	-0.253
-383.975	83.540	-0.075	-0.081
-382.960	53.119	-0.161	0.153
-381.946	364.406	0.102	-0.204
-380.931	86.934	-0.183	0.201
-379.917	455.996	-0.138	-0.303
-378.902	-90.504	0.415	0.119
-377.888	-200.000	0.007	0.071
-376.873	140.370	0.182	-0.238
-375.858	-64.982	-0.306	-0.123
-374.844	-7.529	-0.198	0.133
-373.829	-200.000	0.046	-0.211
-372.815	-200.000	0.013	0.153
-371.800	278.956	0.094	0.167
-370.785	-200.000	0.056	0.457
-369.771	-17.646	0.252	0.157
-368.756	42.862	0.229	0.207
-367.742	-88.931	0.286	0.084
-366.727	3.306	0.090	0.065
-365.712	-200.000	-0.004	0.074
-364.698	554.045	-0.037	0.088
-363.683	58.222	0.195	-0.190
-362.669	308.614	-0.128	-0.237
-361.654	181.879	-0.167	-0.244
-360.639	800.000	-0.059	0.172
-359.625	-141.903	0.127	-0.013
-358.610	98.980	0.025	0.029
-357.596	-55.441	0.227	-0.101
-356.581	474.162	-0.079	0.177
-355.566	705.277	0.197	0.514
-354.552	178.130	-0.067	0.098
-353.537	13.950	-0.166	-0.128
-352.523	245.296	-0.091	0.153
-351.508	800.000	0.056	0.188
-350.493	-74.815	0.383	0.136
-349.479	800.000	0.037	-0.122
-348.464	-60.202	-0.121	0.051
-347.450	-142.910	0.359	-0.035
-346.435	-47.016	-0.110	-0.053
-345.420	-200.000	0.037	0.294
-344.406	-57.143	-0.303	0.132
-343.391	-200.000	-0.003	0.140
-342.377	159.064	-0.133	-0.183
-341.362	657.692	0.028	-0.071
-340.348	-4.712	0.161	0.110
-339.333	264.410	-0.142	0.246
-338.318	120.907	0.069	0.085
-337.304	62.202	0.142	0.140
-336.289	-177.481	0.177	0.004
-335.275	-103.449	-0.182	0.043
-334.260	116.533	-0.128	-0.155
-333.245	-200.000	-0.022	-0.156
-332.231	469.380	0.177	0.394
-331.216	-200.000	-0.015	-0.065
-330.202	800.000	-0.074	-0.255
-329.187	800.000	-0.024	0.076
-328.172	18.033	-0.182	0.144
-327.158	-73.075	-0.396	0.144
-326.143	-106.687	0.083	0.018
-325.129	-129.533	-0.012	-0.002
-324.114	325.280	-0.033	0.062
-323.099	-200.000	-0.017	0.151
-322.085	269.361	-0.046	-0.079
-321.070	-45.816	-0.228	0.111
-320.056	-45.032	-0.227	0.112
-319.041	-24.319	-0.112	-0.066
-318.026	-175.817	-0.123	0.003
-317.012	39.643	-0.032	0.028
-315.997	53.013	-0.124	0.117
-314.983	3.414	-0.163	0.117
-313.968	18.140	-0.262	-0.207
-312.953	143.166	0.220	-0.290
-311.939	-47.713	0.252	0.121
-310.924	-88.311	0.191	-0.057
-309.910	-69.942	0.124	-0.047
-308.895	16.649	-0.151	0.118
-307.880	76.702	0.276	-0.290
-306.866	-59.112	0.172	-0.073
-305.851	46.948	0.174	0.160
-304.837	-126.994	0.336	0.049
-303.822	-37.085	0.086	-0.045
-302.807	-89.483	0.286	0.083
-301.793	-44.149	0.302	0.150
-300.778	-200.000	0.017	-0.131
-299.764	-200.000	-0.092	-0.422
-298.749	442.999	0.120	-0.260
-297.735	184.382	-0.167	0.245
-296.720	54.346	-0.146	-0.139
-295.705	-71.521	0.220	-0.082
-294.691	-75.608	-0.107	0.038
-293.676	-86.430	0.356	-0.108
-292.662	103.736	0.154	0.179
-291.647	52.617	-0.059	0.055
-290.632	-94.928	0.279	0.075
-289.618	-200.000	0.057	-0.369
-288.603	466.003	-0.012	-0.027
-287.589	-0.624	-0.174	0.122
-286.574	147.140	-0.080	-0.107
-285.559	-200.000	-0.009	-0.278
-284.545	-171.799	0.361	0.012
-283.530	-132.691	-0.253	-0.032
-282.516	75.231	0.153	0.160
-281.501	368.228	0.107	-0.213
-280.486	-12.862	0.208	0.134
-279.472	-78.831	-0.267	-0.090
-278.457	98.803	-0.082	0.094
-277.443	-173.999	-0.066	-0.002
-276.428	166.171	-0.225	0.314
-275.413	69.497	-0.249	0.253
-274.399	-95.142	0.375	-0.100
-273.384	-200.000	-0.019	-0.251
-272.370	28.604	-0.138	-0.116
-271.355	-112.841	0.077	-0.015
-270.340	-115.156	-0.105	-0.020
-269.326	131.886	0.101	0.128
-268.311	-200.000	-0.009	-0.104
-267.297	161.286	-0.094	-0.129
-266.282	-43.418	-0.306	-0.153
-265.267	302.688	0.036	0.066
-264.253	800.000	-0.097	0.327
-263.238	251.545	0.069	-0.117
-262.224	-42.132	-0.257	-0.130
-261.209	95.747	-0.113	-0.127
-260.195	28.941	0.103	-0.086
-259.180	15.557	-0.202	0.157
-258.165	41.435	0.288	0.257
-257.151	71.071	-0.156	-0.160
-256.136	-121.393	-0.370	-0.061
-255.122	-200.000	0.015	-0.097
-254.107	434.802	0.119	0.255
-253.092	536.729	0.152	0.356
-252.078	-105.290	-0.163	0.037
-251.063	-129.965	0.155	-0.021
-250.049	-200.000	-0.015	0.147
-249.034	800.000	0.085	-0.344
-248.019	-200.000	-0.020	-0.128
-247.005	181.075	-0.142	0.206
-245.990	-65.414	-0.303	-0.120
-244.976	-95.230	0.424	0.113
-243.961	232.498	0.045	-0.072
-242.946	800.000	0.107	0.295
-241.932	-5.169	-0.135	0.092
-240.917	276.990	0.084	0.148
-239.903	-142.151	-0.121	-0.012
-238.888	-71.750	0.278	-0.102
-237.873	247.765	0.011	0.018
-236.859	-200.000	-0.027	0.551
-235.844	800.000	0.050	-0.149
-234.830	-130.572	-0.037	0.005
-233.815	-121.600	-0.288	0.047
-232.800	179.334	0.239	0.346
-231.786	94.436	-0.179	-0.201
-230.771	-98.937	-0.151	-0.038
-229.757	-26.036	-0.076	-0.044
-228.742	-4.514	0.193	-0.131
-227.727	-126.113	-0.201	-0.030
-226.713	69.480	0.172	0.175
-225.698	-200.000	0.008	-0.196
-224.684	-134.757	-0.240	-0.029
-223.669	-156.134	-0.289	-0.018
-222.655	-74.391	0.251	-0.089
-221.640	229.537	0.150	-0.241
-220.625	-200.000	0.008	0.110
-219.611	-46.593	-0.133	-0.064
-218.596	-85.754	0.113	0.035
-217.582	54.543	-0.128	-0.122
-216.567	-0.921	-0.163	0.114
-215.552	800.000	0.016	-0.064
-214.538	-200.000	-0.052	-0.238
-213.523	-200.000	0.018	0.113
-212.509	-200.000	-0.032	-0.257
-211.494	800.000	-0.059	-0.228
-210.479	199.379	-0.117	-0.178
-209.465	13.101	-0.200	0.153
-208.450	144.395	-0.070	-0.092
-207.436	271.863	-0.091	-0.159
-206.421	-36.293	0.160	0.085
-205.406	-65.081	0.184	-0.073
-204.392	176.553	0.168	0.240
-203.377	-77.947	0.163	0.055
-202.363	-200.000	-0.050	-0.406
-201.348	-2.773	-0.068	-0.047
-200.333	424.906	-0.043	-0.092
-199.319	-200.000	0.000	0.001
-198.304	-143.552	-0.161	-0.015
-197.290	-137.696	0.245	0.027
-196.275	43.711	-0.042	0.038
-195.260	-61.221	0.375	-0.156
-194.246	142.593	0.064	0.084
-193.231	-93.414	0.316	0.086
-192.217	-200.000	0.001	0.057
-191.202	-110.522	0.150	-0.031
-190.187	-136.683	0.103	-0.012
-189.173	216.759	0.113	0.177
-188.158	800.000	-0.024	0.072
-187.144	-66.799	0.494	0.193
-186.129	-200.000	0.067	-0.294
-185.114	-135.935	-0.234	-0.027
-184.100	3.998	0.187	0.135
-183.085	-160.890	-0.114	0.006
-182.071	800.000	-0.072	-0.275
-181.056	-103.729	-0.441	0.102
-180.042	-200.000	0.033	0.229
-179.027	-185.128	0.326	0.005
-178.012	-11.216	-0.215	-0.140
-176.998	800.000	-0.062	0.203
-175.983	-84.751	-0.370	0.115
-174.969	-26.150	0.155	0.090
-173.954	462.561	-0.057	0.126
-172.939	41.103	-0.273	0.242
-171.925	9.576	-0.221	-0.165
-170.910	800.000	0.037	0.125
-169.896	-145.038	0.160	0.014
-168.881	-17.478	-0.136	-0.084
-167.866	53.166	-0.046	0.043
-166.852	87.334	-0.016	-0.017
-165.837	79.932	0.022	-0.023
-164.823	-17.285	-0.304	-0.189
-163.808	800.000	-0.033	-0.121
-162.793	115.890	-0.129	-0.155
-161.779	-117.865	-0.125	0.022
-160.764	800.000	0.100	-0.287
-159.750	-76.945	0.135	-0.046
-158.735	-101.806	0.347	0.083
-157.720	800.000	0.031	0.091
-156.706	104.979	0.093	0.109
-155.691	230.043	-0.104	-0.167
-154.677	204.480	0.082	0.125
-153.662	800.000	0.058	-0.207
-152.647	24.358	0.119	0.097
-151.633	33.337	-0.137	0.117
-150.618	-147.920	0.381	0.031
-149.604	-16.923	-0.226	0.141
-148.589	800.000	-0.037	0.105
-147.574	478.751	-0.175	0.389
-146.560	800.000	-0.042	-0.121
-145.545	49.893	-0.178	-0.165
-144.531	-129.434	-0.173	-0.024
-143.516	-37.014	-0.291	-0.154
-142.502	217.244	-0.073	0.114
-141.487	-16.929	-0.094	0.059
-140.472	-200.000	0.057	-0.300
-139.458	517.847	-0.158	0.364
-138.443	330.734	0.238	0.451
-137.429	422.944	-0.040	0.085
-136.414	-54.410	-0.015	-0.007
-135.399	-200.000	0.030	0.194
-134.385	164.100	-0.094	-0.130
-133.370	-200.000	-0.087	-0.000
-132.356	223.871	0.029	-0.046
-131.341	800.000	-0.033	0.123
-130.326	-200.000	-0.102	-0.447
-129.312	-200.000	-0.029	-0.252
-128.297	-53.425	0.331	-0.149
-127.283	-116.431	-0.075	-0.014
-126.268	198.026	-0.076	-0.114
-125.253	-99.349	-0.151	0.038
-124.239	221.544	-0.073	0.116
-123.224	150.217	0.154	-0.205
