DTS Sentinel unit serial number:	SN413079Multiplexer serial number:	ORYXHardware model number:	OX4-SRSoftware version number:	ORYX F/W v4.00 Oryx Data Collector v3.7.2.0data status	okinstallation	princeton_trtdifferential loss correction	single-endedforward channel	channel 2reverse channel	N/Adate	2019/09/12time	05:57:10forward acquisition time	60.00reverse acquisition time	0.00gamma	496.2192k internal	0.2325k external	0.2325temperature offset calibration	1.0060default loss term (dB/km)	0.3790temperature slope calibration	1.0000multiplexer offset coefficient	1.0000multiplexer slope coefficient	1.0000fibre end	0.00T internal ref (°C)	32.06T ext. ref 1 (°C)	1.57T ext. ref 2 (°C)	27.41length (m)	temperature (°C)	Stokes	anti-Stokes-747.200	-16.234	0.143	0.092
-746.185	800.000	-0.057	0.211
-745.171	-122.508	-0.104	0.017
-744.156	-200.000	0.043	0.247
-743.142	167.474	0.138	-0.197
-742.127	698.229	-0.161	0.426
-741.112	800.000	0.005	-0.023
-740.098	-200.000	0.046	0.293
-739.083	-81.741	-0.092	-0.030
-738.069	-5.660	-0.150	-0.104
-737.054	-147.407	0.266	-0.023
-736.039	199.439	-0.287	-0.445
-735.025	-139.806	-0.395	-0.042
-734.010	474.777	-0.139	0.316
-732.996	93.255	0.015	0.017
-731.981	-81.804	-0.083	-0.027
-730.966	-200.000	-0.015	0.316
-729.952	125.561	-0.077	-0.098
-728.937	174.516	0.057	-0.083
-727.923	316.059	-0.043	-0.083
-726.908	232.274	-0.097	-0.161
-725.894	800.000	-0.099	-0.303
-724.879	179.088	-0.013	-0.019
-723.864	-157.251	-0.231	0.014
-722.850	-89.109	0.074	0.022
-721.835	-200.000	-0.011	-0.307
-720.821	-200.000	-0.043	0.216
-719.806	-23.789	0.062	-0.038
-718.791	800.000	0.048	0.157
-717.777	402.517	0.055	0.116
-716.762	-78.848	0.316	0.109
-715.748	185.040	-0.114	-0.171
-714.733	-76.731	0.345	0.122
-713.718	-98.413	-0.348	-0.090
-712.704	529.098	-0.071	-0.170
-711.689	-107.828	0.188	-0.041
-710.675	-107.545	-0.142	-0.031
-709.660	-156.003	0.197	0.013
-708.645	800.000	0.068	-0.252
-707.631	221.833	-0.125	0.202
-706.616	800.000	0.070	0.209
-705.602	93.134	0.030	0.035
-704.587	114.360	-0.180	-0.220
-703.572	-80.940	0.129	0.043
-702.558	554.003	0.156	0.379
-701.543	-39.903	-0.067	-0.035
-700.529	-86.088	0.068	0.021
-699.514	-31.290	-0.123	0.070
-698.499	-119.294	-0.079	0.014
-697.485	-50.981	0.097	0.046
-696.470	-200.000	-0.004	0.025
-695.456	301.676	0.166	-0.309
-694.441	18.599	-0.148	-0.119
-693.426	264.942	-0.066	-0.116
-692.412	-124.423	0.255	0.040
-691.397	-62.216	-0.153	0.064
-690.383	-146.244	-0.104	0.009
-689.368	-200.000	-0.161	-0.001
-688.354	78.586	0.084	-0.091
-687.339	106.325	-0.196	0.234
-686.324	-48.198	-0.169	0.082
-685.310	800.000	-0.026	-0.078
-684.295	-137.314	-0.082	-0.009
-683.281	-103.182	-0.251	-0.060
-682.266	-61.049	-0.199	-0.085
-681.251	-74.054	-0.473	0.172
-680.237	800.000	0.101	0.323
-679.222	350.088	0.040	0.080
-678.208	-199.986	-0.274	-0.001
-677.193	-113.647	-0.306	-0.060
-676.178	130.452	-0.162	0.210
-675.164	-80.858	0.173	-0.058
-674.149	-200.000	0.005	-0.045
-673.135	663.197	0.123	-0.319
-672.120	-200.000	-0.065	-0.405
-671.105	-200.000	-0.322	-0.000
-670.091	-200.000	0.016	0.206
-669.076	514.401	0.064	0.149
-668.062	108.311	-0.169	-0.203
-667.047	-94.019	0.186	0.051
-666.032	-142.962	0.273	0.027
-665.018	-70.727	0.209	0.079
-664.003	800.000	-0.148	0.420
-662.989	-200.000	-0.000	-0.039
-661.974	195.420	-0.040	0.062
-660.959	-98.873	0.218	-0.056
-659.945	281.937	0.123	-0.223
-658.930	202.133	-0.156	0.242
-657.916	-52.577	-0.163	0.076
-656.901	-200.000	-0.029	-0.191
-655.886	-75.848	0.226	-0.080
-654.872	800.000	-0.030	-0.112
-653.857	800.000	-0.098	-0.315
-652.843	59.905	0.182	0.181
-651.828	-24.928	0.239	0.143
-650.814	-41.130	-0.111	0.058
-649.799	-154.019	0.214	0.015
-648.784	-48.045	0.465	-0.226
-647.770	-43.024	0.267	-0.136
-646.755	727.391	-0.082	0.220
-645.741	17.217	0.198	0.158
-644.726	-31.842	0.057	0.032
-643.711	706.582	0.150	0.399
-642.697	63.856	0.021	-0.021
-641.682	-200.000	0.061	-0.319
-640.668	225.831	-0.089	0.145
-639.653	-162.051	0.092	-0.005
-638.638	19.396	-0.036	0.029
-637.624	124.848	0.274	0.347
-636.609	-94.601	-0.315	0.086
-635.595	83.388	0.138	-0.152
-634.580	138.973	-0.125	-0.164
-633.565	-119.851	-0.071	-0.012
-632.551	-129.194	-0.199	-0.028
-631.536	334.858	-0.079	-0.153
-630.522	-200.000	0.014	-0.193
-629.507	581.938	-0.139	-0.341
-628.492	800.000	-0.038	0.127
-627.478	800.000	-0.039	-0.170
-626.463	-141.629	-0.292	0.030
-625.449	800.000	0.037	0.106
-624.434	800.000	-0.108	0.309
-623.419	-56.159	-0.144	0.064
-622.405	-85.549	-0.402	-0.126
-621.390	139.378	-0.124	0.164
-620.376	278.573	-0.118	0.211
-619.361	378.079	-0.114	-0.235
-618.346	162.979	0.123	-0.173
-617.332	144.951	-0.155	0.208
-616.317	-133.320	-0.059	-0.007
-615.303	-3.203	-0.135	-0.095
-614.288	786.610	-0.081	0.222
-613.273	347.035	-0.139	0.274
-612.259	-57.399	-0.201	-0.089
-611.244	423.688	-0.046	0.099
-610.230	-138.877	-0.281	0.031
-609.215	-200.000	-0.033	0.189
-608.201	379.529	0.126	0.260
-607.186	-178.283	0.039	-0.001
-606.171	613.452	-0.098	0.246
-605.157	-45.710	-0.117	0.058
-604.142	313.954	0.105	-0.199
-603.128	-89.862	-0.089	-0.026
-602.113	-75.044	-0.348	0.125
-601.098	405.011	-0.136	0.288
-600.084	272.926	0.090	0.159
-599.069	-40.661	-0.264	0.137
-598.055	20.057	-0.098	0.080
-597.040	800.000	0.050	0.168
-596.025	-61.421	-0.504	-0.213
-595.011	-35.474	0.125	-0.068
-593.996	-78.161	0.155	0.054
-592.982	800.000	-0.030	-0.086
-591.967	-200.000	0.013	-0.086
-590.952	-78.862	0.111	-0.038
-589.938	-104.248	0.097	-0.023
-588.923	518.335	-0.034	0.079
-587.909	78.393	-0.082	-0.088
-586.894	-79.915	0.021	0.007
-585.879	-200.000	0.026	-0.272
-584.865	-200.000	-0.000	0.021
-583.850	-75.717	-0.173	-0.062
-582.836	800.000	-0.077	-0.220
-581.821	28.539	0.197	-0.167
-580.806	201.169	-0.108	-0.167
-579.792	-167.299	0.228	0.009
-578.777	211.433	0.097	-0.154
-577.763	189.994	-0.247	-0.371
-576.748	-16.886	0.184	-0.116
-575.733	-200.000	0.032	-0.202
-574.719	-129.838	-0.415	-0.057
-573.704	-64.417	-0.260	0.106
-572.690	353.587	-0.050	-0.100
-571.675	-66.780	0.210	0.084
-570.661	73.584	-0.151	-0.159
-569.646	-200.000	0.013	-0.097
-568.631	-35.618	-0.126	-0.068
-567.617	-45.036	0.097	-0.048
-566.602	-176.311	-0.430	0.011
-565.588	800.000	0.076	-0.310
-564.573	77.940	-0.094	0.101
-563.558	-164.407	0.301	-0.014
-562.544	137.811	0.128	0.168
-561.529	800.000	0.045	-0.126
-560.515	-20.627	0.172	0.106
-559.500	28.404	-0.203	0.172
-558.485	-67.144	-0.341	0.135
-557.471	13.696	-0.075	-0.058
-556.456	85.777	0.200	0.220
-555.442	-3.634	0.104	0.072
-554.427	469.054	-0.043	-0.097
-553.412	190.121	-0.062	-0.093
-552.398	-74.702	-0.172	0.062
-551.383	137.343	0.250	0.328
-550.369	654.982	-0.125	-0.321
-549.354	-200.000	-0.046	0.381
-548.339	108.745	-0.060	-0.072
-547.325	-57.781	0.293	-0.129
-546.310	83.780	0.124	-0.136
-545.296	76.664	-0.271	0.288
-544.281	25.764	-0.251	-0.209
-543.266	-200.000	0.058	-0.356
-542.252	-148.347	0.250	0.021
-541.237	-80.432	0.141	-0.047
-540.223	-182.057	-0.198	-0.004
-539.208	78.869	-0.098	-0.105
-538.193	65.853	-0.119	-0.120
-537.179	-200.000	-0.025	0.169
-536.164	112.078	0.068	-0.082
-535.150	464.282	-0.140	0.314
-534.135	-130.428	-0.328	0.044
-533.121	-68.559	0.246	0.096
-532.106	800.000	0.055	-0.197
-531.091	398.023	0.070	-0.146
-530.077	-200.000	-0.003	0.110
-529.062	210.796	0.085	-0.134
-528.048	-138.300	-0.171	-0.019
-527.033	800.000	0.072	0.225
-526.018	39.885	-0.222	-0.199
-525.004	201.522	-0.158	-0.244
-523.989	-132.230	0.271	0.035
-522.975	-93.194	-0.486	-0.135
-521.960	-103.802	0.234	-0.055
-520.945	-159.066	0.199	-0.011
-519.931	-7.636	0.277	-0.188
-518.916	208.061	-0.181	0.282
-517.902	121.158	-0.043	0.054
-516.887	-157.577	-0.352	0.021
-515.872	-200.000	-0.019	-0.120
-514.858	-77.794	0.138	-0.048
-513.843	202.344	-0.187	-0.288
-512.829	139.734	-0.144	0.189
-511.814	1.591	-0.121	-0.087
-510.799	109.090	-0.057	0.068
-509.785	500.636	-0.068	-0.156
-508.770	-40.006	-0.198	0.103
-507.756	328.577	-0.150	-0.289
-506.741	-88.113	0.248	-0.074
-505.726	-200.000	0.009	-0.450
-504.712	-109.315	-0.187	-0.040
-503.697	-200.000	0.024	0.201
-502.683	-168.582	0.230	0.009
-501.668	-28.710	-0.214	0.123
-500.653	41.859	0.028	-0.025
-499.639	800.000	-0.114	0.437
-498.624	-164.391	0.081	-0.004
-497.610	800.000	-0.064	0.212
-496.595	46.135	-0.251	-0.232
-495.581	209.164	-0.084	0.131
-494.566	-186.296	0.471	-0.007
-493.551	-110.580	0.256	-0.053
-492.537	-16.991	0.145	-0.091
-491.522	-112.874	-0.213	-0.042
-490.508	-84.767	0.097	0.030
-489.493	-140.939	0.235	0.024
-488.478	260.565	0.048	0.084
-487.464	-25.705	0.231	0.136
-486.449	800.000	-0.017	-0.059
-485.435	-151.719	-0.287	-0.021
-484.420	-98.638	0.131	-0.034
-483.405	-200.000	0.044	0.228
-482.391	201.048	0.073	0.113
-481.376	-110.532	0.030	0.006
-480.362	33.226	-0.155	-0.134
-479.347	709.293	0.054	-0.142
-478.332	34.756	0.310	-0.271
-477.318	-43.256	-0.111	0.056
-476.303	785.347	-0.031	0.085
-475.289	800.000	-0.058	0.201
-474.274	800.000	-0.083	0.255
-473.259	-7.465	0.157	-0.106
-472.245	-94.537	-0.152	0.041
-471.230	800.000	0.084	-0.307
-470.216	166.337	-0.024	-0.034
-469.201	-12.355	0.205	-0.134
-468.186	114.201	0.242	-0.295
-467.172	-200.000	0.018	0.141
-466.157	-49.360	0.079	0.038
-465.143	-140.402	-0.192	0.020
-464.128	62.387	0.117	-0.117
-463.113	-200.000	-0.018	-0.409
-462.099	-200.000	-0.022	0.292
-461.084	-200.000	0.004	0.200
-460.070	-68.466	0.298	0.115
-459.055	-135.083	0.165	0.020
-458.040	-71.567	-0.104	-0.039
-457.026	290.931	0.061	0.111
-456.011	-200.000	-0.013	-0.197
-454.997	-37.004	-0.265	-0.142
-453.982	-129.129	0.093	0.013
-452.968	800.000	0.111	0.326
-451.953	800.000	0.101	0.419
-450.938	264.338	0.177	-0.307
-449.924	-94.663	-0.340	-0.092
-448.909	-2.637	0.165	-0.115
-447.895	-47.011	0.124	-0.060
-446.880	219.337	-0.214	0.341
-445.865	-200.000	-0.007	-0.418
-444.851	148.541	0.056	-0.076
-443.836	46.552	-0.077	0.071
-442.822	78.270	0.229	0.244
-441.807	152.599	0.075	-0.102
-440.792	-52.492	0.269	0.124
-439.778	-97.828	0.258	-0.067
-438.763	38.614	-0.109	-0.097
-437.749	603.152	-0.119	0.295
-436.734	306.179	-0.068	0.125
-435.719	-200.000	-0.032	-0.147
-434.705	-65.350	0.179	-0.072
-433.690	800.000	-0.076	0.305
-432.676	-195.134	0.201	-0.002
-431.661	21.573	0.243	0.197
-430.646	-200.000	0.006	0.427
-429.632	120.703	-0.070	0.086
-428.617	800.000	0.007	-0.030
-427.603	-66.204	-0.171	0.068
-426.588	166.083	-0.226	0.319
-425.573	684.448	0.035	0.091
-424.559	-200.000	-0.004	-0.101
-423.544	-95.061	0.269	-0.072
-422.530	-200.000	-0.013	-0.091
-421.515	-45.190	0.020	0.010
-420.500	800.000	0.040	0.148
-419.486	-155.784	-0.296	-0.019
-418.471	-76.165	0.238	-0.084
-417.457	-200.000	0.121	0.614
-416.442	357.784	-0.081	-0.162
-415.428	297.932	-0.078	-0.143
-414.413	-200.000	-0.018	0.079
-413.398	144.704	-0.072	0.096
-412.384	36.344	-0.196	-0.173
-411.369	75.780	0.120	0.126
-410.355	7.721	-0.190	-0.142
-409.340	-6.329	-0.190	-0.129
-408.325	-127.106	0.271	-0.040
-407.311	7.008	-0.197	-0.146
-406.296	-119.211	-0.171	0.030
-405.282	800.000	0.070	-0.244
-404.267	245.140	-0.132	0.221
-403.252	36.087	0.131	0.114
-402.238	565.744	0.149	-0.361
-401.223	204.640	0.051	0.079
-400.209	159.790	0.095	0.131
-399.194	-68.646	-0.315	-0.121
-398.179	87.570	0.087	0.096
-397.165	-103.165	0.380	-0.089
-396.150	-200.000	0.030	-0.169
-395.136	-200.000	0.044	-0.268
-394.121	234.311	-0.228	-0.373
-393.106	101.374	-0.073	-0.085
-392.092	-200.000	0.005	-0.351
-391.077	-200.000	-0.085	0.390
-390.063	-151.628	0.143	0.010
-389.048	132.589	-0.244	-0.314
-388.033	800.000	-0.073	0.262
-387.019	55.299	0.057	0.055
-386.004	800.000	-0.110	0.306
-384.990	-131.197	0.200	-0.026
-383.975	-100.396	-0.245	-0.061
-382.960	487.444	-0.119	0.270
-381.946	375.169	0.235	0.476
-380.931	-58.296	0.127	-0.055
-379.917	-200.000	-0.067	-0.301
-378.902	570.468	-0.115	-0.279
-377.888	-98.688	0.116	0.029
-376.873	-6.667	0.232	0.157
-375.858	800.000	-0.097	-0.310
-374.844	565.194	0.110	0.265
-373.829	-118.010	-0.136	0.024
-372.815	800.000	0.022	-0.086
-371.800	183.713	-0.162	0.238
-370.785	-73.179	0.315	-0.115
-369.771	-14.777	0.058	0.037
-368.756	-200.000	-0.012	-0.099
-367.742	800.000	0.104	-0.289
-366.727	-157.223	-0.182	0.011
-365.712	-158.388	-0.445	-0.026
-364.698	-58.715	-0.225	-0.097
-363.683	84.634	-0.138	0.150
-362.669	-200.000	-0.049	-0.244
-361.654	-60.957	-0.495	-0.208
-360.639	-82.018	-0.155	-0.050
-359.625	-200.000	-0.010	-0.059
-358.610	437.183	-0.131	-0.284
-357.596	-74.590	-0.028	0.010
-356.581	228.407	0.129	0.209
-355.566	-121.444	-0.380	-0.063
-354.552	49.513	-0.222	0.208
-353.537	-10.999	0.326	0.214
-352.523	4.219	0.129	0.094
-351.508	438.930	-0.117	0.253
-350.493	800.000	0.018	0.071
-349.479	-103.812	0.210	0.049
-348.464	-200.000	-0.029	-0.156
-347.450	35.024	0.087	-0.076
-346.435	-0.273	0.128	-0.090
-345.420	-56.791	-0.215	0.094
-344.406	-120.465	0.276	0.047
-343.391	-200.000	-0.048	-0.290
-342.377	-200.000	-0.017	-0.095
-341.362	-107.136	0.179	0.039
-340.348	-116.382	-0.213	0.039
-339.333	-176.510	0.366	-0.009
-338.318	-81.606	-0.132	-0.043
-337.304	-200.000	-0.005	0.141
-336.289	-102.684	0.364	0.086
-335.275	6.696	0.081	0.060
-334.260	800.000	-0.081	0.349
-333.245	15.200	0.236	0.184
-332.231	-134.433	0.314	-0.038
-331.216	800.000	0.049	0.159
-330.202	167.485	0.080	-0.112
-329.187	-69.269	-0.407	0.155
-328.172	92.748	-0.034	0.038
-327.158	-124.295	-0.200	0.031
-326.143	28.163	0.130	0.109
-325.129	354.993	0.088	-0.173
-324.114	-200.000	0.015	-0.391
-323.099	-200.000	0.003	0.032
-322.085	-24.668	-0.152	-0.090
-321.070	-27.093	0.304	0.176
-320.056	-91.738	0.253	-0.071
-319.041	33.425	0.442	-0.381
-318.026	82.702	-0.298	0.321
-317.012	-18.713	0.114	-0.070
-315.997	-139.364	-0.068	0.007
-314.983	-200.000	-0.001	0.216
-313.968	-196.702	0.271	0.002
-312.953	-114.098	0.556	-0.107
-311.939	32.858	-0.089	0.076
-310.924	79.878	0.056	0.060
-309.910	800.000	-0.034	-0.113
-308.895	-200.000	0.031	-0.154
-307.880	-200.000	0.006	-0.188
-306.866	207.323	0.049	-0.076
-305.851	231.489	-0.199	0.324
-304.837	797.620	-0.037	-0.102
-303.822	-126.010	0.193	0.029
-302.807	242.874	0.132	-0.219
-301.793	800.000	-0.055	-0.181
-300.778	453.888	-0.065	-0.142
-299.764	68.457	0.165	0.167
-298.749	-21.394	0.242	-0.146
-297.735	800.000	0.087	0.282
-296.720	357.687	-0.034	0.068
-295.705	24.288	0.122	0.100
-294.691	-116.529	0.327	-0.060
-293.676	-200.000	0.055	-0.319
-292.662	-110.594	-0.283	-0.058
-291.647	-14.387	-0.091	0.058
-290.632	800.000	0.118	0.421
-289.618	800.000	-0.053	-0.173
-288.603	243.285	-0.246	-0.408
-287.589	-131.759	-0.282	-0.037
-286.574	398.902	0.052	0.107
-285.559	765.002	-0.123	0.331
-284.545	800.000	0.084	0.278
-283.530	-200.000	0.010	0.066
-282.516	25.931	-0.195	-0.161
-281.501	-164.672	-0.212	0.010
-280.486	-178.461	-0.337	-0.008
-279.472	-200.000	-0.024	0.157
-278.457	117.028	0.172	-0.209
-277.443	349.525	-0.115	-0.224
-276.428	-26.935	0.153	-0.088
-275.413	-27.788	0.280	-0.161
-274.399	-98.246	0.104	0.026
-273.384	11.252	-0.105	0.079
-272.370	-200.000	0.004	0.113
-271.355	79.565	-0.116	-0.123
-270.340	596.999	-0.026	-0.064
-269.326	356.362	0.156	-0.309
-268.311	-121.133	0.372	-0.062
-267.297	42.109	0.191	-0.172
-266.282	408.400	0.129	0.271
-265.267	194.790	0.267	0.401
-264.253	-0.254	-0.257	-0.181
-263.238	-22.699	-0.111	-0.066
-262.224	560.255	-0.133	-0.319
-261.209	-200.000	0.030	-0.398
-260.195	512.694	0.020	0.047
-259.180	-51.089	-0.263	0.122
-258.165	635.499	-0.068	-0.170
-257.151	800.000	0.079	-0.285
-256.136	-41.159	-0.319	-0.163
-255.122	72.121	0.172	0.177
-254.107	73.331	-0.161	-0.167
-253.092	713.128	-0.045	-0.117
-252.078	233.318	-0.097	0.158
-251.063	-57.339	-0.160	-0.070
-250.049	-200.000	0.033	0.194
-249.034	93.547	0.100	-0.112
-248.019	-200.000	0.001	-0.099
-247.005	37.889	-0.275	0.242
-245.990	1.285	-0.084	-0.060
-244.976	-200.000	0.002	0.414
-243.961	-200.000	-0.045	0.222
-242.946	-200.000	0.045	0.217
-241.932	3.693	-0.349	0.252
-240.917	-153.427	0.408	0.028
-239.903	-78.933	0.218	0.073
-238.888	-42.410	-0.271	-0.137
-237.873	-137.053	-0.216	0.024
-236.859	17.748	0.165	-0.130
-235.844	-121.425	0.350	0.058
-234.830	107.870	0.176	-0.208
-233.815	-200.000	0.019	0.188
-232.800	13.362	0.189	-0.145
-231.786	-10.578	-0.147	-0.096
-230.771	-10.116	0.047	-0.031
-229.757	181.083	-0.047	-0.068
-228.742	140.039	0.158	0.206
-227.727	-1.288	-0.310	0.217
-226.713	-122.448	0.423	-0.068
-225.698	83.713	-0.204	0.220
-224.684	800.000	0.054	0.152
-223.669	-86.100	0.297	-0.091
-222.655	-167.655	0.223	0.009
-221.640	30.785	-0.076	0.064
-220.625	-114.315	-0.192	0.036
-219.611	-96.531	-0.324	-0.085
-218.596	-17.763	0.094	-0.058
-217.582	-200.000	0.087	0.484
-216.567	-164.742	0.170	-0.008
-215.552	93.350	0.335	0.375
-214.538	-192.830	-0.051	0.000
-213.523	52.633	-0.112	-0.106
-212.509	-200.000	0.012	-0.191
-211.494	-200.000	-0.082	-0.465
-210.479	800.000	0.008	0.023
-209.465	-200.000	0.024	-0.216
-208.450	-200.000	-0.038	0.172
-207.436	-200.000	-0.031	0.168
-206.421	-5.373	0.171	-0.116
-205.406	-70.311	-0.206	0.077
-204.392	72.008	0.077	0.079
-203.377	-118.615	-0.173	0.030
-202.363	-200.000	0.006	-0.270
-201.348	621.875	-0.101	0.251
-200.333	-115.230	-0.180	0.034
-199.319	-200.000	0.027	0.176
-198.304	800.000	-0.032	-0.098
-197.290	-62.475	0.347	-0.142
-196.275	563.586	0.055	-0.132
-195.260	85.206	0.173	-0.187
-194.246	44.339	-0.119	-0.108
-193.231	-43.181	0.262	0.131
-192.217	-200.000	0.056	0.266
-191.202	800.000	0.092	-0.254
-190.187	-3.802	-0.179	-0.122
-189.173	-200.000	0.066	0.439
-188.158	71.227	-0.297	0.304
-187.144	800.000	-0.043	0.151
-186.129	68.747	0.095	0.096
-185.114	556.508	0.032	-0.077
-184.100	57.667	-0.281	-0.271
-183.085	37.124	-0.062	0.054
-182.071	-14.585	-0.271	0.172
-181.056	122.364	-0.049	-0.060
-180.042	-54.418	0.166	0.074
-179.027	72.198	0.024	-0.025
-178.012	-56.506	-0.041	0.018
-176.998	-159.623	0.418	-0.023
-175.983	-200.000	0.018	0.202
-174.969	-78.882	0.078	0.026
-173.954	-117.756	-0.142	-0.025
-172.939	-155.652	0.240	0.015
-171.925	5.723	-0.027	-0.020
-170.910	-200.000	0.033	-0.408
-169.896	73.699	0.146	0.151
-168.881	-126.219	0.249	-0.037
-167.866	-200.000	-0.031	0.354
-166.852	-128.532	0.239	-0.033
-165.837	-151.172	0.211	0.016
-164.823	800.000	-0.073	0.239
-163.808	800.000	-0.062	0.175
-162.793	-8.285	0.182	0.121
-161.779	-78.814	0.176	0.059
-160.764	-94.032	0.081	0.022
-159.750	127.995	0.066	0.082
-158.735	87.410	0.145	-0.159
-157.720	-55.197	-0.313	-0.139
-156.706	-162.500	-0.133	0.006
-155.691	-200.000	-0.019	-0.292
-154.677	113.102	0.039	0.046
-153.662	-200.000	0.036	-0.212
-152.647	118.894	0.171	0.208
-151.633	-200.000	-0.071	-0.379
-150.618	107.833	-0.175	0.206
-149.604	137.405	0.264	0.340
-148.589	352.138	-0.089	0.175
-147.574	51.637	-0.084	0.079
-146.560	-188.310	0.348	-0.004
-145.545	-32.863	-0.201	0.110
-144.531	-140.083	0.118	0.012
-143.516	404.753	0.125	0.259
-142.502	-47.326	0.295	0.142
-141.487	800.000	-0.040	0.120
-140.472	-200.000	0.085	0.378
-139.458	146.883	0.205	0.272
-138.443	-58.991	0.104	-0.044
-137.429	-20.594	-0.166	-0.100
-136.414	75.459	0.009	-0.010
-135.399	250.740	0.080	0.133
-134.385	-11.117	0.260	0.169
-133.370	-59.140	-0.208	0.088
-132.356	-25.967	-0.150	-0.087
-131.341	506.536	-0.064	-0.146
-130.326	800.000	-0.041	0.117
-129.312	622.713	0.067	0.166
-128.297	724.871	0.043	-0.113
-127.283	-115.970	-0.153	-0.028
-126.268	528.181	0.045	0.104
-125.253	-38.224	0.226	-0.118
-124.239	800.000	-0.026	0.107
-123.224	231.930	-0.016	-0.025
-122.210	31.167	0.122	-0.103
