DTS Sentinel unit serial number:	SN413079Multiplexer serial number:	ORYXHardware model number:	OX4-SRSoftware version number:	ORYX F/W v4.00 Oryx Data Collector v3.7.2.0data status	okinstallation	princeton_trtdifferential loss correction	single-endedforward channel	channel 2reverse channel	N/Adate	2019/09/14time	03:39:34forward acquisition time	60.00reverse acquisition time	0.00gamma	496.2192k internal	0.2337k external	0.2337temperature offset calibration	1.0125default loss term (dB/km)	0.3790temperature slope calibration	1.0000multiplexer offset coefficient	1.0000multiplexer slope coefficient	1.0000fibre end	0.00T internal ref (°C)	26.66T ext. ref 1 (°C)	3.29T ext. ref 2 (°C)	21.63length (m)	temperature (°C)	Stokes	anti-Stokes-747.200	-45.817	-0.217	0.107
-746.185	162.396	-0.147	-0.207
-745.171	4.797	0.059	-0.044
-744.156	800.000	-0.040	0.136
-743.142	-55.687	-0.316	0.142
-742.127	-200.000	-0.032	-0.213
-741.112	56.120	-0.158	-0.154
-740.098	-88.553	0.085	0.025
-739.083	-200.000	0.034	0.199
-738.069	-200.000	-0.043	-0.317
-737.054	-130.174	0.314	-0.043
-736.039	696.276	0.003	0.008
-735.025	-79.066	0.285	0.097
-734.010	368.480	-0.128	-0.261
-732.996	52.531	0.197	-0.189
-731.981	70.240	-0.188	-0.195
-730.966	-200.000	0.062	0.328
-729.952	-22.011	-0.028	0.017
-728.937	-137.530	-0.074	-0.008
-727.923	-26.466	-0.014	-0.008
-726.908	463.979	-0.124	-0.278
-725.894	406.236	-0.092	-0.196
-724.879	800.000	0.090	-0.302
-723.864	482.122	0.140	-0.320
-722.850	-139.322	0.094	-0.010
-721.835	-13.327	-0.084	-0.055
-720.821	-42.555	-0.088	-0.045
-719.806	-74.593	-0.247	-0.089
-718.791	-200.000	-0.006	0.141
-717.777	-200.000	0.007	-0.072
-716.762	-200.000	0.073	-0.385
-715.748	-145.945	-0.161	-0.014
-714.733	389.574	0.069	0.144
-713.718	56.593	-0.180	-0.176
-712.704	-200.000	-0.006	0.037
-711.689	249.221	0.036	0.061
-710.675	189.339	-0.098	-0.148
-709.660	10.236	0.068	-0.052
-708.645	-65.410	0.094	-0.038
-707.631	-200.000	-0.008	-0.182
-706.616	800.000	0.015	-0.046
-705.602	-128.051	-0.038	-0.005
-704.587	21.861	-0.062	-0.051
-703.572	-200.000	0.042	0.216
-702.558	-200.000	-0.026	-0.183
-701.543	800.000	-0.077	-0.293
-700.529	-73.528	0.126	0.046
-699.514	-129.131	-0.162	-0.023
-698.499	237.470	-0.180	-0.299
-697.485	-136.627	0.222	0.026
-696.470	173.892	-0.110	0.159
-695.456	-200.000	0.034	-0.173
-694.441	128.368	-0.188	0.240
-693.426	800.000	0.086	0.357
-692.412	54.985	0.062	-0.060
-691.397	-200.000	0.015	-0.187
-690.383	-162.036	0.240	0.012
-689.368	-106.436	-0.273	-0.061
-688.354	-91.339	-0.187	0.054
-687.339	-39.977	-0.137	-0.072
-686.324	125.848	-0.232	-0.293
-685.310	-34.708	-0.137	-0.075
-684.295	800.000	-0.084	0.272
-683.281	132.807	0.144	0.186
-682.266	3.213	0.153	-0.112
-681.251	35.361	0.279	-0.245
-680.237	46.230	-0.199	0.184
-679.222	79.622	0.098	-0.106
-678.208	-13.291	0.100	-0.065
-677.193	-16.316	0.202	0.129
-676.178	-145.905	0.191	-0.017
-675.164	-200.000	-0.034	-0.174
-674.149	281.134	-0.022	-0.040
-673.135	-200.000	-0.016	0.166
-672.120	188.067	0.065	-0.097
-671.105	24.667	-0.120	-0.100
-670.091	-200.000	-0.107	0.496
-669.076	-0.005	0.315	0.225
-668.062	800.000	-0.096	-0.295
-667.047	485.874	0.161	-0.367
-666.032	-200.000	-0.019	-0.271
-665.018	-200.000	0.007	-0.172
-664.003	-140.076	-0.026	0.003
-662.989	49.859	-0.104	0.098
-661.974	800.000	-0.101	-0.352
-660.959	-200.000	0.151	0.000
-659.945	433.477	0.226	0.492
-658.930	0.222	-0.151	0.108
-657.916	-92.294	-0.377	0.106
-656.901	148.935	0.080	0.108
-655.886	-67.329	-0.161	0.063
-654.872	-200.000	-0.014	-0.078
-653.857	-200.000	0.021	-0.257
-652.843	100.331	-0.235	-0.273
-651.828	-157.744	-0.240	-0.014
-650.814	-106.641	-0.179	0.040
-649.799	432.173	0.062	-0.135
-648.784	36.634	-0.032	-0.029
-647.770	-168.498	-0.150	0.006
-646.755	32.091	0.174	-0.150
-645.741	467.913	0.130	-0.291
-644.726	-200.000	-0.017	-0.192
-643.711	-104.821	-0.027	-0.006
-642.697	-2.166	-0.151	0.106
-641.682	165.457	-0.067	0.095
-640.668	800.000	0.090	-0.293
-639.653	139.227	-0.150	-0.197
-638.638	-101.650	0.090	-0.022
-637.624	48.023	-0.112	0.105
-636.609	-79.020	0.399	-0.136
-635.595	-157.534	-0.207	0.012
-634.580	68.073	-0.246	-0.252
-633.565	78.919	-0.232	0.248
-632.551	62.406	-0.135	-0.135
-631.536	86.758	-0.150	0.165
-630.522	-143.183	0.024	0.002
-629.507	65.061	-0.013	-0.014
-628.492	74.545	0.016	-0.017
-627.478	800.000	-0.035	-0.129
-626.463	-79.226	-0.127	0.043
-625.449	-81.716	-0.313	0.103
-624.434	-4.203	-0.148	-0.102
-623.419	-114.130	-0.085	-0.016
-622.405	-38.537	-0.176	0.093
-621.390	-56.114	-0.079	-0.035
-620.376	-200.000	0.022	-0.115
-619.361	316.770	-0.068	-0.128
-618.346	800.000	0.062	-0.249
-617.332	396.139	-0.062	-0.128
-616.317	-200.000	0.020	0.151
-615.303	45.366	0.125	0.115
-614.288	303.431	0.147	0.271
-613.273	57.277	0.253	0.247
-612.259	91.268	-0.206	-0.231
-611.244	-135.293	-0.158	-0.019
-610.230	314.398	-0.152	-0.287
-609.215	-117.966	0.242	-0.043
-608.201	-120.426	-0.376	-0.064
-607.186	-85.773	0.191	0.059
-606.171	205.680	-0.130	0.202
-605.157	128.719	0.227	0.289
-604.142	137.002	0.212	0.277
-603.128	80.768	-0.138	0.149
-602.113	-126.465	-0.256	-0.038
-601.098	-200.000	0.031	-0.163
-600.084	518.139	-0.090	-0.209
-599.069	725.281	-0.108	-0.286
-598.055	-13.231	0.133	-0.086
-597.040	7.210	0.112	0.084
-596.025	121.181	0.144	-0.179
-595.011	232.486	-0.083	0.137
-593.996	-79.952	0.094	-0.032
-592.982	32.046	0.160	0.138
-591.967	-122.519	0.310	-0.050
-590.952	26.961	0.167	0.140
-589.938	800.000	-0.083	-0.295
-588.923	-200.000	0.004	0.185
-587.909	-200.000	0.048	0.224
-586.894	-200.000	0.016	-0.169
-585.879	800.000	0.034	-0.114
-584.865	-61.030	-0.117	-0.049
-583.850	-32.389	0.219	-0.122
-582.836	-185.288	-0.056	0.001
-581.821	-200.000	-0.019	-0.159
-580.806	-200.000	0.067	0.296
-579.792	24.665	0.190	-0.157
-578.777	-13.929	-0.299	0.193
-577.763	-86.349	0.262	-0.080
-576.748	95.941	0.252	0.288
-575.733	189.944	0.131	-0.196
-574.719	338.131	-0.056	-0.109
-573.704	413.679	0.157	0.332
-572.690	-184.442	-0.153	0.002
-571.675	14.437	0.284	-0.221
-570.661	-27.703	0.249	-0.144
-569.646	80.179	-0.262	-0.281
-568.631	-53.657	0.131	-0.059
-567.617	800.000	0.085	-0.339
-566.602	324.519	-0.108	-0.205
-565.588	-28.864	-0.161	0.092
-564.573	-141.366	-0.125	-0.013
-563.558	27.665	0.197	0.165
-562.544	175.908	-0.063	0.091
-561.529	84.891	-0.094	0.102
-560.515	-200.000	-0.032	-0.205
-559.500	662.309	-0.105	-0.270
-558.485	-48.989	0.102	-0.049
-557.471	-200.000	0.034	-0.192
-556.456	-23.968	0.100	0.060
-555.442	566.195	-0.128	-0.308
-554.427	-159.564	0.167	-0.009
-553.412	-75.353	-0.172	0.061
-552.398	-200.000	0.038	0.253
-551.383	-200.000	0.022	0.281
-550.369	-200.000	-0.057	0.292
-549.354	456.644	-0.163	0.360
-548.339	-65.816	0.055	0.022
-547.325	-164.524	0.100	0.005
-546.310	9.520	-0.099	-0.075
-545.296	800.000	-0.108	-0.384
-544.281	800.000	0.030	-0.126
-543.266	205.624	-0.095	0.147
-542.252	-200.000	-0.009	0.113
-541.237	-121.451	-0.388	0.064
-540.223	158.231	0.001	-0.001
-539.208	-13.462	-0.072	-0.047
-538.193	2.757	0.247	0.179
-537.179	-200.000	-0.001	0.184
-536.164	-95.798	-0.297	-0.079
-535.150	-200.000	0.051	0.271
-534.135	77.849	0.176	-0.186
-533.121	-96.184	0.245	-0.065
-532.106	-133.656	0.233	0.029
-531.091	800.000	-0.014	-0.045
-530.077	343.328	0.032	0.062
-529.062	-200.000	-0.018	-0.190
-528.048	-200.000	0.010	0.302
-527.033	-200.000	-0.061	0.390
-526.018	168.968	0.192	0.272
-525.004	-200.000	0.011	-0.087
-523.989	-200.000	-0.014	-0.213
-522.975	-142.750	-0.102	0.010
-521.960	124.461	-0.115	-0.144
-520.945	-71.753	-0.252	0.093
-519.931	135.530	0.031	-0.040
-518.916	190.237	0.077	0.115
-517.902	-64.888	-0.029	-0.012
-516.887	-144.645	0.358	-0.033
-515.872	-130.691	-0.073	0.010
-514.858	338.382	-0.039	0.076
-513.843	-10.937	0.127	-0.083
-512.829	-15.232	-0.283	0.180
-511.814	800.000	0.034	-0.136
-510.799	277.186	-0.154	0.272
-509.785	-36.878	-0.099	-0.053
-508.770	-30.236	-0.071	0.040
-507.756	-97.999	-0.234	-0.060
-506.741	-200.000	0.063	0.280
-505.726	-134.969	-0.438	-0.053
-504.712	-200.000	-0.087	0.388
-503.697	-200.000	0.023	0.240
-502.683	-66.406	0.122	0.048
-501.668	800.000	-0.044	-0.122
-500.653	192.074	0.207	0.311
-499.639	-109.109	0.287	0.061
-498.624	-21.918	0.129	0.078
-497.610	126.068	0.107	-0.135
-496.595	117.285	0.061	-0.075
-495.581	-168.716	0.243	0.009
-494.566	63.242	0.191	0.190
-493.551	-134.848	-0.142	-0.017
-492.537	77.230	0.200	-0.211
-491.522	-47.934	-0.019	-0.009
-490.508	-200.000	-0.070	-0.429
-489.493	11.907	-0.032	0.025
-488.478	-121.573	0.139	-0.023
-487.464	148.887	0.185	0.248
-486.449	-173.318	-0.277	-0.008
-485.435	17.853	0.214	-0.169
-484.420	-200.000	0.012	0.206
-483.405	800.000	-0.039	-0.124
-482.391	-128.471	0.333	-0.047
-481.376	-200.000	-0.013	-0.261
-480.362	800.000	-0.078	-0.241
-479.347	340.174	-0.088	-0.171
-478.332	-100.073	-0.154	-0.038
-477.318	-39.826	-0.502	-0.261
-476.303	-52.125	-0.233	-0.107
-475.289	-74.130	0.297	0.107
-474.274	222.815	-0.096	-0.154
-473.259	-43.785	-0.346	0.173
-472.245	699.233	-0.065	0.169
-471.230	116.963	0.258	0.314
-470.216	238.844	-0.038	-0.063
-469.201	77.478	0.341	0.360
-468.186	232.824	0.112	-0.182
-467.172	163.847	-0.066	0.093
-466.157	-88.203	-0.077	-0.023
-465.143	-111.887	0.073	-0.015
-464.128	-200.000	0.044	-0.403
-463.113	800.000	-0.043	0.146
-462.099	203.950	0.128	0.197
-461.084	-44.383	-0.050	-0.025
-460.070	79.441	-0.031	0.033
-459.055	105.024	-0.117	-0.137
-458.040	75.083	-0.232	0.243
-457.026	-74.195	-0.293	-0.105
-456.011	710.134	0.067	-0.175
-454.997	235.854	-0.041	0.067
-453.982	-80.168	0.082	0.027
-452.968	-106.312	-0.335	0.074
-451.953	132.330	-0.101	-0.129
-450.938	-99.567	0.356	-0.089
-449.924	155.667	-0.038	0.052
-448.909	333.666	-0.120	0.230
-447.895	107.730	0.174	0.206
-446.880	800.000	0.094	0.354
-445.865	238.169	0.135	0.222
-444.851	15.063	0.245	-0.190
-443.836	-34.662	-0.284	-0.154
-442.822	-200.000	-0.187	0.001
-441.807	-63.517	-0.356	0.145
-440.792	521.777	-0.158	-0.368
-439.778	26.333	-0.190	-0.157
-438.763	229.301	0.148	-0.240
-437.749	800.000	0.055	-0.171
-436.734	800.000	-0.154	-0.493
-435.719	221.523	-0.115	0.183
-434.705	9.726	-0.073	0.055
-433.690	155.894	-0.189	0.258
-432.676	-41.881	0.244	-0.124
-431.661	-29.223	-0.027	0.015
-430.646	149.356	0.067	0.090
-429.632	701.381	-0.029	0.076
-428.617	-110.081	-0.134	0.028
-427.603	-173.305	0.238	0.007
-426.588	-79.524	0.173	0.058
-425.573	800.000	0.044	-0.193
-424.559	376.395	-0.057	0.115
-423.544	-200.000	0.012	-0.214
-422.530	276.483	0.146	0.258
-421.515	-110.817	-0.317	0.065
-420.500	188.939	0.073	-0.109
-419.486	53.616	0.108	-0.103
-418.471	800.000	-0.117	0.398
-417.457	-89.323	-0.011	-0.003
-416.442	58.045	-0.201	0.195
-415.428	-200.000	-0.001	-0.205
-414.413	458.019	-0.062	-0.136
-413.398	0.363	0.219	0.155
-412.384	660.934	-0.071	-0.182
-411.369	-6.288	0.161	0.109
-410.355	-19.131	0.110	-0.068
-409.340	-77.623	-0.052	0.018
-408.325	-124.739	0.261	0.040
-407.311	177.403	-0.328	0.474
-406.296	179.904	-0.073	-0.107
-405.282	-200.000	0.011	-0.264
-404.267	-108.837	0.114	-0.024
-403.252	-51.243	-0.023	0.011
-402.238	-200.000	-0.057	-0.259
-401.223	-63.650	-0.282	0.115
-400.209	-48.986	0.235	-0.112
-399.194	-45.874	0.054	0.026
-398.179	-30.150	0.183	-0.103
-397.165	-103.350	0.115	0.027
-396.150	-180.645	-0.320	0.006
-395.136	800.000	0.169	0.470
-394.121	219.605	-0.048	0.075
-393.106	56.970	-0.186	-0.179
-392.092	-200.000	0.054	0.386
-391.077	-200.000	0.001	0.128
-390.063	38.371	-0.105	0.093
-389.048	-200.000	-0.007	0.236
-388.033	-200.000	0.064	0.282
-387.019	-90.823	0.295	0.084
-386.004	22.804	-0.097	0.079
-384.990	-179.923	0.235	0.005
-383.975	-89.313	-0.161	-0.047
-382.960	-200.000	0.013	-0.179
-381.946	11.737	-0.116	0.089
-380.931	189.484	0.104	0.155
-379.917	-98.818	-0.288	0.073
-378.902	23.745	0.106	0.087
-377.888	-118.970	0.290	-0.050
-376.873	-108.923	0.330	0.070
-375.858	-27.137	-0.197	0.114
-374.844	28.969	0.239	0.201
-373.829	61.531	0.170	0.167
-372.815	800.000	-0.028	0.092
-371.800	800.000	-0.036	0.120
-370.785	274.807	-0.004	0.007
-369.771	-80.877	0.204	-0.067
-368.756	-129.233	-0.230	0.032
-367.742	409.803	0.102	0.215
-366.727	-200.000	-0.021	0.408
-365.712	154.488	-0.159	-0.216
-364.698	-138.456	-0.581	-0.063
-363.683	233.649	-0.244	0.397
-362.669	-28.487	0.326	-0.186
-361.654	-71.237	0.317	0.118
-360.639	406.254	-0.077	-0.160
-359.625	800.000	0.113	-0.445
-358.610	-200.000	0.016	-0.158
-357.596	800.000	0.056	-0.231
-356.581	133.948	-0.246	-0.316
-355.566	181.384	-0.140	0.204
-354.552	-91.075	0.458	0.130
-353.537	800.000	0.075	-0.226
-352.523	-48.204	0.114	0.054
-351.508	-81.808	0.357	-0.116
-350.493	-95.611	-0.145	0.038
-349.479	35.765	0.198	0.172
-348.464	800.000	-0.068	-0.189
-347.450	295.077	0.200	0.361
-346.435	-5.893	-0.112	0.076
-345.420	-16.614	-0.293	-0.183
-344.406	82.039	0.093	-0.100
-343.391	-47.468	-0.057	-0.027
-342.377	207.900	0.121	-0.187
-341.362	800.000	0.098	0.278
-340.348	-195.510	0.173	0.001
-339.333	106.106	0.109	-0.127
-338.318	64.496	-0.204	0.203
-337.304	-200.000	0.064	0.291
-336.289	-22.444	-0.045	-0.027
-335.275	158.367	0.169	0.232
-334.260	800.000	-0.069	0.270
-333.245	557.828	0.143	-0.342
-332.231	134.282	0.007	-0.009
-331.216	11.156	-0.170	0.128
-330.202	-68.525	0.089	-0.034
-329.187	126.944	0.211	0.264
-328.172	64.441	-0.176	0.176
-327.158	48.963	-0.277	0.257
-326.143	-145.338	0.302	-0.027
-325.129	-71.223	-0.401	-0.149
-324.114	75.590	-0.177	0.185
-323.099	-63.165	-0.358	-0.146
-322.085	-70.400	0.199	0.075
-321.070	-80.529	0.228	0.075
-320.056	425.468	-0.105	0.222
-319.041	-9.691	-0.384	-0.253
-318.026	-125.848	-0.050	-0.007
-317.012	-26.643	-0.183	-0.106
-315.997	428.554	0.024	0.052
-314.983	-18.413	0.244	0.151
-313.968	-176.677	0.126	0.003
-312.953	800.000	-0.089	-0.274
-311.939	105.679	-0.012	0.014
-310.924	-55.544	-0.168	-0.074
-309.910	762.389	0.109	0.293
-308.895	-102.220	-0.243	-0.058
-307.880	-143.383	0.188	0.018
-306.866	169.818	-0.171	-0.241
-305.851	-87.571	0.304	-0.091
-304.837	800.000	0.017	0.054
-303.822	73.180	-0.039	0.040
-302.807	-200.000	-0.000	0.028
-301.793	-32.099	0.152	-0.084
-300.778	-97.521	-0.257	0.066
-299.764	-58.996	-0.074	-0.032
-298.749	-50.607	0.178	-0.083
-297.735	526.033	0.030	0.069
-296.720	108.134	0.015	0.018
-295.705	26.041	-0.311	-0.256
-294.691	800.000	0.051	-0.142
-293.676	-100.936	0.322	-0.078
-292.662	646.306	0.099	0.251
-291.647	800.000	-0.037	-0.138
-290.632	-190.663	-0.341	-0.004
-289.618	800.000	-0.131	0.455
-288.603	-200.000	-0.005	0.186
-287.589	75.336	-0.214	0.223
-286.574	800.000	0.027	-0.076
-285.559	117.320	0.212	-0.257
-284.545	29.298	-0.035	0.029
-283.530	-96.976	-0.215	0.056
-282.516	-53.843	0.090	0.040
-281.501	-84.572	0.428	-0.133
-280.486	800.000	-0.038	0.160
-279.472	-181.125	-0.117	-0.002
-278.457	-50.600	0.374	-0.174
-277.443	298.441	-0.081	0.146
-276.428	9.210	0.059	0.044
-275.413	-127.319	-0.265	0.038
-274.399	15.816	0.199	-0.154
-273.384	-200.000	0.008	-0.209
-272.370	-192.849	-0.345	0.003
-271.355	244.437	-0.117	-0.193
-270.340	800.000	-0.012	-0.038
-269.326	-200.000	0.007	0.065
-268.311	-191.910	0.389	-0.004
-267.297	-173.400	0.097	0.003
-266.282	-150.868	-0.184	0.014
-265.267	800.000	-0.025	0.106
-264.253	-89.090	-0.509	-0.148
-263.238	-145.944	0.279	0.024
-262.224	566.630	-0.072	-0.171
-261.209	-200.000	0.049	-0.274
-260.195	123.150	-0.219	-0.270
-259.180	32.588	-0.262	-0.224
-258.165	142.003	0.184	-0.241
-257.151	-105.153	-0.101	-0.023
-256.136	43.588	0.224	-0.202
-255.122	568.988	0.095	0.228
-254.107	300.787	0.035	0.063
-253.092	-200.000	0.014	-0.112
-252.078	-5.516	0.246	-0.166
-251.063	269.307	-0.137	0.237
-250.049	2.057	-0.173	-0.123
-249.034	157.666	-0.106	0.144
-248.019	46.865	0.100	-0.092
-247.005	-200.000	-0.031	-0.144
-245.990	243.216	0.204	-0.337
-244.976	-58.310	-0.158	-0.068
-243.961	800.000	-0.059	-0.241
-242.946	1.701	0.083	-0.059
-241.932	335.885	0.023	-0.044
-240.917	86.044	0.019	-0.020
-239.903	200.938	0.034	0.051
-238.888	-65.981	0.248	0.098
-237.873	22.561	-0.152	0.122
-236.859	-35.618	0.123	-0.065
-235.844	-200.000	0.124	0.000
-234.830	-115.865	-0.248	0.046
-233.815	-200.000	-0.032	0.181
-232.800	-200.000	-0.013	0.403
-231.786	124.977	-0.152	0.188
-230.771	-128.931	0.264	0.036
-229.757	538.106	-0.109	0.255
-228.742	-26.007	-0.139	-0.080
-227.727	442.765	-0.054	-0.116
-226.713	-145.659	-0.330	-0.029
-225.698	-58.423	-0.189	0.081
-224.684	-200.000	0.054	0.251
-223.669	58.446	0.106	0.102
-222.655	-95.314	0.175	0.046
-221.640	-200.000	-0.007	-0.041
-220.625	-113.741	0.009	0.002
-219.611	-200.000	-0.006	0.219
-218.596	-157.597	0.090	-0.005
-217.582	-161.706	-0.126	0.006
-216.567	-200.000	0.040	0.208
-215.552	-102.434	0.252	0.059
-214.538	364.896	-0.313	-0.620
-213.523	-200.000	-0.003	0.295
-212.509	359.725	0.137	0.269
-211.494	91.362	-0.052	0.057
-210.479	-153.852	-0.149	0.010
-209.465	800.000	-0.021	-0.088
-208.450	122.737	0.142	0.175
-207.436	-88.340	0.073	0.021
-206.421	463.008	-0.040	-0.089
-205.406	93.115	-0.217	-0.241
-204.392	421.056	0.067	-0.142
-203.377	-52.550	0.261	-0.119
-202.363	33.092	0.028	-0.024
-201.348	56.335	0.278	0.265
-200.333	261.963	-0.100	0.170
-199.319	90.903	0.197	-0.217
-198.304	124.070	-0.108	-0.133
-197.290	79.131	0.073	0.077
-196.275	2.485	-0.180	0.128
-195.260	12.153	-0.266	0.201
-194.246	-127.504	-0.210	0.030
-193.231	30.199	0.263	-0.221
-192.217	180.654	0.263	-0.379
-191.202	-163.657	-0.124	0.006
-190.187	-46.762	0.108	-0.052
-189.173	178.264	-0.040	-0.057
-188.158	9.742	-0.024	-0.018
-187.144	-90.608	-0.225	0.064
-186.129	-66.661	0.318	-0.124
-185.114	-74.153	0.278	-0.099
-184.100	5.901	0.181	-0.131
-183.085	-65.456	-0.127	0.050
-182.071	14.776	-0.133	0.102
-181.056	-69.956	0.125	0.047
-180.042	-79.265	-0.273	-0.091
-179.027	-48.741	-0.116	0.055
-178.012	-166.203	-0.144	0.006
-176.998	-189.018	0.103	-0.001
-175.983	7.181	0.146	-0.107
-174.969	800.000	-0.052	-0.181
-173.954	-12.220	-0.160	-0.103
-172.939	-200.000	-0.045	-0.225
-171.925	-157.737	-0.161	0.009
-170.910	-0.620	-0.064	0.045
-169.896	-39.033	-0.040	-0.021
-168.881	800.000	0.119	-0.334
-167.866	-200.000	0.001	0.088
-166.852	-27.531	0.391	0.223
-165.837	-73.542	0.087	0.031
-164.823	-85.917	-0.212	0.064
-163.808	800.000	-0.061	0.199
-162.793	-56.113	0.201	-0.088
-161.779	-127.838	0.323	-0.046
-160.764	-0.211	0.309	-0.216
-159.750	59.534	0.221	-0.214
-158.735	-200.000	-0.032	-0.144
-157.720	-82.271	-0.105	-0.034
-156.706	-146.943	0.292	-0.025
-155.691	98.654	-0.159	0.180
-154.677	4.529	-0.294	-0.212
-153.662	-9.737	0.159	0.104
-152.647	41.123	0.080	-0.071
-151.633	165.854	0.146	-0.203
-150.618	-200.000	0.016	0.076
-149.604	621.448	0.085	-0.210
-148.589	-77.833	-0.128	0.043
-147.574	-48.828	-0.078	-0.037
-146.560	-200.000	0.012	-0.266
-145.545	18.999	0.127	-0.100
-144.531	-200.000	-0.041	-0.201
-143.516	-97.853	0.459	0.116
-142.502	-200.000	-0.006	0.248
-141.487	800.000	-0.137	0.381
-140.472	18.819	-0.356	-0.280
-139.458	-46.800	0.326	0.156
-138.443	305.902	-0.123	0.225
-137.429	429.143	0.051	-0.107
-136.414	295.662	0.073	0.131
-135.399	193.352	-0.143	-0.212
-134.385	-67.159	0.246	-0.095
-133.370	148.621	-0.172	0.228
-132.356	800.000	0.068	-0.234
-131.341	-200.000	-0.028	0.225
-130.326	84.486	-0.140	0.150
-129.312	65.441	0.099	0.098
-128.297	108.147	-0.119	-0.139
-127.283	663.227	-0.044	-0.112
-126.268	-106.179	0.193	0.042
-125.253	226.125	-0.176	0.281
-124.239	-200.000	0.007	0.078
-123.224	-151.640	0.153	0.011
-122.210	-120.282	-0.233	0.039
-121.195	173.072	0.124	0.175
