DTS Sentinel unit serial number:	SN413079Multiplexer serial number:	ORYXHardware model number:	OX4-SRSoftware version number:	ORYX F/W v4.00 Oryx Data Collector v3.7.2.0data status	okinstallation	princeton_trtdifferential loss correction	single-endedforward channel	channel 2reverse channel	N/Adate	2019/09/16time	03:43:35forward acquisition time	60.00reverse acquisition time	0.00gamma	496.2192k internal	0.2334k external	0.2334temperature offset calibration	0.9974default loss term (dB/km)	0.3790temperature slope calibration	1.0000multiplexer offset coefficient	1.0000multiplexer slope coefficient	1.0000fibre end	0.00T internal ref (°C)	27.56T ext. ref 1 (°C)	10.62T ext. ref 2 (°C)	21.69length (m)	temperature (°C)	Stokes	anti-Stokes-747.200	-14.733	0.202	0.130
-746.185	-200.000	0.060	0.425
-745.171	-176.209	-0.288	-0.008
-744.156	-200.000	-0.031	0.498
-743.142	98.676	0.139	0.161
-742.127	-200.000	-0.062	0.573
-741.112	-88.627	-0.196	-0.058
-740.098	376.006	0.035	0.071
-739.083	-27.485	0.323	-0.189
-738.069	-85.463	-0.211	0.066
-737.054	-44.526	-0.259	-0.130
-736.039	-200.000	0.048	0.230
-735.025	-200.000	0.055	0.399
-734.010	-200.000	-0.002	0.106
-732.996	-76.443	0.158	0.056
-731.981	177.254	0.087	-0.128
-730.966	206.421	-0.158	-0.247
-729.952	800.000	0.018	0.081
-728.937	-184.783	-0.230	0.004
-727.923	800.000	-0.042	0.158
-726.908	-108.358	0.283	0.061
-725.894	-160.034	-0.362	-0.020
-724.879	-46.572	-0.308	0.152
-723.864	110.181	-0.097	-0.117
-722.850	-151.984	-0.429	0.031
-721.835	-24.736	0.101	0.060
-720.821	-200.000	0.061	-0.353
-719.806	-44.817	-0.363	0.182
-718.791	-26.460	-0.099	-0.058
-717.777	81.242	-0.266	-0.288
-716.762	102.849	-0.076	-0.089
-715.748	-39.736	0.353	-0.185
-714.733	-120.799	0.133	-0.023
-713.718	800.000	-0.064	-0.237
-712.704	278.893	0.150	-0.269
-711.689	-2.851	-0.210	-0.148
-710.675	-74.135	-0.164	-0.060
-709.660	-200.000	0.027	0.177
-708.645	-200.000	-0.003	0.155
-707.631	-167.470	-0.364	-0.015
-706.616	229.987	0.124	-0.204
-705.602	-10.389	0.225	-0.150
-704.587	85.924	0.148	0.164
-703.572	-20.619	0.283	0.174
-702.558	-6.677	0.095	-0.065
-701.543	-200.000	-0.040	-0.216
-700.529	29.645	0.239	-0.204
-699.514	696.960	-0.109	0.287
-698.499	800.000	-0.044	-0.179
-697.485	141.596	-0.133	0.177
-696.470	800.000	0.091	0.341
-695.456	235.154	-0.046	-0.076
-694.441	-80.808	-0.297	0.099
-693.426	499.447	-0.096	-0.222
-692.412	9.595	0.080	0.061
-691.397	-106.511	0.142	-0.032
-690.383	-200.000	-0.005	-0.295
-689.368	-98.279	0.437	-0.113
-688.354	800.000	-0.083	-0.259
-687.339	-200.000	-0.008	0.077
-686.324	-10.947	-0.285	-0.189
-685.310	354.387	-0.233	0.465
-684.295	-28.140	0.205	0.119
-683.281	534.847	0.039	-0.093
-682.266	-119.329	-0.165	0.029
-681.251	119.818	-0.110	-0.137
-680.237	-60.618	-0.231	-0.098
-679.222	-196.419	0.095	0.001
-678.208	-4.114	0.337	-0.234
-677.193	800.000	0.163	-0.474
-676.178	-81.047	0.163	-0.054
-675.164	573.502	0.070	-0.171
-674.149	-4.007	0.079	-0.055
-673.135	-54.711	-0.077	0.035
-672.120	95.369	0.321	-0.367
-671.105	-200.000	0.056	0.373
-670.091	-19.533	0.122	-0.076
-669.076	-200.000	-0.041	-0.366
-668.062	-200.000	0.005	0.352
-667.047	317.069	-0.120	0.227
-666.032	-69.157	-0.320	0.123
-665.018	-33.033	-0.176	0.098
-664.003	800.000	-0.068	0.289
-662.989	20.016	-0.085	0.068
-661.974	-80.209	-0.217	-0.073
-660.959	83.388	0.267	0.292
-659.945	-46.999	0.118	-0.058
-658.930	213.222	-0.155	-0.245
-657.916	-79.680	-0.238	-0.080
-656.901	-200.000	-0.055	0.267
-655.886	-89.745	-0.032	0.009
-654.872	25.493	-0.146	0.122
-653.857	-22.324	-0.358	0.217
-652.843	145.039	0.129	-0.173
-651.828	800.000	-0.095	-0.386
-650.814	85.440	-0.058	-0.064
-649.799	-132.571	0.046	-0.006
-648.784	-152.509	0.176	0.013
-647.770	800.000	0.071	-0.260
-646.755	800.000	-0.082	-0.246
-645.741	-148.543	-0.171	-0.014
-644.726	309.319	-0.179	0.336
-643.711	800.000	-0.113	-0.345
-642.697	-139.447	0.373	-0.040
-641.682	-200.000	-0.024	-0.529
-640.668	-200.000	0.007	-0.118
-639.653	-63.085	0.163	0.067
-638.638	100.645	0.155	0.180
-637.624	-87.452	0.031	-0.009
-636.609	-200.000	0.018	0.240
-635.595	-18.021	0.077	0.048
-634.580	122.309	-0.067	-0.084
-633.565	225.571	-0.048	0.078
-632.551	560.074	-0.153	-0.371
-631.536	66.988	-0.240	-0.245
-630.522	18.414	-0.241	-0.193
-629.507	13.513	0.288	-0.224
-628.492	206.969	0.095	-0.148
-627.478	371.433	-0.045	-0.091
-626.463	-33.502	-0.342	-0.189
-625.449	437.050	-0.097	0.212
-624.434	83.704	0.044	0.048
-623.419	390.903	-0.214	-0.444
-622.405	-180.971	-0.224	0.005
-621.390	-28.176	-0.263	0.152
-620.376	-31.372	-0.261	-0.147
-619.361	130.208	-0.098	-0.125
-618.346	-151.418	-0.130	0.010
-617.332	161.090	0.021	-0.030
-616.317	-186.347	0.336	-0.005
-615.303	-200.000	0.023	-0.211
-614.288	52.093	-0.067	0.064
-613.273	-169.480	0.373	0.014
-612.259	59.755	0.148	0.146
-611.244	420.736	-0.210	0.450
-610.230	-46.334	-0.047	-0.023
-609.215	-178.243	-0.075	0.002
-608.201	-200.000	-0.025	0.228
-607.186	800.000	-0.089	0.330
-606.171	-35.098	0.198	0.108
-605.157	102.066	-0.132	-0.154
-604.142	-16.353	-0.388	-0.246
-603.128	-200.000	0.020	0.176
-602.113	204.136	-0.164	0.254
-601.098	198.131	0.199	-0.304
-600.084	-79.736	-0.121	-0.041
-599.069	-21.979	0.325	-0.197
-598.055	338.942	-0.224	0.436
-597.040	-161.796	-0.122	0.006
-596.025	-64.641	-0.212	0.086
-595.011	125.119	0.173	-0.218
-593.996	270.548	-0.120	0.210
-592.982	800.000	-0.044	0.170
-591.967	-200.000	0.057	0.262
-590.952	360.680	-0.140	-0.279
-589.938	591.831	0.148	-0.365
-588.923	-188.968	-0.125	-0.002
-587.909	800.000	-0.045	0.193
-586.894	-93.729	-0.337	0.093
-585.879	-10.613	-0.259	0.171
-584.865	105.478	-0.245	0.290
-583.850	-110.616	0.211	0.044
-582.836	-81.864	0.289	-0.094
-581.821	0.803	0.267	-0.191
-580.806	41.096	0.139	-0.125
-579.792	86.517	0.143	-0.157
-578.777	77.144	-0.213	0.226
-577.763	-133.509	-0.082	0.010
-576.748	102.122	0.019	-0.023
-575.733	-200.000	-0.012	-0.073
-574.719	800.000	0.059	0.205
-573.704	401.591	0.075	0.156
-572.690	-91.912	-0.393	-0.111
-571.675	180.290	-0.119	-0.174
-570.661	-67.492	0.076	-0.030
-569.646	-142.472	0.212	0.021
-568.631	-147.646	-0.132	0.011
-567.617	161.689	0.133	-0.186
-566.602	425.653	0.037	-0.079
-565.588	-109.363	-0.181	-0.038
-564.573	559.766	0.109	0.264
-563.558	-120.502	0.147	-0.025
-562.544	-6.784	-0.156	0.106
-561.529	-106.256	-0.320	-0.071
-560.515	140.414	-0.091	-0.120
-559.500	800.000	0.048	-0.169
-558.485	-47.893	-0.211	-0.102
-557.471	518.655	0.123	-0.288
-556.456	-157.546	0.144	-0.009
-555.442	-200.000	-0.054	-0.285
-554.427	13.543	0.204	0.158
-553.412	-200.000	-0.074	-0.388
-552.398	-126.699	0.173	-0.026
-551.383	501.240	0.077	0.178
-550.369	149.031	0.060	0.080
-549.354	-94.816	0.138	-0.037
-548.339	-56.562	0.208	0.092
-547.325	800.000	-0.064	-0.195
-546.310	-90.046	0.277	-0.080
-545.296	-58.280	-0.170	-0.074
-544.281	31.861	0.146	-0.125
-543.266	53.480	0.150	0.144
-542.252	-18.623	-0.123	-0.077
-541.237	-134.242	0.285	0.035
-540.223	715.180	-0.020	0.052
-539.208	56.114	-0.272	0.263
-538.193	-12.652	0.240	-0.156
-537.179	-200.000	0.029	0.284
-536.164	-186.986	0.278	0.004
-535.150	-13.660	-0.092	-0.059
-534.135	224.593	-0.052	0.083
-533.121	-38.610	-0.153	0.081
-532.106	-160.574	0.246	-0.013
-531.091	-101.214	0.436	0.106
-530.077	-13.773	-0.246	0.158
-529.062	-10.980	0.123	0.081
-528.048	-77.710	-0.281	-0.097
-527.033	138.977	0.356	0.466
-526.018	50.345	-0.241	-0.227
-525.004	526.711	0.139	0.326
-523.989	-200.000	0.006	-0.241
-522.975	800.000	-0.069	0.295
-521.960	-114.912	-0.329	-0.063
-520.945	-4.308	-0.101	-0.070
-519.931	162.261	-0.194	0.271
-518.916	118.622	0.099	-0.122
-517.902	-90.903	-0.090	0.026
-516.887	-30.334	0.105	0.059
-515.872	-200.000	0.064	-0.332
-514.858	96.640	-0.045	-0.052
-513.843	502.335	0.027	-0.061
-512.829	-200.000	0.027	0.166
-511.814	-162.910	-0.154	-0.007
-510.799	-130.220	0.049	-0.007
-509.785	-200.000	-0.008	-0.154
-508.770	60.303	0.142	0.140
-507.756	-91.051	-0.228	0.065
-506.741	15.156	0.197	-0.153
-505.726	80.777	0.145	0.156
-504.712	400.446	0.083	0.174
-503.697	107.139	0.063	0.074
-502.683	180.305	-0.146	0.213
-501.668	-167.232	0.117	0.005
-500.653	26.048	0.299	-0.248
-499.639	-9.175	0.144	-0.096
-498.624	-47.011	0.185	0.090
-497.610	-24.663	-0.196	-0.116
-496.595	-200.000	0.018	-0.139
-495.581	-200.000	-0.051	-0.227
-494.566	139.111	-0.073	-0.096
-493.551	163.868	-0.127	0.178
-492.537	-52.771	0.149	0.068
-491.522	-84.980	0.397	-0.124
-490.508	5.214	-0.141	-0.103
-489.493	-200.000	-0.004	0.146
-488.478	-28.579	0.204	0.117
-487.464	-112.181	0.118	-0.024
-486.449	-113.115	0.065	-0.013
-485.435	527.446	0.062	0.146
-484.420	54.418	-0.101	0.097
-483.405	125.726	0.178	0.224
-482.391	800.000	0.048	-0.183
-481.376	-8.479	0.382	0.256
-480.362	-6.470	-0.196	-0.133
-479.347	-3.238	-0.314	0.217
-478.332	800.000	0.059	-0.180
-477.318	140.115	-0.119	-0.156
-476.303	16.560	0.150	-0.118
-475.289	93.281	-0.105	-0.118
-474.274	-43.186	-0.150	-0.076
-473.259	-146.378	0.273	0.024
-472.245	800.000	-0.056	-0.183
-471.230	13.416	0.220	-0.169
-470.216	146.843	0.187	0.250
-469.201	-1.548	0.277	-0.194
-468.186	-200.000	0.051	-0.304
-467.172	-0.689	-0.302	0.213
-466.157	61.684	0.072	0.071
-465.143	155.499	0.099	-0.136
-464.128	-17.364	-0.164	-0.103
-463.113	800.000	-0.032	-0.106
-462.099	800.000	0.025	0.104
-461.084	-137.263	0.454	0.051
-460.070	-138.054	-0.224	0.025
-459.055	-69.306	-0.171	-0.065
-458.040	-75.196	-0.150	-0.053
-457.026	800.000	0.031	-0.091
-456.011	-55.268	0.150	-0.067
-454.997	-124.230	0.184	0.029
-453.982	-200.000	-0.023	-0.163
-452.968	-48.919	0.062	0.030
-451.953	800.000	0.056	0.213
-450.938	800.000	-0.100	-0.360
-449.924	145.652	0.162	0.216
-448.909	-193.672	-0.312	0.003
-447.895	-200.000	0.007	0.193
-446.880	-135.661	0.127	-0.015
-445.865	-200.000	-0.026	0.267
-444.851	-200.000	0.004	0.029
-443.836	-200.000	-0.004	0.231
-442.822	800.000	0.060	-0.205
-441.807	-1.911	-0.146	0.102
-440.792	-161.899	-0.206	0.010
-439.778	-29.468	0.328	0.186
-438.763	23.402	0.132	-0.108
-437.749	269.888	-0.207	0.361
-436.734	232.042	-0.221	0.360
-435.719	91.723	0.287	-0.321
-434.705	-200.000	-0.002	-0.220
-433.690	-151.789	-0.087	-0.006
-432.676	-167.468	0.108	0.004
-431.661	298.574	-0.030	-0.054
-430.646	-200.000	0.064	-0.464
-429.632	-114.113	0.045	-0.009
-428.617	162.930	-0.206	0.288
-427.603	131.972	0.157	-0.201
-426.588	-48.574	-0.263	0.125
-425.573	0.534	0.189	0.134
-424.559	-75.839	0.185	-0.065
-423.544	-62.643	-0.272	0.112
-422.530	-200.000	0.038	0.283
-421.515	128.778	0.113	-0.143
-420.500	45.348	-0.066	0.061
-419.486	-173.038	0.128	0.004
-418.471	-14.055	0.355	0.227
-417.457	122.482	-0.191	0.237
-416.442	-200.000	-0.004	0.075
-415.428	-200.000	0.001	0.047
-414.413	-71.248	0.278	-0.103
-413.398	212.878	-0.068	-0.107
-412.384	-122.800	0.166	0.027
-411.369	800.000	-0.049	0.171
-410.355	-84.950	0.240	0.075
-409.340	-111.391	-0.183	0.037
-408.325	800.000	-0.026	0.111
-407.311	216.973	0.057	0.090
-406.296	-177.030	0.154	0.004
-405.282	-200.000	-0.004	-0.114
-404.267	108.208	0.188	0.223
-403.252	36.252	0.182	0.159
-402.238	285.978	0.054	0.096
-401.223	31.929	-0.164	-0.140
-400.209	-200.000	0.044	0.411
-399.194	308.302	0.223	-0.413
-398.179	-12.999	-0.159	-0.103
-397.165	-200.000	0.017	0.422
-396.150	-113.600	0.193	-0.037
-395.136	97.681	-0.113	-0.129
-394.121	43.131	0.090	0.081
-393.106	-128.105	-0.147	0.021
-392.092	593.253	-0.119	0.291
-391.077	-200.000	-0.027	0.305
-390.063	-73.905	-0.167	0.060
-389.048	-80.097	0.060	0.020
-388.033	279.286	-0.006	-0.011
-387.019	-200.000	0.003	-0.147
-386.004	34.810	0.016	0.014
-384.990	97.494	0.153	-0.175
-383.975	-170.392	-0.320	0.011
-382.960	-73.090	0.175	-0.063
-381.946	45.310	-0.016	-0.015
-380.931	63.322	-0.119	-0.119
-379.917	800.000	0.026	-0.081
-378.902	-200.000	-0.004	-0.119
-377.888	65.739	0.316	-0.317
-376.873	-149.818	-0.206	-0.016
-375.858	50.489	-0.207	0.194
-374.844	349.041	-0.250	-0.488
-373.829	459.320	0.159	-0.350
-372.815	273.759	-0.025	0.044
-371.800	164.140	0.158	0.221
-370.785	-115.598	-0.144	-0.027
-369.771	-114.610	0.170	-0.032
-368.756	-200.000	0.041	0.275
-367.742	800.000	0.026	-0.076
-366.727	-146.792	0.248	-0.021
-365.712	-119.584	0.381	-0.065
-364.698	-200.000	0.058	0.255
-363.683	109.944	-0.131	-0.156
-362.669	-200.000	0.031	0.278
-361.654	-200.000	-0.018	-0.096
-360.639	24.046	0.190	-0.155
-359.625	-108.653	-0.518	-0.110
-358.610	-85.947	0.065	-0.020
-357.596	463.247	-0.071	0.156
-356.581	9.060	0.132	0.099
-355.566	-1.111	0.229	0.160
-354.552	179.945	-0.138	-0.200
-353.537	-200.000	-0.027	-0.322
-352.523	800.000	-0.051	-0.142
-351.508	70.990	0.031	0.031
-350.493	800.000	0.116	-0.323
-349.479	-27.323	0.176	-0.102
-348.464	444.011	-0.132	0.286
-347.450	-99.921	-0.085	0.021
-346.435	91.564	-0.186	-0.207
-345.420	-200.000	-0.008	0.034
-344.406	-128.042	0.328	0.047
-343.391	571.410	0.016	-0.038
-342.377	231.798	-0.117	-0.190
-341.362	459.200	-0.101	0.221
-340.348	-173.508	0.118	-0.004
-339.333	-29.386	-0.086	0.049
-338.318	150.087	0.116	0.156
-337.304	800.000	-0.047	-0.174
-336.289	-15.486	0.151	-0.096
-335.275	439.647	-0.237	0.512
-334.260	-157.271	0.157	0.009
-333.245	-98.681	-0.335	0.084
-332.231	-129.175	0.123	0.017
-331.216	-9.257	0.165	0.109
-330.202	-98.072	-0.332	0.084
-329.187	-33.646	0.149	-0.081
-328.172	-97.857	-0.160	-0.041
-327.158	35.238	-0.136	-0.118
-326.143	306.292	-0.181	-0.333
-325.129	-55.548	-0.113	0.050
-324.114	-75.913	0.132	0.046
-323.099	-148.685	0.219	0.018
-322.085	22.524	0.036	0.029
-321.070	-4.510	0.152	-0.104
-320.056	148.306	0.035	0.047
-319.041	-200.000	-0.005	-0.144
-318.026	-58.122	0.324	-0.139
-317.012	280.630	-0.177	-0.313
-315.997	-200.000	0.028	-0.147
-314.983	800.000	-0.047	0.134
-313.968	-61.645	0.281	-0.116
-312.953	800.000	-0.077	0.229
-311.939	81.889	0.324	0.347
-310.924	-62.080	0.054	0.022
-309.910	-71.893	0.133	-0.049
-308.895	19.029	0.241	0.191
-307.880	31.992	-0.226	-0.193
-306.866	-54.928	-0.221	0.098
-305.851	-200.000	-0.041	0.273
-304.837	-124.857	-0.313	0.048
-303.822	-200.000	-0.013	-0.075
-302.807	53.534	-0.044	-0.041
-301.793	-99.793	0.287	-0.071
-300.778	545.742	-0.100	-0.236
-299.764	-79.937	0.250	-0.083
-298.749	270.452	0.087	-0.152
-297.735	-167.359	0.558	0.022
-296.720	-200.000	-0.008	0.220
-295.705	57.499	0.212	0.204
-294.691	-96.040	0.436	-0.114
-293.676	800.000	0.078	0.315
-292.662	800.000	0.054	-0.175
-291.647	-200.000	0.026	0.190
-290.632	-200.000	0.007	0.253
-289.618	-128.160	-0.144	-0.020
-288.603	-73.747	0.189	0.068
-287.589	-155.567	-0.193	-0.012
-286.574	32.025	0.184	-0.156
-285.559	-18.298	-0.011	0.007
-284.545	-200.000	0.028	-0.144
-283.530	87.610	-0.042	0.046
-282.516	-200.000	-0.042	-0.302
-281.501	-53.723	0.033	-0.015
-280.486	800.000	0.033	-0.096
-279.472	-200.000	0.039	-0.263
-278.457	-57.251	-0.279	-0.121
-277.443	-72.170	-0.386	0.141
-276.428	103.134	0.173	-0.200
-275.413	9.902	-0.250	-0.187
-274.399	-200.000	-0.009	-0.094
-273.384	37.808	-0.065	-0.057
-272.370	-200.000	0.052	-0.285
-271.355	78.985	-0.178	-0.188
-270.340	1.874	-0.106	-0.076
-269.326	196.700	0.028	-0.043
-268.311	-57.410	-0.258	0.112
-267.297	532.479	0.114	0.266
-266.282	-82.283	0.130	0.042
-265.267	-200.000	0.018	-0.098
-264.253	-168.029	-0.042	0.002
-263.238	697.299	0.109	-0.281
-262.224	84.122	0.319	0.344
-261.209	-84.087	-0.144	0.045
-260.195	150.656	-0.053	0.071
-259.180	254.718	-0.006	0.010
-258.165	-200.000	-0.046	-0.408
-257.151	-200.000	-0.027	0.164
-256.136	-107.627	-0.256	0.055
-255.122	43.826	-0.151	0.136
-254.107	431.925	-0.085	0.182
-253.092	-33.395	-0.291	0.159
-252.078	-117.145	-0.170	-0.031
-251.063	-158.553	0.212	0.012
-250.049	-57.702	-0.311	-0.134
-249.034	-81.577	-0.083	0.027
-248.019	109.006	-0.152	-0.179
-247.005	800.000	0.172	-0.536
-245.990	481.852	0.114	-0.256
-244.976	800.000	0.062	0.261
-243.961	-9.300	-0.182	0.120
-242.946	24.196	0.102	-0.083
-241.932	-28.322	-0.199	0.113
-240.917	-200.000	-0.006	-0.137
-239.903	13.060	-0.378	0.288
-238.888	-98.162	0.166	0.042
-237.873	88.457	-0.179	0.196
-236.859	-137.074	-0.550	-0.062
-235.844	239.954	0.006	-0.009
-234.830	-200.000	-0.034	-0.188
-233.815	124.413	0.119	0.147
-232.800	92.960	0.151	0.168
-231.786	100.426	0.040	0.045
-230.771	32.477	0.030	-0.025
-229.757	-110.369	-0.090	-0.018
-228.742	-153.996	0.181	-0.012
-227.727	-151.809	-0.242	0.017
-226.713	-21.662	0.178	-0.107
-225.698	-114.243	0.444	0.084
-224.684	-200.000	0.019	0.141
-223.669	800.000	0.182	0.525
-222.655	-6.765	-0.235	0.157
-221.640	-200.000	-0.036	0.194
-220.625	24.081	-0.183	0.149
-219.611	81.438	-0.082	-0.087
-218.596	-118.868	0.181	-0.031
-217.582	11.973	0.225	0.170
-216.567	-146.184	-0.383	0.033
-215.552	-94.606	-0.215	-0.057
-214.538	-105.524	-0.126	0.028
-213.523	-200.000	-0.008	0.043
-212.509	0.652	-0.278	-0.196
-211.494	64.062	0.173	-0.172
-210.479	145.778	0.208	0.275
-209.465	-200.000	-0.044	0.372
-208.450	-2.571	-0.177	-0.122
-207.436	-112.175	-0.162	0.032
-206.421	-200.000	0.011	-0.277
-205.406	800.000	-0.143	0.503
-204.392	64.118	-0.123	-0.122
-203.377	706.976	0.057	-0.148
-202.363	41.377	0.105	0.094
-201.348	157.991	0.115	-0.157
-200.333	187.643	-0.106	0.156
-199.319	-1.490	0.256	-0.178
-198.304	118.275	-0.062	0.076
-197.290	-200.000	-0.072	-0.356
-196.275	11.221	-0.280	0.211
-195.260	-79.856	-0.385	0.127
-194.246	-85.795	-0.066	-0.020
-193.231	-23.318	-0.312	-0.185
-192.217	800.000	-0.052	0.214
-191.202	-200.000	0.001	0.088
-190.187	-13.209	0.112	-0.071
-189.173	800.000	-0.065	0.252
-188.158	-49.804	-0.371	-0.173
-187.144	441.241	0.156	0.336
-186.129	82.297	-0.162	-0.173
-185.114	-51.524	0.255	0.117
-184.100	-182.331	-0.068	0.001
-183.085	800.000	0.089	0.284
-182.071	800.000	-0.118	0.447
-181.056	-200.000	0.008	-0.062
-180.042	800.000	0.112	-0.306
-179.027	-55.309	0.158	-0.070
-178.012	72.209	0.130	0.134
-176.998	251.592	0.074	0.123
-175.983	-131.162	0.066	0.009
-174.969	129.690	0.048	0.060
-173.954	97.514	-0.101	0.114
-172.939	800.000	0.022	-0.074
-171.925	800.000	-0.058	0.182
-170.910	-8.800	-0.082	0.054
-169.896	-200.000	-0.029	-0.399
-168.881	120.475	-0.351	0.429
-167.866	-25.161	0.128	-0.075
-166.852	0.794	0.235	0.166
-165.837	-31.594	-0.336	-0.186
-164.823	-73.008	0.139	-0.050
-163.808	135.409	-0.170	0.217
-162.793	-200.000	0.048	-0.278
-161.779	-105.370	-0.224	-0.050
-160.764	233.071	0.027	0.044
-159.750	243.594	0.123	-0.202
-158.735	441.733	-0.054	0.116
-157.720	-13.306	-0.127	-0.081
-156.706	-200.000	0.065	-0.283
-155.691	-196.009	0.314	-0.002
-154.677	-19.111	0.139	-0.085
-153.662	800.000	-0.057	-0.173
-152.647	-38.553	-0.055	0.028
-151.633	88.615	-0.147	-0.161
-150.618	-192.146	-0.107	0.001
-149.604	-200.000	0.004	-0.172
-148.589	20.958	-0.119	-0.095
-147.574	594.433	0.109	0.265
-146.560	9.435	0.111	0.083
-145.545	-4.742	0.261	0.177
-144.531	-72.784	-0.521	-0.188
-143.516	-134.139	-0.291	0.035
-142.502	-6.438	-0.265	-0.177
-141.487	-200.000	-0.008	0.160
-140.472	-21.345	0.032	-0.019
-139.458	-62.732	0.141	-0.057
-138.443	-89.619	0.339	0.098
-137.429	-53.583	0.266	0.120
-136.414	-200.000	-0.015	0.128
-135.399	-86.621	0.034	0.010
-134.385	515.794	-0.098	-0.224
-133.370	83.510	0.228	0.244
-132.356	-10.366	0.004	-0.003
-131.341	-122.285	-0.178	0.029
-130.326	-67.417	0.108	0.042
-129.312	-200.000	-0.037	-0.183
-128.297	-147.521	0.305	-0.025
-127.283	800.000	0.103	-0.370
-126.268	271.715	-0.023	-0.040
-125.253	279.682	0.146	0.255
-124.239	398.552	-0.130	-0.268
-123.224	-200.000	-0.070	-0.365
-122.210	-99.884	0.277	-0.068
-121.195	379.189	-0.082	0.164
