DTS Sentinel unit serial number:	SN413079Multiplexer serial number:	ORYXHardware model number:	OX4-SRSoftware version number:	ORYX F/W v4.00 Oryx Data Collector v3.7.2.0data status	okinstallation	princeton_trtdifferential loss correction	single-endedforward channel	channel 2reverse channel	N/Adate	2019/09/11time	05:01:11forward acquisition time	60.00reverse acquisition time	0.00gamma	496.2192k internal	0.2330k external	0.2330temperature offset calibration	0.9938default loss term (dB/km)	0.3790temperature slope calibration	1.0000multiplexer offset coefficient	1.0000multiplexer slope coefficient	1.0000fibre end	0.00T internal ref (°C)	29.50T ext. ref 1 (°C)	-0.27T ext. ref 2 (°C)	23.25length (m)	temperature (°C)	Stokes	anti-Stokes-747.200	-200.000	0.005	0.094
-746.185	160.448	0.134	0.188
-745.171	-200.000	0.008	-0.052
-744.156	373.559	-0.121	0.248
-743.142	59.801	0.045	-0.045
-742.127	-115.831	0.236	-0.044
-741.112	800.000	0.020	0.061
-740.098	327.838	0.060	0.115
-739.083	111.577	-0.105	-0.128
-738.069	-68.267	0.143	0.056
-737.054	-39.288	0.154	-0.081
-736.039	56.981	-0.166	-0.163
-735.025	689.926	0.148	0.389
-734.010	-1.931	0.089	-0.063
-732.996	-151.355	-0.241	-0.018
-731.981	219.591	0.230	0.370
-730.966	-200.000	-0.001	0.037
-729.952	279.726	-0.118	-0.213
-728.937	215.919	-0.061	-0.097
-727.923	800.000	-0.030	0.104
-726.908	-9.664	-0.228	-0.153
-725.894	-22.644	-0.156	0.095
-724.879	-200.000	0.016	-0.315
-723.864	47.585	0.255	-0.240
-722.850	-77.720	0.297	-0.103
-721.835	800.000	0.015	0.067
-720.821	-81.343	0.072	0.024
-719.806	-27.259	0.158	-0.093
-718.791	390.888	0.080	0.168
-717.777	-158.893	0.237	0.014
-716.762	-153.464	-0.176	-0.012
-715.748	8.706	-0.291	0.221
-714.733	-97.655	-0.052	0.014
-713.718	-95.679	0.069	-0.018
-712.704	800.000	0.027	0.095
-711.689	-95.162	0.266	-0.072
-710.675	-26.855	0.093	0.054
-709.660	514.199	-0.096	0.226
-708.645	-85.027	-0.247	0.078
-707.631	-146.008	-0.226	0.020
-706.616	206.427	-0.098	0.153
-705.602	85.345	-0.307	-0.339
-704.587	55.941	0.131	-0.128
-703.572	778.153	0.158	-0.435
-702.558	-95.794	-0.197	0.053
-701.543	-3.294	-0.114	0.080
-700.529	-99.615	0.277	-0.070
-699.514	-200.000	-0.018	0.293
-698.499	-28.316	0.209	0.121
-697.485	-147.039	-0.168	-0.014
-696.470	67.589	-0.083	0.085
-695.456	20.849	-0.099	-0.081
-694.441	800.000	-0.022	-0.076
-693.426	800.000	0.085	-0.241
-692.412	299.158	-0.117	-0.217
-691.397	-39.642	-0.219	-0.115
-690.383	9.171	0.189	-0.144
-689.368	-96.141	0.099	0.026
-688.354	-13.692	0.383	-0.249
-687.339	646.021	0.105	-0.270
-686.324	-162.974	-0.216	-0.011
-685.310	-48.422	0.402	-0.194
-684.295	609.236	-0.051	0.128
-683.281	-2.715	-0.333	-0.234
-682.266	136.501	-0.227	-0.297
-681.251	800.000	-0.038	0.155
-680.237	-157.133	-0.073	-0.004
-679.222	165.177	-0.132	-0.187
-678.208	-15.361	-0.312	0.200
-677.193	22.857	-0.211	-0.174
-676.178	44.630	-0.215	-0.199
-675.164	-132.559	-0.088	0.011
-674.149	71.834	-0.193	-0.202
-673.135	93.072	0.204	0.232
-672.120	-200.000	0.007	-0.097
-671.105	-200.000	0.018	-0.096
-670.091	276.801	-0.089	-0.158
-669.076	-200.000	0.009	0.103
-668.062	-200.000	-0.205	-0.000
-667.047	-200.000	0.013	-0.178
-666.032	-200.000	0.033	-0.208
-665.018	290.255	-0.134	0.244
-664.003	-200.000	-0.016	-0.102
-662.989	99.872	-0.074	-0.086
-661.974	149.590	-0.025	0.034
-660.959	660.247	0.105	0.272
-659.945	-159.967	-0.273	0.015
-658.930	-81.885	-0.018	0.006
-657.916	48.592	-0.150	0.141
-656.901	-200.000	-0.009	0.251
-655.886	198.617	0.062	0.095
-654.872	800.000	0.060	-0.256
-653.857	-200.000	0.019	-0.101
-652.843	-148.613	-0.178	-0.015
-651.828	-76.876	-0.099	0.035
-650.814	-108.593	0.161	0.035
-649.799	33.987	0.345	-0.302
-648.784	-52.001	-0.187	0.087
-647.770	-116.084	0.215	0.040
-646.755	187.871	-0.217	0.325
-645.741	-155.180	-0.235	-0.015
-644.726	164.388	-0.063	-0.089
-643.711	800.000	0.068	-0.271
-642.697	88.491	-0.130	-0.144
-641.682	-105.088	-0.061	-0.014
-640.668	-28.739	0.073	0.042
-639.653	418.309	-0.175	-0.376
-638.638	-144.373	0.076	0.007
-637.624	-84.685	0.153	0.048
-636.609	-200.000	-0.076	-0.338
-635.595	-29.218	-0.182	-0.105
-634.580	-200.000	-0.041	-0.339
-633.565	139.653	-0.029	-0.038
-632.551	-71.317	-0.255	-0.096
-631.536	290.832	-0.092	-0.167
-630.522	152.154	0.125	-0.171
-629.507	185.049	0.124	-0.185
-628.492	800.000	0.109	-0.412
-627.478	255.412	0.047	-0.080
-626.463	-174.216	-0.532	0.016
-625.449	78.013	0.070	0.074
-624.434	800.000	0.046	-0.133
-623.419	-200.000	0.019	-0.100
-622.405	397.209	-0.112	0.235
-621.390	43.257	0.295	-0.270
-620.376	-133.055	-0.304	0.039
-619.361	93.911	-0.327	-0.372
-618.346	150.528	0.038	-0.052
-617.332	394.647	0.142	0.297
-616.317	-83.716	0.123	0.039
-615.303	-200.000	0.053	0.260
-614.288	-15.528	-0.398	0.254
-613.273	156.463	-0.142	0.196
-612.259	-200.000	-0.043	0.244
-611.244	-156.043	-0.397	-0.025
-610.230	-200.000	-0.014	0.321
-609.215	184.999	-0.126	-0.188
-608.201	320.693	0.070	-0.132
-607.186	-90.885	0.110	-0.032
-606.171	-200.000	-0.033	0.269
-605.157	313.286	-0.141	0.266
-604.142	-94.317	0.286	0.078
-603.128	284.802	-0.134	-0.241
-602.113	-150.206	-0.039	-0.003
-601.098	6.270	-0.218	0.162
-600.084	-136.536	-0.118	0.014
-599.069	800.000	-0.063	0.238
-598.055	-200.000	-0.029	0.150
-597.040	-76.454	0.167	-0.059
-596.025	255.284	-0.193	-0.331
-595.011	-167.143	0.149	-0.006
-593.996	-35.733	-0.155	0.084
-592.982	-200.000	-0.013	-0.141
-591.967	800.000	0.113	-0.323
-590.952	800.000	0.073	-0.245
-589.938	-200.000	0.039	-0.341
-588.923	-101.940	0.350	0.085
-587.909	-44.467	-0.227	-0.114
-586.894	-97.596	-0.162	0.042
-585.879	-87.416	-0.390	0.118
-584.865	30.688	0.216	0.185
-583.850	-200.000	0.062	0.297
-582.836	800.000	-0.077	0.290
-581.821	19.320	-0.237	-0.191
-580.806	-157.936	0.120	-0.007
-579.792	127.918	0.053	0.068
-578.777	800.000	-0.025	0.084
-577.763	800.000	0.040	-0.149
-576.748	-123.681	-0.368	0.058
-575.733	190.684	-0.110	0.165
-574.719	-200.000	0.089	0.404
-573.704	-200.000	0.006	0.063
-572.690	-200.000	0.065	0.341
-571.675	-140.783	-0.064	-0.007
-570.661	-44.060	-0.079	-0.040
-569.646	498.728	-0.077	-0.177
-568.631	-17.768	0.268	-0.168
-567.617	800.000	0.047	0.143
-566.602	-54.110	0.227	0.103
-565.588	-200.000	-0.030	0.191
-564.573	206.865	0.065	0.101
-563.558	116.874	0.336	0.412
-562.544	-80.483	0.243	0.081
-561.529	342.576	-0.153	0.299
-560.515	65.007	0.138	-0.140
-559.500	-139.127	-0.068	-0.007
-558.485	-50.293	-0.176	0.083
-557.471	313.765	-0.130	-0.244
-556.456	-104.306	-0.028	0.007
-555.442	-200.000	0.049	0.236
-554.427	-46.321	-0.192	-0.094
-553.412	114.887	0.101	0.123
-552.398	800.000	0.085	-0.261
-551.383	-84.234	0.261	0.083
-550.369	56.004	-0.237	-0.230
-549.354	-0.020	-0.164	0.117
-548.339	-200.000	0.044	-0.352
-547.325	205.173	-0.204	0.316
-546.310	108.182	0.210	-0.250
-545.296	-88.032	-0.322	0.096
-544.281	15.725	-0.196	0.154
-543.266	-126.014	-0.175	-0.026
-542.252	-38.367	0.184	0.097
-541.237	49.026	0.156	0.146
-540.223	306.383	-0.083	0.154
-539.208	-172.891	0.227	0.007
-538.193	-92.543	0.173	0.049
-537.179	-54.169	-0.204	-0.093
-536.164	220.800	0.086	-0.138
-535.150	800.000	-0.102	-0.355
-534.135	-53.128	-0.100	-0.046
-533.121	-44.105	0.179	-0.090
-532.106	85.419	0.022	-0.024
-531.091	346.000	-0.111	0.218
-530.077	-200.000	0.022	-0.116
-529.062	-24.618	0.103	-0.061
-528.048	-20.855	-0.110	0.067
-527.033	-69.504	-0.215	0.082
-526.018	-51.296	0.038	-0.018
-525.004	-200.000	-0.035	0.214
-523.989	63.336	-0.087	-0.087
-522.975	-200.000	0.050	0.246
-521.960	520.758	-0.036	-0.085
-520.945	565.297	0.040	0.097
-519.931	460.300	-0.060	0.134
-518.916	-200.000	-0.013	0.068
-517.902	-29.615	0.239	-0.136
-516.887	409.402	-0.122	-0.257
-515.872	186.168	0.208	-0.309
-514.858	800.000	0.031	0.092
-513.843	227.873	0.109	-0.177
-512.829	25.968	0.159	0.132
-511.814	-134.432	-0.268	-0.033
-510.799	45.463	-0.310	-0.286
-509.785	-200.000	-0.008	-0.134
-508.770	696.288	-0.102	-0.268
-507.756	-200.000	-0.058	-0.309
-506.741	105.485	-0.030	0.035
-505.726	8.960	-0.062	-0.047
-504.712	-123.276	0.443	0.071
-503.697	-73.387	0.150	0.055
-502.683	183.286	-0.075	0.110
-501.668	-154.191	-0.156	0.011
-500.653	351.051	-0.054	-0.107
-499.639	-30.343	0.204	-0.116
-498.624	-200.000	0.008	-0.069
-497.610	28.737	-0.102	0.086
-496.595	15.904	-0.317	-0.249
-495.581	-200.000	-0.001	-0.036
-494.566	-72.623	0.125	0.046
-493.551	263.146	0.117	0.203
-492.537	611.336	0.080	-0.200
-491.522	800.000	-0.013	0.053
-490.508	800.000	-0.117	-0.346
-489.493	436.574	-0.038	-0.082
-488.478	-107.523	-0.282	-0.062
-487.464	-63.042	-0.164	-0.068
-486.449	67.727	0.127	0.130
-485.435	-200.000	0.002	-0.050
-484.420	800.000	0.066	-0.211
-483.405	-146.690	-0.112	0.010
-482.391	800.000	0.035	0.136
-481.376	348.827	0.175	0.343
-480.362	-172.441	-0.166	-0.005
-479.347	-133.687	0.351	0.044
-478.332	11.446	0.265	0.203
-477.318	-168.312	0.320	-0.012
-476.303	675.028	-0.154	-0.399
-475.289	-200.000	-0.019	0.113
-474.274	-200.000	-0.054	0.290
-473.259	-51.975	-0.238	-0.110
-472.245	-200.000	-0.026	0.168
-471.230	-200.000	-0.033	0.153
-470.216	-200.000	-0.003	0.034
-469.201	-12.780	-0.349	0.227
-468.186	800.000	-0.098	-0.381
-467.172	800.000	0.032	-0.101
-466.157	46.174	0.121	-0.112
-465.143	397.283	-0.174	-0.363
-464.128	-121.323	0.374	-0.062
-463.113	-200.000	-0.009	0.199
-462.099	29.572	0.159	0.135
-461.084	141.392	0.087	0.114
-460.070	-65.532	0.120	-0.048
-459.055	364.030	-0.088	0.177
-458.040	-129.532	0.128	0.018
-457.026	291.881	-0.076	-0.137
-456.011	-112.808	-0.090	-0.018
-454.997	360.676	-0.141	-0.282
-453.982	-85.467	-0.268	-0.083
-452.968	31.145	-0.300	-0.256
-451.953	-119.338	-0.324	0.056
-450.938	210.895	0.130	-0.203
-449.924	-120.769	0.596	-0.100
-448.909	-200.000	-0.037	-0.224
-447.895	172.657	-0.116	-0.166
-446.880	-200.000	-0.051	0.287
-445.865	26.022	0.295	0.245
-444.851	163.852	-0.078	-0.109
-443.836	-2.575	0.165	-0.115
-442.822	269.519	-0.185	0.324
-441.807	-195.314	0.331	0.002
-440.792	-5.567	0.296	0.202
-439.778	-95.963	-0.180	0.048
-438.763	-27.144	0.224	0.130
-437.749	299.113	0.137	0.251
-436.734	68.544	-0.107	-0.109
-435.719	-84.892	0.194	-0.061
-434.705	-40.518	-0.275	0.142
-433.690	78.836	0.223	0.238
-432.676	800.000	-0.035	0.130
-431.661	20.414	-0.117	0.094
-430.646	22.142	0.203	-0.164
-429.632	-67.151	0.116	-0.046
-428.617	105.611	0.177	-0.208
-427.603	-125.619	-0.640	-0.097
-426.588	-18.090	0.090	0.056
-425.573	-164.528	0.418	-0.019
-424.559	86.463	0.176	-0.193
-423.544	237.128	0.182	0.299
-422.530	-74.344	0.267	-0.096
-421.515	-41.197	0.271	-0.139
-420.500	579.260	-0.058	0.140
-419.486	61.484	0.254	-0.251
-418.471	51.004	0.110	0.104
-417.457	-71.232	-0.291	0.109
-416.442	104.579	0.322	0.377
-415.428	28.003	-0.116	-0.097
-414.413	397.389	-0.090	-0.187
-413.398	800.000	-0.035	-0.136
-412.384	-78.898	-0.203	-0.069
-411.369	800.000	0.139	0.587
-410.355	-104.807	-0.275	0.063
-409.340	800.000	0.060	-0.188
-408.325	204.644	-0.165	-0.254
-407.311	-148.537	-0.056	0.005
-406.296	5.164	-0.104	-0.076
-405.282	5.715	-0.092	-0.067
-404.267	-200.000	0.056	0.347
-403.252	-128.565	-0.134	-0.019
-402.238	-200.000	0.011	0.317
-401.223	106.823	0.022	0.025
-400.209	78.724	0.109	-0.116
-399.194	653.819	0.069	-0.177
-398.179	86.337	-0.202	0.221
-397.165	92.534	0.263	-0.295
-396.150	-32.431	0.442	-0.245
-395.136	678.868	-0.043	-0.112
-394.121	374.713	-0.136	-0.274
-393.106	29.211	0.257	0.217
-392.092	-46.319	-0.028	-0.014
-391.077	-108.443	-0.161	-0.034
-390.063	-151.670	-0.486	-0.036
-389.048	-139.219	0.075	-0.008
-388.033	-200.000	-0.015	-0.188
-387.019	-122.229	-0.123	0.020
-386.004	-2.994	0.264	0.183
-384.990	77.414	-0.047	-0.050
-383.975	-200.000	0.088	0.383
-382.960	-63.882	0.030	-0.012
-381.946	64.060	-0.241	0.240
-380.931	-157.405	-0.252	-0.015
-379.917	24.826	0.139	0.115
-378.902	217.445	0.050	-0.079
-377.888	-69.813	-0.276	0.105
-376.873	73.816	0.372	-0.387
-375.858	800.000	-0.124	-0.391
-374.844	-200.000	-0.002	-0.121
-373.829	62.229	-0.360	-0.356
-372.815	17.105	-0.182	-0.143
-371.800	-93.377	0.121	-0.033
-370.785	43.090	-0.118	0.106
-369.771	-60.726	0.438	0.184
-368.756	-200.000	-0.044	-0.383
-367.742	145.962	-0.051	0.069
-366.727	-137.009	0.118	0.013
-365.712	138.881	0.196	-0.255
-364.698	-92.686	-0.140	0.039
-363.683	-124.145	-0.180	-0.028
-362.669	-174.010	0.409	-0.012
-361.654	87.747	-0.094	0.103
-360.639	-26.324	-0.037	-0.022
-359.625	163.335	0.253	-0.353
-358.610	-49.955	-0.338	0.159
-357.596	521.383	0.096	0.224
-356.581	800.000	0.078	-0.248
-355.566	-200.000	0.019	-0.257
-354.552	-200.000	-0.044	0.600
-353.537	29.714	0.097	-0.082
-352.523	800.000	-0.014	-0.050
-351.508	800.000	0.065	0.181
-350.493	36.297	0.074	0.065
-349.479	-37.371	-0.137	-0.072
-348.464	-168.644	-0.553	-0.021
-347.450	-109.229	-0.021	0.004
-346.435	800.000	0.032	-0.088
-345.420	-200.000	0.005	-0.058
-344.406	-66.644	-0.147	0.058
-343.391	-149.801	-0.101	-0.008
-342.377	-88.363	0.137	-0.041
-341.362	-45.627	0.171	-0.084
-340.348	89.697	-0.107	-0.119
-339.333	653.542	0.023	-0.059
-338.318	-122.202	-0.205	-0.033
-337.304	-92.414	-0.167	-0.047
-336.289	483.442	0.055	-0.124
-335.275	-136.411	0.477	0.055
-334.260	-18.375	-0.052	-0.032
-333.245	-200.000	-0.019	-0.096
-332.231	-127.332	0.245	-0.035
-331.216	-200.000	-0.008	0.101
-330.202	10.552	-0.376	0.284
-329.187	8.932	0.146	0.109
-328.172	-200.000	-0.026	-0.128
-327.158	73.552	0.164	0.170
-326.143	255.198	-0.115	-0.196
-325.129	419.913	0.124	-0.263
-324.114	-83.410	0.135	-0.043
-323.099	244.345	0.087	0.145
-322.085	3.693	-0.328	-0.237
-321.070	137.102	-0.116	0.150
-320.056	800.000	-0.116	0.344
-319.041	-106.570	-0.259	-0.057
-318.026	3.953	0.144	0.104
-317.012	-24.267	-0.131	0.078
-315.997	38.137	0.174	-0.153
-314.983	-29.058	0.157	0.089
-313.968	9.812	-0.148	0.111
-312.953	-101.910	-0.172	0.041
-311.939	-21.605	0.180	0.108
-310.924	800.000	-0.067	-0.278
-309.910	8.228	0.071	0.053
-308.895	475.059	-0.121	-0.272
-307.880	58.957	-0.196	0.190
-306.866	-2.620	-0.246	-0.170
-305.851	-150.296	0.281	0.021
-304.837	-31.231	-0.278	-0.155
-303.822	-62.544	0.464	-0.191
-302.807	800.000	-0.032	0.115
-301.793	-56.018	-0.127	0.056
-300.778	-107.924	-0.208	0.045
-299.764	-158.168	0.293	-0.017
-298.749	-71.280	-0.301	-0.112
-297.735	-173.291	0.061	-0.002
-296.720	-21.104	-0.218	-0.132
-295.705	800.000	0.087	0.266
-294.691	282.240	0.090	0.159
-293.676	171.365	-0.144	-0.204
-292.662	239.668	0.092	0.152
-291.647	-131.277	-0.105	0.014
-290.632	13.880	0.345	-0.266
-289.618	-164.675	-0.161	-0.007
-288.603	-46.186	0.138	0.067
-287.589	122.222	-0.034	0.042
-286.574	26.537	0.197	-0.163
-285.559	-200.000	0.040	0.179
-284.545	-200.000	-0.003	-0.067
-283.530	-146.802	-0.248	0.021
-282.516	-178.026	-0.056	-0.001
-281.501	800.000	-0.076	-0.251
-280.486	-98.334	-0.171	-0.043
-279.472	800.000	-0.091	0.327
-278.457	-141.283	0.394	-0.040
-277.443	-78.294	-0.180	0.061
-276.428	800.000	-0.072	-0.239
-275.413	292.583	-0.064	-0.116
-274.399	32.895	0.271	0.232
-273.384	-200.000	-0.004	0.103
-272.370	800.000	-0.089	-0.250
-271.355	-62.891	-0.248	0.101
-270.340	-25.635	0.158	0.092
-269.326	-200.000	-0.032	-0.315
-268.311	-200.000	0.066	0.357
-267.297	-175.767	0.338	-0.009
-266.282	-129.581	0.169	0.023
-265.267	25.305	0.322	0.264
-264.253	85.135	-0.192	0.208
-263.238	-200.000	-0.012	0.054
-262.224	123.495	-0.227	0.281
-261.209	-161.951	0.361	0.018
-260.195	-50.586	-0.274	-0.128
-259.180	-200.000	0.018	-0.260
-258.165	-91.650	0.154	0.043
-257.151	98.978	-0.114	-0.130
-256.136	-26.223	-0.197	-0.114
-255.122	-80.456	-0.129	0.043
-254.107	25.327	0.203	0.167
-253.092	131.674	0.162	-0.205
-252.078	-84.832	-0.297	-0.092
-251.063	522.158	-0.045	0.104
-250.049	800.000	-0.056	-0.225
-249.034	225.575	0.072	0.116
-248.019	-13.313	-0.152	-0.097
-247.005	-200.000	0.009	-0.185
-245.990	-200.000	0.015	-0.133
-244.976	-200.000	-0.038	0.351
-243.961	-43.368	0.088	-0.044
-242.946	-65.240	0.172	0.068
-241.932	549.554	-0.053	-0.125
-240.917	175.890	-0.014	0.020
-239.903	800.000	-0.053	0.214
-238.888	94.213	0.209	-0.234
-237.873	-200.000	-0.028	0.289
-236.859	-145.494	0.232	0.021
-235.844	51.449	0.140	-0.132
-234.830	10.731	0.165	0.124
-233.815	-98.972	0.071	-0.018
-232.800	109.582	-0.264	0.312
-231.786	-120.749	-0.160	-0.027
-230.771	282.523	-0.046	0.082
-229.757	800.000	-0.121	0.514
-228.742	-68.944	0.101	-0.038
-227.727	-35.931	0.325	0.174
-226.713	-89.315	0.121	-0.035
-225.698	-200.000	0.007	0.238
-224.684	235.918	-0.098	-0.160
-223.669	-83.967	-0.228	0.071
-222.655	363.317	0.071	0.140
-221.640	106.987	-0.046	0.054
-220.625	319.433	0.167	0.313
-219.611	-200.000	-0.086	0.480
-218.596	381.898	-0.047	-0.095
-217.582	-77.920	-0.251	-0.086
-216.567	-125.627	0.260	-0.039
-215.552	-97.971	0.109	-0.028
-214.538	-22.783	-0.182	-0.108
-213.523	-200.000	0.024	0.165
-212.509	-200.000	-0.029	-0.235
-211.494	800.000	-0.066	0.186
-210.479	92.024	0.135	0.149
-209.465	33.022	0.152	-0.130
-208.450	409.835	0.099	-0.206
-207.436	-47.752	0.160	0.077
-206.421	117.483	0.118	-0.143
-205.406	-200.000	-0.012	-0.074
-204.392	-200.000	0.057	0.256
-203.377	800.000	0.040	0.168
-202.363	-100.125	0.290	-0.071
-201.348	-94.324	-0.343	-0.093
-200.333	122.804	0.166	-0.204
-199.319	-93.122	-0.134	0.037
-198.304	16.603	-0.113	0.088
-197.290	-83.501	0.184	0.058
-196.275	-93.444	0.258	0.070
-195.260	6.103	0.147	-0.108
-194.246	-200.000	-0.022	-0.188
-193.231	-17.434	0.162	0.100
-192.217	-28.502	-0.070	-0.040
-191.202	-54.598	-0.139	-0.062
-190.187	762.988	-0.082	-0.218
-189.173	-41.138	0.073	0.037
-188.158	-27.631	0.101	-0.058
-187.144	-79.733	0.309	-0.102
-186.129	2.814	0.324	-0.232
-185.114	68.236	-0.290	-0.293
-184.100	262.896	0.103	0.176
-183.085	800.000	0.054	0.192
-182.071	-121.963	0.123	-0.020
-181.056	-37.850	0.499	0.261
-180.042	-200.000	-0.063	0.330
-179.027	746.977	-0.084	-0.222
-178.012	-166.235	0.187	-0.008
-176.998	-200.000	0.010	0.124
-175.983	-60.243	-0.342	0.144
-174.969	-63.744	0.169	0.068
-173.954	-200.000	-0.014	-0.225
-172.939	174.026	-0.107	0.152
-171.925	11.111	0.207	0.156
-170.910	-200.000	0.011	0.321
-169.896	-200.000	-0.033	-0.197
-168.881	-96.015	0.275	-0.072
-167.866	-162.401	-0.196	0.010
-166.852	106.890	-0.172	0.201
-165.837	45.284	0.135	0.123
-164.823	-146.319	-0.081	0.007
-163.808	-200.000	-0.014	0.461
-162.793	-49.948	0.049	-0.023
-161.779	-200.000	0.034	0.202
-160.764	800.000	0.001	-0.004
-159.750	-200.000	-0.010	-0.049
-158.735	-55.697	-0.262	0.115
-157.720	-5.829	0.033	0.022
-156.706	81.499	-0.314	0.334
-155.691	800.000	-0.064	-0.213
-154.677	-100.627	0.443	0.108
-153.662	245.901	0.166	-0.275
-152.647	122.439	-0.174	-0.214
-151.633	160.918	-0.158	0.218
-150.618	-181.283	0.281	-0.005
-149.604	104.997	-0.105	-0.122
-148.589	-112.383	0.421	0.083
-147.574	-200.000	0.018	-0.144
-146.560	582.423	0.062	0.149
-145.545	-40.711	-0.262	-0.133
-144.531	-77.340	-0.118	-0.040
-143.516	151.740	-0.157	0.211
-142.502	-200.000	0.017	0.213
-141.487	-65.416	-0.192	-0.076
-140.472	-145.049	0.394	0.035
-139.458	-65.159	0.094	0.037
-138.443	-200.000	-0.037	-0.223
-137.429	120.508	-0.070	-0.086
-136.414	25.565	0.121	0.099
-135.399	-15.726	-0.038	-0.024
-134.385	-25.507	-0.131	-0.076
-133.370	667.756	-0.076	0.194
-132.356	800.000	-0.079	0.226
-131.341	444.788	0.140	0.303
-130.326	149.170	0.261	-0.347
-129.312	47.055	0.156	0.143
-128.297	498.395	0.055	0.125
-127.283	-45.843	0.303	-0.147
-126.268	-70.910	0.120	0.044
-125.253	-191.638	-0.461	-0.005
-124.239	26.184	0.336	-0.276
-123.224	-44.474	0.166	-0.082
-122.210	-135.387	0.168	-0.020
