DTS Sentinel unit serial number:	SN413079Multiplexer serial number:	ORYXHardware model number:	OX4-SRSoftware version number:	ORYX F/W v4.00 Oryx Data Collector v3.7.2.0data status	okinstallation	princeton_trtdifferential loss correction	single-endedforward channel	channel 2reverse channel	N/Adate	2019/09/17time	12:35:35forward acquisition time	60.00reverse acquisition time	0.00gamma	496.2192k internal	0.2321k external	0.2321temperature offset calibration	0.9991default loss term (dB/km)	0.3790temperature slope calibration	1.0000multiplexer offset coefficient	1.0000multiplexer slope coefficient	1.0000fibre end	0.00T internal ref (°C)	32.12T ext. ref 1 (°C)	0.43T ext. ref 2 (°C)	29.67length (m)	temperature (°C)	Stokes	anti-Stokes-747.200	-200.000	0.008	-0.375
-746.185	425.743	0.143	0.311
-745.171	30.547	0.085	-0.073
-744.156	-90.795	0.101	-0.029
-743.142	84.623	0.117	0.130
-742.127	663.463	0.091	0.238
-741.112	-200.000	-0.019	0.278
-740.098	800.000	-0.034	0.139
-739.083	316.503	0.085	0.163
-738.069	145.996	0.062	-0.084
-737.054	452.744	-0.169	-0.377
-736.039	-127.893	-0.381	-0.055
-735.025	-120.851	-0.033	-0.006
-734.010	286.405	-0.163	-0.297
-732.996	369.218	0.066	-0.134
-731.981	516.167	-0.044	-0.104
-730.966	-118.894	-0.182	-0.032
-729.952	-200.000	-0.012	0.303
-728.937	-200.000	-0.058	-0.361
-727.923	-156.643	-0.112	0.007
-726.908	-125.408	-0.057	0.009
-725.894	-200.000	-0.026	0.205
-724.879	-69.281	-0.301	-0.117
-723.864	-200.000	-0.059	-0.282
-722.850	169.102	-0.130	0.188
-721.835	-200.000	-0.028	-0.132
-720.821	-200.000	-0.015	-0.349
-719.806	4.665	-0.292	-0.217
-718.791	-100.828	0.239	-0.059
-717.777	-29.995	-0.330	0.189
-716.762	-116.717	-0.249	-0.046
-715.748	-37.388	0.262	-0.141
-714.733	5.640	-0.231	-0.172
-713.718	-200.000	-0.033	-0.227
-712.704	-48.607	0.083	-0.040
-711.689	149.321	-0.152	0.208
-710.675	-200.000	0.078	-0.350
-709.660	-51.008	-0.156	-0.074
-708.645	765.942	0.037	-0.102
-707.631	593.924	0.052	0.131
-706.616	-200.000	0.033	0.449
-705.602	-200.000	0.009	0.096
-704.587	8.925	0.142	-0.108
-703.572	66.047	0.039	-0.040
-702.558	76.809	0.166	0.177
-701.543	6.962	-0.169	0.127
-700.529	127.805	-0.115	0.147
-699.514	494.304	0.168	-0.389
-698.499	116.369	0.111	-0.137
-697.485	800.000	-0.048	0.146
-696.470	12.993	-0.148	-0.116
-695.456	-200.000	0.002	0.060
-694.441	329.818	-0.094	0.183
-693.426	800.000	-0.058	-0.213
-692.412	-200.000	-0.007	0.187
-691.397	132.202	0.095	-0.124
-690.383	-54.292	0.147	-0.067
-689.368	-165.433	-0.120	-0.005
-688.354	78.687	-0.084	0.091
-687.339	234.111	-0.153	-0.254
-686.324	-129.633	-0.290	-0.040
-685.310	800.000	0.069	0.200
-684.295	-200.000	0.021	-0.230
-683.281	-74.416	-0.149	0.054
-682.266	135.983	-0.258	-0.339
-681.251	800.000	-0.043	-0.161
-680.237	-61.489	-0.135	-0.057
-679.222	800.000	0.026	0.088
-678.208	40.431	-0.115	0.104
-677.193	-200.000	0.011	-0.310
-676.178	-139.404	0.089	0.010
-675.164	-171.270	-0.558	0.019
-674.149	103.005	0.236	0.278
-673.135	-26.856	0.082	0.048
-672.120	-132.806	-0.250	0.032
-671.105	106.245	-0.043	0.051
-670.091	-200.000	-0.046	-0.209
-669.076	720.460	0.075	-0.201
-668.062	-177.916	-0.153	0.004
-667.047	516.090	-0.186	-0.438
-666.032	-24.258	-0.132	0.079
-665.018	214.836	0.084	0.134
-664.003	-82.693	-0.183	0.060
-662.989	-182.979	0.267	0.005
-661.974	384.816	0.164	-0.341
-660.959	-37.449	0.040	0.021
-659.945	520.044	0.096	0.227
-658.930	192.098	-0.236	-0.358
-657.916	-56.172	-0.140	0.063
-656.901	-34.752	-0.357	-0.196
-655.886	-148.454	-0.034	0.003
-654.872	-138.089	-0.430	0.048
-653.857	-85.077	0.086	-0.027
-652.843	400.957	-0.022	0.048
-651.828	168.610	0.258	-0.370
-650.814	800.000	-0.077	0.230
-649.799	69.633	-0.118	0.122
-648.784	-200.000	-0.017	-0.215
-647.770	-59.052	0.279	0.121
-646.755	-43.369	-0.279	-0.142
-645.741	103.812	-0.248	-0.293
-644.726	-200.000	-0.004	-0.228
-643.711	-167.946	0.304	0.012
-642.697	-200.000	-0.039	-0.261
-641.682	188.570	0.082	0.123
-640.668	-95.273	0.338	-0.092
-639.653	800.000	0.061	0.206
-638.638	-82.929	-0.291	-0.094
-637.624	-107.168	0.178	-0.040
-636.609	-121.199	0.128	-0.022
-635.595	-22.390	-0.167	0.102
-634.580	-46.326	0.112	-0.055
-633.565	-45.902	-0.085	-0.042
-632.551	178.990	0.141	0.208
-631.536	-127.258	-0.166	-0.024
-630.522	536.108	-0.040	-0.096
-629.507	18.355	0.051	0.041
-628.492	800.000	-0.076	-0.259
-627.478	-101.928	0.064	-0.016
-626.463	-200.000	-0.037	-0.165
-625.449	800.000	0.103	-0.385
-624.434	0.983	-0.296	-0.214
-623.419	-78.717	-0.011	0.004
-622.405	800.000	0.056	0.168
-621.390	-64.695	0.134	0.054
-620.376	370.155	0.090	-0.183
-619.361	-33.816	-0.252	-0.140
-618.346	-138.350	-0.289	0.032
-617.332	800.000	0.043	-0.157
-616.317	-200.000	0.075	-0.341
-615.303	-15.388	-0.348	-0.224
-614.288	800.000	0.011	-0.046
-613.273	97.473	-0.104	0.120
-612.259	-114.619	-0.185	-0.036
-611.244	20.001	-0.048	0.039
-610.230	239.854	0.069	0.115
-609.215	800.000	-0.014	-0.044
-608.201	88.568	0.099	-0.111
-607.186	-23.489	-0.136	-0.082
-606.171	-49.244	-0.108	0.052
-605.157	-1.127	-0.314	0.223
-604.142	74.086	0.174	-0.183
-603.128	-37.577	-0.142	0.076
-602.113	800.000	0.067	0.288
-601.098	-117.447	0.215	0.039
-600.084	-200.000	-0.019	-0.191
-599.069	142.150	-0.071	0.095
-598.055	-79.546	-0.218	-0.074
-597.040	289.406	-0.173	-0.316
-596.025	45.231	0.082	-0.076
-595.011	-110.731	-0.144	0.030
-593.996	-130.018	0.313	0.043
-592.982	182.072	-0.096	0.143
-591.967	-20.377	0.339	0.210
-590.952	-193.755	-0.160	-0.001
-589.938	40.429	0.043	-0.039
-588.923	136.288	0.187	-0.246
-587.909	356.069	-0.121	0.242
-586.894	32.940	0.280	0.243
-585.879	349.021	-0.116	0.229
-584.865	318.467	-0.098	-0.186
-583.850	-200.000	0.003	-0.364
-582.836	-137.524	0.187	-0.021
-581.821	-33.239	0.156	0.087
-580.806	800.000	0.048	0.149
-579.792	-42.885	-0.229	-0.117
-578.777	435.137	0.079	-0.172
-577.763	112.312	0.231	0.280
-576.748	3.581	-0.227	-0.166
-575.733	29.483	0.078	-0.066
-574.719	-200.000	0.017	0.205
-573.704	-29.212	-0.049	0.028
-572.690	212.281	0.134	-0.212
-571.675	-100.471	-0.241	-0.060
-570.661	-101.853	-0.174	0.042
-569.646	172.199	-0.021	0.030
-568.631	265.467	-0.104	-0.181
-567.617	-100.358	0.364	-0.091
-566.602	-163.310	0.183	-0.009
-565.588	-77.412	-0.047	0.016
-564.573	444.114	-0.034	0.075
-563.558	-44.310	-0.185	0.093
-562.544	242.523	0.120	-0.201
-561.529	32.860	-0.084	0.073
-560.515	-162.586	0.042	0.002
-559.500	24.612	-0.217	-0.180
-558.485	239.901	-0.081	-0.135
-557.471	13.091	0.190	-0.148
-556.456	688.321	-0.043	-0.112
-555.442	-13.490	-0.401	-0.261
-554.427	-47.317	-0.414	-0.202
-553.412	194.290	0.197	-0.299
-552.398	-53.094	-0.204	0.094
-551.383	-77.726	0.480	0.166
-550.369	183.734	-0.046	-0.068
-549.354	800.000	0.018	0.074
-548.339	464.063	-0.059	-0.133
-547.325	121.233	0.154	-0.192
-546.310	-71.508	0.247	-0.093
-545.296	-54.746	0.068	0.031
-544.281	210.508	0.094	-0.148
-543.266	-200.000	0.010	-0.226
-542.252	-33.101	-0.177	0.098
-541.237	390.518	0.104	-0.215
-540.223	609.619	0.063	-0.157
-539.208	317.610	0.077	0.146
-538.193	-200.000	-0.008	-0.097
-537.179	-155.321	-0.407	-0.027
-536.164	-47.887	-0.351	0.171
-535.150	-31.105	-0.051	-0.029
-534.135	-60.677	0.565	-0.240
-533.121	-200.000	0.037	-0.404
-532.106	-129.893	0.228	-0.031
-531.091	-108.674	0.161	0.035
-530.077	-58.630	0.259	0.112
-529.062	123.785	-0.107	-0.135
-528.048	469.271	-0.094	0.213
-527.033	-175.967	-0.532	0.014
-526.018	646.749	0.067	-0.172
-525.004	-91.551	0.148	0.042
-523.989	184.118	0.093	-0.138
-522.975	-200.000	0.008	0.341
-521.960	268.472	-0.067	-0.118
-520.945	138.084	0.059	-0.077
-519.931	161.971	-0.075	-0.106
-518.916	-200.000	-0.002	-0.049
-517.902	-136.870	-0.432	0.050
-516.887	126.448	0.123	0.156
-515.872	-48.422	-0.217	0.105
-514.858	-200.000	0.022	0.142
-513.843	-19.906	0.255	0.158
-512.829	-186.959	-0.014	0.000
-511.814	304.051	-0.130	0.241
-510.799	240.698	-0.065	0.108
-509.785	-71.830	0.211	-0.079
-508.770	-4.031	0.148	-0.103
-507.756	800.000	0.130	0.458
-506.741	-176.174	-0.290	0.008
-505.726	-200.000	-0.033	-0.333
-504.712	800.000	-0.099	-0.341
-503.697	800.000	-0.057	-0.184
-502.683	-17.281	0.289	-0.183
-501.668	248.367	-0.148	-0.251
-500.653	-103.219	0.251	0.059
-499.639	-200.000	-0.030	-0.166
-498.624	800.000	-0.039	0.125
-497.610	99.360	0.179	-0.208
-496.595	510.696	0.042	-0.098
-495.581	38.054	0.062	0.055
-494.566	-64.399	-0.306	0.124
-493.551	-105.961	0.088	-0.020
-492.537	188.700	0.459	-0.687
-491.522	17.049	0.109	-0.086
-490.508	-200.000	-0.030	-0.238
-489.493	319.478	0.122	0.231
-488.478	800.000	0.024	-0.100
-487.464	282.892	0.068	-0.122
-486.449	800.000	-0.051	-0.144
-485.435	-140.371	0.250	0.026
-484.420	284.081	0.093	-0.166
-483.405	-200.000	-0.031	0.228
-482.391	164.368	0.040	-0.056
-481.376	279.598	-0.068	-0.122
-480.362	179.532	-0.180	0.263
-479.347	-160.105	0.305	0.017
-478.332	-152.891	-0.033	-0.002
-477.318	-15.080	-0.118	0.076
-476.303	-77.742	-0.323	0.112
-475.289	-82.787	0.499	-0.161
-474.274	524.614	-0.065	0.153
-473.259	188.152	-0.092	0.138
-472.245	189.692	-0.080	-0.120
-471.230	-90.284	-0.293	-0.085
-470.216	249.729	0.084	-0.143
-469.201	290.339	-0.192	0.348
-468.186	-16.343	0.218	0.138
-467.172	-102.301	0.256	-0.061
-466.157	33.253	-0.341	-0.296
-465.143	-132.132	-0.342	0.044
-464.128	-178.162	0.275	-0.006
-463.113	0.541	-0.195	0.139
-462.099	800.000	0.045	-0.139
-461.084	173.558	0.075	0.108
-460.070	2.992	-0.125	0.091
-459.055	147.491	0.165	0.222
-458.040	-167.243	0.366	-0.015
-457.026	434.741	-0.071	0.154
-456.011	-200.000	-0.028	0.248
-454.997	-15.656	-0.211	0.134
-453.982	-200.000	-0.011	-0.161
-452.968	-200.000	0.046	-0.236
-451.953	733.994	0.100	0.269
-450.938	800.000	-0.024	-0.086
-449.924	-44.720	0.172	-0.086
-448.909	-172.966	-0.188	-0.006
-447.895	150.230	-0.094	0.128
-446.880	16.800	0.105	-0.083
-445.865	-200.000	0.021	-0.289
-444.851	345.350	-0.049	0.097
-443.836	-158.587	-0.055	0.003
-442.822	-111.413	0.168	-0.034
-441.807	-200.000	0.032	0.230
-440.792	-200.000	0.053	-0.263
-439.778	35.899	0.045	0.040
-438.763	-200.000	-0.023	-0.126
-437.749	243.063	0.104	0.174
-436.734	-28.687	-0.135	0.077
-435.719	320.411	-0.120	0.228
-434.705	-49.640	0.009	0.004
-433.690	-200.000	-0.075	0.340
-432.676	-148.560	0.114	0.009
-431.661	-200.000	-0.021	0.248
-430.646	12.043	-0.362	-0.278
-429.632	7.765	-0.201	0.150
-428.617	-200.000	-0.019	-0.115
-427.603	127.864	-0.159	0.202
-426.588	766.216	0.119	-0.323
-425.573	0.569	0.050	-0.035
-424.559	-83.884	0.355	-0.113
-423.544	614.119	-0.147	-0.366
-422.530	800.000	-0.056	0.200
-421.515	154.314	0.246	0.337
-420.500	-12.492	-0.065	0.043
-419.486	-200.000	0.009	0.076
-418.471	-200.000	0.009	0.324
-417.457	-200.000	-0.035	0.190
-416.442	-45.877	-0.158	-0.078
-415.428	30.768	-0.026	-0.023
-414.413	-10.101	0.205	0.136
-413.398	-200.000	-0.008	0.217
-412.384	14.155	-0.156	-0.121
-411.369	800.000	-0.052	0.185
-410.355	-147.375	0.408	-0.034
-409.340	69.479	0.062	-0.063
-408.325	-200.000	-0.047	-0.208
-407.311	34.330	-0.041	-0.036
-406.296	123.522	0.234	0.292
-405.282	800.000	0.034	-0.111
-404.267	-177.752	-0.227	0.005
-403.252	167.369	0.261	0.370
-402.238	-13.980	-0.179	0.115
-401.223	540.001	-0.052	-0.123
-400.209	-62.664	-0.323	-0.133
-399.194	800.000	0.025	-0.073
-398.179	101.447	0.261	0.303
-397.165	-200.000	-0.001	0.314
-396.150	800.000	-0.057	0.210
-395.136	3.684	0.112	-0.081
-394.121	-83.655	0.429	-0.137
-393.106	442.901	0.112	0.244
-392.092	-116.973	0.232	-0.042
-391.077	-172.006	0.254	0.008
-390.063	800.000	0.035	0.112
-389.048	-24.787	-0.043	-0.026
-388.033	-200.000	0.003	0.061
-387.019	137.716	-0.214	0.280
-386.004	-151.926	0.283	0.021
-384.990	-25.705	0.073	-0.043
-383.975	50.421	-0.160	0.151
-382.960	800.000	-0.053	-0.207
-381.946	7.081	-0.298	0.221
-380.931	-89.393	-0.244	0.072
-379.917	-200.000	0.023	0.203
-378.902	84.987	-0.050	-0.055
-377.888	800.000	-0.045	0.161
-376.873	398.581	0.001	-0.003
-375.858	800.000	-0.041	0.128
-374.844	361.599	0.085	0.170
-373.829	149.926	-0.238	0.322
-372.815	-86.689	0.286	-0.087
-371.800	-85.591	-0.167	0.052
-370.785	-200.000	0.010	0.180
-369.771	-200.000	0.008	0.216
-368.756	-155.325	-0.469	0.030
-367.742	-200.000	0.009	0.058
-366.727	270.885	-0.033	0.058
-365.712	-140.530	-0.300	0.031
-364.698	66.489	-0.094	0.095
-363.683	163.600	-0.147	-0.206
-362.669	800.000	0.029	-0.112
-361.654	-120.471	-0.228	-0.039
-360.639	19.403	0.171	0.137
-359.625	-61.848	0.113	-0.047
-358.610	-200.000	0.002	0.198
-357.596	-92.395	0.208	-0.058
-356.581	-200.000	0.028	-0.161
-355.566	54.647	0.261	-0.250
-354.552	5.139	-0.289	-0.212
-353.537	-2.587	-0.118	-0.083
-352.523	800.000	-0.033	0.093
-351.508	800.000	-0.065	0.212
-350.493	-182.619	0.182	0.003
-349.479	-130.119	-0.377	-0.051
-348.464	800.000	0.063	0.250
-347.450	-116.335	0.106	0.020
-346.435	28.671	0.218	-0.184
-345.420	-200.000	0.023	-0.315
-344.406	140.443	0.116	-0.152
-343.391	-122.424	-0.301	0.049
-342.377	-200.000	0.011	0.127
-341.362	800.000	-0.153	0.633
-340.348	-7.007	0.168	0.114
-339.333	-129.816	0.064	-0.009
-338.318	-200.000	0.008	0.310
-337.304	800.000	0.044	0.164
-336.289	-200.000	0.000	-0.044
-335.275	49.418	0.022	-0.021
-334.260	800.000	-0.040	0.143
-333.245	23.785	-0.307	0.251
-332.231	-200.000	-0.017	-0.118
-331.216	57.258	-0.106	-0.103
-330.202	415.419	-0.030	0.064
-329.187	82.722	0.251	0.271
-328.172	49.794	-0.059	-0.055
-327.158	-7.616	-0.150	-0.101
-326.143	112.057	-0.331	0.397
-325.129	-200.000	-0.012	0.121
-324.114	-150.805	-0.119	0.009
-323.099	-108.493	0.088	-0.019
-322.085	-44.756	0.368	0.183
-321.070	800.000	0.047	-0.158
-320.056	197.712	-0.171	0.259
-319.041	4.399	-0.247	-0.180
-318.026	800.000	0.124	0.347
-317.012	7.537	0.575	0.428
-315.997	-200.000	0.005	-0.037
-314.983	109.257	0.093	-0.111
-313.968	-57.538	-0.303	-0.132
-312.953	592.705	0.115	0.283
-311.939	4.146	-0.316	-0.230
-310.924	112.039	0.229	0.275
-309.910	-142.837	-0.122	-0.012
-308.895	-100.127	0.169	-0.042
-307.880	-118.383	-0.221	0.039
-306.866	220.926	-0.134	-0.214
-305.851	36.356	-0.234	-0.205
-304.837	-200.000	-0.042	0.528
-303.822	-55.060	-0.310	0.139
-302.807	200.879	-0.182	-0.279
-301.793	800.000	-0.054	0.232
-300.778	-33.428	0.102	-0.056
-299.764	800.000	0.075	0.280
-298.749	87.771	-0.148	-0.163
-297.735	-13.389	0.187	-0.120
-296.720	-98.587	0.207	-0.053
-295.705	-78.538	-0.056	0.019
-294.691	-200.000	0.019	0.175
-293.676	800.000	0.032	-0.106
-292.662	29.264	0.138	-0.116
-291.647	-200.000	0.002	-0.329
-290.632	-149.303	-0.095	0.008
-289.618	800.000	0.093	-0.355
-288.603	-68.019	-0.152	-0.059
-287.589	159.739	0.149	0.207
-286.574	47.846	0.059	0.055
-285.559	-136.418	-0.338	-0.039
-284.545	19.187	-0.244	-0.195
-283.530	88.331	0.314	-0.346
-282.516	283.476	0.206	0.367
-281.501	276.462	-0.045	-0.079
-280.486	153.277	-0.118	-0.161
-279.472	109.382	-0.041	-0.049
-278.457	800.000	0.108	-0.361
-277.443	-200.000	0.013	0.144
-276.428	800.000	0.007	-0.022
-275.413	128.721	-0.113	-0.143
-274.399	399.390	-0.015	-0.030
-273.384	-7.432	0.050	0.033
-272.370	-183.159	0.103	-0.002
-271.355	255.228	-0.112	0.190
-270.340	-200.000	-0.035	-0.391
-269.326	-128.988	0.425	-0.059
-268.311	-200.000	-0.008	-0.167
-267.297	-200.000	0.014	-0.225
-266.282	-44.097	0.243	-0.121
-265.267	-99.110	0.313	-0.079
-264.253	318.265	0.231	0.433
-263.238	314.526	-0.099	-0.186
-262.224	-200.000	-0.016	0.071
-261.209	-200.000	0.005	-0.054
-260.195	99.921	0.053	0.061
-259.180	-200.000	0.008	-0.238
-258.165	-130.868	0.101	-0.013
-257.151	141.169	0.100	-0.131
-256.136	-200.000	0.028	0.221
-255.122	-82.581	-0.438	0.141
-254.107	800.000	-0.119	-0.445
-253.092	383.273	-0.184	0.374
-252.078	106.072	0.151	0.177
-251.063	70.387	-0.146	-0.149
-250.049	-118.688	-0.175	-0.031
-249.034	-200.000	-0.002	0.227
-248.019	44.003	0.231	-0.210
-247.005	-111.388	-0.139	-0.028
-245.990	-69.819	-0.215	-0.081
-244.976	-8.149	0.162	0.108
-243.961	-127.348	-0.264	0.038
-242.946	139.562	0.119	0.156
-241.932	-64.569	0.135	-0.054
-240.917	-6.665	-0.024	0.016
-239.903	-52.919	0.418	0.191
-238.888	16.137	0.300	0.234
-237.873	800.000	-0.144	0.448
-236.859	800.000	-0.029	-0.096
-235.844	107.846	-0.041	-0.049
-234.830	90.909	0.312	0.347
-233.815	-145.851	0.361	-0.032
-232.800	-4.162	-0.176	0.120
-231.786	-200.000	-0.030	0.199
-230.771	266.493	-0.071	0.124
-229.757	-128.522	-0.099	0.014
-228.742	500.478	0.060	0.136
-227.727	-200.000	0.007	-0.116
-226.713	-54.651	0.050	-0.022
-225.698	-39.958	0.088	0.046
-224.684	-100.658	-0.357	0.087
-223.669	-38.070	-0.195	-0.102
-222.655	29.904	-0.125	-0.106
-221.640	800.000	-0.066	-0.184
-220.625	-200.000	-0.022	-0.154
-219.611	-14.050	0.135	-0.086
-218.596	70.568	-0.066	0.068
-217.582	1.533	-0.127	0.090
-216.567	444.986	0.102	-0.221
-215.552	-200.000	-0.030	0.135
-214.538	702.362	-0.174	0.455
-213.523	-71.986	0.377	-0.139
-212.509	-200.000	-0.010	-0.156
-211.494	-60.205	-0.227	0.096
-210.479	50.900	0.147	-0.138
-209.465	0.462	0.039	0.028
-208.450	195.833	0.118	0.177
-207.436	42.511	-0.062	0.055
-206.421	-137.376	-0.117	-0.013
-205.406	-116.173	-0.094	-0.017
-204.392	95.617	0.273	0.308
-203.377	151.785	0.053	-0.071
-202.363	-200.000	0.032	-0.198
-201.348	323.628	-0.182	-0.344
-200.333	85.206	0.240	-0.261
-199.319	311.536	-0.039	-0.073
-198.304	29.867	-0.239	0.202
-197.290	224.731	0.039	0.062
-196.275	470.896	0.055	-0.122
-195.260	-60.763	0.275	-0.115
-194.246	64.734	0.123	-0.123
-193.231	-143.811	0.292	0.027
-192.217	-59.793	-0.229	0.097
-191.202	602.893	-0.053	-0.129
-190.187	-42.028	-0.045	-0.023
-189.173	-200.000	0.015	-0.099
-188.158	451.287	0.050	-0.109
-187.144	616.279	0.064	0.160
-186.129	-15.008	0.179	-0.113
-185.114	-200.000	0.023	-0.144
-184.100	-130.439	-0.109	0.015
-183.085	413.196	0.074	0.156
-182.071	-106.782	-0.096	0.021
-181.056	-200.000	0.005	-0.110
-180.042	36.025	-0.410	0.356
-179.027	800.000	-0.073	0.291
-178.012	-200.000	-0.014	-0.282
-176.998	274.194	0.062	0.108
-175.983	-134.416	0.540	-0.065
-174.969	-200.000	0.009	0.064
-173.954	-200.000	0.044	0.303
-172.939	-64.985	-0.133	0.053
-171.925	-113.079	0.294	0.057
-170.910	-22.318	-0.117	0.070
-169.896	-58.783	-0.186	0.079
-168.881	202.498	0.146	-0.223
-167.866	104.222	-0.157	-0.183
-166.852	141.873	0.104	-0.136
-165.837	-3.267	0.266	-0.183
-164.823	800.000	-0.083	-0.276
-163.808	-6.311	0.067	-0.045
-162.793	-137.418	0.152	-0.017
-161.779	89.273	0.092	-0.101
-160.764	-93.307	-0.238	0.065
-159.750	-134.042	0.273	-0.033
-158.735	176.996	0.110	0.158
-157.720	-200.000	0.061	0.360
-156.706	-62.230	-0.359	0.148
-155.691	-200.000	0.050	0.345
-154.677	198.666	-0.146	0.221
-153.662	-91.686	-0.184	-0.052
-152.647	800.000	0.080	-0.282
-151.633	368.080	-0.253	-0.506
-150.618	-200.000	0.001	-0.060
-149.604	10.592	-0.124	-0.093
-148.589	-200.000	0.032	0.315
-147.574	459.036	0.110	-0.242
-146.560	-200.000	-0.027	-0.148
-145.545	502.562	-0.017	-0.039
-144.531	-125.677	0.078	-0.012
-143.516	-200.000	-0.034	0.156
-142.502	-104.507	0.336	0.077
-141.487	277.524	0.214	0.375
-140.472	162.450	-0.107	-0.149
-139.458	-86.893	-0.161	0.049
-138.443	-67.921	-0.165	0.064
-137.429	60.057	0.065	-0.063
-136.414	-112.837	0.194	-0.038
-135.399	800.000	-0.039	0.132
-134.385	-183.066	0.304	0.005
-133.370	207.666	0.070	-0.108
-132.356	-129.237	0.265	-0.036
-131.341	-18.294	-0.058	0.036
-130.326	354.932	0.138	-0.271
-129.312	-49.915	0.217	-0.102
-128.297	-49.720	0.173	0.081
-127.283	-50.356	-0.031	-0.014
-126.268	455.947	-0.092	-0.201
-125.253	137.869	-0.202	-0.261
-124.239	-153.437	-0.149	0.010
-123.224	-115.085	0.213	0.040
-122.210	-91.258	0.325	0.092
