DTS Sentinel unit serial number:	SN413079Multiplexer serial number:	ORYXHardware model number:	OX4-SRSoftware version number:	ORYX F/W v4.00 Oryx Data Collector v3.7.2.0data status	okinstallation	princeton_trtdifferential loss correction	single-endedforward channel	channel 2reverse channel	N/Adate	2019/09/10time	19:45:10forward acquisition time	60.00reverse acquisition time	0.00gamma	496.2192k internal	0.2327k external	0.2327temperature offset calibration	0.9946default loss term (dB/km)	0.3790temperature slope calibration	1.0000multiplexer offset coefficient	1.0000multiplexer slope coefficient	1.0000fibre end	0.00T internal ref (°C)	33.05T ext. ref 1 (°C)	-0.32T ext. ref 2 (°C)	25.84length (m)	temperature (°C)	Stokes	anti-Stokes-747.200	78.956	0.054	0.059
-746.185	-200.000	-0.018	0.173
-745.171	-150.773	0.527	0.040
-744.156	-200.000	-0.023	0.354
-743.142	-59.903	0.129	-0.056
-742.127	258.015	-0.231	0.400
-741.112	24.033	-0.144	0.120
-740.098	-31.956	-0.106	0.060
-739.083	-148.402	0.488	0.040
-738.069	-141.098	-0.229	0.024
-737.054	492.181	-0.031	-0.071
-736.039	-97.867	-0.101	-0.026
-735.025	9.790	0.326	-0.249
-734.010	-200.000	0.002	-0.033
-732.996	773.908	-0.082	0.226
-731.981	800.000	0.040	-0.147
-730.966	800.000	-0.075	-0.237
-729.952	-81.177	-0.082	0.027
-728.937	-96.021	-0.369	-0.099
-727.923	132.442	-0.150	-0.194
-726.908	-137.151	-0.215	-0.025
-725.894	-93.205	0.341	0.096
-724.879	-200.000	-0.046	-0.366
-723.864	148.510	0.140	0.190
-722.850	145.087	0.091	0.123
-721.835	-200.000	0.004	0.076
-720.821	-64.403	-0.137	-0.056
-719.806	-200.000	-0.034	0.241
-718.791	800.000	-0.053	0.229
-717.777	800.000	-0.034	0.124
-716.762	800.000	-0.062	-0.229
-715.748	440.771	0.146	-0.321
-714.733	36.537	0.191	-0.170
-713.718	-200.000	-0.017	-0.307
-712.704	89.371	0.088	-0.099
-711.689	448.574	-0.196	0.435
-710.675	138.490	-0.221	0.292
-709.660	397.820	0.017	0.037
-708.645	-35.130	-0.329	-0.181
-707.631	-77.650	-0.184	-0.064
-706.616	792.538	0.076	-0.211
-705.602	-118.020	0.406	-0.073
-704.587	407.373	0.158	-0.335
-703.572	-200.000	0.028	-0.312
-702.558	128.760	0.244	-0.313
-701.543	-200.000	-0.030	-0.185
-700.529	-22.314	0.143	0.087
-699.514	-200.000	-0.011	0.282
-698.499	-43.174	0.170	-0.086
-697.485	35.480	-0.210	-0.186
-696.470	-21.183	-0.109	0.067
-695.456	499.459	0.125	-0.290
-694.441	-74.765	-0.271	0.098
-693.426	-16.290	-0.300	0.192
-692.412	-139.841	0.251	-0.027
-691.397	31.996	0.030	0.026
-690.383	-19.285	-0.353	-0.220
-689.368	-166.734	0.055	-0.002
-688.354	136.434	0.219	0.288
-687.339	14.036	0.160	-0.126
-686.324	-145.272	0.225	0.021
-685.310	-186.154	-0.277	0.004
-684.295	800.000	-0.071	0.243
-683.281	800.000	0.033	0.092
-682.266	-200.000	-0.052	0.431
-681.251	-200.000	0.012	-0.100
-680.237	-103.532	-0.048	0.011
-679.222	-0.147	-0.206	0.148
-678.208	1.096	0.244	0.176
-677.193	-188.644	-0.258	-0.003
-676.178	97.634	-0.123	-0.142
-675.164	-54.548	-0.085	0.038
-674.149	-14.770	-0.184	-0.119
-673.135	-200.000	-0.012	-0.068
-672.120	-200.000	-0.010	0.242
-671.105	-111.508	0.316	0.065
-670.091	165.868	-0.151	0.215
-669.076	10.240	0.112	-0.086
-668.062	62.950	-0.272	0.274
-667.047	-57.453	0.355	-0.157
-666.032	90.171	-0.067	-0.075
-665.018	38.186	-0.147	-0.131
-664.003	427.727	0.116	0.251
-662.989	24.918	-0.169	0.141
-661.974	6.551	0.106	-0.079
-660.959	455.944	0.090	-0.201
-659.945	800.000	-0.041	-0.159
-658.930	-186.868	0.292	-0.004
-657.916	-135.827	-0.148	0.018
-656.901	-200.000	-0.030	0.198
-655.886	363.143	0.041	0.082
-654.872	35.713	-0.132	-0.117
-653.857	-200.000	-0.005	0.115
-652.843	-141.758	-0.289	-0.029
-651.828	-0.596	-0.143	-0.102
-650.814	348.159	-0.056	-0.110
-649.799	223.950	-0.179	-0.290
-648.784	515.210	0.095	0.223
-647.770	-44.107	0.213	-0.107
-646.755	216.554	0.049	0.079
-645.741	-200.000	-0.000	-0.149
-644.726	-155.057	0.226	0.015
-643.711	60.101	0.240	0.238
-642.697	800.000	-0.061	0.254
-641.682	-69.737	-0.255	-0.098
-640.668	-27.663	-0.195	0.114
-639.653	639.759	0.032	0.083
-638.638	-51.731	-0.131	-0.061
-637.624	-87.088	0.068	0.021
-636.609	493.675	0.078	0.181
-635.595	81.416	-0.036	0.039
-634.580	76.422	-0.225	-0.239
-633.565	723.809	-0.118	-0.315
-632.551	-200.000	-0.001	-0.289
-631.536	-162.425	0.224	0.011
-630.522	-102.869	-0.228	0.054
-629.507	-58.238	0.240	-0.105
-628.492	-48.060	-0.262	-0.127
-627.478	-146.727	0.235	-0.020
-626.463	695.495	0.079	-0.209
-625.449	-80.955	0.135	-0.045
-624.434	-200.000	-0.005	0.173
-623.419	-70.582	-0.314	-0.119
-622.405	61.506	-0.117	0.117
-621.390	-200.000	-0.024	-0.413
-620.376	-22.470	-0.399	0.243
-619.361	38.801	0.226	0.203
-618.346	157.562	-0.202	-0.281
-617.332	176.866	0.009	-0.013
-616.317	-119.701	0.114	-0.020
-615.303	63.913	-0.255	0.257
-614.288	220.505	-0.116	0.187
-613.273	486.063	0.068	-0.156
-612.259	287.463	0.130	-0.236
-611.244	-80.861	-0.274	0.091
-610.230	203.590	0.024	-0.038
-609.215	193.466	0.108	0.165
-608.201	142.623	0.102	-0.135
-607.186	-200.000	-0.007	0.061
-606.171	342.612	-0.105	-0.206
-605.157	10.334	0.135	0.103
-604.142	-67.609	-0.226	0.089
-603.128	482.737	-0.023	0.052
-602.113	800.000	0.057	-0.186
-601.098	-51.788	0.250	0.117
-600.084	13.283	0.190	-0.148
-599.069	91.858	-0.104	0.117
-598.055	70.551	-0.091	-0.094
-597.040	-41.949	0.484	0.249
-596.025	257.431	-0.089	0.154
-595.011	-153.688	-0.128	0.009
-593.996	-113.170	-0.262	-0.052
-592.982	182.510	0.182	-0.269
-591.967	800.000	0.029	-0.106
-590.952	-68.237	-0.272	0.106
-589.938	331.527	0.085	0.165
-588.923	342.941	-0.043	-0.085
-587.909	-200.000	0.026	0.215
-586.894	653.666	0.035	-0.091
-585.879	-62.681	-0.329	-0.137
-584.865	-14.091	-0.260	0.168
-583.850	-33.001	-0.112	0.062
-582.836	737.549	-0.067	-0.180
-581.821	323.786	-0.050	0.095
-580.806	656.596	0.100	0.257
-579.792	-132.632	-0.153	-0.020
-578.777	754.361	-0.084	0.227
-577.763	-104.648	0.150	0.035
-576.748	503.352	0.221	-0.513
-575.733	-30.106	0.342	-0.195
-574.719	104.980	0.045	0.053
-573.704	-12.663	0.060	-0.039
-572.690	220.703	-0.053	0.085
-571.675	561.068	-0.124	-0.300
-570.661	282.661	0.036	-0.065
-569.646	-116.420	-0.164	0.030
-568.631	-62.151	0.262	-0.109
-567.617	284.601	-0.108	-0.195
-566.602	-200.000	-0.006	-0.054
-565.588	800.000	-0.164	0.471
-564.573	-113.499	0.116	0.023
-563.558	-13.751	0.093	0.060
-562.544	-15.384	0.096	-0.061
-561.529	8.143	-0.282	0.212
-560.515	-200.000	-0.059	0.296
-559.500	551.703	-0.086	-0.206
-558.485	414.540	-0.079	0.167
-557.471	9.541	0.232	-0.176
-556.456	-121.869	0.093	0.015
-555.442	378.978	-0.163	-0.333
-554.427	128.419	0.085	-0.109
-553.412	167.424	-0.165	0.234
-552.398	-96.651	-0.247	0.065
-551.383	-200.000	-0.033	-0.204
-550.369	-15.255	0.166	0.107
-549.354	-96.616	0.145	0.038
-548.339	103.385	-0.103	0.121
-547.325	-200.000	-0.079	-0.000
-546.310	-17.409	0.046	0.029
-545.296	800.000	0.035	-0.125
-544.281	-53.864	0.167	-0.076
-543.266	800.000	-0.025	-0.094
-542.252	-97.147	-0.060	0.016
-541.237	-200.000	0.032	0.171
-540.223	-1.006	-0.193	0.137
-539.208	367.059	-0.170	0.343
-538.193	-90.222	-0.583	-0.170
-537.179	800.000	0.081	0.271
-536.164	54.680	-0.048	0.046
-535.150	55.223	-0.105	-0.101
-534.135	7.998	0.182	-0.136
-533.121	800.000	0.022	-0.068
-532.106	-200.000	0.011	0.359
-531.091	-200.000	-0.034	-0.169
-530.077	144.883	0.229	-0.306
-529.062	-77.901	-0.368	-0.127
-528.048	-116.895	0.192	0.035
-527.033	-43.157	-0.245	-0.124
-526.018	-90.180	-0.200	0.058
-525.004	27.815	-0.255	-0.215
-523.989	-66.275	0.123	-0.049
-522.975	200.827	0.109	-0.168
-521.960	-184.937	-0.097	0.002
-520.945	800.000	0.011	-0.034
-519.931	100.042	0.116	0.135
-518.916	-21.310	-0.095	0.058
-517.902	-96.304	-0.304	0.080
-516.887	83.832	0.410	0.447
-515.872	-34.333	-0.185	-0.102
-514.858	353.720	-0.060	0.119
-513.843	-200.000	-0.001	-0.038
-512.829	-57.036	0.346	0.153
-511.814	800.000	-0.103	-0.435
-510.799	0.751	0.115	0.083
-509.785	270.188	0.079	0.139
-508.770	800.000	0.072	-0.285
-507.756	263.665	0.126	-0.219
-506.741	48.011	-0.095	0.089
-505.726	-13.291	-0.196	-0.127
-504.712	87.099	-0.203	0.225
-503.697	394.387	-0.045	0.094
-502.683	108.917	-0.168	0.201
-501.668	181.299	0.103	0.151
-500.653	-109.564	-0.375	0.079
-499.639	480.087	-0.150	0.339
-498.624	19.608	-0.124	-0.100
-497.610	-115.849	0.197	0.037
-496.595	-95.756	0.310	-0.083
-495.581	584.346	0.156	-0.382
-494.566	-200.000	0.045	0.499
-493.551	76.131	-0.033	0.034
-492.537	-89.011	-0.424	-0.125
-491.522	-200.000	0.032	-0.407
-490.508	-105.342	0.352	0.080
-489.493	46.098	0.178	0.165
-488.478	147.124	0.080	-0.107
-487.464	351.885	-0.143	-0.282
-486.449	800.000	-0.066	-0.206
-485.435	-106.763	-0.148	-0.033
-484.420	-157.802	-0.144	-0.009
-483.405	53.537	-0.047	0.045
-482.391	18.213	0.282	0.225
-481.376	-191.043	0.247	0.003
-480.362	-200.000	0.037	0.192
-479.347	6.916	-0.329	-0.244
-478.332	-85.051	0.091	-0.029
-477.318	19.137	0.307	-0.245
-476.303	386.311	0.028	0.058
-475.289	459.952	0.114	-0.253
-474.274	151.731	0.100	0.136
-473.259	-200.000	-0.061	-0.374
-472.245	800.000	0.078	-0.269
-471.230	135.421	0.121	0.157
-470.216	799.359	0.032	0.088
-469.201	800.000	0.035	-0.140
-468.186	16.494	-0.343	-0.270
-467.172	-200.000	0.010	-0.069
-466.157	710.924	-0.095	-0.252
-465.143	-200.000	-0.011	-0.296
-464.128	-9.603	0.200	-0.133
-463.113	31.699	-0.240	-0.206
-462.099	-118.112	-0.055	-0.010
-461.084	-200.000	-0.021	-0.101
-460.070	-11.991	0.126	0.082
-459.055	185.644	-0.139	-0.206
-458.040	106.224	-0.226	0.267
-457.026	-94.989	0.128	-0.035
-456.011	257.474	0.119	-0.204
-454.997	18.437	0.274	-0.218
-453.982	-23.263	0.089	-0.054
-452.968	5.912	-0.076	-0.056
-451.953	175.037	0.208	-0.301
-450.938	132.616	0.220	-0.283
-449.924	91.696	-0.194	-0.217
-448.909	-61.698	0.165	-0.069
-447.895	-51.350	-0.140	0.065
-446.880	139.296	-0.254	-0.333
-445.865	-200.000	-0.025	0.220
-444.851	298.787	-0.045	0.082
-443.836	60.004	-0.186	-0.183
-442.822	800.000	0.012	-0.045
-441.807	-7.771	-0.179	-0.120
-440.792	-200.000	0.015	-0.181
-439.778	81.844	0.164	0.177
-438.763	-75.359	-0.161	0.057
-437.749	-175.587	-0.113	-0.003
-436.734	-133.950	-0.359	-0.044
-435.719	-64.384	0.296	-0.120
-434.705	-44.851	0.054	0.027
-433.690	-200.000	-0.032	0.245
-432.676	-200.000	0.003	0.210
-431.661	380.101	-0.038	-0.077
-430.646	-89.965	0.198	-0.058
-429.632	-162.003	0.270	-0.014
-428.617	-1.651	-0.182	0.127
-427.603	-126.940	0.405	-0.059
-426.588	95.090	-0.246	0.279
-425.573	800.000	-0.040	-0.124
-424.559	-47.798	-0.230	-0.111
-423.544	-118.428	-0.057	0.010
-422.530	127.455	0.219	-0.277
-421.515	-166.003	-0.078	0.003
-420.500	200.863	-0.114	0.175
-419.486	-100.017	0.156	0.039
-418.471	95.127	-0.250	0.284
-417.457	533.322	-0.119	-0.281
-416.442	32.235	0.206	-0.177
-415.428	-71.032	-0.175	0.065
-414.413	-35.572	-0.207	0.112
-413.398	800.000	-0.055	0.194
-412.384	-95.397	-0.084	0.022
-411.369	204.632	-0.087	-0.135
-410.355	-200.000	0.016	-0.299
-409.340	462.475	-0.084	-0.186
-408.325	397.825	0.030	-0.062
-407.311	-200.000	-0.000	-0.035
-406.296	220.723	-0.065	-0.104
-405.282	-58.034	0.221	-0.096
-404.267	186.695	-0.077	0.114
-403.252	800.000	0.083	-0.270
-402.238	221.179	-0.177	-0.283
-401.223	7.717	0.186	-0.139
-400.209	-83.487	0.151	0.048
-399.194	212.589	0.151	-0.237
-398.179	38.733	-0.148	-0.132
-397.165	-124.065	0.283	-0.044
-396.150	-65.912	-0.063	-0.025
-395.136	31.464	0.121	-0.103
-394.121	57.638	-0.209	-0.203
-393.106	163.283	0.159	0.222
-392.092	800.000	-0.066	-0.241
-391.077	-93.327	0.246	-0.068
-390.063	97.198	-0.108	0.123
-389.048	-38.747	-0.181	0.095
-388.033	-200.000	-0.011	-0.264
-387.019	-66.917	-0.340	0.134
-386.004	-110.247	0.369	0.076
-384.990	295.205	-0.111	0.202
-383.975	-53.857	0.139	0.063
-382.960	67.948	-0.180	0.183
-381.946	800.000	-0.040	0.168
-380.931	51.985	0.046	0.044
-379.917	-16.318	-0.437	0.276
-378.902	-200.000	0.005	0.193
-377.888	-38.612	0.180	0.094
-376.873	-107.396	0.098	-0.021
-375.858	-12.491	-0.185	-0.120
-374.844	-34.022	0.069	-0.037
-373.829	37.254	0.181	0.159
-372.815	-80.859	0.065	0.021
-371.800	800.000	-0.035	0.127
-370.785	-5.136	-0.142	0.097
-369.771	-178.521	0.095	-0.002
-368.756	-11.352	0.147	-0.096
-367.742	-200.000	-0.003	0.145
-366.727	33.341	0.016	-0.013
-365.712	93.417	-0.077	0.087
-364.698	67.836	-0.157	-0.160
-363.683	-119.762	0.361	0.062
-362.669	24.027	0.459	0.376
-361.654	22.198	0.153	-0.124
-360.639	800.000	0.116	0.354
-359.625	800.000	0.054	0.176
-358.610	-200.000	-0.041	-0.239
-357.596	105.090	-0.172	0.202
-356.581	-200.000	0.026	-0.241
-355.566	97.548	0.011	0.012
-354.552	800.000	0.087	0.242
-353.537	635.585	-0.068	0.171
-352.523	511.842	0.148	0.343
-351.508	-80.352	0.127	0.042
-350.493	-117.115	0.537	-0.097
-349.479	167.287	0.160	-0.226
-348.464	-111.322	0.332	-0.067
-347.450	-200.000	-0.022	-0.234
-346.435	-115.986	-0.033	0.006
-345.420	-125.460	-0.226	-0.034
-344.406	-200.000	-0.005	-0.114
-343.391	-200.000	-0.031	0.225
-342.377	113.027	0.133	0.160
-341.362	83.884	-0.099	0.107
-340.348	-200.000	-0.000	-0.182
-339.333	-76.288	-0.201	-0.070
-338.318	8.917	0.307	0.230
-337.304	-187.209	0.212	0.003
-336.289	176.712	-0.036	-0.052
-335.275	130.258	-0.100	-0.127
-334.260	279.110	-0.158	-0.279
-333.245	182.583	-0.103	-0.151
-332.231	109.290	-0.038	0.045
-331.216	409.382	0.090	0.188
-330.202	56.323	-0.207	-0.200
-329.187	-48.547	-0.179	0.085
-328.172	35.225	-0.183	-0.160
-327.158	-200.000	-0.011	0.140
-326.143	-200.000	-0.002	0.042
-325.129	184.622	-0.094	0.138
-324.114	-102.387	0.124	0.030
-323.099	-101.176	-0.246	-0.060
-322.085	398.834	-0.168	0.349
-321.070	-130.780	-0.004	0.000
-320.056	76.525	0.114	0.120
-319.041	71.400	-0.084	0.086
-318.026	374.000	0.217	-0.439
-317.012	-55.653	0.295	-0.131
-315.997	-49.843	-0.185	-0.087
-314.983	-200.000	-0.059	0.405
-313.968	230.846	-0.027	-0.044
-312.953	121.184	0.139	0.171
-311.939	-148.508	-0.184	0.015
-310.924	800.000	0.104	0.302
-309.910	371.516	-0.047	-0.094
-308.895	-109.277	-0.199	-0.042
-307.880	-163.097	-0.045	0.002
-306.866	557.828	-0.197	0.470
-305.851	-95.828	0.248	0.065
-304.837	291.093	0.059	0.107
-303.822	-200.000	-0.002	0.190
-302.807	212.587	-0.099	-0.156
-301.793	50.177	-0.216	0.202
-300.778	-157.378	0.382	-0.023
-299.764	-31.876	-0.168	-0.093
-298.749	117.766	0.264	0.323
-297.735	-200.000	0.076	0.375
-296.720	-23.820	-0.115	-0.068
-295.705	4.497	-0.092	-0.067
-294.691	-124.521	0.110	0.017
-293.676	765.951	-0.052	-0.139
-292.662	153.771	0.122	0.165
-291.647	-142.968	0.174	-0.017
-290.632	87.968	-0.200	-0.220
-289.618	-200.000	-0.006	-0.028
-288.603	-30.882	-0.246	-0.137
-287.589	800.000	-0.043	0.128
-286.574	124.351	0.152	0.190
-285.559	-116.395	-0.338	-0.062
-284.545	170.512	-0.147	0.209
-283.530	800.000	-0.074	-0.232
-282.516	800.000	-0.131	0.404
-281.501	-200.000	0.001	-0.070
-280.486	-53.476	0.153	0.069
-279.472	-200.000	0.024	0.179
-278.457	-18.934	0.097	-0.060
-277.443	-60.399	0.244	0.103
-276.428	-30.836	-0.222	0.124
-275.413	800.000	-0.016	-0.066
-274.399	386.390	-0.083	0.170
-273.384	-200.000	-0.028	0.131
-272.370	-182.176	0.418	0.008
-271.355	-79.727	-0.425	-0.142
-270.340	-66.011	-0.191	-0.075
-269.326	-169.862	0.081	0.003
-268.311	-142.864	0.391	-0.038
-267.297	109.437	0.205	-0.243
-266.282	225.922	-0.246	0.395
-265.267	639.092	0.076	-0.191
-264.253	747.787	0.033	-0.087
-263.238	-170.427	-0.615	-0.021
-262.224	215.207	0.145	0.227
-261.209	-200.000	-0.045	0.200
-260.195	612.919	-0.030	0.074
-259.180	-52.560	0.078	0.036
-258.165	-200.000	0.001	0.278
-257.151	-121.126	0.113	0.019
-256.136	222.834	-0.118	0.188
-255.122	-12.692	-0.032	-0.021
-254.107	-65.177	0.244	0.097
-253.092	-124.148	0.427	0.066
-252.078	-159.732	0.281	0.015
-251.063	-150.084	0.125	-0.010
-250.049	346.439	0.077	-0.151
-249.034	-35.735	-0.350	-0.187
-248.019	800.000	-0.076	-0.211
-247.005	-200.000	-0.013	-0.186
-245.990	-62.906	0.235	-0.096
-244.976	119.265	0.166	0.203
-243.961	-50.615	0.155	0.072
-242.946	277.236	0.115	-0.202
-241.932	112.667	-0.143	0.171
-240.917	558.684	0.064	-0.153
-239.903	168.127	-0.227	-0.319
-238.888	800.000	-0.083	0.302
-237.873	242.812	0.108	-0.179
-236.859	-96.000	0.038	-0.010
-235.844	-52.218	0.177	0.081
-234.830	127.243	-0.073	0.092
-233.815	-40.049	-0.202	-0.104
-232.800	-200.000	-0.004	-0.078
-231.786	-101.512	-0.174	-0.042
-230.771	408.357	-0.198	0.413
-229.757	695.641	0.042	0.110
-228.742	-23.491	-0.258	0.153
-227.727	-30.915	-0.044	-0.025
-226.713	-60.288	0.323	-0.136
-225.698	-68.228	0.424	0.163
-224.684	800.000	-0.064	0.246
-223.669	-188.690	0.204	-0.002
-222.655	-200.000	0.026	-0.141
-221.640	-120.192	0.331	0.056
-220.625	-86.477	-0.106	0.032
-219.611	-24.994	0.232	0.136
-218.596	-200.000	-0.010	0.260
-217.582	85.189	0.119	0.129
-216.567	4.117	0.225	-0.163
-215.552	800.000	-0.125	-0.414
-214.538	-160.255	-0.124	-0.007
-213.523	800.000	0.050	-0.138
-212.509	-47.564	-0.141	-0.068
-211.494	271.761	-0.132	-0.230
-210.479	-146.821	0.225	0.019
-209.465	-124.595	0.607	0.093
-208.450	-200.000	0.043	0.189
-207.436	-123.703	-0.107	-0.017
-206.421	15.393	0.199	0.154
-205.406	-56.864	0.097	0.042
-204.392	38.532	-0.045	0.040
-203.377	-22.435	-0.227	-0.135
-202.363	-110.546	0.124	-0.025
-201.348	-32.708	-0.354	-0.194
-200.333	180.639	-0.197	-0.286
-199.319	-123.688	-0.258	0.040
-198.304	-2.670	-0.085	-0.058
-197.290	-21.236	-0.141	-0.085
-196.275	-119.908	0.243	-0.041
-195.260	18.695	-0.149	-0.118
-194.246	93.480	-0.229	-0.256
-193.231	-31.605	-0.264	0.146
-192.217	367.502	-0.028	-0.055
-191.202	19.866	0.396	0.315
-190.187	-83.560	0.097	0.030
-189.173	-112.109	0.346	0.069
-188.158	-77.981	0.034	-0.012
-187.144	301.324	0.043	-0.078
-186.129	4.192	0.387	0.280
-185.114	-200.000	-0.045	0.217
-184.100	-29.038	0.292	0.165
-183.085	800.000	-0.054	-0.192
-182.071	-32.307	-0.063	0.035
-181.056	-200.000	0.023	-0.240
-180.042	-4.048	0.153	0.105
-179.027	-76.455	-0.489	0.169
-178.012	-15.835	-0.342	-0.215
-176.998	81.464	-0.228	-0.243
-175.983	43.139	-0.014	-0.013
-174.969	-143.732	0.122	-0.011
-173.954	-24.457	-0.056	0.033
-172.939	-200.000	0.004	0.140
-171.925	0.682	-0.402	-0.284
-170.910	167.685	0.071	0.099
-169.896	-143.127	0.325	-0.031
-168.881	254.956	-0.179	-0.302
-167.866	-200.000	0.031	0.320
-166.852	706.531	0.112	0.291
-165.837	1.178	-0.142	-0.101
-164.823	-82.074	0.291	0.093
-163.808	-46.743	0.325	-0.157
-162.793	-200.000	-0.037	0.214
-161.779	-200.000	0.031	0.137
-160.764	171.535	-0.078	0.111
-159.750	-40.732	0.351	0.179
-158.735	-103.465	-0.057	-0.013
-157.720	-86.611	0.291	0.088
-156.706	730.341	-0.085	0.224
-155.691	-142.589	-0.155	-0.015
-154.677	124.614	-0.145	-0.179
-153.662	6.189	0.208	-0.152
-152.647	-135.872	-0.180	0.021
-151.633	800.000	0.113	0.396
-150.618	-200.000	0.039	-0.242
-149.604	13.218	-0.192	-0.146
-148.589	-200.000	0.082	-0.412
-147.574	78.081	0.221	-0.232
-146.560	-200.000	0.009	-0.070
-145.545	-111.190	0.319	-0.064
-144.531	-200.000	-0.051	0.283
-143.516	-129.373	-0.175	-0.024
-142.502	800.000	-0.053	-0.158
-141.487	-200.000	-0.024	-0.177
-140.472	-200.000	0.013	-0.219
-139.458	-26.013	0.135	0.078
-138.443	-97.669	-0.229	-0.059
-137.429	134.892	0.105	0.134
-136.414	800.000	0.021	-0.063
-135.399	-181.409	0.065	0.001
-134.385	-177.124	-0.258	-0.006
-133.370	-128.604	0.491	0.068
-132.356	392.494	0.089	0.182
-131.341	106.716	-0.174	-0.204
-130.326	-200.000	-0.028	0.228
-129.312	800.000	0.041	0.120
-128.297	102.262	0.117	0.134
-127.283	292.495	0.195	-0.350
-126.268	-200.000	-0.066	0.526
-125.253	315.054	0.101	0.187
-124.239	-3.582	0.084	-0.057
-123.224	-153.362	0.220	-0.015
-122.210	711.091	-0.031	-0.082
