DTS Sentinel unit serial number:	SN413079Multiplexer serial number:	ORYXHardware model number:	OX4-SRSoftware version number:	ORYX F/W v4.00 Oryx Data Collector v3.7.2.0data status	okinstallation	princeton_trtdifferential loss correction	single-endedforward channel	channel 2reverse channel	N/Adate	2019/09/18time	11:55:35forward acquisition time	60.00reverse acquisition time	0.00gamma	496.2192k internal	0.2325k external	0.2325temperature offset calibration	0.9988default loss term (dB/km)	0.3790temperature slope calibration	1.0000multiplexer offset coefficient	1.0000multiplexer slope coefficient	1.0000fibre end	0.00T internal ref (°C)	31.42T ext. ref 1 (°C)	0.48T ext. ref 2 (°C)	27.81length (m)	temperature (°C)	Stokes	anti-Stokes-747.200	-118.126	-0.249	-0.045
-746.185	43.590	-0.087	0.081
-745.171	800.000	-0.016	0.046
-744.156	490.556	-0.032	0.075
-743.142	800.000	0.062	0.219
-742.127	19.894	-0.236	0.192
-741.112	34.727	0.359	0.317
-740.098	300.310	-0.208	0.387
-739.083	-65.145	0.188	-0.077
-738.069	261.040	0.183	0.320
-737.054	800.000	-0.067	-0.195
-736.039	-72.254	-0.252	0.094
-735.025	-73.769	0.135	0.049
-734.010	108.381	0.085	-0.102
-732.996	-69.162	-0.301	-0.117
-731.981	-141.849	-0.137	-0.014
-730.966	35.952	-0.231	-0.205
-729.952	36.229	-0.179	-0.159
-728.937	-147.717	-0.440	-0.037
-727.923	132.819	-0.260	-0.339
-726.908	594.836	-0.069	-0.173
-725.894	-38.876	0.232	-0.123
-724.879	-76.258	0.118	-0.042
-723.864	-127.489	-0.207	-0.030
-722.850	-49.663	-0.276	-0.132
-721.835	-200.000	0.032	-0.232
-720.821	-177.894	0.070	0.002
-719.806	323.595	-0.137	-0.264
-718.791	800.000	0.049	-0.154
-717.777	-58.602	0.203	-0.089
-716.762	-83.648	-0.363	-0.117
-715.748	84.337	-0.183	-0.202
-714.733	-151.674	-0.281	-0.021
-713.718	354.979	0.049	0.097
-712.704	522.988	0.057	-0.135
-711.689	-146.762	-0.559	-0.049
-710.675	-119.090	0.290	-0.051
-709.660	174.818	0.304	-0.443
-708.645	606.942	-0.079	0.199
-707.631	23.535	-0.393	-0.326
-706.616	117.269	-0.095	0.117
-705.602	111.913	-0.097	0.118
-704.587	-97.265	-0.067	0.018
-703.572	800.000	0.057	-0.211
-702.558	-110.304	0.278	0.058
-701.543	-200.000	0.019	0.090
-700.529	18.853	-0.107	0.086
-699.514	-88.383	0.348	-0.105
-698.499	-98.436	-0.057	0.015
-697.485	15.366	-0.284	-0.224
-696.470	-125.690	0.141	-0.021
-695.456	800.000	0.033	0.113
-694.441	24.136	-0.179	-0.149
-693.426	-89.758	-0.299	0.088
-692.412	-200.000	0.004	0.092
-691.397	-200.000	-0.058	-0.390
-690.383	-200.000	-0.034	-0.232
-689.368	-83.487	0.330	-0.106
-688.354	-24.755	0.223	0.134
-687.339	-74.684	0.065	0.024
-686.324	-28.663	0.417	-0.241
-685.310	-200.000	0.026	-0.178
-684.295	-200.000	-0.014	-0.255
-683.281	-200.000	0.048	-0.336
-682.266	-141.459	0.199	-0.020
-681.251	262.765	-0.179	-0.312
-680.237	-150.641	0.179	-0.014
-679.222	-9.042	0.447	-0.301
-678.208	800.000	-0.016	-0.056
-677.193	-135.693	-0.233	-0.028
-676.178	242.216	-0.086	0.145
-675.164	129.084	-0.241	0.310
-674.149	-76.099	0.160	-0.057
-673.135	249.733	0.111	-0.189
-672.120	-57.223	0.252	-0.112
-671.105	-200.000	0.002	0.084
-670.091	-89.295	0.143	-0.043
-669.076	-174.750	0.126	-0.004
-668.062	800.000	0.094	-0.351
-667.047	800.000	0.040	0.122
-666.032	34.256	0.205	0.180
-665.018	-200.000	-0.019	-0.103
-664.003	-67.597	0.138	-0.055
-662.989	398.968	-0.107	-0.226
-661.974	-200.000	0.021	-0.098
-660.959	453.446	0.119	0.265
-659.945	-200.000	0.021	0.117
-658.930	8.584	-0.367	-0.278
-657.916	204.604	0.093	0.145
-656.901	-135.965	0.348	0.041
-655.886	-200.000	-0.035	0.210
-654.872	800.000	-0.124	-0.368
-653.857	-104.328	-0.267	0.062
-652.843	26.986	-0.097	0.082
-651.828	-200.000	0.010	-0.099
-650.814	117.757	-0.132	-0.163
-649.799	-200.000	0.009	-0.111
-648.784	90.258	0.164	-0.184
-647.770	-126.450	0.195	0.029
-646.755	119.889	0.010	-0.012
-645.741	-121.549	-0.235	0.039
-644.726	278.217	-0.025	0.045
-643.711	93.512	0.149	0.170
-642.697	214.359	-0.094	0.150
-641.682	-68.368	-0.347	-0.135
-640.668	-23.557	-0.189	-0.114
-639.653	-96.562	0.251	-0.067
-638.638	366.940	-0.082	0.166
-637.624	211.365	-0.194	-0.306
-636.609	-122.678	0.036	-0.006
-635.595	141.435	-0.110	0.146
-634.580	164.286	-0.125	-0.176
-633.565	-176.637	-0.209	0.005
-632.551	490.830	-0.163	0.375
-631.536	16.896	-0.166	0.132
-630.522	-93.404	-0.356	-0.099
-629.507	-200.000	0.000	-0.082
-628.492	-200.000	-0.059	0.279
-627.478	800.000	-0.081	-0.324
-626.463	87.972	-0.169	0.188
-625.449	288.544	0.143	-0.260
-624.434	77.659	0.139	0.149
-623.419	800.000	-0.075	-0.262
-622.405	-118.890	-0.395	-0.070
-621.390	-200.000	0.002	0.055
-620.376	92.555	-0.268	0.303
-619.361	-9.481	0.055	0.037
-618.346	800.000	0.088	-0.249
-617.332	-200.000	0.041	-0.386
-616.317	-96.396	0.118	0.031
-615.303	39.415	-0.353	-0.317
-614.288	50.318	0.097	-0.092
-613.273	553.576	0.048	-0.116
-612.259	-104.226	-0.320	0.075
-611.244	-35.506	-0.197	0.107
-610.230	-200.000	0.007	0.125
-609.215	-27.484	0.048	-0.028
-608.201	-52.902	0.099	-0.046
-607.186	58.675	0.145	-0.143
-606.171	794.827	0.077	0.213
-605.157	207.497	-0.106	0.167
-604.142	49.472	-0.272	-0.257
-603.128	-98.629	0.191	-0.049
-602.113	-1.623	0.250	0.177
-601.098	-124.597	-0.143	0.022
-600.084	-25.186	0.114	0.068
-599.069	-169.047	-0.295	0.011
-598.055	-200.000	-0.098	0.470
-597.040	-20.088	0.171	-0.106
-596.025	-44.104	0.120	0.061
-595.011	-80.574	0.085	0.028
-593.996	-56.119	-0.218	0.097
-592.982	-200.000	-0.030	0.277
-591.967	-125.502	0.304	-0.046
-590.952	724.263	-0.113	0.302
-589.938	-200.000	-0.007	0.051
-588.923	-64.912	0.143	0.058
-587.909	112.755	0.237	-0.288
-586.894	-7.475	0.089	-0.060
-585.879	269.314	0.018	0.032
-584.865	-88.993	-0.174	0.052
-583.850	183.430	0.055	0.082
-582.836	129.952	-0.041	0.053
-581.821	547.665	-0.038	-0.092
-580.806	-32.690	-0.348	0.194
-579.792	-90.569	-0.098	-0.028
-578.777	800.000	0.012	0.037
-577.763	800.000	-0.048	-0.152
-576.748	800.000	0.112	-0.392
-575.733	-88.580	0.114	0.034
-574.719	62.549	0.193	-0.193
-573.704	-78.642	-0.271	-0.093
-572.690	111.599	-0.199	-0.240
-571.675	514.175	0.117	-0.275
-570.661	-31.700	-0.364	-0.205
-569.646	-98.232	0.268	-0.069
-568.631	800.000	-0.044	-0.187
-567.617	-163.805	0.190	-0.009
-566.602	181.712	0.055	-0.081
-565.588	192.953	0.022	-0.033
-564.573	20.306	0.080	0.065
-563.558	-104.716	-0.258	-0.060
-562.544	-200.000	0.039	-0.368
-561.529	-143.713	0.292	0.028
-560.515	-41.211	-0.099	0.051
-559.500	800.000	0.049	-0.214
-558.485	219.174	0.193	-0.310
-557.471	456.709	0.039	0.086
-556.456	160.087	0.121	-0.169
-555.442	-64.357	0.073	-0.030
-554.427	436.217	-0.113	-0.246
-553.412	29.072	-0.062	-0.053
-552.398	-21.777	-0.029	-0.018
-551.383	27.205	0.066	0.056
-550.369	102.034	-0.207	0.242
-549.354	-86.088	-0.304	-0.094
-548.339	120.518	0.195	-0.243
-547.325	773.023	0.158	0.431
-546.310	37.480	0.228	-0.202
-545.296	477.095	0.065	0.147
-544.281	467.757	0.078	-0.176
-543.266	31.752	-0.176	-0.152
-542.252	-23.610	0.117	0.070
-541.237	95.075	-0.219	0.250
-540.223	-174.475	-0.105	0.003
-539.208	17.733	-0.193	-0.154
-538.193	-200.000	0.004	0.307
-537.179	-76.227	-0.079	0.028
-536.164	172.455	0.138	-0.199
-535.150	-200.000	0.030	-0.188
-534.135	-170.417	0.349	0.012
-533.121	-29.414	-0.343	0.197
-532.106	-200.000	-0.025	-0.198
-531.091	-70.691	-0.368	0.139
-530.077	-115.442	0.166	0.031
-529.062	39.937	-0.061	0.054
-528.048	-9.589	0.210	0.140
-527.033	788.464	0.052	-0.143
-526.018	-200.000	0.011	-0.620
-525.004	-200.000	0.036	-0.284
-523.989	-45.562	-0.042	0.021
-522.975	33.583	0.022	-0.019
-521.960	180.136	-0.175	-0.256
-520.945	-51.497	-0.302	0.141
-519.931	-9.288	0.052	0.035
-518.916	269.738	0.060	0.106
-517.902	-58.838	0.091	0.040
-516.887	-119.532	0.613	-0.106
-515.872	-39.289	0.240	-0.126
-514.858	362.170	-0.063	-0.126
-513.843	-95.179	0.198	0.053
-512.829	206.170	0.100	0.156
-511.814	800.000	-0.162	0.527
-510.799	3.504	0.239	0.174
-509.785	800.000	0.110	-0.332
-508.770	-1.963	-0.286	-0.201
-507.756	-82.954	-0.115	-0.037
-506.741	-101.262	0.156	0.038
-505.726	-97.451	0.089	-0.023
-504.712	120.072	-0.079	-0.098
-503.697	648.353	-0.076	-0.195
-502.683	-200.000	-0.033	0.327
-501.668	-90.892	0.286	0.082
-500.653	188.704	-0.071	-0.106
-499.639	153.027	0.246	-0.337
-498.624	-136.146	0.196	0.023
-497.610	398.173	0.029	0.062
-496.595	107.309	-0.181	0.215
-495.581	45.566	-0.157	-0.145
-494.566	-200.000	-0.003	-0.044
-493.551	800.000	-0.078	0.271
-492.537	-200.000	0.068	-0.305
-491.522	800.000	-0.101	-0.339
-490.508	303.155	0.013	0.023
-489.493	-159.628	0.195	-0.011
-488.478	-200.000	0.060	-0.435
-487.464	-200.000	-0.038	-0.234
-486.449	335.322	0.146	0.282
-485.435	-200.000	-0.049	0.245
-484.420	382.220	-0.038	0.077
-483.405	-56.893	-0.051	0.023
-482.391	-48.444	-0.440	0.212
-481.376	351.981	-0.064	0.127
-480.362	1.377	-0.251	-0.180
-479.347	800.000	0.142	0.475
-478.332	-111.160	-0.150	-0.031
-477.318	-200.000	0.043	0.233
-476.303	43.905	-0.137	-0.126
-475.289	-153.323	0.171	0.012
-474.274	800.000	0.028	-0.111
-473.259	40.982	-0.083	0.075
-472.245	110.084	0.113	-0.136
-471.230	-138.268	0.237	0.026
-470.216	15.855	0.113	-0.089
-469.201	257.741	0.043	0.073
-468.186	-51.040	-0.205	0.096
-467.172	800.000	-0.022	0.072
-466.157	800.000	0.041	-0.123
-465.143	-200.000	-0.025	-0.112
-464.128	24.519	0.275	0.227
-463.113	542.266	-0.127	0.301
-462.099	-113.414	0.033	-0.007
-461.084	-171.908	-0.227	-0.007
-460.070	-71.914	0.242	0.090
-459.055	-200.000	0.023	0.260
-458.040	272.041	0.190	0.334
-457.026	217.733	-0.085	-0.136
-456.011	265.875	0.048	-0.083
-454.997	360.395	0.035	-0.070
-453.982	-200.000	0.007	-0.166
-452.968	-200.000	0.007	-0.141
-451.953	91.843	0.050	-0.056
-450.938	153.758	-0.191	0.261
-449.924	800.000	0.046	0.175
-448.909	81.401	-0.113	-0.121
-447.895	511.899	-0.038	0.088
-446.880	19.389	0.364	-0.291
-445.865	416.770	0.094	0.200
-444.851	-200.000	-0.038	-0.238
-443.836	-73.510	0.239	-0.087
-442.822	283.802	0.239	-0.428
-441.807	-27.932	-0.060	-0.035
-440.792	-200.000	-0.008	0.232
-439.778	-16.319	0.121	-0.077
-438.763	393.905	-0.107	-0.222
-437.749	473.455	0.150	-0.337
-436.734	288.487	0.156	-0.282
-435.719	-200.000	0.010	-0.111
-434.705	35.390	0.036	0.031
-433.690	214.751	0.076	-0.119
-432.676	78.953	0.199	0.212
-431.661	-63.160	-0.229	0.094
-430.646	334.882	-0.060	-0.116
-429.632	800.000	0.055	-0.182
-428.617	-200.000	0.004	0.393
-427.603	-200.000	-0.016	-0.203
-426.588	43.749	-0.145	-0.132
-425.573	-44.481	0.217	-0.108
-424.559	-35.867	0.158	-0.085
-423.544	134.383	-0.100	0.129
-422.530	-200.000	-0.011	-0.116
-421.515	610.275	-0.145	-0.361
-420.500	-77.653	0.284	-0.098
-419.486	-200.000	0.006	-0.075
-418.471	800.000	-0.038	-0.136
-417.457	-82.515	0.187	0.061
-416.442	187.090	0.091	-0.136
-415.428	-91.512	0.383	-0.109
-414.413	-69.441	-0.337	-0.129
-413.398	-49.354	-0.185	0.088
-412.384	570.163	0.128	0.311
-411.369	-51.287	-0.212	0.099
-410.355	107.644	-0.175	-0.208
-409.340	-200.000	0.015	0.235
-408.325	-116.147	0.218	0.040
-407.311	334.823	-0.081	0.156
-406.296	-122.060	0.168	-0.027
-405.282	505.718	0.088	0.203
-404.267	800.000	-0.073	0.257
-403.252	216.624	0.066	0.104
-402.238	-99.393	-0.173	0.043
-401.223	44.531	-0.153	-0.140
-400.209	267.996	-0.063	0.110
-399.194	800.000	-0.030	-0.107
-398.179	-200.000	0.006	0.254
-397.165	-154.591	-0.503	-0.033
-396.150	-5.074	-0.235	-0.161
-395.136	433.203	-0.091	-0.198
-394.121	-29.455	0.349	0.198
-393.106	673.143	-0.121	0.313
-392.092	145.881	0.188	0.250
-391.077	-56.356	0.223	0.098
-390.063	-111.123	-0.395	-0.081
-389.048	-200.000	0.004	0.140
-388.033	-90.249	0.104	0.030
-387.019	-30.625	0.240	0.135
-386.004	-169.388	-0.206	-0.008
-384.990	66.969	-0.088	-0.089
-383.975	-109.468	0.123	-0.026
-382.960	-80.753	-0.138	-0.046
-381.946	-6.000	-0.347	-0.236
-380.931	-79.165	-0.108	-0.036
-379.917	70.819	0.078	0.080
-378.902	-23.851	-0.240	0.143
-377.888	505.804	-0.120	0.277
-376.873	-200.000	-0.039	-0.219
-375.858	-200.000	-0.033	0.214
-374.844	-75.657	-0.015	0.005
-373.829	800.000	0.090	0.272
-372.815	-18.193	0.274	0.170
-371.800	290.013	-0.102	0.183
-370.785	4.284	0.082	0.060
-369.771	113.813	-0.157	0.189
-368.756	33.421	0.200	0.172
-367.742	25.105	0.055	0.046
-366.727	653.646	-0.038	0.096
-365.712	-142.021	-0.531	0.053
-364.698	791.081	-0.089	-0.243
-363.683	389.412	-0.144	0.296
-362.669	-82.658	0.217	-0.070
-361.654	229.727	0.074	0.120
-360.639	-110.620	-0.142	0.029
-359.625	142.689	0.087	-0.115
-358.610	-90.964	-0.287	0.082
-357.596	295.733	-0.180	0.328
-356.581	-76.966	-0.156	-0.054
-355.566	-76.242	0.383	0.134
-354.552	-90.141	-0.174	0.050
-353.537	217.593	-0.117	-0.185
-352.523	-142.416	0.289	0.028
-351.508	-118.116	-0.347	-0.062
-350.493	135.658	-0.089	0.116
-349.479	-29.936	-0.095	-0.054
-348.464	-91.879	-0.185	-0.052
-347.450	-87.865	0.216	0.064
-346.435	404.219	0.167	-0.349
-345.420	800.000	-0.080	0.340
-344.406	-200.000	0.041	-0.232
-343.391	-76.850	-0.192	0.067
-342.377	-110.934	0.330	0.067
-341.362	48.525	0.122	0.114
-340.348	-25.506	0.266	0.156
-339.333	-200.000	-0.037	0.614
-338.318	47.575	0.311	0.288
-337.304	800.000	-0.052	0.167
-336.289	-92.854	-0.173	0.048
-335.275	322.591	0.049	0.093
-334.260	800.000	0.074	-0.222
-333.245	38.187	-0.153	0.135
-332.231	-52.917	0.146	-0.067
-331.216	-167.575	-0.294	0.012
-330.202	-200.000	0.006	-0.064
-329.187	-69.105	-0.115	0.044
-328.172	-152.842	-0.036	-0.003
-327.158	-166.436	-0.172	0.007
-326.143	321.662	0.108	-0.204
-325.129	166.348	-0.054	0.076
-324.114	-200.000	0.028	0.162
-323.099	-10.572	0.069	-0.045
-322.085	87.585	-0.107	0.118
-321.070	-84.100	-0.280	-0.088
-320.056	-200.000	0.002	0.009
-319.041	201.194	-0.131	-0.200
-318.026	175.117	0.094	0.135
-317.012	-200.000	0.036	-0.166
-315.997	-111.810	-0.124	0.025
-314.983	-166.814	0.226	0.009
-313.968	-13.945	0.142	0.091
-312.953	-200.000	-0.036	-0.161
-311.939	4.815	0.145	0.105
-310.924	14.732	-0.187	0.145
-309.910	-200.000	-0.008	0.215
-308.895	-116.737	-0.171	-0.031
-307.880	17.518	0.253	0.199
-306.866	-70.651	-0.319	-0.120
-305.851	-200.000	0.016	-0.121
-304.837	405.448	0.069	-0.144
-303.822	800.000	-0.076	-0.245
-302.807	-40.150	0.157	0.081
-301.793	700.479	-0.014	0.038
-300.778	-109.679	0.009	-0.002
-299.764	800.000	-0.053	-0.183
-298.749	503.908	0.104	0.238
-297.735	-200.000	0.023	0.213
-296.720	-138.489	0.108	0.012
-295.705	-128.385	0.194	0.027
-294.691	-24.824	0.375	0.221
-293.676	800.000	0.025	-0.107
-292.662	-200.000	-0.011	-0.082
-291.647	-200.000	-0.039	-0.243
-290.632	-106.507	0.254	-0.056
-289.618	-8.296	0.167	-0.112
-288.603	-43.812	-0.220	-0.110
-287.589	-200.000	-0.036	-0.172
-286.574	146.351	0.185	0.246
-285.559	-71.856	0.265	-0.098
-284.545	100.191	-0.109	0.126
-283.530	-184.746	0.133	-0.002
-282.516	-200.000	0.023	-0.099
-281.501	-11.002	0.320	-0.209
-280.486	-98.417	-0.336	-0.085
-279.472	-9.570	-0.332	0.219
-278.457	640.880	-0.139	0.350
-277.443	800.000	0.074	0.289
-276.428	165.560	-0.130	-0.182
-275.413	-4.963	-0.171	0.116
-274.399	-118.173	-0.052	0.009
-273.384	236.570	-0.105	0.173
-272.370	-63.324	-0.034	0.014
-271.355	-96.034	-0.409	-0.108
-270.340	26.165	-0.115	-0.095
-269.326	-94.884	-0.198	-0.053
-268.311	304.684	-0.077	-0.142
-267.297	73.590	-0.302	-0.314
-266.282	-200.000	-0.057	0.309
-265.267	-135.923	-0.022	-0.003
-264.253	-200.000	-0.004	-0.033
-263.238	-200.000	-0.013	-0.248
-262.224	-50.202	-0.106	-0.050
-261.209	800.000	-0.091	0.349
-260.195	800.000	0.011	0.036
-259.180	9.166	-0.253	0.189
-258.165	-92.679	-0.197	-0.055
-257.151	-120.310	-0.508	0.086
-256.136	42.956	-0.230	0.207
-255.122	497.954	-0.098	-0.224
-254.107	97.921	0.070	-0.079
-253.092	800.000	-0.044	0.133
-252.078	-16.233	-0.171	-0.107
-251.063	-200.000	-0.018	-0.393
-250.049	-119.397	0.053	0.009
-249.034	240.399	0.089	0.147
-248.019	-121.933	0.149	-0.024
-247.005	114.752	0.026	0.031
-245.990	4.827	0.247	0.180
-244.976	35.529	0.255	0.222
-243.961	387.910	0.205	-0.420
-242.946	738.091	-0.060	0.159
-241.932	726.862	0.042	0.110
-240.917	-200.000	-0.018	-0.245
-239.903	-200.000	0.035	0.284
-238.888	-31.005	0.203	-0.113
-237.873	-200.000	-0.004	-0.024
-236.859	-200.000	0.019	0.093
-235.844	655.397	0.037	-0.095
-234.830	68.463	-0.059	0.060
-233.815	-38.211	0.366	-0.192
-232.800	43.247	0.192	-0.173
-231.786	-61.040	0.100	0.042
-230.771	-80.658	0.118	0.039
-229.757	106.165	0.161	-0.189
-228.742	-200.000	0.025	-0.242
-227.727	25.056	-0.315	-0.258
-226.713	-69.395	-0.275	-0.104
-225.698	-59.900	0.204	0.086
-224.684	-200.000	0.043	-0.190
-223.669	317.846	0.349	0.653
-222.655	29.137	0.319	-0.268
-221.640	-23.988	-0.025	0.015
-220.625	-200.000	0.044	0.342
-219.611	800.000	-0.057	0.182
-218.596	37.862	0.096	0.085
-217.582	-84.376	0.387	0.121
-216.567	246.119	-0.147	-0.245
-215.552	-98.310	0.128	-0.032
-214.538	-176.268	-0.461	-0.012
-213.523	-109.825	0.016	0.003
-212.509	-81.303	-0.206	-0.067
-211.494	341.909	0.124	-0.240
-210.479	-124.805	0.423	-0.065
-209.465	-55.960	-0.264	-0.116
-208.450	-127.354	0.267	0.038
-207.436	-200.000	0.013	0.404
-206.421	-153.699	-0.069	0.005
-205.406	-104.455	0.123	0.028
-204.392	-200.000	0.014	0.106
-203.377	800.000	-0.083	0.283
-202.363	-146.406	0.482	-0.042
-201.348	588.952	0.156	0.379
-200.333	13.925	0.210	0.161
-199.319	-200.000	-0.046	0.242
-198.304	-57.198	-0.102	0.044
-197.290	-56.030	-0.168	0.074
-196.275	-177.246	0.066	0.002
-195.260	-200.000	-0.016	-0.386
-194.246	-200.000	-0.003	-0.168
-193.231	-24.197	0.344	-0.203
-192.217	290.488	0.086	-0.154
-191.202	-67.098	0.301	-0.117
-190.187	-200.000	0.041	0.207
-189.173	-45.579	0.114	-0.056
-188.158	-159.417	-0.259	-0.014
-187.144	-27.061	0.316	-0.182
-186.129	-160.082	0.266	-0.014
-185.114	371.425	-0.250	-0.502
-184.100	-200.000	0.023	-0.222
-183.085	-31.970	-0.127	0.070
-182.071	-170.140	0.194	0.007
-181.056	41.230	0.296	0.264
-180.042	450.298	0.045	-0.098
-179.027	-200.000	-0.013	0.231
-178.012	-68.534	-0.041	0.016
-176.998	-60.877	0.328	0.137
-175.983	-93.887	-0.133	0.036
-174.969	463.777	-0.090	0.197
-173.954	109.950	0.237	0.281
-172.939	-200.000	-0.041	-0.484
-171.925	-118.404	0.313	0.055
-170.910	-109.201	0.211	0.044
-169.896	-46.770	-0.142	-0.069
-168.881	-195.587	-0.357	0.003
-167.866	-112.638	-0.157	0.031
-166.852	255.412	-0.046	-0.079
-165.837	72.491	0.169	-0.174
-164.823	-34.873	0.126	-0.068
-163.808	-200.000	-0.033	-0.243
-162.793	66.696	-0.257	0.258
-161.779	-200.000	0.003	-0.211
-160.764	55.129	-0.136	0.130
-159.750	92.301	-0.263	0.292
-158.735	-200.000	-0.034	-0.159
-157.720	800.000	0.074	-0.203
-156.706	800.000	0.105	0.296
-155.691	-173.618	-0.059	0.002
-154.677	-97.757	0.216	-0.055
-153.662	-200.000	-0.034	0.242
-152.647	-200.000	-0.011	-0.128
-151.633	72.075	-0.174	0.178
-150.618	-148.455	0.348	-0.028
-149.604	-200.000	0.024	0.231
-148.589	-133.071	0.169	0.021
-147.574	-143.560	0.231	-0.022
-146.560	-50.919	0.179	0.083
-145.545	372.470	0.106	-0.213
-144.531	341.826	-0.035	-0.067
-143.516	402.608	-0.135	-0.280
-142.502	-31.433	0.030	-0.016
-141.487	-105.775	-0.145	-0.032
-140.472	-59.957	0.150	0.063
-139.458	351.026	0.167	0.326
-138.443	1.426	0.242	0.171
-137.429	374.104	-0.177	-0.356
-136.414	-101.043	0.105	-0.025
-135.399	231.747	-0.137	0.222
-134.385	-0.667	0.143	0.100
-133.370	679.619	-0.044	-0.113
-132.356	75.367	0.078	0.081
-131.341	-184.961	0.250	-0.004
-130.326	-11.162	0.087	-0.056
-129.312	-200.000	0.004	-0.169
-128.297	-200.000	-0.020	0.124
-127.283	21.538	0.282	0.226
-126.268	262.641	-0.093	-0.160
-125.253	-13.852	-0.173	-0.110
-124.239	-38.261	-0.212	0.111
-123.224	-133.058	0.044	0.005
-122.210	-33.422	0.175	-0.095
-121.195	59.403	0.289	0.280
