DTS Sentinel unit serial number:	SN413079Multiplexer serial number:	ORYXHardware model number:	OX4-SRSoftware version number:	ORYX F/W v4.00 Oryx Data Collector v3.7.2.0data status	okinstallation	princeton_trtdifferential loss correction	single-endedforward channel	channel 2reverse channel	N/Adate	2019/09/11time	18:53:10forward acquisition time	60.00reverse acquisition time	0.00gamma	496.2192k internal	0.2292k external	0.2292temperature offset calibration	1.0034default loss term (dB/km)	0.3790temperature slope calibration	1.0000multiplexer offset coefficient	1.0000multiplexer slope coefficient	1.0000fibre end	0.00T internal ref (°C)	42.73T ext. ref 1 (°C)	1.27T ext. ref 2 (°C)	35.07length (m)	temperature (°C)	Stokes	anti-Stokes-747.200	73.215	-0.324	-0.347
-746.185	395.564	0.039	0.083
-745.171	-132.535	-0.122	0.016
-744.156	-200.000	-0.098	0.560
-743.142	283.438	-0.037	0.069
-742.127	-200.000	-0.003	0.077
-741.112	-200.000	-0.001	0.102
-740.098	800.000	0.150	0.458
-739.083	60.391	-0.278	0.281
-738.069	-46.889	-0.482	0.241
-737.054	149.158	0.058	0.080
-736.039	-200.000	-0.009	0.081
-735.025	164.452	-0.147	-0.212
-734.010	-125.973	0.145	-0.022
-732.996	-200.000	-0.003	0.209
-731.981	-91.871	-0.184	0.053
-730.966	-131.244	-0.452	0.061
-729.952	-200.000	0.008	0.241
-728.937	-41.829	-0.277	0.145
-727.923	-17.361	-0.117	0.075
-726.908	207.205	-0.110	-0.175
-725.894	-19.310	0.410	-0.260
-724.879	-76.315	-0.113	-0.041
-723.864	-37.617	-0.231	-0.126
-722.850	-92.868	-0.208	0.059
-721.835	-0.509	-0.232	-0.169
-720.821	-200.000	0.009	-0.115
-719.806	391.499	0.167	0.355
-718.791	-200.000	-0.029	0.204
-717.777	-200.000	-0.016	0.423
-716.762	-43.416	0.060	0.031
-715.748	-114.263	0.228	-0.045
-714.733	-29.027	-0.121	0.071
-713.718	159.017	-0.127	-0.181
-712.704	-200.000	-0.325	0.000
-711.689	198.444	-0.133	-0.209
-710.675	-200.000	0.024	-0.114
-709.660	-128.335	0.282	-0.041
-708.645	-71.143	-0.051	0.019
-707.631	-200.000	-0.009	0.278
-706.616	148.583	0.100	0.138
-705.602	-14.374	0.109	-0.071
-704.587	454.400	0.063	0.143
-703.572	-92.167	-0.019	-0.005
-702.558	-6.583	-0.184	0.128
-701.543	285.411	-0.078	0.143
-700.529	800.000	-0.053	-0.219
-699.514	-108.562	-0.176	-0.039
-698.499	199.916	0.094	0.147
-697.485	-15.988	0.142	0.092
-696.470	-200.000	-0.013	-0.191
-695.456	800.000	0.063	0.189
-694.441	71.855	-0.132	-0.140
-693.426	590.193	0.054	0.137
-692.412	-53.611	-0.133	-0.062
-691.397	206.466	0.126	0.201
-690.383	-30.259	0.121	-0.070
-689.368	-60.672	-0.334	0.145
-688.354	-66.438	0.108	0.044
-687.339	-200.000	0.008	-0.047
-686.324	-120.719	0.354	-0.061
-685.310	1.805	0.416	0.306
-684.295	-72.922	0.128	0.048
-683.281	-148.785	0.067	0.006
-682.266	-200.000	0.027	-0.228
-681.251	220.156	-0.169	-0.276
-680.237	134.268	0.092	-0.121
-679.222	-129.822	0.204	0.029
-678.208	-89.327	-0.148	-0.045
-677.193	-102.611	0.345	-0.084
-676.178	7.062	-0.308	-0.234
-675.164	49.570	-0.200	-0.192
-674.149	-200.000	0.033	0.542
-673.135	-30.063	-0.177	0.103
-672.120	-114.346	0.282	0.055
-671.105	0.344	0.156	-0.114
-670.091	24.039	-0.205	0.172
-669.076	126.180	0.169	0.218
-668.062	-50.060	0.304	0.147
-667.047	43.425	0.221	-0.206
-666.032	800.000	-0.047	-0.172
-665.018	16.131	0.253	-0.203
-664.003	-48.893	-0.184	0.090
-662.989	-163.200	-0.201	0.010
-661.974	664.922	0.113	0.298
-660.959	86.888	0.121	0.136
-659.945	800.000	-0.029	-0.105
-658.930	-23.781	0.048	0.029
-657.916	151.059	0.134	0.186
-656.901	-7.739	-0.143	-0.098
-655.886	-140.175	0.079	0.008
-654.872	-47.289	-0.128	-0.064
-653.857	-117.336	-0.375	-0.069
-652.843	715.436	0.029	-0.079
-651.828	-200.000	-0.027	-0.251
-650.814	95.304	0.233	0.270
-649.799	-71.611	-0.174	-0.066
-648.784	664.339	-0.150	-0.394
-647.770	419.024	-0.039	0.086
-646.755	-69.479	0.302	-0.118
-645.741	201.340	-0.172	-0.269
-644.726	-52.775	-0.101	-0.047
-643.711	-138.602	-0.074	0.008
-642.697	-200.000	-0.005	0.078
-641.682	118.204	0.236	0.296
-640.668	-200.000	0.032	-0.280
-639.653	16.804	-0.133	0.107
-638.638	-4.830	0.084	-0.059
-637.624	800.000	0.059	-0.190
-636.609	85.380	-0.069	0.077
-635.595	91.609	-0.086	0.098
-634.580	46.459	-0.279	0.264
-633.565	-200.000	-0.024	0.257
-632.551	-71.474	-0.201	0.077
-631.536	-134.266	-0.163	0.020
-630.522	-108.592	0.324	-0.071
-629.507	-113.457	-0.100	-0.020
-628.492	800.000	0.111	-0.389
-627.478	154.224	-0.049	0.069
-626.463	12.641	-0.078	0.062
-625.449	-52.077	-0.295	0.139
-624.434	-2.823	-0.205	-0.146
-623.419	156.270	0.177	0.249
-622.405	-4.348	-0.127	0.090
-621.390	8.574	-0.331	-0.253
-620.376	-58.322	-0.366	-0.162
-619.361	-200.000	0.072	0.326
-618.346	-133.895	0.069	-0.009
-617.332	154.649	0.218	0.305
-616.317	5.955	-0.288	0.217
-615.303	238.423	0.148	-0.250
-614.288	-200.000	0.044	0.469
-613.273	-71.239	0.233	-0.089
-612.259	-58.990	0.200	0.088
-611.244	-200.000	0.007	-0.066
-610.230	-200.000	-0.007	-0.047
-609.215	13.992	0.066	-0.053
-608.201	-112.481	0.186	0.038
-607.186	524.475	0.058	-0.139
-606.171	226.479	0.173	-0.285
-605.157	416.754	-0.030	-0.064
-604.142	-66.175	0.304	0.123
-603.128	134.105	0.178	-0.235
-602.113	125.492	0.266	-0.341
-601.098	800.000	0.067	0.192
-600.084	-88.511	-0.068	0.021
-599.069	-39.721	-0.072	-0.039
-598.055	-103.848	0.026	0.006
-597.040	210.562	0.104	0.166
-596.025	126.019	-0.127	0.163
-595.011	-104.569	-0.170	-0.040
-593.996	756.629	-0.063	0.174
-592.982	-40.116	-0.184	0.098
-591.967	800.000	-0.151	0.486
-590.952	-200.000	0.065	0.307
-589.938	117.586	-0.082	-0.102
-588.923	419.579	0.070	-0.152
-587.909	446.194	-0.103	0.230
-586.894	-13.089	0.184	-0.122
-585.879	-200.000	-0.010	0.056
-584.865	66.173	0.255	-0.263
-583.850	-42.771	-0.214	-0.110
-582.836	-89.159	-0.284	-0.085
-581.821	-92.325	-0.078	0.022
-580.806	136.784	-0.064	0.085
-579.792	-200.000	-0.001	0.050
-578.777	-200.000	0.006	0.119
-577.763	-37.456	0.192	-0.104
-576.748	-200.000	-0.020	0.238
-575.733	49.035	-0.235	-0.225
-574.719	144.957	-0.229	-0.312
-573.704	-61.209	0.168	-0.072
-572.690	56.444	-0.215	-0.213
-571.675	-200.000	0.037	-0.493
-570.661	-87.641	0.206	-0.063
-569.646	800.000	0.056	-0.212
-568.631	40.085	0.046	-0.042
-567.617	645.120	-0.112	-0.291
-566.602	52.257	-0.164	0.159
-565.588	351.599	-0.072	0.145
-564.573	158.898	0.192	0.272
-563.558	45.895	-0.146	0.137
-562.544	89.608	0.132	-0.149
-561.529	252.592	0.188	-0.326
-560.515	113.135	0.144	-0.177
-559.500	-200.000	-0.012	-0.232
-558.485	-113.416	-0.329	-0.066
-557.471	36.573	-0.270	0.242
-556.456	-200.000	0.002	0.294
-555.442	-9.149	0.047	0.032
-554.427	-200.000	0.029	-0.139
-553.412	-30.579	-0.149	0.086
-552.398	800.000	-0.074	0.224
-551.383	-106.485	-0.187	0.042
-550.369	800.000	-0.099	0.372
-549.354	-22.667	0.228	-0.140
-548.339	325.399	-0.043	-0.083
-547.325	-200.000	-0.004	-0.134
-546.310	-112.013	-0.227	0.047
-545.296	29.243	0.060	0.052
-544.281	15.851	0.188	-0.150
-543.266	-74.992	-0.151	-0.055
-542.252	710.922	0.050	-0.134
-541.237	-85.932	-0.179	0.056
-540.223	-140.032	-0.563	-0.060
-539.208	480.537	0.086	0.198
-538.193	778.454	0.050	-0.140
-537.179	295.263	0.029	0.053
-536.164	-59.580	0.199	0.087
-535.150	-200.000	0.026	0.331
-534.135	-200.000	0.024	-0.335
-533.121	-28.110	0.094	0.055
-532.106	-168.173	-0.135	0.005
-531.091	553.623	-0.082	0.200
-530.077	94.546	0.278	-0.321
-529.062	5.150	-0.025	-0.019
-528.048	-25.765	-0.119	-0.071
-527.033	40.799	-0.129	0.118
-526.018	-200.000	-0.002	0.105
-525.004	595.916	0.098	0.247
-523.989	-160.614	-0.241	0.013
-522.975	102.053	-0.029	-0.035
-521.960	-137.495	-0.191	0.022
-520.945	295.863	0.167	0.311
-519.931	554.208	-0.036	0.089
-518.916	-175.708	0.346	-0.009
-517.902	-91.379	0.269	-0.078
-516.887	698.858	0.109	0.290
-515.872	-103.196	0.159	0.038
-514.858	80.684	-0.265	0.290
-513.843	161.991	-0.155	0.221
-512.829	-200.000	-0.011	0.050
-511.814	800.000	-0.052	0.223
-510.799	-200.000	-0.010	0.049
-509.785	71.114	-0.176	0.185
-508.770	-105.029	-0.241	-0.056
-507.756	800.000	0.042	-0.160
-506.741	212.731	-0.107	-0.171
-505.726	229.841	-0.068	-0.112
-504.712	-41.418	-0.342	0.178
-503.697	-150.856	0.375	-0.029
-502.683	69.547	-0.093	-0.097
-501.668	-129.334	-0.200	0.028
-500.653	384.461	-0.124	0.259
-499.639	118.394	0.120	-0.150
-498.624	306.354	-0.054	-0.102
-497.610	338.758	-0.130	0.257
-496.595	27.551	-0.094	0.081
-495.581	-136.475	0.178	-0.021
-494.566	-79.343	0.336	-0.115
-493.551	-168.160	-0.509	-0.020
-492.537	-200.000	-0.018	0.526
-491.522	800.000	-0.031	0.106
-490.508	-200.000	0.028	0.200
-489.493	800.000	-0.055	-0.160
-488.478	-166.758	-0.197	-0.008
-487.464	800.000	-0.011	-0.031
-486.449	800.000	0.109	-0.397
-485.435	-94.134	-0.181	-0.050
-484.420	-17.748	-0.224	0.142
-483.405	-200.000	0.000	0.077
-482.391	550.748	-0.084	-0.203
-481.376	-51.762	0.115	0.054
-480.362	78.603	0.029	0.032
-479.347	98.015	-0.222	-0.259
-478.332	800.000	-0.019	-0.076
-477.318	-147.499	0.210	0.018
-476.303	800.000	0.064	0.210
-475.289	800.000	-0.150	0.438
-474.274	1.337	0.219	-0.160
-473.259	-90.129	-0.191	0.056
-472.245	-95.067	0.167	-0.046
-471.230	-200.000	-0.050	0.308
-470.216	-108.599	0.145	-0.032
-469.201	800.000	-0.080	-0.256
-468.186	37.497	-0.054	-0.049
-467.172	-92.752	-0.097	0.028
-466.157	623.016	0.145	-0.370
-465.143	-71.323	-0.281	0.107
-464.128	800.000	0.010	-0.040
-463.113	284.671	-0.101	-0.185
-462.099	-144.133	-0.187	-0.018
-461.084	-103.222	-0.210	0.050
-460.070	-84.676	-0.398	-0.127
-459.055	10.906	0.247	0.191
-458.040	22.007	-0.217	0.179
-457.026	36.446	0.185	0.165
-456.011	407.135	-0.078	0.168
-454.997	48.304	-0.215	-0.204
-453.982	150.367	-0.248	0.341
-452.968	800.000	-0.004	0.014
-451.953	-200.000	0.008	-0.120
-450.938	-77.515	-0.219	0.077
-449.924	-200.000	-0.071	0.376
-448.909	-36.223	0.207	-0.113
-447.895	-200.000	0.023	-0.207
-446.880	-200.000	-0.002	-0.105
-445.865	-200.000	0.047	-0.413
-444.851	-200.000	0.012	-0.193
-443.836	800.000	0.052	0.160
-442.822	-35.218	-0.256	0.141
-441.807	-71.507	-0.091	0.034
-440.792	21.432	0.252	0.207
-439.778	-139.377	-0.367	0.040
-438.763	-63.072	0.089	0.037
-437.749	27.404	-0.083	0.070
-436.734	-200.000	-0.049	-0.255
-435.719	-158.674	0.387	-0.022
-434.705	-98.254	-0.227	0.059
-433.690	-19.269	-0.127	0.079
-432.676	703.185	0.133	-0.353
-431.661	800.000	-0.066	0.201
-430.646	134.401	-0.230	0.302
-429.632	400.876	0.087	0.185
-428.617	63.882	-0.040	-0.040
-427.603	587.936	0.176	-0.437
-426.588	-181.737	0.235	0.005
-425.573	-27.715	0.260	-0.153
-424.559	-120.714	0.413	-0.071
-423.544	-200.000	-0.006	0.051
-422.530	800.000	-0.055	0.210
-421.515	-59.457	-0.276	-0.120
-420.500	-176.183	0.034	-0.001
-419.486	-79.657	0.114	-0.039
-418.471	800.000	0.038	0.162
-417.457	-200.000	0.034	-0.227
-416.442	-36.677	-0.226	-0.123
-415.428	-62.164	0.134	-0.056
-414.413	-4.988	0.187	0.130
-413.398	-103.962	0.192	-0.045
-412.384	79.582	-0.090	0.097
-411.369	263.912	0.072	0.126
-410.355	309.294	0.120	0.227
-409.340	-128.649	-0.240	0.034
-408.325	-27.058	-0.164	0.096
-407.311	-200.000	-0.039	0.214
-406.296	122.345	-0.059	0.075
-405.282	-69.910	-0.241	-0.093
-404.267	-86.473	0.199	0.062
-403.252	246.138	0.082	0.139
-402.238	-23.775	-0.053	0.032
-401.223	800.000	-0.106	-0.318
-400.209	-48.442	-0.399	0.194
-399.194	-200.000	-0.004	-0.193
-398.179	-120.611	-0.108	-0.018
-397.165	-117.375	0.159	0.029
-396.150	-50.311	0.391	-0.186
-395.136	-153.322	-0.205	0.014
-394.121	93.096	-0.149	0.170
-393.106	800.000	0.060	0.246
-392.092	-121.310	0.217	-0.037
-391.077	-81.618	0.137	-0.045
-390.063	-138.386	-0.031	-0.003
-389.048	262.179	-0.099	-0.173
-388.033	800.000	-0.056	0.206
-387.019	800.000	-0.074	0.289
-386.004	-134.160	-0.246	-0.031
-384.990	90.040	-0.152	0.172
-383.975	266.113	-0.062	0.108
-382.960	-155.277	-0.170	0.011
-381.946	800.000	0.063	-0.256
-380.931	-93.299	0.149	0.042
-379.917	-200.000	-0.059	-0.263
-378.902	70.119	-0.112	-0.117
-377.888	189.832	0.269	-0.407
-376.873	34.977	-0.163	-0.144
-375.858	-72.962	0.203	0.075
-374.844	-200.000	-0.018	0.158
-373.829	-133.420	0.204	-0.026
-372.815	-198.301	-0.170	-0.001
-371.800	800.000	0.035	0.122
-370.785	249.120	0.090	-0.154
-369.771	800.000	0.094	-0.269
-368.756	-200.000	0.016	-0.195
-367.742	60.068	-0.044	0.043
-366.727	-77.309	-0.128	0.045
-365.712	55.870	0.217	0.213
-364.698	-79.753	0.071	0.024
-363.683	158.103	-0.080	-0.112
-362.669	229.146	0.098	-0.161
-361.654	-68.276	0.115	-0.045
-360.639	44.371	0.134	-0.124
-359.625	305.725	-0.120	0.226
-358.610	-94.977	0.390	-0.106
-357.596	65.599	-0.071	0.073
-356.581	139.968	0.085	-0.113
-355.566	-118.155	-0.225	0.040
-354.552	132.057	0.075	-0.097
-353.537	113.349	0.224	-0.274
-352.523	-200.000	0.028	-0.252
-351.508	-200.000	-0.012	-0.299
-350.493	-10.395	-0.229	-0.153
-349.479	-200.000	0.056	-0.327
-348.464	147.022	-0.115	0.156
-347.450	-156.206	-0.142	0.009
-346.435	60.032	-0.098	0.097
-345.420	-200.000	-0.007	0.078
-344.406	-57.503	0.188	0.083
-343.391	-179.603	0.177	-0.004
-342.377	800.000	-0.051	0.193
-341.362	-152.371	0.180	0.013
-340.348	-200.000	-0.067	-0.363
-339.333	174.899	-0.093	-0.136
-338.318	79.512	0.088	-0.095
-337.304	102.398	0.108	-0.127
-336.289	142.281	0.134	0.179
-335.275	-200.000	0.133	-0.001
-334.260	800.000	0.046	-0.183
-333.245	-20.991	0.238	0.147
-332.231	265.531	0.091	-0.161
-331.216	66.634	0.047	0.048
-330.202	8.117	0.127	0.096
-329.187	9.986	-0.068	-0.052
-328.172	-55.639	0.099	-0.044
-327.158	141.335	-0.265	0.354
-326.143	-155.447	-0.332	-0.022
-325.129	-62.175	-0.189	-0.080
-324.114	-66.371	0.075	0.030
-323.099	-21.958	0.080	-0.049
-322.085	800.000	0.098	0.274
-321.070	-9.893	0.143	-0.096
-320.056	-200.000	0.043	0.238
-319.041	800.000	-0.052	-0.170
-318.026	-34.272	0.161	0.089
-317.012	-192.165	-0.156	-0.002
-315.997	-147.935	-0.294	0.025
-314.983	-137.403	-0.185	-0.021
-313.968	-106.194	-0.153	0.034
-312.953	45.302	-0.091	0.084
-311.939	152.505	0.164	-0.226
-310.924	171.109	0.159	-0.230
-309.910	733.512	0.141	-0.379
-308.895	-24.346	0.079	-0.047
-307.880	-200.000	0.001	0.167
-306.866	80.086	-0.083	0.090
-305.851	800.000	0.033	-0.143
-304.837	-56.246	0.118	-0.053
-303.822	-101.426	0.039	-0.010
-302.807	219.472	0.063	0.101
-301.793	-106.462	0.156	-0.035
-300.778	-141.344	-0.267	-0.027
-299.764	-95.680	0.204	-0.055
-298.749	512.679	0.105	0.245
-297.735	-200.000	0.010	-0.245
-296.720	15.213	0.320	-0.252
-295.705	-30.530	0.214	0.122
-294.691	-200.000	0.011	-0.093
-293.676	540.556	-0.092	-0.221
-292.662	-200.000	-0.033	-0.387
-291.647	-200.000	-0.003	0.041
-290.632	-200.000	0.004	-0.285
-289.618	-200.000	0.045	-0.231
-288.603	-0.145	0.261	0.187
-287.589	-18.729	0.122	0.076
-286.574	227.842	-0.198	-0.324
-285.559	-10.823	-0.025	-0.017
-284.545	-123.839	0.037	0.006
-283.530	-27.310	-0.182	-0.107
-282.516	-63.070	0.049	0.020
-281.501	133.126	-0.209	-0.271
-280.486	-200.000	-0.025	0.155
-279.472	-97.540	0.220	0.057
-278.457	-200.000	0.002	-0.050
-277.443	106.972	0.191	-0.228
-276.428	-77.946	0.038	-0.013
-275.413	108.469	-0.191	-0.230
-274.399	-44.910	0.502	0.251
-273.384	38.383	-0.021	0.019
-272.370	-1.531	0.178	0.126
-271.355	-200.000	0.002	-0.031
-270.340	-200.000	0.007	0.190
-269.326	-200.000	0.012	0.167
-268.311	-13.741	-0.071	0.046
-267.297	-192.756	0.156	-0.001
-266.282	-93.768	0.147	-0.041
-265.267	-71.629	0.326	-0.122
-264.253	38.933	-0.125	-0.113
-263.238	90.994	-0.045	0.050
-262.224	0.484	-0.268	0.192
-261.209	-110.846	0.248	0.051
-260.195	-59.399	0.113	-0.049
-259.180	-200.000	-0.024	-0.297
-258.165	-200.000	-0.030	-0.147
-257.151	-200.000	-0.015	-0.188
-256.136	800.000	0.037	0.158
-255.122	-49.110	-0.152	0.073
-254.107	127.752	-0.123	-0.157
-253.092	-39.678	-0.101	-0.053
-252.078	-85.938	0.128	-0.040
-251.063	800.000	-0.013	0.043
-250.049	25.966	0.171	0.143
-249.034	-200.000	-0.027	0.261
-248.019	-106.136	-0.376	-0.085
-247.005	-119.262	-0.283	0.050
-245.990	800.000	0.030	0.083
-244.976	117.939	-0.183	0.226
-243.961	71.152	0.309	0.321
-242.946	24.148	0.165	0.137
-241.932	-39.704	-0.225	-0.118
-240.917	-160.841	0.046	0.002
-239.903	523.411	0.045	-0.107
-238.888	-136.114	0.258	0.030
-237.873	-117.527	0.370	0.067
-236.859	-173.804	0.218	-0.006
-235.844	180.888	0.092	-0.135
-234.830	418.076	-0.100	-0.215
-233.815	58.697	-0.150	-0.148
-232.800	-200.000	-0.044	0.260
-231.786	-32.950	-0.302	-0.168
-230.771	186.155	-0.044	0.065
-229.757	-5.787	0.098	0.067
-228.742	230.952	0.101	-0.166
-227.727	-70.443	-0.028	-0.011
-226.713	344.364	0.057	0.113
-225.698	-200.000	-0.013	0.118
-224.684	-65.163	0.087	0.035
-223.669	-4.179	0.247	0.172
-222.655	182.963	0.031	0.045
-221.640	-95.289	0.239	0.064
-220.625	5.997	-0.145	-0.108
-219.611	800.000	0.043	-0.157
-218.596	39.666	-0.061	-0.055
-217.582	-96.871	0.375	0.099
-216.567	-200.000	0.015	0.185
-215.552	33.934	-0.130	-0.114
-214.538	167.334	0.137	0.194
-213.523	800.000	0.038	0.150
-212.509	-200.000	-0.013	0.229
-211.494	26.278	-0.023	-0.019
-210.479	175.260	0.006	0.009
-209.465	-126.418	0.241	-0.036
-208.450	-108.417	0.160	-0.035
-207.436	-200.000	-0.032	0.197
-206.421	-200.000	0.025	-0.176
-205.406	-89.984	-0.090	0.026
-204.392	-200.000	-0.036	0.293
-203.377	-10.597	-0.060	0.040
-202.363	800.000	0.068	-0.216
-201.348	800.000	0.053	0.228
-200.333	800.000	0.094	-0.324
-199.319	152.472	-0.193	-0.264
-198.304	-178.127	0.071	0.002
-197.290	-200.000	0.031	-0.176
-196.275	-200.000	0.009	0.169
-195.260	11.543	-0.102	0.079
-194.246	-82.997	0.118	0.038
-193.231	183.312	-0.084	0.124
-192.217	-16.223	0.209	0.133
-191.202	105.103	0.093	-0.110
-190.187	162.487	0.129	0.182
-189.173	-50.156	-0.076	-0.036
-188.158	800.000	0.010	-0.042
-187.144	-200.000	-0.026	0.186
-186.129	-9.527	-0.250	0.167
-185.114	231.351	0.168	-0.275
-184.100	-156.264	0.145	-0.009
-183.085	225.980	0.258	-0.419
-182.071	-200.000	0.015	0.073
-181.056	39.312	0.094	-0.085
-180.042	-200.000	0.013	0.306
-179.027	277.889	0.114	-0.203
-178.012	-110.329	-0.131	-0.027
-176.998	587.450	-0.016	-0.040
-175.983	-80.156	0.152	0.051
-174.969	75.112	0.048	0.050
-173.954	738.750	-0.032	0.085
-172.939	800.000	-0.041	0.154
-171.925	-31.262	-0.271	0.152
-170.910	380.247	0.133	0.272
-169.896	-39.401	-0.142	0.074
-168.881	188.151	-0.128	0.191
-167.866	-126.533	0.196	0.029
-166.852	-74.772	-0.178	0.064
-165.837	636.474	-0.066	0.167
-164.823	-102.696	0.232	0.055
-163.808	-73.039	-0.109	0.040
-162.793	-109.674	-0.124	0.026
-161.779	16.134	0.309	-0.244
-160.764	20.781	-0.111	-0.090
-159.750	800.000	0.105	0.305
-158.735	-200.000	-0.040	0.234
-157.720	800.000	0.042	0.144
-156.706	-200.000	-0.033	0.188
-155.691	237.231	-0.063	-0.104
-154.677	-200.000	-0.031	-0.233
-153.662	-200.000	0.041	-0.549
-152.647	800.000	0.081	-0.262
-151.633	-71.630	0.100	0.037
-150.618	289.759	0.172	0.313
-149.604	-23.279	-0.383	-0.230
-148.589	-183.191	0.310	0.005
-147.574	167.498	0.112	0.158
-146.560	-83.745	-0.070	0.022
-145.545	-200.000	-0.010	0.241
-144.531	-85.587	0.277	-0.086
-143.516	-62.466	-0.176	0.073
-142.502	-15.180	0.244	0.156
-141.487	21.636	0.089	-0.072
-140.472	37.180	0.216	-0.191
-139.458	-200.000	0.017	-0.287
-138.443	339.742	-0.159	0.311
-137.429	-110.175	0.215	-0.045
-136.414	-200.000	-0.040	-0.199
-135.399	611.879	-0.024	-0.060
-134.385	6.595	-0.245	-0.182
-133.370	153.906	0.278	-0.381
-132.356	-77.853	-0.290	-0.100
-131.341	800.000	0.031	0.096
-130.326	35.419	0.150	0.131
-129.312	399.711	-0.147	-0.308
-128.297	-111.209	-0.395	-0.081
-127.283	56.738	-0.037	0.036
-126.268	-200.000	0.019	-0.123
-125.253	-164.066	0.262	-0.012
-124.239	-26.745	0.174	0.102
-123.224	94.632	0.193	0.219
-122.210	-200.000	-0.019	-0.131
-121.195	-37.484	0.379	-0.202
