DTS Sentinel unit serial number:	SN413079Multiplexer serial number:	ORYXHardware model number:	OX4-SRSoftware version number:	ORYX F/W v4.00 Oryx Data Collector v3.7.2.0data status	okinstallation	princeton_trtdifferential loss correction	single-endedforward channel	channel 2reverse channel	N/Adate	2019/09/11time	02:01:10forward acquisition time	60.00reverse acquisition time	0.00gamma	496.2192k internal	0.2332k external	0.2332temperature offset calibration	0.9940default loss term (dB/km)	0.3790temperature slope calibration	1.0000multiplexer offset coefficient	1.0000multiplexer slope coefficient	1.0000fibre end	0.00T internal ref (°C)	29.19T ext. ref 1 (°C)	-0.31T ext. ref 2 (°C)	23.22length (m)	temperature (°C)	Stokes	anti-Stokes-747.200	179.664	0.132	-0.195
-746.185	800.000	0.128	0.389
-745.171	-200.000	-0.003	0.041
-744.156	259.707	-0.035	0.061
-743.142	128.957	-0.186	-0.239
-742.127	20.292	-0.249	0.202
-741.112	-101.394	0.144	0.035
-740.098	800.000	0.120	0.420
-739.083	265.046	0.028	-0.050
-738.069	140.114	-0.190	0.252
-737.054	-35.394	-0.185	0.101
-736.039	-103.959	-0.415	-0.097
-735.025	97.315	-0.061	0.071
-734.010	-56.676	-0.161	0.072
-732.996	146.060	0.110	0.148
-731.981	305.218	0.048	0.089
-730.966	-120.673	-0.239	0.041
-729.952	-200.000	0.043	-0.301
-728.937	-51.367	0.185	-0.087
-727.923	-141.058	0.072	0.007
-726.908	-33.200	-0.539	0.300
-725.894	386.066	0.064	-0.132
-724.879	-200.000	0.039	-0.212
-723.864	233.700	-0.260	-0.431
-722.850	65.771	0.080	-0.082
-721.835	-56.739	0.112	-0.050
-720.821	-98.506	-0.083	-0.021
-719.806	800.000	0.004	-0.019
-718.791	44.499	0.114	-0.105
-717.777	800.000	-0.070	0.195
-716.762	-187.349	0.148	-0.002
-715.748	108.057	-0.186	-0.223
-714.733	-200.000	-0.025	-0.251
-713.718	-29.032	0.314	-0.181
-712.704	150.535	-0.159	-0.217
-711.689	-106.090	0.142	0.032
-710.675	-200.000	-0.004	-0.110
-709.660	-51.533	-0.165	-0.077
-708.645	-53.646	0.101	0.046
-707.631	97.285	0.290	0.334
-706.616	-74.736	-0.103	0.037
-705.602	-200.000	-0.032	0.193
-704.587	48.078	-0.122	0.115
-703.572	169.279	-0.105	0.151
-702.558	-200.000	0.011	-0.056
-701.543	402.529	0.145	-0.307
-700.529	800.000	0.069	0.281
-699.514	-118.809	-0.209	0.037
-698.499	-51.031	-0.133	-0.063
-697.485	-39.410	-0.355	-0.187
-696.470	-46.813	-0.226	0.111
-695.456	76.212	0.244	-0.259
-694.441	69.463	0.198	-0.205
-693.426	-21.133	-0.197	0.121
-692.412	-200.000	-0.035	-0.194
-691.397	-190.220	-0.517	0.006
-690.383	-200.000	0.029	-0.163
-689.368	-18.365	-0.259	0.162
-688.354	-200.000	-0.012	0.274
-687.339	-69.473	0.191	0.073
-686.324	-97.748	-0.218	-0.057
-685.310	57.611	-0.259	-0.254
-684.295	-81.108	-0.079	0.026
-683.281	-200.000	0.029	-0.277
-682.266	-50.033	0.154	0.073
-681.251	16.545	-0.097	-0.077
-680.237	-200.000	0.026	-0.283
-679.222	-13.930	-0.339	0.220
-678.208	800.000	-0.102	-0.343
-677.193	148.332	-0.154	-0.209
-676.178	-83.406	0.161	0.052
-675.164	-111.086	-0.141	-0.029
-674.149	-129.098	-0.154	-0.022
-673.135	-64.945	0.136	0.055
-672.120	800.000	0.121	-0.381
-671.105	800.000	-0.068	-0.264
-670.091	800.000	-0.066	0.260
-669.076	-10.864	0.178	0.118
-668.062	-108.260	-0.275	0.060
-667.047	216.042	-0.121	-0.192
-666.032	-200.000	0.010	-0.232
-665.018	-200.000	0.011	-0.383
-664.003	-194.997	-0.165	-0.001
-662.989	-200.000	-0.005	-0.036
-661.974	800.000	-0.040	-0.139
-660.959	-82.407	0.110	0.036
-659.945	101.117	-0.102	0.119
-658.930	-94.974	-0.306	-0.083
-657.916	-200.000	-0.026	-0.284
-656.901	572.542	-0.026	0.063
-655.886	38.814	0.048	-0.043
-654.872	-200.000	0.031	-0.202
-653.857	-200.000	0.010	0.267
-652.843	-61.073	0.116	-0.049
-651.828	-200.000	0.021	-0.230
-650.814	414.649	0.082	-0.174
-649.799	-84.223	0.242	-0.077
-648.784	51.132	-0.097	-0.092
-647.770	28.668	-0.443	-0.376
-646.755	-200.000	-0.009	-0.203
-645.741	65.325	0.110	-0.112
-644.726	194.969	-0.225	-0.342
-643.711	-200.000	0.006	0.077
-642.697	48.033	0.096	-0.090
-641.682	-74.057	0.151	-0.055
-640.668	318.329	-0.307	-0.582
-639.653	64.393	-0.128	-0.129
-638.638	-200.000	0.001	-0.021
-637.624	275.827	0.035	-0.062
-636.609	800.000	-0.020	-0.064
-635.595	772.101	-0.086	0.235
-634.580	-133.949	-0.291	0.036
-633.565	10.037	0.468	0.356
-632.551	200.432	-0.021	0.032
-631.536	67.333	-0.325	0.332
-630.522	297.029	-0.060	-0.110
-629.507	-120.783	0.255	0.043
-628.492	83.011	-0.159	-0.173
-627.478	74.685	-0.146	-0.154
-626.463	-153.215	-0.075	-0.005
-625.449	800.000	0.078	-0.264
-624.434	102.022	0.031	-0.037
-623.419	-200.000	-0.006	-0.078
-622.405	200.239	0.074	-0.114
-621.390	800.000	-0.035	0.113
-620.376	-81.630	0.310	-0.102
-619.361	27.271	-0.244	-0.205
-618.346	800.000	0.051	0.145
-617.332	-134.902	0.187	0.023
-616.317	32.518	0.139	-0.120
-615.303	219.235	0.021	0.034
-614.288	-59.439	-0.177	0.076
-613.273	602.502	-0.157	-0.392
-612.259	172.904	-0.259	-0.373
-611.244	-128.087	-0.367	0.053
-610.230	-51.631	0.237	0.111
-609.215	-83.020	-0.224	0.072
-608.201	-103.904	0.231	0.054
-607.186	97.545	-0.130	0.149
-606.171	-149.190	0.017	-0.001
-605.157	179.454	0.215	-0.314
-604.142	86.710	-0.405	0.447
-603.128	-66.193	-0.135	-0.054
-602.113	199.754	0.094	0.145
-601.098	800.000	-0.058	0.238
-600.084	-34.038	-0.253	-0.139
-599.069	615.334	-0.043	-0.108
-598.055	389.405	0.103	-0.213
-597.040	800.000	0.084	-0.253
-596.025	-80.357	-0.221	-0.074
-595.011	800.000	0.016	-0.061
-593.996	48.529	0.082	0.077
-592.982	-200.000	0.035	0.299
-591.967	-88.136	0.250	0.075
-590.952	194.843	-0.166	-0.252
-589.938	-154.129	0.121	-0.008
-588.923	-51.746	0.079	0.037
-587.909	800.000	-0.050	-0.173
-586.894	-125.700	-0.372	-0.056
-585.879	-75.797	0.284	0.101
-584.865	-60.690	0.199	-0.084
-583.850	-200.000	0.009	-0.216
-582.836	-155.253	-0.126	0.008
-581.821	464.122	-0.202	0.450
-580.806	262.076	0.084	0.146
-579.792	727.093	-0.166	-0.442
-578.777	-70.924	0.162	0.061
-577.763	-200.000	0.074	0.557
-576.748	672.854	0.060	0.154
-575.733	50.816	-0.185	0.176
-574.719	-200.000	0.033	0.263
-573.704	34.296	-0.261	0.228
-572.690	334.928	-0.036	-0.070
-571.675	-128.697	0.336	-0.047
-570.661	221.347	-0.137	-0.219
-569.646	8.745	-0.360	-0.271
-568.631	-107.184	-0.266	-0.059
-567.617	-70.868	0.123	0.046
-566.602	258.763	0.104	-0.179
-565.588	-200.000	0.021	0.154
-564.573	-156.950	-0.200	-0.012
-563.558	-67.615	0.232	0.091
-562.544	440.344	0.136	0.298
-561.529	-80.840	-0.231	-0.077
-560.515	288.203	0.177	0.319
-559.500	-200.000	0.044	-0.329
-558.485	160.179	-0.215	-0.300
-557.471	-63.165	0.241	-0.099
-556.456	-200.000	0.002	0.318
-555.442	-156.104	-0.295	0.019
-554.427	-192.890	0.221	0.002
-553.412	800.000	0.037	0.112
-552.398	800.000	0.086	-0.349
-551.383	800.000	0.041	-0.162
-550.369	-94.451	0.130	0.036
-549.354	-61.382	0.326	-0.137
-548.339	-55.013	-0.008	0.004
-547.325	-87.532	-0.178	-0.054
-546.310	-107.412	0.042	0.009
-545.296	288.831	-0.147	0.265
-544.281	17.881	0.260	-0.207
-543.266	218.252	0.151	0.240
-542.252	9.340	-0.086	-0.065
-541.237	-200.000	0.039	-0.317
-540.223	107.648	0.134	-0.159
-539.208	103.851	0.302	0.354
-538.193	800.000	-0.064	-0.246
-537.179	-61.182	-0.108	-0.046
-536.164	-200.000	-0.038	-0.172
-535.150	145.050	0.207	0.276
-534.135	-166.025	-0.284	-0.012
-533.121	-127.456	-0.164	-0.024
-532.106	800.000	-0.073	-0.261
-531.091	-112.234	0.197	-0.039
-530.077	132.819	0.116	0.149
-529.062	-200.000	-0.011	-0.100
-528.048	-15.739	-0.131	-0.083
-527.033	-200.000	-0.112	-0.000
-526.018	697.646	-0.044	0.115
-525.004	54.372	-0.300	0.288
-523.989	-155.359	-0.287	0.019
-522.975	603.912	-0.018	-0.045
-521.960	-43.336	-0.295	0.149
-520.945	-73.830	-0.106	0.039
-519.931	-182.179	0.195	-0.004
-518.916	-133.790	-0.181	0.022
-517.902	-57.258	0.120	-0.053
-516.887	-200.000	-0.006	-0.085
-515.872	-56.120	0.221	0.098
-514.858	618.806	-0.068	0.171
-513.843	3.930	0.236	0.172
-512.829	-200.000	0.045	0.332
-511.814	91.766	0.433	0.485
-510.799	-20.588	-0.168	0.103
-509.785	800.000	-0.112	-0.319
-508.770	362.309	0.062	-0.125
-507.756	-36.308	-0.179	0.096
-506.741	-99.516	-0.129	0.032
-505.726	377.227	-0.161	-0.328
-504.712	800.000	-0.014	-0.056
-503.697	-200.000	-0.022	-0.143
-502.683	-169.695	-0.454	-0.016
-501.668	-66.939	-0.103	-0.041
-500.653	-151.554	0.055	-0.004
-499.639	-76.379	-0.179	0.063
-498.624	-173.027	0.201	0.006
-497.610	-112.223	0.337	-0.067
-496.595	-138.276	-0.062	-0.007
-495.581	333.021	0.189	-0.364
-494.566	-88.768	0.198	0.059
-493.551	-150.773	-0.054	0.004
-492.537	-200.000	0.030	0.132
-491.522	-68.728	0.082	0.032
-490.508	-120.141	0.108	0.018
-489.493	30.141	0.017	-0.014
-488.478	31.139	-0.235	-0.201
-487.464	-183.161	-0.231	0.004
-486.449	12.591	0.220	0.169
-485.435	22.147	0.365	0.297
-484.420	-39.384	-0.290	-0.151
-483.405	49.162	0.307	-0.287
-482.391	-100.564	0.218	0.054
-481.376	28.355	-0.250	0.210
-480.362	-66.539	-0.140	-0.056
-479.347	61.480	0.120	-0.118
-478.332	43.383	-0.180	0.164
-477.318	415.162	-0.134	-0.284
-476.303	-62.239	0.295	0.123
-475.289	-2.818	-0.118	-0.082
-474.274	241.068	0.191	-0.317
-473.259	-88.708	0.519	-0.154
-472.245	1.136	-0.133	0.095
-471.230	800.000	-0.087	0.239
-470.216	-117.485	0.224	0.040
-469.201	17.532	-0.080	0.063
-468.186	-31.257	-0.170	0.095
-467.172	-198.000	0.061	0.000
-466.157	-74.483	0.172	-0.062
-465.143	-27.312	0.160	-0.092
-464.128	-200.000	0.101	-0.500
-463.113	300.446	0.141	-0.259
-462.099	-112.288	-0.208	0.041
-461.084	20.209	0.301	0.241
-460.070	-14.611	0.142	-0.091
-459.055	167.351	0.117	-0.165
-458.040	-200.000	-0.026	-0.126
-457.026	129.669	-0.098	-0.125
-456.011	684.077	0.080	0.208
-454.997	-200.000	-0.007	0.359
-453.982	-200.000	0.021	-0.112
-452.968	66.020	-0.180	-0.182
-451.953	-141.897	-0.100	-0.010
-450.938	306.382	0.158	-0.292
-449.924	18.198	0.179	0.142
-448.909	800.000	-0.055	0.156
-447.895	-200.000	0.164	0.000
-446.880	-200.000	-0.064	0.000
-445.865	800.000	-0.088	-0.266
-444.851	-35.055	-0.294	-0.159
-443.836	-94.184	0.203	-0.055
-442.822	-116.294	0.143	0.026
-441.807	800.000	-0.092	0.381
-440.792	175.587	-0.245	0.353
-439.778	276.173	0.096	-0.170
-438.763	-25.436	-0.466	-0.274
-437.749	181.822	0.039	0.058
-436.734	89.620	0.093	-0.103
-435.719	-72.431	0.300	-0.110
-434.705	-91.139	0.165	-0.047
-433.690	-200.000	-0.043	-0.258
-432.676	173.214	-0.202	-0.290
-431.661	-144.241	-0.277	-0.026
-430.646	656.641	-0.105	0.269
-429.632	-200.000	-0.041	0.256
-428.617	-16.386	0.282	0.178
-427.603	89.947	0.108	0.120
-426.588	-131.383	0.257	0.034
-425.573	-48.244	0.068	-0.033
-424.559	-200.000	0.002	-0.118
-423.544	-109.864	-0.050	-0.010
-422.530	-200.000	-0.037	0.182
-421.515	-127.357	-0.261	0.038
-420.500	-9.868	0.255	-0.169
-419.486	800.000	-0.114	-0.333
-418.471	-96.880	0.173	-0.045
-417.457	-141.473	0.033	0.003
-416.442	-78.350	-0.106	0.036
-415.428	-200.000	-0.023	0.358
-414.413	-35.798	-0.063	0.034
-413.398	195.251	0.145	0.219
-412.384	-200.000	0.054	0.350
-411.369	-120.195	-0.447	-0.076
-410.355	-95.326	-0.304	0.081
-409.340	641.711	0.054	0.137
-408.325	-200.000	-0.044	-0.198
-407.311	800.000	0.028	-0.103
-406.296	-53.856	0.223	-0.101
-405.282	109.629	0.128	-0.152
-404.267	-76.397	0.288	0.101
-403.252	408.727	-0.032	0.067
-402.238	327.646	0.083	0.158
-401.223	800.000	-0.083	0.270
-400.209	-108.409	0.014	-0.003
-399.194	58.201	-0.136	-0.133
-398.179	-70.053	0.252	0.095
-397.165	229.250	0.124	0.200
-396.150	-200.000	-0.009	-0.082
-395.136	74.667	-0.139	0.145
-394.121	-92.415	0.520	0.145
-393.106	37.734	-0.091	0.080
-392.092	-10.146	-0.401	-0.264
-391.077	800.000	0.014	0.058
-390.063	800.000	0.057	0.210
-389.048	-33.335	0.143	0.079
-388.033	800.000	-0.052	0.176
-387.019	-113.208	0.273	-0.053
-386.004	-200.000	0.005	0.432
-384.990	51.409	0.162	-0.153
-383.975	-11.943	-0.282	-0.183
-382.960	688.462	-0.118	0.305
-381.946	-31.081	0.169	0.094
-380.931	521.001	0.102	0.238
-379.917	-139.343	0.113	0.012
-378.902	281.425	0.115	0.204
-377.888	400.821	0.182	0.379
-376.873	492.611	-0.106	-0.241
-375.858	378.021	-0.114	-0.231
-374.844	-2.685	-0.103	-0.071
-373.829	-109.716	0.161	0.034
-372.815	-46.443	0.320	-0.156
-371.800	135.630	-0.063	0.082
-370.785	-200.000	0.088	0.443
-369.771	-122.103	-0.286	0.046
-368.756	-138.526	-0.093	-0.010
-367.742	244.183	0.102	-0.170
-366.727	-200.000	0.070	-0.391
-365.712	-59.586	-0.259	0.110
-364.698	51.401	-0.104	-0.098
-363.683	-120.878	-0.392	0.065
-362.669	-200.000	-0.007	-0.489
-361.654	800.000	0.139	-0.445
-360.639	235.767	-0.100	0.163
-359.625	100.900	-0.125	0.143
-358.610	659.125	-0.099	-0.252
-357.596	-200.000	-0.040	-0.315
-356.581	152.820	0.403	0.546
-355.566	-200.000	0.032	-0.192
-354.552	-109.151	-0.042	-0.009
-353.537	658.664	0.083	0.212
-352.523	-22.288	0.277	-0.166
-351.508	445.978	0.135	-0.295
-350.493	-175.646	-0.146	-0.004
-349.479	414.515	0.070	0.147
-348.464	44.674	0.082	-0.075
-347.450	180.384	-0.183	-0.266
-346.435	-200.000	-0.002	-0.082
-345.420	-137.408	0.211	0.024
-344.406	-166.192	-0.242	-0.010
-343.391	-20.791	0.026	-0.016
-342.377	94.499	0.231	0.260
-341.362	-28.747	0.144	-0.082
-340.348	-121.919	0.176	-0.029
-339.333	-191.420	0.186	-0.002
-338.318	334.087	-0.138	0.265
-337.304	-53.344	-0.094	0.043
-336.289	-128.486	0.207	-0.029
-335.275	-38.414	-0.240	0.126
-334.260	-125.397	0.194	-0.029
-333.245	-200.000	0.051	-0.309
-332.231	343.430	-0.087	-0.169
-331.216	-49.080	-0.342	0.162
-330.202	-38.626	0.442	0.231
-329.187	-46.224	-0.299	-0.146
-328.172	800.000	0.025	-0.070
-327.158	-65.301	-0.192	-0.076
-326.143	-32.547	0.221	-0.122
-325.129	113.985	-0.192	0.231
-324.114	27.379	0.209	0.174
-323.099	-127.917	0.322	0.046
-322.085	-200.000	0.022	0.602
-321.070	-200.000	0.013	0.085
-320.056	279.417	-0.089	0.157
-319.041	-51.347	-0.376	0.174
-318.026	-128.524	0.235	0.033
-317.012	-81.069	-0.085	0.028
-315.997	-4.270	-0.102	-0.070
-314.983	-62.081	-0.383	-0.158
-313.968	60.683	0.030	0.029
-312.953	-167.542	-0.209	-0.008
-311.939	800.000	-0.033	0.122
-310.924	177.548	0.070	0.101
-309.910	-158.301	0.142	-0.008
-308.895	-9.293	0.044	-0.029
-307.880	-146.141	-0.277	0.024
-306.866	598.675	-0.111	-0.271
-305.851	739.019	0.034	-0.089
-304.837	-111.423	0.035	0.007
-303.822	45.814	-0.121	-0.111
-302.807	-200.000	0.004	0.167
-301.793	728.447	0.132	0.348
-300.778	-8.726	0.244	0.162
-299.764	-34.010	-0.272	0.148
-298.749	-106.686	-0.151	-0.033
-297.735	426.784	-0.050	-0.107
-296.720	16.810	0.114	-0.090
-295.705	233.930	-0.091	-0.148
-294.691	-200.000	0.087	-0.381
-293.676	-200.000	-0.018	0.123
-292.662	-0.912	-0.108	0.075
-291.647	103.242	-0.125	-0.145
-290.632	-200.000	0.025	0.192
-289.618	269.781	0.205	0.356
-288.603	-89.559	0.285	0.083
-287.589	117.318	-0.170	0.206
-286.574	31.914	-0.077	-0.065
-285.559	800.000	0.087	-0.299
-284.545	11.983	0.228	0.173
-283.530	-200.000	0.012	0.142
-282.516	-200.000	-0.042	-0.218
-281.501	120.255	-0.026	-0.032
-280.486	11.924	-0.270	-0.205
-279.472	-200.000	-0.248	-0.001
-278.457	-79.887	-0.114	-0.038
-277.443	-11.525	-0.173	0.112
-276.428	-61.195	0.184	-0.077
-275.413	247.304	-0.069	0.115
-274.399	-78.108	0.153	-0.052
-273.384	120.635	0.053	0.065
-272.370	253.256	0.135	-0.227
-271.355	-81.818	-0.248	0.080
-270.340	485.861	-0.148	0.334
-269.326	-200.000	0.011	0.106
-268.311	4.728	0.265	-0.192
-267.297	258.797	-0.049	-0.083
-266.282	31.343	0.075	0.064
-265.267	26.713	-0.088	0.073
-264.253	191.966	0.138	0.206
-263.238	-200.000	0.000	-0.519
-262.224	-0.405	0.071	0.049
-261.209	-200.000	-0.004	0.140
-260.195	-54.926	0.078	0.035
-259.180	-97.914	0.314	-0.080
-258.165	-168.678	-0.117	0.004
-257.151	144.574	0.041	0.054
-256.136	-200.000	-0.005	0.238
-255.122	46.705	0.239	-0.219
-254.107	-82.198	-0.075	-0.024
-253.092	763.979	-0.138	-0.369
-252.078	49.523	-0.098	0.091
-251.063	-149.995	-0.097	-0.007
-250.049	23.428	-0.188	0.153
-249.034	-76.110	-0.228	-0.079
-248.019	64.038	-0.178	0.177
-247.005	-150.865	-0.035	0.003
-245.990	41.328	0.076	-0.067
-244.976	42.437	-0.106	0.095
-243.961	84.520	-0.084	0.090
-242.946	-45.720	0.271	-0.132
-241.932	-115.992	0.153	0.028
-240.917	-9.616	0.240	-0.158
-239.903	-24.906	0.155	-0.091
-238.888	22.774	0.074	0.060
-237.873	619.232	0.110	0.273
-236.859	-200.000	0.004	-0.169
-235.844	154.115	-0.019	-0.026
-234.830	-200.000	0.007	0.216
-233.815	-39.618	0.270	-0.139
-232.800	-121.716	-0.183	-0.030
-231.786	-200.000	-0.111	0.544
-230.771	-200.000	0.000	-0.060
-229.757	-139.922	-0.140	0.015
-228.742	-50.732	0.223	0.104
-227.727	-132.544	0.240	0.030
-226.713	-200.000	-0.007	0.030
-225.698	-110.158	-0.274	0.056
-224.684	253.764	0.121	-0.203
-223.669	-27.145	0.134	-0.077
-222.655	-40.539	0.107	0.055
-221.640	-30.761	-0.251	-0.140
-220.625	-200.000	-0.028	0.127
-219.611	43.369	0.021	-0.019
-218.596	7.166	-0.132	-0.097
-217.582	-144.187	-0.052	-0.005
-216.567	180.507	-0.198	0.287
-215.552	-200.000	0.023	0.276
-214.538	111.632	0.220	-0.262
-213.523	-3.068	0.226	0.155
-212.509	-51.470	-0.290	0.133
-211.494	-41.994	-0.189	-0.095
-210.479	-126.226	0.192	-0.028
-209.465	-200.000	0.058	0.411
-208.450	2.304	-0.229	0.163
-207.436	-15.747	0.085	0.053
-206.421	0.660	-0.073	-0.051
-205.406	25.881	-0.270	-0.222
-204.392	605.536	-0.059	0.144
-203.377	800.000	0.045	-0.135
-202.363	158.246	0.168	-0.230
-201.348	-35.172	-0.274	-0.147
-200.333	-59.329	-0.150	-0.063
-199.319	435.712	0.099	0.213
-198.304	66.433	-0.168	-0.168
-197.290	-200.000	0.022	0.133
-196.275	800.000	0.097	0.298
-195.260	-57.142	0.334	0.145
-194.246	-200.000	-0.023	-0.144
-193.231	-200.000	0.003	0.067
-192.217	-27.128	-0.369	-0.212
-191.202	-200.000	-0.033	-0.256
-190.187	561.711	0.031	-0.074
-189.173	122.066	0.052	0.064
-188.158	2.443	0.263	0.187
-187.144	-200.000	-0.005	0.313
-186.129	-79.029	0.090	-0.030
-185.114	-200.000	0.009	0.104
-184.100	-200.000	-0.004	-0.160
-183.085	800.000	0.085	-0.251
-182.071	287.873	-0.260	-0.463
-181.056	224.182	-0.122	-0.193
-180.042	-175.507	-0.242	0.006
-179.027	800.000	-0.060	-0.205
-178.012	-157.649	0.108	0.006
-176.998	800.000	-0.055	-0.214
-175.983	768.878	0.112	-0.301
-174.969	607.485	0.021	0.053
-173.954	71.141	0.038	0.038
-172.939	-130.313	0.058	-0.008
-171.925	76.242	0.188	-0.196
-170.910	684.227	-0.144	0.370
-169.896	24.301	0.065	0.053
-168.881	-132.313	0.087	-0.011
-167.866	800.000	-0.103	0.320
-166.852	203.337	-0.025	0.038
-165.837	229.445	-0.103	-0.165
-164.823	-151.965	-0.220	0.016
-163.808	-114.192	0.113	0.021
-162.793	121.302	0.094	0.116
-161.779	53.108	0.197	0.186
-160.764	44.539	-0.100	0.091
-159.750	-42.911	0.186	-0.093
-158.735	-200.000	-0.030	-0.152
-157.720	-60.784	0.174	0.072
-156.706	287.262	0.175	0.310
-155.691	-200.000	-0.010	0.367
-154.677	-155.865	0.252	-0.016
-153.662	-200.000	-0.031	-0.154
-152.647	50.221	-0.039	-0.037
-151.633	-69.145	-0.275	-0.104
-150.618	800.000	-0.029	0.120
-149.604	-36.630	0.131	-0.069
-148.589	13.278	0.127	-0.097
-147.574	104.869	-0.173	0.200
-146.560	-124.648	-0.246	-0.037
-145.545	-133.993	-0.148	0.018
-144.531	-178.937	0.077	-0.002
-143.516	800.000	0.128	-0.363
-142.502	-18.827	0.297	0.182
-141.487	-200.000	0.005	-0.032
-140.472	29.254	0.011	0.009
-139.458	-24.866	0.241	0.140
-138.443	-200.000	-0.016	-0.121
-137.429	-192.293	0.074	0.001
-136.414	-18.854	-0.255	0.156
-135.399	-200.000	0.032	0.315
-134.385	752.859	0.151	-0.401
-133.370	800.000	0.114	-0.389
-132.356	189.684	-0.187	0.275
-131.341	27.154	0.227	0.187
-130.326	-103.843	-0.347	0.080
-129.312	154.308	0.053	0.072
-128.297	-200.000	-0.075	0.360
-127.283	-109.542	-0.241	-0.050
-126.268	56.741	0.108	-0.103
-125.253	-25.234	0.077	-0.045
-124.239	-105.170	0.322	-0.072
-123.224	104.181	0.268	0.310
-122.210	-132.188	0.057	-0.007
