DTS Sentinel unit serial number:	SN413079Multiplexer serial number:	ORYXHardware model number:	OX4-SRSoftware version number:	ORYX F/W v4.00 Oryx Data Collector v3.7.2.0data status	okinstallation	princeton_trtdifferential loss correction	single-endedforward channel	channel 2reverse channel	N/Adate	2019/09/11time	19:17:10forward acquisition time	60.00reverse acquisition time	0.00gamma	496.2192k internal	0.2301k external	0.2301temperature offset calibration	1.0040default loss term (dB/km)	0.3790temperature slope calibration	1.0000multiplexer offset coefficient	1.0000multiplexer slope coefficient	1.0000fibre end	0.00T internal ref (°C)	41.23T ext. ref 1 (°C)	1.27T ext. ref 2 (°C)	33.47length (m)	temperature (°C)	Stokes	anti-Stokes-747.200	-200.000	0.050	-0.405
-746.185	-15.160	-0.163	0.107
-745.171	-83.226	0.114	0.037
-744.156	800.000	-0.087	0.316
-743.142	7.140	-0.262	-0.199
-742.127	-200.000	0.010	-0.059
-741.112	800.000	-0.056	-0.242
-740.098	73.116	-0.189	0.201
-739.083	2.988	0.206	0.153
-738.069	503.502	-0.183	0.431
-737.054	-200.000	-0.009	-0.132
-736.039	-171.865	-0.049	0.002
-735.025	-66.905	-0.085	0.034
-734.010	115.993	-0.193	-0.240
-732.996	618.091	-0.058	0.148
-731.981	26.271	-0.289	-0.246
-730.966	85.658	-0.195	-0.218
-729.952	800.000	-0.075	0.278
-728.937	-200.000	0.035	-0.172
-727.923	-46.123	-0.187	0.094
-726.908	5.322	-0.136	-0.102
-725.894	-200.000	-0.030	-0.162
-724.879	-162.871	-0.422	-0.021
-723.864	800.000	0.041	0.131
-722.850	-131.031	0.101	0.014
-721.835	-91.767	-0.222	-0.064
-720.821	-20.749	0.252	0.158
-719.806	-200.000	0.045	-0.208
-718.791	-45.600	-0.229	-0.116
-717.777	800.000	-0.012	-0.036
-716.762	140.378	-0.152	-0.205
-715.748	12.830	0.167	0.131
-714.733	-200.000	0.005	-0.079
-713.718	19.179	0.130	0.106
-712.704	-97.654	-0.253	-0.067
-711.689	37.375	0.068	0.061
-710.675	-200.000	-0.034	0.157
-709.660	-200.000	-0.010	0.059
-708.645	-20.247	0.181	0.113
-707.631	107.649	0.192	-0.233
-706.616	30.721	-0.075	0.065
-705.602	-200.000	-0.007	0.183
-704.587	-23.233	-0.158	0.097
-703.572	800.000	-0.167	-0.548
-702.558	-14.916	0.041	-0.027
-701.543	-100.427	0.247	0.062
-700.529	800.000	-0.095	0.269
-699.514	800.000	-0.115	0.379
-698.499	-35.806	-0.074	0.041
-697.485	125.466	0.261	-0.335
-696.470	-172.922	-0.203	-0.006
-695.456	800.000	0.062	-0.179
-694.441	-89.410	-0.235	-0.070
-693.426	7.028	0.244	-0.185
-692.412	-200.000	0.006	0.068
-691.397	16.703	-0.232	-0.187
-690.383	-58.602	-0.042	-0.018
-689.368	800.000	-0.154	-0.532
-688.354	-200.000	-0.017	-0.128
-687.339	-200.000	-0.004	-0.199
-686.324	-102.660	-0.144	0.035
-685.310	800.000	-0.109	0.353
-684.295	-13.905	0.395	0.260
-683.281	293.282	-0.112	0.208
-682.266	-72.785	0.125	0.047
-681.251	194.947	0.265	0.409
-680.237	-102.429	-0.143	-0.035
-679.222	-25.791	-0.006	0.004
-678.208	-174.225	-0.096	-0.003
-677.193	4.182	-0.075	-0.056
-676.178	-41.364	-0.196	0.103
-675.164	-200.000	-0.042	-0.266
-674.149	231.259	-0.076	0.127
-673.135	172.989	-0.189	0.276
-672.120	-200.000	-0.049	0.476
-671.105	-200.000	0.095	0.525
-670.091	-157.844	-0.172	0.010
-669.076	-200.000	0.015	0.158
-668.062	800.000	-0.077	0.293
-667.047	202.848	0.154	-0.241
-666.032	-103.684	0.081	-0.019
-665.018	-200.000	-0.028	-0.211
-664.003	-200.000	-0.013	-0.072
-662.989	-169.751	0.243	-0.009
-661.974	14.973	-0.252	-0.201
-660.959	466.797	-0.017	-0.039
-659.945	-200.000	0.059	-0.303
-658.930	-200.000	-0.046	-0.348
-657.916	340.972	0.163	-0.324
-656.901	-33.592	-0.105	0.059
-655.886	-195.208	0.159	-0.001
-654.872	68.713	0.171	-0.179
-653.857	800.000	-0.040	-0.138
-652.843	-200.000	0.004	-0.202
-651.828	-34.889	0.174	0.096
-650.814	800.000	0.115	0.369
-649.799	-42.347	0.204	-0.106
-648.784	66.271	-0.106	0.109
-647.770	-145.268	-0.150	-0.014
-646.755	-92.009	0.227	-0.065
-645.741	-64.602	-0.142	-0.058
-644.726	800.000	0.059	0.210
-643.711	-52.474	0.249	0.117
-642.697	-200.000	-0.050	0.286
-641.682	-104.717	-0.163	0.038
-640.668	-147.393	0.240	0.021
-639.653	-69.989	-0.063	-0.024
-638.638	463.393	-0.046	-0.104
-637.624	-200.000	0.007	0.108
-636.609	-9.109	0.120	-0.082
-635.595	281.455	0.048	-0.087
-634.580	-186.868	-0.105	-0.001
-633.565	800.000	-0.095	0.302
-632.551	318.540	-0.100	-0.191
-631.536	251.071	-0.096	-0.165
-630.522	-200.000	-0.015	0.127
-629.507	-24.191	0.134	0.081
-628.492	-132.694	-0.272	0.035
-627.478	246.377	0.024	-0.040
-626.463	34.292	-0.196	-0.173
-625.449	-200.000	0.035	-0.164
-624.434	-49.464	-0.390	0.188
-623.419	-200.000	-0.051	0.242
-622.405	-160.386	-0.177	-0.010
-621.390	-200.000	-0.002	-0.151
-620.376	-68.538	0.152	-0.060
-619.361	89.882	-0.355	0.403
-618.346	-101.560	-0.212	-0.052
-617.332	-57.002	-0.140	-0.063
-616.317	49.192	0.079	0.075
-615.303	441.274	0.030	-0.066
-614.288	-200.000	-0.002	-0.282
-613.273	-47.462	0.053	0.026
-612.259	-80.393	-0.190	0.064
-611.244	0.211	-0.151	-0.109
-610.230	-200.000	0.014	0.097
-609.215	800.000	0.014	0.050
-608.201	-42.781	0.244	-0.126
-607.186	-200.000	0.071	0.383
-606.171	233.629	0.096	-0.161
-605.157	-78.432	-0.205	0.071
-604.142	-15.130	0.015	0.010
-603.128	-127.192	0.163	0.024
-602.113	-107.767	-0.115	0.025
-601.098	-200.000	-0.106	0.000
-600.084	208.897	0.057	0.091
-599.069	125.775	0.099	0.127
-598.055	-31.160	-0.108	-0.062
-597.040	-37.762	0.150	0.081
-596.025	-39.397	-0.135	-0.072
-595.011	341.778	-0.068	0.134
-593.996	474.812	-0.136	0.312
-592.982	95.119	0.149	-0.172
-591.967	110.952	-0.091	0.111
-590.952	-200.000	0.005	0.037
-589.938	-97.565	-0.209	-0.055
-588.923	452.943	0.129	-0.289
-587.909	335.770	-0.090	0.176
-586.894	37.867	0.252	0.227
-585.879	-79.202	-0.145	-0.050
-584.865	-109.890	0.127	-0.027
-583.850	-43.720	0.045	-0.023
-582.836	-160.597	-0.370	0.020
-581.821	-59.819	-0.309	-0.134
-580.806	800.000	-0.081	-0.299
-579.792	-200.000	-0.009	0.116
-578.777	-106.043	-0.272	-0.062
-577.763	96.089	0.488	-0.565
-576.748	-124.345	-0.090	-0.014
-575.733	800.000	-0.040	0.125
-574.719	150.507	-0.268	-0.369
-573.704	-96.994	-0.340	-0.090
-572.690	-47.100	-0.303	-0.150
-571.675	-28.495	0.446	0.260
-570.661	464.569	0.107	0.243
-569.646	-40.951	-0.288	-0.151
-568.631	347.757	0.167	0.332
-567.617	-126.588	0.145	0.022
-566.602	-54.040	0.064	-0.030
-565.588	29.054	-0.155	0.133
-564.573	32.024	0.151	-0.131
-563.558	594.871	-0.051	-0.128
-562.544	40.430	0.328	0.299
-561.529	-27.435	-0.227	0.134
-560.515	5.486	-0.400	0.299
-559.500	65.579	0.245	0.251
-558.485	-27.328	0.194	0.114
-557.471	800.000	-0.019	-0.074
-556.456	182.229	0.177	-0.264
-555.442	618.636	0.033	0.084
-554.427	40.439	-0.127	-0.116
-553.412	-4.458	0.042	-0.029
-552.398	-200.000	0.010	-0.179
-551.383	-200.000	0.020	0.244
-550.369	3.008	0.260	-0.191
-549.354	105.217	-0.077	0.093
-548.339	77.579	-0.081	0.087
-547.325	-90.245	0.063	-0.018
-546.310	-200.000	-0.049	-0.335
-545.296	737.935	0.146	-0.396
-544.281	-200.000	-0.003	0.141
-543.266	-200.000	-0.073	0.350
-542.252	-200.000	-0.072	0.438
-541.237	800.000	-0.045	0.161
-540.223	596.563	0.146	0.365
-539.208	-28.910	0.257	0.149
-538.193	-86.646	-0.233	0.072
-537.179	-47.625	0.119	0.059
-536.164	-144.326	-0.269	0.025
-535.150	325.682	0.144	-0.279
-534.135	-200.000	0.040	0.241
-533.121	0.034	-0.123	0.089
-532.106	800.000	-0.166	-0.520
-531.091	574.864	0.058	0.144
-530.077	118.169	0.135	0.169
-529.062	-139.684	0.181	0.019
-528.048	576.172	-0.040	-0.098
-527.033	-200.000	0.029	-0.343
-526.018	-96.875	-0.081	-0.021
-525.004	171.148	0.134	-0.195
-523.989	-14.366	-0.118	-0.077
-522.975	92.295	0.112	0.128
-521.960	469.346	-0.229	0.519
-520.945	-34.071	0.217	0.121
-519.931	12.810	-0.084	0.066
-518.916	59.319	-0.278	-0.277
-517.902	93.624	-0.065	0.074
-516.887	-106.662	-0.046	0.010
-515.872	800.000	-0.056	-0.171
-514.858	344.504	-0.049	0.098
-513.843	-93.866	-0.104	0.029
-512.829	-8.904	-0.116	-0.078
-511.814	-200.000	0.009	0.384
-510.799	-160.331	-0.128	-0.007
-509.785	-129.158	-0.203	0.029
-508.770	75.023	0.272	0.290
-507.756	-61.902	-0.149	-0.063
-506.741	-83.953	-0.257	-0.083
-505.726	-36.357	-0.084	0.045
-504.712	13.551	-0.096	0.075
-503.697	-28.897	0.186	-0.108
-502.683	800.000	0.085	-0.241
-501.668	-37.760	0.120	0.065
-500.653	-200.000	0.074	-0.373
-499.639	-200.000	0.029	-0.137
-498.624	468.305	-0.066	0.151
-497.610	98.249	-0.171	-0.198
-496.595	246.312	0.075	0.127
-495.581	800.000	-0.060	-0.210
-494.566	-84.576	0.228	-0.073
-493.551	-200.000	-0.009	-0.047
-492.537	-3.768	0.033	0.023
-491.522	-89.090	0.458	-0.137
-490.508	-90.416	-0.258	-0.076
-489.493	223.681	0.049	-0.079
-488.478	489.622	0.137	-0.315
-487.464	70.581	0.364	0.380
-486.449	-20.216	-0.258	0.160
-485.435	-67.583	-0.137	-0.054
-484.420	-4.977	-0.245	0.171
-483.405	800.000	-0.041	-0.145
-482.391	-100.519	-0.326	-0.081
-481.376	-55.120	0.372	0.169
-480.362	800.000	0.029	-0.091
-479.347	-121.500	-0.101	0.017
-478.332	130.553	0.152	-0.196
-477.318	-69.268	0.140	-0.054
-476.303	800.000	-0.155	-0.484
-475.289	-194.422	-0.252	0.002
-474.274	-200.000	0.013	0.194
-473.259	-121.778	-0.262	-0.044
-472.245	-54.294	-0.286	-0.131
-471.230	-42.363	-0.170	-0.087
-470.216	800.000	-0.030	0.098
-469.201	-200.000	-0.029	-0.405
-468.186	-73.406	0.301	-0.111
-467.172	-113.575	-0.205	-0.040
-466.157	232.994	0.052	-0.086
-465.143	56.604	0.204	0.200
-464.128	-0.231	0.119	-0.085
-463.113	212.021	0.100	0.159
-462.099	-86.760	-0.292	-0.090
-461.084	458.158	-0.066	-0.147
-460.070	-200.000	-0.024	-0.166
-459.055	64.898	0.068	0.070
-458.040	-3.871	-0.183	0.128
-457.026	-30.557	-0.243	-0.139
-456.011	-182.400	-0.278	0.005
-454.997	-88.497	0.273	0.082
-453.982	-23.099	-0.190	-0.115
-452.968	800.000	0.076	0.237
-451.953	800.000	0.124	0.370
-450.938	72.999	0.200	-0.210
-449.924	-35.572	0.220	-0.120
-448.909	-48.245	0.151	-0.074
-447.895	79.296	-0.198	0.214
-446.880	-200.000	0.025	-0.135
-445.865	397.497	-0.085	-0.179
-444.851	-20.159	-0.175	-0.109
-443.836	-155.779	0.177	0.011
-442.822	184.737	-0.036	0.053
-441.807	547.087	-0.114	0.275
-440.792	-84.365	0.030	-0.010
-439.778	-56.416	-0.276	-0.124
-438.763	-129.406	0.310	0.043
-437.749	113.918	0.164	-0.201
-436.734	800.000	-0.035	-0.126
-435.719	158.743	0.155	0.217
-434.705	-200.000	-0.000	-0.020
-433.690	-129.969	0.287	0.040
-432.676	-36.888	0.177	0.095
-431.661	-200.000	-0.005	-0.038
-430.646	-200.000	0.119	-0.000
-429.632	-200.000	-0.007	0.221
-428.617	0.519	0.068	-0.049
-427.603	-126.507	0.219	0.033
-426.588	-64.646	-0.268	-0.109
-425.573	-200.000	-0.035	-0.198
-424.559	105.608	0.049	-0.058
-423.544	200.894	-0.292	-0.453
-422.530	800.000	-0.062	-0.211
-421.515	-200.000	-0.036	-0.265
-420.500	-174.255	0.126	0.004
-419.486	168.727	0.051	0.074
-418.471	-20.934	-0.091	-0.056
-417.457	-167.110	0.196	0.008
-416.442	-176.494	-0.278	0.007
-415.428	800.000	-0.043	-0.142
-414.413	800.000	-0.047	-0.131
-413.398	-200.000	-0.029	0.223
-412.384	529.400	-0.116	0.275
-411.369	-81.654	-0.175	-0.058
-410.355	-48.422	0.319	0.155
-409.340	-23.039	-0.129	0.078
-408.325	37.924	0.090	-0.081
-407.311	-179.207	-0.212	-0.005
-406.296	-123.096	-0.077	-0.012
-405.282	247.589	0.032	-0.055
-404.267	-47.025	0.093	-0.046
-403.252	463.302	0.134	0.301
-402.238	-90.502	-0.149	-0.043
-401.223	-149.889	-0.004	0.000
-400.209	-36.580	-0.079	-0.043
-399.194	-200.000	-0.009	-0.359
-398.179	121.428	-0.130	-0.163
-397.165	-111.906	-0.247	-0.050
-396.150	287.664	-0.067	-0.122
-395.136	186.247	-0.167	0.250
-394.121	-108.078	-0.259	-0.056
-393.106	114.792	-0.136	0.167
-392.092	-200.000	0.029	-0.149
-391.077	-200.000	0.057	0.325
-390.063	143.536	-0.053	0.070
-389.048	-72.831	-0.463	-0.171
-388.033	675.046	-0.085	-0.222
-387.019	-93.538	-0.060	-0.017
-386.004	15.108	-0.191	-0.150
-384.990	54.442	0.074	0.071
-383.975	82.346	-0.086	-0.094
-382.960	800.000	0.106	0.448
-381.946	-6.256	-0.168	-0.116
-380.931	-36.531	0.220	-0.119
-379.917	57.059	0.214	0.210
-378.902	6.445	0.185	-0.138
-377.888	766.927	0.054	-0.148
-376.873	-4.334	-0.241	0.167
-375.858	-19.125	0.285	0.178
-374.844	-87.720	0.186	-0.056
-373.829	-200.000	0.042	-0.241
-372.815	168.870	-0.196	0.281
-371.800	697.664	0.026	0.070
-370.785	-200.000	0.003	0.192
-369.771	45.218	0.220	-0.204
-368.756	15.017	0.149	-0.117
-367.742	-122.067	-0.139	0.023
-366.727	397.573	0.078	-0.163
-365.712	-67.441	0.080	-0.032
-364.698	800.000	0.078	-0.262
-363.683	43.482	0.238	-0.219
-362.669	39.417	0.107	-0.097
-361.654	-200.000	0.030	0.152
-360.639	-126.572	0.124	0.019
-359.625	-66.231	0.328	0.131
-358.610	-200.000	-0.043	-0.261
-357.596	-144.105	-0.132	0.012
-356.581	-111.982	0.474	-0.096
-355.566	69.185	0.262	-0.271
-354.552	-190.879	-0.112	-0.001
-353.537	-93.161	0.178	0.050
-352.523	-80.941	-0.234	0.078
-351.508	-44.205	0.246	0.124
-350.493	-57.570	0.268	-0.118
-349.479	800.000	0.040	-0.123
-348.464	-24.736	-0.122	-0.073
-347.450	66.976	-0.181	-0.185
-346.435	-200.000	-0.037	-0.367
-345.420	-166.767	-0.196	0.008
-344.406	-159.661	-0.240	-0.013
-343.391	800.000	0.088	-0.317
-342.377	-37.420	0.133	-0.071
-341.362	-82.697	0.141	0.046
-340.348	-200.000	0.029	0.174
-339.333	176.138	-0.116	0.169
-338.318	-146.360	-0.079	-0.007
-337.304	-116.878	-0.196	-0.036
-336.289	76.573	-0.011	0.011
-335.275	133.896	-0.014	0.018
-334.260	44.020	0.243	0.224
-333.245	52.371	-0.149	0.142
-332.231	800.000	0.076	-0.227
-331.216	-38.120	-0.138	-0.073
-330.202	-154.312	0.195	-0.013
-329.187	7.589	0.168	0.126
-328.172	-115.678	-0.101	-0.019
-327.158	800.000	0.021	0.072
-326.143	-121.611	0.109	0.018
-325.129	800.000	0.088	0.297
-324.114	-22.755	0.104	-0.063
-323.099	-156.475	0.068	0.004
-322.085	86.920	0.097	0.107
-321.070	-7.857	-0.232	0.157
-320.056	97.602	0.188	0.217
-319.041	800.000	-0.024	0.084
-318.026	149.699	0.101	0.138
-317.012	-148.797	-0.226	0.018
-315.997	-200.000	-0.029	-0.189
-314.983	120.829	-0.224	0.279
-313.968	247.434	-0.125	0.212
-312.953	-200.000	0.088	-0.390
-311.939	442.911	0.172	-0.379
-310.924	-31.751	-0.052	-0.029
-309.910	-200.000	0.004	-0.160
-308.895	-200.000	0.021	0.210
-307.880	644.490	0.136	0.349
-306.866	242.160	0.113	0.189
-305.851	800.000	-0.053	-0.199
-304.837	1.974	0.165	-0.119
-303.822	49.925	-0.128	-0.121
-302.807	800.000	0.080	0.293
-301.793	-139.021	0.261	-0.028
-300.778	699.698	-0.106	0.279
-299.764	-200.000	-0.003	-0.080
-298.749	36.919	-0.161	-0.142
-297.735	-25.474	0.101	0.060
-296.720	-200.000	-0.022	-0.186
-295.705	-81.166	0.256	-0.085
-294.691	30.796	-0.133	-0.114
-293.676	119.378	0.115	0.143
-292.662	-10.369	-0.149	-0.099
-291.647	800.000	0.101	-0.385
-290.632	-139.150	0.480	0.052
-289.618	-200.000	0.010	0.202
-288.603	213.827	0.056	0.089
-287.589	-200.000	0.023	-0.106
-286.574	-200.000	-0.026	-0.116
-285.559	2.410	0.104	-0.076
-284.545	-11.191	0.208	0.137
-283.530	-200.000	-0.017	0.226
-282.516	-106.170	-0.231	-0.052
-281.501	505.092	0.109	-0.252
-280.486	721.068	-0.082	-0.219
-279.472	-41.184	0.234	0.121
-278.457	-47.945	0.367	0.178
-277.443	24.616	-0.096	-0.079
-276.428	-26.004	-0.183	0.108
-275.413	-63.600	-0.140	-0.058
-274.399	157.356	-0.269	-0.373
-273.384	56.273	0.160	-0.155
-272.370	-200.000	0.066	-0.298
-271.355	-200.000	-0.073	0.420
-270.340	800.000	-0.065	-0.201
-269.326	800.000	0.120	0.487
-268.311	68.004	0.307	-0.315
-267.297	800.000	-0.094	0.294
-266.282	104.302	0.181	0.213
-265.267	-200.000	-0.008	0.125
-264.253	169.362	-0.143	0.205
-263.238	326.733	-0.039	-0.075
-262.224	424.337	-0.038	0.081
-261.209	-50.493	0.278	0.131
-260.195	52.037	-0.167	0.159
-259.180	-200.000	-0.013	-0.207
-258.165	-18.693	0.293	0.183
-257.151	85.768	-0.023	0.026
-256.136	2.599	0.126	0.091
-255.122	-119.185	0.225	0.039
-254.107	-7.596	-0.108	0.073
-253.092	-200.000	0.053	0.260
-252.078	-44.829	0.054	0.027
-251.063	50.196	-0.065	0.062
-250.049	49.514	0.108	0.102
-249.034	-69.848	-0.042	0.016
-248.019	111.623	-0.180	-0.217
-247.005	-112.182	0.300	-0.060
-245.990	104.843	0.159	-0.187
-244.976	-200.000	-0.021	0.120
-243.961	800.000	-0.102	0.313
-242.946	800.000	0.042	0.132
-241.932	-134.230	-0.232	-0.029
-240.917	-200.000	0.023	-0.327
-239.903	364.025	0.068	0.136
-238.888	103.698	0.022	-0.026
-237.873	-200.000	0.058	-0.256
-236.859	-167.911	-0.291	0.011
-235.844	-47.419	0.539	0.262
-234.830	-200.000	0.007	0.095
-233.815	-34.193	0.201	0.111
-232.800	-200.000	0.034	-0.158
-231.786	253.886	-0.109	0.186
-230.771	-200.000	-0.031	0.186
-229.757	555.726	0.146	0.352
-228.742	-200.000	0.076	0.342
-227.727	32.814	0.023	-0.020
-226.713	-200.000	-0.009	0.320
-225.698	-100.237	-0.100	-0.025
-224.684	513.857	0.258	-0.600
-223.669	136.662	0.213	-0.278
-222.655	-200.000	-0.105	-0.479
-221.640	-200.000	0.003	-0.034
-220.625	-52.753	-0.287	-0.132
-219.611	106.357	0.247	-0.292
-218.596	529.889	-0.102	-0.240
-217.582	134.635	0.130	0.168
-216.567	-135.579	-0.345	-0.041
-215.552	-107.013	-0.148	-0.033
-214.538	-155.345	-0.373	0.024
-213.523	-200.000	-0.015	0.160
-212.509	7.144	0.074	-0.055
-211.494	376.438	0.117	-0.238
-210.479	175.133	-0.199	0.288
-209.465	-200.000	-0.049	0.302
-208.450	800.000	0.113	-0.393
-207.436	69.115	-0.223	-0.229
-206.421	-102.280	0.237	0.057
-205.406	-200.000	0.015	-0.348
-204.392	-76.869	0.246	-0.086
-203.377	139.603	0.136	0.179
-202.363	-200.000	0.018	0.142
-201.348	-107.697	0.123	-0.027
-200.333	-200.000	0.011	0.148
-199.319	-64.094	0.166	-0.068
-198.304	212.963	0.020	0.031
-197.290	-200.000	-0.028	-0.138
-196.275	306.734	-0.090	-0.167
-195.260	-7.869	-0.148	-0.100
-194.246	-101.238	0.058	0.014
-193.231	-13.642	-0.268	0.173
-192.217	6.545	0.279	-0.207
-191.202	-150.233	0.405	0.031
-190.187	-200.000	-0.031	-0.182
-189.173	-186.642	-0.265	-0.004
-188.158	-68.721	0.125	0.048
-187.144	800.000	0.078	0.216
-186.129	-29.225	0.270	0.154
-185.114	-78.221	-0.257	-0.088
-184.100	120.426	-0.072	0.090
-183.085	-89.278	0.198	0.058
-182.071	626.599	0.116	0.293
-181.056	800.000	-0.062	0.173
-180.042	-43.491	-0.277	0.140
-179.027	-92.867	-0.342	0.095
-178.012	-36.118	-0.103	0.055
-176.998	-200.000	0.050	-0.494
-175.983	-161.464	0.211	-0.011
-174.969	-200.000	-0.028	0.152
-173.954	-17.488	-0.351	0.220
-172.939	26.186	0.172	-0.143
-171.925	71.139	0.125	-0.129
-170.910	-200.000	-0.032	-0.190
-169.896	-126.601	0.078	-0.012
-168.881	210.494	-0.160	0.251
-167.866	28.244	-0.185	0.156
-166.852	-40.518	0.174	0.090
-165.837	-71.307	0.131	0.049
-164.823	-55.899	0.036	0.016
-163.808	-135.627	0.281	0.033
-162.793	86.157	-0.342	0.376
-161.779	-99.707	-0.092	0.023
-160.764	130.927	0.156	-0.199
-159.750	-62.432	-0.186	0.077
-158.735	121.348	-0.124	0.154
-157.720	675.304	0.041	0.107
-156.706	800.000	0.148	-0.416
-155.691	-50.483	-0.264	0.124
-154.677	110.923	-0.092	-0.110
-153.662	40.590	0.117	0.105
-152.647	-200.000	-0.063	0.394
-151.633	-200.000	-0.010	-0.071
-150.618	-200.000	0.017	-0.083
-149.604	-200.000	0.068	-0.384
-148.589	2.593	-0.048	0.035
-147.574	-200.000	-0.031	-0.140
-146.560	326.310	0.177	-0.338
-145.545	58.073	0.113	-0.110
-144.531	800.000	0.083	-0.294
-143.516	-5.057	0.405	0.278
-142.502	-200.000	-0.002	0.286
-141.487	-200.000	-0.034	-0.212
-140.472	-200.000	-0.064	0.320
-139.458	-9.052	0.375	-0.250
-138.443	98.947	0.118	-0.135
-137.429	57.408	0.089	-0.087
-136.414	-200.000	0.005	0.148
-135.399	-121.409	0.100	-0.017
-134.385	-35.109	0.171	-0.093
-133.370	18.259	0.081	0.064
-132.356	-23.247	-0.173	0.103
-131.341	-36.338	-0.113	-0.061
-130.326	800.000	0.041	0.127
-129.312	-103.522	0.309	0.072
-128.297	-41.863	-0.079	-0.040
-127.283	308.270	0.238	-0.441
-126.268	-85.610	0.136	-0.042
-125.253	261.248	0.204	-0.352
-124.239	-119.748	-0.063	-0.011
-123.224	-66.303	-0.219	-0.087
-122.210	-122.944	0.278	-0.045
