DTS Sentinel unit serial number:	SN413079Multiplexer serial number:	ORYXHardware model number:	OX4-SRSoftware version number:	ORYX F/W v4.00 Oryx Data Collector v3.7.2.0data status	okinstallation	princeton_trtdifferential loss correction	single-endedforward channel	channel 2reverse channel	N/Adate	2019/09/17time	10:23:35forward acquisition time	60.00reverse acquisition time	0.00gamma	496.2192k internal	0.2325k external	0.2325temperature offset calibration	0.9976default loss term (dB/km)	0.3790temperature slope calibration	1.0000multiplexer offset coefficient	1.0000multiplexer slope coefficient	1.0000fibre end	0.00T internal ref (°C)	29.87T ext. ref 1 (°C)	0.17T ext. ref 2 (°C)	25.51length (m)	temperature (°C)	Stokes	anti-Stokes-747.200	-106.363	-0.130	-0.029
-746.185	11.090	-0.217	0.167
-745.171	687.395	-0.146	0.385
-744.156	-200.000	-0.047	0.431
-743.142	340.260	-0.103	0.202
-742.127	143.384	-0.048	-0.064
-741.112	23.545	0.138	-0.115
-740.098	-145.491	-0.322	0.029
-739.083	-34.758	0.235	0.129
-738.069	-24.448	-0.165	0.099
-737.054	-43.274	0.104	0.053
-736.039	350.066	-0.115	-0.229
-735.025	800.000	0.048	0.145
-734.010	-13.104	-0.283	-0.186
-732.996	-200.000	-0.094	-0.530
-731.981	-109.996	-0.090	0.019
-730.966	-25.948	-0.287	-0.170
-729.952	360.253	0.141	-0.284
-728.937	-94.682	-0.412	0.113
-727.923	76.677	-0.075	0.080
-726.908	190.418	-0.161	-0.243
-725.894	-200.000	0.054	-0.239
-724.879	67.528	-0.244	-0.251
-723.864	-63.376	0.044	0.018
-722.850	-172.915	0.120	0.004
-721.835	-186.792	-0.247	0.003
-720.821	8.217	-0.283	-0.214
-719.806	-96.169	0.133	-0.036
-718.791	-65.836	-0.306	0.123
-717.777	49.786	0.081	0.077
-716.762	119.529	-0.134	-0.167
-715.748	800.000	-0.059	0.171
-714.733	800.000	0.109	-0.388
-713.718	328.505	0.144	-0.278
-712.704	-187.792	0.153	-0.002
-711.689	-106.771	0.458	0.103
-710.675	133.044	-0.161	0.210
-709.660	-18.887	0.047	-0.029
-708.645	-200.000	0.006	-0.040
-707.631	-16.095	0.214	0.137
-706.616	-118.164	-0.153	0.027
-705.602	71.104	0.225	-0.235
-704.587	310.192	-0.029	-0.055
-703.572	-141.254	-0.158	-0.016
-702.558	-2.575	0.135	-0.095
-701.543	-200.000	-0.038	0.227
-700.529	-59.825	0.146	0.063
-699.514	-27.080	-0.212	-0.125
-698.499	-108.738	-0.139	0.030
-697.485	7.894	-0.068	-0.051
-696.470	-50.522	-0.108	0.051
-695.456	-200.000	0.056	0.263
-694.441	239.416	0.068	0.114
-693.426	800.000	-0.055	-0.201
-692.412	-200.000	0.027	-0.237
-691.397	800.000	0.062	-0.231
-690.383	124.258	-0.350	-0.443
-689.368	-200.000	-0.031	-0.211
-688.354	129.403	0.196	-0.252
-687.339	156.901	0.131	-0.182
-686.324	704.490	-0.077	0.205
-685.310	158.392	0.210	-0.293
-684.295	-27.643	-0.263	0.154
-683.281	-185.855	-0.253	0.004
-682.266	9.364	-0.057	0.043
-681.251	-100.984	0.033	0.008
-680.237	43.145	0.233	0.214
-679.222	234.405	0.017	-0.029
-678.208	235.910	0.194	0.323
-677.193	370.031	0.103	-0.209
-676.178	243.321	-0.102	-0.171
-675.164	172.714	-0.392	-0.568
-674.149	173.252	0.012	-0.017
-673.135	95.385	0.168	-0.193
-672.120	-200.000	-0.052	-0.322
-671.105	-88.874	0.152	0.045
-670.091	18.941	-0.128	0.103
-669.076	-107.743	-0.413	0.091
-668.062	47.927	0.053	-0.050
-667.047	74.522	0.094	-0.099
-666.032	-50.893	0.090	0.043
-665.018	527.771	-0.161	-0.383
-664.003	-85.859	-0.182	-0.057
-662.989	800.000	0.021	0.064
-661.974	-200.000	-0.021	-0.146
-660.959	196.955	-0.074	0.113
-659.945	248.046	0.234	-0.398
-658.930	30.196	0.117	0.100
-657.916	-200.000	0.025	0.339
-656.901	-200.000	-0.002	-0.500
-655.886	-200.000	0.024	-0.336
-654.872	43.922	-0.229	-0.211
-653.857	-122.739	0.330	0.054
-652.843	130.103	-0.162	-0.208
-651.828	800.000	-0.011	-0.046
-650.814	-200.000	-0.000	0.237
-649.799	110.803	-0.150	-0.182
-648.784	9.571	0.067	0.051
-647.770	-200.000	-0.024	0.109
-646.755	76.030	-0.136	-0.145
-645.741	800.000	0.140	0.416
-644.726	-101.431	-0.151	0.037
-643.711	194.526	-0.241	0.368
-642.697	-42.072	0.135	-0.069
-641.682	112.312	-0.083	-0.101
-640.668	-22.332	-0.171	-0.104
-639.653	-121.767	-0.132	-0.022
-638.638	-200.000	-0.024	-0.159
-637.624	-175.577	0.149	0.004
-636.609	-15.496	0.155	-0.099
-635.595	79.286	0.261	-0.281
-634.580	-100.307	0.244	-0.061
-633.565	-176.017	-0.242	0.006
-632.551	-114.497	-0.090	0.017
-631.536	-174.144	-0.184	0.005
-630.522	-35.460	0.107	0.059
-629.507	-140.549	-0.363	-0.038
-628.492	-200.000	-0.027	0.212
-627.478	-42.280	-0.212	-0.109
-626.463	-200.000	-0.004	0.358
-625.449	-200.000	0.011	0.254
-624.434	114.322	-0.139	-0.170
-623.419	-118.318	-0.156	-0.028
-622.405	800.000	0.080	-0.239
-621.390	166.214	-0.217	-0.309
-620.376	150.853	-0.305	-0.416
-619.361	180.209	-0.090	0.132
-618.346	69.647	-0.108	-0.112
-617.332	800.000	0.029	-0.108
-616.317	252.139	0.077	-0.132
-615.303	-73.993	-0.226	-0.082
-614.288	4.080	0.216	0.159
-613.273	-200.000	0.023	-0.194
-612.259	-35.300	0.148	-0.081
-611.244	-200.000	-0.020	0.302
-610.230	-85.797	0.172	0.054
-609.215	246.562	-0.178	0.302
-608.201	112.624	0.153	-0.186
-607.186	27.205	0.177	0.149
-606.171	-200.000	-0.018	-0.106
-605.157	95.637	0.186	-0.212
-604.142	202.756	-0.063	0.098
-603.128	377.672	0.100	-0.204
-602.113	-7.157	0.154	-0.105
-601.098	222.764	0.157	-0.254
-600.084	129.243	-0.354	0.453
-599.069	-200.000	0.001	0.061
-598.055	-200.000	0.031	-0.281
-597.040	51.733	-0.196	-0.187
-596.025	422.882	0.118	-0.253
-595.011	52.718	0.088	-0.084
-593.996	-200.000	0.002	-0.093
-592.982	-114.721	-0.021	-0.004
-591.967	-104.628	0.242	-0.056
-590.952	216.118	0.057	0.091
-589.938	317.150	0.096	0.182
-588.923	-53.248	-0.284	-0.131
-587.909	215.442	-0.168	-0.267
-586.894	-42.660	0.347	0.177
-585.879	-191.045	0.306	0.003
-584.865	800.000	0.046	-0.151
-583.850	800.000	-0.020	0.080
-582.836	709.684	0.115	0.305
-581.821	243.779	-0.160	0.268
-580.806	112.383	-0.155	-0.188
-579.792	-200.000	-0.005	-0.141
-578.777	80.965	0.095	0.103
-577.763	6.121	0.239	0.178
-576.748	218.637	-0.110	-0.176
-575.733	184.696	0.029	-0.043
-574.719	555.434	-0.053	0.128
-573.704	-46.063	-0.420	-0.207
-572.690	-28.222	0.228	-0.132
-571.675	-19.640	-0.131	0.081
-570.661	-139.071	0.154	-0.017
-569.646	800.000	0.035	0.098
-568.631	93.440	0.247	0.280
-567.617	-137.092	0.488	0.056
-566.602	482.206	0.135	0.307
-565.588	550.012	-0.060	-0.145
-564.573	656.507	0.081	-0.210
-563.558	7.333	-0.211	-0.158
-562.544	178.118	0.086	0.126
-561.529	-69.573	-0.200	0.077
-560.515	-113.567	0.174	-0.034
-559.500	135.095	0.065	0.085
-558.485	-51.105	-0.155	0.073
-557.471	-32.622	-0.211	-0.118
-556.456	171.186	-0.247	0.355
-555.442	305.638	0.169	0.315
-554.427	-44.657	0.217	0.109
-553.412	98.624	0.158	0.183
-552.398	110.675	-0.028	0.034
-551.383	-89.745	-0.069	0.020
-550.369	800.000	-0.067	-0.213
-549.354	320.598	-0.263	0.500
-548.339	97.937	-0.122	-0.141
-547.325	70.059	0.153	-0.158
-546.310	-19.501	0.169	0.105
-545.296	-141.774	-0.151	0.015
-544.281	46.430	0.195	0.181
-543.266	264.704	0.070	-0.122
-542.252	-84.914	-0.037	-0.012
-541.237	-200.000	0.029	-0.237
-540.223	-126.896	-0.147	0.022
-539.208	773.212	0.047	0.129
-538.193	3.887	-0.122	0.089
-537.179	146.353	-0.139	-0.187
-536.164	-10.584	0.224	-0.149
-535.150	-122.600	0.217	0.035
-534.135	-67.524	-0.132	0.052
-533.121	-167.601	0.266	-0.011
-532.106	29.418	-0.166	-0.141
-531.091	-166.330	0.178	-0.007
-530.077	395.289	0.202	-0.421
-529.062	-87.633	0.171	-0.052
-528.048	-137.683	0.209	-0.024
-527.033	186.203	-0.088	-0.131
-526.018	800.000	0.119	-0.385
-525.004	-161.313	-0.261	-0.014
-523.989	-62.749	-0.227	0.094
-522.975	-32.389	0.169	-0.094
-521.960	8.157	0.146	0.110
-520.945	113.768	-0.055	-0.067
-519.931	800.000	0.027	0.094
-518.916	-80.814	0.330	0.110
-517.902	199.314	0.024	0.036
-516.887	125.525	0.106	0.134
-515.872	164.523	0.059	-0.084
-514.858	-113.432	-0.316	-0.062
-513.843	11.906	-0.262	-0.201
-512.829	-48.546	-0.356	0.171
-511.814	51.981	-0.060	-0.057
-510.799	129.656	-0.131	-0.168
-509.785	-177.137	-0.145	0.004
-508.770	-200.000	0.022	0.177
-507.756	259.267	-0.092	0.159
-506.741	-200.000	-0.090	0.465
-505.726	-35.103	0.330	-0.180
-504.712	66.087	-0.075	0.076
-503.697	126.005	0.047	0.060
-502.683	120.899	0.132	0.164
-501.668	-104.803	0.232	0.053
-500.653	32.410	-0.223	0.193
-499.639	23.372	0.140	-0.115
-498.624	-105.499	-0.130	0.030
-497.610	-49.777	0.115	-0.055
-496.595	-200.000	-0.008	0.132
-495.581	-35.854	0.065	-0.035
-494.566	793.936	0.048	0.132
-493.551	-147.054	0.332	0.028
-492.537	-105.411	-0.035	-0.008
-491.522	800.000	0.051	0.152
-490.508	-200.000	0.000	0.008
-489.493	-70.189	0.130	0.049
-488.478	405.282	-0.100	-0.211
-487.464	-113.622	0.171	-0.033
-486.449	395.625	0.019	0.040
-485.435	91.861	-0.285	0.321
-484.420	-88.187	0.235	0.070
-483.405	-10.686	-0.098	0.065
-482.391	82.312	-0.162	0.176
-481.376	68.690	-0.169	0.174
-480.362	-187.437	0.216	0.003
-479.347	-114.850	-0.244	-0.047
-478.332	-21.650	0.217	0.132
-477.318	71.279	-0.159	0.164
-476.303	60.255	0.306	0.302
-475.289	154.305	-0.230	0.315
-474.274	481.303	-0.077	-0.174
-473.259	-171.388	0.344	0.011
-472.245	61.081	0.224	0.222
-471.230	-143.315	0.355	0.034
-470.216	702.309	-0.098	-0.258
-469.201	-63.585	0.124	-0.051
-468.186	-52.215	-0.094	0.044
-467.172	269.154	0.105	-0.184
-466.157	-0.349	-0.116	-0.082
-465.143	595.557	-0.062	0.154
-464.128	800.000	0.040	0.126
-463.113	-117.490	0.164	0.030
-462.099	86.339	-0.237	0.260
-461.084	-108.994	-0.109	-0.023
-460.070	-125.223	0.252	-0.038
-459.055	45.088	-0.157	-0.145
-458.040	-200.000	-0.006	0.041
-457.026	-42.988	-0.117	0.059
-456.011	-114.993	0.235	-0.045
-454.997	-9.301	-0.108	-0.072
-453.982	-163.249	-0.240	0.012
-452.968	-190.529	-0.339	-0.004
-451.953	56.961	-0.121	0.118
-450.938	20.664	0.206	0.166
-449.924	736.729	-0.052	-0.139
-448.909	-179.544	0.222	-0.005
-447.895	-12.199	0.121	-0.079
-446.880	-66.647	-0.214	-0.084
-445.865	145.748	0.239	0.319
-444.851	-200.000	0.046	0.215
-443.836	147.023	0.141	-0.189
-442.822	203.531	-0.079	0.122
-441.807	-200.000	-0.019	0.102
-440.792	22.684	0.248	0.202
-439.778	-114.582	0.231	0.044
-438.763	-152.528	0.302	0.022
-437.749	800.000	-0.132	0.421
-436.734	343.144	-0.071	0.138
-435.719	800.000	-0.121	-0.491
-434.705	-77.909	-0.113	0.039
-433.690	-143.709	0.257	0.024
-432.676	-7.479	-0.236	0.159
-431.661	-200.000	0.031	0.203
-430.646	538.329	-0.107	-0.253
-429.632	-102.531	-0.114	0.027
-428.617	-200.000	-0.030	-0.274
-427.603	800.000	-0.049	-0.192
-426.588	-200.000	-0.109	-0.528
-425.573	-62.893	0.196	0.081
-424.559	-35.468	0.298	-0.161
-423.544	-63.139	0.402	-0.165
-422.530	-7.510	-0.177	0.120
-421.515	-142.777	-0.135	0.013
-420.500	-132.550	-0.268	-0.034
-419.486	-171.773	0.116	0.004
-418.471	111.277	0.266	-0.320
-417.457	-200.000	0.091	0.477
-416.442	-200.000	0.028	0.236
-415.428	-169.125	0.203	0.007
-414.413	-144.181	0.108	-0.010
-413.398	-165.912	0.332	-0.014
-412.384	-70.382	-0.474	0.179
-411.369	-121.635	0.341	0.056
-410.355	800.000	0.097	0.351
-409.340	-141.220	-0.473	-0.048
-408.325	-125.833	0.020	-0.003
-407.311	79.667	0.152	-0.162
-406.296	-81.966	0.171	0.056
-405.282	-200.000	-0.026	0.296
-404.267	139.657	0.147	0.193
-403.252	-33.588	0.175	0.096
-402.238	-197.586	-0.058	0.000
-401.223	800.000	-0.050	-0.138
-400.209	84.062	0.360	-0.392
-399.194	-169.090	0.242	-0.009
-398.179	800.000	-0.120	0.487
-397.165	402.069	0.103	0.216
-396.150	-200.000	0.004	0.038
-395.136	46.377	-0.136	0.126
-394.121	-54.900	0.392	-0.176
-393.106	-200.000	-0.044	-0.241
-392.092	-200.000	-0.006	0.202
-391.077	-200.000	-0.024	-0.140
-390.063	-58.096	-0.208	0.090
-389.048	-88.108	-0.147	0.044
-388.033	-25.284	-0.397	0.234
-387.019	800.000	0.126	0.361
-386.004	133.331	0.266	0.343
-384.990	-166.491	-0.337	-0.014
-383.975	29.248	0.187	-0.158
-382.960	-58.131	0.267	0.116
-381.946	624.382	0.089	0.224
-380.931	-200.000	-0.002	-0.078
-379.917	49.662	-0.109	-0.102
-378.902	-200.000	-0.074	-0.374
-377.888	-200.000	-0.022	0.157
-376.873	102.780	-0.137	0.160
-375.858	-129.911	0.235	-0.032
-374.844	79.842	0.082	0.087
-373.829	-119.469	0.036	-0.006
-372.815	80.156	0.120	-0.129
-371.800	558.661	0.193	-0.463
-370.785	-200.000	-0.007	-0.081
-369.771	-141.241	-0.294	-0.030
-368.756	800.000	0.044	-0.130
-367.742	27.854	0.087	-0.073
-366.727	-143.272	-0.428	0.041
-365.712	8.498	-0.164	0.123
-364.698	61.847	0.050	0.050
-363.683	212.409	0.043	-0.067
-362.669	793.592	0.049	-0.135
-361.654	22.942	0.146	-0.119
-360.639	431.340	-0.159	0.341
-359.625	-200.000	-0.013	0.093
-358.610	21.393	0.210	-0.170
-357.596	170.859	-0.044	0.063
-356.581	800.000	0.093	0.305
-355.566	-15.724	-0.225	0.143
-354.552	137.518	-0.164	0.213
-353.537	-114.073	-0.175	-0.034
-352.523	-43.895	-0.079	0.039
-351.508	105.402	-0.059	-0.069
-350.493	-200.000	0.002	-0.118
-349.479	326.251	-0.089	-0.169
-348.464	487.162	0.045	-0.103
-347.450	-92.449	0.279	0.078
-346.435	-135.821	0.071	0.008
-345.420	-120.111	-0.040	0.007
-344.406	800.000	0.074	-0.209
-343.391	165.776	0.037	-0.052
-342.377	-200.000	-0.210	-0.001
-341.362	-63.048	-0.212	0.087
-340.348	203.267	-0.084	0.129
-339.333	436.083	-0.056	0.122
-338.318	107.018	0.057	-0.067
-337.304	-84.591	-0.396	0.124
-336.289	800.000	-0.104	0.302
-335.275	151.153	-0.102	-0.138
-334.260	-31.451	0.530	-0.296
-333.245	-112.481	-0.328	0.065
-332.231	5.754	0.039	-0.029
-331.216	800.000	-0.026	0.102
-330.202	48.129	0.113	-0.105
-329.187	-179.704	0.163	-0.003
-328.172	179.785	-0.208	-0.302
-327.158	-22.561	0.180	-0.108
-326.143	-156.926	0.382	0.023
-325.129	207.849	-0.172	-0.266
-324.114	-28.814	0.283	0.162
-323.099	96.835	-0.338	0.385
-322.085	103.946	-0.175	-0.204
-321.070	85.614	-0.053	0.058
-320.056	-154.750	0.132	0.009
-319.041	-35.356	0.064	-0.034
-318.026	280.259	-0.134	-0.238
-317.012	792.364	-0.098	0.268
-315.997	800.000	0.125	0.537
-314.983	-34.451	0.204	0.111
-313.968	140.471	-0.085	-0.112
-312.953	295.177	-0.195	0.354
-311.939	5.183	-0.030	0.022
-310.924	83.919	0.188	-0.204
-309.910	-109.769	0.026	-0.005
-308.895	-200.000	0.012	0.093
-307.880	-107.680	0.093	-0.020
-306.866	87.141	-0.149	-0.163
-305.851	-34.047	0.218	-0.119
-304.837	-97.393	0.247	0.064
-303.822	-126.373	-0.206	0.030
-302.807	800.000	-0.069	-0.230
-301.793	800.000	0.088	-0.333
-300.778	-200.000	0.002	-0.142
-299.764	12.329	-0.080	-0.061
-298.749	-120.165	-0.245	-0.041
-297.735	-200.000	-0.026	-0.378
-296.720	-101.146	0.222	-0.054
-295.705	160.296	-0.167	-0.232
-294.691	-49.843	-0.183	0.086
-293.676	21.336	-0.132	0.107
-292.662	156.381	0.118	-0.162
-291.647	190.419	0.115	-0.171
-290.632	800.000	0.059	-0.182
-289.618	533.483	-0.089	0.209
-288.603	800.000	0.113	0.328
-287.589	674.567	-0.068	-0.175
-286.574	-114.109	-0.349	0.067
-285.559	308.232	0.093	0.172
-284.545	-200.000	0.000	-0.060
-283.530	-112.636	-0.269	0.053
-282.516	-200.000	0.001	0.080
-281.501	-102.051	0.167	-0.040
-280.486	127.307	-0.116	-0.145
-279.472	-76.054	-0.163	0.057
-278.457	-200.000	-0.014	0.220
-277.443	800.000	-0.141	-0.421
-276.428	195.619	-0.111	-0.168
-275.413	-96.220	-0.334	0.088
-274.399	196.296	0.088	-0.133
-273.384	-64.088	-0.163	-0.066
-272.370	-200.000	-0.122	0.000
-271.355	-200.000	-0.013	0.184
-270.340	-42.836	0.197	0.099
-269.326	204.413	-0.191	-0.293
-268.311	1.831	0.066	0.047
-267.297	-200.000	0.004	-0.214
-266.282	219.423	0.181	0.287
-265.267	800.000	0.036	0.142
-264.253	15.599	0.133	0.104
-263.238	-200.000	-0.032	-0.176
-262.224	-126.656	0.257	-0.038
-261.209	64.817	0.302	-0.302
-260.195	6.908	0.086	0.063
-259.180	-200.000	-0.080	-0.381
-258.165	-200.000	0.006	-0.211
-257.151	617.319	0.039	0.096
-256.136	-200.000	0.011	-0.332
-255.122	-200.000	-0.004	-0.157
-254.107	-137.814	-0.258	-0.029
-253.092	-109.921	-0.203	-0.042
-252.078	0.571	-0.203	-0.144
-251.063	-88.440	0.374	-0.110
-250.049	559.737	-0.091	-0.219
-249.034	712.519	-0.124	0.325
-248.019	-200.000	0.024	0.272
-247.005	111.042	-0.304	0.363
-245.990	-130.253	0.141	0.019
-244.976	60.790	0.129	-0.126
-243.961	800.000	0.037	-0.147
-242.946	800.000	0.080	0.338
-241.932	-50.418	-0.219	0.103
-240.917	170.760	0.185	-0.262
-239.903	218.302	-0.208	0.329
-238.888	800.000	0.056	-0.157
-237.873	116.815	0.092	-0.112
-236.859	800.000	0.027	0.098
-235.844	-139.989	0.275	-0.029
-234.830	78.318	-0.201	-0.212
-233.815	-13.073	0.303	-0.195
-232.800	-200.000	0.004	0.106
-231.786	6.041	-0.132	0.097
-230.771	-15.564	0.176	-0.111
-229.757	-37.689	0.096	0.051
-228.742	-128.274	-0.347	-0.049
-227.727	97.537	-0.184	-0.209
-226.713	41.102	-0.247	0.221
-225.698	316.993	-0.113	-0.212
-224.684	-9.287	0.083	0.055
-223.669	-44.850	0.323	-0.159
-222.655	-50.202	0.094	-0.044
-221.640	306.193	0.150	0.277
-220.625	800.000	0.051	0.168
-219.611	-12.164	-0.038	-0.025
-218.596	254.607	-0.051	0.086
-217.582	-136.644	0.233	0.027
-216.567	-21.698	-0.056	-0.034
-215.552	242.773	0.137	-0.227
-214.538	352.995	0.147	0.288
-213.523	10.790	0.123	0.093
-212.509	419.098	-0.092	-0.194
-211.494	-48.777	-0.296	-0.141
-210.479	-172.256	-0.363	0.012
-209.465	-60.622	0.251	0.105
-208.450	800.000	-0.035	0.105
-207.436	-200.000	-0.028	-0.486
-206.421	800.000	0.136	-0.389
-205.406	-200.000	0.001	-0.172
-204.392	31.304	-0.041	-0.035
-203.377	800.000	0.097	0.279
-202.363	-117.814	0.082	0.014
-201.348	-50.020	0.143	0.067
-200.333	-200.000	0.003	0.135
-199.319	107.185	-0.100	-0.118
-198.304	80.609	-0.109	0.116
-197.290	-200.000	0.005	0.061
-196.275	90.485	-0.129	-0.143
-195.260	-200.000	0.019	-0.154
-194.246	9.997	-0.225	0.169
-193.231	-56.724	-0.343	0.150
-192.217	21.544	-0.132	0.106
-191.202	151.347	0.088	-0.118
-190.187	-18.203	-0.190	0.117
-189.173	0.970	-0.232	0.164
-188.158	-200.000	0.031	-0.276
-187.144	185.416	0.101	0.149
-186.129	82.647	-0.048	0.051
-185.114	63.703	0.113	-0.112
-184.100	412.237	-0.086	-0.180
-183.085	-56.044	0.209	-0.092
-182.071	-125.387	-0.224	-0.034
-181.056	32.020	-0.255	-0.217
-180.042	-136.112	0.370	-0.043
-179.027	234.842	0.101	-0.165
-178.012	413.808	0.086	0.180
-176.998	87.830	-0.161	-0.176
-175.983	800.000	-0.065	-0.204
-174.969	437.345	0.101	-0.217
-173.954	800.000	0.089	0.279
-172.939	-94.028	-0.104	0.028
-171.925	378.700	-0.191	-0.385
-170.910	-32.911	0.095	0.052
-169.896	-200.000	0.016	-0.353
-168.881	205.687	0.048	0.073
-167.866	-200.000	0.047	0.373
-166.852	453.567	-0.176	-0.385
-165.837	-46.137	-0.199	0.096
-164.823	153.796	-0.040	-0.054
-163.808	-56.702	-0.152	-0.067
-162.793	97.984	0.176	0.200
-161.779	800.000	0.068	-0.187
-160.764	339.773	0.079	0.151
-159.750	800.000	0.136	0.387
-158.735	-110.436	-0.370	0.076
-157.720	-200.000	-0.011	-0.140
-156.706	-39.393	0.233	-0.121
-155.691	-44.254	-0.319	0.158
-154.677	35.814	0.344	-0.298
-153.662	-76.741	-0.236	0.081
-152.647	-142.960	-0.426	0.041
-151.633	-200.000	0.010	0.135
-150.618	-38.715	0.200	0.104
-149.604	-94.609	0.176	0.047
-148.589	-136.792	-0.183	0.021
-147.574	-109.798	0.370	-0.077
-146.560	-7.327	0.165	0.110
-145.545	-200.000	0.011	-0.173
-144.531	317.205	0.071	-0.133
-143.516	800.000	-0.074	-0.262
-142.502	-200.000	-0.153	0.001
-141.487	-103.705	0.180	0.042
-140.472	-115.428	0.052	0.010
-139.458	800.000	0.041	0.137
-138.443	-163.924	0.167	-0.008
-137.429	375.851	-0.076	0.153
-136.414	-95.093	-0.136	0.036
-135.399	800.000	-0.055	0.181
-134.385	-52.515	-0.302	0.137
-133.370	-200.000	-0.010	-0.173
-132.356	68.784	0.111	-0.112
-131.341	-129.463	0.255	-0.035
-130.326	-12.143	0.089	-0.057
-129.312	-197.277	0.153	-0.001
-128.297	117.688	0.171	-0.208
-127.283	-200.000	-0.437	-0.001
-126.268	-52.248	0.357	-0.163
-125.253	-200.000	0.015	0.086
-124.239	-200.000	0.012	-0.122
-123.224	180.053	0.060	-0.087
-122.210	80.654	-0.255	-0.271
-121.195	123.740	0.247	0.306
