DTS Sentinel unit serial number:	SN413079Multiplexer serial number:	ORYXHardware model number:	OX4-SRSoftware version number:	ORYX F/W v4.00 Oryx Data Collector v3.7.2.0data status	okinstallation	princeton_trtdifferential loss correction	single-endedforward channel	channel 2reverse channel	N/Adate	2019/09/11time	06:13:11forward acquisition time	60.00reverse acquisition time	0.00gamma	496.2192k internal	0.2329k external	0.2329temperature offset calibration	0.9935default loss term (dB/km)	0.3790temperature slope calibration	1.0000multiplexer offset coefficient	1.0000multiplexer slope coefficient	1.0000fibre end	0.00T internal ref (°C)	29.50T ext. ref 1 (°C)	-0.20T ext. ref 2 (°C)	23.75length (m)	temperature (°C)	Stokes	anti-Stokes-747.200	-25.950	0.215	0.128
-746.185	-200.000	0.008	-0.154
-745.171	78.467	0.116	0.124
-744.156	-63.941	-0.120	-0.049
-743.142	-127.051	0.255	-0.038
-742.127	-11.789	-0.166	0.110
-741.112	51.526	0.244	-0.233
-740.098	180.109	-0.110	0.163
-739.083	44.621	0.147	-0.136
-738.069	-200.000	0.019	-0.180
-737.054	174.319	0.146	-0.212
-736.039	258.562	-0.176	0.306
-735.025	-54.229	-0.247	0.113
-734.010	-45.639	-0.206	0.103
-732.996	-107.472	-0.349	-0.077
-731.981	-153.150	-0.229	0.016
-730.966	-145.360	0.029	-0.003
-729.952	783.647	-0.019	-0.054
-728.937	800.000	-0.025	0.102
-727.923	-137.587	0.246	-0.028
-726.908	-7.923	-0.158	-0.107
-725.894	-200.000	-0.067	-0.392
-724.879	-200.000	-0.024	-0.220
-723.864	-185.398	-0.203	-0.003
-722.850	62.222	-0.129	-0.130
-721.835	456.770	-0.061	0.136
-720.821	9.217	0.261	0.198
-719.806	242.088	-0.036	0.061
-718.791	-131.714	-0.088	-0.012
-717.777	-36.046	-0.107	-0.058
-716.762	-200.000	0.040	-0.466
-715.748	-148.185	0.260	0.022
-714.733	-107.963	0.337	0.074
-713.718	800.000	0.018	0.056
-712.704	-200.000	0.003	-0.218
-711.689	8.087	0.018	0.013
-710.675	-137.426	-0.407	-0.046
-709.660	165.176	-0.274	0.390
-708.645	-200.000	0.052	0.000
-707.631	42.676	-0.153	-0.140
-706.616	287.116	0.088	-0.159
-705.602	58.115	-0.222	0.219
-704.587	361.180	-0.132	0.266
-703.572	419.411	0.109	-0.235
-702.558	-42.888	-0.202	0.103
-701.543	10.992	0.015	0.011
-700.529	-77.616	-0.085	0.029
-699.514	509.528	-0.083	0.194
-698.499	800.000	0.012	0.045
-697.485	23.939	-0.163	0.135
-696.470	12.685	-0.141	0.110
-695.456	23.609	0.214	0.177
-694.441	-138.916	0.297	-0.032
-693.426	322.365	0.096	0.183
-692.412	110.235	0.227	-0.274
-691.397	-148.286	0.299	0.025
-690.383	-114.689	0.141	0.027
-689.368	-94.495	-0.074	-0.020
-688.354	800.000	0.040	-0.155
-687.339	0.531	-0.160	-0.115
-686.324	50.381	-0.238	-0.226
-685.310	-200.000	0.035	-0.219
-684.295	-73.770	-0.316	-0.116
-683.281	58.021	0.129	-0.127
-682.266	60.662	0.089	-0.088
-681.251	800.000	-0.022	-0.073
-680.237	-82.483	0.113	-0.037
-679.222	-200.000	0.068	0.416
-678.208	-55.045	-0.093	-0.042
-677.193	-97.909	-0.375	-0.097
-676.178	-89.524	0.109	-0.032
-675.164	-24.963	0.215	0.128
-674.149	-71.728	-0.340	0.127
-673.135	218.238	0.147	-0.235
-672.120	-200.000	-0.049	-0.229
-671.105	800.000	0.069	0.199
-670.091	-128.319	0.117	0.017
-669.076	-200.000	0.005	-0.258
-668.062	-20.869	0.255	-0.157
-667.047	19.809	-0.067	0.054
-666.032	1.831	-0.267	-0.193
-665.018	130.156	0.296	-0.380
-664.003	121.692	-0.180	-0.226
-662.989	-75.087	-0.356	-0.128
-661.974	95.816	-0.047	-0.054
-660.959	-200.000	0.025	0.175
-659.945	101.499	0.299	0.350
-658.930	800.000	-0.004	0.016
-657.916	-34.522	-0.341	0.188
-656.901	-77.579	0.199	-0.069
-655.886	186.406	-0.141	-0.211
-654.872	-170.977	-0.235	-0.008
-653.857	112.383	-0.141	0.171
-652.843	800.000	-0.077	0.221
-651.828	-130.001	0.084	0.011
-650.814	-109.900	0.169	-0.036
-649.799	-153.139	-0.216	-0.015
-648.784	381.875	-0.015	-0.031
-647.770	-57.110	-0.258	0.114
-646.755	-200.000	-0.009	-0.061
-645.741	-78.646	-0.076	-0.026
-644.726	13.443	-0.195	0.152
-643.711	-200.000	0.050	-0.238
-642.697	-200.000	0.017	0.075
-641.682	106.163	-0.162	-0.193
-640.668	771.516	0.037	-0.101
-639.653	-200.000	-0.029	0.132
-638.638	-13.882	0.259	0.168
-637.624	-73.416	0.196	0.072
-636.609	27.571	0.332	-0.280
-635.595	-84.058	0.090	0.029
-634.580	-200.000	-0.054	-0.267
-633.565	-139.392	0.263	-0.028
-632.551	172.904	0.162	-0.234
-631.536	800.000	-0.107	0.334
-630.522	196.569	-0.068	-0.104
-629.507	302.845	0.191	-0.354
-628.492	-89.196	0.304	-0.090
-627.478	232.797	-0.124	0.205
-626.463	-59.662	-0.414	-0.178
-625.449	338.447	-0.114	-0.223
-624.434	800.000	0.103	0.350
-623.419	179.436	-0.261	0.383
-622.405	-200.000	0.059	0.285
-621.390	-69.387	0.258	0.099
-620.376	800.000	0.028	-0.118
-619.361	-37.795	0.432	-0.230
-618.346	-131.409	0.138	-0.018
-617.332	800.000	-0.071	-0.257
-616.317	-93.760	-0.050	0.014
-615.303	-129.869	0.233	-0.032
-614.288	11.069	0.116	0.089
-613.273	235.907	0.190	-0.314
-612.259	-200.000	-0.054	-0.344
-611.244	-95.056	-0.130	-0.035
-610.230	12.274	0.251	-0.194
-609.215	80.835	-0.310	0.335
-608.201	-62.161	0.213	-0.089
-607.186	-53.882	0.231	-0.106
-606.171	800.000	0.052	-0.172
-605.157	800.000	0.119	0.346
-604.142	-14.590	-0.237	-0.153
-603.128	421.037	-0.041	0.088
-602.113	800.000	0.044	-0.136
-601.098	-28.486	-0.192	0.111
-600.084	405.029	0.149	-0.315
-599.069	-200.000	0.080	-0.371
-598.055	632.820	-0.100	-0.254
-597.040	15.230	-0.125	0.098
-596.025	631.427	-0.066	0.167
-595.011	800.000	-0.085	0.284
-593.996	-39.982	0.372	-0.194
-592.982	-12.000	0.154	0.101
-591.967	44.372	-0.191	-0.175
-590.952	246.805	-0.077	0.129
-589.938	-113.642	-0.173	-0.034
-588.923	42.167	0.305	0.277
-587.909	158.955	0.302	-0.420
-586.894	-200.000	-0.006	0.092
-585.879	800.000	0.082	0.241
-584.865	-2.682	0.258	0.180
-583.850	313.743	0.084	0.158
-582.836	240.376	0.076	-0.127
-581.821	-137.521	-0.070	-0.008
-580.806	-111.321	0.210	-0.043
-579.792	-200.000	0.024	-0.290
-578.777	11.916	-0.286	0.220
-577.763	-25.886	0.342	-0.202
-576.748	233.372	0.085	0.139
-575.733	-38.106	-0.262	-0.139
-574.719	-4.027	-0.166	0.115
-573.704	125.457	-0.116	0.146
-572.690	231.027	-0.149	0.243
-571.675	162.924	0.042	0.060
-570.661	-119.364	0.239	0.042
-569.646	-96.227	0.215	0.057
-568.631	800.000	-0.084	-0.283
-567.617	183.943	0.039	0.058
-566.602	286.183	-0.107	-0.192
-565.588	-122.852	-0.199	0.032
-564.573	-41.230	0.211	-0.109
-563.558	-147.101	0.118	0.010
-562.544	63.325	-0.196	-0.196
-561.529	361.726	-0.088	-0.177
-560.515	-2.683	0.156	0.109
-559.500	-200.000	-0.004	0.031
-558.485	160.721	0.099	-0.138
-557.471	-200.000	0.018	0.134
-556.456	-200.000	-0.076	-0.367
-555.442	25.365	0.280	-0.233
-554.427	200.842	0.143	0.219
-553.412	117.519	-0.285	0.351
-552.398	76.105	0.160	0.169
-551.383	-200.000	0.040	-0.221
-550.369	201.141	-0.051	-0.078
-549.354	406.246	0.124	-0.262
-548.339	255.698	0.167	-0.286
-547.325	-84.673	-0.534	0.168
-546.310	-68.133	-0.097	-0.038
-545.296	-157.072	0.187	0.011
-544.281	800.000	0.072	-0.223
-543.266	-98.868	0.144	0.037
-542.252	-164.503	0.204	-0.009
-541.237	-167.461	0.145	-0.006
-540.223	-136.306	0.127	-0.015
-539.208	-11.575	-0.108	-0.071
-538.193	-101.900	0.052	-0.013
-537.179	-198.497	0.284	0.002
-536.164	-52.931	-0.029	0.014
-535.150	-95.598	0.284	0.076
-534.135	-73.479	-0.162	-0.059
-533.121	-200.000	-0.044	-0.236
-532.106	-55.291	-0.165	0.074
-531.091	128.895	-0.011	0.014
-530.077	16.638	0.179	0.141
-529.062	-193.298	-0.202	0.002
-528.048	258.156	0.092	0.158
-527.033	357.028	-0.116	0.231
-526.018	-200.000	-0.010	-0.142
-525.004	-8.157	0.150	-0.101
-523.989	11.010	0.066	0.050
-522.975	-17.659	0.209	-0.131
-521.960	-200.000	-0.054	0.299
-520.945	186.857	-0.135	-0.201
-519.931	-173.364	0.252	0.008
-518.916	219.445	0.085	0.136
-517.902	170.002	-0.071	-0.102
-516.887	36.011	-0.154	0.135
-515.872	26.180	-0.160	0.133
-514.858	-183.227	-0.297	-0.005
-513.843	-131.620	-0.521	-0.068
-512.829	214.541	0.171	0.270
-511.814	800.000	-0.043	-0.151
-510.799	-59.560	-0.168	0.072
-509.785	-200.000	-0.017	-0.081
-508.770	231.143	-0.059	-0.097
-507.756	-200.000	0.013	0.210
-506.741	-176.000	0.117	0.003
-505.726	-75.402	0.221	-0.079
-504.712	20.836	-0.182	0.147
-503.697	204.954	-0.082	-0.126
-502.683	-200.000	0.053	-0.352
-501.668	-200.000	-0.011	0.225
-500.653	-200.000	0.027	0.160
-499.639	-50.072	-0.301	0.142
-498.624	94.193	0.158	0.179
-497.610	-200.000	0.032	-0.159
-496.595	304.127	0.055	0.101
-495.581	58.366	-0.126	0.123
-494.566	41.822	-0.164	-0.148
-493.551	-162.430	0.152	-0.007
-492.537	-11.442	-0.172	-0.113
-491.522	-200.000	-0.012	0.150
-490.508	-200.000	-0.091	0.562
-489.493	41.693	0.232	-0.209
-488.478	-89.131	0.128	0.038
-487.464	-200.000	0.038	-0.325
-486.449	-200.000	-0.025	0.160
-485.435	216.836	0.189	0.300
-484.420	348.865	-0.100	0.196
-483.405	26.490	0.201	-0.167
-482.391	13.615	-0.160	0.124
-481.376	-14.256	0.112	0.072
-480.362	-132.029	-0.190	-0.025
-479.347	-200.000	-0.003	0.149
-478.332	282.759	-0.208	-0.372
-477.318	-89.939	0.155	0.045
-476.303	-60.001	0.207	-0.088
-475.289	-2.850	-0.063	-0.044
-474.274	512.960	0.053	-0.124
-473.259	-133.619	-0.165	0.021
-472.245	-24.133	-0.096	-0.057
-471.230	-28.599	-0.047	0.027
-470.216	800.000	0.105	0.384
-469.201	23.679	0.259	0.213
-468.186	-45.320	-0.123	0.061
-467.172	192.327	0.038	-0.057
-466.157	436.727	0.153	-0.333
-465.143	-149.554	0.221	0.017
-464.128	-188.532	0.121	-0.001
-463.113	282.400	0.086	-0.154
-462.099	-200.000	-0.003	-0.253
-461.084	132.206	-0.264	0.338
-460.070	-163.296	-0.146	0.007
-459.055	69.997	-0.158	-0.163
-458.040	-59.242	-0.288	0.124
-457.026	-200.000	-0.001	-0.234
-456.011	-200.000	0.019	0.166
-454.997	242.938	0.092	-0.154
-453.982	-200.000	-0.006	-0.142
-452.968	-200.000	0.012	-0.138
-451.953	800.000	0.079	0.308
-450.938	-43.262	0.209	-0.105
-449.924	-8.267	-0.026	0.017
-448.909	800.000	0.057	-0.218
-447.895	-200.000	-0.039	0.000
-446.880	800.000	0.047	-0.171
-445.865	-151.562	0.282	0.021
-444.851	42.948	-0.054	0.049
-443.836	17.467	-0.303	-0.240
-442.822	11.753	-0.068	0.052
-441.807	-200.000	0.074	-0.373
-440.792	167.976	-0.091	-0.130
-439.778	800.000	0.079	0.291
-438.763	-73.827	0.101	0.037
-437.749	800.000	-0.100	0.276
-436.734	-46.329	0.144	-0.070
-435.719	89.238	0.208	0.231
-434.705	534.990	-0.143	0.338
-433.690	-83.869	0.267	-0.085
-432.676	65.811	-0.081	-0.081
-431.661	-200.000	-0.007	0.128
-430.646	38.774	0.205	0.182
-429.632	800.000	0.062	0.169
-428.617	522.999	-0.054	-0.127
-427.603	800.000	0.021	-0.069
-426.588	76.712	0.108	0.114
-425.573	-123.306	-0.301	-0.048
-424.559	-51.584	0.122	-0.057
-423.544	-76.563	-0.098	-0.034
-422.530	-200.000	-0.011	0.159
-421.515	-150.082	-0.266	0.021
-420.500	-84.760	-0.297	-0.093
-419.486	62.854	-0.092	0.091
-418.471	-200.000	0.050	-0.441
-417.457	116.837	-0.155	0.189
-416.442	-69.645	0.177	0.067
-415.428	-200.000	0.003	0.253
-414.413	86.176	-0.149	-0.164
-413.398	-46.678	0.234	-0.114
-412.384	-125.048	0.066	-0.010
-411.369	-179.870	-0.495	-0.011
-410.355	-86.082	-0.288	0.088
-409.340	432.643	0.069	0.149
-408.325	-19.038	-0.082	-0.051
-407.311	800.000	0.031	0.116
-406.296	750.312	0.093	-0.249
-405.282	130.791	0.084	0.106
-404.267	-200.000	0.003	0.117
-403.252	-39.346	0.030	0.016
-402.238	-200.000	0.021	-0.123
-401.223	-2.002	0.141	0.098
-400.209	233.955	-0.154	-0.253
-399.194	82.482	0.264	-0.284
-398.179	191.092	-0.191	-0.286
-397.165	-41.542	-0.360	-0.184
-396.150	-32.522	0.120	-0.067
-395.136	193.843	0.027	0.040
-394.121	-150.462	-0.256	-0.020
-393.106	348.561	-0.158	0.309
-392.092	628.389	0.074	0.186
-391.077	24.628	0.218	0.179
-390.063	-144.786	-0.061	0.006
-389.048	118.150	-0.083	0.102
-388.033	800.000	0.091	-0.272
-387.019	800.000	0.070	-0.255
-386.004	-200.000	-0.010	-0.443
-384.990	-14.838	0.214	-0.136
-383.975	-200.000	-0.025	0.123
-382.960	-76.887	0.319	0.111
-381.946	148.702	-0.142	0.190
-380.931	-80.310	-0.150	0.050
-379.917	-115.577	0.318	-0.059
-378.902	-98.464	-0.060	-0.015
-377.888	800.000	-0.008	0.035
-376.873	-23.669	0.155	0.092
-375.858	164.214	0.088	0.123
-374.844	-144.950	0.412	0.037
-373.829	-34.896	0.129	0.070
-372.815	-35.283	0.205	0.111
-371.800	-105.103	-0.326	0.074
-370.785	64.366	0.130	0.130
-369.771	-153.157	-0.167	-0.012
-368.756	800.000	-0.069	-0.197
-367.742	91.893	0.060	0.067
-366.727	106.772	0.373	0.440
-365.712	-102.572	0.214	0.051
-364.698	-78.532	0.288	0.098
-363.683	-26.720	-0.163	0.095
-362.669	-200.000	0.003	0.130
-361.654	-200.000	-0.002	0.021
-360.639	-35.086	-0.188	-0.102
-359.625	-200.000	-0.045	-0.460
-358.610	-58.518	0.076	-0.033
-357.596	224.230	0.059	-0.094
-356.581	-40.531	0.252	0.130
-355.566	800.000	0.065	0.207
-354.552	183.062	0.067	-0.099
-353.537	64.987	-0.209	0.209
-352.523	-200.000	0.013	-0.307
-351.508	168.024	0.083	0.117
-350.493	-168.486	-0.387	0.015
-349.479	342.085	-0.077	0.150
-348.464	-200.000	-0.019	0.290
-347.450	105.002	-0.155	-0.181
-346.435	-200.000	0.211	-0.000
-345.420	15.906	-0.098	0.077
-344.406	-200.000	-0.003	-0.240
-343.391	-200.000	-0.026	0.147
-342.377	-76.373	-0.306	0.107
-341.362	-200.000	-0.100	-0.500
-340.348	-200.000	0.010	0.217
-339.333	-12.859	0.014	0.009
-338.318	-200.000	0.016	-0.430
-337.304	125.852	0.134	-0.167
-336.289	-118.646	-0.180	0.031
-335.275	159.911	0.062	-0.086
-334.260	800.000	0.025	0.091
-333.245	39.424	-0.154	0.137
-332.231	26.995	-0.027	0.023
-331.216	-196.552	0.234	-0.002
-330.202	-178.624	0.163	-0.004
-329.187	-18.087	-0.072	-0.045
-328.172	174.549	0.209	0.300
-327.158	-200.000	-0.062	0.277
-326.143	-75.429	-0.187	-0.066
-325.129	80.791	-0.205	0.219
-324.114	-74.027	0.175	0.063
-323.099	328.935	0.060	-0.114
-322.085	-25.083	-0.171	-0.100
-321.070	-128.024	-0.357	0.051
-320.056	800.000	-0.047	-0.139
-319.041	612.459	-0.043	0.107
-318.026	800.000	0.057	0.165
-317.012	-63.740	-0.055	-0.022
-315.997	79.511	-0.132	0.141
-314.983	140.181	0.115	-0.151
-313.968	-4.079	-0.358	-0.246
-312.953	-200.000	-0.006	0.280
-311.939	-71.021	-0.298	0.111
-310.924	137.036	0.100	0.129
-309.910	-130.190	-0.428	-0.058
-308.895	-200.000	-0.027	0.200
-307.880	-101.074	-0.249	-0.061
-306.866	137.926	0.057	0.073
-305.851	-101.822	-0.187	-0.045
-304.837	-77.817	0.030	0.010
-303.822	-60.700	0.222	-0.093
-302.807	10.636	0.342	-0.258
-301.793	-200.000	-0.058	-0.275
-300.778	-102.275	-0.305	0.072
-299.764	711.111	-0.029	0.077
-298.749	543.666	0.064	0.151
-297.735	365.326	0.029	0.058
-296.720	62.854	0.070	-0.069
-295.705	800.000	-0.067	-0.212
-294.691	158.007	-0.078	-0.108
-293.676	530.193	0.044	0.103
-292.662	-86.304	-0.251	-0.077
-291.647	29.004	-0.204	-0.171
-290.632	-36.455	0.133	0.071
-289.618	121.805	0.157	0.194
-288.603	-200.000	0.014	-0.144
-287.589	24.889	-0.110	0.090
-286.574	800.000	0.078	-0.251
-285.559	-84.130	0.374	-0.117
-284.545	282.366	0.051	-0.091
-283.530	-54.359	-0.133	-0.059
-282.516	-200.000	0.029	0.275
-281.501	-46.513	-0.221	-0.107
-280.486	800.000	0.052	-0.153
-279.472	-200.000	0.006	-0.280
-278.457	223.431	-0.254	-0.406
-277.443	-200.000	0.065	0.330
-276.428	-200.000	-0.041	0.373
-275.413	723.006	-0.147	0.386
-274.399	205.479	0.184	0.283
-273.384	800.000	0.069	-0.229
-272.370	-150.073	-0.206	-0.016
-271.355	-8.717	0.187	0.124
-270.340	-200.000	-0.008	-0.174
-269.326	-90.180	-0.173	-0.050
-268.311	-200.000	-0.079	0.344
-267.297	-200.000	-0.002	0.087
-266.282	-131.358	-0.202	0.026
-265.267	-165.422	-0.295	-0.013
-264.253	-126.741	0.118	0.017
-263.238	181.739	-0.085	-0.123
-262.224	800.000	-0.136	-0.425
-261.209	225.756	-0.119	0.190
-260.195	800.000	-0.056	-0.165
-259.180	63.375	-0.201	0.200
-258.165	-69.461	0.337	0.128
-257.151	800.000	-0.029	-0.115
-256.136	-13.024	-0.100	0.064
-255.122	-200.000	-0.005	0.253
-254.107	-200.000	0.010	0.109
-253.092	-72.572	0.322	0.117
-252.078	104.981	-0.118	-0.138
-251.063	-87.711	-0.186	-0.055
-250.049	-62.336	0.115	-0.047
-249.034	800.000	-0.056	-0.236
-248.019	-200.000	-0.062	-0.286
-247.005	358.679	-0.088	-0.174
-245.990	-118.189	-0.293	0.052
-244.976	47.751	0.180	-0.166
-243.961	320.934	-0.185	-0.347
-242.946	12.323	-0.077	-0.058
-241.932	47.573	-0.061	-0.056
-240.917	178.498	-0.178	-0.257
-239.903	73.965	-0.234	-0.242
-238.888	800.000	0.037	-0.147
-237.873	-200.000	-0.038	-0.170
-236.859	14.301	-0.070	-0.054
-235.844	-79.820	-0.111	0.037
-234.830	44.234	0.028	-0.026
-233.815	-200.000	-0.016	-0.190
-232.800	-69.082	0.319	-0.121
-231.786	-19.550	0.084	0.051
-230.771	456.101	0.103	-0.225
-229.757	43.978	0.069	0.063
-228.742	-178.131	0.058	-0.001
-227.727	508.448	0.212	0.486
-226.713	-106.015	-0.134	-0.030
-225.698	631.720	-0.045	0.113
-224.684	793.313	0.022	-0.060
-223.669	-85.031	0.264	0.082
-222.655	17.532	-0.109	-0.085
-221.640	800.000	0.078	-0.306
-220.625	-200.000	-0.033	0.167
-219.611	-143.256	-0.403	-0.038
-218.596	-30.872	-0.098	-0.055
-217.582	-60.148	-0.243	0.102
-216.567	-200.000	0.013	0.116
-215.552	83.162	0.077	-0.083
-214.538	-24.248	0.126	0.074
-213.523	-200.000	-0.007	0.091
-212.509	-200.000	-0.042	-0.192
-211.494	97.394	-0.398	0.451
-210.479	-200.000	0.019	-0.113
-209.465	73.515	-0.188	0.194
-208.450	-40.716	0.139	0.071
-207.436	199.896	0.144	-0.217
-206.421	71.539	-0.214	0.219
-205.406	-107.374	-0.041	-0.009
-204.392	-195.658	0.247	0.002
-203.377	-183.598	0.635	-0.011
-202.363	-175.436	-0.193	-0.005
-201.348	304.746	0.165	0.303
-200.333	33.835	0.252	0.216
-199.319	800.000	-0.052	-0.194
-198.304	-80.422	0.346	-0.114
-197.290	-38.838	-0.128	0.067
-196.275	582.192	0.087	-0.211
-195.260	337.903	0.108	0.206
-194.246	-154.163	-0.104	0.007
-193.231	12.780	0.211	-0.161
-192.217	575.704	-0.109	0.263
-191.202	219.809	-0.075	0.118
-190.187	445.943	0.131	0.284
-189.173	133.068	-0.200	-0.254
-188.158	-180.627	0.351	0.007
-187.144	-29.312	-0.321	0.181
-186.129	62.100	-0.026	0.026
-185.114	-57.839	-0.225	0.097
-184.100	-200.000	0.043	0.260
-183.085	416.549	-0.049	-0.103
-182.071	697.203	-0.087	-0.226
-181.056	703.746	0.105	0.273
-180.042	-200.000	0.017	0.305
-179.027	-200.000	-0.007	0.166
-178.012	-105.525	-0.143	-0.032
-176.998	117.072	0.092	0.111
-175.983	7.423	-0.256	0.189
-174.969	107.543	0.299	0.351
-173.954	-11.904	-0.074	0.048
-172.939	152.157	0.071	-0.096
-171.925	-200.000	0.028	0.233
-170.910	384.902	-0.043	0.087
-169.896	7.564	-0.247	-0.182
-168.881	7.131	-0.060	0.044
-167.866	-42.629	0.098	0.049
-166.852	-22.313	-0.229	-0.137
-165.837	72.559	0.165	-0.170
-164.823	518.551	0.034	-0.078
-163.808	-88.141	-0.214	0.063
-162.793	11.503	0.199	0.150
-161.779	16.130	-0.187	-0.145
-160.764	800.000	0.132	-0.391
-159.750	427.257	-0.070	-0.148
-158.735	800.000	0.075	0.256
-157.720	-200.000	0.032	0.252
-156.706	149.048	0.109	0.146
-155.691	154.598	0.147	0.199
-154.677	-59.894	0.233	0.098
-153.662	-200.000	-0.010	0.073
-152.647	373.391	-0.068	-0.136
-151.633	-74.832	-0.038	-0.014
-150.618	-85.671	-0.245	0.075
-149.604	-189.606	0.168	0.002
-148.589	319.504	0.091	0.169
-147.574	800.000	0.069	0.241
-146.560	82.194	0.118	0.126
-145.545	372.157	0.101	0.202
-144.531	-200.000	-0.016	-0.335
-143.516	101.107	-0.129	0.148
-142.502	-67.082	0.077	-0.030
-141.487	-83.374	0.222	0.070
-140.472	56.705	0.247	-0.236
-139.458	-124.474	0.300	0.046
-138.443	129.424	-0.180	0.226
-137.429	-200.000	-0.046	0.270
-136.414	-23.608	0.160	0.094
-135.399	-106.040	0.494	-0.109
-134.385	-129.117	-0.130	-0.018
-133.370	-97.662	-0.171	-0.043
-132.356	-200.000	0.017	-0.418
-131.341	800.000	-0.165	-0.545
-130.326	-103.491	-0.309	0.071
-129.312	-54.927	0.249	0.110
-128.297	-2.127	0.241	0.167
-127.283	-51.465	-0.267	0.122
-126.268	117.418	0.042	-0.051
-125.253	-16.685	0.122	0.076
-124.239	-200.000	0.080	0.354
-123.224	-200.000	0.042	-0.192
-122.210	-44.297	-0.239	-0.118
-121.195	414.369	0.081	0.170
