DTS Sentinel unit serial number:	SN413079Multiplexer serial number:	ORYXHardware model number:	OX4-SRSoftware version number:	ORYX F/W v4.00 Oryx Data Collector v3.7.2.0data status	okinstallation	princeton_trtdifferential loss correction	single-endedforward channel	channel 2reverse channel	N/Adate	2019/09/10time	18:05:10forward acquisition time	60.00reverse acquisition time	0.00gamma	496.2192k internal	0.2315k external	0.2315temperature offset calibration	0.9939default loss term (dB/km)	0.3790temperature slope calibration	1.0000multiplexer offset coefficient	1.0000multiplexer slope coefficient	1.0000fibre end	0.00T internal ref (°C)	36.95T ext. ref 1 (°C)	-0.37T ext. ref 2 (°C)	29.27length (m)	temperature (°C)	Stokes	anti-Stokes-747.200	-81.976	0.110	0.036
-746.185	31.440	-0.123	0.107
-745.171	-200.000	0.007	-0.259
-744.156	17.872	-0.110	0.089
-743.142	-30.283	-0.173	0.100
-742.127	800.000	0.085	0.305
-741.112	800.000	0.064	-0.259
-740.098	-97.637	-0.137	0.036
-739.083	371.289	0.068	-0.140
-738.069	-109.025	-0.212	-0.046
-737.054	37.154	-0.088	0.079
-736.039	12.413	0.165	-0.129
-735.025	374.475	-0.149	0.307
-734.010	-7.778	0.219	-0.150
-732.996	-8.553	-0.264	-0.180
-731.981	686.971	0.089	0.235
-730.966	291.235	0.012	0.023
-729.952	-200.000	0.001	-0.372
-728.937	-200.000	-0.028	-0.208
-727.923	37.784	-0.185	0.167
-726.908	176.654	0.215	-0.316
-725.894	602.413	0.052	-0.132
-724.879	-135.113	-0.337	-0.041
-723.864	-200.000	0.055	-0.326
-722.850	-200.000	-0.011	-0.408
-721.835	46.331	0.179	-0.168
-720.821	119.327	0.044	0.055
-719.806	-37.382	-0.091	0.049
-718.791	-9.878	-0.117	0.079
-717.777	800.000	-0.118	0.376
-716.762	-120.113	-0.259	-0.045
-715.748	-200.000	-0.021	-0.135
-714.733	765.571	-0.066	0.181
-713.718	-90.382	0.221	-0.065
-712.704	-200.000	0.007	-0.182
-711.689	800.000	-0.020	0.064
-710.675	125.179	0.110	-0.140
-709.660	-113.152	0.109	0.022
-708.645	310.367	-0.262	-0.496
-707.631	-24.515	-0.158	0.095
-706.616	6.292	-0.059	-0.044
-705.602	226.537	0.061	-0.101
-704.587	59.318	-0.137	0.136
-703.572	-4.888	0.072	0.050
-702.558	110.716	-0.101	0.123
-701.543	-200.000	-0.029	0.172
-700.529	-121.984	0.371	-0.062
-699.514	-6.772	0.179	0.123
-698.499	-186.174	0.074	-0.001
-697.485	411.102	-0.074	0.159
-696.470	1.169	-0.241	-0.175
-695.456	-157.259	0.062	0.004
-694.441	-200.000	0.037	-0.306
-693.426	-164.864	-0.152	-0.007
-692.412	-141.329	-0.410	-0.042
-691.397	44.871	0.081	0.076
-690.383	-53.140	0.315	-0.146
-689.368	410.089	-0.187	0.401
-688.354	127.225	-0.187	-0.240
-687.339	800.000	0.076	-0.271
-686.324	16.560	-0.145	0.116
-685.310	15.886	-0.134	0.107
-684.295	144.689	-0.177	-0.239
-683.281	-92.109	-0.253	-0.072
-682.266	-180.429	0.273	0.006
-681.251	-200.000	0.003	0.114
-680.237	99.103	-0.117	0.137
-679.222	-35.354	0.280	0.154
-678.208	504.362	-0.083	-0.193
-677.193	173.963	-0.052	0.076
-676.178	-96.200	-0.234	-0.063
-675.164	-15.907	-0.092	-0.059
-674.149	800.000	-0.099	-0.310
-673.135	-200.000	-0.015	-0.132
-672.120	-95.236	0.512	-0.139
-671.105	-200.000	0.027	0.200
-670.091	-200.000	0.030	-0.149
-669.076	462.064	-0.060	0.135
-668.062	441.467	0.084	-0.186
-667.047	-180.412	-0.215	0.005
-666.032	68.238	-0.216	-0.223
-665.018	-200.000	-0.005	0.034
-664.003	77.432	0.200	0.215
-662.989	196.440	0.075	-0.115
-661.974	800.000	0.057	-0.188
-660.959	-141.241	-0.419	0.043
-659.945	800.000	0.081	0.319
-658.930	395.882	0.078	0.165
-657.916	-200.000	0.034	-0.310
-656.901	-47.230	-0.110	-0.054
-655.886	10.422	0.061	0.047
-654.872	-53.130	-0.275	-0.128
-653.857	401.203	-0.067	-0.142
-652.843	236.355	-0.034	0.056
-651.828	310.448	-0.128	0.243
-650.814	-200.000	-0.028	0.202
-649.799	337.811	0.199	-0.392
-648.784	-145.430	-0.201	0.018
-647.770	800.000	0.003	0.008
-646.755	-157.249	-0.212	0.013
-645.741	-48.715	-0.249	-0.121
-644.726	501.706	0.042	-0.098
-643.711	-11.542	-0.188	-0.125
-642.697	-45.611	0.052	-0.026
-641.682	111.172	-0.276	-0.335
-640.668	-139.959	0.254	-0.027
-639.653	-200.000	-0.021	0.206
-638.638	270.291	0.107	0.189
-637.624	-12.268	0.291	-0.192
-636.609	-141.583	0.215	-0.022
-635.595	-65.618	0.547	-0.221
-634.580	219.151	0.194	-0.312
-633.565	-34.117	-0.114	0.063
-632.551	-125.720	-0.327	0.050
-631.536	-25.383	0.099	0.059
-630.522	-47.193	-0.287	0.141
-629.507	800.000	0.139	-0.580
-628.492	-18.092	0.294	-0.185
-627.478	262.583	0.188	0.329
-626.463	271.579	-0.154	-0.274
-625.449	-124.805	0.157	0.024
-624.434	-2.066	0.125	-0.088
-623.419	-42.145	-0.314	-0.162
-622.405	172.889	-0.169	0.245
-621.390	4.894	0.144	-0.107
-620.376	-101.966	-0.323	0.079
-619.361	16.113	-0.156	-0.124
-618.346	224.351	0.111	-0.182
-617.332	-149.153	-0.254	-0.021
-616.317	-55.514	-0.421	-0.190
-615.303	-59.675	-0.238	-0.103
-614.288	800.000	0.031	-0.120
-613.273	331.837	0.093	0.181
-612.259	-200.000	0.024	0.221
-611.244	139.521	-0.170	0.226
-610.230	169.282	0.128	-0.184
-609.215	-74.704	0.219	-0.079
-608.201	-200.000	0.006	-0.045
-607.186	109.470	0.078	0.094
-606.171	-200.000	0.024	-0.108
-605.157	5.798	-0.122	0.091
-604.142	-110.372	-0.365	-0.076
-603.128	-36.213	0.205	-0.111
-602.113	70.223	-0.053	-0.056
-601.098	-100.762	-0.133	-0.033
-600.084	-200.000	-0.047	-0.335
-599.069	-46.941	0.060	0.029
-598.055	-200.000	-0.051	0.253
-597.040	-45.837	-0.091	-0.045
-596.025	221.473	-0.070	0.113
-595.011	298.853	0.072	-0.133
-593.996	78.161	-0.175	-0.188
-592.982	-193.995	0.136	0.001
-591.967	191.796	-0.072	-0.109
-590.952	-200.000	0.018	-0.318
-589.938	-97.123	-0.178	-0.047
-588.923	-156.706	0.246	-0.015
-587.909	75.293	0.095	0.101
-586.894	-133.848	0.259	-0.032
-585.879	109.910	-0.093	-0.112
-584.865	191.627	0.045	-0.068
-583.850	504.372	-0.058	-0.136
-582.836	403.161	-0.189	-0.400
-581.821	-200.000	0.031	-0.157
-580.806	40.658	-0.150	-0.136
-579.792	800.000	0.140	-0.413
-578.777	211.504	0.038	-0.060
-577.763	118.559	-0.130	-0.162
-576.748	-200.000	-0.038	-0.225
-575.733	-200.000	0.006	-0.083
-574.719	-109.322	-0.151	-0.032
-573.704	124.400	0.075	-0.095
-572.690	6.867	0.286	0.214
-571.675	-144.678	-0.426	0.040
-570.661	668.780	-0.048	0.124
-569.646	-14.560	0.348	0.225
-568.631	800.000	0.060	-0.212
-567.617	50.023	-0.021	-0.020
-566.602	-113.322	-0.156	-0.031
-565.588	-200.000	-0.047	0.419
-564.573	-13.273	0.118	0.077
-563.558	303.497	-0.076	0.141
-562.544	57.656	-0.149	-0.147
-561.529	80.742	-0.150	0.162
-560.515	159.468	-0.057	-0.080
-559.500	-160.798	-0.216	0.011
-558.485	155.829	-0.229	-0.317
-557.471	-200.000	0.084	-0.458
-556.456	276.997	-0.096	0.172
-555.442	133.327	0.150	0.195
-554.427	191.910	0.146	-0.221
-553.412	42.455	-0.258	-0.236
-552.398	-200.000	0.018	0.080
-551.383	-129.865	-0.112	0.015
-550.369	25.702	0.160	0.134
-549.354	-200.000	0.027	0.186
-548.339	-44.359	-0.239	-0.121
-547.325	-200.000	-0.001	0.189
-546.310	-200.000	0.032	0.263
-545.296	-66.219	0.104	0.042
-544.281	-76.717	0.363	0.128
-543.266	461.867	-0.095	-0.212
-542.252	-14.656	-0.075	0.049
-541.237	156.411	0.108	-0.150
-540.223	-109.715	0.097	0.021
-539.208	-70.590	-0.228	0.087
-538.193	800.000	0.024	0.090
-537.179	-136.773	0.176	0.020
-536.164	800.000	0.067	-0.284
-535.150	149.396	0.150	0.204
-534.135	-200.000	0.006	-0.088
-533.121	-200.000	0.025	-0.124
-532.106	320.195	-0.055	-0.105
-531.091	-135.016	-0.147	-0.018
-530.077	106.917	-0.040	-0.048
-529.062	125.893	-0.163	-0.207
-528.048	-45.503	0.109	0.054
-527.033	-174.272	-0.165	0.005
-526.018	800.000	-0.096	0.321
-525.004	-111.375	0.230	-0.047
-523.989	-124.824	-0.088	0.014
-522.975	-185.476	-0.160	0.002
-521.960	-37.291	-0.118	0.063
-520.945	134.154	0.105	-0.136
-519.931	-200.000	-0.019	0.143
-518.916	-200.000	-0.069	-0.521
-517.902	279.047	-0.065	0.116
-516.887	33.428	-0.118	0.103
-515.872	-156.735	0.144	-0.009
-514.858	-120.437	-0.152	0.026
-513.843	-200.000	-0.007	0.231
-512.829	181.435	-0.128	0.189
-511.814	-200.000	-0.043	-0.241
-510.799	31.764	0.142	-0.123
-509.785	135.936	0.118	0.154
-508.770	-44.407	0.263	-0.132
-507.756	201.974	-0.136	-0.211
-506.741	66.774	0.096	-0.098
-505.726	-59.940	0.181	-0.078
-504.712	-103.422	0.257	0.061
-503.697	-200.000	-0.018	0.140
-502.683	800.000	-0.019	-0.074
-501.668	-146.989	0.467	-0.040
-500.653	-146.556	-0.079	-0.007
-499.639	260.736	-0.106	-0.185
-498.624	-200.000	0.037	0.182
-497.610	25.447	0.349	0.291
-496.595	405.704	-0.059	0.126
-495.581	-183.367	-0.079	-0.001
-494.566	179.467	-0.186	-0.273
-493.551	800.000	-0.120	-0.335
-492.537	-83.507	0.093	-0.030
-491.522	800.000	0.064	-0.249
-490.508	-47.278	-0.136	-0.067
-489.493	800.000	-0.104	-0.330
-488.478	-180.536	-0.405	0.008
-487.464	513.790	-0.041	0.095
-486.449	310.268	0.200	-0.375
-485.435	-21.122	0.122	-0.075
-484.420	-59.716	0.494	-0.212
-483.405	-71.956	-0.264	-0.098
-482.391	32.434	-0.529	0.459
-481.376	291.547	0.058	0.106
-480.362	98.139	-0.080	-0.093
-479.347	-85.433	-0.092	-0.029
-478.332	-24.959	0.138	0.082
-477.318	32.718	-0.052	-0.045
-476.303	81.425	-0.128	0.139
-475.289	-43.761	0.134	-0.068
-474.274	104.038	0.074	-0.087
-473.259	-56.110	0.313	0.140
-472.245	410.933	0.035	-0.074
-471.230	-161.579	-0.368	0.019
-470.216	-89.726	-0.085	-0.025
-469.201	221.546	-0.106	0.171
-468.186	311.076	0.103	0.193
-467.172	-5.600	0.157	-0.108
-466.157	166.992	-0.024	-0.034
-465.143	-121.446	0.350	-0.058
-464.128	-9.802	0.199	0.133
-463.113	-200.000	-0.004	-0.231
-462.099	171.725	-0.092	-0.133
-461.084	26.349	0.158	-0.132
-460.070	165.614	0.093	0.132
-459.055	213.550	0.152	-0.240
-458.040	-120.515	-0.383	0.065
-457.026	685.635	-0.157	0.410
-456.011	-57.211	0.158	-0.070
-454.997	-90.569	0.268	0.078
-453.982	629.381	-0.080	-0.203
-452.968	142.889	-0.172	-0.229
-451.953	-79.944	-0.332	-0.112
-450.938	-200.000	0.044	0.214
-449.924	-34.826	-0.068	-0.037
-448.909	76.894	-0.107	-0.113
-447.895	-200.000	-0.035	-0.251
-446.880	800.000	-0.069	0.209
-445.865	34.472	-0.231	-0.202
-444.851	116.297	-0.039	-0.048
-443.836	-81.735	-0.267	-0.088
-442.822	-30.784	-0.123	0.070
-441.807	-200.000	0.005	0.305
-440.792	800.000	0.047	0.192
-439.778	-55.185	0.223	-0.100
-438.763	800.000	-0.043	-0.168
-437.749	170.040	-0.066	0.094
-436.734	40.277	0.267	0.241
-435.719	201.432	-0.016	0.024
-434.705	399.640	-0.050	-0.105
-433.690	2.483	-0.097	0.070
-432.676	11.969	0.174	0.134
-431.661	800.000	0.090	0.394
-430.646	-200.000	-0.093	0.409
-429.632	-200.000	-0.020	-0.198
-428.617	317.117	0.086	0.162
-427.603	-200.000	-0.038	-0.240
-426.588	-31.942	-0.265	0.149
-425.573	-105.222	-0.202	-0.046
-424.559	-62.784	0.149	0.062
-423.544	-31.506	0.057	-0.032
-422.530	70.166	-0.151	0.156
-421.515	-72.883	0.197	0.072
-420.500	-52.525	-0.086	0.040
-419.486	-31.767	-0.167	0.094
-418.471	63.891	0.227	-0.229
-417.457	-8.570	0.036	0.024
-416.442	800.000	0.065	0.235
-415.428	-200.000	0.027	-0.193
-414.413	187.696	-0.059	-0.089
-413.398	10.095	-0.157	-0.120
-412.384	-8.360	0.145	-0.097
-411.369	346.098	-0.040	-0.079
-410.355	529.005	-0.145	0.342
-409.340	213.073	-0.136	-0.215
-408.325	107.301	0.110	-0.131
-407.311	800.000	-0.035	-0.149
-406.296	407.576	0.079	-0.166
-405.282	-95.030	-0.518	0.140
-404.267	-30.888	-0.137	0.078
-403.252	-105.482	-0.050	0.011
-402.238	189.634	-0.112	0.167
-401.223	151.747	0.202	0.275
-400.209	145.071	0.189	0.252
-399.194	-157.899	-0.172	-0.010
-398.179	-73.552	0.332	-0.121
-397.165	-163.833	0.306	-0.014
-396.150	-113.555	0.393	0.077
-395.136	-2.897	-0.160	0.112
-394.121	567.450	0.059	0.143
-393.106	8.872	0.216	-0.163
-392.092	-200.000	-0.052	-0.631
-391.077	-200.000	0.019	0.185
-390.063	30.680	-0.230	-0.197
-389.048	-200.000	-0.014	0.106
-388.033	298.359	-0.114	-0.210
-387.019	-200.000	0.010	0.193
-386.004	1.509	-0.073	0.053
-384.990	-200.000	-0.023	0.148
-383.975	800.000	0.132	0.396
-382.960	290.339	0.047	-0.086
-381.946	-200.000	-0.035	0.425
-380.931	75.140	-0.108	0.114
-379.917	221.385	0.006	0.010
-378.902	35.043	0.060	0.053
-377.888	291.873	-0.141	-0.256
-376.873	41.536	0.302	-0.274
-375.858	-50.635	-0.122	0.057
-374.844	616.687	0.103	0.259
-373.829	-1.950	-0.116	-0.082
-372.815	-15.278	0.139	0.089
-371.800	-70.428	-0.459	-0.174
-370.785	-117.665	0.115	0.021
-369.771	601.204	-0.029	-0.071
-368.756	362.701	0.055	0.110
-367.742	16.531	0.096	0.076
-366.727	141.804	-0.257	0.340
-365.712	63.478	0.095	0.095
-364.698	-138.010	0.138	-0.015
-363.683	12.279	0.369	-0.284
-362.669	-18.048	-0.368	0.230
-361.654	150.304	0.073	-0.099
-360.639	-100.860	0.127	0.031
-359.625	-136.912	0.102	0.012
-358.610	-48.814	-0.024	0.011
-357.596	-200.000	-0.005	0.050
-356.581	51.463	-0.228	-0.216
-355.566	-37.610	0.146	0.078
-354.552	-58.491	0.383	-0.166
-353.537	86.772	-0.101	0.111
-352.523	179.405	0.119	-0.174
-351.508	800.000	-0.012	-0.037
-350.493	800.000	0.054	0.218
-349.479	800.000	-0.023	-0.102
-348.464	81.052	-0.084	-0.091
-347.450	57.203	0.178	0.174
-346.435	71.474	-0.114	0.118
-345.420	652.663	0.092	-0.234
-344.406	-146.752	-0.052	-0.005
-343.391	772.174	-0.084	0.229
-342.377	800.000	-0.068	0.253
-341.362	-8.796	-0.144	0.096
-340.348	7.492	0.456	0.340
-339.333	800.000	-0.029	0.099
-338.318	48.973	0.219	-0.205
-337.304	-136.947	-0.195	-0.022
-336.289	-118.475	0.275	0.049
-335.275	-112.531	-0.069	0.014
-334.260	-27.058	0.090	0.053
-333.245	136.843	-0.225	0.294
-332.231	406.232	0.203	-0.428
-331.216	340.932	0.168	-0.328
-330.202	800.000	-0.082	-0.255
-329.187	-122.753	-0.254	0.041
-328.172	-4.408	-0.048	0.033
-327.158	-148.552	-0.336	0.027
-326.143	214.120	0.063	0.099
-325.129	-200.000	0.030	-0.150
-324.114	-189.415	0.223	-0.003
-323.099	33.743	0.174	0.151
-322.085	800.000	-0.033	-0.134
-321.070	67.330	-0.174	0.177
-320.056	-124.675	0.187	-0.029
-319.041	327.963	-0.153	0.292
-318.026	-85.139	0.200	-0.062
-317.012	-132.244	-0.108	0.014
-315.997	-125.994	0.351	0.053
-314.983	-52.043	-0.261	0.121
-313.968	135.476	0.130	0.168
-312.953	-200.000	0.005	-0.022
-311.939	-147.780	-0.221	0.018
-310.924	-0.937	0.258	-0.182
-309.910	-72.407	0.248	-0.092
-308.895	-200.000	0.017	-0.092
-307.880	148.032	0.234	0.315
-306.866	618.365	0.117	0.292
-305.851	-21.621	-0.027	0.016
-304.837	26.391	-0.297	0.247
-303.822	-165.682	-0.205	0.009
-302.807	27.078	0.155	-0.129
-301.793	-157.614	0.328	-0.020
-300.778	651.842	0.064	0.164
-299.764	79.247	-0.092	0.098
-298.749	15.467	0.196	-0.153
-297.735	118.767	-0.169	0.207
-296.720	-165.001	0.296	0.013
-295.705	661.335	-0.009	0.024
-294.691	-71.698	-0.212	-0.079
-293.676	-200.000	0.061	-0.286
-292.662	-5.734	-0.174	0.119
-291.647	85.027	0.136	0.149
-290.632	118.720	0.098	-0.121
-289.618	-31.254	0.356	-0.199
-288.603	-181.520	-0.234	0.005
-287.589	30.580	0.151	-0.128
-286.574	-125.004	-0.196	-0.030
-285.559	125.569	-0.081	0.102
-284.545	204.097	0.113	0.174
-283.530	36.467	-0.184	-0.162
-282.516	-29.918	0.078	-0.044
-281.501	-200.000	-0.010	0.106
-280.486	-112.256	-0.177	0.035
-279.472	202.594	-0.147	-0.226
-278.457	30.910	-0.320	-0.273
-277.443	134.669	-0.018	0.024
-276.428	800.000	0.128	0.357
-275.413	649.407	-0.070	0.177
-274.399	143.732	-0.118	0.156
-273.384	35.835	-0.055	-0.048
-272.370	657.327	0.038	0.096
-271.355	211.977	-0.207	-0.325
-270.340	116.732	-0.227	-0.278
-269.326	380.935	0.057	-0.117
-268.311	64.386	-0.192	-0.193
-267.297	27.758	0.373	-0.313
-266.282	213.678	-0.043	0.068
-265.267	-85.485	-0.256	-0.079
-264.253	35.407	0.196	-0.171
-263.238	-2.330	0.184	0.128
-262.224	217.945	-0.101	0.160
-261.209	537.043	-0.201	0.475
-260.195	-92.217	-0.262	0.074
-259.180	288.219	-0.119	-0.214
-258.165	-75.233	-0.378	-0.134
-257.151	155.777	0.164	0.225
-256.136	31.737	-0.197	0.169
-255.122	-151.971	-0.299	0.022
-254.107	-83.084	0.207	-0.066
-253.092	147.464	0.241	0.322
-252.078	-102.641	-0.239	0.057
-251.063	-200.000	0.026	0.278
-250.049	-43.091	0.113	0.057
-249.034	-114.428	-0.118	-0.022
-248.019	-170.395	-0.233	0.008
-247.005	-66.491	-0.122	-0.048
-245.990	6.641	-0.149	-0.110
-244.976	362.838	-0.178	0.355
-243.961	-85.096	0.141	-0.044
-242.946	-77.782	-0.145	0.050
-241.932	-89.289	0.160	0.047
-240.917	444.481	-0.129	-0.281
-239.903	-96.384	-0.118	-0.031
-238.888	614.983	-0.057	0.143
-237.873	-13.523	0.078	0.050
-236.859	-31.848	0.215	-0.120
-235.844	12.660	0.142	-0.109
-234.830	758.836	0.018	0.050
-233.815	800.000	0.050	0.169
-232.800	-143.115	0.335	-0.032
-231.786	-26.493	0.274	-0.159
-230.771	-52.833	0.342	-0.157
-229.757	800.000	0.125	0.413
-228.742	800.000	0.111	0.386
-227.727	-135.987	0.421	-0.049
-226.713	-75.314	0.109	-0.039
-225.698	79.193	-0.213	0.226
-224.684	543.935	0.164	0.390
-223.669	-32.381	-0.130	-0.072
-222.655	157.383	0.259	0.356
-221.640	648.159	0.046	0.117
-220.625	271.809	0.119	-0.208
-219.611	-107.439	-0.199	0.043
-218.596	-56.532	-0.119	0.052
-217.582	-93.325	-0.118	-0.032
-216.567	135.072	0.084	-0.108
-215.552	516.666	-0.084	0.195
-214.538	121.370	0.120	-0.148
-213.523	64.230	-0.201	0.201
-212.509	-200.000	-0.026	0.434
-211.494	7.207	0.124	0.092
-210.479	-49.586	0.179	0.085
-209.465	800.000	-0.060	0.230
-208.450	392.246	0.177	0.364
-207.436	293.778	0.216	-0.391
-206.421	-200.000	-0.017	0.301
-205.406	-120.357	0.207	0.035
-204.392	-22.648	-0.238	-0.143
-203.377	-153.746	0.263	0.018
-202.363	-200.000	0.055	0.285
-201.348	-200.000	-0.007	0.086
-200.333	164.275	-0.138	-0.193
-199.319	4.862	-0.191	-0.139
-198.304	32.351	-0.147	-0.126
-197.290	-200.000	0.049	-0.378
-196.275	-200.000	0.012	-0.067
-195.260	-200.000	-0.006	-0.254
-194.246	-27.764	0.144	-0.083
-193.231	-158.321	-0.497	-0.029
-192.217	-128.553	-0.074	0.010
-191.202	109.622	0.161	-0.192
-190.187	316.399	-0.077	-0.144
-189.173	-200.000	-0.010	-0.095
-188.158	446.834	0.143	0.312
-187.144	-200.000	0.092	0.426
-186.129	800.000	-0.007	0.023
-185.114	-25.343	0.214	0.126
-184.100	40.021	-0.123	0.109
-183.085	-41.936	0.101	0.051
-182.071	-75.861	-0.085	-0.030
-181.056	144.096	0.090	0.119
-180.042	-77.113	0.303	-0.105
-179.027	-72.419	-0.199	0.073
-178.012	583.852	-0.071	-0.172
-176.998	-99.628	0.308	0.077
-175.983	342.002	0.053	0.103
-174.969	-105.174	-0.131	-0.030
-173.954	35.131	-0.160	-0.139
-172.939	-76.606	-0.316	0.110
-171.925	115.932	0.123	0.149
-170.910	103.841	-0.055	-0.064
-169.896	271.975	0.167	-0.291
-168.881	459.864	0.060	0.131
-167.866	632.484	-0.075	0.189
-166.852	334.113	0.094	0.180
-165.837	-102.925	-0.464	-0.109
-164.823	150.884	0.239	0.321
-163.808	445.975	0.188	0.410
-162.793	800.000	0.049	0.210
-161.779	27.072	0.259	0.215
-160.764	-104.999	0.256	-0.058
-159.750	18.044	0.287	-0.227
-158.735	-120.895	-0.135	-0.023
-157.720	248.957	-0.221	0.371
-156.706	-34.802	0.262	-0.142
-155.691	-200.000	-0.001	-0.178
-154.677	-105.289	-0.407	-0.092
-153.662	-122.114	0.152	-0.025
-152.647	-200.000	0.030	-0.204
-151.633	334.336	-0.068	-0.130
-150.618	-200.000	0.024	-0.297
-149.604	-27.612	-0.157	-0.091
-148.589	-164.288	-0.076	-0.003
-147.574	-200.000	-0.041	-0.240
-146.560	241.542	0.136	0.224
-145.545	800.000	-0.021	-0.066
-144.531	155.116	-0.207	0.281
-143.516	6.477	0.066	0.049
-142.502	119.979	-0.258	-0.317
-141.487	-200.000	0.038	-0.200
-140.472	800.000	0.095	-0.307
-139.458	-35.769	-0.095	0.051
-138.443	-96.756	-0.237	-0.062
-137.429	-200.000	-0.040	0.192
-136.414	-37.608	-0.102	0.054
-135.399	-111.210	-0.214	0.043
-134.385	-200.000	0.002	0.397
-133.370	-122.336	-0.333	0.054
-132.356	800.000	0.050	0.146
-131.341	800.000	0.099	-0.303
-130.326	-107.759	0.132	-0.029
-129.312	-45.241	0.097	-0.048
-128.297	46.323	-0.040	-0.037
-127.283	404.005	-0.098	-0.204
-126.268	800.000	0.095	-0.373
-125.253	-200.000	-0.066	0.313
-124.239	-102.659	-0.143	-0.034
-123.224	484.928	-0.039	0.089
-122.210	208.692	0.176	0.273
-121.195	81.203	-0.123	-0.132
