DTS Sentinel unit serial number:	SN413079Multiplexer serial number:	ORYXHardware model number:	OX4-SRSoftware version number:	ORYX F/W v4.00 Oryx Data Collector v3.7.2.0data status	okinstallation	princeton_trtdifferential loss correction	single-endedforward channel	channel 2reverse channel	N/Adate	2019/09/11time	20:49:10forward acquisition time	60.00reverse acquisition time	0.00gamma	496.2192k internal	0.2322k external	0.2322temperature offset calibration	1.0059default loss term (dB/km)	0.3790temperature slope calibration	1.0000multiplexer offset coefficient	1.0000multiplexer slope coefficient	1.0000fibre end	0.00T internal ref (°C)	37.00T ext. ref 1 (°C)	1.54T ext. ref 2 (°C)	30.83length (m)	temperature (°C)	Stokes	anti-Stokes-747.200	800.000	-0.060	0.259
-746.185	-200.000	0.019	0.140
-745.171	11.156	-0.089	0.069
-744.156	218.922	-0.133	0.214
-743.142	-105.409	0.176	0.040
-742.127	-174.680	-0.109	0.003
-741.112	-2.801	0.190	0.134
-740.098	-200.000	0.042	0.357
-739.083	176.504	0.191	-0.281
-738.069	800.000	-0.151	0.450
-737.054	-5.744	-0.288	0.200
-736.039	456.797	-0.035	-0.079
-735.025	-162.663	-0.337	-0.017
-734.010	-44.754	-0.205	-0.103
-732.996	549.489	0.064	0.155
-731.981	341.136	0.158	-0.312
-730.966	-75.299	0.099	0.036
-729.952	800.000	0.065	0.190
-728.937	800.000	-0.027	-0.081
-727.923	-80.777	0.171	-0.058
-726.908	800.000	0.049	-0.146
-725.894	-82.988	0.092	-0.030
-724.879	-89.466	-0.241	0.072
-723.864	-169.243	0.019	-0.001
-722.850	45.785	-0.086	0.080
-721.835	278.385	-0.028	0.051
-720.821	-200.000	-0.009	-0.201
-719.806	-45.287	0.284	-0.142
-718.791	-122.936	0.187	0.030
-717.777	800.000	-0.081	0.266
-716.762	-6.137	-0.299	-0.206
-715.748	23.706	-0.096	-0.080
-714.733	-17.263	0.284	-0.181
-713.718	-10.767	-0.022	-0.015
-712.704	-68.518	-0.479	-0.188
-711.689	800.000	0.057	-0.215
-710.675	800.000	0.066	0.200
-709.660	374.654	-0.042	0.086
-708.645	-29.869	0.153	0.088
-707.631	-90.654	0.197	0.058
-706.616	-200.000	0.033	-0.387
-705.602	800.000	-0.046	-0.138
-704.587	-100.028	-0.131	-0.033
-703.572	-51.247	0.084	0.039
-702.558	134.001	0.161	0.211
-701.543	-190.936	0.237	-0.003
-700.529	-104.570	-0.107	-0.025
-699.514	69.292	0.085	-0.088
-698.499	71.040	-0.139	-0.146
-697.485	800.000	-0.110	0.411
-696.470	800.000	-0.061	0.213
-695.456	24.753	0.036	0.030
-694.441	0.722	0.203	-0.147
-693.426	-200.000	-0.003	-0.097
-692.412	94.612	-0.237	-0.271
-691.397	96.296	0.083	-0.095
-690.383	800.000	-0.028	-0.082
-689.368	800.000	0.058	-0.176
-688.354	-200.000	-0.015	0.112
-687.339	-51.092	0.118	0.056
-686.324	48.413	-0.319	-0.301
-685.310	105.547	0.200	-0.239
-684.295	-89.585	-0.244	-0.072
-683.281	-41.916	0.245	0.127
-682.266	-58.327	0.252	-0.110
-681.251	-131.143	0.111	0.015
-680.237	800.000	0.087	-0.255
-679.222	-57.378	0.246	-0.109
-678.208	-179.533	0.440	0.010
-677.193	126.790	-0.152	0.194
-676.178	305.939	-0.090	-0.169
-675.164	789.791	0.072	0.200
-674.149	-29.170	-0.323	0.187
-673.135	602.645	0.144	0.362
-672.120	285.914	-0.034	-0.063
-671.105	656.289	-0.028	-0.072
-670.091	-118.134	0.156	-0.028
-669.076	-43.266	-0.460	-0.234
-668.062	-84.819	-0.246	-0.078
-667.047	413.082	-0.171	0.366
-666.032	-21.358	0.105	0.065
-665.018	-88.300	0.127	-0.038
-664.003	-59.038	-0.229	-0.100
-662.989	-200.000	0.038	0.175
-661.974	138.426	0.124	0.164
-660.959	-9.786	0.089	-0.060
-659.945	-200.000	0.019	-0.100
-658.930	-1.786	0.099	-0.070
-657.916	-166.923	0.181	0.007
-656.901	14.076	0.072	0.057
-655.886	-78.690	0.135	-0.047
-654.872	-130.643	-0.154	-0.021
-653.857	-200.000	0.038	-0.243
-652.843	-114.427	0.184	0.036
-651.828	-116.545	0.136	0.025
-650.814	-200.000	0.455	0.001
-649.799	78.812	0.291	0.313
-648.784	196.414	-0.149	-0.228
-647.770	516.622	0.117	0.275
-646.755	144.466	-0.147	0.198
-645.741	-63.134	0.074	-0.031
-644.726	-114.535	-0.268	-0.052
-643.711	97.895	0.121	0.140
-642.697	498.569	-0.074	-0.171
-641.682	29.251	0.030	0.026
-640.668	437.334	-0.173	-0.379
-639.653	578.074	-0.179	-0.441
-638.638	53.651	0.406	-0.393
-637.624	-30.634	-0.296	-0.168
-636.609	-200.000	-0.005	0.109
-635.595	105.955	0.144	0.171
-634.580	98.426	-0.248	0.288
-633.565	-110.846	-0.289	0.060
-632.551	39.747	-0.131	-0.118
-631.536	-58.837	0.075	-0.033
-630.522	-151.639	0.084	-0.006
-629.507	322.054	0.102	-0.195
-628.492	233.783	-0.142	0.234
-627.478	-200.000	-0.058	0.299
-626.463	-8.965	0.104	0.070
-625.449	-157.203	-0.285	0.017
-624.434	208.257	0.034	-0.053
-623.419	-5.758	-0.331	0.228
-622.405	-143.850	0.033	0.003
-621.390	-200.000	0.003	0.152
-620.376	-100.982	0.205	-0.051
-619.361	-200.000	-0.031	0.158
-618.346	-123.344	-0.354	-0.057
-617.332	-34.509	-0.254	0.140
-616.317	-186.066	-0.330	-0.005
-615.303	-200.000	-0.033	-0.182
-614.288	-200.000	-0.022	-0.099
-613.273	10.049	-0.230	-0.176
-612.259	1.395	-0.032	-0.023
-611.244	-19.891	-0.170	0.106
-610.230	800.000	0.053	0.171
-609.215	-0.415	0.119	-0.085
-608.201	-200.000	-0.033	-0.217
-607.186	-64.492	-0.115	-0.047
-606.171	52.163	0.198	0.190
-605.157	551.818	0.063	0.151
-604.142	-119.913	0.200	0.035
-603.128	134.255	0.175	0.228
-602.113	800.000	0.064	-0.249
-601.098	411.611	-0.064	-0.137
-600.084	-63.736	0.224	0.092
-599.069	127.635	-0.099	-0.126
-598.055	-50.742	-0.153	-0.072
-597.040	-20.355	-0.444	0.275
-596.025	-200.000	-0.039	0.228
-595.011	12.342	0.164	0.127
-593.996	800.000	-0.017	-0.069
-592.982	-64.892	-0.108	0.044
-591.967	114.217	-0.297	0.363
-590.952	93.106	0.050	-0.057
-589.938	-167.358	0.220	-0.009
-588.923	-78.705	0.370	-0.127
-587.909	-51.463	0.205	0.096
-586.894	-121.095	0.028	-0.005
-585.879	91.449	-0.073	-0.082
-584.865	-142.850	-0.040	-0.004
-583.850	35.210	0.229	-0.202
-582.836	-46.784	0.186	-0.092
-581.821	800.000	-0.049	0.165
-580.806	69.835	-0.161	0.167
-579.792	-148.782	0.264	-0.021
-578.777	-200.000	0.037	0.272
-577.763	-112.890	-0.140	0.028
-576.748	800.000	-0.096	-0.359
-575.733	800.000	0.080	-0.261
-574.719	-42.897	0.162	-0.083
-573.704	-200.000	0.015	0.179
-572.690	-107.582	0.207	0.045
-571.675	355.917	-0.045	-0.090
-570.661	-5.229	-0.351	-0.242
-569.646	-200.000	0.146	-0.000
-568.631	-104.661	-0.146	0.034
-567.617	-136.974	0.173	0.020
-566.602	-82.869	0.388	-0.126
-565.588	-200.000	-0.036	0.287
-564.573	-200.000	-0.015	0.477
-563.558	-112.417	-0.138	0.028
-562.544	-200.000	0.033	-0.322
-561.529	-200.000	0.034	-0.357
-560.515	567.171	0.050	0.121
-559.500	14.135	0.180	0.141
-558.485	-200.000	-0.036	0.323
-557.471	442.006	0.059	-0.130
-556.456	-163.829	0.156	0.007
-555.442	800.000	0.058	-0.239
-554.427	95.915	-0.152	-0.175
-553.412	-113.810	0.257	-0.050
-552.398	-41.714	-0.207	0.107
-551.383	179.540	-0.235	-0.346
-550.369	707.714	-0.121	-0.321
-549.354	-90.982	-0.264	0.076
-548.339	-38.819	-0.174	-0.092
-547.325	362.499	0.111	0.222
-546.310	326.568	0.177	0.340
-545.296	-83.252	-0.281	-0.090
-544.281	800.000	0.039	-0.135
-543.266	575.894	-0.118	-0.289
-542.252	-144.329	-0.193	-0.018
-541.237	129.207	0.082	-0.106
-540.223	506.437	0.124	0.288
-539.208	800.000	0.052	0.175
-538.193	-39.291	0.258	-0.136
-537.179	800.000	-0.039	-0.157
-536.164	189.068	0.162	-0.243
-535.150	-164.237	-0.212	-0.010
-534.135	51.465	0.247	0.235
-533.121	286.331	-0.192	-0.347
-532.106	-125.754	0.214	-0.032
-531.091	-72.023	-0.307	0.114
-530.077	-84.476	0.123	0.039
-529.062	102.529	-0.064	-0.075
-528.048	89.413	-0.135	0.150
-527.033	-200.000	-0.197	0.000
-526.018	-200.000	0.027	0.175
-525.004	-30.742	-0.112	-0.064
-523.989	-200.000	-0.020	0.121
-522.975	183.932	-0.263	0.390
-521.960	-139.850	-0.322	-0.034
-520.945	800.000	0.109	-0.383
-519.931	-15.925	0.248	0.158
-518.916	-176.767	-0.402	0.010
-517.902	-101.590	0.048	0.012
-516.887	136.159	-0.050	-0.065
-515.872	28.441	0.218	-0.185
-514.858	-200.000	0.018	0.205
-513.843	-200.000	-0.045	-0.199
-512.829	-79.736	0.274	0.092
-511.814	-139.848	0.153	0.016
-510.799	800.000	0.055	0.167
-509.785	584.039	-0.100	0.247
-508.770	-119.257	0.285	0.050
-507.756	-71.877	0.331	-0.123
-506.741	-102.216	0.070	-0.017
-505.726	428.222	-0.090	-0.195
-504.712	-15.717	-0.276	-0.176
-503.697	359.400	0.030	0.061
-502.683	-200.000	-0.013	0.160
-501.668	229.001	-0.078	-0.128
-500.653	-89.772	-0.102	-0.030
-499.639	800.000	0.067	0.191
-498.624	-67.974	0.166	-0.065
-497.610	453.908	-0.116	0.258
-496.595	84.903	0.006	-0.006
-495.581	149.667	0.057	0.077
-494.566	110.112	0.135	-0.163
-493.551	800.000	-0.048	0.185
-492.537	-200.000	0.003	0.050
-491.522	-54.136	-0.169	-0.077
-490.508	537.739	-0.121	0.287
-489.493	-48.922	-0.298	-0.143
-488.478	225.119	0.160	-0.260
-487.464	-114.589	-0.234	0.045
-486.449	701.081	-0.156	0.410
-485.435	15.213	0.169	-0.132
-484.420	65.871	-0.151	0.153
-483.405	800.000	0.065	-0.253
-482.391	800.000	0.047	-0.177
-481.376	-200.000	0.010	0.083
-480.362	-200.000	0.061	-0.271
-479.347	663.762	-0.059	-0.153
-478.332	391.361	0.039	-0.082
-477.318	-75.279	-0.435	0.155
-476.303	80.921	-0.092	-0.100
-475.289	-94.123	-0.133	-0.037
-474.274	328.579	0.120	0.231
-473.259	220.494	0.161	0.257
-472.245	-17.005	-0.109	-0.068
-471.230	-200.000	0.060	-0.391
-470.216	-33.271	-0.222	0.123
-469.201	-101.824	0.414	-0.100
-468.186	709.325	-0.068	0.180
-467.172	-64.217	-0.385	0.157
-466.157	-200.000	0.011	0.168
-465.143	800.000	0.110	0.349
-464.128	4.735	0.013	0.010
-463.113	-200.000	-0.017	-0.120
-462.099	800.000	0.031	0.124
-461.084	-24.696	0.262	-0.156
-460.070	-163.544	-0.260	0.012
-459.055	159.743	0.178	-0.248
-458.040	167.889	0.108	0.154
-457.026	-33.205	-0.034	-0.019
-456.011	-53.910	0.345	0.157
-454.997	800.000	-0.032	0.137
-453.982	-0.086	0.274	-0.195
-452.968	51.066	-0.232	-0.220
-451.953	241.728	0.078	0.130
-450.938	800.000	0.132	-0.515
-449.924	-133.829	0.279	-0.035
-448.909	212.279	-0.132	0.207
-447.895	800.000	-0.161	0.493
-446.880	800.000	-0.098	0.277
-445.865	-126.298	0.042	0.006
-444.851	-57.237	-0.136	0.060
-443.836	191.038	-0.063	0.094
-442.822	195.239	0.113	0.171
-441.807	795.683	-0.066	-0.180
-440.792	50.089	-0.038	0.036
-439.778	-66.413	-0.176	-0.070
-438.763	-200.000	-0.058	-0.263
-437.749	1.938	-0.201	-0.145
-436.734	-200.000	-0.049	-0.225
-435.719	800.000	-0.102	-0.291
-434.705	-65.311	0.404	0.162
-433.690	8.314	-0.182	-0.136
-432.676	266.350	-0.180	0.314
-431.661	-200.000	0.043	-0.282
-430.646	-50.907	0.022	0.010
-429.632	-188.644	-0.110	0.001
-428.617	49.256	-0.184	-0.172
-427.603	-200.000	0.024	-0.334
-426.588	123.001	-0.055	0.069
-425.573	-58.134	-0.101	0.044
-424.559	800.000	0.152	0.448
-423.544	-24.463	0.390	0.232
-422.530	-200.000	0.023	0.111
-421.515	-63.122	-0.281	0.116
-420.500	-142.607	-0.221	-0.022
-419.486	191.223	0.174	-0.261
-418.471	-75.446	-0.085	-0.030
-417.457	-200.000	-0.048	-0.385
-416.442	-151.738	0.276	0.020
-415.428	-24.526	-0.211	0.125
-414.413	-75.421	-0.242	-0.086
-413.398	-125.331	-0.256	0.039
-412.384	-200.000	-0.192	-0.001
-411.369	-200.000	0.034	0.355
-410.355	-13.055	-0.136	-0.088
-409.340	316.547	-0.068	0.128
-408.325	10.316	-0.192	0.146
-407.311	49.304	0.272	0.255
-406.296	-200.000	0.023	-0.196
-405.282	-152.696	-0.129	-0.009
-404.267	-14.241	-0.095	0.061
-403.252	54.345	-0.192	0.184
-402.238	32.071	0.168	-0.145
-401.223	247.780	-0.066	0.111
-400.209	116.107	0.169	-0.206
-399.194	-155.474	-0.426	0.027
-398.179	-200.000	0.028	-0.266
-397.165	11.181	-0.165	0.126
-396.150	57.193	-0.174	-0.170
-395.136	-194.482	-0.114	0.001
-394.121	136.703	0.079	-0.103
-393.106	-200.000	0.033	0.239
-392.092	-115.479	0.079	-0.015
-391.077	-200.000	0.021	-0.198
-390.063	800.000	-0.034	0.127
-389.048	40.647	0.054	-0.049
-388.033	-1.339	-0.154	0.109
-387.019	-40.894	0.074	-0.038
-386.004	-121.932	0.331	-0.054
-384.990	91.585	-0.115	-0.129
-383.975	95.421	0.051	0.057
-382.960	293.830	0.088	0.161
-381.946	-2.652	0.122	0.085
-380.931	357.682	0.142	-0.283
-379.917	-39.023	-0.182	-0.095
-378.902	-59.603	0.063	-0.027
-377.888	416.239	-0.030	0.064
-376.873	-200.000	0.006	-0.059
-375.858	40.967	0.226	-0.203
-374.844	538.501	0.076	0.180
-373.829	-200.000	0.017	-0.138
-372.815	24.532	-0.027	-0.022
-371.800	800.000	0.049	0.177
-370.785	189.628	-0.181	-0.270
-369.771	240.546	-0.107	0.178
-368.756	-200.000	-0.055	-0.256
-367.742	9.234	0.119	-0.090
-366.727	-58.654	-0.227	-0.098
-365.712	68.417	0.263	0.268
-364.698	165.260	-0.314	0.442
-363.683	46.566	-0.202	0.187
-362.669	-41.457	-0.165	0.085
-361.654	-78.080	0.517	-0.177
-360.639	84.062	0.237	0.258
-359.625	800.000	-0.013	-0.045
-358.610	568.747	0.106	-0.256
-357.596	366.890	-0.046	-0.092
-356.581	-200.000	-0.052	0.452
-355.566	-60.987	0.236	0.099
-354.552	256.566	0.115	-0.196
-353.537	-56.278	0.221	-0.098
-352.523	-9.478	-0.051	-0.034
-351.508	16.978	-0.330	-0.260
-350.493	48.409	0.287	0.268
-349.479	-182.871	-0.069	0.001
-348.464	78.093	0.222	0.235
-347.450	34.230	0.254	0.220
-346.435	-200.000	-0.030	-0.246
-345.420	-45.392	0.183	0.090
-344.406	142.208	0.108	-0.143
-343.391	-3.850	-0.331	-0.228
-342.377	-88.877	-0.137	0.040
-341.362	136.535	0.227	0.295
-340.348	-137.312	0.224	-0.025
-339.333	-87.375	0.065	0.020
-338.318	374.537	0.083	-0.168
-337.304	-70.046	0.237	-0.090
-336.289	-33.136	-0.025	-0.014
-335.275	-62.832	0.290	-0.119
-334.260	-130.329	0.233	0.031
-333.245	800.000	0.069	-0.210
-332.231	800.000	-0.085	0.329
-331.216	-131.992	-0.227	0.029
-330.202	403.163	0.172	0.361
-329.187	-76.502	0.306	0.107
-328.172	297.738	0.129	-0.235
-327.158	-200.000	-0.016	0.098
-326.143	-200.000	-0.031	-0.179
-325.129	139.597	0.185	-0.242
-324.114	-140.338	0.130	-0.013
-323.099	-156.192	-0.186	0.012
-322.085	213.073	0.033	-0.052
-321.070	53.720	-0.254	-0.243
-320.056	-101.750	0.329	-0.079
-319.041	49.492	-0.203	-0.190
-318.026	128.210	-0.172	-0.217
-317.012	-83.242	0.112	0.036
-315.997	-140.630	0.294	-0.030
-314.983	32.099	0.151	-0.129
-313.968	-200.000	-0.009	-0.057
-312.953	-6.661	0.373	-0.252
-311.939	274.906	0.119	0.210
-310.924	2.065	-0.309	0.222
-309.910	-200.000	-0.032	0.353
-308.895	109.356	-0.177	-0.211
-307.880	21.727	0.150	-0.121
-306.866	115.209	-0.251	-0.305
-305.851	620.049	0.033	0.082
-304.837	-137.692	0.059	-0.007
-303.822	80.102	-0.190	0.203
-302.807	150.943	0.118	0.159
-301.793	-181.230	-0.263	-0.005
-300.778	-20.972	-0.322	-0.196
-299.764	800.000	0.071	0.294
-298.749	373.331	-0.162	0.328
-297.735	159.318	0.134	-0.185
-296.720	369.478	-0.093	0.188
-295.705	-200.000	-0.050	0.226
-294.691	-200.000	0.049	-0.349
-293.676	-158.898	-0.097	-0.005
-292.662	203.949	0.218	-0.336
-291.647	-185.218	-0.213	0.003
-290.632	-45.562	0.094	-0.046
-289.618	438.231	-0.097	0.209
-288.603	-18.719	0.136	-0.084
-287.589	-200.000	-0.037	0.225
-286.574	187.746	0.181	0.269
-285.559	-200.000	0.013	-0.072
-284.545	46.111	-0.144	-0.132
-283.530	800.000	-0.086	0.283
-282.516	-200.000	-0.014	0.353
-281.501	488.472	-0.182	0.413
-280.486	800.000	0.192	0.546
-279.472	-146.372	0.154	0.013
-278.457	-123.962	0.128	0.020
-277.443	6.978	-0.098	0.072
-276.428	2.543	-0.248	0.178
-275.413	-157.739	0.588	0.035
-274.399	264.812	-0.132	0.228
-273.384	74.205	0.131	0.136
-272.370	19.461	0.212	-0.169
-271.355	293.625	-0.090	-0.163
-270.340	466.386	0.094	-0.209
-269.326	-94.782	-0.330	0.089
-268.311	-153.970	0.229	0.015
-267.297	-94.544	0.350	-0.094
-266.282	-200.000	0.000	-0.042
-265.267	-200.000	-0.047	0.234
-264.253	-200.000	-0.082	0.644
-263.238	-194.398	-0.244	0.002
-262.224	-11.284	0.183	0.119
-261.209	-200.000	0.103	-0.487
-260.195	-200.000	-0.023	0.291
-259.180	510.331	-0.068	0.157
-258.165	-155.690	-0.265	-0.017
-257.151	-20.346	0.174	0.106
-256.136	-200.000	0.051	-0.340
-255.122	108.088	0.181	-0.214
-254.107	-76.734	-0.351	-0.122
-253.092	531.197	0.080	-0.186
-252.078	-88.844	0.163	-0.048
-251.063	-58.757	0.217	0.093
-250.049	439.194	-0.044	0.095
-249.034	237.110	0.123	0.202
-248.019	-125.560	-0.159	0.024
-247.005	-200.000	0.040	-0.214
-245.990	-14.655	0.055	0.035
-244.976	-163.338	-0.213	0.010
-243.961	-153.345	-0.117	-0.008
-242.946	800.000	-0.096	-0.351
-241.932	800.000	-0.120	-0.334
-240.917	-200.000	-0.035	-0.218
-239.903	-200.000	-0.052	0.244
-238.888	-200.000	0.001	0.329
-237.873	800.000	0.040	-0.141
-236.859	-200.000	0.065	-0.294
-235.844	-12.889	-0.218	-0.141
-234.830	-200.000	0.008	0.316
-233.815	-200.000	0.067	0.300
-232.800	453.124	0.055	-0.121
-231.786	-71.158	0.048	-0.018
-230.771	-200.000	0.015	0.139
-229.757	800.000	-0.017	0.049
-228.742	-66.716	-0.257	-0.101
-227.727	19.774	0.204	-0.163
-226.713	72.090	-0.151	0.156
-225.698	384.514	-0.082	0.168
-224.684	11.060	-0.055	0.041
-223.669	-200.000	-0.028	-0.240
-222.655	419.059	-0.041	-0.086
-221.640	800.000	0.015	-0.060
-220.625	221.465	0.240	0.382
-219.611	-149.966	0.128	-0.010
-218.596	-73.309	-0.238	0.086
-217.582	-124.244	-0.207	0.032
-216.567	236.889	-0.051	0.084
-215.552	-133.834	0.469	-0.058
-214.538	-31.469	0.334	0.186
-213.523	35.479	-0.207	0.180
-212.509	-171.803	0.119	0.004
-211.494	179.088	0.077	-0.112
-210.479	-200.000	-0.014	-0.280
-209.465	-0.831	0.052	0.036
-208.450	800.000	0.041	-0.142
-207.436	-27.621	-0.166	0.095
-206.421	41.447	-0.168	-0.151
-205.406	411.284	0.067	0.142
-204.392	-62.883	0.165	-0.067
-203.377	209.440	-0.122	0.189
-202.363	-200.000	0.005	-0.044
-201.348	-200.000	-0.004	-0.100
-200.333	-117.333	-0.159	0.028
-199.319	9.825	-0.047	-0.035
-198.304	281.078	0.006	0.011
-197.290	800.000	0.134	-0.473
-196.275	74.639	0.149	-0.155
-195.260	-73.776	0.208	-0.075
-194.246	115.925	-0.146	-0.177
-193.231	-200.000	-0.004	-0.234
-192.217	-82.557	0.260	-0.083
-191.202	618.597	-0.065	0.162
-190.187	-106.141	-0.116	0.026
-189.173	-157.658	0.210	0.012
-188.158	175.398	0.147	-0.211
-187.144	43.340	-0.147	0.132
-186.129	-9.920	-0.214	0.141
-185.114	17.398	-0.145	-0.114
-184.100	-89.781	0.065	0.019
-183.085	-79.054	0.203	-0.068
-182.071	-117.661	0.256	-0.046
-181.056	51.480	-0.201	-0.189
-180.042	295.222	0.176	0.318
-179.027	150.070	-0.033	-0.044
-178.012	134.992	-0.141	-0.181
-176.998	165.801	0.138	0.193
-175.983	68.564	0.096	0.098
-174.969	-73.706	-0.259	0.093
-173.954	430.727	0.095	-0.203
-172.939	-38.737	-0.373	-0.194
-171.925	-200.000	0.027	-0.280
-170.910	-61.813	0.081	-0.033
-169.896	-200.000	0.024	0.219
-168.881	-125.656	0.212	-0.032
-167.866	46.348	0.075	-0.068
-166.852	37.483	-0.144	-0.126
-165.837	-111.566	0.329	0.066
-164.823	-200.000	-0.045	0.339
-163.808	401.757	0.181	-0.375
-162.793	800.000	-0.063	-0.210
-161.779	153.229	-0.051	-0.069
-160.764	-53.910	0.280	-0.126
-159.750	-102.945	0.174	0.041
-158.735	-15.962	-0.278	-0.175
-157.720	800.000	-0.020	0.066
-156.706	238.734	0.154	-0.253
-155.691	-167.612	-0.192	-0.008
-154.677	-29.571	-0.232	0.131
-153.662	-200.000	-0.034	-0.282
-152.647	90.736	0.158	0.175
-151.633	-28.184	0.239	-0.136
-150.618	-200.000	0.054	0.300
-149.604	-13.463	0.188	0.120
-148.589	-84.383	0.357	0.112
-147.574	-10.639	-0.192	0.126
-146.560	800.000	-0.147	0.540
-145.545	-37.667	-0.237	0.125
-144.531	-92.396	-0.197	0.055
-143.516	-200.000	0.014	-0.115
-142.502	-200.000	-0.017	0.137
-141.487	290.838	-0.113	-0.202
-140.472	259.888	0.014	0.025
-139.458	253.090	0.111	-0.187
-138.443	800.000	-0.102	-0.370
-137.429	261.131	0.057	0.098
-136.414	-146.313	0.154	-0.013
-135.399	31.521	-0.146	-0.124
-134.385	-119.162	0.044	0.008
-133.370	-87.803	-0.262	0.078
-132.356	-200.000	0.010	-0.089
-131.341	-73.799	0.123	0.044
-130.326	800.000	-0.096	0.346
-129.312	-78.745	0.447	0.150
-128.297	194.150	0.211	0.316
-127.283	-177.379	0.164	-0.004
-126.268	-191.966	0.129	0.001
-125.253	138.020	0.102	0.132
-124.239	58.098	0.229	-0.222
-123.224	-146.770	0.263	-0.022
-122.210	-131.595	0.234	-0.030
-121.195	33.066	0.186	-0.159
