DTS Sentinel unit serial number:	SN413079Multiplexer serial number:	ORYXHardware model number:	OX4-SRSoftware version number:	ORYX F/W v4.00 Oryx Data Collector v3.7.2.0data status	okinstallation	princeton_trtdifferential loss correction	single-endedforward channel	channel 2reverse channel	N/Adate	2019/09/13time	14:43:35forward acquisition time	60.00reverse acquisition time	0.00gamma	496.2192k internal	0.2313k external	0.2313temperature offset calibration	1.0207default loss term (dB/km)	0.3790temperature slope calibration	1.0000multiplexer offset coefficient	1.0000multiplexer slope coefficient	1.0000fibre end	0.00T internal ref (°C)	35.44T ext. ref 1 (°C)	4.68T ext. ref 2 (°C)	32.38length (m)	temperature (°C)	Stokes	anti-Stokes-747.200	-157.010	0.366	0.023
-746.185	-200.000	-0.027	0.541
-745.171	-24.826	0.307	-0.185
-744.156	-200.000	0.054	0.291
-743.142	-60.294	-0.132	-0.057
-742.127	800.000	-0.097	0.345
-741.112	-109.598	0.289	-0.062
-740.098	-144.258	-0.330	0.031
-739.083	106.676	-0.076	0.092
-738.069	-92.750	-0.189	-0.054
-737.054	428.684	-0.075	-0.165
-736.039	-67.528	-0.104	-0.041
-735.025	-133.384	0.529	-0.068
-734.010	54.151	-0.228	0.223
-732.996	-53.476	0.188	-0.087
-731.981	-69.324	-0.459	0.179
-730.966	158.034	-0.047	0.066
-729.952	200.346	-0.173	-0.269
-728.937	-139.911	-0.106	0.011
-727.923	800.000	-0.011	0.044
-726.908	103.265	-0.346	-0.411
-725.894	-200.000	-0.040	-0.188
-724.879	136.730	-0.224	-0.296
-723.864	-82.958	-0.223	0.073
-722.850	-200.000	-0.060	0.276
-721.835	800.000	-0.091	0.288
-720.821	-78.901	-0.301	0.104
-719.806	-61.878	0.240	0.102
-718.791	182.421	0.153	-0.228
-717.777	181.902	0.204	-0.304
-716.762	-21.155	-0.117	0.072
-715.748	-200.000	0.038	-0.240
-714.733	583.592	0.049	-0.122
-713.718	-71.237	-0.328	0.125
-712.704	-127.363	-0.260	0.038
-711.689	2.187	-0.207	0.152
-710.675	-6.605	-0.150	-0.104
-709.660	-200.000	-0.004	0.083
-708.645	25.766	0.178	0.150
-707.631	-200.000	-0.020	0.104
-706.616	27.697	0.050	0.043
-705.602	-74.797	-0.101	0.037
-704.587	800.000	-0.131	-0.390
-703.572	-200.000	0.025	0.313
-702.558	-70.591	-0.290	0.111
-701.543	-200.000	0.013	-0.114
-700.529	95.199	-0.118	-0.137
-699.514	800.000	-0.123	0.535
-698.499	77.960	-0.394	0.425
-697.485	22.883	-0.164	-0.136
-696.470	500.553	-0.059	-0.137
-695.456	-165.587	0.181	-0.008
-694.441	139.054	0.174	-0.232
-693.426	-88.494	-0.170	0.051
-692.412	127.403	0.232	0.298
-691.397	-68.938	-0.270	0.105
-690.383	-89.639	0.085	-0.025
-689.368	147.173	0.029	0.039
-688.354	100.058	0.097	-0.113
-687.339	-125.295	0.119	-0.018
-686.324	-10.869	0.206	-0.137
-685.310	-97.181	0.232	0.061
-684.295	-123.096	-0.236	0.038
-683.281	1.610	-0.327	-0.238
-682.266	-94.539	-0.429	-0.118
-681.251	-137.808	-0.028	0.003
-680.237	-61.545	-0.243	0.103
-679.222	-187.756	-0.197	-0.003
-678.208	-33.308	0.324	-0.182
-677.193	-161.581	0.148	-0.008
-676.178	22.165	-0.099	-0.082
-675.164	-69.373	0.214	0.083
-674.149	-65.475	0.226	0.092
-673.135	122.650	-0.032	-0.040
-672.120	-118.271	-0.203	0.037
-671.105	-200.000	-0.042	0.257
-670.091	77.899	0.161	0.173
-669.076	-126.741	0.198	-0.030
-668.062	-29.937	-0.256	0.147
-667.047	24.016	0.137	0.115
-666.032	-200.000	-0.016	0.186
-665.018	-200.000	0.050	0.400
-664.003	-65.998	-0.260	0.105
-662.989	-52.437	-0.128	-0.060
-661.974	82.498	0.109	-0.120
-660.959	-200.000	-0.003	0.181
-659.945	-200.000	-0.045	-0.224
-658.930	175.497	-0.119	-0.174
-657.916	-38.586	-0.220	-0.117
-656.901	-100.572	0.360	-0.090
-655.886	83.618	-0.018	-0.020
-654.872	449.017	-0.195	0.434
-653.857	-150.680	0.137	-0.011
-652.843	-200.000	0.020	-0.170
-651.828	-200.000	-0.021	-0.224
-650.814	21.251	0.075	-0.061
-649.799	-106.876	-0.256	-0.057
-648.784	-89.741	0.284	0.084
-647.770	168.909	0.090	0.129
-646.755	19.267	0.206	-0.167
-645.741	800.000	0.049	-0.204
-644.726	-152.343	0.182	0.013
-643.711	-52.755	0.304	-0.142
-642.697	218.296	-0.147	-0.238
-641.682	-11.872	0.303	-0.201
-640.668	-200.000	0.024	0.199
-639.653	800.000	-0.047	0.149
-638.638	28.365	0.240	-0.205
-637.624	259.181	-0.201	0.351
-636.609	-200.000	-0.060	0.375
-635.595	-67.574	-0.391	-0.155
-634.580	-200.000	0.008	0.267
-633.565	-200.000	0.090	-0.434
-632.551	11.890	-0.255	-0.198
-631.536	84.361	0.383	-0.422
-630.522	-86.921	0.364	0.112
-629.507	-90.941	-0.098	-0.029
-628.492	57.879	-0.198	0.195
-627.478	-200.000	0.003	0.066
-626.463	125.381	0.032	0.040
-625.449	800.000	0.041	0.165
-624.434	-77.837	-0.096	-0.034
-623.419	-9.765	-0.179	0.120
-622.405	-129.645	0.156	-0.022
-621.390	-200.000	-0.002	-0.287
-620.376	-46.776	-0.059	-0.029
-619.361	-74.957	-0.340	-0.123
-618.346	-200.000	0.007	0.055
-617.332	121.931	0.210	-0.264
-616.317	-200.000	-0.041	-0.215
-615.303	-111.696	-0.119	-0.024
-614.288	-42.005	0.150	0.078
-613.273	23.107	0.062	0.051
-612.259	81.876	0.177	-0.194
-611.244	13.356	-0.203	-0.159
-610.230	347.269	-0.199	-0.395
-609.215	47.016	0.145	-0.136
-608.201	800.000	-0.063	0.178
-607.186	-165.199	0.359	0.016
-606.171	-51.730	0.263	0.124
-605.157	14.013	0.097	-0.076
-604.142	91.184	-0.133	0.150
-603.128	-200.000	0.020	-0.245
-602.113	800.000	0.064	-0.220
-601.098	362.510	0.146	0.295
-600.084	-125.910	-0.175	0.027
-599.069	-83.686	0.078	0.025
-598.055	99.265	-0.006	-0.007
-597.040	-160.494	-0.222	0.012
-596.025	34.188	0.254	0.223
-595.011	-84.149	-0.092	-0.030
-593.996	-15.725	-0.388	-0.249
-592.982	139.092	0.050	-0.067
-591.967	66.354	0.286	-0.293
-590.952	-176.761	0.172	0.004
-589.938	194.113	-0.187	0.286
-588.923	800.000	-0.025	0.081
-587.909	-94.829	0.248	0.068
-586.894	7.991	0.166	0.125
-585.879	73.286	0.125	-0.132
-584.865	800.000	-0.057	0.163
-583.850	-6.290	-0.200	-0.137
-582.836	-103.628	-0.141	0.033
-581.821	800.000	0.066	0.201
-580.806	185.258	-0.136	-0.204
-579.792	-79.043	0.124	-0.043
-578.777	-27.942	0.141	-0.082
-577.763	97.432	0.196	-0.227
-576.748	-75.585	0.239	-0.086
-575.733	3.867	-0.168	-0.124
-574.719	84.238	-0.147	0.162
-573.704	-4.727	-0.306	-0.213
-572.690	-106.305	-0.067	-0.015
-571.675	52.502	-0.173	-0.166
-570.661	-93.565	0.217	0.061
-569.646	-9.102	-0.213	0.144
-568.631	-200.000	-0.062	-0.281
-567.617	-58.624	-0.346	-0.151
-566.602	22.458	-0.108	0.089
-565.588	521.219	0.199	0.470
-564.573	-141.585	-0.299	0.030
-563.558	-56.266	0.201	-0.090
-562.544	-39.266	-0.170	0.090
-561.529	51.371	-0.210	0.201
-560.515	90.777	-0.274	-0.310
-559.500	-163.474	-0.091	0.004
-558.485	60.365	0.064	0.064
-557.471	800.000	0.100	0.295
-556.456	-71.923	-0.410	0.154
-555.442	-143.023	0.431	-0.042
-554.427	570.111	0.037	-0.090
-553.412	36.841	-0.090	0.080
-552.398	-18.968	-0.242	0.151
-551.383	296.714	0.073	-0.136
-550.369	73.164	0.205	0.216
-549.354	800.000	-0.054	-0.170
-548.339	391.682	-0.109	-0.228
-547.325	159.932	0.155	0.218
-546.310	-134.064	-0.305	-0.038
-545.296	33.762	-0.171	-0.150
-544.281	-29.939	-0.168	0.096
-543.266	-37.081	0.269	0.145
-542.252	-200.000	-0.020	0.162
-541.237	-63.592	0.287	0.119
-540.223	-200.000	-0.006	0.462
-539.208	-49.682	0.229	0.110
-538.193	16.666	-0.079	-0.063
-537.179	-200.000	-0.050	-0.350
-536.164	-200.000	-0.038	-0.190
-535.150	15.367	0.148	-0.117
-534.135	-58.830	0.332	0.144
-533.121	-23.834	0.325	0.196
-532.106	-4.156	-0.195	-0.136
-531.091	800.000	0.053	-0.148
-530.077	-200.000	-0.058	-0.270
-529.062	-121.341	0.147	-0.025
-528.048	800.000	-0.044	0.158
-527.033	55.797	-0.058	0.057
-526.018	-139.540	-0.324	0.035
-525.004	3.251	0.204	0.149
-523.989	674.390	0.077	-0.202
-522.975	225.246	-0.161	-0.261
-521.960	123.651	-0.165	-0.209
-520.945	329.818	-0.129	-0.249
-519.931	90.429	0.040	-0.045
-518.916	-200.000	-0.013	0.082
-517.902	-67.793	0.184	0.072
-516.887	157.791	-0.115	0.161
-515.872	-200.000	-0.054	0.371
-514.858	-200.000	0.013	-0.166
-513.843	-200.000	0.031	-0.378
-512.829	-132.258	-0.310	-0.040
-511.814	-52.997	-0.270	0.125
-510.799	112.717	0.203	0.247
-509.785	-139.020	-0.312	0.034
-508.770	190.341	-0.053	-0.081
-507.756	-80.895	-0.116	-0.039
-506.741	28.581	0.468	-0.398
-505.726	515.789	-0.095	-0.223
-504.712	680.830	-0.183	-0.478
-503.697	67.155	0.040	0.040
-502.683	-179.815	0.146	0.003
-501.668	800.000	-0.050	0.145
-500.653	-115.937	-0.118	-0.022
-499.639	-200.000	0.027	0.230
-498.624	800.000	0.030	-0.125
-497.610	-9.416	0.175	-0.117
-496.595	85.887	0.078	0.087
-495.581	-200.000	-0.043	-0.276
-494.566	62.131	0.070	-0.070
-493.551	-200.000	-0.011	-0.047
-492.537	-200.000	-0.018	-0.208
-491.522	744.247	0.069	-0.185
-490.508	-12.691	0.214	-0.140
-489.493	239.050	0.088	-0.147
-488.478	23.605	0.195	0.161
-487.464	-200.000	0.017	0.238
-486.449	-59.807	0.117	0.050
-485.435	88.358	-0.136	0.151
-484.420	800.000	-0.015	0.054
-483.405	-103.453	-0.152	0.036
-482.391	-200.000	0.003	0.174
-481.376	800.000	-0.041	0.125
-480.362	-37.813	0.119	-0.063
-479.347	-167.316	0.122	-0.005
-478.332	37.153	0.162	0.144
-477.318	-144.683	0.052	-0.005
-476.303	20.590	0.107	0.087
-475.289	-39.420	-0.028	0.015
-474.274	682.994	0.050	0.132
-473.259	-10.054	0.152	0.101
-472.245	31.527	-0.062	0.054
-471.230	-4.880	-0.296	0.205
-470.216	-200.000	-0.025	-0.159
-469.201	-150.807	-0.236	-0.018
-468.186	252.729	-0.237	0.405
-467.172	800.000	0.072	-0.202
-466.157	244.494	0.249	-0.419
-465.143	171.195	0.053	-0.076
-464.128	638.846	0.052	0.132
-463.113	523.075	0.076	-0.179
-462.099	-16.710	0.215	-0.136
-461.084	-137.845	-0.287	-0.032
-460.070	87.144	0.194	-0.215
-459.055	-48.103	0.176	0.085
-458.040	800.000	-0.006	-0.023
-457.026	-80.948	0.101	0.034
-456.011	-200.000	0.012	0.273
-454.997	-63.134	0.271	0.112
-453.982	-77.605	0.071	-0.025
-452.968	119.065	0.128	-0.159
-451.953	-8.629	0.216	0.145
-450.938	-197.826	0.152	-0.001
-449.924	-200.000	-0.004	-0.027
-448.909	83.730	0.153	0.167
-447.895	-200.000	-0.038	-0.181
-446.880	800.000	0.077	-0.306
-445.865	-48.143	-0.349	-0.169
-444.851	173.736	0.100	-0.145
-443.836	78.424	-0.118	0.126
-442.822	-1.313	-0.129	0.091
-441.807	29.676	-0.133	-0.113
-440.792	-115.577	-0.142	-0.027
-439.778	271.186	-0.023	0.040
-438.763	-95.103	0.087	0.023
-437.749	79.847	0.177	0.191
-436.734	-200.000	0.017	0.179
-435.719	800.000	0.079	0.218
-434.705	35.709	-0.076	0.067
-433.690	-176.688	-0.286	0.007
-432.676	550.423	0.141	0.340
-431.661	200.901	-0.151	0.233
-430.646	93.805	0.107	-0.122
-429.632	-166.810	-0.253	0.010
-428.617	-200.000	-0.029	0.331
-427.603	569.111	0.256	0.623
-426.588	-14.559	-0.228	0.147
-425.573	96.742	-0.064	0.073
-424.559	1.042	-0.211	0.152
-423.544	758.112	-0.088	-0.239
-422.530	621.246	-0.120	-0.303
-421.515	-200.000	0.004	0.032
-420.500	26.297	0.073	0.061
-419.486	800.000	-0.156	-0.481
-418.471	-26.369	-0.253	-0.149
-417.457	-152.035	-0.164	-0.012
-416.442	-200.000	0.028	-0.400
-415.428	-13.224	0.101	-0.066
-414.413	-200.000	0.016	-0.158
-413.398	-117.271	-0.091	-0.017
-412.384	-45.381	0.238	-0.118
-411.369	85.254	-0.181	-0.199
-410.355	-69.654	-0.219	0.084
-409.340	-200.000	-0.006	-0.254
-408.325	-75.279	0.188	0.067
-407.311	51.761	0.050	-0.048
-406.296	-200.000	-0.017	-0.115
-405.282	800.000	-0.097	-0.375
-404.267	-20.580	0.150	-0.092
-403.252	177.070	-0.186	-0.271
-402.238	546.139	0.122	0.292
-401.223	-111.336	-0.267	-0.055
-400.209	-60.898	0.161	0.068
-399.194	-0.763	-0.193	0.137
-398.179	24.521	0.123	-0.102
-397.165	-7.923	-0.286	-0.193
-396.150	31.254	0.179	-0.154
-395.136	-192.146	0.212	-0.002
-394.121	292.962	-0.040	-0.073
-393.106	15.259	-0.049	-0.038
-392.092	-63.276	-0.220	-0.091
-391.077	37.109	-0.075	-0.066
-390.063	-33.554	-0.190	-0.105
-389.048	-36.604	-0.201	0.108
-388.033	248.899	0.191	-0.324
-387.019	10.464	0.107	-0.082
-386.004	246.434	-0.061	0.102
-384.990	90.154	-0.146	0.163
-383.975	-69.271	-0.453	0.174
-382.960	800.000	0.045	-0.173
-381.946	-89.819	0.156	0.046
-380.931	-200.000	-0.006	-0.109
-379.917	-147.714	-0.355	0.030
-378.902	80.618	0.212	-0.229
-377.888	39.280	-0.220	-0.196
-376.873	472.610	-0.058	-0.130
-375.858	244.280	0.116	0.195
-374.844	221.717	-0.081	0.130
-373.829	14.522	-0.188	0.147
-372.815	130.240	-0.121	0.155
-371.800	24.569	0.196	0.162
-370.785	395.324	0.047	-0.099
-369.771	-39.238	-0.098	0.051
-368.756	14.563	-0.210	0.164
-367.742	98.215	0.296	0.341
-366.727	70.752	0.204	0.211
-365.712	-74.888	-0.293	0.105
-364.698	229.423	-0.071	-0.116
-363.683	161.396	-0.108	-0.150
-362.669	-200.000	0.009	-0.215
-361.654	-64.022	-0.112	0.046
-360.639	-50.516	-0.453	0.214
-359.625	175.972	-0.100	0.145
-358.610	800.000	-0.110	0.462
-357.596	800.000	-0.086	-0.288
-356.581	-82.348	-0.065	0.021
-355.566	56.935	-0.198	-0.193
-354.552	800.000	-0.011	-0.037
-353.537	-200.000	0.004	-0.053
-352.523	4.326	-0.139	-0.102
-351.508	-124.696	0.242	0.038
-350.493	-31.487	0.047	0.026
-349.479	-80.039	-0.396	0.133
-348.464	151.655	0.072	0.098
-347.450	18.444	0.121	0.096
-346.435	494.749	-0.094	-0.216
-345.420	103.741	0.149	-0.175
-344.406	-200.000	-0.015	0.097
-343.391	-92.443	0.242	0.068
-342.377	-5.286	0.026	0.018
-341.362	-16.894	0.062	-0.039
-340.348	-157.783	0.091	0.005
-339.333	180.212	-0.018	-0.026
-338.318	800.000	0.020	0.068
-337.304	-200.000	-0.048	0.319
-336.289	-200.000	-0.013	-0.193
-335.275	-200.000	0.004	-0.247
-334.260	236.817	-0.193	-0.318
-333.245	93.732	0.230	-0.260
-332.231	-200.000	0.002	0.043
-331.216	-86.412	0.228	0.070
-330.202	-6.923	-0.068	-0.046
-329.187	-200.000	-0.006	-0.065
-328.172	-114.985	0.273	-0.052
-327.158	299.574	-0.044	-0.081
-326.143	-99.682	-0.339	0.085
-325.129	-200.000	0.006	0.132
-324.114	-73.888	-0.286	-0.104
-323.099	800.000	0.038	0.118
-322.085	-158.752	-0.168	-0.010
-321.070	-200.000	0.015	0.326
-320.056	259.876	-0.052	0.090
-319.041	-200.000	0.121	0.552
-318.026	187.397	0.055	0.081
-317.012	136.984	0.205	0.267
-315.997	-78.974	0.067	-0.023
-314.983	96.249	0.198	0.226
-313.968	-200.000	-0.002	0.064
-312.953	-114.232	-0.298	0.057
-311.939	-109.454	0.457	0.096
-310.924	148.791	0.061	0.082
-309.910	26.341	-0.108	0.090
-308.895	43.145	0.067	0.061
-307.880	32.644	0.118	0.102
-306.866	800.000	-0.017	0.059
-305.851	80.161	-0.185	-0.199
-304.837	-200.000	0.059	0.303
-303.822	436.881	0.151	0.328
-302.807	8.225	0.261	-0.195
-301.793	-200.000	0.000	0.042
-300.778	-138.405	0.102	-0.011
-299.764	-200.000	0.004	-0.019
-298.749	-200.000	-0.024	0.149
-297.735	522.669	0.066	-0.155
-296.720	-130.062	-0.247	0.034
-295.705	-159.520	0.160	-0.009
-294.691	800.000	-0.054	-0.185
-293.676	83.022	-0.126	-0.137
-292.662	317.232	-0.013	0.025
-291.647	38.759	0.234	0.208
-290.632	233.283	0.109	-0.178
-289.618	-144.720	-0.412	-0.038
-288.603	169.839	-0.207	0.294
-287.589	-63.324	0.247	-0.101
-286.574	181.695	-0.017	-0.025
-285.559	-128.231	0.231	-0.033
-284.545	-171.595	-0.221	-0.007
-283.530	-4.596	0.099	-0.068
-282.516	152.815	-0.051	0.069
-281.501	172.151	0.112	-0.160
-280.486	27.001	0.108	0.090
-279.472	296.487	-0.038	-0.070
-278.457	145.125	-0.231	0.308
-277.443	42.676	-0.066	-0.060
-276.428	-89.632	-0.167	0.049
-275.413	-200.000	-0.000	-0.076
-274.399	228.330	-0.119	-0.194
-273.384	800.000	-0.068	0.258
-272.370	195.782	0.347	0.525
-271.355	800.000	0.141	0.414
-270.340	-6.128	0.087	0.059
-269.326	393.895	-0.159	-0.329
-268.311	-32.710	-0.230	-0.127
-267.297	322.687	-0.161	0.305
-266.282	106.871	0.111	0.132
-265.267	57.688	-0.105	0.102
-264.253	-74.766	-0.243	0.087
-263.238	14.698	0.264	0.206
-262.224	-200.000	0.005	-0.133
-261.209	-42.065	-0.163	0.083
-260.195	-200.000	0.028	-0.276
-259.180	-51.855	-0.277	-0.128
-258.165	-94.650	0.276	0.075
-257.151	-62.698	0.039	-0.016
-256.136	675.037	-0.136	-0.351
-255.122	432.765	-0.081	0.176
-254.107	90.211	0.052	0.058
-253.092	-200.000	0.052	0.000
-252.078	-77.636	0.192	-0.066
-251.063	172.706	0.028	0.041
-250.049	-200.000	0.002	0.039
-249.034	-47.204	0.191	0.093
-248.019	-200.000	-0.014	0.116
-247.005	102.088	-0.092	0.107
-245.990	-200.000	0.035	0.314
-244.976	-103.869	-0.127	-0.030
-243.961	-144.415	0.248	-0.023
-242.946	-65.441	0.321	-0.128
-241.932	-41.985	0.130	0.066
-240.917	800.000	0.076	-0.266
-239.903	-200.000	0.000	-0.159
-238.888	-164.081	-0.195	-0.009
-237.873	-200.000	0.004	-0.048
-236.859	224.464	-0.094	-0.151
-235.844	-12.316	0.146	-0.095
-234.830	-110.411	0.141	0.029
-233.815	-50.386	0.136	0.064
-232.800	133.174	-0.121	0.156
-231.786	177.301	0.129	0.187
-230.771	-57.841	0.240	0.104
-229.757	92.009	0.238	-0.266
-228.742	-3.836	-0.135	-0.093
-227.727	-200.000	0.029	-0.344
-226.713	86.204	-0.152	0.167
-225.698	-97.055	-0.074	-0.019
-224.684	-200.000	-0.008	-0.105
-223.669	-200.000	0.034	-0.262
-222.655	-140.493	0.125	0.013
-221.640	-200.000	0.024	0.213
-220.625	-200.000	-0.012	0.104
-219.611	-200.000	0.000	-0.230
-218.596	323.486	-0.079	-0.149
-217.582	-111.493	-0.045	-0.009
-216.567	-140.852	-0.375	0.038
-215.552	252.894	0.077	-0.131
-214.538	800.000	-0.073	-0.294
-213.523	-43.296	-0.057	0.028
-212.509	-162.024	0.340	-0.017
-211.494	28.693	0.099	-0.083
-210.479	-200.000	0.015	0.088
-209.465	-7.841	0.217	-0.145
-208.450	97.880	-0.318	-0.363
-207.436	-73.725	0.338	-0.122
-206.421	419.562	-0.071	-0.151
-205.406	-184.098	0.258	0.004
-204.392	-200.000	-0.030	0.237
-203.377	-167.863	0.140	0.005
-202.363	800.000	-0.048	0.191
-201.348	198.086	0.164	0.249
-200.333	800.000	-0.072	0.245
-199.319	59.069	-0.330	-0.323
-198.304	23.968	0.089	0.073
-197.290	13.749	-0.352	-0.271
-196.275	-83.373	0.121	-0.039
-195.260	-14.041	-0.185	0.119
-194.246	-104.630	0.347	0.079
-193.231	222.731	0.048	-0.077
-192.217	-57.840	-0.036	-0.016
-191.202	23.721	0.091	-0.075
-190.187	-118.587	0.150	-0.026
-189.173	-174.503	0.119	0.003
-188.158	-200.000	0.033	-0.300
-187.144	-98.037	0.301	0.077
-186.129	800.000	0.041	0.168
-185.114	-55.837	-0.185	-0.082
-184.100	107.554	-0.148	0.175
-183.085	-200.000	-0.003	-0.061
-182.071	-200.000	-0.007	0.045
-181.056	-200.000	0.053	0.322
-180.042	-200.000	0.092	0.586
-179.027	800.000	0.081	0.232
-178.012	-200.000	-0.003	-0.049
-176.998	100.123	-0.238	0.274
-175.983	119.550	-0.114	0.141
-174.969	563.225	0.116	0.278
-173.954	-200.000	0.013	0.157
-172.939	800.000	-0.020	0.073
-171.925	113.968	0.208	-0.251
-170.910	62.274	0.051	0.051
-169.896	-38.806	-0.092	0.048
-168.881	90.821	0.141	-0.157
-167.866	-101.166	-0.145	0.035
-166.852	-47.346	-0.023	-0.011
-165.837	92.877	0.127	0.142
-164.823	-200.000	0.029	-0.248
-163.808	-83.502	0.080	0.025
-162.793	-142.449	0.240	0.023
-161.779	84.651	0.123	0.133
-160.764	19.356	-0.201	0.160
-159.750	-200.000	-0.009	-0.082
-158.735	-200.000	-0.001	0.113
-157.720	-11.432	-0.135	-0.088
-156.706	-137.501	0.210	0.024
-155.691	744.852	-0.040	0.107
-154.677	72.754	-0.071	-0.073
-153.662	234.930	-0.105	0.172
-152.647	-200.000	-0.020	-0.280
-151.633	-57.911	-0.162	0.070
-150.618	-200.000	0.013	-0.300
-149.604	-9.563	-0.156	0.103
-148.589	-89.742	0.255	-0.074
-147.574	166.511	-0.198	-0.278
-146.560	-200.000	0.008	-0.060
-145.545	149.598	-0.041	-0.054
-144.531	628.609	-0.059	-0.148
-143.516	-200.000	-0.042	-0.352
-142.502	-174.702	0.339	-0.010
-141.487	165.952	0.042	0.059
-140.472	-200.000	-0.041	0.205
-139.458	494.174	-0.055	0.126
-138.443	-88.900	0.220	-0.065
-137.429	-200.000	-0.023	0.265
-136.414	265.245	-0.103	-0.177
-135.399	-108.492	0.065	-0.014
-134.385	-200.000	0.018	0.195
-133.370	73.579	-0.132	0.137
-132.356	304.861	-0.222	0.409
-131.341	800.000	-0.032	0.116
-130.326	-200.000	0.009	-0.218
-129.312	39.639	0.335	-0.297
-128.297	-200.000	0.083	-0.397
-127.283	141.597	0.234	0.307
-126.268	-128.987	0.141	-0.020
-125.253	-103.911	0.189	-0.044
-124.239	-200.000	0.051	-0.375
-123.224	-148.171	-0.034	-0.003
-122.210	-1.968	-0.246	0.171
-121.195	-128.441	-0.382	0.054
