DTS Sentinel unit serial number:	SN413079Multiplexer serial number:	ORYXHardware model number:	OX4-SRSoftware version number:	ORYX F/W v4.00 Oryx Data Collector v3.7.2.0data status	okinstallation	princeton_trtdifferential loss correction	single-endedforward channel	channel 2reverse channel	N/Adate	2019/09/11time	03:17:10forward acquisition time	60.00reverse acquisition time	0.00gamma	496.2192k internal	0.2330k external	0.2330temperature offset calibration	0.9941default loss term (dB/km)	0.3790temperature slope calibration	1.0000multiplexer offset coefficient	1.0000multiplexer slope coefficient	1.0000fibre end	0.00T internal ref (°C)	29.37T ext. ref 1 (°C)	-0.30T ext. ref 2 (°C)	24.10length (m)	temperature (°C)	Stokes	anti-Stokes-747.200	-42.861	0.143	0.073
-746.185	26.759	0.050	0.042
-745.171	678.845	0.085	0.224
-744.156	-36.452	0.112	-0.061
-743.142	-95.023	0.363	-0.099
-742.127	-200.000	-0.072	-0.320
-741.112	-132.024	-0.086	0.011
-740.098	-200.000	-0.001	0.166
-739.083	-187.247	0.279	0.004
-738.069	-89.746	-0.130	-0.038
-737.054	-1.657	-0.139	0.099
-736.039	-110.080	0.276	0.058
-735.025	448.785	-0.067	-0.149
-734.010	-31.535	-0.166	0.094
-732.996	-77.043	0.010	-0.003
-731.981	-71.081	-0.067	0.025
-730.966	130.518	-0.153	0.198
-729.952	142.910	-0.372	0.498
-728.937	82.028	-0.213	0.232
-727.923	-143.565	-0.300	-0.029
-726.908	-118.427	-0.407	-0.073
-725.894	-33.638	-0.107	0.060
-724.879	-80.617	-0.104	0.035
-723.864	-200.000	-0.047	0.277
-722.850	45.973	0.159	-0.148
-721.835	312.909	-0.116	0.219
-720.821	-44.308	-0.103	0.052
-719.806	4.154	-0.254	0.187
-718.791	3.153	0.223	0.163
-717.777	-123.697	-0.092	-0.015
-716.762	-113.661	0.182	0.036
-715.748	-200.000	0.005	0.131
-714.733	-84.100	-0.203	0.065
-713.718	-49.327	0.361	-0.173
-712.704	-141.078	0.268	-0.028
-711.689	63.007	-0.089	0.090
-710.675	39.955	-0.179	-0.161
-709.660	-123.637	-0.053	-0.008
-708.645	-35.290	0.098	0.054
-707.631	-123.237	-0.245	-0.039
-706.616	-200.000	-0.015	-0.182
-705.602	-22.592	0.141	0.086
-704.587	263.003	-0.066	-0.115
-703.572	-25.378	0.185	0.110
-702.558	-72.782	0.409	-0.151
-701.543	-200.000	-0.007	0.082
-700.529	-25.565	0.140	-0.083
-699.514	800.000	0.043	-0.127
-698.499	-45.244	0.067	-0.034
-697.485	448.789	0.081	-0.180
-696.470	-200.000	0.040	-0.431
-695.456	-200.000	0.002	-0.102
-694.441	-200.000	-0.043	-0.353
-693.426	721.065	0.055	-0.148
-692.412	-51.751	-0.389	-0.182
-691.397	-22.132	0.325	0.198
-690.383	-102.242	-0.237	-0.057
-689.368	104.034	0.150	0.178
-688.354	394.692	-0.097	-0.204
-687.339	-86.339	-0.160	-0.050
-686.324	-200.000	0.008	0.110
-685.310	-10.643	-0.063	-0.042
-684.295	-77.235	-0.194	-0.068
-683.281	-12.442	-0.232	-0.152
-682.266	-108.649	0.067	-0.014
-681.251	-150.332	0.182	0.014
-680.237	-50.876	-0.271	-0.128
-679.222	-200.000	0.045	-0.230
-678.208	466.957	-0.141	-0.318
-677.193	116.452	-0.261	-0.322
-676.178	-17.416	0.333	-0.210
-675.164	6.375	0.193	0.144
-674.149	-126.914	-0.091	0.013
-673.135	384.074	-0.163	-0.336
-672.120	321.311	0.112	-0.213
-671.105	-108.017	-0.205	0.045
-670.091	97.471	-0.090	0.104
-669.076	-65.275	0.322	0.130
-668.062	68.547	0.133	0.137
-667.047	165.840	0.161	0.229
-666.032	514.717	0.185	0.433
-665.018	-102.527	-0.260	0.062
-664.003	-97.898	0.173	-0.045
-662.989	62.708	-0.326	0.327
-661.974	586.884	-0.028	-0.068
-660.959	415.263	-0.081	-0.172
-659.945	-200.000	0.008	-0.253
-658.930	-57.702	-0.201	0.088
-657.916	98.335	0.070	0.081
-656.901	-52.954	-0.112	0.052
-655.886	-103.317	-0.114	-0.027
-654.872	76.579	-0.031	-0.033
-653.857	529.675	0.123	-0.291
-652.843	-3.149	-0.046	-0.032
-651.828	25.523	0.132	-0.110
-650.814	-7.195	0.312	-0.213
-649.799	-54.911	0.259	0.117
-648.784	800.000	-0.024	0.096
-647.770	476.048	0.179	-0.406
-646.755	92.891	0.077	-0.087
-645.741	10.846	0.071	-0.054
-644.726	-145.283	-0.209	0.019
-643.711	-139.415	-0.115	0.012
-642.697	-77.237	-0.171	-0.060
-641.682	-66.020	-0.298	-0.119
-640.668	-98.126	0.079	-0.020
-639.653	26.983	-0.238	-0.201
-638.638	-45.746	0.173	-0.086
-637.624	93.287	0.141	-0.160
-636.609	392.114	-0.095	-0.197
-635.595	-200.000	0.024	-0.210
-634.580	139.949	0.075	-0.099
-633.565	148.135	-0.102	0.138
-632.551	800.000	-0.100	-0.301
-631.536	-15.679	-0.362	0.232
-630.522	219.476	0.201	-0.322
-629.507	25.564	0.123	0.103
-628.492	-45.967	-0.290	0.143
-627.478	-42.278	-0.141	0.072
-626.463	-200.000	0.000	-0.262
-625.449	-200.000	-0.053	0.239
-624.434	-139.262	-0.078	-0.008
-623.419	-200.000	-0.001	-0.126
-622.405	686.423	-0.096	0.252
-621.390	-12.764	0.202	-0.132
-620.376	66.447	0.062	0.063
-619.361	0.747	-0.107	0.077
-618.346	-7.387	-0.297	-0.201
-617.332	291.140	-0.192	-0.350
-616.317	139.661	-0.150	-0.199
-615.303	800.000	-0.058	-0.229
-614.288	-40.226	-0.208	-0.109
-613.273	137.939	-0.093	0.123
-612.259	-200.000	0.372	-0.001
-611.244	185.452	-0.142	0.211
-610.230	-10.193	-0.259	0.172
-609.215	-103.034	0.349	0.083
-608.201	262.561	0.125	-0.218
-607.186	289.959	0.112	0.204
-606.171	-9.130	0.065	0.044
-605.157	-200.000	0.045	-0.259
-604.142	-194.587	0.280	0.002
-603.128	30.710	0.122	0.105
-602.113	2.907	-0.255	0.185
-601.098	256.454	-0.052	-0.089
-600.084	158.998	-0.272	-0.379
-599.069	492.215	0.007	-0.017
-598.055	-3.504	-0.184	0.128
-597.040	800.000	0.061	0.254
-596.025	-175.716	0.099	-0.003
-595.011	-200.000	0.016	-0.241
-593.996	-128.803	0.524	0.074
-592.982	519.794	-0.114	0.268
-591.967	-166.514	-0.121	-0.005
-590.952	-41.238	-0.370	-0.191
-589.938	756.552	-0.097	-0.262
-588.923	-47.699	-0.164	0.080
-587.909	-53.127	0.231	0.106
-586.894	-43.951	-0.180	0.091
-585.879	63.876	0.249	-0.251
-584.865	-98.867	0.237	-0.060
-583.850	65.910	-0.094	-0.095
-582.836	97.279	-0.158	0.181
-581.821	800.000	0.095	0.330
-580.806	108.768	-0.346	0.414
-579.792	28.485	0.149	0.126
-578.777	-20.344	-0.249	-0.153
-577.763	-148.867	-0.282	-0.023
-576.748	385.075	-0.090	-0.185
-575.733	499.478	-0.158	-0.364
-574.719	-117.272	0.277	0.050
-573.704	800.000	-0.077	-0.226
-572.690	157.845	0.074	-0.103
-571.675	316.873	0.137	-0.258
-570.661	296.829	-0.052	-0.096
-569.646	474.513	0.148	-0.333
-568.631	-154.107	-0.045	0.003
-567.617	147.102	0.311	0.419
-566.602	-116.105	0.384	-0.071
-565.588	512.792	0.013	0.031
-564.573	69.975	0.075	-0.077
-563.558	210.672	0.210	0.330
-562.544	71.243	-0.108	0.112
-561.529	-155.918	-0.193	0.012
-560.515	253.782	-0.021	0.035
-559.500	-200.000	-0.015	-0.084
-558.485	-6.268	-0.387	0.264
-557.471	-104.577	0.078	0.018
-556.456	-91.641	0.152	0.043
-555.442	72.202	0.354	-0.369
-554.427	800.000	0.038	-0.139
-553.412	31.958	-0.290	0.250
-552.398	800.000	0.117	-0.395
-551.383	-200.000	0.005	-0.194
-550.369	-200.000	0.393	0.002
-549.354	-128.263	-0.208	0.030
-548.339	-96.593	-0.513	-0.135
-547.325	196.994	-0.130	0.198
-546.310	95.779	0.046	0.052
-545.296	71.373	-0.045	0.047
-544.281	155.221	0.124	0.170
-543.266	800.000	-0.044	-0.191
-542.252	47.299	0.147	-0.137
-541.237	-55.378	-0.124	-0.056
-540.223	-102.308	0.095	0.023
-539.208	-57.034	-0.129	-0.057
-538.193	-200.000	-0.013	-0.064
-537.179	-37.887	0.107	-0.057
-536.164	258.902	0.275	-0.474
-535.150	145.337	0.151	-0.202
-534.135	-98.004	-0.256	0.066
-533.121	101.459	-0.111	-0.129
-532.106	-52.652	-0.061	0.028
-531.091	-200.000	0.018	0.208
-530.077	-65.534	-0.230	-0.092
-529.062	-3.445	-0.205	0.143
-528.048	-77.870	0.255	-0.088
-527.033	-70.137	0.189	0.072
-526.018	-116.382	-0.210	0.039
-525.004	548.836	-0.095	-0.228
-523.989	-193.447	0.313	-0.003
-522.975	-129.834	-0.550	-0.075
-521.960	800.000	-0.035	-0.148
-520.945	190.107	0.040	0.060
-519.931	648.794	0.023	-0.058
-518.916	-30.974	-0.365	0.206
-517.902	-200.000	0.000	0.157
-516.887	317.565	-0.117	0.221
-515.872	800.000	-0.074	0.209
-514.858	-30.536	-0.097	-0.055
-513.843	-156.293	0.190	-0.012
-512.829	496.751	-0.018	-0.042
-511.814	-39.060	-0.294	0.154
-510.799	32.499	0.177	0.152
-509.785	-155.809	-0.179	0.011
-508.770	223.785	0.148	0.239
-507.756	-60.054	-0.298	-0.127
-506.741	-60.951	-0.380	0.160
-505.726	593.574	0.266	-0.655
-504.712	87.268	0.293	0.323
-503.697	-117.875	0.216	0.039
-502.683	16.889	0.196	0.155
-501.668	68.290	0.208	0.212
-500.653	475.411	0.126	0.284
-499.639	800.000	0.161	-0.447
-498.624	-50.737	-0.045	-0.021
-497.610	-200.000	-0.040	-0.511
-496.595	-200.000	-0.039	-0.207
-495.581	-200.000	-0.032	-0.552
-494.566	-200.000	0.026	0.123
-493.551	1.385	0.190	-0.136
-492.537	800.000	-0.051	-0.189
-491.522	-155.531	-0.244	0.016
-490.508	-200.000	-0.021	0.475
-489.493	-142.977	0.343	-0.033
-488.478	205.605	0.042	0.066
-487.464	-177.941	-0.223	0.005
-486.449	247.430	-0.131	-0.220
-485.435	-83.443	-0.179	0.057
-484.420	800.000	-0.075	0.299
-483.405	-96.681	0.152	-0.040
-482.391	-132.695	0.272	-0.035
-481.376	800.000	0.074	-0.293
-480.362	-200.000	-0.018	-0.180
-479.347	277.137	-0.159	0.282
-478.332	39.551	-0.329	-0.294
-477.318	-50.610	-0.181	-0.085
-476.303	-200.000	0.010	0.395
-475.289	-200.000	0.014	-0.084
-474.274	558.798	0.089	-0.213
-473.259	246.190	-0.179	-0.300
-472.245	254.686	-0.112	-0.192
-471.230	-43.691	-0.062	-0.031
-470.216	45.175	-0.134	0.123
-469.201	323.049	-0.080	-0.151
-468.186	800.000	-0.065	-0.226
-467.172	18.859	0.171	0.137
-466.157	-200.000	0.005	0.151
-465.143	800.000	0.043	0.134
-464.128	800.000	0.089	0.361
-463.113	800.000	0.025	-0.088
-462.099	28.226	-0.071	0.059
-461.084	-131.183	-0.286	0.038
-460.070	78.852	0.051	0.055
-459.055	49.703	0.322	-0.302
-458.040	141.331	-0.109	0.143
-457.026	-103.032	-0.432	0.102
-456.011	-109.063	0.349	0.074
-454.997	-86.254	-0.471	-0.144
-453.982	88.123	0.265	-0.293
-452.968	-200.000	0.048	0.275
-451.953	-133.496	0.117	0.015
-450.938	800.000	-0.073	-0.232
-449.924	-92.445	0.239	-0.067
-448.909	134.043	-0.231	-0.298
-447.895	-200.000	-0.009	0.421
-446.880	-200.000	0.053	0.434
-445.865	-147.038	-0.196	0.017
-444.851	109.926	0.203	-0.242
-443.836	-200.000	-0.053	0.314
-442.822	-122.618	0.219	-0.035
-441.807	2.255	0.149	0.107
-440.792	-161.643	0.033	-0.002
-439.778	-69.502	0.085	0.032
-438.763	-89.341	-0.097	0.028
-437.749	-200.000	0.029	-0.315
-436.734	-3.430	-0.148	-0.102
-435.719	66.891	-0.047	0.048
-434.705	-101.948	0.243	-0.058
-433.690	151.466	-0.127	0.172
-432.676	-39.310	-0.049	0.026
-431.661	-102.314	0.092	-0.022
-430.646	800.000	0.027	-0.101
-429.632	5.920	0.097	0.072
-428.617	382.704	0.044	0.089
-427.603	-70.462	0.093	-0.035
-426.588	236.751	-0.039	0.063
-425.573	-200.000	-0.045	-0.249
-424.559	106.511	0.218	-0.258
-423.544	-43.456	-0.268	-0.135
-422.530	-200.000	-0.005	-0.074
-421.515	258.630	-0.237	0.406
-420.500	17.653	0.095	0.075
-419.486	43.871	0.226	0.206
-418.471	800.000	-0.062	0.243
-417.457	136.114	-0.023	0.029
-416.442	-4.958	-0.234	0.160
-415.428	800.000	-0.074	0.309
-414.413	12.756	0.217	-0.166
-413.398	-200.000	-0.047	-0.531
-412.384	-145.265	0.275	0.025
-411.369	-13.290	-0.091	-0.058
-410.355	-200.000	0.005	0.287
-409.340	-143.360	0.519	-0.049
-408.325	104.085	-0.296	0.346
-407.311	279.367	0.110	-0.196
-406.296	-113.458	-0.216	-0.042
-405.282	-97.395	0.101	0.026
-404.267	780.481	0.061	-0.165
-403.252	-200.000	-0.008	-0.117
-402.238	800.000	0.013	0.039
-401.223	222.793	0.238	0.381
-400.209	-175.021	-0.202	0.006
-399.194	11.756	-0.160	-0.122
-398.179	-10.720	-0.125	0.082
-397.165	122.548	-0.158	0.196
-396.150	-85.022	0.153	0.048
-395.136	73.092	-0.226	-0.235
-394.121	-200.000	-0.027	-0.300
-393.106	295.348	0.123	0.223
-392.092	-98.839	-0.165	-0.042
-391.077	127.171	-0.184	0.232
-390.063	397.945	-0.141	-0.294
-389.048	35.148	-0.141	-0.123
-388.033	-93.183	-0.249	0.069
-387.019	800.000	-0.102	0.377
-386.004	291.300	0.230	-0.416
-384.990	0.074	0.148	0.105
-383.975	-37.589	-0.301	-0.159
-382.960	800.000	0.124	-0.504
-381.946	181.518	0.057	0.083
-380.931	306.615	-0.218	-0.404
-379.917	-200.000	0.034	-0.266
-378.902	41.114	-0.220	0.197
-377.888	-15.392	0.248	0.158
-376.873	2.538	-0.134	-0.096
-375.858	69.700	0.188	-0.193
-374.844	50.792	0.164	0.154
-373.829	800.000	0.092	0.274
-372.815	-200.000	-0.027	-0.482
-371.800	-200.000	-0.060	-0.297
-370.785	-80.988	-0.096	0.031
-369.771	-77.282	0.104	0.036
-368.756	22.172	0.343	0.278
-367.742	168.523	-0.112	0.159
-366.727	800.000	0.086	-0.321
-365.712	60.797	0.182	-0.179
-364.698	-200.000	0.046	-0.257
-363.683	32.056	0.236	0.202
-362.669	800.000	-0.113	0.401
-361.654	-38.441	-0.215	0.113
-360.639	-200.000	-0.038	-0.194
-359.625	301.717	0.224	0.411
-358.610	33.480	0.198	0.171
-357.596	2.369	-0.053	0.038
-356.581	-73.379	-0.090	0.033
-355.566	-104.409	0.116	-0.027
-354.552	-101.049	0.170	0.041
-353.537	113.971	0.189	-0.228
-352.523	170.429	0.235	0.334
-351.508	85.061	-0.038	-0.042
-350.493	578.356	-0.066	0.160
-349.479	800.000	0.080	-0.238
-348.464	332.224	-0.032	-0.061
-347.450	-200.000	-0.005	0.042
-346.435	800.000	-0.106	0.329
-345.420	551.951	-0.105	0.249
-344.406	150.862	0.069	-0.094
-343.391	797.693	0.121	-0.331
-342.377	-73.776	0.191	-0.069
-341.362	800.000	-0.045	0.194
-340.348	800.000	-0.054	0.207
-339.333	800.000	0.085	0.254
-338.318	67.502	-0.165	0.167
-337.304	-41.073	0.096	-0.049
-336.289	-26.928	-0.152	-0.088
-335.275	231.596	-0.085	0.138
-334.260	194.545	0.064	-0.096
-333.245	179.115	-0.147	-0.214
-332.231	-200.000	0.054	0.248
-331.216	-58.214	0.341	-0.147
-330.202	14.217	0.065	-0.050
-329.187	30.060	0.168	-0.142
-328.172	-120.937	-0.065	0.011
-327.158	800.000	0.056	-0.210
-326.143	174.028	-0.143	0.205
-325.129	160.122	0.243	0.335
-324.114	-29.566	-0.226	0.128
-323.099	800.000	-0.136	0.438
-322.085	120.183	-0.128	0.157
-321.070	-118.079	0.438	-0.077
-320.056	-6.697	-0.268	-0.180
-319.041	800.000	0.038	-0.154
-318.026	-23.353	-0.128	0.076
-317.012	61.699	0.052	-0.051
-315.997	69.417	0.098	0.100
-314.983	-115.849	-0.334	0.062
-313.968	-68.777	0.101	0.039
-312.953	-200.000	0.041	0.210
-311.939	374.750	0.083	0.168
-310.924	-142.898	0.316	0.030
-309.910	4.628	0.080	0.058
-308.895	-118.179	0.130	-0.023
-307.880	-99.167	-0.450	-0.113
-306.866	214.992	0.082	-0.129
-305.851	64.600	0.088	-0.088
-304.837	-123.414	-0.114	-0.018
-303.822	426.387	0.123	-0.262
-302.807	-129.703	0.208	-0.028
-301.793	-200.000	-0.020	-0.144
-300.778	-133.209	-0.315	0.039
-299.764	-63.325	0.139	-0.057
-298.749	800.000	0.058	-0.175
-297.735	-195.660	-0.290	-0.002
-296.720	169.407	-0.225	0.318
-295.705	-200.000	-0.041	-0.199
-294.691	97.813	-0.075	0.086
-293.676	608.810	-0.137	0.338
-292.662	-200.000	0.024	0.274
-291.647	652.247	0.133	0.337
-290.632	43.643	-0.231	0.209
-289.618	59.789	0.046	0.045
-288.603	-43.159	-0.194	-0.097
-287.589	-26.163	0.336	-0.195
-286.574	302.989	0.210	-0.384
-285.559	698.643	0.174	-0.452
-284.545	-129.206	0.190	0.026
-283.530	-200.000	-0.081	-0.503
-282.516	25.121	0.188	0.155
-281.501	230.246	0.036	-0.058
-280.486	296.782	0.132	0.240
-279.472	-200.000	0.023	-0.237
-278.457	-200.000	0.002	0.162
-277.443	234.881	0.147	-0.239
-276.428	-69.603	-0.145	0.055
-275.413	154.083	-0.109	-0.148
-274.399	151.876	-0.286	-0.386
-273.384	530.337	-0.117	-0.273
-272.370	203.127	0.105	-0.160
-271.355	800.000	-0.018	-0.061
-270.340	353.199	0.118	0.231
-269.326	-4.321	-0.307	0.210
-268.311	665.959	-0.054	0.138
-267.297	693.932	-0.141	0.366
-266.282	186.104	0.138	0.203
-265.267	706.922	0.055	-0.143
-264.253	-36.339	-0.165	0.088
-263.238	-6.823	0.167	-0.112
-262.224	158.096	-0.142	-0.195
-261.209	107.090	0.024	0.028
-260.195	-169.608	0.348	-0.012
-259.180	78.299	0.121	-0.128
-258.165	800.000	-0.085	-0.320
-257.151	-87.925	0.052	-0.015
-256.136	-200.000	-0.007	-0.061
-255.122	135.004	0.093	0.119
-254.107	40.340	-0.332	-0.295
-253.092	-118.296	-0.068	-0.012
-252.078	800.000	0.053	0.180
-251.063	306.585	0.202	-0.371
-250.049	-88.407	-0.399	0.118
-249.034	-169.871	0.155	-0.005
-248.019	69.177	-0.229	0.233
-247.005	-2.304	0.178	-0.123
-245.990	800.000	-0.047	0.143
-244.976	800.000	-0.023	-0.068
-243.961	800.000	0.159	0.458
-242.946	-200.000	0.060	0.259
-241.932	-114.731	0.093	0.018
-240.917	-23.292	0.383	0.227
-239.903	33.683	0.235	0.202
-238.888	-16.379	-0.098	0.061
-237.873	-133.191	-0.187	0.023
-236.859	48.376	0.106	0.098
-235.844	-49.979	0.178	-0.084
-234.830	15.536	-0.214	0.166
-233.815	-92.912	0.221	0.061
-232.800	82.014	0.147	-0.157
-231.786	800.000	0.091	0.298
-230.771	-55.950	0.231	-0.102
-229.757	18.435	-0.086	0.068
-228.742	90.092	0.178	0.196
-227.727	46.784	-0.136	0.124
-226.713	78.361	0.112	-0.118
-225.698	20.759	0.338	0.270
-224.684	-79.928	-0.079	0.026
-223.669	-100.216	0.174	-0.043
-222.655	-200.000	0.069	-0.355
-221.640	263.034	0.174	0.298
-220.625	-114.011	0.237	-0.045
-219.611	333.671	0.185	0.353
-218.596	213.918	-0.043	-0.067
-217.582	800.000	0.042	0.137
-216.567	320.335	-0.030	-0.056
-215.552	-200.000	-0.004	0.224
-214.538	250.822	0.116	0.195
-213.523	-200.000	-0.015	0.110
-212.509	77.232	-0.092	0.097
-211.494	-120.044	0.105	0.018
-210.479	34.330	0.112	0.096
-209.465	62.084	0.085	0.083
-208.450	76.335	0.229	0.239
-207.436	-52.550	0.157	-0.071
-206.421	530.367	0.130	-0.303
-205.406	240.186	-0.068	0.113
-204.392	-5.228	0.254	0.172
-203.377	-159.024	-0.225	0.013
-202.363	346.712	0.125	0.242
-201.348	-33.165	-0.506	0.276
-200.333	380.491	-0.161	-0.326
-199.319	-200.000	0.004	0.155
-198.304	-14.524	-0.188	-0.119
-197.290	-107.285	-0.250	-0.054
-196.275	-156.165	-0.157	0.010
-195.260	-147.491	0.139	-0.012
-194.246	-11.685	-0.374	0.242
-193.231	434.986	0.060	0.127
-192.217	93.453	0.190	0.212
-191.202	-109.915	0.314	0.065
-190.187	-200.000	0.044	0.195
-189.173	53.805	0.086	-0.081
-188.158	-120.510	-0.168	0.028
-187.144	-89.691	-0.103	0.030
-186.129	800.000	0.117	0.418
-185.114	338.884	0.042	0.080
-184.100	505.931	0.146	-0.333
-183.085	82.711	0.062	0.067
-182.071	-119.020	0.177	-0.031
-181.056	800.000	-0.068	0.231
-180.042	-200.000	0.043	0.225
-179.027	-200.000	0.012	0.303
-178.012	800.000	-0.068	0.260
-176.998	-135.825	0.332	-0.039
-175.983	318.780	0.099	0.185
-174.969	-71.517	0.093	0.034
-173.954	58.849	-0.295	0.286
-172.939	-78.670	0.081	0.027
-171.925	96.251	-0.426	-0.480
-170.910	39.235	0.171	-0.151
-169.896	26.407	-0.130	-0.107
-168.881	615.711	-0.130	-0.320
-167.866	-105.378	0.199	0.045
-166.852	-29.239	-0.366	0.206
-165.837	51.724	-0.207	0.194
-164.823	-74.692	-0.348	-0.123
-163.808	800.000	0.030	-0.121
-162.793	-50.606	0.137	-0.064
-161.779	-29.520	0.287	-0.161
-160.764	-20.514	-0.181	-0.109
-159.750	30.521	-0.129	-0.108
-158.735	7.877	-0.130	0.096
-157.720	800.000	0.041	-0.167
-156.706	-29.580	0.103	0.058
-155.691	-200.000	-0.007	-0.257
-154.677	-200.000	-0.040	-0.256
-153.662	-170.690	-0.209	0.007
-152.647	-200.000	0.002	0.091
-151.633	101.746	-0.066	-0.075
-150.618	-200.000	0.017	0.268
-149.604	404.468	0.097	0.201
-148.589	508.862	0.094	0.215
-147.574	800.000	0.035	-0.097
-146.560	-200.000	-0.011	0.131
-145.545	-123.765	0.418	-0.065
-144.531	-152.514	-0.413	-0.029
-143.516	800.000	-0.041	0.130
-142.502	6.640	-0.206	-0.151
-141.487	25.092	-0.114	0.093
-140.472	800.000	-0.141	-0.437
-139.458	800.000	-0.094	-0.268
-138.443	800.000	-0.125	-0.362
-137.429	88.447	-0.154	0.169
-136.414	800.000	-0.082	0.228
-135.399	-200.000	-0.022	0.151
-134.385	16.111	-0.104	-0.080
-133.370	-200.000	0.035	-0.229
-132.356	800.000	0.049	-0.136
-131.341	450.951	0.076	0.165
-130.326	747.512	0.067	-0.178
-129.312	8.543	0.230	0.171
-128.297	-200.000	0.031	0.227
-127.283	1.799	0.279	-0.198
-126.268	-82.336	-0.212	0.068
-125.253	800.000	-0.073	0.215
-124.239	36.663	0.171	0.149
-123.224	-200.000	0.443	-0.002
-122.210	243.375	0.200	0.329
-121.195	35.340	0.301	0.260
-120.180	16.525	-0.188	0.146
-119.166	64.346	-0.098	0.097
