DTS Sentinel unit serial number:	SN413079Multiplexer serial number:	ORYXHardware model number:	OX4-SRSoftware version number:	ORYX F/W v4.00 Oryx Data Collector v3.7.2.0data status	okinstallation	princeton_trtdifferential loss correction	single-endedforward channel	channel 2reverse channel	N/Adate	2019/09/10time	17:25:11forward acquisition time	60.00reverse acquisition time	0.00gamma	496.2192k internal	0.2310k external	0.2310temperature offset calibration	0.9934default loss term (dB/km)	0.3790temperature slope calibration	1.0000multiplexer offset coefficient	1.0000multiplexer slope coefficient	1.0000fibre end	0.00T internal ref (°C)	37.66T ext. ref 1 (°C)	-0.36T ext. ref 2 (°C)	32.50length (m)	temperature (°C)	Stokes	anti-Stokes-747.200	-62.373	0.251	0.106
-746.185	403.207	0.111	0.237
-745.171	-200.000	-0.033	0.399
-744.156	-197.957	-0.219	-0.001
-743.142	-200.000	0.027	-0.131
-742.127	-142.242	0.065	0.007
-741.112	800.000	0.086	-0.249
-740.098	-9.427	0.108	0.073
-739.083	-84.044	-0.181	0.058
-738.069	-94.122	-0.154	-0.043
-737.054	3.656	-0.277	0.206
-736.039	-24.454	0.104	0.063
-735.025	-121.761	-0.099	-0.017
-734.010	11.631	0.227	-0.177
-732.996	432.208	-0.178	-0.391
-731.981	800.000	0.049	-0.208
-730.966	800.000	-0.032	-0.126
-729.952	513.752	-0.141	-0.333
-728.937	-145.675	0.191	-0.017
-727.923	541.123	0.108	-0.261
-726.908	578.626	0.064	0.160
-725.894	-200.000	-0.039	-0.220
-724.879	-11.522	0.179	0.119
-723.864	213.002	0.217	-0.348
-722.850	-146.071	0.249	0.022
-721.835	-200.000	0.004	-0.214
-720.821	6.809	0.229	-0.173
-719.806	293.191	-0.121	-0.225
-718.791	-200.000	-0.117	-0.547
-717.777	206.163	0.011	0.017
-716.762	800.000	-0.032	0.109
-715.748	-200.000	0.050	0.248
-714.733	253.224	-0.035	0.060
-713.718	214.956	0.067	-0.108
-712.704	-62.899	0.032	0.014
-711.689	-200.000	-0.022	-0.118
-710.675	-200.000	0.029	-0.312
-709.660	-71.833	-0.341	0.129
-708.645	-129.711	-0.394	0.055
-707.631	-200.000	-0.017	-0.339
-706.616	-148.490	-0.167	0.014
-705.602	-172.030	-0.109	0.004
-704.587	-19.722	0.285	0.178
-703.572	-158.765	-0.238	-0.014
-702.558	-200.000	-0.008	0.086
-701.543	-27.926	-0.145	0.085
-700.529	800.000	-0.020	-0.079
-699.514	-49.610	-0.131	0.063
-698.499	-118.813	-0.243	0.043
-697.485	37.438	-0.139	-0.125
-696.470	117.177	0.231	-0.288
-695.456	-200.000	0.037	-0.171
-694.441	-49.392	-0.352	-0.170
-693.426	187.979	-0.128	0.194
-692.412	733.876	-0.148	-0.400
-691.397	-26.761	0.161	0.096
-690.383	119.863	-0.065	0.081
-689.368	308.450	0.028	0.053
-688.354	-200.000	0.028	-0.146
-687.339	529.730	-0.089	-0.213
-686.324	-35.472	-0.093	-0.051
-685.310	391.998	0.093	0.196
-684.295	230.695	0.161	-0.266
-683.281	-200.000	-0.024	0.219
-682.266	695.466	-0.089	-0.237
-681.251	21.390	0.316	-0.260
-680.237	-200.000	0.054	-0.302
-679.222	800.000	0.114	-0.366
-678.208	-77.237	0.316	0.112
-677.193	-200.000	0.007	0.163
-676.178	422.599	-0.090	0.195
-675.164	-200.000	0.026	0.323
-674.149	314.382	-0.114	0.217
-673.135	22.645	0.216	-0.179
-672.120	-0.878	-0.015	-0.011
-671.105	396.676	-0.098	-0.207
-670.091	352.499	0.150	0.302
-669.076	800.000	-0.002	0.007
-668.062	-175.966	0.460	0.012
-667.047	94.778	0.274	-0.316
-666.032	75.567	0.134	0.143
-665.018	122.499	-0.199	-0.252
-664.003	800.000	0.060	-0.189
-662.989	-200.000	-0.048	-0.300
-661.974	-200.000	-0.030	-0.288
-660.959	-200.000	0.039	0.180
-659.945	-87.695	-0.479	-0.146
-658.930	-109.733	0.335	0.071
-657.916	-40.418	0.304	-0.160
-656.901	-114.330	0.293	-0.057
-655.886	-200.000	0.023	0.111
-654.872	20.554	0.081	0.066
-653.857	52.364	-0.154	-0.149
-652.843	-70.324	-0.295	-0.113
-651.828	800.000	0.129	-0.569
-650.814	-18.290	0.199	-0.126
-649.799	148.835	-0.144	0.197
-648.784	800.000	0.070	-0.305
-647.770	9.430	-0.224	-0.172
-646.755	-105.716	0.124	-0.028
-645.741	123.611	-0.330	-0.419
-644.726	-40.778	0.324	-0.170
-643.711	-148.416	0.049	-0.004
-642.697	-87.735	-0.173	0.053
-641.682	171.665	-0.102	0.148
-640.668	-200.000	-0.055	0.317
-639.653	348.671	0.106	0.211
-638.638	-0.654	0.266	0.191
-637.624	51.379	0.162	-0.156
-636.609	60.612	-0.227	-0.227
-635.595	-200.000	0.041	-0.412
-634.580	-54.445	0.531	-0.243
-633.565	800.000	-0.022	0.093
-632.551	-8.836	0.160	-0.108
-631.536	-88.594	0.189	-0.057
-630.522	-200.000	0.010	-0.183
-629.507	-91.823	-0.019	0.006
-628.492	800.000	0.030	0.103
-627.478	211.906	0.095	0.151
-626.463	775.721	-0.142	-0.392
-625.449	800.000	0.104	-0.358
-624.434	-200.000	-0.015	-0.236
-623.419	-84.493	-0.173	-0.055
-622.405	516.489	-0.225	-0.533
-621.390	56.840	-0.170	-0.167
-620.376	390.730	0.154	-0.324
-619.361	5.391	0.331	-0.247
-618.346	-55.084	0.243	-0.110
-617.332	800.000	0.137	-0.388
-616.317	800.000	0.041	-0.145
-615.303	-84.179	0.322	0.103
-614.288	-93.712	-0.386	-0.108
-613.273	-61.889	-0.234	0.099
-612.259	462.464	0.075	-0.168
-611.244	-84.322	-0.253	-0.081
-610.230	185.506	-0.069	-0.103
-609.215	-200.000	0.001	-0.111
-608.201	197.521	0.243	-0.374
-607.186	35.461	0.118	0.105
-606.171	-59.591	0.119	0.052
-605.157	396.391	0.094	-0.197
-604.142	-94.093	-0.202	0.056
-603.128	-200.000	0.004	-0.103
-602.113	800.000	-0.072	0.230
-601.098	83.524	0.189	0.208
-600.084	89.395	0.048	-0.054
-599.069	213.059	-0.114	-0.181
-598.055	-87.929	-0.298	-0.091
-597.040	800.000	0.073	0.243
-596.025	-166.836	0.150	-0.006
-595.011	-200.000	-0.100	0.450
-593.996	-68.734	0.288	0.112
-592.982	-82.342	0.307	0.101
-591.967	-93.526	-0.232	0.065
-590.952	107.255	-0.153	-0.183
-589.938	-37.155	-0.076	0.041
-588.923	800.000	0.029	-0.109
-587.909	18.902	-0.198	0.160
-586.894	-55.474	0.296	0.134
-585.879	40.171	-0.216	-0.196
-584.865	14.160	0.259	-0.204
-583.850	-116.883	0.197	-0.036
-582.836	-64.890	0.103	0.042
-581.821	43.804	-0.242	0.223
-580.806	-49.310	-0.143	-0.069
-579.792	-142.999	0.132	-0.013
-578.777	-57.607	0.163	-0.072
-577.763	13.901	-0.203	0.159
-576.748	-200.000	-0.003	0.065
-575.733	800.000	0.072	-0.209
-574.719	-63.234	0.106	0.044
-573.704	-8.034	-0.133	0.091
-572.690	78.740	-0.116	0.126
-571.675	70.972	-0.165	0.172
-570.661	-199.695	-0.248	-0.001
-569.646	800.000	0.062	0.258
-568.631	-200.000	-0.099	0.000
-567.617	213.002	-0.042	-0.067
-566.602	-1.536	0.048	0.034
-565.588	578.835	-0.068	-0.168
-564.573	-200.000	-0.035	-0.155
-563.558	-200.000	-0.012	0.333
-562.544	800.000	-0.015	-0.045
-561.529	-200.000	-0.028	-0.165
-560.515	49.939	0.092	0.088
-559.500	247.639	-0.183	-0.311
-558.485	29.366	0.185	0.158
-557.471	484.363	0.046	0.105
-556.456	-200.000	-0.034	-0.216
-555.442	288.383	0.125	-0.229
-554.427	-19.841	0.302	-0.188
-553.412	214.397	0.134	-0.214
-552.398	81.732	0.322	-0.351
-551.383	800.000	-0.064	-0.206
-550.369	-72.770	0.306	0.114
-549.354	116.455	0.246	0.304
-548.339	800.000	-0.058	0.237
-547.325	-80.388	-0.352	-0.118
-546.310	-200.000	-0.002	0.070
-545.296	167.067	-0.196	-0.280
-544.281	61.559	-0.341	0.341
-543.266	507.780	-0.170	0.397
-542.252	-4.859	0.239	-0.166
-541.237	-200.000	-0.008	0.446
-540.223	356.987	0.098	0.197
-539.208	-161.379	-0.279	0.015
-538.193	154.409	-0.105	0.146
-537.179	-41.411	0.170	0.088
-536.164	-200.000	0.013	-0.058
-535.150	800.000	-0.027	0.090
-534.135	732.931	0.082	0.222
-533.121	-116.641	-0.282	-0.052
-532.106	236.865	-0.175	-0.291
-531.091	154.979	0.155	-0.215
-530.077	-200.000	-0.034	0.322
-529.062	-66.484	0.296	-0.118
-528.048	-200.000	-0.056	-0.255
-527.033	-152.923	-0.331	-0.024
-526.018	-111.998	0.092	0.019
-525.004	12.053	-0.051	-0.039
-523.989	800.000	-0.043	-0.137
-522.975	800.000	-0.037	-0.150
-521.960	-132.117	-0.079	-0.010
-520.945	-78.611	0.104	0.036
-519.931	504.932	0.041	-0.095
-518.916	410.889	-0.116	0.249
-517.902	463.857	0.177	-0.398
-516.887	4.641	-0.207	0.153
-515.872	-19.313	0.266	-0.166
-514.858	-6.345	0.235	-0.161
-513.843	184.669	-0.172	-0.257
-512.829	-102.478	0.260	0.063
-511.814	244.178	0.339	0.573
-510.799	603.799	-0.155	0.388
-509.785	-168.546	0.311	-0.012
-508.770	155.683	-0.199	-0.276
-507.756	99.831	-0.135	-0.157
-506.741	-50.187	-0.420	0.200
-505.726	48.160	-0.097	-0.092
-504.712	-72.416	0.204	-0.076
-503.697	-9.974	-0.276	-0.185
-502.683	269.755	-0.088	0.156
-501.668	-200.000	-0.006	0.220
-500.653	-200.000	-0.027	0.290
-499.639	-200.000	-0.013	0.093
-498.624	-200.000	0.000	0.059
-497.610	280.919	0.091	0.164
-496.595	800.000	-0.109	0.324
-495.581	-102.263	0.138	0.033
-494.566	-80.277	0.209	0.070
-493.551	-26.342	0.219	0.129
-492.537	800.000	-0.093	-0.307
-491.522	199.878	0.177	-0.273
-490.508	-200.000	-0.035	0.159
-489.493	12.913	-0.250	0.194
-488.478	800.000	0.047	0.163
-487.464	-91.516	-0.141	0.041
-486.449	-89.796	-0.064	0.019
-485.435	-39.623	0.037	0.019
-484.420	-126.173	0.548	-0.082
-483.405	-110.305	-0.205	-0.043
-482.391	176.322	-0.079	0.116
-481.376	393.507	0.085	0.177
-480.362	-200.000	0.231	-0.001
-479.347	-146.739	0.074	-0.006
-478.332	800.000	0.068	-0.257
-477.318	-99.878	0.137	-0.034
-476.303	-66.937	0.225	-0.089
-475.289	-126.834	-0.386	-0.057
-474.274	94.162	0.241	-0.275
-473.259	-14.350	0.152	0.098
-472.245	-200.000	0.023	-0.200
-471.230	108.043	-0.151	0.181
-470.216	-25.523	-0.065	0.039
-469.201	-200.000	0.007	0.136
-468.186	-70.473	0.329	0.125
-467.172	-200.000	0.042	0.237
-466.157	153.226	-0.107	-0.147
-465.143	-37.341	0.557	0.299
-464.128	-175.815	-0.480	0.013
-463.113	-50.527	0.142	0.067
-462.099	31.614	0.134	-0.116
-461.084	-25.557	-0.086	0.051
-460.070	6.912	-0.078	-0.058
-459.055	-87.901	0.541	-0.163
-458.040	-200.000	0.051	-0.283
-457.026	-77.008	0.250	0.088
-456.011	-200.000	-0.031	0.303
-454.997	-200.000	-0.010	-0.102
-453.982	800.000	-0.062	-0.179
-452.968	-36.704	0.321	-0.173
-451.953	420.620	-0.041	0.089
-450.938	-73.136	-0.102	-0.037
-449.924	586.841	-0.136	0.337
-448.909	-142.347	0.170	0.017
-447.895	9.473	-0.157	0.120
-446.880	444.377	0.025	0.054
-445.865	-200.000	-0.022	0.231
-444.851	-125.788	-0.286	-0.043
-443.836	-39.447	-0.147	-0.078
-442.822	-200.000	-0.042	0.423
-441.807	195.741	0.097	0.147
-440.792	-121.140	-0.405	-0.068
-439.778	-200.000	0.002	0.090
-438.763	-200.000	-0.011	-0.070
-437.749	35.307	-0.041	-0.036
-436.734	85.864	-0.098	-0.108
-435.719	428.816	-0.022	-0.048
-434.705	235.907	0.044	-0.073
-433.690	800.000	-0.168	-0.481
-432.676	-55.862	-0.245	0.110
-431.661	435.808	0.078	-0.170
-430.646	-173.298	0.105	-0.003
-429.632	800.000	-0.039	-0.163
-428.617	-135.351	-0.194	-0.023
-427.603	-170.980	-0.234	-0.008
-426.588	-156.436	0.279	-0.017
-425.573	182.103	-0.051	0.075
-424.559	449.041	-0.171	0.379
-423.544	85.060	-0.150	0.165
-422.530	300.319	0.198	0.366
-421.515	-27.362	0.202	0.118
-420.500	454.808	0.080	0.179
-419.486	-138.759	0.291	0.032
-418.471	800.000	0.030	0.130
-417.457	800.000	0.066	-0.197
-416.442	800.000	-0.032	-0.091
-415.428	253.532	0.081	0.138
-414.413	297.517	0.229	0.422
-413.398	-19.805	0.114	0.071
-412.384	-200.000	-0.004	-0.199
-411.369	50.692	0.330	0.313
-410.355	-131.870	-0.091	-0.012
-409.340	65.690	0.140	-0.142
-408.325	84.526	0.149	0.164
-407.311	-148.835	0.077	0.006
-406.296	51.671	0.299	-0.285
-405.282	95.790	-0.111	-0.127
-404.267	-91.612	-0.305	0.087
-403.252	2.843	-0.122	-0.089
-402.238	-200.000	0.044	0.301
-401.223	-14.075	0.071	-0.046
-400.209	800.000	-0.079	0.251
-399.194	52.631	-0.149	-0.142
-398.179	800.000	-0.142	-0.396
-397.165	570.848	0.080	-0.196
-396.150	-120.541	0.157	-0.027
-395.136	-200.000	-0.099	0.511
-394.121	94.542	-0.348	0.396
-393.106	650.386	0.123	0.315
-392.092	157.165	0.245	-0.339
-391.077	704.271	-0.039	-0.102
-390.063	-200.000	-0.021	0.143
-389.048	114.616	-0.101	0.123
-388.033	-156.738	-0.129	-0.008
-387.019	45.654	0.108	-0.100
-386.004	694.685	-0.087	0.229
-384.990	-67.428	-0.261	-0.103
-383.975	800.000	-0.124	0.348
-382.960	-111.481	0.283	-0.058
-381.946	81.746	-0.306	-0.332
-380.931	-80.959	0.244	-0.081
-379.917	70.364	-0.192	0.199
-378.902	-196.333	-0.066	0.000
-377.888	676.367	0.255	-0.664
-376.873	-126.507	-0.316	0.047
-375.858	-200.000	-0.017	-0.193
-374.844	-200.000	0.001	0.101
-373.829	-109.562	0.228	-0.048
-372.815	-200.000	0.051	-0.416
-371.800	230.989	-0.085	-0.139
-370.785	-118.647	0.211	-0.037
-369.771	-46.467	0.483	-0.237
-368.756	-200.000	0.033	0.227
-367.742	369.131	-0.093	0.189
-366.727	280.225	-0.141	-0.252
-365.712	354.726	-0.143	0.285
-364.698	-25.477	0.135	0.080
-363.683	-200.000	-0.013	-0.162
-362.669	104.348	0.121	-0.142
-361.654	800.000	0.004	0.013
-360.639	-69.466	0.140	-0.054
-359.625	-200.000	-0.012	-0.242
-358.610	54.303	0.061	0.059
-357.596	-177.404	-0.177	0.004
-356.581	-123.845	0.162	-0.026
-355.566	-200.000	0.000	0.138
-354.552	39.225	-0.158	0.141
-353.537	90.424	-0.176	0.197
-352.523	141.881	-0.173	0.229
-351.508	69.870	-0.030	-0.031
-350.493	800.000	-0.037	0.150
-349.479	-86.026	0.142	0.044
-348.464	-118.858	-0.288	-0.051
-347.450	37.205	0.127	-0.113
-346.435	-18.927	-0.057	0.036
-345.420	-125.115	0.278	-0.043
-344.406	-48.347	0.308	0.149
-343.391	-62.172	-0.196	0.082
-342.377	-200.000	0.069	-0.381
-341.362	736.512	-0.059	-0.159
-340.348	-200.000	0.069	0.309
-339.333	-200.000	-0.017	0.095
-338.318	-19.257	-0.264	0.164
-337.304	46.265	-0.062	-0.057
-336.289	-97.011	0.197	-0.051
-335.275	-69.541	0.310	-0.119
-334.260	-155.593	0.314	-0.020
-333.245	800.000	0.117	0.425
-332.231	436.752	0.036	-0.078
-331.216	-200.000	-0.086	-0.442
-330.202	-200.000	-0.048	-0.350
-329.187	-55.616	-0.054	-0.024
-328.172	-114.095	-0.133	0.026
-327.158	-44.887	-0.238	0.119
-326.143	-200.000	-0.026	0.133
-325.129	14.295	-0.115	-0.089
-324.114	800.000	-0.040	0.145
-323.099	800.000	-0.045	-0.134
-322.085	800.000	-0.138	0.382
-321.070	28.507	-0.071	0.060
-320.056	22.789	-0.123	-0.101
-319.041	-28.060	-0.079	-0.046
-318.026	-44.616	0.176	0.088
-317.012	800.000	0.107	-0.353
-315.997	77.287	-0.113	0.120
-314.983	-200.000	-0.033	-0.145
-313.968	-7.532	-0.336	0.227
-312.953	-82.165	0.106	0.035
-311.939	290.325	0.126	0.229
-310.924	-28.792	0.079	0.045
-309.910	-95.824	-0.317	-0.084
-308.895	199.946	-0.105	-0.161
-307.880	224.442	-0.031	-0.050
-306.866	185.509	-0.185	-0.274
-305.851	52.761	-0.318	-0.304
-304.837	-150.403	-0.178	0.014
-303.822	800.000	0.034	0.121
-302.807	-90.142	-0.029	-0.009
-301.793	-19.452	0.335	0.207
-300.778	-200.000	0.011	0.145
-299.764	-200.000	-0.045	-0.374
-298.749	229.142	0.011	0.018
-297.735	-15.672	-0.077	-0.049
-296.720	-107.278	-0.342	-0.075
-295.705	-92.942	-0.266	-0.074
-294.691	-140.674	-0.212	-0.022
-293.676	-43.998	0.081	-0.041
-292.662	-120.007	-0.193	-0.033
-291.647	-92.123	-0.282	0.079
-290.632	221.901	0.208	0.334
-289.618	800.000	-0.045	-0.149
-288.603	99.570	-0.149	-0.172
-287.589	-107.312	-0.272	0.060
-286.574	-120.198	0.259	-0.044
-285.559	-6.394	0.445	-0.303
-284.545	-5.318	-0.261	-0.179
-283.530	669.442	-0.023	0.059
-282.516	-126.123	-0.438	0.065
-281.501	188.428	0.078	-0.116
-280.486	217.676	0.180	-0.286
-279.472	58.632	-0.143	-0.140
-278.457	627.031	0.093	0.235
-277.443	424.596	0.033	0.071
-276.428	-51.418	-0.110	-0.051
-275.413	800.000	-0.032	-0.127
-274.399	612.873	0.001	0.002
-273.384	800.000	-0.068	0.287
-272.370	800.000	0.079	0.228
-271.355	-122.683	0.367	0.059
-270.340	215.375	-0.178	-0.282
-269.326	-105.902	0.224	-0.050
-268.311	172.975	0.160	0.230
-267.297	-101.001	-0.279	0.068
-266.282	473.440	0.123	0.278
-265.267	-98.848	-0.230	0.058
-264.253	800.000	-0.034	-0.129
-263.238	72.025	-0.093	0.096
-262.224	174.004	-0.106	-0.153
-261.209	-83.227	0.138	-0.044
-260.195	38.263	0.102	-0.090
-259.180	201.007	-0.068	0.105
-258.165	-139.447	-0.237	0.025
-257.151	515.221	0.174	0.404
-256.136	62.567	-0.066	0.066
-255.122	424.154	-0.086	-0.185
-254.107	369.646	0.035	-0.070
-253.092	143.098	0.143	-0.190
-252.078	690.402	0.028	-0.074
-251.063	-71.890	-0.077	0.028
-250.049	-67.185	-0.157	-0.062
-249.034	173.388	0.147	0.212
-248.019	-20.118	0.378	0.232
-247.005	-68.220	0.352	0.136
-245.990	-121.413	0.103	0.017
-244.976	-200.000	0.002	-0.024
-243.961	-200.000	-0.009	-0.133
-242.946	213.081	-0.170	-0.267
-241.932	273.432	0.115	0.203
-240.917	590.879	-0.009	-0.021
-239.903	-100.376	0.242	0.060
-238.888	800.000	-0.043	-0.140
-237.873	-149.537	-0.220	-0.017
-236.859	-200.000	0.008	-0.052
-235.844	204.835	0.114	-0.176
-234.830	81.809	-0.150	-0.162
-233.815	500.821	0.057	0.131
-232.800	24.353	0.067	-0.055
-231.786	32.163	-0.084	0.072
-230.771	-154.683	-0.139	0.009
-229.757	42.256	-0.208	-0.188
-228.742	-21.131	0.415	0.253
-227.727	-29.181	0.167	-0.095
-226.713	-128.506	-0.476	-0.067
-225.698	564.589	-0.130	0.313
-224.684	74.628	0.103	-0.108
-223.669	-136.543	0.193	0.022
-222.655	800.000	-0.049	0.172
-221.640	149.240	-0.146	-0.196
-220.625	189.375	0.091	0.136
-219.611	111.856	0.084	-0.101
-218.596	-200.000	-0.025	0.209
-217.582	800.000	-0.109	0.401
-216.567	-151.240	-0.197	0.015
-215.552	-122.587	-0.228	0.037
-214.538	-63.357	0.315	-0.129
-213.523	8.913	0.301	0.226
-212.509	-44.792	0.355	0.176
-211.494	151.382	0.129	-0.174
-210.479	-72.641	-0.307	0.113
-209.465	-158.005	0.254	0.015
-208.450	82.949	0.074	0.080
-207.436	169.805	-0.119	-0.169
-206.421	-200.000	0.007	0.469
-205.406	-200.000	-0.016	0.237
-204.392	-200.000	-0.026	-0.126
-203.377	-200.000	-0.029	-0.294
-202.363	-81.851	-0.298	0.097
-201.348	800.000	0.068	0.259
-200.333	164.946	-0.125	-0.175
-199.319	342.629	0.072	0.140
-198.304	251.753	-0.135	-0.228
-197.290	-128.331	-0.192	0.027
-196.275	-200.000	-0.001	-0.008
-195.260	-200.000	-0.005	0.069
-194.246	-200.000	-0.065	0.362
-193.231	258.778	-0.048	-0.082
-192.217	-68.718	0.135	-0.052
-191.202	-17.477	0.162	-0.102
-190.187	24.546	-0.142	0.117
-189.173	800.000	-0.028	0.100
-188.158	7.850	0.382	0.284
-187.144	16.394	-0.144	-0.113
-186.129	25.688	-0.175	-0.145
-185.114	31.646	-0.255	-0.218
-184.100	-135.364	0.202	-0.024
-183.085	800.000	-0.112	-0.427
-182.071	-157.164	0.098	0.006
-181.056	-5.144	0.204	0.140
-180.042	-29.951	-0.060	0.034
-179.027	74.647	0.137	0.143
-178.012	-83.620	0.125	0.040
-176.998	-73.851	-0.329	-0.119
-175.983	-78.747	-0.123	-0.042
-174.969	113.568	0.230	0.278
-173.954	-167.011	-0.084	0.003
-172.939	-99.166	0.054	0.014
-171.925	548.306	0.051	-0.122
-170.910	-103.773	-0.090	0.021
-169.896	259.885	-0.059	0.101
-168.881	85.792	-0.145	0.159
-167.866	-200.000	-0.037	-0.278
-166.852	107.413	0.157	-0.185
-165.837	165.540	0.202	0.283
-164.823	62.675	-0.259	-0.257
-163.808	-93.610	0.204	-0.056
-162.793	210.612	-0.209	0.325
-161.779	206.750	0.092	-0.143
-160.764	-145.765	-0.355	-0.031
-159.750	-153.611	0.353	0.024
-158.735	-25.342	0.080	0.047
-157.720	27.899	-0.043	-0.036
-156.706	-125.006	-0.476	0.073
-155.691	18.721	-0.262	-0.208
-154.677	800.000	-0.042	0.152
-153.662	18.602	0.272	0.216
-152.647	-77.799	-0.307	-0.105
-151.633	158.023	0.250	0.344
-150.618	800.000	0.020	0.087
-149.604	-200.000	0.002	0.341
-148.589	800.000	0.045	-0.129
-147.574	-72.019	0.457	0.168
-146.560	-200.000	0.027	0.375
-145.545	107.529	0.137	0.162
-144.531	79.532	0.215	0.229
-143.516	-200.000	0.029	-0.177
-142.502	800.000	-0.049	0.204
-141.487	-101.567	-0.191	-0.046
-140.472	465.443	0.069	-0.153
-139.458	800.000	0.026	-0.087
-138.443	-200.000	0.014	-0.118
-137.429	21.539	0.131	0.105
-136.414	-171.524	-0.070	-0.002
-135.399	468.543	-0.080	0.178
-134.385	800.000	-0.151	-0.455
-133.370	-98.652	0.012	0.003
-132.356	-71.965	0.230	-0.085
-131.341	-70.628	-0.155	0.058
-130.326	-76.356	-0.063	0.022
-129.312	-50.282	0.450	-0.211
-128.297	41.650	-0.175	0.157
-127.283	-200.000	-0.013	0.121
-126.268	-200.000	-0.030	-0.297
-125.253	-200.000	0.003	-0.113
-124.239	-67.143	0.036	-0.014
-123.224	193.137	0.139	0.208
-122.210	-200.000	0.007	-0.033
