DTS Sentinel unit serial number:	SN413079Multiplexer serial number:	ORYXHardware model number:	OX4-SRSoftware version number:	ORYX F/W v4.00 Oryx Data Collector v3.7.2.0data status	okinstallation	princeton_trtdifferential loss correction	single-endedforward channel	channel 2reverse channel	N/Adate	2019/09/18time	04:03:34forward acquisition time	60.00reverse acquisition time	0.00gamma	496.2192k internal	0.2348k external	0.2348temperature offset calibration	0.9983default loss term (dB/km)	0.3790temperature slope calibration	1.0000multiplexer offset coefficient	1.0000multiplexer slope coefficient	1.0000fibre end	0.00T internal ref (°C)	23.19T ext. ref 1 (°C)	0.17T ext. ref 2 (°C)	18.05length (m)	temperature (°C)	Stokes	anti-Stokes-747.200	146.267	-0.128	0.171
-746.185	-118.894	0.347	-0.061
-745.171	-89.792	0.295	0.086
-744.156	111.271	-0.285	0.344
-743.142	-188.831	0.234	-0.003
-742.127	182.026	-0.226	0.333
-741.112	26.809	0.258	-0.216
-740.098	119.758	0.209	-0.259
-739.083	-1.436	-0.130	0.092
-738.069	800.000	0.114	0.347
-737.054	800.000	-0.008	0.032
-736.039	-200.000	0.011	-0.093
-735.025	753.927	-0.131	0.355
-734.010	114.450	-0.138	0.167
-732.996	92.024	0.023	-0.026
-731.981	582.095	-0.087	-0.212
-730.966	-141.740	-0.291	0.029
-729.952	16.174	0.062	-0.049
-728.937	800.000	0.054	-0.167
-727.923	-16.638	0.129	0.081
-726.908	800.000	-0.031	-0.112
-725.894	-200.000	-0.051	0.312
-724.879	640.023	0.038	-0.096
-723.864	25.473	0.236	-0.196
-722.850	-16.951	-0.172	-0.108
-721.835	64.443	0.061	-0.061
-720.821	484.044	0.083	-0.189
-719.806	251.569	0.187	0.317
-718.791	800.000	0.068	-0.190
-717.777	-200.000	-0.022	-0.371
-716.762	-62.070	-0.131	-0.055
-715.748	18.555	-0.285	-0.227
-714.733	214.090	-0.149	-0.235
-713.718	-200.000	0.043	-0.293
-712.704	70.111	-0.006	-0.006
-711.689	800.000	-0.061	-0.168
-710.675	259.891	-0.086	-0.148
-709.660	-65.705	-0.135	-0.054
-708.645	-200.000	-0.023	-0.249
-707.631	488.102	-0.050	-0.115
-706.616	88.844	-0.023	-0.026
-705.602	800.000	0.036	0.146
-704.587	147.424	0.187	0.252
-703.572	444.130	-0.085	0.185
-702.558	382.370	-0.178	-0.365
-701.543	-49.066	0.257	-0.123
-700.529	800.000	-0.089	-0.255
-699.514	195.207	0.090	-0.137
-698.499	-200.000	0.269	0.000
-697.485	-137.719	-0.409	0.046
-696.470	46.830	-0.071	0.066
-695.456	-145.038	-0.222	0.020
-694.441	-200.000	0.008	0.172
-693.426	-45.837	-0.366	0.180
-692.412	186.659	-0.149	0.222
-691.397	230.173	-0.276	0.449
-690.383	41.795	-0.327	0.296
-689.368	146.023	-0.324	-0.433
-688.354	-11.889	0.247	0.162
-687.339	-46.452	-0.094	0.046
-686.324	-200.000	-0.038	0.199
-685.310	-0.832	-0.049	0.035
-684.295	86.834	0.053	0.058
-683.281	800.000	0.018	0.067
-682.266	-13.293	-0.159	-0.103
-681.251	800.000	0.097	-0.291
-680.237	437.238	-0.166	-0.360
-679.222	800.000	-0.026	-0.078
-678.208	-175.740	-0.204	0.005
-677.193	-135.542	0.113	-0.013
-676.178	9.879	-0.271	-0.205
-675.164	274.259	-0.139	0.245
-674.149	3.912	0.125	0.091
-673.135	800.000	-0.089	-0.251
-672.120	41.711	0.331	0.299
-671.105	20.998	0.096	0.078
-670.091	157.383	-0.234	-0.323
-669.076	16.348	-0.077	0.060
-668.062	-115.348	-0.261	0.049
-667.047	217.715	-0.117	0.186
-666.032	-143.295	-0.181	0.017
-665.018	98.801	0.185	-0.213
-664.003	-200.000	0.071	0.480
-662.989	-200.000	0.009	0.217
-661.974	800.000	-0.055	0.210
-660.959	-200.000	-0.039	0.327
-659.945	-200.000	0.106	0.468
-658.930	-53.274	0.174	-0.080
-657.916	-55.392	0.324	0.145
-656.901	73.328	0.111	0.115
-655.886	-48.203	0.169	-0.081
-654.872	86.497	0.233	-0.255
-653.857	354.563	-0.062	-0.123
-652.843	800.000	-0.127	0.352
-651.828	800.000	-0.091	0.343
-650.814	327.678	-0.027	0.052
-649.799	-200.000	-0.070	-0.384
-648.784	800.000	0.074	0.264
-647.770	-200.000	-0.040	-0.359
-646.755	-86.185	-0.126	0.039
-645.741	-67.892	-0.134	-0.052
-644.726	-49.992	-0.116	-0.055
-643.711	-6.692	-0.114	-0.077
-642.697	-43.083	0.258	-0.130
-641.682	-25.874	-0.214	-0.125
-640.668	-54.570	-0.114	-0.051
-639.653	-200.000	-0.068	-0.325
-638.638	-29.507	-0.226	-0.129
-637.624	-120.412	0.326	0.055
-636.609	-200.000	0.044	-0.384
-635.595	-200.000	-0.022	-0.097
-634.580	-200.000	0.008	-0.143
-633.565	800.000	0.075	0.297
-632.551	109.997	-0.155	-0.185
-631.536	320.724	0.082	0.156
-630.522	96.149	0.117	0.133
-629.507	41.308	0.274	0.247
-628.492	188.055	0.018	0.026
-627.478	-77.839	-0.143	0.049
-626.463	800.000	-0.090	-0.351
-625.449	-163.180	0.087	-0.004
-624.434	-200.000	0.048	0.315
-623.419	-7.572	-0.248	-0.167
-622.405	-200.000	-0.001	-0.196
-621.390	-200.000	-0.025	-0.160
-620.376	130.175	0.224	0.286
-619.361	-194.229	-0.022	-0.000
-618.346	-200.000	0.007	-0.142
-617.332	102.378	-0.115	0.134
-616.317	800.000	0.063	0.250
-615.303	-200.000	0.031	-0.308
-614.288	231.722	0.087	-0.141
-613.273	288.184	0.099	-0.178
-612.259	-163.372	-0.150	-0.007
-611.244	-90.827	-0.225	-0.064
-610.230	-200.000	0.091	-0.417
-609.215	245.791	-0.214	-0.359
-608.201	-7.728	-0.320	-0.215
-607.186	-200.000	-0.024	0.155
-606.171	40.427	0.153	0.137
-605.157	25.586	0.242	-0.200
-604.142	-132.491	-0.143	0.018
-603.128	-200.000	0.069	-0.419
-602.113	-158.699	0.279	-0.016
-601.098	256.131	-0.139	0.237
-600.084	-99.061	-0.133	-0.033
-599.069	-23.281	-0.305	0.182
-598.055	-104.394	0.297	-0.068
-597.040	-116.356	0.051	-0.009
-596.025	-75.404	-0.193	0.068
-595.011	-138.581	-0.260	0.028
-593.996	-147.821	0.104	-0.009
-592.982	-122.100	0.123	-0.020
-591.967	800.000	0.037	-0.153
-590.952	-104.144	-0.142	0.033
-589.938	112.608	0.153	0.184
-588.923	177.338	-0.278	-0.402
-587.909	800.000	0.083	-0.248
-586.894	-111.369	-0.339	0.069
-585.879	-200.000	-0.025	-0.113
-584.865	-29.900	0.245	-0.139
-583.850	-86.938	-0.106	0.032
-582.836	217.619	-0.117	-0.185
-581.821	173.029	0.105	-0.149
-580.806	-134.970	-0.159	0.019
-579.792	-200.000	-0.097	-0.469
-578.777	800.000	0.131	0.409
-577.763	755.845	-0.089	0.240
-576.748	-88.374	0.248	-0.073
-575.733	215.391	-0.065	-0.102
-574.719	304.967	-0.107	0.198
-573.704	-200.000	0.053	0.408
-572.690	-200.000	-0.003	0.248
-571.675	472.872	0.167	0.373
-570.661	-166.926	-0.273	0.011
-569.646	134.835	0.118	-0.153
-568.631	-79.634	-0.196	0.066
-567.617	245.623	-0.051	-0.086
-566.602	-200.000	-0.006	0.031
-565.588	-146.393	-0.193	-0.017
-564.573	471.044	0.051	-0.115
-563.558	-73.361	0.137	-0.050
-562.544	-20.005	0.076	-0.047
-561.529	90.095	-0.178	-0.198
-560.515	800.000	-0.075	-0.213
-559.500	60.505	-0.110	-0.108
-558.485	800.000	0.112	-0.312
-557.471	-200.000	-0.047	0.300
-556.456	-85.202	-0.215	-0.067
-555.442	-67.336	-0.253	-0.098
-554.427	-32.483	0.129	0.071
-553.412	800.000	-0.009	0.033
-552.398	26.560	0.236	-0.196
-551.383	191.561	-0.134	-0.200
-550.369	34.036	-0.164	0.141
-549.354	-179.524	0.096	-0.002
-548.339	-132.288	-0.196	0.025
-547.325	-63.387	0.472	0.192
-546.310	-113.645	0.248	0.048
-545.296	455.274	-0.064	-0.141
-544.281	-64.523	0.161	0.065
-543.266	242.009	0.054	0.090
-542.252	157.246	-0.179	-0.246
-541.237	-120.315	0.378	-0.064
-540.223	-168.296	0.135	0.005
-539.208	194.965	-0.089	-0.133
-538.193	-58.414	-0.285	0.123
-537.179	-90.571	-0.224	-0.064
-536.164	220.048	-0.246	-0.390
-535.150	104.301	0.068	-0.080
-534.135	800.000	0.056	0.190
-533.121	-11.274	0.180	0.117
-532.106	-72.009	-0.257	-0.094
-531.091	501.603	0.018	-0.042
-530.077	179.890	-0.132	-0.192
-529.062	49.012	0.195	-0.182
-528.048	-13.389	0.176	0.113
-527.033	-200.000	-0.033	-0.327
-526.018	-83.761	0.194	-0.061
-525.004	532.722	-0.125	0.293
-523.989	8.715	-0.081	0.060
-522.975	-34.797	-0.496	0.269
-521.960	247.609	0.165	-0.276
-520.945	-12.402	-0.273	-0.177
-519.931	-177.346	-0.624	0.015
-518.916	158.680	0.029	0.040
-517.902	67.911	0.172	0.174
-516.887	65.555	-0.105	-0.105
-515.872	-95.545	0.152	0.040
-514.858	-200.000	0.002	-0.144
-513.843	52.011	0.274	0.258
-512.829	782.115	-0.029	0.078
-511.814	459.143	-0.155	0.341
-510.799	800.000	-0.032	-0.117
-509.785	-114.387	-0.122	-0.023
-508.770	-49.988	0.172	0.081
-507.756	-160.966	-0.555	0.029
-506.741	-81.723	-0.225	0.073
-505.726	166.550	0.318	-0.446
-504.712	-76.172	0.221	0.077
-503.697	-153.362	-0.188	-0.013
-502.683	-76.769	0.475	0.165
-501.668	303.084	-0.099	0.181
-500.653	-52.826	-0.273	-0.125
-499.639	-105.073	0.212	-0.048
-498.624	399.754	0.065	0.135
-497.610	-81.551	-0.379	0.123
-496.595	100.707	-0.066	-0.076
-495.581	387.234	-0.134	0.274
-494.566	-87.802	0.312	0.093
-493.551	-20.461	-0.113	0.069
-492.537	-200.000	0.002	0.078
-491.522	-200.000	0.018	0.121
-490.508	55.972	-0.178	0.171
-489.493	604.442	-0.069	-0.169
-488.478	-123.226	0.538	-0.085
-487.464	507.798	-0.012	-0.027
-486.449	-62.588	-0.112	-0.046
-485.435	130.056	-0.147	-0.186
-484.420	50.525	-0.232	-0.217
-483.405	-122.120	0.222	-0.036
-482.391	-47.165	0.338	-0.163
-481.376	-101.486	-0.374	-0.090
-480.362	-150.699	0.112	0.008
-479.347	-120.609	-0.157	-0.026
-478.332	168.040	0.178	-0.251
-477.318	-145.290	-0.293	0.026
-476.303	119.192	-0.050	0.062
-475.289	58.030	0.164	0.158
-474.274	-171.416	0.171	-0.006
-473.259	-76.540	-0.249	-0.086
-472.245	-155.852	0.141	-0.009
-471.230	800.000	0.066	0.202
-470.216	487.457	-0.088	0.199
-469.201	-51.241	-0.097	0.045
-468.186	476.209	-0.054	-0.120
-467.172	-114.432	0.296	0.056
-466.157	800.000	0.056	0.211
-465.143	800.000	0.142	-0.416
-464.128	127.743	0.184	-0.231
-463.113	218.558	-0.080	-0.126
-462.099	-5.785	-0.340	0.230
-461.084	-108.788	-0.137	-0.029
-460.070	128.851	0.175	-0.221
-459.055	-85.706	0.129	0.040
-458.040	-177.564	0.209	0.005
-457.026	-200.000	-0.015	0.136
-456.011	133.747	0.065	-0.083
-454.997	-200.000	0.060	0.385
-453.982	-78.131	-0.156	0.053
-452.968	-154.803	-0.229	0.015
-451.953	-84.108	0.305	0.095
-450.938	-166.701	0.275	0.011
-449.924	-200.000	-0.005	0.227
-448.909	800.000	0.028	-0.096
-447.895	-200.000	-0.023	0.186
-446.880	483.274	-0.067	0.150
-445.865	120.201	-0.213	-0.261
-444.851	611.474	0.152	-0.375
-443.836	-24.528	-0.392	0.230
-442.822	774.068	-0.110	0.296
-441.807	-140.653	0.366	-0.037
-440.792	392.994	0.124	0.254
-439.778	356.432	0.087	-0.170
-438.763	-27.480	0.067	0.038
-437.749	414.251	0.077	-0.162
-436.734	-44.683	0.254	0.125
-435.719	-54.521	-0.189	0.085
-434.705	172.313	-0.172	0.245
-433.690	3.428	0.189	0.136
-432.676	45.136	-0.355	0.323
-431.661	-200.000	-0.073	0.349
-430.646	590.986	0.031	0.075
-429.632	86.970	-0.138	0.150
-428.617	-200.000	0.012	0.275
-427.603	-200.000	-0.007	0.172
-426.588	-119.048	0.148	-0.026
-425.573	-58.897	0.093	0.040
-424.559	745.119	0.120	-0.320
-423.544	-200.000	0.059	0.422
-422.530	-68.819	0.494	0.188
-421.515	-20.687	0.125	0.076
-420.500	544.102	0.022	0.052
-419.486	-116.240	-0.199	0.036
-418.471	176.114	0.087	-0.124
-417.457	-200.000	-0.065	-0.388
-416.442	-39.615	0.121	-0.062
-415.428	-199.768	-0.146	0.001
-414.413	-200.000	-0.016	-0.257
-413.398	-75.558	-0.189	0.066
-412.384	305.429	0.181	0.332
-411.369	-200.000	0.001	-0.024
-410.355	100.321	-0.134	-0.153
-409.340	-160.730	-0.096	0.005
-408.325	800.000	-0.121	-0.349
-407.311	-200.000	0.006	0.240
-406.296	108.125	-0.133	0.157
-405.282	-200.000	0.048	-0.271
-404.267	-200.000	-0.011	0.206
-403.252	14.048	-0.012	0.009
-402.238	-200.000	-0.019	-0.241
-401.223	-122.023	-0.272	-0.044
-400.209	-117.316	-0.251	0.045
-399.194	-147.223	-0.334	0.028
-398.179	-200.000	0.005	0.052
-397.165	-44.944	0.233	-0.114
-396.150	-4.429	0.090	-0.061
-395.136	558.745	-0.058	0.138
-394.121	-200.000	-0.054	0.298
-393.106	759.950	0.068	0.181
-392.092	-12.741	0.175	0.112
-391.077	5.180	-0.263	0.191
-390.063	-34.474	0.118	0.064
-389.048	161.057	0.134	0.184
-388.033	800.000	0.082	-0.331
-387.019	-105.230	-0.034	-0.008
-386.004	344.663	-0.103	0.200
-384.990	197.121	-0.147	-0.220
-383.975	-65.100	-0.187	-0.074
-382.960	130.417	-0.126	-0.158
-381.946	4.590	0.087	-0.063
-380.931	-200.000	-0.000	-0.021
-379.917	8.827	0.242	-0.180
-378.902	-200.000	0.039	0.206
-377.888	754.845	-0.001	0.004
-376.873	19.598	-0.174	0.138
-375.858	522.024	-0.081	0.187
-374.844	-50.284	0.312	0.145
-373.829	-200.000	0.001	-0.006
-372.815	-55.722	0.356	-0.157
-371.800	-142.172	0.156	0.015
-370.785	78.694	-0.024	0.025
-369.771	-192.989	-0.215	0.002
-368.756	800.000	0.052	-0.185
-367.742	255.625	-0.061	0.104
-366.727	-17.196	0.113	0.070
-365.712	135.866	-0.187	0.240
-364.698	212.289	-0.212	0.328
-363.683	-61.970	0.208	0.086
-362.669	-60.432	0.299	0.125
-361.654	120.991	0.090	-0.110
-360.639	481.699	0.126	0.282
-359.625	224.952	-0.006	0.009
-358.610	-153.174	0.008	0.001
-357.596	-200.000	-0.045	-0.238
-356.581	-25.260	0.194	0.113
-355.566	65.250	0.080	-0.080
-354.552	-37.677	-0.095	-0.050
-353.537	-61.708	0.503	-0.207
-352.523	83.019	-0.090	0.096
-351.508	800.000	0.012	0.050
-350.493	-200.000	-0.049	-0.300
-349.479	183.513	-0.227	0.331
-348.464	83.097	-0.088	-0.094
-347.450	-116.966	-0.195	-0.035
-346.435	-75.583	-0.304	0.106
-345.420	-200.000	0.060	0.300
-344.406	-43.642	0.286	-0.142
-343.391	-34.396	0.224	0.121
-342.377	158.066	0.075	0.102
-341.362	-200.000	-0.012	-0.233
-340.348	-5.079	-0.179	-0.121
-339.333	506.755	0.121	-0.275
-338.318	-103.251	0.115	0.027
-337.304	-64.302	0.174	0.070
-336.289	83.559	0.085	0.091
-335.275	-200.000	0.000	-0.047
-334.260	51.501	0.184	-0.172
-333.245	4.410	-0.283	-0.204
-332.231	-6.242	-0.173	-0.116
-331.216	-52.754	0.099	0.045
-330.202	-200.000	0.009	0.117
-329.187	-154.283	0.167	0.011
-328.172	7.244	0.252	-0.185
-327.158	-97.329	0.108	-0.028
-326.143	210.458	-0.123	-0.190
-325.129	34.329	-0.127	0.109
-324.114	800.000	0.055	-0.182
-323.099	-200.000	0.004	0.092
-322.085	-93.125	0.186	0.051
-321.070	318.202	0.053	-0.098
-320.056	-200.000	0.040	0.249
-319.041	62.867	-0.135	0.133
-318.026	-160.973	-0.331	-0.017
-317.012	-44.675	-0.431	0.211
-315.997	-200.000	0.025	0.217
-314.983	422.830	0.156	0.329
-313.968	-193.858	-0.286	0.002
-312.953	268.340	0.161	0.277
-311.939	59.731	0.192	-0.186
-310.924	-200.000	0.002	-0.292
-309.910	477.186	-0.028	0.063
-308.895	412.563	-0.151	0.315
-307.880	-200.000	-0.002	-0.239
-306.866	179.285	0.065	0.094
-305.851	-24.585	0.105	-0.061
-304.837	261.912	-0.027	0.045
-303.822	28.406	0.378	-0.314
-302.807	-200.000	-0.011	0.337
-301.793	-200.000	0.117	0.642
-300.778	-123.392	-0.095	-0.015
-299.764	-80.138	0.238	0.078
-298.749	708.697	-0.086	-0.222
-297.735	-200.000	-0.051	-0.341
-296.720	-81.772	-0.199	-0.064
-295.705	-35.273	0.418	-0.223
-294.691	-88.450	0.183	0.054
-293.676	-200.000	0.053	-0.347
-292.662	-107.927	0.537	-0.115
-291.647	-104.291	-0.165	0.038
-290.632	-200.000	-0.028	-0.128
-289.618	34.038	0.156	-0.133
-288.603	11.432	0.166	-0.125
-287.589	-43.342	-0.280	-0.139
-286.574	10.820	0.156	0.117
-285.559	-26.668	-0.203	0.117
-284.545	103.863	0.056	-0.065
-283.530	-148.251	-0.185	0.015
-282.516	7.456	0.114	-0.084
-281.501	-200.000	-0.058	0.539
-280.486	-103.906	0.314	-0.072
-279.472	-200.000	0.013	-0.123
-278.457	-31.286	-0.235	0.130
-277.443	191.212	-0.210	-0.310
-276.428	-200.000	-0.046	0.227
-275.413	-3.932	-0.146	-0.100
-274.399	-116.343	0.231	0.042
-273.384	-49.092	-0.311	-0.146
-272.370	-200.000	0.001	-0.156
-271.355	234.808	-0.216	0.350
-270.340	-200.000	-0.003	0.063
-269.326	-46.082	0.223	-0.108
-268.311	-200.000	-0.017	-0.113
-267.297	-162.351	-0.054	0.003
-266.282	-42.304	0.070	0.035
-265.267	-200.000	-0.019	-0.215
-264.253	-200.000	0.000	0.065
-263.238	-149.388	-0.342	0.027
-262.224	52.532	0.060	-0.056
-261.209	-200.000	0.006	-0.131
-260.195	497.638	0.118	-0.265
-259.180	383.583	0.056	-0.112
-258.165	800.000	-0.052	0.221
-257.151	178.134	-0.095	0.135
-256.136	157.800	-0.202	-0.274
-255.122	-81.742	0.283	-0.091
-254.107	800.000	-0.056	0.180
-253.092	-200.000	0.047	-0.236
-252.078	89.262	-0.248	-0.271
-251.063	-200.000	-0.006	0.280
-250.049	564.252	-0.088	-0.208
-249.034	-157.932	0.184	0.011
-248.019	107.723	-0.077	0.090
-247.005	-140.533	0.338	-0.034
-245.990	-134.901	-0.146	0.017
-244.976	69.794	-0.260	0.262
-243.961	82.928	-0.126	0.135
-242.946	2.963	0.055	-0.039
-241.932	26.869	0.175	-0.143
-240.917	800.000	-0.159	-0.442
-239.903	263.811	-0.164	-0.280
-238.888	6.054	0.061	-0.044
-237.873	56.458	0.287	0.273
-236.859	1.370	0.166	0.117
-235.844	-200.000	0.020	0.302
-234.830	-200.000	0.045	0.204
-233.815	-26.127	0.235	-0.135
-232.800	-200.000	0.067	-0.297
-231.786	-45.035	0.031	0.015
-230.771	-73.989	-0.257	0.091
-229.757	24.340	0.120	-0.097
-228.742	-200.000	0.008	0.086
-227.727	95.363	-0.204	0.228
-226.713	-50.571	0.335	0.155
-225.698	-200.000	0.019	0.376
-224.684	229.086	-0.148	-0.236
-223.669	-105.447	0.129	0.029
-222.655	-161.586	-0.331	0.017
-221.640	-59.972	0.342	-0.143
-220.625	148.748	0.013	-0.017
-219.611	-34.926	-0.227	0.121
-218.596	800.000	0.134	-0.371
-217.582	379.004	0.093	-0.186
-216.567	202.967	0.040	0.060
-215.552	181.635	0.186	0.268
-214.538	800.000	-0.042	0.138
-213.523	-200.000	-0.005	0.096
-212.509	782.690	-0.127	0.340
-211.494	-123.171	-0.406	0.064
-210.479	800.000	-0.069	0.250
-209.465	-48.101	0.126	0.059
-208.450	154.464	-0.262	0.352
-207.436	-72.897	-0.374	-0.135
-206.421	800.000	-0.078	0.247
-205.406	-121.819	-0.132	-0.021
-204.392	-200.000	0.017	-0.158
-203.377	800.000	-0.038	-0.118
-202.363	157.440	-0.045	0.061
-201.348	-70.742	0.494	0.182
-200.333	444.852	0.163	0.350
-199.319	593.310	0.070	0.168
-198.304	-93.538	-0.238	0.064
-197.290	-137.752	0.084	-0.009
-196.275	252.294	-0.129	0.215
-195.260	800.000	0.105	0.304
-194.246	-101.968	0.173	-0.041
-193.231	-138.220	0.182	0.020
-192.217	94.650	0.189	0.210
-191.202	71.499	-0.114	0.116
-190.187	-175.195	0.093	0.003
-189.173	483.504	0.144	-0.319
-188.158	-200.000	0.044	0.210
-187.144	-114.881	0.166	0.031
-186.129	800.000	0.022	-0.064
-185.114	188.794	0.199	-0.291
-184.100	171.271	0.115	0.161
-183.085	-8.749	-0.133	0.087
-182.071	556.065	-0.200	-0.471
-181.056	800.000	-0.138	-0.430
-180.042	21.756	0.098	0.078
-179.027	157.376	-0.053	0.071
-178.012	567.384	0.032	-0.075
-176.998	800.000	-0.027	0.072
-175.983	-7.082	-0.251	0.167
-174.969	139.496	0.300	-0.386
-173.954	-94.647	0.021	0.006
-172.939	-33.992	0.384	0.207
-171.925	70.423	-0.193	-0.195
-170.910	442.339	0.207	-0.442
-169.896	-65.448	0.475	-0.186
-168.881	234.819	0.131	0.211
-167.866	800.000	0.037	0.151
-166.852	-175.743	-0.157	0.004
-165.837	-145.641	-0.168	0.015
-164.823	22.540	0.239	-0.191
-163.808	-200.000	0.005	0.523
-162.793	-17.586	-0.179	0.110
-161.779	32.094	-0.282	-0.237
-160.764	-14.153	0.201	0.126
-159.750	-79.359	-0.259	0.086
-158.735	-60.155	-0.081	-0.034
-157.720	154.330	-0.060	-0.080
-156.706	-200.000	0.084	-0.359
-155.691	-200.000	-0.000	0.176
-154.677	314.890	-0.243	0.446
-153.662	800.000	-0.072	-0.203
-152.647	-127.121	0.202	0.029
-151.633	800.000	0.031	-0.095
-150.618	800.000	-0.055	0.194
-149.604	-200.000	0.011	0.053
-148.589	800.000	-0.095	-0.365
-147.574	-38.432	-0.321	-0.166
-146.560	575.610	-0.053	-0.125
-145.545	800.000	0.042	0.163
-144.531	-4.132	-0.181	0.122
-143.516	0.870	0.331	0.231
-142.502	-132.048	-0.090	-0.011
-141.487	13.106	0.195	-0.147
-140.472	-86.694	0.286	-0.085
-139.458	273.648	0.141	0.243
-138.443	-200.000	0.044	-0.232
-137.429	800.000	-0.072	-0.213
-136.414	-96.465	-0.149	0.038
-135.399	133.426	0.205	0.259
-134.385	370.775	-0.042	0.084
-133.370	-200.000	-0.061	-0.418
-132.356	47.257	-0.234	-0.213
-131.341	-32.077	-0.122	-0.066
-130.326	-51.547	0.469	0.213
-129.312	-138.380	0.282	0.030
-128.297	123.812	0.126	0.154
-127.283	-200.000	-0.055	-0.239
-126.268	40.554	-0.292	0.257
-125.253	-109.018	0.295	0.061
-124.239	-18.528	0.087	-0.053
-123.224	397.898	0.092	-0.188
-122.210	-161.828	-0.246	-0.012
-121.195	-200.000	0.026	-0.204
