DTS Sentinel unit serial number:	SN413079Multiplexer serial number:	ORYXHardware model number:	OX4-SRSoftware version number:	ORYX F/W v4.00 Oryx Data Collector v3.7.2.0data status	okinstallation	princeton_trtdifferential loss correction	single-endedforward channel	channel 2reverse channel	N/Adate	2019/09/18time	01:19:35forward acquisition time	60.00reverse acquisition time	0.00gamma	496.2192k internal	0.2350k external	0.2350temperature offset calibration	0.9983default loss term (dB/km)	0.3790temperature slope calibration	1.0000multiplexer offset coefficient	1.0000multiplexer slope coefficient	1.0000fibre end	0.00T internal ref (°C)	23.14T ext. ref 1 (°C)	0.17T ext. ref 2 (°C)	16.91length (m)	temperature (°C)	Stokes	anti-Stokes-747.200	-200.000	-0.028	-0.217
-746.185	-200.000	0.036	0.345
-745.171	-18.445	-0.153	-0.095
-744.156	-163.708	-0.369	0.017
-743.142	-200.000	0.033	0.419
-742.127	375.771	-0.080	0.163
-741.112	-143.429	0.244	0.023
-740.098	-118.308	-0.314	0.056
-739.083	284.786	0.050	0.090
-738.069	18.199	0.102	0.081
-737.054	502.158	0.068	-0.158
-736.039	40.271	0.106	-0.095
-735.025	78.496	-0.323	0.345
-734.010	-93.850	-0.257	0.070
-732.996	-172.635	-0.146	0.005
-731.981	-200.000	0.025	0.278
-730.966	166.834	0.025	-0.035
-729.952	-86.709	0.110	-0.034
-728.937	88.065	-0.233	0.258
-727.923	-200.000	0.026	0.122
-726.908	36.927	-0.268	0.236
-725.894	800.000	-0.108	-0.382
-724.879	-200.000	-0.022	-0.134
-723.864	196.150	-0.185	-0.281
-722.850	-200.000	0.051	-0.232
-721.835	-200.000	-0.010	-0.270
-720.821	-200.000	0.067	0.414
-719.806	-129.661	-0.272	-0.037
-718.791	85.779	0.120	-0.131
-717.777	-200.000	0.025	-0.130
-716.762	-122.292	0.353	0.058
-715.748	-156.301	0.271	-0.017
-714.733	420.038	-0.072	-0.153
-713.718	-168.031	0.087	0.003
-712.704	-48.728	-0.145	0.069
-711.689	467.049	0.110	-0.245
-710.675	-46.659	0.219	-0.107
-709.660	188.908	-0.213	-0.318
-708.645	-4.241	-0.121	0.084
-707.631	4.524	-0.117	0.086
-706.616	7.776	-0.262	0.196
-705.602	65.581	0.075	0.076
-704.587	28.537	-0.274	-0.231
-703.572	-200.000	-0.025	-0.117
-702.558	-47.100	0.161	0.078
-701.543	-123.950	-0.191	0.030
-700.529	59.468	0.033	-0.033
-699.514	209.431	0.103	-0.161
-698.499	-64.766	-0.148	-0.060
-697.485	-27.772	-0.157	0.091
-696.470	-200.000	0.058	0.306
-695.456	-103.684	-0.460	0.107
-694.441	-66.595	-0.122	0.048
-693.426	172.230	-0.044	0.063
-692.412	-105.818	-0.172	-0.039
-691.397	-150.569	0.198	0.015
-690.383	-113.026	-0.151	0.030
-689.368	157.799	-0.102	-0.140
-688.354	104.807	-0.033	-0.038
-687.339	-46.234	0.168	-0.082
-686.324	98.789	0.137	-0.157
-685.310	800.000	0.128	-0.371
-684.295	-141.163	-0.356	0.036
-683.281	557.349	-0.208	0.499
-682.266	-22.340	0.266	-0.161
-681.251	-7.937	-0.094	0.063
-680.237	-37.453	-0.133	-0.071
-679.222	-16.306	0.242	0.153
-678.208	158.750	-0.140	0.193
-677.193	204.231	-0.033	-0.051
-676.178	267.522	-0.021	-0.037
-675.164	800.000	-0.037	0.133
-674.149	-14.931	-0.259	-0.165
-673.135	680.874	-0.016	0.041
-672.120	-79.170	-0.320	0.108
-671.105	-55.039	0.235	-0.105
-670.091	1.505	-0.247	0.177
-669.076	-200.000	-0.011	0.177
-668.062	-200.000	-0.048	-0.244
-667.047	-200.000	0.031	-0.676
-666.032	-105.071	0.204	-0.047
-665.018	-200.000	0.013	0.081
-664.003	-63.195	-0.192	0.079
-662.989	-37.599	-0.186	-0.099
-661.974	800.000	-0.084	0.293
-660.959	42.254	-0.017	-0.015
-659.945	120.244	-0.137	-0.169
-658.930	137.561	-0.074	0.097
-657.916	-22.218	-0.147	-0.089
-656.901	47.201	0.116	-0.108
-655.886	119.428	0.173	-0.213
-654.872	271.420	0.062	-0.109
-653.857	13.657	-0.263	0.204
-652.843	-123.191	0.282	-0.045
-651.828	-69.269	0.291	-0.111
-650.814	-200.000	0.048	0.287
-649.799	-48.502	-0.224	0.107
-648.784	-122.552	-0.182	-0.029
-647.770	800.000	-0.140	-0.387
-646.755	310.068	-0.162	-0.301
-645.741	0.218	-0.182	0.129
-644.726	185.161	0.053	-0.078
-643.711	791.351	-0.027	-0.074
-642.697	-200.000	0.004	0.105
-641.682	-11.038	0.170	0.112
-640.668	170.101	0.150	-0.213
-639.653	237.315	-0.118	0.195
-638.638	16.282	0.123	0.096
-637.624	-21.816	0.237	-0.143
-636.609	-39.682	-0.012	0.006
-635.595	88.183	0.186	0.205
-634.580	-200.000	-0.059	0.325
-633.565	33.394	0.087	-0.075
-632.551	-1.681	0.351	-0.246
-631.536	15.234	-0.168	-0.131
-630.522	73.182	-0.189	-0.196
-629.507	800.000	0.145	-0.540
-628.492	-87.015	0.316	0.096
-627.478	-51.626	-0.146	-0.068
-626.463	23.091	-0.091	-0.074
-625.449	111.536	-0.205	0.246
-624.434	-83.341	-0.088	0.028
-623.419	470.549	0.106	-0.236
-622.405	-71.018	0.115	0.043
-621.390	-30.566	-0.214	0.121
-620.376	-200.000	-0.006	-0.276
-619.361	-130.027	0.248	0.034
-618.346	-200.000	0.004	-0.074
-617.332	550.136	0.103	0.245
-616.317	800.000	-0.068	-0.217
-615.303	-146.876	-0.093	0.008
-614.288	0.742	-0.159	-0.113
-613.273	-200.000	0.046	0.224
-612.259	-200.000	-0.024	-0.123
-611.244	-200.000	-0.027	-0.380
-610.230	-37.933	-0.164	-0.086
-609.215	-18.013	-0.136	-0.085
-608.201	-200.000	0.003	-0.095
-607.186	-139.631	-0.431	-0.046
-606.171	-200.000	0.010	-0.110
-605.157	-160.429	-0.187	-0.010
-604.142	352.104	-0.085	0.166
-603.128	169.459	-0.145	-0.206
-602.113	-12.613	0.220	-0.142
-601.098	-200.000	-0.043	-0.339
-600.084	-56.100	-0.185	0.082
-599.069	-200.000	-0.013	0.176
-598.055	800.000	0.039	0.127
-597.040	371.481	-0.026	-0.052
-596.025	185.147	0.169	-0.249
-595.011	-103.752	-0.272	-0.063
-593.996	-21.357	-0.260	0.158
-592.982	438.371	-0.025	0.055
-591.967	-62.821	-0.066	-0.027
-590.952	800.000	0.027	0.094
-589.938	-137.269	0.162	0.018
-588.923	25.885	-0.204	0.169
-587.909	-200.000	0.016	-0.109
-586.894	-44.620	0.258	0.128
-585.879	225.896	-0.140	-0.225
-584.865	82.343	-0.172	0.186
-583.850	-162.415	-0.502	-0.025
-582.836	-60.152	0.331	0.140
-581.821	-200.000	-0.010	0.053
-580.806	-85.359	-0.162	-0.050
-579.792	-133.208	0.291	0.036
-578.777	-200.000	0.005	0.045
-577.763	-200.000	0.033	-0.161
-576.748	10.769	-0.152	0.115
-575.733	-184.747	-0.166	0.003
-574.719	-116.447	0.030	-0.006
-573.704	-137.265	-0.246	0.028
-572.690	-136.918	-0.080	-0.009
-571.675	-83.997	0.040	0.013
-570.661	-200.000	0.004	0.265
-569.646	57.291	-0.092	-0.089
-568.631	800.000	-0.088	-0.337
-567.617	-200.000	-0.026	0.142
-566.602	188.747	-0.203	-0.302
-565.588	75.572	-0.116	0.121
-564.573	434.546	-0.109	0.236
-563.558	610.218	-0.042	0.105
-562.544	625.034	-0.104	-0.260
-561.529	91.170	0.082	0.091
-560.515	-0.309	0.319	-0.225
-559.500	569.772	-0.164	-0.396
-558.485	391.904	-0.107	0.221
-557.471	-200.000	0.009	-0.175
-556.456	1.160	0.085	0.061
-555.442	-200.000	0.049	-0.257
-554.427	231.691	-0.047	0.077
-553.412	188.583	-0.178	-0.263
-552.398	-200.000	0.050	-0.310
-551.383	-111.518	0.167	0.034
-550.369	-200.000	0.005	0.270
-549.354	648.355	-0.096	0.244
-548.339	-30.535	0.404	-0.227
-547.325	-14.564	-0.160	-0.102
-546.310	-57.503	0.331	-0.144
-545.296	800.000	0.035	0.106
-544.281	-49.288	0.167	0.079
-543.266	534.694	-0.106	0.249
-542.252	-14.290	0.302	0.193
-541.237	-200.000	-0.019	-0.096
-540.223	-139.078	-0.192	0.021
-539.208	602.297	-0.075	0.184
-538.193	-135.017	0.238	-0.028
-537.179	-47.013	-0.107	-0.052
-536.164	800.000	-0.063	-0.230
-535.150	-61.091	-0.127	-0.053
-534.135	-200.000	-0.016	0.156
-533.121	44.216	-0.147	0.133
-532.106	-66.396	-0.040	-0.016
-531.091	-176.577	0.255	0.006
-530.077	-97.823	-0.220	0.056
-529.062	85.811	-0.132	-0.144
-528.048	666.244	-0.139	0.355
-527.033	800.000	-0.095	-0.298
-526.018	-32.444	0.239	-0.132
-525.004	-87.628	0.381	-0.114
-523.989	-90.650	0.083	-0.024
-522.975	-200.000	0.064	-0.314
-521.960	-168.838	-0.368	-0.014
-520.945	800.000	-0.047	-0.188
-519.931	56.192	-0.102	-0.098
-518.916	-60.293	0.166	-0.070
-517.902	275.137	0.098	0.171
-516.887	800.000	0.068	-0.277
-515.872	-136.515	-0.190	0.022
-514.858	800.000	0.066	0.194
-513.843	250.954	0.191	-0.321
-512.829	800.000	-0.078	-0.227
-511.814	800.000	0.037	-0.157
-510.799	800.000	0.066	0.254
-509.785	256.978	0.060	-0.103
-508.770	-61.116	0.240	0.100
-507.756	-200.000	-0.003	-0.189
-506.741	-121.395	0.173	-0.029
-505.726	-200.000	0.008	-0.111
-504.712	-162.234	0.331	-0.016
-503.697	9.557	0.217	-0.162
-502.683	-200.000	0.061	-0.428
-501.668	-122.041	-0.100	0.016
-500.653	-144.495	-0.465	0.043
-499.639	1.864	-0.288	-0.206
-498.624	202.109	0.208	-0.317
-497.610	800.000	0.105	-0.287
-496.595	-200.000	0.074	-0.490
-495.581	-175.577	0.209	0.006
-494.566	588.857	0.046	0.111
-493.551	-195.031	0.476	-0.004
-492.537	186.993	0.295	-0.435
-491.522	659.720	-0.131	0.334
-490.508	-10.041	0.402	-0.264
-489.493	-200.000	0.026	0.178
-488.478	-200.000	0.011	0.301
-487.464	-127.035	0.079	0.011
-486.449	-163.081	-0.390	-0.019
-485.435	-73.866	-0.201	-0.072
-484.420	-12.816	-0.071	0.046
-483.405	-200.000	-0.005	0.247
-482.391	-83.460	0.201	-0.064
-481.376	-1.942	-0.185	0.129
-480.362	800.000	-0.011	-0.037
-479.347	42.602	0.325	0.293
-478.332	-80.867	0.046	-0.015
-477.318	215.807	-0.107	0.168
-476.303	325.154	0.113	-0.214
-475.289	-68.846	0.441	-0.168
-474.274	142.369	-0.037	0.048
-473.259	800.000	-0.019	0.081
-472.245	800.000	-0.064	-0.204
-471.230	-6.538	0.133	0.089
-470.216	40.243	-0.144	0.128
-469.201	-132.466	0.128	0.016
-468.186	-54.575	-0.179	-0.080
-467.172	49.747	-0.071	0.066
-466.157	-59.448	-0.067	0.029
-465.143	97.029	0.278	0.315
-464.128	-200.000	-0.001	-0.265
-463.113	-4.759	0.141	-0.096
-462.099	97.714	-0.074	0.084
-461.084	-93.289	0.273	-0.075
-460.070	28.278	-0.298	0.249
-459.055	-93.679	0.181	-0.049
-458.040	-200.000	-0.016	-0.368
-457.026	800.000	-0.029	-0.088
-456.011	-116.620	0.174	0.032
-454.997	159.117	0.097	-0.134
-453.982	800.000	0.043	0.155
-452.968	600.969	0.082	0.201
-451.953	-31.751	-0.240	0.133
-450.938	-200.000	0.029	-0.154
-449.924	-61.367	-0.068	-0.028
-448.909	-12.738	-0.301	-0.194
-447.895	-39.662	0.130	-0.067
-446.880	-58.611	-0.147	-0.063
-445.865	-42.610	0.108	-0.054
-444.851	60.624	-0.198	-0.194
-443.836	35.544	-0.165	0.143
-442.822	800.000	-0.091	0.286
-441.807	-96.549	0.140	-0.037
-440.792	-1.037	0.133	-0.093
-439.778	344.702	0.099	-0.193
-438.763	-24.814	-0.219	-0.129
-437.749	263.505	-0.048	0.083
-436.734	-98.541	-0.362	0.091
-435.719	-200.000	-0.016	0.348
-434.705	-200.000	-0.037	0.212
-433.690	239.478	0.094	0.155
-432.676	-170.386	-0.409	-0.014
-431.661	-46.054	-0.078	-0.038
-430.646	336.777	-0.190	0.364
-429.632	800.000	-0.078	0.277
-428.617	-181.270	0.082	0.002
-427.603	56.677	-0.118	-0.113
-426.588	-108.839	0.169	-0.036
-425.573	-114.327	0.224	-0.043
-424.559	143.789	0.130	0.171
-423.544	-66.491	0.329	0.129
-422.530	800.000	-0.048	0.169
-421.515	-175.499	-0.342	0.009
-420.500	800.000	-0.068	-0.217
-419.486	377.097	0.052	0.106
-418.471	-52.088	-0.052	-0.024
-417.457	-200.000	-0.013	-0.391
-416.442	-200.000	0.097	-0.429
-415.428	44.949	0.180	-0.163
-414.413	-200.000	-0.007	0.292
-413.398	-21.734	0.305	-0.183
-412.384	-112.498	0.367	0.072
-411.369	-200.000	0.004	0.235
-410.355	-140.715	0.164	0.017
-409.340	-200.000	0.002	-0.047
-408.325	111.301	-0.087	-0.104
-407.311	76.138	-0.128	-0.134
-406.296	-200.000	0.058	-0.386
-405.282	-16.296	0.212	0.133
-404.267	-25.972	-0.138	0.080
-403.252	-159.223	-0.245	-0.014
-402.238	-62.290	-0.412	-0.169
-401.223	-150.513	0.051	0.004
-400.209	412.880	0.058	-0.122
-399.194	-158.173	-0.198	0.011
-398.179	333.153	0.139	-0.265
-397.165	-150.551	-0.331	-0.025
-396.150	800.000	0.022	-0.070
-395.136	-34.454	-0.227	0.122
-394.121	800.000	-0.133	-0.384
-393.106	593.573	-0.064	-0.157
-392.092	800.000	-0.047	0.184
-391.077	386.475	-0.060	0.122
-390.063	-200.000	0.171	-0.000
-389.048	103.702	-0.056	0.064
-388.033	-75.304	0.262	0.092
-387.019	-200.000	0.019	0.104
-386.004	-145.549	0.347	-0.031
-384.990	-58.518	-0.180	0.077
-383.975	-75.880	0.218	-0.076
-382.960	-31.275	-0.211	-0.117
-381.946	108.165	0.097	0.114
-380.931	138.419	0.182	0.235
-379.917	-200.000	0.036	0.301
-378.902	-200.000	-0.007	0.385
-377.888	66.612	0.417	-0.417
-376.873	-70.553	0.358	0.133
-375.858	133.401	-0.059	0.076
-374.844	-77.645	0.169	0.058
-373.829	800.000	0.059	-0.166
-372.815	-12.453	0.114	-0.073
-371.800	-103.167	-0.477	0.111
-370.785	-1.824	-0.077	0.053
-369.771	-29.199	0.326	-0.184
-368.756	402.353	0.053	-0.110
-367.742	-8.946	0.296	-0.195
-366.727	114.414	-0.230	-0.276
-365.712	399.162	-0.099	-0.204
-364.698	-200.000	0.041	0.317
-363.683	-90.446	0.266	0.076
-362.669	30.547	-0.258	0.217
-361.654	398.860	-0.060	0.124
-360.639	-200.000	0.045	0.228
-359.625	-1.074	-0.264	0.184
-358.610	85.314	0.196	0.211
-357.596	-200.000	0.019	0.239
-356.581	-75.205	-0.203	-0.071
-355.566	-95.579	-0.212	-0.056
-354.552	19.894	-0.177	-0.140
-353.537	-49.407	-0.176	-0.082
-352.523	25.285	-0.086	0.070
-351.508	-46.272	0.467	0.226
-350.493	40.547	-0.163	0.144
-349.479	138.297	-0.142	-0.183
-348.464	-200.000	0.035	0.267
-347.450	-200.000	-0.004	-0.067
-346.435	-86.434	0.218	0.066
-345.420	-200.000	0.102	-0.514
-344.406	-195.553	0.315	-0.002
-343.391	295.484	-0.056	0.101
-342.377	-20.705	0.282	-0.170
-341.362	-90.089	-0.193	0.055
-340.348	-200.000	0.011	-0.439
-339.333	236.882	-0.189	0.308
-338.318	202.568	0.175	0.265
-337.304	-53.440	0.123	-0.055
-336.289	-200.000	0.009	0.071
-335.275	-200.000	0.013	0.196
-334.260	-49.325	-0.323	0.151
-333.245	141.430	-0.205	0.267
-332.231	-71.475	-0.212	0.078
-331.216	277.929	-0.122	0.214
-330.202	-56.720	0.022	0.010
-329.187	-200.000	-0.049	-0.248
-328.172	-200.000	0.004	-0.173
-327.158	800.000	0.067	0.214
-326.143	-131.565	0.142	-0.018
-325.129	-200.000	-0.055	0.376
-324.114	68.912	0.266	0.268
-323.099	519.375	-0.089	-0.205
-322.085	-170.345	0.333	-0.011
-321.070	-108.540	0.079	0.017
-320.056	-123.698	0.290	-0.045
-319.041	800.000	-0.050	-0.201
-318.026	53.682	-0.123	0.116
-317.012	800.000	0.019	0.063
-315.997	575.965	0.057	0.137
-314.983	-22.427	-0.165	-0.098
-313.968	-150.402	-0.199	-0.015
-312.953	-53.165	0.226	0.102
-311.939	-200.000	-0.009	-0.073
-310.924	189.016	0.114	0.167
-309.910	800.000	0.037	-0.113
-308.895	-80.269	-0.268	-0.088
-307.880	-33.697	-0.269	0.146
-306.866	278.970	0.039	-0.068
-305.851	86.627	0.037	-0.040
-304.837	26.264	-0.297	-0.243
-303.822	-159.568	-0.629	0.034
-302.807	181.558	-0.060	0.086
-301.793	-62.073	0.379	0.155
-300.778	90.811	0.285	0.313
-299.764	-109.663	-0.425	-0.088
-298.749	-200.000	0.016	0.279
-297.735	-123.169	-0.096	0.015
-296.720	249.217	-0.096	-0.159
-295.705	158.731	-0.172	0.235
-294.691	-79.173	0.188	-0.063
-293.676	800.000	0.079	-0.312
-292.662	73.043	-0.182	0.187
-291.647	-24.365	-0.222	-0.130
-290.632	275.343	-0.093	0.161
-289.618	117.792	0.064	-0.077
-288.603	241.432	-0.028	0.046
-287.589	313.210	0.118	0.217
-286.574	11.085	0.128	0.096
-285.559	-200.000	0.008	-0.179
-284.545	712.163	0.124	0.322
-283.530	141.582	-0.129	0.168
-282.516	754.251	0.039	-0.104
-281.501	-83.733	-0.222	0.070
-280.486	-200.000	-0.036	0.354
-279.472	481.777	0.024	-0.053
-278.457	662.632	-0.133	-0.337
-277.443	367.987	0.040	0.079
-276.428	800.000	-0.007	0.021
-275.413	-32.341	-0.284	-0.156
-274.399	-81.685	-0.253	0.081
-273.384	800.000	-0.111	0.377
-272.370	-43.786	-0.247	0.122
-271.355	-137.686	0.287	0.032
-270.340	-200.000	0.028	0.143
-269.326	-174.962	-0.307	0.008
-268.311	-2.045	-0.108	-0.074
-267.297	176.001	-0.091	0.129
-266.282	800.000	-0.042	0.132
-265.267	133.726	0.148	0.187
-264.253	65.814	0.108	-0.108
-263.238	135.092	-0.045	0.058
-262.224	-200.000	0.063	-0.286
-261.209	34.239	-0.082	0.070
-260.195	-73.610	-0.039	-0.014
-259.180	245.254	0.057	0.095
-258.165	-113.723	0.168	-0.032
-257.151	-174.492	-0.282	-0.008
-256.136	58.180	0.100	-0.096
-255.122	-131.934	0.276	0.035
-254.107	-105.008	-0.355	-0.080
-253.092	-69.338	0.076	-0.029
-252.078	9.976	0.219	-0.163
-251.063	-34.289	-0.120	0.064
-250.049	800.000	-0.027	0.105
-249.034	-119.951	0.155	-0.026
-248.019	278.020	0.113	-0.197
-247.005	35.225	0.062	0.053
-245.990	-21.178	0.177	0.106
-244.976	28.455	0.214	0.177
-243.961	-20.781	-0.235	0.141
-242.946	179.148	-0.055	0.078
-241.932	-75.169	0.187	-0.065
-240.917	-200.000	-0.048	0.272
-239.903	-200.000	-0.016	-0.267
-238.888	800.000	-0.043	0.129
-237.873	-117.579	-0.466	0.082
-236.859	111.741	0.373	0.441
-235.844	-94.313	-0.178	-0.048
-234.830	800.000	0.032	0.119
-233.815	592.936	-0.099	0.241
-232.800	800.000	-0.087	0.259
-231.786	-40.804	-0.207	0.105
-230.771	800.000	0.104	0.336
-229.757	23.491	-0.372	0.299
-228.742	-73.709	0.342	-0.122
-227.727	80.861	-0.334	0.353
-226.713	23.879	0.072	0.058
-225.698	272.064	0.034	-0.058
-224.684	79.140	-0.033	0.034
-223.669	-59.440	0.338	0.142
-222.655	-200.000	-0.055	-0.429
-221.640	119.248	-0.095	-0.115
-220.625	-40.036	0.285	-0.145
-219.611	-132.869	0.267	-0.033
-218.596	-20.393	0.161	-0.097
-217.582	-200.000	-0.040	0.201
-216.567	113.550	0.213	0.253
-215.552	16.534	-0.192	0.148
-214.538	419.537	-0.089	-0.187
-213.523	103.700	-0.197	0.226
-212.509	261.927	0.039	-0.066
-211.494	179.902	0.162	-0.232
-210.479	800.000	0.029	0.097
-209.465	-98.747	0.037	0.009
-208.450	-68.647	0.292	0.110
-207.436	26.806	0.095	0.078
-206.421	-1.836	-0.193	0.133
-205.406	800.000	-0.051	0.138
-204.392	800.000	-0.045	0.155
-203.377	533.224	0.042	0.098
-202.363	309.385	-0.101	-0.185
-201.348	-8.234	0.368	0.242
-200.333	19.207	-0.354	0.278
-199.319	10.079	-0.477	0.355
-198.304	-200.000	0.031	-0.194
-197.290	-167.218	-0.288	0.011
-196.275	-105.505	0.184	-0.041
-195.260	-117.576	0.253	-0.045
-194.246	-129.497	0.192	-0.026
-193.231	111.659	0.245	-0.289
-192.217	106.760	0.060	0.070
-191.202	800.000	-0.088	-0.335
-190.187	800.000	-0.083	-0.235
-189.173	-93.386	0.044	-0.012
-188.158	-200.000	0.022	0.154
-187.144	463.123	-0.095	-0.208
-186.129	-138.760	0.075	0.008
-185.114	800.000	-0.113	0.385
-184.100	-44.772	-0.168	0.082
-183.085	-9.784	0.188	0.122
-182.071	58.377	0.101	-0.097
-181.056	77.450	-0.032	-0.033
-180.042	-200.000	-0.019	0.426
-179.027	-42.604	0.240	-0.119
-178.012	119.963	0.200	0.242
-176.998	-100.525	-0.271	-0.066
-175.983	-72.170	0.097	-0.035
-174.969	-129.123	0.347	-0.047
-173.954	-200.000	0.047	-0.487
-172.939	228.572	0.065	-0.104
-171.925	14.890	0.242	0.185
-170.910	150.701	0.180	-0.239
-169.896	189.147	0.099	0.145
-168.881	28.900	0.111	-0.092
-167.866	-4.163	0.236	-0.160
-166.852	-200.000	0.012	0.340
-165.837	114.352	-0.189	0.224
-164.823	791.699	0.114	-0.305
-163.808	280.250	0.127	0.221
-162.793	-33.989	0.253	-0.136
-161.779	800.000	0.095	-0.261
-160.764	-139.932	-0.310	-0.032
-159.750	522.129	0.067	-0.152
-158.735	-15.072	0.339	-0.212
-157.720	203.042	-0.074	0.112
-156.706	345.451	-0.109	0.209
-155.691	28.609	-0.187	-0.155
-154.677	-200.000	0.017	-0.515
-153.662	116.555	-0.095	0.114
-152.647	-21.610	0.177	0.105
-151.633	45.598	-0.237	-0.214
-150.618	130.573	0.075	-0.093
-149.604	-37.015	-0.034	-0.018
-148.589	-18.142	-0.158	-0.097
-147.574	666.054	-0.075	-0.189
-146.560	13.115	0.136	0.103
-145.545	315.726	0.122	0.224
-144.531	-200.000	0.019	-0.424
-143.516	-200.000	0.002	0.246
-142.502	-56.951	-0.331	0.143
-141.487	216.775	0.068	0.106
-140.472	138.903	0.246	0.315
-139.458	473.114	0.122	0.268
-138.443	98.275	0.092	-0.103
-137.429	582.734	0.015	-0.035
-136.414	-200.000	-0.048	0.207
-135.399	-200.000	-0.071	0.566
-134.385	-199.216	0.177	-0.001
-133.370	296.649	0.079	0.140
-132.356	-71.515	-0.104	0.038
-131.341	-200.000	0.048	-0.204
-130.326	158.830	-0.050	-0.068
-129.312	-72.195	-0.301	0.109
-128.297	61.682	-0.085	0.083
-127.283	-22.561	0.341	-0.201
-126.268	-200.000	-0.051	0.390
-125.253	-96.136	0.185	0.048
-124.239	-157.769	-0.212	0.012
-123.224	-200.000	0.076	0.328
-122.210	-32.215	-0.100	0.054
-121.195	-200.000	0.037	0.166
