DTS Sentinel unit serial number:	SN413079Multiplexer serial number:	ORYXHardware model number:	OX4-SRSoftware version number:	ORYX F/W v4.00 Oryx Data Collector v3.7.2.0data status	okinstallation	princeton_trtdifferential loss correction	single-endedforward channel	channel 2reverse channel	N/Adate	2019/09/12time	02:53:11forward acquisition time	60.00reverse acquisition time	0.00gamma	496.2192k internal	0.2326k external	0.2326temperature offset calibration	1.0090default loss term (dB/km)	0.3790temperature slope calibration	1.0000multiplexer offset coefficient	1.0000multiplexer slope coefficient	1.0000fibre end	0.00T internal ref (°C)	32.31T ext. ref 1 (°C)	2.09T ext. ref 2 (°C)	27.20length (m)	temperature (°C)	Stokes	anti-Stokes-747.200	256.073	0.070	-0.121
-746.185	216.263	-0.223	0.358
-745.171	-85.141	0.151	0.048
-744.156	-200.000	0.048	0.336
-743.142	-43.032	-0.077	0.040
-742.127	218.743	-0.175	0.282
-741.112	77.731	-0.195	0.209
-740.098	-200.000	0.006	0.037
-739.083	-119.748	0.283	-0.049
-738.069	117.779	-0.391	0.486
-737.054	92.762	0.113	0.128
-736.039	-31.265	-0.264	-0.150
-735.025	-86.530	0.260	0.081
-734.010	-200.000	0.003	0.057
-732.996	-95.548	-0.232	-0.063
-731.981	-137.915	0.194	0.022
-730.966	-162.116	-0.215	0.011
-729.952	-78.887	-0.395	-0.136
-728.937	-14.960	0.316	-0.204
-727.923	110.325	-0.085	0.103
-726.908	114.874	-0.127	-0.156
-725.894	-122.066	-0.137	0.023
-724.879	-112.662	-0.284	-0.057
-723.864	271.695	-0.039	0.069
-722.850	200.340	-0.120	-0.185
-721.835	113.763	-0.222	0.272
-720.821	83.421	-0.188	-0.206
-719.806	644.740	0.078	0.201
-718.791	-200.000	-0.016	0.126
-717.777	719.489	0.111	-0.297
-716.762	437.264	0.034	0.075
-715.748	249.612	0.060	-0.102
-714.733	-200.000	-0.003	-0.298
-713.718	277.092	-0.165	-0.296
-712.704	-19.131	-0.202	0.126
-711.689	-196.434	-0.361	-0.002
-710.675	-54.688	0.457	-0.208
-709.660	-112.315	0.323	0.065
-708.645	-125.194	0.212	-0.033
-707.631	18.690	-0.143	0.115
-706.616	-153.498	-0.163	0.011
-705.602	48.987	-0.058	0.055
-704.587	138.671	0.148	-0.196
-703.572	800.000	0.047	0.148
-702.558	-1.918	-0.425	-0.301
-701.543	-200.000	0.025	0.223
-700.529	-200.000	-0.022	0.187
-699.514	-139.252	-0.183	0.020
-698.499	-97.744	-0.160	-0.042
-697.485	-90.441	0.039	-0.011
-696.470	-137.641	-0.457	0.052
-695.456	-82.235	-0.171	0.056
-694.441	-200.000	-0.018	0.359
-693.426	-30.852	-0.091	0.052
-692.412	1.132	-0.204	-0.148
-691.397	-200.000	0.032	0.148
-690.383	-101.542	-0.163	0.040
-689.368	17.225	-0.207	0.166
-688.354	274.224	0.035	-0.063
-687.339	-52.110	-0.122	0.057
-686.324	800.000	0.103	-0.321
-685.310	800.000	-0.100	-0.385
-684.295	-15.023	0.062	0.040
-683.281	-200.000	0.040	0.180
-682.266	-200.000	0.013	0.312
-681.251	-200.000	-0.018	0.108
-680.237	307.767	-0.051	0.095
-679.222	17.264	0.175	0.140
-678.208	571.800	-0.125	-0.306
-677.193	-200.000	0.014	0.062
-676.178	532.046	0.022	-0.053
-675.164	-134.064	-0.212	0.026
-674.149	-47.877	0.324	0.158
-673.135	-94.145	0.119	-0.033
-672.120	-92.240	-0.164	-0.046
-671.105	249.127	0.197	-0.336
-670.091	800.000	-0.061	0.178
-669.076	420.348	0.073	0.157
-668.062	-200.000	0.033	-0.152
-667.047	800.000	-0.029	0.105
-666.032	-118.572	-0.239	0.043
-665.018	-150.801	-0.271	0.021
-664.003	130.531	-0.062	0.080
-662.989	-44.340	-0.060	0.030
-661.974	-91.851	-0.203	0.058
-660.959	-29.905	-0.041	-0.024
-659.945	-200.000	-0.013	-0.250
-658.930	-200.000	0.035	0.161
-657.916	11.662	-0.231	0.179
-656.901	-115.328	0.101	0.019
-655.886	-200.000	0.006	0.299
-654.872	-133.207	0.104	0.013
-653.857	-200.000	-0.095	-0.455
-652.843	9.262	0.202	-0.154
-651.828	-54.984	-0.071	0.032
-650.814	42.925	-0.316	-0.289
-649.799	-200.000	-0.017	0.124
-648.784	-4.102	0.049	-0.034
-647.770	19.609	-0.099	-0.080
-646.755	260.336	0.154	-0.268
-645.741	40.021	-0.164	-0.148
-644.726	73.933	0.254	0.267
-643.711	-57.584	-0.107	-0.047
-642.697	-117.969	0.181	-0.033
-641.682	109.326	-0.047	0.056
-640.668	-147.804	-0.170	0.014
-639.653	-200.000	0.018	0.108
-638.638	-93.064	0.361	-0.101
-637.624	462.449	-0.147	-0.331
-636.609	-108.036	-0.288	0.063
-635.595	270.385	-0.101	0.179
-634.580	-200.000	-0.007	0.225
-633.565	116.780	0.213	0.263
-632.551	800.000	-0.002	0.007
-631.536	22.476	-0.218	-0.179
-630.522	-68.964	-0.313	-0.121
-629.507	-126.888	-0.163	0.024
-628.492	-117.038	-0.249	-0.046
-627.478	-200.000	0.003	-0.137
-626.463	-166.085	-0.190	-0.008
-625.449	707.744	-0.123	-0.327
-624.434	324.953	-0.042	0.081
-623.419	152.164	0.183	-0.251
-622.405	237.257	-0.027	0.046
-621.390	80.076	0.025	-0.027
-620.376	116.967	0.127	0.157
-619.361	4.608	0.055	-0.040
-618.346	654.245	-0.146	-0.376
-617.332	-29.520	-0.147	0.084
-616.317	-200.000	-0.018	0.295
-615.303	166.782	0.042	-0.060
-614.288	800.000	0.094	-0.274
-613.273	-10.836	-0.431	-0.286
-612.259	511.483	-0.053	0.124
-611.244	-200.000	-0.001	-0.009
-610.230	800.000	-0.052	0.204
-609.215	132.529	0.092	-0.119
-608.201	511.897	-0.061	-0.143
-607.186	-200.000	0.022	-0.134
-606.171	-41.544	-0.269	-0.139
-605.157	254.422	-0.114	0.195
-604.142	-55.821	-0.332	0.149
-603.128	61.331	-0.068	0.067
-602.113	-41.087	-0.041	0.021
-601.098	-15.126	0.186	-0.120
-600.084	339.403	-0.118	-0.230
-599.069	800.000	-0.040	-0.120
-598.055	-7.917	0.481	-0.325
-597.040	-31.785	-0.050	0.028
-596.025	15.485	-0.345	-0.272
-595.011	-159.164	0.201	0.011
-593.996	-58.599	-0.266	-0.116
-592.982	230.280	-0.097	-0.159
-591.967	23.328	0.056	0.047
-590.952	594.674	0.108	-0.268
-589.938	-84.818	-0.480	0.151
-588.923	-200.000	-0.057	-0.323
-587.909	-200.000	0.016	-0.337
-586.894	-97.888	-0.137	-0.035
-585.879	427.249	-0.110	0.239
-584.865	-135.725	0.219	0.026
-583.850	103.808	-0.169	0.199
-582.836	117.785	0.105	0.130
-581.821	-200.000	0.017	0.142
-580.806	180.860	0.127	-0.186
-579.792	295.572	0.013	-0.023
-578.777	90.153	-0.113	-0.127
-577.763	-81.134	-0.164	0.054
-576.748	83.881	-0.069	-0.076
-575.733	244.416	0.115	0.194
-574.719	308.362	-0.140	-0.261
-573.704	26.649	-0.182	-0.153
-572.690	-41.510	-0.152	-0.078
-571.675	602.532	-0.060	-0.149
-570.661	303.564	-0.080	-0.148
-569.646	-121.084	0.431	0.072
-568.631	-200.000	-0.039	0.352
-567.617	578.029	-0.091	-0.224
-566.602	-200.000	-0.001	0.075
-565.588	-142.151	-0.102	0.010
-564.573	-8.242	0.146	-0.098
-563.558	-159.778	-0.255	-0.014
-562.544	-200.000	0.035	-0.228
-561.529	-200.000	-0.018	0.181
-560.515	-36.157	0.115	-0.062
-559.500	800.000	-0.124	-0.351
-558.485	-97.419	-0.323	0.084
-557.471	-15.426	-0.378	0.242
-556.456	-66.350	-0.341	0.136
-555.442	19.323	-0.131	-0.106
-554.427	284.817	-0.089	0.160
-553.412	-2.574	0.340	0.238
-552.398	-200.000	-0.001	0.046
-551.383	203.732	-0.174	-0.270
-550.369	88.788	0.042	-0.047
-549.354	723.505	-0.124	-0.330
-548.339	-120.124	0.232	-0.040
-547.325	241.550	-0.046	-0.077
-546.310	-139.813	0.208	0.022
-545.296	-161.943	0.007	0.000
-544.281	258.354	0.056	0.097
-543.266	-200.000	0.011	0.273
-542.252	-6.321	-0.143	0.098
-541.237	-5.287	0.199	-0.137
-540.223	-126.831	-0.141	-0.021
-539.208	-45.970	-0.096	-0.047
-538.193	-79.581	-0.173	0.059
-537.179	145.554	-0.087	-0.116
-536.164	800.000	0.083	0.267
-535.150	800.000	-0.028	0.087
-534.135	-52.686	-0.264	-0.122
-533.121	448.942	-0.136	0.300
-532.106	-62.019	0.366	0.153
-531.091	-200.000	0.041	-0.234
-530.077	-100.457	0.154	-0.038
-529.062	-24.839	-0.168	0.100
-528.048	-118.362	-0.095	-0.017
-527.033	-131.886	-0.254	-0.033
-526.018	-17.416	0.284	0.179
-525.004	800.000	-0.031	-0.088
-523.989	-115.659	-0.525	0.099
-522.975	336.957	0.046	-0.090
-521.960	-132.083	0.192	0.025
-520.945	54.119	0.178	-0.171
-519.931	754.407	-0.054	-0.147
-518.916	-48.438	0.088	-0.042
-517.902	-135.250	-0.301	-0.036
-516.887	-60.456	-0.220	0.093
-515.872	800.000	-0.033	-0.110
-514.858	-200.000	-0.021	-0.177
-513.843	-152.359	-0.213	0.015
-512.829	26.095	-0.336	0.281
-511.814	-48.600	-0.063	-0.030
-510.799	-23.904	0.288	0.172
-509.785	-40.334	0.160	0.083
-508.770	-21.910	-0.299	0.182
-507.756	15.254	-0.331	-0.259
-506.741	-200.000	-0.013	0.572
-505.726	-77.981	-0.424	0.146
-504.712	568.043	-0.046	-0.112
-503.697	333.995	0.199	0.385
-502.683	-200.000	-0.062	0.435
-501.668	63.075	0.231	0.231
-500.653	800.000	-0.111	-0.327
-499.639	-13.246	-0.427	-0.277
-498.624	133.224	-0.044	0.057
-497.610	170.562	0.159	0.228
-496.595	-167.873	-0.470	0.018
-495.581	28.570	0.127	-0.107
-494.566	60.643	-0.131	-0.130
-493.551	-83.334	0.232	-0.074
-492.537	-100.404	0.367	-0.091
-491.522	800.000	0.048	0.187
-490.508	89.214	-0.104	-0.116
-489.493	759.079	0.071	-0.191
-488.478	-200.000	0.005	-0.137
-487.464	213.563	0.119	0.188
-486.449	800.000	-0.153	-0.622
-485.435	189.675	0.163	-0.244
-484.420	256.217	0.096	-0.164
-483.405	-69.238	0.131	0.050
-482.391	8.945	-0.302	0.227
-481.376	92.434	0.191	-0.215
-480.362	-146.875	0.372	0.032
-479.347	-200.000	-0.065	-0.454
-478.332	54.568	-0.064	0.062
-477.318	-200.000	0.038	0.212
-476.303	-56.639	0.382	-0.169
-475.289	253.416	-0.227	0.386
-474.274	-200.000	0.012	0.218
-473.259	-32.075	-0.072	-0.040
-472.245	56.415	0.184	0.179
-471.230	-122.638	-0.325	-0.053
-470.216	-200.000	0.048	-0.367
-469.201	186.557	0.202	0.301
-468.186	2.794	0.280	0.203
-467.172	227.275	0.130	0.210
-466.157	20.797	0.180	0.145
-465.143	41.570	-0.256	0.231
-464.128	800.000	0.055	0.178
-463.113	-200.000	0.018	-0.200
-462.099	800.000	0.072	-0.244
-461.084	61.017	0.234	-0.232
-460.070	-9.684	-0.233	-0.155
-459.055	-62.355	0.250	0.104
-458.040	-120.941	-0.007	0.001
-457.026	76.457	0.201	0.212
-456.011	-127.224	-0.181	-0.026
-454.997	172.782	-0.210	0.302
-453.982	-62.295	-0.219	0.091
-452.968	516.496	-0.145	0.338
-451.953	-200.000	0.329	0.002
-450.938	-183.686	0.108	0.002
-449.924	31.848	0.152	0.131
-448.909	-9.105	0.178	0.119
-447.895	800.000	0.131	0.405
-446.880	315.174	0.138	-0.259
-445.865	-195.028	0.266	-0.002
-444.851	656.292	0.108	-0.277
-443.836	-200.000	0.051	0.307
-442.822	61.159	-0.240	-0.237
-441.807	-200.000	-0.023	-0.301
-440.792	-147.314	0.320	-0.027
-439.778	644.834	0.056	-0.143
-438.763	-95.771	-0.288	-0.077
-437.749	271.289	0.159	-0.279
-436.734	178.325	-0.237	-0.345
-435.719	102.026	-0.069	0.080
-434.705	116.984	0.146	-0.179
-433.690	-142.746	0.019	-0.002
-432.676	-200.000	-0.023	-0.233
-431.661	-121.264	0.126	0.021
-430.646	-200.000	0.005	-0.068
-429.632	-19.586	0.206	-0.127
-428.617	567.080	-0.088	0.214
-427.603	141.830	0.103	0.137
-426.588	-90.162	0.170	-0.049
-425.573	-134.564	0.140	0.017
-424.559	493.748	-0.124	0.283
-423.544	-200.000	0.058	0.351
-422.530	800.000	-0.087	0.249
-421.515	119.174	0.210	-0.258
-420.500	-147.119	-0.208	0.018
-419.486	15.174	-0.316	0.246
-418.471	237.497	0.113	0.187
-417.457	800.000	0.113	-0.313
-416.442	-167.211	0.314	0.013
-415.428	-43.840	0.251	-0.126
-414.413	800.000	-0.076	0.261
-413.398	20.519	-0.166	-0.134
-412.384	-200.000	-0.014	-0.423
-411.369	-200.000	0.017	0.315
-410.355	185.732	-0.218	0.322
-409.340	181.163	0.122	0.178
-408.325	234.286	0.076	0.125
-407.311	-200.000	0.015	-0.224
-406.296	-51.514	0.316	0.147
-405.282	463.976	0.089	-0.199
-404.267	400.602	-0.106	0.221
-403.252	218.859	-0.208	0.330
-402.238	800.000	0.033	0.095
-401.223	275.437	-0.046	0.080
-400.209	-86.018	0.243	-0.075
-399.194	18.865	0.346	0.276
-398.179	32.684	-0.215	0.185
-397.165	-66.741	-0.102	0.040
-396.150	-49.401	0.108	-0.051
-395.136	217.999	-0.166	-0.263
-394.121	-200.000	0.000	-0.209
-393.106	82.736	-0.058	0.063
-392.092	-200.000	-0.005	-0.107
-391.077	-135.281	-0.213	-0.025
-390.063	70.686	0.022	-0.023
-389.048	800.000	-0.031	0.100
-388.033	223.177	-0.142	0.228
-387.019	800.000	0.022	0.086
-386.004	-195.772	-0.236	0.002
-384.990	501.979	-0.073	0.168
-383.975	59.812	0.040	0.039
-382.960	-96.890	-0.111	-0.029
-381.946	-72.146	-0.094	-0.035
-380.931	81.585	0.216	0.232
-379.917	49.339	-0.126	-0.118
-378.902	316.791	0.147	-0.276
-377.888	60.140	-0.141	-0.139
-376.873	800.000	0.026	-0.102
-375.858	-122.591	-0.086	0.014
-374.844	24.534	-0.321	0.264
-373.829	479.528	0.171	-0.385
-372.815	180.036	-0.183	0.267
-371.800	77.658	-0.423	-0.447
-370.785	663.259	0.120	-0.307
-369.771	-200.000	0.032	0.380
-368.756	94.347	0.153	-0.172
-367.742	-18.316	-0.357	0.222
-366.727	381.249	-0.125	0.256
-365.712	-30.210	-0.480	0.271
-364.698	-135.408	0.267	-0.032
-363.683	-90.313	-0.296	-0.085
-362.669	444.274	-0.050	0.109
-361.654	24.897	0.152	-0.125
-360.639	211.093	-0.064	0.099
-359.625	-131.265	0.119	-0.016
-358.610	31.110	0.310	0.265
-357.596	-200.000	0.004	-0.103
-356.581	800.000	-0.039	0.134
-355.566	522.129	-0.164	0.382
-354.552	-200.000	0.024	0.316
-353.537	270.555	-0.137	0.239
-352.523	14.855	-0.191	-0.149
-351.508	160.143	0.054	0.075
-350.493	-59.871	0.089	0.038
-349.479	-120.759	0.121	0.020
-348.464	533.758	0.018	0.042
-347.450	175.697	-0.218	-0.315
-346.435	800.000	-0.092	0.332
-345.420	-76.398	0.267	-0.093
-344.406	-40.915	-0.232	-0.119
-343.391	-200.000	0.011	-0.183
-342.377	-111.786	0.078	0.016
-341.362	102.888	-0.172	0.200
-340.348	-114.092	-0.055	-0.010
-339.333	800.000	0.126	-0.376
-338.318	-200.000	0.017	-0.266
-337.304	30.630	0.074	-0.062
-336.289	-133.171	-0.356	0.045
-335.275	-142.926	0.308	-0.030
-334.260	-12.512	-0.158	-0.102
-333.245	452.543	0.100	-0.219
-332.231	199.963	0.086	-0.132
-331.216	-200.000	0.003	0.069
-330.202	84.469	0.094	0.102
-329.187	-200.000	-0.047	-0.256
-328.172	800.000	-0.031	0.129
-327.158	800.000	0.060	-0.216
-326.143	-108.192	0.333	-0.072
-325.129	-43.598	0.197	0.099
-324.114	67.631	0.201	-0.204
-323.099	1.393	0.063	-0.045
-322.085	800.000	0.081	0.307
-321.070	-200.000	-0.017	-0.171
-320.056	-200.000	0.018	-0.432
-319.041	-145.693	0.152	0.013
-318.026	-112.077	0.078	-0.016
-317.012	217.822	0.173	0.274
-315.997	52.803	0.135	0.128
-314.983	110.146	-0.281	0.334
-313.968	-200.000	-0.015	-0.189
-312.953	-200.000	-0.006	0.295
-311.939	-200.000	0.019	0.097
-310.924	211.911	0.044	0.069
-309.910	-167.193	0.415	0.017
-308.895	112.335	0.109	-0.131
-307.880	-43.068	0.257	0.129
-306.866	66.678	-0.201	-0.203
-305.851	217.616	0.082	0.129
-304.837	155.089	0.231	0.315
-303.822	-98.984	-0.262	0.066
-302.807	431.323	0.047	0.101
-301.793	-107.445	0.375	-0.081
-300.778	-62.108	0.343	-0.142
-299.764	-86.577	-0.186	0.057
-298.749	-70.258	0.281	0.106
-297.735	-57.614	0.175	0.076
-296.720	611.481	0.114	-0.282
-295.705	-200.000	-0.041	-0.283
-294.691	-200.000	0.036	0.284
-293.676	-0.532	-0.075	0.053
-292.662	-65.694	0.233	0.092
-291.647	-82.176	-0.321	-0.104
-290.632	-200.000	-0.041	0.232
-289.618	-200.000	-0.002	0.164
-288.603	-3.062	-0.061	0.042
-287.589	18.473	0.185	-0.147
-286.574	800.000	0.074	-0.293
-285.559	-106.660	-0.275	-0.061
-284.545	-167.042	0.274	-0.011
-283.530	-187.358	-0.282	0.004
-282.516	-200.000	-0.007	-0.042
-281.501	101.690	-0.034	0.039
-280.486	-88.167	0.248	0.074
-279.472	-61.585	0.203	-0.084
-278.457	162.967	0.105	-0.145
-277.443	-200.000	-0.007	-0.105
-276.428	47.186	0.386	0.356
-275.413	-86.862	-0.318	-0.096
-274.399	-200.000	0.023	0.214
-273.384	344.261	0.064	-0.125
-272.370	-184.489	-0.022	0.000
-271.355	40.635	0.342	0.305
-270.340	110.896	0.135	-0.161
-269.326	61.055	-0.079	-0.077
-268.311	543.055	0.099	0.234
-267.297	-200.000	0.037	-0.322
-266.282	-124.691	-0.189	-0.029
-265.267	-22.709	-0.060	-0.036
-264.253	-200.000	-0.012	0.138
-263.238	100.900	-0.194	0.224
-262.224	-200.000	0.002	-0.081
-261.209	221.146	-0.036	0.058
-260.195	800.000	-0.036	-0.127
-259.180	-134.109	-0.282	0.035
-258.165	-200.000	0.043	-0.405
-257.151	-153.318	-0.190	0.013
-256.136	-200.000	-0.076	0.346
-255.122	150.970	0.220	0.295
-254.107	-200.000	-0.067	0.306
-253.092	-200.000	0.017	-0.251
-252.078	-39.894	-0.334	-0.173
-251.063	11.640	0.514	-0.390
-250.049	351.610	0.109	0.214
-249.034	-143.322	0.080	0.008
-248.019	-200.000	0.029	-0.152
-247.005	526.287	0.151	-0.351
-245.990	-178.676	0.055	0.001
-244.976	-200.000	0.023	0.119
-243.961	-200.000	-0.049	0.309
-242.946	176.851	-0.199	0.287
-241.932	-27.500	0.138	-0.079
-240.917	-200.000	-0.005	0.074
-239.903	136.099	0.152	-0.196
-238.888	633.044	0.147	-0.368
-237.873	-106.298	-0.143	0.032
-236.859	31.958	-0.020	0.017
-235.844	373.878	0.108	0.216
-234.830	96.876	-0.170	-0.193
-233.815	460.675	-0.198	-0.437
-232.800	76.476	-0.108	-0.114
-231.786	-44.131	0.237	-0.118
-230.771	-200.000	-0.053	0.367
-229.757	-200.000	-0.009	-0.126
-228.742	800.000	-0.122	0.357
-227.727	-55.330	-0.178	-0.079
-226.713	358.355	0.205	-0.404
-225.698	-200.000	0.003	-0.347
-224.684	-120.638	-0.201	-0.034
-223.669	163.816	-0.158	0.220
-222.655	166.719	0.126	-0.176
-221.640	213.338	0.117	0.183
-220.625	798.386	-0.142	-0.386
-219.611	-42.866	0.172	0.086
-218.596	60.724	0.310	0.304
-217.582	190.196	0.264	0.391
-216.567	-4.627	0.251	-0.171
-215.552	6.325	0.205	0.151
-214.538	-147.682	0.101	0.008
-213.523	-119.103	0.118	0.020
-212.509	10.475	0.184	0.138
-211.494	800.000	-0.052	0.153
-210.479	35.725	0.371	0.322
-209.465	72.820	0.318	0.328
-208.450	-200.000	0.015	0.120
-207.436	-14.131	-0.209	-0.133
-206.421	-200.000	0.003	0.025
-205.406	-19.016	-0.212	0.130
-204.392	20.127	0.156	0.125
-203.377	-17.132	0.236	-0.147
-202.363	-64.660	-0.222	0.089
-201.348	800.000	0.055	-0.196
-200.333	109.964	-0.120	0.142
-199.319	-200.000	0.025	0.158
-198.304	-32.658	0.262	-0.144
-197.290	-51.092	0.189	-0.087
-196.275	13.456	-0.400	0.307
-195.260	-52.901	-0.294	0.134
-194.246	37.616	-0.269	0.236
-193.231	-98.033	-0.032	0.008
-192.217	-52.712	0.197	0.090
-191.202	-17.144	-0.067	-0.042
-190.187	-131.073	0.165	0.022
-189.173	22.401	0.112	0.091
-188.158	-59.612	-0.285	0.121
-187.144	-200.000	0.036	0.170
-186.129	-200.000	0.001	0.254
-185.114	-129.836	-0.123	-0.017
-184.100	-200.000	0.002	-0.121
-183.085	71.327	0.052	-0.053
-182.071	706.466	-0.068	-0.176
-181.056	-27.524	-0.362	-0.207
-180.042	-200.000	-0.005	0.110
-179.027	-1.041	-0.216	0.151
-178.012	684.716	0.128	-0.329
-176.998	800.000	0.053	-0.159
-175.983	-161.159	0.105	0.005
-174.969	82.574	-0.089	-0.096
-173.954	-200.000	0.018	0.157
-172.939	-103.789	0.154	-0.036
-171.925	37.988	0.211	-0.185
-170.910	-125.873	-0.184	0.027
-169.896	-200.000	0.009	-0.209
-168.881	16.887	0.291	0.227
-167.866	-148.170	-0.223	0.018
-166.852	-114.560	-0.196	0.037
-165.837	-169.474	0.413	0.015
-164.823	-200.000	0.058	0.328
-163.808	-67.276	-0.214	-0.083
-162.793	800.000	0.012	0.044
-161.779	-33.179	0.174	0.095
-160.764	662.232	0.102	-0.259
-159.750	-200.000	0.009	-0.097
-158.735	10.797	0.087	-0.065
-157.720	-158.421	0.210	-0.012
-156.706	-200.000	-0.019	-0.228
-155.691	55.141	-0.042	0.040
-154.677	800.000	-0.040	-0.154
-153.662	0.396	0.278	-0.196
-152.647	-200.000	0.037	-0.159
-151.633	271.047	0.142	-0.247
-150.618	-200.000	-0.021	0.376
-149.604	-200.000	0.048	0.259
-148.589	8.443	-0.054	-0.040
-147.574	14.099	0.316	-0.242
-146.560	-200.000	0.005	0.224
-145.545	-200.000	0.019	0.296
-144.531	64.739	0.171	0.170
-143.516	81.408	0.197	0.209
-142.502	800.000	-0.105	-0.288
-141.487	-200.000	-0.008	-0.077
-140.472	-143.639	-0.494	0.046
-139.458	-73.592	-0.189	-0.068
-138.443	-98.183	-0.197	0.050
-137.429	280.193	0.062	0.109
-136.414	-200.000	0.049	-0.324
-135.399	-6.686	-0.238	0.160
-134.385	-123.779	-0.232	-0.036
-133.370	24.499	-0.064	0.052
-132.356	-84.029	0.198	-0.062
-131.341	164.718	-0.249	0.345
-130.326	15.670	0.046	-0.035
-129.312	-119.824	0.260	-0.044
-128.297	518.510	0.125	-0.287
-127.283	-200.000	-0.032	-0.294
-126.268	800.000	-0.071	0.250
-125.253	-51.604	-0.228	0.105
-124.239	370.708	-0.186	0.371
-123.224	-200.000	0.007	0.076
-122.210	-23.026	0.161	-0.095
-121.195	800.000	-0.103	-0.365
