DTS Sentinel unit serial number:	SN413079Multiplexer serial number:	ORYXHardware model number:	OX4-SRSoftware version number:	ORYX F/W v4.00 Oryx Data Collector v3.7.2.0data status	okinstallation	princeton_trtdifferential loss correction	single-endedforward channel	channel 2reverse channel	N/Adate	2019/09/11time	07:25:11forward acquisition time	60.00reverse acquisition time	0.00gamma	496.2192k internal	0.2327k external	0.2327temperature offset calibration	0.9938default loss term (dB/km)	0.3790temperature slope calibration	1.0000multiplexer offset coefficient	1.0000multiplexer slope coefficient	1.0000fibre end	0.00T internal ref (°C)	30.91T ext. ref 1 (°C)	-0.07T ext. ref 2 (°C)	27.51length (m)	temperature (°C)	Stokes	anti-Stokes-747.200	-22.546	-0.134	0.082
-746.185	-200.000	-0.020	0.124
-745.171	-44.333	0.259	-0.131
-744.156	800.000	0.022	0.095
-743.142	-70.007	0.180	-0.069
-742.127	-200.000	-0.100	0.493
-741.112	-78.813	0.149	0.051
-740.098	233.658	0.107	0.178
-739.083	43.986	-0.138	0.128
-738.069	-200.000	-0.066	0.324
-737.054	800.000	-0.049	-0.188
-736.039	219.327	-0.043	0.069
-735.025	-200.000	-0.023	0.348
-734.010	800.000	0.028	-0.113
-732.996	-200.000	0.012	0.135
-731.981	-36.544	0.299	0.162
-730.966	-13.740	0.404	-0.263
-729.952	-91.858	-0.124	-0.036
-728.937	-136.804	-0.186	0.022
-727.923	15.403	-0.157	0.124
-726.908	-200.000	-0.045	-0.321
-725.894	25.949	-0.087	-0.073
-724.879	176.228	-0.162	0.237
-723.864	241.871	-0.129	-0.217
-722.850	-200.000	0.007	0.169
-721.835	-61.722	-0.674	0.285
-720.821	22.131	0.309	-0.254
-719.806	-34.467	-0.269	0.149
-718.791	32.514	-0.084	-0.073
-717.777	-200.000	-0.040	0.218
-716.762	54.837	0.032	-0.031
-715.748	-172.776	-0.330	-0.010
-714.733	-40.064	0.253	0.133
-713.718	800.000	-0.023	-0.082
-712.704	800.000	-0.144	-0.580
-711.689	365.918	-0.131	0.266
-710.675	-200.000	-0.043	-0.248
-709.660	340.341	0.098	0.193
-708.645	-200.000	0.073	0.346
-707.631	-155.299	0.177	-0.012
-706.616	-46.568	-0.133	-0.066
-705.602	-200.000	-0.022	-0.115
-704.587	-85.543	-0.304	0.095
-703.572	217.880	-0.090	0.144
-702.558	-36.902	0.374	-0.202
-701.543	83.783	-0.088	0.097
-700.529	743.392	0.057	0.154
-699.514	-200.000	-0.015	-0.200
-698.499	-52.162	0.092	-0.043
-697.485	-46.925	-0.166	-0.082
-696.470	-67.708	-0.316	0.124
-695.456	-85.684	-0.304	0.095
-694.441	71.626	0.245	-0.256
-693.426	127.127	-0.217	-0.277
-692.412	800.000	0.016	0.050
-691.397	-24.134	0.270	-0.162
-690.383	68.016	-0.136	0.140
-689.368	-106.090	0.046	-0.010
-688.354	607.755	-0.078	-0.196
-687.339	-200.000	-0.010	-0.145
-686.324	-26.085	0.290	0.172
-685.310	33.462	0.115	-0.100
-684.295	83.500	0.241	0.264
-683.281	800.000	-0.085	0.346
-682.266	-161.782	-0.371	0.019
-681.251	10.297	-0.101	0.078
-680.237	291.635	0.144	0.264
-679.222	-200.000	0.022	0.152
-678.208	-49.389	0.125	-0.060
-677.193	9.446	-0.192	-0.146
-676.178	37.399	-0.136	-0.121
-675.164	-2.478	-0.198	-0.139
-674.149	-37.816	0.091	-0.049
-673.135	-25.504	0.123	-0.073
-672.120	293.477	0.168	-0.308
-671.105	-200.000	-0.007	0.043
-670.091	800.000	0.012	0.049
-669.076	53.479	0.247	0.238
-668.062	83.613	-0.081	-0.089
-667.047	-127.228	-0.317	0.047
-666.032	-15.787	-0.245	-0.157
-665.018	85.621	0.096	-0.106
-664.003	-48.062	0.162	-0.079
-662.989	-200.000	0.021	0.111
-661.974	-95.137	-0.106	-0.029
-660.959	74.828	0.231	-0.245
-659.945	-93.442	-0.223	0.062
-658.930	-103.445	0.103	0.024
-657.916	-76.016	0.207	-0.074
-656.901	-55.017	-0.135	-0.061
-655.886	10.556	0.040	-0.031
-654.872	67.971	-0.142	0.146
-653.857	-127.359	0.219	-0.032
-652.843	-200.000	0.033	0.299
-651.828	-200.000	-0.010	-0.118
-650.814	800.000	-0.076	-0.287
-649.799	-38.502	0.118	0.062
-648.784	-169.826	0.094	-0.003
-647.770	48.531	-0.172	-0.162
-646.755	-200.000	-0.056	-0.408
-645.741	-200.000	0.004	-0.199
-644.726	-200.000	-0.037	0.227
-643.711	-115.886	0.134	0.025
-642.697	800.000	0.104	-0.333
-641.682	111.110	-0.250	-0.303
-640.668	215.441	-0.125	-0.199
-639.653	-200.000	-0.011	0.342
-638.638	-200.000	0.042	0.362
-637.624	-200.000	0.017	0.227
-636.609	-80.515	-0.240	0.080
-635.595	194.961	-0.106	-0.162
-634.580	-200.000	0.057	-0.265
-633.565	-200.000	-0.056	0.367
-632.551	56.432	-0.385	-0.376
-631.536	-77.333	0.335	-0.117
-630.522	196.602	-0.189	0.289
-629.507	-39.299	0.088	-0.046
-628.492	-66.264	0.281	0.112
-627.478	800.000	-0.069	0.255
-626.463	-165.957	-0.370	0.016
-625.449	-111.371	0.156	0.032
-624.434	-108.219	-0.126	-0.027
-623.419	-200.000	-0.032	0.212
-622.405	295.625	0.107	-0.197
-621.390	-126.841	0.379	-0.056
-620.376	-102.031	0.270	-0.065
-619.361	190.184	0.007	0.010
-618.346	552.949	-0.022	0.054
-617.332	-200.000	-0.060	-0.292
-616.317	129.143	-0.240	-0.308
-615.303	-200.000	0.027	-0.274
-614.288	-75.343	0.169	-0.061
-613.273	34.482	0.076	0.067
-612.259	-17.662	-0.470	0.296
-611.244	-78.582	0.293	0.100
-610.230	-200.000	-0.039	-0.193
-609.215	3.323	-0.232	-0.169
-608.201	-69.684	0.425	0.163
-607.186	50.802	-0.252	-0.239
-606.171	29.105	0.225	-0.192
-605.157	670.630	0.030	0.079
-604.142	38.464	0.071	0.063
-603.128	15.232	-0.075	-0.059
-602.113	800.000	-0.059	0.248
-601.098	-35.934	0.246	0.133
-600.084	231.040	-0.133	-0.219
-599.069	-122.176	-0.097	-0.016
-598.055	-58.220	-0.283	0.124
-597.040	43.309	0.046	-0.042
-596.025	1.539	-0.189	-0.136
-595.011	-96.054	-0.088	-0.024
-593.996	-103.966	-0.179	0.042
-592.982	-51.701	-0.288	-0.134
-591.967	-200.000	0.073	-0.449
-590.952	-65.857	0.304	-0.122
-589.938	-20.864	-0.157	0.097
-588.923	-13.552	0.074	-0.048
-587.909	61.098	0.224	0.222
-586.894	800.000	-0.026	-0.103
-585.879	326.909	-0.189	-0.364
-584.865	28.678	-0.326	-0.276
-583.850	800.000	0.009	-0.037
-582.836	-120.914	-0.223	0.038
-581.821	69.257	0.162	-0.167
-580.806	-84.119	-0.246	-0.078
-579.792	17.278	-0.451	-0.359
-578.777	-179.944	-0.221	-0.005
-577.763	-125.530	-0.225	0.034
-576.748	186.867	-0.187	0.279
-575.733	-102.966	-0.450	0.107
-574.719	8.323	-0.266	-0.200
-573.704	-74.334	-0.102	0.037
-572.690	-131.046	0.303	-0.040
-571.675	656.863	-0.066	-0.171
-570.661	800.000	0.060	-0.231
-569.646	786.476	-0.103	-0.282
-568.631	-200.000	0.050	-0.298
-567.617	-21.248	0.187	0.114
-566.602	395.607	-0.090	0.187
-565.588	-200.000	-0.022	-0.138
-564.573	800.000	0.081	0.250
-563.558	144.975	0.203	0.272
-562.544	-200.000	-0.008	-0.297
-561.529	-159.405	0.080	0.004
-560.515	300.246	-0.170	0.313
-559.500	106.176	0.178	0.212
-558.485	800.000	0.044	-0.189
-557.471	-198.047	0.200	0.001
-556.456	800.000	-0.005	-0.021
-555.442	327.591	-0.062	-0.120
-554.427	-165.265	-0.285	-0.013
-553.412	800.000	-0.038	-0.143
-552.398	30.392	0.239	-0.205
-551.383	5.856	-0.176	-0.131
-550.369	655.404	-0.152	-0.391
-549.354	23.252	0.342	0.281
-548.339	-80.207	-0.392	-0.131
-547.325	78.402	-0.377	0.403
-546.310	-91.501	0.100	-0.029
-545.296	49.322	-0.036	-0.034
-544.281	694.024	0.165	0.432
-543.266	-200.000	0.024	-0.295
-542.252	-36.558	0.196	-0.106
-541.237	712.798	-0.084	-0.223
-540.223	-90.404	0.339	-0.098
-539.208	-148.278	0.232	-0.019
-538.193	-21.254	-0.284	0.174
-537.179	16.455	0.218	0.172
-536.164	30.800	-0.162	0.139
-535.150	-111.453	-0.265	0.054
-534.135	111.315	0.157	-0.190
-533.121	243.368	-0.051	-0.085
-532.106	-6.961	-0.148	-0.100
-531.091	-200.000	0.029	0.288
-530.077	649.690	0.039	0.099
-529.062	-20.526	0.144	0.089
-528.048	-0.028	-0.050	-0.035
-527.033	2.648	-0.129	0.093
-526.018	151.091	-0.054	0.073
-525.004	-157.249	0.245	0.015
-523.989	293.995	0.044	-0.081
-522.975	-19.313	0.204	-0.126
-521.960	-108.556	-0.269	0.058
-520.945	-74.435	-0.076	0.027
-519.931	-139.471	0.079	-0.008
-518.916	-200.000	0.031	-0.167
-517.902	172.336	-0.165	0.237
-516.887	-200.000	-0.005	-0.064
-515.872	-101.529	0.172	0.042
-514.858	800.000	0.121	-0.350
-513.843	19.206	0.180	-0.145
-512.829	-57.337	-0.033	0.015
-511.814	-171.404	-0.192	0.006
-510.799	666.901	0.032	0.081
-509.785	-85.645	-0.307	-0.095
-508.770	-129.376	0.205	0.028
-507.756	-19.860	0.081	0.050
-506.741	-100.761	0.157	-0.039
-505.726	-49.548	-0.156	0.074
-504.712	61.245	0.090	-0.089
-503.697	-69.464	0.025	-0.009
-502.683	-44.431	-0.255	-0.127
-501.668	-93.601	0.185	-0.051
-500.653	-34.413	0.168	0.092
-499.639	-200.000	-0.004	0.189
-498.624	77.080	-0.138	0.146
-497.610	664.130	-0.104	0.268
-496.595	35.352	0.143	-0.125
-495.581	-79.181	-0.092	0.031
-494.566	-167.669	0.460	0.018
-493.551	-55.907	0.205	0.092
-492.537	-200.000	-0.039	-0.272
-491.522	12.493	-0.105	-0.081
-490.508	398.019	-0.163	0.341
-489.493	-140.024	0.131	0.014
-488.478	92.789	-0.157	-0.177
-487.464	40.087	-0.062	0.056
-486.449	800.000	0.041	0.150
-485.435	113.010	0.130	-0.157
-484.420	-200.000	0.009	0.172
-483.405	325.658	-0.087	0.166
-482.391	139.802	0.063	-0.083
-481.376	-89.646	0.040	0.012
-480.362	-200.000	0.002	-0.241
-479.347	-193.005	0.181	-0.002
-478.332	-171.853	-0.246	-0.008
-477.318	-200.000	-0.021	0.326
-476.303	-94.393	0.027	0.007
-475.289	257.100	-0.135	0.232
-474.274	-164.952	0.087	-0.004
-473.259	-25.738	-0.305	0.179
-472.245	-200.000	-0.016	0.210
-471.230	-95.028	0.230	-0.062
-470.216	-67.937	-0.425	0.165
-469.201	-200.000	-0.010	-0.142
-468.186	-21.047	-0.031	-0.019
-467.172	-160.780	-0.217	0.011
-466.157	84.659	0.036	-0.039
-465.143	10.600	-0.307	0.233
-464.128	-36.214	-0.308	0.166
-463.113	135.237	0.116	-0.151
-462.099	-129.107	0.127	0.018
-461.084	206.009	0.060	0.094
-460.070	75.086	0.229	-0.240
-459.055	-76.411	0.314	0.110
-458.040	800.000	-0.076	0.270
-457.026	-200.000	-0.020	0.205
-456.011	-131.886	0.330	-0.043
-454.997	49.494	0.016	0.015
-453.982	-200.000	0.001	0.121
-452.968	-84.849	0.278	0.087
-451.953	-21.565	0.272	0.165
-450.938	-67.547	0.144	-0.056
-449.924	800.000	-0.071	0.217
-448.909	-195.291	-0.161	0.001
-447.895	440.631	-0.086	0.188
-446.880	161.491	0.254	-0.355
-445.865	24.947	0.147	0.121
-444.851	99.509	0.047	-0.054
-443.836	-200.000	-0.047	-0.346
-442.822	-0.363	-0.081	0.058
-441.807	119.994	-0.109	-0.134
-440.792	-10.233	-0.152	-0.100
-439.778	39.085	-0.237	-0.211
-438.763	-73.078	0.070	0.026
-437.749	47.266	0.198	-0.184
-436.734	167.095	-0.176	-0.250
-435.719	-121.238	-0.176	-0.029
-434.705	-200.000	-0.035	-0.159
-433.690	-95.605	-0.154	-0.041
-432.676	-45.292	-0.213	0.105
-431.661	-200.000	-0.007	0.183
-430.646	197.095	-0.162	0.246
-429.632	-200.000	0.018	-0.278
-428.617	254.262	0.049	0.083
-427.603	-0.554	0.160	-0.113
-426.588	240.131	-0.063	0.105
-425.573	-89.756	-0.132	-0.038
-424.559	244.305	0.047	-0.079
-423.544	800.000	0.034	-0.093
-422.530	-129.790	0.497	0.068
-421.515	210.975	0.084	0.132
-420.500	79.344	0.312	-0.334
-419.486	-55.890	0.126	0.056
-418.471	-200.000	-0.062	-0.275
-417.457	2.665	-0.139	0.100
-416.442	-200.000	-0.010	-0.238
-415.428	6.790	-0.242	0.180
-414.413	113.575	-0.141	0.171
-413.398	-200.000	-0.037	0.180
-412.384	172.416	0.116	0.166
-411.369	-142.269	-0.115	-0.011
-410.355	4.127	-0.300	-0.219
-409.340	-75.685	0.055	-0.020
-408.325	-200.000	0.024	0.196
-407.311	44.777	-0.104	-0.095
-406.296	-25.331	-0.193	-0.114
-405.282	800.000	0.086	0.254
-404.267	107.004	0.115	0.136
-403.252	426.886	0.067	0.144
-402.238	358.291	-0.046	0.091
-401.223	-200.000	0.016	-0.270
-400.209	18.998	-0.197	0.157
-399.194	-60.335	0.153	0.065
-398.179	111.432	-0.059	0.071
-397.165	250.660	-0.102	0.172
-396.150	800.000	-0.081	-0.247
-395.136	800.000	-0.078	0.297
-394.121	290.705	-0.198	0.358
-393.106	-104.730	0.251	-0.057
-392.092	-139.117	-0.164	-0.018
-391.077	162.384	-0.121	0.169
-390.063	639.615	0.106	-0.267
-389.048	65.544	0.298	0.300
-388.033	-200.000	0.006	-0.367
-387.019	601.540	-0.080	0.197
-386.004	-130.707	-0.211	-0.028
-384.990	-107.479	0.208	-0.045
-383.975	10.445	-0.244	0.185
-382.960	-67.405	-0.052	-0.020
-381.946	-102.861	-0.086	0.020
-380.931	26.308	-0.071	0.059
-379.917	-54.879	0.163	0.073
-378.902	800.000	0.025	0.106
-377.888	-200.000	0.019	-0.081
-376.873	-200.000	-0.014	-0.086
-375.858	-150.005	0.398	-0.031
-374.844	-200.000	-0.013	-0.132
-373.829	-65.283	0.239	0.096
-372.815	-2.073	0.148	-0.103
-371.800	-119.769	0.347	-0.059
-370.785	182.630	-0.132	-0.194
-369.771	-56.887	-0.232	-0.102
-368.756	4.489	0.203	0.148
-367.742	-200.000	0.007	-0.060
-366.727	-106.904	-0.164	-0.036
-365.712	-200.000	-0.029	0.198
-364.698	497.785	-0.057	-0.130
-363.683	-86.258	0.353	0.108
-362.669	-200.000	0.021	-0.438
-361.654	-52.829	-0.186	-0.085
-360.639	-14.129	0.058	-0.037
-359.625	-14.959	0.126	0.081
-358.610	110.421	0.094	-0.112
-357.596	83.926	-0.162	-0.175
-356.581	-166.853	0.065	-0.003
-355.566	-200.000	-0.037	0.499
-354.552	127.588	0.131	0.166
-353.537	31.109	-0.298	0.254
-352.523	-200.000	0.010	-0.297
-351.508	-83.215	-0.650	-0.207
-350.493	800.000	0.088	-0.362
-349.479	-149.817	0.362	-0.028
-348.464	91.821	0.211	0.236
-347.450	-148.392	-0.233	0.019
-346.435	495.579	0.109	0.248
-345.420	-137.601	0.345	0.039
-344.406	-70.295	-0.136	0.051
-343.391	-161.433	0.147	-0.008
-342.377	-122.504	0.166	0.027
-341.362	800.000	-0.032	0.098
-340.348	90.705	0.170	0.189
-339.333	37.224	0.228	-0.200
-338.318	-200.000	-0.021	0.166
-337.304	-88.739	0.266	-0.079
-336.289	-190.525	-0.581	-0.006
-335.275	-200.000	0.006	0.174
-334.260	-200.000	-0.009	0.128
-333.245	-73.797	0.189	-0.068
-332.231	-79.176	0.302	0.102
-331.216	-81.483	0.148	0.048
-330.202	1.752	-0.323	-0.231
-329.187	-127.269	0.282	-0.041
-328.172	484.644	0.025	0.057
-327.158	31.679	0.169	-0.144
-326.143	-200.000	0.049	0.538
-325.129	95.770	0.287	0.325
-324.114	-108.277	-0.140	-0.030
-323.099	-104.930	-0.259	-0.059
-322.085	-135.931	-0.218	-0.026
-321.070	-113.492	0.140	-0.027
-320.056	-200.000	0.000	-0.112
-319.041	484.806	0.018	-0.040
-318.026	-200.000	-0.019	0.363
-317.012	-1.281	-0.178	0.125
-315.997	-41.252	0.280	-0.143
-314.983	-76.833	-0.090	-0.031
-313.968	196.468	-0.131	0.198
-312.953	30.661	0.103	-0.087
-311.939	800.000	-0.035	0.106
-310.924	-138.796	0.174	-0.019
-309.910	-169.773	0.274	0.010
-308.895	-36.381	0.098	-0.052
-307.880	126.941	-0.075	0.094
-306.866	238.780	-0.032	0.052
-305.851	207.230	0.120	0.186
-304.837	107.214	-0.052	0.061
-303.822	-63.666	-0.186	-0.075
-302.807	128.594	0.062	0.078
-301.793	-135.946	0.164	0.019
-300.778	77.294	0.229	-0.242
-299.764	-200.000	-0.017	-0.167
-298.749	22.366	0.072	-0.059
-297.735	800.000	-0.039	0.121
-296.720	800.000	0.080	0.328
-295.705	-80.110	0.216	-0.072
-294.691	800.000	-0.054	-0.158
-293.676	-200.000	0.036	0.171
-292.662	27.391	-0.074	0.062
-291.647	-164.292	0.359	-0.016
-290.632	-200.000	0.052	-0.438
-289.618	-80.531	-0.175	-0.058
-288.603	800.000	0.108	-0.337
-287.589	44.892	-0.271	0.247
-286.574	-200.000	0.026	0.148
-285.559	103.854	0.089	-0.104
-284.545	22.938	0.037	-0.030
-283.530	122.642	-0.093	0.115
-282.516	697.485	0.015	0.039
-281.501	-134.866	-0.177	0.021
-280.486	-101.609	0.134	0.032
-279.472	-200.000	-0.024	0.166
-278.457	26.628	-0.150	0.124
-277.443	13.150	-0.089	-0.068
-276.428	-135.795	-0.239	-0.028
-275.413	-67.129	0.052	0.020
-274.399	-13.726	0.247	-0.159
-273.384	-63.401	0.472	0.192
-272.370	-84.700	-0.044	-0.014
-271.355	-146.414	0.053	0.005
-270.340	800.000	-0.092	-0.358
-269.326	-200.000	-0.022	0.104
-268.311	-100.003	-0.232	-0.057
-267.297	-141.436	0.027	-0.003
-266.282	-105.838	0.276	-0.062
-265.267	-121.722	-0.527	-0.086
-264.253	496.355	-0.075	-0.170
-263.238	408.978	0.150	-0.315
-262.224	-200.000	-0.002	-0.208
-261.209	-109.234	0.208	0.044
-260.195	800.000	-0.011	-0.043
-259.180	-3.712	-0.334	-0.230
-258.165	-200.000	0.015	0.089
-257.151	99.547	-0.182	0.208
-256.136	-200.000	-0.030	0.144
-255.122	-80.783	-0.501	-0.164
-254.107	-200.000	-0.013	0.137
-253.092	-151.162	-0.570	-0.042
-252.078	406.069	0.133	0.278
-251.063	-100.110	0.235	0.058
-250.049	107.228	-0.176	-0.207
-249.034	288.159	-0.040	0.072
-248.019	-8.861	-0.176	0.117
-247.005	-27.975	0.191	-0.109
-245.990	-200.000	0.008	-0.054
-244.976	-77.590	0.184	-0.063
-243.961	20.353	-0.226	-0.181
-242.946	124.658	0.152	-0.189
-241.932	-200.000	-0.017	-0.084
-240.917	5.867	0.119	0.087
-239.903	-200.000	-0.066	0.301
-238.888	15.312	0.343	0.266
-237.873	97.072	0.041	-0.047
-236.859	15.944	-0.076	0.059
-235.844	-200.000	-0.001	0.168
-234.830	16.413	0.112	-0.088
-233.815	284.218	-0.160	-0.284
-232.800	-46.608	0.170	0.082
-231.786	-55.456	-0.132	-0.059
-230.771	-15.280	0.170	0.108
-229.757	-200.000	0.027	0.250
-228.742	421.004	0.136	-0.289
-227.727	-18.441	-0.315	-0.194
-226.713	800.000	-0.141	0.399
-225.698	800.000	0.111	0.329
-224.684	-77.760	0.195	0.067
-223.669	30.745	0.074	-0.063
-222.655	-76.563	0.441	0.153
-221.640	-200.000	-0.026	0.196
-220.625	467.179	-0.100	0.221
-219.611	70.253	-0.234	0.238
-218.596	-131.482	0.255	-0.033
-217.582	-124.891	0.069	0.011
-216.567	156.963	0.033	-0.046
-215.552	-21.108	0.416	-0.251
-214.538	262.109	-0.082	-0.141
-213.523	74.695	-0.061	0.063
-212.509	-70.471	-0.322	-0.120
-211.494	354.226	0.072	0.142
-210.479	-82.538	-0.350	-0.112
-209.465	103.098	-0.167	0.193
-208.450	681.912	-0.025	-0.065
-207.436	-104.844	-0.262	0.059
-206.421	132.236	0.042	-0.054
-205.406	209.812	-0.074	0.114
-204.392	-171.837	0.096	-0.003
-203.377	-108.840	0.192	0.040
-202.363	-57.327	-0.423	-0.183
-201.348	-6.141	0.300	0.203
-200.333	130.982	-0.126	0.160
-199.319	53.634	0.134	0.127
-198.304	-200.000	0.037	-0.191
-197.290	-27.157	-0.302	0.174
-196.275	-111.839	-0.433	-0.086
-195.260	464.099	-0.073	-0.160
-194.246	32.088	0.327	-0.278
-193.231	564.422	0.058	-0.139
-192.217	-52.050	0.072	0.033
-191.202	44.820	0.161	-0.146
-190.187	-121.894	-0.249	0.040
-189.173	-150.553	0.316	0.024
-188.158	114.166	-0.108	-0.130
-187.144	-141.363	0.148	-0.015
-186.129	-114.245	0.281	-0.054
-185.114	800.000	-0.021	0.082
-184.100	-113.510	-0.259	-0.050
-183.085	-88.560	0.312	-0.092
-182.071	-107.909	0.281	0.060
-181.056	-82.384	-0.379	0.122
-180.042	1.813	0.346	0.246
-179.027	86.002	0.226	-0.245
-178.012	-42.519	0.041	-0.020
-176.998	122.901	-0.178	0.219
-175.983	100.654	-0.116	0.133
-174.969	-200.000	0.052	-0.343
-173.954	22.856	-0.053	-0.043
-172.939	86.259	0.191	-0.208
-171.925	399.354	-0.102	0.211
-170.910	29.888	-0.298	0.250
-169.896	120.514	0.111	-0.136
-168.881	-62.324	-0.274	0.112
-167.866	-93.474	0.095	0.026
-166.852	-104.091	-0.288	-0.066
-165.837	176.572	-0.016	-0.022
-164.823	-95.226	-0.044	-0.012
-163.808	119.193	0.036	0.044
-162.793	-95.406	0.225	0.059
-161.779	56.190	0.064	0.062
-160.764	249.415	0.066	-0.110
-159.750	-144.722	-0.113	-0.010
-158.735	800.000	-0.061	0.259
-157.720	-50.411	0.343	0.160
-156.706	0.948	0.238	0.168
-155.691	234.220	0.061	0.099
-154.677	-77.112	0.446	0.153
-153.662	800.000	-0.192	-0.575
-152.647	52.513	-0.178	-0.167
-151.633	-187.920	0.383	-0.005
-150.618	-45.929	0.200	0.097
-149.604	529.552	-0.134	0.312
-148.589	-200.000	-0.013	0.104
-147.574	90.816	-0.159	0.176
-146.560	-173.821	0.366	0.011
-145.545	4.556	0.162	0.117
-144.531	-71.102	0.284	0.105
-143.516	800.000	-0.079	0.329
-142.502	287.536	0.076	-0.136
-141.487	-106.108	0.119	-0.026
-140.472	459.742	-0.049	0.108
-139.458	43.608	-0.202	-0.182
-138.443	619.723	0.086	0.213
-137.429	-7.824	0.135	0.090
-136.414	-118.069	0.179	0.031
-135.399	-17.016	0.366	-0.228
-134.385	99.946	-0.039	-0.044
-133.370	-4.227	-0.384	-0.262
-132.356	143.931	0.095	0.125
-131.341	-112.251	-0.039	-0.008
-130.326	44.087	0.143	0.129
-129.312	207.858	0.144	-0.221
-128.297	52.704	0.281	0.265
-127.283	-28.354	0.071	-0.040
-126.268	-200.000	-0.031	0.158
-125.253	367.500	0.085	-0.170
-124.239	-111.776	-0.415	-0.083
-123.224	94.753	-0.267	0.299
-122.210	-200.000	0.027	0.330
-121.195	92.991	-0.216	0.240
