DTS Sentinel unit serial number:	SN413079Multiplexer serial number:	ORYXHardware model number:	OX4-SRSoftware version number:	ORYX F/W v4.00 Oryx Data Collector v3.7.2.0data status	okinstallation	princeton_trtdifferential loss correction	single-endedforward channel	channel 2reverse channel	N/Adate	2019/09/19time	05:11:34forward acquisition time	60.00reverse acquisition time	0.00gamma	496.2192k internal	0.2351k external	0.2351temperature offset calibration	1.0012default loss term (dB/km)	0.3790temperature slope calibration	1.0000multiplexer offset coefficient	1.0000multiplexer slope coefficient	1.0000fibre end	0.00T internal ref (°C)	19.56T ext. ref 1 (°C)	0.60T ext. ref 2 (°C)	12.72length (m)	temperature (°C)	Stokes	anti-Stokes-747.200	-200.000	-0.071	0.491
-746.185	49.670	-0.137	-0.129
-745.171	-200.000	0.031	0.336
-744.156	-200.000	-0.024	0.529
-743.142	182.587	-0.072	0.106
-742.127	87.226	0.186	0.205
-741.112	-84.818	0.245	0.077
-740.098	-69.251	0.166	0.064
-739.083	-5.404	-0.161	0.110
-738.069	-149.485	0.128	0.010
-737.054	-200.000	-0.003	0.158
-736.039	547.574	-0.120	-0.288
-735.025	72.098	-0.168	0.175
-734.010	171.945	0.093	-0.133
-732.996	-200.000	-0.040	-0.372
-731.981	135.825	0.235	-0.305
-730.966	82.241	-0.072	0.078
-729.952	-97.542	-0.532	-0.138
-728.937	93.160	-0.192	-0.216
-727.923	-169.500	-0.186	-0.007
-726.908	87.893	-0.067	-0.074
-725.894	228.853	0.091	0.148
-724.879	509.562	-0.220	0.509
-723.864	-138.557	-0.165	-0.018
-722.850	-147.067	-0.480	-0.041
-721.835	86.170	0.119	-0.131
-720.821	-28.652	-0.224	-0.128
-719.806	-200.000	-0.042	-0.399
-718.791	28.449	-0.126	0.106
-717.777	-136.570	0.086	0.010
-716.762	698.484	-0.048	-0.126
-715.748	0.271	0.016	-0.011
-714.733	16.922	-0.230	-0.181
-713.718	71.464	0.255	-0.264
-712.704	-200.000	-0.013	-0.202
-711.689	162.917	0.076	-0.107
-710.675	23.010	0.156	-0.127
-709.660	-87.221	0.225	0.068
-708.645	-127.840	-0.138	0.020
-707.631	-67.625	-0.267	0.104
-706.616	235.138	-0.073	-0.120
-705.602	-200.000	0.079	-0.361
-704.587	32.578	-0.112	0.096
-703.572	-70.797	0.144	-0.054
-702.558	-200.000	-0.020	0.090
-701.543	127.057	0.128	-0.162
-700.529	233.210	0.027	0.044
-699.514	-122.047	-0.345	0.056
-698.499	-200.000	-0.045	-0.217
-697.485	469.587	0.101	-0.226
-696.470	-69.280	-0.348	0.133
-695.456	624.937	0.166	-0.418
-694.441	690.763	-0.029	-0.076
-693.426	245.184	0.157	-0.263
-692.412	-3.742	0.298	0.206
-691.397	403.651	-0.178	0.374
-690.383	516.804	-0.002	0.005
-689.368	-200.000	-0.058	0.348
-688.354	171.349	0.118	-0.168
-687.339	109.846	-0.192	-0.230
-686.324	89.195	-0.092	-0.102
-685.310	51.838	0.145	-0.137
-684.295	65.059	-0.116	0.116
-683.281	-200.000	0.004	0.134
-682.266	744.294	0.090	-0.240
-681.251	-33.775	0.348	-0.191
-680.237	-11.148	-0.186	-0.122
-679.222	389.857	-0.204	-0.420
-678.208	161.121	-0.135	-0.187
-677.193	800.000	0.115	-0.441
-676.178	-8.941	-0.237	-0.158
-675.164	0.601	0.024	0.017
-674.149	-135.292	0.306	0.036
-673.135	499.143	-0.150	0.344
-672.120	-41.544	-0.091	0.047
-671.105	-143.048	-0.286	0.027
-670.091	-75.447	0.210	0.074
-669.076	-10.256	0.123	0.081
-668.062	296.596	-0.110	0.200
-667.047	-123.205	0.210	-0.033
-666.032	-2.610	-0.272	-0.189
-665.018	-111.170	0.093	0.019
-664.003	-12.085	0.167	0.109
-662.989	-47.135	-0.455	-0.221
-661.974	-182.263	0.201	-0.004
-660.959	153.625	-0.099	-0.135
-659.945	-119.352	0.350	0.060
-658.930	163.343	-0.170	0.237
-657.916	-200.000	0.047	-0.296
-656.901	340.580	-0.042	0.081
-655.886	265.976	-0.096	-0.166
-654.872	-200.000	0.048	-0.215
-653.857	406.102	0.110	0.230
-652.843	118.546	0.145	0.178
-651.828	-167.193	-0.354	-0.014
-650.814	-115.325	0.375	0.070
-649.799	8.168	-0.280	-0.209
-648.784	-54.347	-0.335	-0.151
-647.770	800.000	0.066	0.270
-646.755	800.000	-0.065	0.255
-645.741	87.850	0.198	-0.218
-644.726	196.103	-0.203	0.307
-643.711	31.124	-0.149	0.127
-642.697	413.070	0.186	-0.393
-641.682	-63.806	-0.330	-0.134
-640.668	38.480	-0.119	-0.105
-639.653	800.000	0.127	0.351
-638.638	91.845	0.100	-0.112
-637.624	-200.000	0.031	-0.137
-636.609	-145.726	0.200	0.018
-635.595	-11.785	-0.157	-0.102
-634.580	53.901	-0.096	-0.092
-633.565	-200.000	0.014	-0.171
-632.551	-92.954	-0.155	-0.043
-631.536	-32.652	0.149	-0.083
-630.522	-16.135	-0.092	0.058
-629.507	-200.000	0.031	-0.161
-628.492	3.218	0.078	0.057
-627.478	-200.000	0.046	-0.382
-626.463	39.561	0.190	-0.169
-625.449	-200.000	0.050	0.395
-624.434	-42.423	-0.152	-0.077
-623.419	-71.731	-0.133	-0.049
-622.405	-200.000	-0.031	0.176
-621.390	-10.467	0.078	0.051
-620.376	-200.000	-0.041	0.203
-619.361	-46.669	-0.033	-0.016
-618.346	-200.000	0.001	0.110
-617.332	652.921	0.129	-0.327
-616.317	-135.331	0.062	0.007
-615.303	-200.000	-0.044	-0.319
-614.288	-116.057	-0.135	-0.025
-613.273	194.444	-0.094	0.141
-612.259	29.629	-0.297	0.251
-611.244	-121.421	-0.198	-0.033
-610.230	-119.173	0.149	-0.026
-609.215	210.240	-0.100	-0.156
-608.201	684.172	-0.102	-0.264
-607.186	-116.969	0.169	0.031
-606.171	90.645	0.343	0.381
-605.157	47.354	0.163	0.150
-604.142	-16.143	-0.041	0.026
-603.128	-200.000	0.077	-0.348
-602.113	447.871	-0.114	0.250
-601.098	53.132	0.133	0.126
-600.084	-200.000	-0.042	0.210
-599.069	-75.762	-0.195	0.068
-598.055	457.795	-0.091	-0.201
-597.040	-200.000	0.047	-0.210
-596.025	-200.000	-0.019	-0.169
-595.011	-87.438	0.311	0.093
-593.996	-32.316	-0.209	0.116
-592.982	-200.000	-0.051	-0.396
-591.967	58.600	0.223	-0.217
-590.952	275.305	-0.134	-0.236
-589.938	110.726	0.234	-0.279
-588.923	32.080	-0.309	-0.264
-587.909	61.106	0.032	-0.032
-586.894	6.366	0.311	0.229
-585.879	-79.531	-0.220	-0.074
-584.865	-44.466	-0.340	0.169
-583.850	-200.000	-0.006	0.045
-582.836	-104.227	-0.456	0.105
-581.821	-164.205	0.181	-0.008
-580.806	8.949	0.102	-0.076
-579.792	800.000	-0.031	-0.129
-578.777	-146.575	-0.436	-0.038
-577.763	17.502	0.222	0.175
-576.748	144.628	0.269	0.356
-575.733	43.105	0.112	-0.102
-574.719	-62.131	0.195	0.081
-573.704	-199.384	0.419	-0.002
-572.690	-84.019	0.176	-0.055
-571.675	-29.457	-0.215	-0.122
-570.661	-200.000	0.001	0.076
-569.646	-73.721	0.224	-0.081
-568.631	-116.062	-0.201	-0.037
-567.617	-79.416	0.235	0.079
-566.602	-134.881	-0.255	-0.031
-565.588	-200.000	-0.034	-0.338
-564.573	31.862	0.058	0.050
-563.558	-39.077	-0.122	0.063
-562.544	800.000	-0.049	0.149
-561.529	-200.000	-0.256	0.001
-560.515	-198.651	-0.218	-0.001
-559.500	-86.379	0.110	0.034
-558.485	800.000	-0.055	-0.216
-557.471	161.776	0.082	-0.114
-556.456	-200.000	0.034	-0.352
-555.442	-200.000	-0.021	0.327
-554.427	-13.317	0.155	-0.099
-553.412	-12.499	-0.187	0.121
-552.398	238.908	-0.136	0.224
-551.383	-143.939	-0.033	-0.003
-550.369	800.000	0.131	0.374
-549.354	121.687	-0.291	-0.359
-548.339	199.470	0.028	0.042
-547.325	-6.800	-0.253	-0.170
-546.310	-64.322	0.230	-0.093
-545.296	598.656	-0.069	0.168
-544.281	-200.000	-0.018	-0.144
-543.266	-60.075	-0.218	-0.092
-542.252	-200.000	0.037	-0.311
-541.237	556.369	-0.076	-0.182
-540.223	214.045	-0.018	0.029
-539.208	12.885	0.204	-0.156
-538.193	425.936	0.027	-0.057
-537.179	-200.000	-0.002	-0.189
-536.164	-200.000	-0.042	0.304
-535.150	-200.000	0.067	0.418
-534.135	-122.979	0.105	-0.017
-533.121	210.533	-0.094	0.146
-532.106	800.000	-0.085	0.340
-531.091	-160.104	-0.086	0.005
-530.077	279.751	-0.290	-0.512
-529.062	219.891	0.254	-0.403
-528.048	235.963	0.033	0.054
-527.033	462.112	-0.106	-0.235
-526.018	-11.105	-0.172	0.112
-525.004	-200.000	0.027	0.306
-523.989	-200.000	-0.019	-0.084
-522.975	268.583	-0.149	-0.258
-521.960	-200.000	-0.023	-0.155
-520.945	800.000	-0.070	-0.285
-519.931	-200.000	0.001	0.433
-518.916	-200.000	0.087	0.487
-517.902	252.439	0.048	0.081
-516.887	60.930	0.286	-0.281
-515.872	-113.898	0.060	-0.011
-514.858	180.903	0.212	0.308
-513.843	-200.000	-0.409	0.000
-512.829	-149.602	0.280	0.022
-511.814	243.250	-0.029	-0.049
-510.799	-155.873	-0.298	-0.019
-509.785	32.676	-0.045	-0.039
-508.770	-84.289	-0.239	0.075
-507.756	210.805	-0.116	-0.181
-506.741	49.227	-0.290	-0.270
-505.726	-114.158	0.202	-0.039
-504.712	800.000	0.078	-0.274
-503.697	-49.672	-0.149	0.070
-502.683	17.557	-0.167	-0.131
-501.668	800.000	-0.105	0.341
-500.653	-75.517	0.121	0.043
-499.639	-140.362	0.349	-0.036
-498.624	-200.000	0.033	0.189
-497.610	-87.034	0.113	-0.034
-496.595	175.159	0.201	0.287
-495.581	52.913	-0.332	0.313
-494.566	15.430	0.308	-0.239
-493.551	-97.719	0.095	-0.024
-492.537	-18.592	-0.086	-0.053
-491.522	-21.530	0.175	0.106
-490.508	144.315	-0.108	0.143
-489.493	494.803	0.062	0.141
-488.478	228.764	-0.070	0.112
-487.464	-33.961	0.052	-0.028
-486.449	-200.000	0.011	-0.236
-485.435	-200.000	0.003	-0.284
-484.420	416.685	-0.228	-0.480
-483.405	-46.066	0.139	0.067
-482.391	33.070	0.153	-0.131
-481.376	320.378	0.097	0.182
-480.362	245.627	-0.083	-0.138
-479.347	-200.000	-0.003	0.390
-478.332	800.000	-0.062	-0.193
-477.318	-200.000	-0.058	-0.275
-476.303	-115.959	0.381	-0.070
-475.289	-6.715	-0.264	-0.178
-474.274	42.518	0.094	0.085
-473.259	-200.000	0.038	-0.188
-472.245	19.886	0.162	-0.129
-471.230	800.000	0.113	-0.313
-470.216	66.188	0.019	0.019
-469.201	-105.369	-0.321	0.072
-468.186	-123.096	-0.242	-0.038
-467.172	231.937	0.144	0.234
-466.157	-141.349	-0.291	-0.029
-465.143	-88.509	0.217	0.064
-464.128	-56.521	0.194	0.085
-463.113	800.000	-0.072	0.280
-462.099	-200.000	-0.036	-0.258
-461.084	-200.000	0.070	-0.308
-460.070	346.502	0.104	-0.202
-459.055	281.117	-0.200	-0.352
-458.040	-76.619	-0.150	0.052
-457.026	-4.840	-0.120	-0.081
-456.011	800.000	-0.111	-0.395
-454.997	361.907	-0.152	-0.301
-453.982	-59.380	-0.059	-0.025
-452.968	-96.467	0.129	-0.034
-451.953	-200.000	-0.097	-0.471
-450.938	-149.572	0.249	0.019
-449.924	-19.753	0.218	0.133
-448.909	661.006	-0.147	0.373
-447.895	-19.408	-0.129	-0.079
-446.880	100.184	-0.224	-0.257
-445.865	-96.030	-0.143	-0.038
-444.851	-161.458	0.137	0.007
-443.836	-10.322	-0.326	0.213
-442.822	-73.116	-0.364	0.132
-441.807	591.839	-0.092	0.224
-440.792	51.766	0.215	0.202
-439.778	29.172	-0.180	0.150
-438.763	-200.000	0.002	0.013
-437.749	525.750	0.107	0.249
-436.734	27.329	0.080	0.066
-435.719	462.093	0.108	0.237
-434.705	-131.974	-0.496	-0.064
-433.690	-185.910	-0.145	0.002
-432.676	-147.537	0.269	0.022
-431.661	645.810	0.072	-0.180
-430.646	44.271	-0.137	-0.124
-429.632	180.993	0.117	-0.169
-428.617	800.000	0.036	-0.147
-427.603	-69.723	0.208	0.078
-426.588	429.483	-0.064	-0.136
-425.573	-65.169	0.342	0.136
-424.559	-63.176	0.271	0.110
-423.544	-105.917	-0.187	0.042
-422.530	121.237	0.175	0.215
-421.515	89.039	-0.111	-0.122
-420.500	560.750	-0.110	0.261
-419.486	354.931	0.110	-0.215
-418.471	-46.760	0.337	0.163
-417.457	-200.000	0.010	-0.222
-416.442	-141.583	0.228	0.023
-415.428	-97.585	0.308	-0.079
-414.413	-200.000	0.012	-0.125
-413.398	129.864	0.416	-0.524
-412.384	372.774	0.142	0.284
-411.369	127.031	0.155	0.194
-410.355	-106.393	0.187	-0.041
-409.340	-145.213	0.207	0.018
-408.325	-98.004	0.233	-0.059
-407.311	-136.949	-0.574	-0.065
-406.296	-200.000	0.046	0.300
-405.282	-56.583	0.306	0.133
-404.267	437.104	-0.053	-0.115
-403.252	396.439	0.091	0.186
-402.238	800.000	-0.039	-0.160
-401.223	-200.000	0.018	-0.264
-400.209	800.000	0.050	-0.164
-399.194	-200.000	0.094	-0.505
-398.179	332.705	-0.168	-0.320
-397.165	-41.720	0.255	-0.129
-396.150	27.263	-0.307	-0.254
-395.136	-95.313	-0.290	-0.077
-394.121	-200.000	-0.021	-0.238
-393.106	-200.000	-0.024	-0.159
-392.092	-200.000	0.017	0.252
-391.077	-69.537	-0.340	-0.128
-390.063	249.632	0.142	-0.237
-389.048	-51.776	-0.356	0.163
-388.033	-200.000	-0.009	-0.258
-387.019	131.873	-0.207	-0.262
-386.004	75.005	-0.278	0.288
-384.990	99.876	0.165	-0.188
-383.975	-200.000	-0.011	-0.123
-382.960	14.791	-0.022	0.017
-381.946	-95.782	0.128	-0.034
-380.931	-200.000	0.047	-0.211
-379.917	-25.861	0.207	0.120
-378.902	-159.312	-0.184	0.010
-377.888	-11.774	0.337	-0.218
-376.873	-200.000	0.016	-0.220
-375.858	488.525	0.080	-0.180
-374.844	-6.356	-0.176	0.118
-373.829	20.160	0.041	-0.032
-372.815	10.255	0.249	0.187
-371.800	-63.084	-0.180	-0.073
-370.785	18.773	-0.194	-0.153
-369.771	-195.699	0.191	-0.001
-368.756	3.449	0.227	0.163
-367.742	468.493	0.078	-0.173
-366.727	-118.853	-0.222	-0.038
-365.712	-134.096	0.256	0.031
-364.698	-25.429	-0.232	0.135
-363.683	766.483	0.099	0.264
-362.669	-115.749	-0.215	0.040
-361.654	-200.000	0.029	0.270
-360.639	-200.000	0.004	0.131
-359.625	-38.163	-0.165	0.086
-358.610	-200.000	0.025	-0.182
-357.596	800.000	-0.084	-0.242
-356.581	-200.000	-0.079	0.521
-355.566	-5.274	-0.263	-0.178
-354.552	-200.000	0.011	0.195
-353.537	-200.000	-0.001	-0.038
-352.523	800.000	0.067	0.243
-351.508	800.000	-0.078	0.245
-350.493	164.431	0.099	-0.137
-349.479	-87.768	-0.271	0.080
-348.464	-50.141	-0.199	0.092
-347.450	6.825	-0.193	-0.141
-346.435	800.000	0.099	0.291
-345.420	42.483	0.189	0.169
-344.406	-200.000	0.052	0.234
-343.391	116.611	0.122	-0.147
-342.377	161.909	0.068	-0.093
-341.362	384.458	-0.071	-0.144
-340.348	-33.524	-0.064	0.035
-339.333	-14.203	0.245	0.155
-338.318	-159.323	-0.207	-0.011
-337.304	-165.259	-0.162	-0.007
-336.289	-107.733	0.155	-0.033
-335.275	56.153	0.231	-0.220
-334.260	-200.000	0.004	0.161
-333.245	19.966	-0.366	0.290
-332.231	72.150	0.078	-0.079
-331.216	-165.849	0.271	-0.011
-330.202	-87.578	-0.162	0.048
-329.187	-15.830	-0.298	0.187
-328.172	-200.000	0.243	-0.001
-327.158	-112.574	-0.114	-0.022
-326.143	346.210	0.108	0.208
-325.129	56.045	-0.132	-0.126
-324.114	-54.697	0.193	0.085
-323.099	49.350	0.081	0.074
-322.085	-34.425	0.341	0.183
-321.070	-127.706	-0.384	0.054
-320.056	13.694	0.152	-0.116
-319.041	-200.000	-0.006	0.375
-318.026	-5.169	-0.263	0.178
-317.012	-175.501	0.199	0.005
-315.997	800.000	0.042	0.145
-314.983	213.054	-0.228	0.353
-313.968	710.031	0.024	-0.061
-312.953	-94.240	0.120	0.032
-311.939	800.000	0.094	-0.279
-310.924	97.410	-0.038	0.043
-309.910	-200.000	-0.007	0.367
-308.895	291.447	-0.024	0.043
-307.880	178.653	-0.147	0.210
-306.866	-200.000	0.005	-0.204
-305.851	-200.000	-0.040	-0.223
-304.837	-96.856	-0.253	-0.065
-303.822	43.988	-0.183	0.164
-302.807	10.323	-0.311	-0.232
-301.793	-162.039	0.253	0.013
-300.778	-12.119	0.156	-0.100
-299.764	-65.983	0.115	0.045
-298.749	-30.129	-0.131	-0.073
-297.735	800.000	0.028	-0.119
-296.720	800.000	0.079	0.218
-295.705	303.131	-0.078	-0.141
-294.691	-200.000	-0.030	-0.197
-293.676	-12.896	-0.040	0.026
-292.662	-36.914	0.094	-0.050
-291.647	-200.000	-0.052	0.365
-290.632	378.444	-0.116	-0.233
-289.618	-130.101	0.161	0.022
-288.603	142.367	0.081	-0.105
-287.589	25.239	0.125	-0.102
-286.574	128.583	-0.133	0.166
-285.559	118.365	0.083	0.101
-284.545	-109.782	-0.127	-0.026
-283.530	-60.507	0.250	-0.104
-282.516	-110.385	-0.171	0.035
-281.501	-200.000	0.020	0.297
-280.486	337.037	-0.082	0.155
-279.472	-54.412	-0.104	-0.046
-278.457	81.942	0.047	0.049
-277.443	800.000	-0.024	-0.068
-276.428	-9.704	0.218	0.142
-275.413	233.069	-0.172	-0.277
-274.399	131.310	0.036	0.046
-273.384	9.889	0.159	0.118
-272.370	230.553	-0.168	-0.269
-271.355	66.435	0.155	0.154
-270.340	177.223	0.099	-0.141
-269.326	-45.830	0.312	-0.151
-268.311	209.603	0.054	-0.082
-267.297	-91.864	0.362	-0.101
-266.282	-157.033	-0.153	0.009
-265.267	156.796	-0.198	0.268
-264.253	526.631	0.060	0.138
-263.238	690.203	-0.067	-0.173
-262.224	152.151	0.078	-0.104
-261.209	-75.706	0.070	-0.024
-260.195	800.000	0.069	0.208
-259.180	-53.510	0.129	0.058
-258.165	-200.000	0.001	-0.111
-257.151	675.290	0.135	0.343
-256.136	-200.000	0.035	0.229
-255.122	104.626	-0.031	0.036
-254.107	-153.892	-0.042	-0.003
-253.092	4.059	-0.085	-0.061
-252.078	800.000	0.078	0.216
-251.063	122.187	0.288	0.352
-250.049	-200.000	0.005	-0.209
-249.034	-54.827	-0.199	-0.088
-248.019	-116.059	0.318	-0.058
-247.005	596.165	-0.124	0.301
-245.990	-200.000	0.024	0.277
-244.976	-200.000	0.031	0.335
-243.961	-200.000	-0.064	0.309
-242.946	-91.011	0.200	0.056
-241.932	523.313	-0.116	0.267
-240.917	-200.000	-0.047	-0.207
-239.903	-200.000	0.003	-0.175
-238.888	259.290	0.081	0.137
-237.873	-41.843	-0.104	0.052
-236.859	55.058	0.031	-0.029
-235.844	-78.360	0.088	-0.030
-234.830	800.000	0.061	0.220
-233.815	-61.550	0.183	0.075
-232.800	61.382	0.098	-0.095
-231.786	800.000	0.008	0.030
-230.771	637.119	-0.110	0.273
-229.757	-10.961	0.161	0.104
-228.742	-175.810	-0.276	-0.007
-227.727	73.840	0.138	-0.142
-226.713	162.450	-0.088	0.121
-225.698	-51.405	0.384	-0.176
-224.684	-148.293	0.194	0.016
-223.669	25.250	0.239	0.194
-222.655	-200.000	-0.057	-0.280
-221.640	-9.284	0.220	-0.144
-220.625	-151.342	0.152	-0.011
-219.611	91.683	0.057	0.063
-218.596	-145.921	-0.276	0.024
-217.582	-51.013	0.126	0.058
-216.567	-176.396	0.171	0.004
-215.552	-200.000	-0.147	0.000
-214.538	-144.972	-0.319	-0.028
-213.523	64.143	0.168	0.165
-212.509	37.862	0.058	0.051
-211.494	16.536	0.215	0.166
-210.479	-200.000	-0.013	-0.269
-209.465	-118.343	-0.042	0.007
-208.450	-200.000	-0.020	0.150
-207.436	800.000	0.057	0.184
-206.421	-200.000	0.005	0.361
-205.406	-63.019	-0.140	-0.057
-204.392	0.074	-0.059	-0.041
-203.377	800.000	-0.025	0.080
-202.363	-200.000	0.000	-0.163
-201.348	800.000	0.058	-0.236
-200.333	-200.000	-0.005	0.027
-199.319	-154.938	-0.249	-0.016
-198.304	423.602	-0.066	0.139
-197.290	-103.906	-0.245	-0.056
-196.275	-94.140	0.130	-0.035
-195.260	-168.524	0.266	0.010
-194.246	567.057	-0.059	0.139
-193.231	-64.600	0.158	0.063
-192.217	58.156	0.056	-0.054
-191.202	-200.000	0.031	0.204
-190.187	24.910	0.132	-0.107
-189.173	159.309	0.100	-0.136
-188.158	-7.499	-0.306	0.202
-187.144	334.418	-0.085	0.161
-186.129	800.000	-0.093	0.275
-185.114	674.310	-0.067	-0.170
-184.100	-52.239	-0.387	-0.175
-183.085	-2.918	-0.332	-0.226
-182.071	13.414	-0.182	0.138
-181.056	168.620	0.070	-0.097
-180.042	-200.000	-0.013	0.260
-179.027	-118.688	0.287	0.049
-178.012	166.986	-0.203	-0.282
-176.998	295.303	0.190	0.339
-175.983	258.187	-0.065	-0.109
-174.969	366.652	-0.066	0.130
-173.954	800.000	0.093	0.301
-172.939	800.000	0.088	-0.241
-171.925	-103.540	0.115	-0.026
-170.910	161.568	-0.122	0.167
-169.896	-37.959	0.160	0.083
-168.881	-13.422	-0.313	-0.198
-167.866	70.527	0.089	0.089
-166.852	-37.702	-0.241	0.125
-165.837	-29.680	0.048	0.027
-164.823	133.642	-0.106	0.134
-163.808	137.656	-0.085	0.109
-162.793	-200.000	0.019	0.100
-161.779	-62.605	0.084	0.034
-160.764	800.000	-0.050	-0.135
-159.750	504.823	0.062	-0.141
-158.735	-196.801	0.234	-0.002
-157.720	712.828	0.070	-0.180
-156.706	-159.281	0.230	0.013
-155.691	-62.940	-0.314	0.127
-154.677	-78.121	0.091	0.030
-153.662	-58.443	0.323	-0.137
-152.647	211.659	0.159	0.243
-151.633	150.867	-0.044	0.058
-150.618	41.349	-0.175	0.154
-149.604	37.121	0.203	0.175
-148.589	65.540	-0.153	0.151
-147.574	-75.291	0.150	-0.052
-146.560	-153.586	0.246	0.017
-145.545	185.482	-0.046	-0.067
-144.531	-200.000	0.038	0.358
-143.516	83.250	-0.299	0.317
-142.502	-200.000	0.018	-0.092
-141.487	-56.249	0.199	0.086
-140.472	341.909	0.161	0.307
-139.458	-62.149	0.235	0.096
-138.443	-95.770	0.144	-0.038
-137.429	-200.000	-0.071	-0.414
-136.414	-200.000	0.017	0.089
-135.399	-200.000	-0.003	-0.129
-134.385	-150.514	0.219	-0.016
-133.370	82.994	0.252	0.267
-132.356	-138.101	-0.267	-0.029
-131.341	103.636	0.101	0.116
-130.326	-77.652	0.114	0.038
-129.312	-18.389	0.185	0.112
-128.297	-200.000	0.055	-0.237
-127.283	553.568	0.012	-0.027
-126.268	391.231	-0.210	-0.425
-125.253	800.000	-0.073	-0.200
-124.239	-42.078	-0.252	0.126
-123.224	-200.000	0.006	0.229
-122.210	-200.000	-0.005	0.036
-121.195	-200.000	-0.042	-0.209
