DTS Sentinel unit serial number:	SN413079Multiplexer serial number:	ORYXHardware model number:	OX4-SRSoftware version number:	ORYX F/W v4.00 Oryx Data Collector v3.7.2.0data status	okinstallation	princeton_trtdifferential loss correction	single-endedforward channel	channel 2reverse channel	N/Adate	2019/09/12time	00:45:11forward acquisition time	60.00reverse acquisition time	0.00gamma	496.2192k internal	0.2325k external	0.2325temperature offset calibration	1.0089default loss term (dB/km)	0.3790temperature slope calibration	1.0000multiplexer offset coefficient	1.0000multiplexer slope coefficient	1.0000fibre end	0.00T internal ref (°C)	33.28T ext. ref 1 (°C)	2.07T ext. ref 2 (°C)	28.14length (m)	temperature (°C)	Stokes	anti-Stokes-747.200	99.860	0.149	0.175
-746.185	63.245	-0.259	0.262
-745.171	68.271	-0.109	-0.112
-744.156	-103.070	0.142	-0.034
-743.142	370.450	-0.108	-0.220
-742.127	231.281	-0.117	-0.194
-741.112	107.914	-0.364	-0.438
-740.098	-200.000	0.003	0.142
-739.083	65.629	0.140	0.143
-738.069	69.494	-0.249	0.259
-737.054	-133.572	-0.204	0.026
-736.039	-63.611	-0.169	0.070
-735.025	-124.149	0.285	0.045
-734.010	800.000	-0.072	0.318
-732.996	800.000	-0.102	-0.342
-731.981	800.000	0.061	0.206
-730.966	-51.231	0.067	0.032
-729.952	800.000	0.053	0.202
-728.937	-200.000	0.052	0.271
-727.923	220.293	-0.070	-0.113
-726.908	186.690	-0.268	-0.403
-725.894	-200.000	0.010	-0.244
-724.879	101.767	-0.150	0.177
-723.864	800.000	-0.122	-0.371
-722.850	359.884	0.064	0.129
-721.835	115.597	0.034	0.042
-720.821	455.775	-0.139	0.311
-719.806	51.712	0.119	-0.114
-718.791	93.677	-0.257	0.293
-717.777	-200.000	-0.007	0.281
-716.762	-98.447	0.342	-0.088
-715.748	-119.406	0.100	-0.017
-714.733	-78.946	0.345	-0.118
-713.718	-143.363	0.108	-0.010
-712.704	-5.989	0.112	0.077
-711.689	419.248	0.140	0.301
-710.675	-41.532	0.190	0.099
-709.660	6.777	-0.082	-0.061
-708.645	-76.234	-0.200	-0.071
-707.631	-77.302	0.041	-0.014
-706.616	-145.318	-0.097	0.009
-705.602	-6.526	0.127	-0.087
-704.587	-200.000	-0.038	-0.251
-703.572	-49.475	-0.114	0.055
-702.558	-74.755	0.083	-0.030
-701.543	15.760	0.239	0.190
-700.529	101.576	0.206	0.241
-699.514	-122.933	-0.168	0.027
-698.499	800.000	0.108	-0.422
-697.485	221.228	-0.077	0.125
-696.470	321.533	0.149	-0.285
-695.456	-200.000	0.017	-0.410
-694.441	-19.103	-0.341	-0.213
-693.426	-200.000	0.005	0.197
-692.412	800.000	0.061	0.173
-691.397	351.003	-0.063	-0.126
-690.383	104.546	0.065	0.077
-689.368	-36.240	-0.060	-0.032
-688.354	800.000	-0.088	0.338
-687.339	-103.594	0.160	0.038
-686.324	476.295	0.112	0.254
-685.310	42.242	-0.151	0.138
-684.295	-133.871	-0.284	0.036
-683.281	-200.000	-0.035	-0.335
-682.266	-51.310	-0.140	-0.066
-681.251	-200.000	-0.055	0.280
-680.237	800.000	0.037	-0.107
-679.222	11.921	0.082	0.063
-678.208	87.128	-0.149	-0.165
-677.193	-200.000	-0.060	-0.393
-676.178	-200.000	-0.024	-0.178
-675.164	-125.690	0.263	0.040
-674.149	-112.925	-0.345	-0.069
-673.135	32.314	0.208	0.181
-672.120	-42.821	-0.249	0.127
-671.105	-113.135	0.029	0.006
-670.091	-41.323	-0.274	-0.142
-669.076	114.369	-0.121	-0.149
-668.062	-140.119	0.144	-0.015
-667.047	800.000	0.131	-0.495
-666.032	-88.686	0.249	0.074
-665.018	255.191	-0.101	-0.175
-664.003	800.000	-0.050	-0.204
-662.989	361.153	-0.035	-0.071
-661.974	165.821	-0.045	0.065
-660.959	690.664	-0.111	-0.293
-659.945	-200.000	-0.003	0.102
-658.930	-96.656	0.062	-0.016
-657.916	3.850	-0.239	0.176
-656.901	161.041	-0.052	-0.073
-655.886	-200.000	0.003	-0.140
-654.872	-200.000	-0.015	0.262
-653.857	800.000	0.052	0.213
-652.843	258.996	-0.130	0.225
-651.828	-69.091	0.192	-0.074
-650.814	-200.000	-0.043	-0.199
-649.799	337.023	-0.049	-0.095
-648.784	181.310	-0.087	0.128
-647.770	126.741	0.140	0.178
-646.755	717.740	0.033	0.089
-645.741	-200.000	-0.036	0.198
-644.726	397.682	-0.014	0.029
-643.711	-93.291	-0.076	-0.021
-642.697	-60.819	-0.491	-0.209
-641.682	800.000	0.128	0.372
-640.668	0.252	0.301	0.216
-639.653	126.784	0.034	-0.043
-638.638	-165.856	-0.181	-0.008
-637.624	800.000	0.041	-0.133
-636.609	190.014	0.204	0.308
-635.595	-42.166	0.080	0.041
-634.580	-200.000	0.007	-0.463
-633.565	49.511	-0.069	-0.066
-632.551	-160.130	-0.434	-0.024
-631.536	167.918	0.053	-0.076
-630.522	289.026	0.153	-0.278
-629.507	17.557	-0.217	-0.174
-628.492	-46.555	0.158	0.078
-627.478	50.296	0.147	0.140
-626.463	159.244	-0.121	0.169
-625.449	800.000	-0.043	-0.162
-624.434	-105.423	-0.302	-0.069
-623.419	-200.000	-0.011	-0.227
-622.405	4.727	0.403	0.298
-621.390	-109.550	0.296	0.063
-620.376	-33.465	0.099	0.055
-619.361	800.000	-0.109	-0.374
-618.346	186.256	-0.066	0.099
-617.332	-70.185	-0.246	0.094
-616.317	0.696	-0.030	-0.022
-615.303	-104.120	-0.297	-0.069
-614.288	-153.042	0.190	-0.013
-613.273	-15.404	-0.202	0.129
-612.259	-130.694	-0.121	0.016
-611.244	663.580	0.060	-0.155
-610.230	-56.449	-0.061	-0.027
-609.215	691.947	-0.045	-0.117
-608.201	800.000	0.012	0.036
-607.186	248.108	0.248	-0.420
-606.171	-19.725	-0.267	-0.166
-605.157	-123.964	-0.582	0.092
-604.142	76.852	0.059	-0.063
-603.128	-200.000	0.048	-0.289
-602.113	-35.677	0.037	0.020
-601.098	-105.268	0.015	0.003
-600.084	-200.000	-0.028	-0.322
-599.069	567.016	0.190	-0.463
-598.055	800.000	0.033	-0.109
-597.040	-16.345	-0.106	0.068
-596.025	-200.000	-0.001	-0.197
-595.011	76.680	0.128	0.136
-593.996	-52.404	0.181	-0.084
-592.982	479.496	-0.088	0.199
-591.967	601.475	-0.050	0.125
-590.952	107.424	0.209	0.250
-589.938	78.473	0.016	0.017
-588.923	-200.000	-0.029	0.130
-587.909	20.002	-0.132	-0.106
-586.894	697.454	0.082	0.215
-585.879	-8.094	0.243	-0.164
-584.865	800.000	-0.143	0.403
-583.850	-200.000	0.073	-0.496
-582.836	180.749	-0.050	-0.074
-581.821	-103.879	-0.221	0.052
-580.806	240.726	0.098	-0.164
-579.792	-173.351	-0.359	-0.011
-578.777	252.442	0.125	0.213
-577.763	73.385	0.072	0.076
-576.748	597.360	0.079	0.196
-575.733	-31.762	-0.293	-0.165
-574.719	-185.415	0.303	0.005
-573.704	94.800	-0.087	-0.099
-572.690	466.386	0.077	0.172
-571.675	1.678	-0.150	0.108
-570.661	304.609	-0.089	-0.165
-569.646	-157.089	0.167	-0.010
-568.631	1.158	-0.122	0.088
-567.617	-200.000	0.051	0.289
-566.602	419.316	0.055	-0.118
-565.588	-74.350	-0.171	0.062
-564.573	148.958	-0.083	0.112
-563.558	364.903	-0.128	-0.259
-562.544	94.802	-0.104	-0.118
-561.529	375.485	-0.124	-0.254
-560.515	-25.579	0.140	-0.083
-559.500	-174.048	0.093	0.003
-558.485	-100.389	0.231	-0.057
-557.471	-83.331	-0.129	0.042
-556.456	164.418	0.151	0.213
-555.442	21.077	-0.149	0.121
-554.427	198.736	0.217	-0.332
-553.412	-150.580	0.109	0.008
-552.398	667.327	0.124	-0.322
-551.383	-200.000	-0.008	-0.140
-550.369	-17.691	0.114	-0.072
-549.354	-45.026	0.169	0.084
-548.339	-116.251	0.139	-0.026
-547.325	309.156	0.039	0.073
-546.310	-8.765	-0.079	-0.053
-545.296	-69.147	0.192	-0.074
-544.281	128.562	-0.196	0.250
-543.266	77.257	0.078	0.083
-542.252	636.626	0.129	0.329
-541.237	-200.000	-0.078	0.000
-540.223	106.673	-0.240	-0.285
-539.208	219.059	-0.038	0.061
-538.193	80.372	0.118	-0.127
-537.179	-134.756	0.058	-0.007
-536.164	-200.000	0.032	0.298
-535.150	-190.587	0.353	-0.004
-534.135	-111.243	0.456	-0.093
-533.121	-41.989	-0.091	0.047
-532.106	-14.390	0.213	-0.137
-531.091	-6.707	0.200	-0.136
-530.077	-94.474	-0.382	0.104
-529.062	58.975	0.336	0.330
-528.048	-20.572	-0.101	-0.062
-527.033	-40.072	-0.134	-0.070
-526.018	-69.453	-0.269	-0.103
-525.004	271.917	-0.117	-0.206
-523.989	380.720	0.130	-0.266
-522.975	-133.048	0.016	0.002
-521.960	43.875	0.080	-0.074
-520.945	22.385	0.190	-0.156
-519.931	-59.979	0.241	0.103
-518.916	-130.554	-0.088	0.012
-517.902	2.873	-0.027	-0.020
-516.887	59.475	-0.167	0.165
-515.872	602.398	0.049	0.122
-514.858	126.497	-0.094	-0.119
-513.843	-132.225	0.218	0.028
-512.829	563.112	-0.131	-0.318
-511.814	65.609	-0.302	-0.306
-510.799	-200.000	0.034	-0.149
-509.785	800.000	-0.038	0.154
-508.770	321.347	-0.203	0.387
-507.756	-71.832	-0.271	0.101
-506.741	-200.000	-0.003	-0.069
-505.726	-30.887	-0.055	0.031
-504.712	66.636	0.098	-0.099
-503.697	707.449	-0.126	0.332
-502.683	-35.515	0.164	-0.089
-501.668	-157.688	0.275	0.016
-500.653	122.425	-0.244	-0.304
-499.639	161.768	0.104	0.145
-498.624	-186.699	0.088	0.001
-497.610	389.407	-0.102	0.211
-496.595	111.300	-0.198	-0.239
-495.581	-118.832	-0.578	-0.102
-494.566	-171.790	0.224	0.007
-493.551	-94.806	-0.284	0.077
-492.537	-83.444	-0.031	0.010
-491.522	32.371	-0.106	0.092
-490.508	-57.465	0.160	-0.070
-489.493	800.000	-0.043	0.167
-488.478	30.374	-0.171	0.146
-487.464	-200.000	-0.015	0.165
-486.449	-200.000	-0.011	-0.164
-485.435	40.606	0.148	-0.133
-484.420	-200.000	0.109	-0.559
-483.405	118.912	-0.095	0.118
-482.391	17.066	0.135	-0.107
-481.376	782.919	0.077	0.209
-480.362	-153.037	-0.119	0.008
-479.347	-151.808	-0.171	0.013
-478.332	800.000	-0.033	0.131
-477.318	137.441	-0.155	0.202
-476.303	-107.790	-0.095	-0.021
-475.289	800.000	-0.082	0.328
-474.274	-93.644	0.082	-0.023
-473.259	-136.649	-0.298	-0.034
-472.245	148.052	-0.259	-0.349
-471.230	-67.522	0.159	0.062
-470.216	474.925	-0.124	0.279
-469.201	111.651	0.268	-0.323
-468.186	40.418	0.171	-0.154
-467.172	510.914	-0.058	0.135
-466.157	-200.000	0.015	-0.168
-465.143	106.135	-0.077	0.091
-464.128	-50.331	0.260	-0.122
-463.113	800.000	-0.005	0.018
-462.099	619.046	0.062	0.155
-461.084	-15.987	-0.042	-0.027
-460.070	253.742	-0.172	0.293
-459.055	-65.656	-0.270	0.108
-458.040	218.357	-0.125	0.199
-457.026	-200.000	0.050	0.238
-456.011	-125.215	0.375	-0.057
-454.997	-9.380	-0.231	-0.154
-453.982	-135.815	-0.405	-0.048
-452.968	-44.000	-0.120	-0.060
-451.953	-39.862	0.174	0.091
-450.938	800.000	0.016	-0.054
-449.924	457.337	-0.064	-0.143
-448.909	178.458	-0.087	0.127
-447.895	6.733	-0.060	0.045
-446.880	-83.530	-0.112	-0.036
-445.865	-132.375	0.216	-0.028
-444.851	140.336	0.150	0.198
-443.836	-200.000	0.008	0.187
-442.822	-200.000	-0.000	0.055
-441.807	11.763	-0.117	0.090
-440.792	-21.363	-0.280	-0.170
-439.778	311.449	-0.157	-0.294
-438.763	-52.470	0.322	-0.148
-437.749	288.167	0.025	-0.046
-436.734	-44.701	0.092	-0.046
-435.719	-200.000	0.008	0.191
-434.705	-134.010	-0.291	0.036
-433.690	-37.547	-0.165	0.088
-432.676	236.957	0.015	0.025
-431.661	-30.679	-0.073	0.041
-430.646	15.249	0.209	0.163
-429.632	800.000	0.048	-0.162
-428.617	-56.228	0.329	-0.146
-427.603	-119.796	-0.414	0.071
-426.588	-71.031	0.106	0.040
-425.573	800.000	0.050	0.181
-424.559	-65.894	-0.112	-0.044
-423.544	-97.476	-0.139	-0.036
-422.530	418.145	-0.184	-0.391
-421.515	15.770	0.319	-0.250
-420.500	-38.352	0.311	-0.164
-419.486	28.978	0.144	0.122
-418.471	-143.660	0.093	-0.009
-417.457	-184.359	-0.423	-0.007
-416.442	33.142	0.148	-0.128
-415.428	-104.309	-0.159	0.037
-414.413	-162.486	-0.137	0.007
-413.398	278.117	-0.044	-0.077
-412.384	-134.787	0.299	-0.036
-411.369	-117.230	0.282	0.051
-410.355	117.982	-0.079	-0.097
-409.340	800.000	-0.026	0.077
-408.325	127.267	-0.103	0.130
-407.311	24.370	0.173	0.142
-406.296	-12.880	-0.146	-0.095
-405.282	-155.011	-0.058	-0.004
-404.267	-106.697	-0.108	-0.024
-403.252	-94.025	0.325	0.089
-402.238	-20.733	-0.219	0.134
-401.223	25.017	0.238	0.196
-400.209	-3.548	-0.292	-0.202
-399.194	2.055	-0.160	-0.115
-398.179	-200.000	-0.002	-0.125
-397.165	640.062	0.079	-0.201
-396.150	-26.885	0.139	-0.081
-395.136	391.109	-0.055	-0.114
-394.121	180.724	0.052	0.076
-393.106	800.000	0.049	-0.174
-392.092	749.983	-0.122	-0.328
-391.077	22.351	-0.224	-0.182
-390.063	27.132	0.170	-0.142
-389.048	-112.908	-0.460	0.091
-388.033	35.789	0.138	-0.121
-387.019	-200.000	0.021	-0.116
-386.004	-56.372	0.221	0.098
-384.990	-88.983	-0.070	-0.021
-383.975	-62.167	-0.141	0.059
-382.960	94.585	-0.237	0.268
-381.946	800.000	-0.067	0.242
-380.931	110.905	-0.019	0.022
-379.917	-200.000	-0.038	0.354
-378.902	237.975	-0.041	0.067
-377.888	-117.096	-0.090	-0.016
-376.873	31.529	0.174	0.149
-375.858	-77.158	-0.455	0.158
-374.844	-200.000	0.004	-0.136
-373.829	-52.295	-0.365	0.168
-372.815	-80.662	0.227	0.075
-371.800	113.555	0.157	0.189
-370.785	538.688	0.180	0.426
-369.771	-200.000	0.005	-0.046
-368.756	-62.406	-0.066	0.027
-367.742	14.389	0.106	-0.082
-366.727	170.973	-0.067	0.095
-365.712	-200.000	-0.034	0.293
-364.698	330.578	0.080	0.152
-363.683	-65.945	0.232	0.092
-362.669	305.203	-0.087	-0.161
-361.654	-98.455	0.165	-0.042
-360.639	343.347	0.092	0.179
-359.625	-166.041	0.114	-0.005
-358.610	35.994	0.212	-0.185
-357.596	229.896	0.193	-0.314
-356.581	-200.000	0.002	0.066
-355.566	472.156	-0.036	0.082
-354.552	-200.000	0.005	-0.052
-353.537	143.894	-0.311	0.412
-352.523	22.554	0.209	0.170
-351.508	-65.487	-0.162	0.065
-350.493	179.238	-0.166	0.241
-349.479	-118.539	-0.191	-0.034
-348.464	-64.630	0.088	0.035
-347.450	81.545	-0.049	-0.053
-346.435	-87.712	-0.406	0.122
-345.420	-33.814	0.433	-0.237
-344.406	206.877	0.113	0.175
-343.391	-200.000	0.021	-0.099
-342.377	-29.567	0.191	0.109
-341.362	8.924	-0.242	0.181
-340.348	-109.721	0.293	0.061
-339.333	-170.156	-0.087	-0.003
-338.318	170.211	-0.122	-0.173
-337.304	77.298	-0.049	0.052
-336.289	-200.000	-0.013	-0.135
-335.275	-131.023	-0.236	-0.031
-334.260	0.943	-0.340	-0.242
-333.245	33.413	0.085	0.073
-332.231	800.000	-0.038	0.128
-331.216	3.957	0.223	0.162
-330.202	30.320	-0.202	0.171
-329.187	-57.115	-0.139	-0.061
-328.172	51.033	-0.194	-0.182
-327.158	800.000	0.108	0.387
-326.143	414.235	-0.137	0.290
-325.129	392.070	-0.221	0.455
-324.114	237.519	-0.193	-0.318
-323.099	-125.919	0.246	-0.037
-322.085	800.000	-0.046	-0.136
-321.070	-32.544	-0.299	-0.165
-320.056	17.317	-0.288	0.227
-319.041	-126.835	0.290	0.042
-318.026	87.354	0.211	0.231
-317.012	38.184	-0.110	-0.097
-315.997	800.000	0.050	0.143
-314.983	368.952	-0.114	-0.228
-313.968	264.492	0.117	0.202
-312.953	-189.775	0.099	-0.001
-311.939	16.660	-0.114	-0.090
-310.924	-119.469	-0.097	-0.017
-309.910	-200.000	-0.042	-0.204
-308.895	-107.304	0.417	-0.091
-307.880	-113.251	-0.021	-0.004
-306.866	-114.727	0.182	0.034
-305.851	800.000	-0.096	0.288
-304.837	-59.159	0.083	-0.035
-303.822	116.300	0.092	-0.112
-302.807	800.000	-0.133	0.412
-301.793	-33.263	0.100	0.055
-300.778	800.000	-0.068	-0.249
-299.764	-4.899	0.160	-0.109
-298.749	257.564	0.057	-0.097
-297.735	800.000	-0.015	0.045
-296.720	111.883	0.147	-0.176
-295.705	234.256	0.065	0.107
-294.691	-200.000	0.001	0.149
-293.676	312.845	-0.197	-0.366
-292.662	200.865	0.069	-0.105
-291.647	-1.769	0.195	-0.136
-290.632	-200.000	-0.022	-0.158
-289.618	84.140	-0.022	-0.024
-288.603	-41.998	0.205	0.104
-287.589	-34.835	-0.204	-0.110
-286.574	-95.693	0.115	0.030
-285.559	-200.000	0.069	0.300
-284.545	-200.000	-0.020	-0.301
-283.530	-84.267	0.330	-0.103
-282.516	278.629	-0.065	0.114
-281.501	27.712	0.107	0.089
-280.486	-149.510	-0.063	0.005
-279.472	-127.892	0.246	-0.035
-278.457	61.676	0.114	0.112
-277.443	-107.490	0.145	-0.031
-276.428	130.488	0.172	-0.219
-275.413	-27.455	0.175	-0.101
-274.399	186.805	-0.183	-0.270
-273.384	307.975	0.099	-0.183
-272.370	-70.180	0.169	-0.064
-271.355	-200.000	0.047	0.289
-270.340	25.394	0.106	-0.087
-269.326	-156.740	-0.113	-0.007
-268.311	-200.000	0.031	-0.184
-267.297	561.869	-0.101	0.241
-266.282	5.549	0.053	-0.039
-265.267	110.036	0.068	-0.080
-264.253	-11.043	0.286	0.187
-263.238	437.477	0.090	0.195
-262.224	212.150	-0.120	-0.188
-261.209	52.163	-0.192	-0.181
-260.195	378.943	-0.085	0.173
-259.180	-96.225	0.289	0.076
-258.165	77.717	0.085	0.090
-257.151	-104.100	0.132	0.030
-256.136	800.000	-0.089	-0.271
-255.122	298.093	-0.117	-0.213
-254.107	-56.581	0.147	-0.065
-253.092	-188.486	-0.461	0.006
-252.078	101.328	0.117	0.135
-251.063	800.000	-0.135	-0.375
-250.049	-46.928	-0.189	-0.092
-249.034	117.483	0.204	-0.248
-248.019	800.000	-0.017	-0.062
-247.005	-200.000	-0.020	-0.165
-245.990	800.000	0.068	0.278
-244.976	-75.390	-0.107	0.038
-243.961	-109.919	-0.181	0.038
-242.946	-200.000	0.014	-0.284
-241.932	-32.391	-0.233	0.128
-240.917	-14.205	-0.101	0.064
-239.903	-200.000	-0.014	0.194
-238.888	606.407	0.110	0.271
-237.873	800.000	0.046	-0.173
-236.859	-126.001	-0.100	-0.015
-235.844	-200.000	0.045	0.266
-234.830	-200.000	-0.001	-0.042
-233.815	154.270	0.085	0.116
-232.800	800.000	-0.079	0.323
-231.786	-42.303	0.374	-0.189
-230.771	156.639	-0.062	-0.085
-229.757	800.000	-0.054	0.151
-228.742	800.000	0.120	0.333
-227.727	-136.235	-0.182	0.021
-226.713	-12.193	-0.269	-0.174
-225.698	-200.000	0.068	0.402
-224.684	-106.304	0.234	0.052
-223.669	57.484	-0.115	0.111
-222.655	111.727	0.151	0.180
-221.640	-200.000	0.069	-0.391
-220.625	-62.321	0.266	-0.110
-219.611	364.178	-0.068	-0.136
-218.596	794.703	0.014	-0.038
-217.582	-40.399	0.205	0.106
-216.567	-43.581	0.099	0.049
-215.552	-200.000	-0.061	-0.385
-214.538	-200.000	0.004	-0.424
-213.523	-200.000	-0.000	0.104
-212.509	-175.571	-0.324	-0.009
-211.494	62.882	0.206	-0.204
-210.479	-54.433	-0.337	0.151
-209.465	163.218	0.224	0.311
-208.450	-200.000	0.000	0.223
-207.436	268.812	0.121	-0.209
-206.421	30.601	0.119	0.100
-205.406	177.162	0.144	-0.207
-204.392	-114.109	0.329	-0.063
-203.377	742.896	0.027	0.072
-202.363	209.599	0.168	0.261
-201.348	-34.143	0.125	-0.068
-200.333	-77.864	-0.151	-0.051
-199.319	264.583	-0.072	-0.124
-198.304	800.000	0.019	0.064
-197.290	-24.381	0.164	0.096
-196.275	-116.825	-0.199	-0.036
-195.260	-200.000	-0.032	-0.200
-194.246	588.558	-0.068	0.165
-193.231	577.852	0.041	-0.099
-192.217	-78.717	0.218	0.073
-191.202	121.185	0.306	0.376
-190.187	-200.000	-0.035	0.412
-189.173	147.651	-0.219	-0.292
-188.158	-107.802	0.316	-0.068
-187.144	326.829	-0.172	-0.325
-186.129	800.000	-0.072	-0.198
-185.114	25.249	-0.446	0.366
-184.100	21.139	0.249	0.200
-183.085	800.000	-0.045	0.144
-182.071	-200.000	0.017	0.092
-181.056	-80.531	-0.150	-0.049
-180.042	-66.205	0.270	-0.106
-179.027	138.410	0.097	-0.126
-178.012	-33.770	0.296	-0.161
-176.998	-200.000	0.044	-0.411
-175.983	-144.171	-0.321	-0.030
-174.969	-138.012	-0.256	0.028
-173.954	324.314	0.092	0.173
-172.939	171.017	0.179	0.253
-171.925	396.234	-0.106	-0.218
-170.910	800.000	0.030	-0.111
-169.896	15.445	0.254	0.197
-168.881	-200.000	0.020	-0.141
-167.866	134.869	0.236	0.303
-166.852	77.143	-0.296	-0.311
-165.837	-36.539	0.205	0.109
-164.823	800.000	-0.023	0.089
-163.808	-12.649	0.062	-0.040
-162.793	252.895	-0.075	0.127
-161.779	247.512	0.165	0.275
-160.764	186.322	0.117	0.171
-159.750	101.924	0.162	0.186
-158.735	800.000	0.058	-0.246
-157.720	198.966	-0.184	-0.278
-156.706	231.865	-0.101	-0.163
-155.691	-200.000	0.038	-0.169
-154.677	-200.000	0.002	0.101
-153.662	800.000	-0.065	0.227
-152.647	456.681	0.063	0.138
-151.633	-146.507	-0.251	0.022
-150.618	-200.000	-0.096	-0.521
-149.604	800.000	0.050	0.168
-148.589	406.390	0.065	-0.135
-147.574	187.555	-0.035	0.051
-146.560	237.228	-0.105	0.172
-145.545	686.684	-0.039	-0.101
-144.531	-139.280	0.059	0.006
-143.516	-90.730	0.250	0.071
-142.502	-200.000	0.031	-0.162
-141.487	-200.000	0.039	0.285
-140.472	-131.096	0.223	-0.029
-139.458	2.965	0.116	0.083
-138.443	-136.106	0.346	0.040
-137.429	-145.747	-0.075	0.007
-136.414	-200.000	-0.077	-0.375
-135.399	800.000	-0.079	-0.250
-134.385	-89.235	0.231	-0.067
-133.370	50.240	0.085	-0.079
-132.356	-200.000	-0.006	-0.253
-131.341	-91.268	0.365	-0.103
-130.326	439.977	-0.133	-0.286
-129.312	-80.014	-0.344	0.114
-128.297	-63.925	-0.249	0.100
-127.283	-150.688	0.041	-0.003
-126.268	409.223	-0.190	0.396
-125.253	61.256	-0.047	-0.046
-124.239	800.000	0.100	-0.283
-123.224	-51.127	0.128	-0.059
-122.210	20.870	-0.278	0.222
-121.195	-200.000	-0.053	0.336
