DTS Sentinel unit serial number:	SN413079Multiplexer serial number:	ORYXHardware model number:	OX4-SRSoftware version number:	ORYX F/W v4.00 Oryx Data Collector v3.7.2.0data status	okinstallation	princeton_trtdifferential loss correction	single-endedforward channel	channel 2reverse channel	N/Adate	2019/09/14time	00:27:34forward acquisition time	60.00reverse acquisition time	0.00gamma	496.2192k internal	0.2338k external	0.2338temperature offset calibration	1.0129default loss term (dB/km)	0.3790temperature slope calibration	1.0000multiplexer offset coefficient	1.0000multiplexer slope coefficient	1.0000fibre end	0.00T internal ref (°C)	26.48T ext. ref 1 (°C)	3.16T ext. ref 2 (°C)	21.24length (m)	temperature (°C)	Stokes	anti-Stokes-747.200	676.950	-0.038	-0.100
-746.185	3.878	-0.111	0.081
-745.171	-36.069	0.229	0.124
-744.156	146.143	-0.192	0.259
-743.142	219.256	0.044	-0.071
-742.127	-68.502	-0.186	0.072
-741.112	43.067	-0.112	-0.102
-740.098	-86.461	-0.224	0.069
-739.083	387.377	0.096	0.199
-738.069	-47.883	-0.085	0.041
-737.054	75.494	-0.262	-0.277
-736.039	-31.750	-0.075	0.042
-735.025	-200.000	0.006	0.186
-734.010	11.213	0.212	-0.163
-732.996	-200.000	0.023	-0.347
-731.981	800.000	0.021	0.092
-730.966	-151.116	-0.065	0.005
-729.952	110.432	-0.193	-0.233
-728.937	-62.137	-0.087	-0.036
-727.923	800.000	-0.068	-0.251
-726.908	-76.423	-0.232	0.082
-725.894	-112.269	0.239	0.048
-724.879	-63.874	0.219	-0.090
-723.864	450.551	-0.134	-0.297
-722.850	12.488	-0.210	-0.162
-721.835	-74.799	-0.228	-0.082
-720.821	-187.161	0.143	0.002
-719.806	393.621	0.036	-0.075
-718.791	-67.203	-0.033	-0.013
-717.777	-200.000	0.008	0.044
-716.762	-200.000	-0.040	-0.189
-715.748	-34.184	0.063	-0.035
-714.733	-26.191	-0.239	0.141
-713.718	-98.133	0.291	-0.075
-712.704	800.000	0.067	-0.254
-711.689	17.675	0.105	0.084
-710.675	-165.483	0.169	-0.007
-709.660	800.000	0.118	-0.435
-708.645	-200.000	0.006	0.095
-707.631	246.225	0.207	0.350
-706.616	556.594	0.069	-0.166
-705.602	-166.216	0.352	-0.015
-704.587	-100.532	-0.036	-0.009
-703.572	-44.658	0.059	-0.030
-702.558	36.163	-0.152	-0.134
-701.543	800.000	-0.067	-0.265
-700.529	258.817	0.193	0.334
-699.514	800.000	0.020	0.079
-698.499	566.351	-0.097	-0.235
-697.485	25.930	-0.137	-0.114
-696.470	207.946	-0.105	-0.164
-695.456	-61.648	-0.197	-0.083
-694.441	333.787	-0.064	0.123
-693.426	-200.000	-0.036	-0.365
-692.412	-15.678	-0.137	-0.087
-691.397	230.341	-0.048	0.079
-690.383	-200.000	0.010	-0.211
-689.368	311.870	-0.049	-0.092
-688.354	151.562	-0.214	0.292
-687.339	135.407	-0.165	-0.215
-686.324	-200.000	0.013	0.158
-685.310	182.991	-0.026	-0.039
-684.295	-200.000	-0.040	-0.243
-683.281	120.202	-0.239	0.297
-682.266	-200.000	-0.050	-0.250
-681.251	-200.000	0.031	-0.288
-680.237	53.968	0.066	-0.063
-679.222	212.983	-0.098	-0.155
-678.208	266.521	-0.089	-0.156
-677.193	-23.536	-0.060	0.036
-676.178	37.702	-0.477	-0.424
-675.164	597.427	0.099	0.247
-674.149	-85.677	0.362	-0.113
-673.135	164.895	0.105	0.148
-672.120	99.115	0.114	0.131
-671.105	-166.069	-0.318	0.014
-670.091	77.426	-0.148	-0.157
-669.076	63.699	0.324	-0.325
-668.062	-154.762	0.310	-0.021
-667.047	-70.917	-0.303	-0.114
-666.032	186.106	-0.147	-0.219
-665.018	61.171	-0.066	0.065
-664.003	-107.717	-0.410	0.089
-662.989	240.814	0.078	-0.129
-661.974	-152.838	0.159	-0.011
-660.959	-75.350	-0.223	-0.080
-659.945	-14.737	-0.105	-0.067
-658.930	658.596	-0.122	0.315
-657.916	33.123	0.281	-0.244
-656.901	-1.145	0.315	0.223
-655.886	-200.000	-0.004	-0.263
-654.872	180.335	-0.074	0.109
-653.857	-6.186	-0.275	0.188
-652.843	-162.446	0.618	0.031
-651.828	-87.281	0.391	-0.119
-650.814	-137.078	0.258	-0.029
-649.799	-105.998	0.396	-0.089
-648.784	10.827	-0.132	-0.101
-647.770	177.768	0.046	0.067
-646.755	-200.000	-0.000	-0.364
-645.741	741.017	-0.065	-0.175
-644.726	-50.708	0.040	-0.019
-643.711	-27.135	-0.030	-0.017
-642.697	40.913	-0.019	-0.017
-641.682	800.000	0.028	0.091
-640.668	-133.745	-0.352	0.044
-639.653	-163.733	0.255	-0.012
-638.638	-27.192	-0.173	0.100
-637.624	19.125	-0.039	-0.031
-636.609	73.552	0.238	0.249
-635.595	157.139	0.102	0.141
-634.580	800.000	0.096	-0.306
-633.565	124.443	-0.119	-0.150
-632.551	246.303	-0.180	-0.303
-631.536	-159.313	0.369	0.021
-630.522	56.905	0.102	0.099
-629.507	-41.229	0.164	0.085
-628.492	-83.086	0.136	-0.044
-627.478	76.204	0.294	-0.311
-626.463	-81.647	0.049	0.016
-625.449	-200.000	-0.025	0.206
-624.434	-138.153	0.130	-0.014
-623.419	-60.674	-0.183	-0.078
-622.405	800.000	-0.165	-0.505
-621.390	-200.000	0.019	-0.199
-620.376	459.767	-0.078	-0.173
-619.361	463.812	-0.030	-0.067
-618.346	-14.969	-0.157	0.101
-617.332	-183.621	0.223	-0.004
-616.317	-200.000	0.000	-0.208
-615.303	800.000	0.083	-0.290
-614.288	-145.404	0.471	0.042
-613.273	73.124	-0.086	-0.090
-612.259	345.501	-0.124	0.243
-611.244	306.909	-0.127	0.237
-610.230	5.345	-0.111	0.082
-609.215	433.651	-0.200	-0.433
-608.201	-94.059	-0.204	0.056
-607.186	784.989	0.068	-0.186
-606.171	-42.784	0.393	0.199
-605.157	-68.014	0.397	0.154
-604.142	-200.000	0.016	0.239
-603.128	10.058	-0.053	-0.040
-602.113	-37.462	-0.179	0.095
-601.098	-200.000	0.029	0.210
-600.084	87.432	-0.054	0.060
-599.069	409.967	-0.083	0.176
-598.055	-200.000	-0.028	-0.127
-597.040	-83.845	0.138	-0.044
-596.025	-59.433	-0.220	-0.094
-595.011	109.707	0.185	0.221
-593.996	135.734	0.131	0.171
-592.982	204.523	0.109	-0.169
-591.967	657.605	-0.056	-0.143
-590.952	4.493	-0.123	0.090
-589.938	-64.136	0.087	-0.035
-588.923	-175.547	-0.235	-0.006
-587.909	-102.420	0.240	-0.057
-586.894	219.566	0.108	-0.173
-585.879	-200.000	-0.025	-0.244
-584.865	-164.976	-0.241	0.011
-583.850	-200.000	0.011	-0.163
-582.836	-62.632	-0.125	-0.052
-581.821	-143.810	-0.067	-0.006
-580.806	52.970	0.206	-0.196
-579.792	-86.005	-0.365	-0.113
-578.777	-200.000	-0.034	0.319
-577.763	-154.438	-0.225	0.015
-576.748	-200.000	0.023	0.133
-575.733	-95.993	-0.329	0.087
-574.719	-200.000	0.001	-0.172
-573.704	13.959	-0.442	-0.343
-572.690	-77.693	0.145	-0.050
-571.675	800.000	0.090	-0.288
-570.661	321.838	0.050	0.095
-569.646	-90.610	-0.053	-0.015
-568.631	800.000	0.084	0.305
-567.617	759.752	0.114	-0.309
-566.602	52.122	-0.143	0.135
-565.588	171.887	0.051	0.074
-564.573	116.688	-0.022	0.027
-563.558	418.375	-0.257	0.547
-562.544	-200.000	0.032	-0.254
-561.529	-200.000	0.023	-0.114
-560.515	6.463	0.058	-0.043
-559.500	110.390	0.240	-0.287
-558.485	-200.000	0.037	0.211
-557.471	800.000	0.052	-0.225
-556.456	111.251	-0.182	0.219
-555.442	-200.000	-0.061	0.367
-554.427	-107.363	0.152	0.033
-553.412	52.019	0.143	-0.135
-552.398	57.547	-0.063	0.061
-551.383	800.000	0.080	-0.267
-550.369	445.801	-0.087	-0.191
-549.354	-179.595	0.537	-0.012
-548.339	20.368	-0.284	-0.229
-547.325	-200.000	-0.024	0.144
-546.310	800.000	-0.021	0.091
-545.296	11.304	-0.213	-0.162
-544.281	28.418	0.068	-0.057
-543.266	-200.000	0.036	-0.238
-542.252	54.672	0.065	0.062
-541.237	-200.000	0.051	-0.241
-540.223	-81.616	0.164	0.054
-539.208	-25.307	-0.023	0.014
-538.193	137.326	0.088	-0.115
-537.179	-4.833	0.313	0.215
-536.164	-200.000	-0.013	0.128
-535.150	-152.798	0.308	0.022
-534.135	800.000	0.152	0.428
-533.121	-137.065	-0.118	0.013
-532.106	232.618	0.145	-0.237
-531.091	-200.000	0.002	0.017
-530.077	-200.000	-0.052	0.314
-529.062	-71.621	0.377	0.140
-528.048	-171.750	-0.240	-0.008
-527.033	-81.832	-0.177	-0.058
-526.018	612.826	-0.098	0.244
-525.004	-2.707	-0.169	-0.117
-523.989	-77.130	-0.173	0.060
-522.975	-92.306	-0.111	-0.031
-521.960	-57.126	-0.231	-0.101
-520.945	164.878	0.249	-0.350
-519.931	633.725	-0.126	-0.318
-518.916	-200.000	-0.030	0.159
-517.902	105.492	-0.141	-0.165
-516.887	-200.000	-0.020	-0.147
-515.872	-98.508	0.028	0.007
-514.858	800.000	0.009	-0.036
-513.843	-200.000	0.044	0.278
-512.829	267.918	0.138	0.241
-511.814	-66.765	-0.180	-0.071
-510.799	293.805	0.065	-0.118
-509.785	-95.885	-0.257	-0.068
-508.770	11.902	0.141	0.108
-507.756	800.000	0.058	-0.209
-506.741	800.000	-0.037	-0.114
-505.726	89.164	0.159	-0.176
-504.712	203.637	-0.054	0.083
-503.697	101.788	-0.141	0.163
-502.683	228.773	-0.190	-0.309
-501.668	3.137	0.231	0.167
-500.653	-150.231	-0.379	-0.029
-499.639	-38.988	-0.089	0.047
-498.624	-6.315	-0.158	0.107
-497.610	-151.189	-0.014	0.001
-496.595	-103.352	-0.161	-0.038
-495.581	494.976	-0.104	0.236
-494.566	432.219	0.054	0.116
-493.551	338.926	-0.159	-0.308
-492.537	-200.000	0.008	-0.112
-491.522	116.304	-0.158	0.192
-490.508	171.118	0.210	0.299
-489.493	27.220	0.210	0.175
-488.478	105.402	0.048	0.057
-487.464	49.983	-0.162	-0.152
-486.449	490.171	-0.067	0.152
-485.435	209.674	0.202	-0.315
-484.420	-40.854	-0.082	0.042
-483.405	35.528	-0.056	-0.049
-482.391	-8.441	0.180	0.120
-481.376	99.404	-0.039	-0.045
-480.362	272.169	0.059	-0.104
-479.347	45.305	-0.137	0.125
-478.332	86.394	0.109	0.120
-477.318	436.483	-0.059	0.127
-476.303	-200.000	0.065	0.363
-475.289	99.368	0.058	-0.067
-474.274	800.000	0.029	-0.114
-473.259	-6.839	0.037	-0.025
-472.245	-88.454	-0.316	-0.094
-471.230	268.889	0.167	-0.291
-470.216	-18.249	-0.165	0.102
-469.201	-71.913	0.331	0.122
-468.186	39.392	0.094	0.084
-467.172	360.550	0.176	-0.349
-466.157	800.000	-0.081	0.239
-465.143	-102.154	-0.392	0.094
-464.128	434.243	0.161	-0.347
-463.113	-109.774	0.284	0.059
-462.099	181.888	-0.080	-0.118
-461.084	39.880	-0.155	-0.138
-460.070	-39.848	0.162	0.084
-459.055	173.406	0.280	0.401
-458.040	185.156	0.261	-0.384
-457.026	159.829	0.193	0.267
-456.011	-87.633	-0.204	-0.061
-454.997	-94.076	-0.128	0.035
-453.982	-200.000	0.000	0.062
-452.968	800.000	0.026	-0.099
-451.953	-200.000	0.047	-0.334
-450.938	24.774	-0.157	-0.129
-449.924	145.035	-0.075	0.099
-448.909	77.637	-0.007	0.008
-447.895	-69.263	0.166	0.063
-446.880	800.000	0.071	0.285
-445.865	-200.000	0.035	0.203
-444.851	-130.494	0.124	0.017
-443.836	240.076	0.092	-0.152
-442.822	-200.000	-0.003	0.073
-441.807	-29.444	0.215	0.122
-440.792	461.749	0.156	-0.345
-439.778	800.000	-0.043	0.130
-438.763	68.722	0.039	0.039
-437.749	68.022	0.160	-0.162
-436.734	218.820	-0.124	0.197
-435.719	-200.000	0.056	-0.350
-434.705	-155.031	-0.088	-0.006
-433.690	324.449	0.160	0.303
-432.676	-148.704	-0.276	-0.022
-431.661	289.157	-0.053	-0.096
-430.646	106.152	0.120	-0.141
-429.632	-131.254	-0.291	-0.038
-428.617	145.209	-0.168	0.223
-427.603	227.650	-0.158	0.254
-426.588	55.282	-0.180	0.172
-425.573	800.000	-0.027	0.092
-424.559	360.369	-0.082	0.162
-423.544	332.260	0.094	0.180
-422.530	-54.879	0.157	-0.070
-421.515	-92.357	0.192	0.053
-420.500	-62.648	-0.204	-0.084
-419.486	106.903	-0.234	-0.276
-418.471	575.864	-0.025	-0.060
-417.457	-174.675	0.398	-0.011
-416.442	-78.235	-0.148	0.050
-415.428	-145.338	-0.256	0.023
-414.413	-121.223	-0.150	0.025
-413.398	-200.000	0.011	0.136
-412.384	-200.000	-0.001	-0.186
-411.369	48.558	-0.128	-0.118
-410.355	337.399	-0.071	0.137
-409.340	-200.000	-0.006	-0.247
-408.325	16.091	-0.104	0.081
-407.311	225.497	0.096	-0.154
-406.296	-200.000	-0.034	0.202
-405.282	-69.043	-0.155	0.059
-404.267	-47.092	0.239	0.115
-403.252	144.686	-0.100	-0.133
-402.238	-124.198	-0.247	-0.038
-401.223	498.909	0.037	0.084
-400.209	123.347	0.092	0.114
-399.194	-89.017	-0.208	-0.061
-398.179	50.150	0.184	-0.172
-397.165	-152.790	-0.109	-0.008
-396.150	-98.324	0.257	-0.065
-395.136	-62.482	0.182	-0.075
-394.121	-113.746	-0.252	0.049
-393.106	56.137	-0.083	0.080
-392.092	-79.408	0.387	0.129
-391.077	99.768	-0.256	-0.293
-390.063	-200.000	-0.005	0.056
-389.048	-200.000	-0.006	0.166
-388.033	-91.174	0.284	0.081
-387.019	44.947	-0.088	-0.080
-386.004	27.396	-0.053	0.044
-384.990	-200.000	0.010	-0.140
-383.975	22.803	0.198	0.160
-382.960	-121.468	0.228	-0.037
-381.946	-124.832	0.047	-0.007
-380.931	7.693	0.128	-0.095
-379.917	36.995	-0.231	-0.203
-378.902	-155.376	0.101	0.006
-377.888	-12.064	0.253	-0.164
-376.873	-127.142	-0.184	-0.027
-375.858	-30.349	0.194	0.109
-374.844	13.798	0.239	-0.184
-373.829	0.583	0.179	-0.127
-372.815	-148.756	-0.400	-0.032
-371.800	-80.847	-0.146	-0.048
-370.785	-144.243	-0.356	0.033
-369.771	-93.625	-0.147	-0.040
-368.756	-71.019	0.479	0.178
-367.742	105.040	0.065	-0.076
-366.727	-178.067	-0.275	0.006
-365.712	2.690	-0.060	-0.043
-364.698	-76.374	0.002	0.001
-363.683	-73.306	0.106	-0.038
-362.669	800.000	0.086	0.332
-361.654	800.000	0.105	0.308
-360.639	277.758	0.090	-0.159
-359.625	-200.000	-0.013	0.112
-358.610	634.725	0.120	0.301
-357.596	-19.285	-0.266	-0.163
-356.581	-51.133	0.210	0.097
-355.566	-200.000	0.020	0.321
-354.552	-200.000	-0.045	-0.243
-353.537	-200.000	0.008	-0.148
-352.523	-102.726	-0.077	-0.018
-351.508	-200.000	-0.001	-0.177
-350.493	-6.885	-0.219	-0.147
-349.479	-31.949	0.189	0.104
-348.464	198.907	0.138	-0.209
-347.450	679.975	0.030	0.078
-346.435	-200.000	0.009	-0.215
-345.420	-200.000	-0.015	-0.108
-344.406	-90.302	0.499	0.143
-343.391	268.112	0.077	0.133
-342.377	269.249	-0.014	0.024
-341.362	16.229	-0.062	-0.048
-340.348	174.375	0.198	0.283
-339.333	-1.154	-0.278	0.194
-338.318	362.366	-0.043	0.085
-337.304	74.121	-0.167	-0.173
-336.289	26.360	-0.206	-0.170
-335.275	-55.510	0.199	-0.088
-334.260	146.456	-0.124	0.164
-333.245	-122.367	-0.252	0.041
-332.231	-58.656	0.485	-0.208
-331.216	-200.000	-0.014	0.195
-330.202	-87.342	-0.462	0.138
-329.187	70.030	-0.143	-0.146
-328.172	-200.000	0.022	-0.120
-327.158	720.566	0.089	0.233
-326.143	238.054	-0.147	0.241
-325.129	-200.000	-0.012	-0.204
-324.114	800.000	-0.086	0.328
-323.099	178.623	0.132	0.191
-322.085	259.966	-0.039	-0.066
-321.070	-177.881	0.143	-0.003
-320.056	-200.000	-0.003	0.232
-319.041	-52.446	-0.171	0.078
-318.026	65.922	-0.044	-0.044
-317.012	-10.805	0.161	0.105
-315.997	800.000	-0.055	-0.225
-314.983	-67.819	-0.033	-0.013
-313.968	159.272	0.072	-0.098
-312.953	130.351	0.141	-0.178
-311.939	-200.000	-0.029	0.171
-310.924	-67.165	-0.163	0.063
-309.910	-104.853	-0.173	-0.039
-308.895	800.000	-0.016	-0.060
-307.880	-126.855	0.177	0.026
-306.866	81.769	-0.380	-0.406
-305.851	161.746	0.010	-0.014
-304.837	21.483	0.160	-0.129
-303.822	-109.302	0.213	0.045
-302.807	26.175	-0.077	-0.063
-301.793	169.340	0.195	0.274
-300.778	-114.775	-0.131	-0.025
-299.764	800.000	-0.013	0.049
-298.749	800.000	-0.073	0.209
-297.735	-20.541	0.169	0.102
-296.720	64.763	0.081	-0.081
-295.705	-159.993	0.461	0.025
-294.691	800.000	-0.052	-0.190
-293.676	68.619	-0.067	0.068
-292.662	-156.422	0.103	-0.006
-291.647	-60.288	-0.238	-0.100
-290.632	92.844	-0.078	-0.086
-289.618	176.977	-0.135	0.193
-288.603	132.028	-0.108	-0.137
-287.589	500.006	-0.076	0.174
-286.574	-200.000	-0.003	-0.208
-285.559	91.006	-0.142	0.157
-284.545	800.000	0.062	-0.200
-283.530	-15.806	0.289	0.181
-282.516	398.133	-0.062	-0.128
-281.501	-44.887	0.458	-0.225
-280.486	41.384	0.063	0.057
-279.472	-200.000	0.030	0.149
-278.457	-144.269	-0.318	0.029
-277.443	-28.751	-0.463	0.263
-276.428	-148.479	-0.248	-0.020
-275.413	-106.223	-0.116	0.026
-274.399	-102.468	-0.199	-0.047
-273.384	-62.218	0.081	-0.033
-272.370	30.897	0.058	0.049
-271.355	78.345	0.102	0.107
-270.340	50.536	-0.144	0.134
-269.326	-49.595	-0.022	0.010
-268.311	-60.502	0.298	0.125
-267.297	-200.000	-0.038	-0.362
-266.282	106.853	-0.045	0.053
-265.267	-200.000	-0.003	0.094
-264.253	-12.531	0.197	-0.126
-263.238	22.050	0.032	-0.026
-262.224	88.185	0.131	-0.144
-261.209	76.687	-0.194	-0.202
-260.195	-147.648	-0.057	-0.005
-259.180	153.856	-0.116	-0.156
-258.165	-200.000	0.012	-0.090
-257.151	-26.428	0.195	0.112
-256.136	-200.000	-0.036	0.301
-255.122	-200.000	0.026	-0.223
-254.107	228.869	-0.172	0.277
-253.092	-81.572	0.194	0.063
-252.078	-26.718	0.108	-0.062
-251.063	800.000	-0.020	0.076
-250.049	800.000	0.038	0.137
-249.034	-18.279	0.110	-0.068
-248.019	-200.000	-0.005	-0.114
-247.005	89.511	-0.213	0.233
-245.990	711.276	0.046	0.121
-244.976	-29.224	0.092	0.052
-243.961	179.869	0.101	-0.146
-242.946	800.000	-0.073	0.234
-241.932	800.000	0.088	-0.301
-240.917	134.995	-0.137	0.175
-239.903	-40.864	0.098	-0.050
-238.888	-200.000	0.010	-0.259
-237.873	-200.000	-0.061	-0.292
-236.859	251.515	-0.085	0.143
-235.844	800.000	0.103	0.301
-234.830	800.000	0.137	0.373
-233.815	-166.571	-0.061	-0.002
-232.800	125.689	0.092	-0.114
-231.786	124.366	-0.156	-0.193
-230.771	-200.000	-0.003	-0.109
-229.757	-200.000	-0.031	-0.323
-228.742	-6.091	-0.170	0.114
-227.727	83.003	-0.122	-0.130
-226.713	-200.000	0.075	0.559
-225.698	800.000	0.048	0.169
-224.684	-200.000	-0.003	-0.017
-223.669	-73.494	0.253	-0.091
-222.655	-200.000	0.004	-0.105
-221.640	653.927	-0.210	0.531
-220.625	233.482	-0.091	-0.147
-219.611	-142.872	-0.209	-0.020
-218.596	-103.063	0.206	0.048
-217.582	800.000	-0.086	0.275
-216.567	-104.051	0.102	0.023
-215.552	-21.625	-0.123	-0.074
-214.538	-200.000	0.011	0.054
-213.523	-74.125	-0.208	-0.074
-212.509	-47.940	0.397	-0.189
-211.494	158.914	-0.258	0.352
-210.479	800.000	-0.039	-0.111
-209.465	170.549	-0.015	0.021
-208.450	322.838	0.068	0.127
-207.436	-43.199	0.377	0.188
-206.421	99.725	-0.034	0.038
-205.406	133.378	-0.103	0.131
-204.392	-158.253	0.115	0.007
-203.377	93.271	0.183	-0.203
-202.363	30.245	-0.160	0.134
-201.348	800.000	0.057	-0.171
-200.333	189.056	0.207	-0.304
-199.319	161.689	-0.132	-0.182
-198.304	-200.000	-0.010	0.224
-197.290	-55.787	0.240	0.105
-196.275	-200.000	0.025	0.149
-195.260	-160.140	0.305	-0.016
-194.246	-65.854	-0.292	0.115
-193.231	-176.807	0.215	0.005
-192.217	62.473	-0.108	-0.106
-191.202	-49.970	-0.299	-0.139
-190.187	-12.621	-0.112	0.072
-189.173	-33.551	0.446	0.242
-188.158	-138.381	-0.009	-0.001
-187.144	14.909	-0.140	0.107
-186.129	428.334	-0.161	0.341
-185.114	800.000	-0.073	-0.226
-184.100	82.676	-0.136	0.145
-183.085	564.832	-0.125	-0.297
-182.071	169.717	-0.131	-0.184
-181.056	572.125	0.026	-0.062
-180.042	-85.957	0.174	0.053
-179.027	171.089	0.071	0.100
-178.012	-200.000	-0.009	-0.128
-176.998	-167.181	-0.297	-0.012
-175.983	-200.000	-0.065	-0.313
-174.969	1.274	0.172	-0.121
-173.954	479.023	0.062	0.137
-172.939	800.000	0.090	0.246
-171.925	-44.809	-0.177	0.087
-170.910	-79.960	-0.118	-0.039
-169.896	800.000	-0.038	0.137
-168.881	63.679	-0.033	0.033
-167.866	687.134	-0.051	-0.132
-166.852	530.298	0.073	0.169
-165.837	-200.000	0.029	0.133
-164.823	-75.373	0.163	-0.057
-163.808	800.000	-0.044	0.137
-162.793	19.471	0.135	-0.107
-161.779	-145.210	-0.194	0.017
-160.764	800.000	-0.090	-0.270
-159.750	-200.000	0.013	0.136
-158.735	412.405	-0.039	0.082
-157.720	-163.052	-0.468	-0.022
-156.706	800.000	-0.069	0.282
-155.691	-133.486	0.197	-0.024
-154.677	-50.552	-0.155	-0.072
-153.662	800.000	0.011	-0.038
-152.647	-143.169	-0.139	-0.013
-151.633	-127.596	0.409	-0.058
-150.618	191.756	0.122	-0.181
-149.604	-200.000	0.037	0.222
-148.589	783.626	-0.038	-0.101
-147.574	-99.921	-0.212	-0.052
-146.560	-45.097	0.222	0.108
-145.545	-63.203	-0.263	0.106
-144.531	340.114	0.046	-0.088
-143.516	-200.000	-0.016	-0.142
-142.502	-132.726	-0.280	0.035
-141.487	218.817	-0.085	-0.133
-140.472	27.685	0.079	-0.065
-139.458	800.000	0.078	-0.224
-138.443	-200.000	-0.016	-0.126
-137.429	309.650	-0.117	-0.215
-136.414	24.516	-0.172	0.139
-135.399	72.575	0.314	0.321
-134.385	-98.248	-0.147	0.037
-133.370	-200.000	0.084	-0.381
-132.356	-115.137	0.195	0.036
-131.341	81.149	-0.103	0.109
-130.326	-200.000	0.007	-0.191
-129.312	515.836	0.015	-0.034
-128.297	-97.969	0.331	-0.084
-127.283	-39.223	-0.197	0.101
-126.268	3.395	0.179	0.128
-125.253	68.224	0.221	0.222
-124.239	317.435	0.124	-0.230
-123.224	35.473	-0.025	-0.022
-122.210	-181.998	0.382	-0.007
