DTS Sentinel unit serial number:	SN413079Multiplexer serial number:	ORYXHardware model number:	OX4-SRSoftware version number:	ORYX F/W v4.00 Oryx Data Collector v3.7.2.0data status	okinstallation	princeton_trtdifferential loss correction	single-endedforward channel	channel 2reverse channel	N/Adate	2019/09/17time	10:15:34forward acquisition time	60.00reverse acquisition time	0.00gamma	496.2192k internal	0.2325k external	0.2325temperature offset calibration	0.9974default loss term (dB/km)	0.3790temperature slope calibration	1.0000multiplexer offset coefficient	1.0000multiplexer slope coefficient	1.0000fibre end	0.00T internal ref (°C)	29.81T ext. ref 1 (°C)	0.16T ext. ref 2 (°C)	25.33length (m)	temperature (°C)	Stokes	anti-Stokes-747.200	-96.683	-0.364	-0.097
-746.185	89.926	0.346	0.390
-745.171	800.000	-0.111	0.340
-744.156	-65.607	-0.254	0.103
-743.142	98.145	-0.154	0.179
-742.127	423.717	-0.080	0.173
-741.112	-9.009	0.303	-0.205
-740.098	445.067	-0.071	0.157
-739.083	800.000	0.074	-0.270
-738.069	-145.027	-0.179	0.016
-737.054	603.521	0.087	0.218
-736.039	135.821	-0.034	0.044
-735.025	297.973	0.164	-0.304
-734.010	800.000	-0.017	0.050
-732.996	-122.653	-0.420	0.069
-731.981	664.501	-0.050	-0.129
-730.966	-200.000	0.006	0.056
-729.952	-162.758	-0.277	-0.014
-728.937	-45.660	-0.171	-0.085
-727.923	-80.700	-0.151	0.051
-726.908	240.327	-0.089	0.150
-725.894	550.063	0.019	-0.046
-724.879	-32.041	-0.412	0.232
-723.864	800.000	0.069	0.291
-722.850	457.035	-0.107	-0.238
-721.835	546.256	0.095	0.229
-720.821	164.840	0.185	-0.263
-719.806	-200.000	0.003	-0.088
-718.791	33.232	0.198	0.173
-717.777	9.018	-0.085	0.064
-716.762	-84.458	-0.528	0.168
-715.748	-13.553	0.238	-0.155
-714.733	-80.782	-0.138	0.046
-713.718	-132.013	-0.226	0.030
-712.704	-23.499	-0.107	-0.065
-711.689	-51.086	0.092	-0.043
-710.675	354.125	0.077	0.154
-709.660	-139.256	-0.197	0.021
-708.645	-200.000	0.010	-0.181
-707.631	-145.850	0.299	0.027
-706.616	800.000	0.068	0.207
-705.602	364.844	0.068	0.139
-704.587	-129.618	0.183	0.025
-703.572	-83.632	-0.250	0.080
-702.558	152.780	0.051	-0.070
-701.543	359.510	0.117	-0.236
-700.529	-134.785	-0.188	-0.023
-699.514	332.512	-0.097	0.189
-698.499	-123.479	0.069	-0.011
-697.485	-200.000	-0.075	-0.435
-696.470	800.000	-0.058	-0.197
-695.456	-22.408	0.172	0.105
-694.441	-91.700	-0.326	0.093
-693.426	347.158	-0.027	0.054
-692.412	0.090	-0.100	0.072
-691.397	-26.259	0.062	0.037
-690.383	159.441	-0.056	0.078
-689.368	11.982	0.127	-0.099
-688.354	149.607	-0.306	-0.417
-687.339	-66.587	0.226	0.090
-686.324	-141.105	0.183	-0.019
-685.310	-200.000	0.030	-0.439
-684.295	-120.217	0.123	-0.021
-683.281	398.908	-0.038	0.081
-682.266	-122.618	-0.181	-0.030
-681.251	-200.000	0.039	-0.345
-680.237	-135.451	0.275	-0.033
-679.222	-12.223	0.223	0.146
-678.208	-200.000	0.005	0.167
-677.193	-140.971	-0.303	-0.031
-676.178	56.841	-0.071	-0.069
-675.164	119.359	0.113	-0.141
-674.149	-13.083	0.281	0.183
-673.135	800.000	-0.143	-0.432
-672.120	-146.595	0.068	0.006
-671.105	-200.000	0.060	0.410
-670.091	33.252	0.295	0.258
-669.076	97.431	-0.267	-0.309
-668.062	-97.162	0.268	0.070
-667.047	366.001	-0.066	-0.133
-666.032	109.544	0.302	-0.364
-665.018	453.482	0.058	0.128
-664.003	800.000	0.047	-0.178
-662.989	472.484	-0.076	0.172
-661.974	-200.000	-0.033	0.255
-660.959	800.000	0.088	0.321
-659.945	800.000	-0.035	-0.126
-658.930	-200.000	-0.001	-0.004
-657.916	-43.455	-0.240	0.122
-656.901	-37.393	0.059	0.031
-655.886	-38.839	-0.157	0.083
-654.872	-36.782	-0.054	-0.029
-653.857	-113.532	0.288	0.057
-652.843	-37.850	0.187	0.100
-651.828	-200.000	0.041	0.222
-650.814	75.844	0.203	-0.216
-649.799	-200.000	-0.001	-0.213
-648.784	-200.000	-0.022	0.241
-647.770	-200.000	0.045	0.478
-646.755	-200.000	0.022	0.122
-645.741	-115.125	-0.308	-0.059
-644.726	317.374	0.217	-0.412
-643.711	800.000	0.013	-0.040
-642.697	-200.000	-0.013	-0.224
-641.682	-200.000	0.013	-0.276
-640.668	274.897	-0.142	0.253
-639.653	-94.497	0.009	-0.002
-638.638	345.756	0.077	0.152
-637.624	797.170	0.058	-0.161
-636.609	800.000	-0.033	0.139
-635.595	-71.317	0.109	0.041
-634.580	-200.000	-0.056	-0.367
-633.565	-7.832	0.066	-0.045
-632.551	-48.063	-0.254	0.123
-631.536	22.086	0.148	0.121
-630.522	-70.579	-0.124	0.047
-629.507	635.237	0.087	0.221
-628.492	404.709	-0.074	-0.157
-627.478	800.000	-0.059	0.220
-626.463	-26.472	0.061	-0.036
-625.449	47.843	-0.347	0.326
-624.434	-63.721	0.113	0.047
-623.419	800.000	-0.143	0.418
-622.405	-25.974	-0.047	-0.028
-621.390	-25.267	0.250	-0.148
-620.376	800.000	0.061	-0.196
-619.361	477.432	-0.152	-0.345
-618.346	68.660	-0.031	0.032
-617.332	-151.728	0.375	-0.028
-616.317	331.196	-0.066	-0.127
-615.303	-171.929	-0.230	-0.008
-614.288	204.360	0.172	-0.267
-613.273	-200.000	-0.018	-0.199
-612.259	-168.680	0.373	0.014
-611.244	-185.292	0.207	-0.003
-610.230	20.834	0.200	0.162
-609.215	57.152	0.078	-0.077
-608.201	-200.000	0.002	-0.115
-607.186	247.636	0.082	0.139
-606.171	-66.423	0.206	0.082
-605.157	-154.048	-0.265	-0.018
-604.142	420.801	-0.117	0.252
-603.128	-92.479	-0.182	0.051
-602.113	497.395	-0.156	-0.361
-601.098	-52.120	0.117	0.054
-600.084	127.634	0.187	0.238
-599.069	-8.076	-0.209	0.141
-598.055	-165.423	0.034	-0.002
-597.040	104.066	-0.190	0.224
-596.025	-119.787	-0.192	0.033
-595.011	-39.625	-0.290	0.152
-593.996	-200.000	0.007	0.045
-592.982	800.000	-0.078	-0.251
-591.967	24.017	-0.190	-0.157
-590.952	-200.000	0.032	-0.488
-589.938	-39.598	-0.283	0.148
-588.923	-188.295	-0.121	0.002
-587.909	-191.305	-0.264	-0.003
-586.894	-153.355	-0.280	-0.020
-585.879	-160.344	-0.094	-0.005
-584.865	612.593	-0.029	-0.073
-583.850	-200.000	0.033	0.153
-582.836	-200.000	0.004	0.132
-581.821	643.156	0.069	-0.177
-580.806	-83.871	-0.092	0.029
-579.792	17.324	-0.201	0.160
-578.777	-40.967	-0.271	0.141
-577.763	187.483	0.182	-0.272
-576.748	273.371	-0.063	0.111
-575.733	-104.599	0.123	0.028
-574.719	-58.638	-0.291	0.127
-573.704	800.000	0.059	-0.163
-572.690	-145.478	0.204	-0.018
-571.675	56.960	-0.116	-0.113
-570.661	-121.523	-0.132	-0.022
-569.646	449.397	-0.240	0.531
-568.631	-194.704	-0.182	-0.001
-567.617	-200.000	-0.026	0.157
-566.602	298.083	-0.076	0.140
-565.588	800.000	-0.120	0.370
-564.573	-124.975	-0.038	-0.006
-563.558	494.035	-0.064	-0.147
-562.544	800.000	-0.113	-0.367
-561.529	-13.702	0.098	0.064
-560.515	148.368	0.051	-0.069
-559.500	58.206	-0.083	-0.082
-558.485	17.697	-0.180	-0.143
-557.471	800.000	-0.022	0.082
-556.456	800.000	-0.063	-0.175
-555.442	-34.599	-0.182	0.100
-554.427	-80.084	-0.303	-0.102
-553.412	301.246	0.041	0.075
-552.398	-15.981	0.100	-0.064
-551.383	270.334	-0.040	-0.070
-550.369	800.000	-0.072	0.266
-549.354	-107.362	-0.357	0.078
-548.339	-143.214	0.233	0.022
-547.325	-177.671	0.117	-0.003
-546.310	63.014	0.242	-0.242
-545.296	-200.000	0.002	-0.045
-544.281	-145.960	-0.245	-0.022
-543.266	229.477	0.064	-0.104
-542.252	-82.033	-0.394	-0.129
-541.237	-79.507	0.279	-0.094
-540.223	222.896	-0.165	0.266
-539.208	-145.354	-0.105	0.009
-538.193	276.707	0.076	-0.134
-537.179	118.374	0.069	-0.085
-536.164	110.932	0.067	-0.081
-535.150	-96.975	-0.253	-0.066
-534.135	-200.000	0.008	0.153
-533.121	295.203	-0.089	-0.164
-532.106	105.209	0.157	0.185
-531.091	-134.167	0.170	-0.021
-530.077	-120.161	0.242	-0.041
-529.062	-200.000	0.005	-0.045
-528.048	174.125	0.085	0.123
-527.033	207.027	0.227	0.354
-526.018	-77.488	-0.223	-0.078
-525.004	152.924	0.226	0.309
-523.989	800.000	0.118	-0.388
-522.975	218.462	0.111	-0.178
-521.960	-101.732	-0.178	-0.043
-520.945	476.011	-0.230	0.520
-519.931	406.378	0.208	0.439
-518.916	-98.158	-0.038	-0.010
-517.902	191.339	-0.134	-0.202
-516.887	29.048	0.034	0.029
-515.872	-200.000	-0.040	0.221
-514.858	-172.197	-0.142	0.005
-513.843	194.884	-0.116	0.176
-512.829	-95.398	0.335	-0.090
-511.814	-146.902	0.343	-0.029
-510.799	133.075	-0.120	0.155
-509.785	13.730	-0.336	-0.261
-508.770	181.479	-0.095	0.140
-507.756	-30.053	0.262	0.149
-506.741	-22.005	-0.150	0.091
-505.726	-156.998	-0.210	-0.013
-504.712	7.171	-0.225	-0.168
-503.697	-200.000	0.013	-0.454
-502.683	-49.868	0.110	0.052
-501.668	-58.443	-0.381	-0.166
-500.653	-200.000	0.074	-0.393
-499.639	-179.223	0.238	-0.005
-498.624	-49.002	-0.238	-0.114
-497.610	-42.303	0.181	0.092
-496.595	236.002	-0.278	-0.459
-495.581	-11.220	-0.145	0.095
-494.566	-200.000	0.001	0.067
-493.551	419.360	0.150	-0.322
-492.537	800.000	-0.105	-0.290
-491.522	493.484	-0.104	-0.237
-490.508	30.243	-0.210	0.179
-489.493	-200.000	0.048	0.370
-488.478	115.016	-0.185	-0.225
-487.464	91.829	0.140	-0.157
-486.449	-200.000	0.010	0.203
-485.435	-200.000	0.045	0.230
-484.420	257.113	-0.043	-0.073
-483.405	-94.667	-0.115	-0.031
-482.391	800.000	-0.046	0.176
-481.376	31.411	0.145	-0.125
-480.362	435.418	0.109	-0.237
-479.347	-31.280	0.085	-0.048
-478.332	73.596	0.320	-0.335
-477.318	-200.000	0.072	-0.458
-476.303	603.987	-0.076	0.188
-475.289	299.782	0.043	-0.078
-474.274	3.368	0.054	0.039
-473.259	-10.897	-0.238	0.157
-472.245	72.602	0.113	0.117
-471.230	278.715	0.137	-0.243
-470.216	-200.000	0.043	-0.318
-469.201	-89.678	0.183	-0.053
-468.186	-200.000	-0.082	-0.433
-467.172	-200.000	-0.036	-0.262
-466.157	-200.000	0.016	0.155
-465.143	342.123	-0.055	-0.107
-464.128	800.000	-0.094	0.327
-463.113	-129.599	-0.113	0.016
-462.099	-33.087	0.150	-0.083
-461.084	206.503	0.168	-0.262
-460.070	-140.495	0.278	-0.029
-459.055	-105.421	-0.488	-0.111
-458.040	-58.121	-0.104	-0.045
-457.026	20.523	0.247	0.200
-456.011	220.562	0.117	-0.188
-454.997	42.218	0.124	-0.112
-453.982	-108.918	0.278	0.059
-452.968	17.615	-0.200	-0.159
-451.953	-49.881	0.143	-0.068
-450.938	106.208	-0.102	-0.120
-449.924	-138.165	-0.368	0.041
-448.909	363.629	-0.042	-0.085
-447.895	-130.739	0.118	-0.016
-446.880	800.000	0.024	0.095
-445.865	-200.000	0.002	-0.091
-444.851	800.000	0.041	-0.156
-443.836	-200.000	-0.013	-0.280
-442.822	-200.000	0.010	0.393
-441.807	-200.000	-0.035	0.167
-440.792	-17.944	0.209	0.131
-439.778	230.053	-0.059	0.095
-438.763	-4.329	-0.072	-0.050
-437.749	800.000	0.044	-0.178
-436.734	230.006	-0.076	0.124
-435.719	-83.605	0.050	-0.016
-434.705	6.973	0.329	-0.244
-433.690	247.919	0.054	0.091
-432.676	764.148	-0.095	0.257
-431.661	30.927	0.122	0.104
-430.646	-106.541	0.183	-0.041
-429.632	171.987	0.093	-0.133
-428.617	331.480	0.156	0.299
-427.603	127.212	-0.218	-0.276
-426.588	-200.000	0.037	-0.433
-425.573	-102.182	-0.259	0.062
-424.559	402.781	-0.106	0.222
-423.544	-188.618	0.051	-0.001
-422.530	-140.498	-0.145	0.015
-421.515	-10.953	-0.168	-0.111
-420.500	800.000	0.070	-0.203
-419.486	-200.000	-0.062	-0.315
-418.471	-102.383	0.235	-0.056
-417.457	40.477	-0.090	-0.080
-416.442	-7.435	-0.270	0.182
-415.428	173.925	-0.217	-0.313
-414.413	-33.763	-0.094	-0.052
-413.398	-149.816	0.296	0.023
-412.384	207.993	-0.259	0.402
-411.369	800.000	-0.016	-0.055
-410.355	-200.000	-0.034	-0.375
-409.340	608.310	-0.030	-0.074
-408.325	-200.000	-0.008	0.186
-407.311	-67.933	0.286	0.111
-406.296	-200.000	-0.009	-0.212
-405.282	-114.698	0.258	0.049
-404.267	-200.000	-0.008	0.133
-403.252	13.190	0.277	0.214
-402.238	-200.000	-0.017	0.103
-401.223	-5.802	-0.074	0.050
-400.209	657.209	0.109	-0.280
-399.194	-200.000	0.001	0.015
-398.179	-200.000	0.029	-0.223
-397.165	117.213	-0.043	0.053
-396.150	800.000	-0.102	0.286
-395.136	-178.432	-0.335	-0.008
-394.121	253.154	0.132	-0.225
-393.106	400.110	-0.128	0.268
-392.092	-30.775	0.310	-0.174
-391.077	64.215	0.263	-0.263
-390.063	230.027	-0.132	-0.214
-389.048	-66.646	0.120	0.047
-388.033	-200.000	-0.020	0.091
-387.019	-79.822	-0.255	-0.085
-386.004	27.089	0.281	-0.235
-384.990	-101.446	-0.198	0.048
-383.975	-200.000	-0.042	0.255
-382.960	-75.252	0.241	-0.086
-381.946	112.012	0.024	-0.029
-380.931	486.437	0.075	0.171
-379.917	-200.000	0.007	0.256
-378.902	6.094	-0.107	0.079
-377.888	-123.139	0.146	0.023
-376.873	329.093	-0.201	0.385
-375.858	-200.000	0.035	-0.170
-374.844	6.144	0.145	0.107
-373.829	133.653	-0.131	0.168
-372.815	-40.972	0.287	0.147
-371.800	-79.179	0.162	0.055
-370.785	-21.595	-0.197	0.120
-369.771	175.365	-0.093	-0.134
-368.756	-54.751	0.252	-0.113
-367.742	148.066	0.076	0.102
-366.727	-200.000	-0.003	0.079
-365.712	-126.359	0.094	-0.014
-364.698	800.000	-0.063	-0.212
-363.683	-200.000	-0.008	0.182
-362.669	-51.211	0.250	-0.116
-361.654	-91.696	-0.159	-0.045
-360.639	99.162	-0.184	0.211
-359.625	-200.000	-0.096	0.469
-358.610	-200.000	-0.010	0.091
-357.596	-0.722	-0.192	0.135
-356.581	-200.000	-0.002	0.204
-355.566	-65.080	0.187	0.075
-354.552	38.826	-0.163	0.144
-353.537	-118.776	0.114	-0.020
-352.523	-125.621	-0.268	0.040
-351.508	800.000	-0.072	-0.230
-350.493	-200.000	0.034	-0.320
-349.479	-80.109	0.099	0.033
-348.464	-53.378	-0.185	0.084
-347.450	-200.000	0.001	-0.244
-346.435	-60.496	-0.177	-0.075
-345.420	169.110	-0.227	-0.322
-344.406	-74.409	0.146	0.052
-343.391	-89.503	-0.173	-0.051
-342.377	44.026	0.213	0.194
-341.362	183.443	-0.133	0.195
-340.348	-39.054	0.106	-0.055
-339.333	-200.000	-0.030	0.211
-338.318	-75.224	0.161	-0.057
-337.304	-4.091	-0.220	0.151
-336.289	800.000	-0.025	-0.102
-335.275	-51.977	0.337	0.155
-334.260	-103.482	0.204	-0.048
-333.245	-193.431	0.063	-0.001
-332.231	-78.074	-0.112	-0.038
-331.216	-8.225	0.160	-0.107
-330.202	-10.828	0.182	-0.119
-329.187	79.486	-0.161	-0.172
-328.172	800.000	-0.061	0.259
-327.158	707.013	0.127	-0.332
-326.143	193.570	0.088	0.132
-325.129	-200.000	0.026	0.204
-324.114	197.242	0.168	0.254
-323.099	315.148	-0.233	-0.437
-322.085	38.084	-0.117	-0.103
-321.070	583.992	-0.168	0.410
-320.056	-54.629	0.193	-0.086
-319.041	-111.972	-0.033	-0.007
-318.026	-200.000	0.023	0.171
-317.012	-200.000	0.038	-0.290
-315.997	-117.435	0.141	-0.025
-314.983	-42.954	-0.195	-0.098
-313.968	581.455	0.032	0.077
-312.953	169.290	-0.066	0.093
-311.939	-200.000	-0.070	-0.319
-310.924	800.000	0.069	0.245
-309.910	202.064	-0.095	0.146
-308.895	-200.000	-0.012	0.296
-307.880	579.015	0.071	0.173
-306.866	-163.871	0.113	0.005
-305.851	-88.505	-0.306	-0.090
-304.837	212.451	0.320	-0.501
-303.822	138.848	0.035	-0.045
-302.807	-109.261	0.088	0.019
-301.793	800.000	0.085	0.283
-300.778	-116.009	-0.216	0.040
-299.764	-112.892	0.409	0.080
-298.749	282.938	-0.165	0.294
-297.735	68.516	0.150	-0.152
-296.720	24.441	-0.133	-0.109
-295.705	-200.000	0.028	-0.144
-294.691	196.612	0.179	-0.270
-293.676	170.963	-0.106	0.150
-292.662	800.000	0.084	0.232
-291.647	-9.577	-0.141	-0.093
-290.632	81.921	0.101	-0.108
-289.618	-63.624	-0.470	0.191
-288.603	800.000	0.138	0.402
-287.589	-63.992	-0.260	-0.105
-286.574	598.099	0.068	-0.167
-285.559	800.000	0.066	-0.211
-284.545	-200.000	-0.006	0.055
-283.530	-10.404	0.282	-0.185
-282.516	-8.672	-0.123	0.082
-281.501	-95.632	0.219	0.058
-280.486	155.382	0.027	-0.037
-279.472	-15.286	0.158	-0.100
-278.457	-200.000	-0.006	0.300
-277.443	-163.968	-0.219	-0.010
-276.428	-80.173	-0.218	0.072
-275.413	-200.000	0.052	-0.318
-274.399	800.000	-0.146	0.494
-273.384	-5.461	0.250	0.170
-272.370	16.777	-0.171	0.134
-271.355	-107.885	-0.118	-0.025
-270.340	3.208	0.129	-0.093
-269.326	-117.242	-0.289	0.052
-268.311	116.979	0.105	0.127
-267.297	141.167	0.249	0.326
-266.282	216.614	0.106	-0.168
-265.267	-200.000	0.021	-0.197
-264.253	739.840	0.060	0.159
-263.238	84.563	0.081	-0.088
-262.224	-138.510	0.286	-0.031
-261.209	13.023	-0.213	0.163
-260.195	-97.544	-0.270	-0.069
-259.180	272.326	0.013	0.023
-258.165	800.000	-0.118	0.334
-257.151	370.811	-0.124	0.250
-256.136	-19.265	0.257	0.158
-255.122	-200.000	0.014	0.093
-254.107	-200.000	-0.029	0.143
-253.092	83.981	0.186	0.201
-252.078	-167.355	0.556	0.022
-251.063	163.372	-0.143	-0.199
-250.049	-112.828	0.255	0.050
-249.034	783.742	-0.112	-0.304
-248.019	-200.000	-0.034	0.267
-247.005	-67.063	-0.218	-0.085
-245.990	88.293	0.078	0.085
-244.976	-151.682	-0.167	-0.012
-243.961	211.810	-0.164	0.255
-242.946	33.992	-0.170	0.146
-241.932	-88.815	-0.203	0.060
-240.917	69.864	-0.264	-0.269
-239.903	2.523	-0.188	0.134
-238.888	53.612	-0.107	0.102
-237.873	95.040	-0.084	-0.095
-236.859	800.000	0.045	-0.180
-235.844	-23.821	-0.062	-0.037
-234.830	-48.180	-0.157	0.075
-233.815	692.354	0.010	0.026
-232.800	-124.424	0.226	-0.035
-231.786	9.905	0.271	-0.203
-230.771	-115.644	0.235	-0.044
-229.757	-18.885	0.018	0.011
-228.742	-200.000	-0.043	-0.411
-227.727	-28.323	-0.071	0.040
-226.713	-82.734	0.549	0.176
-225.698	-101.235	-0.254	-0.061
-224.684	-111.838	-0.099	0.020
-223.669	171.126	0.055	-0.078
-222.655	99.049	0.188	-0.215
-221.640	54.197	0.202	0.192
-220.625	-200.000	0.050	-0.356
-219.611	99.428	-0.183	0.210
-218.596	-200.000	0.015	-0.280
-217.582	-79.411	0.509	-0.170
-216.567	-144.934	-0.172	0.016
-215.552	-107.640	0.173	-0.037
-214.538	-34.727	0.040	-0.022
-213.523	-138.737	0.495	0.053
-212.509	-138.092	0.138	-0.015
-211.494	412.301	0.193	0.405
-210.479	-80.597	0.138	0.045
-209.465	334.258	-0.086	0.165
-208.450	22.721	0.089	-0.072
-207.436	-83.291	-0.159	0.050
-206.421	54.351	-0.218	0.207
-205.406	-16.250	-0.210	-0.132
-204.392	97.395	0.040	0.045
-203.377	38.140	0.157	-0.138
-202.363	800.000	0.030	0.098
-201.348	-196.232	-0.123	-0.001
-200.333	800.000	0.020	-0.085
-199.319	-117.062	-0.080	-0.014
-198.304	-124.035	0.243	0.038
-197.290	125.313	0.127	0.158
-196.275	-97.359	-0.224	-0.058
-195.260	580.350	0.173	-0.418
-194.246	-200.000	0.030	0.387
-193.231	442.468	0.080	-0.174
-192.217	-200.000	-0.003	-0.091
-191.202	-29.863	0.229	-0.129
-190.187	800.000	0.031	-0.096
-189.173	-113.343	-0.294	-0.057
-188.158	-110.122	0.196	0.040
-187.144	800.000	0.018	0.060
-186.129	-50.732	-0.172	-0.080
-185.114	-88.771	-0.148	-0.043
-184.100	-110.753	-0.337	-0.069
-183.085	166.442	0.030	-0.042
-182.071	-50.099	0.209	0.098
-181.056	391.745	0.074	-0.152
-180.042	-1.075	0.404	0.282
-179.027	800.000	0.049	-0.167
-178.012	-200.000	0.038	0.275
-176.998	-61.552	0.333	0.138
-175.983	50.496	0.130	0.121
-174.969	-81.456	0.103	-0.033
-173.954	-175.947	0.016	0.000
-172.939	-98.040	0.355	0.090
-171.925	206.325	0.104	0.160
-170.910	-112.285	-0.259	-0.051
-169.896	-200.000	0.064	0.419
-168.881	523.703	-0.045	-0.104
-167.866	556.651	-0.043	0.103
-166.852	172.010	-0.123	-0.175
-165.837	-105.831	0.196	0.044
-164.823	327.440	-0.031	-0.059
-163.808	-22.876	-0.122	0.072
-162.793	-96.942	-0.226	0.058
-161.779	-51.149	-0.251	0.116
-160.764	-89.507	0.319	0.092
-159.750	-200.000	-0.026	0.207
-158.735	-43.278	0.141	0.070
-157.720	86.062	0.177	-0.192
-156.706	800.000	0.106	0.289
-155.691	-81.335	-0.381	-0.124
-154.677	566.842	0.024	0.058
-153.662	-200.000	0.001	-0.138
-152.647	800.000	0.139	-0.475
-151.633	-90.823	0.031	0.009
-150.618	382.544	0.173	0.351
-149.604	47.494	0.288	0.265
-148.589	-24.369	0.045	0.026
-147.574	-97.432	-0.283	0.072
-146.560	-200.000	0.074	-0.361
-145.545	-113.899	-0.054	-0.010
-144.531	800.000	0.108	-0.404
-143.516	-121.879	0.269	-0.044
-142.502	691.650	0.120	-0.311
-141.487	-101.271	-0.216	0.052
-140.472	-200.000	-0.077	0.418
-139.458	24.674	0.224	0.182
-138.443	194.577	-0.042	-0.062
-137.429	544.886	-0.039	0.092
-136.414	254.649	-0.103	-0.174
-135.399	-30.341	0.271	0.151
-134.385	230.136	0.115	-0.185
-133.370	-200.000	-0.009	-0.150
-132.356	12.314	0.350	0.265
-131.341	-112.824	-0.164	0.032
-130.326	461.598	0.097	-0.214
-129.312	-200.000	0.028	-0.173
-128.297	-200.000	0.036	-0.262
-127.283	800.000	0.065	0.194
-126.268	330.329	0.131	-0.249
-125.253	-190.448	-0.344	0.004
-124.239	-200.000	0.033	0.201
-123.224	-73.915	0.346	0.124
-122.210	-200.000	0.070	0.506
