DTS Sentinel unit serial number:	SN413079Multiplexer serial number:	ORYXHardware model number:	OX4-SRSoftware version number:	ORYX F/W v4.00 Oryx Data Collector v3.7.2.0data status	okinstallation	princeton_trtdifferential loss correction	single-endedforward channel	channel 2reverse channel	N/Adate	2019/09/13time	01:43:35forward acquisition time	60.00reverse acquisition time	0.00gamma	496.2192k internal	0.2334k external	0.2334temperature offset calibration	1.0174default loss term (dB/km)	0.3790temperature slope calibration	1.0000multiplexer offset coefficient	1.0000multiplexer slope coefficient	1.0000fibre end	0.00T internal ref (°C)	27.72T ext. ref 1 (°C)	3.79T ext. ref 2 (°C)	22.35length (m)	temperature (°C)	Stokes	anti-Stokes-747.200	-53.732	0.208	0.096
-746.185	94.789	-0.276	0.316
-745.171	-15.421	-0.148	0.095
-744.156	61.115	-0.052	0.052
-743.142	171.521	0.189	-0.273
-742.127	-200.000	-0.070	0.459
-741.112	-200.000	0.032	-0.307
-740.098	238.984	-0.147	0.246
-739.083	429.598	-0.069	-0.149
-738.069	-200.000	0.049	0.352
-737.054	245.067	-0.225	0.380
-736.039	106.392	-0.164	-0.196
-735.025	373.732	0.144	0.295
-734.010	-177.810	-0.316	0.008
-732.996	114.608	-0.091	-0.111
-731.981	-143.461	-0.030	-0.003
-730.966	-200.000	-0.035	0.295
-729.952	22.096	-0.155	0.127
-728.937	56.197	-0.095	-0.093
-727.923	800.000	-0.042	-0.185
-726.908	-59.893	-0.260	-0.112
-725.894	23.490	-0.165	0.136
-724.879	800.000	-0.058	-0.162
-723.864	332.405	-0.115	0.223
-722.850	-200.000	-0.018	-0.084
-721.835	165.306	0.104	-0.147
-720.821	39.368	-0.046	0.042
-719.806	-200.000	0.023	0.194
-718.791	107.228	-0.075	0.089
-717.777	158.947	-0.345	-0.482
-716.762	496.793	0.161	-0.372
-715.748	-8.367	-0.224	-0.151
-714.733	266.421	-0.052	-0.092
-713.718	228.971	0.180	-0.294
-712.704	-85.608	0.204	-0.064
-711.689	-200.000	0.021	-0.231
-710.675	-200.000	0.031	0.234
-709.660	-77.025	-0.121	-0.042
-708.645	114.430	-0.140	-0.172
-707.631	-53.814	0.051	0.024
-706.616	-28.674	0.213	-0.123
-705.602	138.487	0.108	0.143
-704.587	-19.892	0.149	0.092
-703.572	800.000	-0.057	0.172
-702.558	-180.438	-0.139	-0.003
-701.543	791.826	0.100	0.275
-700.529	-7.421	-0.060	0.041
-699.514	-200.000	0.011	-0.113
-698.499	-20.159	-0.241	-0.149
-697.485	-200.000	0.005	-0.336
-696.470	-110.262	0.087	-0.018
-695.456	-106.104	-0.252	-0.057
-694.441	490.499	-0.003	0.008
-693.426	-50.414	-0.453	0.215
-692.412	308.874	0.150	-0.282
-691.397	-74.525	-0.167	-0.060
-690.383	25.162	0.138	-0.115
-689.368	-136.650	-0.195	-0.023
-688.354	-149.485	-0.218	0.017
-687.339	-200.000	0.026	0.240
-686.324	-127.528	0.150	-0.022
-685.310	-44.168	-0.434	-0.218
-684.295	-200.000	0.090	-0.516
-683.281	-200.000	0.009	0.104
-682.266	127.596	0.083	0.105
-681.251	107.257	-0.116	-0.139
-680.237	89.390	0.041	0.046
-679.222	-42.671	-0.179	0.091
-678.208	-200.000	0.037	-0.310
-677.193	-79.444	-0.179	-0.061
-676.178	-15.524	-0.274	-0.175
-675.164	800.000	-0.117	0.361
-674.149	-166.515	0.257	0.011
-673.135	25.472	-0.269	0.224
-672.120	147.028	-0.220	-0.297
-671.105	106.826	0.089	-0.106
-670.091	-129.779	-0.264	-0.036
-669.076	800.000	0.065	0.278
-668.062	33.392	-0.108	0.094
-667.047	246.401	0.077	-0.130
-666.032	-52.835	-0.175	0.081
-665.018	248.718	0.248	0.421
-664.003	164.882	-0.152	-0.215
-662.989	800.000	-0.028	-0.083
-661.974	-200.000	-0.010	0.133
-660.959	-200.000	-0.017	-0.395
-659.945	27.587	-0.317	0.267
-658.930	-200.000	-0.035	0.583
-657.916	-3.584	-0.337	-0.235
-656.901	194.543	-0.126	-0.192
-655.886	-200.000	-0.004	0.286
-654.872	5.501	-0.131	0.097
-653.857	202.742	0.099	-0.153
-652.843	-170.876	-0.284	-0.010
-651.828	65.376	-0.271	-0.275
-650.814	800.000	-0.017	0.064
-649.799	5.025	0.053	-0.039
-648.784	640.591	0.027	-0.070
-647.770	-161.044	0.188	0.010
-646.755	137.833	-0.117	-0.153
-645.741	71.899	-0.191	0.199
-644.726	121.049	-0.201	-0.250
-643.711	526.862	0.012	-0.029
-642.697	140.053	-0.138	-0.183
-641.682	25.995	0.182	-0.152
-640.668	126.021	0.186	-0.236
-639.653	394.486	-0.095	0.199
-638.638	-10.545	-0.166	-0.110
-637.624	-19.141	-0.398	-0.247
-636.609	800.000	0.097	-0.329
-635.595	-200.000	0.004	0.171
-634.580	-38.894	0.120	-0.063
-633.565	-107.460	-0.146	0.032
-632.551	-164.748	-0.298	-0.013
-631.536	-4.443	-0.082	0.056
-630.522	146.140	-0.140	0.189
-629.507	652.341	-0.035	-0.090
-628.492	-63.098	0.353	0.146
-627.478	42.031	0.096	0.087
-626.463	673.114	0.163	0.424
-625.449	-200.000	-0.002	-0.026
-624.434	-0.150	-0.201	-0.143
-623.419	711.266	-0.037	0.097
-622.405	-200.000	0.046	0.276
-621.390	-119.738	-0.204	0.035
-620.376	-59.048	-0.111	-0.048
-619.361	-125.830	0.036	0.005
-618.346	-177.840	-0.214	-0.005
-617.332	-200.000	0.022	0.195
-616.317	-200.000	-0.022	-0.128
-615.303	51.806	-0.054	0.051
-614.288	-200.000	-0.036	0.217
-613.273	-52.762	0.096	-0.044
-612.259	316.220	-0.095	0.180
-611.244	13.535	0.115	0.089
-610.230	-75.510	0.105	-0.037
-609.215	-74.031	-0.260	0.094
-608.201	79.806	0.123	0.132
-607.186	9.669	0.121	-0.092
-606.171	710.940	0.060	-0.159
-605.157	-62.801	-0.103	0.043
-604.142	-200.000	-0.047	-0.272
-603.128	-200.000	-0.006	0.031
-602.113	-97.431	-0.255	-0.066
-601.098	299.278	0.179	-0.329
-600.084	554.456	-0.142	0.342
-599.069	532.024	-0.125	-0.297
-598.055	-126.748	-0.413	0.061
-597.040	-43.045	0.120	0.061
-596.025	-156.069	0.396	-0.025
-595.011	-52.363	-0.142	-0.066
-593.996	31.373	0.167	-0.143
-592.982	800.000	0.072	0.243
-591.967	-40.612	0.089	0.046
-590.952	800.000	-0.015	0.046
-589.938	-72.264	0.151	-0.056
-588.923	800.000	-0.145	-0.455
-587.909	-71.971	0.214	-0.080
-586.894	-96.221	0.307	0.081
-585.879	-167.880	-0.274	-0.011
-584.865	45.451	-0.186	-0.172
-583.850	637.275	0.040	-0.101
-582.836	61.506	-0.224	-0.223
-581.821	293.483	0.143	0.261
-580.806	356.905	-0.146	-0.290
-579.792	473.461	0.059	-0.132
-578.777	-125.468	-0.200	-0.030
-577.763	-200.000	0.044	-0.230
-576.748	-102.828	-0.117	-0.028
-575.733	-99.194	0.274	-0.069
-574.719	-162.995	0.216	0.010
-573.704	10.437	0.266	-0.202
-572.690	-174.214	-0.447	-0.013
-571.675	-99.767	0.176	-0.044
-570.661	-88.893	0.164	-0.049
-569.646	-173.994	0.367	-0.011
-568.631	-200.000	0.002	-0.364
-567.617	41.187	0.206	-0.186
-566.602	-200.000	0.068	0.483
-565.588	-200.000	-0.029	-0.208
-564.573	290.983	-0.172	-0.313
-563.558	-64.355	-0.286	-0.116
-562.544	59.275	-0.215	-0.211
-561.529	-132.665	-0.164	-0.021
-560.515	-158.698	-0.209	-0.012
-559.500	-37.966	-0.154	0.082
-558.485	-33.900	-0.169	0.093
-557.471	159.660	0.163	0.226
-556.456	-49.410	0.191	0.091
-555.442	-44.141	-0.185	-0.093
-554.427	800.000	-0.102	0.349
-553.412	-200.000	0.049	-0.277
-552.398	247.033	-0.133	-0.225
-551.383	-104.430	-0.152	0.035
-550.369	-200.000	-0.047	0.242
-549.354	-86.739	-0.240	-0.073
-548.339	-145.598	-0.120	-0.011
-547.325	-117.641	0.178	-0.032
-546.310	141.133	0.087	0.114
-545.296	241.414	0.073	0.121
-544.281	-143.110	-0.180	0.017
-543.266	80.116	0.199	-0.214
-542.252	286.646	0.065	-0.116
-541.237	127.621	0.045	-0.057
-540.223	800.000	0.071	0.212
-539.208	-102.822	0.246	0.058
-538.193	-47.629	-0.255	0.123
-537.179	-200.000	-0.019	-0.109
-536.164	800.000	0.031	-0.130
-535.150	31.729	-0.239	-0.205
-534.135	220.035	0.047	0.076
-533.121	170.613	0.098	0.140
-532.106	-200.000	0.011	-0.116
-531.091	411.174	-0.175	-0.371
-530.077	800.000	0.098	-0.386
-529.062	-72.930	0.327	0.120
-528.048	800.000	0.114	0.320
-527.033	234.545	-0.065	-0.107
-526.018	-200.000	0.108	-0.581
-525.004	-96.878	0.281	0.073
-523.989	-101.834	0.076	-0.018
-522.975	106.507	-0.128	0.151
-521.960	68.935	0.059	-0.061
-520.945	1.115	-0.166	0.118
-519.931	-200.000	0.000	0.249
-518.916	-96.567	-0.054	0.014
-517.902	70.114	0.152	-0.157
-516.887	-200.000	0.046	0.242
-515.872	222.891	-0.114	-0.183
-514.858	179.948	-0.125	-0.183
-513.843	-164.171	0.182	-0.008
-512.829	-140.184	0.181	0.019
-511.814	278.865	-0.016	-0.029
-510.799	29.868	-0.079	0.067
-509.785	-93.938	0.137	0.038
-508.770	-44.882	-0.330	-0.164
-507.756	-109.131	0.150	0.032
-506.741	-163.438	0.205	-0.010
-505.726	658.848	0.034	-0.088
-504.712	-200.000	-0.010	0.268
-503.697	-34.697	0.275	0.150
-502.683	132.737	-0.212	0.272
-501.668	-141.877	0.655	0.065
-500.653	800.000	-0.118	-0.411
-499.639	-124.758	-0.366	-0.056
-498.624	-200.000	0.044	-0.390
-497.610	-89.844	-0.200	-0.058
-496.595	-200.000	-0.000	-0.171
-495.581	369.801	0.133	-0.267
-494.566	-96.838	-0.250	-0.065
-493.551	234.789	0.108	-0.177
-492.537	-200.000	0.003	-0.112
-491.522	45.795	0.182	0.167
-490.508	-191.022	-0.266	-0.003
-489.493	83.176	0.229	0.248
-488.478	800.000	0.054	0.218
-487.464	-184.507	0.280	-0.005
-486.449	-59.451	-0.214	-0.092
-485.435	239.931	-0.087	-0.145
-484.420	574.882	0.115	-0.280
-483.405	-112.134	-0.236	-0.047
-482.391	-50.137	0.265	-0.125
-481.376	33.498	-0.144	-0.124
-480.362	-200.000	-0.031	-0.195
-479.347	-50.269	-0.151	0.071
-478.332	800.000	-0.022	-0.087
-477.318	-95.145	-0.087	0.023
-476.303	-200.000	0.034	-0.161
-475.289	-200.000	0.058	0.299
-474.274	73.684	-0.121	0.126
-473.259	2.300	0.051	-0.037
-472.245	73.238	-0.097	0.101
-471.230	156.923	-0.266	0.366
-470.216	169.615	0.101	-0.144
-469.201	682.271	0.095	0.246
-468.186	784.965	0.184	0.501
-467.172	-25.710	-0.082	0.048
-466.157	-20.754	-0.120	-0.073
-465.143	-188.882	0.153	-0.002
-464.128	506.985	0.188	-0.433
-463.113	-141.392	0.225	0.023
-462.099	404.976	-0.075	-0.157
-461.084	800.000	-0.046	0.196
-460.070	-200.000	0.049	0.272
-459.055	103.732	-0.152	-0.177
-458.040	247.668	-0.225	-0.378
-457.026	-198.419	0.221	-0.001
-456.011	-101.532	0.075	-0.018
-454.997	-8.811	0.136	-0.091
-453.982	15.872	-0.151	0.118
-452.968	-39.791	-0.237	-0.123
-451.953	201.184	-0.124	0.189
-450.938	-200.000	0.071	-0.341
-449.924	127.174	-0.038	-0.048
-448.909	-9.152	-0.391	-0.260
-447.895	-85.846	0.187	-0.058
-446.880	-65.053	-0.174	0.070
-445.865	-70.572	0.119	-0.045
-444.851	-89.231	0.329	0.097
-443.836	-69.681	-0.194	0.074
-442.822	-82.718	0.219	0.070
-441.807	800.000	0.070	0.262
-440.792	-200.000	0.062	0.426
-439.778	19.304	0.237	0.189
-438.763	-95.170	0.175	0.047
-437.749	-14.756	0.099	0.063
-436.734	373.173	-0.087	0.175
-435.719	-200.000	-0.034	0.288
-434.705	-200.000	-0.007	-0.214
-433.690	137.407	-0.155	-0.202
-432.676	352.585	-0.146	0.288
-431.661	800.000	0.052	-0.192
-430.646	-21.247	-0.217	-0.131
-429.632	-119.481	-0.276	0.048
-428.617	-200.000	0.021	0.216
-427.603	-37.037	-0.130	-0.069
-426.588	-200.000	-0.000	-0.270
-425.573	41.729	0.174	-0.156
-424.559	519.026	-0.101	0.235
-423.544	-200.000	-0.030	0.175
-422.530	-129.139	-0.174	0.024
-421.515	-136.164	-0.246	-0.029
-420.500	483.247	0.122	-0.274
-419.486	-2.606	-0.133	-0.092
-418.471	-77.015	0.398	0.138
-417.457	-119.073	-0.115	0.020
-416.442	-15.433	0.083	-0.053
-415.428	-51.781	-0.038	0.017
-414.413	136.616	-0.240	-0.311
-413.398	800.000	0.015	-0.066
-412.384	-31.495	0.028	0.016
-411.369	34.283	-0.165	0.143
-410.355	800.000	-0.059	-0.202
-409.340	81.660	0.130	0.139
-408.325	800.000	0.061	0.230
-407.311	800.000	-0.024	-0.093
-406.296	-51.595	-0.148	0.069
-405.282	-25.473	0.366	0.215
-404.267	-26.739	-0.253	0.147
-403.252	35.763	0.301	0.262
-402.238	-200.000	0.011	-0.095
-401.223	-14.703	0.292	0.186
-400.209	60.892	0.152	0.149
-399.194	-200.000	-0.063	-0.293
-398.179	800.000	-0.118	-0.465
-397.165	800.000	-0.004	-0.016
-396.150	408.357	-0.075	0.157
-395.136	-73.163	0.012	0.004
-394.121	-200.000	0.048	0.276
-393.106	-69.283	0.085	0.033
-392.092	-119.648	-0.233	-0.040
-391.077	365.994	-0.081	0.161
-390.063	31.610	-0.221	0.189
-389.048	800.000	0.018	-0.065
-388.033	691.260	0.051	-0.131
-387.019	204.101	-0.014	0.021
-386.004	800.000	-0.082	-0.250
-384.990	-87.863	0.056	-0.017
-383.975	-9.989	0.054	0.036
-382.960	137.498	-0.031	-0.040
-381.946	-200.000	-0.009	-0.147
-380.931	390.795	0.046	-0.095
-379.917	479.229	0.047	0.107
-378.902	61.368	-0.266	0.262
-377.888	-20.670	0.044	-0.027
-376.873	-200.000	0.004	-0.061
-375.858	-200.000	0.028	0.157
-374.844	118.166	0.168	0.205
-373.829	-133.178	0.194	0.024
-372.815	705.041	-0.035	0.091
-371.800	-99.622	-0.025	0.006
-370.785	-130.550	0.063	-0.008
-369.771	53.258	-0.329	-0.312
-368.756	-200.000	0.036	-0.227
-367.742	800.000	-0.090	0.329
-366.727	153.845	-0.155	-0.210
-365.712	34.572	0.104	-0.090
-364.698	-50.455	-0.416	0.195
-363.683	-155.162	-0.203	-0.013
-362.669	410.605	0.127	-0.266
-361.654	-112.127	0.510	0.102
-360.639	282.382	-0.144	-0.256
-359.625	-200.000	0.040	-0.206
-358.610	-200.000	-0.004	-0.122
-357.596	-200.000	-0.017	-0.075
-356.581	60.863	-0.203	-0.199
-355.566	22.255	0.104	0.084
-354.552	101.254	-0.083	-0.096
-353.537	-200.000	-0.045	0.228
-352.523	-23.844	0.326	0.193
-351.508	-200.000	-0.002	0.064
-350.493	-43.339	0.349	0.175
-349.479	28.719	0.150	0.126
-348.464	102.814	0.212	-0.245
-347.450	800.000	0.056	0.197
-346.435	-200.000	-0.001	0.124
-345.420	-55.600	-0.128	-0.057
-344.406	173.175	-0.027	0.038
-343.391	-50.412	0.200	-0.093
-342.377	800.000	0.115	0.380
-341.362	6.817	-0.268	-0.197
-340.348	5.876	0.095	0.070
-339.333	-74.540	0.143	0.051
-338.318	800.000	-0.037	-0.109
-337.304	-129.786	-0.122	-0.017
-336.289	728.215	0.036	0.094
-335.275	10.480	0.325	0.245
-334.260	-64.951	-0.180	0.072
-333.245	-200.000	0.041	0.187
-332.231	800.000	-0.041	-0.169
-331.216	174.437	-0.143	-0.204
-330.202	-107.819	-0.377	-0.081
-329.187	-100.578	-0.213	-0.052
-328.172	-108.665	0.200	-0.042
-327.158	-200.000	0.104	-0.478
-326.143	-1.462	0.173	0.121
-325.129	-70.071	0.237	-0.089
-324.114	-18.503	-0.336	0.207
-323.099	-39.058	-0.168	-0.088
-322.085	-200.000	0.084	0.414
-321.070	448.819	0.185	0.404
-320.056	19.607	-0.067	-0.053
-319.041	-60.533	0.236	-0.099
-318.026	-23.210	0.145	0.086
-317.012	-200.000	-0.037	0.259
-315.997	-53.664	-0.189	0.085
-314.983	-121.337	-0.229	0.038
-313.968	-67.073	-0.357	-0.139
-312.953	48.809	-0.256	0.238
-311.939	500.651	0.041	0.093
-310.924	23.363	0.178	-0.144
-309.910	-12.243	0.271	-0.175
-308.895	131.094	-0.090	-0.114
-307.880	76.805	0.057	-0.059
-306.866	800.000	0.060	-0.167
-305.851	11.145	-0.209	-0.158
-304.837	48.405	-0.200	0.185
-303.822	-70.689	-0.310	0.116
-302.807	-200.000	0.032	-0.162
-301.793	-200.000	-0.010	0.244
-300.778	-148.458	-0.214	0.017
-299.764	-200.000	0.044	-0.196
-298.749	-200.000	0.137	-0.000
-297.735	-66.883	-0.137	-0.054
-296.720	-200.000	-0.006	-0.244
-295.705	217.975	-0.136	0.214
-294.691	285.779	0.103	0.184
-293.676	-15.003	0.054	0.034
-292.662	-200.000	-0.032	0.261
-291.647	-200.000	-0.010	-0.271
-290.632	-83.291	-0.092	0.029
-289.618	-200.000	-0.011	0.163
-288.603	101.252	0.164	-0.189
-287.589	-51.320	-0.116	0.053
-286.574	-33.363	0.146	-0.080
-285.559	7.422	0.361	-0.266
-284.545	-200.000	0.024	0.320
-283.530	-31.838	0.260	-0.144
-282.516	39.264	-0.063	-0.056
-281.501	493.776	0.056	-0.126
-280.486	43.816	0.129	-0.117
-279.472	800.000	0.005	-0.016
-278.457	-95.842	0.194	-0.051
-277.443	-200.000	-0.033	0.246
-276.428	-90.329	0.145	0.042
-275.413	-23.730	0.290	-0.171
-274.399	-114.375	-0.187	0.036
-273.384	224.579	0.047	-0.076
-272.370	-109.984	0.046	-0.010
-271.355	-107.139	-0.037	0.008
-270.340	15.409	-0.216	-0.167
-269.326	-78.736	-0.060	0.020
-268.311	143.685	0.142	0.187
-267.297	-65.707	0.101	0.040
-266.282	-58.480	0.178	-0.076
-265.267	-22.897	0.017	0.010
-264.253	41.369	-0.201	0.179
-263.238	800.000	-0.096	0.412
-262.224	-6.986	-0.227	-0.152
-261.209	-138.222	0.340	-0.037
-260.195	253.747	0.107	0.181
-259.180	-73.726	0.372	-0.134
-258.165	192.400	-0.032	0.048
-257.151	800.000	-0.089	-0.267
-256.136	800.000	-0.045	-0.142
-255.122	-67.967	-0.098	0.038
-254.107	-87.876	-0.104	-0.031
-253.092	-77.833	0.159	0.054
-252.078	-200.000	-0.018	0.145
-251.063	-87.965	0.277	0.082
-250.049	442.521	-0.014	0.031
-249.034	800.000	-0.070	0.232
-248.019	53.766	-0.077	-0.073
-247.005	-101.893	-0.369	0.088
-245.990	110.435	-0.209	-0.248
-244.976	-200.000	-0.001	-0.171
-243.961	-37.026	0.193	0.102
-242.946	70.973	-0.204	0.208
-241.932	-66.427	0.308	0.120
-240.917	-102.233	-0.094	0.022
-239.903	-159.645	0.148	0.008
-238.888	-61.024	0.031	-0.013
-237.873	-200.000	0.025	-0.251
-236.859	208.487	-0.100	0.154
-235.844	284.387	0.106	0.187
-234.830	35.726	-0.113	0.098
-233.815	800.000	-0.078	0.216
-232.800	137.251	0.089	-0.114
-231.786	7.861	-0.339	-0.250
-230.771	100.207	-0.274	0.313
-229.757	13.209	0.245	0.187
-228.742	-200.000	-0.013	0.313
-227.727	32.910	0.057	-0.049
-226.713	-11.313	-0.250	-0.162
-225.698	76.213	0.188	0.196
-224.684	-200.000	-0.019	0.082
-223.669	-159.851	0.182	-0.010
-222.655	-15.812	0.260	0.163
-221.640	-122.408	-0.263	0.042
-220.625	-144.185	0.194	-0.018
-219.611	-200.000	0.004	0.222
-218.596	-134.392	-0.199	-0.024
-217.582	177.566	0.112	0.160
-216.567	-200.000	0.025	0.207
-215.552	129.165	-0.112	-0.140
-214.538	-78.481	0.106	0.036
-213.523	304.570	0.241	-0.440
-212.509	-200.000	0.014	-0.546
-211.494	-54.800	-0.331	-0.147
-210.479	-28.929	-0.191	0.108
-209.465	-67.975	0.449	-0.173
-208.450	-38.341	0.057	-0.029
-207.436	357.822	0.044	-0.087
-206.421	73.454	-0.231	0.238
-205.406	-200.000	-0.031	-0.157
-204.392	56.655	0.019	-0.018
-203.377	196.961	-0.175	0.263
-202.363	-200.000	0.015	0.208
-201.348	-21.979	-0.170	0.102
-200.333	29.441	-0.193	-0.161
-199.319	65.796	-0.319	-0.318
-198.304	-119.897	-0.314	-0.053
-197.290	8.508	0.198	0.147
-196.275	-63.900	0.470	0.189
-195.260	-76.827	0.392	0.135
-194.246	3.329	0.032	0.023
-193.231	492.160	0.091	0.206
-192.217	77.262	-0.108	-0.113
-191.202	-200.000	0.002	-0.054
-190.187	-51.799	0.252	0.115
-189.173	800.000	-0.075	0.277
-188.158	491.086	0.200	0.450
-187.144	-65.299	0.105	0.041
-186.129	-200.000	-0.012	-0.119
-185.114	39.362	0.189	0.166
-184.100	526.585	-0.064	0.149
-183.085	-200.000	-0.064	-0.354
-182.071	800.000	0.029	-0.084
-181.056	-156.322	0.088	0.005
-180.042	172.533	-0.040	-0.057
-179.027	-80.245	0.235	-0.077
-178.012	432.308	-0.119	0.254
-176.998	-200.000	0.045	0.335
-175.983	325.826	-0.051	0.096
-174.969	800.000	0.068	0.211
-173.954	-83.160	0.141	0.044
-172.939	800.000	-0.037	0.108
-171.925	-95.775	0.197	0.052
-170.910	-139.833	-0.190	0.020
-169.896	-93.266	-0.372	0.102
-168.881	800.000	-0.047	0.170
-167.866	101.547	0.185	0.212
-166.852	-200.000	0.036	-0.176
-165.837	50.956	0.124	-0.116
-164.823	30.748	-0.149	0.126
-163.808	459.704	0.057	0.125
-162.793	279.432	-0.060	-0.105
-161.779	295.471	-0.170	0.305
-160.764	51.810	0.040	-0.037
-159.750	-175.856	0.319	0.008
-158.735	781.108	-0.114	-0.306
-157.720	-54.800	0.120	0.053
-156.706	-172.241	0.308	-0.010
-155.691	533.549	0.062	-0.145
-154.677	-149.976	-0.373	0.029
-153.662	30.947	-0.239	-0.201
-152.647	-36.551	0.125	-0.066
-151.633	93.271	0.132	-0.146
-150.618	800.000	-0.026	-0.107
-149.604	-12.219	-0.050	-0.032
-148.589	-200.000	-0.033	-0.172
-147.574	-158.416	-0.139	0.008
-146.560	134.061	-0.302	-0.384
-145.545	-89.738	-0.224	-0.065
-144.531	-200.000	0.010	0.484
-143.516	-176.944	-0.033	0.001
-142.502	88.648	-0.072	0.079
-141.487	-200.000	0.254	0.001
-140.472	276.616	-0.084	-0.147
-139.458	-200.000	-0.026	0.141
-138.443	155.507	-0.087	-0.117
-137.429	-200.000	0.012	0.357
-136.414	-22.541	0.180	0.107
-135.399	-200.000	-0.006	-0.202
-134.385	-49.020	0.301	0.142
-133.370	800.000	-0.048	0.158
-132.356	94.567	-0.056	-0.062
-131.341	696.685	-0.054	0.139
-130.326	327.127	0.017	-0.032
-129.312	-89.860	-0.159	0.045
-128.297	-136.652	-0.180	-0.020
-127.283	-200.000	-0.004	0.044
-126.268	-78.834	0.069	0.023
-125.253	-63.135	0.227	-0.092
-124.239	123.740	0.134	-0.165
-123.224	-14.825	0.006	0.004
-122.210	-200.000	0.003	0.381
