DTS Sentinel unit serial number:	SN413079Multiplexer serial number:	ORYXHardware model number:	OX4-SRSoftware version number:	ORYX F/W v4.00 Oryx Data Collector v3.7.2.0data status	okinstallation	princeton_trtdifferential loss correction	single-endedforward channel	channel 2reverse channel	N/Adate	2019/09/18time	19:55:34forward acquisition time	60.00reverse acquisition time	0.00gamma	496.2192k internal	0.2332k external	0.2332temperature offset calibration	1.0031default loss term (dB/km)	0.3790temperature slope calibration	1.0000multiplexer offset coefficient	1.0000multiplexer slope coefficient	1.0000fibre end	0.00T internal ref (°C)	30.73T ext. ref 1 (°C)	1.01T ext. ref 2 (°C)	21.68length (m)	temperature (°C)	Stokes	anti-Stokes-747.200	-60.522	0.050	0.021
-746.185	800.000	-0.066	0.232
-745.171	685.324	-0.051	0.133
-744.156	37.685	-0.177	0.158
-743.142	92.506	0.222	-0.252
-742.127	-70.340	-0.221	0.084
-741.112	429.611	0.014	-0.030
-740.098	800.000	-0.104	0.340
-739.083	253.630	-0.101	0.173
-738.069	418.285	-0.173	0.372
-737.054	800.000	-0.097	0.362
-736.039	-25.196	-0.440	-0.262
-735.025	-200.000	0.003	0.487
-734.010	-59.439	0.119	0.052
-732.996	469.762	0.106	-0.240
-731.981	-200.000	-0.039	0.222
-730.966	126.432	-0.097	-0.124
-729.952	40.613	0.109	-0.099
-728.937	-148.321	-0.185	0.015
-727.923	424.304	0.047	0.101
-726.908	-200.000	0.018	-0.082
-725.894	-94.107	-0.191	0.052
-724.879	12.224	-0.460	-0.356
-723.864	800.000	-0.039	0.147
-722.850	-132.657	0.149	0.019
-721.835	-167.813	0.393	0.016
-720.821	20.888	-0.081	0.066
-719.806	594.000	0.176	-0.438
-718.791	-78.324	0.233	-0.080
-717.777	28.518	-0.143	0.121
-716.762	-129.398	-0.034	0.005
-715.748	27.955	0.391	-0.331
-714.733	115.353	-0.041	-0.050
-713.718	-200.000	-0.042	-0.332
-712.704	-138.714	-0.210	-0.023
-711.689	-55.254	-0.088	0.040
-710.675	577.830	-0.008	0.020
-709.660	-200.000	0.027	0.328
-708.645	800.000	-0.056	0.191
-707.631	800.000	0.066	0.230
-706.616	176.553	0.144	0.211
-705.602	-200.000	-0.040	0.271
-704.587	-200.000	0.008	-0.231
-703.572	115.411	0.113	-0.138
-702.558	-200.000	0.043	0.308
-701.543	64.945	0.113	-0.114
-700.529	296.551	0.067	-0.123
-699.514	-17.896	0.155	0.097
-698.499	167.520	0.134	-0.191
-697.485	45.985	-0.106	0.099
-696.470	165.522	0.111	0.158
-695.456	-134.570	0.191	-0.023
-694.441	-136.907	0.328	-0.038
-693.426	192.289	-0.142	-0.214
-692.412	-125.189	0.110	-0.017
-691.397	-174.795	-0.298	0.008
-690.383	-2.532	-0.181	0.127
-689.368	-99.919	0.086	0.022
-688.354	365.546	-0.021	-0.042
-687.339	264.872	-0.044	-0.077
-686.324	38.866	-0.136	0.121
-685.310	-200.000	-0.004	-0.038
-684.295	-90.630	0.035	0.010
-683.281	-200.000	0.021	0.196
-682.266	-139.617	0.117	0.012
-681.251	-166.561	0.128	0.005
-680.237	371.349	-0.189	0.384
-679.222	64.284	0.227	-0.229
-678.208	-51.853	-0.203	0.095
-677.193	800.000	0.062	-0.187
-676.178	762.546	-0.050	0.137
-675.164	800.000	-0.018	-0.073
-674.149	197.808	-0.228	-0.350
-673.135	743.147	-0.061	0.164
-672.120	-47.300	0.241	0.118
-671.105	-200.000	0.001	-0.182
-670.091	-200.000	-0.005	0.262
-669.076	-15.307	-0.237	-0.152
-668.062	-200.000	0.007	-0.214
-667.047	800.000	0.060	-0.226
-666.032	79.970	0.264	-0.285
-665.018	58.150	-0.142	-0.139
-664.003	800.000	-0.050	-0.142
-662.989	97.589	0.207	-0.239
-661.974	232.998	-0.095	0.157
-660.959	-165.779	-0.233	0.010
-659.945	-8.662	-0.156	-0.105
-658.930	712.342	-0.145	0.386
-657.916	-145.582	0.210	0.019
-656.901	71.829	0.072	0.075
-655.886	361.614	-0.067	0.135
-654.872	17.312	0.063	0.050
-653.857	193.164	-0.126	-0.191
-652.843	-200.000	-0.013	-0.240
-651.828	-37.258	-0.335	-0.179
-650.814	-200.000	-0.002	-0.144
-649.799	-200.000	0.020	0.107
-648.784	43.687	-0.114	-0.104
-647.770	-38.794	-0.090	0.048
-646.755	484.787	-0.165	0.377
-645.741	-200.000	-0.007	0.041
-644.726	41.149	0.132	-0.120
-643.711	-103.607	-0.280	0.066
-642.697	-105.029	-0.302	0.069
-641.682	-180.471	-0.166	0.003
-640.668	159.351	-0.068	0.095
-639.653	-200.000	0.006	-0.053
-638.638	90.137	-0.223	-0.250
-637.624	-87.709	0.085	-0.026
-636.609	-97.320	-0.119	0.031
-635.595	32.775	0.089	-0.078
-634.580	44.357	0.205	-0.189
-633.565	-93.869	0.039	-0.011
-632.551	-32.171	0.276	0.155
-631.536	-96.720	0.231	-0.061
-630.522	247.150	-0.166	0.281
-629.507	75.936	-0.059	0.062
-628.492	303.536	-0.168	-0.312
-627.478	35.194	-0.189	-0.166
-626.463	367.320	-0.080	-0.161
-625.449	136.319	-0.231	-0.302
-624.434	-142.012	0.187	-0.019
-623.419	54.811	-0.112	0.108
-622.405	-200.000	-0.201	-0.001
-621.390	-1.553	-0.086	0.061
-620.376	329.724	0.053	0.103
-619.361	-27.632	0.106	-0.062
-618.346	-31.066	-0.283	0.160
-617.332	-45.262	-0.379	-0.188
-616.317	444.434	-0.052	-0.114
-615.303	-200.000	-0.007	0.034
-614.288	-70.669	-0.253	-0.096
-613.273	493.271	0.176	-0.404
-612.259	162.226	0.097	0.136
-611.244	800.000	-0.015	-0.044
-610.230	-96.420	-0.238	-0.063
-609.215	800.000	0.025	0.093
-608.201	-129.567	-0.317	0.044
-607.186	-29.506	0.282	0.161
-606.171	15.193	-0.141	-0.110
-605.157	-200.000	-0.004	-0.025
-604.142	-123.293	-0.474	0.076
-603.128	-99.379	0.064	0.016
-602.113	177.578	-0.168	0.245
-601.098	800.000	-0.066	-0.211
-600.084	224.175	0.074	0.119
-599.069	110.266	-0.088	-0.106
-598.055	184.961	-0.202	-0.300
-597.040	-66.977	0.583	-0.230
-596.025	176.632	0.257	0.374
-595.011	-200.000	-0.052	-0.308
-593.996	-93.015	0.216	0.060
-592.982	-73.511	0.159	0.058
-591.967	800.000	-0.049	0.141
-590.952	-89.825	-0.317	-0.093
-589.938	311.811	0.059	0.111
-588.923	-42.281	-0.152	-0.078
-587.909	387.857	-0.091	0.188
-586.894	225.354	-0.176	0.286
-585.879	15.168	-0.127	-0.100
-584.865	-17.345	0.252	-0.158
-583.850	268.093	0.023	-0.040
-582.836	-200.000	-0.038	-0.331
-581.821	-200.000	0.021	-0.157
-580.806	-105.037	-0.218	-0.050
-579.792	689.271	-0.030	-0.079
-578.777	-200.000	0.003	-0.026
-577.763	176.893	0.202	0.294
-576.748	62.341	0.086	-0.086
-575.733	10.239	0.088	-0.067
-574.719	-106.755	-0.287	-0.064
-573.704	-200.000	-0.054	-0.305
-572.690	130.325	-0.238	0.305
-571.675	-200.000	-0.149	-0.001
-570.661	-200.000	0.005	0.344
-569.646	-153.709	-0.166	-0.011
-568.631	372.711	-0.140	0.284
-567.617	-58.274	-0.257	0.112
-566.602	-200.000	0.016	-0.081
-565.588	-61.460	-0.325	-0.136
-564.573	126.140	-0.027	0.034
-563.558	-200.000	0.010	-0.087
-562.544	-200.000	-0.006	0.085
-561.529	800.000	0.074	0.252
-560.515	406.905	-0.119	-0.252
-559.500	-200.000	0.071	0.328
-558.485	-22.399	0.034	-0.021
-557.471	-200.000	0.015	0.152
-556.456	-8.688	0.295	0.198
-555.442	389.103	-0.160	-0.332
-554.427	117.353	0.265	-0.326
-553.412	-41.500	-0.181	-0.093
-552.398	-200.000	0.049	0.280
-551.383	8.395	-0.263	0.197
-550.369	105.570	0.142	0.167
-549.354	292.638	0.133	-0.242
-548.339	28.872	-0.075	0.063
-547.325	573.290	0.103	-0.252
-546.310	-200.000	0.038	-0.326
-545.296	-183.327	-0.187	-0.003
-544.281	-200.000	0.014	0.185
-543.266	800.000	-0.029	-0.098
-542.252	24.826	0.073	0.060
-541.237	65.250	-0.038	-0.038
-540.223	-91.219	-0.249	-0.071
-539.208	-52.646	0.195	-0.090
-538.193	-28.700	-0.354	0.203
-537.179	-68.208	0.442	-0.171
-536.164	153.111	0.044	0.060
-535.150	789.041	-0.109	-0.299
-534.135	-113.213	-0.148	-0.029
-533.121	-200.000	-0.046	-0.370
-532.106	-166.081	0.109	0.005
-531.091	245.243	-0.033	0.055
-530.077	-200.000	0.001	-0.008
-529.062	-76.389	-0.065	0.023
-528.048	800.000	0.068	-0.206
-527.033	438.987	-0.041	-0.089
-526.018	2.750	0.302	-0.218
-525.004	186.736	-0.183	0.272
-523.989	-160.030	-0.279	0.015
-522.975	-66.545	0.142	-0.056
-521.960	233.855	0.192	0.316
-520.945	295.971	-0.059	0.109
-519.931	-36.297	-0.293	-0.157
-518.916	488.548	-0.114	-0.259
-517.902	-61.127	0.176	-0.074
-516.887	-59.391	0.148	-0.063
-515.872	800.000	-0.072	0.212
-514.858	-200.000	0.004	-0.038
-513.843	93.191	0.092	-0.103
-512.829	-200.000	0.003	-0.016
-511.814	-65.160	-0.225	0.090
-510.799	62.831	-0.197	0.196
-509.785	207.870	0.132	0.206
-508.770	-120.545	-0.295	0.050
-507.756	53.973	0.014	0.013
-506.741	120.779	-0.207	0.257
-505.726	18.627	-0.305	0.243
-504.712	404.318	0.060	-0.127
-503.697	-79.940	-0.203	0.068
-502.683	110.736	0.046	-0.055
-501.668	18.093	0.297	0.236
-500.653	-200.000	0.015	0.094
-499.639	99.130	-0.230	-0.265
-498.624	256.779	0.138	0.235
-497.610	-21.613	-0.140	0.085
-496.595	43.100	0.041	-0.038
-495.581	-26.749	-0.122	0.071
-494.566	-150.452	0.116	-0.009
-493.551	63.604	-0.150	-0.150
-492.537	44.316	0.077	-0.070
-491.522	65.933	-0.235	-0.238
-490.508	800.000	-0.056	-0.180
-489.493	-51.973	0.335	-0.155
-488.478	-200.000	0.017	0.088
-487.464	29.863	0.220	0.187
-486.449	-44.159	-0.154	0.077
-485.435	332.574	0.101	-0.195
-484.420	163.728	0.173	0.242
-483.405	-59.166	0.245	-0.105
-482.391	-166.400	-0.309	0.013
-481.376	-200.000	0.023	-0.455
-480.362	-62.059	-0.084	-0.035
-479.347	-200.000	0.088	0.438
-478.332	-48.858	0.221	-0.105
-477.318	-200.000	0.031	-0.137
-476.303	333.019	0.122	-0.234
-475.289	-1.197	0.352	-0.247
-474.274	-85.784	-0.203	0.063
-473.259	-52.348	0.291	0.134
-472.245	800.000	-0.041	-0.123
-471.230	199.731	-0.055	0.084
-470.216	800.000	-0.089	0.293
-469.201	-69.024	0.250	-0.096
-468.186	221.583	0.098	-0.157
-467.172	48.424	0.046	-0.043
-466.157	633.886	0.034	0.085
-465.143	800.000	0.055	-0.224
-464.128	-200.000	-0.028	-0.122
-463.113	-80.012	-0.138	-0.046
-462.099	410.835	0.113	-0.239
-461.084	-63.923	-0.202	-0.082
-460.070	-144.573	0.076	-0.007
-459.055	-8.035	-0.059	-0.040
-458.040	194.692	0.074	0.112
-457.026	-174.867	0.335	0.009
-456.011	-41.971	-0.309	-0.157
-454.997	-93.883	0.135	0.037
-453.982	-200.000	-0.013	0.124
-452.968	-200.000	-0.021	-0.141
-451.953	-200.000	0.010	-0.099
-450.938	159.091	0.103	0.142
-449.924	91.422	0.280	-0.312
-448.909	-26.888	-0.246	-0.143
-447.895	-107.792	-0.435	-0.094
-446.880	163.013	-0.067	-0.094
-445.865	365.581	-0.123	-0.246
-444.851	428.685	0.070	0.150
-443.836	-141.772	-0.143	-0.014
-442.822	170.619	0.054	0.076
-441.807	-117.406	0.051	-0.009
-440.792	49.416	-0.027	0.025
-439.778	-69.764	0.027	-0.010
-438.763	-89.852	-0.346	0.101
-437.749	-124.968	0.351	0.054
-436.734	286.811	0.119	-0.214
-435.719	162.901	-0.156	-0.218
-434.705	48.383	0.274	-0.255
-433.690	800.000	-0.057	-0.230
-432.676	-66.737	-0.345	-0.136
-431.661	800.000	0.109	0.454
-430.646	-200.000	0.023	-0.107
-429.632	698.762	0.124	0.325
-428.617	-134.832	0.113	-0.014
-427.603	-57.520	-0.072	0.032
-426.588	406.921	0.081	-0.169
-425.573	800.000	0.133	-0.388
-424.559	-58.031	-0.247	-0.107
-423.544	195.426	-0.086	0.130
-422.530	-68.967	-0.232	0.089
-421.515	800.000	-0.119	0.390
-420.500	-200.000	-0.010	0.199
-419.486	10.792	0.023	-0.017
-418.471	800.000	0.049	-0.144
-417.457	2.242	0.234	0.168
-416.442	335.623	0.090	0.174
-415.428	-40.584	-0.197	-0.101
-414.413	-108.380	0.241	0.052
-413.398	-200.000	0.005	0.110
-412.384	-200.000	-0.012	0.078
-411.369	800.000	0.034	-0.143
-410.355	799.475	-0.049	0.134
-409.340	36.296	-0.055	0.048
-408.325	-200.000	0.026	-0.389
-407.311	-68.510	0.159	-0.061
-406.296	3.059	-0.213	0.154
-405.282	129.434	0.110	0.139
-404.267	-68.310	-0.206	-0.079
-403.252	-38.752	0.304	0.159
-402.238	800.000	0.029	0.115
-401.223	294.296	0.106	-0.192
-400.209	-200.000	0.010	-0.075
-399.194	-107.534	0.167	-0.036
-398.179	-17.138	-0.122	-0.076
-397.165	-200.000	0.023	-0.217
-396.150	-51.074	0.137	0.064
-395.136	-80.743	-0.050	0.017
-394.121	800.000	0.033	-0.125
-393.106	666.053	-0.082	-0.210
-392.092	-116.276	0.186	0.034
-391.077	-56.281	0.229	-0.101
-390.063	-50.749	0.160	0.075
-389.048	190.469	0.085	0.127
-388.033	-175.471	0.273	-0.007
-387.019	64.800	0.101	0.101
-386.004	-92.253	0.099	0.028
-384.990	-2.240	-0.150	0.104
-383.975	76.562	0.252	-0.265
-382.960	-71.398	0.327	0.121
-381.946	283.895	-0.076	0.136
-380.931	62.227	-0.123	0.122
-379.917	-200.000	0.061	0.328
-378.902	525.081	-0.101	-0.236
-377.888	53.059	0.086	-0.081
-376.873	800.000	0.101	0.337
-375.858	-200.000	-0.012	0.060
-374.844	-200.000	0.034	-0.235
-373.829	-56.963	0.287	0.126
-372.815	-22.309	-0.286	-0.172
-371.800	-81.428	-0.124	0.040
-370.785	-200.000	-0.026	-0.259
-369.771	-37.250	0.224	-0.118
-368.756	60.862	0.301	0.296
-367.742	215.620	0.118	0.186
-366.727	83.894	-0.022	0.024
-365.712	18.845	0.237	0.188
-364.698	178.911	-0.113	-0.164
-363.683	47.065	-0.026	0.024
-362.669	-17.203	0.208	-0.130
-361.654	-200.000	-0.071	0.319
-360.639	-200.000	-0.008	-0.140
-359.625	204.144	0.081	-0.124
-358.610	86.030	-0.191	-0.208
-357.596	316.833	-0.107	-0.200
-356.581	314.870	-0.116	-0.217
-355.566	-87.521	-0.203	-0.061
-354.552	-200.000	-0.093	0.658
-353.537	-159.162	0.072	0.004
-352.523	800.000	-0.074	0.260
-351.508	-200.000	0.028	-0.172
-350.493	-200.000	-0.031	0.401
-349.479	44.263	0.208	0.189
-348.464	-31.283	-0.080	0.045
-347.450	350.269	-0.075	0.148
-346.435	-52.417	0.161	-0.074
-345.420	20.414	0.102	0.082
-344.406	-112.866	-0.054	-0.011
-343.391	-200.000	-0.005	0.231
-342.377	425.989	0.046	-0.098
-341.362	110.007	0.108	0.128
-340.348	-104.563	0.224	-0.051
-339.333	-200.000	-0.041	0.259
-338.318	46.309	-0.066	-0.061
-337.304	27.163	-0.151	-0.126
-336.289	-117.903	0.033	-0.006
-335.275	-130.373	-0.092	0.012
-334.260	-165.617	0.342	0.015
-333.245	567.299	-0.194	-0.467
-332.231	229.937	-0.117	-0.189
-331.216	800.000	-0.055	-0.150
-330.202	-22.520	0.175	0.105
-329.187	-139.749	-0.398	-0.042
-328.172	637.430	-0.054	-0.137
-327.158	-156.949	0.061	-0.004
-326.143	-200.000	0.014	0.113
-325.129	-200.000	-0.019	0.291
-324.114	-156.123	-0.354	-0.022
-323.099	-200.000	0.005	0.150
-322.085	800.000	-0.026	-0.076
-321.070	60.557	-0.079	0.077
-320.056	-83.949	0.187	-0.059
-319.041	-23.798	-0.363	-0.215
-318.026	-68.384	-0.201	0.077
-317.012	-33.928	0.415	0.226
-315.997	-200.000	0.012	-0.229
-314.983	68.830	0.200	0.203
-313.968	-120.411	-0.179	0.030
-312.953	169.888	0.087	0.123
-311.939	-164.498	-0.356	-0.016
-310.924	-67.841	0.287	-0.111
-309.910	800.000	-0.118	-0.421
-308.895	184.708	-0.022	-0.032
-307.880	25.808	0.089	0.073
-306.866	69.282	0.250	0.254
-305.851	-200.000	0.008	-0.119
-304.837	-95.049	-0.187	-0.050
-303.822	-91.609	-0.449	-0.126
-302.807	-200.000	0.026	-0.129
-301.793	800.000	0.058	-0.159
-300.778	-200.000	0.012	-0.105
-299.764	800.000	0.014	-0.045
-298.749	800.000	-0.023	-0.094
-297.735	-200.000	0.008	-0.141
-296.720	118.887	-0.131	-0.160
-295.705	-200.000	-0.016	0.102
-294.691	-143.389	0.170	0.016
-293.676	505.748	-0.040	-0.091
-292.662	98.564	-0.328	0.373
-291.647	249.687	0.179	0.301
-290.632	347.408	0.205	0.398
-289.618	483.612	0.073	-0.163
-288.603	-95.840	0.274	-0.072
-287.589	-200.000	0.012	-0.064
-286.574	63.187	0.119	0.118
-285.559	-63.073	0.354	0.145
-284.545	-140.530	-0.263	0.027
-283.530	140.704	0.067	0.087
-282.516	-130.496	0.163	-0.022
-281.501	198.648	0.105	-0.159
-280.486	800.000	-0.070	-0.276
-279.472	-117.864	0.386	-0.068
-278.457	81.974	0.068	0.073
-277.443	102.860	0.032	0.037
-276.428	394.141	0.141	-0.290
-275.413	-3.227	0.108	-0.074
-274.399	305.528	-0.037	-0.068
-273.384	78.963	-0.245	0.259
-272.370	-8.811	-0.313	0.207
-271.355	-61.201	0.046	0.019
-270.340	-5.260	-0.106	0.072
-269.326	-99.434	0.200	-0.050
-268.311	-137.885	-0.173	-0.019
-267.297	800.000	0.039	0.164
-266.282	34.850	0.211	0.182
-265.267	-152.508	0.398	-0.028
-264.253	300.452	-0.123	0.224
-263.238	-200.000	-0.063	0.352
-262.224	138.871	0.090	0.117
-261.209	-36.434	0.145	0.077
-260.195	-200.000	-0.015	0.087
-259.180	-124.544	-0.200	0.031
-258.165	800.000	0.079	0.284
-257.151	-200.000	0.023	0.189
-256.136	-118.298	0.148	-0.026
-255.122	-168.261	-0.144	0.005
-254.107	-200.000	-0.061	-0.297
-253.092	-76.632	0.188	-0.065
-252.078	-180.233	-0.402	0.008
-251.063	235.003	0.241	0.393
-250.049	-170.000	0.283	0.010
-249.034	-85.053	0.170	-0.052
-248.019	386.443	0.075	0.154
-247.005	-98.568	0.390	-0.098
-245.990	-80.645	-0.034	-0.011
-244.976	152.742	-0.102	-0.137
-243.961	-200.000	0.010	0.145
-242.946	-200.000	-0.056	0.332
-241.932	147.292	-0.087	-0.115
-240.917	-12.655	0.058	-0.038
-239.903	-100.805	-0.210	0.051
-238.888	-200.000	0.042	0.180
-237.873	-200.000	-0.027	-0.313
-236.859	122.048	0.097	0.119
-235.844	737.054	-0.022	-0.059
-234.830	32.559	-0.192	0.164
-233.815	-26.952	-0.190	0.109
-232.800	800.000	0.034	-0.134
-231.786	174.465	0.082	0.117
-230.771	-10.534	-0.037	0.024
-229.757	-29.629	-0.110	0.062
-228.742	-69.351	0.070	-0.026
-227.727	72.737	-0.053	0.055
-226.713	106.381	-0.165	-0.193
-225.698	141.365	-0.126	-0.164
-224.684	415.874	0.199	-0.417
-223.669	348.607	-0.028	0.054
-222.655	-76.962	0.407	0.140
-221.640	-42.697	-0.094	-0.047
-220.625	-200.000	-0.186	-0.001
-219.611	41.726	-0.052	0.047
-218.596	395.032	0.061	0.125
-217.582	800.000	0.055	-0.209
-216.567	71.446	0.322	0.329
-215.552	331.595	-0.144	-0.274
-214.538	-107.411	-0.370	-0.080
-213.523	55.467	0.172	0.164
-212.509	695.887	-0.136	-0.353
-211.494	759.350	0.094	-0.250
-210.479	150.296	0.189	-0.253
-209.465	-200.000	0.022	0.281
-208.450	522.693	0.066	0.152
-207.436	3.587	-0.111	0.080
-206.421	800.000	0.082	0.272
-205.406	800.000	-0.065	0.275
-204.392	800.000	0.086	0.266
-203.377	-78.019	0.135	-0.046
-202.363	385.812	0.057	-0.116
-201.348	118.933	0.104	-0.127
-200.333	-129.614	-0.172	-0.023
-199.319	-55.407	0.114	-0.050
-198.304	42.046	-0.129	0.116
-197.290	117.481	0.247	-0.299
-196.275	69.716	0.209	-0.212
-195.260	375.931	0.140	0.281
-194.246	-164.175	0.131	-0.006
-193.231	-37.397	0.065	-0.034
-192.217	-31.224	0.466	-0.259
-191.202	-76.353	-0.579	-0.201
-190.187	-200.000	-0.007	-0.095
-189.173	-157.257	0.150	0.009
-188.158	45.458	-0.183	0.166
-187.144	-56.756	-0.219	-0.095
-186.129	-5.232	0.101	-0.068
-185.114	-200.000	0.065	-0.316
-184.100	-143.898	-0.184	-0.017
-183.085	-66.262	0.073	-0.029
-182.071	-196.616	-0.113	0.001
-181.056	800.000	0.032	0.126
-180.042	13.845	0.111	-0.085
-179.027	-87.089	0.150	-0.045
-178.012	422.108	-0.090	0.190
-176.998	-200.000	0.047	0.204
-175.983	800.000	0.034	0.134
-174.969	-99.182	0.246	0.061
-173.954	381.206	0.080	0.162
-172.939	490.943	-0.100	-0.226
-171.925	271.672	0.205	-0.355
-170.910	-200.000	0.012	0.413
-169.896	505.190	0.031	0.070
-168.881	800.000	-0.048	0.189
-167.866	-200.000	0.012	0.113
-166.852	-25.576	0.053	-0.031
-165.837	606.940	0.080	-0.195
-164.823	21.426	-0.266	-0.213
-163.808	800.000	0.007	0.021
-162.793	-171.391	-0.356	-0.012
-161.779	81.646	0.141	0.150
-160.764	307.638	0.105	0.193
-159.750	29.522	-0.014	-0.012
-158.735	-39.728	-0.188	0.097
-157.720	360.857	0.177	0.348
-156.706	-200.000	-0.012	0.102
-155.691	-30.485	-0.070	-0.039
-154.677	-28.843	0.245	-0.138
-153.662	-200.000	-0.012	0.201
-152.647	-77.906	-0.194	0.066
-151.633	-200.000	0.004	0.057
-150.618	-52.067	0.136	0.062
-149.604	80.495	-0.181	-0.191
-148.589	-103.328	0.215	-0.050
-147.574	201.490	-0.054	-0.082
-146.560	5.638	-0.060	-0.043
-145.545	-2.883	-0.134	-0.092
-144.531	-139.432	0.319	-0.034
-143.516	-150.194	-0.129	0.010
-142.502	-42.370	0.187	-0.094
-141.487	800.000	0.119	-0.329
-140.472	189.845	-0.017	-0.025
-139.458	300.121	0.021	-0.038
-138.443	-127.461	-0.360	-0.051
-137.429	523.864	0.093	0.215
-136.414	-200.000	0.024	-0.281
-135.399	33.858	-0.138	0.118
-134.385	800.000	-0.048	-0.187
-133.370	-154.075	-0.138	-0.009
-132.356	-66.472	0.188	0.073
-131.341	12.276	-0.354	-0.268
-130.326	76.241	-0.087	0.090
-129.312	51.913	-0.017	0.016
-128.297	17.156	-0.173	0.135
-127.283	-200.000	0.052	0.401
-126.268	207.171	-0.169	0.258
-125.253	-20.911	-0.485	-0.292
-124.239	-48.407	0.119	-0.056
-123.224	21.918	0.152	0.121
-122.210	-117.107	0.120	0.021
-121.195	350.219	-0.103	-0.200
