DTS Sentinel unit serial number:	SN413079Multiplexer serial number:	ORYXHardware model number:	OX4-SRSoftware version number:	ORYX F/W v4.00 Oryx Data Collector v3.7.2.0data status	okinstallation	princeton_trtdifferential loss correction	single-endedforward channel	channel 2reverse channel	N/Adate	2019/09/18time	06:59:35forward acquisition time	60.00reverse acquisition time	0.00gamma	496.2192k internal	0.2349k external	0.2349temperature offset calibration	0.9986default loss term (dB/km)	0.3790temperature slope calibration	1.0000multiplexer offset coefficient	1.0000multiplexer slope coefficient	1.0000fibre end	0.00T internal ref (°C)	23.19T ext. ref 1 (°C)	0.19T ext. ref 2 (°C)	17.12length (m)	temperature (°C)	Stokes	anti-Stokes-747.200	-145.255	-0.356	-0.032
-746.185	-78.955	-0.150	0.051
-745.171	-56.492	0.071	-0.031
-744.156	404.104	-0.098	0.205
-743.142	507.533	0.091	-0.210
-742.127	-127.067	-0.207	-0.030
-741.112	-39.570	-0.039	-0.021
-740.098	-200.000	0.004	0.354
-739.083	49.009	0.187	0.175
-738.069	-188.699	-0.445	0.005
-737.054	-92.674	-0.531	-0.148
-736.039	-137.728	0.215	0.024
-735.025	61.077	0.294	0.291
-734.010	-28.970	0.130	0.074
-732.996	800.000	-0.151	-0.486
-731.981	-200.000	-0.025	-0.170
-730.966	210.998	-0.197	0.310
-729.952	488.994	0.134	0.305
-728.937	-88.028	-0.138	0.041
-727.923	-106.657	-0.152	-0.034
-726.908	800.000	0.008	-0.027
-725.894	-95.759	0.487	-0.130
-724.879	-5.305	0.165	-0.113
-723.864	-139.466	-0.193	-0.021
-722.850	-200.000	0.030	-0.157
-721.835	-200.000	0.014	-0.064
-720.821	172.880	-0.134	0.192
-719.806	-62.458	-0.110	-0.046
-718.791	-78.616	0.209	0.071
-717.777	-12.067	-0.231	-0.151
-716.762	-69.208	-0.215	0.082
-715.748	-177.616	-0.276	-0.007
-714.733	-75.408	-0.110	-0.039
-713.718	-44.929	0.252	-0.125
-712.704	800.000	0.047	0.131
-711.689	-25.808	-0.143	-0.084
-710.675	-139.612	-0.257	0.027
-709.660	398.998	-0.092	0.192
-708.645	-71.518	-0.229	-0.086
-707.631	101.721	-0.006	0.007
-706.616	-68.378	-0.220	0.085
-705.602	431.887	0.064	0.138
-704.587	-117.956	-0.165	0.030
-703.572	-175.456	0.157	0.004
-702.558	16.471	-0.053	-0.042
-701.543	149.647	-0.077	-0.104
-700.529	-74.593	-0.191	-0.069
-699.514	0.038	-0.193	-0.137
-698.499	6.898	0.045	0.033
-697.485	-200.000	-0.020	0.109
-696.470	259.440	0.142	0.244
-695.456	123.775	-0.064	0.080
-694.441	58.255	0.074	-0.073
-693.426	85.379	-0.056	-0.061
-692.412	-9.703	0.287	-0.190
-691.397	-15.863	0.274	0.174
-690.383	-150.993	-0.095	-0.007
-689.368	-108.013	-0.446	-0.097
-688.354	395.601	-0.055	-0.115
-687.339	-96.807	0.109	-0.029
-686.324	151.103	0.026	0.035
-685.310	-49.008	0.147	-0.070
-684.295	225.577	-0.277	-0.447
-683.281	268.121	-0.258	-0.451
-682.266	2.418	0.144	0.104
-681.251	10.030	-0.210	0.159
-680.237	77.667	0.096	0.102
-679.222	-111.687	-0.363	-0.073
-678.208	8.166	0.141	-0.105
-677.193	-200.000	-0.027	-0.216
-676.178	82.210	-0.235	0.254
-675.164	214.259	-0.139	0.220
-674.149	-200.000	-0.029	-0.000
-673.135	-145.671	0.561	0.050
-672.120	9.651	0.112	-0.085
-671.105	101.105	0.029	-0.034
-670.091	-200.000	0.017	-0.085
-669.076	800.000	-0.031	-0.108
-668.062	239.173	-0.089	0.147
-667.047	-200.000	0.055	0.266
-666.032	-89.814	-0.225	-0.065
-665.018	-200.000	-0.033	0.153
-664.003	-82.367	0.317	-0.103
-662.989	164.300	-0.059	0.082
-661.974	-200.000	-0.006	0.040
-660.959	-136.104	-0.252	-0.029
-659.945	-200.000	-0.071	-0.329
-658.930	-81.356	-0.466	-0.153
-657.916	800.000	-0.097	-0.274
-656.901	800.000	-0.016	0.047
-655.886	-58.899	-0.103	0.044
-654.872	133.207	-0.060	0.077
-653.857	-44.990	0.323	-0.160
-652.843	-200.000	-0.055	-0.385
-651.828	800.000	-0.098	-0.374
-650.814	-79.490	-0.349	-0.117
-649.799	-153.046	0.099	-0.007
-648.784	51.678	-0.206	-0.195
-647.770	-49.931	0.315	0.149
-646.755	377.418	0.163	0.331
-645.741	800.000	0.052	0.195
-644.726	800.000	-0.095	-0.265
-643.711	-200.000	-0.033	-0.266
-642.697	359.891	-0.173	0.345
-641.682	71.235	-0.346	0.357
-640.668	-200.000	-0.029	0.310
-639.653	431.978	-0.119	0.257
-638.638	-55.852	0.289	-0.128
-637.624	-200.000	-0.023	-0.151
-636.609	800.000	-0.073	-0.254
-635.595	-148.844	0.076	0.006
-634.580	56.898	0.090	0.087
-633.565	-86.424	-0.041	-0.012
-632.551	-102.610	0.101	0.024
-631.536	-200.000	-0.053	-0.256
-630.522	-25.088	0.139	0.082
-629.507	555.065	0.025	0.059
-628.492	-200.000	-0.011	-0.201
-627.478	-200.000	0.020	-0.239
-626.463	-149.699	0.176	0.014
-625.449	-33.349	-0.226	0.124
-624.434	800.000	-0.003	0.014
-623.419	43.982	0.076	-0.069
-622.405	-60.957	-0.406	0.171
-621.390	800.000	0.034	-0.122
-620.376	-175.319	-0.033	-0.001
-619.361	800.000	0.088	-0.251
-618.346	-26.093	-0.177	0.103
-617.332	117.676	-0.305	-0.373
-616.317	78.895	0.185	0.196
-615.303	179.235	-0.182	0.265
-614.288	-146.657	-0.178	-0.015
-613.273	121.366	-0.237	-0.293
-612.259	520.941	0.032	-0.075
-611.244	31.812	-0.327	-0.280
-610.230	-109.265	0.044	-0.009
-609.215	473.841	-0.056	-0.125
-608.201	311.904	-0.114	-0.213
-607.186	474.028	-0.051	0.114
-606.171	-91.849	0.554	-0.156
-605.157	80.443	-0.099	0.105
-604.142	113.347	-0.163	-0.196
-603.128	800.000	0.129	0.505
-602.113	14.520	0.251	-0.195
-601.098	-111.045	-0.224	-0.046
-600.084	-200.000	0.039	0.214
-599.069	589.895	0.056	-0.138
-598.055	-200.000	0.013	-0.141
-597.040	257.234	0.123	0.211
-596.025	468.346	0.104	-0.232
-595.011	60.618	-0.126	-0.124
-593.996	-135.054	-0.096	0.012
-592.982	-194.926	-0.425	-0.003
-591.967	204.766	0.062	-0.095
-590.952	-48.604	-0.202	-0.096
-589.938	-140.845	-0.238	-0.024
-588.923	537.890	-0.224	0.528
-587.909	403.554	-0.046	0.097
-586.894	800.000	0.014	0.047
-585.879	32.483	0.135	-0.116
-584.865	169.064	0.142	-0.202
-583.850	-76.866	0.215	0.075
-582.836	531.543	-0.100	0.235
-581.821	78.042	-0.164	-0.173
-580.806	-6.071	-0.050	0.034
-579.792	24.081	0.102	-0.084
-578.777	16.999	-0.155	0.122
-577.763	-145.776	0.028	0.002
-576.748	-108.297	-0.037	-0.008
-575.733	800.000	0.106	-0.308
-574.719	-33.476	0.154	0.085
-573.704	59.150	0.074	0.073
-572.690	-118.755	-0.137	-0.024
-571.675	-200.000	-0.002	-0.038
-570.661	-200.000	0.054	-0.285
-569.646	-88.604	0.214	0.063
-568.631	57.627	-0.223	0.217
-567.617	-62.415	-0.321	-0.132
-566.602	772.116	0.101	0.273
-565.588	569.388	-0.077	0.185
-564.573	1.022	0.229	-0.163
-563.558	-38.812	-0.308	0.161
-562.544	-108.406	-0.201	-0.043
-561.529	51.754	0.125	-0.118
-560.515	-200.000	-0.043	-0.233
-559.500	-126.050	-0.051	0.008
-558.485	800.000	-0.146	-0.413
-557.471	-102.860	-0.148	0.035
-556.456	103.771	-0.028	0.033
-555.442	97.432	0.236	-0.269
-554.427	-200.000	-0.001	0.016
-553.412	84.090	-0.138	0.150
-552.398	17.633	0.194	-0.153
-551.383	-140.434	0.009	-0.001
-550.369	-175.215	0.174	0.005
-549.354	-200.000	0.022	-0.273
-548.339	-21.076	0.292	-0.177
-547.325	-177.087	0.143	0.004
-546.310	108.319	-0.233	-0.275
-545.296	800.000	-0.046	0.183
-544.281	37.775	-0.335	0.295
-543.266	34.770	-0.108	-0.094
-542.252	160.262	0.113	-0.155
-541.237	-12.000	0.030	0.020
-540.223	-109.762	-0.149	0.031
-539.208	245.426	0.143	0.238
-538.193	-110.049	-0.389	-0.081
-537.179	-77.038	0.351	0.121
-536.164	92.841	-0.225	0.252
-535.150	-188.167	0.237	-0.003
-534.135	-7.896	0.243	-0.162
-533.121	137.819	0.065	0.084
-532.106	-171.293	-0.267	-0.009
-531.091	-9.242	-0.187	0.124
-530.077	-106.103	0.247	-0.055
-529.062	-51.889	0.248	-0.114
-528.048	262.190	0.107	0.185
-527.033	-91.580	-0.198	0.056
-526.018	-200.000	0.004	-0.103
-525.004	30.016	-0.176	-0.148
-523.989	102.441	-0.239	-0.277
-522.975	800.000	-0.114	-0.318
-521.960	-44.441	0.191	-0.095
-520.945	432.439	-0.101	0.216
-519.931	402.871	-0.036	0.074
-518.916	523.569	0.061	-0.141
-517.902	-43.346	-0.173	0.087
-516.887	157.601	-0.224	0.307
-515.872	800.000	-0.046	0.172
-514.858	-32.847	-0.283	-0.155
-513.843	441.440	0.131	0.284
-512.829	567.329	-0.066	0.159
-511.814	71.828	-0.113	-0.116
-510.799	-200.000	0.067	0.390
-509.785	203.599	0.151	0.231
-508.770	-16.285	0.109	-0.069
-507.756	179.676	-0.016	0.023
-506.741	-53.779	-0.062	0.028
-505.726	-144.403	0.325	0.030
-504.712	66.569	0.156	-0.157
-503.697	800.000	-0.039	-0.109
-502.683	-110.157	-0.121	-0.025
-501.668	201.425	-0.013	0.020
-500.653	-34.496	-0.129	0.070
-499.639	-200.000	0.043	-0.267
-498.624	737.160	-0.059	0.156
-497.610	-34.471	0.019	-0.010
-496.595	-64.534	0.272	-0.109
-495.581	-200.000	-0.022	0.163
-494.566	-200.000	0.008	-0.178
-493.551	145.534	0.084	-0.112
-492.537	-150.646	-0.159	0.012
-491.522	23.978	0.125	-0.102
-490.508	134.699	0.114	0.147
-489.493	-162.600	0.207	-0.010
-488.478	-119.084	0.256	-0.044
-487.464	-159.024	-0.180	0.010
-486.449	795.968	-0.115	0.314
-485.435	38.286	-0.132	0.117
-484.420	-138.803	0.080	0.009
-483.405	-4.138	0.023	0.016
-482.391	60.596	0.178	0.175
-481.376	368.048	-0.161	0.321
-480.362	303.367	-0.024	-0.045
-479.347	-46.758	-0.059	-0.028
-478.332	120.877	-0.179	-0.220
-477.318	-9.185	0.134	0.089
-476.303	87.347	-0.379	0.414
-475.289	-120.202	0.082	-0.014
-474.274	-60.483	0.240	-0.101
-473.259	800.000	-0.031	-0.129
-472.245	14.367	-0.251	0.193
-471.230	290.464	-0.301	0.540
-470.216	-144.323	0.078	-0.007
-469.201	-142.207	0.200	0.020
-468.186	280.103	0.067	0.118
-467.172	-175.564	0.343	-0.009
-466.157	270.355	-0.169	0.294
-465.143	-200.000	-0.009	-0.190
-464.128	674.679	0.165	0.424
-463.113	76.614	-0.197	-0.206
-462.099	-94.142	0.205	-0.055
-461.084	466.867	-0.214	-0.473
-460.070	-64.043	0.317	0.128
-459.055	800.000	-0.056	-0.200
-458.040	215.739	0.173	-0.271
-457.026	602.658	0.144	-0.354
-456.011	-200.000	0.043	-0.413
-454.997	-200.000	0.011	-0.088
-453.982	-133.346	-0.183	-0.023
-452.968	-96.093	0.289	0.076
-451.953	-200.000	-0.009	-0.172
-450.938	-110.325	-0.137	-0.028
-449.924	36.414	0.170	0.148
-448.909	800.000	-0.035	0.102
-447.895	-117.799	-0.320	0.057
-446.880	-200.000	-0.001	-0.010
-445.865	19.791	-0.231	0.184
-444.851	-51.008	0.286	0.132
-443.836	-200.000	-0.054	0.312
-442.822	102.567	0.180	0.208
-441.807	742.761	-0.080	-0.213
-440.792	161.901	-0.154	0.213
-439.778	800.000	-0.059	0.173
-438.763	-23.875	-0.152	-0.090
-437.749	130.729	-0.076	0.096
-436.734	-200.000	-0.036	0.345
-435.719	-80.350	-0.244	0.080
-434.705	41.704	-0.172	-0.154
-433.690	-47.742	-0.178	0.085
-432.676	-51.030	0.077	-0.036
-431.661	-6.341	-0.363	-0.245
-430.646	40.759	-0.314	0.280
-429.632	6.658	0.154	-0.113
-428.617	800.000	0.074	0.290
-427.603	-200.000	-0.002	0.199
-426.588	160.444	-0.128	-0.176
-425.573	14.176	-0.072	0.055
-424.559	-200.000	0.040	0.261
-423.544	289.187	0.106	-0.189
-422.530	-53.977	0.148	0.066
-421.515	97.608	-0.118	-0.133
-420.500	-200.000	0.018	0.224
-419.486	-200.000	0.318	-0.002
-418.471	174.295	0.109	-0.155
-417.457	-67.930	-0.232	-0.089
-416.442	-118.658	-0.201	-0.035
-415.428	600.325	-0.114	-0.279
-414.413	-185.408	-0.148	0.002
-413.398	-159.545	-0.254	0.014
-412.384	-71.328	0.227	-0.084
-411.369	-200.000	-0.009	0.202
-410.355	800.000	-0.025	-0.082
-409.340	35.051	0.157	0.136
-408.325	-142.531	-0.324	-0.031
-407.311	190.708	0.076	-0.112
-406.296	109.215	0.129	-0.152
-405.282	-9.275	0.252	0.166
-404.267	43.322	0.169	0.152
-403.252	-92.089	-0.225	-0.063
-402.238	-200.000	-0.021	0.105
-401.223	-200.000	-0.037	-0.280
-400.209	47.297	0.275	-0.253
-399.194	134.365	0.075	0.096
-398.179	-146.883	0.149	-0.013
-397.165	-200.000	-0.018	-0.200
-396.150	-131.823	-0.268	-0.035
-395.136	-200.000	0.020	-0.238
-394.121	385.382	-0.105	-0.212
-393.106	-132.398	-0.061	-0.008
-392.092	337.557	0.112	0.214
-391.077	18.041	-0.159	0.125
-390.063	-200.000	-0.020	-0.206
-389.048	406.300	-0.169	-0.351
-388.033	96.609	0.101	0.113
-387.019	-65.591	0.181	-0.071
-386.004	800.000	0.087	-0.355
-384.990	0.595	0.507	-0.357
-383.975	800.000	-0.008	0.034
-382.960	-200.000	0.014	-0.120
-381.946	705.388	0.088	0.228
-380.931	291.453	-0.167	0.299
-379.917	-7.759	0.223	-0.148
-378.902	46.898	-0.025	-0.023
-377.888	215.577	-0.095	-0.149
-376.873	2.220	0.155	0.111
-375.858	139.689	0.058	0.076
-374.844	34.393	0.155	-0.134
-373.829	-31.862	0.351	-0.194
-372.815	-200.000	0.056	0.271
-371.800	3.437	0.237	0.170
-370.785	-200.000	0.027	-0.256
-369.771	572.165	0.066	0.158
-368.756	594.362	-0.045	0.111
-367.742	-111.039	0.148	0.030
-366.727	-200.000	-0.011	0.382
-365.712	-62.863	-0.277	0.113
-364.698	-89.424	-0.123	-0.036
-363.683	30.552	0.084	0.070
-362.669	118.582	-0.053	0.065
-361.654	-200.000	-0.048	-0.248
-360.639	97.630	0.038	-0.043
-359.625	31.445	-0.106	0.090
-358.610	50.107	0.126	-0.117
-357.596	-200.000	0.023	-0.234
-356.581	108.692	0.156	-0.184
-355.566	33.844	0.032	0.028
-354.552	800.000	0.111	-0.366
-353.537	82.522	-0.088	0.094
-352.523	-136.414	0.230	-0.026
-351.508	72.812	0.301	-0.309
-350.493	-39.965	0.175	0.090
-349.479	-44.946	0.179	-0.088
-348.464	517.908	0.033	-0.077
-347.450	675.817	0.063	-0.161
-346.435	297.373	0.156	0.282
-345.420	-96.390	0.251	-0.065
-344.406	-200.000	-0.009	-0.059
-343.391	260.915	-0.003	0.004
-342.377	-25.329	0.131	-0.076
-341.362	-200.000	-0.006	-0.110
-340.348	-68.003	0.258	-0.099
-339.333	9.958	0.184	-0.137
-338.318	-1.280	0.378	0.262
-337.304	-74.373	-0.094	-0.034
-336.289	-134.601	-0.120	-0.014
-335.275	-200.000	-0.010	0.059
-334.260	75.192	-0.101	-0.105
-333.245	800.000	0.040	0.141
-332.231	295.903	-0.048	-0.087
-331.216	229.460	0.188	0.302
-330.202	-72.416	0.213	0.077
-329.187	35.006	-0.275	0.237
-328.172	74.458	0.087	0.089
-327.158	-126.191	-0.249	-0.037
-326.143	-47.917	0.411	-0.195
-325.129	246.118	-0.119	0.196
-324.114	-200.000	0.008	-0.068
-323.099	-200.000	0.211	-0.000
-322.085	-143.792	0.184	-0.017
-321.070	13.808	0.146	0.112
-320.056	-106.722	0.297	-0.065
-319.041	-95.769	0.266	0.070
-318.026	-88.463	0.065	0.019
-317.012	-101.662	-0.210	-0.050
-315.997	-99.885	-0.116	0.028
-314.983	-200.000	0.022	0.194
-313.968	800.000	0.021	-0.077
-312.953	-164.391	0.096	-0.004
-311.939	-200.000	0.038	0.229
-310.924	-83.465	-0.273	-0.086
-309.910	-200.000	0.015	0.144
-308.895	-200.000	-0.096	0.415
-307.880	-200.000	-0.061	0.282
-306.866	-200.000	-0.035	0.212
-305.851	89.960	-0.239	0.263
-304.837	20.092	0.311	0.246
-303.822	-69.550	-0.103	0.039
-302.807	140.357	-0.061	0.079
-301.793	135.336	-0.030	0.038
-300.778	-4.429	0.166	-0.113
-299.764	-110.066	-0.302	0.062
-298.749	-200.000	-0.029	-0.337
-297.735	-15.575	-0.157	-0.098
-296.720	-26.253	-0.150	0.086
-295.705	554.108	-0.261	-0.616
-294.691	800.000	0.102	0.314
-293.676	619.475	0.029	0.072
-292.662	-200.000	-0.028	-0.180
-291.647	-98.725	-0.140	0.035
-290.632	184.500	0.074	0.107
-289.618	29.054	0.075	-0.062
-288.603	-46.027	0.114	0.055
-287.589	18.498	0.118	-0.092
-286.574	-200.000	-0.024	0.305
-285.559	-164.100	-0.148	-0.007
-284.545	-200.000	0.029	-0.184
-283.530	-92.858	-0.278	-0.076
-282.516	-71.651	0.185	-0.068
-281.501	-133.149	0.522	0.065
-280.486	-200.000	-0.014	0.372
-279.472	68.416	0.147	0.147
-278.457	47.433	-0.027	0.025
-277.443	366.696	0.049	-0.097
-276.428	314.498	-0.107	0.197
-275.413	-200.000	0.034	0.190
-274.399	127.932	0.174	0.217
-273.384	29.379	-0.063	-0.053
-272.370	2.607	0.041	0.029
-271.355	-200.000	0.010	0.183
-270.340	-24.120	0.159	-0.093
-269.326	-94.559	0.254	0.068
-268.311	-118.528	0.168	-0.029
-267.297	155.689	-0.270	-0.365
-266.282	50.442	-0.145	0.135
-265.267	291.548	0.098	0.174
-264.253	800.000	0.154	-0.428
-263.238	-55.063	-0.102	0.045
-262.224	-200.000	-0.004	0.040
-261.209	-2.346	-0.165	0.113
-260.195	566.673	0.213	-0.506
-259.180	-200.000	0.021	-0.274
-258.165	86.341	-0.214	-0.231
-257.151	28.021	-0.118	0.097
-256.136	800.000	-0.132	0.406
-255.122	-31.488	0.121	0.067
-254.107	131.750	-0.147	0.185
-253.092	353.210	0.106	-0.207
-252.078	33.375	0.124	0.106
-251.063	176.628	-0.172	0.245
-250.049	-134.742	0.308	-0.037
-249.034	-200.000	0.021	-0.194
-248.019	-200.000	-0.011	0.179
-247.005	-73.813	-0.367	-0.131
-245.990	38.948	-0.282	-0.247
-244.976	427.069	-0.123	-0.259
-243.961	-200.000	-0.025	0.207
-242.946	78.920	0.047	0.049
-241.932	-60.613	-0.130	0.054
-240.917	-79.076	-0.168	0.056
-239.903	-139.288	0.134	0.014
-238.888	-110.711	-0.177	-0.036
-237.873	-11.155	0.203	0.131
-236.859	800.000	0.083	-0.225
-235.844	-200.000	-0.066	0.395
-234.830	-173.272	0.160	-0.005
-233.815	-200.000	-0.006	0.094
-232.800	-137.547	-0.305	-0.034
-231.786	800.000	0.028	0.095
-230.771	-200.000	-0.066	0.331
-229.757	-28.942	-0.441	-0.248
-228.742	-200.000	-0.002	-0.045
-227.727	334.004	-0.107	0.203
-226.713	89.672	0.015	-0.017
-225.698	153.095	0.044	0.058
-224.684	313.030	0.055	-0.102
-223.669	800.000	0.073	-0.274
-222.655	-93.520	0.275	0.074
-221.640	-134.636	0.270	-0.032
-220.625	800.000	-0.117	0.412
-219.611	800.000	-0.099	-0.332
-218.596	-46.500	-0.075	-0.036
-217.582	35.552	0.109	0.093
-216.567	164.913	-0.147	0.203
-215.552	50.600	-0.153	-0.142
-214.538	-200.000	-0.078	0.384
-213.523	665.150	0.075	0.190
-212.509	-200.000	0.030	0.200
-211.494	-200.000	-0.030	-0.160
-210.479	-170.322	0.392	0.013
-209.465	-200.000	-0.076	0.431
-208.450	-22.655	0.025	0.015
-207.436	-92.358	-0.088	0.024
-206.421	-10.532	0.025	0.016
-205.406	800.000	-0.125	-0.434
-204.392	-40.070	-0.291	0.148
-203.377	124.746	-0.088	-0.108
-202.363	347.912	0.100	-0.193
-201.348	-21.830	-0.372	-0.221
-200.333	34.347	-0.213	-0.181
-199.319	-125.604	0.178	0.026
-198.304	-130.678	0.215	-0.028
-197.290	-39.390	-0.183	0.094
-196.275	-109.112	0.444	0.092
-195.260	688.140	0.037	-0.095
-194.246	-34.995	-0.078	-0.042
-193.231	800.000	0.111	-0.316
-192.217	-133.717	-0.283	0.035
-191.202	-183.438	-0.193	0.003
-190.187	100.495	0.066	-0.074
-189.173	52.538	0.110	-0.103
-188.158	9.420	-0.017	0.013
-187.144	-200.000	-0.005	0.073
-186.129	-124.544	-0.265	-0.040
-185.114	701.074	-0.062	0.159
-184.100	-72.416	-0.496	-0.179
-183.085	-128.619	-0.174	-0.024
-182.071	-129.579	0.069	-0.009
-181.056	-200.000	0.023	0.196
-180.042	-200.000	0.008	-0.115
-179.027	-200.000	-0.026	-0.429
-178.012	-59.881	-0.218	0.091
-176.998	-200.000	0.032	-0.145
-175.983	352.499	-0.062	-0.121
-174.969	124.733	0.095	-0.117
-173.954	-200.000	-0.017	-0.109
-172.939	55.226	0.121	-0.114
-171.925	68.975	0.237	-0.238
-170.910	-128.402	0.164	0.023
-169.896	14.995	-0.160	-0.123
-168.881	108.770	0.069	0.081
-167.866	-0.877	0.269	-0.186
-166.852	-66.024	0.303	-0.118
-165.837	526.650	-0.043	-0.099
-164.823	507.954	-0.074	0.167
-163.808	44.284	0.083	-0.075
-162.793	408.553	0.120	0.248
-161.779	-200.000	0.044	0.466
-160.764	213.714	-0.161	-0.248
-159.750	-200.000	-0.002	-0.021
-158.735	215.345	0.186	-0.289
-157.720	800.000	-0.076	0.291
-156.706	-4.419	0.254	-0.172
-155.691	-81.625	-0.081	0.026
-154.677	152.908	0.197	-0.263
-153.662	77.325	0.049	-0.051
-152.647	-200.000	-0.009	0.317
-151.633	-77.122	-0.138	0.047
-150.618	-200.000	-0.025	0.118
-149.604	624.408	0.027	-0.067
-148.589	-58.786	-0.097	-0.041
-147.574	-5.814	-0.223	0.149
-146.560	800.000	0.065	-0.188
-145.545	800.000	0.113	-0.317
-144.531	-9.193	0.263	-0.171
-143.516	800.000	-0.075	-0.237
-142.502	-200.000	0.015	-0.244
-141.487	39.745	-0.088	-0.077
-140.472	213.943	0.105	0.162
-139.458	-92.277	0.266	0.073
-138.443	175.625	-0.175	-0.247
-137.429	-36.897	-0.169	-0.089
-136.414	-200.000	0.042	0.229
-135.399	-200.000	0.033	-0.143
-134.385	-200.000	-0.067	-0.347
-133.370	22.465	0.314	0.251
-132.356	-1.472	-0.092	-0.063
-131.341	-147.276	-0.068	0.006
-130.326	-145.784	-0.306	-0.027
-129.312	343.377	-0.065	0.123
-128.297	-70.860	-0.436	0.160
-127.283	800.000	0.058	0.159
-126.268	-96.361	0.227	0.058
-125.253	-16.399	-0.189	0.117
-124.239	-0.321	0.091	-0.063
-123.224	-70.009	0.323	-0.120
-122.210	-200.000	0.041	-0.184
