DTS Sentinel unit serial number:	SN413079Multiplexer serial number:	ORYXHardware model number:	OX4-SRSoftware version number:	ORYX F/W v4.00 Oryx Data Collector v3.7.2.0data status	okinstallation	princeton_trtdifferential loss correction	single-endedforward channel	channel 2reverse channel	N/Adate	2019/09/18time	13:03:35forward acquisition time	60.00reverse acquisition time	0.00gamma	496.2192k internal	0.2320k external	0.2320temperature offset calibration	0.9992default loss term (dB/km)	0.3790temperature slope calibration	1.0000multiplexer offset coefficient	1.0000multiplexer slope coefficient	1.0000fibre end	0.00T internal ref (°C)	33.55T ext. ref 1 (°C)	0.57T ext. ref 2 (°C)	31.88length (m)	temperature (°C)	Stokes	anti-Stokes-747.200	-200.000	-0.000	0.081
-746.185	763.309	0.063	-0.173
-745.171	-115.129	0.109	-0.021
-744.156	-200.000	-0.044	0.303
-743.142	120.398	0.036	0.046
-742.127	146.895	-0.190	0.258
-741.112	-67.820	-0.017	0.007
-740.098	-65.223	0.040	0.016
-739.083	-200.000	-0.001	-0.168
-738.069	-200.000	-0.014	0.320
-737.054	-101.211	-0.077	0.019
-736.039	680.825	-0.051	0.135
-735.025	-200.000	0.022	0.152
-734.010	-200.000	-0.042	-0.252
-732.996	-124.315	-0.127	0.020
-731.981	57.483	-0.069	0.068
-730.966	161.828	0.077	0.110
-729.952	47.262	-0.091	-0.085
-728.937	-9.220	0.282	-0.191
-727.923	89.414	0.183	0.206
-726.908	-20.883	0.181	0.112
-725.894	-6.893	-0.163	0.112
-724.879	122.609	-0.198	-0.250
-723.864	-16.262	0.139	-0.089
-722.850	20.574	-0.122	-0.099
-721.835	-200.000	0.056	-0.562
-720.821	-200.000	-0.022	-0.249
-719.806	243.420	-0.159	-0.270
-718.791	-200.000	0.082	-0.367
-717.777	-21.701	-0.091	0.056
-716.762	-161.860	-0.280	-0.014
-715.748	-100.582	-0.220	-0.055
-714.733	179.245	-0.203	-0.300
-713.718	-39.271	0.144	0.076
-712.704	800.000	0.062	-0.212
-711.689	46.203	0.272	-0.254
-710.675	-106.239	-0.310	-0.070
-709.660	27.496	-0.249	-0.212
-708.645	800.000	0.026	0.083
-707.631	-61.399	0.543	0.230
-706.616	-200.000	-0.007	-0.100
-705.602	800.000	-0.091	-0.293
-704.587	-8.229	0.231	0.157
-703.572	800.000	-0.034	-0.140
-702.558	-32.930	0.080	0.045
-701.543	52.301	0.136	-0.131
-700.529	-119.509	-0.279	0.049
-699.514	76.901	-0.187	-0.200
-698.499	95.138	-0.149	-0.171
-697.485	800.000	0.040	-0.127
-696.470	-1.700	-0.282	-0.200
-695.456	-155.955	-0.196	-0.013
-694.441	88.097	-0.165	0.185
-693.426	-86.816	-0.337	-0.104
-692.412	-97.494	-0.102	-0.027
-691.397	75.608	0.104	0.111
-690.383	-200.000	-0.016	0.199
-689.368	-60.364	-0.204	-0.088
-688.354	-132.342	-0.218	0.028
-687.339	254.799	-0.098	-0.169
-686.324	11.264	-0.166	-0.128
-685.310	183.557	-0.209	-0.312
-684.295	-200.000	0.028	0.215
-683.281	-89.034	-0.201	0.060
-682.266	-104.539	-0.354	-0.082
-681.251	172.979	0.088	0.127
-680.237	800.000	0.099	0.291
-679.222	-16.301	-0.104	-0.067
-678.208	-22.824	-0.430	-0.262
-677.193	372.180	-0.128	-0.262
-676.178	800.000	-0.152	-0.475
-675.164	39.796	-0.289	-0.262
-674.149	-140.871	0.096	0.010
-673.135	-1.548	-0.119	-0.085
-672.120	8.854	-0.274	-0.208
-671.105	-200.000	0.032	-0.521
-670.091	605.481	-0.057	0.143
-669.076	-144.537	-0.299	-0.028
-668.062	-97.486	0.198	-0.052
-667.047	-157.145	-0.217	0.013
-666.032	75.253	-0.244	-0.259
-665.018	-200.000	0.058	-0.303
-664.003	-32.373	-0.328	-0.184
-662.989	-98.350	-0.142	0.037
-661.974	-72.452	0.038	-0.014
-660.959	-42.257	-0.398	-0.205
-659.945	-108.162	-0.327	-0.071
-658.930	-200.000	-0.012	-0.154
-657.916	-62.334	0.111	-0.047
-656.901	800.000	0.082	-0.240
-655.886	-57.308	0.169	-0.075
-654.872	-22.833	-0.159	0.097
-653.857	262.093	-0.131	0.229
-652.843	23.702	0.113	-0.094
-651.828	792.354	-0.056	-0.156
-650.814	-99.608	-0.313	0.079
-649.799	-161.478	0.216	0.011
-648.784	-90.050	-0.388	-0.114
-647.770	-177.402	-0.034	-0.001
-646.755	-30.626	0.101	-0.057
-645.741	186.353	-0.062	0.092
-644.726	-28.589	-0.292	-0.170
-643.711	369.920	0.186	0.379
-642.697	712.365	-0.103	0.276
-641.682	197.755	-0.120	0.185
-640.668	-200.000	0.032	0.244
-639.653	-105.124	0.399	-0.092
-638.638	-200.000	-0.024	-0.240
-637.624	-175.607	0.358	-0.010
-636.609	-77.206	0.041	0.014
-635.595	-102.398	-0.074	-0.018
-634.580	44.382	0.082	0.076
-633.565	254.402	0.063	0.108
-632.551	73.334	0.050	0.053
-631.536	-105.484	-0.371	-0.085
-630.522	-121.672	0.065	0.011
-629.507	104.807	-0.288	0.342
-628.492	-200.000	-0.131	0.637
-627.478	369.881	0.158	0.321
-626.463	800.000	-0.047	-0.133
-625.449	149.222	0.084	-0.115
-624.434	86.431	0.236	0.262
-623.419	188.143	-0.210	-0.316
-622.405	-200.000	0.012	-0.197
-621.390	800.000	0.019	-0.073
-620.376	52.612	-0.103	0.099
-619.361	-22.891	0.103	0.063
-618.346	800.000	-0.072	0.271
-617.332	215.291	-0.083	0.133
-616.317	774.228	0.060	-0.164
-615.303	109.601	-0.172	-0.208
-614.288	-200.000	-0.057	0.279
-613.273	140.487	0.130	-0.173
-612.259	46.783	-0.231	-0.216
-611.244	-44.488	-0.074	-0.037
-610.230	17.985	0.180	-0.144
-609.215	-52.870	0.338	-0.157
-608.201	80.123	-0.185	-0.201
-607.186	-111.098	0.441	-0.091
-606.171	-122.052	0.111	-0.018
-605.157	-200.000	-0.030	-0.528
-604.142	764.385	-0.196	-0.534
-603.128	501.375	0.086	0.200
-602.113	-134.234	0.121	0.015
-601.098	-138.861	-0.270	0.030
-600.084	-200.000	-0.013	0.365
-599.069	-200.000	0.002	0.134
-598.055	-158.493	-0.035	0.002
-597.040	-200.000	-0.001	0.013
-596.025	800.000	0.076	0.220
-595.011	-65.996	0.189	-0.076
-593.996	15.568	-0.060	-0.047
-592.982	773.495	-0.100	-0.274
-591.967	800.000	-0.043	-0.154
-590.952	92.972	-0.243	-0.276
-589.938	-86.994	-0.168	0.051
-588.923	-153.624	0.131	0.009
-587.909	-125.013	-0.161	-0.025
-586.894	-200.000	-0.038	-0.200
-585.879	152.429	0.091	-0.125
-584.865	-200.000	0.004	0.213
-583.850	-19.816	-0.140	0.087
-582.836	-185.966	0.287	-0.004
-581.821	-200.000	-0.013	0.223
-580.806	-120.772	0.224	-0.038
-579.792	45.002	0.214	0.198
-578.777	-3.998	0.196	0.137
-577.763	187.691	-0.105	-0.158
-576.748	-200.000	0.006	0.265
-575.733	83.397	0.230	0.252
-574.719	-200.000	0.008	-0.111
-573.704	-121.624	-0.109	-0.018
-572.690	-200.000	-0.017	-0.124
-571.675	337.471	-0.167	-0.326
-570.661	-55.966	-0.319	0.143
-569.646	60.319	-0.163	-0.162
-568.631	743.585	-0.046	-0.123
-567.617	754.849	-0.063	-0.170
-566.602	211.818	-0.080	-0.127
-565.588	-69.785	-0.211	-0.081
-564.573	688.427	-0.053	-0.139
-563.558	-131.588	0.307	0.041
-562.544	-200.000	0.042	-0.217
-561.529	-57.561	0.103	-0.045
-560.515	391.338	-0.094	-0.195
-559.500	-82.491	0.091	0.029
-558.485	65.806	-0.284	0.288
-557.471	-200.000	-0.014	-0.168
-556.456	362.771	-0.061	-0.122
-555.442	64.456	-0.211	0.214
-554.427	-42.937	-0.143	-0.073
-553.412	63.367	-0.114	-0.115
-552.398	772.196	0.049	0.134
-551.383	-105.811	-0.116	-0.026
-550.369	253.152	-0.115	0.197
-549.354	-52.332	0.270	-0.126
-548.339	800.000	-0.095	0.287
-547.325	-200.000	0.011	-0.354
-546.310	183.536	-0.238	-0.353
-545.296	-197.040	0.262	-0.002
-544.281	171.840	0.275	-0.397
-543.266	-61.444	0.440	-0.186
-542.252	-18.930	-0.140	-0.087
-541.237	-200.000	0.154	0.000
-540.223	-19.140	0.091	-0.057
-539.208	-108.950	-0.065	-0.014
-538.193	800.000	-0.061	-0.195
-537.179	800.000	-0.092	-0.372
-536.164	334.486	0.135	-0.262
-535.150	140.011	0.144	-0.190
-534.135	120.518	0.132	-0.164
-533.121	-161.581	-0.016	-0.001
-532.106	83.441	-0.063	-0.069
-531.091	-200.000	-0.345	0.001
-530.077	-200.000	-0.016	0.163
-529.062	800.000	0.085	0.284
-528.048	-121.879	0.119	0.020
-527.033	-20.822	0.122	0.075
-526.018	-94.680	-0.244	0.066
-525.004	-195.969	-0.281	-0.002
-523.989	0.612	-0.331	0.238
-522.975	-64.330	-0.200	0.082
-521.960	-138.492	0.105	-0.012
-520.945	-200.000	0.010	-0.058
-519.931	-53.223	-0.053	-0.025
-518.916	38.946	0.344	0.308
-517.902	-67.810	0.254	-0.100
-516.887	622.581	0.098	0.247
-515.872	-45.309	0.097	-0.048
-514.858	594.960	-0.083	0.205
-513.843	69.595	0.090	0.093
-512.829	-200.000	-0.020	-0.088
-511.814	32.924	0.140	0.121
-510.799	-73.653	0.217	-0.079
-509.785	269.499	0.011	0.020
-508.770	62.047	-0.247	0.246
-507.756	-130.906	-0.250	-0.034
-506.741	676.007	-0.059	0.152
-505.726	50.982	-0.170	0.162
-504.712	-143.201	-0.224	0.022
-503.697	800.000	-0.015	0.057
-502.683	261.512	-0.056	-0.097
-501.668	-59.428	-0.402	-0.173
-500.653	739.620	-0.045	0.120
-499.639	240.220	-0.205	0.342
-498.624	-37.679	-0.117	0.062
-497.610	374.555	0.101	0.206
-496.595	-200.000	0.040	-0.187
-495.581	-66.848	0.224	0.089
-494.566	363.253	-0.020	0.040
-493.551	-113.410	-0.250	0.049
-492.537	-200.000	-0.005	0.169
-491.522	-141.577	0.373	0.038
-490.508	-200.000	-0.006	0.193
-489.493	-94.130	-0.394	0.108
-488.478	282.837	-0.198	-0.356
-487.464	-113.282	-0.303	0.060
-486.449	5.582	0.252	0.187
-485.435	737.823	0.108	0.289
-484.420	167.177	0.172	0.245
-483.405	800.000	-0.076	0.253
-482.391	-194.008	-0.368	0.003
-481.376	-58.733	-0.294	0.127
-480.362	-4.903	-0.107	-0.074
-479.347	-9.729	-0.154	0.102
-478.332	4.854	-0.175	0.129
-477.318	474.616	-0.061	-0.138
-476.303	-61.681	-0.130	0.055
-475.289	-139.541	0.428	0.046
-474.274	25.206	-0.159	-0.132
-473.259	13.281	0.121	0.093
-472.245	-188.908	-0.189	-0.002
-471.230	-110.559	0.392	-0.081
-470.216	-200.000	-0.057	-0.389
-469.201	54.351	0.069	-0.066
-468.186	-148.602	0.183	-0.015
-467.172	-160.717	0.279	-0.015
-466.157	800.000	0.040	-0.128
-465.143	-141.796	-0.225	-0.023
-464.128	40.567	-0.154	0.139
-463.113	16.033	-0.052	0.041
-462.099	164.669	0.216	-0.304
-461.084	-50.968	0.276	-0.130
-460.070	-123.104	0.278	-0.045
-459.055	-8.327	-0.087	0.059
-458.040	258.582	0.099	0.170
-457.026	800.000	0.082	0.271
-456.011	-12.291	-0.112	0.073
-454.997	-200.000	0.049	-0.217
-453.982	384.957	-0.126	-0.259
-452.968	24.753	-0.179	0.148
-451.953	-200.000	0.015	0.230
-450.938	-97.821	0.084	-0.022
-449.924	-51.009	0.117	-0.055
-448.909	-147.195	0.173	0.015
-447.895	377.738	-0.084	-0.172
-446.880	800.000	-0.011	0.033
-445.865	733.071	0.119	0.319
-444.851	-200.000	-0.028	0.322
-443.836	472.956	-0.102	-0.231
-442.822	-116.053	0.217	0.040
-441.807	415.989	0.057	-0.122
-440.792	-97.336	-0.022	0.006
-439.778	-200.000	0.001	0.139
-438.763	202.921	-0.061	-0.094
-437.749	800.000	-0.072	0.227
-436.734	326.062	-0.125	-0.239
-435.719	-200.000	0.031	0.193
-434.705	-156.022	-0.203	0.013
-433.690	-200.000	-0.043	-0.269
-432.676	-200.000	-0.068	0.495
-431.661	32.201	-0.384	0.331
-430.646	-113.982	-0.240	-0.046
-429.632	-200.000	0.029	-0.162
-428.617	708.891	-0.042	-0.111
-427.603	800.000	0.073	-0.287
-426.588	11.632	-0.056	-0.043
-425.573	-200.000	0.027	-0.119
-424.559	36.231	0.225	-0.198
-423.544	-200.000	-0.068	-0.443
-422.530	-8.882	-0.178	-0.119
-421.515	-114.440	0.358	0.069
-420.500	6.111	0.332	-0.246
-419.486	-200.000	-0.013	-0.113
-418.471	-109.780	0.263	-0.055
-417.457	-200.000	-0.017	-0.158
-416.442	115.862	-0.086	-0.105
-415.428	149.289	0.305	-0.412
-414.413	-94.238	0.046	0.013
-413.398	301.601	0.063	-0.117
-412.384	411.517	0.079	-0.168
-411.369	263.519	0.132	-0.229
-410.355	467.939	0.035	0.078
-409.340	-105.316	0.303	0.069
-408.325	-200.000	-0.045	-0.248
-407.311	-31.013	-0.215	0.121
-406.296	200.215	0.098	-0.150
-405.282	-165.851	0.050	-0.002
-404.267	-200.000	-0.040	0.219
-403.252	169.533	-0.118	0.168
-402.238	800.000	-0.076	0.244
-401.223	800.000	0.071	0.238
-400.209	371.328	-0.037	0.074
-399.194	134.349	-0.130	-0.168
-398.179	39.281	-0.194	0.173
-397.165	800.000	0.050	0.205
-396.150	-115.561	0.338	0.063
-395.136	-85.747	-0.050	-0.016
-394.121	-200.000	-0.049	-0.264
-393.106	-200.000	0.072	-0.368
-392.092	23.215	-0.386	-0.316
-391.077	-28.178	0.249	-0.144
-390.063	-102.080	-0.365	0.088
-389.048	-124.877	-0.579	0.089
-388.033	800.000	0.024	0.082
-387.019	800.000	-0.101	-0.307
-386.004	-94.646	-0.097	0.026
-384.990	-93.665	0.276	-0.076
-383.975	-200.000	-0.005	-0.024
-382.960	319.755	-0.039	-0.074
-381.946	-18.686	-0.362	-0.225
-380.931	-2.460	-0.189	-0.132
-379.917	-200.000	-0.041	0.194
-378.902	-2.893	-0.100	0.069
-377.888	-199.189	0.176	0.001
-376.873	555.371	0.098	-0.236
-375.858	648.901	0.053	-0.136
-374.844	-48.365	0.085	-0.041
-373.829	-200.000	-0.024	0.155
-372.815	61.492	0.199	0.197
-371.800	-200.000	0.051	-0.296
-370.785	66.810	-0.072	-0.073
-369.771	-200.000	-0.010	0.076
-368.756	-141.560	0.215	-0.022
-367.742	23.610	0.128	-0.105
-366.727	-129.557	-0.194	-0.027
-365.712	4.712	-0.282	0.207
-364.698	-88.752	-0.347	0.103
-363.683	84.617	-0.134	-0.146
-362.669	-30.003	0.038	0.022
-361.654	-6.444	-0.162	0.110
-360.639	800.000	0.124	-0.424
-359.625	800.000	-0.062	-0.190
-358.610	-165.559	-0.382	0.017
-357.596	235.872	-0.092	0.151
-356.581	9.820	0.029	-0.022
-355.566	-200.000	0.020	-0.186
-354.552	-73.980	0.160	0.058
-353.537	-148.743	-0.287	0.023
-352.523	582.347	-0.093	-0.227
-351.508	56.678	0.218	0.212
-350.493	-120.551	-0.329	0.055
-349.479	-19.520	0.183	0.113
-348.464	52.143	0.209	-0.198
-347.450	48.102	-0.134	-0.125
-346.435	-200.000	0.000	-0.075
-345.420	-200.000	-0.003	-0.233
-344.406	-200.000	0.005	-0.118
-343.391	-18.544	-0.184	0.114
-342.377	-24.431	-0.015	-0.009
-341.362	28.532	0.132	-0.111
-340.348	282.807	-0.171	0.306
-339.333	-200.000	-0.023	-0.136
-338.318	-26.045	0.104	-0.061
-337.304	262.249	0.203	0.350
-336.289	72.993	0.232	0.242
-335.275	-46.423	-0.423	-0.207
-334.260	18.602	-0.105	-0.083
-333.245	211.138	0.308	0.482
-332.231	-107.837	-0.386	0.084
-331.216	-200.000	0.017	-0.119
-330.202	800.000	0.044	0.124
-329.187	-200.000	0.018	0.206
-328.172	-200.000	0.007	0.042
-327.158	732.449	0.147	-0.391
-326.143	-200.000	-0.037	-0.201
-325.129	-90.123	-0.240	-0.070
-324.114	-69.237	-0.284	-0.108
-323.099	-99.706	-0.298	-0.074
-322.085	-128.525	0.118	-0.017
-321.070	222.160	0.065	-0.103
-320.056	440.190	-0.048	0.105
-319.041	54.212	-0.075	0.072
-318.026	-41.484	0.047	-0.024
-317.012	-98.411	-0.291	0.074
-315.997	128.039	0.107	-0.135
-314.983	-114.226	0.023	0.004
-313.968	-28.068	-0.125	0.072
-312.953	589.228	-0.065	0.158
-311.939	-119.165	0.454	-0.079
-310.924	182.061	0.178	0.261
-309.910	-33.363	0.166	-0.091
-308.895	-101.791	-0.171	0.041
-307.880	4.834	0.174	0.127
-306.866	255.721	-0.141	-0.241
-305.851	-200.000	-0.040	0.302
-304.837	174.237	-0.107	0.154
-303.822	-200.000	0.009	-0.340
-302.807	404.235	0.112	-0.234
-301.793	655.076	-0.091	0.232
-300.778	-200.000	0.012	-0.161
-299.764	-88.103	-0.270	0.081
-298.749	33.459	0.077	-0.066
-297.735	8.984	-0.236	-0.177
-296.720	166.058	-0.041	-0.057
-295.705	7.612	0.130	0.097
-294.691	-151.352	0.113	0.008
-293.676	800.000	0.053	0.227
-292.662	166.740	0.088	-0.124
-291.647	369.695	0.060	0.121
-290.632	240.452	0.038	0.062
-289.618	-110.765	-0.355	-0.073
-288.603	-200.000	0.007	0.136
-287.589	-166.290	0.172	-0.007
-286.574	800.000	-0.136	0.462
-285.559	-4.703	0.205	0.140
-284.545	207.314	-0.086	-0.133
-283.530	-200.000	0.029	-0.256
-282.516	-32.443	0.352	-0.195
-281.501	-200.000	0.005	0.075
-280.486	-200.000	0.019	0.176
-279.472	98.115	-0.122	0.139
-278.457	-72.697	-0.174	0.064
-277.443	-200.000	0.015	0.217
-276.428	-200.000	-0.005	0.076
-275.413	-96.822	-0.283	-0.074
-274.399	-145.090	-0.037	-0.003
-273.384	172.810	0.051	0.073
-272.370	-200.000	-0.027	-0.405
-271.355	-59.868	0.167	-0.071
-270.340	-56.894	-0.222	0.097
-269.326	53.003	0.254	-0.241
-268.311	-66.082	0.291	-0.115
-267.297	24.523	-0.219	0.180
-266.282	287.339	0.135	-0.242
-265.267	-26.441	-0.178	-0.104
-264.253	91.947	-0.069	-0.077
-263.238	-200.000	-0.072	0.000
-262.224	-18.906	-0.151	-0.093
-261.209	44.567	-0.045	0.041
-260.195	-186.719	-0.450	0.006
-259.180	-46.731	0.080	0.039
-258.165	-49.898	0.275	0.130
-257.151	-77.474	0.179	0.062
-256.136	-200.000	0.035	-0.169
-255.122	-200.000	0.038	-0.381
-254.107	160.352	0.032	-0.045
-253.092	-200.000	0.067	0.417
-252.078	728.730	-0.031	-0.083
-251.063	-1.905	0.051	0.036
-250.049	-152.002	-0.173	0.013
-249.034	15.364	-0.107	-0.083
-248.019	-3.546	0.207	0.143
-247.005	164.869	-0.096	0.135
-245.990	548.652	-0.112	0.265
-244.976	-200.000	0.052	-0.405
-243.961	-200.000	0.004	-0.048
-242.946	771.862	-0.046	0.124
-241.932	132.996	0.170	-0.217
-240.917	203.882	-0.260	0.400
-239.903	260.093	-0.018	0.031
-238.888	-99.952	0.431	0.107
-237.873	-200.000	-0.039	-0.186
-236.859	-200.000	0.024	-0.119
-235.844	-146.724	0.233	-0.020
-234.830	452.351	0.101	0.222
-233.815	-97.760	-0.187	-0.048
-232.800	-200.000	0.003	0.045
-231.786	32.383	-0.312	0.267
-230.771	551.211	0.036	0.085
-229.757	-200.000	-0.004	-0.060
-228.742	-200.000	0.057	0.337
-227.727	-175.519	0.167	0.005
-226.713	293.006	-0.127	0.230
-225.698	690.114	0.072	-0.186
-224.684	-136.116	0.111	0.013
-223.669	800.000	0.021	0.085
-222.655	-44.238	0.053	0.026
-221.640	155.543	-0.174	-0.238
-220.625	-157.794	0.229	0.013
-219.611	82.039	0.100	0.108
-218.596	-200.000	-0.003	0.033
-217.582	-106.039	0.165	-0.037
-216.567	-88.671	0.205	-0.060
-215.552	119.651	0.211	0.259
-214.538	-82.476	-0.172	-0.055
-213.523	-200.000	0.050	0.240
-212.509	22.995	0.450	-0.366
-211.494	-6.439	-0.262	0.177
-210.479	800.000	0.027	-0.091
-209.465	-200.000	-0.013	-0.105
-208.450	90.280	0.322	-0.356
-207.436	-200.000	0.035	-0.156
-206.421	569.314	-0.110	0.264
-205.406	109.433	0.208	0.246
-204.392	301.562	-0.139	0.254
-203.377	188.952	0.243	0.360
-202.363	385.409	-0.062	-0.127
-201.348	-110.309	0.148	-0.030
-200.333	-200.000	0.003	-0.059
-199.319	-103.113	-0.289	-0.068
-198.304	-124.060	0.319	0.050
-197.290	109.275	0.158	-0.187
-196.275	30.681	0.150	-0.127
-195.260	164.271	0.129	0.179
-194.246	171.786	-0.166	-0.236
-193.231	-49.591	0.191	-0.090
-192.217	-200.000	-0.010	0.052
-191.202	800.000	0.068	-0.288
-190.187	176.780	-0.158	0.228
-189.173	-35.525	0.379	-0.204
-188.158	-50.188	0.218	0.102
-187.144	640.522	0.056	0.141
-186.129	-200.000	-0.271	0.000
-185.114	-200.000	-0.024	0.170
-184.100	-200.000	0.016	-0.126
-183.085	-200.000	0.017	0.252
-182.071	246.021	-0.043	-0.072
-181.056	-14.866	-0.351	0.222
-180.042	224.890	0.185	0.297
-179.027	-82.781	0.112	0.036
-178.012	16.454	0.280	0.219
-176.998	-95.504	0.489	-0.130
-175.983	111.468	-0.153	-0.183
-174.969	102.688	-0.112	0.129
-173.954	-156.061	-0.265	-0.017
-172.939	-96.454	-0.086	0.022
-171.925	33.122	-0.089	0.077
-170.910	-130.358	-0.133	0.018
-169.896	156.096	0.297	0.405
-168.881	800.000	-0.094	0.367
-167.866	-200.000	0.021	0.322
-166.852	52.237	0.089	0.084
-165.837	-200.000	0.027	-0.256
-164.823	-200.000	0.065	-0.322
-163.808	-71.885	-0.309	-0.114
-162.793	228.697	0.081	-0.130
-161.779	800.000	0.099	0.290
-160.764	195.676	0.058	-0.087
-159.750	346.866	0.093	0.180
-158.735	-49.787	0.103	-0.049
-157.720	17.445	0.130	0.102
-156.706	800.000	-0.037	0.107
-155.691	112.958	0.103	-0.123
-154.677	-124.876	0.274	-0.042
-153.662	-200.000	-0.016	0.173
-152.647	-71.373	0.230	0.085
-151.633	-198.319	0.535	0.003
-150.618	800.000	0.135	0.371
-149.604	186.262	0.099	0.145
-148.589	-200.000	0.019	0.292
-147.574	-77.998	-0.111	-0.038
-146.560	-145.067	0.149	0.013
-145.545	-99.497	-0.354	-0.088
-144.531	800.000	0.090	-0.296
-143.516	102.016	0.055	-0.064
-142.502	92.147	0.136	-0.151
-141.487	469.406	0.142	-0.315
-140.472	-64.351	0.127	-0.051
-139.458	800.000	-0.097	-0.332
-138.443	800.000	0.043	0.167
-137.429	97.843	0.134	-0.152
-136.414	-200.000	0.079	0.431
-135.399	-50.354	0.335	0.156
-134.385	-41.605	0.321	0.163
-133.370	-18.252	-0.413	0.255
-132.356	-200.000	0.064	-0.392
-131.341	260.033	0.135	0.230
-130.326	-26.746	0.058	0.034
-129.312	484.607	-0.057	-0.128
-128.297	-79.620	-0.033	0.011
-127.283	14.601	0.291	0.224
-126.268	77.177	-0.107	0.112
-125.253	193.707	0.150	-0.225
-124.239	160.761	0.121	0.167
-123.224	377.196	-0.061	0.123
-122.210	-127.278	0.116	0.017
