DTS Sentinel unit serial number:	SN413079Multiplexer serial number:	ORYXHardware model number:	OX4-SRSoftware version number:	ORYX F/W v4.00 Oryx Data Collector v3.7.2.0data status	okinstallation	princeton_trtdifferential loss correction	single-endedforward channel	channel 2reverse channel	N/Adate	2019/09/12time	05:05:11forward acquisition time	60.00reverse acquisition time	0.00gamma	496.2192k internal	0.2325k external	0.2325temperature offset calibration	1.0070default loss term (dB/km)	0.3790temperature slope calibration	1.0000multiplexer offset coefficient	1.0000multiplexer slope coefficient	1.0000fibre end	0.00T internal ref (°C)	31.75T ext. ref 1 (°C)	1.69T ext. ref 2 (°C)	27.05length (m)	temperature (°C)	Stokes	anti-Stokes-747.200	-10.534	0.499	-0.333
-746.185	158.449	-0.050	0.070
-745.171	131.111	-0.137	0.178
-744.156	-200.000	-0.054	0.238
-743.142	148.405	-0.209	0.285
-742.127	-131.458	0.107	-0.014
-741.112	-200.000	-0.072	0.465
-740.098	-200.000	-0.029	0.314
-739.083	117.792	-0.257	0.320
-738.069	17.818	-0.368	0.296
-737.054	-73.333	0.261	0.096
-736.039	-107.530	-0.290	-0.064
-735.025	-51.814	0.218	0.103
-734.010	-31.681	-0.199	-0.113
-732.996	800.000	0.083	-0.354
-731.981	-117.605	-0.350	0.064
-730.966	28.703	-0.049	0.042
-729.952	149.850	-0.143	-0.195
-728.937	800.000	-0.039	-0.129
-727.923	419.020	-0.086	0.186
-726.908	-96.429	-0.331	0.088
-725.894	-200.000	0.015	-0.223
-724.879	277.212	-0.088	0.158
-723.864	252.743	0.172	0.296
-722.850	229.888	0.140	0.230
-721.835	517.203	-0.099	-0.234
-720.821	-200.000	0.046	-0.285
-719.806	55.352	-0.108	-0.105
-718.791	-109.945	-0.377	-0.080
-717.777	-36.325	0.188	-0.102
-716.762	236.533	-0.101	-0.169
-715.748	-200.000	0.103	-0.560
-714.733	-109.055	0.169	-0.036
-713.718	143.094	-0.120	-0.161
-712.704	-200.000	-0.083	-0.382
-711.689	94.880	-0.052	0.059
-710.675	145.814	-0.214	-0.288
-709.660	1.796	-0.136	-0.098
-708.645	3.822	0.088	0.065
-707.631	785.331	-0.129	0.357
-706.616	131.307	-0.091	0.118
-705.602	800.000	0.037	-0.130
-704.587	141.984	-0.194	0.259
-703.572	-200.000	0.027	-0.137
-702.558	-200.000	0.003	-0.121
-701.543	-200.000	0.004	0.070
-700.529	-200.000	0.045	0.253
-699.514	-60.726	-0.144	0.062
-698.499	-80.933	0.064	-0.021
-697.485	57.000	0.233	-0.228
-696.470	-47.643	-0.166	0.081
-695.456	153.871	0.178	-0.246
-694.441	72.284	0.097	-0.102
-693.426	302.397	-0.174	-0.324
-692.412	-169.341	-0.259	0.010
-691.397	-200.000	0.049	0.239
-690.383	-120.076	-0.292	0.050
-689.368	-41.806	-0.020	0.010
-688.354	-1.936	-0.214	-0.152
-687.339	-200.000	-0.003	-0.305
-686.324	-200.000	-0.003	0.217
-685.310	800.000	0.066	-0.254
-684.295	269.620	-0.160	-0.283
-683.281	-100.051	-0.142	-0.036
-682.266	80.454	-0.132	-0.143
-681.251	-177.535	0.365	0.009
-680.237	-31.699	0.251	0.142
-679.222	-148.628	0.312	0.026
-678.208	-200.000	0.100	-0.579
-677.193	-200.000	0.015	0.206
-676.178	-26.443	0.115	-0.068
-675.164	565.284	-0.133	0.325
-674.149	256.370	-0.153	-0.264
-673.135	80.558	-0.131	-0.142
-672.120	188.491	-0.130	-0.195
-671.105	20.986	0.026	0.022
-670.091	122.555	-0.066	0.082
-669.076	-200.000	0.046	-0.207
-668.062	80.372	0.193	0.209
-667.047	-77.071	0.255	-0.089
-666.032	74.847	-0.108	0.114
-665.018	99.611	0.063	0.074
-664.003	-12.180	0.111	0.073
-662.989	-200.000	0.037	0.179
-661.974	781.768	-0.088	-0.243
-660.959	-99.084	0.275	0.070
-659.945	41.056	0.095	-0.086
-658.930	52.163	0.224	0.215
-657.916	-78.933	-0.278	0.095
-656.901	-115.395	0.229	-0.043
-655.886	185.392	0.072	0.107
-654.872	-31.485	-0.190	-0.108
-653.857	131.341	0.170	0.220
-652.843	-144.341	-0.218	0.020
-651.828	-200.000	-0.008	-0.251
-650.814	93.098	0.242	-0.275
-649.799	-200.000	0.017	-0.125
-648.784	-155.194	0.130	-0.009
-647.770	35.531	0.137	0.121
-646.755	-83.621	0.345	0.111
-645.741	-41.583	0.234	-0.121
-644.726	-200.000	-0.055	-0.402
-643.711	6.135	-0.319	-0.238
-642.697	-81.650	-0.334	-0.110
-641.682	-200.000	0.049	0.342
-640.668	77.937	0.188	0.201
-639.653	-74.950	0.470	0.169
-638.638	244.545	0.078	0.131
-637.624	-200.000	0.065	-0.502
-636.609	299.629	0.193	-0.358
-635.595	-79.029	-0.126	-0.043
-634.580	90.961	-0.115	-0.129
-633.565	253.353	-0.136	-0.233
-632.551	7.004	-0.173	-0.130
-631.536	448.195	0.074	0.163
-630.522	-41.050	0.164	0.085
-629.507	44.676	-0.306	-0.282
-628.492	-12.644	0.099	-0.065
-627.478	-58.179	0.098	-0.043
-626.463	800.000	0.072	0.203
-625.449	27.747	0.034	-0.028
-624.434	744.333	-0.066	-0.178
-623.419	-59.666	0.220	0.094
-622.405	-126.103	0.153	-0.023
-621.390	11.486	-0.101	0.078
-620.376	-24.465	-0.287	0.172
-619.361	-96.512	0.125	0.033
-618.346	586.370	0.114	-0.282
-617.332	-200.000	0.002	-0.160
-616.317	148.728	-0.096	0.130
-615.303	95.522	-0.089	-0.101
-614.288	247.396	0.046	0.078
-613.273	715.237	0.047	-0.124
-612.259	-166.174	-0.284	0.012
-611.244	800.000	-0.006	0.019
-610.230	800.000	0.035	0.143
-609.215	60.259	0.170	0.169
-608.201	-4.287	0.007	0.005
-607.186	-200.000	0.068	0.312
-606.171	-200.000	0.025	0.128
-605.157	800.000	-0.079	-0.238
-604.142	-200.000	0.029	-0.150
-603.128	-200.000	-0.088	-0.459
-602.113	-65.621	0.174	0.070
-601.098	94.176	-0.093	-0.105
-600.084	-200.000	-0.013	-0.295
-599.069	373.666	-0.134	0.274
-598.055	800.000	0.034	-0.112
-597.040	-39.317	-0.109	-0.057
-596.025	-200.000	0.045	-0.349
-595.011	-103.716	-0.185	-0.043
-593.996	-86.941	-0.307	-0.094
-592.982	190.196	0.088	0.133
-591.967	306.106	0.153	0.285
-590.952	-45.143	-0.116	-0.058
-589.938	16.842	-0.157	0.125
-588.923	522.133	-0.100	0.236
-587.909	-138.489	-0.318	-0.035
-586.894	-180.558	-0.070	0.001
-585.879	-74.412	-0.230	-0.083
-584.865	800.000	-0.034	-0.110
-583.850	-200.000	-0.004	-0.231
-582.836	84.105	-0.210	-0.229
-581.821	-121.900	0.168	0.028
-580.806	303.344	0.200	-0.371
-579.792	800.000	-0.064	-0.247
-578.777	-134.373	0.191	-0.023
-577.763	5.123	0.105	-0.077
-576.748	-173.141	-0.105	0.003
-575.733	-200.000	-0.039	-0.377
-574.719	133.906	0.030	0.039
-573.704	-61.207	0.068	-0.029
-572.690	800.000	0.065	-0.250
-571.675	800.000	0.077	0.239
-570.661	-56.949	-0.209	-0.092
-569.646	-142.042	-0.129	0.013
-568.631	387.833	0.099	0.206
-567.617	-163.259	-0.134	-0.006
-566.602	-58.235	0.107	-0.046
-565.588	-200.000	-0.425	-0.001
-564.573	-200.000	0.005	0.190
-563.558	-79.532	-0.147	-0.050
-562.544	284.621	0.090	0.162
-561.529	800.000	-0.059	0.239
-560.515	-101.164	0.242	-0.059
-559.500	273.930	0.152	0.270
-558.485	-154.982	-0.034	-0.002
-557.471	-109.200	0.259	0.055
-556.456	-68.539	0.300	0.117
-555.442	333.392	0.129	0.249
-554.427	-40.431	0.324	0.168
-553.412	-44.248	-0.304	0.153
-552.398	31.974	0.123	-0.106
-551.383	-200.000	-0.009	-0.058
-550.369	438.698	-0.096	0.209
-549.354	-200.000	-0.060	0.306
-548.339	-46.857	0.268	0.131
-547.325	-101.756	0.225	-0.055
-546.310	-93.217	-0.413	-0.115
-545.296	800.000	0.082	0.259
-544.281	800.000	0.076	0.271
-543.266	-135.106	-0.371	0.045
-542.252	-91.393	-0.091	-0.026
-541.237	65.796	-0.205	-0.208
-540.223	-200.000	0.072	-0.407
-539.208	-108.991	-0.073	-0.016
-538.193	-200.000	-0.016	-0.128
-537.179	800.000	-0.054	-0.163
-536.164	-102.092	-0.087	0.021
-535.150	383.763	0.170	-0.350
-534.135	-12.779	-0.217	0.141
-533.121	-200.000	0.021	0.313
-532.106	-91.529	-0.130	0.037
-531.091	-200.000	-0.014	0.135
-530.077	-59.934	-0.292	-0.125
-529.062	800.000	-0.062	0.259
-528.048	746.681	-0.062	-0.168
-527.033	184.398	0.159	-0.236
-526.018	-125.789	-0.495	-0.075
-525.004	377.219	0.221	0.451
-523.989	800.000	0.025	0.103
-522.975	104.977	-0.117	0.138
-521.960	70.214	0.190	-0.196
-520.945	88.694	0.105	-0.117
-519.931	359.178	0.098	0.196
-518.916	-200.000	0.016	0.103
-517.902	-63.685	0.265	0.109
-516.887	-146.479	0.197	0.017
-515.872	88.647	0.113	0.125
-514.858	-200.000	0.030	0.478
-513.843	-125.048	-0.207	0.032
-512.829	112.952	0.118	0.143
-511.814	-9.854	-0.215	-0.143
-510.799	800.000	0.121	-0.340
-509.785	-77.343	-0.259	-0.090
-508.770	-200.000	0.013	-0.144
-507.756	800.000	0.158	0.445
-506.741	-200.000	0.014	0.064
-505.726	-18.940	-0.187	-0.117
-504.712	-131.960	-0.242	0.032
-503.697	44.661	-0.043	-0.040
-502.683	800.000	0.140	-0.423
-501.668	420.913	0.150	0.321
-500.653	-200.000	-0.003	0.225
-499.639	299.435	0.216	0.398
-498.624	14.056	0.289	-0.225
-497.610	173.159	0.098	0.141
-496.595	-200.000	-0.021	-0.426
-495.581	-82.010	0.210	-0.068
-494.566	-200.000	-0.033	-0.332
-493.551	77.724	0.156	0.166
-492.537	86.131	-0.180	-0.197
-491.522	62.554	-0.048	-0.048
-490.508	-200.000	0.033	-0.166
-489.493	-159.954	0.090	-0.005
-488.478	-67.555	0.115	0.045
-487.464	782.577	-0.053	-0.144
-486.449	177.957	-0.188	-0.274
-485.435	695.111	0.073	-0.192
-484.420	-125.766	-0.105	0.016
-483.405	234.077	0.088	0.145
-482.391	361.656	-0.081	-0.161
-481.376	-58.831	0.226	-0.098
-480.362	59.473	-0.076	-0.075
-479.347	246.283	-0.051	0.087
-478.332	-137.387	0.212	-0.024
-477.318	-73.830	0.080	-0.029
-476.303	-200.000	-0.080	0.396
-475.289	146.309	0.107	0.144
-474.274	800.000	-0.025	-0.090
-473.259	693.197	0.092	0.241
-472.245	800.000	-0.018	0.057
-471.230	458.957	-0.163	-0.362
-470.216	-146.157	0.421	-0.037
-469.201	69.546	-0.109	-0.112
-468.186	-74.295	0.111	0.040
-467.172	-82.576	0.303	0.098
-466.157	-43.105	-0.353	-0.178
-465.143	-23.086	0.108	-0.065
-464.128	54.966	0.016	0.015
-463.113	-200.000	0.040	-0.345
-462.099	54.941	0.300	-0.289
-461.084	57.460	0.157	-0.153
-460.070	-114.365	-0.281	-0.054
-459.055	195.847	0.034	0.052
-458.040	-83.113	0.157	-0.050
-457.026	108.177	-0.327	0.389
-456.011	-97.459	-0.069	0.018
-454.997	-128.419	0.155	0.022
-453.982	-200.000	-0.048	0.250
-452.968	159.400	-0.120	-0.166
-451.953	240.913	-0.057	0.095
-450.938	800.000	-0.038	-0.138
-449.924	-44.952	0.411	0.204
-448.909	-112.632	-0.148	0.029
-447.895	-31.259	0.266	-0.150
-446.880	200.284	0.070	-0.107
-445.865	54.680	-0.093	0.090
-444.851	-125.750	0.126	0.019
-443.836	-86.362	-0.519	-0.159
-442.822	699.670	-0.065	-0.170
-441.807	-61.845	0.338	0.141
-440.792	307.952	0.146	-0.272
-439.778	189.794	-0.177	0.265
-438.763	-200.000	-0.001	0.036
-437.749	800.000	0.057	0.182
-436.734	-26.007	0.174	-0.102
-435.719	67.774	0.080	-0.081
-434.705	-200.000	-0.001	0.067
-433.690	726.298	-0.146	0.387
-432.676	396.999	-0.060	-0.126
-431.661	800.000	0.092	-0.279
-430.646	60.351	-0.113	-0.112
-429.632	-149.668	0.154	0.012
-428.617	-200.000	-0.061	-0.290
-427.603	800.000	-0.035	-0.137
-426.588	47.135	0.121	0.112
-425.573	-169.578	-0.068	0.002
-424.559	380.594	-0.043	-0.088
-423.544	-88.779	-0.097	0.029
-422.530	-61.260	-0.286	-0.120
-421.515	-74.592	-0.016	0.006
-420.500	-36.921	0.183	0.098
-419.486	-47.465	0.096	-0.047
-418.471	539.013	0.037	-0.088
-417.457	-199.801	0.222	0.001
-416.442	-114.850	-0.221	0.042
-415.428	-71.402	-0.229	-0.086
-414.413	-81.452	-0.132	0.043
-413.398	277.524	0.141	0.251
-412.384	-163.597	-0.143	-0.007
-411.369	131.654	-0.190	-0.243
-410.355	800.000	0.136	-0.377
-409.340	83.582	-0.199	0.216
-408.325	225.998	0.135	0.218
-407.311	481.152	0.110	0.249
-406.296	-200.000	-0.023	0.165
-405.282	-200.000	-0.008	-0.082
-404.267	-200.000	0.014	0.089
-403.252	-200.000	-0.032	0.320
-402.238	-41.365	0.229	0.117
-401.223	-24.450	0.170	0.101
-400.209	315.907	-0.185	0.348
-399.194	42.215	-0.116	0.105
-398.179	428.571	-0.140	0.302
-397.165	7.142	0.150	-0.111
-396.150	63.220	0.195	0.195
-395.136	-88.294	-0.197	-0.059
-394.121	95.062	-0.109	0.124
-393.106	-172.930	0.204	-0.006
-392.092	-45.860	0.150	-0.074
-391.077	-200.000	0.055	-0.276
-390.063	800.000	0.033	-0.117
-389.048	-9.899	0.315	-0.209
-388.033	-117.296	0.287	-0.052
-387.019	-82.965	0.035	0.011
-386.004	-100.011	-0.177	0.044
-384.990	16.556	0.094	-0.074
-383.975	-73.148	-0.356	0.130
-382.960	-9.384	-0.115	-0.077
-381.946	4.309	-0.253	-0.184
-380.931	-200.000	-0.051	0.364
-379.917	46.016	-0.112	0.103
-378.902	77.232	-0.171	-0.180
-377.888	624.329	-0.090	0.226
-376.873	254.885	0.051	0.086
-375.858	22.867	0.373	0.304
-374.844	-132.858	-0.182	0.023
-373.829	-84.777	0.207	-0.065
-372.815	-166.861	0.103	0.004
-371.800	43.233	0.088	0.080
-370.785	-200.000	-0.002	-0.170
-369.771	72.271	0.069	0.071
-368.756	-173.112	0.605	0.018
-367.742	-200.000	-0.003	0.187
-366.727	-129.008	-0.514	-0.072
-365.712	-9.865	0.125	0.082
-364.698	452.380	0.011	-0.024
-363.683	-35.290	0.168	-0.091
-362.669	-75.846	0.316	0.111
-361.654	-200.000	0.096	-0.543
-360.639	-25.161	0.252	0.148
-359.625	49.692	0.201	0.188
-358.610	126.642	0.161	-0.202
-357.596	10.540	-0.084	0.063
-356.581	189.260	0.159	0.237
-355.566	800.000	-0.080	-0.311
-354.552	-94.956	0.399	-0.107
-353.537	800.000	0.088	0.264
-352.523	533.428	0.047	0.112
-351.508	-200.000	-0.007	0.153
-350.493	-54.114	-0.196	-0.089
-349.479	362.909	-0.131	-0.262
-348.464	800.000	-0.128	0.364
-347.450	-104.032	-0.394	0.091
-346.435	-29.424	-0.163	0.092
-345.420	-49.404	0.123	0.058
-344.406	70.161	-0.104	0.107
-343.391	800.000	0.033	0.098
-342.377	-200.000	0.013	-0.370
-341.362	609.900	0.062	-0.155
-340.348	191.845	0.072	-0.108
-339.333	-200.000	0.021	0.307
-338.318	-89.682	0.306	0.089
-337.304	688.192	-0.080	-0.208
-336.289	39.507	-0.203	-0.181
-335.275	110.878	0.048	0.058
-334.260	-200.000	0.035	0.168
-333.245	248.833	-0.068	0.114
-332.231	-54.049	0.237	-0.107
-331.216	-54.267	-0.256	-0.115
-330.202	-64.576	-0.229	0.092
-329.187	-196.574	-0.261	0.002
-328.172	-35.493	-0.206	-0.111
-327.158	800.000	0.081	-0.231
-326.143	-200.000	-0.010	0.211
-325.129	800.000	-0.073	0.246
-324.114	33.948	-0.096	-0.083
-323.099	432.437	0.102	0.219
-322.085	282.149	0.130	0.232
-321.070	800.000	0.051	-0.163
-320.056	-49.504	0.088	-0.042
-319.041	426.350	-0.018	0.039
-318.026	457.078	-0.161	-0.356
-317.012	-200.000	0.028	0.223
-315.997	-200.000	-0.007	0.076
-314.983	19.778	-0.097	0.078
-313.968	-96.632	-0.438	0.114
-312.953	51.664	-0.097	0.092
-311.939	306.584	0.183	-0.338
-310.924	-200.000	0.017	-0.124
-309.910	-92.419	-0.170	0.048
-308.895	95.620	-0.097	0.110
-307.880	228.589	-0.154	0.249
-306.866	-79.111	0.199	0.067
-305.851	-21.821	0.263	0.158
-304.837	516.423	-0.073	-0.170
-303.822	-41.251	0.096	0.049
-302.807	-86.131	0.471	0.144
-301.793	-22.061	-0.252	0.152
-300.778	379.479	0.098	0.198
-299.764	395.267	-0.025	0.051
-298.749	0.581	0.185	0.131
-297.735	-42.176	-0.243	-0.123
-296.720	90.558	0.277	-0.307
-295.705	30.550	0.033	0.028
-294.691	-200.000	0.019	-0.206
-293.676	-69.213	-0.465	-0.177
-292.662	1.188	0.013	0.009
-291.647	148.987	0.104	0.139
-290.632	-104.233	0.349	0.080
-289.618	-164.505	-0.285	-0.013
-288.603	-169.816	-0.134	-0.005
-287.589	583.393	-0.112	0.271
-286.574	-200.000	0.023	0.393
-285.559	-200.000	-0.028	0.261
-284.545	-9.898	0.366	0.241
-283.530	57.088	-0.237	0.229
-282.516	-200.000	-0.043	-0.235
-281.501	-127.946	0.344	0.049
-280.486	150.633	0.065	0.087
-279.472	-61.839	-0.251	-0.104
-278.457	215.270	-0.206	0.324
-277.443	-125.092	0.051	0.008
-276.428	358.067	-0.079	0.155
-275.413	255.453	0.158	-0.268
-274.399	53.396	0.214	-0.204
-273.384	164.329	0.154	-0.215
-272.370	-200.000	-0.009	0.151
-271.355	-200.000	-0.026	0.232
-270.340	207.968	-0.095	0.146
-269.326	143.240	-0.114	-0.151
-268.311	-128.960	-0.264	-0.037
-267.297	-87.106	-0.159	-0.048
-266.282	-94.248	-0.344	-0.093
-265.267	-92.233	0.304	-0.085
-264.253	-56.748	-0.104	-0.046
-263.238	99.195	0.039	0.045
-262.224	44.767	-0.150	0.136
-261.209	-200.000	-0.057	-0.320
-260.195	20.683	-0.156	-0.125
-259.180	-21.613	0.271	-0.163
-258.165	-89.232	0.250	0.073
-257.151	-69.562	0.207	-0.078
-256.136	-16.202	-0.143	0.090
-255.122	31.468	0.108	0.092
-254.107	78.304	-0.159	0.168
-253.092	800.000	0.054	-0.161
-252.078	105.438	0.126	-0.147
-251.063	-200.000	0.001	0.049
-250.049	-159.407	0.083	0.005
-249.034	-36.233	-0.224	0.120
-248.019	-200.000	0.016	-0.154
-247.005	-110.760	0.123	0.025
-245.990	800.000	0.036	-0.124
-244.976	235.899	-0.077	0.126
-243.961	-103.318	0.322	0.075
-242.946	-37.329	-0.157	-0.083
-241.932	29.801	-0.128	-0.108
-240.917	-165.015	-0.261	0.012
-239.903	101.730	-0.366	-0.422
-238.888	87.400	0.135	-0.148
-237.873	-42.753	0.339	0.171
-236.859	-85.861	0.161	-0.049
-235.844	-200.000	0.007	-0.266
-234.830	164.164	0.083	0.116
-233.815	59.268	-0.185	-0.180
-232.800	-200.000	0.005	-0.229
-231.786	800.000	-0.038	0.118
-230.771	-101.856	0.111	-0.026
-229.757	800.000	0.102	-0.286
-228.742	800.000	0.088	0.250
-227.727	-68.547	-0.038	-0.014
-226.713	-116.725	0.249	0.045
-225.698	16.463	-0.118	-0.092
-224.684	-200.000	-0.059	0.379
-223.669	-200.000	-0.002	-0.093
-222.655	30.257	0.168	0.142
-221.640	-32.669	-0.180	0.099
-220.625	-36.137	0.197	0.105
-219.611	-200.000	-0.069	0.446
-218.596	175.679	-0.005	-0.008
-217.582	800.000	-0.056	-0.207
-216.567	-65.204	-0.280	0.112
-215.552	800.000	-0.132	-0.547
-214.538	-24.072	-0.281	-0.166
-213.523	-144.622	-0.070	0.006
-212.509	800.000	-0.071	0.251
-211.494	75.118	0.172	-0.180
-210.479	-12.796	-0.242	-0.156
-209.465	800.000	-0.038	0.163
-208.450	-21.173	0.054	0.033
-207.436	-19.656	-0.111	-0.068
-206.421	-134.414	-0.209	0.025
-205.406	-135.688	-0.371	0.043
-204.392	-200.000	-0.027	-0.134
-203.377	-75.440	0.303	0.107
-202.363	-1.772	-0.063	0.044
-201.348	-200.000	0.017	0.097
-200.333	800.000	0.043	-0.123
-199.319	-41.276	-0.136	-0.069
-198.304	31.047	0.148	0.125
-197.290	-200.000	-0.001	0.068
-196.275	-104.557	-0.099	0.022
-195.260	800.000	-0.012	-0.046
-194.246	201.015	0.165	-0.251
-193.231	-200.000	0.042	0.262
-192.217	101.177	0.242	0.278
-191.202	25.713	0.143	0.118
-190.187	-144.814	-0.047	-0.004
-189.173	-29.012	-0.308	-0.175
-188.158	-144.958	-0.302	-0.027
-187.144	323.368	-0.212	0.399
-186.129	800.000	0.109	0.360
-185.114	32.770	-0.092	-0.079
-184.100	-200.000	-0.011	0.050
-183.085	-200.000	0.006	-0.061
-182.071	90.720	-0.122	-0.135
-181.056	118.444	-0.077	-0.094
-180.042	-54.035	0.197	-0.089
-179.027	-51.332	0.156	-0.072
-178.012	1.520	-0.169	0.120
-176.998	10.148	-0.190	-0.143
-175.983	-11.296	0.063	-0.041
-174.969	87.179	0.061	-0.066
-173.954	-4.119	0.132	0.090
-172.939	-70.537	-0.038	-0.014
-171.925	164.976	-0.113	-0.158
-170.910	-8.484	0.319	0.211
-169.896	-200.000	0.094	-0.409
-168.881	-91.901	0.247	0.069
-167.866	-149.368	-0.082	0.006
-166.852	-52.224	-0.206	-0.094
-165.837	800.000	-0.048	0.201
-164.823	800.000	0.071	0.265
-163.808	-21.097	0.064	-0.038
-162.793	-200.000	0.023	-0.195
-161.779	101.139	-0.061	0.070
-160.764	-33.554	-0.357	0.194
-159.750	578.431	0.114	-0.274
-158.735	64.061	0.107	-0.106
-157.720	271.045	-0.146	0.254
-156.706	-0.031	0.108	-0.076
-155.691	-88.245	0.194	0.057
-154.677	-69.581	-0.321	-0.121
-153.662	193.243	-0.125	-0.187
-152.647	800.000	-0.034	-0.116
-151.633	-152.782	-0.094	-0.007
-150.618	-200.000	-0.006	0.074
-149.604	4.675	-0.140	0.102
-148.589	160.108	-0.134	0.184
-147.574	-93.363	-0.136	0.037
-146.560	-200.000	0.006	-0.602
-145.545	19.747	0.136	0.108
-144.531	-151.021	0.541	0.040
-143.516	124.243	-0.076	-0.094
-142.502	43.170	-0.128	0.116
-141.487	323.673	-0.147	-0.276
-140.472	-172.509	0.368	-0.011
-139.458	800.000	-0.073	0.224
-138.443	-141.751	0.244	-0.024
-137.429	485.801	-0.193	0.433
-136.414	20.661	0.145	0.116
-135.399	450.590	-0.149	-0.324
-134.385	198.779	-0.199	0.300
-133.370	800.000	0.024	-0.101
-132.356	180.156	0.065	-0.094
-131.341	-200.000	0.017	-0.197
-130.326	-87.275	0.289	0.086
-129.312	800.000	-0.078	-0.278
-128.297	-10.425	-0.266	-0.173
-127.283	-89.755	-0.220	-0.063
-126.268	42.575	-0.129	0.115
-125.253	169.857	0.222	0.312
-124.239	800.000	0.046	-0.150
-123.224	9.876	-0.148	-0.111
-122.210	-169.728	0.139	-0.005
-121.195	-9.575	-0.350	0.229
-120.180	-200.000	0.003	0.104
