DTS Sentinel unit serial number:	SN413079Multiplexer serial number:	ORYXHardware model number:	OX4-SRSoftware version number:	ORYX F/W v4.00 Oryx Data Collector v3.7.2.0data status	okinstallation	princeton_trtdifferential loss correction	single-endedforward channel	channel 2reverse channel	N/Adate	2019/09/14time	02:23:34forward acquisition time	60.00reverse acquisition time	0.00gamma	496.2192k internal	0.2337k external	0.2337temperature offset calibration	1.0125default loss term (dB/km)	0.3790temperature slope calibration	1.0000multiplexer offset coefficient	1.0000multiplexer slope coefficient	1.0000fibre end	0.00T internal ref (°C)	26.52T ext. ref 1 (°C)	3.21T ext. ref 2 (°C)	21.53length (m)	temperature (°C)	Stokes	anti-Stokes-747.200	-152.320	0.352	0.026
-746.185	16.441	-0.177	-0.141
-745.171	53.976	-0.217	0.209
-744.156	-18.853	-0.252	0.157
-743.142	-92.687	-0.259	-0.073
-742.127	8.290	-0.277	0.209
-741.112	10.836	0.159	0.122
-740.098	-40.646	-0.397	0.206
-739.083	-162.798	-0.269	-0.013
-738.069	238.337	0.250	0.417
-737.054	-98.565	-0.603	0.155
-736.039	-50.630	0.189	0.090
-735.025	83.022	-0.207	-0.226
-734.010	241.587	-0.217	-0.364
-732.996	800.000	-0.015	0.049
-731.981	-65.529	-0.219	0.088
-730.966	-137.955	-0.158	0.018
-729.952	22.153	0.253	-0.207
-728.937	-181.757	-0.393	0.008
-727.923	218.382	-0.236	0.378
-726.908	21.394	0.106	-0.086
-725.894	-97.785	0.297	0.077
-724.879	800.000	-0.087	-0.275
-723.864	-152.287	-0.240	-0.017
-722.850	323.079	-0.099	-0.188
-721.835	444.146	-0.151	-0.332
-720.821	-108.975	0.049	-0.011
-719.806	-130.820	-0.334	-0.045
-718.791	403.377	0.119	-0.251
-717.777	-200.000	0.027	-0.201
-716.762	800.000	-0.031	0.095
-715.748	-200.000	0.011	-0.100
-714.733	-200.000	0.000	-0.140
-713.718	82.676	0.073	0.079
-712.704	-200.000	-0.046	0.265
-711.689	105.546	0.221	-0.262
-710.675	-20.301	-0.118	0.073
-709.660	800.000	-0.020	0.084
-708.645	540.671	-0.034	0.080
-707.631	755.886	0.092	-0.250
-706.616	-99.868	0.192	-0.048
-705.602	-81.013	0.166	0.055
-704.587	96.064	-0.120	-0.138
-703.572	5.207	-0.231	-0.171
-702.558	-200.000	0.037	-0.276
-701.543	324.931	0.032	-0.061
-700.529	-200.000	0.022	0.233
-699.514	-108.844	0.141	-0.030
-698.499	4.727	0.462	-0.340
-697.485	48.445	-0.167	0.157
-696.470	800.000	0.028	0.080
-695.456	90.920	0.197	-0.221
-694.441	-78.908	0.449	0.153
-693.426	-88.754	0.252	0.075
-692.412	385.476	0.084	0.173
-691.397	800.000	0.047	-0.144
-690.383	800.000	-0.087	-0.308
-689.368	-109.762	-0.142	-0.030
-688.354	-159.085	0.021	-0.001
-687.339	340.951	0.058	-0.114
-686.324	-11.264	0.190	0.126
-685.310	-200.000	0.023	-0.294
-684.295	800.000	0.034	-0.117
-683.281	73.417	-0.160	-0.168
-682.266	-165.075	-0.533	-0.024
-681.251	-195.676	0.416	-0.003
-680.237	-71.309	-0.070	0.026
-679.222	269.029	0.187	-0.329
-678.208	-200.000	-0.281	0.000
-677.193	800.000	-0.063	-0.258
-676.178	-41.069	0.140	-0.072
-675.164	-189.922	-0.179	0.002
-674.149	-63.195	-0.208	-0.086
-673.135	-124.145	0.249	0.039
-672.120	-200.000	-0.066	-0.297
-671.105	800.000	-0.093	-0.297
-670.091	50.045	-0.249	0.235
-669.076	-16.375	0.186	-0.118
-668.062	-200.000	0.038	-0.284
-667.047	800.000	-0.032	0.129
-666.032	-200.000	-0.021	0.283
-665.018	154.751	0.235	-0.323
-664.003	-66.759	-0.055	0.022
-662.989	-200.000	0.009	0.043
-661.974	90.562	0.189	0.211
-660.959	-63.591	-0.070	-0.029
-659.945	48.353	0.053	0.050
-658.930	45.498	0.097	0.090
-657.916	800.000	0.050	0.186
-656.901	45.082	-0.045	-0.042
-655.886	800.000	-0.012	-0.045
-654.872	-200.000	-0.012	0.194
-653.857	37.046	-0.082	0.072
-652.843	-85.652	-0.081	0.025
-651.828	800.000	-0.031	-0.115
-650.814	-200.000	0.024	-0.221
-649.799	-137.398	-0.106	0.012
-648.784	11.720	-0.216	-0.166
-647.770	175.678	-0.016	-0.023
-646.755	181.506	-0.165	0.243
-645.741	-200.000	0.018	-0.122
-644.726	-200.000	-0.053	-0.269
-643.711	-146.883	-0.341	-0.029
-642.697	-59.936	-0.162	0.069
-641.682	-56.504	-0.155	0.069
-640.668	-77.582	-0.404	0.140
-639.653	-195.431	-0.321	-0.002
-638.638	-131.788	0.183	0.024
-637.624	-200.000	-0.020	-0.246
-636.609	-127.479	0.086	-0.013
-635.595	211.203	0.073	0.114
-634.580	159.730	0.079	-0.109
-633.565	-7.223	0.088	0.059
-632.551	95.539	-0.292	-0.332
-631.536	-200.000	0.034	0.594
-630.522	49.995	-0.252	-0.237
-629.507	-200.000	0.016	-0.432
-628.492	284.915	-0.022	-0.040
-627.478	-121.041	0.121	-0.020
-626.463	613.069	0.063	-0.157
-625.449	139.638	-0.189	-0.249
-624.434	491.797	0.120	-0.275
-623.419	-200.000	-0.059	-0.306
-622.405	74.654	-0.202	0.212
-621.390	22.494	-0.127	-0.104
-620.376	733.428	0.129	-0.344
-619.361	79.687	0.078	0.084
-618.346	-200.000	-0.103	-0.578
-617.332	73.066	-0.286	0.299
-616.317	-171.496	-0.069	-0.002
-615.303	-84.229	-0.133	0.042
-614.288	589.134	0.085	0.210
-613.273	303.096	0.062	0.114
-612.259	174.988	-0.110	-0.159
-611.244	149.294	-0.199	0.269
-610.230	-12.596	-0.184	-0.120
-609.215	-68.994	0.128	-0.049
-608.201	137.792	-0.180	0.236
-607.186	-31.959	-0.236	0.132
-606.171	-62.443	-0.024	-0.010
-605.157	-53.031	0.242	0.111
-604.142	-27.757	0.371	-0.215
-603.128	-1.322	-0.043	-0.031
-602.113	-133.807	0.309	0.038
-601.098	-92.876	-0.300	-0.084
-600.084	162.214	-0.171	0.239
-599.069	161.487	0.045	-0.063
-598.055	93.700	-0.156	0.176
-597.040	800.000	0.011	-0.034
-596.025	460.833	0.048	0.106
-595.011	800.000	-0.033	-0.117
-593.996	-191.347	-0.166	-0.002
-592.982	376.346	0.062	-0.127
-591.967	228.886	0.218	-0.354
-590.952	317.150	-0.098	0.186
-589.938	-36.978	0.182	0.098
-588.923	-72.794	0.233	-0.086
-587.909	-142.404	-0.168	-0.017
-586.894	-111.092	0.087	0.018
-585.879	-200.000	-0.015	0.118
-584.865	-175.354	-0.108	-0.003
-583.850	-16.079	-0.111	0.070
-582.836	-31.974	-0.097	0.054
-581.821	-6.256	-0.238	0.162
-580.806	800.000	-0.095	-0.279
-579.792	-5.038	-0.093	-0.064
-578.777	257.875	0.062	-0.106
-577.763	800.000	0.054	-0.208
-576.748	-82.410	-0.326	-0.106
-575.733	-43.107	-0.208	0.105
-574.719	450.160	0.219	0.482
-573.704	334.326	0.217	0.419
-572.690	800.000	0.079	-0.229
-571.675	25.939	0.074	-0.062
-570.661	-135.269	-0.123	-0.015
-569.646	31.589	0.220	-0.188
-568.631	-200.000	-0.018	0.204
-567.617	151.309	-0.015	0.020
-566.602	4.897	0.183	0.134
-565.588	82.255	0.056	-0.060
-564.573	-200.000	0.007	-0.301
-563.558	800.000	0.100	-0.393
-562.544	-80.605	0.298	-0.099
-561.529	-120.520	0.122	0.021
-560.515	800.000	0.043	-0.141
-559.500	237.827	-0.139	-0.230
-558.485	53.195	-0.174	-0.166
-557.471	-51.514	0.087	0.040
-556.456	-60.277	-0.259	0.110
-555.442	411.756	0.049	0.103
-554.427	18.472	0.226	-0.180
-553.412	-200.000	-0.016	-0.135
-552.398	-1.906	0.040	0.028
-551.383	-43.767	0.122	-0.061
-550.369	-200.000	-0.057	0.310
-549.354	750.090	0.122	-0.329
-548.339	800.000	-0.090	-0.317
-547.325	800.000	-0.079	-0.264
-546.310	214.589	-0.248	0.391
-545.296	6.302	0.205	-0.151
-544.281	97.510	0.141	-0.161
-543.266	288.159	-0.098	0.177
-542.252	-53.425	-0.080	0.036
-541.237	-200.000	0.003	-0.049
-540.223	-98.679	-0.092	-0.023
-539.208	-68.144	0.330	-0.128
-538.193	-105.753	-0.161	-0.036
-537.179	-134.626	0.173	-0.021
-536.164	366.968	-0.071	-0.142
-535.150	-59.927	0.611	-0.260
-534.135	-200.000	0.062	0.334
-533.121	-200.000	-0.046	0.413
-532.106	-24.495	-0.423	-0.251
-531.091	800.000	0.127	-0.426
-530.077	131.372	-0.187	-0.239
-529.062	-68.160	0.146	0.057
-528.048	-95.575	-0.186	0.050
-527.033	800.000	0.082	0.332
-526.018	-200.000	0.038	0.360
-525.004	-54.035	-0.020	-0.009
-523.989	-200.000	0.002	0.077
-522.975	-144.100	0.255	-0.024
-521.960	326.702	-0.085	-0.162
-520.945	800.000	-0.074	-0.287
-519.931	800.000	0.063	-0.191
-518.916	-200.000	-0.027	-0.170
-517.902	286.327	0.062	0.112
-516.887	584.029	-0.123	-0.300
-515.872	192.474	0.160	-0.240
-514.858	-200.000	-0.032	-0.149
-513.843	-24.554	0.032	-0.019
-512.829	99.638	0.258	0.297
-511.814	-110.440	-0.255	-0.053
-510.799	77.231	0.278	0.294
-509.785	800.000	-0.055	-0.172
-508.770	-5.117	0.178	-0.122
-507.756	373.875	0.108	0.219
-506.741	-110.986	-0.209	-0.043
-505.726	-139.315	0.123	0.013
-504.712	-200.000	0.050	-0.375
-503.697	-94.309	0.307	0.083
-502.683	256.720	0.126	-0.215
-501.668	-200.000	-0.022	0.350
-500.653	800.000	-0.034	0.134
-499.639	120.161	-0.077	0.095
-498.624	-71.810	-0.262	-0.097
-497.610	-46.293	0.343	-0.168
-496.595	62.370	-0.232	0.231
-495.581	14.182	-0.119	0.092
-494.566	-27.468	0.292	0.169
-493.551	-117.807	0.131	-0.023
-492.537	-185.981	-0.236	-0.003
-491.522	-200.000	0.056	0.307
-490.508	307.964	0.101	-0.187
-489.493	632.526	0.067	-0.169
-488.478	-200.000	-0.051	-0.358
-487.464	198.313	0.118	-0.179
-486.449	162.582	0.172	-0.240
-485.435	-64.285	-0.377	-0.153
-484.420	54.982	-0.186	0.178
-483.405	800.000	-0.090	0.259
-482.391	-144.543	0.212	-0.019
-481.376	306.188	0.131	0.242
-480.362	-74.488	0.178	0.064
-479.347	-153.094	0.098	-0.007
-478.332	61.900	-0.042	-0.042
-477.318	-137.364	-0.217	0.024
-476.303	45.714	0.102	-0.094
-475.289	-3.071	-0.138	0.096
-474.274	-86.124	-0.271	-0.083
-473.259	161.326	0.068	0.094
-472.245	800.000	-0.029	-0.109
-471.230	265.114	0.102	0.176
-470.216	-190.257	-0.416	0.005
-469.201	-67.608	0.176	0.069
-468.186	34.067	-0.121	-0.105
-467.172	800.000	-0.080	-0.237
-466.157	800.000	0.129	-0.393
-465.143	556.223	-0.135	-0.323
-464.128	-55.951	-0.054	0.024
-463.113	396.192	0.184	0.382
-462.099	-9.846	0.113	-0.074
-461.084	800.000	-0.078	-0.332
-460.070	245.288	0.126	0.211
-459.055	-108.394	0.259	0.055
-458.040	81.454	0.069	0.074
-457.026	-33.385	-0.236	-0.129
-456.011	-109.704	-0.248	0.052
-454.997	-57.096	0.143	0.063
-453.982	-200.000	-0.034	0.198
-452.968	-79.084	0.117	-0.040
-451.953	-121.172	0.156	-0.026
-450.938	-86.107	-0.143	0.044
-449.924	-150.701	-0.082	0.006
-448.909	-181.789	-0.351	0.007
-447.895	510.161	-0.068	-0.157
-446.880	-200.000	-0.011	-0.148
-445.865	800.000	0.058	0.235
-444.851	800.000	0.077	0.283
-443.836	800.000	0.031	0.089
-442.822	-74.997	-0.245	-0.087
-441.807	-61.529	0.046	0.019
-440.792	-200.000	-0.005	0.085
-439.778	-105.625	-0.270	0.061
-438.763	-123.039	-0.171	-0.027
-437.749	-43.690	0.403	0.201
-436.734	-35.908	0.243	-0.130
-435.719	-14.255	0.438	-0.280
-434.705	-15.796	0.105	-0.066
-433.690	-200.000	0.004	0.035
-432.676	-200.000	-0.017	-0.147
-431.661	148.672	-0.090	0.121
-430.646	-35.318	0.229	0.123
-429.632	755.930	0.090	0.243
-428.617	-99.096	0.214	-0.054
-427.603	573.222	-0.014	-0.033
-426.588	142.882	0.029	-0.039
-425.573	-200.000	-0.025	0.203
-424.559	-24.252	0.340	-0.201
-423.544	29.249	0.309	-0.260
-422.530	173.002	-0.141	-0.202
-421.515	-3.790	0.226	0.155
-420.500	129.103	0.247	-0.312
-419.486	111.046	0.115	-0.137
-418.471	800.000	0.084	0.234
-417.457	25.913	-0.267	-0.221
-416.442	-142.416	-0.249	0.024
-415.428	55.588	-0.128	-0.123
-414.413	112.207	-0.066	-0.079
-413.398	-132.783	-0.229	-0.029
-412.384	-76.986	-0.109	0.038
-411.369	193.416	-0.144	0.215
-410.355	-200.000	0.028	0.148
-409.340	-141.596	0.026	0.003
-408.325	51.945	0.411	-0.387
-407.311	76.424	0.121	-0.127
-406.296	-200.000	0.006	0.087
-405.282	-51.764	-0.173	0.080
-404.267	-200.000	-0.015	0.358
-403.252	-16.889	-0.218	0.136
-402.238	95.496	-0.073	-0.082
-401.223	-200.000	0.034	0.275
-400.209	-200.000	0.020	0.204
-399.194	-78.402	-0.214	0.073
-398.179	24.082	-0.395	0.323
-397.165	41.251	0.204	0.183
-396.150	-73.310	0.199	0.072
-395.136	360.757	-0.134	-0.267
-394.121	-36.845	-0.577	-0.307
-393.106	800.000	0.131	0.396
-392.092	390.127	-0.055	-0.112
-391.077	-110.551	-0.158	0.032
-390.063	-200.000	-0.035	0.250
-389.048	-17.751	-0.319	0.198
-388.033	80.573	-0.298	0.318
-387.019	55.278	-0.158	0.152
-386.004	-84.546	0.157	0.049
-384.990	-18.095	-0.178	0.110
-383.975	468.206	0.158	0.350
-382.960	-50.706	-0.241	-0.112
-381.946	168.959	0.107	0.152
-380.931	-101.173	-0.360	0.087
-379.917	349.369	0.012	-0.023
-378.902	-200.000	-0.047	0.271
-377.888	-200.000	-0.020	0.127
-376.873	640.576	-0.099	0.250
-375.858	-150.382	-0.057	0.004
-374.844	-110.893	0.258	0.052
-373.829	-179.168	0.262	0.006
-372.815	-200.000	-0.005	-0.131
-371.800	-143.991	0.282	0.026
-370.785	263.077	0.074	0.127
-369.771	-200.000	0.022	0.144
-368.756	-31.878	-0.041	0.023
-367.742	133.766	-0.113	-0.144
-366.727	-157.979	-0.086	0.005
-365.712	-200.000	-0.070	0.408
-364.698	-101.766	-0.435	0.104
-363.683	134.907	0.067	-0.086
-362.669	-107.122	0.331	-0.072
-361.654	-200.000	0.051	-0.259
-360.639	-200.000	-0.037	-0.171
-359.625	800.000	-0.030	0.106
-358.610	-102.832	0.166	0.039
-357.596	-151.030	0.336	-0.025
-356.581	-66.353	0.262	0.103
-355.566	462.170	-0.043	0.095
-354.552	61.572	0.173	0.170
-353.537	58.490	-0.205	-0.199
-352.523	-71.602	0.169	0.063
-351.508	199.933	-0.189	-0.287
-350.493	-200.000	0.074	-0.407
-349.479	-200.000	-0.005	-0.308
-348.464	411.544	0.050	0.105
-347.450	-56.018	0.237	-0.104
-346.435	-49.084	0.080	0.038
-345.420	399.625	0.030	0.063
-344.406	-127.253	0.124	-0.018
-343.391	-76.908	0.415	0.143
-342.377	-23.310	0.114	-0.068
-341.362	239.014	0.113	-0.186
-340.348	755.554	0.116	-0.310
-339.333	135.301	-0.167	-0.214
-338.318	-5.823	0.128	0.087
-337.304	424.660	-0.103	-0.219
-336.289	-200.000	0.004	-0.143
-335.275	-200.000	0.026	-0.174
-334.260	-72.926	-0.269	-0.098
-333.245	550.347	0.130	0.309
-332.231	83.555	-0.063	0.067
-331.216	172.868	-0.096	0.137
-330.202	-79.077	-0.279	-0.094
-329.187	-88.603	-0.202	0.059
-328.172	-78.675	-0.095	0.032
-327.158	-153.976	0.123	0.008
-326.143	-96.585	-0.061	-0.016
-325.129	-17.159	0.265	-0.165
-324.114	46.757	-0.272	0.249
-323.099	476.152	-0.159	0.354
-322.085	85.417	-0.161	0.175
-321.070	-104.252	-0.123	0.028
-320.056	180.236	0.164	0.237
-319.041	175.992	-0.191	0.274
-318.026	-200.000	0.002	-0.089
-317.012	-18.568	0.175	0.108
-315.997	-200.000	0.025	0.200
-314.983	-151.561	0.260	0.019
-313.968	-12.538	0.290	0.187
-312.953	-54.504	-0.332	-0.148
-311.939	-113.985	-0.275	-0.053
-310.924	293.603	0.051	-0.091
-309.910	-27.548	-0.178	-0.102
-308.895	-200.000	-0.016	-0.180
-307.880	276.773	-0.261	0.457
-306.866	60.982	0.199	-0.194
-305.851	-200.000	-0.030	0.282
-304.837	596.465	0.072	-0.176
-303.822	-3.423	-0.092	-0.063
-302.807	800.000	-0.097	0.394
-301.793	119.320	0.068	0.083
-300.778	-200.000	0.194	-0.000
-299.764	-105.914	0.461	-0.103
-298.749	26.838	-0.178	0.147
-297.735	48.743	0.345	0.319
-296.720	-85.052	0.160	-0.050
-295.705	-82.204	0.044	-0.014
-294.691	-200.000	-0.055	-0.299
-293.676	-41.386	0.240	0.122
-292.662	-128.204	0.198	0.028
-291.647	-126.126	-0.247	-0.037
-290.632	-85.713	0.154	0.047
-289.618	-2.120	0.202	0.140
-288.603	333.318	0.145	-0.276
-287.589	-88.809	-0.076	0.022
-286.574	-109.679	-0.136	0.028
-285.559	-114.478	0.085	0.016
-284.545	-44.956	0.228	0.112
-283.530	0.131	-0.222	0.156
-282.516	800.000	-0.080	0.340
-281.501	35.264	-0.110	0.095
-280.486	12.373	-0.131	-0.100
-279.472	-176.619	0.143	-0.004
-278.457	40.844	0.065	-0.058
-277.443	-29.672	0.156	-0.088
-276.428	91.746	-0.124	-0.137
-275.413	187.942	-0.104	-0.153
-274.399	537.281	0.114	-0.266
-273.384	98.653	-0.085	-0.096
-272.370	-93.641	-0.248	0.067
-271.355	800.000	0.072	0.218
-270.340	-157.614	-0.355	-0.021
-269.326	-103.510	0.105	0.024
-268.311	-49.409	-0.131	-0.062
-267.297	69.119	-0.105	-0.107
-266.282	-146.986	0.181	0.015
-265.267	157.934	0.021	0.029
-264.253	-135.568	-0.105	-0.012
-263.238	43.294	0.113	0.101
-262.224	73.843	-0.058	-0.059
-261.209	-155.399	0.266	0.017
-260.195	-67.770	0.452	-0.174
-259.180	-200.000	-0.027	-0.372
-258.165	-71.732	-0.206	-0.076
-257.151	-36.649	0.055	-0.029
-256.136	67.950	0.125	0.126
-255.122	153.812	-0.272	-0.368
-254.107	-20.314	-0.346	-0.210
-253.092	-3.437	0.387	0.265
-252.078	-8.620	0.297	-0.197
-251.063	800.000	0.083	-0.291
-250.049	-63.904	0.161	0.065
-249.034	-32.710	0.251	0.137
-248.019	102.230	-0.354	-0.408
-247.005	-132.158	0.152	0.019
-245.990	-141.777	-0.104	0.010
-244.976	375.825	-0.136	0.273
-243.961	-72.281	0.144	0.053
-242.946	-107.414	-0.412	-0.089
-241.932	-200.000	-0.026	-0.256
-240.917	-80.566	-0.365	0.120
-239.903	-117.415	0.097	-0.017
-238.888	-200.000	0.031	0.330
-237.873	2.045	-0.253	0.180
-236.859	-200.000	0.019	0.455
-235.844	169.761	-0.134	0.189
-234.830	-79.437	0.236	-0.079
-233.815	130.278	-0.201	0.253
-232.800	-200.000	-0.008	0.137
-231.786	-107.929	0.077	-0.016
-230.771	-158.220	0.161	-0.009
-229.757	-174.885	-0.150	-0.004
-228.742	-200.000	0.046	0.295
-227.727	-200.000	-0.011	-0.174
-226.713	58.417	-0.288	-0.278
-225.698	-200.000	0.013	-0.259
-224.684	-116.230	0.232	0.042
-223.669	-200.000	-0.046	0.255
-222.655	242.015	0.081	0.133
-221.640	800.000	0.066	0.220
-220.625	129.016	-0.091	0.114
-219.611	121.696	-0.325	-0.398
-218.596	-57.358	-0.268	0.116
-217.582	5.185	0.178	0.129
-216.567	93.791	-0.141	0.157
-215.552	-69.685	0.331	0.124
-214.538	800.000	0.036	0.102
-213.523	213.270	0.022	-0.034
-212.509	800.000	0.031	-0.112
-211.494	667.663	0.087	0.221
-210.479	93.920	-0.027	-0.030
-209.465	800.000	0.089	0.314
-208.450	-200.000	-0.014	-0.153
-207.436	-30.318	0.351	-0.196
-206.421	-127.276	-0.248	0.036
-205.406	96.342	0.153	0.172
-204.392	800.000	0.022	0.069
-203.377	-200.000	0.050	0.229
-202.363	180.508	0.166	0.239
-201.348	800.000	0.032	0.123
-200.333	-125.177	-0.221	-0.033
-199.319	86.229	0.260	0.281
-198.304	-200.000	0.032	-0.340
-197.290	-15.777	-0.198	0.124
-196.275	-116.713	0.117	-0.021
-195.260	-60.566	0.084	-0.035
-194.246	-181.219	-0.355	0.007
-193.231	310.467	0.064	0.118
-192.217	-104.590	-0.065	0.015
-191.202	0.677	0.092	0.065
-190.187	97.846	-0.144	0.163
-189.173	-200.000	0.006	0.129
-188.158	-200.000	-0.038	-0.444
-187.144	800.000	0.029	-0.127
-186.129	-2.989	0.111	-0.076
-185.114	-70.960	-0.365	-0.135
-184.100	-5.482	-0.234	-0.158
-183.085	44.890	0.132	0.120
-182.071	109.388	0.146	0.171
-181.056	-46.499	-0.356	-0.172
-180.042	202.524	0.067	-0.102
-179.027	106.885	-0.159	-0.185
-178.012	800.000	0.057	-0.165
-176.998	62.260	-0.178	-0.174
-175.983	-200.000	0.004	-0.356
-174.969	56.340	-0.026	0.025
-173.954	66.382	0.064	0.064
-172.939	-66.856	0.154	-0.060
-171.925	-115.023	0.120	0.022
-170.910	111.908	-0.070	-0.083
-169.896	43.268	0.157	0.141
-168.881	800.000	0.046	0.155
-167.866	-46.259	0.233	0.113
-166.852	-113.484	0.456	-0.088
-165.837	-24.216	-0.148	-0.087
-164.823	-37.476	0.311	-0.163
-163.808	485.216	-0.061	-0.135
-162.793	-37.282	-0.230	0.120
-161.779	-200.000	-0.085	0.391
-160.764	-125.113	0.214	0.032
-159.750	94.914	0.152	-0.170
-158.735	-200.000	0.019	0.310
-157.720	141.132	-0.149	0.194
-156.706	-149.699	0.117	-0.009
-155.691	-108.503	-0.156	0.033
-154.677	3.305	0.388	-0.277
-153.662	-200.000	-0.002	-0.063
-152.647	23.107	0.065	0.053
-151.633	-113.417	0.037	0.007
-150.618	-200.000	-0.005	0.030
-149.604	-55.783	-0.130	-0.057
-148.589	-1.847	0.124	-0.085
-147.574	-200.000	0.028	-0.198
-146.560	325.660	0.118	0.221
-145.545	-200.000	0.016	0.126
-144.531	60.373	-0.096	-0.094
-143.516	43.008	-0.050	-0.045
-142.502	385.860	0.067	0.135
-141.487	-37.858	-0.097	0.051
-140.472	441.432	0.125	-0.268
-139.458	-200.000	-0.016	-0.186
-138.443	-200.000	0.039	0.232
-137.429	-153.743	-0.179	-0.012
-136.414	-27.144	-0.074	-0.043
-135.399	5.749	0.226	0.164
-134.385	438.378	0.040	-0.086
-133.370	229.186	-0.187	-0.299
-132.356	-99.154	-0.270	0.067
-131.341	-200.000	0.009	0.185
-130.326	284.281	-0.113	0.199
-129.312	-200.000	0.023	0.305
-128.297	198.331	0.145	-0.217
-127.283	2.856	-0.246	0.175
-126.268	-146.073	-0.322	0.028
-125.253	94.970	-0.246	-0.274
-124.239	-200.000	-0.025	-0.160
-123.224	132.965	0.108	-0.136
-122.210	506.483	-0.116	0.264
-121.195	-119.339	0.028	-0.005
