DTS Sentinel unit serial number:	SN413079Multiplexer serial number:	ORYXHardware model number:	OX4-SRSoftware version number:	ORYX F/W v4.00 Oryx Data Collector v3.7.2.0data status	okinstallation	princeton_trtdifferential loss correction	single-endedforward channel	channel 2reverse channel	N/Adate	2019/09/16time	13:47:35forward acquisition time	60.00reverse acquisition time	0.00gamma	496.2192k internal	0.2295k external	0.2295temperature offset calibration	0.9936default loss term (dB/km)	0.3790temperature slope calibration	1.0000multiplexer offset coefficient	1.0000multiplexer slope coefficient	1.0000fibre end	0.00T internal ref (°C)	42.28T ext. ref 1 (°C)	13.92T ext. ref 2 (°C)	38.24length (m)	temperature (°C)	Stokes	anti-Stokes-747.200	205.053	-0.100	0.159
-746.185	-200.000	0.030	0.228
-745.171	-37.998	0.129	0.070
-744.156	-200.000	0.050	0.234
-743.142	-200.000	0.025	-0.138
-742.127	-200.000	0.104	0.583
-741.112	7.702	-0.116	-0.089
-740.098	-67.145	0.114	0.046
-739.083	573.002	-0.071	-0.177
-738.069	-20.195	0.072	0.045
-737.054	-1.268	-0.221	0.160
-736.039	-1.303	0.385	0.278
-735.025	-162.675	0.086	0.004
-734.010	-181.250	-0.291	-0.006
-732.996	-92.096	0.455	-0.131
-731.981	671.531	0.057	-0.152
-730.966	-44.308	-0.234	-0.120
-729.952	-164.865	-0.282	0.013
-728.937	261.336	0.178	0.315
-727.923	-200.000	-0.050	-0.427
-726.908	-200.000	-0.027	-0.232
-725.894	-84.280	-0.393	0.127
-724.879	123.535	0.214	-0.274
-723.864	344.887	-0.203	-0.406
-722.850	169.004	0.167	-0.244
-721.835	316.802	-0.082	-0.158
-720.821	-184.943	0.284	-0.005
-719.806	-64.852	0.148	-0.061
-718.791	38.103	-0.103	0.094
-717.777	-62.178	-0.014	-0.006
-716.762	65.299	-0.079	0.081
-715.748	-25.916	0.048	-0.029
-714.733	-200.000	-0.008	0.079
-713.718	-166.999	0.283	-0.012
-712.704	39.292	0.086	0.079
-711.689	145.168	0.115	-0.157
-710.675	-82.649	-0.079	-0.026
-709.660	569.705	0.103	-0.256
-708.645	464.333	-0.081	0.184
-707.631	-54.956	-0.255	-0.118
-706.616	174.476	0.123	0.181
-705.602	-123.516	0.312	0.051
-704.587	16.057	0.145	0.117
-703.572	-15.536	0.193	0.126
-702.558	-60.067	-0.181	0.079
-701.543	-200.000	-0.003	0.098
-700.529	-11.230	-0.194	0.131
-699.514	90.285	0.188	0.215
-698.499	-142.881	0.062	0.006
-697.485	-127.060	-0.071	0.011
-696.470	-41.779	0.086	-0.045
-695.456	608.916	0.096	0.244
-694.441	-0.559	0.188	0.136
-693.426	280.504	-0.060	0.110
-692.412	-21.639	-0.360	-0.224
-691.397	-152.002	0.059	-0.004
-690.383	-158.116	0.394	0.024
-689.368	6.013	0.040	0.030
-688.354	-200.000	0.000	-0.095
-687.339	-58.619	0.139	0.061
-686.324	371.080	-0.087	0.181
-685.310	-12.662	0.168	-0.112
-684.295	800.000	-0.026	-0.075
-683.281	-181.516	-0.106	0.002
-682.266	566.376	0.100	-0.247
-681.251	-83.311	0.136	0.045
-680.237	-132.392	0.154	-0.020
-679.222	109.037	0.168	0.205
-678.208	-70.171	-0.214	-0.083
-677.193	-124.330	-0.101	0.016
-676.178	-200.000	-0.044	-0.209
-675.164	-130.386	0.172	-0.024
-674.149	389.781	0.085	0.179
-673.135	800.000	-0.104	0.357
-672.120	12.822	0.048	-0.038
-671.105	-104.041	-0.372	-0.088
-670.091	-148.662	0.338	0.028
-669.076	-86.463	0.053	-0.017
-668.062	-67.358	0.181	-0.072
-667.047	-194.320	-0.194	-0.002
-666.032	154.306	0.209	0.292
-665.018	128.580	0.027	-0.035
-664.003	461.911	-0.073	-0.167
-662.989	402.032	-0.048	-0.102
-661.974	153.323	-0.197	0.275
-660.959	319.707	-0.074	0.143
-659.945	222.435	-0.204	0.334
-658.930	800.000	0.058	0.174
-657.916	-0.144	0.344	0.249
-656.901	-61.539	-0.208	0.089
-655.886	56.601	-0.078	0.078
-654.872	-80.484	0.455	-0.154
-653.857	30.639	0.126	0.110
-652.843	-40.623	0.121	0.064
-651.828	191.706	0.146	0.224
-650.814	-111.665	0.223	-0.046
-649.799	-45.758	0.046	0.023
-648.784	-200.000	0.004	-0.241
-647.770	-179.464	-0.264	-0.006
-646.755	-200.000	-0.004	-0.200
-645.741	58.473	-0.203	-0.203
-644.726	304.641	-0.048	-0.091
-643.711	800.000	0.014	-0.044
-642.697	-100.978	0.178	0.045
-641.682	626.675	0.079	-0.202
-640.668	800.000	0.049	0.209
-639.653	112.685	0.190	-0.234
-638.638	179.268	0.232	0.346
-637.624	20.615	0.050	0.041
-636.609	-53.720	-0.169	-0.079
-635.595	-59.244	-0.528	-0.231
-634.580	800.000	-0.030	0.103
-633.565	-200.000	-0.022	0.175
-632.551	-58.374	0.197	0.087
-631.536	29.656	0.182	0.157
-630.522	-61.827	-0.236	0.101
-629.507	800.000	-0.040	0.139
-628.492	-81.175	-0.218	0.073
-627.478	-123.922	0.162	0.026
-626.463	49.090	0.109	-0.105
-625.449	-117.174	-0.166	0.031
-624.434	-109.038	-0.525	0.114
-623.419	-145.412	-0.341	-0.031
-622.405	-130.413	-0.183	-0.025
-621.390	-200.000	0.000	0.361
-620.376	95.545	-0.161	0.187
-619.361	-200.000	-0.006	-0.086
-618.346	119.750	0.121	0.152
-617.332	23.357	-0.216	-0.181
-616.317	-200.000	0.085	-0.396
-615.303	-91.521	0.124	0.036
-614.288	213.301	-0.133	0.214
-613.273	466.985	0.042	0.096
-612.259	-200.000	-0.063	-0.302
-611.244	-40.491	-0.272	-0.144
-610.230	-157.549	-0.246	0.015
-609.215	-83.325	-0.482	0.157
-608.201	239.181	0.026	-0.044
-607.186	443.293	-0.103	-0.230
-606.171	-23.830	-0.230	-0.140
-605.157	-63.314	-0.208	-0.087
-604.142	-173.933	0.189	0.006
-603.128	800.000	0.034	-0.141
-602.113	123.501	0.047	0.060
-601.098	-200.000	0.002	0.275
-600.084	-128.784	-0.097	-0.014
-599.069	-200.000	-0.006	0.051
-598.055	-111.854	0.163	0.034
-597.040	192.055	-0.027	0.042
-596.025	-100.318	0.329	-0.083
-595.011	214.384	0.264	-0.424
-593.996	64.292	0.244	-0.250
-592.982	800.000	-0.056	-0.178
-591.967	-47.410	0.295	-0.146
-590.952	-129.386	0.185	0.026
-589.938	-27.882	0.185	-0.109
-588.923	36.266	-0.159	-0.142
-587.909	-105.231	-0.094	0.022
-586.894	15.514	-0.108	0.086
-585.879	-103.114	-0.116	-0.028
-584.865	246.619	0.052	-0.089
-583.850	29.839	-0.105	-0.091
-582.836	103.968	-0.232	-0.277
-581.821	-200.000	0.019	-0.241
-580.806	-200.000	0.004	-0.021
-579.792	70.599	-0.096	-0.101
-578.777	-74.374	0.241	0.088
-577.763	153.035	-0.251	0.348
-576.748	-69.114	-0.258	-0.101
-575.733	144.572	-0.124	-0.168
-574.719	-200.000	-0.004	0.225
-573.704	-54.324	0.115	-0.053
-572.690	-56.090	-0.268	-0.121
-571.675	218.707	-0.094	-0.153
-570.661	38.210	0.149	-0.134
-569.646	-8.321	0.139	0.095
-568.631	800.000	-0.051	0.188
-567.617	78.402	0.244	0.265
-566.602	13.354	0.083	0.065
-565.588	-200.000	0.014	-0.102
-564.573	-129.151	-0.131	0.019
-563.558	-132.876	0.240	0.031
-562.544	103.336	0.069	-0.082
-561.529	-31.682	0.313	-0.178
-560.515	-200.000	0.051	-0.235
-559.500	-41.102	0.435	-0.228
-558.485	-98.362	-0.076	-0.020
-557.471	-200.000	0.029	-0.204
-556.456	-150.642	-0.117	-0.009
-555.442	-200.000	0.062	0.466
-554.427	-120.372	-0.070	-0.012
-553.412	-200.000	0.013	0.239
-552.398	800.000	-0.049	0.214
-551.383	-200.000	0.026	0.121
-550.369	259.909	-0.119	-0.209
-549.354	-175.703	0.200	-0.005
-548.339	533.937	0.060	-0.145
-547.325	800.000	0.073	-0.205
-546.310	28.345	-0.139	-0.119
-545.296	22.700	-0.166	-0.138
-544.281	-144.553	0.177	0.017
-543.266	-73.715	0.223	0.082
-542.252	-157.193	-0.535	0.033
-541.237	77.734	0.371	-0.401
-540.223	-200.000	0.029	-0.134
-539.208	-200.000	0.027	0.190
-538.193	412.517	-0.145	0.313
-537.179	-7.197	-0.254	-0.174
-536.164	-98.421	0.286	-0.074
-535.150	-101.818	0.234	-0.057
-534.135	-200.000	0.120	0.542
-533.121	284.928	0.232	0.424
-532.106	-200.000	0.027	0.270
-531.091	-145.761	-0.434	0.039
-530.077	-105.257	-0.462	-0.107
-529.062	-136.776	0.261	-0.031
-528.048	800.000	0.042	-0.177
-527.033	-71.531	0.235	0.089
-526.018	-127.734	-0.276	-0.040
-525.004	60.827	0.085	0.086
-523.989	-200.000	-0.000	0.269
-522.975	95.744	0.122	0.141
-521.960	-7.167	-0.267	-0.183
-520.945	44.663	0.141	0.132
-519.931	-41.174	-0.274	0.143
-518.916	-38.080	-0.351	-0.189
-517.902	139.484	-0.132	-0.176
-516.887	-167.881	-0.172	0.007
-515.872	-200.000	0.029	-0.227
-514.858	-95.304	0.042	-0.012
-513.843	-200.000	-0.024	0.106
-512.829	-6.843	-0.047	-0.032
-511.814	-51.160	-0.043	0.020
-510.799	259.117	0.080	-0.140
-509.785	800.000	0.029	-0.088
-508.770	-4.884	-0.129	0.090
-507.756	53.175	0.245	-0.237
-506.741	-55.223	0.287	0.131
-505.726	-63.406	0.040	0.017
-504.712	44.639	-0.130	0.121
-503.697	-66.055	0.053	0.021
-502.683	-200.000	-0.013	-0.419
-501.668	48.069	-0.046	0.044
-500.653	800.000	0.088	0.326
-499.639	359.878	0.050	0.101
-498.624	-200.000	-0.088	0.430
-497.610	-200.000	-0.018	-0.093
-496.595	58.483	0.070	0.069
-495.581	-131.824	0.323	0.043
-494.566	-101.349	-0.056	-0.014
-493.551	126.737	-0.072	-0.093
-492.537	-200.000	-0.001	0.113
-491.522	282.100	0.100	0.182
-490.508	800.000	-0.049	0.189
-489.493	-200.000	0.003	0.027
-488.478	209.875	-0.099	0.158
-487.464	-22.640	0.164	0.100
-486.449	-200.000	0.001	0.042
-485.435	-200.000	0.054	0.493
-484.420	397.460	0.082	-0.174
-483.405	-200.000	0.007	0.179
-482.391	-200.000	0.040	0.362
-481.376	-18.847	0.179	0.113
-480.362	-97.051	-0.336	-0.089
-479.347	-70.244	0.263	0.101
-478.332	-110.205	0.050	-0.011
-477.318	-111.066	0.112	0.023
-476.303	-2.766	-0.374	-0.264
-475.289	-200.000	0.080	0.405
-474.274	-130.044	-0.236	0.033
-473.259	195.696	-0.182	-0.280
-472.245	-25.510	0.216	-0.129
-471.230	-152.924	0.180	-0.013
-470.216	800.000	-0.017	-0.057
-469.201	-128.805	-0.089	-0.013
-468.186	-76.043	-0.299	-0.107
-467.172	92.353	0.109	0.124
-466.157	800.000	-0.070	-0.251
-465.143	-128.611	0.288	-0.041
-464.128	72.494	0.135	-0.142
-463.113	-6.076	0.291	0.201
-462.099	230.046	-0.145	-0.240
-461.084	800.000	0.013	0.045
-460.070	72.173	0.086	-0.090
-459.055	-200.000	-0.015	-0.157
-458.040	254.880	-0.037	0.064
-457.026	-178.768	0.218	-0.005
-456.011	-200.000	-0.055	-0.312
-454.997	-118.028	0.251	-0.045
-453.982	-71.333	-0.264	-0.100
-452.968	-71.754	-0.190	-0.072
-451.953	-38.959	0.438	0.233
-450.938	55.116	0.129	-0.126
-449.924	-200.000	0.042	-0.266
-448.909	426.070	0.085	-0.186
-447.895	800.000	0.113	-0.453
-446.880	-200.000	0.041	0.223
-445.865	-200.000	0.012	0.155
-444.851	-113.229	-0.093	-0.019
-443.836	279.879	0.089	-0.160
-442.822	237.779	-0.081	0.136
-441.807	-69.323	0.336	0.130
-440.792	800.000	-0.085	-0.334
-439.778	490.082	0.100	-0.232
-438.763	-38.130	-0.033	-0.018
-437.749	32.892	-0.250	0.219
-436.734	-113.971	-0.356	-0.070
-435.719	-23.538	-0.294	-0.178
-434.705	131.616	-0.057	0.074
-433.690	-77.374	-0.194	0.068
-432.676	-200.000	0.020	0.395
-431.661	147.055	-0.070	-0.094
-430.646	-200.000	-0.048	-0.379
-429.632	800.000	-0.002	-0.007
-428.617	12.520	-0.103	0.080
-427.603	-69.981	-0.290	0.111
-426.588	76.700	-0.127	-0.136
-425.573	-200.000	-0.002	0.260
-424.559	145.689	-0.084	-0.114
-423.544	-38.915	0.131	-0.070
-422.530	60.236	-0.190	-0.190
-421.515	89.974	0.198	-0.223
-420.500	46.256	0.081	0.075
-419.486	-138.928	-0.170	-0.019
-418.471	124.319	-0.027	0.034
-417.457	-200.000	0.012	0.073
-416.442	19.941	0.196	-0.159
-415.428	-67.980	0.236	0.093
-414.413	199.242	-0.167	-0.258
-413.398	-200.000	0.013	-0.198
-412.384	76.774	0.242	-0.259
-411.369	-102.912	0.253	0.061
-410.355	-38.129	0.114	0.061
-409.340	-73.923	-0.038	-0.014
-408.325	472.045	0.026	-0.060
-407.311	517.465	0.013	0.030
-406.296	-37.447	-0.277	-0.149
-405.282	122.359	0.257	-0.325
-404.267	-200.000	-0.002	0.020
-403.252	499.259	-0.122	0.283
-402.238	-57.597	-0.153	0.068
-401.223	520.596	0.037	0.087
-400.209	103.178	-0.074	0.087
-399.194	325.106	-0.042	0.081
-398.179	20.375	0.264	-0.215
-397.165	800.000	-0.061	-0.205
-396.150	-68.319	0.142	0.056
-395.136	-66.768	0.211	0.084
-394.121	-97.623	-0.037	-0.010
-393.106	97.858	0.116	-0.135
-392.092	39.518	-0.145	-0.131
-391.077	-16.538	-0.174	0.111
-390.063	-65.274	0.118	-0.048
-389.048	-200.000	-0.067	0.480
-388.033	-7.845	0.299	-0.203
-387.019	-58.051	-0.202	0.089
-386.004	800.000	-0.017	0.053
-384.990	-196.144	0.110	0.001
-383.975	-200.000	0.013	-0.251
-382.960	-106.675	0.309	-0.069
-381.946	-155.201	0.257	-0.017
-380.931	38.171	0.177	0.159
-379.917	46.772	-0.086	-0.080
-378.902	-24.586	0.148	-0.089
-377.888	-165.518	-0.311	0.014
-376.873	-29.361	0.212	-0.122
-375.858	800.000	0.079	-0.327
-374.844	99.873	0.184	0.215
-373.829	338.876	0.167	0.328
-372.815	-112.703	0.142	-0.028
-371.800	-66.048	-0.166	-0.067
-370.785	-19.966	-0.174	-0.109
-369.771	68.113	0.330	-0.341
-368.756	573.974	0.097	-0.238
-367.742	800.000	0.047	-0.165
-366.727	-185.664	-0.080	0.001
-365.712	-200.000	0.032	-0.416
-364.698	111.315	-0.210	0.255
-363.683	104.744	-0.094	0.111
-362.669	150.294	0.087	0.119
-361.654	386.370	0.022	0.045
-360.639	-86.321	0.284	0.088
-359.625	-69.053	0.333	-0.129
-358.610	118.685	-0.363	-0.451
-357.596	-200.000	-0.006	-0.028
-356.581	-200.000	0.051	-0.485
-355.566	-21.698	-0.027	-0.016
-354.552	150.955	-0.033	0.045
-353.537	-33.637	-0.069	0.038
-352.523	63.298	0.079	0.080
-351.508	255.193	-0.209	0.360
-350.493	443.616	-0.085	0.187
-349.479	-25.897	0.254	-0.150
-348.464	-17.734	0.139	-0.088
-347.450	-60.495	0.199	-0.085
-346.435	494.637	-0.067	0.155
-345.420	713.936	0.087	0.233
-344.406	-93.074	-0.342	0.096
-343.391	-200.000	-0.023	0.159
-342.377	756.605	0.075	0.205
-341.362	-96.006	-0.262	0.070
-340.348	37.491	-0.237	0.211
-339.333	-76.242	0.162	0.058
-338.318	-124.160	0.199	0.031
-337.304	255.455	-0.042	0.072
-336.289	270.822	-0.158	-0.280
-335.275	-200.000	-0.016	0.434
-334.260	106.922	-0.291	0.347
-333.245	-149.421	-0.182	-0.015
-332.231	-113.203	-0.309	-0.061
-331.216	-82.522	0.076	-0.025
-330.202	551.233	-0.121	-0.292
-329.187	-44.408	-0.061	-0.031
-328.172	101.970	-0.208	-0.244
-327.158	-53.537	-0.359	0.165
-326.143	-200.000	0.012	-0.375
-325.129	67.565	0.033	0.033
-324.114	-200.000	0.018	-0.136
-323.099	-200.000	0.024	0.143
-322.085	407.480	0.133	0.283
-321.070	800.000	0.091	-0.391
-320.056	10.613	0.184	-0.141
-319.041	800.000	-0.080	0.267
-318.026	800.000	-0.051	0.190
-317.012	-38.587	0.032	-0.017
-315.997	28.207	0.038	0.033
-314.983	-47.616	0.133	-0.065
-313.968	-200.000	-0.018	-0.241
-312.953	77.316	0.341	-0.364
-311.939	-178.819	-0.329	-0.008
-310.924	352.754	-0.052	0.104
-309.910	-77.914	0.072	0.025
-308.895	-83.039	-0.115	0.037
-307.880	-40.346	-0.299	-0.156
-306.866	395.864	-0.099	-0.209
-305.851	18.625	-0.153	-0.123
-304.837	-78.614	-0.159	-0.055
-303.822	-60.269	0.113	0.048
-302.807	-108.673	0.315	0.068
-301.793	-200.000	0.037	-0.237
-300.778	-70.732	0.167	-0.063
-299.764	779.294	-0.030	0.082
-298.749	46.044	-0.131	0.121
-297.735	-61.089	0.378	0.160
-296.720	-200.000	0.017	0.353
-295.705	31.453	-0.350	-0.302
-294.691	-2.501	-0.091	0.064
-293.676	106.096	-0.169	-0.201
-292.662	-200.000	-0.026	-0.167
-291.647	56.465	-0.101	-0.099
-290.632	35.015	0.103	0.091
-289.618	69.800	-0.278	0.288
-288.603	47.613	0.162	0.152
-287.589	28.824	-0.165	0.141
-286.574	-200.000	-0.032	-0.282
-285.559	-10.499	0.192	0.128
-284.545	535.678	-0.084	0.200
-283.530	800.000	-0.010	-0.033
-282.516	-109.514	0.338	-0.072
-281.501	1.775	-0.130	0.094
-280.486	104.790	-0.175	0.207
-279.472	-51.710	0.415	0.194
-278.457	385.978	0.202	0.418
-277.443	203.011	-0.009	-0.014
-276.428	287.606	0.039	-0.071
-275.413	-85.664	-0.273	0.085
-274.399	-26.393	0.178	0.105
-273.384	623.345	0.102	0.259
-272.370	-82.313	0.187	-0.061
-271.355	45.039	-0.292	0.270
-270.340	126.467	-0.069	-0.087
-269.326	-4.260	0.224	0.155
-268.311	254.119	0.052	-0.089
-267.297	704.569	0.048	0.127
-266.282	800.000	-0.089	-0.278
-265.267	-107.827	-0.079	-0.017
-264.253	800.000	-0.060	0.194
-263.238	117.427	0.209	0.257
-262.224	800.000	-0.085	0.285
-261.209	-94.391	-0.091	0.025
-260.195	8.799	0.123	-0.093
-259.180	-49.937	-0.293	-0.139
-258.165	153.197	-0.213	0.292
-257.151	56.570	0.202	0.197
-256.136	-21.524	0.054	0.033
-255.122	59.680	0.247	-0.245
-254.107	147.462	0.096	0.130
-253.092	273.782	0.147	-0.260
-252.078	441.507	0.120	0.262
-251.063	-34.147	-0.510	-0.281
-250.049	-200.000	0.028	0.138
-249.034	800.000	-0.069	0.226
-248.019	-200.000	-0.008	-0.434
-247.005	-11.535	0.233	-0.154
-245.990	-126.623	-0.149	0.022
-244.976	-200.000	0.008	-0.163
-243.961	627.013	-0.082	0.207
-242.946	800.000	-0.038	-0.117
-241.932	-200.000	0.004	-0.143
-240.917	800.000	-0.025	-0.094
-239.903	-113.978	0.021	-0.004
-238.888	-200.000	-0.044	0.367
-237.873	-154.939	-0.200	0.013
-236.859	-200.000	-0.006	0.183
-235.844	123.863	-0.150	-0.189
-234.830	261.535	0.089	-0.154
-233.815	371.217	0.146	-0.297
-232.800	-138.649	-0.198	-0.022
-231.786	-41.416	-0.166	0.086
-230.771	-158.057	0.110	-0.006
-229.757	421.153	-0.131	0.281
-228.742	-135.967	0.046	0.005
-227.727	-200.000	0.030	0.376
-226.713	-136.581	-0.223	-0.026
-225.698	-55.305	-0.130	-0.059
-224.684	33.480	-0.269	-0.234
-223.669	-18.173	0.159	0.100
-222.655	10.383	0.186	-0.142
-221.640	186.686	-0.063	0.094
-220.625	800.000	-0.045	0.196
-219.611	41.688	-0.033	0.030
-218.596	139.469	-0.048	-0.063
-217.582	800.000	0.048	-0.174
-216.567	-119.603	0.125	-0.022
-215.552	-200.000	0.034	0.300
-214.538	343.446	-0.079	0.155
-213.523	800.000	0.100	0.339
-212.509	47.468	0.135	-0.126
-211.494	32.001	-0.116	-0.100
-210.479	-200.000	0.024	0.139
-209.465	49.406	0.136	-0.128
-208.450	-72.434	-0.243	-0.090
-207.436	-200.000	-0.013	0.208
-206.421	-37.225	-0.111	0.059
-205.406	-76.523	-0.035	-0.012
-204.392	576.037	0.071	0.174
-203.377	-110.497	-0.319	0.066
-202.363	-200.000	-0.000	0.217
-201.348	-146.547	-0.190	-0.017
-200.333	-44.956	0.173	-0.086
-199.319	-12.435	0.102	-0.067
-198.304	-200.000	-0.009	0.121
-197.290	-76.292	-0.223	-0.079
-196.275	-177.830	0.196	-0.005
-195.260	111.444	0.237	0.286
-194.246	-7.265	0.052	0.035
-193.231	8.598	-0.090	-0.068
-192.217	672.279	0.071	0.183
-191.202	444.579	-0.118	-0.260
-190.187	-66.782	-0.476	-0.189
-189.173	1.081	0.255	0.183
-188.158	-200.000	0.003	-0.074
-187.144	-119.098	0.176	-0.031
-186.129	68.318	0.108	0.110
-185.114	17.772	-0.101	0.080
-184.100	-30.367	0.288	-0.163
-183.085	-169.241	0.354	0.013
-182.071	9.617	0.268	-0.203
-181.056	-191.660	0.062	0.001
-180.042	-13.069	0.218	0.142
-179.027	-200.000	-0.009	-0.185
-178.012	405.751	-0.069	0.145
-176.998	137.581	0.156	-0.205
-175.983	-113.731	-0.125	0.024
-174.969	800.000	-0.025	0.070
-173.954	-200.000	0.018	0.301
-172.939	-200.000	-0.005	0.229
-171.925	800.000	-0.039	0.129
-170.910	63.469	0.334	-0.335
-169.896	-200.000	-0.027	0.172
-168.881	208.097	-0.114	0.178
-167.866	-52.967	-0.185	0.085
-166.852	73.530	0.152	0.160
-165.837	-13.349	0.068	0.044
-164.823	-103.727	0.444	0.104
-163.808	169.708	0.158	0.226
-162.793	-29.163	0.101	-0.058
-161.779	-200.000	-0.001	-0.138
-160.764	416.696	-0.099	-0.211
-159.750	-200.000	-0.036	-0.252
-158.735	-14.391	-0.252	0.162
-157.720	6.646	-0.151	0.113
-156.706	-82.812	0.145	0.047
-155.691	-80.001	0.085	0.028
-154.677	161.674	0.143	-0.200
-153.662	800.000	0.008	-0.028
-152.647	-141.780	0.109	-0.011
-151.633	800.000	-0.048	0.133
-150.618	-77.283	0.071	-0.025
-149.604	25.134	-0.309	0.257
-148.589	-69.828	0.051	-0.019
-147.574	308.693	-0.119	-0.223
-146.560	-88.262	-0.246	-0.073
-145.545	-3.143	0.284	0.198
-144.531	-200.000	0.042	-0.193
-143.516	-92.486	-0.038	-0.011
-142.502	-80.375	0.074	0.025
-141.487	117.050	0.076	-0.094
-140.472	57.106	-0.107	-0.104
-139.458	-84.137	-0.069	0.022
-138.443	-200.000	0.013	0.080
-137.429	-200.000	0.023	-0.331
-136.414	800.000	-0.080	-0.231
-135.399	4.685	0.163	-0.119
-134.385	800.000	-0.049	-0.197
-133.370	190.412	-0.413	-0.619
-132.356	-11.546	-0.028	-0.019
-131.341	-194.181	0.178	-0.001
-130.326	-78.485	0.183	-0.063
-129.312	-84.141	0.079	0.025
-128.297	800.000	0.040	0.159
-127.283	-57.858	-0.169	0.074
-126.268	-200.000	0.028	0.235
-125.253	-200.000	-0.048	-0.280
-124.239	-200.000	-0.019	0.182
-123.224	-200.000	-0.012	0.162
-122.210	-20.735	-0.268	-0.164
-121.195	-107.063	0.092	0.020
