DTS Sentinel unit serial number:	SN413079Multiplexer serial number:	ORYXHardware model number:	OX4-SRSoftware version number:	ORYX F/W v4.00 Oryx Data Collector v3.7.2.0data status	okinstallation	princeton_trtdifferential loss correction	single-endedforward channel	channel 2reverse channel	N/Adate	2019/09/11time	06:53:10forward acquisition time	60.00reverse acquisition time	0.00gamma	496.2192k internal	0.2326k external	0.2326temperature offset calibration	0.9938default loss term (dB/km)	0.3790temperature slope calibration	1.0000multiplexer offset coefficient	1.0000multiplexer slope coefficient	1.0000fibre end	0.00T internal ref (°C)	29.97T ext. ref 1 (°C)	-0.16T ext. ref 2 (°C)	25.40length (m)	temperature (°C)	Stokes	anti-Stokes-747.200	8.634	-0.138	-0.105
-746.185	-114.105	0.072	-0.014
-745.171	114.422	0.169	-0.207
-744.156	-110.822	0.318	0.066
-743.142	1.919	-0.303	-0.221
-742.127	423.136	-0.051	-0.110
-741.112	-200.000	0.008	0.200
-740.098	-200.000	0.014	-0.326
-739.083	-86.576	-0.211	-0.065
-738.069	-159.516	-0.236	0.013
-737.054	-200.000	0.036	-0.309
-736.039	-200.000	0.027	-0.125
-735.025	-12.238	0.444	0.293
-734.010	-80.724	0.130	0.043
-732.996	119.462	0.076	-0.095
-731.981	-73.518	0.141	-0.052
-730.966	-200.000	0.009	-0.087
-729.952	-27.192	0.171	0.101
-728.937	-59.139	-0.124	0.054
-727.923	30.345	0.223	0.192
-726.908	-44.808	0.356	0.179
-725.894	339.898	-0.077	0.151
-724.879	-28.351	-0.200	-0.117
-723.864	214.845	-0.056	0.089
-722.850	-200.000	-0.003	0.206
-721.835	105.863	0.139	0.165
-720.821	220.045	-0.041	0.066
-719.806	390.338	-0.152	-0.318
-718.791	384.620	-0.080	-0.166
-717.777	-101.448	-0.176	0.043
-716.762	-109.980	0.165	-0.035
-715.748	111.233	0.073	0.089
-714.733	268.704	0.131	-0.232
-713.718	55.954	-0.153	-0.149
-712.704	-13.430	0.149	-0.097
-711.689	154.939	-0.223	-0.308
-710.675	68.753	0.301	-0.312
-709.660	-167.745	-0.473	0.019
-708.645	179.650	-0.043	-0.063
-707.631	-200.000	-0.021	0.117
-706.616	-6.465	0.136	-0.093
-705.602	-113.772	-0.229	0.045
-704.587	1.608	0.132	-0.096
-703.572	-169.733	-0.240	-0.009
-702.558	-149.212	-0.217	-0.018
-701.543	-200.000	-0.014	-0.236
-700.529	-100.425	0.318	-0.079
-699.514	627.284	-0.027	-0.070
-698.499	-115.671	-0.290	-0.055
-697.485	-200.000	-0.039	-0.414
-696.470	-200.000	-0.005	-0.170
-695.456	54.902	0.250	-0.242
-694.441	-200.000	0.027	-0.272
-693.426	-41.302	-0.153	0.079
-692.412	-181.531	-0.325	0.006
-691.397	800.000	-0.018	0.079
-690.383	90.453	0.139	0.157
-689.368	28.989	0.146	-0.125
-688.354	800.000	0.054	-0.237
-687.339	800.000	0.090	-0.389
-686.324	663.639	0.083	-0.217
-685.310	-200.000	0.004	-0.157
-684.295	11.830	0.310	0.239
-683.281	172.708	0.150	0.218
-682.266	70.851	-0.168	0.175
-681.251	-200.000	-0.015	-0.186
-680.237	148.609	-0.124	0.169
-679.222	-147.687	0.137	0.012
-678.208	7.657	0.121	0.091
-677.193	-98.312	0.052	-0.013
-676.178	-130.330	0.154	-0.021
-675.164	800.000	-0.042	-0.162
-674.149	592.124	-0.033	-0.083
-673.135	-185.710	0.235	-0.004
-672.120	600.343	0.050	-0.125
-671.105	369.941	0.052	0.107
-670.091	-200.000	0.005	0.025
-669.076	-200.000	0.020	0.162
-668.062	-26.102	-0.462	-0.273
-667.047	-200.000	0.015	-0.262
-666.032	-200.000	-0.061	-0.385
-665.018	227.312	0.182	0.298
-664.003	164.555	-0.120	-0.170
-662.989	-52.053	-0.126	0.059
-661.974	800.000	0.024	0.067
-660.959	-89.030	-0.227	-0.067
-659.945	-39.283	0.333	0.176
-658.930	-49.086	0.196	0.094
-657.916	-51.650	0.138	-0.065
-656.901	-200.000	-0.056	-0.392
-655.886	75.014	-0.067	0.071
-654.872	122.160	-0.124	-0.155
-653.857	-13.024	0.151	0.099
-652.843	142.990	-0.085	-0.114
-651.828	-31.456	-0.346	0.195
-650.814	-200.000	0.044	0.231
-649.799	-35.087	0.315	0.173
-648.784	-72.448	0.121	-0.045
-647.770	-54.959	-0.489	0.221
-646.755	208.735	-0.151	0.238
-645.741	431.356	0.051	-0.112
-644.726	44.542	-0.205	-0.190
-643.711	213.726	-0.190	0.302
-642.697	-78.209	0.169	0.058
-641.682	216.898	0.074	0.118
-640.668	-200.000	-0.009	-0.070
-639.653	-60.850	0.262	0.111
-638.638	-77.555	-0.110	0.038
-637.624	800.000	-0.021	-0.085
-636.609	-200.000	0.051	0.281
-635.595	-7.305	-0.147	-0.100
-634.580	-44.784	-0.118	-0.059
-633.565	-121.102	-0.103	-0.017
-632.551	35.647	-0.223	-0.197
-631.536	800.000	0.030	0.116
-630.522	-188.409	-0.282	-0.004
-629.507	-200.000	0.017	-0.288
-628.492	-200.000	0.063	0.295
-627.478	-200.000	0.033	0.211
-626.463	331.593	-0.137	-0.265
-625.449	-111.439	0.490	-0.100
-624.434	40.313	-0.125	0.113
-623.419	107.909	-0.184	0.219
-622.405	-37.766	0.008	0.004
-621.390	303.216	-0.159	-0.295
-620.376	149.058	-0.106	-0.144
-619.361	-26.247	0.102	0.060
-618.346	800.000	0.026	-0.097
-617.332	-33.933	0.224	-0.124
-616.317	87.237	-0.012	0.013
-615.303	-32.954	0.122	-0.068
-614.288	800.000	-0.074	0.290
-613.273	800.000	0.053	-0.221
-612.259	-73.390	0.087	-0.032
-611.244	469.842	0.067	0.151
-610.230	-200.000	-0.002	-0.204
-609.215	27.061	0.219	-0.184
-608.201	800.000	-0.044	0.179
-607.186	-200.000	0.006	0.180
-606.171	-27.393	-0.221	-0.129
-605.157	-200.000	-0.091	-0.408
-604.142	20.406	0.292	0.237
-603.128	2.043	0.128	0.093
-602.113	-200.000	-0.003	0.131
-601.098	-57.811	0.157	0.069
-600.084	-73.316	0.237	0.087
-599.069	55.074	-0.093	-0.090
-598.055	-89.383	0.321	-0.095
-597.040	-200.000	-0.008	-0.066
-596.025	-200.000	-0.062	0.427
-595.011	-19.903	-0.098	0.061
-593.996	-200.000	0.066	0.327
-592.982	-57.279	0.054	-0.024
-591.967	800.000	-0.070	-0.217
-590.952	-200.000	0.005	0.301
-589.938	-200.000	0.005	0.101
-588.923	-200.000	0.033	-0.259
-587.909	800.000	0.063	-0.182
-586.894	800.000	-0.062	-0.256
-585.879	-200.000	-0.016	-0.104
-584.865	221.415	-0.048	-0.077
-583.850	800.000	-0.089	-0.368
-582.836	84.312	0.170	0.186
-581.821	-2.395	-0.107	0.075
-580.806	-86.809	0.086	-0.026
-579.792	-124.179	-0.143	-0.022
-578.777	248.360	-0.152	0.258
-577.763	59.748	-0.204	0.201
-576.748	124.630	0.102	-0.128
-575.733	800.000	-0.046	0.179
-574.719	-125.150	0.269	0.041
-573.704	207.396	-0.029	0.046
-572.690	121.594	-0.186	0.232
-571.675	-200.000	0.014	0.166
-570.661	-112.159	0.269	0.054
-569.646	-147.432	-0.129	-0.011
-568.631	-33.229	0.135	0.075
-567.617	280.845	0.181	-0.324
-566.602	800.000	0.069	0.229
-565.588	33.085	-0.095	-0.082
-564.573	635.019	-0.087	-0.220
-563.558	-111.832	-0.233	-0.047
-562.544	16.204	-0.215	0.170
-561.529	361.738	-0.152	0.305
-560.515	800.000	-0.070	-0.195
-559.500	-200.000	0.012	-0.229
-558.485	-78.987	-0.282	0.096
-557.471	229.871	-0.034	0.055
-556.456	-200.000	0.006	0.044
-555.442	-200.000	0.007	0.166
-554.427	150.904	-0.073	-0.100
-553.412	-200.000	-0.030	-0.291
-552.398	115.014	-0.116	0.142
-551.383	370.577	-0.093	-0.188
-550.369	-137.727	0.158	0.018
-549.354	800.000	-0.089	-0.306
-548.339	-58.312	-0.021	-0.009
-547.325	-99.355	0.396	0.100
-546.310	-142.323	0.122	-0.012
-545.296	40.968	0.288	-0.260
-544.281	241.699	-0.178	0.297
-543.266	-35.835	-0.044	0.024
-542.252	71.158	-0.267	0.277
-541.237	69.922	-0.178	-0.184
-540.223	-200.000	0.030	0.139
-539.208	-104.407	0.174	0.040
-538.193	-77.726	-0.029	0.010
-537.179	-59.226	-0.255	0.110
-536.164	-0.257	0.026	0.019
-535.150	800.000	0.080	-0.328
-534.135	-84.656	-0.256	-0.081
-533.121	800.000	-0.092	0.266
-532.106	9.268	0.237	0.179
-531.091	-124.985	0.054	-0.008
-530.077	529.025	0.123	-0.291
-529.062	76.383	0.201	0.213
-528.048	39.744	0.239	0.214
-527.033	41.561	0.261	-0.236
-526.018	-200.000	0.003	0.125
-525.004	427.509	0.103	0.223
-523.989	23.438	0.049	-0.040
-522.975	-87.091	0.190	-0.058
-521.960	-80.872	0.108	0.036
-520.945	800.000	-0.078	-0.236
-519.931	800.000	0.119	-0.476
-518.916	115.500	-0.022	-0.027
-517.902	42.036	-0.105	-0.095
-516.887	51.664	0.113	-0.107
-515.872	-10.311	0.202	0.134
-514.858	-57.979	0.321	-0.140
-513.843	-143.347	0.181	-0.017
-512.829	169.485	-0.313	-0.447
-511.814	-34.779	-0.199	-0.109
-510.799	-65.452	0.312	0.125
-509.785	741.239	0.137	-0.368
-508.770	-59.455	-0.220	-0.094
-507.756	-120.893	0.131	0.022
-506.741	-200.000	-0.008	-0.292
-505.726	120.229	0.146	0.181
-504.712	442.833	-0.195	0.426
-503.697	-89.273	-0.260	0.077
-502.683	-117.514	0.221	0.040
-501.668	555.917	-0.066	0.158
-500.653	-200.000	0.146	0.000
-499.639	46.088	-0.157	-0.145
-498.624	-200.000	0.011	-0.143
-497.610	82.230	-0.094	0.101
-496.595	259.598	-0.028	-0.048
-495.581	-200.000	-0.015	0.160
-494.566	-175.170	-0.263	-0.007
-493.551	122.609	-0.105	-0.131
-492.537	179.233	0.026	0.037
-491.522	-200.000	-0.001	-0.006
-490.508	177.470	0.066	0.096
-489.493	800.000	-0.099	0.344
-488.478	-131.299	0.220	-0.029
-487.464	-137.045	0.081	-0.009
-486.449	185.964	-0.086	0.128
-485.435	800.000	-0.116	0.499
-484.420	-10.079	0.158	0.105
-483.405	-34.734	-0.405	-0.221
-482.391	-75.592	-0.211	0.075
-481.376	18.626	0.152	0.121
-480.362	-102.685	0.073	-0.017
-479.347	-138.872	-0.548	-0.059
-478.332	88.923	-0.218	-0.242
-477.318	-57.730	0.388	0.170
-476.303	368.635	0.074	0.149
-475.289	-200.000	-0.007	0.183
-474.274	-200.000	0.011	0.063
-473.259	-119.346	-0.161	0.028
-472.245	-7.452	-0.174	-0.118
-471.230	-8.916	-0.225	-0.151
-470.216	-19.265	0.086	0.053
-469.201	246.148	-0.202	-0.340
-468.186	800.000	0.058	-0.236
-467.172	171.211	-0.169	0.242
-466.157	-67.080	-0.092	0.036
-465.143	-130.900	-0.187	-0.025
-464.128	-153.318	0.386	-0.027
-463.113	-31.826	0.023	-0.013
-462.099	-22.451	0.155	0.093
-461.084	-113.474	0.366	-0.071
-460.070	-38.303	-0.164	-0.087
-459.055	221.517	0.126	-0.201
-458.040	-200.000	-0.033	-0.204
-457.026	231.151	0.147	-0.240
-456.011	-19.228	0.025	-0.016
-454.997	163.565	-0.108	0.151
-453.982	-132.264	-0.028	0.004
-452.968	-200.000	0.055	-0.310
-451.953	120.234	0.264	-0.327
-450.938	-200.000	0.049	0.374
-449.924	-24.201	0.283	0.169
-448.909	542.449	-0.067	-0.160
-447.895	44.573	0.052	0.048
-446.880	-200.000	0.051	0.315
-445.865	71.269	0.028	-0.029
-444.851	-117.028	-0.079	-0.014
-443.836	-82.648	0.077	0.025
-442.822	295.960	-0.124	0.227
-441.807	-4.504	0.189	-0.130
-440.792	317.701	0.134	-0.253
-439.778	-95.048	-0.391	0.105
-438.763	-10.704	-0.152	0.100
-437.749	-63.569	0.182	-0.074
-436.734	-200.000	0.056	0.244
-435.719	-200.000	-0.208	-0.001
-434.705	53.736	0.197	-0.188
-433.690	523.562	-0.182	-0.426
-432.676	50.084	0.235	-0.221
-431.661	-88.308	-0.105	0.031
-430.646	-200.000	-0.056	-0.280
-429.632	-118.533	-0.098	-0.017
-428.617	412.542	-0.137	0.291
-427.603	21.976	-0.233	0.190
-426.588	212.321	-0.245	0.385
-425.573	273.504	-0.118	-0.207
-424.559	-136.884	-0.161	-0.018
-423.544	130.216	0.166	0.211
-422.530	800.000	0.007	0.019
-421.515	132.926	0.240	0.309
-420.500	673.576	0.109	-0.283
-419.486	343.094	-0.146	-0.284
-418.471	-73.494	-0.083	-0.030
-417.457	23.754	0.081	0.067
-416.442	405.582	0.153	-0.321
-415.428	226.914	0.046	-0.074
-414.413	120.718	-0.140	-0.174
-413.398	71.263	-0.162	0.167
-412.384	-68.464	0.211	0.081
-411.369	-60.634	-0.177	-0.075
-410.355	30.452	0.133	0.113
-409.340	289.384	0.034	-0.062
-408.325	-70.452	-0.207	-0.078
-407.311	425.310	-0.065	0.140
-406.296	-108.015	0.111	-0.024
-405.282	298.264	-0.003	-0.006
-404.267	10.160	-0.233	0.176
-403.252	508.994	0.069	-0.159
-402.238	-200.000	-0.045	0.297
-401.223	-46.857	-0.349	0.170
-400.209	124.104	0.224	-0.281
-399.194	-67.639	-0.283	0.110
-398.179	800.000	0.081	0.280
-397.165	649.886	-0.110	-0.279
-396.150	94.549	-0.039	-0.044
-395.136	-185.285	-0.377	0.006
-394.121	182.138	0.100	0.147
-393.106	-9.670	0.037	0.025
-392.092	580.801	-0.059	0.144
-391.077	-14.582	0.138	0.088
-390.063	-54.681	-0.320	-0.144
-389.048	153.508	-0.060	-0.082
-388.033	532.932	-0.018	-0.041
-387.019	385.883	0.034	-0.069
-386.004	800.000	0.097	0.387
-384.990	104.798	-0.114	-0.134
-383.975	-122.883	0.059	-0.009
-382.960	800.000	0.036	-0.139
-381.946	471.934	0.033	0.074
-380.931	-155.032	-0.150	-0.010
-379.917	-200.000	-0.013	-0.162
-378.902	132.287	0.118	0.151
-377.888	800.000	-0.025	0.095
-376.873	-27.236	-0.272	0.157
-375.858	37.117	-0.146	0.129
-374.844	-165.817	-0.056	0.002
-373.829	27.886	0.190	-0.159
-372.815	263.609	-0.022	0.038
-371.800	-200.000	0.013	-0.067
-370.785	-200.000	0.034	0.178
-369.771	300.482	-0.069	0.126
-368.756	70.407	-0.101	-0.104
-367.742	-58.232	-0.114	0.049
-366.727	364.647	0.089	-0.178
-365.712	125.807	-0.229	-0.287
-364.698	-200.000	-0.025	-0.221
-363.683	-8.469	0.100	-0.067
-362.669	238.724	-0.125	0.206
-361.654	-164.841	-0.303	0.013
-360.639	165.124	-0.172	-0.242
-359.625	-90.889	-0.099	-0.028
-358.610	-60.782	0.197	0.083
-357.596	-58.163	0.229	-0.099
-356.581	28.412	-0.285	-0.239
-355.566	1.495	0.383	0.274
-354.552	-2.517	-0.320	0.222
-353.537	-60.395	0.216	0.091
-352.523	132.866	0.080	0.102
-351.508	-65.317	0.108	0.043
-350.493	413.490	0.094	0.198
-349.479	13.416	-0.170	0.131
-348.464	-105.812	0.444	0.100
-347.450	-119.750	-0.022	0.004
-346.435	-200.000	-0.062	-0.356
-345.420	130.302	-0.132	0.168
-344.406	800.000	0.047	-0.158
-343.391	-200.000	-0.033	-0.184
-342.377	-200.000	-0.042	0.185
-341.362	-200.000	-0.075	-0.330
-340.348	-134.159	-0.268	-0.033
-339.333	40.124	-0.138	0.124
-338.318	-24.859	0.230	-0.136
-337.304	-128.861	-0.154	0.021
-336.289	-89.479	0.229	0.067
-335.275	46.335	-0.062	-0.057
-334.260	204.946	-0.212	0.326
-333.245	-108.836	0.223	-0.047
-332.231	-115.374	0.411	-0.077
-331.216	13.777	-0.199	0.154
-330.202	227.960	0.171	0.276
-329.187	-75.160	0.084	0.030
-328.172	551.494	-0.060	-0.143
-327.158	-1.720	0.310	-0.216
-326.143	686.866	0.087	-0.225
-325.129	21.144	0.383	0.309
-324.114	-17.206	-0.200	0.125
-323.099	-200.000	-0.009	-0.109
-322.085	28.955	-0.198	0.167
-321.070	-34.398	-0.229	-0.125
-320.056	-165.390	-0.082	0.004
-319.041	-200.000	0.007	-0.076
-318.026	306.294	0.127	-0.234
-317.012	-200.000	-0.053	0.247
-315.997	-77.077	0.180	0.062
-314.983	-28.936	-0.146	-0.083
-313.968	-60.454	0.239	0.101
-312.953	224.811	0.033	-0.053
-311.939	-1.830	0.207	-0.144
-310.924	518.034	0.111	-0.257
-309.910	234.720	-0.162	0.265
-308.895	26.539	-0.025	0.021
-307.880	-200.000	0.043	-0.192
-306.866	247.107	-0.134	-0.224
-305.851	-40.116	0.154	-0.080
-304.837	468.062	0.056	0.124
-303.822	-200.000	-0.019	0.108
-302.807	-157.740	0.048	0.003
-301.793	553.916	-0.065	0.155
-300.778	-140.004	0.210	-0.022
-299.764	-125.613	0.071	-0.011
-298.749	31.540	-0.429	-0.366
-297.735	96.529	-0.195	-0.221
-296.720	-86.047	-0.191	-0.059
-295.705	296.323	-0.057	-0.103
-294.691	115.374	-0.082	-0.099
-293.676	143.626	-0.096	-0.127
-292.662	800.000	0.075	0.252
-291.647	141.100	0.135	0.177
-290.632	-72.417	-0.171	-0.063
-289.618	-173.499	0.204	0.006
-288.603	-16.689	0.238	0.149
-287.589	95.542	0.175	-0.198
-286.574	102.727	0.172	0.199
-285.559	-200.000	0.021	0.158
-284.545	-42.302	-0.291	-0.147
-283.530	-90.164	-0.223	0.064
-282.516	27.012	0.142	0.118
-281.501	800.000	0.040	0.125
-280.486	800.000	-0.062	-0.182
-279.472	-110.600	-0.512	-0.105
-278.457	-110.508	-0.246	-0.050
-277.443	-200.000	0.013	0.328
-276.428	233.571	-0.074	0.121
-275.413	-129.911	0.117	0.016
-274.399	-200.000	0.014	0.108
-273.384	800.000	-0.034	0.104
-272.370	17.137	0.239	-0.188
-271.355	-200.000	-0.007	-0.065
-270.340	-176.032	0.271	0.007
-269.326	-86.144	-0.180	-0.055
-268.311	-83.329	0.099	0.032
-267.297	-112.153	0.290	-0.058
-266.282	-200.000	0.007	0.114
-265.267	800.000	0.047	-0.178
-264.253	104.900	0.191	-0.223
-263.238	-200.000	-0.054	-0.256
-262.224	416.990	0.140	-0.295
-261.209	-200.000	0.024	0.108
-260.195	167.706	0.017	-0.024
-259.180	23.529	0.191	-0.156
-258.165	-119.782	0.640	-0.109
-257.151	6.727	0.181	0.133
-256.136	45.651	-0.370	-0.339
-255.122	-78.178	0.205	-0.070
-254.107	128.676	-0.167	-0.210
-253.092	73.520	-0.044	0.045
-252.078	-200.000	-0.026	0.161
-251.063	-108.079	-0.194	0.042
-250.049	537.771	-0.149	-0.351
-249.034	-68.866	0.285	0.109
-248.019	-0.590	-0.092	-0.064
-247.005	-70.382	0.242	0.091
-245.990	11.038	0.241	-0.182
-244.976	-200.000	-0.006	0.118
-243.961	-200.000	-0.010	0.176
-242.946	68.729	0.064	-0.065
-241.932	-115.201	-0.588	-0.110
-240.917	37.000	-0.063	0.055
-239.903	-61.086	-0.110	-0.046
-238.888	114.880	0.031	0.037
-237.873	-200.000	-0.029	0.444
-236.859	105.101	-0.262	-0.306
-235.844	-83.598	-0.190	0.060
-234.830	-31.167	0.289	-0.161
-233.815	-200.000	0.006	-0.285
-232.800	164.178	0.028	-0.039
-231.786	-200.000	-0.022	-0.204
-230.771	-200.000	0.053	0.392
-229.757	-25.630	-0.018	-0.011
-228.742	800.000	0.109	-0.376
-227.727	30.450	0.126	-0.107
-226.713	-98.536	0.172	0.043
-225.698	348.385	0.159	-0.309
-224.684	-170.572	0.311	0.011
-223.669	-140.284	0.250	-0.026
-222.655	479.967	-0.060	0.134
-221.640	-117.532	-0.268	0.048
-220.625	-9.157	0.100	0.066
-219.611	-200.000	0.036	-0.168
-218.596	272.125	-0.128	-0.224
-217.582	-56.027	0.323	0.142
-216.567	157.053	0.071	-0.097
-215.552	-200.000	-0.040	-0.219
-214.538	-89.071	0.173	0.051
-213.523	79.605	0.307	-0.326
-212.509	309.875	0.164	-0.302
-211.494	-11.856	-0.237	0.153
-210.479	-96.096	-0.145	0.038
-209.465	-200.000	-0.012	-0.104
-208.450	-200.000	-0.028	0.391
-207.436	97.544	0.303	0.343
-206.421	-125.568	0.338	-0.051
-205.406	-200.000	-0.024	-0.191
-204.392	324.696	0.138	0.261
-203.377	-200.000	0.007	0.209
-202.363	-200.000	0.031	0.295
-201.348	269.652	0.067	-0.117
-200.333	-177.161	-0.121	0.003
-199.319	800.000	0.056	-0.167
-198.304	148.443	-0.176	-0.234
-197.290	384.545	0.127	-0.259
-196.275	419.817	0.046	0.097
-195.260	94.358	-0.064	-0.072
-194.246	-0.921	-0.115	-0.081
-193.231	-16.133	0.182	-0.114
-192.217	175.139	-0.157	0.224
-191.202	-14.811	-0.193	-0.122
-190.187	-187.464	0.269	-0.004
-189.173	-200.000	-0.030	0.303
-188.158	137.605	-0.193	0.250
-187.144	51.036	-0.199	-0.186
-186.129	-200.000	0.093	-0.525
-185.114	-143.412	0.197	-0.019
-184.100	-76.957	-0.273	-0.094
-183.085	-128.658	-0.240	-0.034
-182.071	452.075	-0.044	-0.095
-181.056	616.275	-0.065	0.161
-180.042	-138.863	0.133	-0.014
-179.027	255.658	0.107	-0.181
-178.012	-150.957	-0.211	-0.016
-176.998	-1.727	0.158	-0.110
-175.983	28.742	0.090	0.075
-174.969	-185.342	-0.166	0.003
-173.954	-1.033	-0.219	0.153
-172.939	335.270	0.114	0.218
-171.925	800.000	0.043	0.176
-170.910	800.000	-0.125	0.367
-169.896	-32.880	-0.209	0.114
-168.881	-90.005	-0.014	-0.004
-167.866	15.424	-0.038	-0.029
-166.852	800.000	0.068	0.206
-165.837	746.008	0.078	0.208
-164.823	393.723	-0.135	0.278
-163.808	169.304	0.229	0.322
-162.793	62.019	0.193	-0.189
-161.779	68.317	0.066	-0.067
-160.764	680.097	0.098	0.251
-159.750	-32.834	0.170	-0.093
-158.735	-200.000	-0.024	0.397
-157.720	159.817	-0.216	0.297
-156.706	800.000	-0.093	0.348
-155.691	-200.000	-0.052	0.355
-154.677	27.121	-0.120	-0.100
-153.662	28.914	-0.182	0.152
-152.647	800.000	-0.041	-0.161
-151.633	-32.415	0.122	-0.067
-150.618	239.547	-0.070	-0.114
-149.604	112.971	-0.031	-0.037
-148.589	-108.322	-0.236	-0.050
-147.574	-48.080	0.190	0.090
-146.560	-83.594	-0.074	0.023
-145.545	206.771	-0.046	0.071
-144.531	59.291	-0.132	0.128
-143.516	-116.101	-0.256	0.047
-142.502	41.386	0.172	0.153
-141.487	-200.000	0.084	0.384
-140.472	-177.460	0.399	0.010
-139.458	-119.920	0.425	0.072
-138.443	164.629	-0.131	-0.182
-137.429	425.555	0.091	-0.192
-136.414	800.000	-0.072	-0.198
-135.399	-29.342	-0.220	0.124
-134.385	-75.823	-0.266	0.093
-133.370	-148.313	-0.223	0.018
-132.356	5.704	0.103	-0.075
-131.341	343.281	0.052	-0.101
-130.326	-67.447	0.167	-0.065
-129.312	-200.000	-0.021	0.156
-128.297	-200.000	0.024	-0.121
-127.283	800.000	-0.045	-0.125
-126.268	-200.000	0.007	0.163
-125.253	-200.000	-0.020	0.260
-124.239	561.937	-0.041	-0.098
-123.224	-92.404	0.190	-0.053
-122.210	-173.034	0.201	-0.006
