DTS Sentinel unit serial number:	SN413079Multiplexer serial number:	ORYXHardware model number:	OX4-SRSoftware version number:	ORYX F/W v4.00 Oryx Data Collector v3.7.2.0data status	okinstallation	princeton_trtdifferential loss correction	single-endedforward channel	channel 2reverse channel	N/Adate	2019/09/12time	03:17:10forward acquisition time	60.00reverse acquisition time	0.00gamma	496.2192k internal	0.2326k external	0.2326temperature offset calibration	1.0096default loss term (dB/km)	0.3790temperature slope calibration	1.0000multiplexer offset coefficient	1.0000multiplexer slope coefficient	1.0000fibre end	0.00T internal ref (°C)	32.25T ext. ref 1 (°C)	2.12T ext. ref 2 (°C)	26.80length (m)	temperature (°C)	Stokes	anti-Stokes-747.200	-200.000	0.024	-0.217
-746.185	58.072	-0.246	-0.243
-745.171	800.000	-0.157	0.511
-744.156	-83.672	-0.328	0.106
-743.142	167.807	-0.179	0.256
-742.127	-200.000	0.003	0.063
-741.112	-122.778	-0.147	0.024
-740.098	-51.159	-0.497	-0.235
-739.083	800.000	0.037	-0.135
-738.069	-31.085	-0.212	0.121
-737.054	-21.413	0.118	-0.072
-736.039	800.000	0.033	-0.114
-735.025	-200.000	0.013	-0.176
-734.010	-166.776	-0.458	-0.019
-732.996	-11.602	-0.165	0.110
-731.981	-52.122	0.141	-0.066
-730.966	-76.611	-0.197	-0.070
-729.952	-49.702	-0.212	0.102
-728.937	425.190	-0.179	0.389
-727.923	-90.868	-0.258	0.075
-726.908	-6.480	0.175	-0.120
-725.894	-106.406	-0.115	-0.026
-724.879	132.865	0.224	-0.291
-723.864	-126.672	0.249	0.037
-722.850	-70.087	-0.147	-0.056
-721.835	-197.935	-0.133	-0.001
-720.821	294.580	-0.060	0.111
-719.806	800.000	-0.062	-0.184
-718.791	16.106	0.105	0.084
-717.777	-132.138	0.279	-0.037
-716.762	800.000	-0.062	-0.193
-715.748	-200.000	-0.185	0.000
-714.733	-115.417	0.332	0.063
-713.718	-95.312	0.107	0.029
-712.704	-73.822	-0.423	-0.155
-711.689	-200.000	-0.027	-0.213
-710.675	-200.000	0.014	0.150
-709.660	-125.822	0.360	0.055
-708.645	-112.040	0.104	-0.021
-707.631	-172.994	-0.092	-0.003
-706.616	7.829	-0.213	-0.160
-705.602	56.802	-0.238	-0.234
-704.587	292.211	-0.066	0.122
-703.572	800.000	0.023	-0.073
-702.558	390.557	0.067	-0.140
-701.543	800.000	0.058	0.190
-700.529	-110.217	0.132	-0.028
-699.514	-53.168	-0.099	0.046
-698.499	-193.930	-0.174	-0.001
-697.485	-73.417	0.175	0.064
-696.470	390.413	-0.175	0.365
-695.456	-51.915	0.216	0.101
-694.441	-41.588	0.278	-0.144
-693.426	-75.971	0.108	-0.038
-692.412	800.000	-0.123	-0.373
-691.397	129.765	0.035	0.045
-690.383	536.913	0.029	0.070
-689.368	-200.000	0.040	-0.298
-688.354	-98.080	0.323	-0.084
-687.339	57.719	0.075	0.074
-686.324	-200.000	0.066	-0.512
-685.310	800.000	-0.031	-0.108
-684.295	-13.959	-0.260	0.169
-683.281	800.000	-0.085	0.243
-682.266	129.283	-0.097	0.124
-681.251	139.831	0.019	0.025
-680.237	-200.000	-0.009	-0.254
-679.222	63.860	0.063	-0.064
-678.208	144.478	0.142	0.190
-677.193	-105.049	-0.131	-0.030
-676.178	168.807	0.074	-0.106
-675.164	248.046	-0.140	0.238
-674.149	-30.523	-0.312	0.178
-673.135	-153.866	0.193	-0.013
-672.120	-101.425	0.289	-0.071
-671.105	-39.647	-0.226	0.119
-670.091	123.478	0.242	0.306
-669.076	-141.546	-0.065	-0.007
-668.062	-59.843	-0.050	0.022
-667.047	523.245	-0.060	-0.142
-666.032	111.228	-0.214	0.259
-665.018	151.229	-0.142	0.194
-664.003	-97.543	0.141	0.037
-662.989	-63.950	-0.357	-0.147
-661.974	-42.978	0.164	-0.083
-660.959	150.274	0.066	-0.090
-659.945	800.000	0.035	0.118
-658.930	387.061	-0.063	0.131
-657.916	-200.000	-0.056	-0.450
-656.901	-200.000	0.024	-0.172
-655.886	-69.474	0.186	0.071
-654.872	23.138	-0.060	0.049
-653.857	-59.029	0.196	-0.085
-652.843	-200.000	-0.037	-0.192
-651.828	-200.000	0.035	0.214
-650.814	-107.574	-0.078	-0.017
-649.799	-146.167	-0.382	-0.034
-648.784	-200.000	-0.005	0.074
-647.770	-200.000	-0.024	-0.142
-646.755	21.923	-0.147	-0.120
-645.741	-75.890	0.344	0.122
-644.726	335.442	0.060	-0.116
-643.711	-200.000	0.033	-0.188
-642.697	-200.000	0.046	0.243
-641.682	800.000	0.052	-0.152
-640.668	-200.000	-0.020	-0.165
-639.653	-84.620	0.041	-0.013
-638.638	-115.059	0.079	-0.015
-637.624	197.980	-0.268	-0.412
-636.609	-88.504	-0.209	-0.063
-635.595	-105.797	-0.321	-0.073
-634.580	-47.149	0.186	-0.091
-633.565	-35.792	0.184	0.100
-632.551	58.755	0.158	-0.156
-631.536	-23.424	-0.266	0.160
-630.522	140.850	-0.192	0.255
-629.507	154.655	0.072	-0.099
-628.492	127.969	0.191	-0.244
-627.478	-89.607	-0.293	0.086
-626.463	-113.487	0.102	-0.020
-625.449	340.912	-0.032	-0.062
-624.434	-60.292	-0.109	0.047
-623.419	-83.189	0.210	0.068
-622.405	-80.691	-0.241	0.080
-621.390	800.000	-0.025	-0.094
-620.376	55.730	-0.141	-0.137
-619.361	-26.262	-0.238	-0.140
-618.346	800.000	0.034	-0.106
-617.332	-122.823	0.404	0.065
-616.317	-70.319	-0.106	-0.040
-615.303	342.262	0.059	0.116
-614.288	62.120	-0.187	-0.187
-613.273	365.187	0.053	0.106
-612.259	-85.748	-0.298	-0.093
-611.244	-200.000	-0.029	0.294
-610.230	169.431	-0.095	-0.136
-609.215	261.143	-0.091	-0.159
-608.201	127.613	-0.150	-0.192
-607.186	-77.711	-0.105	-0.036
-606.171	-102.739	-0.319	-0.076
-605.157	86.655	-0.039	-0.043
-604.142	-2.461	-0.146	-0.102
-603.128	-132.296	-0.203	0.026
-602.113	-165.356	0.214	0.009
-601.098	-97.031	0.159	-0.042
-600.084	66.995	0.032	-0.033
-599.069	141.700	0.181	0.240
-598.055	107.914	0.192	0.230
-597.040	2.228	-0.207	0.150
-596.025	39.151	-0.226	-0.203
-595.011	-58.765	0.218	-0.095
-593.996	-12.980	0.216	0.141
-592.982	-24.488	0.370	-0.221
-591.967	277.787	0.241	-0.431
-590.952	-200.000	-0.040	0.281
-589.938	-200.000	-0.008	0.114
-588.923	-200.000	0.000	-0.172
-587.909	42.628	0.137	0.125
-586.894	723.540	-0.141	-0.375
-585.879	73.093	0.151	-0.159
-584.865	57.471	0.016	0.016
-583.850	442.344	-0.134	-0.295
-582.836	-67.983	0.111	-0.043
-581.821	-200.000	-0.005	-0.060
-580.806	-4.590	0.222	-0.153
-579.792	175.749	0.085	0.123
-578.777	-24.914	0.194	-0.116
-577.763	800.000	0.031	-0.128
-576.748	-93.349	0.203	-0.056
-575.733	-94.273	-0.251	-0.069
-574.719	283.961	0.037	-0.066
-573.704	-200.000	-0.046	0.454
-572.690	-70.788	0.184	-0.070
-571.675	577.519	0.029	-0.070
-570.661	232.286	-0.128	-0.211
-569.646	-50.756	-0.201	-0.095
-568.631	152.882	-0.218	-0.299
-567.617	-200.000	-0.028	-0.223
-566.602	342.741	0.112	0.220
-565.588	-144.895	-0.249	0.023
-564.573	-56.923	0.057	-0.025
-563.558	-200.000	0.026	0.141
-562.544	-143.089	-0.192	-0.019
-561.529	68.205	0.126	-0.130
-560.515	42.791	-0.103	-0.094
-559.500	496.237	-0.081	0.188
-558.485	-47.962	-0.270	-0.131
-557.471	800.000	0.024	0.094
-556.456	-200.000	0.009	-0.126
-555.442	47.966	-0.025	0.023
-554.427	-13.415	-0.138	-0.090
-553.412	-31.756	-0.119	-0.067
-552.398	-35.285	0.499	-0.272
-551.383	800.000	0.033	-0.106
-550.369	74.978	0.302	0.318
-549.354	-200.000	0.038	-0.231
-548.339	-87.752	0.325	0.098
-547.325	57.270	-0.222	0.217
-546.310	153.123	0.179	0.246
-545.296	800.000	0.065	0.207
-544.281	800.000	-0.036	-0.129
-543.266	-200.000	-0.024	-0.259
-542.252	-168.852	-0.064	0.002
-541.237	681.853	-0.072	-0.189
-540.223	-200.000	0.002	0.132
-539.208	96.537	-0.158	0.181
-538.193	113.545	-0.053	0.065
-537.179	-112.201	0.082	0.016
-536.164	149.706	0.084	-0.114
-535.150	800.000	-0.071	0.287
-534.135	-91.313	-0.130	-0.037
-533.121	-200.000	0.036	-0.450
-532.106	800.000	-0.060	-0.183
-531.091	-22.552	-0.077	0.047
-530.077	83.737	-0.334	-0.364
-529.062	181.128	-0.122	-0.179
-528.048	35.360	0.092	0.081
-527.033	-101.421	-0.249	-0.061
-526.018	-22.798	0.243	0.147
-525.004	-7.128	0.280	-0.190
-523.989	800.000	0.088	0.334
-522.975	-54.278	0.166	0.076
-521.960	-21.176	-0.145	-0.088
-520.945	147.148	0.180	-0.242
-519.931	155.336	0.134	-0.184
-518.916	-13.488	0.159	-0.103
-517.902	54.585	-0.206	0.199
-516.887	22.150	-0.072	0.058
-515.872	113.689	0.151	0.183
-514.858	800.000	-0.017	-0.065
-513.843	120.675	-0.037	-0.046
-512.829	65.376	0.278	0.281
-511.814	-200.000	0.049	0.244
-510.799	-200.000	-0.003	0.286
-509.785	144.946	-0.161	0.215
-508.770	-6.612	0.070	0.047
-507.756	-200.000	0.023	0.232
-506.741	-120.545	0.262	0.044
-505.726	-35.387	0.133	-0.072
-504.712	-56.289	-0.214	-0.095
-503.697	224.664	0.130	0.209
-502.683	-83.492	0.196	-0.063
-501.668	-200.000	0.010	0.068
-500.653	-15.698	-0.251	-0.160
-499.639	-95.875	-0.208	0.055
-498.624	-138.703	0.322	-0.035
-497.610	35.316	-0.083	0.073
-496.595	485.030	-0.100	-0.228
-495.581	-44.649	0.310	-0.155
-494.566	800.000	0.039	-0.130
-493.551	619.403	0.086	0.215
-492.537	-200.000	-0.029	0.287
-491.522	273.560	0.162	-0.286
-490.508	257.239	0.035	0.060
-489.493	-57.259	-0.167	-0.074
-488.478	-187.185	0.246	0.003
-487.464	-159.651	-0.209	-0.012
-486.449	24.946	0.139	-0.115
-485.435	223.085	-0.137	0.221
-484.420	-58.023	-0.154	-0.067
-483.405	-62.804	-0.102	-0.042
-482.391	-90.759	-0.353	0.102
-481.376	-200.000	-0.004	-0.415
-480.362	89.363	0.171	-0.190
-479.347	498.206	0.066	-0.151
-478.332	-200.000	0.037	0.193
-477.318	800.000	-0.075	0.285
-476.303	-200.000	-0.036	0.184
-475.289	-73.776	-0.183	0.066
-474.274	-200.000	-0.003	0.105
-473.259	12.163	-0.270	0.207
-472.245	11.599	0.222	0.170
-471.230	-134.429	0.237	0.029
-470.216	800.000	-0.038	0.154
-469.201	-200.000	0.000	0.070
-468.186	800.000	0.101	-0.344
-467.172	-7.463	-0.115	0.078
-466.157	-59.922	-0.216	0.092
-465.143	14.071	-0.424	-0.330
-464.128	78.516	0.289	0.309
-463.113	-154.157	-0.279	-0.019
-462.099	-123.166	0.146	-0.023
-461.084	-116.201	-0.144	-0.027
-460.070	800.000	0.069	-0.197
-459.055	800.000	-0.034	0.142
-458.040	288.849	-0.191	0.345
-457.026	-177.815	-0.100	0.002
-456.011	-100.285	-0.342	0.085
-454.997	-117.486	0.235	0.042
-453.982	163.577	-0.237	0.332
-452.968	273.807	0.087	0.153
-451.953	75.783	-0.102	-0.108
-450.938	-200.000	0.030	0.191
-449.924	-156.195	0.235	-0.015
-448.909	-200.000	0.029	-0.458
-447.895	222.948	-0.140	0.225
-446.880	-38.297	-0.247	0.131
-445.865	-20.004	0.102	-0.063
-444.851	-200.000	-0.022	0.106
-443.836	-115.481	-0.271	-0.051
-442.822	-9.072	-0.044	-0.029
-441.807	-37.047	-0.146	0.078
-440.792	-34.210	-0.238	-0.130
-439.778	-121.333	-0.204	0.034
-438.763	-36.589	-0.177	-0.095
-437.749	-65.498	-0.041	0.016
-436.734	-200.000	0.028	-0.149
-435.719	-155.304	-0.221	0.014
-434.705	-34.421	-0.153	-0.083
-433.690	121.507	0.146	-0.182
-432.676	-200.000	0.052	0.258
-431.661	-85.294	-0.398	-0.124
-430.646	-70.807	-0.205	-0.077
-429.632	-142.078	0.321	-0.032
-428.617	800.000	-0.062	-0.178
-427.603	-13.501	-0.070	0.045
-426.588	-45.197	-0.116	-0.057
-425.573	-140.573	-0.183	-0.019
-424.559	-91.315	-0.118	0.034
-423.544	73.156	0.089	-0.092
-422.530	93.851	-0.128	0.145
-421.515	141.165	-0.216	0.285
-420.500	235.058	-0.025	-0.041
-419.486	-154.274	-0.202	-0.014
-418.471	-49.739	0.049	-0.023
-417.457	141.727	0.127	0.167
-416.442	180.011	0.055	0.080
-415.428	-200.000	0.031	0.306
-414.413	245.423	0.114	-0.191
-413.398	-200.000	0.035	-0.280
-412.384	140.741	0.135	0.177
-411.369	-76.744	0.153	-0.053
-410.355	96.198	0.073	0.083
-409.340	278.764	0.108	0.192
-408.325	-4.738	0.049	-0.034
-407.311	-200.000	-0.036	0.215
-406.296	73.016	-0.197	-0.205
-405.282	-11.306	0.111	-0.073
-404.267	-155.423	-0.324	-0.021
-403.252	-105.575	-0.496	0.112
-402.238	-51.091	-0.111	-0.052
-401.223	72.277	0.217	-0.225
-400.209	800.000	0.032	0.111
-399.194	545.577	0.170	-0.404
-398.179	-94.350	0.079	-0.021
-397.165	147.838	0.114	-0.153
-396.150	-23.667	-0.156	0.093
-395.136	-33.573	-0.223	0.123
-394.121	-2.865	-0.219	-0.152
-393.106	-200.000	0.011	-0.256
-392.092	800.000	0.039	0.165
-391.077	7.680	0.039	0.029
-390.063	-10.073	-0.222	-0.146
-389.048	800.000	-0.048	0.149
-388.033	585.891	-0.047	-0.115
-387.019	116.086	-0.069	-0.085
-386.004	800.000	-0.072	0.251
-384.990	207.009	0.092	0.142
-383.975	-12.324	0.150	-0.097
-382.960	46.277	-0.132	-0.122
-381.946	224.264	-0.037	-0.059
-380.931	19.038	-0.180	-0.143
-379.917	-108.704	0.104	0.022
-378.902	75.159	-0.121	0.127
-377.888	-44.792	0.048	-0.024
-376.873	114.487	0.164	-0.198
-375.858	622.944	0.124	0.311
-374.844	49.831	0.086	-0.080
-373.829	-116.757	-0.204	0.037
-372.815	429.895	-0.175	0.377
-371.800	-72.172	0.089	0.033
-370.785	332.294	0.118	0.227
-369.771	87.980	0.091	0.100
-368.756	-117.507	-0.284	-0.051
-367.742	-51.629	0.292	-0.136
-366.727	519.128	-0.119	0.278
-365.712	-200.000	0.068	0.359
-364.698	29.998	0.123	-0.104
-363.683	17.429	0.244	0.192
-362.669	-100.417	-0.250	-0.061
-361.654	800.000	-0.075	0.256
-360.639	222.188	0.123	-0.197
-359.625	611.360	0.066	-0.164
-358.610	164.766	0.137	-0.192
-357.596	-48.971	0.309	-0.147
-356.581	264.775	0.176	-0.305
-355.566	-94.907	-0.127	0.034
-354.552	-73.178	0.081	0.029
-353.537	-5.264	-0.336	0.229
-352.523	800.000	-0.031	0.088
-351.508	-200.000	0.001	-0.061
-350.493	423.615	0.185	0.395
-349.479	3.274	0.120	-0.086
-348.464	-122.248	0.306	0.050
-347.450	-200.000	-0.063	0.295
-346.435	-91.795	0.127	0.036
-345.420	137.261	-0.137	0.178
-344.406	-92.598	0.302	-0.084
-343.391	-82.763	-0.399	-0.128
-342.377	0.214	0.060	0.043
-341.362	-115.220	-0.120	0.023
-340.348	-200.000	0.022	-0.127
-339.333	-76.708	-0.343	-0.119
-338.318	5.174	-0.142	-0.104
-337.304	-29.927	-0.080	0.045
-336.289	-74.005	0.232	0.084
-335.275	-103.261	0.408	0.096
-334.260	-36.346	-0.334	-0.179
-333.245	-200.000	0.006	-0.182
-332.231	-148.920	0.223	0.018
-331.216	-200.000	0.034	-0.233
-330.202	378.298	0.104	-0.211
-329.187	-200.000	0.002	-0.195
-328.172	94.495	-0.189	-0.213
-327.158	70.376	-0.135	-0.139
-326.143	-4.186	0.242	-0.166
-325.129	602.619	-0.073	-0.179
-324.114	29.087	0.176	-0.149
-323.099	85.486	0.186	0.203
-322.085	-200.000	0.002	0.047
-321.070	-200.000	0.020	0.164
-320.056	-200.000	0.026	0.128
-319.041	-150.611	0.370	0.028
-318.026	-128.178	-0.197	0.028
-317.012	59.954	-0.011	0.011
-315.997	252.343	-0.155	0.262
-314.983	-2.988	0.132	0.091
-313.968	295.716	-0.121	0.220
-312.953	-200.000	0.000	-0.009
-311.939	-118.594	-0.202	-0.035
-310.924	-123.223	0.129	0.020
-309.910	-40.001	-0.256	-0.133
-308.895	38.546	0.381	0.337
-307.880	-106.992	-0.123	-0.027
-306.866	261.212	0.153	-0.262
-305.851	-200.000	-0.021	-0.322
-304.837	-8.694	0.216	-0.144
-303.822	-200.000	0.007	-0.231
-302.807	267.478	-0.175	-0.303
-301.793	168.770	0.121	-0.170
-300.778	9.193	0.066	0.050
-299.764	-200.000	0.006	-0.040
-298.749	-83.863	0.411	-0.130
-297.735	-141.203	-0.152	0.015
-296.720	-165.736	-0.167	0.007
-295.705	-78.930	0.128	-0.043
-294.691	-68.233	-0.078	-0.030
-293.676	248.773	0.104	-0.175
-292.662	-22.085	0.194	0.117
-291.647	-89.744	0.173	-0.050
-290.632	-69.427	0.014	-0.005
-289.618	-88.160	0.160	0.048
-288.603	-200.000	-0.013	-0.089
-287.589	-103.966	-0.315	-0.073
-286.574	-173.641	0.156	0.005
-285.559	-9.632	-0.326	0.216
-284.545	-96.909	0.162	0.042
-283.530	-3.049	-0.281	0.195
-282.516	-106.184	0.245	-0.055
-281.501	-89.210	0.108	0.032
-280.486	-200.000	-0.005	-0.146
-279.472	698.374	0.100	0.260
-278.457	-100.634	-0.350	0.086
-277.443	369.633	-0.084	0.168
-276.428	-16.362	-0.269	0.169
-275.413	-150.866	0.222	-0.017
-274.399	-135.857	-0.129	-0.015
-273.384	192.960	0.273	0.409
-272.370	-200.000	0.041	-0.310
-271.355	28.427	-0.134	0.112
-270.340	-68.673	0.238	-0.091
-269.326	800.000	-0.045	-0.183
-268.311	-83.222	0.188	-0.060
-267.297	800.000	0.069	0.223
-266.282	-200.000	0.023	-0.179
-265.267	22.979	0.171	0.139
-264.253	436.164	0.159	0.342
-263.238	61.174	0.160	-0.157
-262.224	286.950	-0.221	-0.395
-261.209	-34.902	-0.092	0.050
-260.195	-53.078	0.238	0.108
-259.180	109.660	-0.232	0.275
-258.165	-95.490	-0.310	-0.082
-257.151	240.715	0.092	0.152
-256.136	354.405	-0.010	-0.021
-255.122	-16.549	0.298	0.187
-254.107	-200.000	0.007	0.095
-253.092	-200.000	0.035	-0.204
-252.078	22.916	0.080	0.065
-251.063	228.869	-0.144	0.233
-250.049	98.363	0.065	-0.074
-249.034	-132.296	0.320	-0.041
-248.019	25.177	-0.164	0.135
-247.005	-77.318	0.407	0.140
-245.990	-5.058	-0.207	-0.141
-244.976	-200.000	0.047	-0.370
-243.961	529.132	-0.114	-0.266
-242.946	-200.000	-0.009	-0.198
-241.932	-200.000	0.012	0.063
-240.917	-200.000	0.039	-0.335
-239.903	99.876	-0.151	-0.173
-238.888	-76.769	0.284	0.098
-237.873	67.842	0.155	-0.156
-236.859	110.823	0.076	0.090
-235.844	-29.638	0.039	0.022
-234.830	-105.932	-0.054	-0.012
-233.815	-32.531	-0.236	0.130
-232.800	-27.490	-0.363	-0.209
-231.786	379.674	-0.097	-0.196
-230.771	91.157	0.050	0.056
-229.757	-19.840	0.188	-0.115
-228.742	-200.000	-0.034	-0.220
-227.727	62.903	0.210	0.207
-226.713	-135.502	-0.144	0.017
-225.698	-42.983	-0.134	0.067
-224.684	-200.000	-0.050	0.385
-223.669	-200.000	0.003	0.077
-222.655	496.103	0.038	0.087
-221.640	58.496	0.155	-0.150
-220.625	-110.601	0.148	0.030
-219.611	-43.077	-0.216	0.108
-218.596	800.000	-0.063	0.179
-217.582	68.441	0.264	0.267
-216.567	-200.000	0.000	0.294
-215.552	84.391	-0.181	0.196
-214.538	776.253	-0.174	0.469
-213.523	-43.966	-0.073	0.037
-212.509	-4.233	-0.116	0.079
-211.494	-200.000	-0.051	-0.276
-210.479	68.284	0.147	-0.149
-209.465	356.097	0.034	0.067
-208.450	-5.681	0.183	-0.124
-207.436	332.115	0.150	0.285
-206.421	-76.150	-0.151	0.053
-205.406	9.072	0.276	0.206
-204.392	65.137	0.302	0.301
-203.377	141.489	-0.105	-0.137
-202.363	-164.793	0.206	0.009
-201.348	87.997	-0.219	-0.240
-200.333	-50.159	-0.281	-0.131
-199.319	-139.486	0.224	-0.024
-198.304	-57.029	0.189	0.082
-197.290	261.636	-0.056	-0.096
-196.275	430.824	0.079	0.169
-195.260	800.000	-0.162	-0.485
-194.246	-200.000	0.004	0.210
-193.231	-101.987	0.141	0.034
-192.217	196.709	0.144	0.216
-191.202	489.353	0.069	-0.156
-190.187	-200.000	-0.020	-0.359
-189.173	206.883	-0.084	0.130
-188.158	-166.253	-0.130	-0.005
-187.144	44.399	0.213	-0.193
-186.129	-152.686	0.448	-0.031
-185.114	110.647	-0.070	-0.083
-184.100	-200.000	0.028	0.221
-183.085	-200.000	0.032	0.359
-182.071	421.784	0.031	0.065
-181.056	96.956	0.309	0.349
-180.042	-200.000	-0.008	-0.161
-179.027	-200.000	-0.046	0.268
-178.012	186.190	0.250	0.367
-176.998	-142.998	-0.115	-0.011
-175.983	-200.000	0.063	-0.447
-174.969	-82.561	-0.261	0.084
-173.954	110.974	0.183	0.217
-172.939	-97.279	-0.133	0.034
-171.925	-148.184	0.046	-0.004
-170.910	-76.982	0.090	0.031
-169.896	-99.448	0.178	0.044
-168.881	-169.948	0.257	0.009
-167.866	-62.604	-0.126	0.052
-166.852	34.740	-0.069	-0.059
-165.837	800.000	0.214	-0.647
-164.823	-200.000	0.031	0.296
-163.808	800.000	0.033	-0.109
-162.793	800.000	0.050	0.188
-161.779	-145.336	-0.266	0.024
-160.764	103.149	0.195	0.226
-159.750	-77.668	-0.104	0.035
-158.735	194.172	0.162	0.243
-157.720	-37.806	-0.161	0.084
-156.706	-192.825	-0.130	-0.001
-155.691	-200.000	-0.064	-0.423
-154.677	320.376	0.157	-0.294
-153.662	-200.000	0.004	0.231
-152.647	-200.000	-0.023	0.353
-151.633	131.346	-0.294	0.373
-150.618	800.000	0.073	0.207
-149.604	146.986	-0.058	0.077
-148.589	-200.000	-0.025	-0.124
-147.574	15.706	0.077	0.060
-146.560	-200.000	-0.039	0.263
-145.545	760.077	0.099	-0.265
-144.531	-93.304	0.136	0.037
-143.516	0.335	0.091	0.064
-142.502	-176.318	-0.115	-0.003
-141.487	-200.000	-0.001	-0.448
-140.472	-147.591	-0.093	0.008
-139.458	69.754	-0.233	-0.236
-138.443	-30.336	0.139	0.078
-137.429	64.776	-0.330	0.328
-136.414	466.410	0.133	0.294
-135.399	-101.998	0.432	0.103
-134.385	56.248	0.084	-0.080
-133.370	-139.050	0.115	-0.012
-132.356	219.783	0.107	-0.168
-131.341	-158.061	0.191	-0.011
-130.326	227.655	-0.022	-0.036
-129.312	-200.000	-0.018	-0.079
-128.297	-24.544	-0.131	0.077
-127.283	-200.000	-0.039	-0.171
-126.268	-140.607	-0.364	-0.037
-125.253	-200.000	-0.002	-0.082
-124.239	207.268	0.210	-0.323
-123.224	39.340	0.088	0.077
-122.210	89.757	0.198	0.217
-121.195	-113.321	-0.154	0.030
