DTS Sentinel unit serial number:	SN413079Multiplexer serial number:	ORYXHardware model number:	OX4-SRSoftware version number:	ORYX F/W v4.00 Oryx Data Collector v3.7.2.0data status	okinstallation	princeton_trtdifferential loss correction	single-endedforward channel	channel 2reverse channel	N/Adate	2019/09/11time	23:05:11forward acquisition time	60.00reverse acquisition time	0.00gamma	496.2192k internal	0.2325k external	0.2325temperature offset calibration	1.0077default loss term (dB/km)	0.3790temperature slope calibration	1.0000multiplexer offset coefficient	1.0000multiplexer slope coefficient	1.0000fibre end	0.00T internal ref (°C)	34.55T ext. ref 1 (°C)	1.83T ext. ref 2 (°C)	29.24length (m)	temperature (°C)	Stokes	anti-Stokes-747.200	-23.176	0.040	0.024
-746.185	-119.593	-0.324	0.057
-745.171	-200.000	0.008	0.300
-744.156	41.195	-0.319	0.291
-743.142	-84.340	-0.272	0.087
-742.127	62.952	0.153	0.155
-741.112	230.030	0.279	-0.459
-740.098	789.876	-0.054	0.150
-739.083	-200.000	0.001	0.448
-738.069	-30.654	0.486	0.278
-737.054	11.901	-0.190	-0.148
-736.039	275.541	0.074	0.132
-735.025	-72.940	0.173	0.064
-734.010	-119.283	-0.314	-0.055
-732.996	23.309	-0.142	0.117
-731.981	-62.380	0.266	-0.112
-730.966	-15.168	-0.422	-0.273
-729.952	800.000	0.024	0.087
-728.937	-86.658	0.375	0.116
-727.923	-105.111	-0.287	-0.066
-726.908	17.557	0.110	-0.088
-725.894	-145.774	-0.061	0.005
-724.879	800.000	0.036	-0.109
-723.864	-87.897	-0.369	-0.112
-722.850	114.137	-0.197	0.241
-721.835	291.552	0.179	-0.328
-720.821	800.000	0.056	-0.185
-719.806	-56.387	0.254	0.114
-718.791	-161.646	-0.155	-0.008
-717.777	-200.000	0.017	0.090
-716.762	388.064	0.180	-0.375
-715.748	-200.000	0.029	0.228
-714.733	-178.154	-0.293	0.007
-713.718	787.466	0.081	-0.225
-712.704	800.000	0.017	-0.066
-711.689	-159.999	0.157	-0.009
-710.675	-126.599	-0.157	0.023
-709.660	-70.108	-0.162	-0.062
-708.645	150.493	-0.099	0.135
-707.631	-200.000	0.026	0.249
-706.616	-200.000	-0.026	0.221
-705.602	-80.961	0.019	0.006
-704.587	-127.339	-0.015	0.002
-703.572	-123.509	-0.238	-0.038
-702.558	-26.026	0.115	-0.068
-701.543	-166.914	-0.344	0.014
-700.529	800.000	0.029	0.120
-699.514	-200.000	-0.044	-0.320
-698.499	800.000	0.005	-0.014
-697.485	-200.000	-0.005	0.186
-696.470	800.000	-0.086	-0.271
-695.456	542.541	-0.010	-0.023
-694.441	617.904	-0.114	0.289
-693.426	-200.000	-0.007	-0.293
-692.412	-99.343	-0.042	-0.011
-691.397	453.474	0.114	-0.255
-690.383	8.000	0.198	-0.150
-689.368	-43.047	0.205	0.104
-688.354	-99.034	-0.273	-0.070
-687.339	-129.924	-0.112	0.015
-686.324	111.839	-0.259	-0.315
-685.310	467.027	-0.170	-0.384
-684.295	-42.655	-0.178	0.091
-683.281	36.323	0.094	0.084
-682.266	-200.000	-0.013	-0.224
-681.251	-82.526	0.258	-0.084
-680.237	-200.000	0.019	0.091
-679.222	-171.830	-0.158	-0.005
-678.208	-121.929	-0.135	0.022
-677.193	-83.086	-0.172	-0.056
-676.178	-37.010	0.255	-0.138
-675.164	513.373	0.040	0.093
-674.149	418.497	-0.044	0.095
-673.135	-99.152	0.356	-0.091
-672.120	23.870	-0.023	0.019
-671.105	-100.072	-0.293	-0.073
-670.091	-200.000	0.030	0.419
-669.076	-200.000	-0.011	-0.288
-668.062	-30.375	-0.081	-0.046
-667.047	67.432	-0.157	-0.162
-666.032	-85.589	0.267	-0.084
-665.018	19.584	0.198	0.160
-664.003	361.214	-0.040	0.080
-662.989	-91.114	-0.236	-0.068
-661.974	-92.120	-0.262	0.074
-660.959	522.717	0.161	-0.379
-659.945	-48.467	0.219	-0.106
-658.930	163.119	-0.058	-0.082
-657.916	75.536	-0.280	0.297
-656.901	535.147	-0.218	-0.520
-655.886	800.000	0.062	-0.172
-654.872	-131.650	0.199	0.026
-653.857	800.000	-0.022	-0.067
-652.843	130.438	-0.111	-0.144
-651.828	800.000	0.061	-0.223
-650.814	143.536	-0.195	-0.262
-649.799	-200.000	0.037	-0.240
-648.784	4.578	-0.226	-0.167
-647.770	32.392	0.192	-0.167
-646.755	168.563	0.193	0.276
-645.741	139.683	0.149	-0.197
-644.726	126.223	0.104	-0.133
-643.711	-4.649	0.399	-0.277
-642.697	800.000	0.074	-0.279
-641.682	-126.768	-0.075	0.011
-640.668	-35.260	-0.291	0.159
-639.653	205.614	0.065	-0.101
-638.638	20.588	-0.281	0.228
-637.624	-17.056	0.204	0.129
-636.609	-7.874	-0.109	0.074
-635.595	68.672	0.054	-0.056
-634.580	330.996	-0.152	-0.295
-633.565	184.411	-0.200	0.297
-632.551	-29.654	0.067	-0.039
-631.536	366.650	-0.068	0.137
-630.522	-154.521	0.201	0.013
-629.507	-14.604	-0.154	0.099
-628.492	573.409	-0.044	-0.107
-627.478	82.727	0.073	-0.080
-626.463	800.000	0.057	0.206
-625.449	-11.898	0.256	0.169
-624.434	60.912	0.107	0.107
-623.419	2.305	-0.066	-0.048
-622.405	88.100	-0.059	-0.066
-621.390	176.080	-0.162	-0.236
-620.376	367.416	-0.120	0.244
-619.361	-165.133	0.350	-0.016
-618.346	183.297	0.070	0.104
-617.332	-135.574	0.295	-0.035
-616.317	232.408	-0.090	-0.148
-615.303	56.032	-0.060	0.058
-614.288	-200.000	0.033	0.323
-613.273	437.136	-0.026	0.056
-612.259	42.857	0.104	-0.095
-611.244	800.000	-0.055	0.243
-610.230	566.601	-0.085	0.207
-609.215	-74.393	0.353	0.128
-608.201	347.668	0.098	-0.194
-607.186	8.822	0.124	-0.094
-606.171	42.412	-0.238	0.217
-605.157	314.751	-0.059	0.112
-604.142	-200.000	0.006	-0.097
-603.128	-200.000	-0.002	0.195
-602.113	162.480	-0.304	0.428
-601.098	-10.309	-0.243	-0.161
-600.084	25.483	0.132	0.110
-599.069	139.853	-0.083	-0.110
-598.055	102.278	-0.091	0.106
-597.040	118.480	-0.139	-0.172
-596.025	68.311	-0.370	-0.380
-595.011	-200.000	0.052	-0.252
-593.996	246.829	-0.109	0.185
-592.982	-200.000	0.022	-0.390
-591.967	-168.267	0.226	0.009
-590.952	-44.597	-0.320	-0.160
-589.938	58.997	0.139	0.138
-588.923	-125.037	-0.246	0.038
-587.909	14.988	0.075	-0.059
-586.894	-191.028	0.142	-0.001
-585.879	-200.000	0.036	-0.266
-584.865	326.087	-0.075	0.145
-583.850	-68.365	0.236	-0.092
-582.836	-22.252	0.200	0.122
-581.821	-80.867	0.223	0.074
-580.806	100.473	0.297	0.346
-579.792	111.708	-0.143	-0.173
-578.777	-118.368	0.188	0.034
-577.763	78.354	0.073	-0.078
-576.748	-48.660	0.206	-0.099
-575.733	-135.457	-0.108	-0.013
-574.719	175.006	-0.080	0.116
-573.704	463.292	0.227	0.507
-572.690	-200.000	0.032	0.258
-571.675	-81.136	0.223	0.074
-570.661	-90.393	0.269	-0.078
-569.646	-153.281	-0.153	0.011
-568.631	-59.174	0.268	0.116
-567.617	-74.553	0.480	0.173
-566.602	800.000	0.007	0.028
-565.588	800.000	-0.050	0.150
-564.573	138.559	0.102	0.134
-563.558	-126.592	-0.240	-0.036
-562.544	-93.495	-0.127	0.035
-561.529	-57.887	0.095	0.042
-560.515	232.419	0.047	-0.077
-559.500	-62.090	-0.077	0.032
-558.485	800.000	-0.059	0.207
-557.471	-200.000	0.014	-0.107
-556.456	240.930	0.185	-0.310
-555.442	-186.849	0.052	0.001
-554.427	800.000	-0.099	-0.307
-553.412	-23.001	0.200	-0.121
-552.398	174.195	0.198	-0.286
-551.383	-123.738	-0.287	-0.045
-550.369	-123.285	-0.196	0.031
-549.354	83.827	-0.163	0.179
-548.339	-199.385	0.199	0.001
-547.325	-145.586	0.223	0.020
-546.310	800.000	-0.082	-0.289
-545.296	25.611	-0.379	0.316
-544.281	800.000	-0.059	-0.193
-543.266	-80.151	-0.066	-0.022
-542.252	-17.231	0.297	-0.187
-541.237	-200.000	-0.007	0.355
-540.223	4.055	0.118	-0.086
-539.208	77.926	0.063	-0.068
-538.193	-99.003	-0.036	0.009
-537.179	42.086	-0.240	-0.218
-536.164	-69.691	-0.264	-0.101
-535.150	-200.000	0.029	0.217
-534.135	-152.659	0.196	0.014
-533.121	-55.090	-0.156	0.070
-532.106	-127.257	-0.121	0.018
-531.091	-102.845	-0.254	-0.060
-530.077	-200.000	-0.013	-0.173
-529.062	-12.486	-0.271	0.177
-528.048	241.845	-0.098	0.164
-527.033	23.962	0.214	0.176
-526.018	800.000	0.084	0.320
-525.004	560.758	-0.034	-0.082
-523.989	-40.639	-0.247	0.128
-522.975	273.815	-0.052	0.093
-521.960	-200.000	-0.024	0.258
-520.945	-40.060	0.093	-0.048
-519.931	-77.823	-0.120	-0.041
-518.916	-200.000	0.047	0.244
-517.902	-29.975	-0.276	0.157
-516.887	-46.958	-0.153	-0.075
-515.872	-200.000	0.017	-0.109
-514.858	-69.276	0.301	-0.116
-513.843	800.000	-0.127	0.492
-512.829	-43.599	0.121	0.061
-511.814	122.552	-0.230	0.287
-510.799	-46.632	0.132	0.065
-509.785	119.341	-0.290	0.359
-508.770	288.687	0.077	-0.139
-507.756	-119.436	0.185	-0.032
-506.741	-77.182	0.280	0.097
-505.726	-51.287	-0.313	0.147
-504.712	369.477	-0.112	-0.226
-503.697	10.021	-0.287	-0.218
-502.683	302.747	0.097	0.180
-501.668	-200.000	-0.054	0.283
-500.653	337.549	0.112	-0.218
-499.639	800.000	0.075	0.265
-498.624	-60.122	0.442	-0.188
-497.610	174.845	-0.131	0.189
-496.595	-138.942	-0.075	0.008
-495.581	-127.697	-0.242	-0.035
-494.566	800.000	-0.031	-0.087
-493.551	-89.594	-0.087	-0.026
-492.537	-134.925	-0.141	-0.017
-491.522	-47.066	-0.189	-0.092
-490.508	-137.082	0.350	0.040
-489.493	115.553	0.111	-0.135
-488.478	-61.018	0.258	-0.109
-487.464	-200.000	0.071	0.368
-486.449	-104.288	-0.173	0.040
-485.435	123.729	-0.179	-0.225
-484.420	-200.000	-0.003	0.071
-483.405	800.000	0.120	-0.355
-482.391	377.954	-0.013	0.027
-481.376	800.000	-0.068	-0.231
-480.362	-50.228	0.223	0.105
-479.347	267.185	-0.208	0.363
-478.332	-9.543	0.113	0.075
-477.318	-15.197	-0.039	-0.025
-476.303	-105.061	-0.211	-0.048
-475.289	-200.000	-0.001	0.218
-474.274	589.921	0.084	-0.207
-473.259	-39.207	-0.104	-0.055
-472.245	-114.226	0.237	0.046
-471.230	-8.986	-0.389	-0.260
-470.216	251.292	-0.060	-0.102
-469.201	-104.469	0.059	0.014
-468.186	228.795	-0.222	-0.361
-467.172	372.538	0.098	0.199
-466.157	23.809	-0.286	-0.235
-465.143	81.098	-0.282	0.304
-464.128	-200.000	-0.036	-0.347
-463.113	-195.178	-0.158	0.001
-462.099	800.000	0.023	-0.064
-461.084	-63.375	0.135	-0.056
-460.070	624.068	-0.169	0.426
-459.055	-151.483	0.259	0.019
-458.040	-106.694	-0.327	0.073
-457.026	-90.533	-0.151	-0.043
-456.011	-39.196	-0.225	-0.118
-454.997	-200.000	-0.003	0.018
-453.982	-58.902	-0.239	-0.103
-452.968	800.000	-0.112	-0.371
-451.953	310.500	-0.086	-0.160
-450.938	-88.180	-0.060	-0.018
-449.924	-110.198	-0.307	0.064
-448.909	-200.000	-0.042	0.403
-447.895	-200.000	0.022	0.110
-446.880	-112.490	0.087	0.017
-445.865	83.901	0.327	-0.356
-444.851	-116.452	0.149	0.027
-443.836	-30.847	-0.255	0.144
-442.822	-200.000	-0.016	-0.140
-441.807	-114.895	0.246	0.047
-440.792	-56.917	0.074	0.033
-439.778	-99.876	-0.265	0.066
-438.763	32.879	-0.131	-0.113
-437.749	-200.000	-0.005	0.111
-436.734	103.194	0.116	-0.136
-435.719	-200.000	-0.021	0.123
-434.705	-175.823	0.256	0.007
-433.690	62.592	-0.238	0.237
-432.676	104.131	0.260	-0.305
-431.661	-3.415	-0.522	-0.362
-430.646	79.550	-0.189	-0.202
-429.632	-200.000	0.012	0.078
-428.617	-89.611	-0.149	0.044
-427.603	121.382	0.291	0.362
-426.588	-200.000	0.068	-0.453
-425.573	-200.000	0.052	-0.325
-424.559	34.412	-0.215	-0.187
-423.544	88.752	-0.113	0.125
-422.530	-200.000	0.006	0.076
-421.515	226.401	0.242	-0.392
-420.500	411.644	0.077	-0.162
-419.486	92.984	0.066	-0.074
-418.471	-200.000	-0.006	-0.060
-417.457	-112.485	-0.033	0.007
-416.442	76.872	0.176	-0.186
-415.428	800.000	0.034	0.103
-414.413	-126.190	-0.158	0.024
-413.398	-200.000	-0.071	0.314
-412.384	24.217	-0.179	0.147
-411.369	7.347	-0.122	0.091
-410.355	-23.207	-0.059	-0.036
-409.340	9.962	-0.227	0.172
-408.325	-200.000	0.032	0.322
-407.311	163.886	0.193	-0.271
-406.296	-131.961	0.225	-0.029
-405.282	-25.082	-0.157	-0.093
-404.267	-200.000	0.023	0.137
-403.252	800.000	0.006	-0.026
-402.238	211.569	-0.091	-0.143
-401.223	30.442	0.068	-0.058
-400.209	12.483	0.124	-0.096
-399.194	186.323	-0.125	0.185
-398.179	800.000	-0.071	0.264
-397.165	56.892	0.225	0.218
-396.150	-200.000	0.008	0.213
-395.136	106.818	0.096	0.113
-394.121	-41.452	0.110	-0.056
-393.106	-87.065	0.193	-0.059
-392.092	-52.194	-0.312	-0.144
-391.077	-200.000	-0.032	-0.205
-390.063	-200.000	-0.026	0.239
-389.048	163.087	-0.024	-0.033
-388.033	-107.451	-0.022	0.005
-387.019	-4.494	-0.267	0.184
-386.004	-144.853	-0.016	-0.001
-384.990	13.493	0.096	0.074
-383.975	-90.904	-0.321	0.092
-382.960	610.462	0.049	-0.121
-381.946	-22.277	-0.026	-0.016
-380.931	800.000	0.042	-0.180
-379.917	140.004	-0.261	-0.342
-378.902	745.344	-0.082	-0.219
-377.888	-136.895	-0.171	-0.020
-376.873	20.583	-0.087	0.070
-375.858	-109.559	-0.136	-0.029
-374.844	-200.000	0.000	-0.067
-373.829	74.541	0.244	0.255
-372.815	70.895	0.121	-0.125
-371.800	-36.207	-0.092	0.050
-370.785	-119.654	0.066	0.011
-369.771	19.008	-0.235	-0.188
-368.756	47.866	-0.118	-0.109
-367.742	223.082	-0.094	0.150
-366.727	-111.045	-0.130	0.027
-365.712	-87.456	-0.108	-0.033
-364.698	66.798	-0.043	-0.044
-363.683	-200.000	0.010	-0.193
-362.669	-119.723	0.280	0.048
-361.654	800.000	0.017	0.061
-360.639	-88.025	0.277	0.083
-359.625	29.776	0.399	-0.338
-358.610	121.428	-0.246	-0.305
-357.596	28.295	0.186	0.156
-356.581	257.252	0.283	0.484
-355.566	-46.972	0.244	-0.119
-354.552	-46.080	0.105	0.052
-353.537	-132.599	0.357	-0.046
-352.523	-200.000	0.008	-0.094
-351.508	-164.244	0.179	0.008
-350.493	30.468	0.215	0.183
-349.479	-200.000	0.048	-0.227
-348.464	-200.000	0.001	-0.129
-347.450	-53.111	-0.108	-0.049
-346.435	-200.000	0.025	-0.110
-345.420	117.960	-0.173	-0.212
-344.406	276.238	0.205	-0.362
-343.391	-139.556	-0.246	0.026
-342.377	132.233	-0.027	-0.034
-341.362	273.197	0.124	-0.218
-340.348	-200.000	-0.045	0.255
-339.333	-127.924	0.258	0.037
-338.318	-200.000	-0.012	-0.133
-337.304	183.844	0.111	-0.164
-336.289	553.666	0.076	0.181
-335.275	800.000	0.028	-0.079
-334.260	762.330	0.055	-0.147
-333.245	-102.880	-0.109	0.026
-332.231	-82.066	0.174	-0.056
-331.216	56.780	0.156	0.150
-330.202	160.252	-0.100	0.138
-329.187	-30.301	0.192	-0.108
-328.172	-200.000	-0.005	0.129
-327.158	-200.000	0.035	0.226
-326.143	97.546	0.069	0.079
-325.129	-180.481	0.202	0.004
-324.114	-200.000	-0.018	-0.126
-323.099	-94.224	-0.181	-0.049
-322.085	168.745	-0.223	-0.316
-321.070	-23.145	0.609	-0.364
-320.056	-71.056	-0.052	-0.019
-319.041	-70.404	-0.177	-0.067
-318.026	161.051	0.241	0.334
-317.012	800.000	-0.101	-0.335
-315.997	61.356	0.190	-0.187
-314.983	68.398	0.169	0.171
-313.968	-200.000	0.004	0.091
-312.953	115.592	0.183	0.223
-311.939	-65.567	0.057	0.023
-310.924	237.050	0.072	-0.119
-309.910	-44.419	0.170	0.084
-308.895	-200.000	-0.013	-0.183
-307.880	-22.268	0.272	-0.164
-306.866	225.424	0.124	0.199
-305.851	-21.976	-0.156	0.094
-304.837	-200.000	-0.002	0.132
-303.822	-2.359	0.286	0.199
-302.807	68.857	0.107	0.109
-301.793	-200.000	0.005	-0.097
-300.778	-58.071	0.207	0.089
-299.764	-155.442	0.081	-0.005
-298.749	-200.000	0.076	0.335
-297.735	319.491	-0.048	0.090
-296.720	-47.424	0.362	0.175
-295.705	-200.000	0.028	0.160
-294.691	-105.958	0.160	0.036
-293.676	97.143	-0.191	-0.217
-292.662	800.000	-0.067	-0.238
-291.647	-80.370	-0.369	-0.122
-290.632	789.943	0.067	-0.183
-289.618	-133.916	0.338	-0.042
-288.603	228.632	0.047	0.076
-287.589	-3.907	-0.303	-0.208
-286.574	-122.137	-0.062	-0.010
-285.559	-200.000	-0.002	-0.079
-284.545	-139.175	0.266	-0.028
-283.530	217.236	0.064	-0.101
-282.516	208.777	0.098	-0.151
-281.501	-142.895	-0.493	0.047
-280.486	-55.398	-0.207	0.092
-279.472	277.387	-0.081	-0.143
-278.457	-20.265	0.140	0.085
-277.443	202.421	0.016	0.025
-276.428	-200.000	0.025	0.230
-275.413	81.200	-0.142	0.152
-274.399	21.544	0.166	0.134
-273.384	-200.000	0.030	-0.482
-272.370	406.689	0.157	-0.329
-271.355	180.748	-0.075	-0.109
-270.340	70.929	-0.270	0.277
-269.326	-200.000	-0.020	-0.122
-268.311	54.058	0.446	0.425
-267.297	-90.812	0.197	-0.056
-266.282	-80.921	-0.185	-0.061
-265.267	81.917	0.391	-0.419
-264.253	1.086	0.183	0.130
-263.238	45.117	-0.222	0.203
-262.224	143.310	0.139	-0.183
-261.209	-12.280	-0.210	-0.136
-260.195	410.902	-0.027	0.057
-259.180	800.000	-0.078	0.240
-258.165	367.789	-0.106	-0.211
-257.151	-5.956	-0.193	0.131
-256.136	-41.354	-0.315	-0.161
-255.122	-179.838	0.543	0.012
-254.107	-111.803	0.130	-0.026
-253.092	126.543	-0.106	0.132
-252.078	59.427	-0.044	0.043
-251.063	213.156	-0.245	0.382
-250.049	800.000	-0.080	0.264
-249.034	-6.029	0.230	0.156
-248.019	-65.980	-0.398	-0.157
-247.005	-200.000	0.017	0.276
-245.990	202.088	0.107	-0.163
-244.976	-200.000	0.015	-0.096
-243.961	14.912	0.066	0.051
-242.946	-10.594	0.087	-0.057
-241.932	-200.000	0.020	-0.227
-240.917	63.231	0.082	0.081
-239.903	-81.291	0.063	-0.020
-238.888	-161.417	0.329	-0.017
-237.873	50.577	-0.159	-0.149
-236.859	390.725	-0.222	-0.455
-235.844	-62.938	-0.083	0.034
-234.830	237.806	0.110	0.181
-233.815	123.742	0.317	-0.393
-232.800	-124.151	-0.197	0.031
-231.786	-11.522	-0.218	0.142
-230.771	-200.000	-0.006	-0.033
-229.757	-8.172	-0.152	0.101
-228.742	-53.170	0.247	0.112
-227.727	-111.777	-0.150	0.030
-226.713	366.752	-0.074	0.147
-225.698	800.000	-0.024	-0.090
-224.684	133.582	-0.069	-0.089
-223.669	-164.424	0.164	-0.007
-222.655	-166.626	0.123	-0.005
-221.640	324.626	0.069	0.129
-220.625	-112.742	0.392	0.077
-219.611	-106.667	-0.373	0.082
-218.596	800.000	0.063	-0.180
-217.582	-8.228	-0.117	0.078
-216.567	258.438	-0.062	0.106
-215.552	-99.399	0.219	0.055
-214.538	800.000	0.060	-0.190
-213.523	800.000	-0.043	-0.186
-212.509	-200.000	0.017	-0.107
-211.494	30.119	0.221	-0.187
-210.479	42.423	0.130	0.117
-209.465	800.000	-0.046	0.126
-208.450	-69.492	-0.026	-0.010
-207.436	-178.085	0.127	-0.003
-206.421	-98.968	0.252	-0.063
-205.406	800.000	-0.076	-0.289
-204.392	-137.256	-0.137	0.015
-203.377	-200.000	-0.009	0.061
-202.363	6.918	0.063	0.047
-201.348	652.895	0.091	0.231
-200.333	800.000	-0.040	-0.142
-199.319	-200.000	0.043	0.429
-198.304	-73.251	0.150	-0.054
-197.290	-118.067	-0.428	0.076
-196.275	446.173	-0.034	-0.073
-195.260	159.328	0.098	-0.134
-194.246	-200.000	-0.048	0.222
-193.231	104.216	-0.115	0.134
-192.217	44.063	0.269	-0.243
-191.202	54.673	-0.082	-0.078
-190.187	-32.537	-0.337	0.186
-189.173	42.474	-0.107	0.096
-188.158	-160.905	-0.223	-0.012
-187.144	-75.016	-0.063	0.022
-186.129	-61.632	0.126	0.052
-185.114	-9.405	-0.295	0.194
-184.100	-10.534	-0.118	0.077
-183.085	-177.183	0.199	-0.005
-182.071	-32.276	0.120	-0.066
-181.056	-200.000	0.049	0.307
-180.042	-63.742	0.144	-0.058
-179.027	-190.910	-0.187	0.002
-178.012	-22.317	0.079	0.047
-176.998	19.537	-0.058	0.046
-175.983	-200.000	0.030	-0.232
-174.969	-200.000	-0.008	-0.058
-173.954	-58.185	0.195	-0.084
-172.939	-46.707	-0.197	-0.095
-171.925	-182.929	-0.270	-0.005
-170.910	368.878	-0.104	0.207
-169.896	-24.853	0.044	0.026
-168.881	-193.871	0.089	-0.001
-167.866	-200.000	-0.039	-0.290
-166.852	567.783	-0.063	0.150
-165.837	-20.455	-0.257	0.156
-164.823	-126.471	0.154	-0.023
-163.808	-200.000	-0.041	0.354
-162.793	-102.421	-0.071	0.017
-161.779	152.629	-0.284	-0.383
-160.764	800.000	-0.030	0.084
-159.750	-200.000	0.002	0.092
-158.735	-71.470	-0.184	0.068
-157.720	-200.000	0.032	-0.301
-156.706	800.000	-0.046	-0.148
-155.691	-120.186	-0.180	0.030
-154.677	-15.060	-0.041	-0.026
-153.662	237.948	-0.207	0.339
-152.647	-187.293	-0.234	0.003
-151.633	800.000	-0.021	-0.059
-150.618	800.000	0.021	0.077
-149.604	-51.309	-0.070	-0.032
-148.589	-60.668	0.238	0.099
-147.574	800.000	0.020	-0.076
-146.560	-114.460	-0.650	-0.123
-145.545	800.000	0.060	0.231
-144.531	76.369	-0.207	0.216
-143.516	-83.058	-0.157	-0.050
-142.502	176.976	-0.224	0.322
-141.487	-74.580	-0.124	0.044
-140.472	68.038	-0.201	-0.202
-139.458	-121.772	0.361	0.059
-138.443	-200.000	0.048	-0.233
-137.429	-20.553	-0.267	0.161
-136.414	11.566	-0.130	0.098
-135.399	800.000	0.089	0.298
-134.385	-187.051	-0.142	-0.002
-133.370	147.410	-0.189	-0.250
-132.356	-200.000	-0.037	0.175
-131.341	465.913	0.064	-0.142
-130.326	-151.070	0.248	-0.018
-129.312	81.923	0.112	0.119
-128.297	-200.000	0.066	-0.400
-127.283	-200.000	-0.009	-0.228
-126.268	-200.000	0.011	0.201
-125.253	-98.697	-0.523	-0.131
-124.239	-29.326	-0.304	-0.171
-123.224	18.486	0.089	0.070
-122.210	-169.430	-0.387	-0.014
