DTS Sentinel unit serial number:	SN413079Multiplexer serial number:	ORYXHardware model number:	OX4-SRSoftware version number:	ORYX F/W v4.00 Oryx Data Collector v3.7.2.0data status	okinstallation	princeton_trtdifferential loss correction	single-endedforward channel	channel 2reverse channel	N/Adate	2019/09/14time	06:43:35forward acquisition time	60.00reverse acquisition time	0.00gamma	496.2192k internal	0.2338k external	0.2338temperature offset calibration	1.0132default loss term (dB/km)	0.3790temperature slope calibration	1.0000multiplexer offset coefficient	1.0000multiplexer slope coefficient	1.0000fibre end	0.00T internal ref (°C)	26.31T ext. ref 1 (°C)	3.41T ext. ref 2 (°C)	20.57length (m)	temperature (°C)	Stokes	anti-Stokes-747.200	800.000	0.073	0.217
-746.185	103.182	-0.128	-0.151
-745.171	90.441	0.066	-0.075
-744.156	375.082	0.099	0.203
-743.142	800.000	-0.116	-0.322
-742.127	203.856	-0.169	0.263
-741.112	-19.733	0.102	-0.063
-740.098	-112.835	0.179	0.036
-739.083	-1.633	-0.243	0.172
-738.069	-200.000	0.002	0.047
-737.054	130.970	0.058	0.075
-736.039	128.551	-0.155	-0.198
-735.025	-200.000	0.031	0.292
-734.010	-200.000	-0.070	-0.563
-732.996	742.209	0.040	-0.107
-731.981	-200.000	0.010	-0.321
-730.966	-34.110	-0.105	-0.058
-729.952	-200.000	0.021	-0.244
-728.937	-24.617	0.155	0.092
-727.923	84.664	-0.090	-0.099
-726.908	-200.000	-0.011	0.291
-725.894	-20.855	-0.293	0.180
-724.879	-4.071	-0.236	0.164
-723.864	27.220	0.051	0.043
-722.850	194.815	0.198	0.301
-721.835	-96.073	-0.463	-0.123
-720.821	800.000	-0.017	-0.073
-719.806	-200.000	0.005	-0.125
-718.791	75.135	-0.081	-0.085
-717.777	353.420	0.070	0.139
-716.762	-172.884	-0.326	-0.010
-715.748	-112.225	0.168	-0.034
-714.733	-34.665	-0.260	-0.143
-713.718	111.125	0.101	0.122
-712.704	-64.865	-0.218	-0.088
-711.689	-127.238	0.177	-0.026
-710.675	-89.836	-0.210	0.062
-709.660	-69.915	0.131	-0.050
-708.645	-200.000	0.014	-0.163
-707.631	359.024	-0.112	-0.224
-706.616	-200.000	0.028	-0.131
-705.602	524.404	-0.106	-0.249
-704.587	-200.000	0.021	-0.343
-703.572	800.000	-0.024	0.078
-702.558	-151.565	0.235	-0.017
-701.543	551.281	0.110	0.266
-700.529	-200.000	0.003	0.213
-699.514	-27.855	-0.088	-0.051
-698.499	-93.335	-0.236	0.066
-697.485	13.375	-0.343	-0.266
-696.470	599.580	0.064	0.159
-695.456	-10.856	-0.196	0.130
-694.441	81.784	-0.142	-0.154
-693.426	41.678	0.234	-0.212
-692.412	296.917	-0.155	-0.285
-691.397	152.828	0.054	-0.074
-690.383	55.462	-0.131	-0.127
-689.368	31.642	-0.064	0.055
-688.354	242.886	0.131	-0.219
-687.339	167.167	0.057	0.081
-686.324	-70.822	0.212	0.080
-685.310	-99.314	-0.287	-0.073
-684.295	283.396	0.056	-0.101
-683.281	-94.022	0.166	-0.046
-682.266	-145.291	0.068	0.006
-681.251	39.303	0.196	-0.176
-680.237	48.987	-0.050	0.047
-679.222	-134.114	0.148	-0.018
-678.208	137.565	-0.196	-0.257
-677.193	36.355	0.036	-0.031
-676.178	-143.508	-0.175	0.017
-675.164	800.000	0.064	-0.258
-674.149	218.033	-0.103	-0.164
-673.135	170.354	0.117	-0.168
-672.120	800.000	0.060	-0.196
-671.105	14.327	0.044	0.035
-670.091	-176.565	0.101	-0.003
-669.076	-76.422	0.056	-0.020
-668.062	-47.601	-0.174	0.084
-667.047	800.000	-0.099	-0.301
-666.032	126.053	0.236	-0.299
-665.018	497.348	0.054	0.124
-664.003	-19.272	-0.247	-0.153
-662.989	-200.000	-0.016	-0.121
-661.974	115.569	0.067	-0.082
-660.959	-9.934	0.047	-0.031
-659.945	-200.000	-0.009	0.127
-658.930	147.368	-0.174	0.234
-657.916	-20.575	-0.142	0.087
-656.901	479.197	0.125	-0.284
-655.886	-200.000	0.021	-0.110
-654.872	57.253	0.185	-0.181
-653.857	-118.582	0.266	-0.047
-652.843	-148.177	-0.115	0.009
-651.828	38.311	0.115	0.102
-650.814	800.000	0.084	0.235
-649.799	339.683	-0.084	0.164
-648.784	238.091	0.059	-0.098
-647.770	248.914	0.053	-0.090
-646.755	-200.000	0.042	0.241
-645.741	166.499	0.133	-0.188
-644.726	-87.840	-0.183	0.055
-643.711	-200.000	-0.005	-0.026
-642.697	-4.509	0.173	0.120
-641.682	-84.419	0.328	0.104
-640.668	800.000	0.037	-0.104
-639.653	38.218	0.218	-0.194
-638.638	800.000	0.075	-0.304
-637.624	-93.538	-0.159	-0.044
-636.609	-156.887	-0.295	0.018
-635.595	-200.000	-0.014	-0.172
-634.580	-46.342	-0.184	-0.090
-633.565	-200.000	0.000	-0.192
-632.551	800.000	0.074	-0.280
-631.536	-200.000	0.031	-0.144
-630.522	552.900	-0.107	-0.257
-629.507	-114.014	-0.246	0.048
-628.492	502.015	-0.150	0.347
-627.478	44.705	0.166	-0.152
-626.463	-200.000	-0.066	-0.456
-625.449	43.449	0.141	0.129
-624.434	-68.859	0.232	-0.089
-623.419	-61.210	-0.212	0.089
-622.405	-183.821	0.335	-0.006
-621.390	165.058	-0.120	-0.169
-620.376	36.347	-0.198	-0.174
-619.361	215.820	-0.073	-0.116
-618.346	156.412	-0.170	-0.235
-617.332	612.923	-0.091	-0.228
-616.317	-14.224	-0.392	-0.253
-615.303	-200.000	-0.018	0.190
-614.288	100.911	-0.142	-0.164
-613.273	-75.283	0.046	0.016
-612.259	-99.050	0.228	-0.058
-611.244	-200.000	0.005	-0.078
-610.230	-6.142	-0.053	0.036
-609.215	-4.487	0.129	0.089
-608.201	-200.000	0.033	0.282
-607.186	-100.504	0.326	0.080
-606.171	150.260	-0.145	0.196
-605.157	-200.000	-0.004	-0.036
-604.142	-200.000	0.019	-0.158
-603.128	-131.298	-0.430	-0.057
-602.113	160.056	-0.231	-0.321
-601.098	-133.250	0.405	-0.051
-600.084	160.597	-0.064	0.089
-599.069	-28.995	-0.271	0.155
-598.055	254.966	0.278	0.475
-597.040	800.000	-0.043	-0.149
-596.025	32.736	0.232	0.200
-595.011	-200.000	-0.022	-0.122
-593.996	150.978	-0.115	-0.156
-592.982	298.557	0.109	-0.200
-591.967	-26.471	0.085	0.050
-590.952	-46.306	-0.260	-0.127
-589.938	-39.408	-0.189	-0.099
-588.923	-154.693	0.308	0.020
-587.909	-200.000	0.089	-0.449
-586.894	-47.938	-0.143	0.069
-585.879	-200.000	0.051	0.271
-584.865	-66.075	-0.226	0.090
-583.850	563.007	-0.007	0.017
-582.836	8.246	-0.253	-0.189
-581.821	-120.403	0.415	0.070
-580.806	-153.274	0.078	0.005
-579.792	499.346	0.114	0.262
-578.777	-200.000	0.029	0.141
-577.763	-107.291	-0.198	0.043
-576.748	-133.383	-0.256	0.032
-575.733	60.863	0.056	-0.055
-574.719	587.392	0.036	0.089
-573.704	159.388	-0.128	-0.178
-572.690	292.155	-0.221	0.401
-571.675	-89.814	-0.220	0.064
-570.661	251.190	0.156	-0.265
-569.646	-166.981	-0.474	-0.019
-568.631	-65.956	-0.039	0.016
-567.617	-200.000	-0.003	0.020
-566.602	486.643	-0.071	-0.162
-565.588	-3.538	-0.257	-0.178
-564.573	-20.320	-0.348	-0.213
-563.558	-114.107	-0.274	-0.053
-562.544	68.065	0.106	-0.108
-561.529	-113.677	0.043	0.008
-560.515	-36.728	-0.226	-0.121
-559.500	-0.983	-0.366	-0.258
-558.485	-33.035	-0.172	-0.095
-557.471	447.955	0.041	0.091
-556.456	37.951	-0.055	0.048
-555.442	-121.689	0.249	0.041
-554.427	-108.708	0.281	0.060
-553.412	-62.159	0.071	-0.030
-552.398	800.000	-0.032	0.097
-551.383	-200.000	0.013	-0.067
-550.369	101.805	-0.177	-0.206
-549.354	-143.942	0.137	0.013
-548.339	800.000	-0.035	-0.100
-547.325	800.000	-0.093	-0.336
-546.310	-200.000	-0.031	0.336
-545.296	-14.083	-0.190	-0.122
-544.281	120.002	0.108	0.134
-543.266	42.704	-0.044	-0.040
-542.252	695.714	-0.151	-0.395
-541.237	644.273	-0.108	-0.273
-540.223	800.000	0.066	0.259
-539.208	127.112	-0.115	-0.145
-538.193	-200.000	0.044	0.197
-537.179	-102.686	-0.115	0.027
-536.164	-130.696	0.136	0.018
-535.150	353.520	-0.020	0.040
-534.135	-147.024	-0.051	0.004
-533.121	-200.000	-0.018	-0.126
-532.106	-18.825	-0.260	0.161
-531.091	-75.440	0.324	-0.115
-530.077	-117.184	-0.229	-0.041
-529.062	-66.922	0.189	-0.074
-528.048	336.170	-0.210	0.405
-527.033	-114.813	0.037	-0.007
-526.018	-65.720	-0.132	0.053
-525.004	299.968	-0.070	-0.128
-523.989	-155.265	-0.322	-0.021
-522.975	-39.401	0.206	0.108
-521.960	200.590	-0.092	0.141
-520.945	70.453	-0.185	0.190
-519.931	-162.038	0.108	-0.005
-518.916	550.709	0.072	-0.171
-517.902	102.918	0.114	-0.132
-516.887	800.000	-0.086	0.253
-515.872	85.179	-0.168	-0.183
-514.858	172.550	-0.075	-0.107
-513.843	136.573	0.078	-0.102
-512.829	-42.016	0.385	0.196
-511.814	-40.622	0.088	-0.045
-510.799	800.000	0.084	-0.355
-509.785	800.000	-0.085	-0.364
-508.770	800.000	-0.088	-0.247
-507.756	223.595	0.016	-0.026
-506.741	165.110	-0.118	-0.165
-505.726	800.000	-0.111	0.462
-504.712	-119.540	0.047	0.008
-503.697	-55.573	-0.161	-0.072
-502.683	-200.000	0.008	-0.132
-501.668	-200.000	0.003	0.038
-500.653	-185.757	-0.088	0.001
-499.639	37.035	-0.424	0.372
-498.624	-134.976	0.394	0.047
-497.610	310.207	0.055	-0.103
-496.595	135.377	0.121	0.156
-495.581	-173.686	-0.037	-0.001
-494.566	16.453	0.209	0.164
-493.551	-88.164	-0.077	-0.023
-492.537	360.088	0.150	-0.299
-491.522	0.310	0.148	-0.105
-490.508	-3.192	0.108	-0.075
-489.493	-200.000	0.049	0.304
-488.478	203.369	-0.228	0.350
-487.464	578.796	0.066	0.161
-486.449	800.000	-0.092	-0.284
-485.435	800.000	-0.053	-0.160
-484.420	-9.873	0.020	0.013
-483.405	188.717	0.216	0.320
-482.391	167.693	-0.123	-0.174
-481.376	592.750	-0.110	0.270
-480.362	40.732	-0.318	0.284
-479.347	-38.886	-0.231	-0.121
-478.332	-41.684	-0.335	0.171
-477.318	290.641	0.160	-0.289
-476.303	-144.264	0.112	0.010
-475.289	-64.419	0.330	-0.133
-474.274	-62.732	-0.432	0.178
-473.259	-39.841	0.214	-0.111
-472.245	-77.526	-0.240	-0.083
-471.230	-110.028	-0.246	-0.051
-470.216	-95.609	-0.021	0.005
-469.201	-156.324	0.347	0.022
-468.186	-200.000	-0.012	-0.322
-467.172	-200.000	0.015	-0.071
-466.157	-127.151	-0.244	0.035
-465.143	-200.000	0.046	-0.279
-464.128	-20.516	0.107	0.065
-463.113	800.000	-0.128	0.388
-462.099	-85.749	0.153	0.047
-461.084	-200.000	-0.046	-0.351
-460.070	-200.000	0.007	-0.167
-459.055	-56.185	-0.365	-0.161
-458.040	-115.891	-0.359	-0.067
-457.026	168.107	-0.122	-0.173
-456.011	800.000	0.111	0.332
-454.997	-82.326	-0.231	-0.074
-453.982	-200.000	0.009	-0.050
-452.968	-200.000	-0.298	0.001
-451.953	-93.986	0.078	-0.021
-450.938	-200.000	-0.072	0.384
-449.924	800.000	0.047	-0.167
-448.909	-32.309	-0.146	0.081
-447.895	26.545	0.101	-0.083
-446.880	207.317	-0.126	-0.195
-445.865	396.780	-0.067	0.140
-444.851	-186.590	0.437	-0.006
-443.836	-200.000	-0.008	-0.071
-442.822	33.395	0.271	0.233
-441.807	287.698	-0.061	0.109
-440.792	-81.058	0.131	0.043
-439.778	1.141	-0.290	0.206
-438.763	800.000	0.017	-0.064
-437.749	226.554	0.070	0.112
-436.734	-15.676	-0.144	-0.091
-435.719	-200.000	0.033	-0.272
-434.705	-164.368	0.145	-0.007
-433.690	-16.663	-0.154	0.096
-432.676	403.390	0.107	0.223
-431.661	-44.447	0.295	0.146
-430.646	133.659	0.223	-0.286
-429.632	4.483	0.033	-0.024
-428.617	-106.244	-0.031	0.007
-427.603	451.349	0.103	0.225
-426.588	46.024	-0.088	0.081
-425.573	-200.000	0.028	0.246
-424.559	-69.455	0.227	-0.086
-423.544	423.923	0.033	-0.071
-422.530	778.981	-0.054	-0.146
-421.515	-105.186	-0.234	-0.053
-420.500	-136.416	0.199	-0.023
-419.486	-84.536	0.174	-0.054
-418.471	31.340	0.104	0.089
-417.457	165.270	-0.106	-0.148
-416.442	-96.173	-0.157	0.041
-415.428	-200.000	-0.017	-0.128
-414.413	-15.557	-0.266	-0.168
-413.398	465.062	-0.069	-0.154
-412.384	-142.772	-0.205	-0.020
-411.369	800.000	0.104	0.316
-410.355	-30.357	-0.195	0.110
-409.340	229.671	0.089	-0.144
-408.325	37.685	0.123	-0.108
-407.311	457.402	0.128	0.281
-406.296	123.117	-0.253	0.314
-405.282	279.321	-0.042	0.074
-404.267	-81.418	-0.095	0.031
-403.252	19.371	0.146	0.116
-402.238	-200.000	-0.022	0.182
-401.223	1.324	-0.126	0.090
-400.209	800.000	0.045	0.169
-399.194	391.247	-0.018	0.037
-398.179	-90.109	-0.104	-0.030
-397.165	-200.000	0.015	-0.123
-396.150	18.266	0.065	0.051
-395.136	227.635	-0.139	-0.223
-394.121	-68.600	0.376	-0.144
-393.106	84.252	0.224	-0.243
-392.092	-70.276	-0.244	0.092
-391.077	685.186	0.096	-0.248
-390.063	165.259	0.151	0.212
-389.048	-4.377	0.212	0.145
-388.033	-16.458	0.076	-0.048
-387.019	-200.000	-0.008	0.119
-386.004	-123.320	-0.406	-0.064
-384.990	-200.000	0.083	0.439
-383.975	-14.122	0.173	0.110
-382.960	181.874	0.139	-0.202
-381.946	181.389	0.222	0.323
-380.931	502.023	0.132	0.302
-379.917	166.423	-0.074	0.104
-378.902	-70.752	-0.246	-0.092
-377.888	413.089	-0.091	-0.191
-376.873	-59.275	-0.240	0.102
-375.858	-129.771	-0.299	-0.041
-374.844	73.936	-0.169	-0.175
-373.829	-157.131	0.196	-0.012
-372.815	-164.847	-0.204	0.009
-371.800	800.000	-0.053	-0.214
-370.785	-8.054	0.148	0.098
-369.771	-128.406	-0.274	-0.039
-368.756	36.044	-0.167	-0.145
-367.742	-200.000	-0.001	0.244
-366.727	35.346	0.125	0.108
-365.712	800.000	0.051	0.140
-364.698	17.960	0.132	0.104
-363.683	-4.135	-0.299	0.204
-362.669	800.000	0.055	-0.188
-361.654	-52.852	0.281	0.128
-360.639	-21.481	-0.350	-0.211
-359.625	259.034	-0.145	-0.247
-358.610	101.504	0.126	-0.145
-357.596	-60.950	0.109	0.045
-356.581	180.949	0.182	-0.264
-355.566	-36.478	0.256	-0.136
-354.552	-26.334	0.191	0.111
-353.537	5.230	0.225	-0.164
-352.523	-24.961	0.094	-0.055
-351.508	210.204	0.093	-0.144
-350.493	800.000	-0.037	-0.138
-349.479	-200.000	-0.017	-0.137
-348.464	-50.147	0.243	0.114
-347.450	487.955	0.048	0.109
-346.435	42.296	-0.127	0.114
-345.420	-16.271	0.454	0.285
-344.406	42.322	-0.081	-0.072
-343.391	-182.624	0.071	0.001
-342.377	251.594	-0.050	-0.084
-341.362	-89.386	0.068	0.020
-340.348	136.114	0.186	0.240
-339.333	-39.345	0.491	-0.254
-338.318	-200.000	-0.061	0.275
-337.304	-158.598	0.134	-0.008
-336.289	82.198	0.189	0.203
-335.275	13.130	0.060	-0.046
-334.260	-64.081	0.188	0.076
-333.245	800.000	0.049	-0.169
-332.231	-122.337	-0.257	-0.041
-331.216	-14.138	-0.219	0.139
-330.202	49.055	-0.281	0.261
-329.187	-148.802	-0.342	0.027
-328.172	474.990	-0.048	0.107
-327.158	130.533	0.073	-0.092
-326.143	30.387	0.388	-0.327
-325.129	-144.732	-0.120	0.011
-324.114	1.538	-0.222	-0.157
-323.099	800.000	0.034	0.121
-322.085	79.475	0.178	0.188
-321.070	267.415	0.069	-0.118
-320.056	-140.103	-0.043	-0.004
-319.041	-200.000	-0.020	-0.431
-318.026	-21.978	0.082	0.049
-317.012	-152.681	-0.176	0.012
-315.997	-38.347	0.246	0.128
-314.983	-23.606	-0.176	0.104
-313.968	-200.000	0.031	-0.182
-312.953	800.000	0.040	0.158
-311.939	-6.769	0.210	-0.141
-310.924	-200.000	-0.018	0.180
-309.910	41.605	0.138	-0.124
-308.895	-200.000	-0.030	-0.194
-307.880	103.104	0.085	0.098
-306.866	-1.295	-0.216	0.150
-305.851	68.079	0.007	0.007
-304.837	800.000	0.026	-0.108
-303.822	-86.489	-0.214	-0.065
-302.807	266.758	0.067	0.115
-301.793	-200.000	-0.011	-0.197
-300.778	-200.000	-0.077	0.443
-299.764	-8.412	0.127	-0.084
-298.749	-81.160	-0.042	-0.014
-297.735	535.823	0.021	0.048
-296.720	-50.850	-0.060	0.028
-295.705	127.867	-0.135	0.169
-294.691	337.463	-0.101	0.194
-293.676	183.725	-0.066	0.096
-292.662	-200.000	0.044	-0.392
-291.647	154.569	-0.176	0.239
-290.632	3.116	-0.068	0.048
-289.618	-88.497	0.085	-0.025
-288.603	-200.000	-0.002	0.087
-287.589	-200.000	0.005	0.137
-286.574	-166.789	-0.166	0.007
-285.559	176.751	0.144	0.206
-284.545	623.738	0.106	-0.264
-283.530	654.211	0.035	0.089
-282.516	87.040	0.127	-0.138
-281.501	83.731	0.239	-0.257
-280.486	136.986	0.131	-0.169
-279.472	550.534	-0.084	0.198
-278.457	-16.611	-0.172	0.107
-277.443	-17.544	0.098	-0.061
-276.428	-104.006	0.076	-0.017
-275.413	-125.902	0.207	-0.031
-274.399	-106.358	0.119	0.026
-273.384	396.803	-0.117	0.241
-272.370	70.221	0.112	-0.114
-271.355	800.000	0.012	0.033
-270.340	-35.047	0.126	0.068
-269.326	800.000	0.105	0.424
-268.311	242.335	0.110	-0.182
-267.297	36.157	-0.269	0.233
-266.282	229.716	0.069	0.111
-265.267	172.872	0.182	0.259
-264.253	800.000	0.114	0.336
-263.238	-129.291	-0.269	-0.037
-262.224	-200.000	0.020	-0.163
-261.209	16.418	0.124	0.097
-260.195	-200.000	-0.035	-0.369
-259.180	-139.425	-0.118	0.012
-258.165	-115.092	0.203	-0.038
-257.151	-100.543	0.162	-0.039
-256.136	-152.588	0.153	0.011
-255.122	-11.159	0.068	-0.044
-254.107	-63.637	-0.092	-0.037
-253.092	62.749	-0.138	-0.136
-252.078	379.004	-0.130	0.262
-251.063	-200.000	0.050	0.246
-250.049	800.000	0.080	-0.276
-249.034	-158.127	0.152	-0.009
-248.019	-109.517	0.279	0.058
-247.005	-98.999	0.093	0.023
-245.990	43.527	0.164	0.148
-244.976	399.015	-0.156	0.321
-243.961	800.000	-0.023	-0.071
-242.946	-184.426	-0.146	0.002
-241.932	436.486	0.200	0.428
-240.917	-200.000	0.009	0.210
-239.903	-156.415	0.344	-0.021
-238.888	7.543	0.144	0.106
-237.873	96.444	0.164	0.185
-236.859	22.728	0.113	0.091
-235.844	-118.100	-0.251	-0.044
-234.830	172.395	0.140	-0.198
-233.815	-101.913	0.026	-0.006
-232.800	-158.007	-0.134	-0.008
-231.786	277.552	0.160	0.280
-230.771	800.000	-0.018	0.056
-229.757	-200.000	-0.003	-0.015
-228.742	125.546	-0.283	-0.351
-227.727	41.878	-0.113	-0.101
-226.713	-71.612	0.216	0.079
-225.698	89.860	-0.053	-0.058
-224.684	-200.000	0.028	0.328
-223.669	-76.055	-0.260	0.090
-222.655	151.528	-0.123	0.164
-221.640	225.423	-0.133	-0.211
-220.625	606.878	-0.075	-0.184
-219.611	-2.073	0.260	-0.179
-218.596	228.213	0.066	0.105
-217.582	-200.000	-0.022	0.548
-216.567	253.305	0.167	0.281
-215.552	800.000	-0.077	0.286
-214.538	213.479	-0.071	0.110
-213.523	65.756	0.137	0.137
-212.509	411.819	0.064	-0.133
-211.494	6.927	0.055	-0.040
-210.479	125.101	-0.054	0.066
-209.465	-62.144	-0.376	-0.154
-208.450	-53.525	0.097	0.043
-207.436	-25.411	0.200	-0.116
-206.421	25.541	-0.058	0.047
-205.406	323.869	-0.057	0.106
-204.392	7.471	0.103	0.075
-203.377	-200.000	-0.027	-0.326
-202.363	201.119	-0.062	0.094
-201.348	565.152	0.037	0.089
-200.333	-156.895	0.212	-0.013
-199.319	330.443	0.048	-0.091
-198.304	-62.571	-0.040	-0.016
-197.290	-200.000	0.009	0.061
-196.275	-95.766	-0.381	-0.100
-195.260	-200.000	-0.108	-0.001
-194.246	308.049	0.059	-0.108
-193.231	93.640	0.021	0.024
-192.217	77.737	0.085	0.089
-191.202	-162.068	0.245	0.012
-190.187	-17.396	-0.297	0.184
-189.173	237.630	-0.125	0.203
-188.158	-97.329	0.101	0.026
-187.144	-36.254	0.287	-0.152
-186.129	-200.000	0.018	-0.096
-185.114	-200.000	0.004	-0.202
-184.100	190.700	0.067	-0.099
-183.085	-5.340	0.248	-0.167
-182.071	-200.000	0.002	0.109
-181.056	-114.153	0.415	0.079
-180.042	126.970	0.187	0.233
-179.027	-174.981	0.116	-0.003
-178.012	-200.000	0.002	0.207
-176.998	32.414	-0.220	-0.187
-175.983	-57.058	-0.294	0.127
-174.969	800.000	-0.042	0.141
-173.954	-200.000	0.059	-0.435
-172.939	-90.047	0.145	-0.042
-171.925	-109.959	-0.316	0.065
-170.910	800.000	0.019	-0.064
-169.896	800.000	-0.076	-0.306
-168.881	800.000	-0.025	0.073
-167.866	-119.494	0.168	-0.029
-166.852	-200.000	-0.013	0.422
-165.837	-26.993	0.384	0.220
-164.823	800.000	0.040	-0.129
-163.808	-90.724	0.411	0.116
-162.793	112.356	0.055	0.065
-161.779	114.944	0.178	-0.213
-160.764	182.157	-0.074	0.107
-159.750	447.580	0.041	-0.090
-158.735	426.233	-0.051	0.108
-157.720	-15.987	-0.255	-0.159
-156.706	118.328	0.215	0.261
-155.691	800.000	-0.096	0.302
-154.677	-200.000	-0.000	-0.184
-153.662	800.000	0.118	-0.386
-152.647	800.000	-0.108	-0.331
-151.633	800.000	0.106	-0.354
-150.618	59.322	0.389	-0.376
-149.604	-80.795	-0.166	0.054
-148.589	7.909	-0.116	-0.085
-147.574	-103.083	0.399	-0.093
-146.560	36.740	-0.248	-0.215
-145.545	-86.725	0.086	-0.026
-144.531	23.915	-0.221	-0.179
-143.516	-200.000	0.061	-0.293
-142.502	-42.337	-0.324	-0.162
-141.487	-33.318	0.454	0.246
-140.472	-111.081	0.238	-0.048
-139.458	187.756	0.074	-0.109
-138.443	-89.393	0.088	-0.025
-137.429	-15.926	-0.272	-0.169
-136.414	800.000	0.079	-0.273
-135.399	517.634	0.021	-0.048
-134.385	-72.906	-0.041	0.015
-133.370	45.463	0.155	0.140
-132.356	-111.542	-0.171	0.034
-131.341	-200.000	-0.010	-0.096
-130.326	-200.000	0.016	0.358
-129.312	-57.229	0.264	0.114
-128.297	267.513	0.049	-0.085
-127.283	50.940	-0.121	-0.112
-126.268	-200.000	0.050	0.392
-125.253	-27.441	0.436	0.248
-124.239	-200.000	-0.001	0.060
-123.224	373.899	-0.028	0.056
-122.210	-13.812	-0.206	-0.130
-121.195	141.349	0.250	-0.323
