DTS Sentinel unit serial number:	SN413079Multiplexer serial number:	ORYXHardware model number:	OX4-SRSoftware version number:	ORYX F/W v4.00 Oryx Data Collector v3.7.2.0data status	okinstallation	princeton_trtdifferential loss correction	single-endedforward channel	channel 2reverse channel	N/Adate	2019/09/12time	19:30:49forward acquisition time	15.00reverse acquisition time	0.00gamma	496.2192k internal	0.2326k external	0.2326temperature offset calibration	1.0149default loss term (dB/km)	0.3790temperature slope calibration	1.0000multiplexer offset coefficient	1.0000multiplexer slope coefficient	1.0000fibre end	0.00T internal ref (°C)	32.25T ext. ref 1 (°C)	3.27T ext. ref 2 (°C)	26.76length (m)	temperature (°C)	Stokes	anti-Stokes-747.200	-95.896	-1.199	0.322
-746.185	63.417	-0.835	0.844
-745.171	-200.000	-0.069	0.355
-744.156	-161.138	-0.401	-0.021
-743.142	-84.957	-0.522	-0.165
-742.127	-200.000	-0.042	0.270
-741.112	27.854	0.152	-0.129
-740.098	286.106	0.332	-0.604
-739.083	703.871	-0.103	0.273
-738.069	-200.000	-0.033	0.470
-737.054	-57.854	0.534	-0.235
-736.039	800.000	-0.012	-0.033
-735.025	147.286	-0.904	1.226
-734.010	800.000	0.032	0.139
-732.996	-76.096	-0.523	-0.186
-731.981	-166.074	-0.255	-0.011
-730.966	-108.066	-0.375	-0.082
-729.952	-121.675	-0.213	0.036
-728.937	121.896	-0.588	0.739
-727.923	800.000	0.127	0.511
-726.908	-18.080	-0.970	-0.612
-725.894	52.967	0.324	-0.312
-724.879	800.000	0.081	-0.287
-723.864	-59.837	0.237	0.102
-722.850	-137.156	0.296	-0.034
-721.835	271.305	-0.184	0.326
-720.821	-12.100	-0.401	0.264
-719.806	64.530	0.575	-0.583
-718.791	-89.793	-0.353	0.104
-717.777	241.262	-0.320	-0.538
-716.762	-5.853	-0.333	-0.229
-715.748	191.274	-0.542	0.822
-714.733	-86.125	-0.680	-0.211
-713.718	-105.703	0.855	0.195
-712.704	1.319	0.594	-0.430
-711.689	105.750	0.112	-0.134
-710.675	757.409	-0.108	-0.294
-709.660	-136.893	0.635	0.073
-708.645	179.477	-0.359	0.530
-707.631	800.000	0.109	-0.356
-706.616	800.000	0.029	-0.099
-705.602	-67.182	0.519	-0.206
-704.587	355.088	-0.192	0.384
-703.572	167.588	-0.424	0.606
-702.558	800.000	0.126	-0.409
-701.543	-112.461	-0.667	-0.134
-700.529	261.792	-0.344	-0.601
-699.514	-119.509	-0.579	-0.101
-698.499	-64.070	-0.849	0.349
-697.485	41.677	-0.435	0.397
-696.470	-200.000	-0.023	-0.589
-695.456	800.000	-0.058	0.165
-694.441	627.867	-0.136	-0.345
-693.426	366.141	0.265	0.537
-692.412	220.820	0.304	-0.491
-691.397	-200.000	0.024	0.635
-690.383	800.000	0.187	-0.764
-689.368	-107.147	0.736	0.163
-688.354	-105.208	0.363	0.083
-687.339	2.455	0.839	0.611
-686.324	4.199	0.460	0.339
-685.310	-200.000	0.058	-0.502
-684.295	267.584	-0.278	0.490
-683.281	374.179	-0.207	0.424
-682.266	196.945	-0.279	0.428
-681.251	-39.107	-0.614	0.325
-680.237	800.000	-0.148	0.456
-679.222	-55.172	0.413	-0.187
-678.208	-13.310	-0.475	-0.310
-677.193	-200.000	-0.015	0.169
-676.178	800.000	-0.221	-0.664
-675.164	-76.837	-0.672	-0.236
-674.149	-146.992	0.388	0.033
-673.135	60.965	-0.135	-0.135
-672.120	-101.917	-0.900	0.219
-671.105	65.300	-0.250	0.254
-670.091	389.762	-0.190	0.396
-669.076	412.757	-0.261	0.558
-668.062	800.000	0.096	-0.356
-667.047	-99.329	-0.266	0.068
-666.032	-52.472	0.540	-0.251
-665.018	-83.489	-0.678	0.218
-664.003	-200.000	-0.099	-0.446
-662.989	-200.000	0.212	-1.285
-661.974	400.229	0.389	-0.820
-660.959	-112.890	-0.612	0.122
-659.945	800.000	0.089	-0.392
-658.930	-200.000	-0.062	0.483
-657.916	-140.116	0.134	0.014
-656.901	163.106	-0.397	-0.560
-655.886	198.486	-0.098	-0.151
-654.872	315.184	0.207	-0.393
-653.857	-59.975	-0.601	-0.258
-652.843	258.937	0.167	-0.290
-651.828	75.223	0.264	0.280
-650.814	-14.563	0.336	-0.217
-649.799	-107.549	0.176	0.039
-648.784	-83.368	-0.435	-0.140
-647.770	277.307	0.353	-0.630
-646.755	145.732	0.370	0.498
-645.741	-50.829	0.581	0.275
-644.726	7.975	0.465	0.350
-643.711	593.180	0.065	-0.162
-642.697	31.357	-0.655	-0.565
-641.682	237.716	-0.386	-0.644
-640.668	445.390	0.334	0.738
-639.653	37.072	-0.210	-0.187
-638.638	-200.000	0.564	-0.002
-637.624	-56.620	0.213	-0.095
-636.609	150.753	-0.576	-0.787
-635.595	-155.453	0.593	-0.039
-634.580	255.475	-0.234	-0.403
-633.565	78.458	0.350	-0.376
-632.551	91.691	0.449	-0.507
-631.536	-43.261	-0.384	0.195
-630.522	-142.813	0.583	0.057
-629.507	-200.000	0.108	1.019
-628.492	-74.568	0.511	0.185
-627.478	297.861	-0.158	-0.291
-626.463	156.137	0.441	0.611
-625.449	-21.885	-0.311	-0.190
-624.434	800.000	-0.187	-0.622
-623.419	800.000	-0.130	0.391
-622.405	-87.609	0.660	0.200
-621.390	138.446	-0.171	0.226
-620.376	-53.499	0.543	-0.249
-619.361	-200.000	-0.081	0.580
-618.346	-141.846	-1.268	0.127
-617.332	-200.000	-0.003	-0.573
-616.317	-83.969	0.577	-0.184
-615.303	-127.988	-0.585	-0.084
-614.288	-101.021	-0.320	-0.079
-613.273	-98.151	-0.224	0.058
-612.259	-200.000	-0.118	-0.583
-611.244	85.717	0.565	-0.623
-610.230	150.338	0.346	-0.471
-609.215	104.236	0.489	-0.577
-608.201	800.000	0.114	0.357
-607.186	-51.898	-0.335	-0.156
-606.171	8.491	-0.229	-0.173
-605.157	309.796	0.185	0.347
-604.142	-143.490	-0.818	-0.078
-603.128	-97.069	-0.275	0.072
-602.113	486.885	-0.229	-0.524
-601.098	104.824	-0.526	-0.622
-600.084	-165.707	-0.604	0.026
-599.069	-200.000	-0.021	-0.256
-598.055	-139.170	-0.640	0.069
-597.040	320.007	0.064	-0.121
-596.025	495.238	-0.154	-0.355
-595.011	-56.269	-0.352	-0.157
-593.996	61.384	0.568	-0.566
-592.982	-200.000	0.111	0.000
-591.967	-33.324	0.456	0.253
-590.952	800.000	-0.177	-0.637
-589.938	-200.000	0.059	0.382
-588.923	3.858	0.618	0.452
-587.909	-14.434	0.231	-0.149
-586.894	28.710	0.582	0.494
-585.879	-76.420	-0.697	-0.246
-584.865	-200.000	-0.036	-0.455
-583.850	-68.806	-0.184	-0.071
-582.836	82.044	-0.413	-0.449
-581.821	557.321	0.254	-0.613
-580.806	42.511	0.506	-0.461
-579.792	357.797	-0.180	0.359
-578.777	514.899	-0.176	-0.411
-577.763	-78.845	0.398	0.136
-576.748	-148.869	-0.518	-0.042
-575.733	132.523	0.191	-0.247
-574.719	-105.691	-1.282	0.291
-573.704	-65.833	0.244	-0.098
-572.690	-1.619	-0.681	-0.481
-571.675	-4.072	-0.193	-0.134
-570.661	-200.000	-0.046	0.549
-569.646	-179.377	0.529	0.012
-568.631	-30.506	-0.307	-0.174
-567.617	-124.405	-0.866	-0.135
-566.602	-50.683	-0.156	0.073
-565.588	-200.000	-0.036	-1.061
-564.573	-11.439	-0.922	-0.607
-563.558	291.204	0.154	0.281
-562.544	82.537	0.297	0.323
-561.529	-200.000	-0.007	-0.559
-560.515	186.659	0.518	0.773
-559.500	-35.901	-0.778	0.421
-558.485	203.626	0.498	0.772
-557.471	-91.387	0.787	-0.225
-556.456	625.190	0.509	1.285
-555.442	410.901	0.416	0.883
-554.427	-200.000	-0.045	0.746
-553.412	-22.329	-0.519	0.315
-552.398	-5.884	0.838	-0.574
-551.383	-74.060	0.285	0.103
-550.369	377.670	0.127	0.260
-549.354	-61.793	0.537	0.225
-548.339	49.189	-0.357	-0.336
-547.325	671.387	0.330	0.855
-546.310	-68.500	-0.161	0.062
-545.296	37.285	-0.263	0.233
-544.281	-138.672	0.205	-0.022
-543.266	48.094	0.382	0.358
-542.252	1.282	0.260	0.187
-541.237	-133.667	-0.586	0.073
-540.223	-58.113	-0.556	-0.242
-539.208	-64.300	0.230	0.094
-538.193	797.085	0.061	-0.169
-537.179	-107.182	-0.661	-0.146
-536.164	331.236	0.166	0.320
-535.150	-101.777	0.423	0.102
-534.135	134.395	0.493	-0.639
-533.121	800.000	-0.038	-0.118
-532.106	123.731	0.082	0.103
-531.091	65.332	0.874	0.884
-530.077	125.662	0.186	-0.235
-529.062	-178.957	-0.529	-0.012
-528.048	429.547	-0.115	0.248
-527.033	-200.000	0.033	-0.240
-526.018	800.000	-0.300	-0.937
-525.004	152.307	-0.301	-0.411
-523.989	63.171	-0.295	-0.296
-522.975	-20.228	0.575	0.354
-521.960	-200.000	-0.060	0.402
-520.945	189.129	0.273	0.408
-519.931	32.075	0.095	0.082
-518.916	167.363	0.267	-0.380
-517.902	-126.418	-0.457	-0.068
-516.887	-139.591	0.392	0.042
-515.872	-200.000	-0.034	0.363
-514.858	-173.625	0.182	0.005
-513.843	-200.000	0.046	0.203
-512.829	-121.028	0.607	-0.102
-511.814	105.195	0.304	-0.358
-510.799	194.688	0.152	-0.231
-509.785	-200.000	0.007	0.268
-508.770	-143.818	1.382	0.130
-507.756	-30.152	-0.276	-0.157
-506.741	-41.638	-0.627	0.322
-505.726	3.714	-0.416	-0.303
-504.712	-200.000	-0.082	-0.646
-503.697	-108.575	0.290	-0.062
-502.683	18.200	0.659	-0.525
-501.668	-56.374	-0.506	0.224
-500.653	-99.338	-0.346	-0.087
-499.639	282.712	0.011	0.020
-498.624	-4.981	0.587	-0.404
-497.610	800.000	-0.227	0.904
-496.595	291.684	0.129	-0.234
-495.581	-200.000	-0.048	0.276
-494.566	-8.484	-0.694	0.466
-493.551	414.742	0.064	-0.136
-492.537	311.214	0.026	0.048
-491.522	-54.734	-0.081	0.037
-490.508	314.347	-0.210	0.394
-489.493	18.831	0.563	-0.450
-488.478	-200.000	0.105	-0.796
-487.464	296.624	0.173	-0.317
-486.449	-200.000	-0.364	0.002
-485.435	-200.000	-0.021	-0.092
-484.420	-42.952	0.624	0.316
-483.405	99.420	-0.685	-0.791
-482.391	-200.000	0.117	0.592
-481.376	165.905	-0.507	-0.715
-480.362	4.388	-0.804	-0.588
-479.347	-16.357	1.019	-0.646
-478.332	32.223	-0.402	0.346
-477.318	771.964	-0.037	0.101
-476.303	800.000	0.225	0.823
-475.289	-13.579	0.621	0.401
-474.274	-200.000	-0.014	-0.258
-473.259	54.451	-0.338	-0.325
-472.245	-200.000	-0.071	0.518
-471.230	-189.837	0.771	0.009
-470.216	-200.000	-0.146	-1.044
-469.201	-200.000	-0.044	0.393
-468.186	12.506	0.486	-0.374
-467.172	800.000	0.133	-0.537
-466.157	-121.613	0.332	0.055
-465.143	-33.355	0.428	-0.236
-464.128	-18.553	-0.732	-0.456
-463.113	800.000	-0.202	0.600
-462.099	-20.398	-0.420	0.258
-461.084	210.983	-0.061	0.096
-460.070	-48.874	0.380	-0.182
-459.055	49.969	0.774	-0.728
-458.040	-61.925	-0.374	-0.156
-457.026	800.000	0.066	0.218
-456.011	-4.835	0.620	0.426
-454.997	93.458	-0.349	0.394
-453.982	153.527	0.140	0.192
-452.968	-15.228	0.343	0.219
-451.953	-112.464	0.731	0.146
-450.938	-62.418	0.525	0.218
-449.924	-6.111	0.289	0.197
-448.909	1.484	0.225	-0.161
-447.895	800.000	0.057	-0.208
-446.880	64.940	0.125	0.125
-445.865	259.737	-0.311	-0.535
-444.851	-20.878	-0.555	-0.339
-443.836	193.359	-0.198	0.299
-442.822	-200.000	-0.190	0.954
-441.807	82.050	0.317	-0.343
-440.792	-135.217	0.819	0.098
-439.778	-32.325	0.376	-0.209
-438.763	-174.448	0.929	-0.027
-437.749	800.000	-0.190	0.534
-436.734	800.000	0.139	0.422
-435.719	755.677	0.042	0.114
-434.705	-48.077	-0.968	0.466
-433.690	-79.632	0.936	0.315
-432.676	699.129	0.169	-0.443
-431.661	800.000	0.178	0.606
-430.646	800.000	-0.284	1.036
-429.632	-109.681	-0.033	-0.007
-428.617	786.788	0.055	0.151
-427.603	-25.168	0.547	-0.323
-426.588	-76.003	0.120	0.042
-425.573	326.700	0.171	-0.327
-424.559	800.000	0.193	0.592
-423.544	800.000	-0.156	0.433
-422.530	-200.000	-0.021	-0.971
-421.515	345.564	0.129	-0.253
-420.500	800.000	0.056	-0.231
-419.486	800.000	0.076	-0.298
-418.471	404.900	-0.092	0.193
-417.457	-115.129	-0.705	-0.133
-416.442	-2.408	0.587	0.409
-415.428	92.204	0.325	-0.365
-414.413	-87.047	0.049	0.015
-413.398	-107.439	-0.399	0.087
-412.384	-33.247	0.374	-0.206
-411.369	-188.118	-0.518	-0.007
-410.355	-200.000	0.165	-0.750
-409.340	800.000	-0.262	-0.790
-408.325	-92.895	0.324	-0.090
-407.311	-12.271	-0.508	-0.330
-406.296	537.402	0.253	0.598
-405.282	-85.955	-0.784	-0.241
-404.267	-122.493	-0.496	0.080
-403.252	150.230	0.164	0.221
-402.238	-66.228	0.297	-0.118
-401.223	-96.628	-0.481	0.126
-400.209	-82.197	0.862	0.280
-399.194	800.000	-0.182	-0.591
-398.179	-15.591	0.060	0.038
-397.165	205.136	-0.360	-0.556
-396.150	170.975	-0.623	0.889
-395.136	-109.473	0.557	-0.117
-394.121	-200.000	-0.004	-0.908
-393.106	-78.039	-0.031	0.011
-392.092	-42.859	0.502	-0.254
-391.077	194.828	0.113	0.170
-390.063	-200.000	-0.025	0.115
-389.048	214.762	0.410	-0.646
-388.033	-35.690	0.371	0.200
-387.019	-80.901	0.260	-0.086
-386.004	800.000	-0.093	0.330
-384.990	-19.290	-0.707	0.436
-383.975	223.148	0.177	-0.284
-382.960	2.488	-0.685	0.493
-381.946	384.706	0.155	0.318
-380.931	37.607	0.153	-0.135
-379.917	-44.760	-0.726	-0.360
-378.902	64.440	-0.164	-0.164
-377.888	-200.000	-0.093	0.539
-376.873	-98.326	-0.665	0.169
-375.858	-93.821	0.958	0.262
-374.844	262.210	0.222	0.383
-373.829	-176.019	-0.853	0.022
-372.815	800.000	0.132	0.444
-371.800	184.171	-0.204	-0.299
-370.785	305.062	-0.369	0.681
-369.771	-24.207	0.068	0.040
-368.756	27.587	-0.291	0.244
-367.742	800.000	-0.064	0.198
-366.727	-121.837	-0.350	-0.057
-365.712	-136.185	-0.417	-0.048
-364.698	-19.852	-0.545	0.334
-363.683	-76.773	0.685	-0.238
-362.669	92.232	-0.293	-0.328
-361.654	672.259	0.257	0.662
-360.639	800.000	-0.092	0.299
-359.625	-157.086	0.155	0.009
-358.610	-34.232	-1.065	0.581
-357.596	211.857	-0.196	-0.306
-356.581	43.169	-0.666	0.603
-355.566	800.000	-0.256	0.832
-354.552	800.000	0.094	-0.274
-353.537	-82.044	-0.334	0.108
-352.523	-200.000	-0.010	-0.461
-351.508	-143.220	-0.202	0.019
-350.493	82.771	-0.470	0.507
-349.479	633.565	-0.169	0.425
-348.464	-56.397	0.928	-0.409
-347.450	-20.379	-0.522	-0.319
-346.435	-200.000	0.080	0.592
-345.420	369.026	-0.226	-0.455
-344.406	-5.588	-0.526	0.358
-343.391	-72.702	-0.334	-0.122
-342.377	-14.423	-0.906	-0.579
-341.362	274.083	-0.353	0.620
-340.348	106.943	0.557	-0.657
-339.333	19.868	-0.425	0.340
-338.318	-139.391	0.929	0.099
-337.304	800.000	-0.190	-0.756
-336.289	-55.766	-0.305	0.136
-335.275	46.779	0.359	-0.331
-334.260	-200.000	0.079	0.421
-333.245	42.485	0.275	-0.249
-332.231	-200.000	-0.069	0.385
-331.216	-90.895	-0.520	-0.149
-330.202	-102.693	-0.470	0.111
-329.187	-25.916	-0.577	-0.337
-328.172	-79.868	0.175	-0.058
-327.158	-4.494	0.224	-0.154
-326.143	509.554	0.181	0.417
-325.129	-200.000	-0.053	0.332
-324.114	-53.524	0.644	0.292
-323.099	84.928	0.173	0.188
-322.085	59.465	0.510	-0.499
-321.070	4.944	0.293	-0.214
-320.056	-200.000	-0.086	-0.881
-319.041	-21.966	-0.986	-0.594
-318.026	12.053	0.433	0.331
-317.012	-200.000	0.015	0.316
-315.997	-122.482	-0.842	-0.136
-314.983	46.708	-0.325	0.300
-313.968	57.558	0.069	-0.066
-312.953	323.675	-0.290	-0.548
-311.939	19.088	-0.560	-0.446
-310.924	-174.992	0.486	-0.013
-309.910	641.554	0.225	-0.569
-308.895	-200.000	-0.076	0.391
-307.880	-148.198	-0.913	0.075
-306.866	-91.125	-0.690	-0.196
-305.851	16.825	-0.603	-0.473
-304.837	-78.260	-0.110	0.037
-303.822	-141.487	-0.148	-0.015
-302.807	196.530	-0.370	0.558
-301.793	-22.433	0.090	0.054
-300.778	-136.786	0.485	-0.055
-299.764	373.131	-0.151	0.304
-298.749	-136.379	0.601	-0.069
-297.735	34.319	-0.303	0.262
-296.720	-117.285	0.951	-0.171
-295.705	81.331	0.772	0.827
-294.691	-109.057	0.395	-0.083
-293.676	-90.227	-0.398	0.115
-292.662	24.892	0.434	0.357
-291.647	-86.182	-0.210	0.064
-290.632	118.754	0.128	-0.156
-289.618	800.000	-0.221	-0.746
-288.603	-111.678	0.676	-0.136
-287.589	503.744	-0.212	-0.487
-286.574	25.836	0.518	0.428
-285.559	76.307	0.440	0.461
-284.545	-136.136	0.508	-0.059
-283.530	42.558	0.124	0.111
-282.516	7.274	-0.551	0.408
-281.501	5.182	0.507	0.370
-280.486	307.227	0.149	-0.275
-279.472	403.009	0.044	-0.092
-278.457	155.872	-0.354	-0.483
-277.443	428.901	-0.169	0.362
-276.428	-140.993	-0.405	0.041
-275.413	115.684	0.427	-0.516
-274.399	-200.000	-0.072	-0.325
-273.384	-119.752	0.795	0.136
-272.370	83.941	-0.486	0.525
-271.355	124.079	-0.203	0.252
-270.340	-200.000	-0.046	-0.203
-269.326	26.631	0.334	0.277
-268.311	17.984	-0.419	0.330
-267.297	-200.000	0.009	0.663
-266.282	25.077	0.339	0.279
-265.267	-40.940	0.540	-0.276
-264.253	-19.864	-0.716	0.438
-263.238	143.089	0.108	0.143
-262.224	-21.992	0.579	-0.348
-261.209	602.138	-0.213	0.523
-260.195	445.794	-0.393	0.854
-259.180	-62.915	0.298	-0.122
-258.165	337.663	0.082	0.157
-257.151	800.000	-0.140	-0.513
-256.136	-101.841	-0.433	0.104
-255.122	92.361	-0.295	0.329
-254.107	-9.299	-0.470	0.311
-253.092	70.408	0.302	-0.309
-252.078	-67.996	0.199	-0.077
-251.063	-77.414	-0.321	-0.110
-250.049	780.805	-0.405	-1.095
-249.034	-105.528	0.859	0.193
-248.019	800.000	0.112	-0.460
-247.005	77.646	0.268	-0.282
-245.990	800.000	-0.223	0.622
-244.976	-200.000	-0.015	-0.149
-243.961	-86.951	-0.378	0.114
-242.946	311.923	-0.345	-0.641
-241.932	-99.385	1.084	-0.270
-240.917	-66.159	0.492	0.194
-239.903	769.496	-0.235	-0.633
-238.888	-45.764	-0.105	-0.051
-237.873	-97.916	-0.892	0.228
-236.859	290.378	-0.429	-0.769
-235.844	-200.000	0.071	-0.529
-234.830	-155.650	0.322	-0.020
-233.815	80.092	-0.709	-0.753
-232.800	2.968	-0.252	-0.181
-231.786	-70.986	-0.727	-0.270
-230.771	-53.779	-0.031	0.014
-229.757	84.044	0.462	-0.499
-228.742	135.943	-0.261	0.336
-227.727	216.696	-0.304	0.478
-226.713	160.674	-0.718	0.991
-225.698	388.348	0.486	0.994
-224.684	-56.379	0.127	0.056
-223.669	-108.605	0.799	-0.170
-222.655	-200.000	-0.010	-0.101
-221.640	-200.000	0.022	0.160
-220.625	19.028	-0.307	-0.243
-219.611	43.018	-0.472	-0.426
-218.596	800.000	-0.098	0.363
-217.582	98.760	-0.089	0.102
-216.567	71.552	0.631	-0.647
-215.552	38.197	0.397	0.349
-214.538	-200.000	-0.019	-0.507
-213.523	-97.764	-0.976	0.249
-212.509	40.341	0.116	0.103
-211.494	41.547	0.407	0.364
-210.479	800.000	-0.053	-0.199
-209.465	-184.780	-0.526	0.008
-208.450	-121.535	0.070	-0.012
-207.436	-111.377	-0.362	-0.073
-206.421	800.000	0.292	-1.043
-205.406	800.000	-0.182	0.545
-204.392	-200.000	-0.082	-0.493
-203.377	82.076	-0.293	0.314
-202.363	-13.540	-0.292	0.187
-201.348	-200.000	0.108	0.876
-200.333	-57.649	-0.916	-0.396
-199.319	-144.644	-0.067	0.006
-198.304	40.865	0.812	0.723
-197.290	68.975	-0.242	-0.246
-196.275	224.507	0.194	0.309
-195.260	800.000	0.163	-0.701
-194.246	155.195	-0.014	0.019
-193.231	-200.000	-0.064	-0.456
-192.217	-8.517	-0.412	0.273
-191.202	-200.000	0.078	-0.780
-190.187	-78.128	0.261	-0.089
-189.173	40.067	0.290	-0.257
-188.158	-28.177	-0.729	0.416
-187.144	-200.000	0.014	0.485
-186.129	-150.600	-0.637	0.048
-185.114	117.548	0.232	0.282
-184.100	-200.000	0.086	0.806
-183.085	502.800	0.103	-0.234
-182.071	-55.983	0.896	-0.394
-181.056	215.871	0.625	0.979
-180.042	-142.943	0.441	0.042
-179.027	-200.000	0.109	0.506
-178.012	-96.065	-0.283	0.074
-176.998	-123.520	-0.332	-0.052
-175.983	800.000	-0.185	-0.600
-174.969	800.000	-0.093	-0.378
-173.954	-127.014	-0.912	0.132
-172.939	723.393	0.124	0.326
-171.925	-200.000	-0.034	-0.376
-170.910	-200.000	0.099	-0.446
-169.896	-200.000	0.056	0.581
-168.881	51.137	0.248	0.232
-167.866	-200.000	0.125	0.539
-166.852	-13.577	0.135	-0.086
-165.837	-62.866	0.332	0.135
-164.823	-132.189	0.462	0.059
-163.808	-128.432	-0.437	0.061
-162.793	1.191	-0.139	-0.098
-161.779	-63.701	-0.538	0.217
-160.764	133.403	0.241	-0.307
-159.750	-49.708	0.610	-0.286
-158.735	20.813	0.309	-0.246
-157.720	-200.000	-0.005	0.426
-156.706	800.000	-0.264	-0.790
-155.691	-81.872	0.686	0.221
-154.677	117.790	-0.348	0.422
-153.662	-200.000	-0.185	1.049
-152.647	-180.034	0.403	-0.008
-151.633	-91.294	0.495	0.140
-150.618	62.334	0.282	-0.277
-149.604	-200.000	0.122	-0.536
-148.589	126.005	0.444	-0.553
-147.574	121.311	0.084	-0.103
-146.560	-200.000	-0.064	0.678
-145.545	120.258	-0.359	0.439
-144.531	287.007	-0.292	-0.519
-143.516	800.000	-0.387	-1.180
-142.502	711.857	-0.174	-0.454
-141.487	800.000	-0.156	-0.618
-140.472	12.228	0.624	0.473
-139.458	-14.869	0.786	0.497
-138.443	-145.449	0.752	-0.067
-137.429	-200.000	-0.093	-0.427
-136.414	32.724	0.360	0.307
-135.399	-200.000	-0.055	-0.730
-134.385	-175.469	0.379	0.010
-133.370	310.928	0.033	0.060
-132.356	65.917	-0.464	0.463
-131.341	94.007	-0.302	-0.338
-130.326	-200.000	-0.017	-0.414
-129.312	45.488	0.260	0.236
-128.297	-56.354	0.712	0.311
-127.283	-0.602	0.526	-0.367
-126.268	-200.000	0.053	0.611
-125.253	-2.914	-0.299	-0.206
-124.239	800.000	0.152	0.531
-123.224	-200.000	0.026	-0.244
-122.210	-7.401	0.215	0.144
-121.195	800.000	0.111	-0.341
-120.180	213.433	0.166	0.258
