DTS Sentinel unit serial number:	SN413079Multiplexer serial number:	ORYXHardware model number:	OX4-SRSoftware version number:	ORYX F/W v4.00 Oryx Data Collector v3.7.2.0data status	okinstallation	princeton_trtdifferential loss correction	single-endedforward channel	channel 2reverse channel	N/Adate	2019/09/18time	00:15:35forward acquisition time	60.00reverse acquisition time	0.00gamma	496.2192k internal	0.2349k external	0.2349temperature offset calibration	0.9985default loss term (dB/km)	0.3790temperature slope calibration	1.0000multiplexer offset coefficient	1.0000multiplexer slope coefficient	1.0000fibre end	0.00T internal ref (°C)	23.69T ext. ref 1 (°C)	0.16T ext. ref 2 (°C)	17.20length (m)	temperature (°C)	Stokes	anti-Stokes-747.200	800.000	-0.032	-0.094
-746.185	26.054	-0.220	0.183
-745.171	94.284	-0.265	0.300
-744.156	-200.000	-0.030	0.240
-743.142	-109.557	-0.094	0.020
-742.127	-141.907	0.309	0.031
-741.112	1.413	-0.088	0.063
-740.098	-200.000	-0.005	0.045
-739.083	43.010	-0.061	-0.056
-738.069	-200.000	-0.016	0.120
-737.054	-108.355	-0.266	0.057
-736.039	-120.932	-0.156	0.026
-735.025	-129.272	0.138	-0.019
-734.010	800.000	-0.083	-0.297
-732.996	661.751	-0.060	-0.155
-731.981	381.354	0.216	-0.442
-730.966	-200.000	0.004	-0.154
-729.952	695.201	-0.033	-0.088
-728.937	800.000	0.040	-0.143
-727.923	80.345	-0.174	0.187
-726.908	33.813	-0.207	0.180
-725.894	-86.533	-0.098	0.030
-724.879	170.616	-0.073	0.105
-723.864	85.052	0.124	-0.136
-722.850	-200.000	0.006	0.074
-721.835	204.452	-0.044	-0.068
-720.821	218.278	-0.065	-0.103
-719.806	533.394	0.127	-0.300
-718.791	-139.584	-0.297	-0.032
-717.777	800.000	-0.044	-0.189
-716.762	-66.346	0.108	-0.043
-715.748	38.552	-0.075	0.067
-714.733	-78.084	-0.272	0.093
-713.718	278.472	0.093	0.165
-712.704	109.315	-0.040	0.048
-711.689	-123.792	0.197	0.031
-710.675	580.205	0.062	0.151
-709.660	800.000	-0.131	-0.371
-708.645	-114.695	-0.096	0.018
-707.631	76.849	-0.119	-0.126
-706.616	800.000	0.050	-0.169
-705.602	99.744	-0.105	-0.121
-704.587	-69.488	-0.192	-0.074
-703.572	-200.000	0.017	-0.222
-702.558	301.826	-0.035	-0.065
-701.543	-156.385	0.039	0.002
-700.529	-133.513	-0.109	0.014
-699.514	-128.764	-0.362	-0.051
-698.499	-200.000	0.086	0.448
-697.485	479.323	0.170	0.384
-696.470	238.813	0.118	0.196
-695.456	800.000	-0.075	-0.303
-694.441	103.953	0.092	0.108
-693.426	136.174	0.037	0.048
-692.412	-200.000	-0.013	0.060
-691.397	-82.643	-0.099	-0.032
-690.383	-59.796	-0.182	0.078
-689.368	-200.000	0.008	0.171
-688.354	-132.601	-0.362	-0.046
-687.339	113.607	-0.189	0.228
-686.324	-200.000	-0.063	-0.291
-685.310	-111.154	0.336	-0.069
-684.295	-115.983	0.268	-0.050
-683.281	-181.334	-0.125	0.002
-682.266	800.000	-0.077	0.302
-681.251	201.449	-0.139	0.213
-680.237	-90.201	0.245	0.071
-679.222	-156.335	-0.334	-0.021
-678.208	-82.397	-0.082	0.027
-677.193	-200.000	0.047	-0.233
-676.178	-26.547	0.105	0.061
-675.164	-58.881	0.200	0.086
-674.149	120.984	-0.241	0.298
-673.135	-0.150	0.097	0.069
-672.120	12.911	-0.147	-0.113
-671.105	65.815	-0.115	0.116
-670.091	-200.000	0.022	0.224
-669.076	38.235	0.346	0.307
-668.062	298.989	-0.075	-0.138
-667.047	132.918	0.197	0.253
-666.032	-67.847	-0.203	-0.079
-665.018	70.176	-0.144	-0.148
-664.003	-200.000	-0.001	-0.041
-662.989	-200.000	-0.006	0.101
-661.974	114.843	-0.098	-0.119
-660.959	-166.155	-0.219	-0.009
-659.945	-200.000	-0.000	-0.345
-658.930	-87.783	0.332	-0.099
-657.916	-200.000	0.022	0.121
-656.901	-64.460	0.060	-0.024
-655.886	-158.393	-0.259	0.015
-654.872	-32.950	0.318	-0.176
-653.857	-200.000	-0.016	0.175
-652.843	-38.181	0.028	0.015
-651.828	660.724	-0.125	0.322
-650.814	-98.151	-0.155	-0.040
-649.799	-62.327	-0.408	0.169
-648.784	39.688	-0.226	0.201
-647.770	337.853	0.059	0.114
-646.755	-30.064	0.092	0.052
-645.741	-67.870	0.258	0.100
-644.726	390.171	-0.146	0.301
-643.711	-55.239	-0.325	0.145
-642.697	197.841	-0.116	-0.177
-641.682	-200.000	0.006	0.122
-640.668	64.997	0.062	-0.062
-639.653	-103.156	-0.055	-0.013
-638.638	-94.680	-0.102	0.028
-637.624	-200.000	-0.014	-0.168
-636.609	-61.469	-0.412	-0.172
-635.595	-144.003	-0.284	0.027
-634.580	-200.000	0.082	0.507
-633.565	61.838	0.092	-0.091
-632.551	-112.990	-0.218	-0.043
-631.536	-28.534	-0.308	-0.176
-630.522	65.375	0.178	-0.179
-629.507	316.997	-0.191	-0.359
-628.492	-200.000	0.175	0.001
-627.478	-41.759	0.242	0.124
-626.463	-200.000	0.014	-0.107
-625.449	-34.252	0.247	0.135
-624.434	-200.000	-0.033	-0.165
-623.419	-129.272	-0.356	0.049
-622.405	-37.390	-0.236	0.125
-621.390	-125.106	0.132	0.020
-620.376	266.188	0.099	0.173
-619.361	-200.000	0.022	-0.305
-618.346	-200.000	-0.014	-0.195
-617.332	-38.230	-0.295	-0.155
-616.317	-16.512	-0.376	0.236
-615.303	-200.000	-0.009	0.158
-614.288	496.148	-0.244	0.557
-613.273	625.396	-0.125	-0.314
-612.259	276.690	0.069	-0.122
-611.244	-22.589	0.348	0.209
-610.230	-200.000	-0.034	-0.237
-609.215	-200.000	0.019	0.143
-608.201	-80.857	0.308	-0.101
-607.186	-114.512	0.240	0.046
-606.171	765.148	0.005	0.012
-605.157	36.382	-0.082	-0.072
-604.142	-200.000	0.018	0.133
-603.128	77.009	-0.173	0.183
-602.113	-116.096	-0.425	0.079
-601.098	-125.319	-0.350	0.053
-600.084	-40.236	-0.099	-0.051
-599.069	800.000	0.080	-0.225
-598.055	-48.492	-0.279	-0.133
-597.040	406.727	-0.132	0.276
-596.025	111.157	-0.201	-0.240
-595.011	-182.205	-0.120	-0.002
-593.996	-200.000	0.011	-0.150
-592.982	-134.516	0.226	0.027
-591.967	61.710	0.140	-0.139
-590.952	162.494	0.045	0.062
-589.938	289.413	-0.125	-0.225
-588.923	-163.250	0.334	0.016
-587.909	-161.992	0.147	0.007
-586.894	-82.939	0.120	-0.038
-585.879	758.590	0.055	0.149
-584.865	-13.605	0.076	0.049
-583.850	72.014	-0.027	-0.028
-582.836	-124.370	-0.415	-0.064
-581.821	-85.780	0.096	0.030
-580.806	395.683	-0.135	-0.279
-579.792	41.998	0.156	0.141
-578.777	-127.329	-0.211	-0.031
-577.763	-200.000	0.004	0.026
-576.748	800.000	-0.029	0.123
-575.733	155.964	0.042	0.058
-574.719	780.780	0.054	0.148
-573.704	-200.000	-0.010	-0.522
-572.690	-69.067	-0.045	0.017
-571.675	-64.094	0.416	-0.168
-570.661	-2.934	-0.405	0.280
-569.646	345.437	-0.122	-0.237
-568.631	536.972	0.112	-0.264
-567.617	800.000	-0.052	-0.181
-566.602	9.798	-0.166	0.125
-565.588	129.034	0.140	0.178
-564.573	226.050	0.084	-0.135
-563.558	-154.857	0.058	-0.004
-562.544	255.255	0.137	-0.232
-561.529	31.312	-0.150	0.128
-560.515	21.794	-0.348	-0.281
-559.500	-200.000	-0.040	-0.241
-558.485	-111.271	0.370	0.075
-557.471	-10.751	0.229	-0.150
-556.456	559.514	0.082	0.196
-555.442	83.741	-0.232	0.251
-554.427	563.184	-0.118	0.283
-553.412	-164.282	-0.135	-0.006
-552.398	107.383	0.111	0.131
-551.383	-185.209	-0.478	0.007
-550.369	-200.000	-0.012	0.193
-549.354	84.820	-0.122	0.132
-548.339	-106.082	-0.261	-0.058
-547.325	-30.277	-0.169	0.095
-546.310	-64.832	0.302	0.121
-545.296	800.000	-0.047	-0.140
-544.281	-109.941	0.156	-0.032
-543.266	180.823	-0.041	0.060
-542.252	200.164	-0.110	-0.167
-541.237	-0.856	-0.196	0.138
-540.223	24.044	0.238	-0.194
-539.208	62.583	0.193	0.191
-538.193	-129.210	0.094	-0.013
-537.179	-91.200	0.384	-0.109
-536.164	-28.564	0.183	0.104
-535.150	-200.000	0.012	-0.187
-534.135	226.481	0.098	-0.158
-533.121	-98.085	-0.319	-0.081
-532.106	-200.000	-0.001	-0.112
-531.091	800.000	0.097	-0.333
-530.077	-120.391	-0.173	-0.029
-529.062	372.372	0.042	-0.085
-528.048	16.838	-0.219	-0.172
-527.033	-12.580	0.223	-0.144
-526.018	-119.523	0.241	0.041
-525.004	188.741	-0.097	0.143
-523.989	229.786	0.173	-0.279
-522.975	-77.981	0.061	-0.021
-521.960	5.142	0.240	-0.175
-520.945	154.513	0.172	-0.233
-519.931	800.000	0.029	-0.097
-518.916	-200.000	-0.017	0.142
-517.902	-30.921	0.249	0.139
-516.887	-85.839	-0.106	-0.032
-515.872	83.931	0.019	0.020
-514.858	-200.000	0.033	-0.158
-513.843	-200.000	0.035	0.387
-512.829	-12.633	0.146	0.094
-511.814	-153.595	-0.193	0.013
-510.799	136.694	0.075	-0.097
-509.785	800.000	-0.055	-0.176
-508.770	800.000	-0.054	0.217
-507.756	-2.411	-0.199	-0.138
-506.741	-165.267	-0.192	0.008
-505.726	-121.032	0.082	-0.014
-504.712	-93.563	0.038	-0.010
-503.697	-200.000	0.009	0.090
-502.683	391.861	-0.077	0.159
-501.668	154.004	0.185	0.251
-500.653	81.641	-0.079	0.084
-499.639	13.693	-0.257	0.197
-498.624	798.977	-0.107	-0.291
-497.610	800.000	-0.062	0.181
-496.595	89.038	-0.090	0.099
-495.581	-39.120	-0.346	-0.180
-494.566	493.363	0.165	-0.375
-493.551	79.161	-0.162	0.172
-492.537	-200.000	0.033	-0.163
-491.522	78.917	0.211	-0.224
-490.508	582.006	0.171	-0.414
-489.493	-200.000	0.006	-0.274
-488.478	-200.000	-0.008	-0.318
-487.464	15.112	-0.219	0.170
-486.449	-84.323	0.136	-0.042
-485.435	800.000	0.077	0.211
-484.420	-19.201	-0.333	-0.204
-483.405	263.611	0.127	0.218
-482.391	-117.019	0.289	0.052
-481.376	63.233	0.031	-0.031
-480.362	40.464	-0.267	0.237
-479.347	-25.882	0.130	0.076
-478.332	307.930	-0.118	0.217
-477.318	-42.546	0.174	0.088
-476.303	-156.984	-0.335	0.020
-475.289	-126.907	0.056	-0.008
-474.274	-51.168	0.105	0.049
-473.259	127.265	0.032	-0.040
-472.245	-200.000	-0.061	-0.464
-471.230	-14.766	0.209	0.133
-470.216	-2.937	0.075	-0.052
-469.201	597.073	-0.069	-0.169
-468.186	251.100	0.158	0.265
-467.172	-84.247	-0.199	-0.062
-466.157	-160.210	-0.168	-0.009
-465.143	73.629	0.329	-0.341
-464.128	-53.742	-0.212	-0.096
-463.113	-144.627	-0.140	-0.013
-462.099	126.138	0.157	-0.196
-461.084	35.602	0.179	0.155
-460.070	18.845	0.041	0.033
-459.055	41.258	0.424	-0.379
-458.040	800.000	0.060	-0.217
-457.026	-116.679	-0.279	0.051
-456.011	-200.000	0.076	-0.380
-454.997	-72.160	-0.190	0.070
-453.982	-72.505	0.140	0.051
-452.968	-12.820	-0.143	-0.092
-451.953	-45.908	-0.112	0.054
-450.938	13.361	0.257	-0.196
-449.924	-200.000	0.029	0.201
-448.909	20.887	-0.153	-0.122
-447.895	-76.470	-0.051	-0.018
-446.880	-200.000	-0.049	0.254
-445.865	-200.000	0.017	0.277
-444.851	-115.465	0.172	-0.032
-443.836	-99.394	-0.089	0.022
-442.822	-200.000	-0.005	0.036
-441.807	800.000	0.105	-0.307
-440.792	-150.357	-0.320	0.024
-439.778	-200.000	-0.002	0.356
-438.763	27.384	-0.094	0.078
-437.749	606.639	-0.073	-0.181
-436.734	-124.038	0.217	0.034
-435.719	6.178	0.051	0.038
-434.705	-200.000	0.021	-0.110
-433.690	-124.597	-0.230	0.035
-432.676	67.173	-0.129	0.130
-431.661	729.111	0.022	-0.058
-430.646	-129.866	0.039	0.005
-429.632	800.000	0.049	-0.200
-428.617	19.611	-0.010	-0.008
-427.603	-200.000	-0.026	-0.425
-426.588	10.209	0.275	-0.206
-425.573	-100.876	-0.062	-0.015
-424.559	220.174	-0.104	-0.165
-423.544	800.000	0.101	-0.320
-422.530	-200.000	0.002	0.160
-421.515	-44.319	0.143	0.071
-420.500	800.000	0.045	0.162
-419.486	154.487	-0.120	-0.163
-418.471	-137.237	0.253	0.028
-417.457	-200.000	0.024	-0.179
-416.442	-78.806	0.192	-0.065
-415.428	403.564	-0.166	-0.344
-414.413	545.735	-0.094	-0.222
-413.398	603.346	0.141	-0.345
-412.384	567.083	0.192	0.459
-411.369	2.946	0.164	0.118
-410.355	-200.000	0.012	0.261
-409.340	236.873	-0.049	0.080
-408.325	800.000	-0.093	-0.297
-407.311	75.279	0.079	-0.082
-406.296	127.348	0.207	-0.259
-405.282	526.365	0.055	0.127
-404.267	-36.695	0.121	0.064
-403.252	-200.000	-0.048	0.254
-402.238	-118.607	-0.087	0.015
-401.223	299.280	0.261	0.473
-400.209	512.097	-0.160	0.367
-399.194	25.281	-0.283	0.231
-398.179	108.391	-0.180	-0.211
-397.165	800.000	-0.041	-0.141
-396.150	32.354	0.210	-0.179
-395.136	-200.000	0.003	0.206
-394.121	129.400	-0.077	-0.097
-393.106	-200.000	-0.041	0.350
-392.092	15.437	0.194	0.150
-391.077	242.051	0.188	-0.310
-390.063	-97.230	-0.169	0.043
-389.048	-190.693	0.162	-0.002
-388.033	-98.691	0.222	-0.056
-387.019	269.978	-0.014	0.025
-386.004	73.916	0.145	-0.150
-384.990	-77.663	-0.114	0.039
-383.975	211.112	-0.113	-0.175
-382.960	-200.000	0.037	0.289
-381.946	-22.779	-0.235	0.140
-380.931	-171.267	-0.119	-0.004
-379.917	148.288	-0.088	0.117
-378.902	-34.178	-0.256	0.138
-377.888	84.850	-0.238	-0.257
-376.873	220.741	0.070	-0.111
-375.858	561.526	0.129	0.307
-374.844	800.000	-0.061	-0.239
-373.829	-22.069	0.071	0.043
-372.815	52.307	-0.254	-0.238
-371.800	-62.860	-0.367	-0.149
-370.785	242.138	0.092	-0.152
-369.771	800.000	-0.102	-0.354
-368.756	-200.000	0.010	0.046
-367.742	-89.767	0.212	0.061
-366.727	-122.619	0.353	0.056
-365.712	-139.686	-0.205	-0.022
-364.698	-83.949	-0.136	-0.043
-363.683	-131.041	-0.270	-0.035
-362.669	60.512	-0.086	-0.084
-361.654	-183.620	0.158	0.003
-360.639	365.277	-0.082	-0.162
-359.625	457.274	-0.083	-0.182
-358.610	-200.000	-0.010	-0.228
-357.596	-37.386	-0.238	-0.125
-356.581	-10.199	0.192	0.126
-355.566	49.589	0.144	-0.134
-354.552	86.411	0.168	0.182
-353.537	800.000	0.012	-0.050
-352.523	-106.420	0.027	0.006
-351.508	-89.339	-0.139	0.040
-350.493	508.882	0.038	0.086
-349.479	-100.114	-0.294	-0.072
-348.464	125.328	0.201	0.250
-347.450	-116.987	-0.176	-0.032
-346.435	70.399	-0.176	0.179
-345.420	-200.000	0.004	-0.062
-344.406	438.638	0.133	0.286
-343.391	43.746	0.124	-0.112
-342.377	-40.787	-0.309	-0.157
-341.362	-170.449	0.341	0.012
-340.348	-200.000	0.027	-0.123
-339.333	-179.939	0.162	-0.003
-338.318	-176.805	0.169	-0.004
-337.304	-155.294	0.316	-0.020
-336.289	-9.750	0.339	0.222
-335.275	34.390	-0.150	-0.129
-334.260	-82.394	0.131	0.042
-333.245	-147.888	0.118	-0.010
-332.231	20.916	-0.162	-0.129
-331.216	146.397	0.073	0.096
-330.202	398.758	0.029	-0.060
-329.187	-85.766	-0.271	0.083
-328.172	-200.000	0.038	-0.205
-327.158	97.701	0.088	0.100
-326.143	525.820	0.057	0.132
-325.129	800.000	-0.019	-0.054
-324.114	800.000	-0.099	0.293
-323.099	-19.372	-0.101	0.062
-322.085	-200.000	0.060	0.349
-321.070	-13.772	-0.018	-0.011
-320.056	-50.451	0.211	-0.098
-319.041	800.000	0.065	-0.183
-318.026	-200.000	-0.048	0.223
-317.012	-126.351	-0.347	0.051
-315.997	46.983	-0.089	-0.081
-314.983	158.636	-0.082	-0.112
-313.968	345.751	-0.093	0.180
-312.953	-37.772	-0.039	0.021
-311.939	25.641	0.214	-0.175
-310.924	800.000	0.047	-0.138
-309.910	-110.500	-0.057	-0.012
-308.895	800.000	-0.039	-0.123
-307.880	403.951	0.045	0.093
-306.866	-95.749	-0.139	-0.036
-305.851	-159.718	0.163	-0.009
-304.837	-129.081	0.339	0.047
-303.822	36.965	-0.228	-0.198
-302.807	-139.030	-0.273	-0.029
-301.793	-158.927	-0.142	0.008
-300.778	40.163	0.241	0.212
-299.764	-43.067	0.260	-0.129
-298.749	58.441	0.119	-0.115
-297.735	644.460	0.189	0.474
-296.720	-200.000	0.000	0.049
-295.705	-35.074	-0.136	0.073
-294.691	36.927	0.111	-0.096
-293.676	-28.738	0.174	0.098
-292.662	-90.877	-0.362	0.102
-291.647	-200.000	0.033	0.165
-290.632	-179.829	-0.176	-0.004
-289.618	686.978	0.114	0.291
-288.603	800.000	-0.054	0.173
-287.589	54.515	0.258	-0.244
-286.574	453.607	0.057	-0.124
-285.559	800.000	0.103	0.287
-284.545	-9.719	0.189	-0.123
-283.530	-148.429	0.185	0.015
-282.516	527.664	0.037	-0.086
-281.501	315.652	0.092	-0.169
-280.486	-172.746	0.251	-0.008
-279.472	-71.608	-0.474	-0.174
-278.457	-72.919	-0.148	-0.053
-277.443	136.555	-0.189	0.242
-276.428	659.815	0.069	0.174
-275.413	27.880	0.233	-0.193
-274.399	607.106	0.129	-0.316
-273.384	10.920	0.172	0.129
-272.370	-158.592	0.215	-0.012
-271.355	81.095	-0.254	-0.269
-270.340	-22.930	0.244	-0.144
-269.326	-83.707	0.123	0.038
-268.311	99.177	0.184	0.209
-267.297	-162.701	0.208	-0.010
-266.282	183.532	-0.052	0.076
-265.267	19.851	-0.114	-0.090
-264.253	386.208	0.065	-0.131
-263.238	800.000	-0.082	0.274
-262.224	81.698	0.160	0.169
-261.209	-200.000	0.054	-0.245
-260.195	104.592	-0.187	-0.215
-259.180	-142.827	-0.281	0.027
-258.165	-76.462	-0.049	0.017
-257.151	28.448	-0.097	0.080
-256.136	-82.287	-0.034	-0.011
-255.122	320.947	-0.219	-0.408
-254.107	-156.039	0.167	0.010
-253.092	-83.970	0.171	-0.053
-252.078	7.371	0.332	-0.243
-251.063	288.332	-0.100	-0.177
-250.049	-200.000	0.000	-0.287
-249.034	-200.000	-0.020	0.302
-248.019	800.000	0.033	-0.098
-247.005	800.000	0.075	0.217
-245.990	-83.394	0.181	-0.057
-244.976	-100.339	-0.409	0.099
-243.961	258.947	0.148	0.250
-242.946	46.691	0.302	0.275
-241.932	-91.232	-0.318	-0.089
-240.917	-129.178	-0.166	0.023
-239.903	800.000	-0.018	-0.073
-238.888	43.414	0.138	0.123
-237.873	72.475	-0.172	0.176
-236.859	-75.779	0.151	0.052
-235.844	800.000	-0.065	-0.182
-234.830	-51.118	-0.378	-0.174
-233.815	161.603	0.163	0.224
-232.800	260.601	-0.187	-0.317
-231.786	163.851	-0.136	0.187
-230.771	33.464	-0.162	0.138
-229.757	-200.000	-0.017	0.124
-228.742	174.631	0.158	0.224
-227.727	-64.017	-0.121	-0.048
-226.713	-200.000	0.012	-0.199
-225.698	53.180	-0.212	0.199
-224.684	-121.941	0.202	-0.033
-223.669	100.913	-0.220	0.250
-222.655	-42.725	0.170	0.085
-221.640	127.441	-0.071	0.088
-220.625	145.580	0.197	-0.258
-219.611	463.214	-0.189	-0.413
-218.596	149.352	0.070	0.093
-217.582	-12.177	0.222	-0.142
-216.567	-84.983	0.132	0.040
-215.552	-67.322	-0.193	-0.074
-214.538	-152.737	0.447	-0.031
-213.523	-200.000	0.010	0.200
-212.509	800.000	-0.027	0.092
-211.494	285.826	-0.053	-0.094
-210.479	-146.373	0.181	0.016
-209.465	27.879	-0.076	0.063
-208.450	51.526	-0.188	0.175
-207.436	95.003	0.156	-0.174
-206.421	732.021	0.148	-0.386
-205.406	-200.000	-0.070	0.532
-204.392	-200.000	0.018	0.181
-203.377	-200.000	0.010	0.046
-202.363	-82.523	0.566	-0.180
-201.348	-88.786	-0.414	-0.120
-200.333	-127.251	0.206	0.029
-199.319	-85.671	-0.161	-0.049
-198.304	173.169	-0.143	0.202
-197.290	-200.000	0.023	0.149
-196.275	85.998	0.257	0.276
-195.260	-64.266	0.232	-0.092
-194.246	252.526	-0.059	-0.099
-193.231	89.777	-0.065	0.071
-192.217	-60.835	-0.451	0.186
-191.202	800.000	-0.082	0.313
-190.187	145.884	0.106	0.138
-189.173	48.646	-0.115	-0.105
-188.158	800.000	0.175	-0.496
-187.144	20.998	0.165	0.131
-186.129	168.637	-0.081	0.112
-185.114	-138.954	-0.200	-0.021
-184.100	800.000	-0.071	0.229
-183.085	217.866	-0.111	0.173
-182.071	800.000	0.025	-0.089
-181.056	-123.854	-0.139	-0.021
-180.042	-104.819	0.306	0.069
-179.027	179.452	-0.271	0.388
-178.012	15.297	-0.080	-0.061
-176.998	238.156	0.099	0.161
-175.983	-30.999	-0.089	0.049
-174.969	-85.618	0.386	0.117
-173.954	-157.230	-0.029	-0.002
-172.939	-83.714	0.205	0.064
-171.925	800.000	0.017	-0.065
-170.910	213.958	0.184	-0.285
-169.896	666.880	-0.110	-0.279
-168.881	9.236	0.337	0.249
-167.866	584.659	-0.038	-0.092
-166.852	-200.000	0.012	0.073
-165.837	-59.398	0.120	0.050
-164.823	120.058	-0.057	0.069
-163.808	114.838	0.129	0.154
-162.793	544.225	0.084	0.197
-161.779	-172.075	-0.238	0.007
-160.764	-107.537	0.087	0.019
-159.750	-200.000	0.007	0.441
-158.735	-200.000	-0.037	-0.177
-157.720	141.867	0.279	0.361
-156.706	800.000	0.059	0.159
-155.691	-196.000	0.117	-0.001
-154.677	383.255	0.178	0.357
-153.662	92.256	-0.268	0.295
-152.647	74.017	0.244	-0.249
-151.633	173.098	-0.337	0.474
-150.618	249.729	0.229	0.380
-149.604	-89.438	-0.422	0.121
-148.589	800.000	0.036	-0.111
-147.574	-81.329	0.190	0.061
-146.560	272.233	0.105	0.180
-145.545	55.388	-0.113	0.107
-144.531	137.845	-0.135	0.172
-143.516	-5.482	0.063	0.042
-142.502	-122.442	0.226	-0.036
-141.487	291.766	-0.037	0.066
-140.472	276.065	-0.056	0.097
-139.458	-152.828	0.246	-0.017
-138.443	-200.000	-0.023	-0.169
-137.429	380.384	-0.127	-0.253
-136.414	-86.568	0.232	0.069
-135.399	182.184	-0.075	0.108
-134.385	268.148	0.155	0.265
-133.370	65.954	-0.356	0.352
-132.356	800.000	-0.068	-0.235
-131.341	86.507	0.285	0.306
-130.326	434.299	-0.053	0.112
-129.312	-37.934	0.216	0.112
-128.297	-200.000	-0.014	-0.124
-127.283	392.778	0.122	0.247
-126.268	115.376	0.128	0.152
-125.253	-114.117	-0.026	-0.005
-124.239	-65.753	0.137	-0.054
-123.224	207.747	0.083	0.127
-122.210	800.000	0.044	0.133
-121.195	250.321	-0.076	0.126
