DTS Sentinel unit serial number:	SN413079Multiplexer serial number:	ORYXHardware model number:	OX4-SRSoftware version number:	ORYX F/W v4.00 Oryx Data Collector v3.7.2.0data status	okinstallation	princeton_trtdifferential loss correction	single-endedforward channel	channel 2reverse channel	N/Adate	2019/09/11time	22:01:10forward acquisition time	60.00reverse acquisition time	0.00gamma	496.2192k internal	0.2324k external	0.2324temperature offset calibration	1.0072default loss term (dB/km)	0.3790temperature slope calibration	1.0000multiplexer offset coefficient	1.0000multiplexer slope coefficient	1.0000fibre end	0.00T internal ref (°C)	35.50T ext. ref 1 (°C)	1.76T ext. ref 2 (°C)	29.50length (m)	temperature (°C)	Stokes	anti-Stokes-747.200	-112.599	0.401	0.081
-746.185	115.021	-0.161	0.198
-745.171	570.065	0.070	-0.173
-744.156	627.172	-0.112	0.284
-743.142	-76.291	0.081	0.029
-742.127	115.582	0.055	0.068
-741.112	800.000	-0.059	-0.232
-740.098	-107.448	-0.161	0.036
-739.083	-17.370	0.198	0.126
-738.069	-200.000	0.008	-0.110
-737.054	569.532	0.073	-0.178
-736.039	154.885	-0.162	0.224
-735.025	67.648	0.135	-0.139
-734.010	-32.037	-0.189	-0.107
-732.996	-200.000	-0.025	0.128
-731.981	800.000	0.023	-0.072
-730.966	-200.000	0.221	-0.001
-729.952	188.799	-0.106	-0.159
-728.937	202.351	-0.072	-0.111
-727.923	193.307	0.065	0.099
-726.908	-91.196	-0.088	0.026
-725.894	800.000	-0.055	0.186
-724.879	73.204	-0.255	0.269
-723.864	33.512	0.118	-0.103
-722.850	-200.000	-0.001	0.035
-721.835	-103.469	0.382	0.091
-720.821	38.959	0.077	-0.069
-719.806	-200.000	-0.060	-0.429
-718.791	598.377	-0.136	-0.340
-717.777	262.645	0.124	-0.218
-716.762	536.449	-0.060	-0.145
-715.748	541.551	0.135	-0.325
-714.733	183.896	0.210	-0.314
-713.718	27.622	-0.168	-0.142
-712.704	205.353	-0.140	-0.220
-711.689	65.872	0.016	0.016
-710.675	-64.576	0.339	0.139
-709.660	-200.000	-0.006	-0.117
-708.645	91.779	-0.142	-0.161
-707.631	-200.000	0.009	0.195
-706.616	-200.000	-0.034	-0.267
-705.602	-55.321	0.124	-0.056
-704.587	-34.496	0.155	-0.085
-703.572	-44.180	0.202	0.102
-702.558	-200.000	-0.032	-0.217
-701.543	99.380	-0.014	0.016
-700.529	70.924	-0.066	-0.069
-699.514	800.000	0.100	-0.326
-698.499	162.973	-0.093	0.132
-697.485	800.000	0.106	0.413
-696.470	-200.000	0.027	-0.121
-695.456	-137.741	0.082	0.009
-694.441	-43.100	-0.256	0.131
-693.426	167.857	0.067	0.096
-692.412	-200.000	-0.034	0.231
-691.397	-36.428	-0.119	0.064
-690.383	-200.000	0.009	-0.090
-689.368	-81.552	0.178	0.059
-688.354	-200.000	-0.000	-0.135
-687.339	263.837	-0.117	-0.206
-686.324	-70.934	0.195	-0.074
-685.310	68.978	-0.196	-0.203
-684.295	-17.654	-0.049	-0.031
-683.281	-200.000	0.030	0.307
-682.266	199.856	0.105	-0.162
-681.251	-37.410	0.225	0.121
-680.237	-200.000	0.008	-0.176
-679.222	-42.027	-0.097	0.050
-678.208	-200.000	0.010	0.133
-677.193	-200.000	-0.007	-0.084
-676.178	89.725	0.135	0.152
-675.164	15.593	-0.118	0.093
-674.149	-33.334	0.061	0.034
-673.135	45.309	-0.086	0.080
-672.120	-99.884	-0.217	0.054
-671.105	-16.598	0.180	-0.115
-670.091	62.485	-0.308	0.310
-669.076	381.337	0.192	-0.396
-668.062	-107.943	0.059	-0.013
-667.047	110.155	0.088	0.106
-666.032	-164.278	0.277	0.013
-665.018	506.411	-0.083	-0.194
-664.003	-54.641	0.040	-0.018
-662.989	2.384	-0.178	0.129
-661.974	-108.374	-0.259	-0.056
-660.959	-200.000	-0.024	-0.359
-659.945	64.662	0.189	0.192
-658.930	-200.000	0.007	0.245
-657.916	-44.641	-0.153	-0.077
-656.901	800.000	0.136	-0.523
-655.886	-122.432	0.110	-0.018
-654.872	-165.933	-0.392	0.017
-653.857	69.750	0.173	-0.180
-652.843	-132.648	-0.076	-0.010
-651.828	-25.600	0.358	0.212
-650.814	-19.389	0.280	-0.174
-649.799	186.769	-0.142	0.212
-648.784	-121.879	-0.220	-0.037
-647.770	124.364	0.133	-0.169
-646.755	490.836	-0.119	-0.275
-645.741	-61.613	-0.096	-0.040
-644.726	-171.405	0.079	0.003
-643.711	-7.510	-0.031	-0.021
-642.697	-86.059	0.311	-0.097
-641.682	-144.444	-0.393	0.037
-640.668	800.000	0.060	-0.181
-639.653	-200.000	0.006	0.130
-638.638	-11.934	-0.150	-0.099
-637.624	228.169	0.023	-0.037
-636.609	121.783	0.190	-0.238
-635.595	-118.577	0.113	0.020
-634.580	350.573	0.127	-0.252
-633.565	-68.865	-0.112	-0.043
-632.551	-200.000	0.044	0.237
-631.536	-165.458	-0.319	0.014
-630.522	-92.891	0.069	0.019
-629.507	255.859	0.080	-0.137
-628.492	-168.806	-0.113	0.004
-627.478	-200.000	-0.027	-0.176
-626.463	-200.000	0.034	-0.324
-625.449	-146.436	0.313	0.027
-624.434	-5.641	-0.082	-0.057
-623.419	-200.000	-0.002	0.121
-622.405	248.936	-0.119	0.203
-621.390	-41.570	-0.154	-0.080
-620.376	-200.000	0.021	-0.318
-619.361	45.973	-0.384	-0.357
-618.346	-126.810	-0.106	-0.016
-617.332	275.775	0.124	-0.222
-616.317	-16.680	-0.249	-0.158
-615.303	-200.000	-0.026	0.132
-614.288	-131.725	0.262	0.035
-613.273	44.392	-0.094	-0.087
-612.259	-125.641	-0.116	0.018
-611.244	79.203	0.035	-0.038
-610.230	-4.752	0.492	-0.341
-609.215	-32.346	-0.062	-0.035
-608.201	377.842	0.155	0.317
-607.186	800.000	0.074	0.243
-606.171	799.917	-0.091	-0.252
-605.157	80.762	0.265	-0.286
-604.142	800.000	0.014	0.046
-603.128	83.813	-0.061	0.067
-602.113	-30.145	-0.157	0.090
-601.098	-94.071	0.426	0.117
-600.084	38.195	0.220	-0.197
-599.069	-28.744	-0.196	-0.113
-598.055	-200.000	0.004	0.292
-597.040	357.133	0.128	0.257
-596.025	-200.000	0.042	-0.210
-595.011	-200.000	0.012	0.055
-593.996	-24.573	-0.146	-0.087
-592.982	-200.000	-0.083	0.765
-591.967	-116.711	0.201	0.037
-590.952	9.428	-0.194	0.147
-589.938	296.391	-0.147	-0.271
-588.923	-58.104	0.075	-0.033
-587.909	279.640	-0.171	-0.306
-586.894	800.000	0.023	-0.073
-585.879	184.995	0.172	-0.256
-584.865	723.535	0.020	-0.054
-583.850	-200.000	-0.032	0.223
-582.836	-38.712	0.270	-0.143
-581.821	-52.140	0.493	-0.229
-580.806	-85.104	-0.335	0.105
-579.792	328.986	-0.213	0.410
-578.777	-124.843	-0.194	-0.030
-577.763	-200.000	0.069	-0.350
-576.748	-88.965	0.300	-0.089
-575.733	800.000	0.081	-0.275
-574.719	137.657	0.164	-0.215
-573.704	-200.000	0.052	0.274
-572.690	800.000	0.057	0.228
-571.675	102.374	0.241	-0.282
-570.661	-103.927	0.093	-0.022
-569.646	-31.071	-0.118	-0.066
-568.631	-81.110	0.318	-0.105
-567.617	25.140	0.046	-0.038
-566.602	165.920	0.243	0.345
-565.588	-60.767	-0.126	0.053
-564.573	367.815	0.130	0.264
-563.558	707.605	0.120	-0.318
-562.544	16.775	-0.201	-0.159
-561.529	-157.107	-0.202	-0.012
-560.515	-72.152	-0.102	-0.038
-559.500	238.200	0.183	0.305
-558.485	723.180	0.137	0.366
-557.471	-166.484	-0.244	0.010
-556.456	-94.258	0.248	-0.068
-555.442	-79.480	-0.121	0.041
-554.427	538.853	0.059	-0.141
-553.412	-200.000	0.021	0.119
-552.398	-16.033	-0.252	-0.161
-551.383	-200.000	0.007	-0.109
-550.369	-118.065	0.401	0.072
-549.354	187.994	0.041	-0.062
-548.339	379.335	0.069	0.141
-547.325	642.897	0.013	0.033
-546.310	-108.127	-0.440	0.095
-545.296	486.895	0.030	0.069
-544.281	-37.365	0.355	0.190
-543.266	20.192	-0.039	-0.031
-542.252	363.148	0.075	0.150
-541.237	800.000	-0.063	0.190
-540.223	-70.919	-0.043	0.016
-539.208	149.302	-0.183	0.248
-538.193	-125.038	-0.047	-0.007
-537.179	-200.000	-0.044	0.215
-536.164	-141.739	-0.098	-0.010
-535.150	-200.000	-0.025	0.123
-534.135	-56.362	-0.173	-0.077
-533.121	800.000	-0.021	-0.068
-532.106	3.661	0.298	0.217
-531.091	-161.344	0.250	-0.013
-530.077	-95.964	0.291	0.077
-529.062	217.293	-0.090	-0.144
-528.048	626.760	-0.135	-0.341
-527.033	152.368	0.040	0.054
-526.018	-200.000	0.013	-0.215
-525.004	-112.787	0.339	-0.067
-523.989	111.147	-0.180	-0.217
-522.975	-83.965	-0.164	-0.052
-521.960	99.521	-0.129	-0.150
-520.945	-200.000	-0.051	0.306
-519.931	-200.000	-0.067	-0.298
-518.916	438.388	-0.071	0.154
-517.902	-165.469	0.266	0.012
-516.887	193.915	-0.273	-0.413
-515.872	-99.939	0.024	-0.006
-514.858	77.419	0.221	-0.235
-513.843	-63.339	-0.091	-0.037
-512.829	81.742	-0.088	0.096
-511.814	-10.307	0.284	0.188
-510.799	800.000	-0.066	-0.288
-509.785	150.181	-0.106	0.144
-508.770	-200.000	-0.039	0.311
-507.756	800.000	0.087	-0.362
-506.741	381.532	-0.034	-0.070
-505.726	-86.687	-0.182	0.056
-504.712	-17.725	-0.225	0.141
-503.697	131.570	-0.069	-0.089
-502.683	-200.000	-0.000	-0.086
-501.668	800.000	0.047	-0.132
-500.653	421.450	-0.096	0.207
-499.639	65.195	-0.146	-0.148
-498.624	-159.987	0.204	-0.011
-497.610	330.898	-0.138	-0.266
-496.595	-118.794	0.276	0.049
-495.581	142.177	-0.175	0.232
-494.566	-98.846	0.268	0.068
-493.551	-56.414	-0.217	-0.096
-492.537	172.403	-0.160	0.230
-491.522	191.990	0.208	-0.314
-490.508	35.035	0.292	0.255
-489.493	-76.754	-0.115	-0.040
-488.478	-156.202	-0.229	-0.014
-487.464	-117.224	-0.161	-0.029
-486.449	-200.000	0.059	-0.363
-485.435	-200.000	-0.011	-0.185
-484.420	-6.739	-0.214	0.145
-483.405	-200.000	0.088	0.421
-482.391	245.786	-0.094	0.158
-481.376	196.708	0.162	-0.247
-480.362	160.340	0.112	-0.156
-479.347	233.235	0.161	-0.265
-478.332	800.000	-0.048	-0.166
-477.318	-200.000	-0.007	-0.536
-476.303	-120.774	-0.250	0.042
-475.289	-74.469	-0.384	0.138
-474.274	-200.000	-0.071	0.487
-473.259	800.000	0.042	0.142
-472.245	-77.783	-0.248	-0.086
-471.230	-82.311	0.345	0.112
-470.216	800.000	0.086	0.338
-469.201	-20.593	-0.058	0.035
-468.186	-200.000	0.023	-0.212
-467.172	665.976	0.054	0.140
-466.157	263.266	0.085	-0.148
-465.143	800.000	-0.066	0.284
-464.128	4.352	-0.092	-0.068
-463.113	-123.163	0.136	-0.022
-462.099	-150.569	0.177	-0.014
-461.084	-58.267	-0.183	-0.080
-460.070	333.901	-0.059	0.113
-459.055	-109.054	-0.459	0.097
-458.040	107.877	-0.038	-0.045
-457.026	-42.648	-0.224	-0.114
-456.011	720.593	-0.077	0.203
-454.997	-168.259	0.340	0.013
-453.982	130.749	0.192	-0.245
-452.968	-104.233	0.114	0.026
-451.953	111.076	0.173	-0.207
-450.938	800.000	-0.032	-0.126
-449.924	-63.181	-0.304	0.125
-448.909	5.182	-0.345	0.253
-447.895	-200.000	-0.002	-0.212
-446.880	23.656	0.337	0.277
-445.865	-38.733	0.181	0.095
-444.851	250.130	-0.003	-0.006
-443.836	-86.099	-0.280	-0.086
-442.822	443.172	-0.166	-0.363
-441.807	-200.000	-0.029	-0.158
-440.792	-200.000	-0.005	-0.041
-439.778	-108.521	0.107	-0.023
-438.763	76.394	0.138	-0.146
-437.749	-75.122	0.113	-0.040
-436.734	-200.000	-0.077	-0.428
-435.719	-200.000	0.041	-0.201
-434.705	-59.093	-0.172	-0.074
-433.690	405.123	0.083	-0.175
-432.676	-58.486	0.132	-0.057
-431.661	-0.975	0.137	-0.096
-430.646	-83.281	0.179	-0.057
-429.632	-38.701	0.168	0.088
-428.617	147.584	-0.077	-0.103
-427.603	-13.222	-0.202	0.131
-426.588	704.942	0.038	0.099
-425.573	-1.468	0.176	0.124
-424.559	-200.000	-0.013	0.207
-423.544	-200.000	0.021	-0.232
-422.530	54.769	-0.316	0.304
-421.515	28.012	-0.150	0.126
-420.500	-47.620	-0.177	-0.086
-419.486	-132.813	0.068	-0.009
-418.471	800.000	0.076	-0.277
-417.457	152.378	-0.102	-0.138
-416.442	-124.214	-0.408	-0.064
-415.428	-200.000	0.009	0.075
-414.413	-200.000	0.135	0.000
-413.398	293.814	0.045	0.082
-412.384	-177.833	-0.370	-0.009
-411.369	-124.638	0.045	-0.007
-410.355	-200.000	0.013	-0.171
-409.340	-84.238	0.087	0.027
-408.325	800.000	0.065	-0.207
-407.311	16.747	0.111	-0.088
-406.296	160.254	0.063	0.088
-405.282	-66.820	-0.230	-0.091
-404.267	-67.957	0.289	-0.113
-403.252	-97.575	-0.137	-0.035
-402.238	104.103	0.132	0.155
-401.223	85.373	0.153	0.167
-400.209	-200.000	0.010	-0.172
-399.194	141.779	-0.109	-0.144
-398.179	-200.000	0.012	0.076
-397.165	800.000	-0.118	0.383
-396.150	-152.261	-0.261	-0.019
-395.136	536.296	-0.133	-0.314
-394.121	482.955	0.108	-0.244
-393.106	199.030	-0.130	-0.198
-392.092	-59.189	-0.195	-0.084
-391.077	140.057	0.177	0.232
-390.063	-59.398	0.207	-0.089
-389.048	-200.000	0.013	0.116
-388.033	154.447	-0.092	-0.126
-387.019	-36.882	0.070	-0.037
-386.004	-36.434	-0.033	-0.018
-384.990	-142.970	0.320	0.031
-383.975	-19.227	0.117	-0.072
-382.960	9.424	-0.151	0.113
-381.946	70.310	0.182	0.187
-380.931	129.930	-0.310	0.395
-379.917	295.000	-0.106	0.193
-378.902	-200.000	-0.017	-0.152
-377.888	113.853	-0.028	-0.034
-376.873	123.679	0.129	-0.161
-375.858	-200.000	0.061	-0.321
-374.844	-44.318	0.232	0.116
-373.829	796.280	0.098	-0.267
-372.815	-200.000	-0.007	-0.229
-371.800	30.970	-0.215	-0.183
-370.785	-0.998	-0.111	0.078
-369.771	-200.000	0.024	-0.226
-368.756	-200.000	0.016	-0.135
-367.742	-200.000	0.006	0.199
-366.727	-125.470	-0.504	-0.076
-365.712	-10.870	-0.186	0.122
-364.698	-74.424	-0.134	-0.048
-363.683	-200.000	0.007	0.185
-362.669	-200.000	-0.040	0.212
-361.654	143.171	0.128	-0.169
-360.639	800.000	-0.040	-0.142
-359.625	-60.287	-0.209	0.088
-358.610	800.000	0.062	0.214
-357.596	800.000	0.036	-0.137
-356.581	-36.470	0.148	0.079
-355.566	-38.986	-0.138	0.072
-354.552	-200.000	-0.042	0.279
-353.537	-200.000	-0.079	0.367
-352.523	-70.602	0.129	0.048
-351.508	-200.000	0.037	-0.452
-350.493	50.653	-0.024	0.023
-349.479	-166.769	-0.190	-0.008
-348.464	-76.828	0.295	0.103
-347.450	98.803	0.107	0.122
-346.435	-200.000	0.017	0.276
-345.420	148.152	-0.127	0.170
-344.406	-24.180	0.303	0.180
-343.391	324.254	0.100	0.189
-342.377	-200.000	-0.031	0.212
-341.362	-127.128	0.244	-0.036
-340.348	-78.498	0.284	-0.097
-339.333	-114.801	0.143	0.027
-338.318	256.246	0.267	0.455
-337.304	-200.000	-0.014	0.211
-336.289	173.643	-0.046	0.065
-335.275	800.000	-0.097	0.306
-334.260	-29.312	-0.205	0.117
-333.245	-169.828	-0.185	-0.007
-332.231	-108.820	0.059	0.012
-331.216	62.541	0.144	0.143
-330.202	-200.000	-0.010	-0.112
-329.187	335.857	0.016	-0.030
-328.172	-39.833	-0.214	0.111
-327.158	-34.590	-0.140	-0.076
-326.143	-98.662	0.339	-0.086
-325.129	18.774	0.190	-0.151
-324.114	253.805	0.149	-0.253
-323.099	-55.711	0.117	-0.052
-322.085	-200.000	-0.010	-0.308
-321.070	800.000	-0.088	0.261
-320.056	-200.000	-0.012	0.096
-319.041	21.380	0.139	0.112
-318.026	800.000	-0.100	0.323
-317.012	105.012	0.033	-0.039
-315.997	168.322	0.075	0.106
-314.983	154.130	-0.072	0.098
-313.968	-168.733	0.047	0.002
-312.953	47.542	-0.131	0.121
-311.939	-157.691	0.205	0.012
-310.924	124.150	0.129	0.161
-309.910	378.120	-0.087	-0.176
-308.895	43.310	-0.116	-0.106
-307.880	-200.000	-0.236	-0.000
-306.866	23.115	-0.181	0.148
-305.851	-103.923	-0.645	0.149
-304.837	-200.000	-0.019	-0.141
-303.822	79.492	0.297	-0.316
-302.807	-57.315	-0.299	0.131
-301.793	100.708	0.075	-0.086
-300.778	-104.698	-0.311	0.071
-299.764	-80.952	0.151	0.050
-298.749	-97.119	0.131	-0.034
-297.735	-117.739	0.119	0.021
-296.720	-62.890	0.372	0.153
-295.705	22.795	-0.078	0.063
-294.691	15.881	0.152	-0.119
-293.676	-200.000	-0.060	-0.449
-292.662	-118.207	-0.198	0.035
-291.647	-200.000	-0.014	0.084
-290.632	-200.000	-0.007	-0.033
-289.618	-78.975	-0.321	-0.108
-288.603	-137.801	-0.166	0.018
-287.589	-200.000	-0.006	0.154
-286.574	224.666	-0.088	-0.141
-285.559	-200.000	0.000	-0.100
-284.545	5.282	-0.181	-0.132
-283.530	374.848	-0.226	0.456
-282.516	364.726	-0.064	0.128
-281.501	539.195	-0.056	0.133
-280.486	214.667	0.078	0.123
-279.472	101.369	0.162	0.187
-278.457	800.000	0.080	0.238
-277.443	-124.820	-0.367	-0.056
-276.428	-172.153	0.057	0.002
-275.413	-38.924	-0.179	-0.093
-274.399	-156.108	0.094	-0.006
-273.384	36.657	-0.235	0.205
-272.370	-200.000	0.029	-0.186
-271.355	-66.971	0.104	-0.041
-270.340	800.000	0.094	-0.261
-269.326	-4.862	-0.148	-0.101
-268.311	204.695	0.336	-0.516
-267.297	-200.000	0.025	-0.235
-266.282	666.010	-0.109	0.278
-265.267	34.320	-0.095	0.082
-264.253	636.567	0.051	-0.127
-263.238	800.000	0.040	-0.153
-262.224	-163.388	-0.357	-0.017
-261.209	629.199	0.079	0.198
-260.195	-49.915	0.183	0.086
-259.180	-132.261	0.333	-0.043
-258.165	-147.654	-0.131	-0.011
-257.151	70.167	-0.182	-0.187
-256.136	21.656	0.109	-0.088
-255.122	-71.730	0.275	0.101
-254.107	-200.000	-0.015	-0.205
-253.092	-111.390	-0.103	-0.021
-252.078	146.248	-0.075	0.100
-251.063	248.033	0.254	-0.425
-250.049	-137.513	0.104	0.012
-249.034	-90.549	0.251	0.072
-248.019	-200.000	-0.041	-0.257
-247.005	-135.302	0.298	-0.035
-245.990	362.922	0.063	0.126
-244.976	800.000	0.031	-0.120
-243.961	67.091	0.027	0.027
-242.946	-124.444	-0.210	-0.032
-241.932	-62.554	0.067	-0.028
-240.917	800.000	-0.069	0.193
-239.903	-116.331	-0.047	-0.009
-238.888	171.225	-0.172	0.244
-237.873	540.291	-0.023	0.054
-236.859	-200.000	-0.003	0.189
-235.844	800.000	-0.070	0.256
-234.830	-98.449	-0.160	0.040
-233.815	800.000	0.071	0.275
-232.800	676.045	-0.026	-0.068
-231.786	-200.000	-0.015	-0.151
-230.771	-109.043	0.278	0.059
-229.757	-200.000	0.028	0.144
-228.742	38.170	-0.124	-0.109
-227.727	-200.000	-0.004	-0.190
-226.713	82.434	-0.242	-0.259
-225.698	800.000	-0.030	0.092
-224.684	673.541	0.178	0.456
-223.669	399.535	-0.068	-0.141
-222.655	-123.008	-0.054	0.009
-221.640	-101.371	-0.069	-0.017
-220.625	-126.378	-0.319	0.047
-219.611	24.014	0.256	0.209
-218.596	154.233	-0.046	-0.062
-217.582	46.915	-0.195	-0.180
-216.567	-43.675	-0.225	0.112
-215.552	-35.520	0.506	0.272
-214.538	-200.000	-0.027	0.348
-213.523	-39.583	0.294	-0.152
-212.509	-159.348	-0.215	-0.012
-211.494	112.290	-0.112	0.134
-210.479	-49.260	-0.295	-0.139
-209.465	-64.783	-0.236	-0.094
-208.450	511.065	-0.028	-0.065
-207.436	800.000	-0.116	0.324
-206.421	386.952	-0.153	-0.312
-205.406	710.203	-0.065	-0.170
-204.392	-101.631	0.221	0.053
-203.377	146.479	0.056	0.074
-202.363	3.423	0.080	-0.057
-201.348	-39.584	-0.242	0.125
-200.333	20.102	0.134	0.106
-199.319	184.054	-0.132	0.193
-198.304	226.366	0.089	0.142
-197.290	2.488	-0.183	0.131
-196.275	371.656	0.054	0.108
-195.260	-200.000	0.019	-0.161
-194.246	723.170	0.074	0.195
-193.231	-200.000	0.007	0.192
-192.217	2.614	0.115	0.082
-191.202	-137.354	-0.213	-0.024
-190.187	373.571	0.046	0.092
-189.173	-9.044	0.216	0.143
-188.158	13.686	-0.235	0.180
-187.144	543.879	0.041	0.096
-186.129	-96.477	0.300	0.078
-185.114	101.723	0.089	0.102
-184.100	-200.000	-0.022	0.282
-183.085	-127.264	0.238	-0.034
-182.071	44.726	0.178	-0.162
-181.056	-108.246	0.263	0.056
-180.042	-200.000	-0.051	-0.259
-179.027	185.891	-0.139	0.204
-178.012	-200.000	-0.038	0.333
-176.998	326.225	-0.086	-0.163
-175.983	-33.140	-0.281	-0.154
-174.969	86.097	0.230	0.250
-173.954	-156.871	0.155	-0.009
-172.939	-100.320	0.083	0.020
-171.925	-77.559	-0.113	0.039
-170.910	429.664	-0.048	-0.102
-169.896	-148.441	0.211	0.017
-168.881	-83.711	-0.259	-0.082
-167.866	-55.388	-0.064	-0.028
-166.852	2.340	0.229	-0.164
-165.837	160.529	0.157	0.216
-164.823	-23.766	0.275	0.163
-163.808	146.033	0.146	-0.193
-162.793	85.269	-0.198	-0.214
-161.779	800.000	0.047	-0.191
-160.764	800.000	-0.058	0.176
-159.750	-45.348	0.182	0.089
-158.735	300.182	0.088	-0.161
-157.720	-43.123	0.041	-0.020
-156.706	180.114	0.174	0.252
-155.691	-14.073	0.032	0.020
-154.677	298.519	0.061	0.110
-153.662	-200.000	-0.071	-0.399
-152.647	16.320	0.306	0.238
-151.633	-39.792	-0.368	0.190
-150.618	-200.000	-0.029	0.183
-149.604	-200.000	0.006	-0.026
-148.589	403.853	0.080	0.166
-147.574	-91.064	0.428	0.121
-146.560	403.484	0.063	0.131
-145.545	800.000	-0.095	-0.291
-144.531	13.095	0.202	-0.154
-143.516	11.006	-0.154	-0.116
-142.502	96.789	-0.145	-0.164
-141.487	252.459	-0.010	0.017
-140.472	46.867	0.130	0.119
-139.458	-0.258	-0.169	0.119
-138.443	-105.965	-0.325	-0.072
-137.429	-121.719	0.171	-0.028
-136.414	38.922	0.113	-0.100
-135.399	-200.000	-0.002	0.124
-134.385	-200.000	-0.175	-0.001
-133.370	-35.176	0.194	-0.104
-132.356	-153.990	0.163	-0.011
-131.341	553.319	-0.130	0.309
-130.326	22.676	-0.155	-0.125
-129.312	167.903	0.072	0.101
-128.297	-157.750	0.090	-0.005
-127.283	39.362	0.110	0.097
-126.268	-145.372	0.299	0.027
-125.253	40.537	0.259	-0.229
-124.239	697.468	-0.056	0.146
-123.224	130.159	0.163	0.205
-122.210	535.158	-0.100	0.233
