DTS Sentinel unit serial number:	SN413079Multiplexer serial number:	ORYXHardware model number:	OX4-SRSoftware version number:	ORYX F/W v4.00 Oryx Data Collector v3.7.2.0data status	okinstallation	princeton_trtdifferential loss correction	single-endedforward channel	channel 2reverse channel	N/Adate	2019/09/16time	17:43:35forward acquisition time	60.00reverse acquisition time	0.00gamma	496.2192k internal	0.2313k external	0.2313temperature offset calibration	0.9944default loss term (dB/km)	0.3790temperature slope calibration	1.0000multiplexer offset coefficient	1.0000multiplexer slope coefficient	1.0000fibre end	0.00T internal ref (°C)	38.12T ext. ref 1 (°C)	15.56T ext. ref 2 (°C)	32.13length (m)	temperature (°C)	Stokes	anti-Stokes-747.200	211.988	0.088	0.141
-746.185	-200.000	0.065	0.579
-745.171	-118.908	0.103	0.018
-744.156	-200.000	0.059	0.290
-743.142	-163.743	-0.052	0.002
-742.127	486.556	-0.110	0.255
-741.112	-113.067	-0.468	-0.094
-740.098	-6.282	-0.112	-0.078
-739.083	-200.000	0.022	0.217
-738.069	800.000	-0.154	0.534
-737.054	800.000	-0.066	0.230
-736.039	-113.136	0.126	0.025
-735.025	-200.000	0.015	0.281
-734.010	800.000	-0.073	0.231
-732.996	-72.680	0.073	0.027
-731.981	441.220	0.009	-0.019
-730.966	-25.756	0.346	0.207
-729.952	-84.865	-0.204	-0.065
-728.937	-0.594	-0.254	-0.182
-727.923	-87.903	-0.028	0.008
-726.908	-200.000	0.018	-0.088
-725.894	-200.000	0.055	-0.283
-724.879	-200.000	0.049	-0.330
-723.864	-20.494	-0.052	0.032
-722.850	-15.589	0.129	-0.084
-721.835	-200.000	-0.043	-0.252
-720.821	188.179	-0.138	0.209
-719.806	-134.268	0.452	0.056
-718.791	-56.365	-0.171	0.077
-717.777	-95.339	-0.275	0.075
-716.762	-120.367	-0.118	0.020
-715.748	117.450	0.072	-0.089
-714.733	-99.855	-0.307	0.078
-713.718	-132.875	0.381	-0.049
-712.704	-98.717	0.174	-0.045
-711.689	-141.738	0.224	0.023
-710.675	199.425	-0.166	-0.257
-709.660	-24.275	-0.068	0.041
-708.645	167.502	-0.136	-0.195
-707.631	-200.000	-0.024	0.132
-706.616	84.711	-0.067	-0.074
-705.602	-23.568	-0.145	-0.088
-704.587	-200.000	-0.040	-0.422
-703.572	-200.000	-0.028	-0.142
-702.558	-16.035	0.096	0.062
-701.543	66.912	-0.147	0.151
-700.529	-101.019	0.203	-0.051
-699.514	-200.000	0.050	-0.260
-698.499	-200.000	0.034	-0.159
-697.485	800.000	0.063	-0.217
-696.470	800.000	0.070	0.248
-695.456	-45.215	-0.077	-0.039
-694.441	-200.000	0.018	0.335
-693.426	8.992	0.290	0.222
-692.412	800.000	0.017	0.049
-691.397	-151.111	0.095	0.007
-690.383	339.344	-0.148	-0.292
-689.368	40.488	-0.106	-0.097
-688.354	800.000	0.043	-0.132
-687.339	99.236	0.220	-0.257
-686.324	-112.726	-0.129	-0.026
-685.310	-63.725	-0.337	-0.140
-684.295	95.265	0.174	0.201
-683.281	-131.008	0.212	-0.029
-682.266	-179.046	0.062	-0.001
-681.251	-101.959	0.233	0.057
-680.237	61.327	-0.267	-0.268
-679.222	-48.989	0.265	0.128
-678.208	800.000	0.034	0.140
-677.193	-34.322	-0.165	0.092
-676.178	164.940	-0.189	0.269
-675.164	33.309	-0.117	-0.103
-674.149	-200.000	-0.008	-0.217
-673.135	-54.109	-0.180	-0.083
-672.120	-200.000	-0.006	-0.276
-671.105	-66.924	0.123	-0.049
-670.091	-66.236	-0.269	0.109
-669.076	800.000	-0.098	0.295
-668.062	128.628	-0.247	0.318
-667.047	78.732	-0.113	0.122
-666.032	800.000	0.093	-0.278
-665.018	-200.000	0.036	-0.181
-664.003	-200.000	0.009	0.255
-662.989	-200.000	0.041	0.304
-661.974	180.721	-0.082	-0.122
-660.959	181.944	-0.223	-0.332
-659.945	-75.035	-0.239	-0.086
-658.930	-157.612	0.499	-0.030
-657.916	-43.061	-0.264	0.136
-656.901	77.895	-0.401	-0.432
-655.886	-133.121	-0.318	0.041
-654.872	574.858	0.066	0.164
-653.857	6.747	-0.297	-0.223
-652.843	800.000	0.095	-0.361
-651.828	-200.000	-0.029	0.184
-650.814	-0.389	0.195	0.140
-649.799	-83.099	0.259	0.084
-648.784	-138.501	-0.204	0.023
-647.770	44.882	0.153	0.143
-646.755	-110.153	0.428	0.090
-645.741	-50.165	-0.159	-0.076
-644.726	550.779	0.116	0.281
-643.711	75.379	-0.193	-0.206
-642.697	-43.747	0.053	-0.027
-641.682	-134.940	-0.237	-0.029
-640.668	-200.000	0.016	-0.115
-639.653	-200.000	0.038	0.181
-638.638	800.000	0.022	0.098
-637.624	221.271	-0.101	-0.163
-636.609	316.446	-0.057	0.109
-635.595	800.000	-0.037	-0.141
-634.580	793.010	0.073	-0.204
-633.565	-200.000	0.080	-0.535
-632.551	-29.937	-0.319	0.183
-631.536	-6.448	-0.043	0.030
-630.522	800.000	0.025	-0.077
-629.507	556.563	-0.038	-0.093
-628.492	269.178	-0.042	-0.074
-627.478	321.785	0.053	-0.101
-626.463	-200.000	0.041	0.194
-625.449	800.000	0.041	0.132
-624.434	106.495	0.095	-0.114
-623.419	79.935	0.445	-0.482
-622.405	800.000	0.071	0.224
-621.390	-200.000	0.023	-0.128
-620.376	84.575	0.207	0.229
-619.361	-200.000	0.027	0.230
-618.346	33.600	-0.139	-0.122
-617.332	-200.000	0.017	-0.278
-616.317	-200.000	0.029	-0.287
-615.303	108.787	-0.231	0.279
-614.288	-113.355	-0.140	-0.028
-613.273	199.209	0.024	-0.036
-612.259	-17.867	-0.140	0.089
-611.244	202.930	0.207	0.322
-610.230	-69.652	0.171	-0.066
-609.215	800.000	-0.068	0.239
-608.201	-114.496	-0.296	0.057
-607.186	331.743	-0.070	-0.136
-606.171	-70.133	-0.090	0.034
-605.157	-14.692	0.143	0.093
-604.142	-69.544	0.106	0.041
-603.128	-3.588	-0.414	-0.290
-602.113	-36.757	0.184	-0.100
-601.098	498.785	0.112	0.261
-600.084	-200.000	0.002	0.153
-599.069	-200.000	0.009	0.262
-598.055	-134.030	0.351	0.044
-597.040	-154.976	0.437	-0.029
-596.025	-151.770	0.107	-0.008
-595.011	800.000	0.059	-0.226
-593.996	-113.922	-0.543	0.106
-592.982	-76.593	-0.263	0.093
-591.967	800.000	-0.013	0.054
-590.952	-200.000	-0.014	-0.328
-589.938	-49.160	0.071	0.034
-588.923	-41.080	-0.185	-0.096
-587.909	-142.558	0.490	0.048
-586.894	181.677	-0.018	-0.027
-585.879	-200.000	0.035	-0.167
-584.865	-200.000	0.019	-0.171
-583.850	32.308	0.105	0.091
-582.836	203.945	-0.091	-0.143
-581.821	66.475	0.177	0.181
-580.806	-98.728	-0.027	0.007
-579.792	-92.960	-0.227	0.064
-578.777	8.727	-0.149	-0.113
-577.763	42.242	0.025	-0.022
-576.748	-104.068	-0.162	0.038
-575.733	-94.993	-0.099	-0.027
-574.719	8.058	-0.290	-0.219
-573.704	-158.716	-0.325	-0.019
-572.690	72.875	-0.151	-0.159
-571.675	-200.000	0.063	-0.377
-570.661	140.369	-0.145	-0.193
-569.646	-75.773	-0.214	-0.076
-568.631	-84.116	-0.051	-0.016
-567.617	-115.275	0.113	-0.022
-566.602	83.118	-0.214	-0.235
-565.588	47.786	-0.125	0.117
-564.573	-44.380	-0.250	0.126
-563.558	41.440	-0.213	0.194
-562.544	800.000	-0.096	-0.318
-561.529	451.658	0.088	0.196
-560.515	459.048	-0.042	0.094
-559.500	-200.000	0.048	0.229
-558.485	-38.471	0.155	-0.083
-557.471	245.457	0.118	0.200
-556.456	-200.000	0.029	-0.193
-555.442	-200.000	-0.003	-0.307
-554.427	800.000	-0.121	-0.350
-553.412	800.000	-0.065	0.217
-552.398	-82.565	0.130	0.042
-551.383	-21.094	-0.202	-0.125
-550.369	-164.304	-0.288	0.013
-549.354	558.517	-0.076	0.185
-548.339	800.000	0.060	0.175
-547.325	-35.634	0.351	-0.192
-546.310	56.370	0.152	-0.149
-545.296	800.000	-0.086	0.324
-544.281	-57.543	-0.118	0.052
-543.266	-49.943	0.194	0.093
-542.252	-71.534	-0.516	-0.194
-541.237	122.859	-0.145	0.183
-540.223	523.142	0.093	0.221
-539.208	-109.463	-0.090	0.019
-538.193	225.144	0.127	-0.206
-537.179	-56.924	-0.108	0.048
-536.164	-84.660	0.178	0.056
-535.150	-23.931	-0.351	0.211
-534.135	386.990	-0.068	0.141
-533.121	-73.262	0.271	0.100
-532.106	800.000	0.068	-0.248
-531.091	49.190	0.092	0.087
-530.077	40.681	0.147	-0.133
-529.062	628.599	-0.203	-0.517
-528.048	-119.133	-0.387	-0.068
-527.033	143.246	0.173	-0.231
-526.018	-19.089	-0.279	-0.175
-525.004	97.046	0.270	-0.311
-523.989	-200.000	-0.029	-0.227
-522.975	-60.800	0.264	-0.112
-521.960	-122.940	0.157	-0.025
-520.945	25.024	0.028	0.024
-519.931	52.214	0.012	-0.011
-518.916	164.350	0.091	0.129
-517.902	16.044	-0.188	-0.149
-516.887	800.000	-0.044	-0.153
-515.872	138.648	0.162	0.214
-514.858	-138.385	-0.085	-0.009
-513.843	800.000	-0.042	-0.157
-512.829	73.693	-0.147	0.155
-511.814	800.000	-0.055	-0.179
-510.799	-26.425	-0.081	-0.048
-509.785	50.328	0.172	-0.164
-508.770	117.271	0.203	0.251
-507.756	-73.627	-0.220	0.081
-506.741	800.000	0.020	-0.068
-505.726	-91.013	0.488	-0.141
-504.712	-179.553	0.207	0.005
-503.697	-45.804	-0.395	0.196
-502.683	74.941	-0.027	-0.029
-501.668	157.074	-0.087	0.121
-500.653	800.000	-0.047	-0.132
-499.639	87.849	-0.149	-0.166
-498.624	305.980	-0.174	-0.325
-497.610	-200.000	-0.030	0.344
-496.595	-68.960	-0.249	0.096
-495.581	-5.109	0.234	-0.161
-494.566	158.041	0.228	-0.317
-493.551	-94.608	0.259	0.071
-492.537	438.252	0.103	0.226
-491.522	59.650	0.293	0.290
-490.508	-200.000	0.007	-0.154
-489.493	-200.000	-0.002	0.013
-488.478	800.000	0.031	-0.094
-487.464	209.826	0.127	0.199
-486.449	800.000	0.029	0.111
-485.435	-200.000	0.065	0.489
-484.420	257.584	-0.051	0.088
-483.405	65.933	0.242	-0.246
-482.391	-73.766	0.142	0.052
-481.376	-18.029	-0.191	-0.120
-480.362	-128.430	-0.191	-0.027
-479.347	-110.230	0.237	-0.050
-478.332	391.352	0.074	0.154
-477.318	97.289	-0.073	0.085
-476.303	-65.543	0.257	0.104
-475.289	-200.000	0.018	0.324
-474.274	-0.903	0.176	-0.125
-473.259	-13.705	0.311	0.202
-472.245	618.936	-0.045	0.113
-471.230	87.284	0.098	0.109
-470.216	-200.000	-0.051	0.234
-469.201	-30.630	-0.208	-0.118
-468.186	-59.458	-0.396	-0.171
-467.172	127.541	0.034	-0.043
-466.157	148.953	-0.308	0.418
-465.143	-112.888	-0.197	-0.039
-464.128	-79.156	-0.296	0.101
-463.113	81.898	-0.276	0.300
-462.099	413.342	0.136	-0.291
-461.084	207.384	0.148	0.232
-460.070	-200.000	-0.013	-0.142
-459.055	-24.024	0.192	-0.115
-458.040	440.552	0.057	-0.126
-457.026	17.620	0.132	-0.105
-456.011	-88.066	0.402	0.121
-454.997	-77.293	0.201	0.070
-453.982	-139.851	0.279	0.030
-452.968	800.000	-0.109	-0.393
-451.953	-155.524	-0.265	0.017
-450.938	-112.403	0.222	0.045
-449.924	800.000	0.061	0.202
-448.909	31.711	0.078	-0.067
-447.895	173.987	0.093	0.134
-446.880	-52.351	0.138	0.064
-445.865	-87.946	-0.181	0.055
-444.851	138.795	0.195	0.257
-443.836	-200.000	-0.117	0.001
-442.822	35.942	-0.196	-0.173
-441.807	26.731	0.300	-0.252
-440.792	800.000	0.102	0.289
-439.778	498.221	0.103	0.239
-438.763	800.000	-0.121	0.395
-437.749	-133.681	0.073	0.009
-436.734	-200.000	0.003	-0.222
-435.719	50.864	0.220	-0.209
-434.705	-200.000	0.012	0.067
-433.690	-200.000	0.048	-0.321
-432.676	-104.465	0.547	0.127
-431.661	281.108	0.068	0.122
-430.646	-20.103	-0.083	0.051
-429.632	-95.925	0.258	-0.069
-428.617	800.000	-0.169	-0.473
-427.603	-102.901	0.288	-0.068
-426.588	94.705	0.068	0.078
-425.573	205.134	0.216	0.336
-424.559	1.279	-0.361	0.260
-423.544	-108.275	-0.190	-0.041
-422.530	53.823	-0.219	-0.211
-421.515	-101.486	-0.203	-0.049
-420.500	-58.590	0.064	0.028
-419.486	-123.495	-0.072	-0.011
-418.471	206.598	0.095	0.149
-417.457	28.229	0.043	-0.037
-416.442	618.941	-0.124	0.313
-415.428	178.667	0.144	0.211
-414.413	-200.000	-0.002	0.103
-413.398	-200.000	-0.019	-0.087
-412.384	-92.603	-0.043	0.012
-411.369	-150.006	-0.402	0.031
-410.355	-61.966	-0.162	0.068
-409.340	25.398	-0.115	0.096
-408.325	-84.680	0.220	-0.069
-407.311	-103.979	-0.182	-0.042
-406.296	800.000	-0.119	0.398
-405.282	236.773	0.172	0.284
-404.267	-69.060	-0.195	0.075
-403.252	265.314	0.127	-0.222
-402.238	114.851	0.060	-0.074
-401.223	800.000	0.111	-0.319
-400.209	-47.047	-0.233	0.114
-399.194	-150.605	-0.236	-0.018
-398.179	96.838	-0.153	0.175
-397.165	39.816	-0.207	0.186
-396.150	4.580	-0.166	0.122
-395.136	241.496	0.162	-0.271
-394.121	800.000	0.013	0.039
-393.106	104.034	0.057	0.068
-392.092	16.022	0.274	-0.216
-391.077	-111.083	0.239	-0.049
-390.063	20.180	-0.175	-0.141
-389.048	-183.062	-0.187	-0.003
-388.033	450.273	0.166	-0.366
-387.019	-68.198	0.196	-0.076
-386.004	800.000	-0.037	0.137
-384.990	-101.138	0.114	-0.028
-383.975	73.913	-0.098	0.102
-382.960	146.478	0.049	-0.066
-381.946	223.117	0.114	0.184
-380.931	114.300	-0.072	0.087
-379.917	-41.939	0.151	-0.078
-378.902	-148.786	0.264	-0.021
-377.888	800.000	0.127	-0.367
-376.873	39.134	0.018	0.016
-375.858	-165.384	-0.205	0.009
-374.844	-200.000	-0.021	-0.290
-373.829	-92.855	0.189	-0.053
-372.815	-169.663	-0.089	0.003
-371.800	-96.340	0.200	-0.053
-370.785	800.000	0.137	0.487
-369.771	157.412	-0.080	-0.111
-368.756	258.311	0.182	-0.313
-367.742	-200.000	-0.019	-0.096
-366.727	165.721	-0.221	0.312
-365.712	-77.915	0.253	-0.087
-364.698	-169.658	-0.186	-0.007
-363.683	-80.937	0.032	-0.011
-362.669	-200.000	0.012	0.057
-361.654	-200.000	-0.025	0.306
-360.639	-186.381	0.068	0.001
-359.625	-200.000	-0.027	0.247
-358.610	-53.761	-0.255	-0.116
-357.596	765.025	-0.062	-0.168
-356.581	-192.570	0.230	-0.002
-355.566	800.000	0.065	-0.207
-354.552	36.277	0.046	0.040
-353.537	-200.000	-0.047	0.346
-352.523	-124.709	-0.262	0.040
-351.508	37.294	-0.321	0.284
-350.493	-200.000	0.031	-0.434
-349.479	460.469	0.116	-0.258
-348.464	408.838	0.018	0.038
-347.450	-200.000	-0.012	0.173
-346.435	-5.850	-0.063	-0.043
-345.420	47.446	-0.090	0.083
-344.406	-37.613	0.216	0.115
-343.391	437.770	0.008	-0.018
-342.377	-15.976	-0.176	0.112
-341.362	596.425	0.086	-0.212
-340.348	89.895	0.104	-0.116
-339.333	183.109	-0.087	-0.128
-338.318	630.521	-0.035	-0.089
-337.304	-200.000	0.024	0.298
-336.289	-56.768	-0.328	-0.145
-335.275	-69.450	-0.355	-0.136
-334.260	-200.000	0.012	0.075
-333.245	-151.135	-0.350	0.026
-332.231	-22.390	-0.340	0.206
-331.216	-200.000	0.003	-0.132
-330.202	-31.426	0.084	0.047
-329.187	-122.765	0.125	-0.020
-328.172	-200.000	-0.007	-0.241
-327.158	511.363	0.097	0.225
-326.143	-46.482	-0.119	0.058
-325.129	-92.009	0.173	-0.049
-324.114	800.000	0.136	-0.378
-323.099	-200.000	0.092	0.430
-322.085	99.035	-0.117	-0.135
-321.070	-200.000	-0.020	-0.152
-320.056	-0.730	-0.233	-0.165
-319.041	-88.276	0.260	-0.078
-318.026	-12.906	0.333	-0.217
-317.012	580.887	0.125	0.307
-315.997	29.045	-0.309	0.261
-314.983	131.189	-0.117	0.150
-313.968	642.419	-0.102	-0.259
-312.953	-29.947	0.176	0.100
-311.939	394.024	0.126	-0.262
-310.924	-12.092	0.106	-0.069
-309.910	-24.765	-0.264	-0.157
-308.895	-153.202	-0.120	0.008
-307.880	463.372	-0.026	0.057
-306.866	-69.807	-0.024	0.009
-305.851	-125.379	-0.258	-0.039
-304.837	800.000	-0.080	-0.284
-303.822	-127.744	0.325	0.047
-302.807	-200.000	0.059	-0.361
-301.793	-25.318	0.044	0.026
-300.778	300.740	-0.076	0.140
-299.764	-94.392	0.165	-0.045
-298.749	604.383	0.081	0.201
-297.735	191.472	-0.050	-0.075
-296.720	246.398	-0.076	0.127
-295.705	-135.484	-0.283	-0.034
-294.691	216.590	-0.203	0.322
-293.676	87.907	0.139	0.154
-292.662	369.210	0.115	-0.232
-291.647	-14.285	-0.101	-0.065
-290.632	261.362	0.093	-0.160
-289.618	142.285	0.155	-0.205
-288.603	-200.000	0.395	0.001
-287.589	412.079	0.080	-0.169
-286.574	-200.000	0.045	-0.275
-285.559	-200.000	-0.001	-0.031
-284.545	35.146	-0.233	-0.204
-283.530	-98.184	0.118	-0.030
-282.516	18.940	-0.115	0.091
-281.501	800.000	0.048	0.181
-280.486	89.653	-0.131	0.145
-279.472	-200.000	0.006	0.238
-278.457	800.000	0.048	-0.144
-277.443	68.641	-0.190	0.194
-276.428	-10.002	0.171	0.113
-275.413	398.896	-0.158	-0.330
-274.399	591.749	-0.087	-0.214
-273.384	800.000	-0.068	0.253
-272.370	-19.860	-0.079	-0.049
-271.355	-134.307	0.255	-0.031
-270.340	-61.084	0.241	-0.101
-269.326	4.386	-0.224	-0.164
-268.311	-200.000	-0.033	0.398
-267.297	-141.379	0.088	0.009
-266.282	420.943	0.098	-0.210
-265.267	-200.000	-0.274	0.001
-264.253	800.000	-0.049	-0.194
-263.238	-200.000	0.020	0.161
-262.224	-101.735	-0.212	0.051
-261.209	356.881	0.075	0.149
-260.195	-52.228	0.048	-0.022
-259.180	-117.829	-0.084	0.015
-258.165	-181.204	-0.169	-0.003
-257.151	409.567	-0.117	0.247
-256.136	-140.410	-0.364	-0.038
-255.122	-36.253	-0.074	0.040
-254.107	-189.854	0.361	-0.004
-253.092	-84.815	0.042	0.013
-252.078	-76.512	0.167	-0.058
-251.063	800.000	0.048	-0.151
-250.049	-200.000	-0.007	0.149
-249.034	800.000	-0.040	0.160
-248.019	-200.000	-0.038	0.291
-247.005	599.778	-0.029	0.071
-245.990	800.000	-0.035	0.109
-244.976	-200.000	-0.105	0.480
-243.961	-123.573	0.251	0.040
-242.946	-161.110	-0.161	-0.008
-241.932	186.420	-0.053	-0.078
-240.917	-79.874	-0.300	-0.100
-239.903	557.387	-0.118	-0.283
-238.888	-19.185	0.321	-0.198
-237.873	5.593	-0.176	0.129
-236.859	-62.096	-0.100	0.041
-235.844	30.292	0.115	0.098
-234.830	800.000	0.068	0.203
-233.815	-102.811	-0.339	-0.080
-232.800	43.619	0.105	0.095
-231.786	73.292	0.254	-0.265
-230.771	-0.382	-0.131	-0.092
-229.757	-76.108	0.231	-0.081
-228.742	-200.000	0.035	-0.351
-227.727	523.569	0.038	-0.089
-226.713	-80.668	0.121	0.040
-225.698	136.864	-0.239	-0.311
-224.684	115.586	-0.256	-0.311
-223.669	-32.765	0.355	0.196
-222.655	-59.201	-0.241	0.103
-221.640	-15.078	0.099	-0.063
-220.625	-200.000	-0.022	-0.379
-219.611	-200.000	-0.017	0.293
-218.596	-1.501	-0.086	0.060
-217.582	-200.000	-0.023	0.171
-216.567	800.000	0.099	-0.360
-215.552	-81.210	-0.219	-0.072
-214.538	155.047	0.070	0.095
-213.523	-38.371	0.242	0.127
-212.509	120.273	0.362	-0.447
-211.494	30.314	0.129	-0.110
-210.479	-200.000	0.026	0.287
-209.465	76.631	-0.095	0.100
-208.450	-167.594	-0.134	0.005
-207.436	687.322	-0.095	0.245
-206.421	200.299	0.219	0.334
-205.406	-200.000	-0.052	0.281
-204.392	-96.424	0.390	0.102
-203.377	177.635	-0.069	-0.100
-202.363	399.507	0.110	-0.228
-201.348	-64.717	-0.075	0.030
-200.333	800.000	-0.040	-0.167
-199.319	-200.000	-0.011	0.164
-198.304	-200.000	0.060	0.275
-197.290	-19.505	0.225	-0.138
-196.275	-22.328	-0.181	-0.109
-195.260	800.000	0.074	0.208
-194.246	29.443	0.323	0.272
-193.231	-89.219	0.317	0.093
-192.217	334.414	0.097	0.187
-191.202	-76.970	0.152	0.053
-190.187	-200.000	0.035	0.191
-189.173	230.819	-0.034	0.055
-188.158	-67.073	-0.191	0.075
-187.144	-120.882	-0.159	0.026
-186.129	28.655	-0.100	-0.084
-185.114	-115.796	0.124	0.023
-184.100	-43.163	-0.253	-0.127
-183.085	-93.373	0.262	0.072
-182.071	55.021	0.221	0.212
-181.056	448.480	-0.116	-0.253
-180.042	800.000	-0.060	0.197
-179.027	-200.000	-0.024	0.158
-178.012	800.000	-0.025	-0.101
-176.998	-121.182	-0.244	-0.040
-175.983	383.874	-0.015	0.031
-174.969	136.405	-0.074	0.095
-173.954	82.991	0.192	0.207
-172.939	64.288	0.154	-0.153
-171.925	-200.000	0.062	0.272
-170.910	-200.000	0.018	0.130
-169.896	104.108	-0.191	-0.223
-168.881	-200.000	-0.007	-0.041
-167.866	-142.529	0.113	-0.011
-166.852	120.112	-0.024	-0.029
-165.837	174.179	-0.149	-0.213
-164.823	629.222	-0.080	0.200
-163.808	-83.891	0.128	0.040
-162.793	-187.572	0.367	0.005
-161.779	-55.329	-0.317	-0.141
-160.764	-200.000	0.009	0.115
-159.750	-60.747	-0.059	0.025
-158.735	360.724	-0.063	0.124
-157.720	-159.713	-0.113	0.006
-156.706	-200.000	-0.029	0.144
-155.691	-54.444	0.186	-0.084
-154.677	800.000	-0.087	-0.289
-153.662	-200.000	0.020	-0.360
-152.647	26.056	-0.095	0.079
-151.633	-140.985	-0.144	-0.015
-150.618	-86.163	0.127	0.039
-149.604	-200.000	-0.009	-0.281
-148.589	68.388	-0.068	-0.069
-147.574	-72.095	-0.378	-0.139
-146.560	-141.586	-0.146	-0.015
-145.545	73.599	0.040	0.042
-144.531	-167.607	0.175	0.007
-143.516	-114.008	0.252	0.048
-142.502	-200.000	-0.013	-0.306
-141.487	-111.092	-0.154	-0.031
-140.472	-11.755	-0.139	0.090
-139.458	-200.000	0.018	0.111
-138.443	459.389	-0.072	0.160
-137.429	797.007	0.063	-0.172
-136.414	-129.731	-0.251	-0.034
-135.399	-200.000	0.019	0.127
-134.385	501.446	-0.129	-0.294
-133.370	-200.000	-0.067	-0.315
-132.356	-200.000	0.046	0.200
-131.341	44.057	0.040	0.036
-130.326	330.806	-0.152	-0.290
-129.312	57.769	0.159	0.154
-128.297	-114.400	-0.374	-0.071
-127.283	-123.974	0.139	0.022
-126.268	77.802	-0.192	0.203
-125.253	-177.740	0.196	0.005
-124.239	181.966	0.011	0.016
-123.224	-200.000	0.002	0.306
-122.210	309.278	0.131	-0.242
-121.195	-46.146	-0.056	0.027
