DTS Sentinel unit serial number:	SN413079Multiplexer serial number:	ORYXHardware model number:	OX4-SRSoftware version number:	ORYX F/W v4.00 Oryx Data Collector v3.7.2.0data status	okinstallation	princeton_trtdifferential loss correction	single-endedforward channel	channel 2reverse channel	N/Adate	2019/09/14time	21:51:34forward acquisition time	60.00reverse acquisition time	0.00gamma	496.2192k internal	0.2323k external	0.2323temperature offset calibration	1.0069default loss term (dB/km)	0.3790temperature slope calibration	1.0000multiplexer offset coefficient	1.0000multiplexer slope coefficient	1.0000fibre end	0.00T internal ref (°C)	32.75T ext. ref 1 (°C)	4.73T ext. ref 2 (°C)	27.69length (m)	temperature (°C)	Stokes	anti-Stokes-747.200	-200.000	0.019	-0.219
-746.185	73.168	-0.193	0.203
-745.171	-155.909	-0.424	0.027
-744.156	357.688	0.066	-0.134
-743.142	377.299	0.100	0.206
-742.127	-200.000	0.040	0.337
-741.112	50.611	0.081	0.078
-740.098	-156.540	0.199	-0.012
-739.083	334.996	-0.120	0.234
-738.069	28.647	-0.279	0.238
-737.054	242.090	-0.120	-0.202
-736.039	800.000	-0.099	-0.310
-735.025	44.753	0.345	0.321
-734.010	-189.474	-0.287	0.003
-732.996	-117.659	-0.162	0.029
-731.981	-200.000	0.008	0.281
-730.966	-200.000	-0.011	0.151
-729.952	-200.000	0.001	0.032
-728.937	484.904	-0.103	-0.237
-727.923	-20.076	0.194	-0.121
-726.908	51.802	0.069	0.066
-725.894	9.540	0.242	0.185
-724.879	-138.366	0.223	0.025
-723.864	800.000	-0.059	-0.177
-722.850	-62.836	-0.190	0.079
-721.835	-135.473	-0.161	-0.019
-720.821	379.919	-0.214	0.443
-719.806	-96.060	0.049	-0.013
-718.791	-200.000	-0.011	0.069
-717.777	-103.207	-0.214	-0.051
-716.762	173.392	-0.163	0.238
-715.748	172.487	0.095	0.137
-714.733	-200.000	-0.003	-0.156
-713.718	171.548	0.183	-0.265
-712.704	170.702	0.109	0.157
-711.689	440.580	0.078	0.173
-710.675	-200.000	-0.025	0.260
-709.660	609.092	0.111	0.278
-708.645	-38.998	-0.184	0.098
-707.631	-200.000	-0.013	-0.065
-706.616	-52.052	-0.231	0.108
-705.602	-107.917	-0.287	0.063
-704.587	-200.000	0.025	-0.117
-703.572	61.993	-0.077	0.078
-702.558	2.530	0.084	0.061
-701.543	800.000	0.040	-0.133
-700.529	-51.086	0.210	-0.099
-699.514	-117.949	-0.013	-0.002
-698.499	318.179	-0.038	-0.072
-697.485	647.033	-0.143	0.369
-696.470	615.445	0.109	-0.274
-695.456	800.000	-0.061	-0.199
-694.441	800.000	-0.036	0.106
-693.426	472.011	-0.120	-0.273
-692.412	28.159	0.309	0.263
-691.397	91.959	-0.079	0.090
-690.383	569.113	-0.191	-0.467
-689.368	-18.756	-0.382	-0.240
-688.354	-33.312	0.109	-0.061
-687.339	266.137	-0.036	0.063
-686.324	-200.000	-0.033	-0.242
-685.310	166.733	-0.104	0.149
-684.295	-200.000	-0.034	-0.269
-683.281	-54.040	-0.335	0.153
-682.266	177.431	0.064	-0.094
-681.251	-109.089	0.238	-0.051
-680.237	-200.000	0.001	-0.033
-679.222	-137.498	0.220	0.025
-678.208	-200.000	-0.007	-0.059
-677.193	-147.706	0.138	0.012
-676.178	-48.685	0.065	-0.031
-675.164	-200.000	-0.028	-0.302
-674.149	674.870	0.106	-0.278
-673.135	-128.274	-0.374	0.054
-672.120	-41.835	0.158	-0.081
-671.105	-155.630	-0.200	-0.013
-670.091	424.995	-0.126	0.272
-669.076	-18.192	0.107	0.067
-668.062	-200.000	-0.003	-0.155
-667.047	-200.000	-0.050	-0.419
-666.032	51.869	-0.087	-0.083
-665.018	89.432	-0.019	0.021
-664.003	55.402	0.231	-0.225
-662.989	-93.025	0.241	0.068
-661.974	-38.342	0.043	0.023
-660.959	-49.873	0.308	0.147
-659.945	-64.892	0.360	-0.146
-658.930	-172.441	0.147	0.005
-657.916	-74.078	-0.249	-0.091
-656.901	-200.000	-0.016	0.367
-655.886	44.726	-0.152	0.141
-654.872	-93.772	-0.345	0.096
-653.857	-131.328	-0.252	-0.034
-652.843	-141.751	-0.123	0.012
-651.828	13.219	-0.171	0.133
-650.814	-51.847	0.171	0.080
-649.799	499.034	-0.057	-0.132
-648.784	-104.332	-0.324	-0.076
-647.770	-21.563	-0.048	-0.029
-646.755	-6.675	0.252	0.172
-645.741	122.221	0.112	0.141
-644.726	-200.000	0.164	-0.000
-643.711	800.000	-0.100	-0.282
-642.697	-57.659	-0.306	0.135
-641.682	123.244	-0.229	-0.288
-640.668	-37.339	-0.245	-0.132
-639.653	383.062	-0.243	-0.504
-638.638	1.158	-0.178	0.129
-637.624	-51.872	0.265	0.124
-636.609	-200.000	0.066	-0.417
-635.595	436.306	-0.166	0.364
-634.580	33.981	0.041	-0.036
-633.565	-200.000	-0.031	0.317
-632.551	153.634	-0.088	-0.121
-631.536	228.365	-0.141	-0.230
-630.522	-30.543	0.220	0.125
-629.507	144.965	0.141	-0.190
-628.492	34.052	0.213	-0.187
-627.478	92.683	0.044	0.049
-626.463	-102.539	-0.264	0.063
-625.449	159.465	0.042	-0.058
-624.434	-200.000	0.020	0.208
-623.419	98.622	-0.106	0.123
-622.405	788.354	-0.025	0.069
-621.390	-81.765	0.286	-0.094
-620.376	359.218	0.027	-0.054
-619.361	-200.000	-0.008	0.185
-618.346	-37.071	-0.298	0.161
-617.332	-78.716	-0.262	-0.090
-616.317	783.267	0.046	0.126
-615.303	800.000	-0.043	0.181
-614.288	50.733	-0.174	0.166
-613.273	-93.134	0.111	0.031
-612.259	-200.000	0.011	-0.065
-611.244	155.054	0.152	0.210
-610.230	-14.830	0.092	-0.059
-609.215	-200.000	0.007	-0.115
-608.201	-23.177	-0.183	-0.110
-607.186	84.274	0.093	-0.102
-606.171	-100.228	0.179	0.045
-605.157	-200.000	0.004	-0.067
-604.142	-200.000	0.068	-0.436
-603.128	-200.000	-0.076	-0.433
-602.113	-200.000	-0.018	0.099
-601.098	-25.459	0.063	-0.037
-600.084	800.000	-0.031	0.092
-599.069	222.172	0.155	-0.251
-598.055	-86.690	-0.372	0.114
-597.040	-200.000	-0.031	0.283
-596.025	-78.676	-0.365	-0.125
-595.011	-93.836	-0.149	0.041
-593.996	-66.351	0.381	-0.152
-592.982	-15.301	-0.090	0.058
-591.967	-14.000	0.181	-0.117
-590.952	-22.896	0.093	-0.056
-589.938	202.894	-0.114	0.177
-588.923	131.654	0.142	0.183
-587.909	-119.756	0.233	0.040
-586.894	136.602	0.098	0.128
-585.879	-100.613	0.202	0.050
-584.865	800.000	0.041	0.129
-583.850	-200.000	0.026	-0.344
-582.836	127.932	0.294	0.376
-581.821	124.182	-0.129	0.162
-580.806	202.684	0.023	0.035
-579.792	-87.547	0.152	-0.046
-578.777	800.000	-0.103	-0.321
-577.763	-20.134	0.128	0.079
-576.748	-18.662	0.229	0.143
-575.733	-125.079	-0.288	-0.044
-574.719	114.037	0.093	-0.114
-573.704	386.814	-0.134	-0.277
-572.690	-200.000	-0.051	-0.259
-571.675	-27.982	-0.185	0.107
-570.661	76.145	-0.283	-0.301
-569.646	59.960	-0.198	0.196
-568.631	-113.298	0.218	0.043
-567.617	-200.000	0.011	-0.138
-566.602	129.048	0.189	-0.241
-565.588	-14.937	0.106	-0.068
-564.573	-132.769	0.151	-0.019
-563.558	-106.300	0.123	0.028
-562.544	70.564	-0.239	0.248
-561.529	-89.077	0.121	-0.036
-560.515	-200.000	-0.022	-0.119
-559.500	-200.000	0.010	-0.138
-558.485	-107.126	-0.179	0.040
-557.471	-200.000	-0.061	0.435
-556.456	599.967	0.123	0.305
-555.442	2.408	-0.138	0.100
-554.427	800.000	0.094	-0.399
-553.412	49.690	-0.101	-0.095
-552.398	-69.528	0.561	0.215
-551.383	800.000	0.049	-0.198
-550.369	800.000	-0.120	-0.359
-549.354	-200.000	0.017	-0.179
-548.339	-5.304	-0.092	0.063
-547.325	-200.000	-0.016	-0.304
-546.310	17.009	-0.164	-0.130
-545.296	-33.847	0.164	0.090
-544.281	800.000	0.091	-0.294
-543.266	-96.779	0.258	0.068
-542.252	122.088	-0.308	-0.385
-541.237	157.120	0.184	-0.255
-540.223	-200.000	-0.011	0.075
-539.208	-3.113	0.244	-0.170
-538.193	-200.000	-0.016	-0.104
-537.179	800.000	0.035	0.134
-536.164	0.247	-0.144	0.103
-535.150	-114.496	-0.522	-0.100
-534.135	-200.000	-0.023	-0.138
-533.121	-51.624	-0.236	-0.110
-532.106	-200.000	-0.020	-0.152
-531.091	-200.000	-0.035	-0.414
-530.077	611.235	-0.067	-0.167
-529.062	-200.000	-0.012	-0.120
-528.048	-200.000	-0.010	0.100
-527.033	141.502	-0.202	0.268
-526.018	-106.324	-0.117	-0.026
-525.004	800.000	-0.033	-0.095
-523.989	71.222	0.102	-0.106
-522.975	-90.036	-0.439	-0.128
-521.960	-20.202	-0.319	0.197
-520.945	-67.278	0.192	-0.076
-519.931	-200.000	-0.022	-0.119
-518.916	-55.613	-0.208	-0.093
-517.902	252.084	0.152	0.259
-516.887	-35.367	-0.228	0.124
-515.872	-18.991	-0.214	-0.133
-514.858	-197.577	0.258	0.002
-513.843	800.000	0.058	0.195
-512.829	-144.608	0.238	-0.022
-511.814	-13.715	-0.143	-0.093
-510.799	-181.384	0.206	-0.004
-509.785	10.123	0.163	0.124
-508.770	-95.741	-0.403	-0.108
-507.756	-167.406	-0.109	-0.004
-506.741	369.028	0.035	-0.070
-505.726	-12.817	-0.107	-0.070
-504.712	-52.515	0.113	-0.052
-503.697	78.669	-0.112	0.120
-502.683	137.986	-0.156	-0.205
-501.668	-54.350	-0.178	-0.081
-500.653	800.000	0.046	-0.151
-499.639	383.679	-0.077	0.159
-498.624	-133.488	0.165	-0.021
-497.610	264.100	-0.101	0.176
-496.595	-95.455	-0.213	0.057
-495.581	-200.000	0.006	-0.050
-494.566	-133.343	0.137	0.017
-493.551	5.963	-0.093	-0.069
-492.537	-200.000	-0.458	0.000
-491.522	800.000	0.117	0.445
-490.508	37.149	-0.220	0.195
-489.493	58.652	-0.248	0.243
-488.478	800.000	0.046	0.183
-487.464	52.928	-0.035	0.034
-486.449	133.703	-0.078	0.100
-485.435	696.635	-0.038	-0.099
-484.420	-200.000	0.004	0.059
-483.405	-49.241	0.158	0.075
-482.391	-153.540	0.322	-0.022
-481.376	800.000	0.071	-0.258
-480.362	-58.800	-0.090	0.039
-479.347	217.298	-0.085	0.135
-478.332	-200.000	0.042	-0.248
-477.318	-120.193	0.100	-0.017
-476.303	133.123	-0.141	0.182
-475.289	-21.906	0.390	-0.237
-474.274	-140.402	0.339	-0.035
-473.259	-39.559	0.163	-0.085
-472.245	312.925	-0.065	-0.123
-471.230	103.281	-0.286	-0.335
-470.216	-148.691	-0.315	-0.026
-469.201	-15.758	-0.235	-0.150
-468.186	782.280	-0.049	-0.134
-467.172	-72.327	0.143	-0.053
-466.157	-200.000	-0.009	-0.248
-465.143	155.687	0.092	-0.127
-464.128	-107.505	-0.072	0.016
-463.113	206.746	-0.097	-0.150
-462.099	271.481	0.036	0.063
-461.084	-200.000	-0.081	-0.414
-460.070	372.743	-0.076	-0.153
-459.055	-109.767	0.200	0.042
-458.040	-62.154	0.134	-0.056
-457.026	-159.775	0.169	0.009
-456.011	33.407	-0.093	-0.081
-454.997	4.022	-0.267	-0.195
-453.982	-52.655	0.088	-0.040
-452.968	83.636	-0.093	-0.101
-451.953	666.664	-0.008	0.021
-450.938	-133.487	0.105	-0.013
-449.924	216.343	0.130	0.207
-448.909	237.231	-0.101	-0.167
-447.895	-102.125	0.289	-0.069
-446.880	-183.429	0.184	0.003
-445.865	734.671	0.070	0.187
-444.851	-76.173	-0.120	0.042
-443.836	52.457	0.110	0.105
-442.822	-55.769	-0.075	0.034
-441.807	-101.352	0.363	-0.088
-440.792	-200.000	-0.192	0.001
-439.778	92.372	0.083	0.093
-438.763	-62.652	-0.111	0.046
-437.749	-122.639	0.238	0.039
-436.734	3.595	-0.134	0.097
-435.719	-200.000	-0.013	0.364
-434.705	-23.366	0.405	0.243
-433.690	273.344	0.023	0.041
-432.676	302.149	0.140	0.258
-431.661	70.666	-0.185	-0.191
-430.646	-200.000	0.059	-0.384
-429.632	-200.000	-0.072	-0.316
-428.617	-108.221	0.076	-0.016
-427.603	-138.592	0.041	-0.004
-426.588	-146.196	0.175	0.015
-425.573	123.368	-0.158	-0.197
-424.559	-9.822	-0.141	0.094
-423.544	-200.000	0.084	0.440
-422.530	458.522	-0.133	0.296
-421.515	-113.455	-0.339	-0.066
-420.500	217.352	0.121	-0.193
-419.486	364.770	0.101	-0.202
-418.471	-41.089	0.226	0.116
-417.457	118.729	0.091	-0.112
-416.442	56.615	-0.057	-0.055
-415.428	-200.000	-0.047	-0.292
-414.413	134.222	0.099	-0.128
-413.398	146.512	-0.257	-0.344
-412.384	-153.148	-0.122	-0.009
-411.369	29.116	0.174	0.147
-410.355	21.249	-0.319	0.258
-409.340	120.725	-0.096	0.119
-408.325	4.748	-0.136	-0.100
-407.311	61.486	0.302	0.299
-406.296	200.389	-0.079	0.121
-405.282	52.378	-0.153	-0.146
-404.267	800.000	-0.078	0.265
-403.252	-82.123	-0.166	0.054
-402.238	-200.000	0.061	-0.314
-401.223	-138.622	0.214	0.023
-400.209	-130.701	-0.168	0.022
-399.194	797.923	-0.018	-0.049
-398.179	-200.000	-0.235	0.000
-397.165	158.097	0.160	0.221
-396.150	-162.313	0.226	0.011
-395.136	-20.110	-0.259	0.159
-394.121	7.102	-0.308	-0.229
-393.106	-24.511	-0.220	-0.131
-392.092	103.707	0.116	-0.135
-391.077	-200.000	0.040	0.377
-390.063	770.859	-0.098	-0.267
-389.048	2.177	-0.244	-0.176
-388.033	262.122	0.103	0.177
-387.019	-172.129	-0.234	0.008
-386.004	800.000	0.048	0.155
-384.990	-92.620	-0.224	0.063
-383.975	760.270	0.044	0.118
-382.960	-200.000	0.030	-0.165
-381.946	-200.000	-0.008	0.169
-380.931	211.602	-0.121	0.190
-379.917	-24.637	0.365	-0.216
-378.902	800.000	-0.022	-0.093
-377.888	800.000	-0.066	0.205
-376.873	481.098	0.103	0.232
-375.858	-89.183	-0.187	-0.055
-374.844	-126.482	-0.346	0.051
-373.829	-113.792	0.233	0.045
-372.815	800.000	-0.074	-0.251
-371.800	-87.125	0.214	-0.065
-370.785	402.950	0.208	0.434
-369.771	302.018	0.165	0.304
-368.756	78.536	0.205	-0.218
-367.742	-34.098	0.186	-0.102
-366.727	-200.000	-0.006	-0.281
-365.712	71.694	-0.046	-0.047
-364.698	-140.212	0.296	-0.031
-363.683	-42.212	0.034	-0.017
-362.669	260.492	-0.015	-0.026
-361.654	800.000	0.058	0.200
-360.639	-186.887	0.282	-0.004
-359.625	-106.139	0.371	-0.083
-358.610	108.211	0.166	-0.197
-357.596	-16.600	0.229	0.144
-356.581	-145.477	-0.188	-0.017
-355.566	-200.000	0.039	0.189
-354.552	72.179	-0.157	0.162
-353.537	-72.485	0.266	0.098
-352.523	-200.000	0.007	0.064
-351.508	7.028	-0.203	0.151
-350.493	20.787	0.106	-0.085
-349.479	0.794	-0.208	-0.148
-348.464	22.006	-0.185	0.150
-347.450	-158.901	-0.135	0.008
-346.435	408.439	0.039	0.082
-345.420	98.388	0.161	-0.185
-344.406	37.858	-0.248	0.219
-343.391	28.884	-0.299	0.252
-342.377	145.365	-0.091	-0.121
-341.362	-71.946	-0.408	0.151
-340.348	117.039	-0.052	0.064
-339.333	800.000	0.068	-0.210
-338.318	-147.273	0.219	0.018
-337.304	800.000	0.042	0.159
-336.289	699.764	-0.060	0.157
-335.275	94.298	-0.033	0.037
-334.260	-71.601	-0.116	0.043
-333.245	-60.099	-0.051	0.021
-332.231	-74.003	-0.206	-0.074
-331.216	-46.500	0.202	0.098
-330.202	-124.621	0.192	0.030
-329.187	499.676	0.099	-0.227
-328.172	-50.070	0.239	0.112
-327.158	0.944	-0.226	0.161
-326.143	20.953	0.167	-0.134
-325.129	28.389	0.098	-0.082
-324.114	-200.000	-0.083	-0.391
-323.099	463.698	-0.053	-0.118
-322.085	230.746	-0.040	-0.064
-321.070	-80.606	-0.272	-0.090
-320.056	800.000	-0.094	0.397
-319.041	800.000	-0.091	0.308
-318.026	-49.564	0.132	0.063
-317.012	370.072	-0.045	-0.090
-315.997	-200.000	-0.005	0.388
-314.983	-106.921	-0.366	0.080
-313.968	-105.505	0.352	0.079
-312.953	800.000	0.084	-0.268
-311.939	-200.000	0.014	-0.282
-310.924	-200.000	-0.037	0.276
-309.910	-200.000	0.057	-0.000
-308.895	-83.289	-0.099	0.032
-307.880	-200.000	0.001	0.082
-306.866	92.081	-0.263	0.294
-305.851	-200.000	-0.022	0.100
-304.837	53.164	0.127	0.121
-303.822	-200.000	0.462	0.001
-302.807	-200.000	0.015	-0.225
-301.793	278.279	-0.096	0.169
-300.778	183.936	0.239	0.351
-299.764	96.775	0.163	-0.185
-298.749	513.840	0.146	-0.338
-297.735	-115.399	0.173	0.032
-296.720	800.000	-0.134	-0.529
-295.705	194.118	0.207	0.311
-294.691	335.444	-0.063	-0.121
-293.676	-63.407	0.523	0.213
-292.662	-79.887	-0.111	-0.037
-291.647	-60.781	-0.212	-0.089
-290.632	-163.128	0.287	-0.014
-289.618	5.895	0.187	0.137
-288.603	85.259	-0.021	-0.023
-287.589	-73.556	0.247	-0.089
-286.574	283.347	-0.089	0.158
-285.559	182.380	0.105	-0.154
-284.545	-19.565	-0.127	-0.078
-283.530	284.865	-0.091	0.163
-282.516	14.101	0.186	-0.144
-281.501	-153.695	0.148	-0.010
-280.486	-200.000	-0.029	0.167
-279.472	180.771	-0.234	-0.341
-278.457	206.739	-0.124	-0.192
-277.443	259.289	0.139	0.238
-276.428	-200.000	0.027	0.127
-275.413	-200.000	0.071	0.394
-274.399	34.006	-0.155	0.134
-273.384	781.852	0.074	0.201
-272.370	-139.569	-0.134	-0.014
-271.355	-157.628	-0.407	-0.024
-270.340	-143.137	0.085	0.008
-269.326	164.490	0.050	0.070
-268.311	-35.691	-0.195	-0.105
-267.297	-63.831	0.448	-0.182
-266.282	231.434	-0.176	0.285
-265.267	-200.000	-0.024	0.388
-264.253	139.859	0.172	-0.225
-263.238	-200.000	0.023	-0.194
-262.224	207.489	-0.058	-0.089
-261.209	49.401	-0.064	0.060
-260.195	-141.413	-0.126	-0.013
-259.180	310.016	0.119	-0.221
-258.165	-149.375	0.261	-0.021
-257.151	160.538	-0.040	0.055
-256.136	75.638	0.357	0.373
-255.122	30.638	-0.211	-0.179
-254.107	-30.811	-0.037	-0.021
-253.092	164.492	-0.092	0.128
-252.078	209.977	0.102	0.158
-251.063	-63.591	-0.232	-0.094
-250.049	800.000	-0.094	0.359
-249.034	800.000	0.020	0.056
-248.019	-36.524	0.142	0.076
-247.005	271.359	0.013	0.022
-245.990	179.907	0.159	0.231
-244.976	-32.085	0.045	0.025
-243.961	82.387	-0.224	-0.241
-242.946	-52.999	0.072	0.033
-241.932	-68.433	-0.128	-0.049
-240.917	800.000	-0.028	-0.113
-239.903	379.907	0.063	-0.128
-238.888	609.661	0.140	0.345
-237.873	121.659	0.050	-0.062
-236.859	800.000	0.025	-0.109
-235.844	377.518	-0.100	-0.202
-234.830	800.000	0.084	-0.339
-233.815	330.901	0.076	0.145
-232.800	74.261	0.255	0.265
-231.786	169.567	0.103	0.146
-230.771	87.860	0.241	-0.264
-229.757	54.625	0.070	-0.067
-228.742	-63.660	-0.245	0.099
-227.727	-200.000	-0.039	0.246
-226.713	728.417	-0.044	0.116
-225.698	151.924	0.051	-0.068
-224.684	-68.578	0.333	-0.128
-223.669	105.822	-0.197	-0.231
-222.655	17.715	-0.329	-0.259
-221.640	-200.000	0.000	-0.031
-220.625	259.703	0.191	0.326
-219.611	255.885	0.082	0.139
-218.596	17.853	-0.297	-0.234
-217.582	800.000	0.076	0.226
-216.567	800.000	-0.007	-0.021
-215.552	-34.132	-0.218	-0.118
-214.538	-21.600	0.077	0.046
-213.523	113.233	-0.098	0.118
-212.509	-165.875	-0.230	0.010
-211.494	-178.232	0.054	-0.001
-210.479	-64.944	-0.181	-0.072
-209.465	-200.000	-0.019	0.090
-208.450	47.050	0.206	0.189
-207.436	-130.538	0.075	-0.010
-206.421	-72.824	0.347	0.126
-205.406	366.470	0.067	-0.133
-204.392	800.000	0.010	-0.039
-203.377	-200.000	-0.020	0.163
-202.363	139.204	-0.081	0.106
-201.348	198.888	0.065	0.098
-200.333	-146.333	-0.294	0.025
-199.319	79.689	0.207	0.220
-198.304	-75.163	0.216	-0.076
-197.290	107.636	-0.220	0.259
-196.275	-120.910	-0.207	0.034
-195.260	75.110	-0.084	0.088
-194.246	91.214	0.142	0.158
-193.231	-1.882	-0.188	-0.131
-192.217	7.867	0.168	0.125
-191.202	-200.000	-0.009	-0.279
-190.187	-44.964	-0.155	-0.076
-189.173	-73.632	-0.213	0.077
-188.158	-200.000	-0.042	0.268
-187.144	-36.069	0.320	0.171
-186.129	-200.000	-0.029	-0.160
-185.114	56.605	0.201	0.193
-184.100	-58.328	-0.260	0.112
-183.085	-140.507	-0.053	0.005
-182.071	216.949	0.164	-0.258
-181.056	207.170	0.182	-0.280
-180.042	270.461	0.261	0.454
-179.027	137.406	0.137	-0.177
-178.012	10.074	-0.200	0.150
-176.998	42.815	0.280	0.252
-175.983	-131.532	-0.042	0.005
-174.969	-192.736	-0.222	0.002
-173.954	113.279	0.141	0.169
-172.939	464.662	-0.049	-0.108
-171.925	-66.566	-0.106	0.041
-170.910	10.920	-0.088	-0.066
-169.896	-178.972	-0.335	-0.007
-168.881	-17.069	0.129	-0.080
-167.866	-183.716	0.403	0.007
-166.852	-10.962	-0.158	-0.103
-165.837	-76.113	0.084	-0.029
-164.823	200.664	-0.009	0.014
-163.808	-200.000	-0.047	-0.347
-162.793	36.647	0.158	0.137
-161.779	469.961	-0.170	-0.377
-160.764	158.520	-0.161	0.220
-159.750	22.742	0.165	0.133
-158.735	-200.000	-0.025	0.467
-157.720	800.000	0.099	0.287
-156.706	-143.708	0.476	-0.045
-155.691	800.000	-0.066	0.200
-154.677	39.438	0.096	0.085
-153.662	-56.587	-0.342	-0.150
-152.647	8.797	0.169	-0.126
-151.633	-200.000	0.058	-0.296
-150.618	800.000	-0.053	0.219
-149.604	40.799	0.244	0.217
-148.589	-200.000	-0.102	-0.635
-147.574	800.000	0.036	-0.126
-146.560	684.256	-0.099	0.254
-145.545	5.074	0.370	0.268
-144.531	21.302	0.135	0.108
-143.516	-42.745	0.131	-0.066
-142.502	156.059	0.097	-0.132
-141.487	100.506	0.133	-0.153
-140.472	-119.679	0.149	0.025
-139.458	60.788	0.243	-0.238
-138.443	-200.000	0.001	0.070
-137.429	455.760	-0.129	0.283
-136.414	-26.753	0.224	-0.129
-135.399	800.000	-0.143	0.457
-134.385	-8.336	-0.206	0.137
-133.370	49.347	0.150	-0.139
-132.356	211.316	0.193	0.300
-131.341	187.059	0.085	-0.125
-130.326	79.937	0.194	0.205
-129.312	-96.392	-0.117	-0.031
-128.297	-38.087	-0.106	0.056
-127.283	-82.772	0.093	0.030
-126.268	800.000	-0.063	-0.258
-125.253	-116.207	-0.338	-0.062
-124.239	239.668	0.026	0.042
-123.224	-200.000	0.036	0.259
-122.210	-35.008	-0.156	-0.084
-121.195	0.693	-0.092	0.065
