DTS Sentinel unit serial number:	SN413079Multiplexer serial number:	ORYXHardware model number:	OX4-SRSoftware version number:	ORYX F/W v4.00 Oryx Data Collector v3.7.2.0data status	okinstallation	princeton_trtdifferential loss correction	single-endedforward channel	channel 2reverse channel	N/Adate	2019/09/17time	15:39:35forward acquisition time	60.00reverse acquisition time	0.00gamma	496.2192k internal	0.2302k external	0.2302temperature offset calibration	0.9983default loss term (dB/km)	0.3790temperature slope calibration	1.0000multiplexer offset coefficient	1.0000multiplexer slope coefficient	1.0000fibre end	0.00T internal ref (°C)	38.69T ext. ref 1 (°C)	0.38T ext. ref 2 (°C)	35.97length (m)	temperature (°C)	Stokes	anti-Stokes-747.200	800.000	-0.015	-0.065
-746.185	190.381	0.129	0.197
-745.171	-200.000	-0.021	0.093
-744.156	-107.641	-0.372	0.083
-743.142	51.093	-0.171	0.165
-742.127	580.542	-0.083	0.207
-741.112	-121.157	-0.041	-0.007
-740.098	344.391	-0.225	0.449
-739.083	-82.529	-0.298	-0.098
-738.069	-73.830	-0.237	0.088
-737.054	-64.185	-0.037	0.015
-736.039	656.204	-0.072	0.190
-735.025	-129.462	0.284	-0.040
-734.010	-107.096	-0.410	-0.092
-732.996	138.941	-0.067	-0.090
-731.981	60.699	0.514	-0.519
-730.966	-200.000	0.051	-0.388
-729.952	-62.389	-0.212	-0.090
-728.937	-150.968	-0.261	-0.020
-727.923	274.077	0.095	0.172
-726.908	439.071	-0.045	-0.099
-725.894	800.000	-0.058	-0.195
-724.879	-40.203	-0.061	-0.032
-723.864	-44.705	-0.555	-0.282
-722.850	121.069	0.167	-0.212
-721.835	-89.903	-0.317	0.094
-720.821	-200.000	0.074	-0.439
-719.806	-92.843	0.256	-0.073
-718.791	-178.800	0.351	0.008
-717.777	-61.692	-0.420	0.179
-716.762	800.000	0.023	-0.067
-715.748	562.439	0.064	0.158
-714.733	-87.038	0.331	0.103
-713.718	404.374	0.126	-0.269
-712.704	-108.332	0.220	-0.048
-711.689	-187.017	-0.059	-0.001
-710.675	-194.527	0.205	-0.002
-709.660	15.235	0.204	-0.163
-708.645	12.764	-0.093	-0.073
-707.631	5.468	0.146	0.110
-706.616	-26.456	0.045	-0.027
-705.602	-68.043	0.093	0.037
-704.587	11.243	0.137	0.107
-703.572	147.824	0.039	0.053
-702.558	29.717	0.179	0.155
-701.543	800.000	0.057	-0.251
-700.529	-88.446	-0.371	-0.113
-699.514	12.365	0.344	0.270
-698.499	-200.000	-0.003	-0.114
-697.485	-70.007	-0.247	0.096
-696.470	-200.000	-0.030	0.408
-695.456	-200.000	-0.015	-0.241
-694.441	142.020	-0.059	-0.080
-693.426	106.906	0.097	-0.117
-692.412	-200.000	0.016	-0.124
-691.397	161.476	-0.144	-0.205
-690.383	-45.917	-0.087	0.044
-689.368	566.881	-0.166	-0.410
-688.354	94.164	-0.101	0.116
-687.339	-52.902	-0.140	-0.066
-686.324	11.537	-0.221	0.172
-685.310	-4.272	-0.230	-0.162
-684.295	-106.896	-0.291	0.065
-683.281	800.000	0.036	-0.140
-682.266	-116.319	-0.177	0.033
-681.251	147.191	-0.256	-0.351
-680.237	-113.661	0.152	0.030
-679.222	-200.000	-0.027	0.178
-678.208	-117.029	-0.143	-0.026
-677.193	49.876	-0.220	0.211
-676.178	166.510	0.082	0.118
-675.164	164.836	-0.217	-0.311
-674.149	-57.568	-0.267	0.119
-673.135	497.696	-0.082	-0.193
-672.120	800.000	0.050	-0.174
-671.105	-138.436	0.133	0.015
-670.091	296.942	0.133	0.249
-669.076	438.814	-0.087	-0.193
-668.062	-200.000	0.013	-0.462
-667.047	-95.945	-0.169	0.046
-666.032	-26.745	-0.190	0.113
-665.018	-11.464	0.370	0.247
-664.003	-57.091	0.151	-0.067
-662.989	-200.000	-0.030	0.180
-661.974	176.879	-0.209	-0.309
-660.959	-184.695	0.232	0.004
-659.945	448.582	-0.049	-0.110
-658.930	800.000	-0.130	-0.487
-657.916	106.764	-0.109	-0.131
-656.901	-123.964	0.171	0.027
-655.886	-200.000	-0.054	-0.280
-654.872	524.807	0.145	0.345
-653.857	122.158	-0.057	-0.073
-652.843	-38.957	-0.182	0.097
-651.828	298.098	0.136	-0.254
-650.814	-55.436	-0.165	-0.075
-649.799	-200.000	0.013	-0.161
-648.784	-23.962	-0.012	0.007
-647.770	-141.961	0.162	0.016
-646.755	14.313	-0.369	0.292
-645.741	632.532	0.111	0.284
-644.726	-78.699	-0.117	-0.041
-643.711	-200.000	0.033	0.259
-642.697	-2.178	-0.124	0.089
-641.682	-200.000	-0.003	0.068
-640.668	-117.584	-0.153	0.028
-639.653	800.000	0.030	0.097
-638.638	-29.919	-0.172	-0.099
-637.624	50.564	-0.129	0.124
-636.609	800.000	-0.107	-0.354
-635.595	-200.000	-0.005	0.026
-634.580	-97.036	0.155	-0.041
-633.565	-171.646	-0.089	-0.003
-632.551	800.000	0.117	-0.372
-631.536	37.962	-0.034	-0.031
-630.522	151.229	-0.088	-0.121
-629.507	-200.000	-0.033	0.180
-628.492	800.000	-0.072	0.204
-627.478	317.014	0.112	-0.215
-626.463	527.053	0.092	-0.219
-625.449	-96.458	0.149	-0.040
-624.434	-200.000	0.032	-0.158
-623.419	126.396	0.052	-0.066
-622.405	-200.000	0.016	0.124
-621.390	-44.341	0.148	-0.075
-620.376	266.483	-0.160	-0.284
-619.361	26.582	-0.049	0.041
-618.346	153.591	0.148	0.205
-617.332	372.737	-0.132	-0.273
-616.317	-200.000	-0.002	-0.222
-615.303	-200.000	-0.001	0.142
-614.288	-200.000	0.073	0.463
-613.273	-24.502	-0.222	-0.134
-612.259	-159.440	0.477	-0.027
-611.244	-15.468	-0.182	0.118
-610.230	27.567	0.083	0.071
-609.215	800.000	0.075	0.275
-608.201	-50.835	-0.134	0.064
-607.186	103.875	-0.174	0.208
-606.171	39.251	0.171	0.155
-605.157	-118.404	0.287	-0.052
-604.142	-200.000	-0.009	0.176
-603.128	-124.814	-0.145	-0.023
-602.113	-200.000	-0.006	0.261
-601.098	-117.706	0.050	-0.009
-600.084	39.533	0.209	0.190
-599.069	711.467	-0.048	-0.128
-598.055	-200.000	0.024	-0.122
-597.040	-30.480	-0.207	0.119
-596.025	-74.282	0.155	-0.057
-595.011	274.207	-0.071	0.128
-593.996	26.318	-0.175	0.148
-592.982	-47.694	0.197	-0.097
-591.967	266.610	0.030	-0.054
-590.952	-39.953	-0.150	-0.079
-589.938	-100.008	0.295	0.075
-588.923	141.513	-0.110	-0.147
-587.909	-83.431	-0.178	0.058
-586.894	800.000	0.069	-0.226
-585.879	-46.261	0.106	-0.053
-584.865	-200.000	0.006	0.181
-583.850	-110.477	0.087	0.018
-582.836	-69.322	-0.333	-0.130
-581.821	136.495	0.191	0.253
-580.806	227.343	-0.131	0.215
-579.792	-149.461	-0.067	0.005
-578.777	-38.524	0.271	0.145
-577.763	800.000	-0.168	-0.472
-576.748	-132.561	-0.144	0.019
-575.733	-30.626	0.267	0.153
-574.719	227.939	0.053	-0.088
-573.704	276.263	-0.034	-0.060
-572.690	-200.000	-0.043	-0.228
-571.675	-17.373	-0.104	0.066
-570.661	-4.636	0.241	0.168
-569.646	1.788	-0.171	0.125
-568.631	-94.482	0.064	0.018
-567.617	-55.469	0.050	0.022
-566.602	441.948	0.118	0.261
-565.588	81.665	-0.101	0.110
-564.573	-117.804	0.171	0.031
-563.558	22.071	0.288	0.238
-562.544	-200.000	0.020	-0.281
-561.529	-130.343	-0.359	-0.049
-560.515	-122.063	-0.153	0.025
-559.500	54.134	-0.187	0.182
-558.485	24.882	-0.236	-0.198
-557.471	366.265	0.022	0.044
-556.456	0.772	-0.225	-0.163
-555.442	-176.565	-0.186	-0.005
-554.427	-108.869	-0.418	0.090
-553.412	6.129	0.232	0.174
-552.398	624.850	0.010	0.025
-551.383	-200.000	-0.002	0.312
-550.369	103.607	-0.130	0.155
-549.354	405.682	-0.094	-0.200
-548.339	56.532	0.177	0.174
-547.325	-200.000	0.089	0.464
-546.310	373.472	-0.078	0.160
-545.296	446.332	-0.054	0.120
-544.281	800.000	0.057	-0.241
-543.266	34.064	-0.295	-0.260
-542.252	-159.009	-0.183	0.011
-541.237	66.260	0.049	-0.050
-540.223	800.000	-0.061	-0.239
-539.208	-200.000	-0.009	-0.291
-538.193	-112.636	-0.127	-0.026
-537.179	183.532	-0.208	-0.311
-536.164	-149.346	0.256	0.021
-535.150	28.336	-0.145	0.124
-534.135	32.418	0.298	-0.260
-533.121	42.115	0.125	-0.115
-532.106	-88.263	-0.080	-0.024
-531.091	241.028	0.062	0.105
-530.077	-200.000	0.005	-0.086
-529.062	800.000	-0.049	-0.149
-528.048	-75.067	-0.184	-0.067
-527.033	163.329	0.169	0.240
-526.018	-18.509	-0.081	-0.051
-525.004	674.205	-0.068	0.179
-523.989	-182.846	0.121	0.002
-522.975	-45.041	-0.353	0.177
-521.960	800.000	0.035	0.133
-520.945	29.916	0.165	-0.142
-519.931	238.170	-0.195	0.327
-518.916	234.389	0.175	-0.291
-517.902	38.622	-0.162	0.146
-516.887	13.766	-0.101	-0.079
-515.872	-34.958	-0.219	-0.121
-514.858	-83.174	-0.095	-0.031
-513.843	286.647	-0.004	0.007
-512.829	-87.546	-0.109	0.033
-511.814	620.117	-0.147	-0.373
-510.799	79.647	0.123	-0.134
-509.785	800.000	0.162	-0.571
-508.770	-48.568	-0.242	0.118
-507.756	-200.000	0.001	-0.138
-506.741	-157.285	0.448	-0.027
-505.726	800.000	-0.023	-0.080
-504.712	-91.258	-0.140	0.041
-503.697	-101.780	-0.289	0.071
-502.683	-8.932	0.150	-0.102
-501.668	399.631	-0.142	-0.300
-500.653	191.214	0.084	-0.128
-499.639	104.756	-0.032	0.038
-498.624	8.731	0.193	-0.147
-497.610	248.318	-0.074	-0.126
-496.595	160.083	-0.197	-0.276
-495.581	-51.918	0.249	0.117
-494.566	-20.752	0.039	0.024
-493.551	-11.826	-0.188	-0.125
-492.537	-200.000	-0.030	-0.246
-491.522	-70.443	0.301	-0.115
-490.508	558.139	-0.122	-0.296
-489.493	147.239	-0.229	0.310
-488.478	439.164	0.062	0.137
-487.464	380.869	0.103	-0.213
-486.449	-93.353	0.175	-0.049
-485.435	191.017	-0.140	0.212
-484.420	800.000	0.067	0.239
-483.405	-161.551	-0.355	0.018
-482.391	140.392	-0.025	-0.033
-481.376	-123.374	0.075	0.012
-480.362	324.774	-0.036	-0.070
-479.347	-200.000	0.017	0.106
-478.332	198.512	-0.071	0.110
-477.318	-51.179	0.223	0.105
-476.303	110.541	-0.183	0.222
-475.289	64.892	0.136	0.138
-474.274	800.000	-0.014	0.059
-473.259	-95.661	-0.191	0.051
-472.245	-115.077	-0.257	0.049
-471.230	262.969	-0.098	-0.172
-470.216	-74.956	0.138	-0.050
-469.201	800.000	-0.080	-0.226
-468.186	112.142	-0.095	-0.115
-467.172	27.167	-0.146	0.123
-466.157	-166.608	-0.317	-0.013
-465.143	-57.635	-0.124	-0.055
-464.128	57.664	0.268	0.264
-463.113	-64.009	-0.177	0.073
-462.099	800.000	-0.126	0.430
-461.084	-96.559	0.326	-0.087
-460.070	-88.728	-0.026	0.008
-459.055	264.566	0.051	0.090
-458.040	51.833	-0.212	0.204
-457.026	-48.739	0.279	-0.135
-456.011	-200.000	0.009	-0.137
-454.997	177.941	0.138	-0.203
-453.982	177.775	-0.006	-0.009
-452.968	-200.000	0.199	0.000
-451.953	446.210	0.067	-0.148
-450.938	68.238	-0.045	-0.046
-449.924	70.177	-0.171	-0.178
-448.909	-200.000	-0.013	-0.350
-447.895	109.259	-0.170	0.205
-446.880	-34.242	0.446	0.246
-445.865	-27.537	-0.069	0.040
-444.851	-79.927	0.178	-0.060
-443.836	-48.089	-0.217	0.106
-442.822	-200.000	-0.006	0.158
-441.807	-15.991	-0.093	-0.059
-440.792	-124.921	0.291	-0.045
-439.778	-158.788	-0.525	-0.030
-438.763	-37.517	-0.060	0.032
-437.749	-200.000	0.015	-0.141
-436.734	800.000	-0.064	-0.240
-435.719	-200.000	0.016	-0.236
-434.705	598.981	0.123	-0.306
-433.690	628.510	0.022	-0.055
-432.676	-65.956	-0.216	-0.087
-431.661	-183.671	-0.392	-0.007
-430.646	-133.718	0.358	-0.045
-429.632	-200.000	-0.042	0.212
-428.617	-150.423	0.317	-0.025
-427.603	-30.271	0.233	-0.133
-426.588	-154.195	0.418	0.028
-425.573	268.227	-0.098	-0.172
-424.559	350.466	-0.150	0.298
-423.544	800.000	0.077	0.335
-422.530	42.478	-0.245	0.224
-421.515	-33.885	0.280	0.155
-420.500	48.022	-0.081	-0.076
-419.486	-74.832	-0.216	-0.078
-418.471	451.401	0.084	-0.186
-417.457	800.000	-0.035	-0.137
-416.442	681.948	0.232	-0.609
-415.428	319.949	0.131	-0.250
-414.413	137.968	0.129	-0.170
-413.398	191.465	-0.103	-0.157
-412.384	131.733	0.126	-0.163
-411.369	-200.000	0.047	-0.379
-410.355	-84.686	0.044	0.014
-409.340	-130.977	-0.054	-0.007
-408.325	544.399	-0.017	-0.041
-407.311	-78.432	0.249	-0.086
-406.296	270.632	-0.055	0.097
-405.282	-162.768	0.210	0.010
-404.267	800.000	0.031	0.117
-403.252	34.909	0.225	0.198
-402.238	-122.904	-0.345	-0.056
-401.223	231.420	-0.092	-0.151
-400.209	-108.956	-0.365	0.078
-399.194	135.452	-0.053	0.069
-398.179	-200.000	-0.017	-0.155
-397.165	259.085	-0.076	-0.131
-396.150	662.541	-0.140	-0.364
-395.136	166.868	-0.170	-0.242
-394.121	-5.093	0.055	0.038
-393.106	388.335	-0.013	0.028
-392.092	800.000	-0.138	0.406
-391.077	-179.544	-0.199	0.004
-390.063	178.035	-0.095	-0.139
-389.048	-128.958	0.149	-0.021
-388.033	-71.897	-0.178	0.067
-387.019	-200.000	-0.011	0.180
-386.004	166.467	0.203	-0.289
-384.990	-60.817	-0.322	-0.137
-383.975	151.326	0.013	0.017
-382.960	-38.383	-0.102	0.054
-381.946	-89.857	-0.061	-0.018
-380.931	179.075	0.151	0.222
-379.917	635.631	-0.099	-0.253
-378.902	177.050	0.184	-0.269
-377.888	267.793	-0.022	0.039
-376.873	309.801	0.006	0.012
-375.858	-200.000	0.025	-0.318
-374.844	800.000	-0.023	-0.070
-373.829	175.929	0.047	0.068
-372.815	28.280	0.186	0.158
-371.800	144.755	0.252	-0.339
-370.785	-40.189	0.416	-0.218
-369.771	-200.000	0.044	0.241
-368.756	800.000	-0.022	-0.088
-367.742	-68.961	-0.145	-0.056
-366.727	-200.000	-0.030	-0.331
-365.712	800.000	0.066	-0.226
-364.698	10.878	0.099	0.076
-363.683	29.319	-0.121	0.103
-362.669	-83.898	0.333	0.106
-361.654	-48.384	-0.101	-0.049
-360.639	372.257	0.198	0.404
-359.625	-36.977	0.321	0.173
-358.610	-41.408	0.270	0.140
-357.596	-8.020	0.279	-0.189
-356.581	-83.676	0.418	0.134
-355.566	57.235	0.167	-0.163
-354.552	21.911	0.210	0.172
-353.537	47.670	0.183	0.172
-352.523	800.000	0.017	0.074
-351.508	-73.977	0.189	0.069
-350.493	-55.385	-0.184	-0.083
-349.479	84.328	0.140	0.153
-348.464	101.727	-0.088	-0.102
-347.450	240.457	-0.084	-0.141
-346.435	-61.288	0.214	0.091
-345.420	32.473	-0.104	0.091
-344.406	-27.425	0.320	-0.187
-343.391	95.206	-0.148	0.169
-342.377	-200.000	0.002	0.036
-341.362	-175.137	-0.214	-0.006
-340.348	-147.510	-0.217	-0.018
-339.333	64.928	0.227	0.230
-338.318	-57.306	0.356	-0.157
-337.304	113.850	-0.115	0.140
-336.289	-80.778	0.106	0.035
-335.275	-200.000	-0.009	-0.301
-334.260	303.362	0.190	-0.353
-333.245	-44.053	0.166	0.084
-332.231	-60.257	-0.234	0.100
-331.216	72.595	0.221	0.232
-330.202	-6.161	0.111	0.076
-329.187	-21.767	-0.150	0.091
-328.172	81.334	-0.068	0.074
-327.158	-200.000	0.036	0.353
-326.143	107.274	-0.071	0.085
-325.129	-48.076	-0.229	-0.111
-324.114	17.797	-0.176	0.140
-323.099	-53.081	-0.428	0.197
-322.085	231.574	0.183	-0.301
-321.070	394.206	-0.032	0.066
-320.056	251.427	0.130	0.222
-319.041	145.578	0.021	0.028
-318.026	151.503	-0.072	-0.098
-317.012	-115.414	0.129	0.024
-315.997	-80.351	-0.111	0.037
-314.983	250.786	0.065	-0.110
-313.968	-81.573	0.309	-0.102
-312.953	-85.529	-0.402	-0.125
-311.939	7.926	0.115	-0.087
-310.924	58.152	-0.216	0.213
-309.910	-200.000	-0.054	0.325
-308.895	79.246	-0.219	-0.235
-307.880	-16.763	-0.160	-0.101
-306.866	10.478	-0.266	0.203
-305.851	-87.482	-0.463	0.140
-304.837	162.373	0.079	-0.111
-303.822	-189.903	0.164	-0.002
-302.807	-139.219	0.030	-0.003
-301.793	800.000	-0.111	-0.323
-300.778	-66.307	0.014	0.005
-299.764	-200.000	0.082	0.438
-298.749	73.846	0.053	-0.055
-297.735	135.593	-0.159	-0.207
-296.720	261.918	-0.029	-0.051
-295.705	-87.995	-0.297	-0.089
-294.691	800.000	-0.032	-0.126
-293.676	135.668	-0.131	-0.171
-292.662	145.293	-0.053	0.071
-291.647	-200.000	-0.008	-0.275
-290.632	800.000	-0.032	0.137
-289.618	800.000	-0.126	-0.355
-288.603	-200.000	0.004	-0.122
-287.589	40.916	0.288	0.260
-286.574	-29.081	-0.291	-0.167
-285.559	800.000	0.037	-0.107
-284.545	-45.631	0.245	0.121
-283.530	-17.537	0.013	-0.008
-282.516	41.346	0.045	0.040
-281.501	-98.631	-0.188	-0.048
-280.486	-200.000	-0.007	0.087
-279.472	-128.505	0.147	0.021
-278.457	-128.022	0.325	0.047
-277.443	31.279	-0.079	-0.067
-276.428	650.375	-0.097	-0.248
-275.413	-43.301	0.210	-0.106
-274.399	-63.037	0.239	-0.099
-273.384	-50.057	0.171	-0.081
-272.370	686.586	0.158	-0.414
-271.355	800.000	0.106	0.326
-270.340	-149.942	-0.254	0.020
-269.326	-105.566	0.098	0.022
-268.311	6.074	0.143	0.106
-267.297	203.490	-0.291	-0.451
-266.282	64.856	-0.082	0.083
-265.267	-84.389	-0.164	0.052
-264.253	262.132	-0.008	-0.014
-263.238	67.510	0.104	0.106
-262.224	87.385	-0.169	0.187
-261.209	-43.634	-0.206	0.104
-260.195	45.942	0.314	0.291
-259.180	17.551	0.185	-0.147
-258.165	-92.072	0.162	-0.046
-257.151	-74.491	-0.121	0.044
-256.136	-39.290	0.420	0.220
-255.122	367.258	-0.254	-0.512
-254.107	800.000	0.054	0.197
-253.092	-14.841	0.135	-0.087
-252.078	307.042	-0.160	0.297
-251.063	1.885	0.267	0.193
-250.049	800.000	-0.121	-0.355
-249.034	-123.572	0.158	-0.025
-248.019	518.342	0.054	-0.127
-247.005	459.765	-0.082	-0.182
-245.990	-70.690	-0.178	0.067
-244.976	292.170	0.134	0.244
-243.961	-46.334	-0.144	-0.071
-242.946	129.948	0.144	-0.184
-241.932	421.918	0.095	-0.204
-240.917	279.961	0.086	-0.154
-239.903	129.901	0.170	-0.217
-238.888	-92.613	-0.103	-0.029
-237.873	-183.525	-0.171	0.003
-236.859	-35.545	-0.054	0.029
-235.844	331.463	0.013	-0.026
-234.830	-115.421	0.303	0.057
-233.815	800.000	-0.054	-0.163
-232.800	-200.000	0.057	0.289
-231.786	747.104	0.021	0.056
-230.771	356.997	-0.064	0.128
-229.757	-105.122	0.211	0.048
-228.742	-200.000	-0.037	0.170
-227.727	-101.212	-0.265	-0.065
-226.713	800.000	0.080	0.335
-225.698	800.000	0.041	-0.117
-224.684	134.118	-0.150	-0.194
-223.669	800.000	0.017	0.049
-222.655	-132.283	-0.074	0.010
-221.640	-200.000	0.066	0.293
-220.625	-200.000	-0.155	0.000
-219.611	13.713	0.230	-0.178
-218.596	-184.545	-0.051	-0.001
-217.582	-132.402	0.051	0.007
-216.567	57.504	0.074	0.072
-215.552	318.419	-0.020	-0.038
-214.538	-200.000	-0.011	0.165
-213.523	782.960	0.147	0.403
-212.509	-84.437	0.411	0.130
-211.494	-152.082	-0.308	0.022
-210.479	122.645	0.058	-0.073
-209.465	33.828	0.319	0.277
-208.450	-184.063	0.271	0.005
-207.436	646.697	0.060	0.152
-206.421	8.442	0.122	-0.091
-205.406	800.000	-0.112	-0.452
-204.392	800.000	-0.089	0.293
-203.377	320.514	-0.094	0.178
-202.363	-176.153	0.235	0.006
-201.348	339.586	0.215	0.418
-200.333	19.072	-0.083	-0.066
-199.319	-76.182	-0.122	-0.043
-198.304	-33.067	-0.078	-0.043
-197.290	-0.367	-0.270	-0.191
-196.275	-200.000	0.008	0.253
-195.260	-112.643	0.046	0.009
-194.246	333.525	-0.033	0.064
-193.231	-28.672	-0.409	0.235
-192.217	-200.000	-0.112	0.567
-191.202	800.000	0.050	-0.164
-190.187	102.393	-0.224	-0.262
-189.173	-20.020	0.094	0.058
-188.158	479.065	0.126	0.284
-187.144	-200.000	0.011	0.265
-186.129	249.570	-0.045	0.075
-185.114	366.127	-0.025	0.050
-184.100	-109.301	0.297	0.063
-183.085	-200.000	0.056	0.307
-182.071	800.000	0.085	0.269
-181.056	-200.000	0.010	0.126
-180.042	195.045	-0.310	-0.469
-179.027	555.730	0.075	-0.179
-178.012	-97.846	-0.359	-0.092
-176.998	-168.198	0.184	0.007
-175.983	62.930	0.140	0.140
-174.969	142.265	0.227	0.300
-173.954	-153.865	-0.426	0.029
-172.939	800.000	-0.025	-0.077
-171.925	221.044	0.066	-0.106
-170.910	-34.639	0.113	-0.062
-169.896	800.000	0.065	0.184
-168.881	-118.584	0.148	-0.026
-167.866	-200.000	0.020	-0.214
-166.852	-85.809	0.085	0.026
-165.837	-156.221	-0.141	0.009
-164.823	-200.000	-0.048	0.324
-163.808	593.543	0.010	-0.024
-162.793	326.596	0.140	0.268
-161.779	-140.951	-0.295	-0.030
-160.764	368.370	-0.106	0.214
-159.750	800.000	0.069	-0.228
-158.735	109.076	0.179	0.214
-157.720	-32.887	0.293	0.162
-156.706	140.760	-0.179	0.236
-155.691	-137.355	-0.236	0.027
-154.677	800.000	-0.056	-0.205
-153.662	-27.835	0.169	-0.097
-152.647	121.050	0.036	0.045
-151.633	-59.481	-0.164	-0.070
-150.618	51.883	0.342	0.325
-149.604	39.981	0.267	-0.239
-148.589	-47.225	0.073	0.036
-147.574	-61.345	-0.175	0.073
-146.560	76.351	-0.113	-0.120
-145.545	800.000	-0.040	0.120
-144.531	-81.988	0.110	-0.036
-143.516	297.983	-0.096	0.176
-142.502	800.000	0.165	0.550
-141.487	102.088	-0.162	-0.189
-140.472	-200.000	-0.024	0.171
-139.458	-200.000	-0.007	0.083
-138.443	800.000	0.065	0.231
-137.429	-193.420	-0.386	0.003
-136.414	-200.000	-0.069	-0.323
-135.399	77.373	0.238	0.252
-134.385	-200.000	-0.069	-0.337
-133.370	30.941	0.071	-0.060
-132.356	49.905	0.148	0.139
-131.341	114.982	0.191	-0.231
-130.326	75.360	0.241	0.253
-129.312	-84.477	-0.133	-0.042
-128.297	-110.911	0.209	0.043
-127.283	107.859	0.161	0.191
-126.268	-200.000	0.030	0.177
-125.253	800.000	0.140	0.447
-124.239	-104.848	0.044	-0.010
-123.224	800.000	-0.058	0.167
-122.210	-131.846	0.088	-0.011
-121.195	24.303	0.174	-0.143
