DTS Sentinel unit serial number:	SN413079Multiplexer serial number:	ORYXHardware model number:	OX4-SRSoftware version number:	ORYX F/W v4.00 Oryx Data Collector v3.7.2.0data status	okinstallation	princeton_trtdifferential loss correction	single-endedforward channel	channel 2reverse channel	N/Adate	2019/09/11time	18:37:11forward acquisition time	60.00reverse acquisition time	0.00gamma	496.2192k internal	0.2288k external	0.2288temperature offset calibration	1.0027default loss term (dB/km)	0.3790temperature slope calibration	1.0000multiplexer offset coefficient	1.0000multiplexer slope coefficient	1.0000fibre end	0.00T internal ref (°C)	43.62T ext. ref 1 (°C)	1.19T ext. ref 2 (°C)	36.29length (m)	temperature (°C)	Stokes	anti-Stokes-747.200	800.000	-0.076	0.277
-746.185	-0.386	-0.194	0.141
-745.171	-63.848	0.012	0.005
-744.156	-200.000	-0.068	0.337
-743.142	-153.607	0.189	0.013
-742.127	-46.961	0.202	-0.101
-741.112	158.101	0.056	0.080
-740.098	550.802	-0.167	0.411
-739.083	-200.000	-0.018	0.094
-738.069	508.335	-0.111	0.265
-737.054	800.000	0.040	0.162
-736.039	800.000	0.047	0.159
-735.025	631.124	-0.039	0.102
-734.010	310.694	0.068	-0.131
-732.996	108.838	-0.055	-0.067
-731.981	-172.569	-0.056	0.002
-730.966	-148.172	-0.337	-0.029
-729.952	-28.981	-0.073	-0.043
-728.937	-200.000	-0.012	0.094
-727.923	-100.187	-0.137	0.035
-726.908	-17.195	0.187	0.121
-725.894	171.491	0.133	-0.195
-724.879	-70.359	-0.032	0.012
-723.864	396.723	-0.010	0.022
-722.850	-100.964	-0.072	-0.018
-721.835	-102.583	-0.282	-0.069
-720.821	117.478	0.213	-0.268
-719.806	-109.929	0.242	-0.052
-718.791	177.086	-0.108	-0.161
-717.777	800.000	-0.146	-0.427
-716.762	-200.000	0.041	0.356
-715.748	1.127	0.108	-0.080
-714.733	283.310	-0.052	-0.095
-713.718	-142.766	0.296	0.030
-712.704	340.043	0.095	-0.189
-711.689	-200.000	-0.042	-0.247
-710.675	66.849	0.013	-0.013
-709.660	-200.000	-0.002	-0.276
-708.645	800.000	0.078	-0.330
-707.631	137.153	-0.131	-0.176
-706.616	54.763	-0.355	-0.351
-705.602	82.392	-0.114	-0.126
-704.587	-200.000	0.093	-0.502
-703.572	-200.000	0.069	-0.502
-702.558	75.739	0.144	0.155
-701.543	-200.000	0.006	-0.068
-700.529	268.961	-0.136	-0.245
-699.514	-118.215	-0.195	-0.036
-698.499	-48.356	-0.071	-0.035
-697.485	-81.390	-0.202	0.068
-696.470	800.000	-0.024	0.090
-695.456	429.375	-0.043	-0.095
-694.441	224.028	-0.109	0.180
-693.426	379.649	-0.073	0.154
-692.412	-77.848	-0.124	-0.044
-691.397	131.133	-0.114	0.150
-690.383	432.932	-0.109	0.243
-689.368	-124.929	-0.373	-0.059
-688.354	527.256	0.080	0.192
-687.339	203.862	0.141	-0.223
-686.324	116.642	-0.105	-0.132
-685.310	164.699	0.068	-0.099
-684.295	-146.576	-0.474	0.042
-683.281	-53.859	0.098	-0.046
-682.266	-48.718	-0.238	0.117
-681.251	391.124	0.153	-0.324
-680.237	44.524	-0.292	0.274
-679.222	800.000	0.069	-0.240
-678.208	-129.319	-0.209	-0.030
-677.193	28.385	0.126	0.109
-676.178	-200.000	0.009	0.323
-675.164	-37.338	-0.137	0.075
-674.149	19.255	-0.141	0.116
-673.135	-200.000	-0.012	0.095
-672.120	-85.887	0.268	-0.085
-671.105	102.920	0.169	-0.202
-670.091	82.606	0.202	-0.224
-669.076	-200.000	-0.063	-0.319
-668.062	67.948	0.086	-0.090
-667.047	-168.302	0.093	-0.004
-666.032	6.110	-0.258	0.195
-665.018	302.766	0.110	-0.208
-664.003	-200.000	0.009	-0.236
-662.989	-23.189	-0.195	0.120
-661.974	-200.000	0.036	-0.310
-660.959	-170.341	0.269	0.010
-659.945	68.728	0.337	0.354
-658.930	-106.796	-0.291	-0.066
-657.916	-15.645	0.094	0.062
-656.901	63.265	-0.113	0.116
-655.886	-77.336	0.456	0.162
-654.872	617.695	-0.037	0.094
-653.857	-200.000	0.003	0.163
-652.843	277.368	-0.091	0.166
-651.828	-136.087	-0.353	-0.042
-650.814	-96.134	-0.175	0.048
-649.799	-130.652	0.261	-0.036
-648.784	134.999	-0.149	-0.197
-647.770	16.192	0.222	0.178
-646.755	128.115	0.045	-0.059
-645.741	800.000	-0.080	-0.317
-644.726	78.742	-0.156	-0.170
-643.711	800.000	-0.109	0.472
-642.697	531.457	-0.102	0.246
-641.682	800.000	-0.086	0.274
-640.668	14.754	-0.107	0.085
-639.653	610.500	0.144	0.369
-638.638	-200.000	-0.023	0.294
-637.624	800.000	0.014	0.048
-636.609	24.743	-0.111	-0.094
-635.595	-200.000	0.003	0.072
-634.580	211.011	0.267	-0.429
-633.565	258.888	0.109	-0.192
-632.551	115.122	0.100	0.124
-631.536	-200.000	-0.003	-0.424
-630.522	-130.557	0.228	-0.031
-629.507	561.565	0.065	-0.161
-628.492	800.000	-0.029	-0.114
-627.478	95.181	0.202	0.234
-626.463	-41.852	-0.273	-0.143
-625.449	-150.106	-0.053	0.004
-624.434	-200.000	0.082	0.432
-623.419	800.000	-0.022	0.093
-622.405	-200.000	-0.013	-0.236
-621.390	800.000	-0.039	0.119
-620.376	-107.181	-0.081	0.018
-619.361	-200.000	0.032	-0.352
-618.346	-10.013	0.187	-0.127
-617.332	800.000	-0.061	-0.197
-616.317	-73.219	0.221	-0.083
-615.303	-162.720	0.128	0.006
-614.288	-200.000	0.033	-0.251
-613.273	104.346	-0.141	0.170
-612.259	669.892	-0.049	-0.129
-611.244	42.273	-0.200	0.185
-610.230	-68.049	-0.063	-0.025
-609.215	217.218	0.038	0.062
-608.201	-200.000	0.044	-0.280
-607.186	488.130	0.068	-0.159
-606.171	-144.759	-0.082	0.008
-605.157	-88.471	-0.270	-0.082
-604.142	-92.051	-0.249	0.072
-603.128	-0.106	-0.323	0.234
-602.113	800.000	-0.052	0.197
-601.098	432.044	-0.098	-0.216
-600.084	-159.639	-0.423	0.024
-599.069	39.861	-0.343	-0.314
-598.055	-200.000	-0.009	0.242
-597.040	16.655	0.030	-0.024
-596.025	15.589	-0.083	-0.067
-595.011	-79.401	-0.266	-0.092
-593.996	164.318	-0.042	0.060
-592.982	319.222	-0.214	-0.413
-591.967	-4.038	0.068	0.048
-590.952	127.642	0.063	-0.082
-589.938	457.478	0.086	0.195
-588.923	128.419	-0.395	0.512
-587.909	340.481	0.080	-0.160
-586.894	-141.524	0.120	0.012
-585.879	359.331	0.103	-0.210
-584.865	47.408	-0.171	-0.162
-583.850	-26.285	0.046	-0.028
-582.836	276.803	0.096	0.174
-581.821	-135.335	0.073	0.009
-580.806	598.694	0.045	0.113
-579.792	101.067	-0.325	0.385
-578.777	-21.659	-0.306	0.190
-577.763	18.637	-0.174	-0.142
-576.748	111.285	0.110	0.135
-575.733	339.373	0.069	-0.138
-574.719	800.000	0.057	0.248
-573.704	-78.534	0.318	0.111
-572.690	-200.000	-0.010	0.050
-571.675	-200.000	-0.005	-0.352
-570.661	-56.456	-0.183	-0.082
-569.646	-119.547	-0.060	-0.010
-568.631	26.167	0.133	0.113
-567.617	263.140	-0.081	0.144
-566.602	-200.000	0.059	0.358
-565.588	800.000	0.076	-0.243
-564.573	13.091	-0.369	-0.291
-563.558	800.000	-0.079	-0.253
-562.544	-70.282	0.157	-0.061
-561.529	465.543	-0.107	-0.244
-560.515	-10.310	-0.134	-0.090
-559.500	396.399	-0.066	0.140
-558.485	292.461	-0.077	0.143
-557.471	-147.168	0.022	0.002
-556.456	-116.920	0.046	0.009
-555.442	-96.972	0.237	0.063
-554.427	-115.651	0.206	0.039
-553.412	-38.690	-0.199	0.107
-552.398	-61.608	0.475	-0.203
-551.383	-69.389	-0.109	-0.043
-550.369	25.461	0.134	0.113
-549.354	75.981	0.139	0.150
-548.339	-200.000	0.007	-0.167
-547.325	-102.397	-0.301	-0.073
-546.310	-130.659	-0.083	-0.011
-545.296	-81.946	0.148	0.049
-544.281	-102.679	-0.049	0.012
-543.266	800.000	-0.027	0.084
-542.252	-53.735	0.386	0.179
-541.237	800.000	-0.185	0.617
-540.223	182.098	0.136	0.204
-539.208	457.883	0.150	-0.338
-538.193	29.421	-0.229	-0.198
-537.179	33.273	0.058	0.051
-536.164	69.180	-0.008	0.008
-535.150	-200.000	0.072	-0.373
-534.135	-79.561	-0.123	0.042
-533.121	800.000	-0.059	0.261
-532.106	-80.066	-0.090	0.031
-531.091	-200.000	-0.048	-0.244
-530.077	800.000	-0.078	-0.293
-529.062	148.563	0.262	0.360
-528.048	-81.175	0.317	0.107
-527.033	-104.295	-0.188	-0.044
-526.018	387.458	0.036	-0.075
-525.004	-99.329	-0.224	0.058
-523.989	-200.000	0.024	0.271
-522.975	463.953	-0.063	0.142
-521.960	-134.197	-0.171	0.021
-520.945	800.000	0.070	0.220
-519.931	-60.224	-0.025	0.011
-518.916	-108.596	-0.356	0.078
-517.902	-57.246	0.214	-0.096
-516.887	107.002	0.220	-0.266
-515.872	312.547	-0.159	-0.303
-514.858	-200.000	0.039	0.223
-513.843	-70.005	-0.314	-0.121
-512.829	38.062	-0.191	-0.172
-511.814	153.434	0.064	-0.089
-510.799	255.573	-0.074	0.129
-509.785	-93.151	-0.082	0.023
-508.770	-44.595	-0.203	-0.103
-507.756	-81.424	-0.079	0.026
-506.741	331.043	0.228	0.445
-505.726	-69.357	-0.074	-0.029
-504.712	317.568	0.071	-0.137
-503.697	-16.202	0.081	0.052
-502.683	-149.609	-0.247	-0.020
-501.668	800.000	-0.034	0.096
-500.653	-200.000	-0.013	0.375
-499.639	-135.927	0.117	0.014
-498.624	-2.909	0.112	0.079
-497.610	542.250	0.021	0.052
-496.595	-46.632	0.399	-0.199
-495.581	94.113	-0.036	-0.041
-494.566	548.972	-0.093	-0.227
-493.551	-111.236	-0.127	0.026
-492.537	288.844	-0.097	-0.178
-491.522	6.213	0.167	-0.126
-490.508	-200.000	0.022	-0.349
-489.493	-90.206	0.166	-0.049
-488.478	-49.276	-0.462	-0.224
-487.464	-64.466	0.242	-0.100
-486.449	-57.992	0.225	0.100
-485.435	-116.471	0.290	0.054
-484.420	30.603	0.147	-0.127
-483.405	-94.932	0.239	0.066
-482.391	-40.663	0.213	-0.112
-481.376	800.000	0.033	-0.124
-480.362	-200.000	0.022	0.101
-479.347	800.000	-0.079	0.295
-478.332	-28.825	0.306	0.178
-477.318	-118.750	0.172	-0.031
-476.303	83.598	0.170	0.188
-475.289	800.000	-0.073	-0.245
-474.274	-200.000	-0.009	0.238
-473.259	-200.000	0.042	0.510
-472.245	-156.744	0.120	-0.008
-471.230	-200.000	0.010	-0.075
-470.216	602.682	0.061	0.154
-469.201	231.181	-0.151	-0.250
-468.186	-200.000	0.019	0.147
-467.172	494.921	-0.089	-0.206
-466.157	-28.378	-0.293	-0.171
-465.143	103.437	0.027	0.032
-464.128	-59.295	0.244	-0.106
-463.113	-150.309	0.389	0.030
-462.099	246.901	0.167	0.285
-461.084	-149.823	-0.206	-0.016
-460.070	-82.847	-0.367	0.120
-459.055	800.000	0.037	-0.139
-458.040	800.000	-0.015	-0.061
-457.026	-200.000	0.008	-0.172
-456.011	-36.762	0.277	0.151
-454.997	-171.538	0.237	-0.008
-453.982	793.087	0.067	0.186
-452.968	-39.206	-0.402	0.214
-451.953	-65.982	0.052	-0.021
-450.938	76.832	0.044	-0.048
-449.924	-44.053	0.343	-0.175
-448.909	-200.000	0.229	0.001
-447.895	-200.000	-0.017	-0.134
-446.880	68.600	0.106	0.110
-445.865	-20.819	-0.172	-0.107
-444.851	256.965	0.115	-0.201
-443.836	67.833	-0.169	-0.175
-442.822	-25.581	0.169	0.101
-441.807	-111.970	0.153	0.031
-440.792	94.920	-0.234	0.269
-439.778	-179.601	0.182	0.004
-438.763	185.763	-0.154	-0.231
-437.749	-73.701	0.063	0.023
-436.734	100.823	0.203	-0.239
-435.719	-127.505	-0.201	-0.030
-434.705	-200.000	0.031	0.137
-433.690	-200.000	0.040	-0.274
-432.676	-182.121	0.262	-0.005
-431.661	-29.181	-0.248	-0.144
-430.646	-165.952	0.255	-0.011
-429.632	-53.697	-0.128	-0.059
-428.617	152.299	-0.146	-0.201
-427.603	19.846	-0.140	-0.114
-426.588	-61.440	0.207	-0.088
-425.573	800.000	0.098	0.281
-424.559	-97.621	0.261	0.069
-423.544	-200.000	-0.020	-0.463
-422.530	-14.786	0.330	-0.214
-421.515	223.952	0.021	0.034
-420.500	800.000	-0.089	0.271
-419.486	-61.603	-0.385	0.164
-418.471	129.797	0.197	-0.255
-417.457	-18.388	-0.149	0.094
-416.442	-200.000	-0.025	0.117
-415.428	-200.000	0.040	0.360
-414.413	-95.419	0.293	-0.080
-413.398	-200.000	-0.004	-0.208
-412.384	-50.450	-0.141	-0.068
-411.369	49.590	-0.194	0.185
-410.355	-200.000	0.053	0.327
-409.340	491.615	0.001	0.002
-408.325	-104.609	-0.330	0.077
-407.311	108.549	-0.183	-0.221
-406.296	17.831	0.068	0.055
-405.282	-112.988	-0.234	-0.047
-404.267	-93.635	-0.305	0.085
-403.252	36.626	-0.094	-0.084
-402.238	-122.701	-0.293	0.048
-401.223	-200.000	-0.013	0.275
-400.209	339.810	-0.077	-0.152
-399.194	42.848	-0.013	-0.012
-398.179	-191.980	0.337	0.003
-397.165	559.967	0.049	0.120
-396.150	-200.000	0.042	0.252
-395.136	-98.973	-0.061	0.016
-394.121	315.727	-0.128	-0.243
-393.106	208.485	-0.173	0.273
-392.092	45.257	0.091	-0.085
-391.077	-73.769	0.280	-0.103
-390.063	-200.000	-0.095	-0.491
-389.048	800.000	0.022	-0.083
-388.033	-23.316	0.214	-0.130
-387.019	-160.301	-0.198	-0.011
-386.004	-119.315	-0.088	-0.016
-384.990	23.409	-0.223	-0.185
-383.975	-30.225	-0.337	-0.193
-382.960	-76.304	0.254	0.090
-381.946	82.507	-0.126	-0.138
-380.931	800.000	-0.067	0.242
-379.917	291.817	-0.173	-0.318
-378.902	800.000	0.049	0.147
-377.888	800.000	0.084	0.332
-376.873	94.477	0.167	0.191
-375.858	13.958	-0.016	0.012
-374.844	-200.000	0.000	-0.293
-373.829	259.317	0.134	0.233
-372.815	155.618	-0.227	0.316
-371.800	-114.562	-0.226	0.044
-370.785	-20.532	0.175	-0.109
-369.771	-200.000	-0.407	0.001
-368.756	-151.057	0.107	-0.008
-367.742	-110.287	0.185	-0.039
-366.727	228.058	0.118	-0.195
-365.712	94.906	-0.212	-0.243
-364.698	306.920	0.125	-0.235
-363.683	-43.744	-0.196	-0.100
-362.669	-147.420	0.312	-0.027
-361.654	147.688	-0.075	0.102
-360.639	-61.953	0.152	0.064
-359.625	-25.096	0.217	-0.130
-358.610	657.718	0.058	0.152
-357.596	-94.269	-0.257	-0.071
-356.581	-200.000	-0.013	0.076
-355.566	-139.188	-0.262	-0.029
-354.552	358.622	0.089	0.179
-353.537	-141.946	-0.214	-0.022
-352.523	-200.000	-0.077	-0.347
-351.508	-141.005	0.101	-0.010
-350.493	2.061	-0.056	-0.041
-349.479	-113.230	-0.399	-0.079
-348.464	157.480	-0.036	-0.051
-347.450	-188.214	0.043	-0.001
-346.435	-200.000	0.057	0.306
-345.420	-200.000	0.024	0.258
-344.406	608.535	-0.018	-0.044
-343.391	221.864	0.087	0.141
-342.377	800.000	0.094	0.295
-341.362	-144.497	0.333	-0.031
-340.348	-200.000	-0.020	-0.189
-339.333	-114.843	-0.320	0.062
-338.318	-72.080	0.201	0.075
-337.304	85.011	0.160	0.178
-336.289	0.506	0.204	-0.147
-335.275	-31.744	-0.369	-0.209
-334.260	800.000	-0.084	-0.267
-333.245	-25.213	-0.193	0.115
-332.231	800.000	-0.073	0.204
-331.216	-115.234	0.211	0.040
-330.202	111.124	-0.027	0.033
-329.187	-27.746	-0.274	-0.161
-328.172	-17.022	0.020	-0.013
-327.158	342.136	0.071	0.141
-326.143	800.000	0.031	0.122
-325.129	800.000	-0.012	-0.042
-324.114	-62.285	-0.122	-0.051
-323.099	96.111	-0.132	-0.152
-322.085	90.963	-0.124	-0.140
-321.070	143.305	0.269	-0.361
-320.056	216.834	-0.040	0.064
-319.041	-20.976	0.440	0.272
-318.026	292.566	0.091	-0.168
-317.012	28.032	0.179	0.153
-315.997	-22.255	0.181	-0.110
-314.983	87.560	-0.084	-0.094
-313.968	187.513	-0.156	0.235
-312.953	-200.000	0.001	-0.102
-311.939	-29.572	0.322	-0.186
-310.924	112.379	-0.145	0.177
-309.910	800.000	0.075	0.217
-308.895	-103.357	-0.264	-0.063
-307.880	159.859	0.073	0.102
-306.866	-200.000	0.047	0.221
-305.851	-174.653	-0.135	0.004
-304.837	405.851	-0.086	0.183
-303.822	-31.974	0.134	-0.076
-302.807	-163.766	0.154	0.007
-301.793	-12.991	-0.066	0.043
-300.778	139.960	0.210	-0.279
-299.764	-82.048	-0.048	0.016
-298.749	-16.707	0.121	0.077
-297.735	800.000	-0.165	-0.501
-296.720	-112.901	0.312	-0.062
-295.705	544.872	-0.088	0.212
-294.691	-20.819	-0.255	-0.158
-293.676	-200.000	0.019	-0.086
-292.662	-125.572	0.235	0.036
-291.647	21.319	0.112	-0.092
-290.632	-117.197	-0.266	0.049
-289.618	11.604	-0.099	0.077
-288.603	253.542	-0.198	-0.340
-287.589	132.888	0.054	-0.070
-286.574	-51.245	-0.059	-0.028
-285.559	-21.396	-0.110	0.068
-284.545	800.000	0.098	0.279
-283.530	83.751	0.106	0.117
-282.516	-200.000	-0.003	-0.212
-281.501	-72.421	-0.077	0.029
-280.486	-3.311	0.098	-0.069
-279.472	335.455	0.117	-0.229
-278.457	552.239	0.077	0.186
-277.443	554.291	0.169	0.410
-276.428	-42.735	-0.282	0.144
-275.413	356.649	-0.039	-0.078
-274.399	-127.622	0.435	-0.063
-273.384	33.341	-0.350	0.306
-272.370	-200.000	0.005	0.190
-271.355	-200.000	0.032	-0.382
-270.340	-68.501	0.204	-0.080
-269.326	-114.395	-0.348	0.067
-268.311	-152.045	0.494	0.036
-267.297	-16.406	0.208	0.133
-266.282	-200.000	0.004	0.149
-265.267	252.449	0.167	-0.287
-264.253	800.000	-0.038	0.165
-263.238	144.064	0.011	-0.015
-262.224	-200.000	-0.017	0.134
-261.209	-22.105	0.059	0.036
-260.195	540.231	0.035	0.083
-259.180	-200.000	0.030	0.240
-258.165	211.825	-0.088	0.139
-257.151	-102.078	-0.395	-0.096
-256.136	800.000	-0.073	-0.220
-255.122	-159.202	0.134	0.008
-254.107	10.068	-0.431	0.329
-253.092	741.563	-0.134	0.362
-252.078	-46.766	-0.319	0.157
-251.063	-100.473	0.104	-0.026
-250.049	800.000	-0.033	0.097
-249.034	-53.687	0.291	-0.134
-248.019	647.716	-0.041	0.105
-247.005	800.000	-0.092	-0.361
-245.990	298.925	-0.275	0.510
-244.976	-3.669	0.287	0.201
-243.961	427.131	0.172	0.373
-242.946	-30.693	-0.201	-0.114
-241.932	290.833	0.169	-0.308
-240.917	-100.918	0.183	0.045
-239.903	62.540	0.118	-0.119
-238.888	246.411	-0.073	-0.123
-237.873	-152.083	-0.338	-0.025
-236.859	104.502	-0.166	-0.197
-235.844	-67.423	-0.274	0.108
-234.830	800.000	0.061	0.193
-233.815	-168.173	-0.136	-0.005
-232.800	-200.000	-0.010	0.214
-231.786	29.869	-0.083	0.071
-230.771	800.000	-0.040	-0.114
-229.757	-200.000	-0.021	0.123
-228.742	-200.000	0.006	-0.099
-227.727	686.237	-0.057	-0.149
-226.713	-96.218	0.348	-0.093
-225.698	-200.000	-0.026	-0.169
-224.684	-200.000	0.001	0.368
-223.669	149.065	-0.112	-0.152
-222.655	-200.000	-0.007	0.194
-221.640	120.745	-0.144	0.180
-220.625	-135.449	0.210	-0.025
-219.611	-182.270	-0.417	-0.008
-218.596	239.183	-0.099	-0.166
-217.582	-100.322	0.046	0.011
-216.567	16.365	-0.020	0.016
-215.552	-200.000	-0.048	0.228
-214.538	-59.866	-0.182	-0.078
-213.523	-200.000	0.013	0.084
-212.509	416.532	0.129	0.276
-211.494	489.057	-0.070	0.160
-210.479	83.189	0.251	0.274
-209.465	-23.184	0.213	0.129
-208.450	163.697	-0.153	0.217
-207.436	438.524	-0.119	-0.260
-206.421	-27.653	0.205	-0.120
-205.406	251.107	0.048	0.082
-204.392	-200.000	0.023	-0.131
-203.377	-47.342	0.264	-0.129
-202.363	-149.824	0.023	0.002
-201.348	-200.000	0.101	-0.457
-200.333	-80.871	-0.345	0.115
-199.319	38.054	-0.089	0.080
-198.304	-200.000	-0.046	-0.204
-197.290	330.284	0.100	-0.192
-196.275	531.196	0.099	-0.234
-195.260	-10.276	0.124	-0.083
-194.246	-64.760	0.140	-0.057
-193.231	444.320	0.204	0.450
-192.217	-77.947	-0.186	0.064
-191.202	-101.025	0.189	0.046
-190.187	108.836	-0.104	-0.124
-189.173	158.423	-0.107	0.150
-188.158	-200.000	-0.021	0.426
-187.144	-91.205	0.456	-0.131
-186.129	-89.947	-0.232	-0.068
-185.114	-55.985	0.165	0.074
-184.100	-134.808	0.399	-0.049
-183.085	-200.000	-0.083	-0.482
-182.071	198.437	0.123	-0.190
-181.056	349.582	0.011	-0.023
-180.042	-142.606	-0.190	0.019
-179.027	-162.238	0.261	0.013
-178.012	308.439	0.162	-0.304
-176.998	64.028	0.107	0.107
-175.983	289.589	-0.012	-0.021
-174.969	800.000	-0.053	-0.182
-173.954	-77.126	-0.079	0.028
-172.939	76.629	0.150	0.160
-171.925	-81.238	0.105	0.035
-170.910	106.993	0.139	-0.166
-169.896	-200.000	0.395	-0.001
-168.881	94.537	-0.078	0.089
-167.866	167.815	-0.052	-0.074
-166.852	451.092	0.083	0.183
-165.837	-0.502	-0.322	-0.229
-164.823	-80.114	0.058	-0.019
-163.808	585.576	0.063	-0.154
-162.793	29.198	0.127	-0.108
-161.779	-200.000	-0.004	0.412
-160.764	-200.000	-0.031	0.206
-159.750	364.111	-0.053	-0.107
-158.735	-200.000	-0.050	-0.244
-157.720	247.286	0.030	-0.051
-156.706	216.348	0.140	-0.223
-155.691	-89.313	0.109	-0.032
-154.677	-126.381	-0.229	-0.034
-153.662	-115.931	0.025	-0.005
-152.647	-200.000	0.017	-0.234
-151.633	592.807	-0.115	0.285
-150.618	575.714	-0.100	0.244
-149.604	-76.081	0.262	-0.093
-148.589	741.743	0.044	-0.119
-147.574	-39.558	-0.290	-0.152
-146.560	800.000	-0.011	-0.037
-145.545	4.511	0.243	0.179
-144.531	-146.820	-0.229	-0.020
-143.516	-43.324	0.298	-0.151
-142.502	9.366	0.314	0.238
-141.487	-115.632	-0.146	-0.028
-140.472	-151.826	0.388	0.028
-139.458	171.756	-0.024	0.034
-138.443	-200.000	0.052	0.258
-137.429	-200.000	-0.015	0.142
-136.414	158.784	-0.080	-0.111
-135.399	178.693	0.191	-0.279
-134.385	800.000	0.051	-0.155
-133.370	12.604	0.138	0.107
-132.356	-104.357	0.230	0.053
-131.341	-84.348	0.267	0.085
-130.326	8.969	-0.192	-0.145
-129.312	800.000	-0.092	-0.318
-128.297	142.258	0.118	-0.156
-127.283	-200.000	-0.001	-0.014
-126.268	197.131	0.245	0.374
-125.253	16.558	0.214	0.169
-124.239	214.779	0.161	0.256
-123.224	-86.976	-0.186	0.057
-122.210	-200.000	0.000	-0.149
