DTS Sentinel unit serial number:	SN413079Multiplexer serial number:	ORYXHardware model number:	OX4-SRSoftware version number:	ORYX F/W v4.00 Oryx Data Collector v3.7.2.0data status	okinstallation	princeton_trtdifferential loss correction	single-endedforward channel	channel 2reverse channel	N/Adate	2019/09/16time	08:03:35forward acquisition time	60.00reverse acquisition time	0.00gamma	496.2192k internal	0.2330k external	0.2330temperature offset calibration	0.9976default loss term (dB/km)	0.3790temperature slope calibration	1.0000multiplexer offset coefficient	1.0000multiplexer slope coefficient	1.0000fibre end	0.00T internal ref (°C)	28.56T ext. ref 1 (°C)	11.77T ext. ref 2 (°C)	24.77length (m)	temperature (°C)	Stokes	anti-Stokes-747.200	-94.515	-0.032	-0.009
-746.185	732.753	-0.095	0.256
-745.171	-2.988	0.029	0.020
-744.156	-121.446	-0.239	0.040
-743.142	-123.850	0.173	-0.027
-742.127	305.489	0.220	0.412
-741.112	19.541	-0.272	0.220
-740.098	109.615	-0.193	0.233
-739.083	403.931	0.058	0.123
-738.069	95.731	0.112	0.128
-737.054	-123.936	0.287	-0.046
-736.039	224.814	-0.181	-0.295
-735.025	-200.000	0.011	0.112
-734.010	51.422	-0.132	-0.126
-732.996	-80.884	-0.242	-0.081
-731.981	569.024	-0.039	-0.095
-730.966	3.808	-0.164	0.120
-729.952	-200.000	0.081	-0.585
-728.937	-12.791	-0.248	-0.163
-727.923	-30.018	-0.092	0.053
-726.908	487.112	-0.089	-0.204
-725.894	-200.000	-0.016	-0.071
-724.879	-200.000	-0.007	-0.135
-723.864	-56.210	0.227	0.102
-722.850	-127.734	0.075	-0.011
-721.835	-73.109	-0.107	-0.040
-720.821	307.488	0.152	0.285
-719.806	-109.671	0.064	-0.014
-718.791	-163.898	0.313	-0.015
-717.777	-123.656	0.231	0.037
-716.762	234.102	-0.159	-0.264
-715.748	140.498	0.137	-0.182
-714.733	-200.000	-0.077	-0.565
-713.718	-135.993	0.082	0.010
-712.704	-71.950	0.054	-0.020
-711.689	-127.368	0.316	0.046
-710.675	42.417	-0.220	0.201
-709.660	-119.879	0.177	-0.031
-708.645	33.753	0.360	0.315
-707.631	-16.022	-0.125	-0.080
-706.616	225.545	0.181	-0.294
-705.602	316.913	-0.171	-0.325
-704.587	-200.000	-0.018	-0.288
-703.572	-53.416	0.568	-0.261
-702.558	-152.621	-0.329	0.024
-701.543	56.390	-0.085	0.083
-700.529	800.000	-0.066	-0.262
-699.514	-127.271	-0.046	0.007
-698.499	-200.000	0.357	-0.000
-697.485	238.001	0.150	0.250
-696.470	-62.566	-0.370	-0.154
-695.456	-54.857	-0.485	0.220
-694.441	33.902	0.039	0.034
-693.426	-41.881	-0.228	0.117
-692.412	-200.000	-0.062	0.311
-691.397	29.152	-0.028	-0.024
-690.383	800.000	0.056	-0.184
-689.368	-69.284	-0.265	-0.102
-688.354	378.689	0.063	-0.129
-687.339	-29.029	0.190	-0.109
-686.324	217.258	0.236	0.378
-685.310	207.343	-0.024	0.038
-684.295	154.123	-0.096	-0.132
-683.281	236.607	-0.138	-0.229
-682.266	66.004	-0.517	-0.527
-681.251	380.212	0.082	0.170
-680.237	379.469	-0.136	0.280
-679.222	-200.000	0.052	-0.299
-678.208	74.516	0.102	0.108
-677.193	463.272	-0.108	0.243
-676.178	-138.000	-0.491	0.055
-675.164	96.694	-0.205	0.235
-674.149	6.581	0.147	-0.110
-673.135	-143.317	0.516	-0.050
-672.120	800.000	-0.020	-0.076
-671.105	-6.200	0.235	0.161
-670.091	-105.747	-0.293	0.066
-669.076	-31.200	0.293	-0.166
-668.062	800.000	-0.014	-0.041
-667.047	800.000	-0.044	-0.156
-666.032	307.827	-0.160	-0.299
-665.018	273.556	0.026	-0.046
-664.003	321.936	-0.008	0.015
-662.989	116.048	0.033	0.041
-661.974	214.264	0.171	0.272
-660.959	99.095	0.144	0.167
-659.945	-89.107	0.157	0.046
-658.930	-75.705	-0.336	-0.120
-657.916	-200.000	0.017	0.097
-656.901	800.000	0.058	0.247
-655.886	88.481	-0.100	-0.112
-654.872	27.775	-0.133	0.113
-653.857	800.000	-0.036	0.129
-652.843	548.389	-0.214	-0.515
-651.828	416.845	-0.105	-0.225
-650.814	375.753	0.116	0.237
-649.799	-7.627	-0.288	-0.196
-648.784	-39.166	-0.143	0.075
-647.770	334.318	0.169	-0.327
-646.755	800.000	0.054	0.210
-645.741	-5.283	-0.133	0.092
-644.726	45.646	0.198	-0.183
-643.711	25.858	-0.244	-0.204
-642.697	224.441	-0.062	-0.101
-641.682	179.066	-0.235	-0.345
-640.668	-200.000	0.014	-0.121
-639.653	-79.248	-0.153	-0.052
-638.638	-200.000	-0.186	-0.001
-637.624	-200.000	0.044	0.275
-636.609	-20.097	0.392	-0.242
-635.595	-17.104	-0.388	-0.245
-634.580	-11.776	0.076	0.050
-633.565	-35.190	0.267	-0.146
-632.551	786.374	0.089	0.244
-631.536	-200.000	-0.049	0.241
-630.522	-105.756	-0.248	0.056
-629.507	51.312	0.229	-0.218
-628.492	-49.641	0.194	0.093
-627.478	126.449	0.198	0.251
-626.463	-53.906	-0.189	-0.086
-625.449	-130.987	0.499	0.067
-624.434	172.604	-0.096	-0.139
-623.419	122.234	-0.300	0.375
-622.405	-133.365	-0.196	-0.025
-621.390	-18.474	0.152	0.095
-620.376	-93.673	-0.302	0.084
-619.361	204.722	0.197	-0.307
-618.346	-110.686	0.327	0.068
-617.332	800.000	0.013	-0.037
-616.317	169.346	0.035	-0.050
-615.303	-170.592	-0.124	0.004
-614.288	-200.000	0.040	0.224
-613.273	800.000	0.093	-0.284
-612.259	108.774	-0.083	0.100
-611.244	-19.981	-0.233	-0.144
-610.230	130.540	0.206	-0.264
-609.215	-182.251	-0.406	0.008
-608.201	-96.571	-0.020	-0.005
-607.186	-95.043	-0.163	-0.044
-606.171	139.632	0.135	0.178
-605.157	-123.132	-0.260	-0.042
-604.142	-139.532	-0.163	0.017
-603.128	223.598	0.115	0.186
-602.113	800.000	0.075	0.316
-601.098	-200.000	-0.023	-0.187
-600.084	-60.259	-0.274	0.117
-599.069	-200.000	0.009	-0.283
-598.055	305.423	0.162	0.301
-597.040	-62.881	-0.182	-0.075
-596.025	-200.000	-0.032	0.272
-595.011	-200.000	-0.021	0.111
-593.996	-171.627	-0.065	0.002
-592.982	-200.000	0.029	-0.261
-591.967	776.589	-0.035	-0.096
-590.952	45.570	-0.244	-0.225
-589.938	-154.140	0.196	-0.013
-588.923	54.705	0.144	-0.139
-587.909	-34.885	-0.118	-0.064
-586.894	-200.000	0.008	-0.138
-585.879	-11.911	0.030	0.020
-584.865	61.400	0.188	-0.187
-583.850	-200.000	-0.036	0.258
-582.836	104.949	-0.032	0.038
-581.821	-40.726	0.432	0.224
-580.806	-200.000	-0.040	0.385
-579.792	112.030	-0.143	0.173
-578.777	-166.757	-0.158	0.007
-577.763	693.026	0.142	-0.371
-576.748	84.761	-0.251	-0.275
-575.733	-64.298	-0.306	-0.125
-574.719	-137.279	0.515	0.058
-573.704	-64.959	-0.075	-0.031
-572.690	-39.714	-0.140	-0.073
-571.675	82.800	-0.039	-0.043
-570.661	129.546	-0.200	-0.256
-569.646	800.000	0.153	-0.422
-568.631	69.722	0.138	-0.142
-567.617	-90.921	-0.114	0.033
-566.602	18.072	-0.145	-0.116
-565.588	0.655	0.117	-0.084
-564.573	-140.588	0.082	0.008
-563.558	242.749	0.074	-0.124
-562.544	-27.942	0.161	-0.093
-561.529	-106.133	0.202	-0.045
-560.515	504.191	-0.091	0.211
-559.500	53.683	-0.114	-0.109
-558.485	-151.841	0.166	0.012
-557.471	181.219	-0.139	-0.205
-556.456	-72.219	-0.179	-0.066
-555.442	-200.000	-0.012	-0.180
-554.427	196.769	-0.135	0.206
-553.412	-42.415	0.251	-0.128
-552.398	-200.000	0.008	0.108
-551.383	-35.303	-0.127	0.069
-550.369	-71.635	0.096	-0.036
-549.354	-200.000	-0.028	-0.258
-548.339	-200.000	-0.055	-0.252
-547.325	-69.988	0.207	0.079
-546.310	-40.200	0.196	-0.102
-545.296	258.423	-0.067	0.116
-544.281	66.817	0.178	-0.181
-543.266	800.000	-0.086	-0.294
-542.252	-92.801	0.122	0.034
-541.237	-200.000	-0.004	-0.166
-540.223	-150.664	0.033	0.003
-539.208	-8.133	0.129	-0.087
-538.193	-200.000	-0.022	0.165
-537.179	-200.000	-0.070	0.464
-536.164	78.705	-0.060	-0.064
-535.150	283.321	-0.177	-0.318
-534.135	-5.870	0.276	-0.188
-533.121	-37.855	-0.209	0.111
-532.106	-47.911	0.336	-0.162
-531.091	-89.276	-0.212	-0.062
-530.077	-123.014	-0.244	0.039
-529.062	-200.000	0.050	0.300
-528.048	103.987	0.147	0.172
-527.033	-95.412	-0.086	0.023
-526.018	-200.000	-0.041	0.534
-525.004	-107.699	0.294	0.064
-523.989	481.907	-0.018	-0.042
-522.975	454.347	-0.130	-0.287
-521.960	-4.281	-0.309	0.213
-520.945	195.461	0.124	0.188
-519.931	701.672	0.109	0.287
-518.916	157.176	0.171	0.236
-517.902	-122.384	-0.173	-0.028
-516.887	59.604	0.101	-0.099
-515.872	-80.074	0.066	0.022
-514.858	194.473	-0.241	0.365
-513.843	-33.645	0.218	0.120
-512.829	23.496	-0.416	0.342
-511.814	-136.186	-0.346	-0.040
-510.799	471.198	0.166	-0.373
-509.785	106.538	0.097	-0.114
-508.770	800.000	-0.109	0.429
-507.756	-24.661	0.090	0.054
-506.741	0.118	-0.133	-0.095
-505.726	800.000	0.093	-0.399
-504.712	225.239	0.158	-0.255
-503.697	86.838	0.123	0.135
-502.683	-104.309	0.079	-0.018
-501.668	-71.577	-0.089	0.033
-500.653	128.433	-0.197	-0.251
-499.639	-200.000	0.012	0.163
-498.624	-160.411	0.306	-0.016
-497.610	-200.000	-0.038	-0.187
-496.595	-166.755	-0.132	-0.005
-495.581	-120.919	-0.113	-0.019
-494.566	-63.433	-0.253	-0.104
-493.551	-171.417	0.455	0.015
-492.537	-200.000	0.031	-0.261
-491.522	118.017	-0.088	0.108
-490.508	347.831	-0.153	0.301
-489.493	-10.288	0.147	0.097
-488.478	177.926	-0.157	0.228
-487.464	-200.000	0.043	-0.335
-486.449	-200.000	0.053	-0.391
-485.435	-32.767	-0.286	0.158
-484.420	199.694	-0.113	0.172
-483.405	-65.335	0.251	0.100
-482.391	504.023	-0.047	0.109
-481.376	-164.154	-0.377	-0.017
-480.362	800.000	-0.057	-0.198
-479.347	16.556	0.144	-0.113
-478.332	152.603	0.105	0.143
-477.318	25.859	-0.086	0.071
-476.303	-148.048	0.254	-0.021
-475.289	-200.000	-0.053	-0.292
-474.274	336.214	-0.155	-0.300
-473.259	-87.254	0.206	0.062
-472.245	120.730	-0.148	-0.183
-471.230	-6.900	0.235	-0.159
-470.216	461.045	0.155	-0.344
-469.201	-13.397	0.388	0.250
-468.186	-148.602	-0.098	-0.008
-467.172	800.000	0.119	0.401
-466.157	277.536	0.144	-0.255
-465.143	-14.004	0.399	0.257
-464.128	-50.492	-0.469	0.220
-463.113	157.806	-0.194	0.267
-462.099	-27.839	0.122	0.070
-461.084	-154.040	0.252	-0.017
-460.070	-144.941	-0.428	-0.039
-459.055	99.397	0.206	0.237
-458.040	-68.378	0.255	-0.098
-457.026	-3.611	-0.076	-0.053
-456.011	-200.000	-0.037	0.524
-454.997	457.247	0.133	0.295
-453.982	800.000	0.054	-0.166
-452.968	100.384	-0.114	0.132
-451.953	62.849	-0.183	-0.182
-450.938	155.448	-0.072	-0.098
-449.924	23.464	0.123	0.101
-448.909	-33.694	-0.145	0.080
-447.895	-43.000	0.100	0.051
-446.880	-117.245	-0.399	-0.072
-445.865	800.000	-0.106	-0.298
-444.851	57.462	0.146	0.141
-443.836	-164.602	0.126	0.006
-442.822	108.617	0.171	0.204
-441.807	800.000	-0.029	0.090
-440.792	-96.696	-0.048	-0.012
-439.778	800.000	-0.045	0.162
-438.763	-109.554	-0.305	-0.064
-437.749	30.120	-0.233	0.197
-436.734	131.415	-0.026	-0.033
-435.719	11.016	-0.019	-0.015
-434.705	-200.000	0.003	0.044
-433.690	800.000	0.063	0.194
-432.676	800.000	0.033	0.125
-431.661	27.651	-0.221	-0.185
-430.646	-200.000	0.054	0.239
-429.632	-81.841	-0.070	-0.023
-428.617	6.074	-0.242	-0.178
-427.603	2.438	-0.246	-0.177
-426.588	4.920	-0.284	-0.208
-425.573	278.470	-0.159	0.281
-424.559	-37.940	0.208	0.110
-423.544	32.745	0.138	-0.118
-422.530	147.557	-0.066	0.089
-421.515	274.879	0.139	0.244
-420.500	337.162	-0.093	0.179
-419.486	-104.115	0.279	-0.065
-418.471	145.752	-0.180	0.240
-417.457	-200.000	0.033	-0.189
-416.442	19.870	-0.189	0.151
-415.428	-36.868	0.107	-0.057
-414.413	187.645	0.035	0.051
-413.398	-4.937	-0.213	-0.146
-412.384	-175.910	0.190	-0.005
-411.369	-38.228	-0.204	0.107
-410.355	85.470	0.178	0.194
-409.340	24.813	0.197	-0.162
-408.325	-86.510	-0.247	-0.075
-407.311	22.299	-0.200	-0.163
-406.296	-121.648	-0.106	-0.017
-405.282	645.649	-0.042	0.106
-404.267	-27.223	-0.262	0.152
-403.252	800.000	0.090	-0.326
-402.238	-200.000	-0.004	0.118
-401.223	-200.000	-0.011	0.094
-400.209	166.347	0.160	-0.225
-399.194	-61.955	0.515	-0.214
-398.179	24.755	-0.014	0.012
-397.165	-99.101	0.239	0.060
-396.150	-158.995	-0.060	-0.003
-395.136	200.108	0.068	0.103
-394.121	-19.198	0.344	-0.212
-393.106	-200.000	-0.012	-0.095
-392.092	718.967	0.015	-0.039
-391.077	177.101	0.054	0.079
-390.063	-26.403	-0.118	-0.069
-389.048	-3.467	-0.223	-0.154
-388.033	-48.285	-0.337	-0.162
-387.019	-131.961	-0.224	-0.029
-386.004	-200.000	-0.035	-0.178
-384.990	80.754	0.252	-0.269
-383.975	-104.402	0.371	0.085
-382.960	148.854	-0.153	0.205
-381.946	47.344	-0.101	0.093
-380.931	82.177	0.049	0.053
-379.917	-123.068	-0.272	-0.043
-378.902	-56.223	-0.104	0.046
-377.888	800.000	0.024	-0.069
-376.873	-187.371	-0.350	-0.005
-375.858	-63.620	0.439	-0.179
-374.844	-83.816	-0.096	-0.030
-373.829	262.732	0.011	0.019
-372.815	21.247	0.081	0.065
-371.800	184.675	-0.142	-0.209
-370.785	-200.000	-0.007	0.103
-369.771	-156.296	-0.191	0.012
-368.756	249.590	-0.156	-0.262
-367.742	-200.000	0.041	-0.197
-366.727	-30.831	-0.318	-0.178
-365.712	-42.992	0.095	-0.048
-364.698	39.718	0.076	-0.068
-363.683	15.298	-0.121	-0.094
-362.669	-200.000	-0.030	0.254
-361.654	-200.000	-0.032	-0.210
-360.639	14.664	0.008	-0.006
-359.625	533.334	0.146	0.342
-358.610	-10.006	0.262	0.173
-357.596	-51.279	0.241	0.112
-356.581	-200.000	0.010	-0.124
-355.566	64.810	-0.119	-0.119
-354.552	-131.480	0.220	-0.029
-353.537	-4.033	-0.151	-0.104
-352.523	-85.315	-0.174	-0.054
-351.508	-20.427	0.291	0.177
-350.493	-184.180	-0.186	-0.003
-349.479	-49.186	-0.262	-0.124
-348.464	-43.734	0.285	-0.142
-347.450	-200.000	-0.024	-0.158
-346.435	-200.000	0.035	-0.162
-345.420	211.701	0.091	0.142
-344.406	-10.244	0.185	0.122
-343.391	-122.450	0.352	0.057
-342.377	81.861	-0.314	-0.337
-341.362	-200.000	0.017	0.269
-340.348	126.634	0.179	0.224
-339.333	40.118	0.070	0.062
-338.318	-57.307	-0.098	-0.043
-337.304	310.284	-0.090	-0.166
-336.289	800.000	-0.089	0.252
-335.275	800.000	-0.017	0.066
-334.260	337.607	0.041	-0.078
-333.245	-200.000	-0.042	-0.362
-332.231	-61.031	-0.161	-0.067
-331.216	-137.439	-0.262	0.029
-330.202	-80.977	0.256	-0.084
-329.187	-45.036	-0.169	0.083
-328.172	112.619	0.072	-0.087
-327.158	17.277	-0.117	0.092
-326.143	644.548	-0.029	0.073
-325.129	-18.585	0.166	-0.102
-324.114	-86.163	-0.122	-0.037
-323.099	238.950	0.028	-0.047
-322.085	-200.000	0.047	-0.239
-321.070	59.412	-0.199	-0.194
-320.056	-95.868	-0.257	-0.068
-319.041	400.895	-0.023	-0.048
-318.026	-63.234	0.364	0.149
-317.012	-106.823	-0.230	-0.051
-315.997	396.179	-0.067	-0.139
-314.983	697.289	0.051	0.131
-313.968	-52.866	0.483	0.220
-312.953	-200.000	-0.093	-0.415
-311.939	-200.000	-0.014	-0.161
-310.924	344.270	0.130	0.252
-309.910	800.000	-0.016	-0.059
-308.895	-150.799	0.318	-0.024
-307.880	-20.378	0.216	0.132
-306.866	370.576	0.137	-0.276
-305.851	-87.133	-0.167	0.050
-304.837	333.673	-0.151	0.290
-303.822	209.229	0.147	0.228
-302.807	-68.373	0.207	0.080
-301.793	-54.058	-0.162	-0.073
-300.778	-111.046	0.194	0.039
-299.764	-68.434	0.303	0.116
-298.749	-0.533	-0.122	-0.086
-297.735	57.455	0.127	-0.123
-296.720	115.339	0.178	0.215
-295.705	-200.000	-0.058	0.443
-294.691	77.314	0.104	-0.109
-293.676	-200.000	-0.002	-0.019
-292.662	202.403	0.079	0.121
-291.647	-200.000	-0.077	0.342
-290.632	-60.586	-0.364	0.153
-289.618	-60.923	0.133	0.056
-288.603	-46.934	-0.339	-0.164
-287.589	-200.000	0.051	-0.334
-286.574	-120.817	0.280	0.047
-285.559	109.179	0.061	-0.072
-284.545	43.702	0.110	0.100
-283.530	146.636	-0.116	0.153
-282.516	61.283	0.226	-0.222
-281.501	800.000	-0.023	-0.068
-280.486	88.689	0.177	-0.194
-279.472	21.158	-0.258	-0.207
-278.457	26.431	0.108	0.089
-277.443	78.621	0.207	0.218
-276.428	-200.000	0.005	-0.025
-275.413	-200.000	0.014	0.324
-274.399	220.204	-0.090	-0.142
-273.384	-100.786	0.509	-0.124
-272.370	99.597	-0.079	0.091
-271.355	207.173	-0.249	-0.384
-270.340	434.266	0.040	0.086
-269.326	-200.000	-0.017	0.275
-268.311	-200.000	0.021	0.210
-267.297	800.000	0.071	0.255
-266.282	-45.039	0.191	0.094
-265.267	244.947	-0.024	-0.040
-264.253	21.538	-0.240	-0.193
-263.238	21.188	-0.146	-0.117
-262.224	34.602	0.073	0.063
-261.209	-65.387	0.169	0.067
-260.195	10.974	-0.196	-0.148
-259.180	190.401	0.052	0.076
-258.165	-200.000	0.054	0.481
-257.151	-135.790	-0.140	0.016
-256.136	800.000	0.118	-0.331
-255.122	287.503	0.220	-0.393
-254.107	-103.900	0.135	0.031
-253.092	8.238	0.441	0.327
-252.078	-200.000	-0.009	0.468
-251.063	-113.651	-0.254	-0.049
-250.049	-200.000	-0.009	0.064
-249.034	178.881	-0.119	-0.172
-248.019	-107.850	-0.280	0.060
-247.005	-40.835	-0.196	0.100
-245.990	25.655	-0.205	0.169
-244.976	-200.000	-0.004	-0.325
-243.961	-200.000	-0.005	-0.080
-242.946	-200.000	0.008	-0.170
-241.932	229.772	0.112	-0.181
-240.917	-124.175	0.235	0.036
-239.903	-122.986	-0.068	0.011
-238.888	306.429	0.193	-0.355
-237.873	700.216	0.114	0.297
-236.859	-135.286	-0.415	0.049
-235.844	-141.601	-0.180	-0.018
-234.830	103.400	-0.160	-0.185
-233.815	201.205	-0.077	-0.117
-232.800	520.597	0.082	0.190
-231.786	244.033	0.100	0.166
-230.771	351.680	-0.109	0.214
-229.757	-200.000	-0.063	-0.271
-228.742	179.223	0.044	0.063
-227.727	800.000	-0.095	0.291
-226.713	102.245	-0.104	0.120
-225.698	-102.757	-0.328	0.077
-224.684	-6.775	-0.292	-0.196
-223.669	-15.166	-0.029	0.018
-222.655	238.731	0.200	-0.327
-221.640	-20.210	-0.187	-0.114
-220.625	-52.605	-0.503	0.229
-219.611	-25.432	0.182	-0.106
-218.596	-99.436	0.439	0.109
-217.582	-200.000	-0.037	0.245
-216.567	-170.097	-0.104	0.004
-215.552	-178.214	0.012	-0.000
-214.538	-91.714	0.290	0.081
-213.523	53.329	-0.136	0.128
-212.509	38.407	0.077	-0.067
-211.494	363.270	0.089	-0.176
-210.479	-114.641	-0.118	-0.022
-209.465	177.267	-0.134	0.193
-208.450	-200.000	-0.001	-0.183
-207.436	-15.125	0.018	-0.011
-206.421	378.778	-0.194	0.392
-205.406	-112.322	-0.161	-0.032
-204.392	-10.958	0.356	0.232
-203.377	-142.116	-0.311	0.030
-202.363	457.679	-0.025	-0.055
-201.348	63.925	0.044	-0.044
-200.333	227.467	0.080	-0.128
-199.319	-105.320	0.251	0.056
-198.304	-200.000	0.023	0.125
-197.290	45.660	-0.165	0.150
-196.275	-200.000	-0.010	0.044
-195.260	209.318	0.247	0.381
-194.246	552.625	0.160	-0.378
-193.231	-22.704	0.259	-0.154
-192.217	-200.000	0.023	0.285
-191.202	-120.281	-0.252	-0.042
-190.187	-100.612	-0.328	-0.080
-189.173	245.308	-0.111	0.184
-188.158	-200.000	0.072	0.440
-187.144	-200.000	0.024	-0.119
-186.129	-61.690	0.284	0.117
-185.114	800.000	0.048	-0.177
-184.100	800.000	0.111	0.458
-183.085	122.975	0.175	0.215
-182.071	-200.000	-0.032	-0.138
-181.056	-101.607	-0.321	-0.077
-180.042	187.443	0.171	0.252
-179.027	-197.541	-0.095	-0.001
-178.012	-122.404	0.297	0.048
-176.998	221.301	-0.098	0.156
-175.983	-177.341	0.046	-0.001
-174.969	800.000	-0.057	0.160
-173.954	-93.883	0.102	0.028
-172.939	-174.720	0.356	-0.010
-171.925	97.493	0.084	-0.095
-170.910	-1.481	-0.197	-0.137
-169.896	-200.000	-0.029	0.146
-168.881	-163.075	0.194	0.009
-167.866	-16.105	0.258	0.161
-166.852	-127.626	0.117	0.017
-165.837	-71.476	-0.177	-0.065
-164.823	-110.616	0.344	-0.070
-163.808	-145.534	-0.199	-0.018
-162.793	64.164	0.150	-0.148
-161.779	518.628	-0.064	0.149
-160.764	198.559	-0.014	0.022
-159.750	160.441	-0.181	-0.248
-158.735	148.122	0.178	-0.237
-157.720	8.910	0.054	0.040
-156.706	800.000	0.044	0.131
-155.691	303.512	0.033	-0.060
-154.677	113.765	0.293	-0.350
-153.662	2.998	-0.245	0.175
-152.647	88.667	-0.105	-0.115
-151.633	18.723	0.048	-0.038
-150.618	10.975	-0.031	0.023
-149.604	-87.074	0.243	-0.073
-148.589	-21.979	0.230	0.137
-147.574	268.730	0.083	0.143
-146.560	293.558	-0.067	-0.121
-145.545	758.666	0.127	-0.339
-144.531	133.283	0.082	0.104
-143.516	364.480	-0.096	-0.189
-142.502	-50.024	0.265	-0.123
-141.487	-95.699	-0.330	0.087
-140.472	52.090	-0.165	0.155
-139.458	-27.304	0.079	-0.045
-138.443	-184.351	-0.257	-0.004
-137.429	-136.741	-0.062	-0.007
-136.414	-60.873	0.209	-0.087
-135.399	112.658	0.069	0.083
-134.385	-64.749	0.294	-0.117
-133.370	800.000	0.023	-0.080
-132.356	100.745	-0.044	0.050
-131.341	800.000	0.131	0.452
-130.326	30.589	0.221	0.186
-129.312	-83.043	0.268	-0.085
-128.297	-35.381	0.227	0.121
-127.283	800.000	0.084	0.306
-126.268	-42.955	-0.185	0.092
-125.253	680.946	-0.066	0.168
-124.239	196.706	0.138	0.206
-123.224	562.316	0.086	0.204
-122.210	89.853	-0.254	0.279
-121.195	-9.038	0.244	0.160
