DTS Sentinel unit serial number:	SN413079Multiplexer serial number:	ORYXHardware model number:	OX4-SRSoftware version number:	ORYX F/W v4.00 Oryx Data Collector v3.7.2.0data status	okinstallation	princeton_trtdifferential loss correction	single-endedforward channel	channel 2reverse channel	N/Adate	2019/09/12time	19:12:49forward acquisition time	15.00reverse acquisition time	0.00gamma	496.2192k internal	0.2325k external	0.2325temperature offset calibration	1.0141default loss term (dB/km)	0.3790temperature slope calibration	1.0000multiplexer offset coefficient	1.0000multiplexer slope coefficient	1.0000fibre end	0.00T internal ref (°C)	32.56T ext. ref 1 (°C)	3.19T ext. ref 2 (°C)	27.14length (m)	temperature (°C)	Stokes	anti-Stokes-747.200	-26.127	-0.513	0.304
-746.185	-87.159	-0.280	-0.086
-745.171	-200.000	-0.186	-1.051
-744.156	-44.146	-0.656	-0.332
-743.142	-117.400	-0.656	-0.120
-742.127	-39.174	0.328	0.174
-741.112	-65.749	0.315	0.127
-740.098	235.218	-0.470	0.782
-739.083	57.192	-0.197	-0.194
-738.069	-24.213	-0.285	0.172
-737.054	-4.404	0.235	-0.164
-736.039	800.000	0.130	-0.445
-735.025	-135.173	-0.601	-0.073
-734.010	-96.353	-0.373	-0.100
-732.996	-74.354	-1.239	0.451
-731.981	-155.757	-0.284	-0.018
-730.966	-111.232	0.424	-0.087
-729.952	-200.000	0.165	0.833
-728.937	-57.535	-0.873	0.386
-727.923	-92.836	0.306	-0.086
-726.908	-62.877	-0.394	0.164
-725.894	-71.282	0.178	0.067
-724.879	31.618	-0.531	0.460
-723.864	-49.275	0.247	-0.119
-722.850	-200.000	0.050	0.591
-721.835	208.127	0.248	-0.391
-720.821	-73.785	-0.615	-0.225
-719.806	176.255	0.250	0.367
-718.791	-198.451	-1.116	-0.006
-717.777	14.505	0.699	-0.550
-716.762	-0.965	0.339	-0.242
-715.748	-48.484	0.600	-0.291
-714.733	-23.629	0.702	-0.425
-713.718	51.302	-0.644	-0.616
-712.704	110.302	-0.236	0.286
-711.689	163.784	-0.037	0.052
-710.675	-200.000	-0.024	-0.263
-709.660	-200.000	0.022	-0.628
-708.645	-200.000	0.156	0.822
-707.631	138.878	-0.922	1.220
-706.616	-72.130	-0.659	-0.247
-705.602	-200.000	0.189	-0.882
-704.587	-200.000	0.010	-0.245
-703.572	757.243	0.065	-0.176
-702.558	176.937	0.375	-0.550
-701.543	561.216	-0.223	-0.542
-700.529	-111.903	-0.727	0.148
-699.514	85.678	-0.021	-0.023
-698.499	249.345	-0.160	-0.272
-697.485	-200.000	-0.026	0.809
-696.470	658.979	0.345	0.895
-695.456	-198.480	-0.183	-0.001
-694.441	75.514	0.407	-0.433
-693.426	197.828	-0.440	0.678
-692.412	-75.946	1.082	-0.386
-691.397	-200.000	0.015	0.352
-690.383	-200.000	0.010	-0.072
-689.368	-6.639	-0.524	0.359
-688.354	243.557	-0.332	-0.561
-687.339	472.030	-0.292	-0.662
-686.324	85.124	-0.415	-0.459
-685.310	-92.446	-0.210	-0.059
-684.295	458.793	-0.567	-1.269
-683.281	-70.460	0.482	-0.184
-682.266	88.748	0.133	-0.149
-681.251	150.110	-0.390	-0.533
-680.237	-200.000	-0.064	0.516
-679.222	-43.588	-0.376	-0.191
-678.208	95.833	-0.416	-0.478
-677.193	-84.917	1.618	0.511
-676.178	456.647	-0.261	-0.584
-675.164	411.983	-0.096	-0.205
-674.149	258.257	-0.263	-0.457
-673.135	-200.000	-0.015	-0.218
-672.120	-69.440	0.264	-0.102
-671.105	195.202	-0.175	0.268
-670.091	-200.000	-0.038	0.765
-669.076	-111.807	0.685	-0.139
-668.062	643.867	0.149	0.383
-667.047	-32.856	0.177	0.099
-666.032	102.510	0.529	-0.622
-665.018	-157.709	0.361	-0.022
-664.003	183.953	0.183	0.272
-662.989	-72.410	0.980	0.365
-661.974	-88.705	-0.596	-0.178
-660.959	-179.870	-0.472	0.010
-659.945	359.976	-0.146	-0.295
-658.930	40.337	-0.294	-0.266
-657.916	-9.824	0.658	-0.440
-656.901	323.562	-0.272	0.522
-655.886	-66.357	-0.346	0.138
-654.872	9.939	0.513	0.392
-653.857	155.934	-0.202	-0.281
-652.843	-168.566	-1.424	-0.055
-651.828	-29.937	0.178	0.102
-650.814	-200.000	-0.022	-0.293
-649.799	800.000	0.216	-0.802
-648.784	-137.514	0.466	0.053
-647.770	-82.211	-0.291	-0.095
-646.755	395.448	-0.117	-0.246
-645.741	-9.689	-0.503	-0.337
-644.726	134.313	-0.337	0.439
-643.711	36.126	0.096	-0.085
-642.697	-200.000	-0.035	0.938
-641.682	-149.116	-0.061	0.005
-640.668	800.000	0.292	1.091
-639.653	800.000	-0.073	0.237
-638.638	-117.559	0.393	-0.071
-637.624	56.725	-0.565	0.553
-636.609	22.884	0.750	-0.618
-635.595	-43.411	-0.442	-0.224
-634.580	104.838	0.442	0.524
-633.565	-115.868	0.248	-0.047
-632.551	605.733	-0.197	0.492
-631.536	653.466	-0.018	0.046
-630.522	-24.983	-0.482	0.287
-629.507	-200.000	0.061	-0.432
-628.492	106.804	0.166	0.198
-627.478	-200.000	0.114	-0.519
-626.463	800.000	-0.152	-0.568
-625.449	167.489	-0.145	-0.208
-624.434	21.259	-0.789	0.644
-623.419	800.000	0.095	-0.417
-622.405	800.000	0.118	-0.394
-621.390	720.524	-0.166	-0.444
-620.376	45.742	-0.287	-0.266
-619.361	-84.782	-0.697	0.220
-618.346	23.664	0.167	-0.138
-617.332	-99.635	0.370	0.093
-616.317	-200.000	0.013	0.061
-615.303	800.000	-0.273	-0.880
-614.288	65.214	0.360	-0.365
-613.273	-60.690	0.819	-0.349
-612.259	407.279	-0.288	0.610
-611.244	-116.975	0.521	-0.095
-610.230	-57.017	-0.557	-0.246
-609.215	-88.580	-0.476	0.142
-608.201	-19.571	-0.290	-0.180
-607.186	800.000	0.266	-0.780
-606.171	-39.658	-0.179	-0.094
-605.157	-41.074	0.677	-0.351
-604.142	-105.035	0.133	0.031
-603.128	205.048	0.155	0.242
-602.113	-77.649	0.423	-0.147
-601.098	-64.416	-0.502	0.205
-600.084	378.847	-0.263	-0.539
-599.069	800.000	-0.109	0.383
-598.055	-200.000	0.003	0.430
-597.040	33.804	-0.209	0.182
-596.025	-200.000	0.002	-0.138
-595.011	66.089	0.504	0.513
-593.996	-161.577	-0.568	0.029
-592.982	-107.437	0.869	0.191
-591.967	800.000	0.306	-1.229
-590.952	663.154	-0.118	-0.305
-589.938	3.363	-0.457	-0.334
-588.923	-85.476	0.186	-0.058
-587.909	-26.378	-0.256	-0.150
-586.894	-200.000	0.046	0.490
-585.879	146.262	-0.258	0.348
-584.865	153.568	-0.271	0.372
-583.850	-96.401	-0.435	-0.115
-582.836	-28.186	-0.373	-0.216
-581.821	-200.000	-0.005	-0.305
-580.806	316.366	-0.271	0.513
-579.792	-97.670	0.418	-0.109
-578.777	-117.062	0.644	-0.118
-577.763	800.000	-0.189	-0.790
-576.748	-128.428	-0.976	-0.139
-575.733	-179.035	0.398	0.009
-574.719	-100.176	-0.760	-0.189
-573.704	800.000	0.266	-0.999
-572.690	-200.000	-0.046	-0.848
-571.675	-117.684	0.268	-0.048
-570.661	800.000	-0.059	0.166
-569.646	800.000	-0.154	0.485
-568.631	-91.752	-0.465	-0.133
-567.617	57.135	-0.427	-0.418
-566.602	-79.188	-0.797	0.271
-565.588	101.198	-0.293	-0.341
-564.573	-200.000	-0.003	0.138
-563.558	270.415	0.160	0.281
-562.544	-30.078	-0.800	-0.456
-561.529	-108.853	0.389	0.083
-560.515	800.000	-0.164	0.468
-559.500	398.273	0.142	0.297
-558.485	-200.000	0.042	-0.590
-557.471	-128.108	0.832	0.119
-556.456	-41.703	-0.725	0.373
-555.442	31.922	-0.140	-0.121
-554.427	800.000	-0.101	-0.355
-553.412	800.000	-0.362	-1.153
-552.398	-38.365	-0.354	-0.188
-551.383	244.816	-0.446	0.751
-550.369	-141.621	0.875	0.088
-549.354	-183.089	-0.505	0.009
-548.339	178.882	-0.496	0.726
-547.325	793.175	-0.009	0.026
-546.310	94.844	0.425	0.485
-545.296	290.831	-0.410	0.747
-544.281	-75.020	-0.980	0.351
-543.266	76.600	-0.235	-0.250
-542.252	10.035	-0.556	-0.423
-541.237	-200.000	-0.027	0.413
-540.223	-200.000	0.024	-0.441
-539.208	-12.284	-0.346	0.226
-538.193	257.808	0.260	0.448
-537.179	800.000	-0.205	0.784
-536.164	800.000	-0.235	-0.968
-535.150	-78.071	0.118	0.041
-534.135	319.959	-0.353	0.671
-533.121	-125.941	1.017	0.153
-532.106	-200.000	-0.012	0.073
-531.091	-200.000	-0.080	0.363
-530.077	-57.141	0.624	-0.275
-529.062	-37.154	0.296	-0.159
-528.048	-69.496	0.619	0.237
-527.033	438.265	0.214	-0.468
-526.018	-200.000	-0.010	0.664
-525.004	162.378	-0.300	0.421
-523.989	-163.821	-0.400	0.019
-522.975	243.972	0.232	-0.389
-521.960	113.311	0.413	0.502
-520.945	27.320	0.638	0.536
-519.931	-133.295	0.917	0.116
-518.916	9.423	-0.309	-0.234
-517.902	121.655	0.585	-0.729
-516.887	-35.940	-0.623	0.337
-515.872	-116.243	-0.282	0.052
-514.858	-95.773	-0.101	0.027
-513.843	252.486	0.047	0.081
-512.829	-200.000	-0.015	-0.262
-511.814	-1.389	-0.610	-0.430
-510.799	-200.000	0.040	-0.728
-509.785	-105.973	-0.593	-0.133
-508.770	-82.736	0.265	-0.086
-507.756	-36.748	-0.125	-0.067
-506.741	-36.832	0.735	-0.395
-505.726	-37.641	-0.604	-0.322
-504.712	376.005	-0.246	-0.502
-503.697	-57.527	-0.880	0.386
-502.683	-200.000	0.043	-0.416
-501.668	561.741	-0.214	-0.516
-500.653	-121.894	-0.175	0.029
-499.639	-14.106	0.786	0.507
-498.624	114.847	0.315	0.383
-497.610	-200.000	-0.040	0.345
-496.595	-140.670	-0.964	-0.100
-495.581	218.111	-0.430	-0.686
-494.566	-120.624	0.697	0.118
-493.551	-147.466	0.757	-0.064
-492.537	452.520	0.287	0.634
-491.522	72.480	0.413	0.430
-490.508	-53.044	-0.208	-0.096
-489.493	-48.287	0.095	-0.046
-488.478	800.000	-0.218	0.797
-487.464	-106.044	-0.924	-0.208
-486.449	-89.034	0.426	-0.126
-485.435	-24.962	-0.344	-0.204
-484.420	402.574	-0.181	-0.379
-483.405	-92.776	-0.348	0.097
-482.391	38.988	-0.718	0.641
-481.376	-200.000	-0.012	0.196
-480.362	-126.912	-0.270	-0.040
-479.347	-111.235	0.264	0.054
-478.332	-78.324	0.790	-0.271
-477.318	-184.628	0.320	0.005
-476.303	-29.050	-0.259	-0.148
-475.289	-51.728	-0.665	0.310
-474.274	64.957	0.381	-0.384
-473.259	-200.000	-0.051	0.532
-472.245	-12.272	0.674	0.440
-471.230	416.101	-0.154	-0.327
-470.216	23.542	0.531	-0.436
-469.201	-83.301	-0.021	-0.007
-468.186	-53.412	-0.587	-0.269
-467.172	-153.551	0.180	-0.012
-466.157	-200.000	0.018	-0.980
-465.143	-200.000	-0.003	0.964
-464.128	-200.000	-0.104	0.803
-463.113	-58.793	-0.170	-0.074
-462.099	322.131	-0.427	0.811
-461.084	-43.198	-0.157	0.079
-460.070	161.321	-0.060	-0.084
-459.055	-47.761	0.536	0.259
-458.040	64.463	-0.151	0.152
-457.026	-44.431	-0.397	-0.198
-456.011	213.643	0.313	0.493
-454.997	79.676	0.316	-0.339
-453.982	426.190	0.223	0.481
-452.968	-53.717	-0.480	-0.218
-451.953	50.157	0.588	-0.554
-450.938	-172.091	-0.262	-0.008
-449.924	-160.214	-0.164	-0.009
-448.909	-200.000	0.586	-0.002
-447.895	-200.000	-0.046	-0.540
-446.880	461.417	-0.530	-1.178
-445.865	800.000	0.117	-0.393
-444.851	149.709	0.226	0.305
-443.836	26.411	0.378	0.315
-442.822	133.452	-0.493	-0.636
-441.807	-200.000	0.008	-0.754
-440.792	-28.998	-0.289	0.165
-439.778	-181.744	-0.473	0.009
-438.763	8.363	0.358	-0.268
-437.749	-26.576	-0.588	0.343
-436.734	266.770	-0.412	-0.718
-435.719	-200.000	-0.022	-0.511
-434.705	231.956	0.483	-0.790
-433.690	103.936	0.588	0.689
-432.676	-35.399	1.040	0.563
-431.661	15.308	-0.199	0.155
-430.646	-84.772	-0.243	0.076
-429.632	-129.624	-0.137	0.019
-428.617	748.422	0.116	0.311
-427.603	-103.072	0.438	0.103
-426.588	-138.189	0.329	-0.036
-425.573	-200.000	0.029	-0.260
-424.559	264.048	0.272	0.471
-423.544	800.000	-0.078	0.311
-422.530	-134.368	0.598	-0.073
-421.515	498.529	0.266	-0.611
-420.500	-127.422	0.413	0.060
-419.486	62.953	-0.155	-0.154
-418.471	-178.877	-0.282	0.006
-417.457	800.000	0.169	-0.480
-416.442	56.888	0.491	-0.476
-415.428	84.057	0.315	-0.343
-414.413	38.768	-0.118	0.105
-413.398	70.986	-0.646	-0.667
-412.384	-200.000	0.052	1.002
-411.369	23.911	-0.364	-0.299
-410.355	-140.374	-0.289	-0.030
-409.340	242.869	-0.298	0.497
-408.325	-55.643	-0.290	-0.129
-407.311	381.857	0.365	0.746
-406.296	-200.000	-0.045	-0.312
-405.282	-200.000	-0.049	-0.218
-404.267	111.110	-0.366	-0.439
-403.252	-9.474	-0.619	-0.411
-402.238	-117.104	0.084	-0.015
-401.223	-72.954	-0.548	-0.201
-400.209	-10.511	0.081	-0.054
-399.194	-200.000	0.013	0.204
-398.179	-200.000	0.101	0.677
-397.165	91.083	0.321	0.358
-396.150	136.894	0.202	0.262
-395.136	-13.677	-0.255	-0.164
-394.121	376.738	0.145	0.296
-393.106	129.374	-0.576	0.732
-392.092	131.047	0.362	0.462
-391.077	-200.000	-0.007	0.634
-390.063	-200.000	-0.087	1.247
-389.048	800.000	-0.243	0.874
-388.033	376.088	0.111	0.226
-387.019	-115.390	0.284	0.053
-386.004	-200.000	0.017	0.224
-384.990	271.003	0.239	0.419
-383.975	-43.734	0.569	0.285
-382.960	89.349	0.391	0.433
-381.946	160.023	0.426	0.591
-380.931	-200.000	0.043	0.209
-379.917	800.000	0.074	0.215
-378.902	-200.000	0.017	-0.314
-377.888	-200.000	0.031	-0.287
-376.873	76.338	0.190	-0.200
-375.858	35.396	0.352	-0.307
-374.844	151.302	0.266	0.360
-373.829	478.340	0.474	-1.066
-372.815	800.000	0.175	0.533
-371.800	389.632	-0.518	1.068
-370.785	235.462	0.242	-0.398
-369.771	325.493	-0.166	0.315
-368.756	-200.000	-0.003	-0.047
-367.742	50.840	-0.378	0.356
-366.727	-200.000	0.003	-0.285
-365.712	-129.129	-0.601	0.084
-364.698	-60.169	-0.116	-0.049
-363.683	-200.000	0.110	-1.162
-362.669	800.000	0.061	0.190
-361.654	-68.494	0.307	-0.118
-360.639	-56.641	-0.359	0.158
-359.625	44.053	0.701	0.639
-358.610	-200.000	-0.129	1.187
-357.596	-49.935	0.325	0.153
-356.581	800.000	-0.187	-0.603
-355.566	-165.790	0.363	-0.016
-354.552	-200.000	-0.124	-0.702
-353.537	69.483	1.150	1.177
-352.523	191.944	0.566	0.848
-351.508	-176.116	-0.602	-0.016
-350.493	180.298	-0.392	0.571
-349.479	50.887	-0.420	-0.395
-348.464	-55.740	-0.311	-0.138
-347.450	-139.681	-0.193	-0.020
-346.435	-136.197	-0.587	-0.068
-345.420	-200.000	0.010	0.233
-344.406	4.739	0.240	0.175
-343.391	800.000	0.379	-1.075
-342.377	291.503	0.415	0.750
-341.362	132.309	-0.165	-0.211
-340.348	800.000	-0.133	0.554
-339.333	-200.000	-0.025	-0.466
-338.318	281.007	-0.159	0.283
-337.304	-200.000	-0.010	-0.143
-336.289	384.634	-0.104	0.213
-335.275	176.708	-0.547	-0.790
-334.260	65.972	0.531	-0.535
-333.245	144.966	0.280	0.372
-332.231	-127.508	-0.362	0.052
-331.216	-200.000	-0.038	-0.298
-330.202	800.000	0.140	-0.510
-329.187	-10.521	0.118	-0.077
-328.172	70.829	-0.478	-0.492
-327.158	-63.594	-0.395	0.161
-326.143	-142.519	0.681	-0.066
-325.129	-66.860	0.190	0.074
-324.114	800.000	-0.104	-0.337
-323.099	3.529	-0.424	-0.307
-322.085	215.083	0.544	-0.856
-321.070	247.203	0.100	0.167
-320.056	-7.305	-0.420	0.283
-319.041	-200.000	0.028	0.254
-318.026	-32.280	-0.340	-0.188
-317.012	-122.417	-1.117	-0.181
-315.997	493.800	0.119	0.270
-314.983	-53.850	0.655	0.297
-313.968	305.743	-0.121	-0.223
-312.953	800.000	-0.159	-0.671
-311.939	-38.234	-0.066	-0.035
-310.924	-105.208	1.118	-0.253
-309.910	-200.000	-0.124	0.594
-308.895	-139.323	0.077	0.008
-307.880	480.878	-0.417	-0.938
-306.866	-48.856	0.380	-0.181
-305.851	-200.000	0.212	-1.057
-304.837	-119.892	0.413	0.070
-303.822	-107.465	0.340	0.074
-302.807	49.942	0.115	-0.108
-301.793	-65.794	-0.450	0.179
-300.778	-200.000	-0.002	0.052
-299.764	-109.812	0.713	0.148
-298.749	-130.118	0.473	-0.064
-297.735	21.597	0.249	-0.201
-296.720	-92.674	-0.915	-0.254
-295.705	-6.218	-0.843	0.571
-294.691	531.688	0.442	-1.037
-293.676	266.385	-0.208	0.360
-292.662	733.713	0.148	-0.393
-291.647	-19.598	-0.616	0.378
-290.632	-200.000	0.018	-0.735
-289.618	-37.885	-0.748	0.394
-288.603	-156.297	-0.470	-0.029
-287.589	-15.406	-0.172	0.109
-286.574	-200.000	0.050	0.240
-285.559	-81.192	0.177	0.058
-284.545	-200.000	0.027	-0.138
-283.530	-1.238	0.428	-0.300
-282.516	21.612	0.307	0.247
-281.501	800.000	-0.129	-0.554
-280.486	9.050	-0.468	-0.350
-279.472	-76.649	0.401	-0.140
-278.457	-25.647	-0.058	0.034
-277.443	-200.000	-0.163	0.815
-276.428	-97.817	0.517	-0.132
-275.413	110.645	-0.524	-0.625
-274.399	-126.421	-0.417	0.062
-273.384	-55.012	-0.415	-0.185
-272.370	-141.242	-0.450	-0.045
-271.355	-20.845	0.138	-0.084
-270.340	-122.333	0.416	-0.067
-269.326	-200.000	-0.013	0.431
-268.311	199.444	-0.142	0.216
-267.297	-4.529	0.659	0.451
-266.282	-200.000	0.114	-0.763
-265.267	485.669	-0.185	-0.418
-264.253	-4.606	-0.234	-0.160
-263.238	-200.000	-0.035	1.405
-262.224	-74.286	-0.417	-0.149
-261.209	-12.420	0.456	0.295
-260.195	170.008	-0.462	0.655
-259.180	-13.525	-0.377	-0.242
-258.165	234.525	-0.455	0.743
-257.151	-39.946	0.241	0.125
-256.136	-200.000	0.164	1.107
-255.122	74.753	0.188	0.196
-254.107	518.371	0.141	-0.327
-253.092	719.187	0.056	-0.147
-252.078	800.000	-0.139	0.454
-251.063	-2.497	-0.618	0.429
-250.049	99.491	-0.108	-0.124
-249.034	800.000	0.080	0.268
-248.019	-61.338	0.429	0.179
-247.005	703.968	0.387	1.009
-245.990	-59.783	-0.160	-0.068
-244.976	-187.687	0.193	0.003
-243.961	-2.483	-0.704	-0.488
-242.946	-23.110	-0.586	-0.349
-241.932	61.433	-0.636	0.626
-240.917	14.523	0.155	0.120
-239.903	-155.176	-0.314	0.020
-238.888	61.310	-0.442	-0.434
-237.873	-30.341	0.861	-0.484
-236.859	800.000	-0.104	0.314
-235.844	-200.000	-0.038	0.229
-234.830	-107.189	0.540	-0.118
-233.815	-58.071	1.029	-0.444
-232.800	733.572	0.343	-0.908
-231.786	-164.014	-0.052	0.002
-230.771	216.933	0.351	-0.552
-229.757	800.000	0.263	-1.093
-228.742	85.180	-0.447	-0.485
-227.727	34.021	0.269	0.232
-226.713	-52.921	-0.431	0.196
-225.698	-133.382	0.741	0.092
-224.684	-72.777	0.606	-0.221
-223.669	42.639	-0.654	0.589
-222.655	-48.147	-0.146	-0.070
-221.640	161.597	-0.086	-0.119
-220.625	78.077	-0.419	-0.441
-219.611	-200.000	-0.074	-0.558
-218.596	-11.569	-0.578	-0.376
-217.582	38.797	0.279	0.246
-216.567	47.107	-0.076	-0.070
-215.552	8.546	0.334	0.248
-214.538	250.402	0.236	0.396
-213.523	-37.107	0.699	0.370
-212.509	-200.000	0.004	0.337
-211.494	41.883	0.294	-0.263
-210.479	800.000	0.162	0.587
-209.465	121.257	0.455	0.560
-208.450	676.248	0.124	0.317
-207.436	-82.780	-0.355	0.113
-206.421	77.572	0.617	-0.649
-205.406	254.431	-0.152	0.256
-204.392	3.204	-0.930	-0.669
-203.377	800.000	-0.196	-0.555
-202.363	-200.000	0.085	-0.744
-201.348	3.815	0.562	0.406
-200.333	-79.145	-1.104	-0.370
-199.319	-23.232	-0.470	-0.279
-198.304	-6.311	0.582	-0.393
-197.290	-200.000	0.091	0.737
-196.275	-200.000	-0.040	-0.485
-195.260	69.792	0.771	-0.785
-194.246	800.000	-0.145	0.544
-193.231	-40.297	0.407	0.209
-192.217	-146.863	0.179	-0.015
-191.202	-144.204	-0.436	-0.040
-190.187	-165.834	0.429	0.018
-189.173	119.627	0.381	0.466
-188.158	-200.000	-0.002	-0.435
-187.144	421.540	0.310	0.657
-186.129	199.743	0.509	-0.772
-185.114	-11.246	-0.406	0.264
-184.100	-88.700	-0.395	-0.116
-183.085	406.365	-0.169	-0.352
-182.071	-153.135	1.039	0.072
-181.056	-200.000	-0.158	0.999
-180.042	-134.588	0.718	-0.086
-179.027	-200.000	0.302	1.346
-178.012	-84.790	0.982	-0.305
-176.998	-200.000	-0.076	-0.393
-175.983	800.000	-0.230	0.675
-174.969	-143.666	0.266	-0.025
-173.954	716.759	0.047	-0.124
-172.939	-95.856	-0.924	0.243
-171.925	192.899	-0.280	0.418
-170.910	800.000	0.056	-0.239
-169.896	-4.584	0.678	0.462
-168.881	-29.701	0.715	0.402
-167.866	408.617	-0.250	0.523
-166.852	-131.214	-0.304	-0.040
-165.837	368.191	0.415	-0.828
-164.823	-109.316	0.779	-0.163
-163.808	-62.027	0.412	0.170
-162.793	66.111	-0.485	0.485
-161.779	-59.865	-0.272	-0.115
-160.764	107.883	-0.302	-0.355
-159.750	-200.000	-0.057	0.353
-158.735	-196.081	-0.366	-0.003
-157.720	18.111	-0.446	0.351
-156.706	-65.459	0.536	0.212
-155.691	-144.473	0.745	-0.068
-154.677	-5.540	-0.079	0.053
-153.662	-200.000	-0.031	-0.319
-152.647	82.279	0.314	-0.336
-151.633	115.938	0.333	-0.402
-150.618	223.923	-0.432	-0.688
-149.604	-85.505	0.993	-0.305
-148.589	-200.000	-0.029	0.445
-147.574	-164.014	-0.592	-0.027
-146.560	-172.691	0.177	0.005
-145.545	519.208	0.087	0.200
-144.531	228.384	0.157	-0.253
-143.516	259.912	0.417	0.710
-142.502	800.000	-0.138	0.553
-141.487	361.966	-0.027	0.053
-140.472	497.144	-0.336	0.763
-139.458	-200.000	0.056	0.757
-138.443	-200.000	0.048	-0.309
-137.429	-129.339	0.551	-0.076
-136.414	411.239	-0.252	0.527
-135.399	-13.336	-0.426	-0.272
-134.385	437.565	0.520	1.117
-133.370	17.234	0.230	-0.180
-132.356	203.173	-0.221	-0.336
-131.341	-59.664	-0.827	-0.349
-130.326	63.003	-0.125	0.123
-129.312	102.309	-0.217	0.250
-128.297	-156.810	0.258	-0.016
-127.283	438.343	0.392	0.843
-126.268	-84.868	-0.555	-0.172
-125.253	-97.209	-0.316	0.081
-124.239	-200.000	0.044	0.266
-123.224	800.000	0.163	-0.499
