DTS Sentinel unit serial number:	SN413079Multiplexer serial number:	ORYXHardware model number:	OX4-SRSoftware version number:	ORYX F/W v4.00 Oryx Data Collector v3.7.2.0data status	okinstallation	princeton_trtdifferential loss correction	single-endedforward channel	channel 2reverse channel	N/Adate	2019/09/18time	19:51:35forward acquisition time	60.00reverse acquisition time	0.00gamma	496.2192k internal	0.2331k external	0.2331temperature offset calibration	1.0034default loss term (dB/km)	0.3790temperature slope calibration	1.0000multiplexer offset coefficient	1.0000multiplexer slope coefficient	1.0000fibre end	0.00T internal ref (°C)	31.03T ext. ref 1 (°C)	1.01T ext. ref 2 (°C)	22.03length (m)	temperature (°C)	Stokes	anti-Stokes-747.200	-200.000	-0.027	0.283
-746.185	83.089	-0.206	0.225
-745.171	800.000	0.091	0.280
-744.156	-157.016	-0.273	0.017
-743.142	112.787	-0.039	0.047
-742.127	-200.000	-0.010	0.278
-741.112	-111.921	-0.097	-0.020
-740.098	-200.000	-0.018	-0.118
-739.083	-107.682	0.201	0.044
-738.069	-200.000	-0.045	-0.271
-737.054	800.000	0.134	0.440
-736.039	-38.393	-0.241	-0.128
-735.025	72.160	0.209	0.219
-734.010	800.000	-0.095	-0.340
-732.996	345.766	0.011	0.023
-731.981	93.448	0.196	-0.223
-730.966	-194.713	0.307	-0.002
-729.952	-30.318	-0.243	0.139
-728.937	-200.000	0.002	0.159
-727.923	42.392	-0.146	-0.134
-726.908	800.000	-0.053	-0.159
-725.894	104.186	-0.046	-0.054
-724.879	-200.000	-0.034	-0.200
-723.864	-200.000	-0.029	-0.374
-722.850	-58.397	0.039	0.017
-721.835	-72.151	0.285	-0.106
-720.821	-186.450	-0.337	0.005
-719.806	-200.000	0.048	0.314
-718.791	14.159	-0.297	-0.233
-717.777	-115.819	0.057	-0.011
-716.762	74.633	-0.129	-0.136
-715.748	-160.386	-0.268	-0.014
-714.733	-128.868	-0.143	-0.020
-713.718	-28.188	0.084	-0.049
-712.704	800.000	-0.035	0.117
-711.689	-200.000	0.007	0.218
-710.675	800.000	-0.036	-0.122
-709.660	-47.826	-0.179	0.087
-708.645	24.781	0.353	0.294
-707.631	-166.912	-0.184	0.008
-706.616	-103.797	0.271	0.064
-705.602	114.128	-0.293	0.358
-704.587	-200.000	0.048	0.370
-703.572	-65.483	-0.215	-0.087
-702.558	-200.000	-0.002	0.125
-701.543	-64.876	0.180	-0.073
-700.529	-200.000	0.037	-0.341
-699.514	-200.000	0.013	0.070
-698.499	789.615	-0.047	-0.129
-697.485	260.111	-0.032	-0.055
-696.470	-134.421	0.284	-0.035
-695.456	-41.056	0.266	0.138
-694.441	358.945	0.145	0.291
-693.426	800.000	0.057	0.174
-692.412	-150.330	-0.157	0.012
-691.397	-184.304	-0.132	-0.002
-690.383	24.211	-0.134	0.111
-689.368	171.092	-0.171	-0.246
-688.354	-84.922	-0.115	-0.036
-687.339	51.557	-0.194	-0.185
-686.324	800.000	-0.115	-0.411
-685.310	0.121	0.174	0.125
-684.295	-51.352	0.045	0.021
-683.281	-172.789	-0.172	0.005
-682.266	99.413	-0.099	0.115
-681.251	-200.000	0.024	0.139
-680.237	204.207	-0.066	-0.103
-679.222	-67.087	-0.132	-0.052
-678.208	60.206	0.233	-0.231
-677.193	800.000	-0.072	-0.234
-676.178	28.504	-0.076	0.065
-675.164	-149.265	0.092	-0.007
-674.149	-200.000	-0.042	-0.215
-673.135	36.298	0.197	-0.174
-672.120	245.734	-0.225	0.380
-671.105	239.199	0.120	0.200
-670.091	-176.656	-0.233	-0.006
-669.076	34.903	-0.187	-0.164
-668.062	-200.000	0.004	-0.404
-667.047	136.153	0.139	0.182
-666.032	-200.000	-0.029	0.204
-665.018	-200.000	0.068	-0.313
-664.003	800.000	0.018	0.076
-662.989	556.191	-0.110	0.267
-661.974	406.938	-0.101	-0.213
-660.959	-200.000	-0.011	-0.345
-659.945	19.598	-0.139	0.112
-658.930	116.497	-0.113	-0.138
-657.916	-14.102	-0.065	0.042
-656.901	-83.088	-0.054	0.017
-655.886	-78.526	0.176	0.060
-654.872	-80.070	0.072	-0.024
-653.857	-53.609	0.134	-0.061
-652.843	81.107	-0.159	-0.172
-651.828	-200.000	0.017	0.257
-650.814	41.254	0.295	0.267
-649.799	800.000	0.050	-0.188
-648.784	232.008	-0.141	-0.232
-647.770	-107.150	0.185	-0.041
-646.755	169.670	-0.143	-0.205
-645.741	-21.843	-0.268	-0.163
-644.726	-123.739	-0.113	-0.018
-643.711	91.211	-0.237	0.267
-642.697	-28.960	0.103	0.059
-641.682	126.442	0.119	0.151
-640.668	17.664	0.121	0.097
-639.653	-28.577	0.315	-0.182
-638.638	-63.318	-0.327	-0.135
-637.624	777.205	0.097	0.264
-636.609	800.000	0.109	-0.397
-635.595	62.135	0.159	-0.158
-634.580	71.006	0.106	0.110
-633.565	-46.247	0.263	-0.130
-632.551	-88.181	-0.427	0.128
-631.536	-120.874	-0.171	-0.029
-630.522	800.000	-0.045	0.125
-629.507	-128.945	0.074	0.010
-628.492	-200.000	-0.017	0.260
-627.478	-169.177	0.069	-0.003
-626.463	17.257	0.405	0.322
-625.449	-71.405	-0.203	-0.076
-624.434	-111.274	0.098	0.020
-623.419	44.471	-0.143	-0.132
-622.405	195.309	-0.055	-0.083
-621.390	0.012	0.100	-0.071
-620.376	328.941	0.042	0.081
-619.361	459.836	0.165	-0.368
-618.346	-74.319	0.061	0.022
-617.332	-108.184	-0.174	0.038
-616.317	135.838	0.192	-0.250
-615.303	-66.074	-0.180	0.072
-614.288	-200.000	-0.001	-0.250
-613.273	-6.391	-0.288	-0.197
-612.259	-58.772	0.269	-0.117
-611.244	-71.223	-0.239	0.090
-610.230	-200.000	0.018	0.079
-609.215	109.532	0.153	0.184
-608.201	311.174	-0.025	0.047
-607.186	-200.000	-0.078	-0.376
-606.171	-200.000	0.044	0.324
-605.157	-79.187	-0.170	-0.058
-604.142	800.000	0.034	-0.104
-603.128	-122.535	0.119	0.019
-602.113	-200.000	-0.020	0.193
-601.098	361.940	0.025	0.049
-600.084	373.138	0.135	0.274
-599.069	-200.000	0.036	-0.192
-598.055	-42.689	-0.197	-0.101
-597.040	138.735	-0.112	-0.148
-596.025	800.000	0.051	0.150
-595.011	-200.000	-0.025	0.163
-593.996	-109.051	0.029	-0.006
-592.982	108.404	-0.191	0.229
-591.967	-183.515	-0.418	-0.007
-590.952	-107.885	0.224	-0.049
-589.938	-200.000	0.109	-0.483
-588.923	-34.647	-0.097	0.053
-587.909	66.594	0.132	0.135
-586.894	-83.267	0.125	0.040
-585.879	-28.759	0.210	-0.121
-584.865	18.521	-0.174	-0.139
-583.850	-48.927	0.062	-0.030
-582.836	-111.282	0.067	0.014
-581.821	88.878	0.143	0.159
-580.806	-122.693	0.154	0.025
-579.792	325.905	0.036	-0.069
-578.777	-69.134	-0.139	0.054
-577.763	242.345	0.191	-0.319
-576.748	344.657	0.142	-0.279
-575.733	-49.099	0.148	0.071
-574.719	-200.000	-0.008	0.091
-573.704	186.126	-0.142	0.211
-572.690	-80.655	0.114	0.038
-571.675	-66.276	-0.028	0.011
-570.661	-133.668	0.413	0.052
-569.646	-23.554	0.158	-0.095
-568.631	21.838	-0.179	-0.146
-567.617	319.799	0.176	-0.334
-566.602	-11.096	0.017	-0.011
-565.588	800.000	-0.011	0.037
-564.573	86.807	-0.124	0.137
-563.558	-1.195	0.354	0.250
-562.544	-57.636	0.200	-0.087
-561.529	800.000	-0.064	0.234
-560.515	-152.138	0.101	-0.007
-559.500	137.950	0.104	-0.136
-558.485	8.365	-0.043	-0.032
-557.471	-32.910	0.212	-0.117
-556.456	-200.000	0.038	-0.263
-555.442	-55.048	-0.127	-0.057
-554.427	-43.457	-0.535	-0.270
-553.412	-81.830	-0.280	-0.092
-552.398	170.585	-0.199	-0.284
-551.383	49.319	0.253	0.238
-550.369	161.229	0.194	-0.270
-549.354	39.797	-0.259	0.232
-548.339	52.722	0.109	-0.104
-547.325	-200.000	0.009	-0.238
-546.310	176.997	-0.024	0.035
-545.296	93.191	-0.169	-0.191
-544.281	-93.983	0.069	-0.019
-543.266	-200.000	0.025	0.208
-542.252	53.609	0.149	0.143
-541.237	-79.695	0.240	-0.081
-540.223	-14.555	-0.072	-0.046
-539.208	-54.176	0.085	0.039
-538.193	-1.486	0.068	-0.048
-537.179	80.063	-0.055	0.059
-536.164	187.716	-0.102	0.153
-535.150	474.254	0.132	-0.297
-534.135	8.749	0.321	0.241
-533.121	33.645	0.211	0.184
-532.106	-33.108	0.153	-0.084
-531.091	582.282	-0.033	0.082
-530.077	198.583	-0.221	0.338
-529.062	642.951	-0.031	-0.080
-528.048	54.433	-0.123	-0.118
-527.033	-158.027	-0.220	0.013
-526.018	-64.057	-0.064	0.026
-525.004	800.000	-0.034	-0.130
-523.989	-200.000	0.047	-0.344
-522.975	-42.327	-0.256	-0.130
-521.960	-133.194	-0.442	-0.056
-520.945	565.183	0.125	-0.303
-519.931	35.569	0.129	0.113
-518.916	-97.616	0.094	0.024
-517.902	-61.717	0.210	0.088
-516.887	121.727	-0.165	-0.205
-515.872	-145.098	-0.192	-0.017
-514.858	-188.880	-0.082	-0.001
-513.843	-89.503	0.299	0.088
-512.829	-41.498	-0.132	0.068
-511.814	278.882	0.096	-0.171
-510.799	56.448	0.169	0.164
-509.785	-167.770	-0.406	0.016
-508.770	-38.627	-0.157	-0.083
-507.756	-105.378	-0.154	-0.035
-506.741	17.849	0.188	0.149
-505.726	302.262	0.118	-0.218
-504.712	-66.990	-0.021	-0.008
-503.697	-200.000	-0.060	0.275
-502.683	-21.316	0.089	0.054
-501.668	123.217	0.061	-0.076
-500.653	329.988	0.064	0.124
-499.639	299.499	0.095	0.174
-498.624	557.886	-0.116	0.279
-497.610	-200.000	-0.009	-0.348
-496.595	-107.041	0.183	0.040
-495.581	-42.937	-0.177	0.090
-494.566	-48.854	0.122	0.058
-493.551	-116.312	-0.251	-0.046
-492.537	-98.932	0.100	-0.025
-491.522	-96.987	-0.162	0.042
-490.508	65.072	-0.122	-0.123
-489.493	-70.777	-0.126	0.047
-488.478	-158.825	-0.102	0.006
-487.464	-40.976	-0.316	0.163
-486.449	-139.138	-0.197	-0.021
-485.435	-200.000	-0.038	0.191
-484.420	193.788	-0.189	0.285
-483.405	-76.687	0.541	0.189
-482.391	203.385	0.142	0.219
-481.376	-15.435	0.203	0.129
-480.362	-200.000	0.019	-0.250
-479.347	-145.093	-0.265	0.024
-478.332	231.547	-0.043	-0.070
-477.318	-147.527	0.158	-0.013
-476.303	-112.774	0.068	-0.013
-475.289	-103.903	-0.243	-0.056
-474.274	-52.446	0.242	-0.112
-473.259	178.935	0.077	-0.112
-472.245	-156.249	-0.159	0.010
-471.230	-200.000	0.045	0.271
-470.216	105.605	-0.006	-0.006
-469.201	800.000	-0.069	-0.243
-468.186	-200.000	0.008	-0.041
-467.172	-105.866	0.288	0.065
-466.157	-146.265	0.332	-0.029
-465.143	-200.000	0.028	0.159
-464.128	-200.000	0.020	0.119
-463.113	81.005	-0.117	0.125
-462.099	800.000	0.077	0.305
-461.084	157.893	-0.021	0.028
-460.070	175.300	-0.130	-0.187
-459.055	-72.556	0.231	0.085
-458.040	76.927	0.136	-0.143
-457.026	-130.989	-0.071	0.009
-456.011	-177.123	-0.189	-0.005
-454.997	-134.321	-0.085	0.010
-453.982	-93.871	-0.350	-0.096
-452.968	-200.000	0.002	-0.051
-451.953	800.000	0.133	-0.391
-450.938	-84.709	0.601	-0.188
-449.924	219.150	-0.115	0.183
-448.909	-113.062	-0.274	-0.054
-447.895	-89.812	0.329	-0.096
-446.880	39.209	0.297	-0.265
-445.865	-200.000	0.020	-0.286
-444.851	34.565	-0.053	0.046
-443.836	-116.811	0.405	-0.074
-442.822	168.547	-0.149	0.211
-441.807	-200.000	0.014	-0.227
-440.792	-28.396	-0.231	-0.133
-439.778	401.563	-0.112	0.234
-438.763	-30.470	0.318	-0.179
-437.749	217.482	0.061	0.097
-436.734	-63.961	-0.046	-0.019
-435.719	761.005	-0.069	0.186
-434.705	-195.091	-0.339	-0.003
-433.690	340.893	0.063	-0.123
-432.676	262.348	-0.092	0.159
-431.661	188.988	0.117	0.175
-430.646	-10.235	0.127	-0.084
-429.632	-141.586	-0.198	-0.020
-428.617	-139.732	-0.149	-0.016
-427.603	206.432	-0.045	-0.070
-426.588	-180.974	-0.257	0.005
-425.573	-92.856	0.055	-0.015
-424.559	193.200	-0.049	-0.073
-423.544	156.266	0.145	-0.198
-422.530	-31.624	-0.041	-0.023
-421.515	-168.932	-0.306	-0.011
-420.500	-8.784	0.256	0.170
-419.486	324.522	-0.130	0.246
-418.471	-66.212	-0.226	0.090
-417.457	2.405	0.215	-0.155
-416.442	-68.428	-0.233	0.090
-415.428	-147.830	0.265	0.022
-414.413	-48.927	-0.214	0.102
-413.398	-11.433	-0.135	0.088
-412.384	52.018	-0.214	0.203
-411.369	359.272	0.042	-0.084
-410.355	-200.000	0.021	-0.096
-409.340	-12.104	-0.299	0.195
-408.325	800.000	0.027	0.085
-407.311	-158.813	-0.137	0.008
-406.296	107.821	-0.030	-0.035
-405.282	-89.756	0.143	0.042
-404.267	28.482	-0.118	0.099
-403.252	566.513	0.145	-0.350
-402.238	-200.000	0.091	0.000
-401.223	-66.633	-0.293	0.115
-400.209	165.746	-0.094	0.133
-399.194	115.921	0.169	-0.205
-398.179	68.346	-0.154	-0.157
-397.165	-107.872	-0.531	0.115
-396.150	1.188	-0.048	0.034
-395.136	-60.659	-0.068	-0.029
-394.121	-13.595	-0.179	-0.115
-393.106	800.000	-0.068	0.214
-392.092	208.433	-0.119	0.184
-391.077	-135.843	0.215	0.025
-390.063	-200.000	0.005	0.172
-389.048	-200.000	-0.023	-0.199
-388.033	307.542	0.110	-0.204
-387.019	-200.000	-0.026	0.254
-386.004	337.065	0.023	-0.045
-384.990	193.953	0.149	-0.224
-383.975	-69.868	-0.272	-0.103
-382.960	-200.000	-0.032	-0.219
-381.946	123.418	-0.084	0.105
-380.931	-121.802	-0.420	0.069
-379.917	-39.120	-0.072	0.038
-378.902	-81.012	-0.237	-0.078
-377.888	182.296	-0.197	0.288
-376.873	-108.172	-0.145	0.031
-375.858	800.000	-0.080	0.221
-374.844	33.181	0.121	0.104
-373.829	-198.635	0.194	-0.001
-372.815	206.433	-0.179	-0.276
-371.800	800.000	-0.023	-0.089
-370.785	86.801	0.230	0.252
-369.771	-85.958	0.107	0.033
-368.756	-200.000	-0.038	-0.180
-367.742	-50.979	0.473	0.220
-366.727	-200.000	-0.019	0.221
-365.712	-194.992	-0.377	-0.003
-364.698	-36.749	-0.142	-0.076
-363.683	-200.000	0.048	-0.468
-362.669	800.000	-0.032	0.092
-361.654	-69.624	-0.436	-0.165
-360.639	-54.511	0.379	-0.170
-359.625	-200.000	0.001	0.117
-358.610	-200.000	-0.048	0.299
-357.596	-200.000	0.040	-0.351
-356.581	46.342	-0.227	0.208
-355.566	655.434	0.020	-0.050
-354.552	346.631	-0.137	0.268
-353.537	800.000	-0.039	0.137
-352.523	-200.000	-0.004	0.160
-351.508	-109.282	0.511	-0.107
-350.493	-200.000	0.026	-0.266
-349.479	5.817	0.025	0.018
-348.464	-200.000	-0.013	-0.347
-347.450	-87.978	-0.304	-0.090
-346.435	-200.000	0.026	0.122
-345.420	-96.912	0.065	-0.017
-344.406	107.378	-0.056	0.066
-343.391	-200.000	-0.005	-0.043
-342.377	-200.000	-0.019	-0.406
-341.362	-17.160	-0.164	-0.102
-340.348	336.363	0.130	0.250
-339.333	-118.866	0.335	0.058
-338.318	-17.963	-0.166	0.103
-337.304	800.000	-0.083	-0.234
-336.289	-38.169	0.187	-0.098
-335.275	91.904	-0.041	0.045
-334.260	-153.698	-0.202	-0.014
-333.245	-16.794	0.478	-0.300
-332.231	20.187	-0.109	0.087
-331.216	733.572	0.159	0.420
-330.202	-91.834	0.291	0.082
-329.187	-60.829	-0.335	-0.140
-328.172	270.699	-0.048	-0.084
-327.158	-100.852	0.347	-0.085
-326.143	-42.667	-0.199	-0.100
-325.129	241.744	0.129	-0.213
-324.114	-200.000	-0.304	0.001
-323.099	800.000	0.031	0.119
-322.085	-73.031	-0.184	-0.067
-321.070	28.692	-0.239	-0.200
-320.056	63.206	-0.119	-0.118
-319.041	-124.048	0.274	0.043
-318.026	12.045	-0.120	0.092
-317.012	-11.308	0.075	-0.049
-315.997	71.489	0.203	-0.209
-314.983	-200.000	-0.046	-0.296
-313.968	-200.000	0.018	-0.101
-312.953	-80.117	-0.092	0.031
-311.939	241.875	0.082	0.136
-310.924	53.718	0.117	-0.111
-309.910	-17.760	0.142	-0.088
-308.895	83.266	-0.083	0.090
-307.880	32.058	0.106	0.091
-306.866	-69.755	-0.191	-0.072
-305.851	-194.053	-0.204	0.002
-304.837	-65.831	-0.275	-0.109
-303.822	511.660	0.073	-0.169
-302.807	247.341	0.131	0.219
-301.793	-129.095	0.262	0.036
-300.778	464.475	-0.029	-0.065
-299.764	-45.339	-0.118	-0.058
-298.749	-98.091	-0.153	-0.039
-297.735	-111.224	0.150	0.030
-296.720	28.999	-0.191	0.160
-295.705	-200.000	0.029	-0.463
-294.691	-14.652	0.391	-0.248
-293.676	380.234	-0.011	0.021
-292.662	-200.000	0.003	0.072
-291.647	800.000	0.045	0.129
-290.632	210.852	0.116	0.180
-289.618	521.017	-0.055	-0.129
-288.603	14.378	0.220	0.169
-287.589	75.459	0.064	-0.067
-286.574	-116.743	-0.180	0.033
-285.559	800.000	0.059	0.211
-284.545	50.111	0.082	0.077
-283.530	648.409	-0.061	0.153
-282.516	303.844	0.045	-0.083
-281.501	-42.773	0.199	-0.100
-280.486	426.047	-0.052	0.110
-279.472	-14.476	-0.220	0.140
-278.457	-200.000	-0.015	0.200
-277.443	-200.000	-0.041	-0.186
-276.428	108.317	-0.094	-0.110
-275.413	-115.016	-0.273	-0.051
-274.399	-137.984	0.142	-0.016
-273.384	576.364	-0.067	0.161
-272.370	-175.688	0.286	-0.008
-271.355	-32.075	-0.160	-0.088
-270.340	-80.430	0.107	-0.035
-269.326	581.922	0.141	0.341
-268.311	-200.000	0.082	-0.376
-267.297	800.000	0.086	-0.256
-266.282	-20.064	-0.282	0.172
-265.267	28.267	-0.016	-0.014
-264.253	104.274	0.129	-0.149
-263.238	-74.511	-0.184	-0.066
-262.224	-200.000	-0.007	-0.328
-261.209	592.357	-0.104	0.253
-260.195	800.000	-0.039	0.147
-259.180	12.104	-0.206	-0.157
-258.165	96.140	-0.150	0.170
-257.151	-68.292	-0.125	0.048
-256.136	-188.901	-0.140	-0.002
-255.122	6.154	0.205	-0.150
-254.107	-18.766	-0.179	0.110
-253.092	800.000	0.024	-0.079
-252.078	-200.000	-0.010	0.152
-251.063	-0.071	0.227	0.159
-250.049	-159.480	0.063	-0.003
-249.034	-151.610	-0.039	0.003
-248.019	-130.383	0.313	0.042
-247.005	541.756	0.019	-0.045
-245.990	-90.493	-0.263	-0.075
-244.976	718.546	-0.092	0.242
-243.961	-172.880	0.209	-0.006
-242.946	16.341	-0.109	0.085
-241.932	-85.939	-0.230	0.070
-240.917	76.082	0.152	0.159
-239.903	304.099	0.019	-0.034
-238.888	800.000	0.018	0.076
-237.873	-54.272	0.214	0.096
-236.859	-181.000	0.294	0.006
-235.844	67.066	0.356	0.358
-234.830	51.744	-0.294	0.276
-233.815	800.000	-0.041	-0.151
-232.800	461.625	0.041	0.091
-231.786	140.416	-0.062	-0.081
-230.771	-41.558	-0.262	0.133
-229.757	800.000	-0.118	0.344
-228.742	270.162	-0.096	0.167
-227.727	800.000	0.138	0.523
-226.713	800.000	-0.042	0.140
-225.698	641.324	0.095	0.238
-224.684	800.000	0.051	0.208
-223.669	-10.219	-0.178	-0.117
-222.655	-126.869	-0.273	0.040
-221.640	-47.296	0.489	-0.235
-220.625	-67.916	-0.135	0.052
-219.611	718.364	0.081	0.212
-218.596	30.687	0.046	-0.039
-217.582	-19.688	0.146	0.089
-216.567	-200.000	0.024	0.257
-215.552	186.280	0.049	0.071
-214.538	33.544	0.136	-0.116
-213.523	-89.964	-0.416	0.120
-212.509	96.838	0.188	-0.212
-211.494	-74.723	0.407	-0.144
-210.479	-73.690	0.302	0.108
-209.465	-200.000	0.047	-0.245
-208.450	31.172	-0.106	-0.090
-207.436	-100.225	-0.308	-0.076
-206.421	-200.000	0.003	0.116
-205.406	800.000	-0.041	0.120
-204.392	-95.161	0.413	0.110
-203.377	358.691	0.147	-0.290
-202.363	52.938	-0.165	0.156
-201.348	13.535	0.149	-0.114
-200.333	392.900	0.083	0.170
-199.319	172.569	-0.097	-0.137
-198.304	-49.955	0.191	-0.089
-197.290	16.685	-0.099	-0.077
-196.275	-8.907	-0.231	-0.152
-195.260	-137.268	0.394	0.044
-194.246	115.545	-0.138	-0.166
-193.231	-25.660	-0.059	-0.034
-192.217	545.093	0.027	0.064
-191.202	-200.000	-0.002	-0.154
-190.187	-34.301	0.108	0.058
-189.173	-80.459	0.089	0.029
-188.158	799.372	0.052	0.143
-187.144	-200.000	0.031	0.168
-186.129	-200.000	-0.009	0.074
-185.114	-200.000	-0.011	0.198
-184.100	47.086	-0.257	-0.235
-183.085	187.846	-0.108	0.159
-182.071	-200.000	0.021	0.182
-181.056	-169.841	0.089	-0.003
-180.042	-24.057	0.169	0.100
-179.027	-177.530	0.366	-0.009
-178.012	-78.416	-0.415	-0.140
-176.998	-66.835	0.094	-0.037
-175.983	175.861	0.084	-0.120
-174.969	41.260	-0.090	0.080
-173.954	-33.582	-0.373	0.203
-172.939	800.000	-0.021	-0.072
-171.925	301.545	0.064	-0.117
-170.910	1.652	0.150	-0.106
-169.896	-75.885	0.079	-0.028
-168.881	800.000	-0.024	0.073
-167.866	480.612	0.034	0.076
-166.852	-65.925	-0.311	0.122
-165.837	-115.328	-0.191	-0.036
-164.823	-200.000	-0.026	0.171
-163.808	-189.956	0.345	-0.004
-162.793	327.614	0.196	0.369
-161.779	60.799	-0.211	0.205
-160.764	364.619	0.086	0.170
-159.750	-3.491	0.213	-0.146
-158.735	-177.055	-0.038	-0.001
-157.720	771.396	0.091	-0.243
-156.706	-200.000	-0.007	0.261
-155.691	-200.000	-0.065	-0.294
-154.677	86.225	0.167	0.181
-153.662	-86.469	0.201	-0.061
-152.647	-56.421	-0.230	-0.100
-151.633	-141.784	0.279	-0.028
-150.618	61.548	0.139	-0.136
-149.604	96.829	0.246	-0.277
-148.589	-200.000	0.049	0.221
-147.574	-74.762	0.346	0.122
-146.560	660.593	0.046	0.116
-145.545	-18.430	0.333	0.205
-144.531	-200.000	0.009	-0.055
-143.516	-137.938	0.246	0.027
-142.502	629.698	-0.089	0.222
-141.487	-40.059	-0.546	-0.280
-140.472	71.875	-0.163	0.167
-139.458	800.000	0.032	-0.138
-138.443	-105.082	0.253	-0.057
-137.429	513.737	-0.207	0.474
-136.414	690.213	-0.054	-0.140
-135.399	-103.903	0.160	0.037
-134.385	-22.593	0.230	-0.137
-133.370	-200.000	-0.055	-0.291
-132.356	-200.000	-0.043	0.237
-131.341	39.506	0.274	0.241
-130.326	642.976	0.044	0.110
-129.312	-200.000	0.008	0.095
-128.297	264.468	-0.111	0.189
-127.283	-29.142	0.152	-0.086
-126.268	-107.260	0.533	0.115
-125.253	78.128	-0.199	-0.209
-124.239	-4.837	-0.068	-0.046
-123.224	56.086	0.096	-0.091
-122.210	800.000	0.061	0.208
-121.195	278.957	0.041	-0.072
