DTS Sentinel unit serial number:	SN413079Multiplexer serial number:	ORYXHardware model number:	OX4-SRSoftware version number:	ORYX F/W v4.00 Oryx Data Collector v3.7.2.0data status	okinstallation	princeton_trtdifferential loss correction	single-endedforward channel	channel 2reverse channel	N/Adate	2019/09/15time	20:15:35forward acquisition time	60.00reverse acquisition time	0.00gamma	496.2192k internal	0.2326k external	0.2326temperature offset calibration	0.9935default loss term (dB/km)	0.3790temperature slope calibration	1.0000multiplexer offset coefficient	1.0000multiplexer slope coefficient	1.0000fibre end	0.00T internal ref (°C)	34.47T ext. ref 1 (°C)	7.70T ext. ref 2 (°C)	25.64length (m)	temperature (°C)	Stokes	anti-Stokes-747.200	-200.000	0.019	0.135
-746.185	119.458	0.086	0.107
-745.171	-200.000	-0.022	0.387
-744.156	-36.555	0.185	0.100
-743.142	21.797	-0.211	-0.173
-742.127	243.131	0.059	-0.099
-741.112	-184.057	-0.130	-0.002
-740.098	28.709	-0.161	0.138
-739.083	-117.289	-0.082	-0.015
-738.069	27.449	-0.198	0.168
-737.054	-200.000	-0.012	-0.188
-736.039	-170.225	-0.163	0.006
-735.025	256.645	0.074	0.128
-734.010	165.396	-0.079	0.113
-732.996	22.991	0.393	-0.325
-731.981	101.446	0.137	0.161
-730.966	-128.816	-0.126	0.018
-729.952	-200.000	0.004	0.145
-728.937	-42.125	-0.153	-0.079
-727.923	174.508	-0.234	0.342
-726.908	170.140	-0.068	0.098
-725.894	-154.320	0.452	-0.031
-724.879	55.007	-0.256	-0.249
-723.864	306.840	-0.088	0.166
-722.850	-200.000	-0.053	0.267
-721.835	202.568	0.106	-0.165
-720.821	235.079	0.060	0.099
-719.806	564.756	0.101	0.248
-718.791	-7.391	-0.217	0.148
-717.777	149.425	-0.052	-0.071
-716.762	-53.986	0.121	-0.056
-715.748	-159.629	-0.298	0.017
-714.733	-60.723	0.181	0.077
-713.718	-56.339	0.159	-0.071
-712.704	-169.901	-0.079	0.003
-711.689	-78.580	0.109	0.038
-710.675	219.484	-0.094	0.151
-709.660	-69.203	-0.220	-0.085
-708.645	800.000	-0.095	-0.278
-707.631	-6.282	-0.200	0.138
-706.616	-144.943	-0.226	0.021
-705.602	295.041	-0.066	-0.121
-704.587	-70.494	-0.234	-0.089
-703.572	-118.713	-0.383	-0.068
-702.558	800.000	0.110	-0.313
-701.543	292.188	-0.279	-0.512
-700.529	61.967	0.120	-0.121
-699.514	-200.000	-0.023	-0.154
-698.499	-111.663	-0.325	-0.066
-697.485	-200.000	0.007	-0.374
-696.470	-197.807	0.201	0.001
-695.456	29.293	-0.228	0.195
-694.441	-200.000	0.009	0.057
-693.426	800.000	-0.049	-0.213
-692.412	-200.000	0.044	-0.270
-691.397	-42.052	-0.074	0.038
-690.383	-147.336	0.049	0.004
-689.368	-95.050	-0.147	-0.040
-688.354	-131.933	-0.201	-0.026
-687.339	-80.887	0.238	-0.080
-686.324	246.507	-0.031	-0.052
-685.310	-14.475	0.263	-0.170
-684.295	-12.931	-0.251	-0.164
-683.281	800.000	0.052	0.225
-682.266	576.229	-0.074	0.183
-681.251	-27.696	-0.112	0.065
-680.237	-96.342	-0.219	-0.058
-679.222	-114.503	-0.131	0.025
-678.208	3.919	0.132	-0.097
-677.193	236.865	0.095	-0.158
-676.178	262.259	-0.027	0.047
-675.164	-125.806	-0.232	-0.035
-674.149	311.905	0.150	-0.283
-673.135	-20.042	-0.313	0.194
-672.120	322.607	0.106	-0.203
-671.105	347.620	-0.020	-0.040
-670.091	-200.000	-0.021	-0.142
-669.076	290.344	0.061	0.112
-668.062	458.883	0.072	0.162
-667.047	-159.864	0.077	-0.004
-666.032	800.000	-0.114	0.405
-665.018	-43.562	-0.084	-0.043
-664.003	-137.228	-0.320	-0.037
-662.989	162.296	0.089	-0.125
-661.974	438.716	-0.127	0.278
-660.959	140.640	-0.083	0.111
-659.945	-136.651	-0.133	0.015
-658.930	144.606	0.127	-0.170
-657.916	361.113	0.013	-0.026
-656.901	-200.000	0.004	-0.027
-655.886	213.304	-0.102	0.163
-654.872	-112.709	0.161	0.032
-653.857	367.817	0.098	-0.198
-652.843	800.000	-0.094	-0.400
-651.828	64.220	-0.063	0.064
-650.814	-59.031	0.203	0.088
-649.799	-31.964	-0.240	-0.135
-648.784	800.000	-0.051	-0.205
-647.770	532.164	-0.081	-0.192
-646.755	-131.622	0.248	-0.033
-645.741	354.345	-0.078	-0.157
-644.726	55.048	0.162	-0.158
-643.711	44.407	0.207	-0.191
-642.697	-13.008	-0.312	0.204
-641.682	-156.124	-0.119	-0.008
-640.668	-81.662	-0.206	-0.068
-639.653	45.480	0.285	0.264
-638.638	-84.332	0.367	-0.117
-637.624	483.958	-0.057	-0.131
-636.609	85.171	0.059	0.065
-635.595	-67.624	-0.130	0.051
-634.580	143.749	-0.112	-0.150
-633.565	-166.912	0.298	-0.012
-632.551	115.729	0.161	0.197
-631.536	228.644	-0.015	-0.025
-630.522	-200.000	-0.002	0.388
-629.507	-111.522	-0.119	0.024
-628.492	800.000	-0.025	0.077
-627.478	-183.421	-0.232	0.004
-626.463	-200.000	-0.001	-0.041
-625.449	169.034	-0.055	-0.079
-624.434	40.815	0.412	-0.373
-623.419	-30.636	-0.419	-0.238
-622.405	91.588	-0.150	0.169
-621.390	-200.000	-0.010	0.057
-620.376	43.197	-0.141	-0.129
-619.361	-43.721	0.201	-0.102
-618.346	-0.341	0.206	-0.147
-617.332	43.618	0.256	-0.235
-616.317	33.313	-0.251	0.218
-615.303	-200.000	0.058	-0.353
-614.288	-40.797	0.142	-0.074
-613.273	-58.030	0.403	-0.176
-612.259	277.064	-0.090	0.161
-611.244	-200.000	0.038	0.408
-610.230	-102.549	-0.220	0.053
-609.215	66.417	-0.139	-0.142
-608.201	-112.820	0.246	-0.049
-607.186	82.844	0.101	0.110
-606.171	-0.022	0.323	-0.231
-605.157	800.000	-0.064	0.219
-604.142	219.029	0.078	0.125
-603.128	55.194	0.160	0.155
-602.113	42.052	0.086	-0.079
-601.098	58.590	-0.064	-0.063
-600.084	-72.279	0.243	-0.090
-599.069	-51.523	0.338	0.158
-598.055	-27.662	0.233	-0.135
-597.040	124.276	-0.078	-0.098
-596.025	-178.363	0.239	-0.006
-595.011	101.928	0.142	-0.166
-593.996	800.000	0.117	0.324
-592.982	129.942	-0.212	0.272
-591.967	800.000	-0.146	-0.407
-590.952	-1.810	-0.162	-0.114
-589.938	800.000	-0.035	-0.127
-588.923	-200.000	-0.053	0.237
-587.909	134.082	-0.105	-0.136
-586.894	-6.048	-0.354	-0.242
-585.879	313.558	0.083	-0.156
-584.865	-86.775	0.126	-0.039
-583.850	-200.000	0.028	-0.188
-582.836	-200.000	0.008	-0.430
-581.821	96.542	0.091	0.104
-580.806	-129.657	0.519	0.072
-579.792	34.283	-0.318	-0.278
-578.777	129.095	0.136	-0.174
-577.763	35.389	0.006	-0.005
-576.748	456.530	0.064	-0.141
-575.733	-48.007	-0.177	0.086
-574.719	-200.000	0.066	-0.379
-573.704	-166.449	0.064	0.003
-572.690	800.000	0.088	0.373
-571.675	9.553	-0.182	-0.138
-570.661	68.740	0.016	-0.016
-569.646	-200.000	-0.037	-0.244
-568.631	277.494	-0.144	-0.258
-567.617	219.896	0.041	-0.066
-566.602	215.670	0.105	0.167
-565.588	479.566	0.085	-0.193
-564.573	-200.000	0.033	0.221
-563.558	-122.764	0.395	0.064
-562.544	-187.701	0.385	0.005
-561.529	409.256	0.103	-0.219
-560.515	800.000	0.079	-0.247
-559.500	121.310	-0.155	-0.193
-558.485	61.005	-0.097	0.096
-557.471	200.894	0.114	-0.175
-556.456	800.000	0.044	-0.128
-555.442	23.262	0.262	-0.216
-554.427	649.774	-0.035	-0.089
-553.412	262.442	-0.038	0.066
-552.398	-82.343	-0.433	0.141
-551.383	800.000	-0.090	-0.298
-550.369	573.129	-0.041	-0.100
-549.354	29.819	-0.150	0.128
-548.339	-200.000	-0.041	0.196
-547.325	256.150	0.073	-0.125
-546.310	-200.000	-0.014	0.101
-545.296	317.284	0.157	-0.297
-544.281	377.345	-0.066	-0.136
-543.266	88.489	-0.142	0.158
-542.252	-14.647	-0.081	0.052
-541.237	-124.459	-0.614	-0.096
-540.223	1.691	0.091	0.065
-539.208	20.067	-0.059	-0.048
-538.193	380.435	-0.063	-0.130
-537.179	-21.298	0.318	0.194
-536.164	800.000	-0.077	0.244
-535.150	379.073	-0.021	0.043
-534.135	-200.000	0.002	-0.107
-533.121	800.000	0.019	0.076
-532.106	113.337	-0.170	-0.207
-531.091	-200.000	-0.026	-0.122
-530.077	-200.000	-0.033	0.163
-529.062	-200.000	-0.012	-0.165
-528.048	-68.871	0.109	-0.042
-527.033	-48.251	0.273	0.132
-526.018	-200.000	-0.001	0.507
-525.004	282.076	-0.181	-0.324
-523.989	52.797	0.056	0.053
-522.975	297.198	-0.119	0.219
-521.960	800.000	0.079	-0.277
-520.945	-194.228	-0.197	-0.002
-519.931	-11.766	0.181	0.119
-518.916	205.344	-0.074	-0.115
-517.902	-50.350	-0.330	-0.156
-516.887	-154.354	0.253	-0.017
-515.872	-165.868	-0.063	0.003
-514.858	-110.628	0.315	-0.065
-513.843	148.411	0.081	-0.110
-512.829	-109.455	0.113	-0.024
-511.814	-15.725	-0.174	-0.111
-510.799	0.485	0.163	0.116
-509.785	154.822	-0.094	0.129
-508.770	-200.000	0.008	0.302
-507.756	52.229	0.077	0.074
-506.741	800.000	0.182	0.604
-505.726	-200.000	-0.002	-0.086
-504.712	-88.389	0.114	0.034
-503.697	800.000	-0.066	0.273
-502.683	64.730	-0.067	-0.067
-501.668	7.253	0.086	0.064
-500.653	201.093	-0.193	-0.297
-499.639	-24.256	-0.118	-0.070
-498.624	274.842	-0.056	-0.099
-497.610	-98.447	0.100	0.026
-496.595	-200.000	-0.027	0.153
-495.581	657.935	-0.027	-0.070
-494.566	-200.000	-0.037	0.221
-493.551	-88.989	-0.138	0.041
-492.537	-34.849	0.172	-0.094
-491.522	521.718	0.177	-0.414
-490.508	-160.925	0.107	-0.006
-489.493	-200.000	0.089	0.409
-488.478	-113.361	-0.265	-0.052
-487.464	-169.515	-0.538	0.020
-486.449	-108.858	-0.145	-0.031
-485.435	25.406	0.145	0.120
-484.420	800.000	0.164	0.530
-483.405	78.213	0.061	-0.065
-482.391	-122.942	0.314	0.050
-481.376	19.639	0.064	0.052
-480.362	800.000	0.093	0.266
-479.347	34.924	-0.057	-0.050
-478.332	84.782	0.181	-0.198
-477.318	737.201	0.106	-0.283
-476.303	383.823	0.128	0.263
-475.289	-115.162	0.139	-0.026
-474.274	481.983	-0.067	0.151
-473.259	-69.091	-0.417	0.160
-472.245	-200.000	-0.051	0.250
-471.230	-122.062	0.081	-0.013
-470.216	164.198	0.044	-0.062
-469.201	-68.933	-0.089	0.034
-468.186	138.604	0.244	-0.319
-467.172	-200.000	0.007	-0.159
-466.157	243.724	0.183	-0.307
-465.143	48.615	0.122	0.115
-464.128	-110.537	-0.233	-0.048
-463.113	87.017	-0.252	0.278
-462.099	148.184	0.202	-0.272
-461.084	-200.000	0.012	-0.088
-460.070	-200.000	-0.048	-0.256
-459.055	-22.214	-0.234	0.142
-458.040	55.781	0.030	0.029
-457.026	-54.906	-0.078	-0.035
-456.011	-200.000	-0.008	0.129
-454.997	122.606	0.024	-0.030
-453.982	655.014	-0.108	0.276
-452.968	28.563	0.130	0.110
-451.953	-48.147	-0.095	-0.046
-450.938	-200.000	-0.040	-0.498
-449.924	55.626	0.246	0.238
-448.909	800.000	0.089	0.245
-447.895	800.000	0.083	0.306
-446.880	497.964	0.117	-0.267
-445.865	-79.355	0.148	-0.050
-444.851	162.617	0.107	0.150
-443.836	476.665	-0.044	0.100
-442.822	-125.261	-0.104	-0.016
-441.807	-148.191	0.306	-0.025
-440.792	-1.161	-0.203	-0.143
-439.778	-102.879	0.206	-0.049
-438.763	29.230	0.106	-0.090
-437.749	800.000	-0.029	0.103
-436.734	-67.691	-0.419	0.163
-435.719	126.562	0.164	0.207
-434.705	172.896	-0.145	-0.208
-433.690	-36.709	0.259	0.139
-432.676	27.175	0.169	0.142
-431.661	-200.000	0.001	0.017
-430.646	-37.132	-0.434	-0.232
-429.632	193.821	0.007	0.011
-428.617	71.098	-0.072	0.075
-427.603	34.779	-0.008	-0.007
-426.588	-103.185	0.323	0.076
-425.573	-22.400	0.111	0.067
-424.559	656.912	0.075	0.192
-423.544	-48.382	0.260	0.125
-422.530	-154.910	-0.330	0.022
-421.515	-200.000	-0.012	-0.196
-420.500	153.013	0.159	0.217
-419.486	199.078	-0.117	0.179
-418.471	-169.915	0.398	-0.014
-417.457	-111.269	0.094	-0.019
-416.442	-97.418	-0.238	-0.062
-415.428	-200.000	-0.125	-0.000
-414.413	800.000	0.112	0.325
-413.398	-3.457	0.306	0.212
-412.384	-200.000	0.055	0.521
-411.369	2.960	-0.130	-0.094
-410.355	50.782	-0.184	0.174
-409.340	-66.519	-0.174	-0.069
-408.325	-200.000	0.012	-0.179
-407.311	424.015	0.063	-0.136
-406.296	-119.764	-0.204	0.035
-405.282	471.326	0.154	0.344
-404.267	-76.798	-0.308	-0.107
-403.252	177.431	-0.109	-0.158
-402.238	-200.000	-0.012	-0.235
-401.223	7.326	-0.424	-0.315
-400.209	89.722	-0.072	-0.079
-399.194	-26.333	-0.286	-0.167
-398.179	-69.093	0.036	0.014
-397.165	800.000	-0.030	-0.083
-396.150	-108.520	0.241	-0.052
-395.136	-51.912	-0.205	0.095
-394.121	-200.000	0.040	0.247
-393.106	-54.004	-0.034	-0.015
-392.092	-200.000	-0.067	0.329
-391.077	75.970	-0.048	0.051
-390.063	-200.000	-0.010	0.083
-389.048	-200.000	0.061	0.265
-388.033	121.969	0.112	0.139
-387.019	-138.213	-0.370	-0.041
-386.004	103.834	-0.136	0.159
-384.990	-88.159	0.106	0.031
-383.975	200.722	-0.093	0.142
-382.960	52.560	-0.248	0.236
-381.946	-200.000	-0.025	-0.224
-380.931	-178.600	0.303	-0.007
-379.917	-200.000	0.012	-0.159
-378.902	-155.703	-0.175	0.011
-377.888	-200.000	-0.012	0.165
-376.873	5.011	0.122	0.089
-375.858	800.000	-0.049	0.192
-374.844	112.108	-0.168	-0.202
-373.829	113.222	-0.225	0.272
-372.815	104.460	0.246	-0.288
-371.800	27.748	0.192	0.161
-370.785	-35.470	-0.290	-0.157
-369.771	-143.559	-0.473	-0.045
-368.756	556.423	0.125	-0.300
-367.742	335.787	0.130	0.251
-366.727	-55.977	-0.252	0.112
-365.712	-200.000	-0.042	0.291
-364.698	800.000	0.045	-0.141
-363.683	126.884	0.155	-0.196
-362.669	-156.490	-0.075	0.005
-361.654	800.000	0.080	0.332
-360.639	800.000	0.042	-0.156
-359.625	172.290	0.121	0.173
-358.610	800.000	-0.054	0.233
-357.596	393.143	0.132	0.272
-356.581	-5.442	0.074	0.050
-355.566	-189.705	-0.121	0.001
-354.552	-200.000	0.019	0.125
-353.537	-100.042	0.091	-0.023
-352.523	-59.381	-0.233	0.100
-351.508	-81.754	-0.371	0.121
-350.493	-197.144	0.168	0.001
-349.479	162.269	0.053	-0.074
-348.464	-144.909	-0.392	-0.036
-347.450	800.000	0.084	-0.359
-346.435	-52.791	0.099	0.045
-345.420	101.322	0.182	-0.210
-344.406	800.000	-0.120	-0.347
-343.391	3.515	0.198	-0.143
-342.377	-43.481	-0.213	0.107
-341.362	-200.000	0.005	0.071
-340.348	-200.000	0.016	0.160
-339.333	548.919	-0.086	0.204
-338.318	457.066	-0.111	0.244
-337.304	414.188	-0.034	0.071
-336.289	-6.722	-0.192	0.130
-335.275	-200.000	0.005	0.287
-334.260	268.388	0.090	-0.157
-333.245	374.102	0.092	0.186
-332.231	-200.000	0.048	0.374
-331.216	86.718	0.139	0.152
-330.202	586.631	-0.068	0.166
-329.187	-200.000	0.012	-0.214
-328.172	344.202	-0.170	0.330
-327.158	-134.321	-0.211	0.026
-326.143	-106.627	0.134	0.030
-325.129	-200.000	0.017	-0.108
-324.114	401.936	-0.121	0.251
-323.099	695.664	-0.108	-0.282
-322.085	800.000	-0.064	-0.178
-321.070	-145.119	-0.181	-0.016
-320.056	7.121	-0.280	0.207
-319.041	-200.000	0.070	0.349
-318.026	600.939	-0.200	-0.492
-317.012	-93.418	0.366	-0.101
-315.997	37.252	0.220	-0.193
-314.983	800.000	-0.020	0.064
-313.968	172.453	-0.047	0.067
-312.953	9.224	0.427	-0.320
-311.939	-10.425	-0.323	-0.213
-310.924	441.486	-0.192	-0.417
-309.910	800.000	0.066	0.285
-308.895	-47.810	0.259	0.124
-307.880	-63.442	0.182	-0.074
-306.866	-200.000	-0.027	0.238
-305.851	800.000	0.059	0.228
-304.837	-200.000	0.022	-0.234
-303.822	82.936	0.167	0.181
-302.807	-200.000	-0.024	-0.196
-301.793	-26.367	-0.293	0.170
-300.778	46.492	0.231	-0.212
-299.764	83.869	0.129	0.140
-298.749	-8.765	-0.226	-0.150
-297.735	-10.793	-0.143	-0.093
-296.720	134.491	0.191	0.246
-295.705	-200.000	-0.058	-0.288
-294.691	-57.936	0.337	0.146
-293.676	12.465	-0.214	0.164
-292.662	205.824	0.105	-0.162
-291.647	68.093	-0.093	0.095
-290.632	742.654	0.054	-0.143
-289.618	136.708	-0.261	-0.337
-288.603	550.603	0.024	0.058
-287.589	0.025	0.222	-0.157
-286.574	300.680	-0.108	-0.197
-285.559	-165.260	0.028	0.001
-284.545	611.996	0.076	0.187
-283.530	-116.307	0.262	-0.048
-282.516	92.093	-0.217	-0.242
-281.501	-85.148	0.205	0.064
-280.486	122.539	-0.314	0.389
-279.472	-200.000	-0.105	0.475
-278.457	-101.348	-0.236	-0.057
-277.443	165.894	-0.145	-0.203
-276.428	227.463	0.127	0.204
-275.413	-200.000	0.006	-0.279
-274.399	251.143	-0.092	0.154
-273.384	17.338	-0.158	-0.125
-272.370	562.582	0.129	-0.309
-271.355	-37.340	0.262	0.139
-270.340	-21.066	0.238	0.144
-269.326	-118.997	-0.098	0.017
-268.311	-114.189	0.132	-0.025
-267.297	120.717	0.054	-0.066
-266.282	117.771	-0.031	-0.038
-265.267	-200.000	0.036	0.162
-264.253	-68.599	0.375	0.144
-263.238	438.577	-0.014	0.030
-262.224	107.855	-0.070	0.083
-261.209	30.988	0.089	-0.076
-260.195	13.574	-0.083	0.064
-259.180	-89.750	-0.347	0.101
-258.165	-200.000	0.280	0.000
-257.151	800.000	-0.043	-0.156
-256.136	2.305	0.392	0.281
-255.122	-128.681	0.174	0.024
-254.107	-14.883	-0.079	0.050
-253.092	284.433	-0.037	0.066
-252.078	800.000	-0.048	-0.167
-251.063	419.995	0.150	0.318
-250.049	147.749	-0.181	0.241
-249.034	184.459	0.074	-0.108
-248.019	-5.512	0.109	-0.074
-247.005	11.611	0.243	0.185
-245.990	-49.781	-0.210	0.099
-244.976	-200.000	-0.045	0.267
-243.961	29.257	-0.223	0.188
-242.946	-173.616	0.124	-0.004
-241.932	400.108	0.025	-0.051
-240.917	-16.499	-0.265	0.166
-239.903	-112.882	0.147	-0.029
-238.888	322.225	0.078	0.147
-237.873	800.000	0.018	-0.058
-236.859	-10.388	-0.405	0.266
-235.844	800.000	-0.141	-0.485
-234.830	435.507	-0.065	-0.140
-233.815	-171.017	-0.310	0.010
-232.800	98.879	-0.280	-0.319
-231.786	-200.000	0.011	-0.482
-230.771	-200.000	-0.034	0.393
-229.757	92.400	-0.144	0.160
-228.742	800.000	0.073	0.269
-227.727	177.230	-0.158	-0.227
-226.713	-67.483	-0.077	-0.030
-225.698	-79.903	0.245	-0.081
-224.684	101.000	0.162	-0.187
-223.669	-74.950	-0.180	-0.064
-222.655	-200.000	0.048	0.232
-221.640	-49.663	-0.447	0.210
-220.625	486.617	-0.015	0.034
-219.611	-172.302	-0.238	-0.008
-218.596	34.216	-0.091	0.078
-217.582	-200.000	-0.009	0.105
-216.567	-200.000	0.039	-0.204
-215.552	-87.792	-0.086	-0.026
-214.538	-86.396	0.186	0.056
-213.523	-128.172	-0.058	0.008
-212.509	50.638	0.240	-0.224
-211.494	132.987	0.088	0.113
-210.479	313.231	-0.107	-0.199
-209.465	800.000	0.128	0.436
-208.450	78.235	0.106	-0.112
-207.436	166.157	0.083	-0.115
-206.421	181.379	-0.178	-0.259
-205.406	-200.000	-0.108	-0.501
-204.392	-200.000	0.001	0.113
-203.377	-55.883	0.354	-0.156
-202.363	-2.313	0.232	-0.160
-201.348	698.164	-0.111	-0.287
-200.333	-57.032	-0.378	0.165
-199.319	438.410	-0.077	-0.166
-198.304	33.843	0.101	0.087
-197.290	179.431	0.150	0.217
-196.275	-200.000	-0.191	0.000
-195.260	178.725	0.132	-0.190
-194.246	-28.472	0.250	-0.142
-193.231	-119.955	-0.216	0.037
-192.217	-15.455	0.187	0.118
-191.202	-200.000	0.006	-0.302
-190.187	617.548	-0.161	0.398
-189.173	290.321	0.139	-0.250
-188.158	248.255	0.118	0.198
-187.144	348.290	0.122	0.237
-186.129	-93.979	0.239	-0.065
-185.114	117.764	0.319	0.387
-184.100	-20.151	-0.178	-0.108
-183.085	-39.216	-0.243	0.126
-182.071	-145.277	0.202	-0.018
-181.056	-92.742	0.243	0.067
-180.042	46.402	0.052	0.047
-179.027	-92.081	0.126	0.035
-178.012	4.223	-0.185	-0.134
-176.998	-163.215	0.264	0.012
-175.983	-142.224	-0.299	0.029
-174.969	-144.808	0.211	-0.019
-173.954	-40.111	0.284	0.146
-172.939	178.905	-0.041	0.060
-171.925	800.000	0.037	-0.130
-170.910	291.481	0.166	0.297
-169.896	-39.112	-0.320	-0.166
-168.881	246.036	-0.190	-0.315
-167.866	-87.730	-0.364	-0.108
-166.852	-135.978	-0.220	-0.025
-165.837	-52.064	-0.075	-0.034
-164.823	356.596	-0.086	0.169
-163.808	-200.000	0.036	-0.243
-162.793	72.079	0.011	-0.012
-161.779	-200.000	0.025	-0.170
-160.764	146.463	0.090	-0.119
-159.750	-17.967	-0.130	0.080
-158.735	137.379	0.179	-0.231
-157.720	50.636	-0.277	-0.259
-156.706	-105.777	0.096	-0.021
-155.691	10.347	0.189	-0.142
-154.677	-30.382	0.121	-0.068
-153.662	124.882	-0.166	0.206
-152.647	49.554	-0.335	-0.311
-151.633	-152.700	-0.112	0.008
-150.618	-14.668	0.045	0.029
-149.604	68.551	-0.217	-0.219
-148.589	-176.871	0.129	-0.003
-147.574	-200.000	-0.028	0.632
-146.560	-119.495	0.226	-0.039
-145.545	-162.849	-0.282	0.014
-144.531	-85.776	-0.125	-0.038
-143.516	-34.465	0.124	0.067
-142.502	-87.351	0.316	0.094
-141.487	117.579	0.096	0.116
-140.472	12.302	0.344	0.261
-139.458	3.543	0.141	-0.101
-138.443	48.115	-0.051	0.047
-137.429	-23.461	0.167	0.099
-136.414	165.327	0.124	0.173
-135.399	-159.318	0.376	-0.021
-134.385	-200.000	0.034	0.183
-133.370	273.696	-0.138	0.240
-132.356	70.723	0.073	0.074
-131.341	-96.079	0.082	0.021
-130.326	-75.878	-0.248	0.086
-129.312	-200.000	-0.052	-0.288
-128.297	82.464	-0.114	0.122
-127.283	-11.780	0.107	-0.069
-126.268	-200.000	0.002	0.415
-125.253	-200.000	-0.057	0.465
-124.239	-176.618	-0.201	0.005
-123.224	105.998	-0.151	0.176
-122.210	-200.000	-0.026	0.132
-121.195	800.000	0.068	0.237
