DTS Sentinel unit serial number:	SN413079Multiplexer serial number:	ORYXHardware model number:	OX4-SRSoftware version number:	ORYX F/W v4.00 Oryx Data Collector v3.7.2.0data status	okinstallation	princeton_trtdifferential loss correction	single-endedforward channel	channel 2reverse channel	N/Adate	2019/09/12time	11:37:10forward acquisition time	60.00reverse acquisition time	0.00gamma	496.2192k internal	0.2302k external	0.2302temperature offset calibration	1.0072default loss term (dB/km)	0.3790temperature slope calibration	1.0000multiplexer offset coefficient	1.0000multiplexer slope coefficient	1.0000fibre end	0.00T internal ref (°C)	39.55T ext. ref 1 (°C)	1.97T ext. ref 2 (°C)	36.94length (m)	temperature (°C)	Stokes	anti-Stokes-747.200	259.963	-0.060	0.107
-746.185	-200.000	0.029	0.183
-745.171	-195.977	-0.077	-0.001
-744.156	-60.900	-0.095	0.041
-743.142	-46.615	0.094	0.047
-742.127	286.826	-0.144	0.266
-741.112	-106.847	-0.188	-0.043
-740.098	-200.000	0.057	0.283
-739.083	-45.753	-0.074	0.037
-738.069	-34.219	0.143	0.080
-737.054	800.000	0.070	0.245
-736.039	-61.997	0.049	0.021
-735.025	-100.362	-0.097	-0.024
-734.010	222.643	-0.084	-0.137
-732.996	792.982	0.062	0.173
-731.981	-138.709	-0.340	-0.038
-730.966	-51.879	0.122	-0.058
-729.952	569.796	0.084	0.208
-728.937	229.344	0.115	-0.192
-727.923	56.568	-0.136	-0.135
-726.908	800.000	-0.050	-0.203
-725.894	-200.000	0.006	-0.035
-724.879	-16.296	-0.181	0.117
-723.864	800.000	0.070	0.252
-722.850	81.619	0.097	-0.107
-721.835	-121.930	-0.349	-0.058
-720.821	-61.630	-0.076	-0.032
-719.806	-52.945	0.156	0.073
-718.791	-200.000	0.060	-0.402
-717.777	800.000	-0.115	-0.367
-716.762	-171.904	-0.211	0.007
-715.748	-117.916	-0.188	-0.034
-714.733	74.158	0.177	0.189
-713.718	-30.990	-0.166	0.095
-712.704	475.326	-0.104	-0.240
-711.689	91.571	-0.199	-0.228
-710.675	-30.856	-0.159	0.092
-709.660	184.196	-0.218	0.328
-708.645	-56.286	-0.186	-0.084
-707.631	-92.346	0.314	-0.090
-706.616	800.000	0.055	-0.196
-705.602	73.941	0.199	-0.212
-704.587	-34.257	-0.101	0.056
-703.572	-2.249	-0.114	0.081
-702.558	-9.673	-0.023	-0.016
-701.543	34.695	0.139	-0.124
-700.529	488.246	0.176	0.409
-699.514	800.000	-0.044	0.146
-698.499	-115.815	-0.022	-0.004
-697.485	-41.098	-0.192	0.101
-696.470	-78.078	-0.091	-0.032
-695.456	34.944	0.136	0.121
-694.441	-167.969	-0.269	0.011
-693.426	800.000	-0.034	0.148
-692.412	-5.077	-0.165	-0.115
-691.397	-160.120	-0.282	-0.016
-690.383	66.921	-0.185	-0.192
-689.368	395.052	0.093	-0.197
-688.354	19.638	0.097	0.079
-687.339	131.536	-0.173	0.227
-686.324	-55.269	-0.274	0.125
-685.310	76.682	-0.216	-0.233
-684.295	-52.992	-0.171	-0.080
-683.281	800.000	-0.031	0.126
-682.266	559.048	0.089	-0.219
-681.251	126.458	0.296	-0.381
-680.237	68.468	0.113	0.117
-679.222	-34.646	-0.337	-0.188
-678.208	518.038	-0.140	-0.333
-677.193	-69.378	-0.290	-0.113
-676.178	-98.281	-0.319	0.083
-675.164	52.999	0.124	0.120
-674.149	-200.000	-0.011	0.229
-673.135	43.351	-0.223	0.207
-672.120	71.336	0.322	-0.339
-671.105	9.638	-0.144	0.111
-670.091	263.818	0.088	-0.155
-669.076	-33.659	0.190	-0.106
-668.062	-114.467	-0.102	-0.020
-667.047	800.000	-0.071	-0.300
-666.032	21.545	0.110	0.091
-665.018	-133.909	0.112	-0.014
-664.003	-10.992	0.343	-0.230
-662.989	-184.304	0.070	0.001
-661.974	-86.410	-0.074	-0.023
-660.959	38.428	0.209	-0.190
-659.945	679.667	-0.005	0.014
-658.930	-116.920	-0.231	0.043
-657.916	-117.862	-0.255	0.046
-656.901	192.478	0.171	0.263
-655.886	-29.601	-0.011	-0.006
-654.872	-169.749	-0.461	0.017
-653.857	-83.627	0.187	0.061
-652.843	-10.994	-0.054	0.036
-651.828	622.330	-0.063	0.160
-650.814	-200.000	0.015	-0.109
-649.799	-103.711	-0.110	0.026
-648.784	-82.847	0.397	0.130
-647.770	-142.395	0.492	-0.049
-646.755	-102.203	-0.137	0.033
-645.741	-180.081	0.260	-0.006
-644.726	218.967	-0.274	-0.444
-643.711	-101.676	0.132	-0.033
-642.697	-65.889	-0.073	-0.030
-641.682	238.141	-0.191	0.322
-640.668	800.000	-0.122	-0.490
-639.653	47.952	-0.357	-0.339
-638.638	-200.000	-0.028	0.171
-637.624	-86.598	-0.300	0.093
-636.609	-181.390	0.350	-0.007
-635.595	157.144	-0.091	0.128
-634.580	154.694	-0.090	-0.125
-633.565	800.000	-0.102	0.381
-632.551	-174.429	-0.218	0.006
-631.536	76.891	0.112	0.120
-630.522	-46.432	0.332	0.165
-629.507	-43.562	0.488	-0.250
-628.492	4.060	-0.248	-0.184
-627.478	-188.590	-0.074	0.001
-626.463	219.275	0.166	-0.269
-625.449	-17.154	-0.096	0.061
-624.434	-108.743	-0.031	0.007
-623.419	-9.163	-0.109	0.074
-622.405	-170.333	-0.150	0.005
-621.390	-150.456	-0.053	-0.004
-620.376	478.723	0.083	0.191
-619.361	-26.985	0.156	-0.092
-618.346	-115.849	-0.148	-0.028
-617.332	-53.600	0.113	0.053
-616.317	10.297	-0.204	-0.157
-615.303	62.579	-0.059	0.060
-614.288	-40.082	0.050	0.026
-613.273	170.033	-0.020	0.028
-612.259	218.060	-0.224	-0.362
-611.244	-156.220	-0.303	0.019
-610.230	7.857	0.140	-0.106
-609.215	100.838	-0.309	0.364
-608.201	-200.000	-0.014	0.300
-607.186	-150.315	0.023	0.002
-606.171	257.214	0.092	0.160
-605.157	439.460	0.080	-0.177
-604.142	308.174	0.058	-0.109
-603.128	67.475	0.169	-0.175
-602.113	593.935	-0.116	-0.291
-601.098	-200.000	-0.022	-0.109
-600.084	354.536	-0.146	0.295
-599.069	-33.111	-0.106	-0.060
-598.055	197.981	0.071	0.110
-597.040	800.000	0.117	0.353
-596.025	-43.592	-0.386	0.197
-595.011	-17.309	-0.230	0.147
-593.996	-172.337	0.133	0.004
-592.982	-137.257	-0.147	0.017
-591.967	652.097	0.128	-0.332
-590.952	-133.507	-0.150	-0.019
-589.938	-116.809	0.067	-0.012
-588.923	194.079	-0.044	0.068
-587.909	232.923	0.108	0.179
-586.894	-16.324	-0.195	0.126
-585.879	581.114	-0.085	-0.212
-584.865	119.051	-0.113	-0.142
-583.850	-58.863	0.196	-0.086
-582.836	-128.986	0.329	-0.047
-581.821	-120.416	0.074	-0.013
-580.806	128.957	-0.193	0.249
-579.792	429.792	-0.071	-0.156
-578.777	-200.000	0.042	0.342
-577.763	-43.636	-0.226	0.115
-576.748	212.890	-0.183	-0.292
-575.733	-200.000	0.007	0.253
-574.719	242.615	0.171	-0.290
-573.704	800.000	0.018	-0.068
-572.690	-108.445	0.201	-0.044
-571.675	-200.000	0.012	-0.188
-570.661	800.000	0.098	-0.301
-569.646	-66.160	-0.125	-0.050
-568.631	-156.254	-0.201	0.013
-567.617	-10.088	0.168	-0.113
-566.602	2.523	-0.210	0.154
-565.588	-200.000	-0.003	0.162
-564.573	-200.000	-0.009	-0.148
-563.558	579.911	-0.069	-0.170
-562.544	594.750	0.084	-0.211
-561.529	-172.534	-0.251	-0.008
-560.515	54.518	0.098	-0.096
-559.500	589.627	0.057	-0.142
-558.485	-200.000	-0.014	-0.072
-557.471	-127.394	0.199	0.029
-556.456	-200.000	-0.015	0.065
-555.442	156.551	-0.157	0.219
-554.427	490.089	-0.190	0.439
-553.412	44.973	0.149	0.139
-552.398	147.139	-0.152	-0.207
-551.383	-70.937	0.063	0.024
-550.369	-114.477	0.456	0.089
-549.354	800.000	0.083	-0.353
-548.339	-10.819	-0.198	-0.132
-547.325	-157.734	-0.113	0.007
-546.310	-200.000	-0.050	-0.278
-545.296	-27.873	0.158	0.093
-544.281	-66.960	0.173	0.069
-543.266	73.951	-0.238	-0.253
-542.252	-126.310	-0.214	0.032
-541.237	115.536	0.053	-0.066
-540.223	57.908	-0.038	0.037
-539.208	800.000	0.051	0.209
-538.193	412.774	0.111	-0.238
-537.179	-200.000	-0.002	0.015
-536.164	-200.000	0.029	-0.279
-535.150	644.864	0.196	-0.506
-534.135	94.480	-0.070	-0.080
-533.121	557.322	-0.080	-0.194
-532.106	7.376	0.039	-0.029
-531.091	-135.308	-0.284	0.034
-530.077	92.615	-0.138	0.157
-529.062	392.157	0.003	-0.005
-528.048	-180.319	-0.047	-0.001
-527.033	-46.256	0.064	-0.032
-526.018	621.122	-0.018	0.045
-525.004	74.649	0.104	0.111
-523.989	88.151	-0.247	-0.277
-522.975	800.000	-0.045	-0.159
-521.960	-200.000	-0.001	0.232
-520.945	-26.362	0.072	-0.043
-519.931	-11.387	-0.260	-0.173
-518.916	200.751	-0.161	0.251
-517.902	800.000	-0.113	-0.435
-516.887	499.562	0.135	0.313
-515.872	-200.000	0.014	0.406
-514.858	-33.781	0.182	0.101
-513.843	-200.000	-0.062	-0.314
-512.829	-200.000	0.016	-0.154
-511.814	-98.339	0.277	-0.072
-510.799	800.000	-0.082	0.238
-509.785	-200.000	0.008	-0.191
-508.770	439.436	-0.010	0.021
-507.756	-108.026	0.144	0.032
-506.741	-200.000	0.029	-0.259
-505.726	15.253	0.145	-0.115
-504.712	-164.522	0.478	0.022
-503.697	496.413	0.045	-0.104
-502.683	-103.478	0.279	0.066
-501.668	462.645	0.099	0.223
-500.653	79.452	-0.207	0.224
-499.639	-0.463	0.044	-0.032
-498.624	-200.000	0.013	0.096
-497.610	-127.285	0.018	0.003
-496.595	224.388	-0.097	0.158
-495.581	539.928	-0.080	0.192
-494.566	278.513	-0.079	0.142
-493.551	90.920	0.150	0.170
-492.537	-38.992	-0.224	0.119
-491.522	-53.873	0.222	-0.102
-490.508	-148.440	-0.222	0.018
-489.493	401.117	-0.090	-0.191
-488.478	71.031	-0.206	0.215
-487.464	592.980	0.099	-0.246
-486.449	-100.789	0.022	0.005
-485.435	-137.580	-0.199	0.023
-484.420	564.860	-0.111	0.272
-483.405	25.956	-0.306	-0.257
-482.391	10.222	-0.202	-0.155
-481.376	65.257	0.237	0.242
-480.362	-107.436	-0.095	0.021
-479.347	-52.612	-0.116	-0.054
-478.332	-200.000	-0.024	0.216
-477.318	-66.158	0.149	0.060
-476.303	-167.085	0.260	-0.011
-475.289	117.860	-0.113	-0.141
-474.274	-48.764	-0.189	0.091
-473.259	-200.000	-0.004	0.341
-472.245	-48.617	0.182	-0.088
-471.230	33.124	-0.172	-0.151
-470.216	800.000	-0.123	0.399
-469.201	-142.749	-0.147	-0.014
-468.186	485.123	0.106	-0.243
-467.172	13.133	-0.150	-0.117
-466.157	-69.689	0.312	0.120
-465.143	-101.474	0.040	0.010
-464.128	-200.000	0.002	0.338
-463.113	800.000	-0.029	-0.121
-462.099	-170.021	-0.115	0.004
-461.084	-159.393	0.502	-0.028
-460.070	800.000	0.010	0.032
-459.055	-42.101	0.106	-0.055
-458.040	73.107	-0.057	-0.060
-457.026	132.429	-0.356	-0.463
-456.011	-200.000	0.023	0.292
-454.997	165.876	-0.077	-0.109
-453.982	532.343	0.174	0.415
-452.968	-103.156	-0.191	-0.046
-451.953	114.080	-0.099	-0.121
-450.938	-144.279	-0.036	-0.003
-449.924	362.072	-0.077	0.157
-448.909	-109.638	0.235	-0.050
-447.895	-200.000	-0.019	-0.377
-446.880	-89.057	-0.281	-0.084
-445.865	27.001	-0.200	0.169
-444.851	-44.125	-0.244	0.123
-443.836	-81.381	0.207	0.069
-442.822	-26.179	-0.311	0.184
-441.807	64.684	0.086	0.087
-440.792	-37.194	0.113	-0.061
-439.778	-125.929	0.108	-0.016
-438.763	561.101	-0.077	0.187
-437.749	136.510	0.187	-0.246
-436.734	244.595	0.136	0.230
-435.719	321.433	0.034	0.065
-434.705	-200.000	0.012	0.150
-433.690	633.171	0.025	0.064
-432.676	-200.000	0.006	-0.070
-431.661	800.000	-0.112	-0.313
-430.646	-46.399	0.129	0.064
-429.632	-31.678	0.261	0.148
-428.617	-200.000	0.005	-0.195
-427.603	-109.289	0.173	-0.037
-426.588	23.435	0.090	-0.074
-425.573	800.000	-0.013	0.045
-424.559	-200.000	0.033	-0.234
-423.544	-50.222	-0.244	-0.116
-422.530	596.893	0.021	0.053
-421.515	164.755	0.075	-0.106
-420.500	-77.236	0.394	-0.138
-419.486	800.000	-0.111	-0.389
-418.471	-200.000	-0.016	-0.451
-417.457	-62.410	0.247	0.103
-416.442	800.000	-0.010	0.035
-415.428	-200.000	0.009	-0.278
-414.413	-200.000	-0.001	0.007
-413.398	-48.591	-0.144	0.070
-412.384	-200.000	-0.068	0.320
-411.369	800.000	-0.048	0.183
-410.355	617.790	0.064	0.161
-409.340	-200.000	-0.039	0.472
-408.325	-83.079	0.468	0.151
-407.311	-102.044	-0.080	-0.019
-406.296	-27.681	0.100	0.059
-405.282	-200.000	0.007	-0.452
-404.267	-26.910	-0.478	0.281
-403.252	-113.173	0.227	0.045
-402.238	-30.288	-0.211	-0.121
-401.223	25.598	0.083	0.069
-400.209	143.607	-0.051	-0.069
-399.194	36.244	-0.174	0.154
-398.179	800.000	0.044	0.131
-397.165	-19.167	0.140	0.087
-396.150	209.573	-0.173	0.273
-395.136	714.999	0.051	0.136
-394.121	-110.292	0.199	0.042
-393.106	-200.000	0.014	0.116
-392.092	-156.245	-0.063	-0.004
-391.077	-121.997	-0.264	-0.044
-390.063	-77.948	-0.196	0.068
-389.048	238.334	0.180	-0.300
-388.033	136.362	-0.088	-0.115
-387.019	253.065	0.083	-0.143
-386.004	-33.062	0.086	0.048
-384.990	-25.872	-0.217	-0.129
-383.975	-86.996	0.185	0.057
-382.960	52.777	-0.156	-0.150
-381.946	503.223	-0.116	0.270
-380.931	-56.505	-0.241	0.107
-379.917	717.372	0.080	0.214
-378.902	195.643	0.121	-0.185
-377.888	570.170	0.128	-0.313
-376.873	-145.500	-0.573	0.052
-375.858	-128.298	0.058	-0.008
-374.844	-14.455	-0.088	0.057
-373.829	443.266	-0.112	-0.246
-372.815	187.886	-0.188	0.282
-371.800	-22.798	-0.178	0.108
-370.785	-150.765	0.111	-0.008
-369.771	-200.000	0.041	0.226
-368.756	92.810	0.192	-0.217
-367.742	800.000	0.071	-0.292
-366.727	-200.000	0.009	-0.138
-365.712	-8.097	-0.056	-0.038
-364.698	-130.111	-0.251	0.034
-363.683	-132.946	0.122	0.016
-362.669	-142.210	-0.028	0.003
-361.654	-65.254	0.170	-0.069
-360.639	-200.000	-0.004	0.262
-359.625	800.000	-0.094	0.346
-358.610	390.592	-0.109	0.228
-357.596	24.180	-0.250	0.208
-356.581	-200.000	0.001	-0.108
-355.566	-200.000	-0.039	0.309
-354.552	-121.312	0.357	0.060
-353.537	-135.159	0.187	0.023
-352.523	-200.000	-0.067	0.300
-351.508	800.000	0.043	-0.157
-350.493	800.000	0.016	-0.068
-349.479	-81.350	-0.174	-0.058
-348.464	800.000	0.159	0.461
-347.450	-3.314	-0.347	-0.242
-346.435	-124.547	0.157	0.024
-345.420	-200.000	-0.010	-0.120
-344.406	-97.845	-0.181	0.047
-343.391	647.998	-0.040	0.102
-342.377	-90.801	-0.268	-0.078
-341.362	-85.244	0.142	-0.044
-340.348	53.812	0.146	0.141
-339.333	-114.238	-0.066	-0.013
-338.318	-200.000	-0.028	-0.225
-337.304	39.944	-0.104	0.094
-336.289	247.288	-0.103	0.175
-335.275	412.415	-0.090	-0.192
-334.260	-200.000	0.008	-0.136
-333.245	311.101	0.094	0.176
-332.231	295.773	0.101	0.186
-331.216	-150.858	-0.273	-0.021
-330.202	206.940	-0.153	-0.239
-329.187	800.000	0.086	0.268
-328.172	265.500	0.063	0.111
-327.158	51.033	-0.264	0.251
-326.143	-200.000	-0.010	-0.187
-325.129	-42.505	0.191	0.098
-324.114	800.000	0.057	-0.179
-323.099	19.069	0.102	0.082
-322.085	-37.306	-0.178	-0.095
-321.070	-200.000	-0.054	-0.312
-320.056	-143.313	-0.077	0.007
-319.041	176.793	-0.173	0.252
-318.026	530.515	0.098	-0.233
-317.012	-62.277	-0.140	0.058
-315.997	271.857	0.087	-0.153
-314.983	535.191	-0.112	0.265
-313.968	800.000	0.041	0.123
-312.953	5.420	0.137	-0.101
-311.939	800.000	-0.016	-0.066
-310.924	291.363	0.062	-0.114
-309.910	11.122	-0.075	-0.058
-308.895	-44.215	-0.218	-0.109
-307.880	209.001	0.131	-0.205
-306.866	-60.997	-0.120	-0.051
-305.851	158.459	-0.063	-0.088
-304.837	-31.998	0.144	0.081
-303.822	-69.929	-0.247	-0.094
-302.807	232.411	0.078	-0.129
-301.793	21.502	0.344	0.280
-300.778	-147.961	0.218	-0.018
-299.764	-113.694	0.361	-0.071
-298.749	-3.432	-0.092	0.064
-297.735	116.294	-0.130	-0.160
-296.720	-158.259	0.115	0.007
-295.705	570.432	0.022	0.053
-294.691	-73.624	-0.288	0.105
-293.676	230.952	0.135	0.221
-292.662	-33.265	-0.183	0.102
-291.647	329.663	0.089	-0.172
-290.632	97.472	0.149	-0.171
-289.618	800.000	0.101	0.348
-288.603	-200.000	0.018	0.154
-287.589	-200.000	0.011	-0.226
-286.574	-67.806	0.165	-0.065
-285.559	-48.160	0.155	0.075
-284.545	42.593	0.124	-0.113
-283.530	379.427	0.087	0.178
-282.516	800.000	0.042	0.153
-281.501	800.000	-0.037	0.151
-280.486	-6.314	-0.182	0.124
-279.472	-62.190	0.140	-0.059
-278.457	180.557	0.174	-0.256
-277.443	-120.364	-0.285	0.049
-276.428	53.240	0.271	-0.260
-275.413	-125.465	-0.191	0.029
-274.399	121.780	0.148	0.184
-273.384	178.384	-0.040	-0.058
-272.370	382.824	-0.010	-0.021
-271.355	686.308	0.113	-0.296
-270.340	-157.865	0.129	-0.008
-269.326	-93.415	0.422	-0.117
-268.311	-81.583	0.241	0.079
-267.297	-140.602	-0.103	0.011
-266.282	40.896	0.161	-0.145
-265.267	311.696	-0.141	0.265
-264.253	-94.867	0.175	0.047
-263.238	142.216	0.059	-0.078
-262.224	800.000	-0.101	0.305
-261.209	-116.779	-0.099	-0.018
-260.195	43.749	-0.271	0.248
-259.180	-2.237	-0.051	-0.036
-258.165	-131.588	-0.205	0.027
-257.151	763.390	0.085	0.230
-256.136	79.494	-0.119	0.128
-255.122	199.311	0.183	0.280
-254.107	11.729	0.115	-0.088
-253.092	-110.984	0.153	0.031
-252.078	743.082	-0.027	-0.073
-251.063	105.263	-0.133	0.157
-250.049	-200.000	0.012	-0.096
-249.034	191.668	-0.037	-0.055
-248.019	-120.416	-0.367	0.062
-247.005	800.000	0.069	-0.277
-245.990	-156.612	0.260	-0.016
-244.976	-2.771	0.077	-0.054
-243.961	-200.000	0.051	0.286
-242.946	-58.350	0.267	-0.116
-241.932	39.990	-0.135	-0.121
-240.917	36.912	-0.258	-0.228
-239.903	-200.000	-0.041	0.195
-238.888	800.000	0.028	-0.088
-237.873	-200.000	0.029	-0.198
-236.859	477.047	0.119	0.268
-235.844	-200.000	-0.013	-0.208
-234.830	2.180	0.072	0.052
-233.815	800.000	-0.112	-0.408
-232.800	192.065	-0.076	0.115
-231.786	103.018	-0.076	0.089
-230.771	109.471	0.135	0.162
-229.757	529.083	0.157	-0.370
-228.742	-200.000	-0.003	-0.101
-227.727	-24.658	0.253	0.150
-226.713	800.000	-0.101	0.322
-225.698	-83.750	-0.097	-0.031
-224.684	-200.000	-0.022	0.100
-223.669	-77.656	0.282	0.098
-222.655	16.860	-0.149	-0.118
-221.640	133.773	-0.222	-0.288
-220.625	-96.644	0.241	0.063
-219.611	341.873	-0.102	0.199
-218.596	345.295	0.036	0.070
-217.582	191.436	-0.102	0.153
-216.567	-42.306	0.334	0.170
-215.552	800.000	-0.023	0.101
-214.538	-200.000	-0.014	0.300
-213.523	-54.517	0.151	-0.068
-212.509	-200.000	0.015	-0.272
-211.494	-200.000	0.031	-0.510
-210.479	41.972	0.213	-0.193
-209.465	-200.000	0.031	-0.375
-208.450	75.365	-0.289	0.305
-207.436	-200.000	0.044	0.199
-206.421	-82.363	-0.113	-0.037
-205.406	109.463	0.053	0.064
-204.392	345.106	-0.087	-0.170
-203.377	-200.000	0.026	0.159
-202.363	486.126	-0.067	-0.152
-201.348	16.473	-0.048	0.038
-200.333	800.000	-0.072	-0.224
-199.319	99.781	0.060	0.070
-198.304	-65.582	0.186	-0.075
-197.290	-72.506	0.411	-0.151
-196.275	305.902	-0.051	0.095
-195.260	22.409	-0.166	-0.135
-194.246	800.000	0.069	-0.282
-193.231	-47.058	0.331	-0.161
-192.217	18.482	-0.215	-0.172
-191.202	-41.049	-0.120	0.062
-190.187	639.887	-0.085	-0.215
-189.173	800.000	-0.071	0.269
-188.158	800.000	-0.088	0.309
-187.144	218.880	-0.082	0.131
-186.129	-200.000	-0.026	-0.146
-185.114	-200.000	-0.035	0.211
-184.100	-86.068	-0.030	0.009
-183.085	800.000	0.117	-0.371
-182.071	-32.343	-0.051	-0.028
-181.056	110.908	0.169	0.203
-180.042	-200.000	0.042	0.235
-179.027	789.883	-0.010	-0.028
-178.012	-99.700	-0.437	0.109
-176.998	-9.495	0.174	0.115
-175.983	-85.678	-0.261	0.081
-174.969	60.124	0.171	0.169
-173.954	-47.717	0.328	-0.158
-172.939	72.934	0.123	0.128
-171.925	-104.161	0.400	-0.093
-170.910	-96.726	-0.191	-0.050
-169.896	533.123	0.073	0.173
-168.881	45.129	0.052	-0.047
-167.866	800.000	0.104	-0.385
-166.852	98.792	-0.123	-0.142
-165.837	-41.869	-0.331	0.169
-164.823	-95.536	0.266	0.071
-163.808	-200.000	0.039	0.182
-162.793	800.000	0.077	-0.309
-161.779	25.995	0.355	-0.295
-160.764	63.114	0.135	0.135
-159.750	-72.053	-0.105	-0.039
-158.735	-200.000	-0.034	0.262
-157.720	-162.197	-0.339	-0.017
-156.706	51.783	0.102	0.096
-155.691	-200.000	-0.048	-0.227
-154.677	-200.000	0.270	0.000
-153.662	59.156	0.179	0.175
-152.647	-134.467	0.201	0.025
-151.633	138.903	0.053	-0.069
-150.618	-62.074	-0.112	0.047
-149.604	-154.786	-0.167	-0.011
-148.589	-35.198	-0.256	0.139
-147.574	-51.798	-0.305	-0.141
-146.560	318.679	-0.112	0.211
-145.545	800.000	-0.068	-0.228
-144.531	135.970	-0.191	0.248
-143.516	-46.080	0.113	-0.056
-142.502	-172.712	0.325	0.010
-141.487	-15.347	-0.139	0.088
-140.472	133.488	-0.243	0.313
-139.458	45.750	0.078	0.071
-138.443	-200.000	0.062	-0.274
-137.429	-125.659	0.114	0.017
-136.414	316.119	-0.147	-0.276
-135.399	69.547	0.216	-0.221
-134.385	800.000	0.097	0.288
-133.370	97.522	0.162	0.185
-132.356	98.516	-0.173	0.199
-131.341	-200.000	-0.003	-0.104
-130.326	-114.261	0.263	-0.051
-129.312	-79.402	-0.206	-0.069
-128.297	-110.701	-0.170	-0.035
-127.283	-36.988	-0.276	0.147
-126.268	-80.742	0.036	-0.012
-125.253	-16.662	-0.142	0.089
-124.239	-54.637	-0.183	0.082
-123.224	-135.187	0.239	0.029
-122.210	800.000	0.072	0.232
-121.195	-68.969	0.294	0.113
