DTS Sentinel unit serial number:	SN413079Multiplexer serial number:	ORYXHardware model number:	OX4-SRSoftware version number:	ORYX F/W v4.00 Oryx Data Collector v3.7.2.0data status	okinstallation	princeton_trtdifferential loss correction	single-endedforward channel	channel 2reverse channel	N/Adate	2019/09/17time	23:07:35forward acquisition time	60.00reverse acquisition time	0.00gamma	496.2192k internal	0.2346k external	0.2346temperature offset calibration	0.9981default loss term (dB/km)	0.3790temperature slope calibration	1.0000multiplexer offset coefficient	1.0000multiplexer slope coefficient	1.0000fibre end	0.00T internal ref (°C)	24.62T ext. ref 1 (°C)	0.17T ext. ref 2 (°C)	17.75length (m)	temperature (°C)	Stokes	anti-Stokes-747.200	-101.562	0.169	-0.041
-746.185	-51.414	-0.471	0.220
-745.171	37.539	-0.323	-0.287
-744.156	-109.184	0.476	0.101
-743.142	-106.847	-0.116	0.026
-742.127	35.162	-0.151	-0.133
-741.112	54.066	-0.160	0.154
-740.098	-130.782	-0.183	0.025
-739.083	-200.000	0.052	-0.362
-738.069	-5.938	0.063	0.043
-737.054	800.000	0.133	0.460
-736.039	441.497	-0.125	-0.274
-735.025	-200.000	0.027	0.182
-734.010	-68.627	-0.497	-0.192
-732.996	-200.000	-0.044	-0.199
-731.981	800.000	-0.144	-0.409
-730.966	-21.731	-0.160	-0.097
-729.952	800.000	0.055	-0.153
-728.937	-200.000	0.003	0.087
-727.923	-55.634	-0.112	-0.050
-726.908	-45.364	-0.236	-0.117
-725.894	588.727	0.107	-0.262
-724.879	-53.834	-0.269	0.122
-723.864	387.153	-0.067	-0.138
-722.850	800.000	-0.038	-0.126
-721.835	671.328	0.122	-0.317
-720.821	-178.672	-0.176	-0.004
-719.806	83.159	0.301	-0.328
-718.791	212.668	-0.224	0.353
-717.777	222.545	-0.209	0.336
-716.762	-25.311	-0.162	0.095
-715.748	800.000	-0.114	-0.325
-714.733	-200.000	-0.014	-0.249
-713.718	21.573	-0.071	0.057
-712.704	800.000	0.059	0.224
-711.689	191.971	-0.121	0.183
-710.675	-200.000	0.008	-0.207
-709.660	119.634	0.224	-0.277
-708.645	28.469	-0.072	-0.061
-707.631	-86.008	-0.246	0.076
-706.616	175.233	0.028	-0.041
-705.602	-47.667	0.226	-0.110
-704.587	-1.775	0.125	-0.088
-703.572	-200.000	0.070	-0.412
-702.558	-130.103	0.080	-0.011
-701.543	-200.000	-0.003	-0.029
-700.529	-107.997	0.084	-0.018
-699.514	-70.422	0.340	-0.129
-698.499	531.201	-0.029	-0.069
-697.485	-91.713	0.362	0.103
-696.470	270.962	-0.228	-0.400
-695.456	-181.381	-0.099	0.002
-694.441	583.117	-0.045	-0.111
-693.426	10.747	0.045	-0.034
-692.412	169.693	0.177	0.253
-691.397	378.784	-0.109	-0.224
-690.383	18.837	-0.159	-0.127
-689.368	150.828	0.210	-0.285
-688.354	204.562	0.192	-0.296
-687.339	-42.890	-0.053	0.027
-686.324	-200.000	-0.004	0.126
-685.310	17.157	-0.256	-0.202
-684.295	30.034	0.039	0.033
-683.281	468.443	0.030	0.067
-682.266	-71.841	0.133	-0.050
-681.251	-189.068	0.398	0.005
-680.237	-41.312	-0.150	0.077
-679.222	-56.358	0.160	-0.071
-678.208	103.378	-0.154	0.180
-677.193	-29.386	-0.210	-0.120
-676.178	131.839	-0.230	0.295
-675.164	146.787	-0.080	-0.107
-674.149	-97.768	-0.212	0.055
-673.135	40.696	0.108	-0.097
-672.120	-200.000	-0.024	-0.211
-671.105	-65.456	-0.127	0.051
-670.091	-200.000	0.026	-0.120
-669.076	106.795	0.274	0.324
-668.062	625.630	-0.110	-0.277
-667.047	320.810	0.031	0.059
-666.032	159.381	0.174	0.242
-665.018	288.202	-0.048	0.086
-664.003	-133.544	0.126	0.016
-662.989	-52.394	-0.231	-0.106
-661.974	800.000	-0.065	-0.191
-660.959	-148.726	-0.235	0.019
-659.945	195.819	-0.102	-0.155
-658.930	-83.236	-0.211	0.067
-657.916	-36.622	0.091	-0.049
-656.901	-133.536	-0.134	0.017
-655.886	-200.000	0.022	-0.136
-654.872	-6.928	0.320	-0.217
-653.857	167.509	-0.017	-0.024
-652.843	-42.208	-0.314	0.160
-651.828	800.000	-0.099	0.397
-650.814	800.000	-0.069	-0.195
-649.799	800.000	0.076	-0.276
-648.784	-79.853	0.242	-0.081
-647.770	350.013	0.059	0.116
-646.755	-131.535	-0.252	0.033
-645.741	-179.278	0.250	-0.006
-644.726	-200.000	0.041	0.220
-643.711	-71.994	-0.235	0.087
-642.697	-81.511	-0.447	0.147
-641.682	-200.000	-0.004	-0.066
-640.668	8.586	0.074	0.055
-639.653	183.442	0.077	-0.114
-638.638	-200.000	-0.060	-0.334
-637.624	-2.320	0.270	0.189
-636.609	43.801	-0.118	0.108
-635.595	-138.825	-0.430	0.047
-634.580	-117.730	-0.229	0.041
-633.565	800.000	0.084	-0.313
-632.551	-200.000	0.013	-0.267
-631.536	-30.779	-0.136	0.076
-630.522	-16.358	-0.095	0.060
-629.507	-9.701	-0.096	-0.064
-628.492	-13.942	0.286	0.184
-627.478	13.903	-0.075	0.058
-626.463	174.307	-0.188	-0.270
-625.449	205.312	-0.137	0.212
-624.434	-87.428	-0.233	-0.070
-623.419	-22.966	-0.191	0.114
-622.405	142.003	-0.108	0.143
-621.390	226.320	-0.206	0.333
-620.376	18.136	-0.099	0.078
-619.361	800.000	-0.112	-0.378
-618.346	-200.000	-0.032	-0.160
-617.332	525.575	0.105	0.245
-616.317	317.285	0.071	0.134
-615.303	187.155	-0.143	-0.212
-614.288	-200.000	-0.023	-0.152
-613.273	-63.952	0.130	-0.053
-612.259	4.519	-0.213	0.155
-611.244	569.243	-0.101	-0.243
-610.230	279.823	-0.135	0.240
-609.215	800.000	0.120	0.363
-608.201	800.000	-0.035	-0.134
-607.186	-200.000	-0.004	0.081
-606.171	49.024	-0.046	0.043
-605.157	-82.775	0.044	0.014
-604.142	-200.000	-0.003	0.262
-603.128	800.000	0.035	0.110
-602.113	-124.427	0.105	-0.016
-601.098	-26.034	0.042	0.024
-600.084	-6.255	-0.138	0.093
-599.069	800.000	-0.060	0.191
-598.055	123.082	-0.084	-0.104
-597.040	-200.000	0.020	-0.228
-596.025	381.488	0.068	-0.138
-595.011	403.038	-0.101	-0.210
-593.996	18.395	0.189	0.150
-592.982	-184.045	0.199	-0.003
-591.967	185.922	0.059	-0.088
-590.952	92.575	-0.073	-0.082
-589.938	244.294	0.057	-0.094
-588.923	-200.000	-0.010	-0.403
-587.909	-121.913	0.092	0.015
-586.894	26.503	0.115	-0.095
-585.879	800.000	0.076	-0.281
-584.865	-122.732	-0.225	0.036
-583.850	-200.000	0.017	0.163
-582.836	36.255	-0.208	0.182
-581.821	-200.000	0.033	0.267
-580.806	-200.000	-0.011	0.081
-579.792	-16.578	-0.120	-0.076
-578.777	-119.531	0.112	0.019
-577.763	-82.877	0.160	-0.051
-576.748	-121.303	0.088	0.015
-575.733	-81.526	-0.349	0.114
-574.719	-200.000	0.021	0.321
-573.704	-200.000	-0.038	0.193
-572.690	338.629	-0.107	0.207
-571.675	132.842	0.114	0.147
-570.661	-38.855	0.047	0.025
-569.646	800.000	0.024	-0.079
-568.631	-200.000	0.046	0.231
-567.617	-134.485	-0.245	-0.030
-566.602	800.000	-0.134	0.476
-565.588	-40.342	-0.172	0.089
-564.573	-53.427	-0.263	0.120
-563.558	-124.019	-0.194	-0.030
-562.544	800.000	0.063	-0.238
-561.529	-123.267	0.348	-0.055
-560.515	-57.427	-0.147	0.064
-559.500	-200.000	0.043	0.345
-558.485	277.235	-0.167	0.296
-557.471	-131.303	-0.382	-0.050
-556.456	261.974	-0.215	-0.370
-555.442	-200.000	0.059	-0.314
-554.427	800.000	0.071	-0.265
-553.412	498.210	-0.028	0.065
-552.398	-65.919	-0.056	-0.022
-551.383	-200.000	-0.006	0.045
-550.369	59.106	-0.366	-0.357
-549.354	-40.387	-0.111	-0.057
-548.339	-19.007	0.331	0.204
-547.325	-200.000	0.005	-0.098
-546.310	-0.980	-0.157	0.110
-545.296	-133.415	-0.057	0.007
-544.281	-40.832	0.098	0.050
-543.266	-200.000	0.021	-0.143
-542.252	96.835	-0.193	-0.219
-541.237	-200.000	0.018	0.111
-540.223	-22.664	0.253	-0.152
-539.208	-156.215	-0.209	-0.013
-538.193	-200.000	0.022	0.110
-537.179	800.000	-0.071	-0.219
-536.164	181.923	-0.063	0.091
-535.150	-200.000	0.013	0.273
-534.135	60.184	0.179	-0.175
-533.121	-200.000	-0.012	-0.112
-532.106	-200.000	0.057	-0.306
-531.091	-197.889	-0.098	-0.001
-530.077	-93.078	-0.316	0.087
-529.062	317.535	0.078	0.145
-528.048	800.000	0.088	0.318
-527.033	368.984	0.070	-0.141
-526.018	225.547	0.102	0.164
-525.004	-200.000	0.016	-0.105
-523.989	-100.737	-0.197	0.048
-522.975	800.000	0.112	-0.382
-521.960	800.000	-0.041	0.163
-520.945	-112.728	-0.520	0.102
-519.931	-134.447	-0.169	-0.021
-518.916	-86.056	0.428	-0.131
-517.902	-200.000	0.011	0.360
-516.887	16.127	0.277	0.216
-515.872	-116.969	0.530	-0.096
-514.858	800.000	0.079	0.228
-513.843	-157.230	0.040	-0.002
-512.829	-24.242	0.315	-0.186
-511.814	800.000	-0.006	0.020
-510.799	130.399	0.138	0.176
-509.785	-45.355	0.211	-0.104
-508.770	-98.239	0.099	0.025
-507.756	-104.215	0.094	-0.022
-506.741	800.000	-0.066	0.271
-505.726	-200.000	0.047	-0.221
-504.712	-115.320	0.249	0.047
-503.697	-200.000	0.014	-0.166
-502.683	-142.456	0.218	-0.021
-501.668	282.453	-0.113	-0.201
-500.653	280.984	-0.124	-0.219
-499.639	33.424	-0.182	-0.157
-498.624	-94.212	0.428	-0.116
-497.610	-57.588	0.088	0.038
-496.595	71.706	0.211	-0.217
-495.581	122.206	-0.165	-0.205
-494.566	800.000	0.071	-0.294
-493.551	-23.383	0.257	-0.153
-492.537	-57.987	-0.445	-0.192
-491.522	127.749	-0.089	-0.112
-490.508	-124.098	-0.208	0.032
-489.493	-14.219	0.067	-0.043
-488.478	-127.631	0.417	-0.060
-487.464	716.589	-0.022	-0.058
-486.449	93.108	-0.076	-0.085
-485.435	-52.926	0.251	0.114
-484.420	-30.258	-0.044	0.025
-483.405	-93.665	-0.127	0.035
-482.391	-43.836	-0.325	0.162
-481.376	-139.363	0.252	-0.027
-480.362	-200.000	-0.008	-0.097
-479.347	256.022	-0.107	0.181
-478.332	286.468	-0.086	-0.153
-477.318	-118.990	0.168	-0.029
-476.303	-76.565	-0.331	0.115
-475.289	-107.464	0.046	0.010
-474.274	-78.560	-0.201	0.068
-473.259	-6.911	-0.165	0.111
-472.245	443.077	0.044	0.095
-471.230	-112.614	-0.389	-0.077
-470.216	800.000	-0.051	0.172
-469.201	69.808	0.184	-0.188
-468.186	-79.701	-0.480	0.160
-467.172	17.597	0.340	0.267
-466.157	-200.000	-0.018	0.222
-465.143	391.542	0.126	-0.259
-464.128	369.212	-0.148	0.297
-463.113	-147.091	-0.156	0.013
-462.099	691.061	-0.024	-0.062
-461.084	-39.347	-0.403	0.209
-460.070	-185.697	0.369	0.005
-459.055	33.258	0.086	-0.074
-458.040	-200.000	-0.002	-0.036
-457.026	203.951	0.166	0.254
-456.011	73.046	-0.169	0.174
-454.997	11.536	0.242	-0.183
-453.982	-147.008	0.161	-0.014
-452.968	227.341	0.094	0.151
-451.953	225.242	-0.285	-0.456
-450.938	800.000	-0.060	0.179
-449.924	157.138	0.121	-0.166
-448.909	649.970	0.152	0.384
-447.895	-51.917	-0.181	-0.083
-446.880	-84.214	-0.279	-0.088
-445.865	383.033	0.098	-0.200
-444.851	-200.000	0.001	0.114
-443.836	130.862	-0.007	0.009
-442.822	18.440	-0.269	-0.213
-441.807	62.108	0.210	-0.207
-440.792	-119.870	0.036	-0.006
-439.778	-200.000	0.009	0.358
-438.763	-104.930	0.120	-0.027
-437.749	-77.317	-0.243	0.083
-436.734	98.402	0.018	-0.020
-435.719	-132.408	-0.312	0.040
-434.705	-200.000	0.017	-0.253
-433.690	-33.492	-0.070	-0.038
-432.676	-55.196	0.227	-0.101
-431.661	32.744	0.265	0.226
-430.646	-63.910	-0.323	-0.131
-429.632	118.200	0.042	-0.051
-428.617	80.154	-0.056	0.059
-427.603	261.713	0.256	0.438
-426.588	-182.680	-0.308	-0.006
-425.573	689.697	-0.029	0.076
-424.559	110.185	-0.163	0.194
-423.544	800.000	0.081	-0.285
-422.530	-132.752	-0.224	-0.028
-421.515	103.048	-0.060	0.070
-420.500	31.189	0.095	0.080
-419.486	-2.026	-0.205	0.143
-418.471	800.000	0.100	-0.336
-417.457	-200.000	-0.003	-0.019
-416.442	-38.698	0.325	-0.169
-415.428	-31.067	0.153	-0.085
-414.413	-63.377	0.204	-0.083
-413.398	722.986	0.166	-0.436
-412.384	107.685	-0.181	-0.213
-411.369	-48.141	0.233	0.111
-410.355	-56.191	-0.239	-0.105
-409.340	401.276	0.250	-0.517
-408.325	367.795	0.025	-0.051
-407.311	66.773	0.119	0.120
-406.296	-200.000	-0.068	0.305
-405.282	800.000	0.071	0.284
-404.267	800.000	-0.075	-0.298
-403.252	-125.785	-0.130	-0.019
-402.238	96.629	0.368	-0.415
-401.223	204.954	0.134	0.206
-400.209	12.235	0.066	-0.050
-399.194	171.623	0.031	0.044
-398.179	7.146	-0.268	-0.198
-397.165	227.166	0.117	-0.187
-396.150	79.777	0.179	-0.190
-395.136	-57.505	0.219	-0.095
-394.121	610.721	0.129	-0.317
-393.106	44.255	0.152	0.138
-392.092	-140.096	-0.248	-0.026
-391.077	602.883	-0.104	-0.255
-390.063	86.819	-0.181	-0.197
-389.048	372.014	-0.082	-0.163
-388.033	-98.294	-0.386	-0.098
-387.019	293.700	-0.169	0.304
-386.004	-73.933	-0.101	0.036
-384.990	112.112	-0.233	0.277
-383.975	-200.000	-0.042	0.298
-382.960	-200.000	-0.049	0.283
-381.946	-102.050	0.164	-0.039
-380.931	-200.000	0.002	0.133
-379.917	141.369	0.060	-0.078
-378.902	192.645	0.113	0.167
-377.888	-28.912	-0.110	0.062
-376.873	76.170	0.101	0.105
-375.858	-200.000	0.014	0.222
-374.844	65.899	0.108	0.108
-373.829	-200.000	-0.058	0.360
-372.815	-200.000	-0.023	-0.184
-371.800	3.631	0.352	-0.253
-370.785	-200.000	-0.040	-0.197
-369.771	-27.209	-0.117	-0.067
-368.756	-56.474	0.126	-0.055
-367.742	-200.000	0.007	0.191
-366.727	-29.491	-0.158	0.089
-365.712	800.000	0.078	-0.233
-364.698	158.853	0.122	0.167
-363.683	196.282	0.160	-0.240
-362.669	452.228	0.023	0.051
-361.654	-49.875	0.044	-0.021
-360.639	-118.511	-0.174	-0.030
-359.625	132.781	0.082	-0.105
-358.610	-200.000	-0.002	-0.206
-357.596	282.168	0.069	-0.122
-356.581	616.322	-0.111	-0.274
-355.566	219.944	-0.209	0.329
-354.552	460.666	0.063	0.139
-353.537	-200.000	0.001	-0.096
-352.523	44.767	0.140	-0.126
-351.508	550.392	-0.173	0.409
-350.493	-85.119	-0.185	0.057
-349.479	85.026	0.216	-0.233
-348.464	-28.137	0.172	0.098
-347.450	81.192	0.028	0.030
-346.435	-62.927	-0.394	-0.160
-345.420	-200.000	-0.008	-0.038
-344.406	200.644	-0.246	0.372
-343.391	-96.718	-0.250	0.065
-342.377	-17.195	-0.234	0.145
-341.362	83.920	-0.122	0.132
-340.348	113.274	-0.104	0.124
-339.333	-89.580	0.113	0.033
-338.318	-0.508	0.266	-0.186
-337.304	237.194	0.267	-0.436
-336.289	24.940	0.069	-0.056
-335.275	-85.988	-0.146	0.044
-334.260	-46.698	0.044	-0.021
-333.245	-104.689	-0.139	0.031
-332.231	72.497	-0.067	0.069
-331.216	-162.388	-0.395	-0.019
-330.202	-118.352	0.159	0.028
-329.187	800.000	0.055	0.170
-328.172	-200.000	0.050	0.328
-327.158	-193.370	0.419	-0.004
-326.143	-187.048	0.099	0.001
-325.129	-154.554	0.224	-0.015
-324.114	-145.710	-0.233	-0.020
-323.099	-127.314	-0.125	-0.018
-322.085	-119.326	0.440	-0.075
-321.070	215.765	-0.143	-0.223
-320.056	-35.842	-0.063	-0.034
-319.041	-54.380	-0.216	0.097
-318.026	25.864	-0.060	0.049
-317.012	-138.656	-0.363	0.039
-315.997	-39.348	0.337	-0.174
-314.983	334.753	0.264	-0.503
-313.968	106.333	-0.110	-0.128
-312.953	755.695	0.102	0.272
-311.939	620.163	0.087	-0.214
-310.924	261.610	-0.055	0.094
-309.910	-52.501	-0.328	0.149
-308.895	179.598	-0.147	0.212
-307.880	106.924	0.252	-0.294
-306.866	464.481	-0.093	-0.205
-305.851	449.279	0.190	-0.412
-304.837	-52.734	0.092	-0.042
-303.822	800.000	-0.107	0.334
-302.807	-76.147	0.070	-0.024
-301.793	800.000	-0.021	-0.079
-300.778	-170.491	-0.293	0.010
-299.764	800.000	-0.099	0.277
-298.749	-77.477	0.177	-0.060
-297.735	82.523	0.221	-0.235
-296.720	40.985	0.068	0.060
-295.705	-200.000	0.001	0.053
-294.691	156.608	0.139	0.188
-293.676	800.000	-0.009	-0.032
-292.662	-200.000	0.028	0.288
-291.647	87.419	-0.228	0.248
-290.632	56.019	-0.160	0.153
-289.618	444.639	0.105	-0.227
-288.603	-200.000	0.026	0.148
-287.589	-143.852	-0.067	-0.006
-286.574	-190.681	0.194	0.002
-285.559	-161.153	0.382	0.020
-284.545	196.691	0.117	0.176
-283.530	68.064	0.338	-0.340
-282.516	231.469	-0.093	0.149
-281.501	284.599	0.152	0.268
-280.486	-108.801	-0.075	0.016
-279.472	-200.000	0.032	0.150
-278.457	-124.595	-0.081	-0.012
-277.443	584.306	-0.026	-0.063
-276.428	9.439	0.234	-0.174
-275.413	479.628	-0.098	0.218
-274.399	212.785	0.096	-0.148
-273.384	-100.400	0.288	0.070
-272.370	-37.650	-0.385	0.201
-271.355	-55.073	-0.110	-0.049
-270.340	136.559	0.171	0.219
-269.326	286.222	0.123	0.218
-268.311	256.555	0.104	0.175
-267.297	629.315	0.103	-0.257
-266.282	270.624	0.127	0.219
-265.267	-55.347	-0.017	0.007
-264.253	43.512	0.230	-0.206
-263.238	-34.395	0.060	0.032
-262.224	800.000	-0.053	0.160
-261.209	-43.496	-0.343	0.170
-260.195	-200.000	-0.017	-0.103
-259.180	-102.932	0.158	-0.037
-258.165	70.450	-0.167	-0.169
-257.151	-115.413	0.243	0.045
-256.136	-123.711	0.081	0.013
-255.122	-200.000	-0.009	-0.223
-254.107	-127.481	-0.269	-0.038
-253.092	-75.117	-0.187	0.066
-252.078	3.162	-0.093	0.066
-251.063	-95.142	0.087	-0.023
-250.049	470.457	-0.049	-0.108
-249.034	-200.000	-0.033	0.149
-248.019	776.524	-0.042	0.113
-247.005	-48.092	-0.038	-0.018
-245.990	-51.478	0.211	0.097
-244.976	796.047	-0.033	-0.089
-243.961	-200.000	0.002	-0.025
-242.946	-200.000	0.037	0.378
-241.932	-100.765	-0.115	0.028
-240.917	9.771	-0.294	-0.219
-239.903	800.000	0.059	0.209
-238.888	-200.000	0.009	-0.229
-237.873	155.132	0.162	-0.219
-236.859	-200.000	0.009	-0.174
-235.844	22.557	0.314	-0.252
-234.830	-200.000	0.011	-0.133
-233.815	523.361	-0.043	-0.100
-232.800	109.407	0.160	-0.188
-231.786	37.241	0.106	-0.092
-230.771	800.000	0.069	0.284
-229.757	-37.704	0.081	0.042
-228.742	422.114	-0.048	0.101
-227.727	800.000	-0.014	-0.046
-226.713	145.103	0.032	-0.042
-225.698	-195.263	0.055	0.000
-224.684	800.000	-0.119	0.454
-223.669	-200.000	0.001	0.060
-222.655	800.000	-0.038	-0.122
-221.640	170.838	-0.142	-0.199
-220.625	177.375	-0.136	-0.194
-219.611	-58.914	0.362	0.153
-218.596	-200.000	-0.016	-0.075
-217.582	800.000	0.102	0.279
-216.567	45.099	-0.036	-0.032
-215.552	244.117	-0.214	0.352
-214.538	-4.564	-0.138	-0.093
-213.523	-193.162	-0.184	0.002
-212.509	210.512	-0.035	-0.053
-211.494	178.117	-0.133	0.189
-210.479	-8.583	-0.057	0.038
-209.465	-19.019	0.163	-0.099
-208.450	324.950	-0.166	-0.310
-207.436	-22.156	-0.041	0.024
-206.421	-4.068	-0.232	0.157
-205.406	131.008	0.161	0.203
-204.392	-200.000	0.007	0.439
-203.377	-173.015	-0.141	0.004
-202.363	-117.000	0.460	-0.082
-201.348	-200.000	0.029	0.240
-200.333	-70.412	0.485	0.180
-199.319	-170.022	0.484	0.017
-198.304	800.000	0.086	-0.364
-197.290	-200.000	-0.017	-0.076
-196.275	755.029	-0.103	-0.272
-195.260	-39.209	-0.143	-0.074
-194.246	138.497	-0.063	0.081
-193.231	-200.000	0.005	-0.423
-192.217	-41.861	-0.155	-0.078
-191.202	555.938	0.053	0.124
-190.187	-56.658	-0.125	0.054
-189.173	632.253	0.081	0.200
-188.158	800.000	0.096	0.300
-187.144	-42.607	-0.463	0.231
-186.129	-200.000	-0.014	-0.174
-185.114	800.000	-0.078	-0.218
-184.100	-200.000	0.032	0.196
-183.085	237.835	0.138	0.224
-182.071	393.701	-0.070	-0.143
-181.056	165.340	-0.086	-0.119
-180.042	800.000	-0.083	-0.323
-179.027	362.525	-0.060	0.117
-178.012	-182.129	0.178	0.003
-176.998	-21.368	0.288	-0.172
-175.983	23.408	-0.198	-0.159
-174.969	-87.473	0.075	-0.022
-173.954	-6.058	-0.031	-0.020
-172.939	167.149	-0.063	0.088
-171.925	-62.712	0.124	0.050
-170.910	262.792	0.099	0.168
-169.896	-200.000	0.007	-0.232
-168.881	462.969	0.032	-0.069
-167.866	-17.261	0.483	-0.298
-166.852	143.028	0.164	0.213
-165.837	46.672	-0.206	-0.187
-164.823	-148.986	0.165	0.013
-163.808	452.184	-0.146	0.316
-162.793	64.416	-0.087	-0.086
-161.779	-200.000	0.006	0.506
-160.764	-59.346	0.282	-0.118
-159.750	-136.727	0.235	-0.027
-158.735	-136.890	0.429	-0.048
-157.720	212.779	-0.086	0.133
-156.706	210.677	-0.222	-0.342
-155.691	-200.000	-0.004	-0.260
-154.677	800.000	0.071	0.254
-153.662	-176.522	0.077	0.002
-152.647	-200.000	0.015	-0.081
-151.633	-200.000	0.073	-0.000
-150.618	214.586	-0.112	0.173
-149.604	-200.000	-0.026	-0.272
-148.589	671.716	0.097	-0.246
-147.574	78.615	0.176	0.184
-146.560	-1.090	-0.205	0.142
-145.545	-47.432	0.251	-0.119
-144.531	60.522	0.090	0.087
-143.516	542.905	0.177	-0.412
-142.502	-60.658	-0.155	0.064
-141.487	-200.000	-0.005	-0.123
-140.472	209.533	0.038	-0.058
-139.458	-200.000	-0.039	0.210
-138.443	531.603	0.092	-0.214
-137.429	211.681	0.167	-0.257
-136.414	-36.224	0.395	0.208
-135.399	-72.160	-0.138	-0.050
-134.385	-175.542	0.186	-0.005
-133.370	-6.048	-0.076	-0.051
-132.356	-140.032	0.093	-0.010
-131.341	92.039	-0.204	-0.225
-130.326	800.000	0.029	-0.087
-129.312	-121.967	0.146	-0.023
-128.297	40.319	0.099	0.087
-127.283	183.891	0.157	-0.227
-126.268	2.309	0.139	0.098
-125.253	195.755	0.088	-0.131
-124.239	86.380	0.172	-0.185
-123.224	800.000	0.030	0.111
-122.210	261.536	0.102	-0.172
