DTS Sentinel unit serial number:	SN413079Multiplexer serial number:	ORYXHardware model number:	OX4-SRSoftware version number:	ORYX F/W v4.00 Oryx Data Collector v3.7.2.0data status	okinstallation	princeton_trtdifferential loss correction	single-endedforward channel	channel 2reverse channel	N/Adate	2019/09/10time	18:25:11forward acquisition time	60.00reverse acquisition time	0.00gamma	496.2192k internal	0.2319k external	0.2319temperature offset calibration	0.9936default loss term (dB/km)	0.3790temperature slope calibration	1.0000multiplexer offset coefficient	1.0000multiplexer slope coefficient	1.0000fibre end	0.00T internal ref (°C)	36.09T ext. ref 1 (°C)	-0.39T ext. ref 2 (°C)	28.12length (m)	temperature (°C)	Stokes	anti-Stokes-747.200	-200.000	-0.038	0.176
-746.185	-183.084	0.186	0.003
-745.171	-77.773	-0.297	0.104
-744.156	-151.291	0.237	0.018
-743.142	472.444	0.143	0.325
-742.127	331.979	0.113	0.220
-741.112	-116.174	-0.108	0.020
-740.098	281.714	-0.057	0.103
-739.083	800.000	-0.059	-0.211
-738.069	-82.731	-0.450	0.147
-737.054	-200.000	0.023	-0.208
-736.039	216.203	-0.201	-0.323
-735.025	-109.272	0.235	0.050
-734.010	-96.571	0.229	-0.061
-732.996	168.504	-0.166	-0.239
-731.981	226.849	0.176	-0.290
-730.966	-200.000	-0.026	-0.303
-729.952	35.073	-0.294	-0.260
-728.937	-200.000	0.036	-0.346
-727.923	-21.092	-0.150	0.093
-726.908	-200.000	-0.003	0.050
-725.894	39.635	-0.123	-0.112
-724.879	451.223	-0.060	0.134
-723.864	-13.708	-0.137	-0.090
-722.850	-83.150	-0.116	-0.038
-721.835	28.249	0.012	0.010
-720.821	30.551	0.085	-0.073
-719.806	800.000	0.126	-0.400
-718.791	20.171	-0.128	-0.105
-717.777	75.357	-0.227	0.242
-716.762	61.950	-0.115	-0.116
-715.748	-1.199	0.109	0.078
-714.733	-200.000	-0.032	-0.393
-713.718	10.147	-0.218	-0.168
-712.704	-200.000	0.025	0.167
-711.689	800.000	-0.049	0.181
-710.675	800.000	-0.053	-0.165
-709.660	-200.000	0.024	-0.175
-708.645	-94.459	0.243	-0.067
-707.631	88.841	-0.165	-0.185
-706.616	153.921	0.104	0.144
-705.602	-200.000	0.036	0.309
-704.587	2.017	0.074	-0.054
-703.572	-64.334	-0.180	0.074
-702.558	800.000	-0.047	-0.147
-701.543	-200.000	0.033	-0.187
-700.529	-200.000	-0.037	-0.241
-699.514	44.731	0.199	0.185
-698.499	506.780	0.127	-0.298
-697.485	-200.000	-0.035	0.258
-696.470	-200.000	0.007	-0.300
-695.456	108.863	-0.076	-0.091
-694.441	-200.000	-0.023	-0.212
-693.426	-200.000	0.005	0.179
-692.412	709.716	0.050	0.134
-691.397	74.291	-0.141	0.149
-690.383	97.138	0.126	0.146
-689.368	61.900	0.269	-0.271
-688.354	-71.881	-0.176	-0.066
-687.339	-150.721	-0.264	-0.020
-686.324	329.201	0.023	-0.045
-685.310	-78.286	-0.125	-0.043
-684.295	-50.673	-0.159	-0.076
-683.281	49.950	-0.141	0.134
-682.266	-23.570	-0.234	0.142
-681.251	-200.000	-0.002	-0.110
-680.237	150.940	0.245	0.336
-679.222	-84.228	-0.189	0.060
-678.208	232.156	0.051	-0.084
-677.193	36.214	0.260	-0.231
-676.178	800.000	-0.093	-0.388
-675.164	-200.000	-0.033	-0.337
-674.149	-196.074	0.328	-0.002
-673.135	-12.937	-0.131	0.086
-672.120	800.000	-0.067	-0.226
-671.105	-200.000	-0.006	-0.235
-670.091	-200.000	-0.013	-0.219
-669.076	-89.750	0.059	-0.017
-668.062	-164.980	-0.229	0.010
-667.047	-153.375	0.232	-0.016
-666.032	376.823	0.258	-0.532
-665.018	55.091	-0.097	-0.094
-664.003	104.134	0.221	-0.262
-662.989	-146.960	0.376	-0.033
-661.974	-200.000	0.019	-0.173
-660.959	-200.000	0.019	0.150
-659.945	380.747	0.025	-0.052
-658.930	49.233	0.161	0.152
-657.916	8.064	0.234	0.177
-656.901	152.164	0.136	-0.187
-655.886	-200.000	0.009	-0.060
-654.872	-76.961	0.344	0.121
-653.857	800.000	-0.045	0.185
-652.843	-52.189	0.098	-0.046
-651.828	-114.338	0.112	0.022
-650.814	81.366	0.323	0.352
-649.799	-200.000	-0.016	0.119
-648.784	8.642	0.096	-0.073
-647.770	-12.779	0.273	-0.179
-646.755	-84.809	-0.325	-0.103
-645.741	-66.095	-0.042	0.017
-644.726	800.000	-0.093	-0.273
-643.711	621.275	0.155	-0.392
-642.697	-104.919	0.339	-0.078
-641.682	-81.092	0.150	-0.050
-640.668	100.031	0.241	0.281
-639.653	-159.901	-0.112	-0.006
-638.638	209.849	-0.017	0.027
-637.624	-13.355	0.212	0.139
-636.609	-51.996	0.317	-0.148
-635.595	43.080	-0.124	-0.114
-634.580	168.561	0.142	0.203
-633.565	348.971	-0.128	-0.255
-632.551	-102.477	-0.104	0.025
-631.536	-91.271	-0.352	-0.101
-630.522	800.000	-0.129	0.396
-629.507	-119.680	0.258	0.045
-628.492	800.000	0.028	-0.090
-627.478	-88.015	-0.329	-0.099
-626.463	403.536	-0.092	0.196
-625.449	33.539	0.178	0.155
-624.434	800.000	-0.034	-0.117
-623.419	800.000	-0.069	0.196
-622.405	39.793	-0.120	0.108
-621.390	-200.000	0.015	0.089
-620.376	130.301	0.076	0.098
-619.361	122.224	0.133	0.168
-618.346	-14.505	0.100	0.064
-617.332	-200.000	-0.009	-0.127
-616.317	294.564	0.040	-0.074
-615.303	34.137	0.193	0.169
-614.288	-141.016	-0.323	0.033
-613.273	359.987	0.050	-0.100
-612.259	-109.025	-0.136	0.029
-611.244	-63.867	0.189	0.078
-610.230	800.000	-0.032	-0.106
-609.215	-83.284	-0.156	-0.050
-608.201	-47.481	-0.049	0.024
-607.186	800.000	-0.032	-0.130
-606.171	389.580	0.156	0.326
-605.157	-140.391	-0.395	-0.042
-604.142	178.103	-0.080	0.117
-603.128	-90.520	-0.376	-0.110
-602.113	-19.964	-0.183	-0.113
-601.098	800.000	0.088	-0.323
-600.084	-200.000	0.027	-0.175
-599.069	169.524	0.135	0.194
-598.055	-132.810	0.088	-0.011
-597.040	397.895	0.092	-0.195
-596.025	-81.617	-0.060	-0.020
-595.011	16.993	-0.249	0.198
-593.996	55.178	0.157	-0.152
-592.982	-85.116	0.176	-0.055
-591.967	61.192	0.319	-0.319
-590.952	-94.951	-0.133	-0.036
-589.938	-33.694	-0.241	0.134
-588.923	-200.000	-0.003	0.018
-587.909	-64.236	-0.117	0.048
-586.894	-200.000	-0.020	0.162
-585.879	-52.110	0.051	0.024
-584.865	730.465	0.107	0.287
-583.850	-4.995	0.150	-0.104
-582.836	631.423	0.118	-0.300
-581.821	-166.100	-0.269	0.012
-580.806	-86.099	-0.165	0.051
-579.792	578.381	0.057	-0.141
-578.777	-7.034	-0.233	0.159
-577.763	77.780	0.100	-0.107
-576.748	-3.524	0.125	-0.087
-575.733	1.391	-0.061	0.044
-574.719	-163.652	-0.641	-0.030
-573.704	507.620	0.069	-0.161
-572.690	-200.000	0.001	0.104
-571.675	800.000	0.041	0.135
-570.661	24.581	0.134	0.111
-569.646	-70.749	-0.259	-0.098
-568.631	752.556	0.131	-0.356
-567.617	-200.000	0.005	-0.110
-566.602	443.666	0.036	-0.080
-565.588	-196.415	0.184	0.001
-564.573	-186.141	-0.229	-0.003
-563.558	-112.117	0.515	0.104
-562.544	8.166	0.049	-0.037
-561.529	-137.022	-0.076	-0.009
-560.515	-200.000	-0.033	0.276
-559.500	-117.396	0.306	0.056
-558.485	48.879	0.091	-0.086
-557.471	-200.000	-0.012	-0.115
-556.456	-81.409	0.331	-0.110
-555.442	361.765	0.125	0.252
-554.427	-200.000	0.256	-0.000
-553.412	186.523	-0.136	0.204
-552.398	-9.602	0.071	-0.048
-551.383	22.587	0.258	0.212
-550.369	535.057	-0.045	0.106
-549.354	-36.249	-0.105	-0.057
-548.339	-112.576	0.270	0.054
-547.325	3.089	0.277	0.202
-546.310	-144.344	0.330	0.031
-545.296	800.000	0.141	0.399
-544.281	-0.004	-0.184	-0.132
-543.266	-200.000	-0.036	-0.271
-542.252	80.188	0.128	-0.138
-541.237	-200.000	0.009	-0.116
-540.223	-200.000	0.027	0.235
-539.208	799.079	0.131	0.362
-538.193	317.441	-0.072	0.137
-537.179	-106.740	0.093	-0.021
-536.164	-140.017	0.165	-0.017
-535.150	205.786	0.193	-0.301
-534.135	-200.000	-0.012	-0.057
-533.121	800.000	0.085	-0.322
-532.106	-191.065	0.062	0.001
-531.091	1.948	-0.242	0.175
-530.077	-103.569	-0.353	-0.083
-529.062	569.308	-0.161	0.394
-528.048	102.516	-0.311	0.364
-527.033	-200.000	-0.034	0.227
-526.018	544.988	-0.053	-0.127
-525.004	23.046	0.137	0.113
-523.989	-200.000	0.005	0.095
-522.975	-149.744	-0.381	0.030
-521.960	-169.514	0.213	-0.008
-520.945	800.000	0.046	-0.150
-519.931	-72.104	-0.197	0.073
-518.916	-109.139	0.396	0.084
-517.902	-171.979	-0.336	-0.011
-516.887	-32.819	-0.485	-0.271
-515.872	-118.989	0.253	-0.044
-514.858	800.000	-0.049	0.136
-513.843	659.890	0.074	0.192
-512.829	119.663	0.076	0.095
-511.814	800.000	-0.049	-0.166
-510.799	31.458	-0.048	0.041
-509.785	-200.000	-0.020	0.288
-508.770	-200.000	-0.001	0.265
-507.756	-120.354	0.391	-0.067
-506.741	476.131	-0.121	-0.273
-505.726	276.177	0.050	-0.089
-504.712	-22.331	0.053	-0.032
-503.697	-200.000	0.026	0.146
-502.683	7.944	-0.299	-0.225
-501.668	-200.000	0.006	-0.233
-500.653	292.826	0.130	-0.237
-499.639	-163.972	-0.364	0.017
-498.624	-92.694	-0.101	0.028
-497.610	-200.000	-0.050	0.466
-496.595	389.253	-0.097	0.201
-495.581	-39.982	-0.245	0.128
-494.566	800.000	-0.087	0.305
-493.551	-27.009	0.228	0.133
-492.537	800.000	-0.022	-0.083
-491.522	-200.000	-0.031	-0.135
-490.508	269.945	-0.143	0.251
-489.493	-56.835	-0.266	-0.118
-488.478	48.599	-0.057	-0.054
-487.464	-200.000	0.013	-0.110
-486.449	-200.000	-0.003	-0.168
-485.435	-200.000	-0.012	0.099
-484.420	-200.000	0.039	-0.229
-483.405	-200.000	0.002	0.096
-482.391	104.553	0.132	-0.156
-481.376	-27.123	-0.110	-0.064
-480.362	800.000	-0.072	0.287
-479.347	-22.283	0.275	0.167
-478.332	800.000	0.064	0.191
-477.318	-200.000	0.024	0.154
-476.303	-126.094	0.178	-0.027
-475.289	800.000	-0.043	0.174
-474.274	-36.808	-0.097	0.052
-473.259	-55.275	0.109	-0.049
-472.245	-135.557	-0.423	0.050
-471.230	24.429	-0.198	-0.164
-470.216	133.681	0.250	0.324
-469.201	-29.695	-0.390	-0.223
-468.186	153.006	0.069	-0.094
-467.172	253.821	0.195	0.334
-466.157	125.381	-0.163	0.205
-465.143	772.641	-0.039	-0.107
-464.128	-200.000	-0.024	-0.162
-463.113	-74.540	0.438	-0.158
-462.099	-103.018	-0.318	0.075
-461.084	199.022	0.112	-0.172
-460.070	21.973	0.191	0.155
-459.055	-200.000	0.030	0.240
-458.040	183.482	-0.168	0.249
-457.026	-169.403	0.160	-0.006
-456.011	-72.610	-0.240	-0.089
-454.997	172.839	-0.053	0.076
-453.982	800.000	0.054	-0.209
-452.968	142.876	0.131	-0.174
-451.953	245.625	-0.031	0.053
-450.938	-1.021	0.098	0.070
-449.924	-65.227	0.202	-0.082
-448.909	-95.001	-0.092	0.025
-447.895	-61.934	-0.339	-0.142
-446.880	62.443	-0.318	0.318
-445.865	800.000	-0.077	0.295
-444.851	10.212	0.088	0.067
-443.836	-200.000	0.034	-0.228
-442.822	287.279	0.063	0.113
-441.807	-200.000	-0.063	0.309
-440.792	40.250	0.185	-0.166
-439.778	-200.000	0.007	0.271
-438.763	121.506	0.159	-0.198
-437.749	205.642	-0.205	0.319
-436.734	26.277	-0.029	0.024
-435.719	-111.267	0.374	-0.076
-434.705	1.212	-0.132	-0.095
-433.690	116.876	-0.127	0.156
-432.676	-25.178	-0.205	0.121
-431.661	-200.000	-0.059	-0.396
-430.646	-74.725	0.209	0.075
-429.632	-30.919	-0.229	-0.129
-428.617	512.142	-0.103	0.240
-427.603	71.666	0.068	-0.071
-426.588	390.360	-0.110	-0.227
-425.573	-61.095	-0.319	-0.135
-424.559	-188.524	-0.207	0.003
-423.544	800.000	0.074	-0.215
-422.530	204.483	0.078	-0.121
-421.515	-160.793	0.282	0.015
-420.500	226.683	-0.004	-0.006
-419.486	-130.744	-0.161	-0.022
-418.471	-58.117	-0.364	-0.159
-417.457	-60.475	0.247	0.105
-416.442	577.086	0.207	-0.506
-415.428	-91.437	0.055	0.016
-414.413	311.607	-0.016	-0.029
-413.398	44.086	0.316	0.289
-412.384	-200.000	-0.023	0.269
-411.369	205.881	0.146	-0.227
-410.355	100.639	-0.149	0.173
-409.340	342.845	-0.022	-0.043
-408.325	423.173	-0.077	-0.166
-407.311	177.471	-0.237	-0.345
-406.296	110.503	-0.204	0.245
-405.282	-200.000	-0.019	0.146
-404.267	-200.000	0.006	0.095
-403.252	594.602	0.013	-0.032
-402.238	231.509	0.089	-0.146
-401.223	74.018	-0.312	-0.326
-400.209	-99.367	-0.010	0.003
-399.194	58.582	0.173	0.169
-398.179	800.000	0.075	0.317
-397.165	-200.000	-0.014	0.397
-396.150	-99.808	0.224	-0.056
-395.136	-200.000	-0.035	-0.300
-394.121	-99.358	-0.103	0.026
-393.106	-49.627	0.316	-0.150
-392.092	130.131	0.195	0.249
-391.077	800.000	0.051	0.164
-390.063	-200.000	0.026	-0.246
-389.048	264.778	-0.045	-0.078
-388.033	-34.370	-0.093	-0.051
-387.019	-102.590	0.288	-0.069
-386.004	244.929	-0.054	-0.091
-384.990	280.024	-0.063	0.113
-383.975	51.267	-0.085	-0.080
-382.960	69.860	-0.209	0.215
-381.946	-45.535	0.138	0.068
-380.931	800.000	-0.030	-0.129
-379.917	142.897	-0.075	-0.099
-378.902	-170.613	0.234	0.008
-377.888	800.000	0.050	-0.160
-376.873	99.088	-0.114	0.131
-375.858	533.787	0.123	0.292
-374.844	3.141	0.129	0.094
-373.829	800.000	-0.038	-0.146
-372.815	84.156	-0.311	-0.339
-371.800	71.790	-0.189	-0.196
-370.785	202.513	0.092	-0.141
-369.771	338.120	-0.050	-0.098
-368.756	143.769	-0.167	0.222
-367.742	688.295	-0.074	0.193
-366.727	800.000	-0.135	0.434
-365.712	-200.000	-0.007	-0.107
-364.698	-2.687	0.319	-0.223
-363.683	505.337	0.070	-0.162
-362.669	-200.000	0.013	0.231
-361.654	-113.144	0.192	-0.038
-360.639	8.169	0.218	0.163
-359.625	-19.095	0.125	-0.078
-358.610	-200.000	0.030	0.228
-357.596	-91.118	-0.404	0.115
-356.581	252.411	0.183	-0.310
-355.566	-80.959	-0.030	0.010
-354.552	89.634	-0.201	0.223
-353.537	-20.424	0.398	-0.244
-352.523	789.639	-0.060	-0.163
-351.508	-116.768	-0.112	0.021
-350.493	-84.461	0.375	-0.118
-349.479	-42.589	0.196	-0.100
-348.464	-112.451	0.191	-0.038
-347.450	227.744	-0.186	0.302
-346.435	-200.000	0.007	0.312
-345.420	800.000	-0.093	0.378
-344.406	-41.950	0.240	0.123
-343.391	16.119	-0.186	-0.146
-342.377	-3.563	-0.310	-0.215
-341.362	-200.000	-0.022	-0.207
-340.348	722.753	-0.128	-0.339
-339.333	800.000	0.045	0.132
-338.318	-152.700	-0.145	0.010
-337.304	129.330	-0.126	0.161
-336.289	-127.158	-0.180	-0.026
-335.275	286.500	-0.018	0.033
-334.260	491.553	-0.097	-0.222
-333.245	206.663	-0.117	-0.182
-332.231	-135.449	0.122	0.014
-331.216	425.582	-0.084	-0.180
-330.202	174.819	0.171	0.246
-329.187	148.126	0.083	-0.111
-328.172	-60.215	-0.316	-0.134
-327.158	-120.112	0.172	-0.029
-326.143	-200.000	0.022	0.245
-325.129	-133.998	-0.215	0.026
-324.114	81.317	-0.304	-0.327
-323.099	-200.000	-0.060	0.318
-322.085	800.000	0.064	0.231
-321.070	-109.989	0.377	-0.078
-320.056	-30.324	-0.097	-0.055
-319.041	-200.000	0.010	0.114
-318.026	-200.000	-0.045	0.305
-317.012	-200.000	-0.023	0.167
-315.997	289.303	0.070	0.126
-314.983	164.700	-0.230	0.323
-313.968	-83.888	0.210	-0.066
-312.953	-98.445	0.118	-0.030
-311.939	-200.000	-0.003	0.244
-310.924	-200.000	0.043	0.190
-309.910	381.370	0.265	-0.541
-308.895	325.280	-0.146	-0.277
-307.880	23.072	0.216	-0.176
-306.866	-200.000	0.007	-0.243
-305.851	51.341	-0.031	-0.029
-304.837	-143.903	0.121	0.011
-303.822	153.175	0.222	0.302
-302.807	86.841	-0.142	0.155
-301.793	28.303	0.091	0.077
-300.778	220.963	0.096	-0.154
-299.764	-50.906	-0.190	-0.089
-298.749	800.000	0.095	0.264
-297.735	800.000	-0.092	0.380
-296.720	-66.566	-0.373	-0.147
-295.705	-94.350	0.296	-0.080
-294.691	317.485	-0.016	0.030
-293.676	-200.000	-0.016	0.116
-292.662	307.031	-0.113	-0.208
-291.647	58.324	-0.162	0.158
-290.632	-89.688	-0.242	0.071
-289.618	-87.074	-0.160	0.048
-288.603	-129.631	-0.224	-0.031
-287.589	-91.524	-0.572	0.162
-286.574	680.739	-0.071	-0.183
-285.559	230.226	-0.178	-0.289
-284.545	418.319	-0.066	-0.141
-283.530	702.202	0.118	0.310
-282.516	-137.684	-0.132	-0.015
-281.501	-95.301	0.163	-0.044
-280.486	-73.026	0.268	-0.098
-279.472	-105.625	-0.127	0.029
-278.457	-70.658	-0.227	0.085
-277.443	176.069	0.101	0.146
-276.428	-37.164	-0.022	-0.012
-275.413	227.355	-0.109	0.176
-274.399	-76.539	-0.236	-0.082
-273.384	-123.046	0.314	0.050
-272.370	-200.000	0.046	-0.269
-271.355	-47.476	-0.224	-0.108
-270.340	-25.504	0.450	-0.264
-269.326	581.133	0.033	-0.081
-268.311	52.798	0.107	0.102
-267.297	122.550	0.129	0.160
-266.282	459.171	0.132	-0.291
-265.267	-45.206	-0.311	-0.153
-264.253	343.210	-0.048	0.093
-263.238	-94.382	-0.245	0.066
-262.224	800.000	0.082	0.231
-261.209	-160.515	0.513	0.027
-260.195	-47.872	0.240	-0.116
-259.180	174.938	0.069	-0.099
-258.165	97.161	-0.393	0.447
-257.151	-60.520	-0.193	-0.081
-256.136	745.604	-0.025	0.067
-255.122	-100.035	-0.117	-0.029
-254.107	800.000	-0.024	-0.096
-253.092	-80.304	0.231	-0.077
-252.078	-200.000	-0.001	0.120
-251.063	-181.686	-0.205	0.004
-250.049	266.594	0.081	0.140
-249.034	-22.588	-0.082	0.049
-248.019	800.000	0.105	0.316
-247.005	-200.000	-0.010	0.174
-245.990	-110.869	-0.269	0.055
-244.976	-200.000	0.007	-0.482
-243.961	800.000	0.090	-0.252
-242.946	-11.085	0.271	0.177
-241.932	102.068	0.292	-0.339
-240.917	-110.161	0.178	-0.037
-239.903	-200.000	-0.017	-0.294
-238.888	-113.937	0.201	0.039
-237.873	109.366	-0.080	0.095
-236.859	800.000	0.061	0.193
-235.844	-17.918	0.234	0.145
-234.830	211.622	-0.177	0.276
-233.815	-29.591	-0.118	0.067
-232.800	-145.790	-0.018	-0.002
-231.786	-38.589	0.077	0.040
-230.771	-33.644	0.138	0.076
-229.757	800.000	0.055	0.170
-228.742	-94.836	-0.135	-0.036
-227.727	800.000	0.043	-0.147
-226.713	224.569	0.191	0.307
-225.698	800.000	-0.062	-0.224
-224.684	156.315	-0.130	-0.179
-223.669	117.413	0.063	-0.077
-222.655	-49.041	0.174	0.083
-221.640	-136.075	0.258	0.030
-220.625	29.554	0.244	-0.206
-219.611	-99.344	0.283	0.071
-218.596	-112.126	-0.179	-0.036
-217.582	800.000	-0.054	-0.158
-216.567	553.394	0.073	-0.175
-215.552	-200.000	0.017	-0.116
-214.538	-112.847	0.121	-0.024
-213.523	-84.446	-0.195	0.061
-212.509	70.861	-0.071	-0.072
-211.494	216.314	-0.225	-0.355
-210.479	-36.516	-0.275	0.146
-209.465	-12.127	0.167	-0.108
-208.450	27.225	-0.228	-0.190
-207.436	-0.121	0.312	-0.220
-206.421	241.519	0.050	-0.084
-205.406	642.910	-0.039	-0.097
-204.392	800.000	0.047	-0.140
-203.377	521.190	-0.099	0.229
-202.363	800.000	-0.033	-0.120
-201.348	396.780	0.195	0.403
-200.333	745.485	0.040	-0.107
-199.319	134.103	0.041	-0.053
-198.304	-200.000	-0.000	0.217
-197.290	-9.694	-0.173	-0.114
-196.275	-98.495	-0.428	-0.108
-195.260	-76.795	0.370	0.128
-194.246	-152.348	0.213	-0.015
-193.231	-126.112	-0.062	-0.009
-192.217	63.776	0.121	-0.120
-191.202	203.328	0.213	0.325
-190.187	800.000	-0.034	-0.107
-189.173	-197.744	-0.108	0.001
-188.158	63.954	0.106	-0.105
-187.144	-200.000	-0.047	0.234
-186.129	91.923	-0.192	-0.214
-185.114	-35.242	0.229	-0.123
-184.100	-120.107	-0.132	0.022
-183.085	79.014	0.081	0.085
-182.071	800.000	0.110	-0.338
-181.056	-200.000	-0.048	0.000
-180.042	349.149	0.071	-0.138
-179.027	169.440	0.138	-0.195
-178.012	555.772	-0.130	-0.310
-176.998	-36.491	-0.167	-0.089
-175.983	-66.252	0.118	-0.047
-174.969	-200.000	0.011	-0.286
-173.954	-1.375	0.158	0.110
-172.939	-200.000	0.025	0.338
-171.925	800.000	-0.044	-0.172
-170.910	257.782	-0.058	0.099
-169.896	800.000	0.103	-0.320
-168.881	-200.000	-0.033	0.235
-167.866	273.685	-0.068	0.119
-166.852	-200.000	0.067	0.326
-165.837	-44.066	0.157	0.078
-164.823	-91.035	0.152	-0.043
-163.808	4.516	-0.235	0.170
-162.793	285.876	0.092	0.163
-161.779	287.223	0.094	-0.169
-160.764	800.000	0.049	0.156
-159.750	-5.817	0.266	-0.180
-158.735	52.927	-0.138	-0.131
-157.720	800.000	-0.093	-0.397
-156.706	-200.000	-0.010	-0.150
-155.691	-164.299	-0.244	-0.011
-154.677	-13.770	-0.291	-0.186
-153.662	800.000	-0.097	-0.328
-152.647	139.763	0.097	-0.126
-151.633	800.000	-0.038	-0.124
-150.618	-200.000	0.033	-0.152
-149.604	397.584	0.173	0.358
-148.589	218.797	0.192	-0.303
-147.574	-57.350	0.291	-0.126
-146.560	-200.000	-0.035	-0.169
-145.545	65.055	-0.238	-0.238
-144.531	128.736	-0.047	-0.059
-143.516	-200.000	-0.024	0.112
-142.502	-119.269	0.149	0.026
-141.487	508.781	0.039	0.089
-140.472	-200.000	0.021	0.106
-139.458	-200.000	-0.072	0.316
-138.443	90.224	-0.042	-0.046
-137.429	-200.000	-0.059	0.365
-136.414	-158.602	-0.200	-0.011
-135.399	-52.031	-0.056	-0.026
-134.385	-141.393	0.361	0.036
-133.370	800.000	-0.024	-0.101
-132.356	-47.123	0.113	-0.054
-131.341	105.798	-0.049	-0.057
-130.326	-95.856	0.159	-0.042
-129.312	800.000	0.081	-0.260
-128.297	-200.000	-0.009	-0.072
-127.283	-84.777	0.398	-0.124
-126.268	-75.477	0.101	0.036
-125.253	67.152	0.125	0.126
-124.239	-6.626	0.134	0.090
-123.224	-200.000	0.005	0.211
-122.210	-200.000	-0.019	-0.328
