DTS Sentinel unit serial number:	SN413079Multiplexer serial number:	ORYXHardware model number:	OX4-SRSoftware version number:	ORYX F/W v4.00 Oryx Data Collector v3.7.2.0data status	okinstallation	princeton_trtdifferential loss correction	single-endedforward channel	channel 2reverse channel	N/Adate	2019/09/19time	14:43:34forward acquisition time	60.00reverse acquisition time	0.00gamma	496.2192k internal	0.2323k external	0.2323temperature offset calibration	1.0021default loss term (dB/km)	0.3790temperature slope calibration	1.0000multiplexer offset coefficient	1.0000multiplexer slope coefficient	1.0000fibre end	0.00T internal ref (°C)	32.61T ext. ref 1 (°C)	1.08T ext. ref 2 (°C)	29.59length (m)	temperature (°C)	Stokes	anti-Stokes-747.200	-200.000	-0.067	-0.318
-746.185	800.000	-0.060	0.242
-745.171	-200.000	-0.005	-0.120
-744.156	-30.449	-0.261	0.150
-743.142	-99.174	-0.061	0.016
-742.127	-38.433	0.295	-0.158
-741.112	-112.501	-0.227	0.046
-740.098	-200.000	0.014	0.256
-739.083	12.245	-0.250	0.194
-738.069	123.455	0.220	0.278
-737.054	34.291	-0.235	0.207
-736.039	800.000	-0.066	0.232
-735.025	157.424	0.108	0.151
-734.010	189.444	0.234	-0.354
-732.996	-200.000	-0.007	-0.160
-731.981	800.000	-0.052	-0.221
-730.966	-125.116	0.148	-0.023
-729.952	-69.724	0.203	0.078
-728.937	195.457	-0.086	0.132
-727.923	531.361	-0.098	0.234
-726.908	180.681	-0.240	-0.355
-725.894	2.303	-0.317	-0.231
-724.879	166.892	-0.052	0.074
-723.864	25.616	0.090	-0.076
-722.850	-155.389	-0.116	0.008
-721.835	-51.203	-0.060	-0.028
-720.821	-77.960	-0.318	-0.111
-719.806	-97.002	-0.155	0.041
-718.791	-200.000	-0.001	-0.022
-717.777	-162.371	-0.190	-0.010
-716.762	-54.888	-0.130	0.059
-715.748	-81.496	-0.430	-0.143
-714.733	-117.209	-0.276	0.051
-713.718	-192.753	-0.287	0.003
-712.704	8.876	-0.111	0.084
-711.689	-97.975	-0.248	-0.064
-710.675	368.328	-0.185	-0.377
-709.660	-200.000	-0.014	0.067
-708.645	389.214	0.133	0.278
-707.631	-129.570	-0.319	0.044
-706.616	-34.109	0.084	-0.046
-705.602	4.589	-0.190	-0.141
-704.587	-105.771	0.233	-0.053
-703.572	-87.107	-0.130	0.040
-702.558	-0.240	-0.157	-0.112
-701.543	-75.872	-0.138	-0.049
-700.529	235.647	-0.176	0.293
-699.514	-77.585	-0.413	0.144
-698.499	189.408	0.046	0.069
-697.485	800.000	0.102	-0.308
-696.470	-200.000	-0.002	-0.017
-695.456	19.030	0.114	-0.092
-694.441	-93.761	0.239	-0.066
-693.426	-123.931	-0.337	-0.053
-692.412	-65.084	0.206	-0.084
-691.397	-200.000	0.035	-0.270
-690.383	-200.000	0.041	-0.384
-689.368	800.000	-0.027	-0.111
-688.354	-51.837	0.139	-0.065
-687.339	21.728	0.063	0.051
-686.324	-200.000	-0.013	0.103
-685.310	264.051	-0.222	-0.389
-684.295	-124.283	0.233	0.037
-683.281	222.155	-0.028	0.046
-682.266	748.446	0.099	-0.268
-681.251	27.837	0.014	-0.012
-680.237	286.413	-0.063	-0.115
-679.222	32.376	-0.274	-0.238
-678.208	487.679	-0.068	-0.156
-677.193	100.368	0.043	-0.050
-676.178	-99.452	0.276	-0.070
-675.164	-200.000	-0.015	0.098
-674.149	71.052	-0.126	-0.132
-673.135	-14.429	-0.125	0.081
-672.120	800.000	-0.115	-0.352
-671.105	-94.462	-0.228	0.063
-670.091	-200.000	-0.002	0.026
-669.076	716.059	0.040	-0.106
-668.062	-163.786	0.217	0.010
-667.047	-49.308	0.115	-0.055
-666.032	498.519	-0.108	0.250
-665.018	288.429	0.101	0.184
-664.003	-200.000	0.067	-0.384
-662.989	-19.391	-0.183	0.114
-661.974	190.636	-0.041	0.062
-660.959	-120.073	0.221	-0.038
-659.945	-200.000	0.029	-0.327
-658.930	12.775	-0.184	-0.143
-657.916	-93.113	0.555	-0.156
-656.901	800.000	-0.041	0.120
-655.886	800.000	0.040	0.164
-654.872	178.934	-0.093	-0.137
-653.857	800.000	-0.092	0.263
-652.843	-200.000	0.058	0.363
-651.828	-136.177	0.257	-0.030
-650.814	56.464	0.262	-0.256
-649.799	-133.138	0.238	0.030
-648.784	197.648	0.165	-0.254
-647.770	137.741	0.131	-0.173
-646.755	-200.000	-0.001	-0.072
-645.741	-73.300	-0.269	-0.099
-644.726	-154.766	-0.377	-0.025
-643.711	681.153	0.089	0.234
-642.697	800.000	0.061	0.224
-641.682	21.417	-0.254	-0.208
-640.668	800.000	-0.011	-0.039
-639.653	-101.749	-0.089	0.022
-638.638	625.683	0.053	0.134
-637.624	-88.945	-0.119	0.035
-636.609	45.564	0.142	-0.132
-635.595	86.062	-0.134	-0.148
-634.580	36.499	0.150	-0.133
-633.565	-35.836	-0.219	-0.119
-632.551	-148.734	-0.480	-0.039
-631.536	1.797	-0.204	0.148
-630.522	800.000	0.085	-0.274
-629.507	800.000	-0.064	0.256
-628.492	-200.000	-0.028	0.326
-627.478	-121.729	-0.073	0.012
-626.463	-120.785	0.188	0.032
-625.449	33.999	0.085	0.074
-624.434	-0.446	0.117	0.084
-623.419	-0.566	-0.218	0.155
-622.405	267.952	-0.270	-0.474
-621.390	292.726	0.245	-0.449
-620.376	-42.375	0.104	-0.053
-619.361	-200.000	-0.005	-0.068
-618.346	-88.069	0.036	0.011
-617.332	-200.000	-0.055	-0.242
-616.317	-61.955	-0.189	-0.080
-615.303	800.000	-0.047	0.205
-614.288	-200.000	-0.001	-0.086
-613.273	-142.033	0.579	0.058
-612.259	-51.759	-0.498	-0.233
-611.244	90.386	-0.201	-0.226
-610.230	149.686	-0.017	0.023
-609.215	-103.556	-0.040	0.009
-608.201	-76.387	0.042	-0.015
-607.186	154.891	-0.253	-0.349
-606.171	-163.185	-0.443	-0.021
-605.157	-170.087	0.212	-0.008
-604.142	330.026	0.137	0.265
-603.128	-110.774	0.135	0.028
-602.113	-55.287	-0.034	-0.015
-601.098	-200.000	-0.010	0.080
-600.084	-200.000	-0.010	0.125
-599.069	-73.171	-0.250	0.092
-598.055	162.722	0.129	0.182
-597.040	-1.468	-0.347	-0.246
-596.025	748.071	0.055	-0.149
-595.011	800.000	0.091	0.293
-593.996	-200.000	-0.025	-0.212
-592.982	32.467	-0.084	-0.073
-591.967	117.581	-0.204	0.252
-590.952	-179.081	0.093	-0.002
-589.938	107.697	-0.187	0.223
-588.923	-149.020	-0.311	-0.025
-587.909	-166.724	0.342	0.014
-586.894	-18.573	-0.178	-0.111
-585.879	800.000	0.030	-0.121
-584.865	-200.000	-0.024	-0.212
-583.850	73.495	0.051	0.053
-582.836	-16.427	-0.086	0.055
-581.821	-17.039	-0.084	-0.053
-580.806	-200.000	-0.006	-0.271
-579.792	800.000	-0.063	-0.244
-578.777	122.656	0.157	0.196
-577.763	-142.354	0.174	0.017
-576.748	-135.433	-0.248	0.030
-575.733	-200.000	-0.024	0.117
-574.719	85.763	0.200	0.221
-573.704	-122.579	0.409	0.067
-572.690	-97.836	0.181	-0.047
-571.675	152.390	-0.197	-0.270
-570.661	82.825	0.074	0.080
-569.646	-24.016	0.107	0.064
-568.631	-53.867	-0.191	0.087
-567.617	278.996	-0.121	0.216
-566.602	-42.196	-0.196	-0.101
-565.588	-102.033	-0.198	-0.048
-564.573	-200.000	-0.023	-0.156
-563.558	51.453	0.217	-0.206
-562.544	-104.609	-0.071	-0.016
-561.529	77.134	0.176	-0.188
-560.515	800.000	0.046	-0.185
-559.500	-200.000	0.035	-0.301
-558.485	493.314	0.045	-0.104
-557.471	800.000	-0.073	0.251
-556.456	-200.000	0.006	0.082
-555.442	-200.000	0.046	-0.266
-554.427	144.680	0.062	0.084
-553.412	168.624	-0.174	0.248
-552.398	-200.000	0.009	0.143
-551.383	4.503	0.392	0.288
-550.369	-30.346	-0.084	0.048
-549.354	-31.933	-0.373	0.209
-548.339	-101.871	-0.037	-0.009
-547.325	16.281	0.289	-0.229
-546.310	85.692	-0.054	0.060
-545.296	257.730	-0.042	0.073
-544.281	224.195	0.277	0.448
-543.266	-34.298	0.069	0.038
-542.252	-29.685	-0.246	-0.141
-541.237	602.127	0.124	0.310
-540.223	-162.049	0.127	-0.006
-539.208	-60.052	0.529	-0.226
-538.193	-0.872	-0.273	-0.193
-537.179	326.495	0.240	-0.460
-536.164	800.000	0.079	-0.273
-535.150	800.000	-0.027	0.119
-534.135	177.071	-0.031	-0.045
-533.121	-44.252	-0.180	0.090
-532.106	58.447	-0.196	0.192
-531.091	-82.159	-0.174	-0.057
-530.077	-200.000	0.000	0.180
-529.062	71.722	-0.228	-0.238
-528.048	-200.000	0.046	0.284
-527.033	93.467	-0.233	-0.264
-526.018	110.144	0.087	-0.104
-525.004	482.015	-0.022	-0.049
-523.989	17.236	0.167	-0.132
-522.975	263.891	0.150	0.262
-521.960	800.000	-0.067	0.203
-520.945	-200.000	-0.011	0.101
-519.931	-200.000	0.015	-0.111
-518.916	227.066	0.046	-0.075
-517.902	-200.000	0.026	0.151
-516.887	800.000	0.057	-0.206
-515.872	-200.000	-0.006	-0.110
-514.858	-200.000	-0.027	-0.153
-513.843	800.000	0.103	-0.410
-512.829	130.962	-0.088	0.113
-511.814	-166.909	-0.180	0.007
-510.799	-44.477	-0.106	-0.053
-509.785	-72.469	-0.393	0.145
-508.770	295.301	-0.035	0.065
-507.756	-200.000	0.020	-0.108
-506.741	659.439	-0.105	-0.270
-505.726	-20.436	-0.128	-0.078
-504.712	183.680	0.226	-0.334
-503.697	-77.071	0.155	0.054
-502.683	236.908	0.049	-0.081
-501.668	87.462	-0.258	0.286
-500.653	193.563	0.144	0.218
-499.639	79.973	0.182	0.195
-498.624	67.559	-0.224	0.229
-497.610	-200.000	-0.008	-0.073
-496.595	-88.944	-0.377	-0.112
-495.581	-57.043	-0.196	-0.086
-494.566	-200.000	-0.019	-0.338
-493.551	-27.948	-0.183	0.106
-492.537	9.458	-0.163	-0.123
-491.522	-27.981	0.352	-0.204
-490.508	-16.751	0.171	0.108
-489.493	-110.858	-0.223	-0.046
-488.478	149.512	0.268	0.363
-487.464	150.542	-0.146	-0.198
-486.449	-200.000	0.012	-0.184
-485.435	-69.586	0.265	-0.101
-484.420	-67.438	0.253	-0.099
-483.405	374.264	-0.043	-0.088
-482.391	-200.000	0.054	0.429
-481.376	189.198	-0.098	-0.146
-480.362	82.177	-0.077	0.083
-479.347	-5.386	0.274	-0.188
-478.332	-42.456	-0.209	-0.106
-477.318	-102.023	-0.178	0.043
-476.303	118.431	-0.137	-0.169
-475.289	16.964	0.181	0.143
-474.274	105.342	-0.213	0.251
-473.259	-70.978	0.340	0.128
-472.245	512.761	0.077	0.179
-471.230	-145.155	0.288	0.026
-470.216	-97.248	-0.418	-0.109
-469.201	124.521	0.127	0.160
-468.186	-2.293	0.355	0.249
-467.172	-151.486	-0.182	-0.014
-466.157	-72.934	-0.218	-0.080
-465.143	-164.768	-0.274	0.012
-464.128	205.493	-0.134	-0.208
-463.113	778.981	0.077	0.209
-462.099	800.000	0.136	0.449
-461.084	800.000	0.040	0.166
-460.070	-129.433	-0.202	-0.028
-459.055	559.384	-0.196	0.473
-458.040	-67.688	0.209	0.082
-457.026	157.437	0.045	-0.062
-456.011	-18.847	-0.254	-0.158
-454.997	120.497	-0.176	-0.218
-453.982	-200.000	0.029	0.381
-452.968	-143.195	0.206	-0.020
-451.953	91.505	-0.117	0.132
-450.938	350.490	0.160	-0.315
-449.924	28.712	-0.074	-0.063
-448.909	-141.555	0.133	-0.013
-447.895	800.000	-0.033	0.094
-446.880	398.670	-0.085	0.177
-445.865	6.019	-0.085	0.063
-444.851	114.962	0.066	0.080
-443.836	-200.000	-0.051	0.316
-442.822	-24.781	0.223	0.132
-441.807	-200.000	-0.020	-0.151
-440.792	618.253	-0.070	-0.176
-439.778	-44.807	-0.248	0.124
-438.763	-200.000	-0.005	0.284
-437.749	-25.209	0.150	0.089
-436.734	4.090	-0.223	0.162
-435.719	-200.000	-0.051	-0.319
-434.705	-200.000	-0.010	-0.245
-433.690	92.149	0.039	0.044
-432.676	-7.952	-0.214	0.144
-431.661	46.677	0.339	0.314
-430.646	2.570	-0.081	-0.058
-429.632	88.036	-0.034	0.038
-428.617	-200.000	-0.066	-0.294
-427.603	43.407	-0.092	0.084
-426.588	263.057	0.146	0.253
-425.573	-106.340	0.283	0.063
-424.559	319.505	-0.075	-0.142
-423.544	21.621	-0.187	-0.152
-422.530	-140.793	-0.278	0.029
-421.515	-200.000	-0.025	0.202
-420.500	89.719	0.080	-0.089
-419.486	-200.000	-0.027	-0.419
-418.471	800.000	-0.030	0.087
-417.457	-22.315	0.132	-0.080
-416.442	-79.366	-0.232	-0.078
-415.428	-14.267	0.093	-0.060
-414.413	800.000	0.119	-0.380
-413.398	71.462	0.163	0.169
-412.384	150.750	-0.154	-0.209
-411.369	-200.000	0.035	0.203
-410.355	-101.162	0.335	0.082
-409.340	-82.710	0.315	-0.102
-408.325	161.778	0.171	-0.238
-407.311	-200.000	0.025	-0.150
-406.296	800.000	0.010	0.029
-405.282	-14.071	0.125	0.080
-404.267	-69.224	0.092	0.035
-403.252	1.029	-0.306	-0.219
-402.238	571.562	0.025	0.060
-401.223	-14.907	0.169	0.108
-400.209	-6.873	0.118	-0.080
-399.194	84.800	-0.058	-0.063
-398.179	169.147	-0.083	0.118
-397.165	800.000	0.106	0.313
-396.150	800.000	0.024	-0.093
-395.136	430.321	-0.289	0.622
-394.121	394.152	-0.099	0.206
-393.106	48.951	0.095	0.089
-392.092	60.086	-0.076	0.075
-391.077	-200.000	-0.008	-0.298
-390.063	35.145	-0.203	0.177
-389.048	45.999	0.164	0.151
-388.033	-126.933	0.089	0.013
-387.019	-38.269	0.097	0.051
-386.004	-200.000	-0.050	0.386
-384.990	-111.418	-0.456	0.093
-383.975	420.732	-0.083	-0.178
-382.960	35.643	-0.114	0.100
-381.946	707.914	-0.117	0.308
-380.931	-17.740	-0.218	-0.136
-379.917	51.718	0.260	-0.246
-378.902	447.309	-0.158	-0.347
-377.888	800.000	0.128	0.365
-376.873	-200.000	-0.030	0.304
-375.858	767.022	-0.064	0.172
-374.844	35.050	0.171	-0.149
-373.829	800.000	0.123	0.464
-372.815	151.792	-0.090	0.123
-371.800	379.520	-0.058	0.118
-370.785	-42.073	-0.409	-0.208
-369.771	-62.639	0.165	0.068
-368.756	-105.452	0.062	-0.014
-367.742	32.748	0.264	0.227
-366.727	54.307	0.172	0.164
-365.712	426.728	0.102	-0.219
-364.698	130.032	-0.151	0.192
-363.683	-44.304	0.249	-0.124
-362.669	313.767	0.041	0.076
-361.654	-85.005	0.386	-0.120
-360.639	538.770	0.050	-0.117
-359.625	800.000	0.113	-0.430
-358.610	-200.000	-0.053	-0.260
-357.596	197.410	0.126	-0.192
-356.581	800.000	-0.033	-0.096
-355.566	-200.000	-0.004	0.176
-354.552	-200.000	-0.008	0.067
-353.537	365.188	0.104	-0.209
-352.523	21.237	-0.153	-0.123
-351.508	377.980	-0.139	-0.282
-350.493	-66.390	-0.251	-0.099
-349.479	-200.000	-0.010	-0.161
-348.464	-65.390	-0.179	-0.072
-347.450	88.772	0.178	0.197
-346.435	-154.588	0.138	0.009
-345.420	45.202	-0.126	-0.115
-344.406	-79.101	0.024	-0.008
-343.391	-73.560	-0.435	0.158
-342.377	-69.282	0.269	-0.103
-341.362	-97.608	0.275	-0.071
-340.348	129.653	0.176	-0.223
-339.333	-200.000	-0.077	-0.502
-338.318	-200.000	-0.017	-0.198
-337.304	800.000	-0.093	-0.302
-336.289	800.000	0.057	0.225
-335.275	-4.412	-0.199	0.136
-334.260	119.191	-0.122	0.150
-333.245	-23.411	0.153	0.091
-332.231	3.988	0.339	-0.246
-331.216	-43.612	0.242	0.121
-330.202	226.436	0.077	-0.125
-329.187	-14.637	0.104	0.067
-328.172	-131.464	0.473	-0.062
-327.158	-42.794	-0.093	-0.047
-326.143	131.280	-0.034	-0.044
-325.129	-136.978	-0.211	0.024
-324.114	-36.580	-0.167	0.089
-323.099	747.859	-0.047	-0.126
-322.085	44.966	-0.031	0.028
-321.070	9.826	0.142	0.107
-320.056	-177.133	-0.348	-0.009
-319.041	800.000	-0.030	0.099
-318.026	-200.000	0.019	0.084
-317.012	800.000	0.085	0.286
-315.997	-149.911	0.351	0.027
-314.983	800.000	0.049	0.158
-313.968	218.655	-0.156	-0.247
-312.953	13.917	-0.265	-0.204
-311.939	-123.856	0.413	0.065
-310.924	552.665	0.065	0.155
-309.910	800.000	-0.035	-0.114
-308.895	51.823	0.158	-0.150
-307.880	-62.907	-0.131	-0.054
-306.866	42.547	0.097	-0.087
-305.851	32.628	0.071	0.061
-304.837	-200.000	-0.000	0.123
-303.822	800.000	-0.019	0.052
-302.807	-200.000	-0.005	-0.032
-301.793	-200.000	0.025	0.298
-300.778	-116.417	-0.215	-0.039
-299.764	9.685	-0.175	0.132
-298.749	12.796	-0.246	0.189
-297.735	174.419	-0.135	0.194
-296.720	-49.211	-0.270	0.128
-295.705	-1.006	-0.132	-0.093
-294.691	-79.619	0.219	-0.073
-293.676	-10.166	-0.173	0.114
-292.662	115.524	-0.037	-0.045
-291.647	800.000	0.093	-0.314
-290.632	25.873	0.150	-0.124
-289.618	-95.220	0.144	-0.039
-288.603	-200.000	-0.034	0.213
-287.589	657.008	0.014	-0.035
-286.574	70.030	0.220	-0.225
-285.559	49.243	0.223	0.208
-284.545	190.151	-0.243	0.361
-283.530	800.000	0.025	-0.081
-282.516	43.958	-0.106	0.096
-281.501	127.404	0.014	-0.018
-280.486	-10.171	0.294	-0.193
-279.472	-135.912	-0.513	0.060
-278.457	-200.000	-0.005	-0.231
-277.443	-200.000	-0.034	-0.176
-276.428	-200.000	-0.001	-0.322
-275.413	-41.479	-0.307	-0.156
-274.399	-200.000	-0.011	-0.364
-273.384	800.000	0.080	-0.252
-272.370	-109.373	0.271	-0.057
-271.355	-45.961	0.147	0.072
-270.340	582.670	0.071	-0.174
-269.326	-70.484	0.266	0.100
-268.311	-200.000	-0.018	0.128
-267.297	49.838	0.153	0.143
-266.282	800.000	0.110	0.328
-265.267	85.399	0.197	-0.214
-264.253	-20.108	-0.285	0.174
-263.238	-21.943	0.228	0.137
-262.224	154.069	-0.058	0.079
-261.209	108.396	-0.108	-0.127
-260.195	-117.120	0.197	-0.036
-259.180	0.459	-0.156	0.111
-258.165	-200.000	-0.020	-0.233
-257.151	85.790	-0.148	0.161
-256.136	81.719	0.170	0.182
-255.122	-56.643	-0.148	-0.065
-254.107	420.703	0.098	-0.207
-253.092	-200.000	-0.002	0.148
-252.078	158.346	0.107	0.147
-251.063	800.000	0.059	0.242
-250.049	800.000	0.054	-0.186
-249.034	-126.537	-0.186	0.027
-248.019	-122.530	-0.274	-0.044
-247.005	-42.854	-0.147	0.074
-245.990	78.682	-0.106	-0.112
-244.976	197.420	-0.205	-0.309
-243.961	8.859	-0.058	0.043
-242.946	50.028	-0.210	0.196
-241.932	-158.238	-0.313	-0.018
-240.917	-138.295	-0.168	-0.018
-239.903	-65.559	-0.282	0.112
-238.888	-78.685	0.278	0.094
-237.873	-200.000	0.021	0.150
-236.859	-101.842	-0.327	-0.078
-235.844	-200.000	0.399	-0.002
-234.830	-200.000	-0.005	0.193
-233.815	-63.394	-0.330	0.134
-232.800	36.818	0.301	0.263
-231.786	-115.860	0.255	0.047
-230.771	-83.236	0.142	0.045
-229.757	-200.000	-0.010	-0.411
-228.742	63.710	0.056	-0.056
-227.727	-31.882	0.165	0.091
-226.713	-28.791	0.281	-0.160
-225.698	9.994	0.233	0.175
-224.684	119.494	0.137	0.168
-223.669	-200.000	0.009	0.070
-222.655	133.486	0.217	-0.278
-221.640	40.248	-0.182	-0.162
-220.625	254.788	0.207	0.351
-219.611	800.000	0.088	0.314
-218.596	-122.865	-0.172	-0.027
-217.582	800.000	-0.089	0.333
-216.567	-200.000	-0.044	0.224
-215.552	-57.811	0.049	0.021
-214.538	295.470	0.074	0.134
-213.523	-52.711	0.229	-0.104
-212.509	800.000	-0.058	0.180
-211.494	439.938	-0.035	0.076
-210.479	49.786	0.167	-0.155
-209.465	-200.000	-0.075	0.328
-208.450	-200.000	0.002	-0.235
-207.436	800.000	-0.044	0.186
-206.421	309.623	-0.169	0.313
-205.406	-36.647	0.148	0.079
-204.392	800.000	-0.079	-0.325
-203.377	134.915	-0.145	-0.186
-202.363	67.019	0.048	0.048
-201.348	355.201	0.075	-0.148
-200.333	-200.000	-0.010	0.230
-199.319	136.199	-0.137	-0.176
-198.304	800.000	0.098	-0.325
-197.290	53.202	-0.284	-0.269
-196.275	115.074	0.067	-0.080
-195.260	-78.804	-0.406	-0.137
-194.246	800.000	-0.036	-0.105
-193.231	-121.088	0.289	0.048
-192.217	-200.000	0.059	-0.431
-191.202	800.000	0.068	0.193
-190.187	-200.000	-0.010	-0.098
-189.173	116.680	0.210	0.255
-188.158	800.000	-0.097	-0.284
-187.144	-112.656	0.261	-0.051
-186.129	102.333	0.155	0.179
-185.114	251.455	0.233	0.391
-184.100	372.888	0.116	-0.232
-183.085	-146.778	0.238	0.020
-182.071	173.949	0.198	-0.283
-181.056	689.138	-0.052	-0.135
-180.042	-29.914	0.164	-0.092
-179.027	117.599	-0.129	0.157
-178.012	61.306	0.078	0.076
-176.998	-52.203	0.056	-0.026
-175.983	-200.000	0.039	0.226
-174.969	-46.644	-0.295	0.143
-173.954	-12.383	0.059	-0.038
-172.939	-47.269	-0.070	0.034
-171.925	271.725	0.052	-0.090
-170.910	534.012	0.090	0.210
-169.896	46.435	0.274	0.251
-168.881	258.371	0.090	-0.153
-167.866	-200.000	0.018	0.149
-166.852	-106.503	0.153	-0.034
-165.837	195.361	-0.130	-0.194
-164.823	-200.000	-0.073	-0.326
-163.808	-140.651	0.379	0.039
-162.793	-27.198	0.041	0.024
-161.779	800.000	0.072	0.221
-160.764	-39.119	0.173	-0.090
-159.750	-200.000	0.026	0.154
-158.735	-115.794	-0.068	0.013
-157.720	-200.000	-0.010	0.307
-156.706	114.080	-0.070	0.084
-155.691	25.614	-0.179	-0.147
-154.677	205.651	0.033	-0.050
-153.662	-124.663	-0.120	-0.018
-152.647	33.907	0.211	-0.182
-151.633	-93.343	-0.131	0.036
-150.618	-200.000	-0.024	-0.182
-149.604	-19.948	-0.133	-0.081
-148.589	-103.586	0.220	-0.051
-147.574	452.305	-0.080	-0.174
-146.560	-180.966	-0.135	-0.003
-145.545	-200.000	-0.063	-0.304
-144.531	800.000	0.018	0.078
-143.516	-200.000	-0.017	0.180
-142.502	462.378	-0.136	-0.299
-141.487	-132.376	0.130	0.017
-140.472	53.386	-0.171	-0.162
-139.458	21.419	-0.336	-0.269
-138.443	82.252	0.192	0.205
-137.429	-197.221	0.209	0.001
-136.414	42.103	-0.071	-0.063
-135.399	58.202	-0.158	0.152
-134.385	-13.102	-0.228	0.146
-133.370	-110.037	0.199	0.041
-132.356	-53.170	-0.083	0.038
-131.341	431.956	-0.042	-0.091
-130.326	625.194	0.184	-0.458
-129.312	-200.000	-0.015	0.130
-128.297	78.021	-0.284	0.298
-127.283	105.789	0.107	-0.125
-126.268	373.961	-0.051	0.103
-125.253	-79.830	0.195	-0.065
-124.239	7.867	-0.033	0.024
-123.224	546.825	-0.036	0.085
-122.210	-11.967	-0.310	0.200
-121.195	-138.773	0.188	-0.020
