DTS Sentinel unit serial number:	SN413079Multiplexer serial number:	ORYXHardware model number:	OX4-SRSoftware version number:	ORYX F/W v4.00 Oryx Data Collector v3.7.2.0data status	okinstallation	princeton_trtdifferential loss correction	single-endedforward channel	channel 2reverse channel	N/Adate	2019/09/19time	01:23:35forward acquisition time	60.00reverse acquisition time	0.00gamma	496.2192k internal	0.2353k external	0.2353temperature offset calibration	1.0019default loss term (dB/km)	0.3790temperature slope calibration	1.0000multiplexer offset coefficient	1.0000multiplexer slope coefficient	1.0000fibre end	0.00T internal ref (°C)	21.64T ext. ref 1 (°C)	0.70T ext. ref 2 (°C)	15.04length (m)	temperature (°C)	Stokes	anti-Stokes-747.200	-64.853	0.397	-0.160
-746.185	-80.518	-0.294	-0.098
-745.171	3.039	-0.082	-0.060
-744.156	-33.468	0.186	0.102
-743.142	44.917	0.210	-0.193
-742.127	-19.596	-0.188	0.116
-741.112	-8.529	0.342	0.229
-740.098	-200.000	0.019	0.093
-739.083	256.229	0.207	-0.355
-738.069	52.384	0.119	0.113
-737.054	37.757	-0.135	0.119
-736.039	-33.750	-0.249	-0.137
-735.025	15.944	-0.073	0.057
-734.010	-92.624	0.195	-0.054
-732.996	531.313	-0.163	0.385
-731.981	566.996	0.135	-0.326
-730.966	375.358	-0.196	-0.398
-729.952	50.441	-0.266	-0.250
-728.937	-31.617	-0.086	0.048
-727.923	335.352	-0.099	0.191
-726.908	52.249	-0.156	-0.148
-725.894	-200.000	0.010	0.093
-724.879	-115.495	-0.071	0.013
-723.864	49.565	0.196	0.184
-722.850	-61.746	0.192	-0.080
-721.835	224.540	0.039	0.063
-720.821	135.131	0.164	-0.212
-719.806	-200.000	-0.297	-0.000
-718.791	112.839	-0.229	-0.277
-717.777	-64.794	0.208	0.084
-716.762	-200.000	0.057	-0.283
-715.748	-177.880	-0.124	-0.003
-714.733	-129.749	-0.449	-0.062
-713.718	100.561	-0.039	0.045
-712.704	-29.296	-0.300	-0.171
-711.689	-150.790	0.163	-0.012
-710.675	-200.000	-0.051	-0.242
-709.660	730.010	-0.126	-0.336
-708.645	78.851	-0.185	-0.197
-707.631	175.708	-0.074	-0.106
-706.616	-151.813	-0.032	0.002
-705.602	-50.768	0.113	-0.053
-704.587	-56.138	-0.291	0.129
-703.572	-84.361	-0.104	0.033
-702.558	-105.948	-0.240	-0.054
-701.543	800.000	0.093	-0.283
-700.529	96.470	-0.123	0.141
-699.514	543.338	-0.068	-0.162
-698.499	-200.000	-0.019	-0.112
-697.485	-139.637	-0.081	0.009
-696.470	531.907	0.158	-0.371
-695.456	29.788	0.037	0.031
-694.441	-172.119	0.419	0.013
-693.426	-140.872	-0.093	0.009
-692.412	411.874	-0.079	-0.168
-691.397	214.903	-0.273	-0.430
-690.383	78.036	0.040	0.043
-689.368	-52.789	0.324	0.149
-688.354	201.195	-0.099	-0.152
-687.339	-99.649	-0.179	0.045
-686.324	-187.246	-0.194	0.003
-685.310	438.188	-0.166	0.359
-684.295	36.474	-0.197	-0.173
-683.281	-200.000	0.004	-0.141
-682.266	77.587	0.034	-0.036
-681.251	13.470	0.204	0.157
-680.237	-177.937	0.102	-0.002
-679.222	24.709	-0.134	-0.111
-678.208	800.000	0.101	0.317
-677.193	0.447	-0.258	0.183
-676.178	800.000	-0.091	0.364
-675.164	-14.191	-0.173	-0.111
-674.149	617.157	-0.039	0.098
-673.135	105.661	0.174	0.204
-672.120	-102.207	-0.096	0.023
-671.105	-124.681	0.237	0.036
-670.091	32.304	0.327	-0.280
-669.076	-2.744	-0.211	0.146
-668.062	800.000	0.057	-0.171
-667.047	-57.564	0.134	0.059
-666.032	-107.958	-0.143	0.031
-665.018	-41.563	0.371	-0.189
-664.003	-29.240	-0.275	0.157
-662.989	-200.000	-0.035	-0.349
-661.974	-112.909	-0.165	0.033
-660.959	800.000	0.065	0.217
-659.945	-71.230	0.080	0.030
-658.930	-4.333	0.019	-0.013
-657.916	-136.660	-0.305	-0.035
-656.901	136.227	-0.182	0.235
-655.886	52.864	0.197	0.188
-654.872	-52.624	-0.248	-0.114
-653.857	-200.000	0.027	0.175
-652.843	611.901	-0.059	0.148
-651.828	-74.959	-0.228	-0.081
-650.814	-200.000	0.005	0.053
-649.799	-43.395	0.282	-0.142
-648.784	458.159	-0.202	-0.446
-647.770	200.963	0.098	0.150
-646.755	-14.354	-0.281	-0.180
-645.741	97.896	0.180	-0.206
-644.726	531.043	0.020	0.048
-643.711	-126.870	-0.173	0.025
-642.697	563.981	0.110	-0.265
-641.682	438.613	0.057	-0.124
-640.668	64.259	0.069	0.069
-639.653	-14.402	-0.169	0.108
-638.638	800.000	-0.020	-0.082
-637.624	800.000	-0.062	0.205
-636.609	262.640	-0.181	0.311
-635.595	-200.000	-0.066	0.341
-634.580	800.000	0.121	0.401
-633.565	-67.255	-0.126	0.049
-632.551	-138.754	-0.112	-0.012
-631.536	-95.383	-0.072	-0.019
-630.522	-75.325	-0.536	-0.190
-629.507	-124.425	0.315	0.049
-628.492	800.000	0.051	0.170
-627.478	26.128	-0.116	0.096
-626.463	27.859	-0.337	0.282
-625.449	800.000	0.039	0.119
-624.434	-200.000	-0.047	-0.218
-623.419	489.774	-0.185	0.420
-622.405	14.309	-0.109	0.084
-621.390	-200.000	0.038	0.323
-620.376	347.068	-0.050	0.097
-619.361	-13.362	0.350	-0.225
-618.346	-110.304	0.184	-0.038
-617.332	-35.060	-0.469	-0.253
-616.317	114.994	-0.063	-0.076
-615.303	1.137	-0.228	0.162
-614.288	24.350	0.259	0.213
-613.273	131.920	0.034	-0.043
-612.259	214.806	-0.068	0.108
-611.244	800.000	0.033	0.125
-610.230	-45.774	0.523	-0.256
-609.215	-2.601	0.134	0.093
-608.201	-9.230	-0.349	-0.231
-607.186	158.519	0.090	-0.123
-606.171	-91.113	-0.116	-0.033
-605.157	275.359	-0.103	-0.181
-604.142	-118.394	-0.216	0.038
-603.128	282.398	-0.119	-0.211
-602.113	116.174	-0.076	-0.093
-601.098	204.509	0.112	0.173
-600.084	800.000	-0.101	-0.336
-599.069	45.256	0.082	-0.075
-598.055	-90.273	0.109	-0.031
-597.040	-200.000	0.022	-0.201
-596.025	-38.859	0.049	0.026
-595.011	12.125	0.203	-0.155
-593.996	453.115	-0.061	0.134
-592.982	-200.000	-0.027	-0.121
-591.967	-105.984	-0.348	0.078
-590.952	51.714	-0.151	0.142
-589.938	46.945	0.342	0.315
-588.923	159.315	0.138	0.190
-587.909	-183.040	-0.076	-0.001
-586.894	-200.000	0.072	-0.331
-585.879	-9.045	-0.208	-0.138
-584.865	-200.000	-0.091	-0.400
-583.850	216.653	-0.079	-0.125
-582.836	-63.292	0.360	0.147
-581.821	54.199	-0.209	-0.199
-580.806	173.593	-0.069	0.099
-579.792	800.000	-0.160	0.544
-578.777	-200.000	-0.012	-0.124
-577.763	800.000	0.069	0.217
-576.748	15.093	-0.205	0.159
-575.733	-200.000	0.012	-0.197
-574.719	-200.000	-0.040	0.518
-573.704	-26.041	-0.049	0.028
-572.690	-14.269	0.118	-0.075
-571.675	800.000	0.116	0.421
-570.661	85.787	-0.037	-0.041
-569.646	17.330	0.241	-0.190
-568.631	-200.000	0.029	-0.146
-567.617	-54.798	0.175	-0.078
-566.602	127.509	-0.126	-0.158
-565.588	-200.000	0.004	0.208
-564.573	12.524	0.028	0.022
-563.558	-83.788	-0.226	0.071
-562.544	-196.399	-0.124	0.001
-561.529	-31.151	0.204	0.114
-560.515	29.854	-0.158	-0.133
-559.500	73.153	-0.265	-0.274
-558.485	26.240	-0.073	-0.061
-557.471	-4.831	0.062	0.042
-556.456	-200.000	-0.087	0.389
-555.442	-47.952	0.231	-0.111
-554.427	237.893	0.061	0.100
-553.412	-76.748	0.350	0.121
-552.398	-200.000	-0.035	0.000
-551.383	-200.000	-0.035	-0.190
-550.369	-92.443	0.243	0.068
-549.354	114.873	0.079	0.096
-548.339	46.624	0.044	0.041
-547.325	62.203	0.334	0.330
-546.310	67.817	-0.139	0.141
-545.296	-200.000	0.010	0.294
-544.281	373.398	-0.121	0.243
-543.266	76.912	0.088	0.093
-542.252	248.306	-0.205	0.343
-541.237	-19.447	0.322	-0.198
-540.223	160.999	-0.057	-0.079
-539.208	-200.000	-0.029	0.157
-538.193	140.264	-0.174	-0.228
-537.179	-91.615	-0.050	-0.014
-536.164	226.458	0.080	0.129
-535.150	-68.594	0.147	-0.056
-534.135	72.630	0.111	0.114
-533.121	-54.133	-0.238	0.107
-532.106	-110.386	-0.170	0.035
-531.091	-200.000	-0.031	-0.164
-530.077	-150.679	0.203	-0.015
-529.062	-118.904	0.020	0.004
-528.048	-140.243	-0.452	0.047
-527.033	-115.469	0.223	-0.042
-526.018	-111.336	0.053	0.011
-525.004	-200.000	-0.045	0.511
-523.989	320.210	0.182	0.341
-522.975	84.816	-0.330	-0.357
-521.960	-68.105	0.264	0.102
-520.945	-100.107	-0.179	-0.044
-519.931	-110.051	0.318	0.066
-518.916	359.735	0.104	0.206
-517.902	714.674	0.075	0.198
-516.887	-200.000	0.026	0.247
-515.872	-106.505	-0.294	0.065
-514.858	33.747	0.114	-0.098
-513.843	121.050	-0.111	-0.136
-512.829	-43.975	-0.217	0.108
-511.814	595.375	0.053	-0.129
-510.799	604.899	0.077	-0.189
-509.785	419.448	-0.123	0.260
-508.770	382.221	0.137	0.278
-507.756	-66.071	-0.272	-0.107
-506.741	-82.984	0.090	-0.029
-505.726	-200.000	0.005	-0.171
-504.712	26.005	0.312	-0.257
-503.697	-0.534	0.181	0.127
-502.683	300.792	0.057	-0.104
-501.668	487.622	-0.171	-0.386
-500.653	166.623	-0.183	-0.256
-499.639	22.669	0.108	-0.087
-498.624	304.523	-0.127	0.233
-497.610	45.576	0.135	0.123
-496.595	38.144	-0.067	-0.059
-495.581	-99.440	-0.117	0.029
-494.566	-22.385	-0.141	0.084
-493.551	-34.978	0.297	0.160
-492.537	-200.000	-0.045	-0.257
-491.522	800.000	0.098	-0.288
-490.508	119.746	-0.143	0.175
-489.493	-3.286	0.246	0.169
-488.478	33.143	0.127	0.108
-487.464	800.000	0.054	-0.177
-486.449	-104.752	-0.173	0.039
-485.435	-200.000	-0.027	-0.254
-484.420	-158.634	0.214	-0.012
-483.405	-61.708	0.201	-0.083
-482.391	-200.000	-0.021	-0.136
-481.376	-175.794	0.064	-0.002
-480.362	-200.000	-0.034	0.163
-479.347	-41.440	0.167	-0.085
-478.332	-200.000	-0.012	0.058
-477.318	28.430	0.059	0.049
-476.303	-36.857	-0.460	0.244
-475.289	19.314	-0.142	-0.113
-474.274	62.556	-0.123	-0.122
-473.259	800.000	0.017	-0.069
-472.245	17.013	0.225	-0.176
-471.230	-200.000	0.025	-0.156
-470.216	-33.018	0.121	-0.066
-469.201	-58.982	0.128	0.055
-468.186	166.655	-0.110	0.154
-467.172	-103.640	0.035	-0.008
-466.157	102.252	0.095	-0.110
-465.143	-200.000	-0.059	-0.294
-464.128	51.487	-0.087	0.081
-463.113	65.277	0.548	-0.547
-462.099	46.311	-0.138	-0.126
-461.084	129.320	0.092	0.116
-460.070	61.846	-0.331	-0.325
-459.055	-200.000	0.010	0.169
-458.040	34.680	0.283	-0.244
-457.026	734.284	-0.107	-0.282
-456.011	-32.879	-0.190	0.104
-454.997	-112.043	-0.056	0.011
-453.982	40.778	-0.152	0.135
-452.968	-34.655	0.041	-0.022
-451.953	223.729	0.056	0.089
-450.938	153.644	0.088	-0.119
-449.924	-200.000	0.025	-0.281
-448.909	96.318	0.200	0.225
-447.895	22.262	-0.244	-0.196
-446.880	-200.000	0.022	0.210
-445.865	-200.000	-0.040	-0.286
-444.851	113.228	-0.187	0.223
-443.836	-76.756	-0.241	0.083
-442.822	-54.020	0.120	-0.054
-441.807	320.568	0.027	-0.050
-440.792	46.982	0.194	-0.178
-439.778	-200.000	-0.018	-0.157
-438.763	271.963	-0.052	0.090
-437.749	-29.450	0.148	-0.084
-436.734	143.635	0.125	0.164
-435.719	4.354	-0.072	-0.052
-434.705	415.351	-0.041	0.087
-433.690	800.000	0.007	-0.023
-432.676	41.430	0.344	0.306
-431.661	-200.000	0.012	0.195
-430.646	-126.065	-0.325	-0.048
-429.632	800.000	-0.056	0.203
-428.617	-148.954	0.143	-0.011
-427.603	-200.000	0.047	-0.238
-426.588	800.000	0.053	-0.195
-425.573	-68.356	-0.204	0.078
-424.559	53.315	0.288	-0.272
-423.544	800.000	-0.031	-0.118
-422.530	-105.374	-0.174	-0.039
-421.515	-29.233	-0.320	0.180
-420.500	155.748	0.140	0.189
-419.486	-82.413	-0.274	0.088
-418.471	800.000	-0.094	-0.272
-417.457	551.260	-0.070	0.165
-416.442	-200.000	-0.020	0.366
-415.428	-200.000	-0.019	-0.176
-414.413	87.706	0.098	0.107
-413.398	-102.818	-0.082	0.019
-412.384	-85.817	-0.227	0.069
-411.369	44.642	0.090	-0.082
-410.355	47.219	-0.404	-0.370
-409.340	276.153	-0.050	0.088
-408.325	237.241	-0.151	0.246
-407.311	-20.429	0.176	0.107
-406.296	-90.333	0.120	0.034
-405.282	-99.648	-0.127	-0.031
-404.267	-61.666	-0.262	0.108
-403.252	-177.959	-0.158	-0.004
-402.238	-146.080	-0.019	-0.002
-401.223	-121.849	-0.067	0.011
-400.209	-200.000	-0.013	-0.055
-399.194	127.443	0.080	-0.100
-398.179	800.000	-0.079	-0.296
-397.165	-81.942	-0.219	-0.070
-396.150	107.034	0.032	-0.037
-395.136	-153.025	-0.068	0.005
-394.121	200.477	0.126	0.190
-393.106	-170.071	-0.293	-0.010
-392.092	-59.787	-0.130	-0.055
-391.077	-200.000	-0.049	0.224
-390.063	102.593	0.223	-0.256
-389.048	800.000	0.050	-0.207
-388.033	645.109	0.171	-0.429
-387.019	-75.965	0.160	0.056
-386.004	-37.567	-0.265	0.139
-384.990	800.000	-0.078	-0.245
-383.975	-23.169	-0.190	-0.112
-382.960	-49.006	0.289	0.136
-381.946	800.000	-0.034	-0.130
-380.931	778.166	-0.023	0.062
-379.917	800.000	-0.089	0.242
-378.902	-160.927	0.206	-0.011
-377.888	159.885	-0.127	0.174
-376.873	-170.284	0.056	0.002
-375.858	36.587	-0.181	0.157
-374.844	206.726	-0.083	-0.127
-373.829	-200.000	0.041	0.187
-372.815	-146.371	0.181	-0.016
-371.800	-68.662	-0.211	-0.080
-370.785	-44.796	0.329	0.161
-369.771	478.119	-0.053	0.117
-368.756	-200.000	0.005	-0.066
-367.742	82.251	-0.126	0.134
-366.727	-200.000	-0.001	0.102
-365.712	64.262	-0.210	-0.207
-364.698	-48.222	0.029	-0.014
-363.683	-77.971	-0.233	0.079
-362.669	222.317	0.153	-0.242
-361.654	-200.000	0.039	0.282
-360.639	-6.109	0.264	0.177
-359.625	800.000	0.098	0.337
-358.610	219.691	-0.206	-0.324
-357.596	-88.959	-0.157	0.046
-356.581	-2.631	0.124	0.085
-355.566	455.617	-0.067	0.147
-354.552	155.468	-0.090	-0.122
-353.537	-200.000	-0.045	0.262
-352.523	-34.158	0.133	-0.072
-351.508	41.208	0.208	0.185
-350.493	-76.894	0.025	-0.008
-349.479	-23.629	-0.118	0.069
-348.464	-170.958	0.213	0.007
-347.450	117.166	-0.167	0.202
-346.435	234.611	0.164	0.266
-345.420	368.790	0.017	-0.033
-344.406	186.643	-0.028	-0.041
-343.391	-200.000	0.028	-0.393
-342.377	800.000	0.065	-0.234
-341.362	-89.677	-0.094	-0.027
-340.348	-61.675	0.298	0.122
-339.333	-68.364	0.229	0.087
-338.318	-200.000	0.000	-0.009
-337.304	-84.874	0.190	-0.059
-336.289	800.000	0.105	0.328
-335.275	102.159	-0.191	0.219
-334.260	-72.791	0.159	0.058
-333.245	139.389	0.160	0.207
-332.231	419.663	-0.085	0.178
-331.216	-12.512	0.066	0.042
-330.202	576.178	-0.075	0.179
-329.187	-51.811	0.258	0.118
-328.172	-200.000	0.045	0.218
-327.158	-59.626	-0.101	0.042
-326.143	-166.832	-0.257	0.010
-325.129	800.000	-0.068	0.199
-324.114	173.127	-0.137	0.193
-323.099	185.934	0.212	-0.309
-322.085	64.508	-0.265	-0.262
-321.070	-200.000	0.002	0.261
-320.056	109.820	0.197	0.232
-319.041	-200.000	-0.024	-0.197
-318.026	-149.570	0.165	-0.013
-317.012	127.805	0.141	-0.175
-315.997	-144.079	-0.106	0.010
-314.983	800.000	0.172	-0.504
-313.968	800.000	0.073	0.271
-312.953	-200.000	-0.039	-0.269
-311.939	800.000	0.030	0.095
-310.924	-200.000	0.052	0.391
-309.910	-200.000	-0.005	-0.080
-308.895	-200.000	-0.012	0.101
-307.880	800.000	-0.040	0.121
-306.866	-200.000	-0.021	-0.132
-305.851	7.075	-0.119	-0.087
-304.837	-95.771	0.162	0.043
-303.822	-200.000	-0.030	-0.180
-302.807	117.459	-0.192	0.231
-301.793	-200.000	-0.005	-0.072
-300.778	510.412	0.100	0.228
-299.764	371.219	0.075	0.149
-298.749	99.776	0.286	0.324
-297.735	-83.416	-0.166	0.052
-296.720	455.949	-0.120	-0.261
-295.705	-200.000	-0.007	-0.093
-294.691	-0.527	-0.043	0.030
-293.676	221.319	0.125	0.196
-292.662	-8.345	-0.159	0.105
-291.647	-28.181	-0.200	-0.113
-290.632	-100.349	-0.327	-0.080
-289.618	289.330	-0.074	0.131
-288.603	-200.000	-0.024	-0.168
-287.589	0.368	0.230	0.161
-286.574	373.326	0.046	-0.092
-285.559	-156.304	0.200	-0.012
-284.545	139.543	0.243	-0.313
-283.530	67.163	0.260	-0.259
-282.516	-85.345	-0.101	0.031
-281.501	-113.625	-0.276	-0.053
-280.486	-65.254	-0.186	0.073
-279.472	-115.043	-0.321	0.060
-278.457	-118.569	0.153	0.026
-277.443	-200.000	0.006	-0.048
-276.428	-159.056	-0.552	-0.031
-275.413	-195.564	0.518	-0.004
-274.399	-44.617	0.056	-0.027
-273.384	-99.453	-0.297	0.073
-272.370	-194.776	0.207	0.002
-271.355	61.911	-0.149	0.145
-270.340	-47.191	0.070	0.033
-269.326	-65.208	-0.097	-0.038
-268.311	-29.910	0.200	0.112
-267.297	-142.628	0.088	0.008
-266.282	-6.040	0.149	0.100
-265.267	77.214	-0.015	0.016
-264.253	-45.348	0.370	0.180
-263.238	163.711	-0.071	0.098
-262.224	-200.000	-0.030	-0.145
-261.209	-200.000	0.009	0.098
-260.195	-200.000	-0.050	0.431
-259.180	19.706	0.011	-0.008
-258.165	-200.000	-0.060	-0.425
-257.151	-46.996	-0.063	0.030
-256.136	30.344	0.186	-0.156
-255.122	27.127	-0.089	0.073
-254.107	-200.000	-0.071	-0.419
-253.092	-76.562	0.108	0.037
-252.078	46.809	-0.345	-0.314
-251.063	7.716	0.215	-0.158
-250.049	19.001	-0.129	0.101
-249.034	800.000	-0.078	0.255
-248.019	121.406	0.194	0.236
-247.005	91.519	0.171	-0.188
-245.990	67.555	0.249	-0.249
-244.976	102.339	-0.301	-0.344
-243.961	-23.392	0.246	-0.144
-242.946	-200.000	-0.030	0.249
-241.932	358.342	0.128	0.250
-240.917	-94.360	-0.145	-0.039
-239.903	-32.527	0.122	0.066
-238.888	21.875	-0.295	0.235
-237.873	-93.422	0.272	-0.074
-236.859	-200.000	0.025	-0.407
-235.844	102.897	-0.196	0.224
-234.830	1.452	0.285	0.200
-233.815	800.000	-0.056	-0.176
-232.800	-55.224	0.250	0.110
-231.786	-29.856	-0.162	0.090
-230.771	800.000	-0.018	0.049
-229.757	-67.064	0.156	0.060
-228.742	176.833	0.169	-0.240
-227.727	-200.000	-0.055	0.356
-226.713	440.189	0.104	0.222
-225.698	-55.670	0.073	-0.032
-224.684	53.529	0.144	-0.135
-223.669	-200.000	-0.046	-0.390
-222.655	645.402	0.101	-0.252
-221.640	215.246	-0.150	-0.232
-220.625	-31.212	-0.252	-0.139
-219.611	-114.396	0.255	-0.048
-218.596	486.929	0.058	-0.130
-217.582	97.813	-0.245	-0.275
-216.567	134.162	-0.115	-0.145
-215.552	699.887	-0.014	0.037
-214.538	236.145	0.049	-0.080
-213.523	186.811	0.078	0.114
-212.509	-50.699	-0.103	0.047
-211.494	-52.169	-0.075	0.034
-210.479	-30.277	0.095	0.053
-209.465	-200.000	-0.016	-0.153
-208.450	-57.521	0.485	0.208
-207.436	144.396	0.111	0.144
-206.421	-70.941	-0.134	-0.049
-205.406	-39.245	0.280	-0.143
-204.392	90.039	0.132	-0.144
-203.377	127.666	-0.121	-0.150
-202.363	-89.150	0.104	-0.030
-201.348	11.933	-0.136	-0.102
-200.333	82.135	0.102	-0.108
-199.319	233.214	-0.198	-0.318
-198.304	135.386	0.167	-0.212
-197.290	100.444	-0.024	-0.027
-196.275	-134.782	-0.141	0.017
-195.260	-200.000	0.057	0.306
-194.246	-67.967	0.028	-0.011
-193.231	-200.000	-0.036	-0.310
-192.217	800.000	-0.017	0.074
-191.202	50.881	-0.270	-0.249
-190.187	171.752	0.123	-0.173
-189.173	-16.303	-0.243	0.150
-188.158	-47.918	0.362	-0.171
-187.144	229.961	-0.109	-0.174
-186.129	27.471	0.219	-0.179
-185.114	-108.073	0.230	0.049
-184.100	800.000	-0.028	-0.105
-183.085	-200.000	0.024	0.301
-182.071	-200.000	0.009	-0.232
-181.056	508.683	0.099	0.224
-180.042	88.174	0.175	-0.189
-179.027	800.000	-0.050	-0.206
-178.012	548.030	-0.132	0.307
-176.998	-125.379	-0.212	0.032
-175.983	-89.322	0.145	-0.042
-174.969	-200.000	0.026	-0.134
-173.954	409.069	0.034	0.070
-172.939	-54.179	0.043	-0.019
-171.925	-32.587	0.198	0.108
-170.910	229.392	-0.115	-0.183
-169.896	-106.536	-0.267	-0.058
-168.881	-22.179	0.090	-0.053
-167.866	800.000	0.050	0.150
-166.852	178.916	-0.163	-0.232
-165.837	-118.843	-0.128	-0.022
-164.823	-200.000	-0.199	-0.000
-163.808	77.111	0.166	0.172
-162.793	800.000	0.022	-0.092
-161.779	-21.346	0.140	-0.083
-160.764	-200.000	0.030	-0.276
-159.750	482.244	-0.111	0.245
-158.735	-140.434	0.042	0.004
-157.720	-200.000	0.030	-0.227
-156.706	-152.019	-0.150	0.011
-155.691	245.802	0.020	-0.033
-154.677	800.000	-0.074	0.274
-153.662	-200.000	-0.037	-0.353
-152.647	-103.874	-0.047	-0.011
-151.633	-200.000	0.044	0.273
-150.618	-32.392	-0.163	0.088
-149.604	46.617	-0.133	-0.120
-148.589	800.000	0.154	-0.581
-147.574	-22.216	0.074	-0.044
-146.560	-49.261	-0.212	0.099
-145.545	449.061	0.079	0.169
-144.531	244.445	-0.230	0.376
-143.516	-79.223	0.305	-0.101
-142.502	594.251	0.117	0.281
-141.487	800.000	0.031	0.088
-140.472	-200.000	0.047	-0.334
-139.458	280.763	0.303	-0.528
-138.443	88.143	-0.283	-0.306
-137.429	-181.462	0.265	-0.005
-136.414	543.616	0.110	-0.255
-135.399	169.008	-0.207	-0.288
-134.385	800.000	-0.041	-0.138
-133.370	-200.000	0.038	-0.197
-132.356	-200.000	0.053	0.388
-131.341	-110.605	-0.132	-0.027
-130.326	-84.805	-0.166	-0.051
-129.312	-109.682	0.241	0.049
-128.297	731.661	-0.076	-0.198
-127.283	115.644	-0.024	0.029
-126.268	-68.605	0.126	-0.048
-125.253	615.780	-0.052	-0.127
-124.239	204.582	0.196	-0.296
-123.224	160.692	-0.177	0.240
-122.210	17.698	-0.327	-0.253
-121.195	-200.000	0.020	-0.311
