DTS Sentinel unit serial number:	SN413079Multiplexer serial number:	ORYXHardware model number:	OX4-SRSoftware version number:	ORYX F/W v4.00 Oryx Data Collector v3.7.2.0data status	okinstallation	princeton_trtdifferential loss correction	single-endedforward channel	channel 2reverse channel	N/Adate	2019/09/16time	01:03:35forward acquisition time	60.00reverse acquisition time	0.00gamma	496.2192k internal	0.2337k external	0.2337temperature offset calibration	0.9963default loss term (dB/km)	0.3790temperature slope calibration	1.0000multiplexer offset coefficient	1.0000multiplexer slope coefficient	1.0000fibre end	0.00T internal ref (°C)	27.31T ext. ref 1 (°C)	9.74T ext. ref 2 (°C)	21.49length (m)	temperature (°C)	Stokes	anti-Stokes-747.200	-200.000	0.005	0.352
-746.185	111.373	-0.186	-0.225
-745.171	800.000	0.049	0.173
-744.156	-200.000	-0.010	0.122
-743.142	205.938	0.070	-0.109
-742.127	228.110	-0.096	0.158
-741.112	-200.000	0.006	0.268
-740.098	-128.158	0.078	0.011
-739.083	102.073	0.142	-0.166
-738.069	-150.702	-0.223	0.017
-737.054	-164.175	-0.071	-0.003
-736.039	6.425	-0.126	0.094
-735.025	97.632	-0.202	0.233
-734.010	192.675	0.062	0.094
-732.996	17.951	-0.078	-0.062
-731.981	-42.239	-0.181	0.093
-730.966	71.987	-0.193	-0.201
-729.952	9.621	-0.102	0.077
-728.937	71.040	0.087	-0.090
-727.923	791.489	-0.055	-0.152
-726.908	-200.000	0.028	-0.210
-725.894	-67.670	-0.138	0.054
-724.879	-101.303	0.225	-0.055
-723.864	43.836	0.180	-0.165
-722.850	707.740	0.058	-0.154
-721.835	-126.393	-0.091	0.014
-720.821	55.595	-0.048	0.047
-719.806	-160.729	0.041	-0.002
-718.791	88.362	-0.173	0.193
-717.777	424.257	-0.109	0.235
-716.762	181.820	0.173	-0.255
-715.748	38.798	-0.146	0.131
-714.733	800.000	0.101	0.331
-713.718	72.056	-0.155	0.162
-712.704	-47.593	0.345	-0.168
-711.689	-91.966	0.310	0.088
-710.675	39.894	0.175	-0.157
-709.660	-150.839	0.296	-0.023
-708.645	392.357	-0.048	-0.100
-707.631	800.000	0.176	-0.551
-706.616	800.000	0.054	-0.154
-705.602	312.216	-0.125	-0.236
-704.587	-200.000	0.023	-0.280
-703.572	800.000	-0.040	0.164
-702.558	-200.000	-0.059	0.286
-701.543	499.217	-0.052	-0.120
-700.529	-67.256	-0.222	-0.087
-699.514	-200.000	0.012	0.272
-698.499	-129.454	-0.218	0.030
-697.485	800.000	-0.022	0.097
-696.470	-200.000	0.053	-0.295
-695.456	800.000	0.037	-0.145
-694.441	343.226	0.158	0.311
-693.426	-143.119	-0.177	0.017
-692.412	-66.338	0.171	-0.068
-691.397	800.000	0.050	-0.141
-690.383	-97.164	-0.156	0.041
-689.368	-137.181	-0.233	0.027
-688.354	-138.791	0.382	-0.042
-687.339	155.319	0.207	-0.285
-686.324	-6.021	-0.110	-0.075
-685.310	29.885	0.174	0.149
-684.295	-200.000	-0.002	-0.114
-683.281	-200.000	-0.015	-0.245
-682.266	-200.000	0.084	-0.464
-681.251	-133.146	-0.059	0.007
-680.237	-37.344	0.126	-0.068
-679.222	41.027	0.146	-0.132
-678.208	-98.551	-0.171	-0.044
-677.193	60.465	-0.435	-0.431
-676.178	-121.501	-0.178	0.030
-675.164	101.111	0.053	0.061
-674.149	-157.677	-0.204	-0.012
-673.135	464.992	0.077	-0.172
-672.120	-34.175	0.169	-0.093
-671.105	-95.000	0.315	0.085
-670.091	115.368	0.067	0.082
-669.076	-65.968	0.095	-0.038
-668.062	345.406	0.096	0.189
-667.047	146.162	-0.214	0.288
-666.032	252.251	-0.091	-0.155
-665.018	557.166	-0.009	0.021
-664.003	800.000	-0.030	0.128
-662.989	45.399	0.130	0.120
-661.974	800.000	-0.098	0.331
-660.959	329.359	0.068	0.131
-659.945	67.798	0.158	-0.162
-658.930	-2.184	0.066	-0.046
-657.916	24.875	-0.217	-0.180
-656.901	-184.561	-0.264	-0.004
-655.886	62.836	0.213	-0.213
-654.872	326.165	0.164	-0.315
-653.857	675.238	-0.102	-0.265
-652.843	93.903	-0.237	-0.269
-651.828	-40.795	0.255	-0.132
-650.814	156.850	-0.085	-0.117
-649.799	-200.000	-0.036	-0.235
-648.784	279.791	0.077	0.137
-647.770	-19.080	0.165	0.102
-646.755	-200.000	0.003	-0.102
-645.741	-169.029	-0.354	-0.013
-644.726	800.000	-0.076	0.215
-643.711	-0.675	0.138	-0.098
-642.697	40.925	0.148	-0.134
-641.682	-178.942	-0.307	0.007
-640.668	-200.000	0.009	0.119
-639.653	565.248	0.073	0.176
-638.638	-111.395	-0.241	-0.049
-637.624	357.185	-0.143	0.284
-636.609	-68.172	-0.222	0.086
-635.595	-30.511	-0.070	-0.040
-634.580	800.000	-0.048	-0.200
-633.565	-86.420	-0.014	0.004
-632.551	134.136	-0.163	-0.211
-631.536	-145.414	0.267	-0.024
-630.522	-151.848	-0.241	0.018
-629.507	173.584	0.121	0.175
-628.492	800.000	-0.078	0.306
-627.478	-103.230	0.082	0.019
-626.463	800.000	0.094	0.277
-625.449	-113.632	-0.322	0.063
-624.434	208.642	0.177	-0.276
-623.419	-86.405	-0.201	-0.062
-622.405	-192.916	0.314	0.003
-621.390	40.430	-0.197	0.177
-620.376	-200.000	-0.012	-0.183
-619.361	14.628	-0.441	-0.344
-618.346	800.000	0.052	-0.166
-617.332	149.134	-0.066	0.089
-616.317	-38.111	0.029	0.015
-615.303	-100.176	0.361	-0.090
-614.288	-200.000	0.002	-0.340
-613.273	-100.885	-0.465	-0.114
-612.259	-99.212	-0.263	-0.066
-611.244	6.792	0.364	-0.271
-610.230	-200.000	-0.065	-0.362
-609.215	-12.636	0.235	-0.153
-608.201	-200.000	0.003	-0.179
-607.186	228.873	0.027	-0.044
-606.171	-52.652	0.074	0.034
-605.157	-200.000	-0.055	0.402
-604.142	72.922	-0.255	0.266
-603.128	800.000	0.073	-0.255
-602.113	800.000	0.062	0.265
-601.098	-161.713	-0.058	0.003
-600.084	800.000	-0.054	-0.230
-599.069	-137.939	-0.171	0.019
-598.055	42.513	0.325	-0.295
-597.040	-13.222	-0.162	0.105
-596.025	159.270	0.263	-0.366
-595.011	23.450	0.446	-0.366
-593.996	-34.240	-0.245	-0.134
-592.982	-200.000	0.010	0.058
-591.967	-200.000	-0.040	0.299
-590.952	800.000	0.059	0.163
-589.938	128.377	-0.063	0.081
-588.923	21.587	-0.172	0.140
-587.909	409.888	-0.102	0.215
-586.894	-1.365	0.139	-0.098
-585.879	-140.518	-0.097	-0.010
-584.865	-81.717	-0.279	-0.091
-583.850	-200.000	-0.014	-0.114
-582.836	-129.874	-0.245	-0.034
-581.821	-55.091	0.258	0.116
-580.806	800.000	-0.020	0.063
-579.792	-123.639	0.205	0.032
-578.777	-56.657	0.222	-0.098
-577.763	800.000	-0.069	0.258
-576.748	-126.691	-0.223	0.033
-575.733	532.137	-0.096	-0.228
-574.719	-102.679	0.188	0.045
-573.704	-129.414	-0.589	-0.082
-572.690	-88.431	-0.114	0.034
-571.675	448.094	-0.157	0.345
-570.661	-200.000	0.135	0.000
-569.646	-200.000	0.028	-0.156
-568.631	23.787	-0.114	-0.094
-567.617	-114.936	-0.159	0.030
-566.602	-72.947	-0.211	-0.077
-565.588	86.877	-0.064	-0.070
-564.573	258.400	0.292	0.501
-563.558	-200.000	-0.001	-0.084
-562.544	-137.894	0.381	-0.042
-561.529	145.997	-0.096	-0.129
-560.515	-127.995	0.248	-0.035
-559.500	-77.439	0.113	0.039
-558.485	800.000	0.070	-0.225
-557.471	-200.000	-0.030	-0.233
-556.456	-200.000	-0.040	-0.277
-555.442	394.484	-0.124	-0.258
-554.427	61.383	-0.255	0.253
-553.412	-200.000	-0.024	-0.196
-552.398	308.432	-0.094	-0.175
-551.383	-200.000	-0.096	-0.511
-550.369	-200.000	-0.068	0.448
-549.354	-101.271	0.044	-0.011
-548.339	800.000	-0.050	0.146
-547.325	-200.000	-0.028	0.232
-546.310	-146.820	-0.095	0.008
-545.296	-200.000	-0.022	0.202
-544.281	38.092	-0.060	-0.053
-543.266	29.439	-0.107	0.090
-542.252	186.521	0.120	0.178
-541.237	-18.104	0.148	-0.093
-540.223	-12.250	-0.199	-0.130
-539.208	236.730	0.080	0.132
-538.193	-32.445	0.332	0.185
-537.179	-29.375	-0.319	0.182
-536.164	-53.140	0.065	0.030
-535.150	-129.502	-0.028	0.004
-534.135	-64.754	0.100	-0.040
-533.121	73.788	-0.171	-0.179
-532.106	-20.158	-0.430	-0.264
-531.091	-144.178	0.201	0.019
-530.077	-200.000	-0.019	-0.222
-529.062	72.982	0.229	0.238
-528.048	-139.010	0.217	-0.023
-527.033	-160.009	0.289	-0.016
-526.018	-200.000	-0.045	-0.332
-525.004	-200.000	0.029	-0.203
-523.989	-143.415	0.257	-0.024
-522.975	73.397	0.283	-0.295
-521.960	-6.204	-0.197	0.134
-520.945	99.874	0.066	0.076
-519.931	120.132	-0.141	-0.174
-518.916	-77.256	-0.157	0.054
-517.902	-200.000	-0.024	-0.252
-516.887	-106.309	-0.094	-0.021
-515.872	-200.000	-0.098	-0.468
-514.858	-200.000	0.002	0.173
-513.843	-200.000	0.025	0.235
-512.829	330.433	-0.137	0.262
-511.814	-200.000	0.030	0.248
-510.799	-28.807	0.287	0.164
-509.785	-57.269	-0.165	-0.072
-508.770	-104.113	0.156	-0.036
-507.756	-118.739	-0.283	-0.050
-506.741	26.281	0.017	0.014
-505.726	47.438	0.134	0.124
-504.712	101.810	-0.314	0.364
-503.697	244.677	0.271	-0.453
-502.683	-59.400	0.238	0.102
-501.668	-15.448	0.272	0.173
-500.653	71.667	-0.115	0.118
-499.639	-139.040	0.220	0.024
-498.624	800.000	-0.088	0.336
-497.610	-75.083	0.291	0.103
-496.595	201.272	-0.213	0.326
-495.581	651.574	-0.114	-0.289
-494.566	-112.557	0.328	0.065
-493.551	-190.911	0.040	0.000
-492.537	-200.000	0.071	-0.329
-491.522	-200.000	0.002	-0.096
-490.508	41.562	-0.217	-0.196
-489.493	800.000	-0.118	-0.475
-488.478	-77.561	0.263	-0.091
-487.464	430.935	0.025	0.055
-486.449	-200.000	-0.004	0.184
-485.435	279.292	0.138	-0.246
-484.420	-84.916	-0.359	-0.112
-483.405	-200.000	0.008	0.221
-482.391	-36.226	-0.096	0.051
-481.376	-0.392	0.184	0.130
-480.362	33.287	0.318	-0.274
-479.347	313.131	-0.076	0.143
-478.332	-200.000	0.038	-0.370
-477.318	-72.045	-0.021	-0.008
-476.303	-12.139	0.116	-0.075
-475.289	-200.000	-0.001	-0.071
-474.274	-28.959	0.059	-0.034
-473.259	390.500	-0.081	-0.167
-472.245	-200.000	0.012	0.132
-471.230	519.828	-0.111	0.259
-470.216	255.773	0.199	-0.339
-469.201	-200.000	-0.022	-0.213
-468.186	-18.441	-0.272	-0.168
-467.172	-159.732	0.214	-0.012
-466.157	56.756	-0.006	0.006
-465.143	-200.000	-0.023	0.294
-464.128	-200.000	0.010	-0.280
-463.113	217.609	-0.071	0.113
-462.099	-26.110	0.397	0.232
-461.084	-66.581	-0.267	-0.105
-460.070	-162.098	-0.054	0.003
-459.055	-130.803	-0.218	0.029
-458.040	-77.455	-0.191	-0.066
-457.026	61.721	-0.155	0.153
-456.011	278.000	0.021	-0.037
-454.997	-200.000	0.010	0.145
-453.982	189.225	0.137	0.204
-452.968	-200.000	0.026	-0.136
-451.953	-27.218	-0.100	0.058
-450.938	-37.819	-0.312	0.165
-449.924	800.000	0.054	0.163
-448.909	92.514	0.321	0.359
-447.895	-114.711	0.158	0.030
-446.880	-81.079	-0.260	0.085
-445.865	-130.401	0.205	-0.028
-444.851	-200.000	-0.004	-0.151
-443.836	-70.768	-0.078	0.029
-442.822	-200.000	-0.001	0.082
-441.807	-92.913	0.233	0.065
-440.792	91.410	-0.168	0.188
-439.778	-101.802	0.067	0.016
-438.763	-78.602	0.345	0.117
-437.749	118.183	-0.030	-0.037
-436.734	-49.158	-0.149	-0.070
-435.719	46.411	-0.047	-0.044
-434.705	-200.000	0.001	0.015
-433.690	545.188	0.077	-0.181
-432.676	-126.770	0.081	0.012
-431.661	-16.916	0.079	-0.050
-430.646	199.520	-0.155	-0.235
-429.632	24.697	-0.175	-0.143
-428.617	37.667	-0.142	-0.125
-427.603	556.561	0.041	-0.098
-426.588	53.148	0.229	0.217
-425.573	-134.751	0.181	-0.022
-424.559	93.020	0.258	0.289
-423.544	800.000	0.014	-0.059
-422.530	800.000	0.062	-0.171
-421.515	35.844	-0.183	-0.160
-420.500	-160.504	0.048	-0.003
-419.486	57.993	0.067	0.065
-418.471	36.549	-0.184	0.161
-417.457	-121.040	0.458	-0.076
-416.442	546.032	-0.155	-0.366
-415.428	-200.000	-0.001	-0.019
-414.413	-200.000	0.023	0.209
-413.398	-92.343	-0.055	0.015
-412.384	2.443	0.161	-0.115
-411.369	408.907	0.122	-0.255
-410.355	179.217	-0.122	-0.176
-409.340	-200.000	0.023	0.130
-408.325	-101.373	0.152	0.037
-407.311	800.000	-0.040	0.143
-406.296	24.532	0.187	0.153
-405.282	-200.000	0.003	0.025
-404.267	-0.236	-0.038	0.027
-403.252	-6.542	-0.222	-0.150
-402.238	339.942	-0.133	-0.256
-401.223	106.650	0.103	-0.121
-400.209	-36.426	0.188	0.100
-399.194	-200.000	-0.001	-0.179
-398.179	360.851	0.110	0.218
-397.165	55.255	-0.410	0.393
-396.150	-4.019	-0.090	0.062
-395.136	-200.000	0.042	-0.280
-394.121	450.307	0.042	-0.092
-393.106	-42.707	0.187	-0.094
-392.092	800.000	-0.012	0.040
-391.077	305.318	0.057	-0.106
-390.063	16.677	0.029	0.023
-389.048	33.937	0.163	0.140
-388.033	-58.274	-0.084	-0.036
-387.019	87.067	-0.107	0.117
-386.004	-123.605	0.281	0.044
-384.990	227.621	0.070	0.113
-383.975	-89.713	-0.165	-0.048
-382.960	-157.416	-0.084	-0.005
-381.946	261.792	0.020	0.035
-380.931	14.237	-0.142	-0.110
-379.917	-200.000	0.002	0.036
-378.902	148.821	-0.127	0.170
-377.888	182.785	0.255	0.373
-376.873	-61.776	-0.515	0.214
-375.858	-142.951	-0.272	-0.026
-374.844	180.692	-0.149	-0.216
-373.829	-151.465	0.139	0.010
-372.815	219.657	-0.182	-0.288
-371.800	-72.366	0.136	0.050
-370.785	-85.936	-0.069	-0.021
-369.771	157.782	0.191	-0.261
-368.756	571.394	-0.076	0.182
-367.742	-177.923	-0.252	-0.006
-366.727	-115.581	-0.308	0.057
-365.712	180.614	0.165	-0.240
-364.698	-81.125	0.196	0.064
-363.683	-93.141	-0.436	0.120
-362.669	800.000	-0.063	-0.177
-361.654	-19.471	-0.237	0.145
-360.639	29.960	-0.248	0.209
-359.625	-30.263	0.094	-0.053
-358.610	92.910	-0.139	0.155
-357.596	288.484	-0.037	0.066
-356.581	-136.512	-0.121	-0.014
-355.566	71.378	-0.135	0.138
-354.552	33.951	-0.023	-0.020
-353.537	-40.257	0.193	-0.099
-352.523	131.547	-0.088	0.112
-351.508	471.386	0.135	0.300
-350.493	-48.606	0.392	0.186
-349.479	-23.649	0.263	0.156
-348.464	164.963	0.134	-0.187
-347.450	131.939	-0.107	-0.137
-346.435	-76.049	0.090	0.031
-345.420	-151.223	0.145	-0.011
-344.406	56.304	0.281	0.270
-343.391	-4.119	0.349	0.239
-342.377	717.267	-0.080	0.209
-341.362	-95.324	0.171	-0.045
-340.348	238.681	-0.058	-0.095
-339.333	-134.887	-0.163	0.020
-338.318	88.524	-0.057	0.063
-337.304	273.880	-0.103	-0.180
-336.289	-200.000	-0.023	0.259
-335.275	-84.098	0.101	-0.032
-334.260	-1.091	0.254	-0.177
-333.245	800.000	-0.024	0.083
-332.231	132.586	-0.127	0.162
-331.216	-144.183	-0.182	-0.017
-330.202	-95.430	-0.049	-0.013
-329.187	-47.884	0.175	-0.084
-328.172	-200.000	-0.058	-0.304
-327.158	-200.000	-0.055	-0.354
-326.143	800.000	-0.082	-0.239
-325.129	-16.580	-0.042	0.026
-324.114	121.615	0.255	-0.314
-323.099	352.718	0.109	0.214
-322.085	-22.324	0.209	0.125
-321.070	-200.000	0.005	0.110
-320.056	265.641	0.051	-0.087
-319.041	68.070	-0.110	0.111
-318.026	67.393	0.152	0.153
-317.012	27.224	-0.118	0.098
-315.997	319.740	-0.125	0.234
-314.983	800.000	0.059	0.225
-313.968	-84.961	-0.179	-0.055
-312.953	-78.185	-0.276	-0.094
-311.939	800.000	-0.108	0.314
-310.924	-151.970	0.256	-0.018
-309.910	800.000	0.068	-0.194
-308.895	4.796	-0.277	-0.201
-307.880	-58.707	0.070	0.030
-306.866	-102.668	0.153	-0.036
-305.851	-111.825	-0.303	0.060
-304.837	-200.000	-0.013	-0.321
-303.822	29.766	-0.132	-0.111
-302.807	6.780	0.020	0.015
-301.793	469.292	0.034	0.076
-300.778	-146.581	-0.211	0.018
-299.764	-130.472	-0.170	0.023
-298.749	-200.000	-0.020	0.116
-297.735	160.582	0.126	0.173
-296.720	-89.911	0.319	-0.092
-295.705	36.443	0.165	0.143
-294.691	-72.672	-0.346	-0.126
-293.676	-137.068	-0.499	0.056
-292.662	473.016	0.074	-0.165
-291.647	83.395	-0.200	-0.215
-290.632	6.669	0.223	-0.164
-289.618	329.585	-0.148	-0.281
-288.603	4.813	-0.176	-0.128
-287.589	-62.783	0.136	0.056
-286.574	-163.847	-0.091	-0.004
-285.559	204.411	0.215	-0.328
-284.545	-152.903	-0.385	-0.027
-283.530	-118.665	0.461	0.080
-282.516	66.724	0.106	-0.107
-281.501	305.902	-0.058	0.106
-280.486	-164.503	0.249	-0.011
-279.472	66.359	0.038	-0.038
-278.457	183.928	-0.119	-0.174
-277.443	-200.000	-0.029	-0.140
-276.428	-60.297	0.343	-0.144
-275.413	96.802	-0.024	0.027
-274.399	-144.698	-0.263	0.024
-273.384	-98.371	-0.517	-0.130
-272.370	-99.430	-0.310	-0.077
-271.355	446.807	0.088	0.190
-270.340	800.000	0.034	0.128
-269.326	-1.223	-0.390	-0.271
-268.311	-85.394	-0.364	-0.112
-267.297	39.754	-0.108	0.095
-266.282	-200.000	-0.037	-0.333
-265.267	335.516	-0.091	-0.174
-264.253	-200.000	0.033	0.205
-263.238	44.811	-0.054	0.049
-262.224	30.030	0.101	0.085
-261.209	800.000	-0.019	0.069
-260.195	-200.000	0.007	-0.079
-259.180	-19.540	0.394	0.240
-258.165	-121.078	-0.430	0.071
-257.151	235.944	-0.072	-0.117
-256.136	473.933	0.008	-0.018
-255.122	-113.804	-0.046	0.009
-254.107	175.597	-0.095	-0.135
-253.092	800.000	0.048	0.143
-252.078	24.984	-0.129	-0.105
-251.063	-200.000	-0.003	0.162
-250.049	-52.149	-0.432	-0.198
-249.034	-74.406	-0.131	-0.047
-248.019	800.000	0.050	0.150
-247.005	-90.795	0.248	0.070
-245.990	12.578	-0.204	0.155
-244.976	800.000	-0.082	-0.239
-243.961	-38.994	0.055	-0.028
-242.946	451.117	-0.030	-0.065
-241.932	116.796	-0.262	0.317
-240.917	48.967	0.020	0.019
-239.903	-123.383	-0.090	0.014
-238.888	21.017	0.055	0.044
-237.873	155.545	0.228	0.309
-236.859	-100.528	0.128	-0.031
-235.844	-7.928	0.293	0.195
-234.830	-200.000	-0.030	0.279
-233.815	-111.749	0.231	0.046
-232.800	-92.952	-0.240	0.066
-231.786	-200.000	0.004	-0.427
-230.771	215.027	0.119	-0.186
-229.757	-66.432	0.142	0.056
-228.742	189.601	-0.007	0.010
-227.727	-200.000	0.016	0.108
-226.713	-27.742	0.290	0.165
-225.698	-139.049	0.159	-0.017
-224.684	690.027	0.059	0.153
-223.669	182.336	0.008	0.011
-222.655	-200.000	0.011	0.156
-221.640	6.335	-0.105	-0.077
-220.625	171.162	-0.144	-0.203
-219.611	-73.008	0.443	-0.160
-218.596	304.545	-0.115	0.210
-217.582	-200.000	0.044	0.232
-216.567	-200.000	-0.030	0.133
-215.552	577.891	-0.061	-0.146
-214.538	-200.000	-0.225	0.001
-213.523	-123.229	0.087	-0.014
-212.509	-200.000	0.004	0.071
-211.494	140.237	-0.142	-0.185
-210.479	275.251	0.165	0.287
-209.465	-200.000	0.010	0.283
-208.450	25.956	0.111	0.091
-207.436	-127.319	0.187	-0.027
-206.421	-200.000	-0.033	0.156
-205.406	99.788	-0.115	-0.131
-204.392	-200.000	-0.008	-0.155
-203.377	-114.603	0.188	-0.035
-202.363	-156.993	0.167	-0.010
-201.348	-66.876	-0.131	-0.051
-200.333	-200.000	0.010	0.229
-199.319	295.000	0.056	-0.101
-198.304	5.868	-0.075	-0.054
-197.290	38.858	0.186	-0.163
-196.275	-192.505	0.326	0.003
-195.260	800.000	-0.062	0.170
-194.246	34.632	0.060	0.052
-193.231	731.645	-0.082	-0.216
-192.217	-88.242	-0.269	-0.079
-191.202	800.000	0.082	0.318
-190.187	-200.000	-0.045	-0.216
-189.173	-54.158	-0.191	-0.085
-188.158	212.218	-0.014	-0.022
-187.144	-200.000	0.000	0.101
-186.129	116.636	0.119	-0.143
-185.114	-152.604	0.260	-0.018
-184.100	-61.169	0.152	-0.063
-183.085	147.196	0.130	0.172
-182.071	-142.821	0.239	-0.023
-181.056	109.601	-0.170	0.200
-180.042	800.000	-0.110	0.305
-179.027	-200.000	0.023	0.240
-178.012	-23.189	0.173	-0.102
-176.998	800.000	0.045	-0.171
-175.983	-133.041	-0.022	0.003
-174.969	-23.843	0.147	-0.087
-173.954	30.710	0.221	0.186
-172.939	-110.528	0.418	0.085
-171.925	75.500	0.265	0.274
-170.910	-188.259	-0.188	0.002
-169.896	-200.000	0.023	-0.156
-168.881	-111.551	0.049	0.010
-167.866	-126.589	0.426	-0.062
-166.852	199.517	0.098	-0.147
-165.837	800.000	-0.030	-0.081
-164.823	-123.706	0.212	-0.033
-163.808	71.172	0.316	-0.322
-162.793	42.963	0.210	0.188
-161.779	124.893	0.129	0.159
-160.764	-200.000	-0.035	0.161
-159.750	-75.233	-0.169	-0.059
-158.735	-53.690	-0.258	0.115
-157.720	142.011	0.133	0.174
-156.706	92.995	0.061	0.068
-155.691	291.892	-0.098	0.174
-154.677	165.511	-0.097	0.135
-153.662	-28.757	-0.292	0.165
-152.647	-16.811	0.251	0.156
-151.633	307.889	0.062	0.113
-150.618	81.363	0.062	0.065
-149.604	-137.515	-0.060	0.007
-148.589	-86.483	-0.241	-0.073
-147.574	-26.554	-0.042	0.024
-146.560	-182.186	-0.219	-0.004
-145.545	-200.000	0.021	0.134
-144.531	333.891	-0.153	-0.290
-143.516	-193.937	0.306	-0.003
-142.502	224.761	-0.083	-0.132
-141.487	754.488	0.069	-0.182
-140.472	-200.000	0.014	-0.111
-139.458	136.898	0.239	-0.306
-138.443	139.850	-0.037	-0.047
-137.429	438.305	0.062	-0.133
-136.414	800.000	-0.111	0.378
-135.399	-2.769	-0.208	0.142
-134.385	-45.981	-0.230	-0.111
-133.370	-156.365	-0.027	0.002
-132.356	54.086	-0.125	0.118
-131.341	-79.618	-0.418	-0.138
-130.326	-90.835	-0.060	0.017
-129.312	-200.000	-0.009	0.093
-128.297	-200.000	0.074	-0.402
-127.283	-158.057	0.250	0.014
-126.268	-200.000	-0.022	-0.312
-125.253	30.634	-0.177	0.149
-124.239	-35.397	0.067	-0.036
-123.224	138.782	-0.234	0.302
-122.210	-46.290	0.233	-0.112
