DTS Sentinel unit serial number:	SN413079Multiplexer serial number:	ORYXHardware model number:	OX4-SRSoftware version number:	ORYX F/W v4.00 Oryx Data Collector v3.7.2.0data status	okinstallation	princeton_trtdifferential loss correction	single-endedforward channel	channel 2reverse channel	N/Adate	2019/09/18time	06:31:34forward acquisition time	60.00reverse acquisition time	0.00gamma	496.2192k internal	0.2349k external	0.2349temperature offset calibration	0.9985default loss term (dB/km)	0.3790temperature slope calibration	1.0000multiplexer offset coefficient	1.0000multiplexer slope coefficient	1.0000fibre end	0.00T internal ref (°C)	23.30T ext. ref 1 (°C)	0.19T ext. ref 2 (°C)	17.40length (m)	temperature (°C)	Stokes	anti-Stokes-747.200	-91.899	0.061	0.017
-746.185	-157.646	-0.142	-0.008
-745.171	99.573	0.326	0.377
-744.156	-200.000	-0.013	0.427
-743.142	49.596	-0.165	0.155
-742.127	112.180	-0.204	0.246
-741.112	25.596	-0.280	0.233
-740.098	-137.448	-0.233	-0.026
-739.083	328.817	-0.095	-0.183
-738.069	-200.000	-0.078	0.441
-737.054	61.031	0.186	0.184
-736.039	-55.971	0.202	0.090
-735.025	25.545	0.260	0.216
-734.010	-38.562	0.197	0.104
-732.996	9.767	-0.080	0.061
-731.981	800.000	-0.075	-0.282
-730.966	800.000	0.090	-0.361
-729.952	-87.054	-0.182	0.055
-728.937	-147.538	-0.269	-0.023
-727.923	-103.526	-0.093	0.022
-726.908	-200.000	-0.021	0.119
-725.894	193.176	0.087	-0.131
-724.879	-43.608	-0.210	-0.106
-723.864	7.490	0.080	-0.059
-722.850	670.473	-0.188	-0.486
-721.835	800.000	0.060	-0.196
-720.821	4.329	-0.265	-0.194
-719.806	-190.242	-0.394	-0.004
-718.791	-200.000	0.018	-0.118
-717.777	-62.436	0.208	-0.086
-716.762	28.479	-0.147	0.124
-715.748	331.284	-0.129	0.248
-714.733	206.912	0.227	0.353
-713.718	229.858	-0.184	0.300
-712.704	81.319	0.070	0.076
-711.689	-163.212	-0.201	0.010
-710.675	576.089	-0.220	-0.535
-709.660	263.676	0.083	-0.144
-708.645	-110.100	-0.190	-0.040
-707.631	-101.178	0.100	0.024
-706.616	429.208	-0.106	-0.229
-705.602	-38.380	-0.103	-0.054
-704.587	-200.000	0.009	0.153
-703.572	-12.981	0.163	-0.106
-702.558	-56.722	0.052	-0.023
-701.543	-27.772	0.122	0.070
-700.529	-29.797	-0.259	0.147
-699.514	215.764	-0.180	0.285
-698.499	78.761	-0.210	0.224
-697.485	-149.015	-0.191	-0.015
-696.470	-200.000	0.032	-0.190
-695.456	29.965	0.229	-0.195
-694.441	508.873	-0.105	-0.242
-693.426	515.830	-0.043	-0.100
-692.412	-103.163	-0.280	0.066
-691.397	-108.903	0.128	-0.027
-690.383	-200.000	-0.027	-0.399
-689.368	-200.000	-0.057	-0.268
-688.354	-200.000	0.009	-0.411
-687.339	105.190	0.071	-0.084
-686.324	800.000	-0.071	-0.270
-685.310	-122.007	-0.154	0.025
-684.295	-200.000	0.024	-0.185
-683.281	-123.768	0.229	0.036
-682.266	-45.215	-0.245	0.121
-681.251	-61.845	-0.072	0.030
-680.237	553.165	0.010	0.024
-679.222	-13.262	-0.107	0.069
-678.208	-40.289	0.066	0.034
-677.193	-35.397	0.167	-0.090
-676.178	800.000	0.044	0.128
-675.164	23.428	-0.100	-0.082
-674.149	-159.791	-0.656	0.036
-673.135	165.064	-0.039	-0.054
-672.120	800.000	-0.042	-0.178
-671.105	800.000	0.046	-0.179
-670.091	192.941	-0.194	0.292
-669.076	-200.000	-0.008	0.256
-668.062	-54.205	-0.021	0.010
-667.047	-122.786	-0.274	0.044
-666.032	-0.269	0.145	0.103
-665.018	698.321	0.108	-0.283
-664.003	-200.000	0.014	-0.213
-662.989	-86.116	0.474	0.146
-661.974	-57.006	0.303	0.133
-660.959	673.955	-0.026	0.067
-659.945	-200.000	0.010	0.046
-658.930	-61.280	-0.195	-0.082
-657.916	-142.597	0.047	-0.005
-656.901	-200.000	0.283	-0.001
-655.886	206.550	-0.108	-0.167
-654.872	253.979	0.054	-0.092
-653.857	800.000	-0.027	0.077
-652.843	137.682	0.027	-0.036
-651.828	800.000	0.055	0.208
-650.814	415.036	-0.057	-0.120
-649.799	307.380	-0.022	-0.040
-648.784	98.003	0.195	-0.223
-647.770	-5.500	-0.433	0.296
-646.755	172.639	0.098	-0.140
-645.741	-200.000	-0.001	0.070
-644.726	280.627	-0.033	-0.059
-643.711	-65.826	0.091	0.036
-642.697	-200.000	-0.025	-0.303
-641.682	-200.000	0.002	-0.012
-640.668	-119.417	-0.274	0.047
-639.653	2.812	-0.336	0.242
-638.638	800.000	-0.060	-0.247
-637.624	466.484	0.150	-0.335
-636.609	-64.639	0.282	-0.114
-635.595	-67.760	0.155	-0.060
-634.580	3.025	-0.203	0.147
-633.565	800.000	0.042	0.125
-632.551	231.396	-0.083	0.135
-631.536	800.000	-0.066	-0.271
-630.522	-200.000	0.009	0.050
-629.507	-35.472	0.167	0.090
-628.492	-200.000	-0.036	0.214
-627.478	800.000	-0.020	-0.072
-626.463	109.287	-0.136	0.162
-625.449	-200.000	0.005	0.042
-624.434	-91.800	0.238	-0.067
-623.419	535.525	0.041	-0.097
-622.405	68.957	0.129	0.132
-621.390	-200.000	0.001	0.389
-620.376	61.988	-0.078	0.078
-619.361	430.169	-0.178	-0.383
-618.346	85.944	0.104	-0.114
-617.332	247.077	0.065	0.109
-616.317	-77.774	-0.159	0.055
-615.303	262.644	-0.114	0.197
-614.288	-59.225	-0.021	0.009
-613.273	254.572	0.103	-0.175
-612.259	31.463	0.152	-0.130
-611.244	-112.437	0.306	-0.061
-610.230	-118.577	0.226	-0.040
-609.215	13.324	-0.212	-0.163
-608.201	72.838	0.111	-0.115
-607.186	-200.000	-0.009	0.147
-606.171	433.552	-0.086	0.184
-605.157	-69.323	0.338	-0.129
-604.142	-200.000	-0.038	0.276
-603.128	-200.000	0.011	-0.316
-602.113	-59.306	-0.148	-0.063
-601.098	800.000	0.109	-0.314
-600.084	-93.754	-0.290	-0.080
-599.069	-38.111	-0.051	0.027
-598.055	-186.950	0.175	-0.002
-597.040	-200.000	0.017	-0.081
-596.025	-80.846	0.157	0.052
-595.011	-28.216	-0.121	-0.070
-593.996	-200.000	0.039	-0.311
-592.982	-120.531	0.069	0.012
-591.967	32.469	-0.114	-0.098
-590.952	121.474	0.177	-0.219
-589.938	-200.000	0.018	-0.239
-588.923	-182.167	-0.227	0.004
-587.909	-114.707	-0.107	0.020
-586.894	-82.262	0.199	-0.064
-585.879	352.219	0.052	-0.101
-584.865	-63.248	-0.080	0.033
-583.850	-70.484	0.143	-0.054
-582.836	8.785	0.049	-0.037
-581.821	328.712	0.117	-0.223
-580.806	-55.820	0.081	0.036
-579.792	556.971	-0.147	0.352
-578.777	100.323	-0.102	-0.117
-577.763	87.426	0.043	0.047
-576.748	-52.034	0.172	-0.079
-575.733	86.677	-0.063	-0.069
-574.719	800.000	-0.118	-0.344
-573.704	-200.000	-0.010	-0.334
-572.690	-98.081	-0.226	-0.058
-571.675	-149.661	-0.161	0.013
-570.661	11.777	-0.248	0.189
-569.646	-200.000	0.021	-0.183
-568.631	49.363	-0.091	-0.084
-567.617	82.983	-0.042	-0.046
-566.602	800.000	-0.093	-0.277
-565.588	800.000	-0.088	-0.259
-564.573	-200.000	0.010	-0.313
-563.558	-200.000	0.052	0.337
-562.544	-200.000	0.023	0.115
-561.529	-158.015	0.233	0.014
-560.515	-133.357	-0.351	-0.044
-559.500	-200.000	-0.018	-0.107
-558.485	-77.097	-0.201	-0.069
-557.471	-99.359	0.341	0.085
-556.456	-66.952	-0.350	0.137
-555.442	-128.751	0.026	0.004
-554.427	-200.000	-0.016	-0.354
-553.412	-200.000	0.005	-0.108
-552.398	-144.702	0.137	0.013
-551.383	-200.000	-0.014	-0.259
-550.369	-99.701	0.395	0.098
-549.354	800.000	-0.046	-0.182
-548.339	-105.165	0.137	0.031
-547.325	-82.754	-0.048	0.015
-546.310	219.445	0.192	-0.305
-545.296	115.315	-0.183	0.222
-544.281	-56.206	0.182	-0.080
-543.266	-200.000	-0.005	-0.160
-542.252	209.663	0.066	-0.102
-541.237	128.661	-0.246	0.311
-540.223	-147.339	0.256	0.022
-539.208	487.829	0.080	0.181
-538.193	-161.517	0.289	0.015
-537.179	-0.943	0.145	0.102
-536.164	-52.610	0.283	-0.130
-535.150	-91.487	0.216	-0.061
-534.135	385.687	-0.083	0.170
-533.121	70.992	-0.048	-0.049
-532.106	477.112	-0.054	-0.121
-531.091	-97.488	0.092	-0.024
-530.077	112.555	-0.154	0.185
-529.062	-200.000	0.028	0.224
-528.048	-91.204	-0.130	0.037
-527.033	231.993	0.084	0.137
-526.018	-80.795	0.343	-0.113
-525.004	-23.181	-0.119	-0.071
-523.989	219.348	0.136	-0.216
-522.975	-200.000	-0.004	-0.215
-521.960	-64.295	0.168	0.068
-520.945	800.000	-0.081	-0.226
-519.931	-200.000	-0.001	0.041
-518.916	-103.620	0.179	0.041
-517.902	316.004	0.080	0.149
-516.887	54.226	0.083	0.079
-515.872	-200.000	0.004	-0.062
-514.858	103.043	-0.185	0.214
-513.843	558.721	0.138	-0.329
-512.829	-200.000	0.032	0.180
-511.814	166.141	0.223	0.313
-510.799	800.000	-0.065	0.235
-509.785	-124.827	-0.169	0.026
-508.770	-14.644	0.216	-0.137
-507.756	-58.514	0.153	0.066
-506.741	-200.000	-0.012	0.102
-505.726	274.159	-0.082	-0.143
-504.712	94.150	-0.168	0.189
-503.697	-31.073	0.151	-0.084
-502.683	205.165	0.070	-0.108
-501.668	-73.083	-0.256	-0.093
-500.653	268.795	0.092	0.160
-499.639	-87.513	0.150	0.045
-498.624	-55.127	-0.271	-0.120
-497.610	-200.000	-0.027	0.227
-496.595	-200.000	-0.002	0.238
-495.581	14.989	-0.038	-0.029
-494.566	-200.000	-0.129	-0.842
-493.551	-118.949	-0.243	0.042
-492.537	-53.220	-0.227	-0.103
-491.522	-200.000	0.150	0.000
-490.508	800.000	-0.044	0.131
-489.493	-42.134	-0.100	-0.051
-488.478	-30.737	-0.257	0.144
-487.464	721.290	-0.077	0.201
-486.449	242.532	0.142	0.235
-485.435	-131.648	-0.079	-0.010
-484.420	800.000	-0.099	-0.367
-483.405	-70.584	-0.329	0.123
-482.391	63.543	-0.256	-0.254
-481.376	-56.432	0.059	-0.026
-480.362	800.000	-0.036	0.141
-479.347	-134.139	0.302	-0.037
-478.332	67.229	-0.188	0.189
-477.318	138.463	-0.190	-0.247
-476.303	398.720	-0.125	0.259
-475.289	-30.184	-0.225	-0.127
-474.274	15.607	-0.149	0.116
-473.259	-17.344	-0.082	0.051
-472.245	363.663	-0.050	0.099
-471.230	512.720	-0.117	0.270
-470.216	-200.000	-0.035	-0.381
-469.201	-200.000	-0.004	0.033
-468.186	-200.000	0.011	0.098
-467.172	-200.000	0.037	0.172
-466.157	73.604	0.170	-0.175
-465.143	-34.690	0.058	-0.031
-464.128	800.000	-0.052	-0.182
-463.113	-66.847	0.240	0.094
-462.099	-200.000	-0.028	-0.232
-461.084	186.793	-0.128	0.189
-460.070	800.000	-0.076	0.214
-459.055	-134.928	0.264	0.032
-458.040	-89.255	0.162	0.047
-457.026	-118.958	0.150	-0.026
-456.011	-56.780	0.214	-0.094
-454.997	373.408	-0.151	-0.304
-453.982	-200.000	-0.000	-0.321
-452.968	-200.000	0.013	-0.094
-451.953	-200.000	0.038	-0.227
-450.938	-107.647	0.151	0.033
-449.924	-200.000	0.035	-0.221
-448.909	-76.807	-0.283	0.098
-447.895	-5.381	-0.057	0.038
-446.880	-115.265	-0.320	-0.060
-445.865	-200.000	-0.039	0.270
-444.851	31.542	0.156	0.132
-443.836	9.484	0.220	0.165
-442.822	-101.637	-0.131	0.031
-441.807	102.428	0.052	0.059
-440.792	-70.164	0.424	-0.159
-439.778	-68.939	-0.264	-0.100
-438.763	536.850	-0.046	0.107
-437.749	-126.525	0.165	-0.024
-436.734	-68.329	-0.303	-0.116
-435.719	-56.768	-0.244	0.106
-434.705	-38.415	0.219	0.114
-433.690	760.969	-0.084	-0.224
-432.676	800.000	-0.091	-0.301
-431.661	-37.043	-0.122	0.064
-430.646	-200.000	-0.021	-0.353
-429.632	91.752	0.225	0.250
-428.617	-148.787	0.353	0.028
-427.603	-97.623	0.060	-0.015
-426.588	-111.466	0.448	0.090
-425.573	-179.154	-0.412	-0.009
-424.559	-26.696	-0.222	0.128
-423.544	-107.123	-0.154	0.033
-422.530	-173.545	-0.163	-0.005
-421.515	-133.544	-0.253	0.031
-420.500	-200.000	-0.050	0.286
-419.486	21.617	-0.177	-0.142
-418.471	800.000	-0.131	0.464
-417.457	-183.630	0.191	0.003
-416.442	-2.560	0.120	-0.083
-415.428	341.459	-0.109	0.210
-414.413	-35.897	0.090	-0.048
-413.398	800.000	-0.061	0.215
-412.384	71.063	0.128	0.131
-411.369	-182.721	-0.065	0.001
-410.355	340.249	0.021	-0.040
-409.340	800.000	0.074	0.210
-408.325	-116.183	-0.380	-0.069
-407.311	-190.940	0.184	0.002
-406.296	800.000	0.046	-0.132
-405.282	800.000	0.010	-0.042
-404.267	-183.376	-0.160	-0.003
-403.252	-200.000	0.049	0.239
-402.238	-144.234	-0.164	-0.015
-401.223	125.184	0.110	0.136
-400.209	177.962	-0.065	-0.094
-399.194	-33.753	-0.065	0.035
-398.179	-136.859	-0.206	-0.023
-397.165	-40.336	-0.108	0.055
-396.150	40.634	-0.098	0.087
-395.136	372.304	0.137	0.275
-394.121	-57.992	0.271	0.117
-393.106	79.590	-0.135	0.143
-392.092	-91.414	-0.112	-0.032
-391.077	587.663	0.083	0.202
-390.063	12.760	0.030	0.023
-389.048	4.756	-0.263	-0.191
-388.033	59.003	0.053	0.051
-387.019	800.000	0.036	0.138
-386.004	-60.127	0.262	0.110
-384.990	-200.000	-0.017	-0.229
-383.975	21.946	-0.235	0.189
-382.960	-200.000	0.021	-0.129
-381.946	110.513	-0.389	-0.461
-380.931	-60.037	0.330	-0.139
-379.917	-96.879	-0.228	-0.059
-378.902	-200.000	-0.077	-0.473
-377.888	800.000	0.069	-0.277
-376.873	224.733	0.107	0.170
-375.858	-100.248	-0.505	0.124
-374.844	-200.000	-0.036	0.197
-373.829	800.000	0.113	0.345
-372.815	-200.000	-0.021	0.224
-371.800	800.000	0.018	0.061
-370.785	107.068	-0.158	-0.185
-369.771	-200.000	-0.000	0.042
-368.756	-72.922	0.271	0.098
-367.742	7.741	-0.117	-0.086
-366.727	800.000	-0.026	-0.094
-365.712	246.912	-0.020	-0.033
-364.698	112.825	-0.068	0.081
-363.683	17.677	0.145	-0.114
-362.669	-75.251	0.202	-0.071
-361.654	800.000	0.103	0.372
-360.639	334.097	-0.118	0.226
-359.625	-65.249	-0.125	0.049
-358.610	-200.000	-0.028	0.130
-357.596	252.022	0.030	0.050
-356.581	-94.194	-0.217	-0.058
-355.566	111.760	0.217	-0.257
-354.552	56.325	0.180	0.172
-353.537	278.954	0.031	0.054
-352.523	119.477	-0.050	-0.061
-351.508	-200.000	-0.001	-0.085
-350.493	-200.000	0.003	-0.106
-349.479	75.610	0.107	-0.111
-348.464	-105.493	-0.285	-0.064
-347.450	-48.819	0.151	-0.071
-346.435	-127.293	-0.592	-0.085
-345.420	343.052	0.119	-0.229
-344.406	-66.395	-0.098	-0.038
-343.391	-82.474	-0.245	0.078
-342.377	-150.280	0.160	0.012
-341.362	-6.653	0.143	-0.096
-340.348	-195.056	0.194	0.001
-339.333	702.713	-0.026	0.067
-338.318	345.035	0.190	-0.367
-337.304	281.612	0.059	-0.103
-336.289	220.852	0.039	-0.061
-335.275	174.545	-0.300	0.427
-334.260	-200.000	0.094	0.452
-333.245	800.000	-0.155	0.453
-332.231	800.000	-0.156	-0.436
-331.216	-48.776	0.239	-0.113
-330.202	800.000	-0.090	-0.277
-329.187	86.081	-0.191	-0.206
-328.172	670.021	0.059	0.149
-327.158	-200.000	0.047	0.283
-326.143	-47.975	-0.103	-0.049
-325.129	656.973	0.110	-0.277
-324.114	463.600	0.010	-0.021
-323.099	-200.000	-0.002	0.137
-322.085	243.782	-0.094	0.155
-321.070	20.540	-0.090	0.072
-320.056	17.760	-0.131	-0.103
-319.041	-106.054	-0.160	0.035
-318.026	29.958	0.048	-0.040
-317.012	-57.457	0.240	0.104
-315.997	-73.922	-0.078	0.028
-314.983	800.000	-0.111	0.302
-313.968	127.006	-0.081	-0.101
-312.953	-4.548	-0.025	-0.017
-311.939	-61.261	0.306	0.126
-310.924	-200.000	-0.059	0.317
-309.910	22.692	0.137	0.110
-308.895	-200.000	-0.001	-0.260
-307.880	42.229	0.308	0.275
-306.866	198.573	0.149	0.224
-305.851	362.222	-0.105	-0.206
-304.837	-27.848	-0.093	0.053
-303.822	-111.587	0.321	0.064
-302.807	266.305	-0.145	0.249
-301.793	108.173	0.169	0.198
-300.778	21.196	-0.121	0.097
-299.764	-94.207	-0.074	0.020
-298.749	-200.000	-0.019	-0.228
-297.735	-200.000	-0.048	-0.263
-296.720	-5.092	0.284	0.192
-295.705	18.434	-0.274	-0.215
-294.691	198.891	-0.220	0.331
-293.676	-22.295	0.307	-0.183
-292.662	96.492	0.036	-0.041
-291.647	-126.967	0.300	-0.043
-290.632	-200.000	0.025	0.361
-289.618	-108.102	0.201	0.043
-288.603	-200.000	0.023	-0.145
-287.589	183.770	0.042	0.060
-286.574	-10.510	0.211	0.137
-285.559	72.599	-0.122	0.124
-284.545	-11.736	-0.235	0.151
-283.530	-15.631	0.119	-0.074
-282.516	-200.000	0.030	-0.332
-281.501	-111.960	0.099	-0.020
-280.486	55.110	0.114	-0.108
-279.472	-51.351	0.077	0.035
-278.457	800.000	-0.057	0.164
-277.443	-1.815	0.109	0.075
-276.428	800.000	-0.041	0.133
-275.413	-200.000	-0.019	-0.099
-274.399	38.683	0.140	0.123
-273.384	-200.000	0.028	0.311
-272.370	-200.000	-0.027	-0.477
-271.355	-200.000	-0.026	0.228
-270.340	-168.630	-0.181	0.007
-269.326	-53.731	0.277	0.124
-268.311	342.031	-0.200	0.383
-267.297	-103.252	0.050	0.012
-266.282	399.076	-0.192	-0.394
-265.267	230.253	0.058	-0.093
-264.253	-146.437	-0.136	-0.012
-263.238	-138.363	-0.373	-0.040
-262.224	-200.000	0.017	0.114
-261.209	-17.355	0.195	0.120
-260.195	-200.000	0.056	-0.291
-259.180	-73.068	0.072	0.026
-258.165	-200.000	-0.006	-0.193
-257.151	61.049	-0.182	-0.177
-256.136	-142.226	-0.301	-0.029
-255.122	-146.675	0.311	0.026
-254.107	-34.170	0.216	0.116
-253.092	-2.468	0.282	-0.194
-252.078	-124.272	0.185	-0.028
-251.063	800.000	-0.041	-0.160
-250.049	28.802	-0.089	0.074
-249.034	352.116	-0.088	-0.171
-248.019	308.427	-0.111	-0.203
-247.005	-200.000	-0.014	-0.163
-245.990	-42.490	-0.438	-0.219
-244.976	38.863	0.118	0.103
-243.961	-200.000	0.019	0.289
-242.946	85.947	0.036	-0.039
-241.932	318.593	0.070	0.131
-240.917	452.146	0.130	0.281
-239.903	351.248	-0.133	0.258
-238.888	-79.201	-0.130	-0.043
-237.873	-59.681	0.416	-0.175
-236.859	-172.956	-0.195	0.006
-235.844	74.722	-0.128	-0.132
-234.830	252.780	-0.153	0.255
-233.815	-26.306	-0.207	0.119
-232.800	41.232	0.192	-0.170
-231.786	-21.413	0.196	0.117
-230.771	376.263	0.057	0.113
-229.757	-17.422	0.143	0.088
-228.742	-129.614	-0.130	0.018
-227.727	-200.000	-0.034	0.222
-226.713	-7.130	0.289	0.192
-225.698	-200.000	-0.001	0.270
-224.684	-200.000	-0.013	0.301
-223.669	-126.205	0.410	0.060
-222.655	800.000	0.061	0.249
-221.640	75.679	-0.066	-0.069
-220.625	-9.632	0.185	-0.121
-219.611	88.194	0.083	-0.090
-218.596	-116.392	-0.102	-0.018
-217.582	135.154	-0.067	-0.086
-216.567	153.159	0.184	-0.246
-215.552	-153.170	0.248	-0.017
-214.538	-115.308	0.241	0.045
-213.523	800.000	0.113	0.392
-212.509	185.416	0.112	-0.162
-211.494	19.015	-0.054	-0.042
-210.479	-116.249	-0.310	0.056
-209.465	-21.826	0.322	-0.192
-208.450	785.074	-0.135	0.361
-207.436	-3.191	-0.184	0.125
-206.421	55.169	-0.130	0.123
-205.406	346.606	0.035	0.067
-204.392	183.616	-0.132	0.191
-203.377	127.211	0.165	-0.204
-202.363	174.350	0.041	0.058
-201.348	800.000	-0.022	-0.080
-200.333	200.303	-0.159	-0.238
-199.319	-109.777	0.323	0.066
-198.304	-200.000	-0.042	-0.248
-197.290	223.463	-0.110	-0.173
-196.275	-200.000	-0.032	0.242
-195.260	-66.797	0.388	-0.150
-194.246	-52.229	-0.493	0.223
-193.231	-129.416	-0.204	-0.028
-192.217	160.562	0.222	-0.303
-191.202	25.622	-0.040	-0.032
-190.187	-147.034	-0.455	0.038
-189.173	-200.000	0.055	-0.408
-188.158	-200.000	-0.002	0.405
-187.144	800.000	-0.138	0.469
-186.129	-200.000	0.018	0.188
-185.114	36.396	-0.057	0.049
-184.100	208.312	0.128	-0.195
-183.085	-42.522	0.016	-0.008
-182.071	-200.000	-0.050	0.291
-181.056	-200.000	-0.005	0.057
-180.042	-200.000	0.032	-0.264
-179.027	-14.562	0.188	0.118
-178.012	84.869	-0.103	0.111
-176.998	-56.069	-0.184	-0.080
-175.983	312.563	0.035	-0.065
-174.969	800.000	0.059	-0.174
-173.954	800.000	0.102	-0.300
-172.939	-200.000	0.016	0.115
-171.925	412.096	-0.067	0.138
-170.910	-200.000	-0.063	-0.487
-169.896	92.666	0.135	-0.149
-168.881	-94.116	0.119	-0.032
-167.866	800.000	0.040	-0.126
-166.852	800.000	-0.138	-0.372
-165.837	24.928	0.113	0.091
-164.823	215.571	-0.026	0.041
-163.808	8.930	0.141	0.104
-162.793	-7.702	-0.375	0.247
-161.779	721.838	-0.037	-0.097
-160.764	675.503	0.130	0.330
-159.750	312.775	0.095	0.175
-158.735	-104.535	0.314	0.071
-157.720	-100.729	-0.196	-0.047
-156.706	-56.675	0.145	0.063
-155.691	188.049	0.196	-0.286
-154.677	-128.442	-0.182	0.025
-153.662	-65.438	0.109	-0.043
-152.647	-200.000	0.032	0.222
-151.633	-162.380	-0.106	0.005
-150.618	-135.639	0.243	-0.028
-149.604	-65.296	-0.063	-0.025
-148.589	187.728	-0.092	0.133
-147.574	-200.000	-0.004	-0.053
-146.560	-108.724	-0.588	0.123
-145.545	-95.581	-0.505	-0.132
-144.531	-200.000	-0.034	0.148
-143.516	38.109	-0.178	-0.155
-142.502	-108.124	-0.271	0.057
-141.487	-7.749	0.289	-0.191
-140.472	-121.688	-0.080	-0.013
-139.458	82.503	0.037	-0.040
-138.443	-0.306	-0.321	0.223
-137.429	213.054	0.149	0.229
-136.414	431.373	-0.089	0.188
-135.399	73.701	-0.098	-0.100
-134.385	-71.426	0.205	0.075
-133.370	-23.970	-0.413	0.241
-132.356	800.000	0.125	-0.380
-131.341	-200.000	0.016	0.357
-130.326	56.091	-0.196	-0.186
-129.312	-113.805	0.178	-0.034
-128.297	2.859	0.090	-0.064
-127.283	163.038	0.142	0.195
-126.268	-28.010	0.321	0.181
-125.253	32.318	-0.205	0.172
-124.239	-15.525	0.045	-0.028
-123.224	-200.000	-0.010	-0.145
-122.210	136.173	0.246	-0.313
