DTS Sentinel unit serial number:	SN413079Multiplexer serial number:	ORYXHardware model number:	OX4-SRSoftware version number:	ORYX F/W v4.00 Oryx Data Collector v3.7.2.0data status	okinstallation	princeton_trtdifferential loss correction	single-endedforward channel	channel 2reverse channel	N/Adate	2019/09/19time	03:27:34forward acquisition time	60.00reverse acquisition time	0.00gamma	496.2192k internal	0.2352k external	0.2352temperature offset calibration	1.0014default loss term (dB/km)	0.3790temperature slope calibration	1.0000multiplexer offset coefficient	1.0000multiplexer slope coefficient	1.0000fibre end	0.00T internal ref (°C)	20.66T ext. ref 1 (°C)	0.62T ext. ref 2 (°C)	14.25length (m)	temperature (°C)	Stokes	anti-Stokes-747.200	-7.792	-0.306	0.206
-746.185	-26.222	-0.135	0.079
-745.171	-200.000	-0.009	0.374
-744.156	-95.946	0.374	0.099
-743.142	51.656	0.209	-0.199
-742.127	110.975	-0.157	0.188
-741.112	-200.000	-0.020	-0.165
-740.098	419.857	0.204	0.435
-739.083	117.311	0.080	0.098
-738.069	800.000	-0.129	0.411
-737.054	278.930	-0.050	0.089
-736.039	127.219	-0.144	0.182
-735.025	-178.478	0.348	-0.008
-734.010	201.991	-0.158	0.243
-732.996	89.402	-0.290	0.323
-731.981	800.000	0.084	-0.355
-730.966	530.047	-0.029	0.067
-729.952	-107.124	-0.380	-0.084
-728.937	472.591	-0.051	-0.114
-727.923	-144.844	0.121	-0.011
-726.908	800.000	0.111	-0.403
-725.894	-200.000	0.007	-0.102
-724.879	-93.376	0.444	-0.123
-723.864	434.858	0.184	-0.400
-722.850	800.000	-0.071	-0.239
-721.835	-124.950	0.150	0.023
-720.821	-82.837	0.308	-0.099
-719.806	-200.000	0.012	0.061
-718.791	477.955	-0.082	0.185
-717.777	-196.174	-0.437	0.003
-716.762	49.993	0.058	0.055
-715.748	147.577	-0.095	0.127
-714.733	-103.542	0.390	0.091
-713.718	718.915	-0.032	0.086
-712.704	-24.974	0.310	-0.183
-711.689	800.000	-0.060	-0.171
-710.675	164.818	0.083	-0.116
-709.660	12.907	-0.203	-0.157
-708.645	-70.175	-0.285	0.108
-707.631	-91.724	0.333	-0.094
-706.616	-200.000	0.001	-0.239
-705.602	-24.633	0.319	0.189
-704.587	-174.302	-0.578	-0.017
-703.572	107.279	-0.117	0.139
-702.558	97.615	0.145	0.166
-701.543	-200.000	-0.008	0.162
-700.529	800.000	0.093	0.324
-699.514	800.000	-0.060	-0.209
-698.499	2.456	-0.266	0.192
-697.485	152.963	0.066	-0.090
-696.470	16.201	-0.214	0.168
-695.456	223.405	0.081	-0.130
-694.441	114.147	-0.226	-0.274
-693.426	124.347	0.083	0.104
-692.412	-200.000	0.002	-0.182
-691.397	71.209	-0.122	-0.126
-690.383	-135.855	0.201	-0.024
-689.368	-139.803	-0.227	-0.024
-688.354	-66.899	0.149	-0.059
-687.339	265.366	-0.069	-0.119
-686.324	-82.351	-0.176	-0.057
-685.310	-140.288	0.290	-0.030
-684.295	160.427	-0.139	0.194
-683.281	13.832	-0.334	-0.258
-682.266	-200.000	-0.046	0.224
-681.251	11.680	0.304	0.232
-680.237	121.591	-0.040	0.049
-679.222	161.732	0.103	0.143
-678.208	800.000	0.082	0.239
-677.193	-92.980	0.322	-0.089
-676.178	152.821	0.099	-0.135
-675.164	-151.392	0.354	-0.026
-674.149	800.000	0.015	-0.050
-673.135	436.455	-0.074	0.161
-672.120	-71.886	-0.363	-0.135
-671.105	-200.000	0.004	-0.258
-670.091	517.979	-0.068	0.158
-669.076	32.450	-0.311	-0.267
-668.062	-200.000	-0.059	-0.303
-667.047	521.528	0.058	-0.135
-666.032	-200.000	0.031	-0.167
-665.018	-32.254	0.112	-0.062
-664.003	64.829	-0.204	-0.204
-662.989	-200.000	0.020	-0.177
-661.974	800.000	-0.095	0.278
-660.959	-200.000	0.006	0.196
-659.945	36.633	-0.025	0.022
-658.930	-38.417	0.319	-0.168
-657.916	-103.714	0.322	-0.075
-656.901	-155.104	-0.373	-0.024
-655.886	555.316	-0.107	-0.257
-654.872	108.325	-0.079	0.094
-653.857	359.598	-0.060	-0.120
-652.843	102.115	-0.046	0.054
-651.828	-200.000	-0.025	-0.111
-650.814	-162.562	0.280	-0.014
-649.799	7.915	0.020	-0.015
-648.784	36.452	-0.026	0.023
-647.770	-155.665	0.390	0.025
-646.755	-141.583	0.175	0.018
-645.741	800.000	0.043	-0.129
-644.726	-99.401	0.196	-0.049
-643.711	-42.530	0.124	-0.063
-642.697	272.293	-0.117	0.205
-641.682	800.000	-0.113	-0.342
-640.668	44.186	0.276	-0.251
-639.653	-133.718	-0.121	-0.015
-638.638	-69.333	-0.112	-0.043
-637.624	800.000	0.050	-0.144
-636.609	-200.000	0.031	-0.166
-635.595	-200.000	-0.009	0.489
-634.580	-200.000	0.012	-0.054
-633.565	800.000	0.012	0.042
-632.551	158.433	0.086	-0.118
-631.536	-83.728	0.016	0.005
-630.522	-200.000	-0.027	-0.130
-629.507	-15.383	-0.142	0.090
-628.492	-95.820	0.137	-0.036
-627.478	-59.225	0.393	0.168
-626.463	800.000	0.064	0.219
-625.449	184.592	-0.006	-0.009
-624.434	22.325	-0.207	0.168
-623.419	-75.370	0.067	0.024
-622.405	-31.586	-0.231	-0.129
-621.390	60.815	0.015	0.015
-620.376	599.719	0.078	-0.192
-619.361	-132.137	0.117	-0.015
-618.346	-9.861	-0.264	-0.175
-617.332	-172.440	-0.185	-0.006
-616.317	108.262	0.046	-0.054
-615.303	81.886	0.144	0.154
-614.288	800.000	0.050	-0.216
-613.273	-17.778	-0.293	0.183
-612.259	-198.516	-0.200	-0.001
-611.244	-114.167	-0.180	0.035
-610.230	-68.711	-0.324	0.124
-609.215	-39.216	0.363	-0.189
-608.201	-155.834	-0.294	0.019
-607.186	429.017	-0.117	-0.252
-606.171	800.000	0.079	-0.302
-605.157	-106.972	0.061	0.013
-604.142	244.809	-0.159	-0.266
-603.128	-122.183	-0.200	0.032
-602.113	-43.146	0.315	-0.158
-601.098	-200.000	-0.047	-0.241
-600.084	-120.767	0.091	-0.015
-599.069	-81.370	0.040	0.013
-598.055	800.000	0.098	0.359
-597.040	106.873	-0.057	0.067
-596.025	-108.023	-0.175	0.038
-595.011	130.394	0.119	0.152
-593.996	74.312	-0.230	-0.240
-592.982	148.605	0.160	-0.214
-591.967	67.987	-0.036	-0.036
-590.952	800.000	0.054	-0.194
-589.938	260.834	-0.093	0.159
-588.923	-200.000	0.003	-0.046
-587.909	412.111	-0.217	-0.457
-586.894	120.121	-0.051	-0.063
-585.879	-13.134	0.101	-0.065
-584.865	-152.395	0.078	-0.006
-583.850	-92.919	0.265	-0.073
-582.836	-49.960	-0.288	0.135
-581.821	-187.481	0.284	0.004
-580.806	158.421	0.219	-0.301
-579.792	625.427	0.047	0.118
-578.777	-50.259	0.233	0.109
-577.763	800.000	-0.057	-0.173
-576.748	-114.021	-0.312	-0.060
-575.733	-74.858	0.395	-0.141
-574.719	-127.816	-0.210	-0.030
-573.704	-200.000	-0.011	0.085
-572.690	-74.360	-0.320	0.114
-571.675	-135.200	0.231	0.027
-570.661	-124.628	0.431	0.066
-569.646	-92.742	-0.224	-0.062
-568.631	-28.492	-0.122	-0.070
-567.617	-200.000	-0.020	0.126
-566.602	-200.000	-0.037	-0.218
-565.588	142.416	-0.179	0.236
-564.573	335.528	-0.035	-0.068
-563.558	-32.446	0.163	0.090
-562.544	-200.000	-0.020	0.197
-561.529	-56.151	-0.063	0.028
-560.515	394.518	-0.089	-0.183
-559.500	-35.246	0.130	0.070
-558.485	76.227	-0.094	-0.099
-557.471	-200.000	-0.080	-0.468
-556.456	800.000	0.028	-0.095
-555.442	-48.731	0.158	-0.075
-554.427	800.000	0.054	-0.149
-553.412	-200.000	0.056	-0.331
-552.398	-64.028	-0.432	-0.175
-551.383	-200.000	-0.032	-0.160
-550.369	87.766	-0.072	-0.078
-549.354	-111.686	0.277	-0.056
-548.339	31.828	0.106	0.090
-547.325	522.285	-0.063	-0.147
-546.310	-200.000	0.046	0.328
-545.296	-77.865	0.161	-0.055
-544.281	-87.141	-0.375	0.113
-543.266	-113.309	0.490	0.095
-542.252	-200.000	0.039	0.265
-541.237	-98.163	-0.248	-0.063
-540.223	-200.000	0.027	-0.133
-539.208	-200.000	0.017	0.157
-538.193	133.614	-0.064	-0.082
-537.179	192.782	0.163	0.243
-536.164	17.288	0.203	0.159
-535.150	187.714	0.034	0.050
-534.135	564.027	-0.106	0.254
-533.121	-77.381	0.228	0.078
-532.106	-62.511	-0.147	-0.061
-531.091	-148.450	-0.118	-0.010
-530.077	-23.540	0.246	0.146
-529.062	-137.598	-0.348	0.039
-528.048	-200.000	-0.005	-0.380
-527.033	-33.550	0.198	-0.108
-526.018	-85.484	-0.301	-0.093
-525.004	-98.126	-0.140	0.036
-523.989	12.704	0.098	0.075
-522.975	345.717	0.050	-0.096
-521.960	-200.000	-0.054	-0.268
-520.945	-177.549	-0.256	-0.006
-519.931	108.610	0.188	0.222
-518.916	76.067	-0.124	-0.130
-517.902	800.000	-0.076	-0.234
-516.887	497.835	0.125	-0.284
-515.872	-81.437	-0.073	0.024
-514.858	-200.000	-0.016	-0.265
-513.843	800.000	0.035	0.146
-512.829	800.000	0.041	0.172
-511.814	-78.829	-0.129	-0.043
-510.799	800.000	-0.021	0.064
-509.785	77.874	0.117	-0.123
-508.770	-17.480	-0.155	-0.097
-507.756	117.976	-0.208	0.253
-506.741	-37.233	-0.322	-0.170
-505.726	-200.000	-0.004	0.308
-504.712	-200.000	0.028	0.149
-503.697	-200.000	-0.022	0.212
-502.683	1.781	-0.112	0.080
-501.668	-2.134	-0.157	0.109
-500.653	-140.720	-0.190	-0.019
-499.639	105.212	0.098	-0.115
-498.624	-200.000	-0.027	0.152
-497.610	5.381	-0.370	-0.270
-496.595	-200.000	-0.012	0.235
-495.581	-134.029	-0.162	-0.020
-494.566	41.622	0.343	-0.307
-493.551	-123.034	-0.058	0.009
-492.537	37.386	-0.295	0.258
-491.522	-200.000	-0.008	0.228
-490.508	-153.429	-0.369	-0.025
-489.493	30.910	0.186	0.158
-488.478	-29.489	-0.093	-0.053
-487.464	-117.076	-0.321	-0.058
-486.449	-95.640	-0.240	0.064
-485.435	461.599	-0.108	-0.238
-484.420	497.878	-0.105	-0.238
-483.405	-200.000	-0.001	-0.014
-482.391	-200.000	-0.002	0.218
-481.376	-90.204	0.178	-0.051
-480.362	-46.923	0.057	-0.028
-479.347	-11.529	-0.392	-0.255
-478.332	-100.849	0.418	-0.101
-477.318	666.602	0.106	-0.271
-476.303	202.894	-0.100	0.152
-475.289	-117.586	0.123	-0.022
-474.274	751.384	-0.099	-0.264
-473.259	-85.766	-0.130	0.040
-472.245	-124.254	0.301	-0.047
-471.230	294.516	0.169	0.305
-470.216	-200.000	-0.025	0.140
-469.201	800.000	0.101	-0.349
-468.186	-199.205	-0.298	-0.002
-467.172	493.858	0.050	-0.114
-466.157	141.022	-0.210	-0.274
-465.143	-200.000	0.028	-0.202
-464.128	-134.996	-0.194	0.023
-463.113	67.446	0.065	-0.066
-462.099	-16.425	-0.225	-0.141
-461.084	601.120	-0.133	-0.325
-460.070	800.000	0.057	-0.192
-459.055	-33.852	0.240	-0.131
-458.040	-5.551	-0.108	-0.073
-457.026	23.857	0.242	-0.196
-456.011	-123.805	0.451	-0.070
-454.997	24.314	-0.324	0.264
-453.982	5.020	-0.124	0.090
-452.968	437.778	0.082	-0.176
-451.953	310.197	0.102	0.188
-450.938	800.000	0.104	-0.352
-449.924	-200.000	0.003	-0.167
-448.909	-60.375	0.240	0.101
-447.895	-200.000	0.048	0.299
-446.880	92.835	-0.159	-0.177
-445.865	227.731	0.209	0.335
-444.851	-200.000	-0.054	0.259
-443.836	-200.000	-0.092	-0.448
-442.822	800.000	0.020	-0.072
-441.807	-106.139	-0.345	0.076
-440.792	-66.349	0.133	0.052
-439.778	-200.000	-0.034	0.227
-438.763	800.000	0.126	-0.352
-437.749	-22.945	-0.278	0.165
-436.734	-130.161	0.164	-0.022
-435.719	-97.921	-0.021	0.005
-434.705	-177.311	0.412	0.010
-433.690	51.727	-0.184	0.172
-432.676	379.132	0.077	0.156
-431.661	-200.000	-0.028	0.204
-430.646	-200.000	0.013	0.109
-429.632	-72.937	0.157	-0.057
-428.617	-11.490	-0.474	-0.307
-427.603	173.872	0.153	0.218
-426.588	-194.888	-0.279	-0.002
-425.573	-109.786	-0.298	-0.062
-424.559	800.000	0.050	0.152
-423.544	-79.780	-0.231	-0.077
-422.530	-200.000	0.022	-0.108
-421.515	121.210	-0.160	0.196
-420.500	57.275	0.175	-0.168
-419.486	-200.000	0.004	0.198
-418.471	114.405	0.247	0.296
-417.457	-200.000	0.006	-0.183
-416.442	13.462	-0.088	0.067
-415.428	296.812	-0.132	0.239
-414.413	800.000	0.112	0.306
-413.398	-71.259	0.352	-0.130
-412.384	178.418	-0.150	-0.215
-411.369	106.147	-0.251	0.292
-410.355	-193.930	0.283	0.002
-409.340	262.027	0.141	0.240
-408.325	-77.713	-0.383	-0.131
-407.311	231.948	0.124	0.201
-406.296	-102.455	0.177	0.042
-405.282	29.579	-0.030	0.025
-404.267	-154.863	-0.266	0.017
-403.252	-200.000	0.003	0.212
-402.238	-79.850	-0.200	0.066
-401.223	-16.685	0.217	0.135
-400.209	-200.000	-0.019	-0.170
-399.194	-48.744	-0.163	-0.077
-398.179	-105.053	0.209	0.047
-397.165	-29.313	0.114	0.064
-396.150	-89.154	-0.151	-0.044
-395.136	-34.786	-0.093	-0.050
-394.121	800.000	0.090	-0.262
-393.106	203.554	-0.077	-0.117
-392.092	-200.000	0.018	0.086
-391.077	-200.000	-0.029	-0.129
-390.063	405.513	0.075	-0.156
-389.048	-108.409	0.278	0.059
-388.033	18.799	-0.197	-0.155
-387.019	-200.000	-0.008	0.094
-386.004	261.997	-0.291	-0.497
-384.990	220.460	0.154	0.243
-383.975	-108.900	-0.420	-0.088
-382.960	-146.730	0.125	-0.011
-381.946	-93.296	0.285	0.078
-380.931	-91.659	-0.291	-0.082
-379.917	-200.000	-0.054	0.322
-378.902	-54.552	0.232	0.103
-377.888	108.057	0.098	0.115
-376.873	239.717	-0.096	0.156
-375.858	8.006	0.320	-0.236
-374.844	294.640	0.150	0.270
-373.829	-12.013	0.268	-0.173
-372.815	-200.000	0.081	0.480
-371.800	-126.797	-0.052	-0.008
-370.785	195.801	0.122	0.183
-369.771	-200.000	-0.041	0.216
-368.756	-200.000	0.011	-0.552
-367.742	-116.249	0.281	0.051
-366.727	-83.018	-0.407	-0.129
-365.712	-142.831	0.246	0.024
-364.698	-19.247	-0.023	0.014
-363.683	800.000	0.068	0.245
-362.669	711.826	0.049	-0.128
-361.654	-200.000	0.034	0.192
-360.639	-200.000	-0.001	0.351
-359.625	143.008	-0.225	0.294
-358.610	800.000	-0.114	-0.328
-357.596	62.713	0.109	-0.107
-356.581	-78.211	0.069	-0.023
-355.566	508.864	0.093	0.213
-354.552	-37.521	-0.073	0.038
-353.537	346.047	-0.075	-0.145
-352.523	165.574	0.044	-0.061
-351.508	0.397	-0.418	-0.293
-350.493	-150.204	0.317	-0.024
-349.479	286.299	-0.146	0.259
-348.464	-64.957	-0.200	-0.079
-347.450	144.703	0.226	0.297
-346.435	-200.000	-0.006	0.215
-345.420	90.873	0.327	0.360
-344.406	-22.176	-0.309	0.184
-343.391	-8.535	0.108	0.071
-342.377	111.039	-0.405	0.478
-341.362	800.000	-0.028	-0.113
-340.348	180.623	-0.076	-0.109
-339.333	11.542	-0.331	0.249
-338.318	-109.824	-0.325	-0.067
-337.304	80.705	-0.162	-0.172
-336.289	800.000	-0.036	0.103
-335.275	-53.880	0.245	-0.109
-334.260	117.513	0.148	0.179
-333.245	-200.000	0.002	-0.318
-332.231	-110.102	0.149	-0.031
-331.216	31.103	-0.199	0.167
-330.202	-100.307	0.135	-0.033
-329.187	-68.495	-0.146	-0.056
-328.172	146.474	0.103	-0.136
-327.158	107.136	0.106	0.123
-326.143	-142.713	0.269	-0.026
-325.129	-200.000	-0.015	-0.149
-324.114	-200.000	-0.002	-0.068
-323.099	-44.878	-0.183	0.089
-322.085	800.000	0.116	-0.318
-321.070	120.931	-0.152	0.186
-320.056	-149.891	0.298	0.023
-319.041	-200.000	-0.069	0.327
-318.026	-119.957	0.231	0.039
-317.012	292.029	0.152	0.271
-315.997	-84.117	-0.093	-0.029
-314.983	422.126	0.091	0.191
-313.968	-200.000	-0.046	0.453
-312.953	-81.492	0.154	-0.050
-311.939	-71.502	0.328	-0.120
-310.924	23.802	0.061	-0.049
-309.910	-200.000	-0.031	-0.196
-308.895	126.983	0.174	0.216
-307.880	41.064	0.131	0.116
-306.866	800.000	0.066	-0.181
-305.851	7.356	-0.130	0.095
-304.837	86.816	-0.239	-0.259
-303.822	-44.854	0.222	0.109
-302.807	-143.724	0.174	0.016
-301.793	-200.000	0.050	-0.239
-300.778	15.697	-0.069	-0.053
-299.764	185.363	0.196	0.285
-298.749	-129.167	0.088	-0.012
-297.735	485.810	0.016	-0.035
-296.720	368.263	-0.098	0.195
-295.705	-106.857	0.429	-0.093
-294.691	179.344	-0.103	-0.147
-293.676	-136.116	0.237	0.027
-292.662	287.044	0.043	0.075
-291.647	800.000	-0.109	-0.313
-290.632	-82.372	0.138	0.044
-289.618	-143.215	0.210	0.020
-288.603	-165.999	-0.297	0.012
-287.589	-20.677	0.276	-0.166
-286.574	-200.000	0.011	0.237
-285.559	-200.000	0.012	0.139
-284.545	-73.846	-0.147	-0.052
-283.530	192.503	-0.130	0.192
-282.516	-200.000	0.006	0.216
-281.501	-200.000	0.009	0.346
-280.486	68.147	-0.169	0.170
-279.472	149.701	-0.118	-0.157
-278.457	610.655	0.107	0.263
-277.443	-73.256	-0.411	-0.147
-276.428	-200.000	0.016	0.141
-275.413	-200.000	-0.034	0.224
-274.399	-200.000	0.065	0.339
-273.384	41.943	0.050	0.044
-272.370	8.161	-0.143	0.105
-271.355	800.000	-0.147	0.487
-270.340	-44.983	0.151	-0.074
-269.326	800.000	-0.014	-0.056
-268.311	30.524	0.269	0.225
-267.297	800.000	0.091	0.289
-266.282	-200.000	0.029	-0.244
-265.267	-39.285	0.265	-0.136
-264.253	800.000	-0.047	-0.155
-263.238	324.320	0.122	0.229
-262.224	620.876	-0.070	0.171
-261.209	92.372	-0.029	0.032
-260.195	24.338	-0.101	0.082
-259.180	-42.688	0.174	0.087
-258.165	-200.000	0.003	-0.169
-257.151	89.768	0.134	-0.147
-256.136	-6.501	0.261	0.174
-255.122	34.672	0.084	-0.072
-254.107	-200.000	-0.022	0.192
-253.092	373.169	-0.122	0.243
-252.078	-93.589	-0.269	-0.073
-251.063	-200.000	0.040	0.266
-250.049	-152.941	-0.082	-0.006
-249.034	-144.712	0.397	-0.036
-248.019	159.421	-0.106	0.145
-247.005	-200.000	-0.029	0.141
-245.990	554.918	-0.156	-0.368
-244.976	-79.887	0.310	0.102
-243.961	-62.168	-0.204	-0.083
-242.946	56.783	0.082	-0.078
-241.932	122.206	-0.204	0.249
-240.917	-79.008	0.167	0.055
-239.903	-77.953	0.098	-0.033
-238.888	-200.000	-0.063	-0.306
-237.873	-200.000	-0.035	-0.329
-236.859	-94.023	-0.170	0.046
-235.844	-126.286	0.360	-0.053
-234.830	706.549	-0.022	-0.057
-233.815	-173.480	-0.178	-0.005
-232.800	-104.842	0.148	0.033
-231.786	-113.187	-0.108	0.021
-230.771	-38.375	-0.404	0.209
-229.757	-4.264	0.255	0.172
-228.742	32.384	0.123	0.104
-227.727	-2.910	0.205	0.140
-226.713	-86.903	0.046	0.014
-225.698	-200.000	0.000	-0.152
-224.684	207.277	0.123	0.188
-223.669	800.000	-0.070	-0.207
-222.655	5.049	0.058	-0.042
-221.640	-200.000	0.004	0.262
-220.625	-200.000	-0.022	0.214
-219.611	27.302	0.039	0.032
-218.596	-45.969	-0.087	0.042
-217.582	-61.367	0.173	0.071
-216.567	125.798	0.161	-0.199
-215.552	-100.833	-0.270	-0.065
-214.538	800.000	-0.055	0.204
-213.523	800.000	-0.118	-0.422
-212.509	-4.904	0.032	-0.021
-211.494	800.000	0.084	-0.252
-210.479	299.067	-0.133	0.240
-209.465	642.673	0.145	0.362
-208.450	64.154	0.269	-0.264
-207.436	189.483	0.053	0.077
-206.421	5.887	-0.131	-0.095
-205.406	-154.893	-0.074	-0.005
-204.392	79.735	-0.077	0.081
-203.377	163.027	0.168	-0.230
-202.363	-189.176	0.095	0.001
-201.348	-79.756	0.122	0.040
-200.333	800.000	-0.016	0.058
-199.319	-25.884	0.099	0.057
-198.304	-12.298	-0.227	0.145
-197.290	357.957	0.132	0.258
-196.275	800.000	0.023	-0.092
-195.260	800.000	0.165	0.463
-194.246	431.352	0.103	-0.219
-193.231	483.281	-0.094	0.209
-192.217	-200.000	0.065	-0.365
-191.202	158.049	0.042	-0.057
-190.187	374.086	-0.063	-0.124
-189.173	-94.441	0.228	0.061
-188.158	800.000	-0.106	0.317
-187.144	-200.000	-0.007	-0.260
-186.129	-27.862	0.097	0.055
-185.114	-197.842	0.285	-0.002
-184.100	-70.979	-0.215	-0.079
-183.085	329.725	0.129	-0.243
-182.071	-27.799	-0.094	0.053
-181.056	800.000	0.079	-0.234
-180.042	781.096	-0.176	-0.470
-179.027	150.747	-0.083	-0.110
-178.012	-34.002	-0.261	-0.140
-176.998	-82.400	0.040	0.013
-175.983	-113.524	-0.033	-0.006
-174.969	150.260	-0.117	0.155
-173.954	358.505	0.203	-0.395
-172.939	800.000	0.115	0.379
-171.925	284.797	0.149	-0.262
-170.910	800.000	0.006	-0.019
-169.896	-107.686	-0.254	-0.054
-168.881	800.000	-0.054	-0.193
-167.866	-200.000	-0.011	-0.136
-166.852	-102.893	0.100	0.023
-165.837	-35.752	0.132	-0.070
-164.823	-34.875	-0.133	-0.071
-163.808	292.535	0.227	-0.403
-162.793	-200.000	-0.029	-0.162
-161.779	-171.630	-0.191	0.006
-160.764	-98.806	-0.304	-0.075
-159.750	164.035	-0.220	-0.302
-158.735	-159.168	-0.093	-0.005
-157.720	-106.321	-0.217	-0.047
-156.706	-26.577	0.113	0.065
-155.691	-14.890	-0.155	0.097
-154.677	-200.000	-0.022	0.150
-153.662	49.379	-0.024	0.022
-152.647	56.372	0.154	-0.146
-151.633	389.686	-0.099	0.200
-150.618	374.741	0.088	0.175
-149.604	-88.732	-0.273	-0.079
-148.589	250.018	0.085	0.140
-147.574	-28.757	0.188	0.105
-146.560	106.767	0.067	0.077
-145.545	362.627	-0.140	-0.274
-144.531	-200.000	-0.078	0.414
-143.516	-52.222	0.170	0.077
-142.502	800.000	-0.089	-0.248
-141.487	-200.000	-0.068	0.342
-140.472	-200.000	0.006	0.064
-139.458	20.390	-0.176	-0.138
-138.443	-125.349	-0.045	0.007
-137.429	-200.000	0.008	-0.456
-136.414	-200.000	-0.019	-0.268
-135.399	-182.907	-0.260	-0.005
-134.385	-19.990	-0.175	-0.105
-133.370	-62.345	-0.239	0.097
-132.356	49.990	-0.355	0.327
-131.341	-200.000	0.014	0.155
-130.326	-200.000	-0.002	0.126
-129.312	-98.533	-0.140	0.035
-128.297	74.055	0.164	-0.168
-127.283	-64.002	-0.108	0.043
-126.268	-25.926	-0.331	-0.189
-125.253	-143.422	0.136	0.013
-124.239	-75.328	0.307	0.106
-123.224	-69.591	0.415	0.155
-122.210	216.544	0.183	-0.283
