DTS Sentinel unit serial number:	SN413079Multiplexer serial number:	ORYXHardware model number:	OX4-SRSoftware version number:	ORYX F/W v4.00 Oryx Data Collector v3.7.2.0data status	okinstallation	princeton_trtdifferential loss correction	single-endedforward channel	channel 2reverse channel	N/Adate	2019/09/18time	04:11:35forward acquisition time	60.00reverse acquisition time	0.00gamma	496.2192k internal	0.2348k external	0.2348temperature offset calibration	0.9985default loss term (dB/km)	0.3790temperature slope calibration	1.0000multiplexer offset coefficient	1.0000multiplexer slope coefficient	1.0000fibre end	0.00T internal ref (°C)	23.28T ext. ref 1 (°C)	0.18T ext. ref 2 (°C)	17.73length (m)	temperature (°C)	Stokes	anti-Stokes-747.200	405.147	-0.083	-0.174
-746.185	800.000	-0.065	0.228
-745.171	7.229	0.287	0.214
-744.156	-71.285	-0.058	0.022
-743.142	290.412	0.197	0.358
-742.127	-8.194	0.142	-0.096
-741.112	562.647	0.059	0.143
-740.098	-15.818	-0.270	0.172
-739.083	10.095	0.316	0.240
-738.069	272.810	-0.060	0.106
-737.054	112.204	0.172	-0.207
-736.039	-137.343	-0.136	0.015
-735.025	62.061	0.152	-0.151
-734.010	-200.000	-0.018	-0.172
-732.996	101.558	0.141	0.164
-731.981	39.151	-0.412	-0.368
-730.966	686.818	0.133	-0.348
-729.952	-49.260	-0.199	-0.095
-728.937	-200.000	0.019	0.184
-727.923	800.000	0.025	-0.093
-726.908	364.273	0.108	0.217
-725.894	-22.118	0.104	-0.063
-724.879	-124.878	-0.248	-0.038
-723.864	-146.902	0.393	-0.034
-722.850	322.265	-0.055	-0.104
-721.835	-118.739	-0.527	0.093
-720.821	179.614	0.335	-0.489
-719.806	-200.000	-0.009	-0.125
-718.791	11.030	0.154	-0.117
-717.777	-200.000	-0.002	0.316
-716.762	800.000	-0.026	-0.084
-715.748	-81.121	0.171	-0.056
-714.733	800.000	-0.060	-0.187
-713.718	114.295	-0.359	-0.436
-712.704	614.490	0.128	0.321
-711.689	-152.573	0.215	-0.015
-710.675	16.735	-0.087	0.068
-709.660	667.202	0.049	0.126
-708.645	43.047	-0.095	-0.087
-707.631	38.278	-0.226	-0.201
-706.616	-75.600	-0.164	0.058
-705.602	-71.206	-0.072	0.027
-704.587	12.689	-0.447	0.344
-703.572	298.526	-0.185	-0.340
-702.558	-78.759	0.079	-0.027
-701.543	-121.576	-0.149	-0.025
-700.529	-35.889	0.201	-0.109
-699.514	-84.866	0.280	-0.088
-698.499	130.395	0.248	-0.317
-697.485	94.775	0.254	-0.289
-696.470	420.276	0.036	-0.076
-695.456	-200.000	0.024	0.176
-694.441	-200.000	-0.004	0.171
-693.426	-135.519	0.072	0.009
-692.412	-104.825	-0.193	0.044
-691.397	404.999	-0.064	-0.135
-690.383	120.824	0.116	-0.144
-689.368	-45.981	0.229	-0.113
-688.354	187.479	-0.036	-0.054
-687.339	239.534	0.063	0.104
-686.324	326.730	-0.138	0.264
-685.310	-200.000	-0.005	-0.143
-684.295	529.265	0.014	-0.033
-683.281	56.157	-0.275	0.266
-682.266	16.381	-0.145	0.114
-681.251	90.171	0.459	-0.512
-680.237	-200.000	0.036	-0.268
-679.222	71.197	0.260	0.269
-678.208	58.331	-0.058	0.057
-677.193	-200.000	0.033	-0.229
-676.178	-200.000	0.011	-0.142
-675.164	-108.315	0.294	-0.063
-674.149	800.000	0.004	0.011
-673.135	-200.000	0.029	-0.135
-672.120	-107.155	-0.125	-0.027
-671.105	88.516	-0.122	-0.135
-670.091	-200.000	0.008	0.291
-669.076	800.000	-0.061	-0.171
-668.062	-200.000	-0.001	0.029
-667.047	-51.685	-0.139	0.064
-666.032	31.846	-0.047	-0.040
-665.018	201.955	-0.182	0.280
-664.003	-200.000	-0.016	-0.072
-662.989	-51.825	-0.138	0.064
-661.974	-183.806	-0.239	-0.004
-660.959	-120.506	0.249	-0.042
-659.945	-200.000	-0.002	-0.099
-658.930	87.848	-0.047	0.052
-657.916	-102.718	0.113	-0.027
-656.901	38.469	0.294	-0.261
-655.886	800.000	-0.033	0.122
-654.872	476.204	0.087	0.195
-653.857	19.974	-0.171	-0.137
-652.843	-53.560	0.025	0.012
-651.828	800.000	-0.045	0.178
-650.814	167.050	0.132	0.186
-649.799	28.472	-0.272	0.229
-648.784	151.991	0.032	0.044
-647.770	79.810	0.164	0.175
-646.755	-138.748	-0.087	0.009
-645.741	-102.910	0.079	0.019
-644.726	281.204	-0.023	0.041
-643.711	-200.000	0.011	0.197
-642.697	800.000	0.074	-0.299
-641.682	-110.799	0.252	0.052
-640.668	5.978	0.169	-0.124
-639.653	-36.759	-0.442	0.236
-638.638	-22.519	-0.351	0.211
-637.624	148.081	-0.177	0.238
-636.609	-36.778	0.060	-0.032
-635.595	-91.542	-0.192	-0.054
-634.580	182.271	0.133	-0.195
-633.565	-30.850	0.185	-0.104
-632.551	18.346	-0.025	-0.019
-631.536	-132.914	-0.056	0.007
-630.522	-200.000	0.028	0.176
-629.507	-200.000	-0.003	0.124
-628.492	-23.620	-0.257	0.153
-627.478	-19.744	-0.288	-0.177
-626.463	118.199	-0.226	-0.278
-625.449	676.985	0.048	0.123
-624.434	-64.196	0.334	-0.135
-623.419	764.635	0.021	-0.056
-622.405	-146.421	0.335	0.029
-621.390	671.309	-0.067	-0.174
-620.376	-21.579	-0.309	0.187
-619.361	-11.603	-0.045	-0.030
-618.346	-200.000	0.047	-0.453
-617.332	2.817	-0.130	-0.094
-616.317	-200.000	0.006	0.163
-615.303	-178.094	0.285	-0.007
-614.288	-97.034	0.090	-0.023
-613.273	-19.595	0.147	-0.090
-612.259	-5.473	0.151	-0.103
-611.244	-101.471	-0.250	-0.061
-610.230	39.862	-0.225	0.201
-609.215	6.903	0.095	0.070
-608.201	-54.067	-0.130	0.059
-607.186	546.366	-0.094	-0.224
-606.171	40.182	-0.046	0.042
-605.157	60.502	0.150	-0.148
-604.142	-143.944	-0.297	0.028
-603.128	-6.596	0.148	0.100
-602.113	8.471	-0.217	0.162
-601.098	503.994	-0.145	-0.333
-600.084	93.976	-0.148	0.167
-599.069	21.549	-0.162	0.131
-598.055	-200.000	-0.066	0.461
-597.040	-34.569	-0.282	0.153
-596.025	9.019	-0.085	0.064
-595.011	136.542	0.095	-0.123
-593.996	-200.000	-0.005	-0.213
-592.982	-24.293	0.094	0.056
-591.967	-27.814	-0.181	-0.104
-590.952	800.000	0.076	-0.271
-589.938	36.216	0.148	-0.130
-588.923	-200.000	-0.055	0.274
-587.909	-130.248	0.272	-0.037
-586.894	-168.918	-0.427	-0.016
-585.879	-61.264	-0.200	0.084
-584.865	26.161	0.328	-0.272
-583.850	88.320	0.152	-0.168
-582.836	-100.319	0.040	0.010
-581.821	508.360	0.062	0.143
-580.806	-200.000	0.038	0.211
-579.792	-130.495	0.050	0.007
-578.777	-200.000	-0.015	-0.387
-577.763	-34.683	-0.101	0.055
-576.748	-147.282	-0.164	-0.014
-575.733	413.241	-0.146	-0.308
-574.719	8.875	-0.103	-0.077
-573.704	40.850	-0.131	-0.117
-572.690	-5.554	-0.310	-0.211
-571.675	-200.000	0.081	-0.371
-570.661	-33.455	0.123	0.067
-569.646	49.759	0.227	-0.212
-568.631	175.818	0.204	0.293
-567.617	-35.095	-0.150	-0.081
-566.602	-200.000	0.027	-0.211
-565.588	35.909	0.069	0.060
-564.573	279.418	-0.153	-0.272
-563.558	208.554	-0.143	-0.222
-562.544	-136.864	-0.221	0.025
-561.529	651.420	-0.100	0.254
-560.515	-200.000	-0.018	-0.169
-559.500	-1.071	0.137	0.096
-558.485	-200.000	0.022	-0.285
-557.471	330.338	-0.200	0.383
-556.456	-200.000	-0.045	-0.277
-555.442	422.212	-0.081	0.173
-554.427	-200.000	0.025	-0.137
-553.412	32.934	-0.092	0.079
-552.398	666.537	-0.073	-0.186
-551.383	-3.730	-0.085	-0.059
-550.369	101.518	-0.061	0.071
-549.354	-103.683	0.066	-0.015
-548.339	42.986	-0.103	-0.093
-547.325	-112.880	-0.398	-0.078
-546.310	-63.765	-0.261	-0.106
-545.296	-40.494	-0.117	-0.060
-544.281	800.000	-0.086	-0.260
-543.266	93.306	-0.190	0.213
-542.252	-68.933	0.278	0.106
-541.237	-84.648	-0.140	-0.044
-540.223	800.000	-0.054	-0.202
-539.208	-78.548	-0.139	0.047
-538.193	-21.830	0.288	-0.173
-537.179	215.077	-0.068	-0.107
-536.164	2.971	-0.102	-0.074
-535.150	-143.480	0.107	-0.010
-534.135	-200.000	-0.022	0.350
-533.121	-184.246	0.134	0.002
-532.106	4.274	-0.048	0.035
-531.091	-66.635	-0.228	-0.089
-530.077	725.466	-0.086	0.227
-529.062	800.000	0.052	-0.204
-528.048	-200.000	0.006	0.065
-527.033	14.369	-0.071	0.055
-526.018	-63.474	0.092	-0.037
-525.004	800.000	0.078	-0.288
-523.989	-200.000	0.019	-0.150
-522.975	58.415	-0.249	0.242
-521.960	-200.000	0.048	0.310
-520.945	5.648	0.161	-0.118
-519.931	162.285	-0.078	0.109
-518.916	201.458	0.098	-0.150
-517.902	-200.000	0.005	0.243
-516.887	800.000	0.051	-0.184
-515.872	-44.289	-0.253	-0.126
-514.858	-43.338	-0.116	-0.058
-513.843	-200.000	-0.011	-0.273
-512.829	-26.152	-0.053	0.031
-511.814	-30.462	-0.118	-0.066
-510.799	-67.890	-0.332	0.128
-509.785	-190.349	-0.231	0.003
-508.770	130.905	-0.027	0.034
-507.756	147.707	-0.134	-0.179
-506.741	-61.507	0.207	-0.086
-505.726	-200.000	0.015	-0.300
-504.712	-128.786	-0.261	-0.036
-503.697	-130.472	0.292	-0.039
-502.683	641.284	0.026	0.065
-501.668	10.506	0.179	-0.135
-500.653	-110.155	0.304	-0.063
-499.639	123.355	0.117	-0.145
-498.624	-200.000	-0.011	-0.366
-497.610	-200.000	-0.017	0.256
-496.595	-118.851	-0.060	0.011
-495.581	-126.569	0.211	-0.031
-494.566	72.377	-0.233	-0.240
-493.551	87.177	0.107	0.117
-492.537	-99.713	-0.530	-0.132
-491.522	-200.000	-0.062	-0.276
-490.508	-3.256	0.086	0.059
-489.493	-46.126	-0.049	-0.024
-488.478	11.576	0.158	-0.120
-487.464	-23.716	0.288	-0.171
-486.449	-200.000	-0.037	0.257
-485.435	-151.139	-0.114	0.008
-484.420	94.636	-0.117	0.131
-483.405	-158.097	0.189	0.011
-482.391	-29.258	-0.018	-0.010
-481.376	-14.109	0.168	-0.107
-480.362	-200.000	-0.074	-0.332
-479.347	643.012	-0.146	-0.369
-478.332	94.908	0.272	-0.306
-477.318	-18.759	-0.349	0.215
-476.303	188.426	-0.090	-0.134
-475.289	560.661	0.088	0.211
-474.274	51.007	-0.173	-0.162
-473.259	-37.069	0.156	-0.083
-472.245	-200.000	0.001	-0.013
-471.230	48.389	0.153	0.141
-470.216	540.950	-0.048	-0.113
-469.201	-200.000	-0.006	-0.076
-468.186	-103.765	0.426	0.099
-467.172	-59.672	0.355	0.150
-466.157	38.808	-0.153	-0.135
-465.143	87.339	-0.254	-0.277
-464.128	-155.244	0.198	0.013
-463.113	-68.915	0.032	0.012
-462.099	-114.077	-0.062	-0.012
-461.084	415.660	-0.019	0.039
-460.070	-73.574	-0.188	0.068
-459.055	-149.579	-0.221	-0.017
-458.040	91.714	0.114	-0.127
-457.026	-139.580	-0.160	0.017
-456.011	196.201	0.068	-0.102
-454.997	-59.313	0.332	0.141
-453.982	49.952	0.069	-0.064
-452.968	-200.000	0.001	0.035
-451.953	42.990	0.071	0.064
-450.938	-200.000	-0.016	-0.078
-449.924	292.897	-0.067	-0.120
-448.909	-151.701	0.255	-0.019
-447.895	-200.000	-0.024	0.400
-446.880	703.857	0.092	0.240
-445.865	92.436	-0.207	0.231
-444.851	14.006	-0.136	-0.104
-443.836	-200.000	0.033	-0.242
-442.822	5.512	-0.087	0.064
-441.807	-133.178	0.238	0.030
-440.792	69.820	-0.355	-0.362
-439.778	-7.572	0.284	-0.189
-438.763	56.874	0.052	0.050
-437.749	-9.808	-0.352	-0.231
-436.734	396.219	0.137	-0.283
-435.719	235.876	0.112	-0.183
-434.705	800.000	-0.052	0.203
-433.690	519.649	0.203	0.469
-432.676	274.999	0.162	-0.284
-431.661	-153.902	0.123	0.008
-430.646	196.671	-0.288	-0.434
-429.632	-53.090	-0.134	-0.061
-428.617	-106.867	-0.061	0.013
-427.603	-28.600	0.444	-0.252
-426.588	-94.118	-0.097	0.026
-425.573	1.920	-0.259	0.185
-424.559	800.000	-0.057	-0.212
-423.544	-94.269	-0.283	0.076
-422.530	-200.000	-0.022	0.347
-421.515	46.529	0.158	0.145
-420.500	205.292	-0.110	-0.169
-419.486	281.054	0.042	0.075
-418.471	397.552	-0.098	-0.203
-417.457	-105.436	-0.017	0.004
-416.442	26.098	0.280	0.231
-415.428	76.038	-0.055	-0.057
-414.413	-200.000	-0.039	0.167
-413.398	-97.424	0.170	0.044
-412.384	478.335	0.061	0.136
-411.369	44.863	0.239	-0.217
-410.355	-167.549	0.004	-0.000
-409.340	-114.234	0.276	0.053
-408.325	291.242	-0.188	0.338
-407.311	800.000	0.038	-0.129
-406.296	-38.910	0.286	-0.149
-405.282	800.000	0.052	0.150
-404.267	40.143	0.172	0.152
-403.252	800.000	-0.038	0.130
-402.238	54.165	0.192	0.182
-401.223	54.118	-0.290	-0.275
-400.209	-68.039	-0.099	-0.038
-399.194	-162.229	0.198	0.010
-398.179	-63.177	-0.347	-0.141
-397.165	-99.286	0.242	0.060
-396.150	312.108	-0.273	-0.504
-395.136	-200.000	-0.038	-0.415
-394.121	42.081	0.187	0.167
-393.106	25.001	0.138	0.113
-392.092	88.709	-0.018	-0.019
-391.077	-148.077	0.336	0.027
-390.063	-200.000	-0.016	-0.241
-389.048	-64.067	0.300	0.121
-388.033	-75.125	0.253	0.089
-387.019	-55.181	-0.229	0.102
-386.004	-44.856	-0.088	-0.043
-384.990	800.000	0.101	0.348
-383.975	-40.517	-0.353	-0.181
-382.960	39.250	-0.118	-0.104
-381.946	-154.143	0.086	0.006
-380.931	301.988	-0.092	-0.168
-379.917	-143.217	0.160	-0.015
-378.902	-200.000	0.035	0.157
-377.888	-200.000	0.041	0.505
-376.873	-200.000	-0.048	-0.279
-375.858	800.000	-0.059	-0.174
-374.844	-161.203	0.303	0.016
-373.829	-200.000	-0.048	0.273
-372.815	-120.160	-0.181	0.031
-371.800	800.000	0.076	0.214
-370.785	-200.000	-0.020	0.177
-369.771	-66.819	-0.061	-0.024
-368.756	142.682	-0.122	-0.159
-367.742	-200.000	0.045	-0.205
-366.727	800.000	0.120	0.471
-365.712	-160.668	-0.139	-0.007
-364.698	-68.119	-0.205	0.079
-363.683	48.687	-0.060	0.055
-362.669	787.452	-0.079	-0.213
-361.654	-49.886	0.185	0.086
-360.639	-68.382	-0.054	-0.021
-359.625	-200.000	-0.035	0.252
-358.610	49.098	0.077	0.071
-357.596	75.999	-0.413	-0.430
-356.581	47.452	-0.212	0.195
-355.566	17.274	0.228	0.178
-354.552	800.000	0.075	-0.236
-353.537	28.598	-0.034	-0.029
-352.523	97.749	0.161	-0.182
-351.508	-200.000	0.028	0.223
-350.493	338.529	0.098	0.189
-349.479	-200.000	0.048	-0.220
-348.464	487.949	0.055	0.123
-347.450	800.000	-0.022	0.064
-346.435	8.898	0.124	0.092
-345.420	32.665	-0.163	-0.139
-344.406	391.959	0.074	0.152
-343.391	-4.707	-0.348	-0.236
-342.377	66.802	-0.083	0.083
-341.362	-128.778	-0.118	-0.016
-340.348	-65.027	-0.192	-0.076
-339.333	463.372	0.122	0.269
-338.318	81.764	-0.169	0.180
-337.304	-89.054	0.360	0.105
-336.289	113.792	-0.078	-0.094
-335.275	-104.760	-0.268	0.061
-334.260	144.686	0.041	0.054
-333.245	-181.472	-0.179	-0.003
-332.231	-200.000	0.014	-0.217
-331.216	41.295	0.217	-0.193
-330.202	-200.000	-0.060	-0.266
-329.187	800.000	0.007	0.027
-328.172	-86.842	-0.186	-0.056
-327.158	19.377	0.149	-0.118
-326.143	663.292	-0.083	-0.211
-325.129	319.993	0.182	-0.339
-324.114	-200.000	0.149	-0.000
-323.099	453.213	0.068	0.148
-322.085	-144.418	-0.171	-0.016
-321.070	-200.000	-0.013	-0.186
-320.056	-162.189	0.181	0.009
-319.041	800.000	0.104	0.402
-318.026	-157.417	-0.053	-0.003
-317.012	-200.000	-0.006	0.063
-315.997	-200.000	-0.035	0.339
-314.983	692.066	-0.147	-0.380
-313.968	26.790	-0.194	-0.160
-312.953	5.261	0.258	0.187
-311.939	-91.244	0.579	0.163
-310.924	7.263	0.032	-0.023
-309.910	36.511	0.207	0.179
-308.895	414.017	0.134	-0.279
-307.880	800.000	-0.060	-0.168
-306.866	-200.000	-0.008	0.056
-305.851	48.595	-0.331	0.305
-304.837	679.117	-0.068	0.173
-303.822	-200.000	-0.003	0.094
-302.807	76.969	0.071	0.074
-301.793	66.376	0.049	-0.049
-300.778	118.477	-0.210	0.255
-299.764	-39.284	0.147	0.076
-298.749	533.565	-0.053	-0.123
-297.735	-64.065	-0.266	0.107
-296.720	-110.713	-0.348	0.071
-295.705	-18.215	0.109	-0.067
-294.691	363.180	-0.072	-0.142
-293.676	-200.000	0.017	0.123
-292.662	-200.000	0.008	-0.177
-291.647	55.401	0.127	-0.120
-290.632	-177.003	-0.246	0.006
-289.618	56.112	0.177	0.169
-288.603	277.171	0.114	0.199
-287.589	-161.145	-0.137	-0.007
-286.574	800.000	0.088	-0.257
-285.559	-107.165	-0.083	-0.018
-284.545	-95.996	0.239	0.062
-283.530	-38.418	-0.322	0.167
-282.516	-149.338	0.344	-0.027
-281.501	-125.109	-0.083	-0.012
-280.486	-192.296	0.130	-0.001
-279.472	141.939	-0.236	0.307
-278.457	671.084	-0.129	0.328
-277.443	-78.069	0.393	0.133
-276.428	-34.937	-0.218	0.117
-275.413	-73.849	-0.176	-0.063
-274.399	156.609	0.204	0.277
-273.384	179.597	0.098	0.141
-272.370	800.000	-0.137	-0.411
-271.355	49.635	-0.073	0.067
-270.340	-149.138	-0.191	-0.015
-269.326	28.403	0.153	-0.127
-268.311	-200.000	0.011	-0.090
-267.297	-72.118	-0.136	0.049
-266.282	209.754	-0.060	0.092
-265.267	23.633	0.156	-0.126
-264.253	693.588	0.047	-0.120
-263.238	-148.730	0.117	0.009
-262.224	42.693	0.292	0.260
-261.209	-77.198	0.151	-0.051
-260.195	-80.289	0.260	-0.085
-259.180	-106.936	-0.333	0.072
-258.165	800.000	-0.083	0.298
-257.151	509.124	-0.104	0.237
-256.136	-153.393	-0.113	0.008
-255.122	-112.075	0.305	-0.060
-254.107	14.632	0.088	0.068
-253.092	800.000	0.007	0.024
-252.078	24.679	0.061	-0.049
-251.063	800.000	-0.031	-0.132
-250.049	177.628	0.141	0.201
-249.034	345.193	0.131	-0.253
-248.019	800.000	-0.032	0.128
-247.005	550.444	0.049	0.115
-245.990	-101.430	-0.201	-0.048
-244.976	11.366	0.072	-0.054
-243.961	-59.028	0.140	-0.059
-242.946	-200.000	-0.054	-0.234
-241.932	82.019	-0.157	-0.167
-240.917	-84.955	0.132	0.041
-239.903	85.491	-0.291	0.313
-238.888	149.821	-0.186	-0.248
-237.873	-26.451	0.051	0.030
-236.859	-138.872	0.261	-0.028
-235.844	42.572	0.249	-0.222
-234.830	343.160	0.131	0.252
-233.815	631.906	-0.009	-0.023
-232.800	-200.000	-0.012	-0.332
-231.786	-29.353	-0.147	0.082
-230.771	-65.937	-0.265	0.104
-229.757	-200.000	0.081	0.423
-228.742	-93.967	0.428	-0.115
-227.727	-150.955	-0.194	0.014
-226.713	-40.500	0.199	-0.101
-225.698	-133.276	0.089	-0.011
-224.684	-85.414	0.259	0.079
-223.669	308.924	-0.095	-0.174
-222.655	337.324	0.090	-0.171
-221.640	-91.832	0.077	0.022
-220.625	-200.000	0.048	0.534
-219.611	220.898	0.094	0.148
-218.596	101.284	0.141	0.161
-217.582	-147.844	0.302	-0.025
-216.567	7.756	-0.209	0.153
-215.552	32.221	-0.016	0.014
-214.538	-153.377	-0.208	-0.014
-213.523	-122.470	0.187	0.030
-212.509	406.529	0.132	0.273
-211.494	-191.142	-0.252	-0.003
-210.479	-93.536	-0.106	0.029
-209.465	-24.811	0.105	-0.061
-208.450	125.154	0.175	-0.216
-207.436	144.387	-0.041	-0.054
-206.421	-52.163	0.159	-0.072
-205.406	-115.148	-0.238	0.044
-204.392	-200.000	0.001	0.518
-203.377	553.600	0.121	-0.284
-202.363	600.347	-0.048	-0.117
-201.348	-58.928	0.171	0.072
-200.333	283.162	-0.031	0.054
-199.319	-67.670	0.249	0.095
-198.304	-129.998	0.455	0.061
-197.290	-147.919	-0.145	0.012
-196.275	183.463	0.197	-0.284
-195.260	38.394	-0.090	-0.078
-194.246	-200.000	-0.033	0.263
-193.231	65.357	0.171	0.169
-192.217	42.493	0.104	0.092
-191.202	351.732	0.170	0.329
-190.187	601.554	0.150	0.365
-189.173	118.510	-0.177	0.214
-188.158	184.689	-0.069	-0.100
-187.144	-200.000	0.032	0.247
-186.129	87.522	0.203	-0.219
-185.114	-200.000	-0.039	0.284
-184.100	751.354	-0.122	0.323
-183.085	-42.295	-0.097	0.048
-182.071	800.000	0.032	0.094
-181.056	800.000	0.022	0.071
-180.042	-138.653	-0.176	0.019
-179.027	385.966	0.193	0.390
-178.012	-100.562	-0.263	0.064
-176.998	-42.113	0.461	0.230
-175.983	-79.159	0.195	0.065
-174.969	-200.000	-0.010	0.340
-173.954	-200.000	0.008	0.094
-172.939	74.056	0.149	0.153
-171.925	-96.012	0.094	0.024
-170.910	800.000	-0.023	-0.065
-169.896	800.000	0.108	0.311
-168.881	-72.990	-0.363	0.130
-167.866	-50.680	-0.211	-0.097
-166.852	-106.511	0.260	-0.057
-165.837	-200.000	-0.080	-0.378
-164.823	-92.520	-0.250	0.069
-163.808	350.471	0.062	-0.120
-162.793	-162.114	-0.370	-0.018
-161.779	-112.556	0.310	0.060
-160.764	-50.685	-0.032	-0.015
-159.750	-96.856	-0.316	-0.081
-158.735	-106.730	0.119	0.026
-157.720	-65.239	-0.108	0.043
-156.706	-111.273	0.679	-0.135
-155.691	9.040	-0.323	0.238
-154.677	117.802	-0.039	-0.047
-153.662	187.438	0.134	-0.196
-152.647	-102.017	0.385	-0.091
-151.633	-200.000	0.027	-0.189
-150.618	340.721	0.077	0.147
-149.604	27.301	-0.099	0.081
-148.589	-45.881	0.283	-0.136
-147.574	800.000	-0.138	-0.540
-146.560	-123.793	-0.558	-0.086
-145.545	-200.000	-0.020	-0.252
-144.531	101.647	0.181	0.206
-143.516	-45.590	0.164	0.079
-142.502	-200.000	0.009	0.105
-141.487	114.791	0.063	0.075
-140.472	-163.553	0.022	0.001
-139.458	-130.115	0.143	0.019
-138.443	-89.301	0.183	0.053
-137.429	290.672	-0.009	0.016
-136.414	-158.636	0.273	-0.015
-135.399	-200.000	0.036	-0.181
-134.385	126.586	0.086	-0.106
-133.370	14.417	0.109	-0.083
-132.356	-200.000	0.053	0.286
-131.341	-200.000	0.033	-0.302
-130.326	-76.129	-0.071	0.024
-129.312	247.628	0.056	-0.093
-128.297	-200.000	-0.068	0.533
-127.283	187.252	-0.062	0.090
-126.268	104.065	0.086	0.098
-125.253	-90.700	-0.272	-0.077
-124.239	116.276	0.261	-0.312
-123.224	-178.939	0.113	0.002
-122.210	-44.505	-0.110	0.053
-121.195	-200.000	-0.016	0.448
