DTS Sentinel unit serial number:	SN413079Multiplexer serial number:	ORYXHardware model number:	OX4-SRSoftware version number:	ORYX F/W v4.00 Oryx Data Collector v3.7.2.0data status	okinstallation	princeton_trtdifferential loss correction	single-endedforward channel	channel 2reverse channel	N/Adate	2019/09/15time	12:59:35forward acquisition time	60.00reverse acquisition time	0.00gamma	496.2192k internal	0.2310k external	0.2310temperature offset calibration	1.0006default loss term (dB/km)	0.3790temperature slope calibration	1.0000multiplexer offset coefficient	1.0000multiplexer slope coefficient	1.0000fibre end	0.00T internal ref (°C)	36.44T ext. ref 1 (°C)	5.01T ext. ref 2 (°C)	34.54length (m)	temperature (°C)	Stokes	anti-Stokes-747.200	359.260	-0.047	0.095
-746.185	55.261	-0.199	-0.195
-745.171	-103.708	0.324	-0.077
-744.156	738.173	-0.109	0.296
-743.142	-110.995	0.252	0.053
-742.127	-98.929	-0.394	0.101
-741.112	-87.524	0.438	-0.135
-740.098	-90.701	0.062	0.018
-739.083	-30.052	0.191	-0.110
-738.069	386.292	0.147	0.307
-737.054	-75.477	-0.220	-0.079
-736.039	-51.292	0.337	-0.160
-735.025	382.550	0.053	0.111
-734.010	-200.000	0.002	-0.099
-732.996	-200.000	0.003	-0.332
-731.981	-81.985	-0.118	-0.039
-730.966	183.974	0.049	-0.074
-729.952	-200.000	0.002	-0.018
-728.937	-50.873	-0.237	-0.113
-727.923	46.259	0.213	-0.200
-726.908	-92.354	-0.313	0.089
-725.894	-29.158	-0.295	-0.172
-724.879	-111.945	-0.218	-0.045
-723.864	168.147	-0.154	0.222
-722.850	-57.493	0.581	-0.259
-721.835	-83.221	-0.121	-0.039
-720.821	-182.866	-0.122	0.002
-719.806	201.574	-0.204	0.319
-718.791	-172.176	-0.073	0.002
-717.777	141.238	0.038	0.051
-716.762	-80.348	0.159	-0.054
-715.748	-125.954	0.117	-0.018
-714.733	-56.081	0.157	0.071
-713.718	533.491	-0.081	0.195
-712.704	103.341	0.104	-0.124
-711.689	-123.709	-0.420	-0.067
-710.675	-200.000	-0.033	-0.331
-709.660	324.908	0.122	-0.237
-708.645	78.221	0.146	0.158
-707.631	-200.000	-0.009	-0.263
-706.616	-89.382	-0.356	-0.106
-705.602	-21.062	-0.207	0.129
-704.587	-74.239	-0.286	-0.105
-703.572	124.467	-0.220	0.281
-702.558	599.659	-0.097	-0.244
-701.543	37.352	0.210	-0.188
-700.529	139.421	0.027	-0.036
-699.514	800.000	0.044	0.155
-698.499	-182.839	-0.342	-0.006
-697.485	53.198	0.047	0.046
-696.470	466.557	0.085	0.193
-695.456	800.000	0.051	-0.212
-694.441	156.524	-0.065	0.091
-693.426	-61.594	-0.131	-0.056
-692.412	-131.648	-0.169	-0.023
-691.397	2.757	0.079	-0.058
-690.383	310.189	0.105	-0.199
-689.368	800.000	0.041	-0.150
-688.354	-200.000	0.051	-0.412
-687.339	49.217	-0.169	0.161
-686.324	-103.172	-0.226	-0.054
-685.310	-200.000	-0.005	-0.113
-684.295	321.735	-0.106	0.204
-683.281	71.931	0.107	-0.113
-682.266	800.000	-0.040	-0.165
-681.251	800.000	0.131	0.535
-680.237	800.000	0.032	0.110
-679.222	-69.687	-0.229	0.089
-678.208	123.017	-0.105	-0.133
-677.193	-200.000	0.017	-0.089
-676.178	-26.944	-0.210	0.124
-675.164	-66.984	0.227	0.091
-674.149	-45.221	-0.185	0.093
-673.135	-200.000	0.009	-0.144
-672.120	-140.511	-0.202	-0.021
-671.105	0.128	-0.217	0.157
-670.091	312.584	-0.100	0.191
-669.076	389.743	-0.126	-0.264
-668.062	-30.618	-0.313	0.180
-667.047	201.087	-0.143	-0.222
-666.032	78.883	-0.090	-0.098
-665.018	482.774	-0.015	0.034
-664.003	167.325	0.223	0.321
-662.989	50.661	0.142	-0.136
-661.974	-200.000	-0.013	-0.383
-660.959	-43.310	0.225	-0.115
-659.945	500.775	-0.143	-0.333
-658.930	800.000	0.062	0.206
-657.916	-99.016	-0.055	0.014
-656.901	-47.600	-0.100	0.049
-655.886	92.566	-0.088	-0.100
-654.872	31.055	-0.431	-0.374
-653.857	296.533	-0.135	-0.251
-652.843	-200.000	-0.014	-0.086
-651.828	293.627	-0.132	0.243
-650.814	-50.214	-0.225	-0.108
-649.799	-200.000	-0.018	-0.129
-648.784	592.770	-0.031	0.078
-647.770	800.000	-0.098	0.279
-646.755	313.315	-0.172	0.327
-645.741	-63.290	-0.161	0.067
-644.726	-200.000	-0.036	-0.207
-643.711	-10.724	0.089	-0.059
-642.697	-62.925	-0.090	0.037
-641.682	-39.721	-0.279	0.148
-640.668	42.971	0.239	-0.221
-639.653	13.459	-0.048	0.037
-638.638	22.453	-0.165	-0.136
-637.624	-128.033	-0.202	-0.029
-636.609	373.563	-0.053	0.110
-635.595	-159.294	-0.445	-0.025
-634.580	95.928	0.297	-0.343
-633.565	800.000	0.135	-0.402
-632.551	-43.167	-0.163	-0.083
-631.536	206.732	-0.067	-0.105
-630.522	14.650	-0.136	-0.108
-629.507	163.062	-0.254	-0.361
-628.492	-156.112	0.350	-0.022
-627.478	22.356	0.134	-0.111
-626.463	70.984	-0.106	0.111
-625.449	6.788	0.328	-0.246
-624.434	-200.000	0.050	0.380
-623.419	-155.452	0.036	-0.002
-622.405	253.895	0.136	0.235
-621.390	-18.707	0.167	-0.105
-620.376	646.779	-0.077	0.200
-619.361	-95.698	-0.113	0.031
-618.346	-167.555	-0.337	0.014
-617.332	120.514	-0.194	-0.243
-616.317	-200.000	0.041	-0.257
-615.303	800.000	-0.035	0.127
-614.288	-159.581	0.110	-0.006
-613.273	557.480	0.038	0.091
-612.259	26.973	0.249	0.211
-611.244	283.325	-0.057	-0.104
-610.230	177.152	0.047	-0.070
-609.215	-200.000	-0.019	-0.087
-608.201	124.524	0.025	-0.032
-607.186	110.777	-0.143	-0.173
-606.171	-102.562	0.105	-0.025
-605.157	115.547	0.186	0.230
-604.142	-200.000	0.066	-0.415
-603.128	-200.000	-0.023	-0.232
-602.113	438.173	-0.058	0.128
-601.098	-200.000	0.055	-0.251
-600.084	121.179	0.058	-0.073
-599.069	-93.226	0.112	-0.031
-598.055	-36.916	0.083	0.045
-597.040	155.551	0.167	0.232
-596.025	-200.000	0.016	-0.095
-595.011	-200.000	0.047	-0.212
-593.996	96.042	-0.167	-0.193
-592.982	-200.000	0.039	-0.488
-591.967	38.027	0.173	0.156
-590.952	-186.928	0.233	-0.003
-589.938	307.656	0.159	0.299
-588.923	168.849	-0.172	-0.248
-587.909	-10.071	-0.176	0.118
-586.894	-44.519	-0.106	0.053
-585.879	-1.151	0.133	0.095
-584.865	-200.000	0.011	-0.223
-583.850	-152.300	0.347	0.025
-582.836	367.458	-0.046	-0.093
-581.821	11.746	-0.110	0.085
-580.806	-200.000	0.001	-0.064
-579.792	48.082	0.045	0.043
-578.777	-50.834	-0.157	-0.075
-577.763	418.541	-0.099	-0.213
-576.748	383.122	0.091	-0.189
-575.733	800.000	0.024	0.087
-574.719	800.000	0.028	-0.081
-573.704	522.175	-0.030	0.071
-572.690	56.025	0.254	0.248
-571.675	-78.829	0.350	0.120
-570.661	800.000	0.052	-0.185
-569.646	-92.540	0.132	-0.038
-568.631	6.110	-0.259	-0.194
-567.617	622.337	0.096	-0.245
-566.602	97.923	-0.217	-0.251
-565.588	218.000	-0.131	0.211
-564.573	-200.000	-0.028	-0.314
-563.558	780.296	0.057	-0.157
-562.544	-39.274	-0.231	0.123
-561.529	800.000	-0.053	0.208
-560.515	2.303	-0.275	0.200
-559.500	-36.024	-0.131	-0.072
-558.485	7.985	0.186	0.141
-557.471	-137.878	-0.622	0.070
-556.456	-47.093	0.200	0.098
-555.442	527.010	-0.056	-0.132
-554.427	-46.090	0.306	-0.152
-553.412	114.673	-0.146	-0.180
-552.398	-167.838	0.176	0.007
-551.383	300.781	-0.160	-0.297
-550.369	9.548	0.062	-0.047
-549.354	-103.651	0.200	-0.047
-548.339	800.000	0.038	0.141
-547.325	-55.589	-0.118	0.053
-546.310	3.907	-0.142	-0.104
-545.296	-200.000	0.011	0.088
-544.281	308.356	-0.170	-0.320
-543.266	800.000	0.034	-0.107
-542.252	800.000	0.054	0.217
-541.237	-152.839	-0.157	-0.011
-540.223	183.491	-0.045	-0.066
-539.208	91.775	0.373	-0.423
-538.193	-36.517	-0.228	0.124
-537.179	64.622	-0.178	0.181
-536.164	424.821	-0.070	-0.151
-535.150	-200.000	0.001	-0.321
-534.135	-47.642	0.199	0.097
-533.121	800.000	0.078	-0.250
-532.106	-77.679	0.088	0.031
-531.091	800.000	0.046	-0.201
-530.077	578.227	0.126	0.310
-529.062	22.212	0.269	0.221
-528.048	423.737	0.108	-0.234
-527.033	423.288	-0.116	0.250
-526.018	-159.517	0.263	0.015
-525.004	245.566	0.111	-0.188
-523.989	123.070	-0.233	-0.293
-522.975	-200.000	-0.018	0.244
-521.960	-200.000	-0.010	-0.279
-520.945	800.000	0.015	-0.047
-519.931	-143.586	-0.271	0.026
-518.916	111.313	0.115	-0.140
-517.902	-200.000	0.018	0.231
-516.887	-88.174	0.290	-0.088
-515.872	45.296	0.103	0.096
-514.858	800.000	0.024	-0.068
-513.843	-92.089	-0.119	-0.034
-512.829	-200.000	-0.076	-0.364
-511.814	44.463	0.314	-0.291
-510.799	-191.691	0.140	0.001
-509.785	-120.815	-0.145	-0.025
-508.770	64.223	-0.242	-0.245
-507.756	-81.432	-0.378	0.125
-506.741	38.482	0.106	0.095
-505.726	270.395	0.103	0.182
-504.712	-105.468	-0.540	-0.123
-503.697	289.862	0.288	0.527
-502.683	-200.000	0.077	0.410
-501.668	-1.096	-0.124	0.088
-500.653	-71.906	-0.120	-0.045
-499.639	100.943	0.100	-0.117
-498.624	-40.840	0.073	0.038
-497.610	319.883	-0.100	-0.191
-496.595	-183.893	0.196	0.003
-495.581	260.673	0.171	-0.298
-494.566	111.667	-0.051	0.062
-493.551	-200.000	-0.030	-0.263
-492.537	-35.596	-0.190	-0.104
-491.522	66.307	-0.144	0.147
-490.508	800.000	0.015	0.054
-489.493	225.965	0.028	-0.045
-488.478	-126.607	-0.373	-0.056
-487.464	13.936	-0.401	-0.314
-486.449	800.000	0.089	-0.314
-485.435	-200.000	-0.009	0.279
-484.420	-200.000	0.007	0.064
-483.405	-61.632	0.108	-0.046
-482.391	87.164	-0.083	0.092
-481.376	-8.802	0.264	-0.178
-480.362	-50.106	0.155	0.074
-479.347	-48.072	-0.339	-0.165
-478.332	597.649	-0.059	0.147
-477.318	-139.349	0.374	-0.040
-476.303	-34.534	0.276	0.152
-475.289	-200.000	-0.030	-0.146
-474.274	54.175	-0.260	-0.251
-473.259	-140.638	-0.245	0.026
-472.245	9.976	-0.235	-0.179
-471.230	-194.623	-0.187	0.001
-470.216	58.497	0.141	0.139
-469.201	-141.886	-0.195	-0.020
-468.186	74.626	-0.026	0.028
-467.172	-59.056	-0.062	-0.027
-466.157	-61.003	0.225	-0.096
-465.143	-200.000	0.049	0.279
-464.128	-69.438	-0.428	-0.165
-463.113	125.042	0.130	0.165
-462.099	-76.514	-0.288	0.102
-461.084	-15.930	0.172	-0.110
-460.070	-200.000	-0.002	0.059
-459.055	52.212	0.031	0.030
-458.040	-129.110	-0.072	0.010
-457.026	-158.777	-0.096	-0.005
-456.011	-200.000	0.006	-0.030
-454.997	-164.860	0.198	-0.009
-453.982	-200.000	-0.004	0.105
-452.968	-200.000	0.073	0.354
-451.953	-25.844	0.038	0.022
-450.938	-90.820	0.153	-0.044
-449.924	-125.338	-0.158	0.024
-448.909	800.000	0.071	0.298
-447.895	140.886	0.152	-0.202
-446.880	129.395	0.126	-0.162
-445.865	-92.346	0.059	-0.017
-444.851	800.000	-0.108	0.400
-443.836	-200.000	-0.028	0.132
-442.822	72.131	-0.181	-0.189
-441.807	-133.331	0.202	0.026
-440.792	800.000	-0.113	-0.325
-439.778	-200.000	-0.039	0.174
-438.763	800.000	0.033	-0.108
-437.749	102.260	0.052	-0.061
-436.734	-71.265	0.200	-0.075
-435.719	351.944	-0.137	-0.273
-434.705	800.000	0.042	0.180
-433.690	85.046	0.172	-0.189
-432.676	-200.000	-0.011	-0.182
-431.661	-200.000	0.053	0.604
-430.646	-200.000	-0.080	0.392
-429.632	-25.580	-0.074	0.044
-428.617	433.244	0.096	0.210
-427.603	31.207	0.133	-0.115
-426.588	-184.512	0.046	0.001
-425.573	272.399	-0.076	-0.134
-424.559	-200.000	0.024	0.123
-423.544	-191.614	-0.231	-0.002
-422.530	-63.616	0.389	-0.160
-421.515	-200.000	0.041	0.287
-420.500	-150.215	0.473	0.037
-419.486	-200.000	0.001	0.035
-418.471	166.305	0.200	0.283
-417.457	11.833	-0.109	0.084
-416.442	333.596	-0.067	0.129
-415.428	-88.413	-0.120	0.036
-414.413	-200.000	-0.061	-0.284
-413.398	125.757	-0.167	-0.212
-412.384	-93.720	0.041	0.011
-411.369	-200.000	0.003	-0.151
-410.355	-149.952	0.175	-0.014
-409.340	40.107	0.359	0.323
-408.325	-200.000	0.008	0.084
-407.311	-23.413	0.069	-0.041
-406.296	800.000	-0.153	0.435
-405.282	289.749	0.209	0.380
-404.267	-200.000	0.082	0.398
-403.252	-200.000	0.041	-0.255
-402.238	-23.422	0.389	-0.234
-401.223	7.621	-0.176	0.132
-400.209	599.148	-0.088	-0.219
-399.194	41.485	0.190	0.172
-398.179	57.037	-0.213	-0.208
-397.165	-200.000	0.007	-0.166
-396.150	30.293	0.083	-0.071
-395.136	701.205	0.053	0.139
-394.121	234.326	-0.056	-0.093
-393.106	33.087	0.116	-0.101
-392.092	-73.778	-0.187	0.068
-391.077	-6.875	-0.148	0.101
-390.063	-80.229	-0.155	0.052
-389.048	-73.755	-0.349	0.127
-388.033	71.613	0.184	0.191
-387.019	-1.990	0.039	-0.028
-386.004	126.312	-0.127	-0.161
-384.990	-26.992	-0.250	-0.146
-383.975	54.368	-0.297	-0.286
-382.960	-200.000	-0.002	0.182
-381.946	-134.263	-0.217	0.027
-380.931	335.399	-0.086	-0.168
-379.917	15.539	0.076	0.060
-378.902	-15.738	0.262	-0.167
-377.888	12.187	-0.089	0.068
-376.873	-200.000	0.000	0.079
-375.858	-111.174	-0.305	0.063
-374.844	7.493	-0.213	0.160
-373.829	-151.717	0.183	0.014
-372.815	-179.259	0.037	-0.001
-371.800	-102.146	-0.314	0.076
-370.785	114.489	0.297	-0.362
-369.771	800.000	0.069	0.262
-368.756	-91.561	-0.219	-0.062
-367.742	-168.254	0.130	0.005
-366.727	-142.668	0.347	0.034
-365.712	-108.170	0.043	-0.009
-364.698	-108.676	0.135	0.029
-363.683	-86.204	-0.257	0.079
-362.669	-74.334	-0.228	-0.082
-361.654	800.000	0.062	0.181
-360.639	-200.000	0.040	0.209
-359.625	-40.655	-0.210	-0.109
-358.610	-28.926	0.154	0.089
-357.596	-3.175	-0.248	0.173
-356.581	52.213	-0.128	0.122
-355.566	-117.860	0.056	0.010
-354.552	-200.000	0.028	-0.124
-353.537	-91.702	-0.073	-0.021
-352.523	502.700	-0.051	-0.118
-351.508	453.936	-0.092	0.203
-350.493	494.240	0.055	-0.127
-349.479	-135.341	-0.503	0.060
-348.464	-106.656	-0.153	-0.034
-347.450	53.881	0.182	0.174
-346.435	-200.000	-0.029	0.158
-345.420	-162.259	0.235	-0.012
-344.406	-8.404	-0.157	-0.105
-343.391	-200.000	-0.036	0.244
-342.377	131.946	-0.178	0.228
-341.362	-7.034	-0.093	-0.063
-340.348	-200.000	-0.032	-0.222
-339.333	-76.411	-0.202	-0.071
-338.318	0.488	0.232	-0.166
-337.304	-127.979	0.159	0.023
-336.289	159.751	-0.069	0.096
-335.275	-200.000	0.079	0.377
-334.260	636.969	0.019	-0.049
-333.245	-115.775	0.211	0.039
-332.231	-200.000	-0.068	-0.329
-331.216	672.585	-0.104	0.269
-330.202	-200.000	0.021	-0.184
-329.187	288.246	-0.071	0.128
-328.172	25.230	-0.217	-0.180
-327.158	-103.374	0.130	-0.031
-326.143	-200.000	-0.025	-0.222
-325.129	522.327	0.089	-0.210
-324.114	86.273	0.172	0.190
-323.099	-150.529	-0.089	0.007
-322.085	-57.452	0.038	0.017
-321.070	-38.927	0.250	0.132
-320.056	33.657	0.124	-0.108
-319.041	9.895	-0.039	0.029
-318.026	-159.956	0.243	0.013
-317.012	-200.000	-0.022	-0.121
-315.997	-81.417	-0.233	-0.077
-314.983	800.000	-0.016	-0.061
-313.968	-58.494	0.467	0.203
-312.953	64.219	-0.024	0.024
-311.939	19.526	-0.324	0.260
-310.924	83.910	-0.227	0.248
-309.910	6.099	0.393	0.291
-308.895	-89.187	0.201	0.059
-307.880	59.681	0.270	0.266
-306.866	800.000	0.059	0.243
-305.851	42.686	-0.149	0.135
-304.837	32.613	0.091	-0.079
-303.822	-160.562	0.319	0.017
-302.807	-79.180	-0.228	-0.077
-301.793	-200.000	0.118	0.652
-300.778	-70.296	-0.210	-0.079
-299.764	33.601	0.099	0.086
-298.749	800.000	0.105	0.459
-297.735	23.429	-0.212	-0.174
-296.720	231.792	-0.084	-0.137
-295.705	-200.000	-0.010	-0.229
-294.691	165.125	-0.082	-0.116
-293.676	-80.275	0.211	0.070
-292.662	52.606	0.243	0.232
-291.647	144.204	0.162	0.215
-290.632	-69.844	-0.282	-0.107
-289.618	-149.043	-0.184	-0.015
-288.603	-55.655	0.209	-0.093
-287.589	-172.337	0.273	-0.009
-286.574	-81.521	-0.210	0.069
-285.559	180.127	-0.159	-0.233
-284.545	-106.599	0.145	-0.032
-283.530	130.670	0.071	0.091
-282.516	-146.333	-0.231	0.020
-281.501	-200.000	0.012	-0.057
-280.486	-200.000	-0.057	0.334
-279.472	157.212	0.131	-0.181
-278.457	100.925	-0.215	-0.249
-277.443	-109.758	-0.325	0.068
-276.428	170.053	-0.094	-0.134
-275.413	268.162	-0.031	-0.055
-274.399	-200.000	0.026	-0.346
-273.384	7.218	0.055	-0.041
-272.370	137.888	-0.047	-0.061
-271.355	-72.244	0.386	0.143
-270.340	148.281	0.038	-0.052
-269.326	-200.000	-0.066	-0.394
-268.311	-85.385	0.226	-0.070
-267.297	800.000	-0.032	-0.120
-266.282	-186.701	-0.233	-0.003
-265.267	-103.016	-0.130	0.031
-264.253	-200.000	-0.036	0.240
-263.238	62.773	-0.138	-0.137
-262.224	31.500	0.218	-0.187
-261.209	800.000	-0.036	0.116
-260.195	-200.000	-0.007	0.246
-259.180	25.340	-0.031	0.026
-258.165	324.085	0.050	0.095
-257.151	99.804	-0.093	0.108
-256.136	-42.851	0.145	-0.074
-255.122	-72.589	-0.194	0.071
-254.107	-200.000	-0.013	-0.148
-253.092	-11.933	0.233	-0.152
-252.078	-167.532	0.157	0.006
-251.063	553.543	-0.124	0.297
-250.049	800.000	-0.051	-0.167
-249.034	562.735	-0.084	0.203
-248.019	352.328	0.206	0.407
-247.005	-200.000	0.025	0.195
-245.990	800.000	-0.049	0.194
-244.976	147.634	-0.147	0.198
-243.961	61.442	-0.033	0.033
-242.946	162.507	0.112	-0.157
-241.932	15.667	0.068	0.053
-240.917	149.231	-0.117	-0.158
-239.903	701.747	0.032	0.085
-238.888	-137.885	-0.057	-0.006
-237.873	800.000	-0.083	-0.307
-236.859	-65.511	0.062	-0.025
-235.844	-40.748	0.213	-0.110
-234.830	-186.241	-0.365	-0.005
-233.815	-93.437	-0.176	0.048
-232.800	-85.460	-0.104	-0.032
-231.786	800.000	0.036	-0.155
-230.771	-70.087	-0.459	-0.174
-229.757	14.502	0.340	-0.264
-228.742	547.693	0.098	0.234
-227.727	-190.565	-0.208	0.002
-226.713	-147.667	-0.163	-0.014
-225.698	318.034	-0.177	-0.333
-224.684	800.000	0.059	0.190
-223.669	229.496	0.172	0.279
-222.655	98.118	-0.180	-0.206
-221.640	-94.381	0.069	-0.019
-220.625	800.000	-0.070	-0.194
-219.611	800.000	-0.083	-0.256
-218.596	264.709	0.141	-0.244
-217.582	196.022	-0.040	-0.061
-216.567	-200.000	0.018	0.121
-215.552	-83.421	0.408	-0.130
-214.538	-200.000	-0.004	-0.028
-213.523	79.751	-0.313	0.334
-212.509	176.287	-0.234	0.338
-211.494	186.537	0.220	0.325
-210.479	212.784	-0.104	-0.164
-209.465	-105.082	-0.347	-0.079
-208.450	-200.000	0.017	0.597
-207.436	800.000	0.045	0.149
-206.421	-55.189	0.116	0.052
-205.406	800.000	0.090	-0.276
-204.392	114.032	-0.206	0.249
-203.377	115.337	-0.095	0.116
-202.363	-63.980	0.108	0.044
-201.348	-48.274	0.522	0.250
-200.333	174.894	-0.026	-0.037
-199.319	-142.065	-0.413	0.041
-198.304	37.758	0.142	0.126
-197.290	148.351	0.239	0.320
-196.275	-111.640	0.148	0.030
-195.260	-30.923	0.262	-0.147
-194.246	103.441	0.210	-0.245
-193.231	-53.161	-0.242	-0.111
-192.217	49.273	0.341	0.318
-191.202	-85.916	0.440	0.135
-190.187	-59.148	-0.045	0.019
-189.173	-200.000	-0.008	0.274
-188.158	144.134	0.136	-0.181
-187.144	-142.994	-0.255	0.024
-186.129	89.593	-0.160	-0.178
-185.114	244.515	0.101	0.169
-184.100	-38.785	0.273	0.143
-183.085	9.322	-0.139	0.105
-182.071	-200.000	-0.001	0.059
-181.056	-200.000	-0.067	0.345
-180.042	119.571	-0.114	0.140
-179.027	-6.465	-0.291	0.197
-178.012	-200.000	0.056	-0.274
-176.998	-200.000	0.021	-0.117
-175.983	-200.000	-0.002	-0.274
-174.969	-84.123	-0.252	0.079
-173.954	800.000	0.094	-0.316
-172.939	-146.109	0.427	0.037
-171.925	-200.000	0.028	-0.224
-170.910	552.011	0.107	-0.254
-169.896	-74.479	-0.618	0.221
-168.881	800.000	0.068	-0.294
-167.866	-41.813	0.107	-0.055
-166.852	800.000	-0.063	-0.197
-165.837	-24.959	0.114	0.067
-164.823	183.110	0.133	0.195
-163.808	-128.580	0.135	-0.019
-162.793	541.723	0.092	-0.218
-161.779	-166.800	-0.237	0.010
-160.764	338.494	0.169	-0.326
-159.750	-43.220	0.269	0.135
-158.735	5.079	0.104	0.076
-157.720	305.590	0.046	0.085
-156.706	10.443	-0.060	0.045
-155.691	8.426	0.287	0.214
-154.677	800.000	0.007	0.026
-153.662	-8.183	0.160	-0.107
-152.647	448.269	0.207	0.453
-151.633	-54.982	-0.331	-0.148
-150.618	-200.000	0.023	0.102
-149.604	267.861	0.159	0.277
-148.589	-200.000	0.097	0.568
-147.574	41.063	-0.309	-0.277
-146.560	108.149	-0.104	-0.123
-145.545	-165.849	-0.148	-0.006
-144.531	154.911	-0.178	-0.243
-143.516	800.000	-0.022	-0.074
-142.502	131.451	0.059	0.075
-141.487	504.986	0.029	0.066
-140.472	-200.000	-0.030	-0.309
-139.458	-66.476	-0.168	0.066
-138.443	41.942	0.264	0.237
-137.429	-121.351	0.379	-0.063
-136.414	-200.000	-0.006	0.217
-135.399	-67.476	-0.033	-0.013
-134.385	-170.568	0.276	-0.010
-133.370	-85.446	0.400	-0.123
-132.356	-189.294	-0.267	0.003
-131.341	-200.000	0.013	-0.080
-130.326	205.991	-0.234	0.361
-129.312	594.481	0.180	-0.441
-128.297	153.372	0.248	-0.336
-127.283	29.248	0.141	0.119
-126.268	800.000	0.061	0.184
-125.253	-93.805	-0.321	0.088
-124.239	4.721	-0.300	0.218
-123.224	789.890	-0.032	0.086
-122.210	192.210	0.040	-0.060
-121.195	-124.768	0.268	-0.041
