DTS Sentinel unit serial number:	SN413079Multiplexer serial number:	ORYXHardware model number:	OX4-SRSoftware version number:	ORYX F/W v4.00 Oryx Data Collector v3.7.2.0data status	okinstallation	princeton_trtdifferential loss correction	single-endedforward channel	channel 2reverse channel	N/Adate	2019/09/10time	16:57:10forward acquisition time	60.00reverse acquisition time	0.00gamma	496.2192k internal	0.2310k external	0.2310temperature offset calibration	0.9934default loss term (dB/km)	0.3790temperature slope calibration	1.0000multiplexer offset coefficient	1.0000multiplexer slope coefficient	1.0000fibre end	0.00T internal ref (°C)	37.62T ext. ref 1 (°C)	-0.32T ext. ref 2 (°C)	32.38length (m)	temperature (°C)	Stokes	anti-Stokes-747.200	292.859	0.123	0.228
-746.185	-177.493	-0.222	0.006
-745.171	-39.361	0.170	0.091
-744.156	800.000	-0.082	0.345
-743.142	-200.000	0.059	-0.288
-742.127	-85.010	-0.354	0.113
-741.112	90.862	-0.013	0.015
-740.098	-9.182	0.275	-0.187
-739.083	-107.648	0.258	0.057
-738.069	800.000	-0.131	0.386
-737.054	800.000	0.076	0.228
-736.039	-129.531	-0.394	0.055
-735.025	459.106	-0.160	0.360
-734.010	300.447	-0.051	-0.095
-732.996	31.049	-0.158	-0.138
-731.981	-150.801	-0.104	-0.008
-730.966	-142.402	-0.176	-0.018
-729.952	142.397	-0.145	0.195
-728.937	-123.331	-0.446	-0.072
-727.923	-64.237	-0.280	0.116
-726.908	-122.614	0.173	-0.028
-725.894	-200.000	-0.040	-0.420
-724.879	163.079	-0.108	0.154
-723.864	132.936	-0.117	-0.153
-722.850	-200.000	0.032	0.141
-721.835	150.609	-0.228	-0.315
-720.821	129.888	-0.215	-0.279
-719.806	-200.000	-0.026	0.242
-718.791	800.000	0.070	-0.271
-717.777	-200.000	-0.098	0.479
-716.762	-39.352	-0.285	0.152
-715.748	-80.827	0.272	0.092
-714.733	-34.855	-0.184	0.102
-713.718	111.737	0.134	-0.164
-712.704	-55.770	-0.137	0.062
-711.689	-50.563	0.143	-0.068
-710.675	24.816	-0.024	-0.020
-709.660	-31.388	-0.118	0.067
-708.645	-45.805	0.164	0.082
-707.631	-31.975	-0.157	0.089
-706.616	170.770	-0.051	-0.073
-705.602	143.757	0.137	-0.185
-704.587	-200.000	-0.032	0.313
-703.572	-97.646	0.245	0.064
-702.558	-3.748	-0.401	-0.282
-701.543	94.056	-0.049	-0.056
-700.529	88.814	0.125	0.141
-699.514	12.573	-0.157	-0.123
-698.499	289.696	0.030	0.055
-697.485	800.000	-0.093	-0.377
-696.470	-91.371	0.215	0.062
-695.456	800.000	0.074	0.231
-694.441	-157.088	0.109	0.007
-693.426	52.890	-0.214	-0.207
-692.412	-109.702	-0.335	-0.071
-691.397	800.000	-0.056	0.232
-690.383	-64.158	-0.145	0.060
-689.368	-68.391	0.114	-0.045
-688.354	-81.815	-0.188	-0.062
-687.339	11.206	-0.242	0.188
-686.324	800.000	0.056	0.232
-685.310	71.405	0.075	-0.079
-684.295	601.689	-0.088	-0.222
-683.281	-200.000	0.064	-0.350
-682.266	-22.244	0.373	0.229
-681.251	-200.000	0.014	-0.325
-680.237	-24.586	-0.176	0.106
-679.222	-33.263	0.318	0.178
-678.208	-73.446	0.256	0.095
-677.193	800.000	-0.011	-0.038
-676.178	39.889	-0.116	0.105
-675.164	-200.000	0.027	0.193
-674.149	-193.480	-0.145	-0.001
-673.135	-128.757	0.157	-0.022
-672.120	-149.496	0.006	0.001
-671.105	10.342	-0.034	-0.026
-670.091	10.518	-0.156	0.120
-669.076	-200.000	-0.026	-0.141
-668.062	-200.000	-0.036	-0.189
-667.047	-110.271	-0.081	0.017
-666.032	-32.806	0.369	-0.208
-665.018	237.297	-0.171	-0.287
-664.003	345.238	-0.134	0.266
-662.989	182.704	-0.132	-0.196
-661.974	-200.000	0.017	-0.123
-660.959	583.105	0.095	-0.236
-659.945	-104.205	-0.089	-0.021
-658.930	256.352	0.110	0.191
-657.916	40.791	0.082	-0.075
-656.901	800.000	-0.072	-0.204
-655.886	-81.206	-0.254	-0.085
-654.872	-200.000	0.022	0.277
-653.857	-70.703	-0.238	-0.091
-652.843	-41.736	0.111	-0.058
-651.828	-70.326	-0.276	0.106
-650.814	-137.546	0.032	-0.004
-649.799	-57.781	0.350	0.155
-648.784	29.360	-0.095	0.082
-647.770	-71.892	-0.225	0.085
-646.755	-97.624	0.432	-0.113
-645.741	-117.905	-0.436	-0.079
-644.726	-200.000	-0.045	0.332
-643.711	79.681	0.036	-0.039
-642.697	-21.071	0.141	-0.087
-641.682	378.798	-0.130	-0.269
-640.668	352.710	-0.124	-0.249
-639.653	-30.051	0.150	0.087
-638.638	63.394	-0.020	0.020
-637.624	-97.970	0.082	0.021
-636.609	-105.496	-0.074	-0.017
-635.595	-130.089	0.136	0.019
-634.580	460.874	0.160	0.361
-633.565	136.247	-0.079	0.105
-632.551	-174.210	-0.211	-0.006
-631.536	106.159	0.156	0.187
-630.522	169.910	0.088	-0.127
-629.507	800.000	-0.043	0.165
-628.492	17.099	-0.193	0.155
-627.478	-137.981	-0.381	-0.043
-626.463	800.000	-0.055	-0.205
-625.449	-200.000	0.055	0.246
-624.434	528.137	-0.118	-0.282
-623.419	-200.000	0.015	-0.205
-622.405	-147.736	0.059	-0.005
-621.390	-200.000	-0.002	0.064
-620.376	145.350	0.117	0.159
-619.361	26.194	-0.076	0.064
-618.346	-94.320	-0.228	0.063
-617.332	285.574	0.082	-0.149
-616.317	197.968	-0.137	0.212
-615.303	-200.000	-0.073	0.424
-614.288	771.450	-0.085	0.235
-613.273	-108.701	-0.362	0.078
-612.259	174.242	0.069	0.100
-611.244	-59.313	-0.408	-0.177
-610.230	-200.000	-0.015	0.099
-609.215	321.649	-0.196	-0.377
-608.201	6.352	-0.367	-0.275
-607.186	87.274	0.385	0.430
-606.171	14.866	0.236	0.186
-605.157	10.532	0.189	-0.145
-604.142	-200.000	0.016	0.245
-603.128	282.136	0.020	-0.036
-602.113	-103.970	-0.465	0.110
-601.098	494.452	0.056	-0.130
-600.084	147.502	0.159	-0.216
-599.069	-200.000	-0.083	-0.409
-598.055	-127.865	0.154	-0.022
-597.040	92.494	-0.096	0.109
-596.025	503.217	-0.144	-0.337
-595.011	-20.794	-0.164	0.102
-593.996	-161.593	0.235	-0.012
-592.982	1.568	0.093	0.068
-591.967	-130.773	0.199	0.027
-590.952	22.858	0.141	0.117
-589.938	285.275	-0.078	0.142
-588.923	-150.445	0.300	-0.023
-587.909	-19.508	-0.273	0.170
-586.894	721.578	-0.017	0.045
-585.879	800.000	-0.014	-0.062
-584.865	800.000	-0.064	0.221
-583.850	678.589	-0.032	0.085
-582.836	383.208	-0.067	-0.139
-581.821	157.001	0.160	0.223
-580.806	483.978	-0.050	-0.114
-579.792	-200.000	-0.019	0.414
-578.777	238.977	0.106	-0.178
-577.763	-200.000	0.028	-0.326
-576.748	-120.380	0.159	-0.027
-575.733	-173.648	0.147	-0.004
-574.719	-124.323	0.439	0.069
-573.704	87.015	-0.307	-0.342
-572.690	167.599	0.120	-0.172
-571.675	92.343	-0.204	-0.232
-570.661	-60.687	0.203	0.087
-569.646	-200.000	-0.031	0.288
-568.631	262.719	-0.082	0.143
-567.617	-200.000	-0.002	0.104
-566.602	-43.205	0.030	-0.015
-565.588	-21.110	-0.187	-0.116
-564.573	7.864	0.249	0.188
-563.558	-200.000	-0.012	0.367
-562.544	800.000	0.057	0.211
-561.529	-60.657	0.029	-0.012
-560.515	225.861	-0.204	0.334
-559.500	55.340	-0.144	0.140
-558.485	6.389	0.442	0.331
-557.471	800.000	-0.032	0.090
-556.456	20.974	0.336	-0.275
-555.442	-200.000	-0.011	0.122
-554.427	-103.387	-0.016	0.004
-553.412	-31.113	-0.166	-0.095
-552.398	-35.199	0.239	-0.131
-551.383	40.335	-0.303	0.275
-550.369	128.545	-0.091	-0.116
-549.354	-155.080	-0.110	0.007
-548.339	-162.106	-0.069	0.003
-547.325	-23.482	-0.093	-0.056
-546.310	-80.740	-0.230	0.077
-545.296	19.566	0.106	-0.086
-544.281	85.267	0.089	-0.099
-543.266	-99.189	0.099	-0.025
-542.252	87.457	0.136	0.152
-541.237	42.683	-0.149	-0.137
-540.223	-46.902	0.017	-0.008
-539.208	48.903	-0.158	0.149
-538.193	-142.743	-0.313	-0.031
-537.179	275.287	-0.041	-0.072
-536.164	-163.389	-0.138	-0.007
-535.150	586.569	0.132	0.328
-534.135	256.055	-0.094	0.162
-533.121	-30.901	0.217	-0.124
-532.106	-44.994	-0.391	-0.196
-531.091	112.397	-0.117	0.142
-530.077	1.864	-0.122	0.089
-529.062	-119.075	-0.427	-0.075
-528.048	-200.000	0.017	0.322
-527.033	613.904	0.025	0.063
-526.018	268.543	0.045	-0.079
-525.004	-122.519	-0.231	0.038
-523.989	406.767	0.028	-0.060
-522.975	800.000	-0.043	0.151
-521.960	44.038	-0.163	0.150
-520.945	160.922	-0.097	-0.136
-519.931	-146.324	0.141	-0.012
-518.916	-96.605	0.391	-0.104
-517.902	-44.559	-0.213	-0.107
-516.887	-71.069	0.273	-0.103
-515.872	-200.000	0.073	0.400
-514.858	465.058	0.062	0.140
-513.843	-41.162	-0.107	0.055
-512.829	-146.276	-0.360	0.032
-511.814	69.276	-0.137	-0.142
-510.799	-125.472	-0.072	0.011
-509.785	800.000	0.058	-0.191
-508.770	-200.000	0.060	-0.397
-507.756	-121.099	-0.330	-0.056
-506.741	136.386	0.295	-0.387
-505.726	-200.000	0.038	0.184
-504.712	93.734	-0.121	0.138
-503.697	557.086	0.046	0.111
-502.683	-139.876	-0.111	-0.012
-501.668	201.401	-0.047	-0.072
-500.653	-200.000	0.044	-0.253
-499.639	800.000	-0.055	-0.218
-498.624	443.424	0.068	0.149
-497.610	-6.661	-0.162	-0.111
-496.595	-20.349	-0.109	0.067
-495.581	271.070	0.116	0.205
-494.566	-200.000	0.077	0.356
-493.551	-130.170	0.141	-0.019
-492.537	50.475	0.157	-0.149
-491.522	-77.594	0.226	0.079
-490.508	800.000	-0.104	-0.313
-489.493	800.000	0.081	-0.231
-488.478	51.632	-0.142	-0.136
-487.464	-78.384	-0.210	0.072
-486.449	49.473	-0.031	-0.029
-485.435	-145.344	-0.511	0.046
-484.420	10.569	-0.048	0.037
-483.405	96.644	0.067	-0.078
-482.391	-200.000	-0.027	-0.156
-481.376	-71.547	0.206	0.077
-480.362	-36.223	-0.176	-0.096
-479.347	66.883	-0.232	-0.237
-478.332	156.929	-0.128	0.177
-477.318	119.244	0.033	-0.041
-476.303	-200.000	0.012	0.152
-475.289	-143.204	0.148	-0.014
-474.274	213.904	-0.123	0.195
-473.259	800.000	0.139	0.408
-472.245	473.476	0.124	0.281
-471.230	-26.166	0.228	0.135
-470.216	477.719	-0.096	0.218
-469.201	376.103	-0.174	0.356
-468.186	-200.000	-0.022	-0.122
-467.172	71.878	0.182	-0.190
-466.157	-190.855	-0.166	-0.002
-465.143	114.530	-0.171	-0.209
-464.128	-138.639	-0.495	-0.054
-463.113	800.000	0.058	0.218
-462.099	800.000	-0.032	-0.139
-461.084	198.962	0.028	0.043
-460.070	268.086	0.085	-0.150
-459.055	-197.487	-0.227	-0.001
-458.040	-92.883	-0.331	-0.093
-457.026	-134.296	0.051	0.006
-456.011	4.036	-0.143	-0.105
-454.997	-200.000	-0.029	-0.191
-453.982	-107.074	0.131	0.029
-452.968	-43.879	0.102	0.052
-451.953	197.269	0.156	0.239
-450.938	191.541	-0.054	-0.082
-449.924	543.431	0.129	-0.309
-448.909	368.834	-0.075	-0.152
-447.895	-200.000	0.018	-0.151
-446.880	800.000	-0.036	-0.118
-445.865	-0.651	0.368	0.262
-444.851	800.000	0.132	-0.376
-443.836	800.000	-0.218	-0.649
-442.822	-178.235	0.274	-0.006
-441.807	-168.187	0.191	0.007
-440.792	-6.857	0.233	0.159
-439.778	27.988	0.121	-0.103
-438.763	174.158	-0.195	-0.283
-437.749	-137.413	-0.360	-0.041
-436.734	-156.305	-0.112	0.007
-435.719	-88.565	-0.137	0.041
-434.705	-42.110	-0.422	-0.217
-433.690	-133.260	0.326	0.041
-432.676	-27.493	0.330	0.193
-431.661	-49.181	0.156	-0.075
-430.646	-81.992	0.316	0.104
-429.632	-172.176	-0.157	0.005
-428.617	-79.099	0.052	-0.018
-427.603	-12.396	-0.056	-0.036
-426.588	800.000	0.085	-0.359
-425.573	800.000	-0.128	-0.449
-424.559	137.905	-0.041	0.054
-423.544	-78.594	-0.256	-0.088
-422.530	3.426	-0.189	-0.138
-421.515	-69.684	0.265	-0.101
-420.500	527.122	-0.030	-0.070
-419.486	319.084	-0.107	-0.203
-418.471	-66.280	-0.319	-0.127
-417.457	-153.804	0.151	0.010
-416.442	800.000	0.029	-0.096
-415.428	94.659	-0.063	-0.072
-414.413	129.438	-0.135	-0.172
-413.398	-76.833	0.321	-0.113
-412.384	800.000	-0.090	0.304
-411.369	320.704	-0.175	0.334
-410.355	800.000	0.078	0.236
-409.340	419.347	0.142	-0.304
-408.325	-56.880	0.307	0.136
-407.311	-5.792	0.073	0.050
-406.296	-62.927	0.416	-0.173
-405.282	68.552	-0.236	0.242
-404.267	537.522	0.084	0.200
-403.252	-200.000	-0.028	0.155
-402.238	-95.471	-0.106	-0.029
-401.223	502.278	0.076	0.175
-400.209	-36.783	0.096	-0.052
-399.194	340.859	0.179	-0.350
-398.179	800.000	-0.033	-0.112
-397.165	-200.000	0.001	-0.214
-396.150	-101.668	-0.034	0.008
-395.136	323.116	-0.043	0.082
-394.121	114.771	0.286	-0.349
-393.106	25.727	-0.024	0.020
-392.092	-145.473	0.011	-0.001
-391.077	101.781	-0.075	0.088
-390.063	-200.000	-0.140	0.000
-389.048	-130.065	0.192	0.026
-388.033	800.000	-0.045	-0.190
-387.019	-200.000	0.019	0.262
-386.004	-200.000	0.046	0.485
-384.990	727.963	0.070	-0.187
-383.975	-200.000	-0.064	-0.398
-382.960	-61.241	-0.327	-0.138
-381.946	6.755	0.097	0.072
-380.931	-8.307	0.071	-0.048
-379.917	-142.306	0.281	0.028
-378.902	-200.000	0.032	0.265
-377.888	173.072	-0.113	0.163
-376.873	800.000	0.054	0.155
-375.858	-200.000	-0.027	0.302
-374.844	800.000	-0.095	-0.262
-373.829	-200.000	-0.026	0.235
-372.815	19.581	0.337	0.272
-371.800	-200.000	-0.028	-0.163
-370.785	-61.172	0.226	-0.095
-369.771	-67.475	-0.266	0.105
-368.756	68.701	-0.348	0.357
-367.742	-171.484	-0.114	-0.004
-366.727	-12.228	-0.077	0.051
-365.712	-36.358	0.322	0.173
-364.698	-96.291	-0.309	0.082
-363.683	62.539	-0.265	0.265
-362.669	35.762	0.299	-0.263
-361.654	-200.000	-0.033	-0.169
-360.639	-48.714	-0.330	-0.159
-359.625	-19.530	-0.068	-0.042
-358.610	-200.000	0.015	-0.188
-357.596	-200.000	0.041	0.187
-356.581	-55.075	0.137	-0.062
-355.566	-165.907	-0.053	0.002
-354.552	800.000	-0.078	-0.317
-353.537	-200.000	-0.060	0.363
-352.523	-87.563	0.183	-0.055
-351.508	800.000	-0.142	-0.463
-350.493	245.997	0.104	0.175
-349.479	189.440	0.139	-0.208
-348.464	123.264	-0.082	-0.103
-347.450	147.140	-0.083	0.111
-346.435	-16.653	0.129	-0.082
-345.420	13.739	-0.066	-0.051
-344.406	-133.060	-0.132	0.017
-343.391	-93.111	0.128	-0.036
-342.377	-137.511	0.288	-0.032
-341.362	38.716	-0.154	0.137
-340.348	-200.000	0.022	-0.239
-339.333	-157.239	-0.163	-0.010
-338.318	625.199	-0.216	-0.544
-337.304	-61.611	-0.414	-0.174
-336.289	-200.000	0.022	-0.135
-335.275	208.087	-0.094	0.146
-334.260	19.704	0.044	0.036
-333.245	800.000	0.073	-0.228
-332.231	215.262	-0.141	-0.224
-331.216	-71.944	-0.140	-0.052
-330.202	9.000	0.208	0.157
-329.187	647.736	-0.019	-0.047
-328.172	53.213	-0.084	-0.080
-327.158	302.407	0.154	-0.284
-326.143	73.981	0.315	-0.331
-325.129	111.902	-0.117	-0.141
-324.114	800.000	0.059	0.237
-323.099	-126.671	0.127	-0.019
-322.085	-141.458	-0.181	0.018
-321.070	39.020	0.161	0.144
-320.056	-200.000	-0.009	-0.230
-319.041	-171.042	0.234	-0.008
-318.026	800.000	0.033	0.098
-317.012	-92.497	-0.158	0.044
-315.997	-123.767	0.182	-0.029
-314.983	-129.991	0.047	0.006
-313.968	-122.761	0.283	0.046
-312.953	126.466	-0.249	-0.315
-311.939	72.989	-0.137	0.143
-310.924	333.322	-0.055	0.106
-309.910	19.630	-0.125	-0.100
-308.895	800.000	-0.080	0.305
-307.880	-45.015	0.224	0.111
-306.866	-200.000	0.000	0.162
-305.851	-105.043	-0.320	0.073
-304.837	-50.553	0.126	0.059
-303.822	800.000	-0.146	-0.421
-302.807	169.666	-0.156	0.222
-301.793	287.845	-0.136	-0.246
-300.778	351.216	-0.076	0.151
-299.764	209.936	-0.204	-0.320
-298.749	79.019	0.090	0.096
-297.735	-200.000	0.034	-0.232
-296.720	166.394	-0.132	0.187
-295.705	-93.200	0.093	0.026
-294.691	100.236	0.114	-0.132
-293.676	58.706	-0.112	0.109
-292.662	106.871	-0.098	0.116
-291.647	-128.859	-0.258	0.036
-290.632	658.093	0.020	0.051
-289.618	-57.579	0.374	-0.164
-288.603	-147.638	0.257	-0.022
-287.589	626.088	0.036	0.091
-286.574	-112.398	0.287	-0.057
-285.559	-117.121	0.102	0.019
-284.545	595.889	-0.009	0.022
-283.530	301.025	-0.053	-0.097
-282.516	-80.575	0.306	-0.102
-281.501	160.483	0.142	-0.197
-280.486	20.900	0.095	-0.077
-279.472	-200.000	-0.044	-0.254
-278.457	99.668	-0.020	0.024
-277.443	130.952	-0.178	0.227
-276.428	-90.321	0.221	-0.064
-275.413	800.000	0.049	0.198
-274.399	800.000	0.051	-0.177
-273.384	73.266	-0.111	0.116
-272.370	-133.582	0.121	-0.015
-271.355	623.041	-0.114	0.286
-270.340	367.635	0.097	0.195
-269.326	95.938	0.147	-0.167
-268.311	-200.000	0.001	0.008
-267.297	-181.152	-0.290	-0.006
-266.282	38.236	-0.103	-0.092
-265.267	12.309	0.369	0.283
-264.253	800.000	0.055	-0.228
-263.238	61.113	0.294	-0.291
-262.224	144.624	-0.144	0.192
-261.209	-15.927	-0.018	0.012
-260.195	506.069	-0.031	-0.072
-259.180	-192.988	-0.097	-0.001
-258.165	-88.697	0.306	0.091
-257.151	-120.788	0.121	0.020
-256.136	-5.600	0.095	0.065
-255.122	-200.000	-0.004	0.427
-254.107	42.811	0.187	0.170
-253.092	66.310	-0.075	0.076
-252.078	-107.812	0.332	0.072
-251.063	32.269	0.244	0.209
-250.049	-167.338	0.065	-0.003
-249.034	81.251	-0.068	0.073
-248.019	-182.072	0.146	0.003
-247.005	800.000	0.031	-0.094
-245.990	107.804	0.297	-0.352
-244.976	139.040	0.038	-0.050
-243.961	-200.000	0.039	-0.248
-242.946	-108.961	0.476	-0.101
-241.932	152.599	0.255	0.346
-240.917	-159.347	0.181	-0.010
-239.903	800.000	0.009	0.029
-238.888	800.000	-0.054	0.219
-237.873	160.404	-0.045	-0.062
-236.859	675.606	0.068	0.176
-235.844	327.416	0.149	-0.284
-234.830	-114.492	0.259	-0.050
-233.815	416.076	-0.023	-0.049
-232.800	-200.000	0.038	0.328
-231.786	10.811	-0.208	0.158
-230.771	-84.174	0.149	0.047
-229.757	-200.000	-0.028	-0.405
-228.742	-38.460	-0.165	-0.087
-227.727	434.505	0.106	0.230
-226.713	-200.000	0.097	0.485
-225.698	150.573	-0.261	0.353
-224.684	18.253	-0.285	0.226
-223.669	269.412	0.079	-0.137
-222.655	-70.786	-0.217	0.081
-221.640	-127.336	-0.390	0.057
-220.625	-2.014	-0.064	-0.045
-219.611	298.818	-0.116	-0.213
-218.596	-105.538	0.211	-0.048
-217.582	-150.904	0.123	0.009
-216.567	-200.000	-0.022	-0.187
-215.552	-125.221	0.134	0.020
-214.538	400.465	0.111	0.232
-213.523	3.958	-0.132	0.096
-212.509	-81.496	-0.037	-0.012
-211.494	800.000	0.023	0.099
-210.479	800.000	-0.113	0.343
-209.465	423.727	-0.155	0.332
-208.450	572.180	0.101	0.245
-207.436	-53.807	-0.262	0.119
-206.421	-47.575	0.076	0.037
-205.406	154.868	0.130	-0.177
-204.392	-108.965	0.185	-0.039
-203.377	94.190	0.156	0.175
-202.363	-68.950	0.372	0.143
-201.348	-115.404	0.125	0.023
-200.333	-137.992	0.248	0.027
-199.319	-111.505	-0.175	0.035
-198.304	-7.028	0.169	-0.114
-197.290	-40.398	0.193	0.100
-196.275	123.354	-0.101	0.126
-195.260	-187.289	-0.357	0.005
-194.246	800.000	0.059	0.191
-193.231	59.438	-0.148	-0.145
-192.217	696.251	-0.057	-0.149
-191.202	800.000	0.051	0.201
-190.187	-200.000	-0.003	0.260
-189.173	-53.658	-0.465	-0.211
-188.158	429.708	-0.049	-0.106
-187.144	29.724	0.200	0.170
-186.129	-122.110	0.169	-0.028
-185.114	800.000	-0.190	-0.523
-184.100	-200.000	-0.014	-0.283
-183.085	129.028	0.171	-0.216
-182.071	800.000	0.113	0.358
-181.056	-137.587	0.023	-0.003
-180.042	62.689	0.214	-0.212
-179.027	-200.000	0.050	-0.330
-178.012	-200.000	-0.004	-0.117
-176.998	157.434	0.078	-0.108
-175.983	-128.508	0.301	0.042
-174.969	-39.963	0.234	-0.121
-173.954	-73.922	-0.155	0.056
-172.939	-9.981	0.264	0.174
-171.925	-200.000	0.004	-0.164
-170.910	-200.000	-0.011	-0.117
-169.896	117.453	-0.114	0.139
-168.881	800.000	0.175	-0.562
-167.866	-138.361	0.091	0.010
-166.852	102.305	-0.312	0.361
-165.837	-148.857	-0.172	0.014
-164.823	-127.627	-0.023	0.003
-163.808	-57.345	0.349	0.152
-162.793	-76.087	0.137	-0.048
-161.779	539.070	-0.045	-0.107
-160.764	31.530	-0.111	0.095
-159.750	489.776	-0.071	-0.161
-158.735	93.796	-0.157	0.177
-157.720	18.975	-0.085	0.067
-156.706	386.782	-0.274	-0.562
-155.691	21.224	0.192	-0.154
-154.677	3.108	-0.246	0.177
-153.662	-128.075	-0.035	-0.005
-152.647	-121.688	-0.439	-0.072
-151.633	-200.000	0.006	0.316
-150.618	-200.000	0.047	0.292
-149.604	294.806	0.105	-0.191
-148.589	151.704	-0.117	0.159
-147.574	33.073	-0.272	-0.234
-146.560	160.391	-0.130	0.180
-145.545	-200.000	-0.002	0.047
-144.531	-129.671	0.227	-0.031
-143.516	-200.000	-0.006	-0.064
-142.502	416.999	-0.089	-0.188
-141.487	-52.935	0.164	-0.075
-140.472	-119.868	0.277	-0.047
-139.458	36.000	0.124	-0.108
-138.443	-200.000	0.053	-0.244
-137.429	5.818	-0.185	0.136
-136.414	-99.118	0.071	0.018
-135.399	180.490	-0.202	0.293
-134.385	-143.348	0.415	-0.039
-133.370	1.635	0.105	-0.075
-132.356	56.023	0.146	-0.140
-131.341	328.877	-0.062	-0.118
-130.326	-15.667	0.249	0.157
-129.312	110.525	0.128	0.152
-128.297	-151.506	-0.179	-0.013
-127.283	-35.976	-0.176	-0.094
-126.268	-74.351	0.193	-0.069
-125.253	-14.922	0.131	-0.083
-124.239	-98.447	0.127	-0.032
-123.224	-200.000	-0.016	0.214
-122.210	-96.439	0.200	-0.052
-121.195	-1.072	-0.088	0.062
