DTS Sentinel unit serial number:	SN413079Multiplexer serial number:	ORYXHardware model number:	OX4-SRSoftware version number:	ORYX F/W v4.00 Oryx Data Collector v3.7.2.0data status	okinstallation	princeton_trtdifferential loss correction	single-endedforward channel	channel 2reverse channel	N/Adate	2019/09/19time	08:27:35forward acquisition time	60.00reverse acquisition time	0.00gamma	496.2192k internal	0.2352k external	0.2352temperature offset calibration	1.0003default loss term (dB/km)	0.3790temperature slope calibration	1.0000multiplexer offset coefficient	1.0000multiplexer slope coefficient	1.0000fibre end	0.00T internal ref (°C)	20.56T ext. ref 1 (°C)	0.57T ext. ref 2 (°C)	16.30length (m)	temperature (°C)	Stokes	anti-Stokes-747.200	-137.926	0.388	0.043
-746.185	-200.000	-0.059	0.388
-745.171	28.583	-0.067	0.057
-744.156	-55.106	-0.169	0.076
-743.142	800.000	0.016	-0.051
-742.127	-13.686	-0.078	0.051
-741.112	800.000	-0.087	0.267
-740.098	193.066	0.074	0.112
-739.083	-200.000	0.006	0.051
-738.069	567.117	-0.176	0.426
-737.054	666.358	0.079	-0.203
-736.039	-49.532	-0.273	0.129
-735.025	-200.000	-0.013	0.272
-734.010	-200.000	-0.039	0.222
-732.996	-200.000	-0.058	-0.259
-731.981	-6.008	0.137	-0.094
-730.966	511.367	-0.056	0.130
-729.952	229.621	-0.234	-0.380
-728.937	224.358	0.074	-0.120
-727.923	-146.675	0.237	0.020
-726.908	-65.364	-0.430	0.172
-725.894	86.696	-0.271	0.299
-724.879	-112.153	0.113	-0.023
-723.864	-71.354	-0.144	0.054
-722.850	-37.377	-0.206	0.110
-721.835	531.443	0.151	-0.356
-720.821	-200.000	-0.026	-0.139
-719.806	-200.000	-0.028	-0.252
-718.791	-44.397	0.223	-0.111
-717.777	93.284	0.140	0.158
-716.762	-88.983	-0.091	-0.027
-715.748	5.157	-0.120	0.088
-714.733	800.000	-0.059	-0.204
-713.718	-200.000	-0.005	0.028
-712.704	-200.000	-0.018	-0.211
-711.689	-3.708	-0.420	-0.290
-710.675	-200.000	0.018	-0.161
-709.660	98.009	-0.257	-0.294
-708.645	-13.001	0.310	-0.201
-707.631	-177.249	-0.389	-0.010
-706.616	-144.736	0.124	-0.011
-705.602	-74.961	0.288	-0.103
-704.587	359.308	-0.076	0.151
-703.572	229.722	0.282	-0.459
-702.558	-148.907	-0.488	-0.039
-701.543	46.270	0.213	0.197
-700.529	-15.295	-0.260	0.166
-699.514	81.988	0.173	0.187
-698.499	-200.000	-0.010	0.043
-697.485	113.216	-0.146	0.177
-696.470	284.189	-0.130	-0.232
-695.456	-38.756	-0.156	0.082
-694.441	-123.193	0.160	0.026
-693.426	6.597	0.117	0.087
-692.412	38.266	-0.191	-0.169
-691.397	45.867	0.288	0.265
-690.383	-200.000	-0.044	0.194
-689.368	-171.927	-0.285	0.009
-688.354	-67.106	-0.092	0.036
-687.339	800.000	0.029	0.104
-686.324	800.000	0.023	-0.070
-685.310	-200.000	0.052	0.262
-684.295	800.000	-0.060	0.239
-683.281	-21.129	0.075	-0.046
-682.266	800.000	0.090	0.393
-681.251	-200.000	0.022	-0.099
-680.237	345.229	0.146	-0.285
-679.222	800.000	-0.033	-0.120
-678.208	-109.827	-0.268	0.056
-677.193	800.000	-0.047	0.203
-676.178	-12.004	0.168	0.110
-675.164	-200.000	0.028	-0.215
-674.149	-30.753	-0.065	-0.036
-673.135	-200.000	0.030	0.139
-672.120	627.816	-0.074	-0.185
-671.105	-200.000	0.025	-0.162
-670.091	228.140	0.077	-0.125
-669.076	-55.026	0.067	0.030
-668.062	-200.000	0.017	0.231
-667.047	-124.149	0.271	0.042
-666.032	82.250	-0.147	-0.159
-665.018	-183.253	0.095	0.002
-664.003	-21.955	-0.289	0.175
-662.989	-200.000	-0.006	-0.053
-661.974	800.000	-0.102	-0.291
-660.959	-18.858	-0.310	-0.192
-659.945	-69.939	0.223	0.084
-658.930	-107.383	0.158	0.035
-657.916	-134.940	-0.408	0.049
-656.901	102.518	0.258	-0.300
-655.886	-2.955	-0.167	-0.116
-654.872	-65.073	-0.287	0.115
-653.857	-200.000	-0.003	0.290
-652.843	58.958	0.167	-0.163
-651.828	800.000	0.051	-0.164
-650.814	-135.946	0.183	0.021
-649.799	-90.611	-0.314	-0.090
-648.784	182.414	0.037	-0.054
-647.770	25.977	0.109	0.090
-646.755	30.627	0.200	-0.170
-645.741	800.000	0.106	-0.366
-644.726	-64.644	-0.190	0.077
-643.711	151.051	-0.198	0.268
-642.697	800.000	-0.015	-0.053
-641.682	-200.000	-0.012	0.158
-640.668	-200.000	-0.004	0.106
-639.653	-124.079	-0.273	-0.043
-638.638	-200.000	-0.016	-0.147
-637.624	-200.000	0.042	0.415
-636.609	-66.422	-0.294	0.116
-635.595	-16.978	0.281	0.176
-634.580	-200.000	0.030	0.400
-633.565	-61.632	0.126	0.053
-632.551	-200.000	-0.007	0.114
-631.536	-35.627	-0.093	0.050
-630.522	167.026	-0.135	0.190
-629.507	586.678	-0.031	0.076
-628.492	81.931	0.141	0.152
-627.478	-82.535	0.034	-0.011
-626.463	755.990	-0.172	0.462
-625.449	-200.000	-0.074	0.328
-624.434	-93.304	-0.204	0.056
-623.419	-106.005	0.280	-0.063
-622.405	-32.163	0.106	-0.059
-621.390	800.000	-0.059	-0.197
-620.376	-112.064	-0.085	0.017
-619.361	146.981	-0.097	-0.130
-618.346	-80.590	0.175	-0.058
-617.332	187.094	-0.115	-0.171
-616.317	-200.000	-0.022	-0.193
-615.303	573.289	-0.168	-0.406
-614.288	800.000	0.062	-0.243
-613.273	-200.000	-0.009	-0.137
-612.259	-5.126	-0.249	0.170
-611.244	-141.137	-0.114	-0.012
-610.230	800.000	0.064	-0.234
-609.215	203.283	0.054	0.084
-608.201	-169.701	-0.207	0.007
-607.186	-114.928	0.136	-0.026
-606.171	208.178	0.102	0.158
-605.157	-2.644	0.179	-0.124
-604.142	401.807	0.082	-0.170
-603.128	-200.000	-0.062	0.380
-602.113	766.505	0.035	-0.095
-601.098	-200.000	0.006	0.285
-600.084	-124.925	-0.271	-0.041
-599.069	26.904	0.232	0.193
-598.055	124.839	-0.091	-0.114
-597.040	357.254	-0.119	-0.235
-596.025	-92.671	0.104	0.029
-595.011	9.258	-0.197	0.148
-593.996	-200.000	-0.045	-0.570
-592.982	-90.744	0.374	0.107
-591.967	25.284	-0.198	-0.163
-590.952	60.656	-0.124	0.122
-589.938	-172.450	0.128	0.004
-588.923	-200.000	0.001	-0.058
-587.909	87.722	-0.044	-0.048
-586.894	-22.693	-0.130	0.078
-585.879	-200.000	-0.035	-0.175
-584.865	-116.121	-0.096	0.018
-583.850	11.213	-0.211	0.160
-582.836	-60.100	0.285	-0.121
-581.821	57.158	0.167	-0.162
-580.806	365.950	-0.099	0.197
-579.792	-189.333	-0.099	-0.001
-578.777	162.028	0.166	0.230
-577.763	-105.518	-0.234	0.053
-576.748	-88.284	-0.226	-0.067
-575.733	-200.000	0.043	0.249
-574.719	8.261	-0.194	-0.145
-573.704	5.148	0.094	-0.068
-572.690	315.176	-0.159	0.296
-571.675	638.557	0.045	0.114
-570.661	-39.348	0.159	0.082
-569.646	258.029	0.048	0.082
-568.631	800.000	-0.044	0.139
-567.617	136.164	-0.090	-0.117
-566.602	-163.160	-0.169	0.008
-565.588	141.203	0.103	0.135
-564.573	-190.747	-0.181	-0.002
-563.558	-200.000	-0.014	0.407
-562.544	75.172	-0.054	-0.056
-561.529	-200.000	-0.028	-0.126
-560.515	-122.586	0.311	0.050
-559.500	-144.117	0.139	0.013
-558.485	422.240	0.166	-0.354
-557.471	115.458	-0.348	-0.422
-556.456	115.358	0.073	0.088
-555.442	-32.805	-0.250	0.138
-554.427	227.358	-0.163	-0.262
-553.412	-31.322	0.111	0.062
-552.398	132.131	0.090	0.114
-551.383	387.279	-0.115	-0.235
-550.369	-200.000	0.013	0.451
-549.354	-70.302	0.386	0.145
-548.339	-200.000	-0.014	-0.255
-547.325	-200.000	-0.059	-0.350
-546.310	-91.523	0.066	0.019
-545.296	245.466	-0.065	0.109
-544.281	182.399	-0.161	0.235
-543.266	7.247	0.356	-0.263
-542.252	504.904	-0.067	-0.153
-541.237	219.033	0.282	-0.446
-540.223	-200.000	-0.096	-0.437
-539.208	-162.470	0.296	-0.015
-538.193	15.256	-0.256	0.198
-537.179	-200.000	0.002	0.148
-536.164	-200.000	0.046	-0.364
-535.150	28.431	-0.279	0.234
-534.135	-200.000	-0.001	-0.040
-533.121	331.816	0.139	0.264
-532.106	326.627	-0.112	0.213
-531.091	289.226	0.069	-0.124
-530.077	-60.063	-0.439	0.185
-529.062	-94.217	-0.234	0.063
-528.048	-132.074	-0.250	0.032
-527.033	33.711	0.098	-0.084
-526.018	-200.000	0.081	-0.470
-525.004	-173.741	0.213	0.006
-523.989	82.243	-0.111	0.119
-522.975	-9.702	0.064	0.042
-521.960	-84.150	-0.132	-0.041
-520.945	154.655	0.024	0.033
-519.931	800.000	-0.013	-0.042
-518.916	93.363	0.092	0.103
-517.902	-200.000	-0.077	0.419
-516.887	322.277	0.040	0.075
-515.872	-25.780	-0.203	0.118
-514.858	-173.403	0.095	0.003
-513.843	-120.540	-0.228	0.038
-512.829	-1.513	-0.049	-0.034
-511.814	141.482	0.309	0.404
-510.799	-49.886	-0.048	-0.023
-509.785	32.904	-0.180	-0.154
-508.770	-119.069	-0.187	-0.032
-507.756	-75.096	-0.075	-0.027
-506.741	21.784	-0.076	0.061
-505.726	800.000	0.147	0.572
-504.712	-200.000	0.038	0.198
-503.697	800.000	0.040	-0.129
-502.683	-200.000	-0.163	0.000
-501.668	11.175	0.230	-0.174
-500.653	9.192	-0.216	0.161
-499.639	-200.000	-0.019	-0.252
-498.624	-117.434	-0.469	-0.084
-497.610	800.000	0.025	-0.096
-496.595	-42.178	0.228	-0.115
-495.581	-200.000	-0.063	-0.380
-494.566	-200.000	-0.009	-0.294
-493.551	-136.664	0.180	0.020
-492.537	-36.622	0.161	-0.085
-491.522	-147.871	-0.243	-0.020
-490.508	-200.000	-0.018	0.120
-489.493	188.084	0.047	-0.070
-488.478	61.694	-0.164	-0.161
-487.464	-151.768	-0.072	0.005
-486.449	-200.000	0.007	0.065
-485.435	800.000	-0.059	-0.246
-484.420	-157.058	-0.148	0.009
-483.405	-0.442	-0.193	-0.135
-482.391	-99.005	-0.176	-0.044
-481.376	139.784	-0.175	-0.228
-480.362	-60.154	-0.175	-0.074
-479.347	-150.895	-0.181	0.014
-478.332	-200.000	0.071	-0.395
-477.318	-82.531	-0.309	0.099
-476.303	133.420	-0.132	0.168
-475.289	-200.000	0.043	0.224
-474.274	15.848	-0.224	-0.174
-473.259	-200.000	-0.004	-0.173
-472.245	-62.800	0.505	-0.206
-471.230	5.535	-0.197	0.143
-470.216	-66.620	-0.048	0.019
-469.201	-35.591	-0.183	0.098
-468.186	-200.000	-0.061	0.356
-467.172	534.778	0.111	0.260
-466.157	800.000	0.015	0.053
-465.143	-86.569	-0.393	0.119
-464.128	-38.048	0.382	0.200
-463.113	-184.262	0.075	0.001
-462.099	-153.742	0.372	-0.025
-461.084	-105.345	-0.193	0.043
-460.070	79.703	-0.081	-0.086
-459.055	325.427	-0.012	-0.022
-458.040	72.157	-0.108	0.111
-457.026	65.774	0.075	-0.075
-456.011	411.086	-0.079	0.165
-454.997	-200.000	-0.051	0.311
-453.982	216.758	0.213	0.334
-452.968	-26.689	-0.091	0.053
-451.953	19.703	-0.264	0.210
-450.938	81.873	0.107	0.115
-449.924	800.000	-0.072	0.290
-448.909	-30.256	-0.129	0.072
-447.895	-200.000	-0.001	-0.335
-446.880	-200.000	-0.046	-0.346
-445.865	-200.000	-0.007	-0.159
-444.851	128.218	0.072	-0.090
-443.836	26.102	0.235	-0.193
-442.822	-11.585	0.057	0.037
-441.807	-124.112	0.165	0.026
-440.792	-25.214	-0.172	0.100
-439.778	-117.650	-0.154	-0.027
-438.763	-166.010	-0.039	0.002
-437.749	-200.000	-0.015	0.300
-436.734	-91.667	0.142	-0.040
-435.719	-17.467	-0.312	0.193
-434.705	40.612	-0.164	0.145
-433.690	14.702	-0.193	-0.148
-432.676	-41.664	-0.103	0.052
-431.661	314.694	-0.223	0.415
-430.646	73.054	0.121	0.124
-429.632	-77.423	-0.102	0.035
-428.617	354.547	0.081	0.159
-427.603	-200.000	0.039	-0.187
-426.588	50.646	-0.124	0.116
-425.573	-27.802	-0.189	0.108
-424.559	-164.439	-0.409	-0.018
-423.544	45.058	-0.261	-0.237
-422.530	-200.000	0.065	-0.332
-421.515	240.246	-0.158	-0.260
-420.500	-200.000	-0.015	0.130
-419.486	153.382	-0.044	0.059
-418.471	-200.000	0.028	-0.193
-417.457	-103.033	-0.413	0.096
-416.442	-98.666	0.211	-0.053
-415.428	-200.000	0.048	0.213
-414.413	-120.984	-0.361	-0.060
-413.398	-113.305	0.407	-0.079
-412.384	-12.151	0.301	0.194
-411.369	167.029	0.350	-0.489
-410.355	43.189	0.208	-0.187
-409.340	-143.264	0.280	-0.027
-408.325	-151.157	0.253	-0.019
-407.311	-102.691	-0.276	0.065
-406.296	-200.000	-0.005	0.129
-405.282	-159.418	0.159	-0.009
-404.267	156.957	0.212	0.289
-403.252	98.586	-0.199	0.225
-402.238	-27.165	-0.180	-0.103
-401.223	-153.175	-0.355	0.024
-400.209	173.789	0.159	-0.226
-399.194	-83.261	-0.289	-0.091
-398.179	415.880	0.064	-0.135
-397.165	-51.873	0.121	0.055
-396.150	-200.000	0.021	-0.148
-395.136	33.340	0.164	0.140
-394.121	230.682	-0.036	-0.058
-393.106	761.368	0.078	-0.209
-392.092	77.264	-0.124	0.129
-391.077	-78.799	0.144	0.048
-390.063	211.600	-0.166	0.258
-389.048	69.875	-0.085	-0.086
-388.033	-147.440	0.177	0.015
-387.019	-200.000	0.012	0.208
-386.004	303.533	0.042	-0.077
-384.990	-54.518	-0.044	0.019
-383.975	-61.989	-0.207	-0.085
-382.960	-200.000	-0.005	-0.026
-381.946	-200.000	0.049	0.281
-380.931	56.535	0.266	0.254
-379.917	-36.163	-0.213	0.113
-378.902	120.263	0.099	-0.120
-377.888	-200.000	-0.067	-0.360
-376.873	-200.000	0.014	0.284
-375.858	318.233	-0.128	-0.239
-374.844	567.155	0.015	0.035
-373.829	800.000	0.071	0.299
-372.815	-2.685	-0.238	-0.164
-371.800	-1.442	0.098	-0.068
-370.785	-200.000	0.054	-0.281
-369.771	208.328	-0.065	-0.100
-368.756	35.784	0.102	0.088
-367.742	-42.877	0.149	0.074
-366.727	-147.098	0.106	0.009
-365.712	800.000	0.010	0.037
-364.698	499.914	-0.085	-0.193
-363.683	44.798	0.189	-0.171
-362.669	-32.837	0.132	0.072
-361.654	63.576	-0.195	-0.192
-360.639	82.762	-0.106	-0.113
-359.625	-114.263	-0.155	-0.029
-358.610	-91.652	-0.078	-0.022
-357.596	400.009	0.111	-0.229
-356.581	-113.502	-0.033	0.006
-355.566	800.000	-0.058	0.218
-354.552	-161.935	-0.198	0.010
-353.537	-200.000	0.063	0.312
-352.523	241.070	-0.096	-0.157
-351.508	-200.000	-0.010	0.058
-350.493	800.000	0.016	0.047
-349.479	-200.000	-0.020	-0.260
-348.464	572.579	0.045	-0.108
-347.450	-126.027	0.251	-0.037
-346.435	336.061	0.098	0.187
-345.420	56.299	0.311	-0.296
-344.406	500.418	-0.084	0.190
-343.391	800.000	0.077	0.222
-342.377	114.512	0.197	0.236
-341.362	-39.480	-0.136	0.070
-340.348	-200.000	-0.007	0.082
-339.333	15.280	-0.263	0.202
-338.318	620.828	-0.045	0.110
-337.304	63.597	0.202	0.199
-336.289	-175.694	0.192	0.005
-335.275	-67.554	-0.206	0.079
-334.260	682.978	0.122	0.312
-333.245	34.046	0.178	-0.152
-332.231	-141.331	-0.171	0.017
-331.216	21.255	0.281	-0.224
-330.202	-104.032	0.159	0.036
-329.187	111.703	-0.171	-0.202
-328.172	800.000	0.073	0.241
-327.158	-200.000	-0.000	0.189
-326.143	800.000	-0.064	0.200
-325.129	137.962	-0.118	0.152
-324.114	164.807	-0.092	-0.127
-323.099	-136.164	0.135	0.015
-322.085	337.121	-0.089	-0.170
-321.070	721.167	0.024	0.062
-320.056	800.000	0.145	-0.406
-319.041	438.120	0.097	0.207
-318.026	111.266	0.161	-0.190
-317.012	-27.317	0.203	-0.116
-315.997	-200.000	0.002	0.083
-314.983	800.000	0.072	-0.265
-313.968	507.817	-0.106	-0.240
-312.953	-154.590	0.161	-0.011
-311.939	-200.000	-0.018	-0.150
-310.924	143.670	0.029	-0.038
-309.910	-2.123	0.297	0.205
-308.895	412.762	-0.046	-0.096
-307.880	-151.762	0.105	0.008
-306.866	-200.000	-0.010	-0.155
-305.851	218.831	0.022	0.035
-304.837	-90.042	0.427	0.122
-303.822	-159.226	-0.116	0.006
-302.807	800.000	-0.045	-0.127
-301.793	800.000	-0.074	-0.275
-300.778	272.598	0.115	0.200
-299.764	-140.701	0.214	0.022
-298.749	-145.252	-0.207	-0.018
-297.735	98.112	0.157	0.177
-296.720	177.264	-0.029	-0.042
-295.705	-121.130	-0.132	0.022
-294.691	800.000	-0.050	-0.147
-293.676	-55.508	0.068	0.030
-292.662	-90.112	-0.160	0.046
-291.647	-31.004	-0.228	-0.126
-290.632	21.990	0.276	0.221
-289.618	-200.000	0.069	0.476
-288.603	-57.017	-0.248	-0.107
-287.589	485.175	0.139	0.311
-286.574	25.172	0.147	0.120
-285.559	21.889	0.166	0.133
-284.545	155.800	-0.126	0.170
-283.530	-118.949	0.136	-0.023
-282.516	15.365	0.183	-0.141
-281.501	104.309	-0.052	-0.060
-280.486	-66.164	0.068	-0.027
-279.472	-200.000	-0.017	0.157
-278.457	800.000	0.093	-0.351
-277.443	33.350	0.118	-0.101
-276.428	-200.000	-0.009	0.088
-275.413	-65.642	0.088	0.034
-274.399	-200.000	0.005	-0.137
-273.384	-193.398	-0.188	-0.002
-272.370	-200.000	-0.020	-0.275
-271.355	800.000	0.060	-0.163
-270.340	64.639	-0.102	0.100
-269.326	141.067	0.353	-0.456
-268.311	23.143	0.480	-0.386
-267.297	-87.333	0.464	-0.138
-266.282	-64.158	0.079	-0.032
-265.267	39.017	0.099	0.086
-264.253	-112.365	-0.078	-0.015
-263.238	800.000	-0.085	-0.277
-262.224	-163.050	0.233	0.011
-261.209	9.352	-0.140	-0.104
-260.195	-55.566	0.223	0.098
-259.180	-8.072	0.058	-0.038
-258.165	-159.279	0.364	-0.020
-257.151	-171.512	0.329	0.011
-256.136	-75.786	-0.202	-0.070
-255.122	531.493	-0.170	-0.393
-254.107	-81.244	-0.231	-0.075
-253.092	153.232	-0.209	-0.280
-252.078	-128.583	0.145	0.020
-251.063	-196.132	0.191	-0.001
-250.049	46.329	0.126	-0.114
-249.034	17.829	0.163	-0.127
-248.019	-53.781	-0.129	-0.058
-247.005	271.106	0.172	0.296
-245.990	-77.518	-0.141	0.048
-244.976	22.444	0.166	-0.132
-243.961	-83.463	-0.323	-0.101
-242.946	-174.425	0.233	0.007
-241.932	-130.330	0.243	0.032
-240.917	-59.420	0.247	-0.104
-239.903	104.936	-0.166	-0.192
-238.888	46.922	-0.078	-0.071
-237.873	-200.000	0.075	0.446
-236.859	161.522	-0.200	0.274
-235.844	-122.694	-0.262	0.042
-234.830	-200.000	0.003	-0.025
-233.815	-50.165	0.375	-0.174
-232.800	253.584	-0.086	-0.144
-231.786	-200.000	-0.016	0.301
-230.771	-200.000	-0.033	-0.215
-229.757	43.765	-0.262	-0.235
-228.742	-79.163	-0.403	0.134
-227.727	34.603	0.221	-0.188
-226.713	-115.422	-0.048	-0.009
-225.698	-16.345	-0.343	0.213
-224.684	-22.962	0.210	-0.124
-223.669	-38.933	0.240	-0.124
-222.655	-200.000	-0.010	0.267
-221.640	58.550	0.131	0.125
-220.625	-61.704	0.173	0.071
-219.611	-111.047	-0.069	-0.014
-218.596	601.878	0.091	-0.221
-217.582	-42.149	-0.047	-0.023
-216.567	-136.665	-0.293	0.033
-215.552	-57.854	0.281	-0.120
-214.538	53.178	-0.339	0.318
-213.523	586.808	0.114	-0.273
-212.509	22.654	-0.469	-0.375
-211.494	32.620	0.104	-0.088
-210.479	65.748	0.061	0.060
-209.465	-66.031	-0.239	0.093
-208.450	-114.740	0.347	0.065
-207.436	800.000	0.069	-0.242
-206.421	-128.484	0.142	-0.020
-205.406	282.533	-0.029	0.051
-204.392	-159.297	0.227	-0.012
-203.377	-152.844	-0.298	0.021
-202.363	328.792	0.112	0.210
-201.348	-200.000	-0.051	0.396
-200.333	-94.798	0.215	-0.057
-199.319	-85.515	0.236	0.072
-198.304	645.544	-0.075	0.187
-197.290	-200.000	-0.047	0.266
-196.275	-200.000	0.011	0.134
-195.260	155.933	-0.088	-0.119
-194.246	800.000	0.031	0.129
-193.231	-119.134	-0.058	0.010
-192.217	-200.000	0.038	-0.169
-191.202	-200.000	0.001	-0.410
-190.187	-141.139	0.199	-0.020
-189.173	-200.000	0.031	-0.171
-188.158	93.014	0.256	-0.282
-187.144	-49.336	-0.169	-0.079
-186.129	272.800	-0.116	-0.200
-185.114	349.411	0.209	0.402
-184.100	800.000	-0.060	-0.166
-183.085	-106.992	0.066	-0.014
-182.071	-200.000	0.007	0.398
-181.056	-82.898	-0.087	0.027
-180.042	-138.494	-0.533	-0.057
-179.027	-81.316	0.160	-0.052
-178.012	788.457	0.061	0.164
-176.998	-21.511	0.281	0.167
-175.983	14.189	0.202	0.154
-174.969	-131.344	0.243	-0.031
-173.954	-200.000	-0.022	0.330
-172.939	-100.234	0.067	-0.016
-171.925	196.343	0.073	0.109
-170.910	-84.324	0.313	0.097
-169.896	25.699	-0.264	0.214
-168.881	-200.000	-0.017	0.260
-167.866	314.783	0.023	-0.042
-166.852	-200.000	-0.037	-0.236
-165.837	-7.634	-0.177	-0.117
-164.823	2.838	0.227	-0.161
-163.808	17.345	0.075	0.058
-162.793	-200.000	0.059	0.302
-161.779	89.233	-0.078	-0.084
-160.764	210.003	0.207	-0.317
-159.750	45.402	-0.252	-0.227
-158.735	36.741	-0.036	0.031
-157.720	43.255	-0.193	-0.171
-156.706	235.063	0.131	0.211
-155.691	-44.436	0.211	-0.103
-154.677	800.000	0.039	-0.163
-153.662	-11.886	0.017	0.011
-152.647	106.690	0.121	-0.140
-151.633	-200.000	-0.006	0.266
-150.618	800.000	0.033	-0.134
-149.604	-73.835	0.069	-0.024
-148.589	-43.750	0.222	-0.109
-147.574	-81.666	0.128	-0.041
-146.560	-67.872	0.037	-0.014
-145.545	442.712	-0.084	0.179
-144.531	-106.484	-0.288	-0.063
-143.516	-14.907	-0.181	-0.113
-142.502	-200.000	0.016	-0.242
-141.487	37.103	0.226	-0.195
-140.472	-66.101	0.227	-0.088
-139.458	-5.721	0.198	0.132
-138.443	800.000	-0.050	0.138
-137.429	-92.101	-0.534	-0.147
-136.414	-82.465	0.033	0.011
-135.399	-200.000	0.032	0.194
-134.385	800.000	0.067	-0.191
-133.370	232.256	0.098	-0.157
-132.356	12.785	-0.234	-0.176
-131.341	458.843	0.047	-0.103
-130.326	800.000	0.095	0.268
-129.312	33.887	0.086	0.073
-128.297	-200.000	-0.001	-0.028
-127.283	800.000	0.008	-0.032
-126.268	78.253	-0.113	-0.118
-125.253	-30.980	-0.176	0.097
-124.239	800.000	-0.098	0.325
-123.224	726.749	-0.112	0.290
-122.210	-70.168	-0.286	-0.106
