DTS Sentinel unit serial number:	SN413079Multiplexer serial number:	ORYXHardware model number:	OX4-SRSoftware version number:	ORYX F/W v4.00 Oryx Data Collector v3.7.2.0data status	okinstallation	princeton_trtdifferential loss correction	single-endedforward channel	channel 2reverse channel	N/Adate	2019/09/13time	16:55:35forward acquisition time	60.00reverse acquisition time	0.00gamma	496.2192k internal	0.2315k external	0.2315temperature offset calibration	1.0206default loss term (dB/km)	0.3790temperature slope calibration	1.0000multiplexer offset coefficient	1.0000multiplexer slope coefficient	1.0000fibre end	0.00T internal ref (°C)	34.87T ext. ref 1 (°C)	4.82T ext. ref 2 (°C)	30.55length (m)	temperature (°C)	Stokes	anti-Stokes-747.200	97.807	-0.147	0.171
-746.185	-200.000	-0.036	0.342
-745.171	103.521	-0.253	-0.301
-744.156	800.000	0.076	0.263
-743.142	237.586	0.102	0.171
-742.127	171.735	0.076	0.111
-741.112	117.078	-0.085	0.105
-740.098	-64.995	0.059	-0.024
-739.083	293.279	-0.020	0.036
-738.069	-200.000	-0.009	0.441
-737.054	-200.000	-0.006	0.095
-736.039	-145.371	-0.340	-0.031
-735.025	132.998	-0.345	0.451
-734.010	-200.000	-0.014	0.170
-732.996	-117.963	-0.051	-0.009
-731.981	-180.850	-0.204	-0.004
-730.966	-82.476	0.452	0.148
-729.952	-27.410	-0.325	-0.191
-728.937	47.417	-0.080	-0.075
-727.923	84.440	0.264	-0.292
-726.908	240.019	0.061	0.103
-725.894	800.000	-0.015	-0.056
-724.879	-32.848	-0.134	0.075
-723.864	-72.954	0.092	-0.034
-722.850	-19.304	-0.155	-0.098
-721.835	-200.000	0.002	-0.120
-720.821	107.239	-0.145	-0.175
-719.806	800.000	0.072	-0.235
-718.791	-4.202	0.024	-0.017
-717.777	366.646	0.081	-0.165
-716.762	-124.092	-0.031	-0.005
-715.748	-113.179	-0.253	0.050
-714.733	77.304	0.212	0.229
-713.718	-118.126	-0.291	0.053
-712.704	110.805	-0.144	-0.175
-711.689	550.372	-0.083	0.202
-710.675	679.144	-0.153	0.403
-709.660	381.907	0.072	-0.149
-708.645	171.889	0.265	0.385
-707.631	519.612	0.052	-0.122
-706.616	-200.000	0.016	-0.269
-705.602	-119.220	0.283	-0.050
-704.587	36.097	-0.191	0.171
-703.572	-16.301	-0.099	0.064
-702.558	-200.000	0.020	-0.197
-701.543	-200.000	-0.037	-0.376
-700.529	-167.288	-0.337	0.014
-699.514	190.633	0.095	0.144
-698.499	800.000	-0.113	-0.399
-697.485	31.271	-0.243	-0.211
-696.470	312.834	0.085	-0.161
-695.456	800.000	0.058	0.243
-694.441	-171.513	0.140	0.005
-693.426	-32.831	-0.212	-0.119
-692.412	47.721	-0.220	-0.207
-691.397	-68.230	0.218	-0.086
-690.383	514.732	0.123	-0.290
-689.368	9.291	0.050	-0.038
-688.354	-76.773	-0.155	0.055
-687.339	157.867	0.100	0.140
-686.324	172.468	0.163	0.237
-685.310	-126.012	0.169	0.026
-684.295	-176.098	-0.288	0.008
-683.281	19.216	-0.187	0.152
-682.266	-200.000	0.012	-0.266
-681.251	-43.901	0.124	0.063
-680.237	-130.611	0.125	-0.017
-679.222	800.000	-0.081	-0.265
-678.208	115.607	-0.163	-0.202
-677.193	58.899	-0.099	-0.099
-676.178	-42.502	-0.099	0.051
-675.164	239.579	0.167	0.281
-674.149	-41.491	0.179	-0.093
-673.135	25.031	-0.132	-0.110
-672.120	-200.000	-0.001	-0.217
-671.105	-106.910	-0.369	-0.083
-670.091	224.283	-0.112	0.182
-669.076	434.973	-0.018	0.040
-668.062	-14.454	-0.135	-0.088
-667.047	800.000	0.031	0.125
-666.032	119.691	-0.165	-0.207
-665.018	151.653	-0.329	-0.453
-664.003	800.000	-0.121	0.345
-662.989	-200.000	-0.019	0.261
-661.974	-173.426	-0.067	0.002
-660.959	81.345	-0.163	-0.178
-659.945	-139.350	0.106	0.012
-658.930	-136.796	-0.120	0.014
-657.916	-200.000	-0.027	-0.127
-656.901	461.363	-0.067	-0.152
-655.886	17.244	-0.163	-0.131
-654.872	44.098	0.103	-0.096
-653.857	690.548	-0.029	-0.076
-652.843	-26.229	-0.097	0.057
-651.828	12.447	0.054	-0.042
-650.814	-19.116	0.081	0.051
-649.799	-1.132	0.229	-0.163
-648.784	90.386	-0.121	-0.137
-647.770	-127.868	0.158	0.023
-646.755	48.936	0.056	0.053
-645.741	-81.924	0.351	0.116
-644.726	-140.229	0.203	0.022
-643.711	34.451	-0.168	0.148
-642.697	-63.796	0.168	0.069
-641.682	-200.000	-0.033	0.236
-640.668	90.442	0.129	0.145
-639.653	203.991	0.282	-0.440
-638.638	589.134	0.047	0.117
-637.624	-120.604	-0.319	0.054
-636.609	-200.000	0.006	-0.236
-635.595	-39.082	0.075	0.040
-634.580	613.818	0.086	0.216
-633.565	-69.793	0.044	-0.017
-632.551	-10.194	-0.172	0.115
-631.536	11.521	-0.051	-0.039
-630.522	436.032	0.084	0.184
-629.507	-200.000	0.037	-0.416
-628.492	20.295	0.168	-0.137
-627.478	106.825	0.265	-0.318
-626.463	-79.684	-0.201	-0.068
-625.449	32.292	-0.339	0.295
-624.434	218.725	-0.081	0.131
-623.419	211.671	-0.122	-0.194
-622.405	-4.543	0.242	-0.168
-621.390	35.183	-0.112	0.099
-620.376	-16.471	0.271	-0.173
-619.361	139.114	-0.145	-0.193
-618.346	-30.091	0.292	0.167
-617.332	-200.000	-0.011	0.089
-616.317	-200.000	0.006	-0.294
-615.303	274.192	0.111	-0.199
-614.288	-146.811	-0.415	0.036
-613.273	-200.000	0.040	0.237
-612.259	-200.000	-0.039	-0.295
-611.244	13.970	0.118	0.092
-610.230	32.206	0.140	-0.121
-609.215	126.603	-0.131	0.167
-608.201	-58.138	0.163	0.071
-607.186	45.112	0.112	0.104
-606.171	-29.417	-0.183	-0.106
-605.157	-56.976	0.281	-0.125
-604.142	242.128	0.116	0.196
-603.128	177.285	0.035	0.051
-602.113	30.222	0.163	0.140
-601.098	-65.756	-0.220	0.089
-600.084	800.000	0.081	-0.237
-599.069	-147.628	-0.003	0.000
-598.055	-177.384	-0.107	0.003
-597.040	-71.725	0.068	0.026
-596.025	125.994	-0.158	0.202
-595.011	-107.156	-0.182	0.040
-593.996	-2.786	0.220	-0.155
-592.982	-200.000	-0.001	0.052
-591.967	138.704	-0.095	0.126
-590.952	84.084	-0.295	0.325
-589.938	-63.601	0.159	-0.066
-588.923	-200.000	-0.026	-0.155
-587.909	-170.262	-0.331	-0.012
-586.894	800.000	-0.040	-0.151
-585.879	-200.000	0.054	-0.246
-584.865	-76.331	0.196	-0.070
-583.850	357.247	0.126	-0.254
-582.836	241.656	0.221	-0.372
-581.821	199.599	-0.184	-0.284
-580.806	178.171	-0.093	-0.137
-579.792	-200.000	-0.008	-0.128
-578.777	-200.000	-0.019	-0.444
-577.763	-53.406	0.067	0.031
-576.748	-44.761	-0.263	0.132
-575.733	-68.084	-0.212	-0.083
-574.719	-200.000	0.018	-0.235
-573.704	52.950	0.170	-0.164
-572.690	-59.605	0.309	-0.134
-571.675	318.227	-0.015	-0.029
-570.661	-101.052	0.325	0.080
-569.646	-127.687	-0.092	-0.013
-568.631	800.000	-0.080	-0.234
-567.617	-200.000	-0.041	-0.192
-566.602	413.105	-0.077	-0.165
-565.588	-38.389	0.212	0.113
-564.573	580.862	-0.058	-0.142
-563.558	-175.064	0.068	0.002
-562.544	90.877	0.261	0.295
-561.529	-108.913	-0.230	0.049
-560.515	20.375	-0.323	-0.263
-559.500	124.018	-0.153	0.194
-558.485	-22.804	-0.266	-0.161
-557.471	-108.842	0.151	0.033
-556.456	-144.201	0.042	-0.004
-555.442	-11.014	0.342	0.227
-554.427	-115.023	-0.124	-0.024
-553.412	575.231	0.005	0.013
-552.398	800.000	-0.021	0.064
-551.383	-129.958	-0.222	-0.031
-550.369	-125.119	-0.236	0.036
-549.354	-75.811	-0.049	-0.018
-548.339	-200.000	0.036	-0.212
-547.325	98.156	-0.179	-0.207
-546.310	-91.930	0.154	-0.044
-545.296	24.426	-0.053	-0.044
-544.281	800.000	-0.051	-0.152
-543.266	25.327	0.204	-0.170
-542.252	-35.798	0.148	-0.081
-541.237	690.778	0.013	0.035
-540.223	151.189	0.082	-0.112
-539.208	-200.000	-0.005	-0.047
-538.193	-200.000	-0.001	0.092
-537.179	-21.179	0.073	-0.045
-536.164	449.324	0.080	0.178
-535.150	72.911	0.208	-0.218
-534.135	-164.493	0.256	0.012
-533.121	279.016	0.145	-0.259
-532.106	-132.981	0.181	-0.023
-531.091	-91.218	-0.384	0.111
-530.077	71.709	0.071	0.074
-529.062	-84.529	0.299	0.095
-528.048	295.219	-0.101	-0.186
-527.033	102.997	0.187	-0.220
-526.018	-73.420	-0.178	0.065
-525.004	-200.000	-0.063	0.388
-523.989	141.694	-0.171	0.228
-522.975	-43.304	0.151	-0.077
-521.960	356.808	-0.132	0.265
-520.945	-96.751	-0.150	-0.040
-519.931	258.734	-0.107	0.186
-518.916	-200.000	-0.007	-0.111
-517.902	-175.278	-0.068	0.002
-516.887	-94.979	0.213	-0.058
-515.872	800.000	-0.077	-0.254
-514.858	185.036	0.062	-0.093
-513.843	686.171	0.075	-0.197
-512.829	-200.000	-0.042	0.236
-511.814	8.693	-0.302	0.229
-510.799	800.000	-0.062	0.252
-509.785	-108.064	0.413	0.090
-508.770	800.000	0.061	0.212
-507.756	800.000	-0.048	0.186
-506.741	-116.407	-0.177	0.033
-505.726	-52.789	-0.048	0.022
-504.712	-59.014	-0.261	-0.113
-503.697	-74.295	0.137	0.050
-502.683	45.159	-0.080	-0.074
-501.668	795.818	-0.110	-0.305
-500.653	-60.486	-0.294	-0.125
-499.639	-123.529	-0.070	0.011
-498.624	95.012	-0.072	-0.082
-497.610	773.078	-0.012	0.033
-496.595	-200.000	0.302	0.000
-495.581	-200.000	0.049	-0.313
-494.566	-200.000	0.010	0.281
-493.551	664.028	-0.095	-0.247
-492.537	48.798	0.098	0.092
-491.522	132.929	-0.213	0.276
-490.508	-137.100	0.245	0.028
-489.493	-80.456	0.224	-0.075
-488.478	-57.425	-0.195	-0.086
-487.464	4.806	-0.112	-0.083
-486.449	127.805	-0.112	0.143
-485.435	-200.000	-0.003	0.064
-484.420	236.283	0.200	-0.331
-483.405	-190.559	-0.059	-0.001
-482.391	-13.203	-0.290	0.189
-481.376	299.540	-0.185	-0.341
-480.362	-72.850	-0.256	-0.094
-479.347	-122.307	-0.279	-0.046
-478.332	-28.324	0.308	0.178
-477.318	-200.000	0.024	0.117
-476.303	9.734	0.153	-0.117
-475.289	291.591	0.147	-0.269
-474.274	-113.069	0.207	0.041
-473.259	800.000	-0.074	-0.245
-472.245	-64.623	-0.157	0.064
-471.230	143.021	-0.194	0.259
-470.216	-123.949	0.148	0.023
-469.201	-154.144	-0.166	0.011
-468.186	-110.356	-0.199	-0.041
-467.172	45.916	0.249	0.231
-466.157	-108.752	-0.385	0.083
-465.143	800.000	0.035	-0.134
-464.128	-158.827	0.182	-0.010
-463.113	-200.000	0.039	0.209
-462.099	-122.244	-0.041	-0.007
-461.084	628.328	-0.036	0.090
-460.070	-28.278	0.182	0.105
-459.055	800.000	0.054	-0.201
-458.040	-200.000	0.000	-0.028
-457.026	-200.000	0.017	0.156
-456.011	-101.044	-0.153	0.038
-454.997	506.978	-0.166	0.385
-453.982	-20.734	-0.168	0.103
-452.968	98.841	0.106	0.122
-451.953	419.370	0.020	0.043
-450.938	-200.000	0.028	-0.145
-449.924	126.301	0.059	0.075
-448.909	143.239	0.261	0.348
-447.895	37.180	0.170	0.151
-446.880	-143.403	0.203	0.019
-445.865	800.000	-0.088	-0.348
-444.851	601.603	0.055	0.137
-443.836	-200.000	-0.002	0.163
-442.822	396.729	-0.040	0.084
-441.807	-145.295	0.440	0.040
-440.792	-3.621	0.252	-0.175
-439.778	260.906	0.140	0.242
-438.763	-60.661	0.128	-0.054
-437.749	800.000	-0.078	0.219
-436.734	69.562	-0.083	0.085
-435.719	339.640	0.127	-0.247
-434.705	-200.000	0.037	-0.316
-433.690	-125.972	-0.127	-0.019
-432.676	15.274	-0.249	-0.195
-431.661	-200.000	0.028	-0.143
-430.646	549.962	0.014	-0.033
-429.632	-145.554	0.269	0.024
-428.617	140.878	-0.145	-0.192
-427.603	113.044	-0.043	-0.052
-426.588	-140.972	0.149	-0.015
-425.573	195.587	-0.147	-0.224
-424.559	-1.798	0.185	-0.130
-423.544	-178.243	-0.233	0.005
-422.530	-77.868	0.136	-0.047
-421.515	-28.534	0.027	0.016
-420.500	-200.000	0.042	0.236
-419.486	-200.000	-0.013	0.196
-418.471	1.567	0.099	0.071
-417.457	-200.000	0.022	0.213
-416.442	800.000	0.042	-0.165
-415.428	160.052	-0.133	-0.186
-414.413	171.218	0.020	-0.028
-413.398	51.188	-0.065	-0.062
-412.384	-155.628	0.147	0.009
-411.369	-72.728	0.106	0.039
-410.355	-141.996	0.417	0.042
-409.340	727.395	0.014	-0.038
-408.325	112.484	-0.276	-0.333
-407.311	37.462	-0.080	-0.071
-406.296	-12.128	0.282	-0.184
-405.282	-154.236	-0.374	0.025
-404.267	110.038	-0.205	0.246
-403.252	-107.663	0.154	0.034
-402.238	57.602	-0.210	-0.205
-401.223	85.095	-0.082	0.090
-400.209	3.426	-0.036	-0.026
-399.194	463.224	-0.054	0.121
-398.179	-117.668	-0.076	0.014
-397.165	564.629	0.087	-0.210
-396.150	-75.888	-0.110	0.039
-395.136	197.780	-0.011	-0.017
-394.121	-182.198	-0.101	0.002
-393.106	215.595	-0.124	0.197
-392.092	-141.367	-0.172	-0.017
-391.077	153.936	-0.186	-0.255
-390.063	19.729	-0.202	-0.163
-389.048	127.149	-0.079	-0.100
-388.033	-172.583	0.102	0.003
-387.019	-160.573	-0.245	-0.013
-386.004	-68.134	-0.135	0.052
-384.990	490.480	-0.168	-0.385
-383.975	24.438	-0.144	0.119
-382.960	41.325	0.184	-0.166
-381.946	-88.520	-0.144	0.043
-380.931	800.000	-0.123	-0.380
-379.917	43.503	-0.154	-0.141
-378.902	-36.485	-0.161	-0.087
-377.888	16.049	0.253	0.199
-376.873	-21.505	0.406	0.247
-375.858	-200.000	0.010	-0.239
-374.844	-99.451	0.257	0.065
-373.829	379.672	0.037	0.076
-372.815	-63.014	-0.207	-0.086
-371.800	-0.138	0.212	0.151
-370.785	-120.166	-0.385	-0.066
-369.771	-38.360	0.143	-0.075
-368.756	-4.808	-0.279	0.192
-367.742	-200.000	-0.015	0.151
-366.727	-117.687	-0.069	-0.012
-365.712	-200.000	0.018	-0.084
-364.698	543.734	0.149	-0.355
-363.683	301.918	0.129	0.239
-362.669	-112.470	-0.194	0.039
-361.654	-8.363	0.156	0.105
-360.639	88.991	-0.100	-0.111
-359.625	-81.258	-0.122	-0.040
-358.610	800.000	-0.053	-0.151
-357.596	100.959	-0.161	-0.186
-356.581	44.362	-0.107	-0.098
-355.566	76.626	0.173	0.183
-354.552	-200.000	-0.000	-0.005
-353.537	-200.000	0.007	-0.151
-352.523	-200.000	-0.028	0.232
-351.508	-65.749	-0.031	-0.012
-350.493	391.271	0.153	-0.317
-349.479	800.000	0.100	-0.298
-348.464	589.888	0.089	-0.218
-347.450	14.581	0.257	-0.200
-346.435	247.925	-0.125	0.211
-345.420	-122.051	-0.148	0.024
-344.406	-200.000	-0.037	0.268
-343.391	-200.000	0.052	0.247
-342.377	103.948	-0.078	-0.092
-341.362	-47.594	-0.189	0.091
-340.348	-107.245	0.161	-0.035
-339.333	-200.000	-0.051	-0.339
-338.318	459.933	0.094	0.209
-337.304	-20.954	-0.113	-0.069
-336.289	108.718	0.029	0.034
-335.275	-24.285	-0.261	0.155
-334.260	134.319	-0.314	-0.406
-333.245	-200.000	0.008	0.131
-332.231	484.793	0.100	0.227
-331.216	-9.442	0.128	0.085
-330.202	-200.000	0.003	-0.379
-329.187	322.403	-0.154	0.293
-328.172	-133.265	0.216	-0.027
-327.158	-200.000	-0.065	-0.416
-326.143	800.000	0.028	0.116
-325.129	586.942	0.047	0.115
-324.114	260.778	0.036	0.062
-323.099	35.198	-0.065	0.057
-322.085	-83.066	-0.184	-0.059
-321.070	255.398	-0.046	-0.078
-320.056	-52.671	-0.233	0.107
-319.041	3.940	0.399	-0.291
-318.026	32.311	-0.148	0.128
-317.012	800.000	0.074	-0.243
-315.997	-146.112	0.181	0.016
-314.983	-200.000	0.055	0.271
-313.968	59.772	0.132	0.130
-312.953	-10.513	-0.191	-0.126
-311.939	-200.000	0.031	-0.211
-310.924	729.722	-0.047	0.125
-309.910	25.493	-0.179	0.148
-308.895	-107.696	0.244	-0.053
-307.880	-200.000	0.007	-0.186
-306.866	-109.070	0.044	-0.009
-305.851	-139.500	-0.134	-0.014
-304.837	-52.273	-0.112	-0.052
-303.822	800.000	0.007	0.021
-302.807	-200.000	0.008	0.078
-301.793	48.736	0.290	0.271
-300.778	167.011	0.011	-0.016
-299.764	-200.000	0.001	-0.128
-298.749	176.194	0.360	0.521
-297.735	246.795	-0.032	0.054
-296.720	348.927	-0.068	0.133
-295.705	-131.856	0.044	0.006
-294.691	-154.046	0.323	-0.022
-293.676	-28.935	0.128	-0.073
-292.662	-135.026	0.177	0.021
-291.647	41.432	0.201	-0.181
-290.632	-3.928	-0.110	-0.076
-289.618	11.988	0.123	0.094
-288.603	-200.000	-0.012	0.116
-287.589	-200.000	0.023	-0.101
-286.574	36.270	0.121	0.106
-285.559	-31.232	0.140	0.078
-284.545	800.000	0.115	-0.319
-283.530	800.000	0.096	0.348
-282.516	-148.265	-0.222	0.018
-281.501	-200.000	0.022	0.125
-280.486	-200.000	0.004	-0.091
-279.472	-71.377	0.172	0.064
-278.457	-74.969	0.409	-0.146
-277.443	-13.469	0.344	-0.222
-276.428	-138.175	-0.215	0.024
-275.413	-200.000	-0.005	-0.082
-274.399	69.807	-0.141	0.144
-273.384	800.000	-0.116	0.398
-272.370	-200.000	-0.063	-0.000
-271.355	-145.437	0.060	-0.005
-270.340	-200.000	0.002	0.283
-269.326	-40.050	0.221	0.114
-268.311	3.155	-0.216	-0.156
-267.297	-200.000	-0.034	0.365
-266.282	-71.393	-0.118	-0.044
-265.267	63.095	-0.241	-0.240
-264.253	52.520	0.232	0.220
-263.238	165.688	-0.032	-0.045
-262.224	27.983	-0.182	0.152
-261.209	800.000	-0.129	-0.373
-260.195	-200.000	0.008	-0.134
-259.180	-181.806	0.147	0.003
-258.165	-134.197	0.357	0.044
-257.151	-64.829	0.182	-0.073
-256.136	127.887	-0.051	-0.065
-255.122	67.765	-0.256	-0.260
-254.107	229.993	-0.049	0.080
-253.092	8.309	0.181	-0.135
-252.078	-118.868	-0.215	-0.037
-251.063	328.226	-0.032	-0.061
-250.049	-200.000	0.017	0.082
-249.034	-165.412	0.064	0.003
-248.019	-106.759	-0.271	-0.060
-247.005	-146.249	-0.165	0.014
-245.990	-200.000	0.042	0.334
-244.976	2.485	-0.377	-0.271
-243.961	46.963	-0.113	0.104
-242.946	-200.000	-0.008	-0.228
-241.932	-66.987	-0.115	0.045
-240.917	-138.749	-0.230	0.025
-239.903	84.540	-0.065	-0.070
-238.888	39.356	0.072	0.064
-237.873	-200.000	-0.040	-0.282
-236.859	-157.007	0.200	0.012
-235.844	-46.253	-0.162	0.079
-234.830	232.559	-0.106	0.173
-233.815	-69.571	0.184	-0.070
-232.800	134.031	0.065	-0.083
-231.786	309.779	0.235	-0.436
-230.771	-150.834	0.105	-0.008
-229.757	-200.000	0.029	0.188
-228.742	91.114	0.165	0.184
-227.727	-51.540	0.082	0.038
-226.713	-104.068	-0.114	-0.026
-225.698	-200.000	-0.042	-0.186
-224.684	-129.074	-0.218	-0.030
-223.669	468.597	0.092	-0.204
-222.655	307.179	-0.021	-0.040
-221.640	-20.019	0.134	-0.082
-220.625	-178.249	-0.128	-0.003
-219.611	800.000	-0.067	0.227
-218.596	-200.000	0.020	0.386
-217.582	81.701	0.133	-0.143
-216.567	707.141	0.130	0.341
-215.552	365.424	0.133	0.266
-214.538	-200.000	0.022	0.400
-213.523	566.188	0.140	0.338
-212.509	16.200	0.218	-0.171
-211.494	98.996	0.279	-0.320
-210.479	-20.213	-0.351	0.215
-209.465	-146.363	0.189	0.016
-208.450	53.723	-0.054	-0.052
-207.436	187.729	-0.130	-0.192
-206.421	-200.000	0.011	0.124
-205.406	673.678	0.141	0.363
-204.392	-29.825	-0.076	-0.043
-203.377	328.479	-0.175	-0.333
-202.363	-200.000	-0.010	0.086
-201.348	-10.358	-0.089	-0.059
-200.333	-200.000	-0.039	-0.340
-199.319	-200.000	-0.013	0.250
-198.304	-89.826	-0.035	0.010
-197.290	-153.697	0.293	0.020
-196.275	-58.641	-0.291	0.125
-195.260	136.314	-0.244	-0.315
-194.246	-101.912	0.462	0.111
-193.231	-200.000	-0.013	0.321
-192.217	-98.825	0.116	-0.029
-191.202	695.044	-0.137	0.357
-190.187	-199.693	0.239	-0.001
-189.173	178.976	-0.085	-0.123
-188.158	-43.205	-0.400	-0.201
-187.144	506.460	0.122	0.279
-186.129	-126.332	-0.103	-0.015
-185.114	230.870	0.109	0.176
-184.100	207.013	0.139	0.215
-183.085	184.019	-0.008	0.012
-182.071	-10.236	-0.457	0.301
-181.056	-150.188	-0.069	0.005
-180.042	66.497	0.049	-0.050
-179.027	287.238	-0.150	-0.269
-178.012	-51.494	-0.398	0.184
-176.998	800.000	0.134	0.420
-175.983	-20.625	0.242	-0.147
-174.969	463.080	-0.053	-0.116
-173.954	-200.000	-0.029	0.163
-172.939	800.000	-0.051	0.183
-171.925	223.805	0.161	0.258
-170.910	-200.000	0.013	0.377
-169.896	-200.000	-0.040	0.237
-168.881	-50.784	-0.129	0.060
-167.866	107.976	0.254	0.300
-166.852	111.288	0.162	0.194
-165.837	-142.951	-0.204	0.020
-164.823	-188.117	-0.172	0.002
-163.808	-23.340	-0.192	-0.114
-162.793	75.441	-0.181	0.189
-161.779	29.827	0.182	0.154
-160.764	442.160	-0.156	0.338
-159.750	691.551	0.033	-0.086
-158.735	-103.855	-0.239	-0.055
-157.720	-54.800	0.250	-0.112
-156.706	264.034	-0.117	0.201
-155.691	800.000	0.115	0.448
-154.677	-16.987	-0.124	0.077
-153.662	-200.000	0.005	-0.108
-152.647	-184.954	-0.155	-0.002
-151.633	-200.000	0.023	0.115
-150.618	-57.778	0.249	-0.108
-149.604	718.373	-0.076	0.200
-148.589	271.881	-0.193	0.337
-147.574	107.835	0.273	0.322
-146.560	90.220	0.122	0.135
-145.545	800.000	0.039	0.129
-144.531	-188.563	0.173	-0.002
-143.516	-200.000	-0.012	-0.168
-142.502	189.049	-0.040	-0.059
-141.487	25.318	0.245	-0.202
-140.472	366.444	-0.057	-0.113
-139.458	-36.964	0.172	-0.091
-138.443	-19.102	-0.150	-0.092
-137.429	439.542	-0.163	-0.351
-136.414	800.000	0.048	-0.196
-135.399	82.498	0.215	-0.231
-134.385	-178.192	-0.276	-0.006
-133.370	-200.000	0.002	0.128
-132.356	419.214	0.160	-0.339
-131.341	-171.246	0.340	-0.011
-130.326	-35.398	-0.061	0.033
-129.312	-140.945	-0.237	0.024
-128.297	-55.299	0.109	-0.049
-127.283	-35.127	0.232	-0.125
-126.268	171.431	-0.114	0.162
-125.253	381.574	-0.048	0.098
-124.239	42.322	0.044	0.039
-123.224	800.000	0.057	0.204
-122.210	-200.000	-0.003	-0.141
