DTS Sentinel unit serial number:	SN413079Multiplexer serial number:	ORYXHardware model number:	OX4-SRSoftware version number:	ORYX F/W v4.00 Oryx Data Collector v3.7.2.0data status	okinstallation	princeton_trtdifferential loss correction	single-endedforward channel	channel 2reverse channel	N/Adate	2019/09/18time	05:11:35forward acquisition time	60.00reverse acquisition time	0.00gamma	496.2192k internal	0.2348k external	0.2348temperature offset calibration	0.9986default loss term (dB/km)	0.3790temperature slope calibration	1.0000multiplexer offset coefficient	1.0000multiplexer slope coefficient	1.0000fibre end	0.00T internal ref (°C)	23.50T ext. ref 1 (°C)	0.19T ext. ref 2 (°C)	17.45length (m)	temperature (°C)	Stokes	anti-Stokes-747.200	-118.421	0.016	-0.003
-746.185	-102.509	0.414	0.099
-745.171	800.000	-0.073	0.239
-744.156	-200.000	0.000	0.180
-743.142	-78.039	0.113	-0.039
-742.127	65.235	0.250	0.253
-741.112	800.000	-0.146	0.497
-740.098	-159.925	-0.378	-0.021
-739.083	-120.780	0.068	0.011
-738.069	-123.451	-0.233	-0.037
-737.054	132.954	0.074	-0.095
-736.039	-200.000	-0.007	0.042
-735.025	172.837	0.028	0.041
-734.010	-200.000	-0.039	-0.454
-732.996	31.827	0.181	-0.155
-731.981	-120.638	0.307	-0.052
-730.966	-105.248	-0.098	-0.022
-729.952	-8.944	-0.068	0.045
-728.937	-200.000	-0.021	0.125
-727.923	154.554	-0.151	-0.207
-726.908	-200.000	0.010	0.154
-725.894	-32.897	-0.296	0.164
-724.879	-104.223	-0.161	-0.037
-723.864	286.679	0.057	-0.103
-722.850	-78.953	-0.216	0.073
-721.835	84.593	-0.082	0.089
-720.821	361.318	-0.102	0.204
-719.806	-200.000	0.028	0.327
-718.791	-41.381	-0.559	-0.287
-717.777	-200.000	0.003	-0.328
-716.762	266.850	-0.147	-0.257
-715.748	27.415	0.259	-0.217
-714.733	-7.044	-0.113	-0.076
-713.718	248.626	-0.049	-0.083
-712.704	-63.545	0.590	-0.242
-711.689	43.212	0.145	0.132
-710.675	-145.330	0.101	-0.009
-709.660	-200.000	-0.013	-0.125
-708.645	-185.338	-0.116	-0.002
-707.631	43.097	-0.105	-0.096
-706.616	-200.000	-0.060	0.398
-705.602	740.029	-0.091	0.244
-704.587	62.834	-0.054	0.054
-703.572	-200.000	0.014	0.268
-702.558	79.428	0.160	-0.171
-701.543	-75.918	0.262	0.092
-700.529	-112.345	0.068	0.014
-699.514	108.269	0.101	0.120
-698.499	143.177	0.055	0.073
-697.485	23.529	-0.090	0.074
-696.470	2.447	0.186	-0.134
-695.456	-54.075	-0.257	0.116
-694.441	-200.000	-0.019	0.220
-693.426	-23.503	0.271	0.162
-692.412	-200.000	-0.028	-0.224
-691.397	-200.000	-0.007	-0.279
-690.383	718.358	-0.057	-0.152
-689.368	666.051	-0.044	-0.112
-688.354	111.371	-0.033	0.039
-687.339	-140.740	-0.184	0.019
-686.324	-60.780	-0.310	0.131
-685.310	-200.000	0.001	0.088
-684.295	-102.582	0.231	0.055
-683.281	-145.690	-0.187	-0.017
-682.266	221.148	-0.110	-0.176
-681.251	-200.000	0.015	-0.286
-680.237	-200.000	0.035	0.213
-679.222	552.347	0.075	0.179
-678.208	-141.101	0.093	-0.010
-677.193	-200.000	-0.037	0.181
-676.178	-42.441	-0.093	0.047
-675.164	73.846	-0.184	-0.192
-674.149	-111.660	0.218	-0.044
-673.135	-200.000	0.011	-0.330
-672.120	-21.603	-0.106	0.064
-671.105	-177.769	0.279	-0.007
-670.091	-83.798	-0.093	-0.030
-669.076	800.000	-0.019	0.061
-668.062	800.000	0.091	-0.289
-667.047	800.000	0.022	-0.076
-666.032	18.506	0.154	0.123
-665.018	41.735	-0.198	0.179
-664.003	26.590	0.046	0.038
-662.989	-75.378	-0.259	0.092
-661.974	800.000	-0.047	0.137
-660.959	800.000	-0.094	-0.334
-659.945	122.368	-0.028	0.035
-658.930	415.399	0.031	-0.065
-657.916	-179.974	-0.259	-0.005
-656.901	-32.476	0.315	-0.175
-655.886	35.577	-0.104	0.091
-654.872	800.000	-0.118	-0.375
-653.857	-65.676	-0.233	-0.093
-652.843	-200.000	0.009	0.125
-651.828	-200.000	0.042	-0.219
-650.814	-2.951	-0.312	-0.217
-649.799	-16.578	-0.117	0.074
-648.784	23.962	-0.309	0.254
-647.770	-200.000	-0.029	-0.569
-646.755	-123.875	0.301	-0.047
-645.741	800.000	0.050	0.169
-644.726	-29.792	-0.276	0.157
-643.711	-65.091	-0.228	0.091
-642.697	-200.000	-0.009	-0.058
-641.682	-200.000	0.028	-0.128
-640.668	-83.541	0.165	-0.053
-639.653	449.095	-0.060	0.131
-638.638	-200.000	0.047	-0.328
-637.624	35.094	-0.350	0.305
-636.609	82.130	-0.246	-0.266
-635.595	101.377	-0.174	-0.202
-634.580	96.077	0.070	-0.080
-633.565	283.992	-0.097	0.174
-632.551	800.000	0.040	0.169
-631.536	-23.776	-0.034	-0.020
-630.522	800.000	0.025	-0.091
-629.507	-40.161	0.125	0.065
-628.492	-73.865	0.333	0.120
-627.478	-110.372	-0.327	0.068
-626.463	-125.640	-0.289	-0.044
-625.449	800.000	0.142	-0.393
-624.434	-54.764	-0.136	0.061
-623.419	222.545	0.172	-0.275
-622.405	-200.000	0.024	-0.130
-621.390	800.000	0.049	0.150
-620.376	14.671	0.127	-0.098
-619.361	-131.648	0.068	-0.009
-618.346	-142.823	0.063	0.006
-617.332	-47.863	-0.331	-0.159
-616.317	-50.138	-0.102	-0.048
-615.303	100.653	-0.088	-0.101
-614.288	145.694	0.298	-0.397
-613.273	-200.000	0.005	-0.127
-612.259	-99.856	0.249	0.062
-611.244	-119.747	-0.188	-0.032
-610.230	-14.839	-0.228	-0.145
-609.215	93.735	-0.120	0.136
-608.201	800.000	-0.028	-0.092
-607.186	231.565	0.008	-0.013
-606.171	-81.420	0.290	0.095
-605.157	738.319	-0.082	-0.219
-604.142	-28.978	0.166	-0.095
-603.128	-18.665	-0.338	0.209
-602.113	139.755	-0.256	0.335
-601.098	490.170	0.070	-0.160
-600.084	800.000	-0.103	-0.289
-599.069	-111.172	0.085	-0.017
-598.055	-99.466	-0.263	0.066
-597.040	104.141	0.122	-0.143
-596.025	-153.321	0.326	-0.023
-595.011	-16.662	-0.084	0.053
-593.996	156.917	0.039	-0.053
-592.982	-54.252	-0.471	-0.213
-591.967	350.877	0.043	0.085
-590.952	-86.405	-0.080	-0.024
-589.938	-64.512	0.174	-0.070
-588.923	-200.000	0.020	0.124
-587.909	-6.939	0.078	-0.053
-586.894	800.000	-0.013	-0.037
-585.879	162.835	0.255	-0.355
-584.865	800.000	-0.041	-0.167
-583.850	654.072	-0.074	-0.188
-582.836	120.354	0.141	-0.174
-581.821	141.930	0.117	-0.154
-580.806	-122.724	-0.298	-0.048
-579.792	-96.980	0.083	0.021
-578.777	-11.160	0.015	-0.010
-577.763	800.000	-0.072	0.221
-576.748	-4.091	-0.317	-0.218
-575.733	800.000	0.036	-0.118
-574.719	-66.323	-0.216	-0.085
-573.704	116.990	-0.196	0.239
-572.690	40.268	0.146	-0.130
-571.675	150.944	-0.051	0.069
-570.661	-3.943	0.264	-0.182
-569.646	800.000	-0.057	-0.242
-568.631	98.171	-0.332	-0.379
-567.617	658.015	-0.048	0.123
-566.602	34.196	0.189	0.163
-565.588	-49.710	-0.264	0.124
-564.573	755.211	0.093	-0.248
-563.558	-72.917	-0.148	-0.054
-562.544	-200.000	-0.006	0.103
-561.529	-26.472	-0.251	0.146
-560.515	-200.000	-0.022	-0.103
-559.500	-200.000	-0.039	-0.226
-558.485	251.876	0.072	-0.122
-557.471	-110.416	0.058	-0.012
-556.456	-3.385	0.122	-0.084
-555.442	-200.000	-0.016	-0.153
-554.427	-52.171	0.341	-0.157
-553.412	-117.290	-0.327	-0.059
-552.398	-200.000	0.013	0.247
-551.383	-43.154	0.337	-0.170
-550.369	-6.669	0.155	-0.105
-549.354	-59.617	0.072	-0.030
-548.339	48.572	-0.098	0.091
-547.325	-200.000	-0.059	-0.365
-546.310	-200.000	-0.069	0.321
-545.296	-100.117	-0.459	0.113
-544.281	279.903	0.056	0.099
-543.266	-87.336	0.326	0.098
-542.252	277.715	0.155	0.274
-541.237	-26.578	-0.151	-0.088
-540.223	134.970	0.208	0.268
-539.208	-14.884	-0.344	-0.219
-538.193	-20.757	0.259	-0.158
-537.179	35.791	-0.310	0.271
-536.164	-69.506	0.089	-0.034
-535.150	200.497	0.118	0.180
-534.135	-142.065	-0.104	0.010
-533.121	800.000	0.086	-0.340
-532.106	239.837	0.068	0.113
-531.091	93.779	0.258	-0.290
-530.077	-122.511	0.196	-0.032
-529.062	242.809	-0.183	-0.304
-528.048	299.642	-0.142	0.258
-527.033	-155.783	0.254	-0.016
-526.018	-200.000	0.029	-0.172
-525.004	-39.315	-0.182	0.095
-523.989	236.932	0.047	0.077
-522.975	-200.000	-0.029	-0.127
-521.960	280.887	-0.091	-0.161
-520.945	800.000	0.043	0.148
-519.931	-170.013	-0.117	0.004
-518.916	-200.000	0.052	-0.298
-517.902	-136.983	-0.358	0.041
-516.887	16.573	-0.165	0.129
-515.872	800.000	0.112	-0.363
-514.858	-89.262	0.305	0.089
-513.843	-27.263	-0.247	-0.142
-512.829	-182.006	-0.105	-0.002
-511.814	173.533	0.103	0.148
-510.799	-200.000	-0.012	0.184
-509.785	-132.162	-0.315	0.041
-508.770	128.370	-0.246	-0.311
-507.756	800.000	-0.033	-0.108
-506.741	-47.561	0.178	-0.086
-505.726	-200.000	-0.080	-0.385
-504.712	-200.000	0.025	-0.163
-503.697	-41.150	0.066	-0.034
-502.683	-130.567	0.320	-0.043
-501.668	-95.040	0.161	-0.043
-500.653	-107.892	0.065	0.014
-499.639	66.844	0.126	0.127
-498.624	-174.422	0.140	0.004
-497.610	41.452	0.086	0.077
-496.595	84.519	-0.033	0.035
-495.581	-123.802	-0.296	-0.046
-494.566	139.318	-0.084	0.109
-493.551	156.771	0.090	0.122
-492.537	800.000	0.110	-0.349
-491.522	800.000	-0.044	0.156
-490.508	-200.000	-0.032	-0.154
-489.493	-80.736	-0.096	0.032
-488.478	800.000	0.083	0.323
-487.464	551.485	0.107	-0.255
-486.449	-53.938	-0.071	-0.032
-485.435	-200.000	0.031	-0.251
-484.420	-108.143	0.103	0.022
-483.405	270.138	-0.126	0.220
-482.391	-200.000	-0.044	0.282
-481.376	800.000	0.093	0.294
-480.362	-200.000	0.026	-0.123
-479.347	-109.222	-0.250	0.053
-478.332	-140.653	-0.177	-0.018
-477.318	215.513	-0.130	-0.205
-476.303	-172.650	0.140	-0.004
-475.289	-200.000	0.070	-0.316
-474.274	-82.791	-0.181	0.058
-473.259	-125.280	0.178	0.027
-472.245	25.130	0.174	0.143
-471.230	330.853	0.125	-0.238
-470.216	-106.422	0.181	0.040
-469.201	-58.693	-0.216	-0.092
-468.186	-123.486	0.100	0.016
-467.172	-200.000	-0.002	-0.039
-466.157	33.346	-0.202	-0.173
-465.143	-200.000	-0.028	0.495
-464.128	-41.864	0.066	-0.033
-463.113	25.018	0.247	0.202
-462.099	-128.429	-0.165	-0.023
-461.084	-184.648	0.382	0.006
-460.070	-135.820	-0.080	-0.009
-459.055	-81.500	-0.064	0.021
-458.040	687.502	-0.039	-0.101
-457.026	47.126	-0.047	0.043
-456.011	168.572	0.188	-0.265
-454.997	-156.708	0.262	0.016
-453.982	15.994	-0.242	-0.189
-452.968	-64.600	0.130	0.052
-451.953	800.000	-0.016	0.059
-450.938	468.169	-0.116	0.258
-449.924	-32.308	-0.146	0.080
-448.909	165.347	-0.198	0.277
-447.895	-54.483	-0.239	-0.107
-446.880	-129.687	-0.106	-0.014
-445.865	800.000	-0.062	0.200
-444.851	800.000	-0.059	0.210
-443.836	800.000	0.065	0.219
-442.822	20.324	-0.263	0.210
-441.807	-200.000	0.018	0.251
-440.792	74.564	-0.187	0.194
-439.778	70.161	0.237	0.242
-438.763	-200.000	0.050	0.270
-437.749	77.084	0.113	0.118
-436.734	268.017	0.073	-0.127
-435.719	161.837	0.168	-0.232
-434.705	-79.694	-0.206	-0.068
-433.690	-73.276	0.209	0.075
-432.676	-64.424	-0.257	-0.103
-431.661	-37.376	0.232	-0.122
-430.646	-200.000	0.036	-0.373
-429.632	135.866	-0.126	0.162
-428.617	131.403	0.147	-0.186
-427.603	11.812	-0.333	-0.252
-426.588	800.000	0.042	0.117
-425.573	337.011	-0.051	0.098
-424.559	800.000	-0.020	0.076
-423.544	-43.496	0.215	0.107
-422.530	-104.534	-0.165	-0.038
-421.515	-195.491	0.086	-0.001
-420.500	5.858	-0.101	0.074
-419.486	-41.844	-0.273	0.138
-418.471	-200.000	0.011	0.108
-417.457	-200.000	-0.092	0.426
-416.442	-40.311	-0.177	0.091
-415.428	56.149	0.177	-0.170
-414.413	-70.492	0.190	-0.071
-413.398	51.310	-0.218	-0.204
-412.384	-72.882	-0.150	0.054
-411.369	163.097	-0.140	0.194
-410.355	-200.000	-0.064	-0.418
-409.340	-200.000	-0.050	0.289
-408.325	103.797	-0.140	-0.162
-407.311	-99.047	-0.324	-0.081
-406.296	800.000	-0.009	-0.037
-405.282	-82.674	-0.147	-0.047
-404.267	525.388	-0.118	0.273
-403.252	220.499	-0.140	-0.221
-402.238	-119.239	-0.189	0.033
-401.223	800.000	0.164	-0.562
-400.209	99.584	0.085	-0.097
-399.194	-88.811	0.190	0.056
-398.179	515.044	0.051	-0.118
-397.165	-121.256	-0.215	-0.035
-396.150	-8.913	0.263	0.174
-395.136	-47.786	0.173	0.082
-394.121	733.409	-0.138	0.364
-393.106	-106.162	0.279	0.062
-392.092	-200.000	-0.027	-0.267
-391.077	238.130	0.203	0.332
-390.063	148.618	-0.097	0.129
-389.048	-179.264	0.049	-0.001
-388.033	-48.079	-0.045	-0.022
-387.019	-117.212	0.186	-0.033
-386.004	-50.931	-0.085	0.039
-384.990	194.542	-0.016	-0.024
-383.975	-47.267	0.486	0.233
-382.960	-47.409	0.046	0.022
-381.946	3.090	-0.108	0.077
-380.931	44.924	0.198	-0.180
-379.917	452.226	0.013	-0.028
-378.902	800.000	0.056	0.182
-377.888	-78.963	0.071	-0.024
-376.873	-200.000	0.020	-0.150
-375.858	-75.341	0.355	-0.125
-374.844	26.686	-0.139	0.114
-373.829	-200.000	0.119	0.000
-372.815	-34.137	-0.124	0.067
-371.800	7.568	-0.111	-0.082
-370.785	-177.326	0.151	0.004
-369.771	-37.396	0.050	0.026
-368.756	-41.382	0.156	-0.079
-367.742	-117.334	-0.212	0.038
-366.727	800.000	-0.071	-0.228
-365.712	121.624	-0.207	-0.254
-364.698	-109.465	-0.211	-0.044
-363.683	-42.338	-0.126	0.063
-362.669	-67.068	-0.173	0.067
-361.654	-200.000	0.077	-0.473
-360.639	-65.555	-0.178	0.070
-359.625	-200.000	-0.007	0.315
-358.610	30.869	0.158	-0.133
-357.596	211.629	0.115	0.178
-356.581	-200.000	0.015	-0.269
-355.566	231.029	-0.140	-0.226
-354.552	-19.650	0.154	0.094
-353.537	78.586	-0.155	-0.164
-352.523	444.661	-0.111	-0.241
-351.508	-127.318	0.317	-0.045
-350.493	217.332	0.140	0.220
-349.479	800.000	0.072	-0.242
-348.464	426.761	0.056	-0.120
-347.450	-121.504	0.184	0.030
-346.435	-126.043	0.254	0.038
-345.420	-106.797	0.332	-0.072
-344.406	-56.698	-0.200	0.087
-343.391	12.731	0.089	0.068
-342.377	51.363	-0.259	0.242
-341.362	720.180	0.072	0.188
-340.348	71.122	-0.039	0.040
-339.333	-36.229	-0.129	0.068
-338.318	83.958	0.255	-0.273
-337.304	-87.393	-0.329	-0.098
-336.289	-94.733	-0.119	-0.032
-335.275	-129.608	0.171	0.023
-334.260	-101.562	-0.161	-0.038
-333.245	800.000	-0.060	0.245
-332.231	66.829	-0.169	0.170
-331.216	-70.137	0.137	-0.051
-330.202	-86.163	-0.124	0.038
-329.187	114.118	0.215	-0.257
-328.172	-151.133	0.122	0.009
-327.158	-85.798	0.150	-0.046
-326.143	340.194	0.172	0.331
-325.129	60.697	0.263	0.256
-324.114	513.522	0.128	0.294
-323.099	-150.512	-0.258	0.019
-322.085	341.639	0.148	0.284
-321.070	126.462	0.088	-0.109
-320.056	-200.000	-0.076	-0.342
-319.041	359.999	0.089	0.174
-318.026	6.327	-0.279	0.204
-317.012	200.007	0.083	-0.126
-315.997	97.889	-0.195	0.220
-314.983	90.919	-0.304	0.335
-313.968	-159.377	-0.192	-0.011
-312.953	338.029	-0.108	0.206
-311.939	98.945	-0.161	-0.182
-310.924	112.459	0.141	-0.168
-309.910	27.040	0.108	0.089
-308.895	210.393	0.041	-0.064
-307.880	800.000	0.065	0.191
-306.866	-102.339	-0.161	-0.038
-305.851	-107.706	-0.174	-0.037
-304.837	-200.000	-0.008	0.155
-303.822	274.652	-0.017	0.030
-302.807	-71.788	-0.553	-0.203
-301.793	-110.035	-0.100	0.021
-300.778	27.381	0.180	-0.148
-299.764	-46.912	0.367	0.176
-298.749	-95.931	-0.250	-0.065
-297.735	-53.739	0.340	0.152
-296.720	-200.000	-0.046	-0.265
-295.705	-127.822	0.239	0.034
-294.691	-72.130	0.162	-0.059
-293.676	336.415	-0.015	0.028
-292.662	-103.699	0.278	-0.064
-291.647	-82.331	-0.104	0.033
-290.632	-74.904	-0.202	0.071
-289.618	50.501	-0.009	-0.008
-288.603	-200.000	0.018	0.089
-287.589	-136.421	-0.264	-0.030
-286.574	-31.338	0.118	-0.065
-285.559	-63.890	-0.314	-0.126
-284.545	-51.175	-0.210	0.097
-283.530	800.000	0.048	0.151
-282.516	32.807	0.188	-0.159
-281.501	-200.000	0.009	-0.262
-280.486	310.577	0.078	-0.142
-279.472	800.000	0.043	0.125
-278.457	-200.000	0.015	0.100
-277.443	225.188	-0.107	0.169
-276.428	64.838	0.084	0.083
-275.413	-123.386	0.647	0.101
-274.399	-75.778	-0.296	0.103
-273.384	50.448	0.162	-0.151
-272.370	23.367	0.124	-0.100
-271.355	-200.000	-0.014	-0.153
-270.340	747.101	0.007	0.019
-269.326	-200.000	0.023	0.241
-268.311	-78.677	0.338	-0.113
-267.297	-141.696	0.281	0.028
-266.282	517.842	-0.029	0.066
-265.267	209.370	0.087	-0.134
-264.253	-44.505	0.316	-0.155
-263.238	309.103	0.220	-0.404
-262.224	266.891	0.120	-0.206
-261.209	278.907	0.234	0.409
-260.195	117.924	-0.065	0.078
-259.180	46.530	0.162	0.148
-258.165	-47.557	-0.152	0.072
-257.151	800.000	-0.046	-0.135
-256.136	800.000	-0.093	-0.294
-255.122	-200.000	0.000	0.134
-254.107	-200.000	-0.027	-0.201
-253.092	49.289	-0.132	-0.121
-252.078	620.975	-0.043	-0.106
-251.063	-87.087	-0.269	0.080
-250.049	-157.656	0.145	-0.008
-249.034	125.901	-0.169	0.210
-248.019	305.366	-0.165	-0.301
-247.005	-20.363	-0.137	0.082
-245.990	-200.000	0.032	0.174
-244.976	17.099	0.078	0.061
-243.961	81.042	-0.099	-0.105
-242.946	647.767	0.048	-0.121
-241.932	548.668	0.162	0.381
-240.917	800.000	-0.123	0.447
-239.903	-75.130	0.596	-0.209
-238.888	-79.989	-0.301	-0.099
-237.873	-200.000	0.020	0.201
-236.859	-200.000	0.040	0.444
-235.844	301.822	0.140	-0.254
-234.830	-90.715	-0.399	0.113
-233.815	61.822	0.253	0.247
-232.800	161.887	0.129	0.178
-231.786	43.551	-0.137	-0.123
-230.771	-32.739	0.179	-0.098
-229.757	409.784	0.062	0.128
-228.742	-137.513	-0.176	-0.019
-227.727	49.647	0.120	0.110
-226.713	470.158	-0.149	-0.329
-225.698	73.908	0.234	-0.240
-224.684	197.475	0.185	-0.277
-223.669	269.107	-0.167	0.287
-222.655	-113.682	-0.163	-0.031
-221.640	717.902	0.051	0.133
-220.625	-147.988	0.177	-0.014
-219.611	-124.281	-0.122	-0.019
-218.596	-200.000	-0.029	-0.235
-217.582	285.878	0.126	0.222
-216.567	96.094	-0.154	0.172
-215.552	800.000	0.076	-0.218
-214.538	-3.513	-0.078	-0.053
-213.523	-81.524	-0.114	-0.037
-212.509	-50.920	0.122	0.056
-211.494	-158.689	0.259	-0.015
-210.479	-200.000	0.012	0.347
-209.465	-36.177	-0.082	0.043
-208.450	-93.813	-0.151	0.041
-207.436	77.341	-0.085	0.089
-206.421	-92.062	-0.182	0.050
-205.406	-18.814	0.173	0.106
-204.392	-34.066	-0.074	-0.040
-203.377	-60.346	-0.365	-0.152
-202.363	219.427	-0.072	-0.113
-201.348	-155.997	-0.235	-0.015
-200.333	327.745	-0.149	0.279
-199.319	5.187	0.386	0.278
-198.304	685.886	-0.081	-0.207
-197.290	-26.734	-0.135	0.077
-196.275	-20.128	0.215	0.130
-195.260	-200.000	0.074	-0.391
-194.246	-132.230	0.250	0.032
-193.231	-200.000	0.003	0.095
-192.217	-107.059	0.129	-0.028
-191.202	185.685	-0.025	-0.036
-190.187	81.497	0.024	0.025
-189.173	186.611	-0.147	0.213
-188.158	-142.527	0.329	0.032
-187.144	23.295	0.160	0.129
-186.129	800.000	0.053	0.168
-185.114	29.687	-0.238	0.198
-184.100	-200.000	-0.093	0.425
-183.085	-200.000	-0.031	-0.285
-182.071	376.968	0.161	-0.322
-181.056	27.178	-0.118	0.097
-180.042	800.000	0.096	-0.395
-179.027	-94.601	-0.185	0.049
-178.012	-61.225	-0.207	-0.085
-176.998	0.646	0.301	0.211
-175.983	-112.056	0.216	0.042
-174.969	-200.000	-0.027	0.375
-173.954	-53.685	0.070	0.031
-172.939	86.213	0.273	-0.294
-171.925	-200.000	0.034	0.311
-170.910	-137.082	0.229	0.026
-169.896	79.846	0.102	0.108
-168.881	-77.059	-0.247	-0.084
-167.866	-200.000	0.011	-0.174
-166.852	800.000	-0.044	0.121
-165.837	667.125	-0.096	0.242
-164.823	-200.000	0.040	0.262
-163.808	-120.295	0.215	0.036
-162.793	-200.000	-0.002	0.078
-161.779	800.000	0.025	0.103
-160.764	82.537	0.249	0.264
-159.750	-109.885	-0.144	-0.030
-158.735	338.486	0.192	0.366
-157.720	-155.739	-0.357	-0.022
-156.706	-200.000	0.032	0.171
-155.691	-200.000	0.031	-0.302
-154.677	64.260	0.435	0.428
-153.662	-200.000	-0.004	0.138
-152.647	-200.000	-0.019	0.120
-151.633	-119.223	-0.114	-0.019
-150.618	395.167	-0.147	0.300
-149.604	-200.000	-0.031	-0.135
-148.589	-26.649	-0.173	-0.099
-147.574	800.000	0.110	-0.299
-146.560	89.251	-0.045	-0.049
-145.545	-125.829	0.307	0.045
-144.531	27.469	0.119	-0.098
-143.516	-200.000	0.002	0.091
-142.502	333.507	0.055	-0.104
-141.487	-101.738	-0.128	0.030
-140.472	800.000	-0.087	0.275
-139.458	695.990	-0.019	0.048
-138.443	132.262	0.234	0.295
-137.429	-200.000	-0.078	0.000
-136.414	54.724	0.183	0.172
-135.399	800.000	-0.038	-0.139
-134.385	-24.062	0.033	0.019
-133.370	-200.000	0.012	0.282
-132.356	161.352	0.104	0.141
-131.341	-138.411	-0.292	0.031
-130.326	138.815	-0.019	0.024
-129.312	-157.137	-0.147	0.009
-128.297	-200.000	-0.006	0.155
-127.283	-70.064	-0.383	-0.142
-126.268	-200.000	-0.040	0.207
-125.253	715.110	-0.052	-0.134
-124.239	-5.835	-0.271	-0.181
-123.224	330.648	0.092	0.173
-122.210	42.474	0.102	-0.090
