DTS Sentinel unit serial number:	SN413079Multiplexer serial number:	ORYXHardware model number:	OX4-SRSoftware version number:	ORYX F/W v4.00 Oryx Data Collector v3.7.2.0data status	okinstallation	princeton_trtdifferential loss correction	single-endedforward channel	channel 2reverse channel	N/Adate	2019/09/12time	19:03:49forward acquisition time	15.00reverse acquisition time	0.00gamma	496.2192k internal	0.2324k external	0.2324temperature offset calibration	1.0133default loss term (dB/km)	0.3790temperature slope calibration	1.0000multiplexer offset coefficient	1.0000multiplexer slope coefficient	1.0000fibre end	0.00T internal ref (°C)	32.69T ext. ref 1 (°C)	3.03T ext. ref 2 (°C)	27.25length (m)	temperature (°C)	Stokes	anti-Stokes-747.200	-200.000	-0.162	1.175
-746.185	-200.000	-0.012	0.232
-745.171	-200.000	-0.116	1.020
-744.156	156.782	0.047	-0.066
-743.142	800.000	0.043	-0.163
-742.127	-106.152	0.471	0.107
-741.112	-99.382	0.846	0.215
-740.098	-71.761	0.083	-0.031
-739.083	-157.172	0.467	0.029
-738.069	-70.354	0.550	0.211
-737.054	40.353	0.587	-0.533
-736.039	-37.029	0.604	-0.327
-735.025	-36.866	-0.369	0.200
-734.010	800.000	-0.043	-0.161
-732.996	169.877	0.428	0.617
-731.981	55.852	0.565	0.553
-730.966	-115.751	-0.484	-0.092
-729.952	-192.112	-0.505	0.005
-728.937	-157.922	-0.920	0.055
-727.923	-131.122	-0.177	-0.024
-726.908	800.000	-0.137	0.389
-725.894	121.972	-0.378	0.475
-724.879	147.025	-0.354	-0.480
-723.864	742.802	0.158	0.429
-722.850	-114.948	-0.750	0.144
-721.835	303.035	-0.100	0.187
-720.821	-34.580	0.379	-0.209
-719.806	-12.521	-0.314	-0.207
-718.791	-200.000	-0.046	0.324
-717.777	143.488	-0.321	-0.431
-716.762	177.824	-0.440	0.647
-715.748	-200.000	-0.122	-1.316
-714.733	333.151	0.299	-0.582
-713.718	45.812	-0.073	-0.068
-712.704	103.657	-0.178	0.211
-711.689	-140.983	0.432	-0.045
-710.675	683.241	0.118	-0.311
-709.660	149.843	0.313	0.428
-708.645	800.000	0.142	0.471
-707.631	0.944	-0.216	-0.156
-706.616	388.551	-0.441	-0.921
-705.602	368.322	0.025	-0.051
-704.587	-200.000	0.080	-0.615
-703.572	-45.603	0.782	0.390
-702.558	-200.000	0.099	0.491
-701.543	139.491	-0.314	0.417
-700.529	800.000	-0.223	0.937
-699.514	-200.000	0.003	0.405
-698.499	30.880	-0.485	-0.418
-697.485	-25.797	0.316	-0.187
-696.470	240.801	-0.287	-0.483
-695.456	-131.251	-0.400	0.054
-694.441	-131.338	0.856	0.114
-693.426	-200.000	-0.020	-0.120
-692.412	-117.753	0.948	0.172
-691.397	37.738	0.463	-0.414
-690.383	379.411	0.138	0.285
-689.368	-116.497	-0.504	-0.094
-688.354	371.628	0.249	-0.510
-687.339	55.640	-0.418	-0.407
-686.324	-153.881	-0.424	0.029
-685.310	290.405	0.297	0.544
-684.295	31.184	-0.315	0.272
-683.281	-150.491	-0.044	-0.003
-682.266	-200.000	0.147	0.822
-681.251	71.314	-0.259	0.270
-680.237	-137.993	-0.903	-0.101
-679.222	62.751	0.436	-0.439
-678.208	-139.187	0.177	-0.019
-677.193	-200.000	0.026	-0.951
-676.178	58.876	-0.044	-0.043
-675.164	71.421	-0.457	0.478
-674.149	45.181	0.279	-0.259
-673.135	38.271	-0.374	-0.335
-672.120	-200.000	0.019	-0.543
-671.105	-162.494	0.758	0.038
-670.091	61.975	-0.566	0.568
-669.076	0.498	-0.484	-0.348
-668.062	99.582	-0.227	0.265
-667.047	259.605	-0.105	-0.182
-666.032	119.995	-0.372	-0.464
-665.018	-136.296	1.290	-0.151
-664.003	-200.000	-0.030	0.682
-662.989	392.549	0.225	-0.470
-661.974	-20.066	-0.329	-0.204
-660.959	800.000	0.119	0.524
-659.945	-10.745	0.199	-0.133
-658.930	-104.358	0.703	0.164
-657.916	218.828	-0.230	0.370
-656.901	438.314	-0.149	-0.327
-655.886	85.334	0.392	0.433
-654.872	-103.397	0.360	0.085
-653.857	229.587	-0.393	-0.645
-652.843	150.622	-0.680	0.930
-651.828	-200.000	0.006	0.201
-650.814	624.933	0.021	0.054
-649.799	507.384	0.049	0.114
-648.784	-141.890	-0.759	0.076
-647.770	-54.962	-0.074	-0.033
-646.755	35.836	-0.471	-0.417
-645.741	-200.000	0.069	0.337
-644.726	-181.375	0.116	-0.002
-643.711	343.542	0.353	-0.696
-642.697	-40.146	0.383	0.201
-641.682	800.000	-0.247	0.867
-640.668	-118.119	0.319	-0.057
-639.653	-28.006	0.450	0.262
-638.638	75.165	-0.362	-0.384
-637.624	-89.121	-0.310	-0.092
-636.609	-138.695	-0.207	0.023
-635.595	-112.074	-0.680	-0.137
-634.580	-96.263	-0.876	-0.233
-633.565	114.218	-0.363	0.444
-632.551	-3.371	-0.013	0.009
-631.536	-87.094	-1.017	-0.311
-630.522	-134.798	0.535	0.065
-629.507	431.027	0.297	-0.645
-628.492	653.006	-0.185	0.478
-627.478	800.000	0.228	-0.689
-626.463	103.524	-0.574	-0.677
-625.449	-200.000	0.022	-0.159
-624.434	-200.000	-0.004	0.836
-623.419	-100.712	-0.302	0.075
-622.405	151.740	-0.324	0.443
-621.390	59.353	-0.140	-0.139
-620.376	-176.703	-0.115	-0.003
-619.361	-2.033	-0.968	-0.683
-618.346	578.083	-0.132	0.325
-617.332	232.195	0.179	-0.295
-616.317	-94.101	-0.565	0.155
-615.303	-50.171	-0.427	0.203
-614.288	800.000	0.180	-0.627
-613.273	34.079	0.505	-0.442
-612.259	42.343	0.719	0.656
-611.244	121.678	-0.059	-0.074
-610.230	-149.422	-0.926	0.074
-609.215	-6.041	0.266	0.183
-608.201	-79.632	-0.890	0.301
-607.186	138.251	-0.159	0.209
-606.171	-114.609	0.937	0.180
-605.157	177.043	0.279	0.408
-604.142	747.745	-0.146	0.394
-603.128	-100.075	0.338	-0.085
-602.113	-54.332	0.303	0.138
-601.098	-200.000	-0.126	0.876
-600.084	174.929	0.146	0.212
-599.069	152.179	0.135	-0.185
-598.055	-157.030	-0.548	0.034
-597.040	446.155	0.389	0.859
-596.025	192.214	0.543	-0.821
-595.011	800.000	0.056	-0.161
-593.996	-48.737	0.418	0.201
-592.982	800.000	0.199	-0.718
-591.967	-200.000	0.084	0.658
-590.952	253.143	-0.217	-0.372
-589.938	-143.852	-0.371	-0.035
-588.923	422.139	0.238	0.512
-587.909	398.114	0.167	0.351
-586.894	-44.628	0.219	0.110
-585.879	240.524	0.291	-0.487
-584.865	90.150	-0.415	-0.466
-583.850	60.002	0.198	0.196
-582.836	28.940	-0.600	0.510
-581.821	-132.761	-0.249	-0.032
-580.806	-6.558	-0.545	0.373
-579.792	-31.454	-0.887	0.500
-578.777	-104.245	-0.915	-0.213
-577.763	-109.395	0.303	0.064
-576.748	-27.268	-1.046	0.611
-575.733	-200.000	-0.002	0.224
-574.719	536.670	-0.107	-0.255
-573.704	800.000	-0.299	-0.965
-572.690	-103.090	0.414	-0.098
-571.675	-127.324	0.573	-0.084
-570.661	88.273	-0.740	-0.823
-569.646	53.505	-0.376	-0.362
-568.631	-78.008	0.262	-0.090
-567.617	-200.000	0.063	-0.375
-566.602	800.000	0.070	-0.221
-565.588	-200.000	0.030	-0.581
-564.573	366.549	0.225	0.456
-563.558	8.809	1.089	0.823
-562.544	3.375	0.257	-0.187
-561.529	-65.234	0.406	0.164
-560.515	800.000	0.088	-0.377
-559.500	-9.264	-0.821	-0.550
-558.485	46.335	0.559	0.520
-557.471	15.463	0.175	0.138
-556.456	-83.748	-0.520	0.166
-555.442	800.000	-0.169	-0.567
-554.427	94.562	0.112	0.128
-553.412	-200.000	0.035	0.396
-552.398	800.000	0.094	-0.320
-551.383	-80.759	-0.333	-0.111
-550.369	-80.168	-0.265	-0.089
-549.354	312.907	0.458	-0.861
-548.339	-200.000	0.149	-1.008
-547.325	564.552	0.483	-1.172
-546.310	-103.041	1.196	-0.284
-545.296	8.612	0.361	0.272
-544.281	490.408	-0.207	0.475
-543.266	25.921	-0.273	-0.228
-542.252	5.506	0.396	-0.293
-541.237	52.293	0.334	0.319
-540.223	-19.086	-0.528	0.328
-539.208	136.547	0.227	-0.296
-538.193	248.204	0.330	0.558
-537.179	-200.000	0.193	0.908
-536.164	-67.444	0.556	-0.219
-535.150	-3.247	0.134	-0.093
-534.135	111.644	0.151	-0.182
-533.121	800.000	-0.147	0.475
-532.106	-69.493	0.391	0.150
-531.091	330.831	-0.087	-0.168
-530.077	-155.698	-0.992	-0.064
-529.062	665.439	0.049	-0.127
-528.048	129.079	-0.135	-0.172
-527.033	6.542	-0.548	0.408
-526.018	-108.582	0.823	0.177
-525.004	-136.141	0.303	-0.036
-523.989	273.507	0.247	-0.437
-522.975	-200.000	0.111	-0.504
-521.960	222.875	-0.082	-0.132
-520.945	-200.000	-0.063	-0.355
-519.931	3.443	-0.344	-0.251
-518.916	-200.000	-0.020	-0.100
-517.902	800.000	-0.260	0.836
-516.887	25.600	-0.150	0.125
-515.872	-200.000	0.096	0.518
-514.858	266.837	0.535	0.936
-513.843	44.172	0.167	-0.153
-512.829	333.873	0.571	-1.105
-511.814	-76.911	-0.304	-0.106
-510.799	43.795	-0.415	0.380
-509.785	800.000	-0.142	0.490
-508.770	-25.021	-0.318	-0.189
-507.756	-200.000	0.037	-0.489
-506.741	-40.352	0.205	0.107
-505.726	-2.782	-0.508	-0.355
-504.712	-30.405	0.921	0.522
-503.697	107.677	-0.397	0.473
-502.683	-19.582	0.577	0.357
-501.668	800.000	0.094	0.327
-500.653	19.097	0.332	0.266
-499.639	-175.465	-0.414	-0.011
-498.624	-84.312	0.067	-0.021
-497.610	-200.000	-0.072	-0.657
-496.595	-66.155	0.339	0.135
-495.581	-200.000	0.046	0.402
-494.566	106.241	0.358	-0.424
-493.551	-200.000	-0.071	-0.647
-492.537	266.935	-0.383	-0.668
-491.522	170.032	0.274	-0.391
-490.508	-200.000	0.035	0.212
-489.493	-73.918	0.447	0.162
-488.478	-200.000	0.170	-0.856
-487.464	800.000	0.068	-0.239
-486.449	98.356	-0.292	-0.337
-485.435	71.984	0.026	-0.027
-484.420	491.710	-0.244	-0.559
-483.405	-200.000	-0.013	-0.221
-482.391	-153.900	0.143	-0.010
-481.376	441.693	0.206	-0.451
-480.362	-6.391	0.396	0.270
-479.347	23.534	-0.407	-0.334
-478.332	197.835	0.391	-0.597
-477.318	-4.587	-0.574	0.396
-476.303	-13.245	0.478	-0.310
-475.289	165.915	0.409	0.578
-474.274	-119.431	-0.555	0.096
-473.259	199.666	0.338	-0.518
-472.245	291.011	0.370	0.672
-471.230	568.471	-0.290	0.703
-470.216	145.530	-0.137	-0.183
-469.201	-47.968	0.167	0.081
-468.186	800.000	-0.068	-0.277
-467.172	84.677	0.604	-0.660
-466.157	800.000	-0.300	0.870
-465.143	118.116	0.704	0.866
-464.128	800.000	0.117	0.437
-463.113	-157.337	1.042	-0.063
-462.099	-33.500	0.868	-0.479
-461.084	800.000	-0.154	-0.513
-460.070	-140.117	-0.437	-0.046
-459.055	526.717	0.216	-0.509
-458.040	-200.000	-0.029	0.584
-457.026	-200.000	-0.072	-0.909
-456.011	413.915	-0.334	0.709
-454.997	-7.921	-0.244	-0.164
-453.982	-129.923	-0.150	-0.021
-452.968	-83.732	-0.074	0.024
-451.953	-104.253	-0.315	-0.073
-450.938	-200.000	0.008	0.529
-449.924	-66.730	0.742	-0.293
-448.909	111.550	-0.573	-0.689
-447.895	16.041	0.248	0.195
-446.880	-200.000	-0.118	0.793
-445.865	-44.313	-0.304	-0.152
-444.851	800.000	-0.122	-0.454
-443.836	75.752	0.151	-0.159
-442.822	-200.000	-0.089	-0.792
-441.807	2.600	0.604	-0.437
-440.792	-200.000	0.071	-0.555
-439.778	417.132	-0.048	-0.102
-438.763	-148.738	0.397	-0.032
-437.749	-91.923	-0.885	-0.250
-436.734	-78.642	-0.121	-0.041
-435.719	-52.636	0.053	-0.025
-434.705	-200.000	-0.206	1.054
-433.690	36.007	0.422	0.370
-432.676	-195.775	-0.244	-0.002
-431.661	152.225	-0.367	0.499
-430.646	611.409	-0.187	0.466
-429.632	367.276	-0.247	-0.498
-428.617	319.116	-0.234	0.442
-427.603	-79.466	0.320	0.108
-426.588	148.182	0.400	0.538
-425.573	-13.653	0.319	0.206
-424.559	-147.530	-0.061	-0.005
-423.544	-88.984	-0.338	0.100
-422.530	-118.715	0.138	-0.024
-421.515	800.000	0.200	-0.556
-420.500	800.000	-0.034	-0.119
-419.486	79.859	-0.726	0.778
-418.471	36.848	0.398	0.351
-417.457	73.969	0.447	-0.467
-416.442	-49.099	-0.500	0.238
-415.428	-16.783	-0.391	-0.246
-414.413	-24.533	0.582	0.345
-413.398	90.312	-0.588	0.655
-412.384	-154.419	0.519	-0.035
-411.369	-200.000	-0.048	0.325
-410.355	-79.668	-0.343	-0.115
-409.340	519.943	-0.147	-0.343
-408.325	-25.607	-0.213	0.125
-407.311	414.191	0.242	-0.512
-406.296	-2.990	-0.481	0.334
-405.282	-162.625	-0.513	-0.025
-404.267	800.000	0.155	0.495
-403.252	-104.203	-0.547	-0.127
-402.238	303.832	-0.401	-0.740
-401.223	-96.608	0.506	-0.133
-400.209	437.599	0.179	0.389
-399.194	-190.223	0.761	0.008
-398.179	46.926	0.554	0.513
-397.165	123.710	0.057	-0.071
-396.150	-200.000	0.150	1.231
-395.136	-63.259	0.464	0.190
-394.121	88.469	0.400	0.442
-393.106	-200.000	-0.108	0.659
-392.092	113.139	0.433	0.523
-391.077	53.420	-0.544	-0.519
-390.063	-200.000	-0.083	-0.492
-389.048	672.099	0.126	0.324
-388.033	-139.712	-0.039	0.004
-387.019	365.210	-0.391	0.784
-386.004	-39.115	0.423	-0.221
-384.990	46.711	0.776	-0.717
-383.975	800.000	-0.211	0.600
-382.960	-146.181	-0.302	0.026
-381.946	3.950	0.219	-0.159
-380.931	-200.000	0.115	0.704
-379.917	-200.000	-0.097	-0.599
-378.902	381.389	-0.208	-0.425
-377.888	336.261	-0.353	-0.681
-376.873	437.277	0.195	-0.423
-375.858	800.000	-0.178	-0.742
-374.844	-200.000	0.101	-0.591
-373.829	-52.706	-0.371	-0.170
-372.815	-171.923	-0.670	0.022
-371.800	-87.984	0.181	0.054
-370.785	-200.000	-0.015	0.479
-369.771	-87.342	-0.273	0.082
-368.756	800.000	0.187	0.540
-367.742	-200.000	0.010	-0.250
-366.727	-24.159	0.397	0.236
-365.712	-16.561	-0.575	-0.362
-364.698	-200.000	-0.007	0.109
-363.683	-160.240	0.418	0.022
-362.669	-98.381	-0.449	0.114
-361.654	-40.152	1.032	0.534
-360.639	-145.050	0.145	-0.013
-359.625	124.343	0.333	-0.416
-358.610	74.986	-0.258	0.271
-357.596	-9.238	-0.672	-0.447
-356.581	723.892	0.211	0.560
-355.566	69.433	0.372	-0.381
-354.552	-70.458	0.844	-0.318
-353.537	8.405	-0.601	0.449
-352.523	-89.692	-0.934	0.272
-351.508	800.000	-0.130	-0.368
-350.493	64.281	-0.140	-0.140
-349.479	-183.392	-0.365	0.006
-348.464	66.915	-0.435	-0.440
-347.450	-45.575	0.812	-0.400
-346.435	146.567	0.265	-0.354
-345.420	800.000	0.185	-0.513
-344.406	36.944	0.790	0.694
-343.391	121.696	0.307	0.381
-342.377	25.623	-0.145	0.120
-341.362	-200.000	0.075	-0.552
-340.348	-200.000	0.004	-1.007
-339.333	-107.870	0.534	0.115
-338.318	52.801	-0.267	0.254
-337.304	-200.000	0.010	0.755
-336.289	-128.679	1.026	0.144
-335.275	-105.885	0.225	0.050
-334.260	-200.000	0.021	0.608
-333.245	-179.124	1.111	0.025
-332.231	800.000	0.236	-0.759
-331.216	5.197	0.200	-0.146
-330.202	-171.424	-0.053	0.002
-329.187	-21.855	-0.225	-0.136
-328.172	25.601	0.679	0.562
-327.158	209.315	0.294	-0.457
-326.143	45.716	0.488	-0.448
-325.129	-200.000	-0.041	0.488
-324.114	-1.252	-0.396	-0.277
-323.099	173.610	-0.086	0.123
-322.085	-15.029	0.621	-0.395
-321.070	800.000	0.138	-0.451
-320.056	-175.140	-0.691	0.019
-319.041	-6.982	-0.842	-0.568
-318.026	334.042	-0.147	-0.282
-317.012	-81.198	0.365	-0.120
-315.997	15.246	-0.304	0.237
-314.983	-57.872	-0.185	0.080
-313.968	-96.922	-1.112	0.290
-312.953	-53.991	0.777	0.351
-311.939	52.967	-0.255	-0.243
-310.924	800.000	-0.098	0.335
-309.910	521.305	0.121	0.283
-308.895	206.426	0.245	-0.379
-307.880	-16.061	-0.157	-0.099
-306.866	-143.370	-0.620	0.059
-305.851	-200.000	0.025	1.066
-304.837	-200.000	-0.007	0.365
-303.822	149.715	0.353	-0.475
-302.807	294.310	0.282	-0.512
-301.793	3.855	0.099	-0.071
-300.778	334.049	-0.251	0.482
-299.764	-49.746	0.372	0.175
-298.749	94.760	-0.277	0.313
-297.735	329.316	-0.326	-0.622
-296.720	-62.433	0.264	0.109
-295.705	171.325	-0.434	0.618
-294.691	-102.157	0.450	0.107
-293.676	-89.099	-0.489	0.143
-292.662	-124.489	0.236	0.036
-291.647	-200.000	-0.017	0.411
-290.632	-8.588	-0.843	0.561
-289.618	-117.284	0.259	-0.047
-288.603	52.166	0.206	0.195
-287.589	320.362	-0.206	0.388
-286.574	2.424	-0.342	-0.245
-285.559	18.617	0.575	0.456
-284.545	272.549	-0.428	0.749
-283.530	110.080	-0.332	-0.395
-282.516	-81.359	-1.032	-0.337
-281.501	-9.656	1.342	-0.887
-280.486	799.773	0.125	-0.342
-279.472	-4.463	-0.991	0.679
-278.457	-86.591	-0.485	0.147
-277.443	800.000	-0.105	-0.445
-276.428	-109.579	-0.586	0.123
-275.413	-40.045	0.559	-0.289
-274.399	800.000	0.185	0.602
-273.384	95.776	0.145	0.163
-272.370	-15.235	0.207	-0.131
-271.355	69.623	-0.286	-0.292
-270.340	-5.788	0.420	0.285
-269.326	-65.954	0.417	0.165
-268.311	-38.404	-0.827	0.434
-267.297	800.000	0.068	-0.248
-266.282	-200.000	0.057	-0.541
-265.267	22.742	-0.591	-0.480
-264.253	-80.109	0.425	0.141
-263.238	-200.000	0.030	0.395
-262.224	286.831	-0.077	0.137
-261.209	-42.623	-0.429	-0.216
-260.195	-200.000	0.131	-0.619
-259.180	11.074	-0.816	0.618
-258.165	-103.359	-0.384	0.090
-257.151	-200.000	-0.118	-1.126
-256.136	136.578	0.394	0.510
-255.122	-174.801	0.888	-0.025
-254.107	-200.000	-0.084	-0.562
-253.092	14.757	-0.514	-0.398
-252.078	-200.000	-0.232	-1.126
-251.063	-140.946	0.882	-0.090
-250.049	-200.000	0.087	-0.866
-249.034	-67.125	0.970	-0.378
-248.019	-53.264	0.263	0.119
-247.005	-200.000	0.032	-0.454
-245.990	-200.000	0.052	-0.736
-244.976	579.233	-0.061	0.147
-243.961	251.328	-0.374	-0.629
-242.946	-146.950	-0.627	0.053
-241.932	-4.262	0.399	-0.273
-240.917	107.545	-0.325	-0.383
-239.903	-200.000	0.131	0.620
-238.888	425.417	0.130	0.276
-237.873	-75.842	-0.307	-0.108
-236.859	-40.238	0.218	-0.112
-235.844	26.317	0.253	-0.210
-234.830	-113.146	-0.401	-0.078
-233.815	21.569	0.546	0.440
-232.800	114.683	-0.572	0.689
-231.786	617.310	-0.087	0.216
-230.771	-108.661	-0.337	0.071
-229.757	293.868	0.420	0.759
-228.742	-35.728	0.250	0.134
-227.727	-186.194	0.804	0.012
-226.713	-79.878	0.541	0.180
-225.698	87.615	0.164	-0.180
-224.684	26.566	-0.194	0.160
-223.669	8.390	-0.188	0.140
-222.655	-200.000	-0.171	0.970
-221.640	23.016	-0.764	0.620
-220.625	-200.000	-0.068	-0.480
-219.611	-1.818	0.445	-0.310
-218.596	9.160	0.451	-0.337
-217.582	800.000	0.200	0.821
-216.567	-82.009	0.360	-0.116
-215.552	800.000	-0.126	-0.403
-214.538	262.334	0.450	0.772
-213.523	289.530	0.303	0.544
-212.509	-161.330	-0.443	0.023
-211.494	-46.256	0.146	-0.071
-210.479	-200.000	-0.047	-0.614
-209.465	-200.000	0.087	1.230
-208.450	-187.852	-0.369	-0.005
-207.436	-40.798	-0.910	-0.466
-206.421	105.084	-0.356	0.415
-205.406	621.716	0.084	-0.208
-204.392	-200.000	0.048	-0.519
-203.377	101.383	-0.309	-0.355
-202.363	-40.565	0.320	0.164
-201.348	-59.873	-0.816	0.345
-200.333	0.379	-0.234	0.165
-199.319	-200.000	-0.013	-0.695
-198.304	30.128	0.184	-0.155
-197.290	624.346	-0.287	0.714
-196.275	-50.285	0.033	0.015
-195.260	-200.000	0.038	-0.513
-194.246	-102.985	-0.800	-0.188
-193.231	-30.166	0.382	0.214
-192.217	77.485	-0.097	0.102
-191.202	-14.235	-0.451	0.287
-190.187	-53.653	-0.941	0.425
-189.173	-147.525	-0.201	0.017
-188.158	-34.817	-0.534	-0.288
-187.144	-191.845	0.424	-0.004
-186.129	-123.115	-0.748	-0.118
-185.114	-27.829	-0.143	-0.082
-184.100	-200.000	0.049	0.504
-183.085	253.134	-0.391	0.659
-182.071	-82.528	0.564	0.181
-181.056	27.580	-0.382	0.317
-180.042	211.488	-0.191	-0.296
-179.027	-200.000	-0.019	-0.095
-178.012	-124.854	0.500	-0.076
-176.998	-4.517	0.363	-0.248
-175.983	-98.295	0.614	0.155
-174.969	800.000	-0.184	0.591
-173.954	485.036	-0.192	-0.432
-172.939	56.478	-0.307	0.295
-171.925	-200.000	0.020	-0.410
-170.910	59.635	0.275	0.267
-169.896	800.000	-0.104	-0.322
-168.881	-200.000	0.049	-0.494
-167.866	-52.279	-0.624	0.285
-166.852	-74.989	0.722	0.255
-165.837	59.990	-0.231	0.225
-164.823	-200.000	0.038	-0.747
-163.808	800.000	-0.020	-0.075
-162.793	-200.000	-0.047	-0.541
-161.779	-108.045	0.261	0.056
-160.764	276.118	0.219	-0.383
-159.750	-200.000	-0.020	0.381
-158.735	-200.000	0.017	0.468
-157.720	260.794	0.023	-0.039
-156.706	-133.054	0.929	0.116
-155.691	282.584	0.219	0.387
-154.677	-19.102	-0.690	0.423
-153.662	157.319	0.354	-0.483
-152.647	800.000	-0.064	0.198
-151.633	140.331	0.337	0.438
-150.618	-200.000	0.055	-0.316
-149.604	-38.648	0.311	0.162
-148.589	800.000	0.125	0.526
-147.574	-26.713	0.836	0.482
-146.560	-52.333	-0.654	-0.299
-145.545	-172.247	-0.235	-0.007
-144.531	-200.000	0.090	0.718
-143.516	-28.275	-0.758	0.432
-142.502	229.204	0.342	0.551
-141.487	-200.000	0.027	0.235
-140.472	604.329	0.082	0.201
-139.458	-153.353	-0.687	0.047
-138.443	-100.834	0.740	0.179
-137.429	-200.000	-0.116	0.562
-136.414	35.742	0.327	0.283
-135.399	-125.077	0.562	-0.085
-134.385	-200.000	-0.001	0.733
-133.370	103.200	0.727	0.840
-132.356	187.913	0.133	-0.195
-131.341	-13.163	0.672	0.430
-130.326	-200.000	0.025	0.236
-129.312	-200.000	-0.083	0.400
-128.297	-90.516	-0.370	-0.106
-127.283	800.000	-0.089	0.258
-126.268	67.307	-0.155	-0.156
-125.253	-23.118	0.072	-0.043
-124.239	-200.000	0.034	0.293
-123.224	352.807	-0.269	0.525
-122.210	-200.000	0.026	0.140
-121.195	560.109	0.198	-0.471
-120.180	-150.164	0.710	0.054
