DTS Sentinel unit serial number:	SN413079Multiplexer serial number:	ORYXHardware model number:	OX4-SRSoftware version number:	ORYX F/W v4.00 Oryx Data Collector v3.7.2.0data status	okinstallation	princeton_trtdifferential loss correction	single-endedforward channel	channel 2reverse channel	N/Adate	2019/09/17time	03:31:35forward acquisition time	60.00reverse acquisition time	0.00gamma	496.2192k internal	0.2326k external	0.2326temperature offset calibration	0.9975default loss term (dB/km)	0.3790temperature slope calibration	1.0000multiplexer offset coefficient	1.0000multiplexer slope coefficient	1.0000fibre end	0.00T internal ref (°C)	30.00T ext. ref 1 (°C)	0.14T ext. ref 2 (°C)	24.64length (m)	temperature (°C)	Stokes	anti-Stokes-747.200	518.069	0.224	0.528
-746.185	-4.013	-0.253	0.177
-745.171	-95.608	0.432	0.117
-744.156	-200.000	-0.022	0.166
-743.142	-25.550	0.240	0.143
-742.127	-200.000	0.018	0.149
-741.112	-200.000	0.066	-0.355
-740.098	4.279	-0.152	-0.112
-739.083	-112.018	-0.370	-0.075
-738.069	243.237	0.028	0.048
-737.054	800.000	-0.073	-0.256
-736.039	132.577	-0.171	-0.222
-735.025	-200.000	0.041	0.546
-734.010	16.344	-0.288	0.229
-732.996	-59.553	-0.107	-0.046
-731.981	546.754	-0.108	0.261
-730.966	135.675	0.138	-0.181
-729.952	-200.000	0.029	-0.170
-728.937	113.059	-0.090	0.110
-727.923	-47.846	0.344	-0.168
-726.908	38.818	0.118	-0.107
-725.894	86.788	0.187	0.208
-724.879	167.908	-0.099	-0.141
-723.864	114.179	-0.135	-0.165
-722.850	351.738	-0.078	-0.156
-721.835	-140.524	0.497	-0.052
-720.821	-200.000	0.003	-0.297
-719.806	-87.593	0.401	0.122
-718.791	589.324	-0.087	-0.217
-717.777	-163.224	-0.463	0.022
-716.762	677.908	-0.038	0.101
-715.748	274.428	0.117	-0.208
-714.733	800.000	-0.031	0.094
-713.718	103.556	-0.121	-0.143
-712.704	-33.514	0.191	0.106
-711.689	104.139	0.229	-0.271
-710.675	311.463	0.041	0.077
-709.660	-47.562	-0.041	0.020
-708.645	-200.000	-0.041	-0.278
-707.631	237.931	-0.191	-0.320
-706.616	276.235	0.092	-0.164
-705.602	-107.730	0.306	-0.067
-704.587	-200.000	0.016	-0.282
-703.572	170.761	0.137	0.198
-702.558	61.874	0.193	0.194
-701.543	193.079	-0.254	-0.387
-700.529	71.290	0.168	-0.175
-699.514	-178.325	-0.210	-0.005
-698.499	-86.738	0.105	-0.032
-697.485	-200.000	-0.010	-0.103
-696.470	26.769	0.177	-0.149
-695.456	51.616	0.195	-0.186
-694.441	626.254	0.016	0.041
-693.426	-146.170	-0.152	-0.013
-692.412	-200.000	-0.039	-0.229
-691.397	-102.977	0.206	0.049
-690.383	-104.653	0.216	0.050
-689.368	-109.678	-0.172	0.036
-688.354	-200.000	0.041	0.391
-687.339	-180.804	-0.404	0.008
-686.324	-200.000	-0.012	-0.073
-685.310	-200.000	0.006	0.117
-684.295	-87.229	0.164	-0.050
-683.281	-200.000	-0.043	-0.220
-682.266	-182.702	0.227	0.004
-681.251	-200.000	0.022	-0.316
-680.237	800.000	-0.167	0.484
-679.222	104.167	-0.136	0.160
-678.208	238.989	0.074	-0.123
-677.193	800.000	-0.052	-0.222
-676.178	-200.000	-0.027	0.235
-675.164	-35.941	-0.280	0.152
-674.149	393.183	0.133	-0.279
-673.135	800.000	0.081	0.298
-672.120	-78.134	-0.282	-0.098
-671.105	-66.213	-0.082	0.033
-670.091	-140.528	-0.107	0.011
-669.076	295.776	-0.028	0.052
-668.062	579.050	-0.089	-0.220
-667.047	38.865	0.030	-0.027
-666.032	-200.000	-0.071	0.596
-665.018	-200.000	0.004	-0.020
-664.003	-117.902	-0.494	0.089
-662.989	-98.167	0.285	-0.074
-661.974	-45.849	-0.109	0.054
-660.959	195.491	0.048	0.074
-659.945	-90.015	0.124	-0.036
-658.930	-200.000	0.010	-0.126
-657.916	-2.214	0.292	-0.206
-656.901	99.050	-0.209	-0.243
-655.886	90.895	-0.083	0.093
-654.872	120.746	0.188	0.234
-653.857	-200.000	-0.053	0.233
-652.843	-132.261	0.378	-0.049
-651.828	-45.695	-0.369	0.184
-650.814	155.445	-0.029	-0.040
-649.799	-200.000	0.013	0.177
-648.784	189.688	0.167	-0.252
-647.770	-34.879	-0.280	-0.153
-646.755	-200.000	-0.002	-0.190
-645.741	-97.719	-0.095	-0.025
-644.726	-62.834	0.332	-0.138
-643.711	30.481	-0.049	0.042
-642.697	563.974	-0.096	0.233
-641.682	-27.192	-0.357	-0.209
-640.668	218.093	-0.095	0.152
-639.653	-82.114	0.114	0.037
-638.638	-13.994	0.105	-0.068
-637.624	800.000	0.058	-0.220
-636.609	800.000	0.019	-0.054
-635.595	36.708	0.162	0.143
-634.580	-85.548	-0.138	0.043
-633.565	800.000	0.071	-0.262
-632.551	-131.901	0.040	-0.005
-631.536	-39.070	0.032	0.017
-630.522	72.989	0.130	0.136
-629.507	16.274	-0.291	-0.230
-628.492	-12.418	-0.126	-0.083
-627.478	147.501	-0.212	-0.286
-626.463	-0.992	-0.091	-0.065
-625.449	800.000	0.008	0.023
-624.434	221.314	0.064	0.102
-623.419	-105.661	-0.124	-0.028
-622.405	800.000	0.041	0.149
-621.390	-61.336	0.143	-0.061
-620.376	-68.088	-0.133	-0.052
-619.361	-200.000	-0.067	-0.300
-618.346	-68.487	-0.200	0.078
-617.332	-66.812	0.166	0.066
-616.317	-34.514	0.218	0.120
-615.303	175.757	-0.153	-0.223
-614.288	119.232	-0.206	0.255
-613.273	416.544	0.136	-0.292
-612.259	513.550	0.124	0.291
-611.244	-96.107	0.272	-0.072
-610.230	800.000	0.034	0.138
-609.215	-115.684	-0.186	0.035
-608.201	800.000	0.059	0.183
-607.186	70.904	0.027	-0.029
-606.171	-28.914	-0.178	-0.102
-605.157	-132.070	-0.127	0.017
-604.142	23.029	-0.088	-0.072
-603.128	391.117	-0.197	-0.409
-602.113	92.619	-0.134	-0.152
-601.098	-89.598	0.300	-0.088
-600.084	-7.059	-0.071	0.049
-599.069	-59.099	-0.206	-0.089
-598.055	-200.000	-0.000	0.052
-597.040	344.683	-0.043	-0.085
-596.025	-200.000	0.037	0.378
-595.011	231.294	-0.062	0.102
-593.996	-3.440	0.341	0.238
-592.982	-57.672	0.062	0.027
-591.967	-120.972	0.122	0.021
-590.952	37.669	0.240	-0.214
-589.938	-94.773	0.282	0.077
-588.923	377.967	-0.062	0.126
-587.909	278.178	-0.244	0.437
-586.894	-49.273	0.215	-0.103
-585.879	-132.791	-0.294	-0.038
-584.865	113.979	0.126	0.153
-583.850	-101.371	-0.170	0.042
-582.836	16.751	-0.434	0.344
-581.821	170.268	-0.050	-0.071
-580.806	-125.805	-0.076	-0.011
-579.792	36.845	-0.094	0.084
-578.777	-145.865	-0.218	0.019
-577.763	343.548	0.184	-0.361
-576.748	800.000	-0.040	-0.134
-575.733	442.327	0.147	-0.322
-574.719	-200.000	0.002	-0.132
-573.704	-120.702	0.336	-0.057
-572.690	93.648	-0.117	-0.132
-571.675	197.296	0.081	0.123
-570.661	471.934	0.083	0.188
-569.646	-200.000	0.057	0.287
-568.631	800.000	0.094	-0.333
-567.617	1.298	-0.208	-0.150
-566.602	-11.947	-0.252	0.165
-565.588	-200.000	-0.073	0.423
-564.573	-108.029	-0.192	-0.042
-563.558	-200.000	-0.009	0.265
-562.544	352.778	-0.067	0.133
-561.529	-180.314	0.168	0.004
-560.515	-73.096	0.146	-0.054
-559.500	-200.000	-0.031	0.557
-558.485	-45.503	0.186	0.092
-557.471	-200.000	-0.078	-0.589
-556.456	-91.984	-0.048	-0.014
-555.442	735.975	0.079	-0.211
-554.427	-118.027	-0.085	-0.015
-553.412	800.000	0.117	-0.409
-552.398	38.635	0.102	-0.091
-551.383	-200.000	-0.028	0.158
-550.369	-65.651	0.083	-0.033
-549.354	14.360	-0.197	-0.154
-548.339	92.074	0.274	0.308
-547.325	-200.000	0.071	0.346
-546.310	-94.769	-0.104	0.028
-545.296	-200.000	0.011	-0.286
-544.281	-113.393	-0.193	-0.038
-543.266	-175.239	-0.206	-0.006
-542.252	94.244	0.231	-0.262
-541.237	-200.000	0.026	-0.123
-540.223	-200.000	0.061	0.272
-539.208	-101.457	-0.265	-0.065
-538.193	-58.464	-0.278	-0.121
-537.179	711.324	-0.027	-0.071
-536.164	-55.648	0.133	-0.060
-535.150	800.000	-0.046	0.196
-534.135	800.000	-0.036	0.142
-533.121	580.241	-0.024	0.059
-532.106	800.000	0.105	-0.438
-531.091	-200.000	0.048	-0.418
-530.077	-18.534	-0.116	0.072
-529.062	800.000	-0.016	-0.055
-528.048	221.176	-0.066	-0.107
-527.033	-38.919	0.282	0.149
-526.018	800.000	0.079	0.255
-525.004	800.000	-0.054	-0.204
-523.989	293.505	-0.127	-0.231
-522.975	62.804	-0.235	0.235
-521.960	-40.808	0.274	0.142
-520.945	11.080	0.238	-0.182
-519.931	-200.000	0.072	0.379
-518.916	-200.000	-0.036	0.201
-517.902	-11.486	-0.324	-0.213
-516.887	-117.548	-0.346	0.062
-515.872	24.277	-0.290	0.240
-514.858	763.845	0.021	0.057
-513.843	-200.000	-0.034	-0.185
-512.829	-114.570	-0.072	-0.014
-511.814	452.345	-0.090	-0.200
-510.799	7.799	-0.292	-0.219
-509.785	-200.000	-0.001	0.097
-508.770	-0.885	-0.120	-0.085
-507.756	4.199	0.460	0.337
-506.741	-198.756	-0.197	-0.001
-505.726	52.254	-0.066	-0.063
-504.712	128.331	-0.145	0.185
-503.697	-17.699	0.180	-0.113
-502.683	-146.288	0.293	0.026
-501.668	200.060	-0.080	0.122
-500.653	-200.000	-0.013	-0.391
-499.639	-84.600	0.282	-0.089
-498.624	109.616	0.169	-0.203
-497.610	417.373	0.142	0.303
-496.595	120.766	-0.261	0.324
-495.581	393.832	-0.107	0.223
-494.566	752.440	-0.011	-0.030
-493.551	-200.000	0.035	0.286
-492.537	242.152	-0.019	0.032
-491.522	-95.005	-0.157	0.042
-490.508	800.000	-0.116	0.390
-489.493	-142.558	-0.352	0.034
-488.478	-115.091	0.155	-0.029
-487.464	-92.871	0.274	0.076
-486.449	-90.948	-0.303	-0.087
-485.435	-127.060	0.138	-0.020
-484.420	-200.000	-0.005	0.254
-483.405	-60.052	0.197	-0.084
-482.391	-200.000	-0.051	0.250
-481.376	-200.000	-0.073	-0.336
-480.362	-49.315	-0.207	-0.099
-479.347	-200.000	0.005	0.366
-478.332	-200.000	-0.022	-0.153
-477.318	-132.287	0.266	-0.034
-476.303	291.281	0.165	-0.299
-475.289	-200.000	-0.011	0.719
-474.274	171.248	0.116	0.166
-473.259	160.262	0.078	0.108
-472.245	70.087	-0.170	0.175
-471.230	376.239	0.165	-0.337
-470.216	-159.505	-0.111	-0.006
-469.201	-179.356	-0.371	-0.008
-468.186	-3.304	0.406	-0.282
-467.172	199.194	-0.068	-0.105
-466.157	-200.000	-0.245	0.001
-465.143	257.052	0.037	-0.064
-464.128	-200.000	0.003	-0.164
-463.113	800.000	-0.105	-0.378
-462.099	-200.000	0.011	-0.173
-461.084	-101.166	-0.158	0.039
-460.070	1.468	0.423	0.304
-459.055	-128.979	0.122	0.017
-458.040	-155.554	-0.200	-0.013
-457.026	-78.945	0.335	-0.114
-456.011	-77.570	0.211	0.073
-454.997	523.005	-0.051	0.119
-453.982	-126.327	-0.319	-0.047
-452.968	346.996	0.150	-0.295
-451.953	-29.055	0.298	-0.170
-450.938	-39.722	0.056	0.029
-449.924	38.011	-0.136	0.120
-448.909	282.339	0.248	0.444
-447.895	86.663	0.191	-0.210
-446.880	495.595	-0.162	0.372
-445.865	-26.643	-0.229	0.134
-444.851	-3.216	0.150	-0.104
-443.836	-124.681	-0.112	0.017
-442.822	433.593	-0.178	0.385
-441.807	-21.383	-0.011	-0.006
-440.792	-118.929	-0.331	-0.058
-439.778	447.868	-0.182	0.400
-438.763	237.050	-0.075	-0.123
-437.749	-124.442	0.228	-0.035
-436.734	-101.120	0.242	0.059
-435.719	-200.000	-0.039	0.221
-434.705	47.031	0.207	-0.191
-433.690	-181.012	-0.190	0.004
-432.676	-200.000	-0.000	-0.024
-431.661	-138.495	0.211	0.023
-430.646	-200.000	-0.040	0.550
-429.632	60.868	-0.024	-0.024
-428.617	-16.748	0.051	0.032
-427.603	800.000	-0.054	-0.176
-426.588	-138.699	-0.132	-0.014
-425.573	105.959	0.148	0.174
-424.559	778.142	0.018	0.049
-423.544	9.300	0.180	-0.135
-422.530	-200.000	0.024	0.216
-421.515	48.111	0.205	0.191
-420.500	120.656	0.192	-0.238
-419.486	1.034	-0.208	-0.148
-418.471	-4.208	-0.349	0.241
-417.457	-42.572	0.260	-0.132
-416.442	6.038	0.079	-0.058
-415.428	107.185	0.049	0.057
-414.413	800.000	-0.077	0.232
-413.398	367.242	0.018	0.036
-412.384	721.258	0.104	-0.276
-411.369	1.643	-0.149	0.107
-410.355	-88.217	-0.216	-0.064
-409.340	-109.595	-0.462	0.097
-408.325	78.268	0.216	-0.230
-407.311	-30.738	0.052	-0.029
-406.296	800.000	-0.101	-0.296
-405.282	-200.000	-0.003	0.301
-404.267	82.123	0.053	-0.057
-403.252	-73.208	-0.169	0.062
-402.238	60.217	0.083	0.082
-401.223	379.218	0.197	0.402
-400.209	70.455	0.234	-0.241
-399.194	158.301	0.116	0.160
-398.179	268.799	0.127	0.222
-397.165	-54.863	0.275	0.124
-396.150	646.379	0.100	0.255
-395.136	-186.750	-0.429	-0.006
-394.121	-200.000	0.013	0.067
-393.106	552.032	-0.210	-0.502
-392.092	254.977	-0.116	0.198
-391.077	90.483	0.126	-0.141
-390.063	-17.900	0.116	-0.072
-389.048	397.307	-0.131	-0.273
-388.033	10.191	-0.140	-0.106
-387.019	-120.343	-0.126	-0.021
-386.004	-40.373	-0.285	-0.147
-384.990	30.133	-0.194	-0.165
-383.975	365.209	0.125	0.250
-382.960	339.440	0.103	-0.201
-381.946	699.296	0.010	-0.027
-380.931	-81.688	0.356	0.116
-379.917	-45.442	-0.250	-0.123
-378.902	3.790	-0.219	-0.159
-377.888	-200.000	0.020	0.154
-376.873	-55.322	0.270	-0.121
-375.858	-68.765	-0.124	0.048
-374.844	153.319	0.180	-0.245
-373.829	-200.000	-0.035	0.308
-372.815	34.515	-0.258	-0.224
-371.800	-200.000	0.004	-0.543
-370.785	-200.000	0.010	-0.143
-369.771	-47.272	0.115	-0.056
-368.756	-58.166	-0.179	0.077
-367.742	32.181	0.212	-0.182
-366.727	-200.000	0.019	0.243
-365.712	-200.000	0.028	0.174
-364.698	-8.437	-0.208	-0.139
-363.683	-45.496	-0.241	-0.119
-362.669	-200.000	-0.008	-0.075
-361.654	-131.913	0.420	0.054
-360.639	-23.158	0.098	-0.058
-359.625	614.528	-0.038	-0.095
-358.610	228.371	-0.220	-0.355
-357.596	221.890	-0.041	0.066
-356.581	-200.000	-0.017	-0.132
-355.566	7.839	-0.287	0.213
-354.552	128.637	-0.135	0.171
-353.537	-31.366	0.235	-0.131
-352.523	98.696	0.192	-0.220
-351.508	316.615	0.069	0.130
-350.493	713.319	-0.159	0.418
-349.479	52.515	0.077	0.073
-348.464	-46.486	0.182	-0.089
-347.450	-200.000	-0.032	0.175
-346.435	55.642	-0.210	-0.202
-345.420	-116.562	-0.076	-0.014
-344.406	-106.705	-0.196	-0.043
-343.391	-159.416	-0.257	-0.014
-342.377	302.080	-0.106	-0.195
-341.362	-200.000	0.030	-0.210
-340.348	-20.444	0.161	-0.098
-339.333	125.234	-0.087	0.109
-338.318	800.000	-0.024	-0.067
-337.304	-97.633	-0.063	0.016
-336.289	-200.000	0.041	0.188
-335.275	-37.794	-0.063	-0.033
-334.260	-200.000	0.060	0.331
-333.245	-161.206	-0.147	-0.008
-332.231	-80.845	-0.055	0.018
-331.216	-93.506	0.441	0.121
-330.202	-200.000	-0.053	0.287
-329.187	-200.000	-0.055	-0.352
-328.172	-14.623	0.354	-0.226
-327.158	-179.040	0.153	0.003
-326.143	736.442	0.071	-0.190
-325.129	-33.113	-0.151	0.083
-324.114	6.986	-0.247	-0.183
-323.099	-155.448	-0.060	-0.004
-322.085	143.254	-0.218	0.288
-321.070	-200.000	-0.040	0.322
-320.056	696.716	0.046	0.120
-319.041	-200.000	0.007	-0.057
-318.026	30.434	-0.250	-0.212
-317.012	-200.000	-0.078	0.364
-315.997	-152.032	0.199	0.014
-314.983	656.797	0.153	-0.389
-313.968	800.000	0.064	-0.182
-312.953	-80.840	-0.228	0.075
-311.939	-200.000	0.018	-0.482
-310.924	-17.826	0.407	-0.253
-309.910	800.000	0.090	0.339
-308.895	-200.000	0.009	-0.162
-307.880	204.974	-0.143	-0.221
-306.866	656.508	-0.123	0.312
-305.851	-46.819	-0.089	0.043
-304.837	37.622	0.163	-0.143
-303.822	800.000	0.032	0.122
-302.807	-200.000	0.335	-0.002
-301.793	-65.440	0.229	-0.091
-300.778	9.955	-0.217	0.164
-299.764	-157.618	-0.289	-0.017
-298.749	-118.831	0.102	-0.018
-297.735	-200.000	-0.036	0.285
-296.720	287.619	0.094	-0.169
-295.705	-200.000	0.014	-0.113
-294.691	-200.000	0.008	0.141
-293.676	-3.513	0.152	-0.105
-292.662	-21.369	-0.414	0.251
-291.647	314.136	0.124	-0.232
-290.632	23.782	0.271	-0.222
-289.618	744.739	-0.203	-0.540
-288.603	16.036	-0.112	-0.087
-287.589	-200.000	0.015	-0.147
-286.574	-200.000	0.015	0.077
-285.559	-89.428	-0.212	-0.062
-284.545	3.541	-0.235	-0.170
-283.530	-131.529	0.231	-0.030
-282.516	52.853	-0.304	-0.288
-281.501	340.877	0.151	-0.293
-280.486	556.649	0.047	0.111
-279.472	-70.579	0.149	0.056
-278.457	-1.988	0.191	-0.133
-277.443	-26.483	-0.145	0.084
-276.428	-33.033	0.122	-0.067
-275.413	-108.670	0.218	-0.046
-274.399	214.697	0.073	0.114
-273.384	-12.954	-0.105	0.068
-272.370	20.850	-0.014	0.012
-271.355	800.000	0.063	-0.191
-270.340	-28.819	0.177	0.101
-269.326	-200.000	-0.025	0.257
-268.311	4.343	-0.187	0.136
-267.297	-158.533	-0.363	0.021
-266.282	35.054	0.077	-0.067
-265.267	298.878	0.205	0.373
-264.253	-200.000	-0.006	-0.243
-263.238	-46.478	-0.342	-0.166
-262.224	-154.764	-0.374	0.024
-261.209	-186.667	-0.177	0.002
-260.195	-44.447	-0.592	-0.293
-259.180	516.217	0.159	-0.367
-258.165	-119.155	0.412	0.071
-257.151	348.225	-0.133	0.259
-256.136	-71.038	-0.138	0.052
-255.122	-200.000	0.223	-0.001
-254.107	-67.428	-0.099	-0.038
-253.092	-200.000	0.223	-0.001
-252.078	-22.233	0.290	0.174
-251.063	-53.244	0.076	0.035
-250.049	228.155	0.063	0.102
-249.034	-200.000	0.051	0.284
-248.019	201.689	-0.195	-0.297
-247.005	-63.930	0.448	0.181
-245.990	-112.968	0.195	-0.038
-244.976	630.039	0.179	-0.449
-243.961	50.735	0.088	-0.083
-242.946	-200.000	-0.013	-0.199
-241.932	-99.669	-0.171	-0.042
-240.917	76.938	-0.158	-0.166
-239.903	-14.130	-0.233	-0.148
-238.888	288.892	-0.155	0.277
-237.873	800.000	-0.088	0.298
-236.859	-174.987	0.138	0.004
-235.844	226.105	0.031	-0.050
-234.830	-88.793	0.653	0.192
-233.815	-200.000	0.026	-0.155
-232.800	-200.000	0.009	0.161
-231.786	-29.456	0.153	-0.086
-230.771	333.267	0.092	-0.175
-229.757	-58.972	-0.301	0.129
-228.742	-68.647	-0.181	-0.069
-227.727	258.228	-0.131	0.224
-226.713	445.967	0.018	-0.039
-225.698	-49.932	0.255	0.120
-224.684	-98.937	-0.262	0.066
-223.669	366.098	0.169	0.336
-222.655	-45.867	0.290	0.141
-221.640	-200.000	-0.022	0.183
-220.625	21.024	-0.037	-0.029
-219.611	344.845	0.178	-0.346
-218.596	-200.000	0.012	0.125
-217.582	104.455	-0.233	0.271
-216.567	-107.444	-0.072	-0.016
-215.552	-142.177	0.218	0.021
-214.538	127.067	-0.138	-0.172
-213.523	-52.453	0.248	-0.113
-212.509	-40.028	0.126	0.065
-211.494	-14.677	-0.252	0.160
-210.479	44.481	0.135	0.122
-209.465	250.285	-0.069	-0.116
-208.450	-115.873	-0.325	-0.060
-207.436	34.701	0.231	-0.200
-206.421	-63.873	0.312	-0.126
-205.406	27.992	-0.475	0.395
-204.392	53.906	-0.116	-0.110
-203.377	-200.000	0.055	-0.273
-202.363	-200.000	0.038	-0.319
-201.348	-160.149	0.100	0.005
-200.333	540.521	0.107	-0.253
-199.319	570.720	0.041	0.098
-198.304	169.780	0.278	0.392
-197.290	-200.000	0.028	0.191
-196.275	122.836	0.028	-0.035
-195.260	-200.000	-0.011	0.163
-194.246	407.138	-0.021	0.044
-193.231	-148.380	0.322	0.026
-192.217	-10.187	0.293	0.192
-191.202	485.325	0.127	0.286
-190.187	-200.000	0.041	-0.428
-189.173	-200.000	0.105	-0.627
-188.158	-173.359	-0.157	0.005
-187.144	57.592	0.262	-0.253
-186.129	-135.625	-0.216	0.025
-185.114	-32.150	-0.263	0.145
-184.100	-200.000	0.003	-0.070
-183.085	-43.400	0.040	-0.020
-182.071	-58.573	0.252	0.108
-181.056	-200.000	-0.031	0.238
-180.042	800.000	-0.094	0.289
-179.027	-100.463	0.167	0.041
-178.012	352.192	-0.119	-0.232
-176.998	38.245	-0.236	-0.207
-175.983	98.898	0.218	-0.248
-174.969	-200.000	-0.002	-0.203
-173.954	800.000	0.107	0.305
-172.939	375.436	0.213	-0.429
-171.925	24.653	-0.124	0.102
-170.910	-200.000	0.091	0.423
-169.896	-116.130	0.163	0.030
-168.881	-10.310	-0.089	0.058
-167.866	-84.502	-0.118	0.037
-166.852	-4.639	0.065	-0.045
-165.837	-84.745	-0.107	-0.033
-164.823	800.000	0.064	0.237
-163.808	-200.000	-0.046	0.361
-162.793	195.627	-0.140	-0.209
-161.779	-46.681	0.093	0.045
-160.764	-55.899	-0.164	0.072
-159.750	-49.147	0.480	0.226
-158.735	-114.343	-0.302	0.057
-157.720	98.500	0.290	0.329
-156.706	-53.354	0.161	0.073
-155.691	57.522	-0.211	0.203
-154.677	-178.843	0.126	0.003
-153.662	800.000	-0.058	-0.225
-152.647	795.041	0.114	0.310
-151.633	-28.815	-0.138	0.078
-150.618	183.052	0.196	0.285
-149.604	114.592	-0.153	0.183
-148.589	-85.623	-0.187	0.057
-147.574	-139.370	0.121	-0.013
-146.560	-22.840	0.306	0.182
-145.545	-13.264	-0.232	0.148
-144.531	-200.000	-0.018	-0.477
-143.516	-26.243	0.152	-0.088
-142.502	-83.711	0.347	-0.109
-141.487	124.963	-0.037	0.045
-140.472	81.776	-0.094	0.100
-139.458	-99.178	0.247	0.061
-138.443	211.191	0.067	-0.104
-137.429	5.895	0.294	-0.215
-136.414	-36.293	-0.268	-0.142
-135.399	452.966	0.095	-0.206
-134.385	-29.027	0.299	-0.169
-133.370	-24.002	0.204	0.120
-132.356	-53.768	-0.194	0.087
-131.341	-60.986	0.290	0.121
-130.326	-200.000	-0.000	-0.031
-129.312	4.244	0.087	0.063
-128.297	5.050	-0.080	-0.058
-127.283	251.720	0.092	0.155
-126.268	-123.044	0.127	-0.020
-125.253	133.109	-0.176	-0.223
-124.239	-111.481	0.074	0.015
-123.224	287.039	0.162	-0.288
-122.210	295.919	-0.117	-0.211
