DTS Sentinel unit serial number:	SN413079Multiplexer serial number:	ORYXHardware model number:	OX4-SRSoftware version number:	ORYX F/W v4.00 Oryx Data Collector v3.7.2.0data status	okinstallation	princeton_trtdifferential loss correction	single-endedforward channel	channel 2reverse channel	N/Adate	2019/09/11time	21:25:11forward acquisition time	60.00reverse acquisition time	0.00gamma	496.2192k internal	0.2324k external	0.2324temperature offset calibration	1.0063default loss term (dB/km)	0.3790temperature slope calibration	1.0000multiplexer offset coefficient	1.0000multiplexer slope coefficient	1.0000fibre end	0.00T internal ref (°C)	36.12T ext. ref 1 (°C)	1.60T ext. ref 2 (°C)	29.92length (m)	temperature (°C)	Stokes	anti-Stokes-747.200	442.098	-0.050	0.110
-746.185	125.981	0.190	-0.242
-745.171	-191.935	-0.200	-0.002
-744.156	-200.000	0.005	0.091
-743.142	-200.000	-0.060	0.441
-742.127	130.268	-0.117	-0.152
-741.112	-132.610	0.241	-0.031
-740.098	-51.344	0.267	0.126
-739.083	-53.647	-0.244	0.112
-738.069	800.000	-0.137	0.427
-737.054	137.287	0.166	-0.219
-736.039	393.728	-0.083	0.175
-735.025	277.717	0.143	-0.257
-734.010	302.791	0.137	-0.257
-732.996	680.496	-0.055	0.145
-731.981	455.367	-0.064	-0.142
-730.966	246.130	-0.079	0.135
-729.952	-200.000	-0.005	-0.226
-728.937	-200.000	0.050	-0.379
-727.923	-102.150	-0.253	-0.061
-726.908	4.754	-0.183	0.135
-725.894	104.098	-0.156	-0.185
-724.879	-104.013	-0.274	0.064
-723.864	155.605	0.151	0.210
-722.850	-96.848	-0.137	-0.036
-721.835	162.758	-0.042	-0.060
-720.821	-200.000	0.004	0.045
-719.806	-62.960	-0.126	-0.053
-718.791	-167.940	0.080	-0.003
-717.777	-16.594	-0.274	0.175
-716.762	167.662	-0.084	0.121
-715.748	50.007	0.162	0.155
-714.733	98.698	-0.205	-0.238
-713.718	-150.961	0.096	-0.007
-712.704	295.725	0.088	0.162
-711.689	310.988	0.053	-0.100
-710.675	-200.000	0.048	-0.256
-709.660	-77.457	-0.076	0.026
-708.645	46.502	-0.163	0.153
-707.631	707.467	0.062	0.165
-706.616	127.902	0.198	0.254
-705.602	589.299	0.187	0.464
-704.587	15.223	0.090	-0.071
-703.572	800.000	0.028	0.116
-702.558	311.583	0.130	-0.245
-701.543	75.163	0.119	-0.126
-700.529	-178.446	0.271	0.006
-699.514	-129.799	-0.110	-0.015
-698.499	272.890	-0.103	-0.183
-697.485	-62.364	0.358	0.150
-696.470	130.978	-0.148	0.191
-695.456	151.799	0.032	0.044
-694.441	-108.147	-0.308	-0.067
-693.426	-46.333	0.201	0.100
-692.412	-89.601	-0.414	0.122
-691.397	82.892	-0.109	0.120
-690.383	-140.947	-0.295	0.031
-689.368	2.193	-0.079	-0.057
-688.354	12.712	0.172	0.134
-687.339	-9.577	0.128	-0.086
-686.324	700.049	-0.019	-0.051
-685.310	-66.761	-0.137	0.055
-684.295	-200.000	0.016	-0.148
-683.281	-118.743	-0.174	-0.031
-682.266	387.944	-0.021	0.043
-681.251	800.000	-0.019	-0.055
-680.237	-200.000	-0.007	0.298
-679.222	-64.840	-0.123	-0.050
-678.208	72.326	-0.181	0.190
-677.193	-57.493	0.253	0.112
-676.178	-5.857	-0.207	0.143
-675.164	-200.000	0.034	0.199
-674.149	285.483	-0.048	0.088
-673.135	294.390	0.219	-0.403
-672.120	-60.933	0.061	-0.026
-671.105	-200.000	-0.052	-0.402
-670.091	38.796	0.215	0.194
-669.076	-171.401	-0.296	0.010
-668.062	-200.000	0.000	-0.153
-667.047	479.506	0.055	0.126
-666.032	96.678	0.025	0.029
-665.018	800.000	-0.083	-0.322
-664.003	-185.952	-0.336	0.005
-662.989	800.000	-0.067	0.215
-661.974	800.000	-0.035	-0.099
-660.959	57.232	0.189	0.185
-659.945	-143.747	-0.111	-0.011
-658.930	160.962	0.095	-0.134
-657.916	11.321	0.134	0.104
-656.901	-200.000	0.011	-0.148
-655.886	-66.153	-0.236	0.095
-654.872	67.269	-0.134	-0.137
-653.857	235.133	-0.159	-0.265
-652.843	-200.000	-0.005	0.203
-651.828	-157.140	-0.360	-0.022
-650.814	192.592	0.280	-0.426
-649.799	800.000	0.027	0.081
-648.784	800.000	0.049	-0.155
-647.770	-200.000	0.054	0.269
-646.755	156.436	-0.221	-0.306
-645.741	-180.965	0.174	0.004
-644.726	-11.398	-0.083	-0.055
-643.711	800.000	0.144	-0.467
-642.697	798.936	0.065	-0.181
-641.682	-19.954	0.072	0.045
-640.668	192.911	0.067	0.102
-639.653	129.250	0.263	0.338
-638.638	466.752	0.123	0.278
-637.624	689.576	0.039	0.102
-636.609	106.002	0.386	-0.460
-635.595	421.213	0.140	0.301
-634.580	9.238	0.298	0.226
-633.565	59.881	-0.184	0.183
-632.551	-200.000	0.087	0.426
-631.536	-200.000	-0.053	0.496
-630.522	242.742	-0.109	0.183
-629.507	-91.181	0.308	0.089
-628.492	30.667	0.042	0.036
-627.478	-95.210	-0.291	-0.079
-626.463	189.136	-0.074	-0.112
-625.449	135.697	0.113	0.147
-624.434	-102.848	0.105	0.025
-623.419	249.472	-0.087	0.149
-622.405	-88.929	0.203	-0.060
-621.390	-145.736	-0.216	-0.019
-620.376	-40.744	0.028	0.015
-619.361	800.000	-0.082	0.338
-618.346	207.203	0.076	0.119
-617.332	-157.560	-0.235	-0.014
-616.317	800.000	-0.203	-0.572
-615.303	38.197	-0.085	-0.076
-614.288	-200.000	-0.002	0.046
-613.273	-200.000	-0.004	-0.125
-612.259	-200.000	0.026	0.173
-611.244	-54.776	-0.384	0.174
-610.230	-87.360	0.103	-0.031
-609.215	176.936	0.034	0.050
-608.201	405.252	-0.200	0.423
-607.186	3.514	-0.166	0.122
-606.171	-85.320	0.058	0.018
-605.157	21.662	0.073	0.060
-604.142	112.667	0.018	-0.022
-603.128	800.000	-0.045	-0.149
-602.113	206.566	-0.233	0.365
-601.098	-87.020	-0.265	-0.081
-600.084	-200.000	-0.006	0.260
-599.069	160.535	0.080	-0.112
-598.055	-200.000	0.006	-0.194
-597.040	-109.802	0.389	-0.082
-596.025	54.760	0.048	-0.046
-595.011	41.508	0.131	0.119
-593.996	-95.231	-0.401	-0.108
-592.982	46.943	-0.148	-0.138
-591.967	-116.522	-0.200	0.037
-590.952	-200.000	0.021	0.137
-589.938	-91.112	-0.179	0.052
-588.923	124.434	-0.079	0.100
-587.909	-200.000	0.032	-0.173
-586.894	-200.000	0.036	-0.306
-585.879	-200.000	-0.032	-0.266
-584.865	728.223	-0.156	-0.417
-583.850	-137.206	-0.287	0.033
-582.836	-133.421	0.243	0.031
-581.821	-41.084	0.260	-0.135
-580.806	800.000	-0.035	-0.151
-579.792	-109.487	0.196	0.042
-578.777	-70.740	-0.199	0.075
-577.763	-200.000	-0.007	0.205
-576.748	-160.247	-0.421	0.023
-575.733	-75.203	-0.325	0.116
-574.719	61.913	-0.149	-0.148
-573.704	9.907	0.232	-0.177
-572.690	551.141	0.042	0.100
-571.675	143.668	0.100	0.134
-570.661	-154.450	-0.407	-0.027
-569.646	-29.613	0.271	-0.155
-568.631	377.617	0.102	-0.209
-567.617	-114.404	-0.176	-0.034
-566.602	-31.793	-0.191	0.107
-565.588	-167.190	0.186	-0.008
-564.573	254.685	-0.071	0.121
-563.558	-30.177	0.133	-0.076
-562.544	-135.325	0.300	-0.036
-561.529	-61.152	0.103	-0.043
-560.515	29.355	0.390	-0.332
-559.500	-153.353	0.228	0.016
-558.485	2.601	-0.302	-0.219
-557.471	427.260	0.128	-0.277
-556.456	-4.886	0.323	0.223
-555.442	70.934	0.101	-0.105
-554.427	-200.000	0.021	-0.199
-553.412	-56.225	-0.409	-0.182
-552.398	207.962	0.249	0.390
-551.383	-200.000	-0.022	-0.284
-550.369	-200.000	0.037	0.346
-549.354	-65.852	0.194	0.078
-548.339	-157.468	-0.093	0.006
-547.325	-92.449	-0.187	0.053
-546.310	404.155	0.171	0.361
-545.296	18.304	-0.056	-0.045
-544.281	-100.079	-0.541	-0.135
-543.266	800.000	-0.030	0.099
-542.252	-200.000	0.013	0.143
-541.237	-147.507	0.188	-0.016
-540.223	111.386	-0.160	0.193
-539.208	-47.708	-0.328	-0.159
-538.193	800.000	0.051	0.179
-537.179	-27.535	-0.146	-0.085
-536.164	60.319	0.222	0.220
-535.150	-49.210	-0.088	-0.042
-534.135	182.967	-0.120	0.178
-533.121	800.000	-0.052	0.192
-532.106	219.621	0.012	0.020
-531.091	-5.443	-0.089	-0.061
-530.077	375.623	-0.220	-0.450
-529.062	-200.000	-0.004	-0.222
-528.048	-127.412	-0.153	0.022
-527.033	-142.546	-0.290	0.028
-526.018	-34.513	0.184	-0.101
-525.004	-78.492	-0.224	0.077
-523.989	800.000	-0.086	-0.265
-522.975	-89.899	-0.261	-0.076
-521.960	32.280	0.348	0.301
-520.945	-103.970	0.126	0.029
-519.931	148.594	-0.160	-0.216
-518.916	-12.698	-0.016	0.010
-517.902	800.000	0.082	-0.266
-516.887	118.261	-0.038	-0.046
-515.872	-35.103	0.281	-0.153
-514.858	17.827	0.094	0.075
-513.843	40.106	-0.146	0.131
-512.829	-200.000	0.041	-0.224
-511.814	11.918	0.124	-0.095
-510.799	-36.312	0.157	-0.084
-509.785	-63.619	-0.422	0.173
-508.770	-131.742	-0.197	0.026
-507.756	-112.856	-0.415	0.082
-506.741	-139.856	-0.077	-0.008
-505.726	-96.075	0.237	0.063
-504.712	152.075	0.147	-0.201
-503.697	-114.466	0.351	-0.067
-502.683	-200.000	0.009	0.233
-501.668	-35.058	0.441	-0.240
-500.653	788.995	0.074	-0.203
-499.639	336.036	0.084	0.162
-498.624	800.000	0.048	0.167
-497.610	-200.000	-0.029	0.372
-496.595	-94.140	0.217	0.059
-495.581	395.083	-0.084	0.174
-494.566	47.827	0.065	-0.061
-493.551	-122.210	0.169	-0.028
-492.537	258.413	0.254	0.437
-491.522	-74.478	0.143	-0.052
-490.508	306.037	0.170	-0.316
-489.493	-200.000	-0.050	-0.325
-488.478	-136.235	0.150	0.018
-487.464	-195.237	-0.203	-0.002
-486.449	223.952	-0.234	-0.378
-485.435	-200.000	0.058	-0.364
-484.420	800.000	0.084	-0.258
-483.405	800.000	-0.032	-0.102
-482.391	-61.643	0.362	-0.152
-481.376	103.729	0.085	0.099
-480.362	481.055	0.045	-0.103
-479.347	23.965	0.161	0.133
-478.332	-200.000	-0.030	0.278
-477.318	-135.783	0.293	-0.035
-476.303	-200.000	-0.012	0.192
-475.289	430.672	0.087	-0.187
-474.274	-34.659	-0.183	-0.100
-473.259	55.740	0.067	-0.065
-472.245	-200.000	-0.005	-0.308
-471.230	-43.653	-0.156	-0.079
-470.216	72.588	0.192	0.200
-469.201	676.306	-0.108	-0.279
-468.186	581.041	-0.094	-0.229
-467.172	129.274	0.047	0.061
-466.157	16.052	0.122	-0.096
-465.143	-200.000	0.000	-0.010
-464.128	-138.794	0.144	0.016
-463.113	655.447	-0.046	0.119
-462.099	800.000	-0.100	0.306
-461.084	-40.148	0.423	-0.220
-460.070	-109.699	-0.107	-0.023
-459.055	199.921	-0.199	0.305
-458.040	-57.018	-0.324	0.143
-457.026	800.000	0.086	-0.325
-456.011	-123.008	0.280	-0.045
-454.997	68.205	0.094	0.096
-453.982	64.297	0.082	0.083
-452.968	-129.795	-0.073	-0.010
-451.953	-39.673	0.063	-0.033
-450.938	-6.740	-0.291	-0.197
-449.924	-200.000	-0.033	-0.260
-448.909	651.837	-0.108	0.277
-447.895	-200.000	0.006	0.054
-446.880	-21.603	0.237	-0.144
-445.865	0.512	0.044	0.031
-444.851	-200.000	0.050	-0.286
-443.836	-152.518	0.357	0.026
-442.822	-200.000	0.003	-0.611
-441.807	-55.058	-0.226	-0.101
-440.792	18.824	-0.237	0.189
-439.778	17.352	0.030	0.024
-438.763	-200.000	0.024	0.355
-437.749	-44.898	-0.165	0.082
-436.734	800.000	0.034	-0.100
-435.719	8.549	-0.184	-0.138
-434.705	-165.110	-0.179	-0.008
-433.690	800.000	-0.015	0.064
-432.676	268.253	-0.078	-0.136
-431.661	32.872	0.305	0.264
-430.646	363.926	0.080	-0.160
-429.632	800.000	0.144	-0.399
-428.617	-57.625	-0.189	-0.083
-427.603	800.000	-0.055	0.222
-426.588	-105.909	0.216	0.048
-425.573	321.594	-0.045	0.085
-424.559	-70.689	-0.392	0.147
-423.544	-200.000	0.036	-0.252
-422.530	212.146	-0.068	-0.107
-421.515	20.937	0.264	0.213
-420.500	61.838	-0.132	0.131
-419.486	73.308	0.072	-0.075
-418.471	92.062	-0.094	0.106
-417.457	277.971	-0.262	-0.464
-416.442	605.180	-0.054	-0.133
-415.428	71.860	0.229	-0.237
-414.413	469.214	-0.034	0.076
-413.398	-200.000	-0.025	0.426
-412.384	35.661	0.064	-0.056
-411.369	-200.000	0.012	0.192
-410.355	214.687	0.072	0.113
-409.340	142.774	0.214	-0.283
-408.325	208.294	-0.022	-0.034
-407.311	-43.518	0.072	-0.036
-406.296	-92.504	0.336	0.094
-405.282	-157.582	-0.281	0.017
-404.267	-200.000	0.028	-0.156
-403.252	42.105	-0.206	-0.186
-402.238	291.433	0.111	-0.201
-401.223	148.518	0.113	0.151
-400.209	90.367	0.017	0.019
-399.194	-200.000	0.011	0.212
-398.179	-49.176	-0.144	0.069
-397.165	800.000	0.078	0.236
-396.150	89.016	0.171	0.190
-395.136	604.315	0.015	0.037
-394.121	800.000	0.032	0.136
-393.106	-92.812	0.168	0.047
-392.092	286.292	0.101	-0.182
-391.077	406.909	-0.106	0.223
-390.063	800.000	0.047	0.166
-389.048	372.109	-0.156	0.316
-388.033	-94.945	-0.138	-0.037
-387.019	-6.256	0.067	0.046
-386.004	-82.950	0.103	0.033
-384.990	195.416	0.061	0.092
-383.975	55.525	-0.134	-0.129
-382.960	-147.323	0.174	0.015
-381.946	182.540	-0.208	-0.305
-380.931	127.666	0.190	-0.240
-379.917	66.828	-0.127	-0.129
-378.902	-54.092	-0.070	-0.032
-377.888	-99.593	0.290	0.072
-376.873	-140.123	-0.246	-0.026
-375.858	-200.000	-0.026	-0.133
-374.844	-200.000	0.016	-0.123
-373.829	-92.276	0.460	0.129
-372.815	-200.000	0.036	0.403
-371.800	-200.000	-0.021	0.293
-370.785	304.356	0.145	-0.267
-369.771	89.216	-0.073	-0.081
-368.756	92.442	-0.147	-0.165
-367.742	421.029	0.017	0.036
-366.727	-102.290	-0.193	-0.046
-365.712	-200.000	-0.015	0.107
-364.698	800.000	-0.153	0.491
-363.683	172.865	0.123	-0.176
-362.669	-47.829	-0.395	-0.190
-361.654	-85.711	-0.193	-0.060
-360.639	-200.000	-0.027	-0.338
-359.625	82.830	0.182	0.196
-358.610	-94.863	-0.382	-0.103
-357.596	-8.197	0.267	-0.179
-356.581	152.582	0.058	-0.079
-355.566	-200.000	-0.019	0.159
-354.552	-200.000	-0.108	-0.514
-353.537	800.000	-0.065	0.221
-352.523	800.000	-0.058	0.212
-351.508	-51.297	0.382	-0.178
-350.493	-44.325	0.411	0.205
-349.479	-149.901	-0.121	-0.009
-348.464	-26.703	-0.133	0.077
-347.450	-176.520	0.198	-0.005
-346.435	27.623	0.093	0.078
-345.420	-73.877	-0.342	0.124
-344.406	18.606	-0.232	0.184
-343.391	-44.611	-0.181	-0.090
-342.377	4.410	0.251	-0.183
-341.362	136.471	0.071	0.092
-340.348	-176.656	-0.245	0.006
-339.333	-200.000	-0.004	-0.189
-338.318	-200.000	-0.018	0.214
-337.304	-94.514	0.195	0.053
-336.289	-95.252	-0.265	0.071
-335.275	-32.891	-0.157	0.086
-334.260	-65.647	0.040	-0.016
-333.245	15.298	0.109	-0.085
-332.231	-16.542	0.370	0.233
-331.216	800.000	0.021	-0.069
-330.202	89.742	-0.037	0.041
-329.187	108.082	0.146	-0.172
-328.172	9.710	0.130	0.098
-327.158	-200.000	-0.020	0.264
-326.143	-200.000	0.007	0.254
-325.129	-91.179	-0.254	0.072
-324.114	-118.889	0.106	-0.018
-323.099	-21.433	0.232	-0.140
-322.085	-200.000	-0.069	0.357
-321.070	-200.000	0.026	0.173
-320.056	-37.729	0.127	0.067
-319.041	6.435	0.314	-0.231
-318.026	159.544	-0.092	0.127
-317.012	-138.217	-0.036	0.004
-315.997	800.000	-0.158	0.467
-314.983	-34.683	0.169	0.092
-313.968	-30.517	-0.174	-0.098
-312.953	22.860	0.290	-0.236
-311.939	105.497	0.257	-0.301
-310.924	129.279	-0.107	0.136
-309.910	800.000	0.021	0.084
-308.895	13.691	0.100	0.077
-307.880	800.000	-0.008	-0.027
-306.866	265.078	0.155	-0.268
-305.851	155.681	0.191	0.261
-304.837	294.139	-0.080	0.146
-303.822	-200.000	-0.048	0.381
-302.807	-116.639	-0.293	-0.053
-301.793	-131.008	0.177	-0.023
-300.778	-50.286	0.061	0.028
-299.764	800.000	0.063	0.232
-298.749	-20.832	-0.081	0.049
-297.735	-70.350	-0.170	-0.064
-296.720	380.797	0.079	-0.161
-295.705	800.000	0.011	-0.046
-294.691	107.966	0.216	-0.255
-293.676	-200.000	-0.077	-0.358
-292.662	-142.907	0.274	0.026
-291.647	-42.320	0.115	0.058
-290.632	499.005	-0.017	-0.038
-289.618	800.000	-0.075	0.276
-288.603	179.224	-0.101	-0.146
-287.589	800.000	0.037	-0.115
-286.574	800.000	-0.107	0.313
-285.559	-191.927	0.139	-0.001
-284.545	-200.000	-0.000	-0.143
-283.530	800.000	-0.050	-0.193
-282.516	-94.367	0.185	0.050
-281.501	148.070	0.036	0.049
-280.486	-111.704	-0.139	-0.028
-279.472	-62.737	0.338	0.139
-278.457	-23.985	-0.068	0.040
-277.443	-14.018	-0.128	-0.082
-276.428	-200.000	-0.008	-0.118
-275.413	31.183	-0.235	0.200
-274.399	-200.000	-0.016	0.077
-273.384	800.000	0.044	-0.127
-272.370	599.262	0.135	-0.331
-271.355	152.990	0.147	-0.199
-270.340	800.000	0.073	-0.244
-269.326	63.514	-0.122	0.122
-268.311	707.648	0.151	-0.396
-267.297	-200.000	-0.023	-0.242
-266.282	111.997	-0.057	0.068
-265.267	34.838	0.236	0.205
-264.253	56.703	0.158	0.152
-263.238	-200.000	-0.016	0.278
-262.224	-8.844	0.351	0.233
-261.209	800.000	0.105	-0.346
-260.195	-200.000	-0.014	-0.142
-259.180	54.122	-0.093	0.089
-258.165	5.175	0.211	-0.154
-257.151	-200.000	0.064	0.406
-256.136	-96.659	0.114	-0.030
-255.122	-108.482	0.258	-0.055
-254.107	130.938	-0.151	-0.192
-253.092	49.850	0.197	0.184
-252.078	800.000	0.073	0.275
-251.063	-168.472	-0.047	0.002
-250.049	400.414	-0.142	-0.294
-249.034	-191.604	-0.405	0.004
-248.019	-105.663	0.240	0.054
-247.005	-137.954	0.141	0.016
-245.990	800.000	-0.078	0.251
-244.976	613.532	0.052	-0.129
-243.961	800.000	0.082	-0.227
-242.946	-72.592	0.267	0.098
-241.932	123.691	-0.365	0.453
-240.917	-102.278	-0.114	0.027
-239.903	377.422	-0.033	-0.067
-238.888	-200.000	0.009	0.060
-237.873	-69.113	-0.405	-0.154
-236.859	245.778	-0.217	-0.362
-235.844	-47.991	0.115	-0.055
-234.830	-200.000	-0.013	-0.146
-233.815	800.000	0.074	-0.257
-232.800	-115.826	-0.047	0.009
-231.786	-162.919	0.289	0.014
-230.771	-200.000	-0.009	0.119
-229.757	6.656	-0.079	0.058
-228.742	327.480	0.067	-0.127
-227.727	29.321	0.065	0.055
-226.713	-41.361	0.241	-0.123
-225.698	402.390	0.065	-0.135
-224.684	-93.609	-0.275	-0.075
-223.669	-138.755	0.223	-0.024
-222.655	214.088	-0.039	-0.061
-221.640	97.894	-0.122	-0.139
-220.625	-114.061	-0.264	-0.050
-219.611	-88.044	-0.188	0.056
-218.596	-33.999	0.030	-0.016
-217.582	-162.935	-0.307	-0.015
-216.567	-179.643	0.173	0.004
-215.552	-8.787	-0.175	0.116
-214.538	-115.090	-0.210	0.039
-213.523	-200.000	0.033	-0.363
-212.509	-200.000	-0.018	0.207
-211.494	386.106	-0.158	-0.322
-210.479	-200.000	0.014	-0.498
-209.465	191.532	0.158	0.236
-208.450	-3.174	-0.186	0.128
-207.436	117.943	-0.187	0.227
-206.421	-46.851	0.095	0.046
-205.406	-133.153	0.063	-0.008
-204.392	-74.649	0.153	0.054
-203.377	-69.811	0.290	0.109
-202.363	-90.923	-0.351	0.100
-201.348	91.888	-0.243	0.271
-200.333	324.555	-0.092	-0.173
-199.319	800.000	-0.030	0.120
-198.304	-200.000	-0.104	0.456
-197.290	-186.412	-0.259	0.004
-196.275	-200.000	0.009	0.100
-195.260	701.021	-0.125	0.325
-194.246	124.605	0.100	0.124
-193.231	136.345	-0.022	0.029
-192.217	-200.000	0.010	0.076
-191.202	2.827	-0.165	0.118
-190.187	29.205	-0.308	0.258
-189.173	51.695	0.153	-0.144
-188.158	-100.018	-0.177	-0.043
-187.144	8.226	-0.156	-0.116
-186.129	800.000	-0.048	-0.210
-185.114	-131.351	-0.187	0.024
-184.100	800.000	0.050	0.158
-183.085	-87.903	0.289	-0.086
-182.071	-105.047	0.169	-0.038
-181.056	-200.000	-0.029	0.508
-180.042	-196.197	-0.108	0.001
-179.027	-53.770	-0.174	0.078
-178.012	633.755	-0.119	-0.297
-176.998	800.000	-0.056	0.214
-175.983	102.117	0.090	-0.104
-174.969	221.710	0.177	0.281
-173.954	89.327	-0.156	-0.172
-172.939	800.000	-0.148	-0.448
-171.925	-33.205	-0.228	-0.124
-170.910	406.792	0.047	-0.097
-169.896	-58.449	0.145	0.062
-168.881	-108.491	-0.353	-0.075
-167.866	-6.983	0.190	-0.127
-166.852	407.573	-0.030	0.063
-165.837	59.609	-0.276	0.268
-164.823	-61.022	-0.238	0.099
-163.808	168.135	-0.061	0.085
-162.793	-200.000	0.019	0.179
-161.779	-200.000	-0.078	-0.427
-160.764	-200.000	-0.001	0.011
-159.750	-34.618	0.301	-0.163
-158.735	-200.000	0.006	-0.183
-157.720	91.446	0.188	0.208
-156.706	447.149	0.123	0.267
-155.691	45.381	0.141	0.128
-154.677	-114.685	-0.321	0.061
-153.662	800.000	-0.108	-0.464
-152.647	-179.529	-0.260	0.006
-151.633	67.458	-0.183	0.184
-150.618	144.818	-0.192	-0.253
-149.604	449.430	0.142	-0.308
-148.589	496.850	-0.220	-0.500
-147.574	-18.599	0.057	0.035
-146.560	6.905	0.157	0.115
-145.545	-68.978	0.113	-0.043
-144.531	-108.191	0.058	0.012
-143.516	19.368	0.208	-0.165
-142.502	360.531	-0.146	0.289
-141.487	-200.000	-0.029	0.358
-140.472	67.617	-0.088	-0.089
-139.458	-105.551	0.420	0.094
-138.443	800.000	0.061	-0.207
-137.429	126.960	-0.138	0.172
-136.414	-72.257	-0.079	0.029
-135.399	-196.802	0.433	0.003
-134.385	127.957	-0.140	0.176
-133.370	-115.394	0.293	0.054
-132.356	-147.972	-0.394	0.032
-131.341	108.248	-0.072	0.085
-130.326	8.011	-0.170	-0.125
-129.312	-200.000	0.037	0.357
-128.297	-22.711	0.217	0.129
-127.283	79.367	0.189	-0.199
-126.268	49.280	-0.345	-0.319
-125.253	61.526	0.225	0.220
-124.239	-125.618	-0.110	0.016
-123.224	-50.773	0.100	0.046
-122.210	-15.856	-0.246	0.154
-121.195	-47.358	0.170	0.081
-120.180	252.064	-0.098	-0.164
