DTS Sentinel unit serial number:	SN413079Multiplexer serial number:	ORYXHardware model number:	OX4-SRSoftware version number:	ORYX F/W v4.00 Oryx Data Collector v3.7.2.0data status	okinstallation	princeton_trtdifferential loss correction	single-endedforward channel	channel 2reverse channel	N/Adate	2019/09/17time	23:11:35forward acquisition time	60.00reverse acquisition time	0.00gamma	496.2192k internal	0.2347k external	0.2347temperature offset calibration	0.9981default loss term (dB/km)	0.3790temperature slope calibration	1.0000multiplexer offset coefficient	1.0000multiplexer slope coefficient	1.0000fibre end	0.00T internal ref (°C)	24.58T ext. ref 1 (°C)	0.16T ext. ref 2 (°C)	17.68length (m)	temperature (°C)	Stokes	anti-Stokes-747.200	13.966	-0.235	0.183
-746.185	800.000	0.032	0.103
-745.171	-76.791	-0.162	-0.057
-744.156	51.617	0.149	0.142
-743.142	70.745	0.282	0.291
-742.127	-200.000	0.026	0.169
-741.112	-169.289	0.070	0.003
-740.098	-200.000	0.010	0.289
-739.083	-187.263	-0.183	-0.002
-738.069	-200.000	-0.039	0.186
-737.054	-200.000	-0.045	0.313
-736.039	21.701	0.262	0.214
-735.025	122.372	0.175	0.218
-734.010	196.624	-0.096	0.146
-732.996	289.673	0.054	-0.098
-731.981	179.101	0.069	-0.101
-730.966	-200.000	-0.080	0.362
-729.952	126.878	-0.148	-0.187
-728.937	-95.174	0.462	-0.124
-727.923	-48.104	-0.352	-0.170
-726.908	109.241	0.097	0.116
-725.894	-193.383	-0.099	-0.001
-724.879	84.452	-0.111	0.122
-723.864	-200.000	-0.058	-0.315
-722.850	218.953	0.201	-0.321
-721.835	-177.064	0.173	0.004
-720.821	103.051	0.154	0.180
-719.806	-3.690	0.137	-0.095
-718.791	145.235	-0.087	0.116
-717.777	74.045	-0.145	-0.152
-716.762	-200.000	0.007	-0.179
-715.748	160.925	0.188	-0.262
-714.733	800.000	0.020	-0.064
-713.718	194.845	-0.065	-0.099
-712.704	800.000	0.040	-0.148
-711.689	800.000	0.023	-0.100
-710.675	104.497	0.055	0.064
-709.660	172.915	0.064	-0.091
-708.645	691.748	-0.031	0.080
-707.631	-145.647	0.132	0.012
-706.616	800.000	0.122	0.394
-705.602	-87.581	0.133	0.040
-704.587	305.411	-0.143	-0.265
-703.572	-200.000	-0.009	0.076
-702.558	181.774	-0.034	-0.051
-701.543	-95.765	0.332	0.089
-700.529	367.760	0.023	0.046
-699.514	-41.737	0.505	0.259
-698.499	-160.686	-0.180	0.010
-697.485	27.619	0.169	0.142
-696.470	10.438	0.272	-0.206
-695.456	-78.998	-0.142	-0.048
-694.441	709.339	-0.093	0.246
-693.426	-21.306	-0.097	-0.059
-692.412	-31.351	0.223	0.125
-691.397	-200.000	0.043	-0.409
-690.383	-200.000	0.056	-0.300
-689.368	-160.198	-0.135	0.007
-688.354	42.019	0.049	0.044
-687.339	-103.131	-0.137	-0.032
-686.324	502.281	0.024	-0.055
-685.310	-135.686	-0.190	-0.023
-684.295	73.142	0.057	-0.059
-683.281	-53.537	-0.014	-0.006
-682.266	-136.980	-0.269	0.031
-681.251	-36.514	-0.085	0.046
-680.237	91.921	-0.236	0.265
-679.222	-98.164	-0.447	0.115
-678.208	-128.890	-0.314	0.044
-677.193	-72.762	0.352	-0.129
-676.178	-30.163	0.063	-0.036
-675.164	66.914	0.106	-0.107
-674.149	-200.000	0.003	0.119
-673.135	-109.827	0.275	-0.058
-672.120	-78.080	0.355	-0.122
-671.105	7.136	-0.184	0.137
-670.091	-151.538	-0.285	-0.021
-669.076	24.684	0.225	-0.186
-668.062	445.335	-0.035	-0.076
-667.047	800.000	-0.112	-0.324
-666.032	800.000	0.097	-0.311
-665.018	-14.357	-0.156	0.100
-664.003	503.991	0.126	0.290
-662.989	787.399	0.025	0.070
-661.974	-200.000	0.030	-0.226
-660.959	-200.000	0.061	-0.347
-659.945	226.181	-0.151	0.243
-658.930	-68.756	0.160	-0.062
-657.916	46.062	-0.050	0.046
-656.901	140.631	0.051	0.068
-655.886	-115.946	-0.450	0.084
-654.872	-200.000	-0.004	0.098
-653.857	536.417	-0.099	0.235
-652.843	8.362	-0.129	-0.097
-651.828	-130.028	0.282	-0.038
-650.814	-200.000	-0.036	-0.220
-649.799	-62.602	0.205	-0.085
-648.784	68.428	0.092	-0.094
-647.770	-90.591	-0.074	0.021
-646.755	201.984	0.098	-0.150
-645.741	800.000	0.042	-0.145
-644.726	-173.189	-0.147	0.004
-643.711	152.444	0.061	0.082
-642.697	-200.000	-0.054	0.355
-641.682	-79.881	-0.301	-0.101
-640.668	-17.850	0.201	0.126
-639.653	-22.655	0.107	0.065
-638.638	-200.000	-0.029	0.514
-637.624	-112.989	-0.198	0.039
-636.609	-37.794	-0.008	0.004
-635.595	-29.013	-0.100	0.057
-634.580	65.680	0.182	0.184
-633.565	484.356	-0.023	-0.053
-632.551	800.000	-0.096	0.279
-631.536	33.794	0.371	0.321
-630.522	-200.000	0.016	-0.267
-629.507	-146.246	-0.523	0.046
-628.492	85.958	0.115	-0.126
-627.478	-159.449	0.093	-0.005
-626.463	-94.254	-0.174	-0.047
-625.449	-16.373	-0.233	-0.147
-624.434	-159.428	0.422	0.023
-623.419	-200.000	-0.024	-0.183
-622.405	203.187	-0.253	-0.390
-621.390	170.198	0.107	-0.153
-620.376	168.494	0.312	-0.442
-619.361	-118.491	0.271	0.048
-618.346	564.276	-0.030	0.072
-617.332	-129.412	-0.271	0.037
-616.317	505.459	-0.111	0.255
-615.303	-33.592	0.184	0.101
-614.288	-200.000	-0.012	-0.127
-613.273	149.584	0.068	0.091
-612.259	-125.802	0.165	0.025
-611.244	-34.902	-0.176	-0.096
-610.230	25.071	-0.254	0.210
-609.215	387.367	0.064	-0.131
-608.201	-121.942	0.098	0.016
-607.186	644.766	0.072	-0.183
-606.171	29.566	-0.411	0.348
-605.157	51.037	0.145	0.137
-604.142	-31.680	-0.451	-0.251
-603.128	225.146	-0.083	-0.134
-602.113	-35.180	0.159	-0.086
-601.098	-19.538	-0.250	0.154
-600.084	-115.278	0.230	-0.043
-599.069	-200.000	-0.005	0.311
-598.055	355.456	0.091	0.181
-597.040	-66.453	-0.164	0.065
-596.025	-44.159	-0.316	-0.158
-595.011	-200.000	0.066	-0.348
-593.996	-79.596	0.110	-0.037
-592.982	-44.765	-0.216	-0.107
-591.967	-2.846	0.144	0.100
-590.952	7.286	0.177	0.131
-589.938	516.805	0.063	0.145
-588.923	-62.290	-0.093	0.038
-587.909	37.356	0.349	0.307
-586.894	-150.006	0.063	-0.005
-585.879	-60.015	-0.109	0.046
-584.865	-134.911	-0.185	-0.022
-583.850	-200.000	-0.035	-0.160
-582.836	248.419	-0.139	-0.233
-581.821	-58.147	0.046	0.020
-580.806	800.000	-0.029	-0.091
-579.792	-200.000	-0.002	-0.071
-578.777	-94.809	-0.260	0.070
-577.763	-73.409	-0.282	-0.102
-576.748	143.045	0.161	0.213
-575.733	283.919	-0.083	-0.149
-574.719	10.204	-0.039	0.029
-573.704	79.571	-0.085	-0.091
-572.690	-200.000	-0.041	0.193
-571.675	-2.491	0.054	-0.038
-570.661	-119.704	0.413	-0.071
-569.646	-45.989	-0.141	0.069
-568.631	653.641	-0.096	0.245
-567.617	237.245	-0.262	0.431
-566.602	-59.724	-0.332	0.141
-565.588	-37.473	-0.148	0.078
-564.573	246.818	0.090	-0.151
-563.558	-200.000	-0.025	0.117
-562.544	392.494	0.170	-0.350
-561.529	117.673	-0.175	0.214
-560.515	202.921	-0.052	-0.080
-559.500	-40.448	0.362	-0.186
-558.485	-104.151	0.123	-0.028
-557.471	-82.273	-0.094	0.030
-556.456	800.000	0.121	-0.350
-555.442	16.187	-0.187	0.146
-554.427	55.116	-0.185	0.177
-553.412	-57.200	-0.155	-0.068
-552.398	-126.947	-0.291	0.042
-551.383	-200.000	-0.076	0.627
-550.369	215.468	0.127	0.200
-549.354	-50.076	0.218	-0.103
-548.339	800.000	-0.018	-0.073
-547.325	-200.000	-0.058	0.390
-546.310	800.000	0.043	0.186
-545.296	782.301	-0.178	-0.484
-544.281	587.562	0.100	-0.245
-543.266	-111.776	0.316	0.063
-542.252	-111.408	0.250	0.051
-541.237	269.758	-0.086	-0.151
-540.223	577.010	0.098	0.238
-539.208	218.483	0.128	0.203
-538.193	362.246	-0.042	0.083
-537.179	-184.135	-0.316	0.005
-536.164	-111.958	-0.286	0.057
-535.150	-11.093	0.282	-0.185
-534.135	44.723	-0.175	-0.160
-533.121	-200.000	0.006	-0.231
-532.106	-146.624	-0.509	0.044
-531.091	206.872	-0.060	-0.093
-530.077	72.764	0.129	-0.134
-529.062	-76.441	0.171	0.059
-528.048	668.684	-0.066	-0.169
-527.033	-200.000	-0.023	-0.286
-526.018	51.685	-0.099	0.093
-525.004	198.920	-0.100	0.151
-523.989	126.598	0.149	0.187
-522.975	800.000	-0.087	0.253
-521.960	-20.032	-0.182	0.111
-520.945	-128.526	0.188	-0.026
-519.931	-200.000	-0.033	0.264
-518.916	419.326	0.068	-0.143
-517.902	-98.655	-0.132	0.033
-516.887	800.000	-0.037	-0.140
-515.872	-89.502	0.293	0.085
-514.858	-31.201	0.153	-0.086
-513.843	453.791	-0.126	0.276
-512.829	-133.416	0.172	-0.021
-511.814	66.817	-0.090	-0.091
-510.799	284.205	0.193	-0.344
-509.785	800.000	-0.019	-0.073
-508.770	-61.614	0.129	0.054
-507.756	519.854	-0.082	-0.189
-506.741	800.000	-0.055	-0.160
-505.726	73.551	0.135	0.140
-504.712	-59.893	-0.109	0.046
-503.697	-168.555	-0.223	-0.008
-502.683	86.237	0.141	0.154
-501.668	-107.153	0.149	0.033
-500.653	-42.033	0.094	-0.048
-499.639	79.129	0.072	-0.076
-498.624	-137.406	0.074	0.008
-497.610	314.895	-0.074	0.138
-496.595	-156.570	-0.575	0.035
-495.581	9.329	-0.354	0.265
-494.566	137.806	0.112	-0.146
-493.551	463.457	-0.047	0.104
-492.537	7.532	0.330	0.244
-491.522	26.950	0.200	-0.166
-490.508	-86.576	-0.201	-0.061
-489.493	-200.000	0.022	-0.198
-488.478	-75.396	0.150	-0.053
-487.464	-62.138	0.310	-0.128
-486.449	-200.000	-0.006	-0.089
-485.435	-46.952	0.367	0.177
-484.420	44.235	0.026	-0.024
-483.405	51.131	0.154	-0.145
-482.391	-32.088	0.039	0.022
-481.376	-200.000	-0.022	-0.162
-480.362	-43.559	-0.149	-0.075
-479.347	-200.000	0.014	-0.310
-478.332	290.809	0.209	0.376
-477.318	-200.000	0.036	-0.200
-476.303	800.000	0.126	0.409
-475.289	-31.246	0.210	0.117
-474.274	296.224	-0.019	-0.035
-473.259	-0.499	0.220	0.154
-472.245	-200.000	0.042	-0.258
-471.230	11.937	-0.074	0.057
-470.216	729.540	0.219	-0.579
-469.201	99.230	-0.174	-0.199
-468.186	7.582	-0.149	-0.111
-467.172	-197.461	-0.089	-0.001
-466.157	442.311	-0.125	-0.271
-465.143	-200.000	-0.030	-0.192
-464.128	500.440	-0.039	-0.089
-463.113	256.556	-0.026	-0.044
-462.099	103.978	0.298	-0.346
-461.084	800.000	-0.057	0.157
-460.070	-200.000	-0.006	0.048
-459.055	161.766	-0.047	0.066
-458.040	-114.800	-0.319	-0.060
-457.026	-200.000	0.013	0.222
-456.011	59.349	-0.169	0.165
-454.997	123.259	0.130	0.161
-453.982	-110.351	0.156	0.032
-452.968	59.239	0.061	0.060
-451.953	-81.900	0.136	-0.044
-450.938	-24.438	0.322	-0.190
-449.924	670.922	-0.144	-0.369
-448.909	-200.000	0.004	-0.068
-447.895	-200.000	-0.034	-0.177
-446.880	204.659	0.064	-0.098
-445.865	-188.012	0.242	-0.003
-444.851	779.662	0.080	-0.217
-443.836	-131.407	-0.283	-0.037
-442.822	-200.000	0.008	0.168
-441.807	-153.893	0.149	-0.010
-440.792	-200.000	-0.005	-0.131
-439.778	-200.000	0.026	-0.218
-438.763	-200.000	0.062	-0.308
-437.749	-200.000	-0.013	-0.094
-436.734	304.163	-0.035	0.065
-435.719	800.000	-0.040	0.121
-434.705	96.683	-0.052	0.058
-433.690	800.000	0.058	-0.197
-432.676	89.948	-0.193	0.213
-431.661	255.940	-0.077	-0.130
-430.646	-26.402	0.045	0.026
-429.632	-80.800	0.141	0.046
-428.617	-122.477	-0.114	0.018
-427.603	-79.382	-0.148	-0.050
-426.588	-200.000	0.060	0.278
-425.573	-2.151	0.115	0.080
-424.559	-77.355	0.009	-0.003
-423.544	-200.000	0.011	0.356
-422.530	-200.000	-0.058	-0.300
-421.515	114.762	-0.197	0.237
-420.500	222.021	-0.136	-0.216
-419.486	800.000	-0.016	0.050
-418.471	800.000	0.042	-0.158
-417.457	-39.938	-0.144	0.074
-416.442	-28.833	-0.080	-0.045
-415.428	60.876	-0.072	-0.070
-414.413	80.601	0.307	-0.327
-413.398	189.343	0.030	0.044
-412.384	-51.933	-0.189	0.087
-411.369	68.138	0.266	0.269
-410.355	-77.773	0.164	0.056
-409.340	159.848	-0.232	-0.318
-408.325	-200.000	0.010	0.081
-407.311	14.125	0.350	0.269
-406.296	800.000	-0.075	-0.255
-405.282	396.329	-0.091	-0.187
-404.267	12.042	-0.207	0.157
-403.252	-200.000	-0.007	-0.174
-402.238	11.112	-0.360	-0.272
-401.223	-20.993	-0.149	-0.090
-400.209	-200.000	-0.062	0.270
-399.194	800.000	0.009	0.031
-398.179	369.604	-0.067	-0.134
-397.165	-200.000	-0.020	-0.122
-396.150	-64.708	-0.146	-0.059
-395.136	-200.000	-0.040	0.221
-394.121	-58.394	-0.114	-0.049
-393.106	-200.000	0.011	0.155
-392.092	143.691	0.037	0.049
-391.077	209.104	0.069	0.106
-390.063	-200.000	0.035	0.239
-389.048	429.425	-0.237	0.504
-388.033	634.430	-0.130	-0.325
-387.019	-122.685	-0.296	-0.047
-386.004	-21.826	0.262	-0.157
-384.990	-200.000	0.019	-0.182
-383.975	34.199	-0.163	-0.140
-382.960	800.000	0.073	0.220
-381.946	-118.161	0.244	-0.043
-380.931	-96.829	-0.211	0.055
-379.917	174.130	-0.232	-0.331
-378.902	-52.884	0.105	-0.048
-377.888	176.514	-0.221	-0.317
-376.873	635.640	-0.022	-0.054
-375.858	-109.884	0.094	-0.019
-374.844	800.000	0.082	0.298
-373.829	138.839	-0.091	0.118
-372.815	192.149	0.133	-0.198
-371.800	800.000	0.036	0.136
-370.785	-16.460	0.090	-0.056
-369.771	800.000	0.081	-0.286
-368.756	-200.000	0.010	-0.164
-367.742	-148.592	-0.128	0.010
-366.727	126.317	0.068	0.085
-365.712	389.049	-0.153	0.311
-364.698	800.000	-0.119	0.331
-363.683	-13.996	0.154	-0.098
-362.669	-155.829	0.109	0.007
-361.654	417.831	0.052	-0.110
-360.639	76.911	0.271	0.283
-359.625	345.564	-0.063	0.123
-358.610	79.570	0.151	-0.160
-357.596	-32.046	0.067	-0.037
-356.581	-44.816	-0.284	-0.139
-355.566	170.498	0.026	-0.037
-354.552	657.945	-0.044	0.112
-353.537	17.003	0.042	0.033
-352.523	3.165	0.052	-0.037
-351.508	183.083	-0.151	0.219
-350.493	-60.611	-0.141	-0.059
-349.479	-200.000	0.060	0.377
-348.464	-133.843	0.444	-0.054
-347.450	129.242	0.119	0.150
-346.435	-168.581	-0.102	-0.004
-345.420	-17.496	-0.247	0.153
-344.406	-93.770	-0.179	-0.048
-343.391	-12.202	-0.367	-0.236
-342.377	-87.207	0.254	0.076
-341.362	-118.666	0.460	-0.080
-340.348	800.000	-0.101	0.351
-339.333	61.550	-0.157	0.153
-338.318	-117.196	-0.213	0.038
-337.304	73.309	0.075	0.077
-336.289	-200.000	0.002	0.019
-335.275	87.627	-0.190	0.207
-334.260	520.333	0.066	0.152
-333.245	-59.005	-0.289	-0.123
-332.231	-137.516	-0.272	-0.030
-331.216	-124.891	0.407	-0.062
-330.202	456.627	0.183	-0.401
-329.187	-39.346	0.074	-0.038
-328.172	68.701	0.174	-0.176
-327.158	89.585	-0.103	0.113
-326.143	-136.241	-0.337	0.039
-325.129	-103.012	0.319	-0.074
-324.114	-167.746	0.222	0.009
-323.099	199.567	0.094	0.142
-322.085	219.120	-0.119	-0.188
-321.070	-72.585	-0.076	0.027
-320.056	-0.588	0.210	0.147
-319.041	800.000	-0.109	0.460
-318.026	90.816	0.245	0.270
-317.012	-106.992	0.254	-0.055
-315.997	19.256	0.137	-0.108
-314.983	15.565	0.052	0.040
-313.968	-180.316	0.377	0.008
-312.953	597.393	-0.027	-0.066
-311.939	-148.596	-0.424	0.034
-310.924	-200.000	0.027	-0.198
-309.910	-171.064	0.059	0.002
-308.895	522.641	0.105	0.241
-307.880	800.000	-0.082	0.325
-306.866	-62.179	0.217	-0.089
-305.851	320.547	0.087	-0.162
-304.837	207.169	0.120	0.184
-303.822	-136.368	-0.092	-0.011
-302.807	38.741	0.257	0.225
-301.793	697.901	0.027	-0.070
-300.778	-57.184	-0.112	0.049
-299.764	-200.000	0.020	0.237
-298.749	-200.000	0.020	0.134
-297.735	67.050	-0.111	-0.111
-296.720	-200.000	0.009	-0.293
-295.705	264.873	0.101	-0.172
-294.691	-149.790	0.128	-0.010
-293.676	774.093	-0.065	0.175
-292.662	800.000	0.034	-0.135
-291.647	113.244	0.182	0.217
-290.632	-113.699	-0.389	0.074
-289.618	132.080	0.091	0.116
-288.603	-200.000	0.029	-0.128
-287.589	591.161	0.083	-0.201
-286.574	44.751	0.210	0.190
-285.559	800.000	-0.040	0.134
-284.545	-200.000	-0.033	-0.182
-283.530	-200.000	-0.064	-0.455
-282.516	-109.741	0.303	0.063
-281.501	493.675	-0.088	0.197
-280.486	-200.000	0.008	-0.178
-279.472	149.607	-0.143	0.190
-278.457	-51.088	0.181	0.083
-277.443	-153.871	0.058	0.004
-276.428	-200.000	-0.005	0.067
-275.413	-98.753	0.121	0.030
-274.399	-145.035	-0.236	0.021
-273.384	91.059	-0.074	0.081
-272.370	-4.415	-0.033	-0.022
-271.355	-154.271	-0.287	0.019
-270.340	368.857	-0.094	-0.186
-269.326	69.280	-0.064	0.065
-268.311	-200.000	0.024	0.194
-267.297	-32.218	0.170	0.093
-266.282	-200.000	0.001	0.199
-265.267	-8.244	-0.299	-0.198
-264.253	800.000	-0.058	-0.229
-263.238	-200.000	0.107	-0.629
-262.224	-172.194	0.253	-0.008
-261.209	-200.000	-0.041	0.204
-260.195	-16.503	0.199	-0.123
-259.180	16.779	0.232	0.180
-258.165	-135.642	-0.279	-0.032
-257.151	94.511	0.173	-0.193
-256.136	-200.000	0.031	0.152
-255.122	-200.000	-0.015	-0.122
-254.107	44.729	-0.248	-0.224
-253.092	-105.466	0.294	0.065
-252.078	-15.553	0.208	-0.130
-251.063	800.000	-0.022	0.087
-250.049	-33.042	-0.181	0.098
-249.034	750.308	0.077	-0.204
-248.019	-15.714	-0.111	0.069
-247.005	9.850	-0.024	-0.018
-245.990	-200.000	-0.058	-0.296
-244.976	489.638	-0.152	0.340
-243.961	-101.940	0.158	-0.037
-242.946	650.452	-0.106	0.265
-241.932	-14.480	0.096	-0.060
-240.917	91.162	0.116	-0.127
-239.903	-59.369	-0.265	0.112
-238.888	33.670	-0.214	0.182
-237.873	-52.136	0.285	0.130
-236.859	-112.055	0.294	-0.058
-235.844	71.547	-0.185	-0.188
-234.830	-200.000	-0.162	-0.000
-233.815	800.000	-0.091	0.279
-232.800	67.510	0.083	0.083
-231.786	139.073	-0.167	0.215
-230.771	-113.204	0.126	0.024
-229.757	800.000	0.007	-0.021
-228.742	-120.738	-0.169	0.028
-227.727	800.000	-0.085	0.232
-226.713	800.000	-0.072	-0.223
-225.698	-39.749	0.277	0.142
-224.684	15.750	-0.319	0.246
-223.669	-143.395	0.329	-0.031
-222.655	-200.000	-0.039	-0.190
-221.640	-115.553	0.153	0.028
-220.625	800.000	0.077	-0.252
-219.611	-200.000	0.058	0.253
-218.596	800.000	-0.050	-0.188
-217.582	611.968	0.111	0.271
-216.567	496.991	0.102	0.229
-215.552	800.000	-0.047	-0.198
-214.538	-107.875	0.268	-0.057
-213.523	522.730	-0.034	-0.078
-212.509	256.413	0.115	-0.194
-211.494	-74.419	-0.250	0.088
-210.479	28.174	-0.264	0.218
-209.465	317.299	0.060	0.112
-208.450	-21.837	-0.230	-0.137
-207.436	-54.549	0.093	-0.041
-206.421	59.616	0.089	0.086
-205.406	-149.759	0.088	-0.007
-204.392	-179.238	-0.217	-0.005
-203.377	28.952	-0.132	0.109
-202.363	1.573	-0.167	-0.117
-201.348	-134.166	-0.280	-0.034
-200.333	40.711	-0.258	0.228
-199.319	-67.081	0.173	-0.067
-198.304	-182.341	0.059	0.001
-197.290	-41.258	0.313	-0.158
-196.275	576.661	-0.076	0.182
-195.260	-88.553	0.157	0.046
-194.246	24.057	-0.274	0.221
-193.231	-76.930	-0.218	-0.074
-192.217	-141.319	0.130	0.013
-191.202	-156.836	-0.284	0.017
-190.187	800.000	-0.004	-0.016
-189.173	-200.000	-0.009	-0.124
-188.158	113.062	0.100	-0.118
-187.144	74.165	-0.070	0.072
-186.129	-102.788	0.303	0.070
-185.114	-98.108	-0.125	0.031
-184.100	23.393	-0.207	-0.167
-183.085	-200.000	0.257	-0.000
-182.071	-84.945	0.046	0.014
-181.056	800.000	0.026	-0.087
-180.042	-46.885	0.292	0.140
-179.027	238.942	-0.095	0.155
-178.012	800.000	-0.142	0.460
-176.998	-33.715	0.172	0.093
-175.983	-63.520	0.207	-0.083
-174.969	800.000	0.036	-0.153
-173.954	182.943	-0.239	-0.345
-172.939	-17.235	0.355	-0.219
-171.925	-200.000	-0.035	-0.347
-170.910	-200.000	-0.065	0.607
-169.896	127.780	-0.226	-0.280
-168.881	800.000	-0.072	-0.270
-167.866	-49.846	0.340	0.158
-166.852	-200.000	0.023	-0.366
-165.837	98.326	0.252	-0.284
-164.823	102.388	-0.069	-0.079
-163.808	-152.411	0.087	0.006
-162.793	53.361	0.195	0.182
-161.779	-200.000	0.025	-0.389
-160.764	75.026	0.122	-0.126
-159.750	-200.000	-0.010	-0.191
-158.735	-32.118	-0.122	0.066
-157.720	119.237	-0.313	0.378
-156.706	-114.461	-0.278	0.052
-155.691	175.029	-0.226	-0.320
-154.677	258.977	0.066	-0.112
-153.662	-200.000	0.054	0.318
-152.647	-90.114	0.372	0.106
-151.633	699.513	0.078	-0.200
-150.618	99.669	0.090	-0.102
-149.604	14.521	0.123	-0.094
-148.589	408.691	0.151	-0.311
-147.574	-138.849	0.288	-0.031
-146.560	66.363	0.116	0.115
-145.545	-16.485	-0.286	-0.177
-144.531	-136.829	0.278	0.031
-143.516	-3.174	0.145	0.099
-142.502	-39.330	-0.276	0.141
-141.487	66.800	0.099	-0.098
-140.472	-92.090	0.379	-0.105
-139.458	794.015	0.100	0.268
-138.443	-200.000	0.054	0.314
-137.429	9.993	0.285	0.212
-136.414	-118.229	-0.220	-0.038
-135.399	-165.253	0.289	-0.012
-134.385	224.340	0.151	0.238
-133.370	406.280	-0.098	0.203
-132.356	99.779	0.079	-0.089
-131.341	-144.117	0.366	-0.033
-130.326	-200.000	0.032	0.136
-129.312	-200.000	0.015	-0.230
-128.297	262.831	0.137	-0.232
-127.283	-80.015	-0.326	-0.107
-126.268	94.367	-0.203	0.224
-125.253	-200.000	-0.016	-0.132
-124.239	-200.000	-0.045	-0.483
-123.224	161.278	-0.169	0.230
-122.210	-4.642	0.146	0.098
-121.195	-1.474	-0.144	-0.099
