DTS Sentinel unit serial number:	SN413079Multiplexer serial number:	ORYXHardware model number:	OX4-SRSoftware version number:	ORYX F/W v4.00 Oryx Data Collector v3.7.2.0data status	okinstallation	princeton_trtdifferential loss correction	single-endedforward channel	channel 2reverse channel	N/Adate	2019/09/11time	08:25:11forward acquisition time	60.00reverse acquisition time	0.00gamma	496.2192k internal	0.2321k external	0.2321temperature offset calibration	0.9964default loss term (dB/km)	0.3790temperature slope calibration	1.0000multiplexer offset coefficient	1.0000multiplexer slope coefficient	1.0000fibre end	0.00T internal ref (°C)	32.94T ext. ref 1 (°C)	0.09T ext. ref 2 (°C)	30.65length (m)	temperature (°C)	Stokes	anti-Stokes-747.200	-200.000	0.004	-0.157
-746.185	800.000	0.033	-0.128
-745.171	-97.823	0.216	-0.056
-744.156	-185.653	0.100	-0.002
-743.142	-174.938	-0.480	0.014
-742.127	120.225	0.150	-0.188
-741.112	800.000	-0.041	-0.119
-740.098	233.891	-0.064	0.107
-739.083	179.557	-0.072	-0.106
-738.069	138.682	0.110	-0.146
-737.054	-38.346	0.081	0.043
-736.039	-175.951	-0.076	0.002
-735.025	800.000	0.043	-0.167
-734.010	-65.676	-0.191	0.078
-732.996	-128.826	-0.277	0.039
-731.981	398.274	-0.073	0.154
-730.966	-105.834	-0.188	0.043
-729.952	-125.648	-0.255	-0.039
-728.937	-59.098	-0.278	0.121
-727.923	-200.000	0.006	-0.055
-726.908	-131.961	0.192	-0.025
-725.894	-60.232	-0.456	0.196
-724.879	29.092	-0.211	0.180
-723.864	-43.473	-0.338	-0.173
-722.850	58.075	-0.168	0.166
-721.835	-145.359	0.192	0.017
-720.821	-29.961	-0.293	-0.168
-719.806	-200.000	0.008	0.271
-718.791	-122.343	0.059	0.010
-717.777	-200.000	-0.068	0.427
-716.762	-130.849	0.023	0.003
-715.748	24.287	-0.309	-0.258
-714.733	404.138	0.065	-0.138
-713.718	-27.746	-0.072	0.042
-712.704	800.000	-0.072	-0.212
-711.689	-42.487	-0.080	-0.041
-710.675	724.001	-0.081	-0.217
-709.660	415.465	0.122	-0.262
-708.645	-89.775	0.092	0.027
-707.631	800.000	0.102	0.328
-706.616	147.251	-0.102	-0.139
-705.602	277.719	0.174	-0.312
-704.587	-63.755	0.146	0.060
-703.572	800.000	-0.076	0.219
-702.558	-200.000	0.109	-0.000
-701.543	126.206	-0.071	-0.090
-700.529	-36.240	0.207	-0.113
-699.514	-200.000	0.052	-0.246
-698.499	35.473	0.230	-0.204
-697.485	401.137	-0.078	-0.164
-696.470	380.104	0.027	0.056
-695.456	-135.384	0.227	-0.027
-694.441	93.605	-0.016	-0.018
-693.426	155.672	0.064	0.089
-692.412	800.000	0.151	-0.479
-691.397	-129.591	0.212	-0.030
-690.383	185.311	-0.118	0.176
-689.368	-110.448	0.116	-0.024
-688.354	-40.810	-0.061	0.032
-687.339	297.634	-0.220	-0.408
-686.324	372.538	0.068	-0.139
-685.310	473.761	-0.076	0.174
-684.295	-137.544	-0.256	0.029
-683.281	-147.547	0.383	-0.033
-682.266	-110.548	-0.184	0.038
-681.251	530.205	0.033	0.079
-680.237	-163.731	0.242	-0.011
-679.222	483.803	-0.037	0.086
-678.208	581.351	0.058	-0.143
-677.193	800.000	-0.019	0.055
-676.178	-32.941	-0.106	-0.059
-675.164	188.642	-0.202	0.305
-674.149	-13.534	-0.162	-0.106
-673.135	-84.521	-0.084	0.027
-672.120	296.411	0.101	-0.187
-671.105	800.000	-0.032	0.107
-670.091	800.000	-0.074	0.263
-669.076	-200.000	-0.035	-0.195
-668.062	-200.000	-0.088	-0.405
-667.047	250.259	-0.280	-0.479
-666.032	23.146	-0.183	-0.151
-665.018	-151.809	-0.374	-0.028
-664.003	-137.591	-0.190	-0.022
-662.989	204.940	0.090	0.141
-661.974	297.400	0.160	0.297
-660.959	-48.413	0.127	-0.062
-659.945	-155.653	-0.171	-0.011
-658.930	800.000	0.076	-0.313
-657.916	-198.375	0.578	0.003
-656.901	716.580	-0.130	0.347
-655.886	800.000	0.148	0.442
-654.872	-151.070	-0.283	0.021
-653.857	800.000	0.107	-0.426
-652.843	155.368	-0.011	0.015
-651.828	800.000	0.014	-0.046
-650.814	333.625	-0.106	-0.207
-649.799	800.000	-0.064	-0.198
-648.784	102.751	0.205	-0.241
-647.770	424.535	-0.134	-0.291
-646.755	520.920	-0.004	-0.010
-645.741	-135.248	-0.201	0.024
-644.726	-200.000	0.075	0.461
-643.711	119.051	0.063	0.078
-642.697	-86.819	-0.320	0.098
-641.682	78.383	0.028	-0.030
-640.668	-200.000	-0.001	0.117
-639.653	166.522	-0.078	-0.111
-638.638	-154.536	-0.135	-0.009
-637.624	296.105	-0.111	-0.205
-636.609	-200.000	-0.031	-0.226
-635.595	43.679	-0.248	-0.229
-634.580	-64.791	-0.194	-0.079
-633.565	80.602	-0.179	0.194
-632.551	-38.670	-0.299	-0.159
-631.536	487.738	0.148	0.339
-630.522	-6.818	-0.102	-0.070
-629.507	717.871	0.110	-0.294
-628.492	-131.084	0.383	-0.051
-627.478	-162.821	0.062	-0.003
-626.463	-34.358	-0.207	-0.114
-625.449	-88.033	0.372	-0.112
-624.434	361.917	-0.155	-0.313
-623.419	-117.608	-0.182	0.033
-622.405	345.661	-0.089	0.177
-621.390	-176.049	-0.454	-0.012
-620.376	51.352	0.311	0.297
-619.361	65.794	0.318	-0.324
-618.346	-116.455	0.169	0.031
-617.332	-18.346	0.028	0.017
-616.317	95.704	0.233	0.267
-615.303	586.076	0.075	0.185
-614.288	-200.000	-0.025	0.142
-613.273	-200.000	-0.032	0.332
-612.259	30.013	0.251	-0.215
-611.244	197.598	0.180	-0.277
-610.230	-200.000	0.000	-0.161
-609.215	216.710	-0.033	0.053
-608.201	-38.426	0.167	-0.089
-607.186	16.855	-0.076	0.060
-606.171	363.001	0.059	0.119
-605.157	-200.000	-0.033	-0.409
-604.142	140.133	-0.075	-0.099
-603.128	541.017	0.075	0.180
-602.113	-200.000	-0.017	-0.255
-601.098	-58.287	-0.117	0.051
-600.084	761.110	0.046	-0.125
-599.069	-109.162	-0.521	0.111
-598.055	-47.452	-0.107	0.052
-597.040	-133.853	-0.124	-0.015
-596.025	-91.899	0.159	-0.045
-595.011	-200.000	-0.032	-0.162
-593.996	-21.735	-0.218	0.133
-592.982	-95.439	-0.091	-0.025
-591.967	-152.635	0.216	-0.015
-590.952	-200.000	0.002	0.299
-589.938	-188.286	-0.381	0.005
-588.923	-200.000	0.005	0.148
-587.909	800.000	-0.043	-0.128
-586.894	800.000	0.034	-0.126
-585.879	-200.000	0.024	0.124
-584.865	800.000	0.038	0.150
-583.850	599.819	0.128	0.320
-582.836	-102.641	0.102	-0.024
-581.821	-200.000	-0.053	0.242
-580.806	-44.789	0.313	-0.157
-579.792	306.287	0.117	-0.219
-578.777	800.000	-0.040	-0.153
-577.763	-200.000	0.024	0.637
-576.748	293.099	-0.009	0.017
-575.733	-36.671	0.332	0.179
-574.719	555.779	0.027	-0.066
-573.704	-200.000	-0.030	0.330
-572.690	-96.190	-0.113	-0.030
-571.675	-103.217	-0.174	0.041
-570.661	-200.000	0.006	0.088
-569.646	15.883	-0.031	0.024
-568.631	-103.739	0.147	-0.035
-567.617	556.834	-0.083	0.201
-566.602	-200.000	-0.068	-0.352
-565.588	800.000	0.031	-0.085
-564.573	800.000	-0.058	-0.224
-563.558	-200.000	-0.023	0.111
-562.544	-105.338	-0.139	-0.032
-561.529	-136.042	0.240	0.028
-560.515	-104.932	0.159	-0.037
-559.500	-108.907	-0.142	0.031
-558.485	-200.000	0.020	-0.157
-557.471	-97.254	-0.129	0.034
-556.456	-74.310	0.220	-0.080
-555.442	-84.732	0.194	-0.061
-554.427	-200.000	0.002	0.102
-553.412	-139.923	0.367	-0.039
-552.398	273.692	0.122	-0.217
-551.383	-2.824	0.179	-0.126
-550.369	-93.424	-0.064	0.018
-549.354	47.534	-0.148	-0.138
-548.339	93.140	0.262	0.297
-547.325	-75.335	0.049	0.017
-546.310	440.691	-0.093	-0.204
-545.296	107.961	-0.269	-0.321
-544.281	800.000	-0.061	0.175
-543.266	6.893	-0.048	0.036
-542.252	725.151	-0.058	-0.155
-541.237	-200.000	0.046	0.459
-540.223	78.546	-0.151	0.161
-539.208	-85.430	-0.182	-0.057
-538.193	-200.000	0.069	0.407
-537.179	-60.080	-0.075	-0.032
-536.164	-18.289	-0.167	0.105
-535.150	800.000	-0.137	-0.386
-534.135	800.000	0.118	0.418
-533.121	84.942	0.163	0.180
-532.106	-165.455	-0.035	-0.002
-531.091	355.982	-0.105	0.210
-530.077	-164.686	0.356	0.016
-529.062	-114.868	0.352	0.067
-528.048	83.466	0.110	0.121
-527.033	-200.000	-0.018	0.087
-526.018	-115.854	-0.396	-0.074
-525.004	618.303	0.027	0.069
-523.989	-161.922	0.420	-0.021
-522.975	20.868	0.305	0.247
-521.960	473.178	-0.170	0.384
-520.945	-92.693	0.063	-0.018
-519.931	101.409	0.249	-0.291
-518.916	747.497	0.061	-0.165
-517.902	-200.000	0.008	0.207
-516.887	-144.318	0.239	-0.022
-515.872	-200.000	0.007	0.045
-514.858	307.236	-0.014	-0.026
-513.843	12.883	0.265	-0.205
-512.829	69.915	0.178	0.184
-511.814	-76.348	-0.078	-0.028
-510.799	-42.038	-0.374	-0.192
-509.785	-3.633	-0.247	0.172
-508.770	367.733	-0.057	0.116
-507.756	-200.000	-0.007	-0.227
-506.741	-68.778	-0.078	-0.030
-505.726	-130.671	0.111	-0.015
-504.712	519.224	-0.093	-0.219
-503.697	126.609	-0.225	-0.285
-502.683	-200.000	0.002	0.271
-501.668	212.334	0.218	0.343
-500.653	-200.000	-0.024	0.188
-499.639	-57.981	-0.199	0.087
-498.624	-200.000	-0.060	0.310
-497.610	127.672	0.073	0.093
-496.595	230.655	0.078	0.127
-495.581	-200.000	0.030	0.138
-494.566	138.736	-0.076	-0.099
-493.551	800.000	-0.062	-0.232
-492.537	-121.496	-0.282	-0.047
-491.522	-91.410	-0.169	-0.048
-490.508	-137.289	0.430	0.049
-489.493	-85.640	0.162	0.050
-488.478	232.932	0.168	0.277
-487.464	800.000	0.069	-0.192
-486.449	800.000	-0.076	-0.325
-485.435	-119.010	-0.335	0.059
-484.420	-3.265	-0.111	0.077
-483.405	-200.000	-0.009	-0.063
-482.391	-12.619	0.218	-0.142
-481.376	-108.998	-0.485	0.103
-480.362	124.225	-0.126	-0.158
-479.347	-200.000	-0.041	0.294
-478.332	-99.448	0.490	0.123
-477.318	-69.992	-0.472	-0.180
-476.303	697.008	0.127	-0.334
-475.289	60.459	-0.217	-0.215
-474.274	-144.334	-0.213	0.020
-473.259	7.400	0.304	-0.227
-472.245	499.027	0.179	-0.413
-471.230	23.965	-0.066	-0.054
-470.216	189.720	0.121	-0.181
-469.201	211.591	-0.077	0.121
-468.186	-44.771	0.330	-0.164
-467.172	-24.068	-0.137	-0.082
-466.157	203.916	-0.157	-0.244
-465.143	82.729	0.051	0.055
-464.128	180.004	0.083	0.121
-463.113	-16.909	-0.102	0.064
-462.099	-67.603	-0.302	-0.118
-461.084	-32.617	-0.097	0.054
-460.070	-118.049	0.285	0.051
-459.055	800.000	-0.166	-0.592
-458.040	-200.000	0.014	-0.097
-457.026	372.002	-0.060	0.121
-456.011	89.396	0.193	0.215
-454.997	29.644	-0.017	-0.015
-453.982	47.607	0.119	0.111
-452.968	197.043	-0.101	0.153
-451.953	-95.196	0.275	-0.074
-450.938	276.627	0.119	-0.212
-449.924	11.797	0.067	-0.051
-448.909	76.707	0.110	0.117
-447.895	-117.176	-0.123	-0.022
-446.880	-8.227	0.267	0.179
-445.865	37.074	-0.084	-0.074
-444.851	-45.146	-0.081	0.040
-443.836	205.336	-0.013	-0.020
-442.822	102.571	-0.097	-0.113
-441.807	800.000	-0.074	0.321
-440.792	186.285	-0.216	-0.321
-439.778	-71.747	-0.132	-0.049
-438.763	-3.311	-0.274	-0.190
-437.749	800.000	0.021	-0.068
-436.734	-64.939	-0.189	0.076
-435.719	-37.773	-0.039	-0.021
-434.705	800.000	0.055	0.192
-433.690	-59.018	-0.103	0.044
-432.676	-48.724	-0.352	0.169
-431.661	-64.730	0.246	0.099
-430.646	116.483	0.084	0.103
-429.632	-72.157	0.152	0.056
-428.617	65.756	0.135	0.137
-427.603	-200.000	0.019	-0.283
-426.588	-107.403	0.260	-0.057
-425.573	746.675	-0.136	0.365
-424.559	-93.413	-0.291	-0.081
-423.544	5.133	0.168	0.124
-422.530	66.371	-0.303	-0.307
-421.515	-114.951	0.274	-0.052
-420.500	82.574	0.210	0.228
-419.486	-200.000	-0.012	0.288
-418.471	-116.800	-0.386	0.071
-417.457	-200.000	-0.039	0.214
-416.442	-111.416	0.453	0.092
-415.428	-116.242	-0.222	-0.041
-414.413	-200.000	-0.000	-0.065
-413.398	-121.648	0.226	0.037
-412.384	-137.273	-0.111	0.013
-411.369	-180.078	-0.264	0.006
-410.355	-163.694	0.342	-0.016
-409.340	-161.508	-0.420	-0.022
-408.325	-200.000	-0.002	-0.071
-407.311	-65.749	0.035	0.014
-406.296	-200.000	0.032	-0.217
-405.282	41.252	0.188	-0.170
-404.267	-200.000	-0.039	0.245
-403.252	136.199	-0.150	0.195
-402.238	-39.498	0.234	0.122
-401.223	-91.327	-0.124	0.035
-400.209	-84.105	0.122	0.038
-399.194	-200.000	0.016	0.089
-398.179	-104.054	-0.061	-0.014
-397.165	138.250	0.070	-0.092
-396.150	324.657	0.132	0.251
-395.136	800.000	0.069	-0.218
-394.121	-140.496	-0.360	-0.037
-393.106	215.784	-0.269	0.426
-392.092	-89.299	0.356	0.104
-391.077	-200.000	-0.021	-0.101
-390.063	-64.055	0.101	0.041
-389.048	-200.000	-0.002	0.201
-388.033	-200.000	-0.041	0.305
-387.019	-200.000	0.014	0.484
-386.004	-200.000	-0.046	-0.223
-384.990	-162.184	0.132	-0.007
-383.975	-9.121	-0.157	0.104
-382.960	-47.744	0.296	0.143
-381.946	68.642	0.089	-0.091
-380.931	-189.283	-0.097	0.001
-379.917	71.826	-0.283	0.293
-378.902	-91.258	-0.076	-0.022
-377.888	-53.301	0.412	0.188
-376.873	155.818	0.253	0.347
-375.858	-200.000	-0.001	0.172
-374.844	-95.144	-0.323	0.087
-373.829	-50.052	0.125	-0.059
-372.815	19.813	-0.262	-0.210
-371.800	201.572	-0.070	0.107
-370.785	-50.961	-0.184	-0.086
-369.771	-200.000	-0.055	-0.546
-368.756	-18.767	-0.231	-0.143
-367.742	800.000	-0.014	-0.044
-366.727	32.844	-0.031	0.027
-365.712	-129.370	0.131	0.018
-364.698	800.000	-0.076	-0.234
-363.683	-200.000	-0.014	-0.220
-362.669	-200.000	-0.005	-0.139
-361.654	47.925	0.175	0.163
-360.639	-93.282	-0.214	-0.059
-359.625	-195.568	0.093	0.001
-358.610	-38.316	-0.271	0.143
-357.596	-200.000	0.033	-0.185
-356.581	-65.603	-0.185	0.074
-355.566	35.840	0.233	0.204
-354.552	-147.580	0.155	0.013
-353.537	159.015	0.139	-0.193
-352.523	184.657	0.086	0.127
-351.508	-200.000	0.017	0.135
-350.493	-39.833	-0.399	-0.207
-349.479	-200.000	0.021	0.174
-348.464	-1.065	-0.119	0.084
-347.450	70.011	-0.164	0.169
-346.435	340.494	0.022	0.042
-345.420	11.284	0.081	-0.061
-344.406	-200.000	-0.008	0.116
-343.391	357.436	0.218	-0.433
-342.377	323.594	0.043	-0.082
-341.362	197.976	-0.226	-0.343
-340.348	113.908	-0.217	0.262
-339.333	220.321	-0.159	-0.253
-338.318	-83.591	-0.316	-0.101
-337.304	-133.269	0.265	-0.033
-336.289	-200.000	0.038	0.437
-335.275	-12.680	-0.214	-0.139
-334.260	-22.174	-0.314	-0.189
-333.245	800.000	0.036	0.146
-332.231	-154.902	-0.265	-0.017
-331.216	-110.720	-0.306	0.063
-330.202	182.091	0.128	0.188
-329.187	-200.000	-0.007	0.224
-328.172	-77.157	-0.121	0.042
-327.158	-200.000	-0.008	-0.302
-326.143	37.482	0.238	-0.210
-325.129	-156.109	-0.110	0.007
-324.114	-25.849	0.070	-0.041
-323.099	-41.863	-0.061	-0.031
-322.085	-98.358	0.266	-0.068
-321.070	-170.600	-0.437	0.015
-320.056	-32.672	0.281	-0.155
-319.041	-68.718	-0.275	0.106
-318.026	16.158	-0.300	0.235
-317.012	204.663	0.173	0.267
-315.997	-41.588	-0.189	-0.097
-314.983	-88.745	-0.055	-0.016
-313.968	800.000	-0.083	-0.269
-312.953	306.054	0.157	-0.291
-311.939	-200.000	-0.003	-0.209
-310.924	605.671	-0.068	0.167
-309.910	-97.000	-0.093	0.024
-308.895	-6.196	0.122	-0.083
-307.880	-200.000	0.028	-0.413
-306.866	-200.000	-0.004	0.196
-305.851	356.213	-0.115	-0.227
-304.837	-200.000	0.006	0.048
-303.822	800.000	-0.076	0.286
-302.807	276.651	-0.056	0.099
-301.793	-23.043	-0.298	-0.178
-300.778	49.710	0.337	-0.315
-299.764	532.747	0.090	-0.213
-298.749	-111.901	-0.110	0.022
-297.735	-200.000	-0.005	-0.238
-296.720	119.877	0.175	0.215
-295.705	-200.000	0.003	0.126
-294.691	-161.899	-0.553	-0.028
-293.676	800.000	0.036	0.134
-292.662	-79.771	-0.120	-0.040
-291.647	0.914	0.151	0.107
-290.632	1.447	0.189	0.135
-289.618	-18.776	-0.241	-0.149
-288.603	462.079	-0.146	0.324
-287.589	800.000	0.038	-0.139
-286.574	195.940	-0.148	0.224
-285.559	124.368	0.140	0.175
-284.545	-138.139	0.169	-0.019
-283.530	-20.964	-0.242	0.147
-282.516	291.112	0.087	-0.157
-281.501	212.467	0.081	-0.127
-280.486	225.376	-0.222	0.356
-279.472	-75.714	-0.202	0.071
-278.457	37.644	0.199	-0.175
-277.443	-200.000	0.036	-0.236
-276.428	30.309	0.209	0.177
-275.413	-99.589	0.111	0.028
-274.399	69.324	-0.026	0.026
-273.384	60.366	-0.161	-0.158
-272.370	76.698	-0.118	0.124
-271.355	-86.266	-0.261	0.080
-270.340	29.277	-0.097	-0.081
-269.326	-168.529	0.242	0.009
-268.311	47.000	-0.035	-0.033
-267.297	-95.680	0.393	0.104
-266.282	48.792	-0.133	0.124
-265.267	98.399	-0.188	-0.215
-264.253	-17.937	0.144	0.089
-263.238	-11.092	-0.039	0.025
-262.224	-158.614	0.295	-0.017
-261.209	-200.000	0.010	-0.126
-260.195	-25.451	0.073	0.043
-259.180	-69.716	-0.054	-0.021
-258.165	400.799	-0.078	-0.163
-257.151	196.862	0.182	-0.274
-256.136	423.432	-0.160	-0.342
-255.122	8.209	0.118	-0.088
-254.107	-80.679	0.192	-0.063
-253.092	577.207	0.181	-0.439
-252.078	376.688	-0.114	-0.231
-251.063	-172.089	0.270	-0.009
-250.049	-96.367	0.148	0.039
-249.034	800.000	0.076	0.264
-248.019	215.423	-0.071	0.111
-247.005	-183.423	0.445	0.008
-245.990	57.556	0.036	-0.035
-244.976	-200.000	0.017	-0.126
-243.961	-132.448	-0.234	0.030
-242.946	339.683	-0.141	-0.273
-241.932	-51.753	0.236	0.109
-240.917	683.302	-0.024	-0.061
-239.903	359.758	0.055	0.109
-238.888	-143.827	0.264	0.025
-237.873	-200.000	-0.051	-0.226
-236.859	-49.003	-0.297	0.141
-235.844	78.415	0.177	-0.187
-234.830	800.000	-0.047	0.173
-233.815	542.249	0.104	0.246
-232.800	-93.267	-0.220	0.060
-231.786	-126.066	-0.105	-0.016
-230.771	-25.923	0.319	-0.186
-229.757	-20.733	-0.031	0.019
-228.742	122.544	-0.130	0.161
-227.727	-73.386	0.045	-0.016
-226.713	-200.000	-0.018	0.120
-225.698	-71.221	0.094	-0.035
-224.684	-200.000	-0.001	0.124
-223.669	-200.000	-0.042	0.248
-222.655	-75.897	0.237	-0.083
-221.640	-151.407	-0.029	0.002
-220.625	-87.336	-0.120	-0.036
-219.611	92.637	-0.083	0.093
-218.596	-106.470	-0.221	0.049
-217.582	222.683	0.026	0.041
-216.567	-78.241	-0.206	0.070
-215.552	533.306	0.039	-0.092
-214.538	-200.000	-0.024	-0.433
-213.523	-118.494	-0.197	-0.034
-212.509	-200.000	0.009	-0.121
-211.494	-200.000	-0.003	-0.047
-210.479	-53.251	-0.445	-0.202
-209.465	104.892	0.134	0.156
-208.450	43.296	0.140	-0.127
-207.436	558.820	0.096	0.228
-206.421	-49.432	0.231	0.109
-205.406	-64.662	-0.501	0.201
-204.392	-122.891	-0.187	-0.030
-203.377	7.316	0.295	-0.218
-202.363	-63.011	0.302	0.124
-201.348	437.920	0.062	-0.135
-200.333	109.021	-0.124	-0.147
-199.319	-200.000	0.070	0.350
-198.304	82.450	0.254	-0.273
-197.290	-54.723	0.087	-0.039
-196.275	348.950	0.104	0.202
-195.260	-46.493	0.401	0.195
-194.246	-200.000	-0.024	0.248
-193.231	19.824	-0.059	-0.047
-192.217	471.323	0.076	0.169
-191.202	44.499	-0.173	0.157
-190.187	-124.808	-0.211	0.032
-189.173	167.866	0.080	-0.113
-188.158	8.044	0.175	-0.130
-187.144	800.000	0.019	-0.080
-186.129	800.000	0.085	0.267
-185.114	493.687	-0.096	0.217
-184.100	1.551	-0.181	-0.129
-183.085	170.261	-0.156	-0.221
-182.071	-191.075	-0.111	0.001
-181.056	-105.073	-0.046	-0.010
-180.042	-200.000	-0.056	0.349
-179.027	45.552	0.190	0.173
-178.012	-134.982	-0.172	0.021
-176.998	674.299	0.114	-0.293
-175.983	-116.649	0.183	0.033
-174.969	-156.711	0.285	-0.017
-173.954	66.269	-0.110	0.111
-172.939	-200.000	-0.032	-0.313
-171.925	-93.593	0.319	0.087
-170.910	-138.975	-0.139	0.015
-169.896	-200.000	0.002	-0.146
-168.881	-165.754	0.471	-0.020
-167.866	208.999	-0.118	-0.183
-166.852	510.149	-0.130	0.298
-165.837	279.744	0.076	-0.134
-164.823	-200.000	-0.054	-0.237
-163.808	-15.112	-0.272	-0.172
-162.793	-58.669	0.295	-0.126
-161.779	408.217	0.184	-0.385
-160.764	-27.608	0.266	-0.152
-159.750	800.000	0.045	0.127
-158.735	-10.173	0.189	0.124
-157.720	-0.098	-0.128	-0.090
-156.706	-4.145	0.217	0.149
-155.691	-90.301	0.341	-0.098
-154.677	-117.080	0.143	0.026
-153.662	-200.000	0.027	0.149
-152.647	180.404	0.063	-0.091
-151.633	347.655	0.076	-0.147
-150.618	39.980	-0.053	0.047
-149.604	149.497	0.272	0.364
-148.589	800.000	-0.114	0.403
-147.574	-49.433	-0.072	0.034
-146.560	-15.324	0.367	-0.232
-145.545	-200.000	0.020	-0.151
-144.531	-200.000	-0.003	-0.326
-143.516	110.536	-0.031	-0.037
-142.502	-132.815	0.174	-0.022
-141.487	-150.319	0.199	-0.015
-140.472	-104.152	-0.190	-0.044
-139.458	-200.000	0.038	0.374
-138.443	-96.239	-0.046	0.012
-137.429	-22.845	0.105	-0.063
-136.414	-200.000	0.039	-0.173
-135.399	120.847	-0.256	0.315
-134.385	27.330	0.047	0.039
-133.370	-77.210	0.067	-0.023
-132.356	29.012	-0.028	0.023
-131.341	-20.082	0.253	-0.154
-130.326	90.274	0.105	-0.116
-129.312	237.614	-0.220	0.360
-128.297	-109.940	0.619	0.128
-127.283	409.429	-0.121	0.253
-126.268	-16.407	-0.414	-0.259
-125.253	87.976	0.105	0.115
-124.239	800.000	0.064	0.201
-123.224	489.696	-0.119	0.269
