DTS Sentinel unit serial number:	SN413079Multiplexer serial number:	ORYXHardware model number:	OX4-SRSoftware version number:	ORYX F/W v4.00 Oryx Data Collector v3.7.2.0data status	okinstallation	princeton_trtdifferential loss correction	single-endedforward channel	channel 2reverse channel	N/Adate	2019/09/12time	19:34:48forward acquisition time	15.00reverse acquisition time	0.00gamma	496.2192k internal	0.2327k external	0.2327temperature offset calibration	1.0151default loss term (dB/km)	0.3790temperature slope calibration	1.0000multiplexer offset coefficient	1.0000multiplexer slope coefficient	1.0000fibre end	0.00T internal ref (°C)	32.19T ext. ref 1 (°C)	3.35T ext. ref 2 (°C)	26.71length (m)	temperature (°C)	Stokes	anti-Stokes-747.200	559.139	0.079	-0.192
-746.185	47.368	-0.744	0.699
-745.171	53.807	0.265	-0.257
-744.156	800.000	-0.137	-0.500
-743.142	-151.505	-0.629	0.047
-742.127	-79.242	-0.436	0.149
-741.112	-151.807	0.521	0.039
-740.098	-177.451	-0.284	-0.007
-739.083	-52.569	0.713	0.332
-738.069	-200.000	-0.043	0.362
-737.054	134.712	0.112	-0.146
-736.039	800.000	-0.353	-1.192
-735.025	162.677	0.400	-0.566
-734.010	-66.886	0.133	0.053
-732.996	21.952	0.317	0.261
-731.981	121.479	-0.352	-0.442
-730.966	-200.000	-0.054	-0.315
-729.952	114.319	-0.164	-0.201
-728.937	-72.347	-0.148	0.055
-727.923	-6.241	0.158	-0.109
-726.908	677.258	-0.232	0.608
-725.894	-126.956	0.266	0.039
-724.879	287.968	-0.344	-0.627
-723.864	-113.353	-0.106	0.021
-722.850	285.191	-0.077	0.140
-721.835	86.866	-0.442	-0.492
-720.821	-120.638	0.428	-0.073
-719.806	705.638	-0.425	-1.131
-718.791	302.012	0.174	-0.324
-717.777	696.231	0.189	0.500
-716.762	-84.547	-0.506	0.161
-715.748	99.307	0.569	0.663
-714.733	-128.015	-0.396	0.057
-713.718	-200.000	0.031	-0.463
-712.704	-112.083	-0.614	-0.124
-711.689	-182.293	-0.240	-0.005
-710.675	-5.842	0.281	-0.193
-709.660	-103.852	-0.190	-0.045
-708.645	-21.106	-0.909	0.560
-707.631	87.994	0.393	-0.439
-706.616	696.825	0.190	-0.503
-705.602	-50.821	-0.868	-0.411
-704.587	-19.036	-0.613	-0.384
-703.572	800.000	0.435	-1.210
-702.558	152.685	-0.221	-0.304
-701.543	131.073	0.241	-0.312
-700.529	-98.521	-0.260	0.067
-699.514	-132.074	-0.591	-0.077
-698.499	-200.000	-0.010	-0.428
-697.485	-200.000	0.013	-0.268
-696.470	765.364	-0.289	-0.791
-695.456	12.682	-0.132	0.103
-694.441	503.405	0.199	-0.463
-693.426	-200.000	0.110	-0.540
-692.412	82.129	-0.943	-1.028
-691.397	759.195	-0.169	-0.460
-690.383	20.961	0.794	0.648
-689.368	202.618	0.301	0.468
-688.354	-200.000	-0.091	0.606
-687.339	800.000	0.127	0.416
-686.324	-142.439	-0.657	-0.065
-685.310	-60.042	-0.460	-0.198
-684.295	-56.109	0.269	-0.121
-683.281	-3.277	0.434	0.304
-682.266	-200.000	-0.045	0.314
-681.251	-20.972	-0.790	0.486
-680.237	-35.422	-0.430	-0.235
-679.222	443.904	0.310	0.684
-678.208	-23.042	-0.656	0.398
-677.193	-151.453	0.146	0.011
-676.178	-55.012	-0.126	-0.057
-675.164	-46.622	0.166	0.082
-674.149	-120.652	-0.503	0.086
-673.135	800.000	-0.125	-0.359
-672.120	155.322	0.189	0.261
-671.105	-136.753	-0.681	-0.079
-670.091	-200.000	0.081	-0.517
-669.076	375.018	0.065	0.134
-668.062	-200.000	0.080	-0.543
-667.047	253.939	0.108	0.186
-666.032	103.234	0.456	-0.538
-665.018	223.302	0.302	-0.489
-664.003	38.410	0.520	-0.466
-662.989	-5.977	0.392	0.270
-661.974	437.337	-0.318	-0.696
-660.959	-132.479	0.250	0.032
-659.945	108.194	0.344	0.412
-658.930	-59.319	0.643	-0.278
-657.916	-10.746	-0.705	-0.468
-656.901	129.043	-0.268	0.343
-655.886	-163.207	0.558	0.027
-654.872	-25.478	0.483	0.287
-653.857	-200.000	0.026	-0.437
-652.843	332.651	-0.183	0.356
-651.828	313.841	0.416	-0.786
-650.814	-105.046	0.496	0.114
-649.799	400.406	0.156	-0.330
-648.784	112.450	-0.350	-0.426
-647.770	2.752	-0.639	-0.465
-646.755	-131.175	0.862	0.115
-645.741	-135.010	0.195	-0.024
-644.726	-200.000	0.105	-0.478
-643.711	312.369	-0.301	0.569
-642.697	104.629	0.532	0.629
-641.682	-27.239	0.630	0.368
-640.668	800.000	0.240	-0.835
-639.653	-97.865	0.305	-0.079
-638.638	179.209	-0.092	-0.135
-637.624	17.140	-0.573	-0.456
-636.609	-86.579	0.331	0.102
-635.595	80.762	0.947	1.025
-634.580	-142.055	-0.629	-0.063
-633.565	-200.000	-0.032	0.826
-632.551	800.000	-0.099	0.419
-631.536	-60.765	0.500	0.213
-630.522	-142.854	0.628	-0.061
-629.507	376.243	0.278	0.570
-628.492	-26.488	-0.183	-0.108
-627.478	-200.000	0.003	0.086
-626.463	-200.000	0.070	0.576
-625.449	391.452	-0.151	0.316
-624.434	-65.774	-0.486	-0.195
-623.419	-43.360	-0.580	-0.294
-622.405	24.138	0.216	0.179
-621.390	436.066	-0.234	-0.512
-620.376	340.919	-0.161	0.316
-619.361	800.000	-0.129	-0.430
-618.346	-96.257	0.831	-0.221
-617.332	12.487	0.658	0.509
-616.317	800.000	-0.136	-0.461
-615.303	-200.000	0.089	-0.409
-614.288	-37.239	0.712	0.382
-613.273	64.159	0.543	-0.548
-612.259	800.000	0.088	0.253
-611.244	-200.000	-0.098	0.471
-610.230	800.000	0.275	-0.899
-609.215	-151.312	0.661	-0.050
-608.201	-10.122	0.405	0.269
-607.186	207.898	0.129	0.202
-606.171	-152.728	0.305	-0.022
-605.157	-200.000	-0.049	0.289
-604.142	96.382	0.088	0.101
-603.128	75.181	-0.542	-0.573
-602.113	57.391	0.498	0.488
-601.098	-50.513	0.553	-0.261
-600.084	102.762	0.353	-0.415
-599.069	-101.966	0.490	-0.119
-598.055	235.901	0.309	-0.512
-597.040	-24.207	-0.389	0.233
-596.025	113.741	0.612	0.746
-595.011	53.915	0.581	-0.560
-593.996	-179.607	0.337	0.007
-592.982	-87.843	-0.661	-0.200
-591.967	-200.000	-0.118	-0.764
-590.952	594.512	-0.233	-0.578
-589.938	-35.844	0.574	-0.311
-588.923	800.000	-0.061	0.223
-587.909	337.414	-0.159	0.310
-586.894	800.000	0.241	0.936
-585.879	800.000	0.073	-0.230
-584.865	-76.547	0.679	-0.239
-583.850	254.187	-0.039	-0.068
-582.836	-200.000	-0.079	1.312
-581.821	-110.190	-0.955	-0.200
-580.806	-200.000	-0.016	-0.239
-579.792	-200.000	0.080	-0.680
-578.777	-171.502	-0.587	-0.020
-577.763	-200.000	0.102	-0.900
-576.748	567.865	0.231	0.563
-575.733	-137.127	0.323	-0.037
-574.719	340.700	-0.059	-0.116
-573.704	284.835	0.182	-0.329
-572.690	-65.859	0.258	-0.104
-571.675	5.123	-0.450	0.332
-570.661	370.488	-0.400	-0.813
-569.646	-93.927	0.714	-0.197
-568.631	-200.000	-0.111	0.569
-567.617	649.285	-0.122	-0.313
-566.602	28.150	-0.254	-0.214
-565.588	87.118	0.402	-0.445
-564.573	-200.000	-0.121	-0.643
-563.558	-72.710	-0.235	-0.087
-562.544	-132.378	-0.649	0.084
-561.529	129.111	0.487	-0.622
-560.515	-91.390	0.121	-0.035
-559.500	-200.000	-0.037	-0.180
-558.485	800.000	-0.025	0.103
-557.471	-117.185	-0.521	0.095
-556.456	-91.103	0.343	-0.099
-555.442	-93.131	-0.377	-0.105
-554.427	158.929	-0.235	-0.327
-553.412	85.604	-0.280	-0.308
-552.398	-189.515	0.292	-0.003
-551.383	46.636	0.067	-0.063
-550.369	-146.079	-0.334	-0.030
-549.354	-2.545	-0.748	0.524
-548.339	383.942	-0.157	0.323
-547.325	130.911	-0.213	0.273
-546.310	-5.624	0.513	0.352
-545.296	-200.000	-0.116	-0.616
-544.281	-98.895	-0.468	0.119
-543.266	-105.608	-0.713	-0.162
-542.252	-122.131	-0.392	-0.064
-541.237	200.972	-0.169	0.260
-540.223	42.939	0.612	0.558
-539.208	-80.744	-0.349	-0.116
-538.193	-39.287	0.009	-0.005
-537.179	-100.334	-0.808	0.201
-536.164	622.720	-0.086	0.218
-535.150	800.000	-0.173	0.542
-534.135	-6.607	0.340	-0.232
-533.121	65.955	0.050	-0.051
-532.106	-47.430	0.270	0.131
-531.091	291.838	0.292	0.531
-530.077	45.769	-0.438	-0.405
-529.062	-170.967	-0.358	0.012
-528.048	-25.784	-0.356	0.210
-527.033	-57.810	0.713	-0.312
-526.018	-45.815	-0.282	-0.139
-525.004	179.471	-0.287	0.420
-523.989	27.661	0.140	0.118
-522.975	461.291	0.156	0.347
-521.960	154.546	-0.213	-0.293
-520.945	-200.000	-0.081	0.577
-519.931	-62.546	-0.496	0.206
-518.916	-157.619	-0.526	-0.031
-517.902	-200.000	-0.079	-0.867
-516.887	118.728	0.117	0.144
-515.872	417.839	-0.195	0.416
-514.858	26.292	0.233	0.194
-513.843	-98.831	-0.053	-0.013
-512.829	249.192	-0.530	-0.898
-511.814	169.705	0.104	0.148
-510.799	-200.000	0.044	0.296
-509.785	-200.000	0.020	-0.212
-508.770	-200.000	-0.112	-0.504
-507.756	-6.968	0.611	-0.415
-506.741	-15.555	0.216	0.138
-505.726	-58.526	-0.601	-0.261
-504.712	407.469	-0.407	0.860
-503.697	-85.472	-0.917	0.285
-502.683	22.177	-0.891	-0.726
-501.668	-194.739	0.846	0.007
-500.653	489.434	0.520	1.187
-499.639	108.827	0.354	0.423
-498.624	-200.000	-0.070	0.680
-497.610	-93.369	0.466	-0.129
-496.595	-200.000	-0.025	-0.132
-495.581	-35.677	-0.083	0.045
-494.566	48.561	0.131	-0.122
-493.551	-200.000	0.140	-0.616
-492.537	782.851	-0.437	-1.194
-491.522	270.694	0.384	0.674
-490.508	161.856	-0.258	0.361
-489.493	-69.614	0.513	0.196
-488.478	-200.000	0.095	-0.674
-487.464	172.843	0.396	0.570
-486.449	350.732	0.275	0.543
-485.435	-200.000	-0.035	0.760
-484.420	-57.461	-0.388	-0.170
-483.405	331.352	0.332	0.638
-482.391	-49.633	0.457	0.217
-481.376	-130.765	0.900	0.121
-480.362	-180.848	-0.548	-0.011
-479.347	-138.230	0.340	0.038
-478.332	44.424	-0.368	0.337
-477.318	4.371	0.533	-0.390
-476.303	-161.266	0.600	-0.031
-475.289	139.301	-0.397	-0.521
-474.274	-144.114	-0.467	-0.044
-473.259	73.433	-0.126	0.131
-472.245	-200.000	-0.132	-0.587
-471.230	627.463	0.145	-0.366
-470.216	765.924	0.310	0.841
-469.201	3.957	0.294	-0.215
-468.186	800.000	-0.053	0.215
-467.172	-24.580	0.643	-0.382
-466.157	-52.026	-0.293	-0.136
-465.143	284.664	-0.095	0.171
-464.128	-200.000	0.030	0.370
-463.113	50.302	-0.831	0.783
-462.099	-165.787	0.608	0.026
-461.084	-13.653	0.210	-0.135
-460.070	-200.000	-0.023	0.290
-459.055	-114.468	0.312	0.060
-458.040	-22.185	0.196	0.118
-457.026	-200.000	0.207	-0.910
-456.011	-123.650	-0.774	-0.122
-454.997	-63.674	-0.400	0.164
-453.982	-200.000	0.038	0.235
-452.968	122.473	0.576	0.718
-451.953	-3.695	-0.297	-0.206
-450.938	370.749	-0.052	-0.106
-449.924	-200.000	0.045	0.519
-448.909	411.427	-0.169	-0.358
-447.895	245.061	0.553	-0.927
-446.880	-200.000	-0.024	0.245
-445.865	9.557	0.160	0.121
-444.851	-4.781	-0.328	-0.225
-443.836	-133.797	-0.689	-0.086
-442.822	-200.000	-0.046	-0.697
-441.807	-89.871	-0.546	0.159
-440.792	73.350	0.259	0.270
-439.778	-153.712	0.125	-0.009
-438.763	36.051	0.556	0.487
-437.749	-16.761	-0.470	-0.296
-436.734	126.248	0.439	0.553
-435.719	128.671	-0.177	-0.224
-434.705	-135.852	-0.606	0.071
-433.690	760.754	-0.073	0.198
-432.676	27.324	0.391	0.327
-431.661	-100.505	-0.050	0.012
-430.646	800.000	-0.245	0.764
-429.632	-53.634	0.090	0.041
-428.617	10.526	0.380	-0.289
-427.603	4.133	0.794	-0.579
-426.588	704.841	-0.231	-0.606
-425.573	-36.440	-0.497	0.266
-424.559	121.370	0.104	0.129
-423.544	-200.000	0.015	0.789
-422.530	-44.417	-0.532	0.265
-421.515	-4.616	-0.363	-0.249
-420.500	428.439	0.280	-0.601
-419.486	5.814	0.640	0.472
-418.471	349.979	-0.104	-0.204
-417.457	-155.757	0.952	-0.061
-416.442	-48.105	-0.313	-0.150
-415.428	134.511	0.381	-0.492
-414.413	-200.000	0.114	0.618
-413.398	452.448	-0.415	-0.913
-412.384	-129.899	-0.745	-0.102
-411.369	-200.000	-0.100	0.576
-410.355	-61.311	-0.741	-0.310
-409.340	84.290	-0.554	0.603
-408.325	-151.320	0.607	0.045
-407.311	-11.159	-0.660	0.433
-406.296	19.963	0.755	0.606
-405.282	-74.841	0.518	-0.185
-404.267	43.268	-0.263	-0.239
-403.252	-161.208	-0.295	-0.015
-402.238	68.381	-1.127	-1.149
-401.223	611.796	-0.204	0.508
-400.209	20.129	-0.116	-0.093
-399.194	276.763	-0.367	0.649
-398.179	-145.207	-0.619	0.056
-397.165	162.842	0.740	-1.034
-396.150	52.336	0.902	0.856
-395.136	-125.787	1.493	0.224
-394.121	-200.000	-0.045	-0.313
-393.106	-200.000	-0.069	0.633
-392.092	-59.093	0.572	0.245
-391.077	103.787	-0.312	-0.365
-390.063	150.601	0.286	-0.386
-389.048	-200.000	0.006	-0.303
-388.033	800.000	0.282	-1.153
-387.019	11.205	0.044	-0.034
-386.004	-101.887	0.123	-0.030
-384.990	-141.963	0.368	-0.036
-383.975	337.423	0.137	0.265
-382.960	-200.000	0.010	0.768
-381.946	87.341	0.163	-0.180
-380.931	-200.000	0.028	0.566
-379.917	-0.521	-0.225	0.159
-378.902	474.432	-0.296	0.664
-377.888	38.494	0.471	-0.417
-376.873	-73.028	-0.735	0.268
-375.858	146.598	-0.486	-0.649
-374.844	-0.894	-0.434	-0.306
-373.829	-139.070	0.737	0.079
-372.815	-34.054	-0.636	-0.347
-371.800	-122.547	-0.599	0.097
-370.785	122.810	0.183	-0.228
-369.771	800.000	-0.102	0.288
-368.756	186.217	-0.551	-0.814
-367.742	-83.029	0.596	-0.191
-366.727	-200.000	0.010	0.386
-365.712	-200.000	-0.024	0.342
-364.698	36.664	-0.269	-0.236
-363.683	-91.075	-0.621	0.177
-362.669	800.000	0.093	0.328
-361.654	184.244	0.301	0.443
-360.639	-78.764	-0.272	-0.092
-359.625	-82.739	-0.417	-0.134
-358.610	643.373	0.267	-0.677
-357.596	58.616	0.358	-0.349
-356.581	-43.338	0.477	-0.240
-355.566	168.777	-0.227	0.321
-354.552	399.463	0.216	-0.450
-353.537	67.430	-0.484	0.490
-352.523	-157.406	0.474	-0.028
-351.508	-200.000	0.103	-0.627
-350.493	110.233	-0.385	-0.459
-349.479	101.458	-0.031	0.036
-348.464	66.209	-0.102	-0.103
-347.450	-200.000	-0.101	-0.484
-346.435	120.704	-0.257	-0.317
-345.420	-5.479	-0.127	-0.086
-344.406	55.445	-0.206	0.198
-343.391	-131.932	-0.477	0.062
-342.377	-117.248	-0.815	-0.147
-341.362	-52.252	-0.489	-0.225
-340.348	364.367	0.174	-0.347
-339.333	-67.619	-0.209	-0.081
-338.318	-24.742	-0.414	0.244
-337.304	64.667	0.184	0.185
-336.289	217.149	0.381	0.601
-335.275	-200.000	0.051	-0.367
-334.260	800.000	0.050	-0.194
-333.245	800.000	0.251	-0.962
-332.231	40.803	-0.269	0.241
-331.216	800.000	-0.087	-0.307
-330.202	-138.822	0.699	0.076
-329.187	101.370	0.081	-0.093
-328.172	-113.069	0.757	-0.148
-327.158	-12.946	0.131	-0.085
-326.143	-200.000	0.035	0.504
-325.129	800.000	0.301	0.959
-324.114	800.000	-0.019	-0.084
-323.099	-58.093	0.807	0.349
-322.085	10.687	0.154	0.117
-321.070	76.768	0.083	0.087
-320.056	-59.333	-0.514	-0.220
-319.041	322.326	-0.339	0.641
-318.026	800.000	-0.084	0.243
-317.012	128.217	-0.118	-0.148
-315.997	27.066	0.693	-0.576
-314.983	336.460	-0.343	-0.660
-313.968	407.180	0.024	-0.051
-312.953	183.736	0.406	-0.596
-311.939	-5.552	-0.191	0.130
-310.924	37.120	-0.521	-0.457
-309.910	-200.000	0.096	-0.437
-308.895	548.572	0.438	-1.039
-307.880	362.452	-0.096	-0.191
-306.866	-200.000	-0.007	1.083
-305.851	718.883	-0.190	0.500
-304.837	-10.172	0.286	0.188
-303.822	800.000	-0.182	-0.536
-302.807	-50.849	0.391	-0.182
-301.793	64.277	-0.737	0.735
-300.778	800.000	-0.176	-0.511
-299.764	-200.000	-0.003	-0.458
-298.749	800.000	0.141	-0.529
-297.735	-94.469	0.078	0.021
-296.720	-142.670	0.118	0.011
-295.705	387.555	0.077	-0.158
-294.691	-200.000	0.015	-0.584
-293.676	46.422	0.320	0.294
-292.662	-81.611	-0.453	0.147
-291.647	-200.000	0.005	0.357
-290.632	216.589	-0.634	-0.999
-289.618	101.464	-0.284	-0.328
-288.603	-200.000	0.101	-0.535
-287.589	258.892	0.381	0.651
-286.574	-71.466	-0.541	0.200
-285.559	-132.925	0.586	0.074
-284.545	-137.743	-0.960	0.107
-283.530	-101.602	0.190	0.046
-282.516	143.673	0.184	0.243
-281.501	-194.453	-0.513	-0.004
-280.486	-110.327	-0.279	-0.057
-279.472	-200.000	-0.023	0.655
-278.457	-71.199	-0.337	-0.125
-277.443	720.331	0.073	0.192
-276.428	-200.000	0.002	0.321
-275.413	-69.121	-0.620	0.236
-274.399	10.584	-0.352	0.266
-273.384	38.835	-0.198	-0.175
-272.370	800.000	0.122	-0.340
-271.355	262.222	0.208	0.357
-270.340	411.545	-0.159	-0.333
-269.326	63.825	-0.255	0.253
-268.311	-24.359	0.587	-0.346
-267.297	212.758	0.216	0.338
-266.282	148.687	-0.434	-0.580
-265.267	157.293	0.393	0.537
-264.253	-83.297	0.463	-0.147
-263.238	-200.000	-0.040	-0.748
-262.224	-200.000	-0.038	0.792
-261.209	301.284	0.227	0.416
-260.195	78.900	0.405	0.429
-259.180	5.197	-0.674	-0.491
-258.165	-120.476	-0.310	0.052
-257.151	-200.000	-0.003	-0.339
-256.136	-2.219	-0.844	-0.586
-255.122	-63.933	-0.211	-0.085
-254.107	104.911	-0.086	-0.100
-253.092	61.724	-0.243	-0.239
-252.078	780.103	-0.346	0.935
-251.063	9.535	0.656	0.491
-250.049	456.020	0.137	-0.301
-249.034	-200.000	0.010	-0.489
-248.019	-119.190	-0.242	-0.042
-247.005	800.000	0.121	-0.366
-245.990	46.357	0.365	-0.335
-244.976	350.467	-0.483	-0.944
-243.961	642.094	0.225	0.567
-242.946	-200.000	-0.028	-0.330
-241.932	120.265	0.340	-0.417
-240.917	-134.860	0.253	0.030
-239.903	158.478	0.370	0.508
-238.888	-200.000	0.072	-0.323
-237.873	-92.386	-0.437	0.122
-236.859	338.925	0.063	0.122
-235.844	625.637	-0.231	0.576
-234.830	-31.230	-0.302	0.168
-233.815	-200.000	0.162	-0.825
-232.800	139.623	0.341	-0.444
-231.786	-158.095	-0.988	-0.057
-230.771	706.412	0.307	0.800
-229.757	-200.000	0.207	1.086
-228.742	-200.000	-0.007	-0.335
-227.727	-103.702	-0.779	-0.180
-226.713	-46.172	-0.491	0.239
-225.698	-200.000	-0.030	-0.142
-224.684	-5.705	-0.778	0.527
-223.669	66.401	-0.241	0.242
-222.655	-200.000	-0.134	0.746
-221.640	-200.000	-0.000	0.363
-220.625	57.096	0.175	-0.169
-219.611	-168.059	-0.923	-0.036
-218.596	-53.834	-0.344	-0.155
-217.582	-55.177	0.225	-0.100
-216.567	-55.725	-0.596	0.263
-215.552	-82.359	-0.634	-0.204
-214.538	106.390	0.280	-0.328
-213.523	241.911	-0.187	0.309
-212.509	31.652	0.600	-0.509
-211.494	800.000	0.084	0.306
-210.479	723.540	0.219	-0.575
-209.465	117.692	-0.324	0.394
-208.450	-86.435	0.470	-0.142
-207.436	-96.171	0.613	0.161
-206.421	-99.257	0.318	-0.079
-205.406	9.008	-0.388	-0.289
-204.392	-99.607	-0.922	-0.229
-203.377	-52.562	-0.334	-0.152
-202.363	204.596	0.550	0.842
-201.348	-200.000	0.006	1.183
-200.333	-200.000	-0.063	0.307
-199.319	320.013	-0.380	-0.713
-198.304	353.892	-0.276	-0.540
-197.290	-180.723	-0.491	0.010
-196.275	-200.000	-0.065	0.439
-195.260	145.952	0.319	-0.422
-194.246	10.175	0.266	0.200
-193.231	-200.000	0.002	-0.125
-192.217	-200.000	-0.098	0.956
-191.202	-108.825	-1.187	0.251
-190.187	800.000	-0.164	-0.602
-189.173	-21.848	0.568	0.341
-188.158	-22.855	0.354	0.211
-187.144	145.757	0.272	-0.360
-186.129	-79.266	-0.330	0.110
-185.114	53.859	0.380	0.360
-184.100	23.500	0.272	0.221
-183.085	58.212	-0.416	-0.402
-182.071	-73.927	0.428	-0.153
-181.056	237.551	0.487	0.797
-180.042	800.000	-0.111	-0.310
-179.027	-200.000	0.076	-0.541
-178.012	20.543	-0.530	0.422
-176.998	4.629	0.795	-0.576
-175.983	-200.000	0.076	1.113
-174.969	30.652	-0.156	0.132
-173.954	-94.846	0.327	-0.087
-172.939	-200.000	0.022	0.267
-171.925	-16.746	0.668	-0.417
-170.910	97.756	-0.374	0.424
-169.896	-146.669	-0.389	-0.033
-168.881	-200.000	0.083	-0.967
-167.866	-200.000	0.049	-0.227
-166.852	-200.000	-0.084	0.863
-165.837	409.023	0.345	-0.720
-164.823	378.299	0.306	0.618
-163.808	-200.000	-0.124	0.628
-162.793	27.044	-0.264	0.218
-161.779	-200.000	0.066	0.307
-160.764	-85.712	0.784	-0.240
-159.750	307.181	0.607	-1.114
-158.735	51.993	0.765	-0.719
-157.720	71.269	0.441	-0.451
-156.706	152.517	0.425	0.572
-155.691	-99.220	0.373	0.093
-154.677	50.881	0.283	0.265
-153.662	-200.000	0.041	0.212
-152.647	147.431	-0.235	0.312
-151.633	800.000	-0.283	0.939
-150.618	39.697	-0.322	0.285
-149.604	-200.000	0.029	-0.262
-148.589	-200.000	-0.037	-0.516
-147.574	-148.006	0.535	0.044
-146.560	-103.469	-0.614	-0.142
-145.545	-200.000	0.037	0.425
-144.531	397.507	0.059	0.122
-143.516	800.000	0.272	0.880
-142.502	800.000	-0.051	-0.163
-141.487	80.625	-0.312	0.332
-140.472	-127.854	-0.649	-0.092
-139.458	-68.722	-0.015	-0.006
-138.443	-70.608	-0.762	0.284
-137.429	800.000	0.157	-0.526
-136.414	-200.000	0.180	-0.798
-135.399	271.259	0.407	0.707
-134.385	436.137	0.050	-0.108
-133.370	111.142	-0.364	0.432
-132.356	58.299	0.208	-0.201
-131.341	-200.000	0.039	0.733
-130.326	-103.345	-0.752	-0.174
-129.312	-23.177	-0.514	-0.304
-128.297	-119.570	-0.798	0.136
-127.283	232.672	0.346	0.560
-126.268	-13.024	0.508	0.325
-125.253	800.000	-0.145	-0.433
-124.239	166.336	0.395	0.550
-123.224	166.031	0.178	0.247
-122.210	-47.864	0.401	0.191
-121.195	-53.179	-0.174	0.079
