DTS Sentinel unit serial number:	SN413079Multiplexer serial number:	ORYXHardware model number:	OX4-SRSoftware version number:	ORYX F/W v4.00 Oryx Data Collector v3.7.2.0data status	okinstallation	princeton_trtdifferential loss correction	single-endedforward channel	channel 2reverse channel	N/Adate	2019/09/15time	10:43:35forward acquisition time	60.00reverse acquisition time	0.00gamma	496.2192k internal	0.2316k external	0.2316temperature offset calibration	1.0015default loss term (dB/km)	0.3790temperature slope calibration	1.0000multiplexer offset coefficient	1.0000multiplexer slope coefficient	1.0000fibre end	0.00T internal ref (°C)	34.25T ext. ref 1 (°C)	5.02T ext. ref 2 (°C)	29.52length (m)	temperature (°C)	Stokes	anti-Stokes-747.200	-47.811	-0.215	0.105
-746.185	184.439	-0.229	0.343
-745.171	-12.283	-0.104	0.069
-744.156	425.926	0.157	-0.343
-743.142	13.668	-0.044	0.035
-742.127	-37.275	0.417	-0.226
-741.112	-63.724	0.298	-0.124
-740.098	-135.202	-0.327	-0.040
-739.083	291.146	0.084	-0.154
-738.069	-58.224	-0.175	0.077
-737.054	82.447	0.201	-0.221
-736.039	81.102	-0.080	-0.087
-735.025	-200.000	-0.051	0.265
-734.010	-178.810	0.341	-0.008
-732.996	-13.831	-0.069	0.045
-731.981	-44.822	0.057	-0.029
-730.966	213.936	0.066	0.105
-729.952	694.063	0.069	-0.182
-728.937	239.508	-0.190	-0.321
-727.923	-200.000	-0.042	-0.310
-726.908	-83.520	0.130	-0.042
-725.894	237.711	-0.115	-0.193
-724.879	800.000	-0.065	-0.285
-723.864	1.164	-0.191	0.139
-722.850	-200.000	-0.007	-0.064
-721.835	48.459	-0.291	0.276
-720.821	162.974	0.105	-0.149
-719.806	-65.347	0.118	0.048
-718.791	800.000	0.107	-0.348
-717.777	282.653	-0.107	0.194
-716.762	-200.000	-0.019	0.203
-715.748	-200.000	-0.057	-0.433
-714.733	-103.120	-0.107	-0.026
-713.718	123.990	-0.100	-0.127
-712.704	-143.603	-0.526	0.051
-711.689	800.000	0.041	0.165
-710.675	-189.503	-0.114	0.001
-709.660	81.606	0.217	-0.237
-708.645	73.478	-0.117	0.124
-707.631	-179.488	-0.134	0.003
-706.616	24.243	-0.257	-0.215
-705.602	121.370	0.066	0.083
-704.587	87.197	0.076	-0.085
-703.572	180.773	-0.219	0.325
-702.558	-70.978	-0.256	0.097
-701.543	-40.215	-0.062	0.033
-700.529	-80.962	-0.099	0.033
-699.514	1.026	-0.217	0.157
-698.499	-21.508	-0.145	-0.090
-697.485	-16.903	0.085	0.054
-696.470	51.816	-0.072	0.070
-695.456	71.292	0.075	0.079
-694.441	-108.346	0.094	-0.020
-693.426	39.530	-0.262	0.238
-692.412	194.193	-0.048	-0.074
-691.397	52.601	-0.137	-0.132
-690.383	800.000	0.116	-0.356
-689.368	429.809	0.035	0.076
-688.354	67.174	0.196	-0.202
-687.339	238.514	-0.095	-0.160
-686.324	69.836	0.089	0.093
-685.310	-64.837	-0.192	0.079
-684.295	618.190	-0.067	-0.170
-683.281	-104.782	0.321	-0.075
-682.266	72.255	-0.202	0.213
-681.251	212.554	-0.035	-0.056
-680.237	-200.000	-0.011	0.094
-679.222	-47.541	-0.404	-0.198
-678.208	800.000	0.087	-0.243
-677.193	753.520	-0.065	0.178
-676.178	-14.775	0.169	-0.109
-675.164	-200.000	-0.009	0.102
-674.149	511.954	-0.121	-0.284
-673.135	217.322	0.133	-0.213
-672.120	-200.000	-0.007	-0.248
-671.105	-92.577	-0.410	0.116
-670.091	309.185	-0.033	-0.062
-669.076	-200.000	0.014	-0.069
-668.062	213.689	0.219	-0.350
-667.047	223.668	0.052	0.084
-666.032	316.934	0.061	-0.116
-665.018	452.538	-0.017	-0.039
-664.003	-178.730	-0.019	0.000
-662.989	-71.884	-0.245	0.092
-661.974	-139.456	0.375	0.041
-660.959	23.253	-0.240	-0.199
-659.945	58.313	0.099	-0.098
-658.930	-200.000	0.020	-0.220
-657.916	208.099	-0.175	-0.276
-656.901	348.928	-0.049	0.098
-655.886	270.048	0.042	-0.075
-654.872	383.304	-0.138	-0.286
-653.857	-94.936	0.114	0.031
-652.843	-30.949	0.032	0.018
-651.828	511.664	-0.112	0.264
-650.814	-66.118	0.138	-0.056
-649.799	120.884	0.231	0.289
-648.784	133.861	-0.210	-0.274
-647.770	173.583	-0.031	0.045
-646.755	36.128	-0.232	-0.206
-645.741	-100.892	0.163	-0.040
-644.726	-1.833	-0.064	0.046
-643.711	12.456	-0.443	0.345
-642.697	-130.454	-0.373	0.051
-641.682	-70.608	0.077	-0.030
-640.668	-62.713	-0.048	0.020
-639.653	382.636	0.038	-0.078
-638.638	-120.010	-0.256	0.044
-637.624	-142.555	-0.072	-0.007
-636.609	-19.469	-0.032	0.020
-635.595	607.264	-0.067	-0.169
-634.580	-124.377	-0.347	0.055
-633.565	-101.166	0.099	-0.025
-632.551	-200.000	-0.019	0.301
-631.536	-200.000	-0.003	-0.202
-630.522	753.662	0.056	-0.151
-629.507	192.900	-0.037	0.056
-628.492	-61.192	-0.158	-0.067
-627.478	-200.000	-0.006	-0.203
-626.463	40.101	0.215	-0.194
-625.449	-200.000	-0.016	-0.091
-624.434	-200.000	0.054	-0.276
-623.419	-54.539	0.284	0.130
-622.405	-155.714	0.058	-0.004
-621.390	800.000	-0.024	0.078
-620.376	-200.000	0.027	-0.184
-619.361	-57.456	-0.085	-0.037
-618.346	35.751	0.341	-0.302
-617.332	-52.889	0.211	0.098
-616.317	-200.000	-0.050	-0.365
-615.303	79.597	0.240	-0.260
-614.288	174.541	0.056	-0.081
-613.273	-200.000	-0.009	0.117
-612.259	-200.000	0.031	-0.185
-611.244	368.918	0.026	-0.053
-610.230	-200.000	-0.027	0.202
-609.215	129.224	-0.191	0.245
-608.201	-84.313	0.169	-0.054
-607.186	422.390	-0.099	-0.215
-606.171	114.785	0.097	-0.120
-605.157	2.159	0.022	-0.016
-604.142	800.000	0.056	-0.188
-603.128	173.337	-0.345	-0.501
-602.113	-121.713	0.187	-0.031
-601.098	29.286	0.218	0.186
-600.084	-200.000	0.045	0.363
-599.069	-102.519	-0.218	0.052
-598.055	44.264	0.189	-0.175
-597.040	800.000	-0.059	0.206
-596.025	72.946	0.062	0.065
-595.011	800.000	0.077	-0.272
-593.996	291.446	-0.117	0.214
-592.982	-66.414	0.250	0.100
-591.967	800.000	0.043	0.182
-590.952	-148.374	-0.639	0.053
-589.938	-62.169	-0.498	-0.209
-588.923	-33.378	0.070	-0.039
-587.909	4.104	-0.343	-0.253
-586.894	187.566	0.149	-0.224
-585.879	-58.056	0.204	-0.090
-584.865	-96.096	0.117	0.031
-583.850	-92.145	-0.253	0.072
-582.836	-62.226	0.073	-0.030
-581.821	-196.115	-0.528	-0.004
-580.806	-200.000	0.039	0.566
-579.792	-12.598	-0.211	-0.139
-578.777	405.019	-0.170	-0.361
-577.763	-22.468	-0.280	0.170
-576.748	-200.000	0.032	-0.371
-575.733	712.551	-0.045	-0.120
-574.719	64.838	0.032	-0.033
-573.704	-41.040	0.324	0.168
-572.690	630.903	0.103	0.263
-571.675	201.324	0.119	-0.185
-570.661	491.342	-0.146	-0.337
-569.646	-20.116	0.049	0.030
-568.631	-18.123	0.182	0.115
-567.617	-55.110	-0.245	0.111
-566.602	0.302	-0.034	0.024
-565.588	-107.804	0.096	-0.021
-564.573	800.000	0.105	0.370
-563.558	292.485	-0.065	0.120
-562.544	800.000	-0.040	0.130
-561.529	-138.737	-0.091	0.010
-560.515	-116.313	-0.238	0.044
-559.500	-93.915	0.156	0.043
-558.485	-120.596	-0.350	-0.060
-557.471	-93.839	-0.068	-0.019
-556.456	800.000	0.033	0.120
-555.442	107.985	-0.050	-0.059
-554.427	-198.030	-0.549	-0.003
-553.412	375.604	-0.134	0.275
-552.398	-88.387	-0.203	0.061
-551.383	-17.108	0.269	-0.170
-550.369	-200.000	0.076	0.000
-549.354	20.096	0.086	0.070
-548.339	638.731	-0.009	-0.024
-547.325	137.389	-0.117	-0.154
-546.310	-80.890	0.183	0.061
-545.296	388.948	-0.187	-0.388
-544.281	800.000	0.063	0.178
-543.266	214.251	-0.047	-0.075
-542.252	-18.205	-0.102	0.064
-541.237	303.149	0.086	0.161
-540.223	26.970	0.177	-0.149
-539.208	-20.052	-0.109	0.067
-538.193	113.264	0.058	-0.071
-537.179	-119.894	-0.134	-0.023
-536.164	-200.000	-0.059	-0.263
-535.150	-200.000	0.092	-0.546
-534.135	-200.000	-0.073	-0.366
-533.121	-200.000	0.019	-0.096
-532.106	-3.947	0.133	-0.092
-531.091	104.577	-0.028	-0.033
-530.077	-200.000	-0.011	0.083
-529.062	-0.264	-0.114	0.081
-528.048	-177.502	-0.375	-0.009
-527.033	108.878	0.170	0.204
-526.018	-194.755	0.322	-0.003
-525.004	-200.000	0.042	0.188
-523.989	-131.584	0.166	-0.022
-522.975	176.440	-0.088	0.129
-521.960	32.649	-0.065	0.056
-520.945	-45.603	-0.346	0.172
-519.931	227.867	-0.038	0.062
-518.916	-50.327	-0.084	-0.040
-517.902	112.108	0.183	-0.222
-516.887	-200.000	-0.005	-0.216
-515.872	188.947	-0.067	-0.100
-514.858	100.222	-0.040	-0.046
-513.843	-200.000	-0.024	0.251
-512.829	800.000	0.062	0.203
-511.814	115.552	0.028	-0.034
-510.799	-2.549	-0.212	-0.149
-509.785	800.000	-0.048	-0.163
-508.770	128.335	0.166	0.212
-507.756	-118.026	-0.055	-0.010
-506.741	-123.681	-0.319	0.051
-505.726	-90.838	0.182	0.053
-504.712	-125.496	-0.222	-0.034
-503.697	-66.301	0.102	0.041
-502.683	-200.000	-0.029	0.143
-501.668	667.981	0.117	0.304
-500.653	-15.883	0.112	0.071
-499.639	-200.000	0.038	0.462
-498.624	-200.000	0.003	0.216
-497.610	481.397	0.119	-0.272
-496.595	-6.555	-0.173	0.118
-495.581	44.882	0.158	0.146
-494.566	-200.000	0.077	0.422
-493.551	-200.000	0.059	0.384
-492.537	75.821	0.017	-0.018
-491.522	-102.435	-0.203	0.049
-490.508	355.992	-0.080	-0.160
-489.493	-58.838	-0.415	0.180
-488.478	800.000	-0.086	0.304
-487.464	800.000	0.042	-0.134
-486.449	-159.107	0.170	0.010
-485.435	-33.072	-0.189	-0.105
-484.420	179.466	-0.070	-0.103
-483.405	800.000	-0.041	0.113
-482.391	147.914	0.232	0.314
-481.376	-79.339	0.291	0.099
-480.362	-2.921	-0.027	0.019
-479.347	-200.000	-0.091	-0.401
-478.332	-88.902	-0.323	-0.096
-477.318	-200.000	0.002	0.012
-476.303	-200.000	0.044	0.207
-475.289	183.453	0.277	-0.411
-474.274	-164.511	0.342	0.016
-473.259	270.505	-0.095	-0.168
-472.245	734.871	-0.094	0.253
-471.230	-163.328	-0.391	0.019
-470.216	-149.259	0.210	0.017
-469.201	-141.218	-0.199	0.020
-468.186	-35.072	0.162	0.088
-467.172	-200.000	-0.051	-0.424
-466.157	800.000	-0.023	0.077
-465.143	58.845	-0.279	-0.275
-464.128	1.648	0.387	-0.280
-463.113	-200.000	0.015	0.086
-462.099	92.241	-0.136	0.154
-461.084	62.126	0.130	0.130
-460.070	-158.637	0.219	0.013
-459.055	178.785	0.054	0.078
-458.040	-200.000	-0.010	0.327
-457.026	-127.792	-0.138	0.020
-456.011	53.728	-0.252	0.242
-454.997	365.507	0.072	-0.146
-453.982	800.000	0.080	-0.305
-452.968	-90.754	0.197	-0.057
-451.953	468.427	-0.117	0.262
-450.938	-109.397	-0.277	-0.059
-449.924	109.756	-0.134	0.161
-448.909	11.469	0.181	0.139
-447.895	-47.437	-0.129	0.063
-446.880	-66.160	0.403	0.161
-445.865	-200.000	-0.032	0.342
-444.851	-86.985	-0.337	0.103
-443.836	-52.837	-0.130	0.060
-442.822	-21.564	0.237	-0.144
-441.807	130.705	-0.167	-0.214
-440.792	52.166	0.359	-0.343
-439.778	500.743	-0.073	-0.169
-438.763	-200.000	0.006	0.080
-437.749	205.048	0.145	0.226
-436.734	-200.000	0.024	0.437
-435.719	-200.000	-0.057	-0.329
-434.705	31.740	0.072	-0.062
-433.690	-84.450	0.275	-0.087
-432.676	-200.000	-0.024	0.160
-431.661	-116.833	0.163	-0.030
-430.646	637.297	-0.051	0.130
-429.632	-38.814	0.479	-0.253
-428.617	23.918	0.200	0.165
-427.603	342.981	0.203	0.397
-426.588	-131.847	-0.050	-0.007
-425.573	800.000	0.105	-0.308
-424.559	-182.851	-0.322	-0.006
-423.544	-24.533	-0.071	0.042
-422.530	60.035	0.202	-0.200
-421.515	-200.000	-0.013	-0.121
-420.500	345.568	-0.051	0.099
-419.486	-95.897	-0.121	0.032
-418.471	-200.000	-0.037	0.182
-417.457	53.100	-0.188	0.180
-416.442	-61.100	0.297	-0.125
-415.428	-49.537	-0.147	-0.070
-414.413	-88.346	-0.190	-0.057
-413.398	-62.474	0.343	0.142
-412.384	-200.000	-0.016	-0.266
-411.369	703.237	0.078	0.206
-410.355	-86.776	0.284	0.087
-409.340	800.000	0.089	-0.259
-408.325	-200.000	0.003	-0.142
-407.311	-200.000	0.108	-0.608
-406.296	427.606	-0.052	-0.112
-405.282	141.629	-0.092	0.122
-404.267	-113.291	0.184	-0.036
-403.252	-108.657	0.265	-0.057
-402.238	-200.000	0.009	0.192
-401.223	204.496	0.041	0.063
-400.209	-133.867	0.178	-0.022
-399.194	638.555	-0.098	-0.249
-398.179	310.320	-0.119	0.223
-397.165	-48.925	0.184	-0.088
-396.150	800.000	-0.086	0.314
-395.136	616.521	0.175	0.438
-394.121	425.826	-0.048	-0.103
-393.106	-109.554	-0.206	0.043
-392.092	800.000	-0.061	-0.188
-391.077	-132.249	0.153	-0.020
-390.063	-25.789	-0.188	0.110
-389.048	44.932	-0.131	-0.121
-388.033	800.000	-0.056	-0.240
-387.019	-130.779	0.280	0.038
-386.004	-42.029	0.087	0.045
-384.990	-96.243	-0.028	0.007
-383.975	124.123	0.333	0.417
-382.960	-200.000	0.028	-0.130
-381.946	360.811	-0.056	-0.113
-380.931	55.017	0.073	-0.070
-379.917	800.000	0.052	0.155
-378.902	247.182	-0.120	0.202
-377.888	48.447	0.121	-0.113
-376.873	-54.396	-0.226	-0.102
-375.858	43.124	-0.064	0.059
-374.844	-122.131	0.167	-0.027
-373.829	-54.656	-0.106	0.048
-372.815	57.659	-0.148	0.144
-371.800	-32.515	-0.121	0.067
-370.785	800.000	-0.132	-0.467
-369.771	800.000	-0.089	0.257
-368.756	-131.376	-0.169	-0.022
-367.742	243.088	0.197	-0.329
-366.727	-200.000	0.023	0.106
-365.712	-200.000	0.017	0.075
-364.698	-124.941	0.249	0.038
-363.683	-133.391	-0.085	0.011
-362.669	-200.000	0.015	-0.116
-361.654	48.250	-0.241	-0.225
-360.639	-148.845	0.373	0.030
-359.625	180.683	-0.239	-0.350
-358.610	-200.000	-0.014	0.386
-357.596	-200.000	0.030	-0.186
-356.581	767.059	0.102	0.277
-355.566	6.279	-0.093	0.069
-354.552	-130.326	0.261	-0.035
-353.537	800.000	-0.015	-0.042
-352.523	-42.013	-0.064	-0.033
-351.508	-45.508	0.290	0.143
-350.493	-200.000	0.029	-0.264
-349.479	-156.811	-0.111	-0.007
-348.464	39.033	0.246	0.219
-347.450	800.000	-0.030	-0.108
-346.435	-60.564	-0.046	-0.020
-345.420	800.000	0.053	-0.190
-344.406	-150.725	0.423	0.032
-343.391	352.942	0.063	0.124
-342.377	643.934	0.076	-0.194
-341.362	800.000	-0.097	-0.297
-340.348	-38.659	-0.062	0.033
-339.333	3.051	-0.172	0.124
-338.318	649.811	0.048	0.123
-337.304	-200.000	-0.028	0.175
-336.289	-96.773	0.180	-0.047
-335.275	-200.000	0.039	-0.208
-334.260	-200.000	-0.013	0.119
-333.245	800.000	-0.014	-0.047
-332.231	-135.334	-0.029	0.003
-331.216	91.988	-0.216	-0.242
-330.202	-112.789	0.226	0.045
-329.187	330.956	-0.046	-0.089
-328.172	-59.840	-0.369	0.158
-327.158	573.651	0.074	-0.179
-326.143	-149.380	-0.287	-0.023
-325.129	168.133	-0.035	-0.049
-324.114	-200.000	-0.011	0.123
-323.099	537.174	0.047	-0.111
-322.085	-200.000	0.012	-0.126
-321.070	-13.634	-0.170	-0.109
-320.056	-121.185	-0.143	0.024
-319.041	-140.057	-0.123	-0.013
-318.026	-179.442	-0.231	0.005
-317.012	93.990	0.150	0.170
-315.997	-51.939	0.215	0.099
-314.983	-146.270	0.297	-0.026
-313.968	175.863	-0.049	0.071
-312.953	-200.000	-0.016	0.088
-311.939	-200.000	-0.043	0.505
-310.924	169.285	0.146	-0.207
-309.910	-167.340	0.348	-0.014
-308.895	28.906	-0.039	-0.033
-307.880	171.327	-0.218	0.311
-306.866	668.254	-0.034	0.089
-305.851	12.510	0.171	-0.131
-304.837	-147.598	0.108	0.009
-303.822	-178.688	0.039	-0.001
-302.807	101.996	0.211	0.245
-301.793	-200.000	0.026	-0.280
-300.778	-200.000	0.026	0.195
-299.764	82.581	-0.075	0.082
-298.749	34.158	0.291	0.252
-297.735	-200.000	-0.014	0.130
-296.720	-104.910	0.178	-0.041
-295.705	89.086	-0.184	0.204
-294.691	-136.256	0.364	0.042
-293.676	45.009	-0.060	0.055
-292.662	447.203	-0.127	-0.278
-291.647	-200.000	-0.020	-0.430
-290.632	-178.643	0.162	0.004
-289.618	-63.896	-0.132	-0.054
-288.603	800.000	-0.033	0.123
-287.589	141.405	0.110	-0.145
-286.574	-2.193	0.176	-0.123
-285.559	136.580	-0.226	0.293
-284.545	91.750	-0.054	-0.061
-283.530	-200.000	0.007	-0.151
-282.516	-92.161	-0.279	0.078
-281.501	800.000	0.059	0.203
-280.486	-200.000	-0.033	0.374
-279.472	-126.175	0.294	0.044
-278.457	-82.928	0.390	-0.125
-277.443	800.000	0.045	0.160
-276.428	-200.000	0.043	0.305
-275.413	-104.005	0.299	-0.069
-274.399	-77.983	-0.144	-0.049
-273.384	112.854	-0.128	0.155
-272.370	-27.317	-0.355	0.206
-271.355	-157.255	0.212	-0.013
-270.340	17.113	0.304	0.240
-269.326	800.000	0.033	-0.117
-268.311	-64.950	-0.242	-0.097
-267.297	-86.514	0.209	0.064
-266.282	303.696	-0.020	0.036
-265.267	525.704	-0.058	-0.135
-264.253	93.577	-0.291	-0.328
-263.238	430.842	-0.081	0.175
-262.224	-200.000	-0.006	0.071
-261.209	-111.755	0.156	0.031
-260.195	-159.295	0.197	-0.011
-259.180	503.487	-0.099	0.227
-258.165	10.670	-0.188	0.143
-257.151	33.587	-0.329	0.284
-256.136	-35.013	0.101	0.055
-255.122	-74.909	-0.168	-0.060
-254.107	22.041	-0.237	-0.192
-253.092	-83.976	0.241	0.076
-252.078	800.000	0.056	-0.217
-251.063	126.211	0.048	-0.061
-250.049	-124.304	-0.196	0.030
-249.034	-122.488	0.304	-0.049
-248.019	-200.000	-0.025	0.000
-247.005	-127.651	-0.190	0.027
-245.990	115.520	-0.159	0.193
-244.976	62.187	-0.214	0.212
-243.961	127.893	0.057	0.072
-242.946	800.000	-0.047	-0.173
-241.932	94.485	-0.117	-0.132
-240.917	114.371	0.139	0.169
-239.903	-11.508	-0.418	0.273
-238.888	-55.162	0.309	-0.138
-237.873	-200.000	-0.016	-0.246
-236.859	272.293	0.080	-0.140
-235.844	428.328	0.049	-0.105
-234.830	-128.966	-0.464	-0.065
-233.815	-29.130	0.123	0.070
-232.800	-200.000	-0.012	-0.233
-231.786	-2.017	-0.355	0.248
-230.771	449.382	0.048	0.106
-229.757	151.806	-0.058	-0.079
-228.742	-75.089	0.360	-0.128
-227.727	800.000	0.064	0.192
-226.713	-98.317	0.079	0.020
-225.698	-118.173	0.340	-0.060
-224.684	-43.711	-0.072	0.036
-223.669	-67.623	0.087	0.034
-222.655	53.366	0.221	0.210
-221.640	800.000	-0.063	0.181
-220.625	-200.000	0.008	0.114
-219.611	-200.000	-0.030	0.324
-218.596	-120.589	0.162	-0.027
-217.582	-11.547	0.088	0.057
-216.567	16.767	-0.142	-0.112
-215.552	-200.000	0.011	0.208
-214.538	-200.000	0.026	-0.131
-213.523	-165.632	0.197	-0.008
-212.509	479.642	-0.121	-0.273
-211.494	-200.000	-0.047	0.293
-210.479	-200.000	-0.217	-0.001
-209.465	66.937	-0.080	0.081
-208.450	292.586	0.040	-0.072
-207.436	-67.184	-0.273	-0.107
-206.421	-18.185	0.322	0.200
-205.406	-200.000	0.004	-0.157
-204.392	800.000	-0.067	-0.199
-203.377	-200.000	-0.036	0.196
-202.363	-200.000	-0.010	-0.176
-201.348	-21.355	0.118	0.071
-200.333	-164.261	-0.248	0.011
-199.319	554.170	0.059	-0.141
-198.304	-63.434	-0.270	0.110
-197.290	-70.806	0.386	-0.144
-196.275	-59.416	0.272	0.116
-195.260	685.581	-0.098	0.255
-194.246	-0.663	0.377	-0.265
-193.231	48.525	-0.174	0.162
-192.217	-200.000	-0.012	0.178
-191.202	621.213	-0.111	-0.277
-190.187	-126.388	0.378	0.056
-189.173	-100.411	-0.037	0.009
-188.158	-200.000	-0.051	-0.328
-187.144	-58.331	-0.164	0.071
-186.129	800.000	0.050	-0.167
-185.114	-17.960	0.076	0.047
-184.100	-72.821	-0.352	0.128
-183.085	-106.168	0.169	-0.038
-182.071	196.054	-0.136	-0.205
-181.056	-39.869	-0.122	-0.063
-180.042	-15.566	-0.202	-0.128
-179.027	-14.108	0.399	-0.255
-178.012	332.898	-0.095	0.181
-176.998	417.003	0.167	-0.354
-175.983	345.163	-0.223	-0.434
-174.969	800.000	0.098	-0.371
-173.954	-184.576	-0.362	0.006
-172.939	-6.126	0.106	0.071
-171.925	396.600	-0.147	-0.305
-170.910	-157.130	0.323	0.019
-169.896	-155.302	0.106	0.007
-168.881	-82.231	-0.349	0.113
-167.866	-30.722	0.081	-0.045
-166.852	-127.941	0.147	-0.021
-165.837	148.257	0.205	-0.275
-164.823	258.245	0.201	-0.343
-163.808	-200.000	0.000	0.298
-162.793	800.000	-0.034	0.112
-161.779	-200.000	-0.067	-0.302
-160.764	142.758	0.069	0.091
-159.750	-4.094	0.315	0.216
-158.735	800.000	0.068	-0.259
-157.720	-91.881	-0.071	-0.020
-156.706	-33.388	-0.315	0.172
-155.691	-38.818	0.152	-0.079
-154.677	264.060	-0.086	0.149
-153.662	12.043	0.164	0.125
-152.647	82.606	-0.090	0.097
-151.633	-143.237	-0.237	-0.023
-150.618	-94.900	0.032	0.008
-149.604	-125.966	0.087	-0.013
-148.589	147.434	0.129	0.172
-147.574	-105.597	-0.305	0.068
-146.560	344.986	0.131	0.254
-145.545	-97.683	0.254	-0.065
-144.531	-78.281	-0.351	0.119
-143.516	800.000	-0.032	-0.126
-142.502	29.269	-0.164	-0.138
-141.487	245.129	-0.078	0.130
-140.472	-89.901	0.190	-0.055
-139.458	-8.001	-0.052	-0.034
-138.443	800.000	-0.050	0.206
-137.429	-107.222	-0.089	-0.019
-136.414	452.987	0.189	0.413
-135.399	47.624	0.143	0.132
-134.385	-189.293	0.102	0.001
-133.370	498.449	-0.113	0.258
-132.356	18.309	0.082	0.065
-131.341	260.242	-0.043	-0.074
-130.326	-27.703	-0.273	-0.157
-129.312	-200.000	0.001	-0.146
-128.297	-200.000	0.070	-0.502
-127.283	54.785	-0.139	-0.132
-126.268	-200.000	0.007	-0.156
-125.253	-200.000	0.022	0.134
-124.239	-200.000	0.007	-0.033
-123.224	356.007	-0.292	0.575
-122.210	405.992	-0.169	0.353
