DTS Sentinel unit serial number:	SN413079Multiplexer serial number:	ORYXHardware model number:	OX4-SRSoftware version number:	ORYX F/W v4.00 Oryx Data Collector v3.7.2.0data status	okinstallation	princeton_trtdifferential loss correction	single-endedforward channel	channel 2reverse channel	N/Adate	2019/09/16time	18:11:35forward acquisition time	60.00reverse acquisition time	0.00gamma	496.2192k internal	0.2318k external	0.2318temperature offset calibration	0.9949default loss term (dB/km)	0.3790temperature slope calibration	1.0000multiplexer offset coefficient	1.0000multiplexer slope coefficient	1.0000fibre end	0.00T internal ref (°C)	37.28T ext. ref 1 (°C)	15.71T ext. ref 2 (°C)	30.83length (m)	temperature (°C)	Stokes	anti-Stokes-747.200	800.000	-0.078	-0.225
-746.185	-30.509	-0.049	0.028
-745.171	-177.252	0.341	0.009
-744.156	144.323	0.204	0.276
-743.142	263.272	0.162	0.285
-742.127	-35.014	0.300	0.166
-741.112	-95.375	0.562	0.153
-740.098	-200.000	0.048	0.398
-739.083	156.087	0.071	0.099
-738.069	396.843	-0.044	-0.094
-737.054	-166.397	0.029	-0.001
-736.039	-49.947	-0.152	-0.073
-735.025	800.000	-0.119	0.349
-734.010	151.775	-0.109	-0.150
-732.996	158.197	-0.228	-0.319
-731.981	132.704	-0.161	-0.210
-730.966	82.928	-0.052	0.057
-729.952	559.466	0.142	0.346
-728.937	800.000	0.016	-0.068
-727.923	-200.000	0.012	-0.199
-726.908	46.934	0.125	-0.117
-725.894	800.000	-0.055	0.197
-724.879	800.000	-0.029	0.118
-723.864	-200.000	0.067	-0.309
-722.850	-200.000	-0.060	0.385
-721.835	129.510	-0.171	0.221
-720.821	162.529	-0.144	0.204
-719.806	-131.464	0.286	0.038
-718.791	-200.000	0.013	-0.220
-717.777	312.999	0.208	0.395
-716.762	-200.000	0.004	-0.076
-715.748	240.463	0.344	0.580
-714.733	-200.000	-0.010	-0.306
-713.718	800.000	-0.069	-0.209
-712.704	-19.010	-0.082	-0.051
-711.689	613.285	0.130	0.330
-710.675	124.788	0.200	0.254
-709.660	-200.000	-0.009	0.241
-708.645	-200.000	0.024	0.203
-707.631	64.035	-0.236	0.240
-706.616	-200.000	-0.023	0.218
-705.602	-98.610	-0.120	0.031
-704.587	375.848	0.124	-0.256
-703.572	-7.224	0.196	-0.135
-702.558	-200.000	0.017	0.186
-701.543	-43.164	0.211	-0.108
-700.529	-200.000	-0.011	0.239
-699.514	-94.154	0.319	0.088
-698.499	-200.000	0.007	0.122
-697.485	233.954	0.057	0.095
-696.470	-32.671	0.175	-0.098
-695.456	800.000	0.071	0.285
-694.441	-200.000	-0.007	-0.280
-693.426	93.293	-0.089	0.101
-692.412	-70.958	0.344	-0.131
-691.397	37.070	-0.249	-0.222
-690.383	-37.858	-0.246	-0.132
-689.368	419.954	0.169	0.366
-688.354	64.353	0.093	-0.094
-687.339	178.058	-0.088	-0.130
-686.324	-41.357	0.169	0.088
-685.310	-43.603	-0.169	0.086
-684.295	-58.934	0.203	-0.088
-683.281	-200.000	-0.012	-0.312
-682.266	167.925	-0.020	-0.028
-681.251	383.941	-0.080	0.166
-680.237	800.000	-0.016	0.068
-679.222	-22.750	-0.153	-0.093
-678.208	12.958	-0.123	-0.096
-677.193	21.125	-0.152	0.124
-676.178	-99.523	-0.220	-0.056
-675.164	21.252	-0.096	-0.079
-674.149	-200.000	0.032	-0.615
-673.135	11.961	0.077	0.060
-672.120	30.585	-0.183	0.158
-671.105	47.937	0.151	-0.142
-670.091	-135.304	0.337	0.041
-669.076	-200.000	-0.018	0.131
-668.062	65.383	-0.318	-0.325
-667.047	-195.668	-0.079	-0.001
-666.032	-192.420	-0.137	0.001
-665.018	-54.291	-0.181	0.083
-664.003	-200.000	-0.019	0.137
-662.989	800.000	-0.050	0.212
-661.974	128.785	-0.225	-0.290
-660.959	-124.216	-0.119	0.019
-659.945	120.462	-0.097	0.121
-658.930	-92.001	0.186	-0.053
-657.916	-200.000	-0.004	-0.044
-656.901	-127.469	-0.096	0.014
-655.886	-143.166	0.328	0.032
-654.872	-22.233	-0.194	0.119
-653.857	-93.480	0.288	0.080
-652.843	-76.718	-0.058	0.020
-651.828	117.930	-0.084	-0.104
-650.814	-200.000	-0.438	0.001
-649.799	-57.222	0.232	-0.103
-648.784	-78.699	0.146	-0.050
-647.770	-31.259	-0.225	-0.128
-646.755	192.454	-0.099	-0.151
-645.741	12.417	0.333	0.259
-644.726	-79.428	0.254	0.086
-643.711	228.079	-0.175	-0.287
-642.697	114.009	-0.089	-0.109
-641.682	102.681	0.140	-0.165
-640.668	257.345	0.127	0.221
-639.653	132.867	0.066	-0.086
-638.638	-81.277	-0.100	0.033
-637.624	-143.202	-0.112	-0.011
-636.609	-32.188	0.110	0.062
-635.595	542.315	0.137	0.329
-634.580	31.455	0.078	-0.067
-633.565	-200.000	0.020	-0.229
-632.551	-104.387	-0.190	0.044
-631.536	-50.288	-0.141	0.067
-630.522	49.007	-0.096	-0.091
-629.507	35.225	0.068	0.060
-628.492	-200.000	0.010	-0.131
-627.478	640.010	0.108	0.277
-626.463	496.154	0.038	-0.088
-625.449	-29.334	0.131	-0.076
-624.434	-200.000	-0.031	-0.140
-623.419	800.000	0.108	-0.430
-622.405	-101.955	-0.236	-0.057
-621.390	-200.000	-0.044	0.374
-620.376	-99.941	-0.262	-0.066
-619.361	-200.000	-0.016	0.161
-618.346	4.348	0.193	0.142
-617.332	68.426	-0.082	-0.084
-616.317	55.911	0.123	-0.120
-615.303	94.890	-0.131	0.151
-614.288	180.728	0.186	-0.274
-613.273	-200.000	0.042	0.313
-612.259	181.476	-0.150	0.223
-611.244	-173.171	0.167	0.005
-610.230	-200.000	-0.006	-0.113
-609.215	669.819	0.049	-0.129
-608.201	161.517	-0.176	-0.248
-607.186	66.248	-0.275	0.281
-606.171	-60.730	-0.241	0.103
-605.157	-200.000	0.023	0.152
-604.142	624.300	0.096	-0.243
-603.128	-99.446	0.071	-0.018
-602.113	-200.000	-0.017	0.137
-601.098	-2.607	0.109	0.077
-600.084	-30.400	0.440	0.251
-599.069	32.087	-0.173	0.150
-598.055	-23.493	0.142	-0.086
-597.040	-69.884	0.033	-0.012
-596.025	-131.349	-0.176	0.023
-595.011	507.870	-0.042	0.098
-593.996	144.786	0.111	0.149
-592.982	-36.558	0.187	0.101
-591.967	-200.000	0.004	-0.395
-590.952	-35.652	0.194	-0.106
-589.938	-11.483	0.495	0.328
-588.923	-10.955	-0.123	-0.082
-587.909	146.016	0.191	-0.257
-586.894	55.276	0.178	0.174
-585.879	77.913	-0.072	0.078
-584.865	33.468	-0.068	-0.060
-583.850	-34.431	-0.340	0.188
-582.836	8.077	-0.052	-0.039
-581.821	800.000	0.062	0.202
-580.806	178.519	-0.078	-0.115
-579.792	-200.000	0.094	-0.424
-578.777	-200.000	0.054	-0.424
-577.763	-15.181	0.238	0.153
-576.748	-5.748	0.118	-0.081
-575.733	-82.972	0.118	0.038
-574.719	55.105	0.137	-0.133
-573.704	376.133	-0.027	0.056
-572.690	125.767	-0.174	0.221
-571.675	-84.750	0.396	0.125
-570.661	-200.000	0.027	-0.207
-569.646	57.717	0.089	-0.088
-568.631	-130.284	-0.215	-0.029
-567.617	22.776	0.133	-0.109
-566.602	31.182	-0.070	0.060
-565.588	800.000	0.035	0.141
-564.573	-200.000	0.011	-0.074
-563.558	13.117	-0.156	0.121
-562.544	-29.306	-0.246	0.141
-561.529	277.987	0.081	0.145
-560.515	13.843	-0.132	0.103
-559.500	276.681	-0.115	-0.206
-558.485	138.100	-0.037	-0.049
-557.471	-200.000	0.006	0.132
-556.456	149.861	0.041	0.056
-555.442	-14.700	-0.235	0.152
-554.427	-42.042	0.261	0.134
-553.412	800.000	0.026	-0.106
-552.398	238.992	-0.154	-0.257
-551.383	800.000	0.082	0.322
-550.369	-100.790	0.352	0.087
-549.354	-57.893	0.324	0.142
-548.339	-45.281	0.272	-0.136
-547.325	35.694	0.135	0.119
-546.310	-187.905	0.315	0.004
-545.296	-149.619	0.292	0.023
-544.281	-99.477	0.226	0.057
-543.266	-200.000	0.006	-0.319
-542.252	800.000	0.028	0.086
-541.237	-102.191	-0.275	0.066
-540.223	-45.451	-0.381	0.190
-539.208	-200.000	0.018	-0.268
-538.193	800.000	0.080	0.225
-537.179	800.000	0.108	0.312
-536.164	-4.125	0.341	-0.237
-535.150	-137.208	0.139	0.016
-534.135	16.393	0.211	0.167
-533.121	-123.220	0.454	0.073
-532.106	87.458	-0.179	-0.199
-531.091	155.716	-0.186	0.257
-530.077	-65.785	-0.317	0.127
-529.062	-200.000	-0.028	0.226
-528.048	745.761	-0.105	-0.284
-527.033	255.560	0.131	0.225
-526.018	-24.253	-0.171	0.102
-525.004	-200.000	0.025	-0.234
-523.989	68.988	0.181	-0.186
-522.975	-129.892	0.105	-0.015
-521.960	-3.101	-0.154	-0.108
-520.945	-51.244	0.055	-0.026
-519.931	-200.000	-0.023	0.129
-518.916	-27.428	0.306	-0.179
-517.902	-200.000	-0.046	-0.206
-516.887	120.260	-0.180	0.225
-515.872	-116.546	-0.247	-0.046
-514.858	-63.399	-0.325	0.134
-513.843	28.460	-0.176	0.150
-512.829	423.589	0.151	0.326
-511.814	27.488	-0.188	-0.158
-510.799	143.310	0.093	0.124
-509.785	-42.370	0.208	0.106
-508.770	-178.133	-0.726	0.017
-507.756	208.465	-0.127	0.200
-506.741	-34.612	0.028	-0.016
-505.726	772.802	-0.183	-0.501
-504.712	69.140	-0.130	-0.134
-503.697	-135.968	-0.194	-0.023
-502.683	-176.632	-0.305	-0.008
-501.668	103.548	-0.107	0.126
-500.653	-93.666	-0.256	0.071
-499.639	-200.000	-0.056	-0.360
-498.624	-119.571	0.223	-0.039
-497.610	-200.000	-0.017	0.091
-496.595	-200.000	0.015	0.230
-495.581	124.031	0.231	-0.291
-494.566	-34.553	-0.125	-0.068
-493.551	-200.000	-0.008	0.071
-492.537	-17.829	0.273	0.172
-491.522	-200.000	0.022	-0.205
-490.508	340.281	0.124	-0.243
-489.493	-200.000	-0.013	-0.285
-488.478	-2.697	-0.443	-0.310
-487.464	496.299	0.071	0.163
-486.449	800.000	-0.080	-0.328
-485.435	60.183	-0.322	-0.319
-484.420	-63.875	0.078	-0.032
-483.405	28.198	-0.137	-0.116
-482.391	167.175	-0.011	-0.016
-481.376	-200.000	-0.009	0.134
-480.362	-133.587	-0.148	0.019
-479.347	-200.000	0.008	0.268
-478.332	800.000	0.070	0.198
-477.318	800.000	0.033	0.115
-476.303	-2.352	-0.331	0.233
-475.289	800.000	-0.019	0.060
-474.274	-115.140	-0.232	-0.044
-473.259	154.236	-0.103	-0.141
-472.245	-74.828	-0.211	0.076
-471.230	-169.958	0.144	0.005
-470.216	800.000	0.022	-0.073
-469.201	-200.000	-0.034	-0.215
-468.186	-200.000	-0.210	-0.001
-467.172	-200.000	0.022	-0.217
-466.157	-131.034	0.056	0.007
-465.143	800.000	0.055	-0.198
-464.128	-32.838	-0.016	-0.009
-463.113	239.935	-0.147	-0.246
-462.099	-20.783	0.156	0.095
-461.084	228.867	-0.204	0.332
-460.070	-102.436	-0.188	-0.045
-459.055	-90.640	0.055	0.016
-458.040	-5.675	-0.448	-0.308
-457.026	116.531	0.081	0.099
-456.011	-200.000	-0.012	0.065
-454.997	59.310	-0.095	-0.094
-453.982	90.011	-0.316	-0.354
-452.968	403.649	0.028	0.058
-451.953	-87.543	0.224	0.068
-450.938	32.682	0.131	0.113
-449.924	22.058	-0.206	-0.168
-448.909	-161.188	-0.299	-0.016
-447.895	296.819	0.099	0.182
-446.880	25.390	-0.144	-0.120
-445.865	-40.024	0.266	-0.139
-444.851	800.000	0.073	0.204
-443.836	800.000	0.107	0.333
-442.822	220.842	0.160	-0.257
-441.807	514.943	0.086	-0.200
-440.792	-153.723	-0.327	0.022
-439.778	800.000	0.082	0.259
-438.763	26.591	0.102	0.085
-437.749	-49.435	0.151	-0.072
-436.734	78.482	-0.063	0.068
-435.719	-110.232	-0.236	0.049
-434.705	-12.741	-0.105	0.068
-433.690	-16.968	0.061	-0.039
-432.676	-43.311	0.245	0.124
-431.661	279.828	0.179	-0.319
-430.646	-89.447	-0.112	-0.033
-429.632	-162.546	-0.403	0.020
-428.617	800.000	0.028	0.083
-427.603	47.235	-0.104	0.097
-426.588	-148.780	0.106	0.009
-425.573	198.363	-0.131	-0.201
-424.559	100.221	-0.013	-0.015
-423.544	218.430	-0.068	0.108
-422.530	-152.259	0.155	0.011
-421.515	700.841	-0.085	-0.223
-420.500	-59.320	-0.140	0.060
-419.486	-12.064	0.158	0.104
-418.471	59.456	-0.061	-0.060
-417.457	41.847	0.291	-0.263
-416.442	319.962	0.143	-0.271
-415.428	200.366	-0.119	0.183
-414.413	-200.000	0.011	-0.104
-413.398	-77.554	0.116	-0.040
-412.384	-200.000	0.033	0.190
-411.369	-200.000	-0.055	0.351
-410.355	450.204	0.056	0.123
-409.340	313.050	0.065	-0.121
-408.325	42.489	-0.026	-0.024
-407.311	-10.397	0.152	0.101
-406.296	75.544	-0.171	-0.180
-405.282	255.748	-0.042	0.072
-404.267	-200.000	-0.023	0.167
-403.252	-8.007	-0.122	0.082
-402.238	682.229	0.068	0.178
-401.223	-200.000	0.081	-0.472
-400.209	800.000	0.022	-0.086
-399.194	52.489	-0.162	-0.154
-398.179	-156.163	0.115	0.007
-397.165	-110.902	0.497	0.102
-396.150	-200.000	0.010	-0.200
-395.136	457.273	-0.093	0.206
-394.121	509.001	-0.100	0.231
-393.106	800.000	-0.028	0.079
-392.092	93.420	-0.167	0.189
-391.077	-192.190	-0.232	-0.002
-390.063	257.421	0.157	0.270
-389.048	-18.618	-0.011	0.007
-388.033	0.709	0.264	-0.189
-387.019	-125.090	-0.179	-0.027
-386.004	-80.357	0.208	-0.069
-384.990	-200.000	0.010	0.090
-383.975	234.910	-0.042	0.069
-382.960	-162.914	0.441	0.021
-381.946	189.014	-0.165	0.246
-380.931	-97.467	-0.234	0.061
-379.917	-18.759	0.337	-0.210
-378.902	11.498	-0.173	-0.132
-377.888	65.511	0.138	0.139
-376.873	-129.088	-0.125	-0.017
-375.858	91.545	0.115	-0.129
-374.844	-200.000	-0.001	0.034
-373.829	-200.000	-0.015	0.074
-372.815	287.813	0.093	0.167
-371.800	119.836	-0.053	-0.065
-370.785	-97.134	-0.387	-0.101
-369.771	9.806	0.221	0.167
-368.756	101.789	-0.084	0.097
-367.742	159.642	-0.094	0.130
-366.727	-200.000	0.032	-0.281
-365.712	329.912	0.161	-0.308
-364.698	-141.557	0.252	-0.025
-363.683	800.000	-0.045	0.132
-362.669	-200.000	-0.029	-0.198
-361.654	80.043	0.242	-0.260
-360.639	420.867	0.104	0.222
-359.625	-200.000	-0.064	-0.347
-358.610	213.857	0.139	-0.220
-357.596	-200.000	0.030	-0.229
-356.581	-200.000	0.006	-0.134
-355.566	-137.595	-0.235	0.026
-354.552	-200.000	0.045	-0.353
-353.537	-133.447	-0.315	0.039
-352.523	800.000	-0.054	0.216
-351.508	-76.662	0.320	-0.112
-350.493	-200.000	-0.031	-0.157
-349.479	-60.680	0.304	-0.129
-348.464	-87.953	0.315	-0.094
-347.450	-114.521	-0.043	0.008
-346.435	-61.194	-0.389	0.164
-345.420	-200.000	-0.009	-0.147
-344.406	-176.091	0.125	0.003
-343.391	263.960	-0.115	0.198
-342.377	-46.965	-0.095	-0.046
-341.362	15.415	0.085	-0.067
-340.348	109.353	0.126	-0.150
-339.333	800.000	0.067	0.229
-338.318	-200.000	-0.045	0.312
-337.304	-200.000	-0.065	0.319
-336.289	-200.000	-0.055	-0.275
-335.275	17.322	-0.131	0.103
-334.260	-64.471	0.301	-0.122
-333.245	550.366	-0.075	-0.180
-332.231	-141.053	0.119	-0.012
-331.216	-198.944	0.075	0.000
-330.202	183.843	-0.016	-0.024
-329.187	800.000	0.041	0.117
-328.172	-200.000	-0.028	-0.144
-327.158	-175.927	-0.074	-0.002
-326.143	-186.218	0.112	-0.002
-325.129	-169.879	-0.157	0.006
-324.114	-77.705	0.541	0.186
-323.099	-200.000	0.016	-0.360
-322.085	-200.000	-0.000	-0.178
-321.070	-200.000	0.054	-0.248
-320.056	154.016	0.189	-0.258
-319.041	800.000	-0.022	-0.090
-318.026	800.000	-0.087	-0.302
-317.012	-82.736	-0.314	0.101
-315.997	185.867	-0.196	0.289
-314.983	-200.000	-0.029	0.169
-313.968	-41.290	0.292	0.150
-312.953	578.992	-0.127	-0.309
-311.939	179.995	-0.134	-0.195
-310.924	65.243	-0.092	-0.093
-309.910	102.704	0.264	0.308
-308.895	-200.000	0.024	0.199
-307.880	-47.346	0.178	0.086
-306.866	-200.000	0.002	-0.168
-305.851	-200.000	-0.015	0.536
-304.837	-107.332	-0.163	0.036
-303.822	-27.156	-0.459	0.266
-302.807	490.170	-0.179	0.407
-301.793	-126.402	0.217	0.032
-300.778	-26.121	0.093	0.054
-299.764	-200.000	-0.015	-0.257
-298.749	-200.000	0.002	0.220
-297.735	375.833	-0.090	0.183
-296.720	-11.568	0.245	-0.160
-295.705	144.965	-0.154	-0.204
-294.691	-167.221	0.353	0.014
-293.676	-63.495	-0.178	-0.073
-292.662	313.170	-0.019	-0.035
-291.647	302.857	-0.210	0.387
-290.632	-68.961	-0.314	0.121
-289.618	-43.967	0.144	-0.072
-288.603	3.428	0.134	-0.097
-287.589	0.380	0.180	0.128
-286.574	179.475	-0.058	-0.084
-285.559	7.579	0.388	0.289
-284.545	647.576	-0.033	0.083
-283.530	107.904	-0.145	0.172
-282.516	25.219	-0.092	0.076
-281.501	10.126	0.351	0.265
-280.486	-112.418	-0.315	0.063
-279.472	147.662	-0.151	0.203
-278.457	3.237	-0.068	-0.049
-277.443	145.518	-0.250	-0.333
-276.428	141.198	0.192	0.253
-275.413	16.661	-0.035	0.028
-274.399	-200.000	0.006	0.091
-273.384	166.130	-0.127	0.179
-272.370	-67.134	0.173	0.068
-271.355	-197.061	-0.141	0.001
-270.340	-115.145	0.280	-0.053
-269.326	-200.000	0.046	-0.308
-268.311	-107.987	0.488	0.105
-267.297	800.000	0.140	0.396
-266.282	77.840	-0.217	-0.230
-265.267	74.267	-0.212	-0.222
-264.253	-200.000	0.019	0.189
-263.238	-200.000	0.027	0.183
-262.224	-0.937	0.067	0.047
-261.209	-29.908	-0.187	0.106
-260.195	800.000	0.011	0.039
-259.180	212.196	-0.231	-0.361
-258.165	-200.000	-0.022	0.105
-257.151	800.000	0.060	-0.169
-256.136	84.608	-0.250	-0.272
-255.122	-200.000	0.014	-0.080
-254.107	-84.763	-0.167	0.052
-253.092	-117.819	-0.229	-0.041
-252.078	62.173	0.097	-0.096
-251.063	-81.662	-0.074	-0.024
-250.049	-135.472	0.054	-0.006
-249.034	43.782	-0.216	-0.196
-248.019	-44.131	-0.251	0.125
-247.005	-102.427	0.295	-0.070
-245.990	-115.341	0.355	0.067
-244.976	-5.114	-0.167	-0.114
-243.961	19.426	-0.044	-0.035
-242.946	800.000	-0.004	0.017
-241.932	177.849	-0.154	-0.223
-240.917	-163.829	-0.255	-0.012
-239.903	-11.802	0.165	0.108
-238.888	-44.104	0.038	0.019
-237.873	-18.508	0.130	0.081
-236.859	-57.519	-0.153	-0.066
-235.844	-101.730	-0.060	0.014
-234.830	-15.284	-0.028	0.018
-233.815	-79.078	-0.577	0.194
-232.800	149.206	-0.139	0.187
-231.786	800.000	-0.025	0.096
-230.771	27.839	-0.030	-0.025
-229.757	454.227	-0.059	-0.129
-228.742	255.043	-0.070	-0.119
-227.727	800.000	-0.065	-0.242
-226.713	-200.000	-0.020	-0.167
-225.698	-200.000	0.015	0.176
-224.684	280.291	0.024	0.042
-223.669	372.728	-0.051	-0.104
-222.655	-21.033	-0.029	-0.018
-221.640	-98.344	-0.305	0.078
-220.625	7.024	0.227	0.168
-219.611	-115.559	0.309	0.058
-218.596	36.393	0.098	0.086
-217.582	68.834	-0.027	0.027
-216.567	-200.000	0.031	-0.209
-215.552	-50.281	0.171	0.080
-214.538	16.064	-0.129	-0.101
-213.523	800.000	-0.132	0.368
-212.509	-30.800	-0.095	-0.054
-211.494	-197.206	-0.346	0.002
-210.479	12.371	0.040	0.031
-209.465	-159.733	-0.117	-0.006
-208.450	268.489	-0.136	0.236
-207.436	-144.750	0.206	-0.019
-206.421	390.497	-0.070	0.144
-205.406	559.096	-0.138	-0.330
-204.392	-148.146	-0.105	0.009
-203.377	243.864	-0.078	0.130
-202.363	68.525	0.192	-0.195
-201.348	-200.000	0.000	0.160
-200.333	-78.335	0.308	0.105
-199.319	-112.165	0.130	-0.026
-198.304	-136.110	0.130	0.015
-197.290	106.914	0.074	-0.087
-196.275	800.000	-0.136	-0.476
-195.260	113.433	0.128	0.154
-194.246	163.719	-0.079	0.110
-193.231	-15.676	-0.274	-0.173
-192.217	-42.157	-0.096	0.049
-191.202	-70.047	-0.250	0.094
-190.187	-123.708	0.040	-0.006
-189.173	-98.454	0.343	-0.087
-188.158	800.000	0.207	0.576
-187.144	-200.000	-0.005	0.151
-186.129	12.732	-0.075	0.057
-185.114	150.502	0.065	0.087
-184.100	-116.147	-0.167	0.031
-183.085	-102.650	-0.163	0.039
-182.071	-60.150	-0.255	-0.107
-181.056	-200.000	-0.007	0.138
-180.042	-200.000	0.015	-0.201
-179.027	0.982	0.210	-0.149
-178.012	163.724	0.251	-0.350
-176.998	-114.797	0.341	-0.064
-175.983	-200.000	0.023	0.171
-174.969	58.973	-0.169	-0.164
-173.954	438.419	0.071	0.152
-172.939	-200.000	-0.004	0.108
-171.925	-135.697	0.226	-0.027
-170.910	144.030	0.137	-0.181
-169.896	15.665	-0.138	0.107
-168.881	487.470	0.019	0.044
-167.866	-145.128	-0.160	-0.014
-166.852	-37.707	0.482	0.254
-165.837	-200.000	-0.019	-0.095
-164.823	-84.668	0.238	-0.074
-163.808	178.025	0.175	-0.252
-162.793	80.828	-0.309	-0.330
-161.779	287.622	0.183	-0.328
-160.764	-95.142	0.091	-0.024
-159.750	-14.082	-0.062	0.039
-158.735	-200.000	-0.003	0.223
-157.720	-75.087	0.175	-0.062
-156.706	-69.933	-0.167	0.063
-155.691	-75.050	0.249	0.088
-154.677	95.709	-0.118	0.133
-153.662	-139.667	-0.180	0.019
-152.647	-72.379	0.203	-0.074
-151.633	-200.000	0.002	0.214
-150.618	-3.104	-0.352	-0.243
-149.604	149.610	0.225	0.302
-148.589	-200.000	0.037	-0.408
-147.574	800.000	-0.084	0.258
-146.560	23.840	0.256	-0.209
-145.545	-147.581	0.080	-0.007
-144.531	-54.252	-0.164	-0.074
-143.516	69.630	0.191	-0.194
-142.502	-200.000	0.102	-0.515
-141.487	-200.000	0.052	0.258
-140.472	437.921	-0.032	0.069
-139.458	-88.588	-0.126	-0.037
-138.443	-200.000	-0.010	0.164
-137.429	800.000	-0.050	-0.148
-136.414	145.481	0.206	0.273
-135.399	-200.000	0.114	0.698
-134.385	431.729	-0.108	0.230
-133.370	-200.000	0.053	-0.370
-132.356	800.000	0.068	0.281
-131.341	-200.000	0.003	0.022
-130.326	-103.791	-0.194	-0.045
-129.312	-59.237	0.279	0.119
-128.297	-109.926	-0.121	-0.025
-127.283	-101.377	0.071	-0.017
-126.268	109.047	-0.111	-0.131
-125.253	-200.000	-0.005	0.126
-124.239	-200.000	-0.000	0.088
-123.224	-90.074	-0.159	0.046
-122.210	786.198	-0.056	-0.151
-121.195	-88.360	0.323	-0.095
