DTS Sentinel unit serial number:	SN413079Multiplexer serial number:	ORYXHardware model number:	OX4-SRSoftware version number:	ORYX F/W v4.00 Oryx Data Collector v3.7.2.0data status	okinstallation	princeton_trtdifferential loss correction	single-endedforward channel	channel 2reverse channel	N/Adate	2019/09/11time	07:41:10forward acquisition time	60.00reverse acquisition time	0.00gamma	496.2192k internal	0.2326k external	0.2326temperature offset calibration	0.9941default loss term (dB/km)	0.3790temperature slope calibration	1.0000multiplexer offset coefficient	1.0000multiplexer slope coefficient	1.0000fibre end	0.00T internal ref (°C)	31.45T ext. ref 1 (°C)	-0.04T ext. ref 2 (°C)	27.64length (m)	temperature (°C)	Stokes	anti-Stokes-747.200	396.151	0.039	-0.081
-746.185	-140.532	0.284	-0.030
-745.171	-92.404	-0.159	-0.045
-744.156	-87.030	0.143	0.044
-743.142	-200.000	0.006	0.288
-742.127	93.406	-0.363	0.414
-741.112	-68.086	-0.112	-0.044
-740.098	-111.184	-0.360	-0.074
-739.083	-200.000	0.003	-0.129
-738.069	800.000	-0.025	0.095
-737.054	533.822	-0.072	-0.171
-736.039	62.937	-0.190	-0.192
-735.025	33.893	0.097	0.085
-734.010	-172.636	0.184	0.006
-732.996	-21.545	0.076	0.047
-731.981	-107.163	0.170	-0.038
-730.966	244.836	0.076	-0.130
-729.952	310.863	-0.075	0.142
-728.937	279.277	-0.115	-0.207
-727.923	-200.000	0.016	-0.421
-726.908	666.440	0.071	0.184
-725.894	188.100	0.100	-0.150
-724.879	800.000	0.066	-0.209
-723.864	190.771	0.132	-0.200
-722.850	-168.036	-0.072	-0.003
-721.835	108.585	-0.277	0.334
-720.821	-200.000	0.087	0.412
-719.806	131.626	-0.194	0.252
-718.791	-87.598	-0.047	-0.014
-717.777	577.353	0.075	0.185
-716.762	191.205	0.099	-0.150
-715.748	12.719	0.151	-0.118
-714.733	800.000	-0.141	0.512
-713.718	-141.804	0.153	0.015
-712.704	-200.000	-0.010	-0.251
-711.689	-200.000	0.069	-0.370
-710.675	-184.079	-0.113	0.002
-709.660	194.099	-0.120	-0.182
-708.645	132.796	0.107	0.140
-707.631	111.886	-0.163	0.198
-706.616	-21.237	0.198	0.122
-705.602	-71.441	-0.120	0.045
-704.587	-60.669	-0.209	-0.089
-703.572	800.000	0.162	-0.465
-702.558	-41.250	0.111	0.058
-701.543	-200.000	-0.035	-0.162
-700.529	-85.620	-0.324	0.101
-699.514	-72.428	0.300	0.112
-698.499	-200.000	0.053	0.481
-697.485	-102.315	-0.185	-0.045
-696.470	-200.000	0.003	0.150
-695.456	-87.285	-0.452	0.138
-694.441	56.078	0.200	0.196
-693.426	495.847	0.101	-0.234
-692.412	442.159	0.043	-0.094
-691.397	-200.000	-0.008	0.137
-690.383	-26.337	-0.284	0.168
-689.368	800.000	-0.035	0.135
-688.354	-9.155	0.037	0.025
-687.339	800.000	0.027	0.110
-686.324	-90.670	0.176	0.051
-685.310	-101.137	-0.239	0.059
-684.295	5.416	0.163	-0.121
-683.281	131.929	0.169	-0.218
-682.266	-27.395	0.088	-0.052
-681.251	-87.739	-0.051	-0.015
-680.237	-106.823	0.014	-0.003
-679.222	-42.459	0.197	0.101
-678.208	84.981	-0.095	0.105
-677.193	622.530	0.092	0.234
-676.178	-16.624	-0.131	-0.084
-675.164	-43.118	-0.103	-0.053
-674.149	-86.663	0.174	-0.054
-673.135	-109.789	-0.098	0.021
-672.120	-108.521	-0.187	-0.040
-671.105	-111.653	-0.094	-0.019
-670.091	-169.673	0.138	0.005
-669.076	550.280	-0.045	-0.109
-668.062	800.000	0.060	-0.225
-667.047	234.918	-0.073	-0.121
-666.032	-96.180	0.549	0.146
-665.018	-200.000	0.057	0.405
-664.003	470.558	-0.096	-0.216
-662.989	70.831	-0.162	-0.169
-661.974	139.774	0.301	-0.399
-660.959	471.170	0.073	-0.165
-659.945	-149.553	0.240	0.019
-658.930	-114.479	-0.122	0.023
-657.916	28.224	-0.229	0.194
-656.901	800.000	-0.052	-0.223
-655.886	62.537	0.252	-0.253
-654.872	-81.470	0.251	-0.083
-653.857	-39.488	0.349	-0.184
-652.843	48.993	0.097	0.092
-651.828	106.452	0.072	0.086
-650.814	800.000	-0.026	-0.086
-649.799	800.000	-0.106	0.368
-648.784	-200.000	-0.004	-0.133
-647.770	571.033	0.084	0.206
-646.755	800.000	-0.054	-0.173
-645.741	-6.898	0.162	0.111
-644.726	38.611	-0.307	-0.275
-643.711	41.848	0.141	-0.128
-642.697	-200.000	0.015	-0.078
-641.682	665.427	0.041	-0.107
-640.668	248.566	0.033	0.056
-639.653	-51.736	-0.326	0.152
-638.638	305.355	0.075	-0.140
-637.624	-47.874	-0.311	0.151
-636.609	-52.647	-0.168	-0.078
-635.595	575.374	-0.202	-0.495
-634.580	-200.000	0.011	-0.179
-633.565	42.047	0.055	0.050
-632.551	15.521	-0.165	-0.130
-631.536	-100.392	0.437	-0.109
-630.522	-200.000	-0.023	-0.140
-629.507	-200.000	-0.067	-0.335
-628.492	-29.314	0.218	-0.125
-627.478	-200.000	0.021	0.308
-626.463	-200.000	0.017	-0.188
-625.449	-200.000	-0.006	-0.155
-624.434	-70.735	0.279	-0.106
-623.419	-133.243	-0.196	0.025
-622.405	-61.961	-0.358	0.150
-621.390	800.000	0.024	0.073
-620.376	-143.361	-0.027	0.003
-619.361	-21.869	-0.021	-0.013
-618.346	-34.358	-0.204	-0.112
-617.332	-100.760	0.113	0.028
-616.317	-149.455	-0.346	-0.028
-615.303	-200.000	0.057	-0.346
-614.288	-109.113	-0.208	-0.044
-613.273	245.093	-0.244	-0.412
-612.259	-43.266	-0.007	0.003
-611.244	-59.437	-0.045	-0.019
-610.230	-88.553	-0.427	-0.128
-609.215	-200.000	-0.012	0.219
-608.201	-49.040	-0.095	-0.046
-607.186	-141.149	-0.174	-0.018
-606.171	-200.000	-0.008	-0.261
-605.157	322.052	-0.202	0.386
-604.142	-147.651	0.236	0.020
-603.128	125.066	0.246	-0.311
-602.113	74.228	0.089	0.094
-601.098	-122.600	-0.277	-0.045
-600.084	184.983	-0.138	0.206
-599.069	29.324	0.090	0.077
-598.055	-117.696	0.454	0.082
-597.040	800.000	0.022	0.074
-596.025	674.497	0.076	-0.197
-595.011	-58.807	-0.156	0.068
-593.996	-37.135	0.326	-0.175
-592.982	-107.897	-0.160	-0.035
-591.967	42.230	-0.379	-0.346
-590.952	800.000	-0.150	-0.449
-589.938	342.277	0.100	0.195
-588.923	527.661	-0.069	-0.163
-587.909	-42.997	0.289	-0.147
-586.894	-46.121	0.201	0.099
-585.879	800.000	-0.078	0.322
-584.865	457.022	-0.160	0.356
-583.850	-2.500	-0.137	-0.096
-582.836	-92.139	0.270	-0.077
-581.821	-64.747	-0.460	-0.187
-580.806	91.194	-0.017	-0.019
-579.792	-29.198	-0.019	0.011
-578.777	347.377	-0.059	0.116
-577.763	39.902	0.364	0.327
-576.748	14.621	-0.286	0.224
-575.733	71.386	-0.278	-0.289
-574.719	287.409	-0.046	0.083
-573.704	610.439	-0.107	-0.268
-572.690	-200.000	-0.027	-0.204
-571.675	800.000	0.095	-0.339
-570.661	-199.463	-0.061	-0.000
-569.646	70.556	0.097	-0.101
-568.631	420.167	0.177	0.381
-567.617	-200.000	0.030	0.187
-566.602	-200.000	0.065	-0.315
-565.588	-112.111	0.342	0.069
-564.573	800.000	-0.044	0.155
-563.558	-139.573	0.260	-0.028
-562.544	-200.000	-0.066	0.331
-561.529	800.000	-0.068	0.213
-560.515	339.794	-0.104	-0.203
-559.500	-200.000	-0.014	-0.288
-558.485	-200.000	-0.001	-0.145
-557.471	100.154	0.153	0.178
-556.456	-183.735	-0.051	0.001
-555.442	-92.633	-0.191	0.054
-554.427	-115.143	0.049	-0.009
-553.412	-125.905	-0.186	0.028
-552.398	800.000	0.046	0.178
-551.383	316.091	-0.112	0.212
-550.369	37.366	0.298	-0.264
-549.354	-58.544	0.182	-0.079
-548.339	547.069	-0.081	-0.195
-547.325	-200.000	0.027	-0.155
-546.310	800.000	0.024	-0.102
-545.296	103.513	-0.168	0.197
-544.281	-39.616	-0.100	-0.053
-543.266	-71.555	0.060	0.023
-542.252	-200.000	-0.039	-0.373
-541.237	-102.883	0.158	0.038
-540.223	-200.000	-0.023	-0.120
-539.208	134.420	-0.054	-0.070
-538.193	-43.989	-0.195	0.098
-537.179	-115.020	-0.295	-0.056
-536.164	-20.020	-0.147	-0.091
-535.150	88.627	-0.141	-0.157
-534.135	39.864	0.288	0.259
-533.121	-54.653	-0.106	-0.048
-532.106	-16.524	0.255	0.161
-531.091	6.272	0.158	-0.117
-530.077	-200.000	0.044	-0.210
-529.062	543.717	0.007	0.017
-528.048	208.436	0.109	0.171
-527.033	-122.632	-0.509	0.082
-526.018	-175.839	-0.206	-0.006
-525.004	-123.063	0.401	0.064
-523.989	-200.000	0.013	-0.239
-522.975	-64.726	-0.258	-0.105
-521.960	197.114	0.068	0.104
-520.945	-147.486	-0.349	-0.029
-519.931	54.977	0.192	-0.186
-518.916	-200.000	0.039	0.249
-517.902	-200.000	-0.004	0.106
-516.887	-200.000	-0.028	0.169
-515.872	367.997	0.033	-0.067
-514.858	-132.414	-0.257	-0.033
-513.843	154.201	0.280	-0.384
-512.829	20.469	0.143	-0.116
-511.814	-59.229	0.309	0.133
-510.799	-66.333	-0.194	-0.077
-509.785	-55.412	0.253	-0.114
-508.770	800.000	0.044	-0.186
-507.756	-75.720	0.099	0.035
-506.741	46.986	0.065	0.060
-505.726	-200.000	0.069	0.337
-504.712	107.739	-0.060	0.072
-503.697	-200.000	-0.025	-0.207
-502.683	276.455	-0.057	-0.101
-501.668	800.000	0.086	-0.244
-500.653	518.443	-0.119	0.278
-499.639	-57.769	0.087	0.038
-498.624	284.879	0.115	-0.208
-497.610	-200.000	-0.002	-0.155
-496.595	97.969	-0.199	-0.229
-495.581	491.144	-0.046	-0.105
-494.566	1.520	-0.432	0.310
-493.551	-42.402	0.168	-0.085
-492.537	188.913	-0.003	-0.004
-491.522	-14.083	0.143	-0.092
-490.508	371.544	0.120	-0.243
-489.493	-108.215	-0.208	0.045
-488.478	-116.061	0.295	0.055
-487.464	800.000	0.093	0.287
-486.449	-62.988	0.092	0.038
-485.435	-200.000	-0.048	0.217
-484.420	24.983	-0.137	-0.114
-483.405	-71.194	-0.230	-0.086
-482.391	-83.529	0.264	0.084
-481.376	66.551	0.099	0.100
-480.362	-18.110	-0.081	0.050
-479.347	-127.570	0.182	0.026
-478.332	-144.228	-0.203	-0.019
-477.318	-58.240	-0.109	-0.047
-476.303	201.925	0.155	0.239
-475.289	-72.015	0.233	0.087
-474.274	800.000	-0.074	-0.236
-473.259	218.412	0.081	-0.129
-472.245	-80.861	-0.201	0.067
-471.230	-36.298	-0.036	0.019
-470.216	-200.000	0.026	0.204
-469.201	-82.562	0.067	0.022
-468.186	557.601	-0.057	0.138
-467.172	-59.587	0.300	0.129
-466.157	-48.866	-0.186	0.089
-465.143	800.000	0.066	-0.205
-464.128	800.000	0.010	0.033
-463.113	-27.492	0.198	-0.115
-462.099	800.000	0.073	-0.269
-461.084	-146.461	-0.259	-0.023
-460.070	-200.000	-0.001	0.190
-459.055	800.000	0.039	0.145
-458.040	93.109	0.115	0.130
-457.026	326.223	0.159	0.303
-456.011	111.007	-0.197	0.236
-454.997	3.219	0.216	-0.157
-453.982	53.002	0.103	0.099
-452.968	-200.000	0.029	-0.210
-451.953	-83.441	-0.141	-0.045
-450.938	212.990	-0.094	-0.148
-449.924	-61.877	0.021	-0.009
-448.909	526.245	-0.137	-0.322
-447.895	319.305	0.120	0.228
-446.880	33.270	-0.119	0.103
-445.865	330.303	0.034	-0.066
-444.851	13.187	0.121	-0.094
-443.836	-159.910	-0.229	0.012
-442.822	172.485	0.095	0.136
-441.807	-128.569	-0.097	0.014
-440.792	-41.159	0.256	-0.132
-439.778	187.047	-0.052	-0.078
-438.763	-64.681	0.126	-0.051
-437.749	-200.000	0.039	0.249
-436.734	-16.006	-0.291	-0.185
-435.719	-69.542	0.100	0.038
-434.705	-152.846	-0.119	0.008
-433.690	-142.301	-0.094	0.009
-432.676	182.776	-0.097	-0.143
-431.661	-134.251	0.123	0.015
-430.646	-115.733	-0.323	-0.060
-429.632	-116.322	0.342	-0.063
-428.617	114.915	-0.137	0.166
-427.603	-92.093	-0.087	0.025
-426.588	-24.590	-0.159	0.094
-425.573	7.785	0.102	-0.076
-424.559	-91.539	-0.246	-0.070
-423.544	-3.873	-0.166	-0.115
-422.530	-200.000	-0.032	0.144
-421.515	-43.330	-0.253	-0.128
-420.500	-132.794	-0.095	-0.012
-419.486	17.247	0.206	0.162
-418.471	222.626	0.192	-0.308
-417.457	30.560	0.083	0.070
-416.442	-28.876	-0.088	0.050
-415.428	-200.000	-0.000	-0.043
-414.413	-135.432	-0.240	-0.028
-413.398	-37.567	-0.076	-0.040
-412.384	-200.000	-0.206	0.000
-411.369	-83.946	0.089	-0.028
-410.355	253.753	0.041	-0.070
-409.340	-87.407	-0.226	0.068
-408.325	800.000	0.145	0.439
-407.311	-116.425	0.272	0.050
-406.296	-75.333	-0.190	0.068
-405.282	106.948	0.238	-0.281
-404.267	163.209	-0.200	-0.279
-403.252	-137.102	-0.062	-0.007
-402.238	800.000	0.060	0.261
-401.223	226.858	-0.065	-0.105
-400.209	228.760	-0.019	-0.031
-399.194	3.970	0.196	0.143
-398.179	-114.457	-0.146	-0.028
-397.165	-178.588	0.435	0.010
-396.150	-200.000	-0.017	-0.182
-395.136	-196.713	0.240	-0.002
-394.121	-200.000	0.028	0.248
-393.106	-200.000	0.085	0.405
-392.092	599.535	0.110	-0.272
-391.077	-24.961	-0.153	0.090
-390.063	247.345	-0.152	0.255
-389.048	800.000	0.113	-0.365
-388.033	-112.582	0.201	-0.040
-387.019	109.262	-0.074	0.088
-386.004	800.000	0.041	0.137
-384.990	74.990	0.156	0.163
-383.975	-170.904	-0.169	0.006
-382.960	-71.255	0.026	-0.010
-381.946	-64.713	-0.174	-0.070
-380.931	-200.000	-0.027	0.208
-379.917	147.428	-0.123	-0.164
-378.902	351.617	-0.195	-0.384
-377.888	-56.905	0.356	-0.156
-376.873	457.113	0.037	-0.083
-375.858	382.569	0.173	0.354
-374.844	13.146	0.357	0.275
-373.829	2.030	-0.116	-0.083
-372.815	-89.599	-0.135	0.039
-371.800	-200.000	0.009	0.174
-370.785	546.930	-0.073	0.173
-369.771	-19.502	-0.247	0.152
-368.756	800.000	0.039	0.142
-367.742	371.285	-0.133	0.267
-366.727	77.781	0.134	0.142
-365.712	-63.548	-0.088	0.036
-364.698	31.083	-0.108	0.092
-363.683	225.853	0.045	-0.072
-362.669	-40.944	-0.251	0.129
-361.654	211.664	-0.072	0.112
-360.639	-200.000	-0.032	0.165
-359.625	-98.029	0.309	-0.079
-358.610	-92.957	-0.097	-0.027
-357.596	1.954	-0.275	0.197
-356.581	-163.457	0.108	0.005
-355.566	3.802	-0.137	-0.100
-354.552	98.383	0.174	-0.199
-353.537	174.163	-0.100	-0.143
-352.523	-3.960	0.082	-0.057
-351.508	-61.181	0.209	0.088
-350.493	79.907	-0.366	-0.390
-349.479	185.919	0.097	0.143
-348.464	-30.543	0.143	-0.081
-347.450	-24.332	-0.228	-0.135
-346.435	-200.000	-0.051	-0.374
-345.420	-78.844	0.200	-0.068
-344.406	-200.000	0.027	0.292
-343.391	471.336	0.032	-0.072
-342.377	800.000	-0.107	-0.350
-341.362	-43.488	-0.028	0.014
-340.348	107.901	-0.077	0.092
-339.333	800.000	0.024	0.091
-338.318	48.349	0.159	0.148
-337.304	-200.000	-0.013	-0.160
-336.289	70.630	0.205	0.210
-335.275	800.000	-0.051	-0.147
-334.260	215.834	0.084	-0.132
-333.245	800.000	0.101	0.317
-332.231	-200.000	0.015	0.162
-331.216	800.000	-0.057	-0.222
-330.202	136.386	-0.167	0.217
-329.187	11.470	-0.270	0.206
-328.172	-200.000	-0.017	-0.221
-327.158	-35.101	0.102	0.055
-326.143	119.836	0.159	0.196
-325.129	-78.709	0.106	0.036
-324.114	800.000	0.084	-0.259
-323.099	800.000	0.031	-0.117
-322.085	-91.740	0.104	-0.029
-321.070	800.000	-0.025	0.107
-320.056	234.701	-0.098	0.160
-319.041	111.224	0.138	-0.166
-318.026	-141.963	-0.447	0.044
-317.012	-200.000	-0.021	0.310
-315.997	-102.148	0.233	0.056
-314.983	5.773	-0.442	0.324
-313.968	-122.309	-0.301	-0.049
-312.953	-117.092	-0.368	0.067
-311.939	305.845	0.156	0.288
-310.924	48.723	0.398	0.370
-309.910	-125.731	-0.155	0.023
-308.895	56.942	0.179	-0.173
-307.880	-49.438	0.186	0.088
-306.866	182.302	-0.170	0.249
-305.851	800.000	0.077	0.255
-304.837	311.545	0.154	-0.287
-303.822	-200.000	0.006	-0.041
-302.807	67.633	-0.281	-0.285
-301.793	126.156	-0.122	-0.152
-300.778	215.934	0.105	-0.166
-299.764	679.533	0.128	0.331
-298.749	82.777	-0.184	0.198
-297.735	-93.333	0.245	0.067
-296.720	-200.000	0.040	-0.418
-295.705	-200.000	0.019	-0.126
-294.691	-9.907	-0.065	0.043
-293.676	-190.675	0.298	0.003
-292.662	80.147	0.034	0.036
-291.647	-56.866	0.280	-0.122
-290.632	355.029	0.029	0.058
-289.618	-200.000	0.004	0.149
-288.603	424.487	-0.059	0.126
-287.589	215.001	0.112	0.176
-286.574	-60.857	0.338	-0.142
-285.559	385.307	-0.069	-0.141
-284.545	-47.616	-0.135	-0.065
-283.530	800.000	-0.058	0.173
-282.516	800.000	0.184	0.570
-281.501	543.986	-0.019	-0.045
-280.486	800.000	-0.111	-0.378
-279.472	58.389	0.200	-0.194
-278.457	203.269	0.213	0.326
-277.443	157.723	-0.158	0.216
-276.428	-29.504	0.185	0.105
-275.413	-32.901	-0.389	-0.214
-274.399	-113.189	0.464	0.091
-273.384	-147.566	-0.205	0.017
-272.370	-3.836	0.112	0.077
-271.355	800.000	0.074	-0.239
-270.340	25.528	0.329	-0.271
-269.326	-93.023	-0.171	-0.047
-268.311	230.247	0.109	0.176
-267.297	304.485	-0.145	-0.266
-266.282	283.797	-0.158	0.281
-265.267	72.957	0.310	0.320
-264.253	13.945	0.177	0.136
-263.238	-200.000	-0.001	0.208
-262.224	-38.863	0.113	0.059
-261.209	191.096	0.068	-0.101
-260.195	-176.955	0.191	-0.005
-259.180	-65.339	0.144	0.057
-258.165	90.093	0.185	-0.205
-257.151	-7.088	0.180	-0.121
-256.136	800.000	0.046	-0.165
-255.122	1.177	-0.103	-0.074
-254.107	345.991	0.166	-0.323
-253.092	46.544	0.077	-0.071
-252.078	33.012	0.314	-0.269
-251.063	-200.000	0.008	0.071
-250.049	13.381	0.196	-0.150
-249.034	166.758	0.076	-0.107
-248.019	-38.651	-0.238	0.124
-247.005	-41.361	-0.410	-0.209
-245.990	-200.000	0.019	0.102
-244.976	270.739	0.034	0.059
-243.961	-63.016	-0.199	-0.081
-242.946	-200.000	-0.031	0.327
-241.932	-200.000	-0.004	-0.279
-240.917	104.672	-0.192	0.224
-239.903	105.089	-0.110	-0.129
-238.888	-160.657	0.188	-0.010
-237.873	26.120	-0.160	-0.132
-236.859	302.672	-0.078	-0.142
-235.844	-64.091	-0.071	-0.029
-234.830	17.682	0.143	-0.112
-233.815	800.000	0.050	0.150
-232.800	-200.000	-0.046	-0.408
-231.786	103.203	0.161	0.186
-230.771	688.841	0.051	0.132
-229.757	800.000	-0.083	0.240
-228.742	126.146	0.180	0.226
-227.727	214.288	0.064	-0.100
-226.713	-112.535	-0.253	-0.050
-225.698	-200.000	0.008	0.072
-224.684	-162.552	-0.306	-0.015
-223.669	258.000	-0.067	0.114
-222.655	-62.993	0.306	-0.125
-221.640	19.622	-0.193	0.154
-220.625	-145.179	0.230	0.021
-219.611	-186.196	-0.070	0.001
-218.596	452.835	-0.097	-0.211
-217.582	61.816	-0.252	-0.248
-216.567	800.000	-0.088	-0.272
-215.552	57.793	0.203	0.196
-214.538	195.115	0.115	0.172
-213.523	800.000	0.048	-0.157
-212.509	20.324	-0.102	0.082
-211.494	-68.050	-0.321	-0.124
-210.479	-157.576	0.490	0.029
-209.465	-5.059	0.228	-0.155
-208.450	56.320	0.094	-0.090
-207.436	800.000	0.075	-0.267
-206.421	-67.723	-0.363	-0.140
-205.406	-200.000	-0.041	0.335
-204.392	-42.909	0.283	-0.142
-203.377	-200.000	0.027	0.313
-202.363	552.557	-0.060	0.141
-201.348	-67.325	-0.363	0.141
-200.333	194.210	0.251	0.375
-199.319	-6.655	0.208	0.140
-198.304	99.971	0.079	0.091
-197.290	-60.705	-0.043	0.018
-196.275	428.574	-0.137	-0.293
-195.260	27.889	0.062	-0.051
-194.246	336.626	0.260	0.499
-193.231	-3.614	0.119	0.081
-192.217	-28.007	0.424	0.242
-191.202	-33.273	0.037	-0.020
-190.187	419.807	0.088	0.186
-189.173	-200.000	-0.073	0.348
-188.158	-32.455	-0.210	-0.116
-187.144	406.862	-0.087	0.181
-186.129	800.000	0.072	0.202
-185.114	800.000	0.112	0.347
-184.100	126.036	-0.262	0.326
-183.085	-175.890	-0.356	-0.009
-182.071	-200.000	0.048	-0.235
-181.056	624.002	-0.166	-0.412
-180.042	47.953	0.129	0.119
-179.027	-56.123	0.319	-0.140
-178.012	-200.000	0.033	-0.194
-176.998	2.876	-0.039	-0.028
-175.983	800.000	-0.037	-0.148
-174.969	202.340	-0.292	0.445
-173.954	-104.081	0.081	-0.018
-172.939	-200.000	-0.000	-0.055
-171.925	-200.000	0.019	0.089
-170.910	800.000	0.023	-0.070
-169.896	-93.150	0.324	-0.089
-168.881	800.000	0.072	0.260
-167.866	85.202	-0.082	0.089
-166.852	-15.344	-0.105	-0.066
-165.837	800.000	-0.093	-0.292
-164.823	650.601	-0.161	-0.406
-163.808	-73.843	-0.260	-0.093
-162.793	75.941	-0.089	0.093
-161.779	21.648	0.180	0.144
-160.764	-80.791	-0.323	0.106
-159.750	-92.204	0.205	0.057
-158.735	-91.033	0.308	0.087
-157.720	-200.000	-0.003	0.234
-156.706	-1.899	0.141	0.098
-155.691	-200.000	-0.008	0.285
-154.677	800.000	-0.065	-0.220
-153.662	-124.350	-0.246	-0.038
-152.647	-200.000	0.004	-0.183
-151.633	106.633	-0.106	-0.124
-150.618	800.000	0.045	0.169
-149.604	-200.000	0.024	0.126
-148.589	-49.751	0.176	0.082
-147.574	194.552	0.090	-0.135
-146.560	413.447	0.136	-0.284
-145.545	-200.000	-0.003	-0.430
-144.531	-59.484	-0.231	0.098
-143.516	800.000	0.145	0.406
-142.502	-200.000	-0.015	0.245
-141.487	-162.967	0.260	-0.012
-140.472	800.000	0.051	0.183
-139.458	-52.964	-0.291	0.132
-138.443	-92.119	-0.310	0.086
-137.429	199.261	0.147	-0.223
-136.414	146.107	-0.062	0.082
-135.399	-82.372	0.039	0.012
-134.385	-71.964	0.232	-0.085
-133.370	57.923	0.077	0.075
-132.356	316.637	0.035	0.065
-131.341	-200.000	0.023	0.146
-130.326	217.049	-0.162	0.254
-129.312	439.188	0.141	0.303
-128.297	24.068	-0.180	0.146
-127.283	83.566	-0.107	-0.115
-126.268	505.273	-0.033	-0.076
-125.253	235.788	0.018	-0.029
-124.239	178.747	0.037	0.054
-123.224	108.984	0.154	-0.181
-122.210	-97.512	0.400	-0.102
-121.195	363.553	-0.092	0.182
-120.180	-200.000	-0.063	0.359
