DTS Sentinel unit serial number:	SN413079Multiplexer serial number:	ORYXHardware model number:	OX4-SRSoftware version number:	ORYX F/W v4.00 Oryx Data Collector v3.7.2.0data status	okinstallation	princeton_trtdifferential loss correction	single-endedforward channel	channel 2reverse channel	N/Adate	2019/09/11time	16:29:11forward acquisition time	60.00reverse acquisition time	0.00gamma	496.2192k internal	0.2285k external	0.2285temperature offset calibration	1.0017default loss term (dB/km)	0.3790temperature slope calibration	1.0000multiplexer offset coefficient	1.0000multiplexer slope coefficient	1.0000fibre end	0.00T internal ref (°C)	43.64T ext. ref 1 (°C)	1.09T ext. ref 2 (°C)	39.55length (m)	temperature (°C)	Stokes	anti-Stokes-747.200	-118.790	0.285	0.051
-746.185	800.000	-0.180	0.528
-745.171	-200.000	-0.028	-0.218
-744.156	27.047	-0.080	0.069
-743.142	-153.448	0.058	-0.004
-742.127	107.367	-0.146	0.179
-741.112	-200.000	-0.048	0.402
-740.098	-200.000	0.034	0.321
-739.083	-75.170	-0.232	0.085
-738.069	45.506	-0.351	0.333
-737.054	-71.854	-0.524	-0.200
-736.039	398.426	-0.069	0.148
-735.025	-10.384	0.278	-0.189
-734.010	-62.785	0.205	0.087
-732.996	-9.882	-0.319	-0.218
-731.981	800.000	-0.056	0.175
-730.966	-172.779	-0.286	0.009
-729.952	-5.881	0.073	-0.051
-728.937	-200.000	-0.011	0.387
-727.923	-158.504	0.058	0.003
-726.908	405.432	-0.145	-0.314
-725.894	70.761	-0.166	-0.176
-724.879	-100.193	-0.428	0.109
-723.864	-9.267	-0.265	0.182
-722.850	165.253	-0.182	0.264
-721.835	76.768	0.216	-0.235
-720.821	30.952	-0.356	0.313
-719.806	-200.000	-0.009	-0.205
-718.791	339.728	-0.064	0.129
-717.777	-200.000	0.039	0.205
-716.762	-3.622	0.162	0.115
-715.748	-25.438	-0.096	0.058
-714.733	-43.238	0.114	0.059
-713.718	-16.689	-0.136	0.088
-712.704	800.000	-0.026	0.082
-711.689	-200.000	0.021	-0.196
-710.675	-128.796	0.234	-0.034
-709.660	168.805	0.232	-0.340
-708.645	-128.804	0.178	0.026
-707.631	103.989	0.042	0.050
-706.616	145.674	-0.098	0.134
-705.602	49.597	-0.128	0.124
-704.587	-159.532	0.166	0.009
-703.572	37.532	0.064	0.059
-702.558	800.000	-0.037	0.115
-701.543	14.375	-0.137	0.109
-700.529	-21.430	-0.073	0.046
-699.514	306.493	-0.050	-0.095
-698.499	165.265	0.119	-0.172
-697.485	441.672	-0.018	-0.041
-696.470	800.000	-0.030	0.123
-695.456	800.000	0.116	-0.353
-694.441	739.209	-0.091	-0.250
-693.426	-93.529	-0.027	-0.008
-692.412	800.000	-0.139	0.437
-691.397	43.049	0.153	0.143
-690.383	-80.706	-0.141	-0.048
-689.368	-200.000	0.038	-0.366
-688.354	-69.069	-0.210	-0.083
-687.339	-84.807	-0.054	-0.017
-686.324	-24.822	-0.168	0.102
-685.310	2.304	-0.199	0.147
-684.295	-173.755	0.292	-0.009
-683.281	-131.826	0.120	-0.016
-682.266	-148.827	0.095	-0.008
-681.251	1.654	-0.191	0.141
-680.237	-74.124	-0.393	0.146
-679.222	-11.348	-0.219	0.148
-678.208	176.308	0.219	0.326
-677.193	766.965	0.057	0.159
-676.178	59.349	-0.092	0.093
-675.164	23.405	-0.236	-0.198
-674.149	596.335	0.141	0.357
-673.135	32.533	0.159	0.141
-672.120	800.000	0.079	0.273
-671.105	-200.000	-0.081	0.377
-670.091	482.952	0.179	0.418
-669.076	97.514	-0.064	-0.076
-668.062	364.343	0.075	0.153
-667.047	-28.473	-0.222	-0.131
-666.032	-118.634	0.160	-0.029
-665.018	-200.000	-0.035	0.294
-664.003	222.377	-0.134	-0.220
-662.989	-162.330	0.254	0.013
-661.974	-200.000	-0.017	0.199
-660.959	-147.940	-0.194	-0.017
-659.945	217.011	-0.163	0.266
-658.930	427.236	-0.154	-0.339
-657.916	67.331	0.173	0.181
-656.901	221.309	-0.105	-0.172
-655.886	-113.984	-0.075	0.015
-654.872	-14.302	0.307	-0.202
-653.857	31.864	0.101	-0.089
-652.843	-126.349	-0.127	-0.019
-651.828	111.999	-0.101	0.125
-650.814	-39.899	0.095	-0.051
-649.799	21.354	-0.241	-0.200
-648.784	100.547	0.156	0.185
-647.770	705.583	0.070	-0.188
-646.755	85.602	-0.216	0.242
-645.741	15.737	0.127	-0.102
-644.726	248.629	0.103	0.178
-643.711	57.296	0.115	-0.115
-642.697	1.327	0.205	-0.150
-641.682	-141.498	-0.226	0.023
-640.668	20.262	-0.361	0.298
-639.653	-82.419	-0.253	0.084
-638.638	-200.000	0.002	0.011
-637.624	119.088	0.142	-0.180
-636.609	-200.000	0.009	-0.110
-635.595	322.579	0.128	0.248
-634.580	95.211	0.228	0.266
-633.565	-163.697	0.253	-0.012
-632.551	234.680	0.276	-0.466
-631.536	-58.201	-0.343	-0.153
-630.522	-136.344	-0.245	-0.029
-629.507	261.085	-0.057	0.101
-628.492	-162.911	0.299	0.015
-627.478	558.862	0.066	0.163
-626.463	-8.545	0.118	-0.081
-625.449	800.000	0.056	-0.226
-624.434	291.309	-0.018	-0.033
-623.419	537.123	0.209	-0.508
-622.405	-200.000	-0.000	-0.267
-621.390	71.772	-0.209	0.222
-620.376	-30.109	0.062	0.036
-619.361	-108.064	-0.229	0.051
-618.346	174.000	-0.074	-0.110
-617.332	800.000	0.072	0.304
-616.317	-2.053	0.293	0.210
-615.303	181.499	0.087	0.130
-614.288	-7.429	0.148	-0.102
-613.273	-105.679	-0.101	-0.023
-612.259	188.474	-0.127	0.193
-611.244	139.903	-0.197	0.265
-610.230	66.459	0.288	-0.299
-609.215	-200.000	0.019	-0.262
-608.201	-61.957	0.278	-0.119
-607.186	46.425	-0.124	-0.118
-606.171	98.298	-0.093	0.109
-605.157	-60.152	0.368	0.160
-604.142	-200.000	-0.046	-0.222
-603.128	-16.557	-0.139	-0.090
-602.113	265.248	0.156	-0.277
-601.098	48.793	0.062	0.059
-600.084	-200.000	-0.037	0.306
-599.069	-21.520	-0.084	0.052
-598.055	128.942	-0.299	0.389
-597.040	-9.492	0.378	-0.257
-596.025	53.779	-0.291	-0.285
-595.011	-71.530	0.197	0.075
-593.996	-3.549	0.456	0.324
-592.982	-117.270	-0.194	0.036
-591.967	-200.000	0.032	0.249
-590.952	325.421	-0.132	-0.257
-589.938	-63.232	0.375	0.158
-588.923	587.049	0.017	-0.042
-587.909	45.033	-0.239	-0.224
-586.894	-173.150	-0.146	0.005
-585.879	173.404	0.175	-0.257
-584.865	800.000	0.045	-0.139
-583.850	-17.461	-0.121	0.078
-582.836	-120.719	0.237	-0.041
-581.821	25.868	0.125	0.107
-580.806	800.000	-0.095	0.352
-579.792	-53.622	0.240	-0.112
-578.777	800.000	-0.089	-0.339
-577.763	-106.116	0.157	0.036
-576.748	-190.006	-0.066	-0.001
-575.733	-14.807	-0.204	-0.134
-574.719	-20.450	-0.135	0.085
-573.704	-200.000	-0.023	-0.193
-572.690	615.698	-0.108	0.275
-571.675	-43.662	-0.095	-0.049
-570.661	-120.574	0.296	-0.051
-569.646	-200.000	-0.041	-0.237
-568.631	-64.421	0.367	-0.152
-567.617	-42.552	-0.050	-0.026
-566.602	670.576	0.071	0.188
-565.588	215.194	0.024	0.038
-564.573	-31.400	0.204	-0.117
-563.558	-7.218	-0.092	0.063
-562.544	-105.693	0.177	0.041
-561.529	-16.721	0.120	-0.077
-560.515	307.795	-0.030	0.057
-559.500	-164.943	0.217	-0.010
-558.485	-200.000	-0.015	0.282
-557.471	13.109	-0.410	0.323
-556.456	800.000	-0.069	0.197
-555.442	57.181	-0.074	0.073
-554.427	-200.000	0.006	0.179
-553.412	505.196	0.062	-0.146
-552.398	-64.177	0.104	0.043
-551.383	800.000	0.053	0.237
-550.369	-54.608	0.172	0.079
-549.354	-41.740	0.195	-0.102
-548.339	-41.045	0.244	-0.128
-547.325	282.689	-0.074	0.136
-546.310	-1.566	0.263	0.189
-545.296	73.392	0.075	0.080
-544.281	-200.000	0.000	-0.084
-543.266	-77.004	0.287	0.102
-542.252	74.109	-0.064	-0.068
-541.237	-111.229	-0.325	-0.068
-540.223	-144.946	-0.154	0.014
-539.208	-121.857	-0.113	0.019
-538.193	555.140	-0.007	0.017
-537.179	470.761	0.074	-0.169
-536.164	114.164	-0.078	0.096
-535.150	-187.143	0.273	-0.004
-534.135	112.315	0.098	0.121
-533.121	-134.802	0.121	-0.015
-532.106	198.782	-0.183	-0.286
-531.091	66.431	-0.237	-0.245
-530.077	-21.033	-0.246	-0.154
-529.062	-58.894	-0.049	0.022
-528.048	-16.446	-0.267	0.172
-527.033	181.084	0.056	-0.084
-526.018	391.654	-0.070	0.148
-525.004	800.000	0.027	0.077
-523.989	224.562	0.042	0.070
-522.975	3.044	0.071	-0.052
-521.960	-200.000	0.030	-0.152
-520.945	-19.027	-0.235	0.149
-519.931	800.000	0.059	-0.168
-518.916	64.300	-0.026	-0.027
-517.902	800.000	0.119	0.391
-516.887	-143.212	-0.278	0.027
-515.872	733.525	-0.091	0.249
-514.858	23.899	-0.085	0.071
-513.843	-64.274	0.291	-0.121
-512.829	30.885	-0.183	-0.160
-511.814	-87.469	-0.074	0.023
-510.799	21.583	0.074	0.062
-509.785	800.000	0.015	-0.062
-508.770	111.161	0.294	-0.360
-507.756	470.678	-0.083	-0.189
-506.741	-200.000	0.013	0.433
-505.726	-111.018	-0.268	-0.056
-504.712	26.630	-0.128	-0.109
-503.697	-118.838	-0.242	-0.043
-502.683	-112.535	-0.403	-0.082
-501.668	308.004	-0.075	0.142
-500.653	272.162	-0.109	0.196
-499.639	-47.306	0.414	-0.205
-498.624	-87.667	0.174	-0.053
-497.610	-122.723	-0.230	-0.038
-496.595	-200.000	0.047	0.219
-495.581	-168.220	-0.193	-0.008
-494.566	-200.000	0.066	0.330
-493.551	-67.125	0.409	0.164
-492.537	800.000	0.064	0.263
-491.522	246.024	-0.085	0.146
-490.508	2.173	0.249	0.183
-489.493	-104.733	-0.083	0.019
-488.478	-91.646	-0.146	0.042
-487.464	400.379	0.138	-0.295
-486.449	335.960	0.115	-0.228
-485.435	-200.000	-0.045	-0.308
-484.420	706.421	-0.087	-0.232
-483.405	-200.000	-0.018	-0.140
-482.391	236.640	-0.092	0.154
-481.376	-133.900	-0.132	-0.017
-480.362	4.812	-0.101	0.075
-479.347	59.602	0.164	0.164
-478.332	-133.798	0.092	-0.012
-477.318	274.222	-0.076	0.136
-476.303	-99.035	-0.252	0.065
-475.289	-162.999	-0.099	0.005
-474.274	35.114	0.100	-0.089
-473.259	-35.595	0.236	-0.130
-472.245	-200.000	0.023	-0.207
-471.230	-22.096	0.303	0.187
-470.216	32.026	-0.210	-0.184
-469.201	800.000	-0.082	-0.337
-468.186	386.336	-0.043	0.089
-467.172	35.246	0.263	-0.234
-466.157	-129.893	0.271	-0.038
-465.143	-39.100	-0.226	-0.121
-464.128	-121.371	-0.395	0.067
-463.113	-200.000	0.007	0.060
-462.099	-200.000	-0.026	0.215
-461.084	362.748	0.099	0.201
-460.070	293.507	0.187	-0.346
-459.055	170.273	-0.106	-0.153
-458.040	-43.256	0.132	-0.068
-457.026	-200.000	-0.036	-0.248
-456.011	-109.338	-0.283	-0.061
-454.997	314.849	0.021	0.040
-453.982	-136.170	0.354	0.042
-452.968	-26.291	0.243	-0.145
-451.953	-4.277	0.481	0.338
-450.938	-200.000	-0.001	0.027
-449.924	163.535	-0.152	-0.217
-448.909	-56.644	-0.218	0.098
-447.895	-66.408	-0.092	0.037
-446.880	-83.109	0.185	-0.061
-445.865	70.976	0.273	0.287
-444.851	-43.849	0.150	-0.077
-443.836	14.247	-0.230	-0.182
-442.822	-156.730	-0.280	-0.018
-441.807	-200.000	0.018	-0.298
-440.792	-200.000	0.014	0.206
-439.778	-32.500	0.352	0.199
-438.763	-81.551	-0.061	0.020
-437.749	-76.082	-0.061	-0.022
-436.734	2.624	-0.072	-0.053
-435.719	41.621	-0.109	-0.100
-434.705	-112.626	-0.196	-0.040
-433.690	52.817	-0.175	-0.169
-432.676	94.677	0.074	0.085
-431.661	-200.000	-0.014	0.087
-430.646	215.051	-0.028	0.046
-429.632	21.886	-0.290	0.240
-428.617	487.082	0.084	0.195
-427.603	-45.574	0.202	-0.101
-426.588	-200.000	0.015	0.213
-425.573	269.325	0.171	0.305
-424.559	-124.943	-0.132	0.021
-423.544	10.180	-0.225	0.173
-422.530	-78.994	-0.064	-0.022
-421.515	-123.786	-0.282	-0.045
-420.500	621.991	0.111	-0.284
-419.486	73.277	0.095	-0.101
-418.471	-5.289	0.139	-0.097
-417.457	37.227	0.212	0.191
-416.442	-154.632	0.303	0.020
-415.428	800.000	0.061	-0.236
-414.413	-71.966	-0.264	0.100
-413.398	283.808	0.161	-0.292
-412.384	590.565	-0.082	-0.206
-411.369	-188.127	0.153	0.002
-410.355	-200.000	0.052	-0.281
-409.340	-200.000	-0.010	0.143
-408.325	572.225	-0.091	0.224
-407.311	77.175	-0.203	0.218
-406.296	139.318	-0.217	0.290
-405.282	281.852	-0.034	-0.063
-404.267	-1.675	-0.208	-0.148
-403.252	800.000	-0.010	-0.042
-402.238	-30.253	-0.363	0.209
-401.223	-11.449	-0.316	0.211
-400.209	-34.469	-0.169	0.094
-399.194	-76.098	-0.052	-0.019
-398.179	-169.036	-0.204	0.008
-397.165	384.088	-0.118	-0.246
-396.150	-125.537	-0.161	0.025
-395.136	190.813	0.144	0.220
-394.121	-200.000	-0.023	-0.199
-393.106	800.000	-0.013	-0.045
-392.092	-46.991	-0.267	0.132
-391.077	-68.785	0.033	0.013
-390.063	-174.088	0.441	-0.013
-389.048	-58.569	-0.287	-0.126
-388.033	11.687	0.147	-0.114
-387.019	-200.000	0.043	0.220
-386.004	-190.489	0.177	-0.002
-384.990	-71.178	-0.378	0.144
-383.975	-200.000	0.002	0.357
-382.960	37.572	0.060	0.054
-381.946	391.144	-0.025	-0.053
-380.931	-54.864	-0.248	0.113
-379.917	-84.766	-0.235	-0.075
-378.902	-140.704	0.219	-0.023
-377.888	206.257	-0.123	-0.194
-376.873	57.195	-0.183	-0.180
-375.858	-200.000	0.042	0.442
-374.844	-200.000	-0.084	-0.423
-373.829	-200.000	-0.050	-0.232
-372.815	351.235	-0.065	-0.130
-371.800	-56.473	0.410	-0.184
-370.785	367.577	-0.086	-0.175
-369.771	75.372	-0.287	-0.306
-368.756	41.569	-0.210	-0.192
-367.742	-134.754	0.232	0.028
-366.727	247.454	-0.200	-0.342
-365.712	-29.996	-0.210	0.121
-364.698	-183.218	0.314	-0.006
-363.683	-102.661	0.047	-0.011
-362.669	-27.557	0.079	-0.047
-361.654	-200.000	-0.005	-0.388
-360.639	293.782	-0.096	-0.177
-359.625	-200.000	-0.028	0.284
-358.610	311.135	0.120	-0.228
-357.596	-60.860	0.301	0.129
-356.581	301.218	0.096	0.180
-355.566	-87.229	0.073	0.023
-354.552	-200.000	-0.016	0.104
-353.537	-106.628	0.104	-0.023
-352.523	-69.041	0.114	-0.045
-351.508	-144.451	-0.240	0.023
-350.493	800.000	0.085	0.276
-349.479	800.000	0.071	0.200
-348.464	23.836	0.079	0.066
-347.450	142.796	-0.115	-0.154
-346.435	-200.000	-0.004	0.116
-345.420	235.328	-0.132	0.220
-344.406	-200.000	0.032	-0.202
-343.391	707.648	-0.056	0.151
-342.377	88.713	0.310	-0.348
-341.362	800.000	-0.043	0.174
-340.348	-51.706	0.083	-0.039
-339.333	-32.331	0.259	-0.146
-338.318	117.769	-0.074	-0.092
-337.304	-117.256	0.292	0.054
-336.289	-126.997	-0.254	-0.038
-335.275	-0.658	-0.297	0.213
-334.260	-44.610	-0.022	0.011
-333.245	-200.000	0.026	0.152
-332.231	458.627	0.050	-0.112
-331.216	-200.000	0.022	0.213
-330.202	800.000	-0.084	0.321
-329.187	40.105	0.161	0.146
-328.172	-127.939	-0.121	-0.018
-327.158	182.990	-0.128	-0.190
-326.143	486.019	-0.091	-0.209
-325.129	9.853	0.325	0.249
-324.114	10.216	-0.139	0.107
-323.099	-200.000	-0.009	-0.228
-322.085	-62.346	0.182	-0.076
-321.070	360.520	-0.062	-0.125
-320.056	-118.280	-0.267	0.048
-319.041	226.371	-0.181	0.297
-318.026	-29.922	0.031	-0.018
-317.012	-120.988	0.315	0.053
-315.997	-51.223	0.165	-0.078
-314.983	4.489	0.162	-0.120
-313.968	82.657	-0.050	-0.055
-312.953	-33.443	-0.121	-0.067
-311.939	103.847	-0.026	-0.031
-310.924	-154.962	0.277	-0.018
-309.910	-64.221	-0.377	0.155
-308.895	800.000	-0.061	-0.203
-307.880	800.000	0.101	-0.309
-306.866	-22.373	-0.277	0.169
-305.851	800.000	0.081	-0.240
-304.837	15.141	0.202	0.160
-303.822	24.463	0.022	-0.018
-302.807	187.919	0.146	0.220
-301.793	-179.710	0.206	0.005
-300.778	35.637	0.081	-0.072
-299.764	800.000	-0.079	0.247
-298.749	-103.871	-0.354	-0.083
-297.735	145.914	0.089	0.120
-296.720	-200.000	-0.059	-0.355
-295.705	37.528	-0.104	0.093
-294.691	-200.000	-0.013	-0.153
-293.676	-200.000	-0.004	0.250
-292.662	230.424	0.030	-0.050
-291.647	109.643	0.142	-0.171
-290.632	-200.000	0.027	0.145
-289.618	-160.455	-0.355	-0.019
-288.603	-145.745	-0.185	0.017
-287.589	184.027	0.099	-0.148
-286.574	-200.000	-0.026	0.343
-285.559	800.000	-0.018	0.068
-284.545	-200.000	0.034	0.202
-283.530	-15.324	0.084	0.054
-282.516	35.388	0.313	0.277
-281.501	-124.096	-0.225	-0.036
-280.486	-200.000	0.025	0.304
-279.472	-200.000	0.001	-0.432
-278.457	800.000	0.046	0.183
-277.443	-200.000	0.061	0.282
-276.428	-101.004	-0.194	-0.048
-275.413	-145.638	0.083	-0.008
-274.399	-81.341	-0.152	-0.051
-273.384	193.559	0.272	0.415
-272.370	-76.564	0.222	0.079
-271.355	567.164	-0.029	0.070
-270.340	-85.661	-0.478	-0.149
-269.326	-24.748	-0.179	0.107
-268.311	-82.383	0.311	-0.102
-267.297	-91.660	-0.221	-0.063
-266.282	800.000	0.025	-0.071
-265.267	-87.415	0.422	-0.129
-264.253	24.558	-0.242	0.202
-263.238	-126.211	-0.387	-0.058
-262.224	-25.166	-0.401	-0.239
-261.209	-133.666	-0.567	-0.071
-260.195	-61.806	-0.219	-0.093
-259.180	800.000	0.110	-0.369
-258.165	393.497	0.020	0.041
-257.151	-176.326	0.301	0.008
-256.136	-200.000	-0.055	-0.307
-255.122	-137.212	0.113	0.013
-254.107	-200.000	-0.004	-0.081
-253.092	-200.000	0.004	0.223
-252.078	-23.641	-0.061	0.037
-251.063	-200.000	-0.010	-0.180
-250.049	-56.404	-0.069	-0.031
-249.034	800.000	0.022	-0.063
-248.019	-150.440	0.328	0.025
-247.005	-200.000	0.019	-0.202
-245.990	800.000	-0.103	0.417
-244.976	-43.040	0.322	0.164
-243.961	-18.807	-0.190	-0.119
-242.946	4.767	0.058	0.043
-241.932	-85.267	0.116	-0.036
-240.917	-24.002	-0.253	-0.152
-239.903	306.795	0.084	0.158
-238.888	-200.000	0.005	0.286
-237.873	-25.396	-0.256	-0.152
-236.859	-16.748	-0.268	0.171
-235.844	125.982	0.122	-0.156
-234.830	-200.000	-0.010	-0.187
-233.815	27.961	-0.151	-0.128
-232.800	85.402	-0.246	0.272
-231.786	-0.306	-0.188	-0.135
-230.771	-53.336	0.042	0.019
-229.757	66.124	-0.156	0.160
-228.742	185.586	0.077	0.115
-227.727	297.365	0.054	0.099
-226.713	800.000	-0.052	0.152
-225.698	307.699	0.091	0.171
-224.684	-200.000	0.015	-0.132
-223.669	145.485	-0.195	0.263
-222.655	67.416	-0.245	0.252
-221.640	430.238	0.060	-0.132
-220.625	-140.945	0.107	0.011
-219.611	264.202	-0.161	-0.281
-218.596	-200.000	0.031	0.163
-217.582	-200.000	0.016	-0.288
-216.567	-144.442	0.155	0.014
-215.552	-139.515	0.236	-0.025
-214.538	-5.442	-0.120	0.083
-213.523	-27.900	0.245	-0.143
-212.509	-12.604	-0.034	0.023
-211.494	372.015	0.131	0.267
-210.479	-200.000	0.070	0.395
-209.465	-88.966	0.119	-0.035
-208.450	4.319	-0.153	-0.113
-207.436	-133.376	0.028	-0.004
-206.421	97.300	0.197	-0.228
-205.406	73.703	-0.087	0.092
-204.392	91.480	0.058	0.065
-203.377	-200.000	-0.021	-0.163
-202.363	77.775	0.135	0.145
-201.348	74.386	0.225	0.238
-200.333	800.000	-0.042	-0.161
-199.319	70.848	0.322	-0.336
-198.304	-200.000	0.024	0.269
-197.290	57.547	-0.341	-0.334
-196.275	-200.000	-0.036	-0.193
-195.260	-58.178	0.290	-0.127
-194.246	-200.000	-0.026	0.259
-193.231	800.000	0.096	0.268
-192.217	-163.727	-0.338	-0.016
-191.202	139.471	0.061	0.081
-190.187	-33.595	-0.216	-0.120
-189.173	800.000	0.002	0.009
-188.158	-125.198	0.040	-0.006
-187.144	17.656	-0.186	-0.149
-186.129	-200.000	0.049	-0.479
-185.114	800.000	0.083	0.268
-184.100	199.814	0.111	-0.171
-183.085	-101.091	0.217	-0.053
-182.071	112.550	-0.141	-0.171
-181.056	201.692	0.226	0.350
-180.042	-200.000	-0.022	0.209
-179.027	800.000	-0.007	-0.025
-178.012	-116.602	0.291	-0.054
-176.998	237.932	-0.157	-0.261
-175.983	363.194	-0.139	-0.281
-174.969	-46.862	-0.166	-0.082
-173.954	95.234	0.112	0.128
-172.939	-200.000	0.024	-0.258
-171.925	249.003	0.101	0.171
-170.910	800.000	0.055	-0.199
-169.896	-36.753	-0.118	0.064
-168.881	-68.762	0.178	-0.069
-167.866	-178.565	0.183	-0.004
-166.852	-200.000	-0.000	-0.088
-165.837	800.000	-0.029	0.111
-164.823	42.708	0.167	0.152
-163.808	20.562	0.219	0.178
-162.793	800.000	0.061	-0.233
-161.779	-46.346	0.348	0.171
-160.764	-79.027	0.108	0.037
-159.750	-57.130	0.036	-0.016
-158.735	-186.232	-0.233	0.003
-157.720	4.409	-0.256	-0.188
-156.706	48.415	-0.171	0.160
-155.691	-179.695	-0.071	0.002
-154.677	800.000	-0.108	0.325
-153.662	800.000	0.047	0.172
-152.647	-200.000	0.018	-0.283
-151.633	-41.458	0.189	-0.098
-150.618	-200.000	-0.005	-0.087
-149.604	36.220	-0.149	0.132
-148.589	-116.049	-0.060	0.011
-147.574	-143.416	0.077	-0.007
-146.560	20.205	-0.082	-0.066
-145.545	249.709	-0.168	-0.285
-144.531	-170.290	0.222	0.008
-143.516	-21.994	0.139	0.085
-142.502	-200.000	-0.037	-0.262
-141.487	55.052	0.190	-0.184
-140.472	-99.876	-0.175	0.044
-139.458	800.000	-0.102	0.349
-138.443	235.730	-0.129	0.214
-137.429	-200.000	-0.015	0.272
-136.414	416.401	-0.040	-0.085
-135.399	-30.201	0.387	0.220
-134.385	157.987	-0.132	0.183
-133.370	800.000	0.097	0.337
-132.356	190.991	-0.155	0.233
-131.341	-200.000	-0.037	0.248
-130.326	-11.411	0.059	0.039
-129.312	-108.669	-0.234	-0.050
-128.297	800.000	-0.170	0.511
-127.283	-200.000	0.004	0.205
-126.268	-83.132	-0.400	-0.129
-125.253	-186.483	-0.376	0.005
-124.239	-118.081	-0.283	-0.051
-123.224	511.015	0.012	-0.028
-122.210	-164.258	0.286	0.013
-121.195	-200.000	-0.049	0.483
