DTS Sentinel unit serial number:	SN413079Multiplexer serial number:	ORYXHardware model number:	OX4-SRSoftware version number:	ORYX F/W v4.00 Oryx Data Collector v3.7.2.0data status	okinstallation	princeton_trtdifferential loss correction	single-endedforward channel	channel 2reverse channel	N/Adate	2019/09/15time	19:55:35forward acquisition time	60.00reverse acquisition time	0.00gamma	496.2192k internal	0.2326k external	0.2326temperature offset calibration	0.9935default loss term (dB/km)	0.3790temperature slope calibration	1.0000multiplexer offset coefficient	1.0000multiplexer slope coefficient	1.0000fibre end	0.00T internal ref (°C)	36.16T ext. ref 1 (°C)	7.51T ext. ref 2 (°C)	26.83length (m)	temperature (°C)	Stokes	anti-Stokes-747.200	98.325	-0.066	-0.077
-746.185	800.000	-0.129	0.378
-745.171	-102.213	-0.294	0.071
-744.156	-52.434	0.175	0.082
-743.142	273.727	-0.071	-0.126
-742.127	-112.449	-0.181	0.036
-741.112	179.453	-0.226	-0.333
-740.098	-80.253	-0.233	0.079
-739.083	-18.057	0.146	0.092
-738.069	-17.613	-0.358	0.227
-737.054	800.000	0.137	0.385
-736.039	77.536	-0.140	0.150
-735.025	-38.257	0.117	0.062
-734.010	-200.000	-0.004	-0.083
-732.996	-128.952	-0.236	-0.033
-731.981	800.000	0.098	-0.392
-730.966	190.656	-0.153	0.232
-729.952	72.163	0.092	-0.097
-728.937	177.507	0.121	-0.178
-727.923	22.801	-0.140	0.115
-726.908	-3.502	0.301	-0.211
-725.894	23.289	-0.109	0.090
-724.879	-32.181	-0.249	0.140
-723.864	-76.970	0.105	-0.037
-722.850	800.000	0.110	-0.317
-721.835	800.000	0.084	-0.352
-720.821	244.692	-0.124	-0.211
-719.806	-200.000	-0.062	-0.384
-718.791	-40.435	0.168	-0.088
-717.777	-105.545	0.366	0.084
-716.762	-41.736	-0.136	0.070
-715.748	-200.000	0.000	0.393
-714.733	-10.772	0.200	0.133
-713.718	-182.889	0.271	0.005
-712.704	215.544	0.095	0.151
-711.689	-191.239	-0.044	0.000
-710.675	800.000	-0.067	-0.266
-709.660	-74.333	-0.145	-0.053
-708.645	-79.056	0.109	-0.037
-707.631	-200.000	-0.075	-0.652
-706.616	20.071	0.235	-0.191
-705.602	-15.818	0.191	0.123
-704.587	-136.385	0.270	0.032
-703.572	122.355	0.028	0.035
-702.558	800.000	0.088	-0.254
-701.543	-102.979	-0.336	-0.080
-700.529	-132.027	0.133	0.017
-699.514	33.188	-0.086	-0.075
-698.499	-101.429	0.294	-0.072
-697.485	-120.831	-0.181	-0.031
-696.470	-141.769	0.187	0.019
-695.456	5.115	-0.212	-0.157
-694.441	-51.863	-0.187	0.088
-693.426	-200.000	0.012	-0.259
-692.412	770.967	-0.085	0.234
-691.397	-48.936	0.230	0.111
-690.383	-109.952	-0.117	0.025
-689.368	373.879	0.156	-0.320
-688.354	98.700	-0.170	0.198
-687.339	-200.000	-0.031	0.220
-686.324	-167.151	-0.220	-0.009
-685.310	44.117	0.119	0.110
-684.295	31.457	-0.134	0.116
-683.281	-114.829	-0.226	-0.043
-682.266	800.000	-0.087	0.253
-681.251	-87.835	0.277	0.084
-680.237	-12.130	0.101	0.066
-679.222	-200.000	0.030	-0.160
-678.208	238.311	0.091	0.151
-677.193	38.021	0.162	0.145
-676.178	506.785	-0.090	-0.211
-675.164	250.813	0.114	-0.196
-674.149	-200.000	-0.019	-0.135
-673.135	-200.000	0.020	0.141
-672.120	288.317	-0.071	0.129
-671.105	170.205	0.102	0.147
-670.091	577.641	0.083	-0.205
-669.076	31.875	0.142	0.123
-668.062	-200.000	0.008	-0.177
-667.047	221.595	-0.248	0.401
-666.032	-146.257	0.061	0.005
-665.018	-200.000	0.064	-0.351
-664.003	64.307	0.208	0.211
-662.989	149.049	0.088	-0.120
-661.974	800.000	0.069	0.274
-660.959	-90.594	-0.094	-0.027
-659.945	-164.419	-0.267	-0.012
-658.930	341.921	0.113	0.222
-657.916	-200.000	-0.039	0.444
-656.901	-200.000	0.004	0.031
-655.886	-200.000	-0.125	-0.001
-654.872	52.366	-0.134	0.128
-653.857	229.806	0.121	-0.198
-652.843	302.647	0.144	-0.269
-651.828	-200.000	0.018	-0.094
-650.814	-22.067	-0.036	-0.022
-649.799	570.160	-0.065	-0.159
-648.784	-143.618	-0.219	0.021
-647.770	-15.823	0.073	0.047
-646.755	-200.000	0.007	0.208
-645.741	328.861	-0.082	0.158
-644.726	800.000	0.066	0.229
-643.711	117.083	0.157	0.193
-642.697	-153.547	-0.320	0.022
-641.682	80.670	0.247	-0.267
-640.668	-40.849	0.286	-0.149
-639.653	-85.637	-0.329	0.103
-638.638	38.833	0.081	-0.073
-637.624	-200.000	-0.010	0.063
-636.609	-200.000	0.010	0.047
-635.595	10.713	-0.248	0.190
-634.580	148.447	0.093	0.126
-633.565	266.683	-0.102	-0.179
-632.551	800.000	-0.075	0.303
-631.536	456.331	-0.123	-0.274
-630.522	-140.723	0.066	0.007
-629.507	409.054	0.114	-0.243
-628.492	-200.000	0.016	0.131
-627.478	52.844	-0.278	-0.267
-626.463	-57.344	-0.158	0.070
-625.449	131.290	-0.256	-0.331
-624.434	800.000	-0.049	0.150
-623.419	-118.426	0.347	-0.062
-622.405	126.201	-0.189	-0.240
-621.390	362.493	0.108	0.218
-620.376	167.602	0.242	0.345
-619.361	30.670	-0.154	0.133
-618.346	-117.685	-0.129	0.023
-617.332	122.724	-0.276	0.346
-616.317	59.863	0.084	-0.083
-615.303	201.162	0.079	-0.123
-614.288	-200.000	-0.010	0.123
-613.273	27.168	-0.332	-0.280
-612.259	800.000	-0.091	0.258
-611.244	334.647	-0.342	0.664
-610.230	-137.783	-0.111	-0.012
-609.215	297.739	-0.065	0.119
-608.201	-141.360	-0.317	-0.032
-607.186	14.148	0.038	0.030
-606.171	71.331	0.177	-0.184
-605.157	-171.931	0.175	0.006
-604.142	-181.825	0.086	0.002
-603.128	71.124	-0.041	0.043
-602.113	800.000	0.008	0.034
-601.098	145.422	-0.194	-0.261
-600.084	-54.778	0.432	-0.196
-599.069	-194.901	0.088	-0.001
-598.055	-144.100	0.265	-0.025
-597.040	-15.546	0.200	-0.128
-596.025	-200.000	-0.025	-0.640
-595.011	-191.505	-0.065	0.001
-593.996	-171.071	-0.113	-0.004
-592.982	-128.130	0.314	-0.045
-591.967	-71.074	-0.232	-0.087
-590.952	-200.000	-0.356	0.001
-589.938	-17.583	-0.280	-0.177
-588.923	-156.428	-0.205	-0.013
-587.909	-106.850	0.122	-0.027
-586.894	-120.129	0.257	0.044
-585.879	782.425	0.077	-0.211
-584.865	-27.319	0.236	-0.138
-583.850	-200.000	0.003	0.021
-582.836	800.000	0.073	-0.291
-581.821	-2.291	-0.325	-0.229
-580.806	-185.366	-0.158	0.002
-579.792	-51.868	0.383	0.179
-578.777	103.192	-0.156	0.184
-577.763	-97.359	0.060	-0.016
-576.748	10.398	0.104	0.079
-575.733	-200.000	0.035	0.201
-574.719	-87.346	0.338	0.103
-573.704	-200.000	0.029	-0.220
-572.690	-113.541	-0.195	0.038
-571.675	-200.000	0.020	-0.106
-570.661	-200.000	-0.011	0.166
-569.646	57.182	-0.256	-0.250
-568.631	-200.000	-0.044	0.294
-567.617	63.320	-0.168	0.169
-566.602	-49.512	0.169	0.081
-565.588	-56.435	-0.290	0.129
-564.573	-121.110	0.204	0.034
-563.558	800.000	-0.030	0.099
-562.544	-158.664	-0.346	0.020
-561.529	141.998	0.071	0.095
-560.515	-70.858	0.344	-0.130
-559.500	800.000	-0.017	-0.057
-558.485	-84.537	-0.282	0.089
-557.471	95.890	0.213	-0.243
-556.456	-200.000	-0.003	-0.042
-555.442	800.000	-0.117	0.325
-554.427	-200.000	0.002	0.049
-553.412	35.667	0.342	-0.300
-552.398	-121.713	-0.395	-0.065
-551.383	-15.570	0.275	-0.176
-550.369	-200.000	0.018	0.256
-549.354	-60.766	-0.335	0.142
-548.339	800.000	0.079	-0.260
-547.325	-12.061	0.256	-0.168
-546.310	488.963	0.133	0.305
-545.296	214.761	0.221	-0.351
-544.281	-200.000	0.031	-0.217
-543.266	-86.179	0.102	-0.032
-542.252	492.426	-0.083	-0.191
-541.237	-70.896	0.361	0.136
-540.223	74.024	0.085	0.089
-539.208	800.000	0.071	-0.286
-538.193	422.283	0.125	-0.269
-537.179	-200.000	-0.044	-0.215
-536.164	135.451	-0.221	-0.288
-535.150	-200.000	0.024	0.164
-534.135	-200.000	-0.016	0.094
-533.121	80.354	-0.162	-0.174
-532.106	10.749	-0.105	0.080
-531.091	196.762	0.198	-0.302
-530.077	-126.509	-0.222	-0.033
-529.062	115.725	0.080	0.098
-528.048	329.531	-0.144	0.278
-527.033	-200.000	-0.022	0.147
-526.018	-54.241	-0.365	-0.166
-525.004	102.525	0.106	0.124
-523.989	204.559	0.032	0.049
-522.975	250.427	-0.227	0.386
-521.960	800.000	0.076	-0.311
-520.945	800.000	-0.081	-0.270
-519.931	114.972	0.152	-0.186
-518.916	28.356	-0.124	0.105
-517.902	45.305	0.290	0.268
-516.887	105.364	0.066	-0.077
-515.872	181.341	0.211	-0.311
-514.858	654.709	-0.129	-0.331
-513.843	-45.093	0.228	-0.113
-512.829	800.000	0.093	0.375
-511.814	504.398	-0.036	-0.083
-510.799	-103.362	0.078	-0.018
-509.785	-165.617	0.415	0.018
-508.770	129.885	-0.276	-0.353
-507.756	-104.175	-0.080	-0.018
-506.741	-112.949	0.085	-0.017
-505.726	554.092	0.021	0.051
-504.712	11.123	-0.185	0.141
-503.697	-21.145	-0.314	0.192
-502.683	-200.000	0.019	0.123
-501.668	-200.000	0.006	-0.127
-500.653	-55.340	0.277	0.124
-499.639	181.526	0.033	0.048
-498.624	1.201	-0.183	0.131
-497.610	-200.000	-0.001	0.087
-496.595	64.885	-0.192	0.194
-495.581	-182.150	-0.258	-0.005
-494.566	121.289	-0.128	0.160
-493.551	36.659	0.045	-0.040
-492.537	-167.435	-0.370	-0.015
-491.522	135.630	0.211	-0.274
-490.508	-142.257	0.216	-0.021
-489.493	9.137	-0.336	0.254
-488.478	341.354	0.095	-0.185
-487.464	-65.214	-0.140	-0.056
-486.449	-56.446	-0.088	-0.039
-485.435	78.832	0.138	0.147
-484.420	-15.557	-0.184	0.117
-483.405	-200.000	-0.036	-0.305
-482.391	133.029	-0.013	-0.016
-481.376	-4.209	0.151	-0.105
-480.362	66.534	-0.089	0.090
-479.347	-200.000	0.001	0.077
-478.332	246.894	-0.073	-0.124
-477.318	-49.157	-0.111	-0.053
-476.303	171.236	-0.129	-0.184
-475.289	33.642	-0.124	0.108
-474.274	-10.154	-0.127	0.084
-473.259	327.470	-0.040	-0.076
-472.245	-164.807	0.195	-0.009
-471.230	-31.972	0.212	0.119
-470.216	138.890	0.173	0.227
-469.201	398.388	0.176	0.368
-468.186	69.874	-0.051	0.053
-467.172	-101.632	-0.377	-0.091
-466.157	38.130	-0.167	-0.148
-465.143	297.909	0.076	0.139
-464.128	-66.476	-0.449	-0.178
-463.113	-163.351	0.151	-0.007
-462.099	-200.000	-0.008	0.049
-461.084	-98.325	0.313	0.080
-460.070	265.941	-0.070	0.123
-459.055	-76.209	-0.150	0.053
-458.040	-200.000	-0.057	0.268
-457.026	-200.000	0.010	0.177
-456.011	-200.000	0.059	-0.348
-454.997	231.575	-0.035	0.057
-453.982	-200.000	0.176	0.000
-452.968	78.588	-0.196	0.209
-451.953	679.832	0.017	0.045
-450.938	-81.455	-0.162	-0.053
-449.924	-87.445	-0.334	-0.101
-448.909	800.000	0.070	-0.205
-447.895	35.712	0.241	-0.211
-446.880	-200.000	-0.029	-0.266
-445.865	-146.891	-0.060	-0.005
-444.851	800.000	0.071	0.257
-443.836	31.283	0.126	-0.108
-442.822	-21.768	-0.119	-0.072
-441.807	269.153	-0.053	0.092
-440.792	800.000	0.049	0.166
-439.778	-73.212	-0.207	-0.075
-438.763	-118.108	-0.233	-0.041
-437.749	106.762	0.282	0.334
-436.734	-133.069	-0.200	0.025
-435.719	-123.202	0.225	0.036
-434.705	-45.250	-0.163	-0.081
-433.690	-200.000	-0.028	-0.390
-432.676	-99.328	-0.282	0.071
-431.661	119.518	-0.152	0.187
-430.646	80.092	-0.264	-0.283
-429.632	800.000	0.041	0.160
-428.617	-102.427	0.304	0.072
-427.603	800.000	-0.053	-0.180
-426.588	10.176	0.144	-0.109
-425.573	-34.070	0.361	-0.198
-424.559	166.923	0.070	-0.099
-423.544	-70.174	-0.125	0.047
-422.530	-83.800	0.340	0.108
-421.515	800.000	0.035	0.140
-420.500	-92.387	0.105	-0.029
-419.486	-100.633	0.128	-0.032
-418.471	800.000	0.048	0.143
-417.457	-127.289	-0.251	-0.036
-416.442	-67.208	0.155	0.061
-415.428	-53.435	-0.228	-0.104
-414.413	-200.000	-0.007	-0.215
-413.398	-38.586	0.137	0.072
-412.384	-93.023	0.191	0.053
-411.369	-130.999	0.234	0.031
-410.355	-132.503	-0.025	0.003
-409.340	-200.000	-0.018	-0.215
-408.325	-149.223	0.331	-0.026
-407.311	67.903	-0.171	-0.174
-406.296	-96.426	0.481	0.127
-405.282	-200.000	-0.048	-0.322
-404.267	-187.291	0.181	0.002
-403.252	-200.000	0.024	-0.202
-402.238	-200.000	0.057	-0.513
-401.223	800.000	-0.070	-0.233
-400.209	-200.000	-0.014	-0.099
-399.194	77.939	-0.275	0.291
-398.179	-200.000	-0.036	-0.196
-397.165	-51.076	0.033	0.015
-396.150	-74.527	0.127	0.045
-395.136	273.000	0.111	0.195
-394.121	20.476	-0.185	0.149
-393.106	-109.833	-0.178	0.037
-392.092	117.906	-0.057	0.070
-391.077	-200.000	0.028	-0.126
-390.063	29.558	0.153	-0.130
-389.048	800.000	0.075	0.312
-388.033	215.705	-0.086	-0.136
-387.019	-200.000	0.020	-0.141
-386.004	-101.176	0.239	0.058
-384.990	-59.535	0.322	0.137
-383.975	-48.291	0.152	0.073
-382.960	-59.967	0.298	0.127
-381.946	800.000	0.075	-0.293
-380.931	-154.473	0.131	-0.009
-379.917	92.854	0.106	-0.119
-378.902	61.165	-0.061	-0.060
-377.888	800.000	-0.076	-0.212
-376.873	407.754	0.147	-0.308
-375.858	-21.114	-0.094	0.057
-374.844	14.581	-0.217	0.168
-373.829	-120.233	0.054	-0.009
-372.815	800.000	0.025	-0.075
-371.800	-103.389	-0.250	0.059
-370.785	-200.000	0.036	0.427
-369.771	-68.564	0.059	0.023
-368.756	-152.715	-0.289	0.020
-367.742	-87.929	0.226	0.068
-366.727	11.277	-0.171	0.130
-365.712	-104.944	0.167	-0.038
-364.698	-200.000	0.002	-0.261
-363.683	-106.150	-0.118	0.026
-362.669	277.399	0.168	-0.297
-361.654	-114.927	-0.377	-0.071
-360.639	-105.390	-0.205	-0.046
-359.625	-96.415	0.540	-0.142
-358.610	-12.552	-0.229	-0.149
-357.596	-26.333	0.181	-0.105
-356.581	-18.012	0.243	0.151
-355.566	-108.749	0.441	0.094
-354.552	-200.000	0.001	0.332
-353.537	-104.114	-0.143	-0.033
-352.523	-35.146	0.177	0.096
-351.508	431.422	-0.131	0.283
-350.493	-200.000	0.051	-0.249
-349.479	800.000	-0.096	0.410
-348.464	-171.028	0.154	0.005
-347.450	95.106	0.114	0.129
-346.435	498.660	0.145	-0.331
-345.420	104.344	0.154	0.180
-344.406	-114.663	0.367	-0.070
-343.391	-39.210	0.086	0.045
-342.377	-92.917	-0.202	0.056
-341.362	-200.000	-0.029	0.240
-340.348	131.146	-0.334	0.426
-339.333	-98.464	0.033	-0.008
-338.318	-43.378	0.164	0.082
-337.304	-15.346	0.348	-0.221
-336.289	-5.432	0.470	-0.321
-335.275	-169.707	0.345	-0.012
-334.260	-200.000	0.017	-0.294
-333.245	-68.129	-0.012	0.005
-332.231	-200.000	-0.021	0.488
-331.216	-200.000	-0.009	-0.041
-330.202	-144.376	-0.063	-0.006
-329.187	-143.767	-0.243	-0.023
-328.172	-40.152	-0.334	0.172
-327.158	-200.000	-0.061	0.281
-326.143	-16.493	-0.220	0.139
-325.129	-29.450	0.081	-0.046
-324.114	800.000	-0.073	0.205
-323.099	-117.764	0.074	0.013
-322.085	-20.954	0.074	0.045
-321.070	179.602	-0.113	0.165
-320.056	800.000	-0.059	0.178
-319.041	-106.874	0.141	-0.031
-318.026	-49.390	0.207	0.098
-317.012	362.686	0.033	-0.066
-315.997	-27.477	-0.268	0.155
-314.983	-200.000	-0.022	0.099
-313.968	-21.193	0.358	0.217
-312.953	-200.000	0.005	-0.037
-311.939	-115.080	0.485	-0.091
-310.924	-55.464	-0.323	-0.144
-309.910	198.306	0.125	0.189
-308.895	428.545	-0.101	0.216
-307.880	185.845	-0.023	0.033
-306.866	152.735	-0.213	-0.288
-305.851	800.000	0.093	0.341
-304.837	499.561	-0.056	0.128
-303.822	-117.295	0.064	-0.012
-302.807	-82.094	-0.432	-0.140
-301.793	60.241	0.115	-0.113
-300.778	-200.000	0.036	0.340
-299.764	-83.242	0.159	0.051
-298.749	79.686	-0.026	0.027
-297.735	-40.004	-0.110	0.057
-296.720	-35.329	0.289	-0.156
-295.705	-87.133	0.152	-0.046
-294.691	-95.650	0.136	0.036
-293.676	-133.597	-0.411	-0.051
-292.662	-25.974	-0.179	0.104
-291.647	188.814	0.085	-0.126
-290.632	148.947	-0.183	0.245
-289.618	-87.581	0.333	-0.100
-288.603	81.273	-0.068	0.072
-287.589	-200.000	0.008	0.116
-286.574	-82.872	0.090	0.029
-285.559	68.916	-0.318	-0.324
-284.545	249.269	0.096	-0.161
-283.530	7.293	-0.206	-0.152
-282.516	42.627	-0.051	-0.046
-281.501	210.965	0.144	0.224
-280.486	26.185	-0.216	-0.179
-279.472	800.000	-0.069	-0.244
-278.457	421.436	0.054	0.114
-277.443	-163.884	0.112	-0.005
-276.428	-33.365	-0.260	-0.142
-275.413	282.662	0.083	-0.148
-274.399	508.802	0.142	-0.327
-273.384	800.000	0.040	-0.142
-272.370	64.231	0.101	-0.101
-271.355	-42.035	0.300	-0.152
-270.340	800.000	-0.074	0.239
-269.326	-200.000	-0.040	0.382
-268.311	98.403	-0.111	0.126
-267.297	135.231	0.183	0.236
-266.282	-43.641	-0.236	0.118
-265.267	800.000	0.030	-0.117
-264.253	-200.000	-0.004	0.160
-263.238	-200.000	-0.013	-0.078
-262.224	-200.000	0.018	0.283
-261.209	-200.000	0.015	0.190
-260.195	-200.000	0.009	0.272
-259.180	-83.732	-0.285	0.090
-258.165	72.686	-0.024	-0.025
-257.151	-200.000	-0.039	-0.465
-256.136	-94.464	0.109	0.029
-255.122	28.513	0.079	-0.066
-254.107	800.000	-0.093	-0.362
-253.092	-63.752	-0.304	-0.123
-252.078	436.000	-0.021	-0.046
-251.063	-97.393	-0.072	-0.019
-250.049	88.491	0.053	0.059
-249.034	192.151	0.036	0.054
-248.019	99.438	-0.228	0.261
-247.005	343.194	-0.029	-0.056
-245.990	800.000	-0.047	0.130
-244.976	557.647	0.067	0.160
-243.961	-72.277	-0.271	0.099
-242.946	-70.975	0.269	0.100
-241.932	-88.056	-0.181	-0.054
-240.917	-98.263	-0.447	-0.114
-239.903	-109.128	0.187	-0.039
-238.888	-200.000	0.012	0.094
-237.873	205.292	0.135	0.208
-236.859	-200.000	-0.002	0.399
-235.844	316.596	-0.109	-0.203
-234.830	-51.731	-0.176	-0.081
-233.815	85.589	-0.242	-0.263
-232.800	-200.000	0.016	0.135
-231.786	-54.216	0.278	0.125
-230.771	149.444	0.102	0.136
-229.757	-7.226	0.216	0.145
-228.742	800.000	0.035	0.141
-227.727	470.654	0.162	-0.361
-226.713	-174.351	0.078	-0.002
-225.698	96.826	-0.226	-0.256
-224.684	-200.000	-0.045	-0.246
-223.669	-20.685	-0.102	-0.062
-222.655	-17.918	-0.283	0.175
-221.640	326.756	-0.124	0.235
-220.625	-30.324	0.220	0.123
-219.611	-119.692	0.351	0.060
-218.596	-14.462	-0.126	-0.080
-217.582	-141.897	0.220	0.022
-216.567	-200.000	0.003	0.122
-215.552	333.154	0.069	0.132
-214.538	800.000	-0.098	-0.288
-213.523	106.714	0.205	-0.240
-212.509	800.000	-0.025	-0.085
-211.494	-200.000	0.107	-0.481
-210.479	122.852	-0.175	-0.216
-209.465	320.047	-0.044	-0.082
-208.450	7.073	-0.154	-0.113
-207.436	-170.593	0.297	-0.010
-206.421	-200.000	0.037	-0.345
-205.406	228.559	0.214	-0.344
-204.392	-108.058	0.179	-0.038
-203.377	-200.000	-0.008	0.039
-202.363	800.000	-0.119	0.352
-201.348	688.533	-0.167	0.431
-200.333	65.373	0.283	0.283
-199.319	800.000	-0.027	0.096
-198.304	-168.589	-0.197	-0.007
-197.290	800.000	-0.078	0.295
-196.275	22.960	0.311	0.252
-195.260	83.276	0.193	0.207
-194.246	60.676	0.179	-0.175
-193.231	120.030	-0.094	0.115
-192.217	510.362	-0.033	0.076
-191.202	447.901	0.100	0.217
-190.187	-200.000	-0.043	0.390
-189.173	-112.554	-0.135	-0.026
-188.158	-80.697	-0.225	-0.074
-187.144	143.970	0.122	0.161
-186.129	139.727	-0.086	0.112
-185.114	114.217	0.130	0.157
-184.100	-200.000	0.000	-0.098
-183.085	451.130	0.055	-0.119
-182.071	-14.834	0.243	-0.154
-181.056	-88.547	-0.115	-0.034
-180.042	-91.417	-0.074	-0.021
-179.027	-82.362	-0.083	0.027
-178.012	-141.855	-0.264	-0.026
-176.998	209.974	0.146	-0.226
-175.983	-140.830	-0.236	-0.024
-174.969	-200.000	-0.016	-0.242
-173.954	12.467	0.189	0.144
-172.939	-101.414	-0.440	0.106
-171.925	49.498	-0.205	0.190
-170.910	-200.000	-0.007	0.209
-169.896	-139.911	0.179	0.019
-168.881	-24.867	-0.091	0.053
-167.866	59.077	0.136	-0.132
-166.852	165.039	-0.103	-0.144
-165.837	36.078	0.037	-0.032
-164.823	800.000	0.045	-0.175
-163.808	48.674	0.169	0.156
-162.793	217.003	0.093	-0.147
-161.779	33.413	0.304	-0.260
-160.764	77.597	-0.069	0.072
-159.750	-141.072	-0.254	-0.026
-158.735	89.296	-0.021	0.023
-157.720	430.849	0.034	-0.073
-156.706	154.037	0.231	-0.312
-155.691	73.031	-0.137	-0.141
-154.677	-125.175	-0.267	0.040
-153.662	136.013	0.004	0.005
-152.647	1.201	-0.198	-0.140
-151.633	240.290	-0.093	0.153
-150.618	-43.911	-0.228	-0.113
-149.604	-94.044	0.160	0.043
-148.589	800.000	-0.072	0.252
-147.574	-21.866	-0.020	-0.012
-146.560	260.779	0.050	-0.085
-145.545	-51.571	-0.070	0.032
-144.531	-200.000	-0.023	0.218
-143.516	800.000	0.100	0.315
-142.502	-20.913	0.072	0.044
-141.487	-3.315	0.197	0.135
-140.472	-200.000	0.022	0.193
-139.458	800.000	0.075	-0.253
-138.443	800.000	-0.039	0.139
-137.429	-200.000	0.030	-0.252
-136.414	-200.000	-0.086	-0.441
-135.399	-25.502	-0.271	-0.158
-134.385	-9.596	-0.098	-0.065
-133.370	-29.648	0.382	-0.215
-132.356	-200.000	0.055	-0.270
-131.341	146.525	-0.074	0.098
-130.326	-72.650	0.405	0.147
-129.312	247.363	-0.098	0.163
-128.297	114.077	0.174	-0.208
-127.283	-200.000	-0.058	-0.337
-126.268	-148.453	0.374	-0.030
-125.253	642.845	0.109	0.273
-124.239	66.374	-0.124	-0.124
-123.224	-200.000	-0.012	-0.227
-122.210	5.189	0.153	0.111
-121.195	203.860	0.169	0.258
