DTS Sentinel unit serial number:	SN413079Multiplexer serial number:	ORYXHardware model number:	OX4-SRSoftware version number:	ORYX F/W v4.00 Oryx Data Collector v3.7.2.0data status	okinstallation	princeton_trtdifferential loss correction	single-endedforward channel	channel 2reverse channel	N/Adate	2019/09/11time	00:29:10forward acquisition time	60.00reverse acquisition time	0.00gamma	496.2192k internal	0.2332k external	0.2332temperature offset calibration	0.9944default loss term (dB/km)	0.3790temperature slope calibration	1.0000multiplexer offset coefficient	1.0000multiplexer slope coefficient	1.0000fibre end	0.00T internal ref (°C)	29.25T ext. ref 1 (°C)	-0.32T ext. ref 2 (°C)	22.95length (m)	temperature (°C)	Stokes	anti-Stokes-747.200	28.121	0.044	0.037
-746.185	-82.530	-0.140	0.046
-745.171	-70.892	0.369	0.140
-744.156	43.672	-0.041	0.037
-743.142	16.068	0.139	-0.110
-742.127	-176.376	-0.375	0.010
-741.112	50.279	-0.055	0.052
-740.098	66.968	-0.164	0.168
-739.083	-81.800	-0.122	-0.040
-738.069	163.982	-0.148	0.209
-737.054	38.687	0.191	0.171
-736.039	-32.580	-0.358	-0.201
-735.025	-66.801	0.176	0.070
-734.010	800.000	-0.093	0.383
-732.996	55.297	-0.311	-0.302
-731.981	217.561	0.102	-0.163
-730.966	0.165	0.206	-0.148
-729.952	-200.000	-0.011	-0.233
-728.937	-156.155	-0.281	-0.018
-727.923	-94.085	-0.137	-0.038
-726.908	56.662	-0.272	0.266
-725.894	-200.000	0.017	-0.527
-724.879	-67.308	-0.080	-0.032
-723.864	171.780	0.053	-0.076
-722.850	-29.421	-0.313	-0.180
-721.835	-108.493	0.284	0.061
-720.821	-112.796	-0.143	0.028
-719.806	119.048	0.111	0.138
-718.791	-200.000	-0.003	-0.063
-717.777	-46.260	-0.183	-0.091
-716.762	-200.000	-0.047	-0.383
-715.748	-89.499	-0.386	0.114
-714.733	-200.000	0.094	-0.463
-713.718	-200.000	-0.015	-0.207
-712.704	497.040	-0.096	-0.223
-711.689	-200.000	0.020	-0.093
-710.675	-112.683	-0.300	0.060
-709.660	-200.000	-0.012	-0.382
-708.645	-131.708	0.147	-0.019
-707.631	-56.722	-0.257	-0.114
-706.616	-73.605	0.092	-0.034
-705.602	112.821	-0.268	-0.326
-704.587	-81.382	-0.090	-0.030
-703.572	26.522	0.146	-0.123
-702.558	316.286	0.094	-0.178
-701.543	-159.653	0.275	-0.015
-700.529	216.925	-0.268	-0.428
-699.514	77.561	-0.185	0.198
-698.499	-200.000	0.009	-0.048
-697.485	-122.570	-0.508	0.083
-696.470	-81.752	0.311	-0.102
-695.456	-41.201	0.147	-0.076
-694.441	182.478	-0.096	0.141
-693.426	192.609	0.099	0.151
-692.412	-101.099	0.107	-0.026
-691.397	-200.000	-0.040	0.192
-690.383	281.113	0.250	0.448
-689.368	-200.000	-0.028	0.290
-688.354	800.000	0.054	-0.159
-687.339	81.768	-0.077	-0.084
-686.324	-105.407	0.114	0.026
-685.310	-200.000	0.023	-0.136
-684.295	-9.809	0.209	-0.139
-683.281	-184.280	0.170	-0.003
-682.266	-200.000	-0.023	-0.193
-681.251	-200.000	-0.118	0.556
-680.237	-102.034	-0.122	0.030
-679.222	-200.000	0.056	-0.291
-678.208	49.781	-0.124	-0.117
-677.193	-121.539	-0.173	-0.029
-676.178	800.000	0.051	-0.205
-675.164	-200.000	-0.026	-0.217
-674.149	-165.705	0.297	0.013
-673.135	-54.686	0.135	-0.061
-672.120	481.362	0.132	-0.300
-671.105	-200.000	-0.045	0.217
-670.091	-110.747	-0.348	0.072
-669.076	142.716	0.060	0.080
-668.062	-114.981	-0.225	-0.043
-667.047	-200.000	0.043	0.267
-666.032	180.479	-0.134	-0.198
-665.018	148.200	0.111	0.150
-664.003	800.000	0.011	-0.033
-662.989	-66.189	-0.080	-0.032
-661.974	-102.032	-0.201	0.049
-660.959	38.083	0.096	0.086
-659.945	-7.191	-0.167	-0.114
-658.930	407.437	-0.047	0.099
-657.916	800.000	-0.085	0.245
-656.901	10.315	-0.335	0.255
-655.886	-33.285	0.060	0.033
-654.872	-200.000	-0.010	-0.144
-653.857	-116.329	-0.192	-0.036
-652.843	-80.674	-0.130	0.043
-651.828	-11.655	0.119	0.078
-650.814	457.946	0.134	0.299
-649.799	-200.000	0.031	-0.284
-648.784	-132.378	0.249	0.032
-647.770	-112.380	-0.254	0.051
-646.755	10.385	0.172	0.131
-645.741	90.162	0.209	0.235
-644.726	283.563	-0.064	0.116
-643.711	-94.560	0.363	0.099
-642.697	128.186	-0.040	-0.052
-641.682	-86.006	-0.248	0.077
-640.668	-200.000	-0.025	-0.117
-639.653	800.000	-0.061	-0.264
-638.638	173.709	0.175	-0.253
-637.624	-23.682	0.087	-0.052
-636.609	363.353	-0.183	-0.368
-635.595	68.515	0.289	-0.297
-634.580	100.483	0.048	0.056
-633.565	-98.571	0.072	-0.018
-632.551	157.022	-0.128	0.178
-631.536	283.985	0.014	-0.026
-630.522	-11.284	-0.394	-0.260
-629.507	-200.000	-0.023	-0.229
-628.492	532.856	-0.068	-0.161
-627.478	23.330	-0.292	-0.240
-626.463	800.000	-0.092	0.338
-625.449	-65.897	0.132	-0.053
-624.434	-78.560	0.131	-0.045
-623.419	-200.000	-0.016	0.138
-622.405	800.000	-0.038	-0.135
-621.390	-70.408	0.125	0.048
-620.376	-3.542	-0.127	0.089
-619.361	-24.847	-0.176	-0.105
-618.346	-24.864	-0.223	0.133
-617.332	-200.000	0.037	0.173
-616.317	47.968	-0.404	0.378
-615.303	-200.000	0.019	0.261
-614.288	-200.000	0.009	-0.280
-613.273	22.796	-0.162	0.133
-612.259	-11.115	0.065	-0.043
-611.244	775.436	-0.065	-0.177
-610.230	-81.998	-0.122	0.040
-609.215	0.384	0.154	0.110
-608.201	-165.011	0.093	-0.004
-607.186	-200.000	0.064	0.437
-606.171	734.320	-0.142	0.381
-605.157	-157.672	0.234	-0.014
-604.142	44.027	0.206	0.189
-603.128	-99.720	0.343	0.086
-602.113	51.712	-0.239	0.227
-601.098	290.330	0.130	-0.237
-600.084	734.679	0.076	-0.203
-599.069	33.788	0.124	-0.108
-598.055	-81.230	0.113	0.037
-597.040	-200.000	-0.012	-0.142
-596.025	-128.562	-0.040	0.006
-595.011	84.499	-0.083	-0.091
-593.996	190.905	0.158	-0.238
-592.982	800.000	0.084	0.292
-591.967	-83.924	-0.127	0.040
-590.952	-160.302	-0.462	-0.025
-589.938	104.066	0.290	-0.341
-588.923	-76.614	0.097	-0.034
-587.909	57.504	-0.102	-0.100
-586.894	271.707	0.057	-0.101
-585.879	-200.000	-0.020	-0.356
-584.865	290.579	-0.075	0.136
-583.850	190.197	-0.156	0.235
-582.836	-18.731	0.091	0.057
-581.821	-90.888	-0.377	-0.109
-580.806	800.000	-0.018	-0.073
-579.792	-103.859	-0.255	0.059
-578.777	-33.418	0.152	0.084
-577.763	38.050	-0.112	-0.100
-576.748	-27.473	-0.168	0.098
-575.733	-60.443	-0.213	-0.091
-574.719	-200.000	0.015	0.146
-573.704	-46.685	0.307	-0.151
-572.690	-97.872	-0.340	-0.088
-571.675	56.841	0.140	0.136
-570.661	-200.000	0.006	-0.133
-569.646	-133.208	0.146	-0.018
-568.631	47.809	-0.184	-0.172
-567.617	260.241	0.162	0.280
-566.602	-200.000	0.006	-0.042
-565.588	464.458	-0.109	-0.242
-564.573	-69.722	-0.228	0.087
-563.558	-200.000	-0.017	-0.193
-562.544	-93.353	0.188	0.052
-561.529	-200.000	-0.001	-0.118
-560.515	515.703	-0.088	-0.206
-559.500	-200.000	-0.019	-0.142
-558.485	131.996	0.040	0.051
-557.471	-112.269	0.144	0.029
-556.456	94.351	-0.133	0.151
-555.442	800.000	-0.044	0.167
-554.427	800.000	0.031	-0.117
-553.412	-200.000	0.000	-0.026
-552.398	412.705	-0.096	-0.204
-551.383	190.126	-0.054	-0.080
-550.369	572.231	0.051	-0.125
-549.354	168.089	-0.163	0.231
-548.339	800.000	-0.082	-0.269
-547.325	126.953	-0.093	0.117
-546.310	-100.540	0.326	0.081
-545.296	-57.828	0.299	-0.130
-544.281	5.116	0.179	0.132
-543.266	-200.000	0.022	-0.131
-542.252	236.933	-0.043	0.070
-541.237	146.308	0.083	-0.111
-540.223	59.530	0.082	0.080
-539.208	-66.010	0.216	0.086
-538.193	-101.921	0.257	-0.062
-537.179	-91.486	-0.180	0.051
-536.164	-49.654	-0.424	-0.202
-535.150	-114.403	0.231	-0.044
-534.135	800.000	-0.091	-0.254
-533.121	-74.208	-0.198	0.071
-532.106	140.196	0.101	-0.132
-531.091	100.573	0.116	-0.135
-530.077	63.542	-0.186	0.186
-529.062	48.824	-0.069	-0.065
-528.048	133.742	-0.092	-0.118
-527.033	104.253	0.129	-0.152
-526.018	-152.040	0.455	0.033
-525.004	164.118	0.076	-0.107
-523.989	-109.130	-0.197	-0.042
-522.975	-54.212	-0.105	0.048
-521.960	771.139	-0.120	0.325
-520.945	800.000	-0.085	0.349
-519.931	-75.043	-0.367	-0.131
-518.916	-141.251	0.094	0.010
-517.902	419.161	0.117	-0.250
-516.887	-103.998	-0.217	0.050
-515.872	-32.303	-0.319	0.177
-514.858	800.000	0.070	-0.201
-513.843	-26.136	0.230	0.135
-512.829	51.809	0.194	0.184
-511.814	-134.252	0.270	-0.033
-510.799	-200.000	-0.000	-0.164
-509.785	90.109	0.317	-0.353
-508.770	59.851	-0.272	0.267
-507.756	139.592	-0.222	-0.292
-506.741	303.650	0.179	0.332
-505.726	-61.476	0.078	0.032
-504.712	6.829	0.023	-0.017
-503.697	-153.208	-0.351	-0.024
-502.683	-137.914	0.189	0.021
-501.668	226.490	-0.145	-0.235
-500.653	32.876	0.164	-0.141
-499.639	-152.567	-0.243	0.017
-498.624	-200.000	0.020	-0.116
-497.610	12.104	0.239	0.184
-496.595	54.564	-0.153	-0.147
-495.581	11.544	-0.117	-0.089
-494.566	-200.000	0.077	-0.505
-493.551	-200.000	0.010	-0.121
-492.537	433.472	0.019	0.041
-491.522	-77.409	0.087	0.030
-490.508	-200.000	0.034	0.241
-489.493	-89.736	0.125	0.036
-488.478	-200.000	0.013	-0.234
-487.464	-200.000	0.051	0.275
-486.449	-175.041	-0.129	0.004
-485.435	-130.904	0.353	0.047
-484.420	84.561	0.120	-0.131
-483.405	-102.326	0.258	0.062
-482.391	-49.404	0.012	0.006
-481.376	-5.984	0.139	-0.095
-480.362	-97.851	0.189	0.049
-479.347	-200.000	0.023	0.204
-478.332	-200.000	-0.005	0.159
-477.318	145.338	-0.134	0.178
-476.303	56.787	0.303	-0.294
-475.289	76.051	0.076	0.080
-474.274	-73.402	-0.376	0.137
-473.259	-14.094	-0.099	-0.063
-472.245	-17.521	0.235	0.147
-471.230	227.475	0.120	0.195
-470.216	-115.008	-0.289	0.055
-469.201	4.710	0.105	-0.077
-468.186	-21.285	-0.217	-0.132
-467.172	800.000	0.053	-0.229
-466.157	294.083	0.145	-0.263
-465.143	-67.006	-0.100	-0.039
-464.128	13.861	-0.122	0.095
-463.113	-54.140	0.137	0.062
-462.099	-16.027	-0.074	0.047
-461.084	49.512	-0.111	-0.104
-460.070	-16.953	0.052	0.033
-459.055	78.461	0.224	0.238
-458.040	93.999	0.091	-0.103
-457.026	-200.000	-0.000	0.064
-456.011	-94.211	0.271	0.074
-454.997	37.092	0.120	0.106
-453.982	11.229	-0.154	0.117
-452.968	-200.000	-0.036	-0.211
-451.953	-200.000	0.027	-0.138
-450.938	-200.000	-0.002	-0.085
-449.924	-2.212	-0.083	0.058
-448.909	73.270	0.163	0.169
-447.895	-110.554	0.462	-0.095
-446.880	53.730	-0.175	-0.167
-445.865	297.881	-0.093	0.170
-444.851	359.334	-0.007	0.015
-443.836	-69.005	-0.375	-0.144
-442.822	-77.966	0.419	-0.144
-441.807	281.513	0.140	0.249
-440.792	86.539	-0.093	0.102
-439.778	800.000	0.071	-0.296
-438.763	-158.527	0.191	0.011
-437.749	-61.425	0.135	0.056
-436.734	587.452	-0.078	0.190
-435.719	144.913	0.141	-0.187
-434.705	127.616	-0.121	0.153
-433.690	800.000	-0.079	0.235
-432.676	-112.143	0.226	0.045
-431.661	-200.000	-0.006	0.385
-430.646	-27.021	-0.052	0.030
-429.632	-200.000	-0.099	0.437
-428.617	-18.226	0.149	0.093
-427.603	265.701	0.152	-0.263
-426.588	-117.688	-0.165	-0.030
-425.573	44.535	-0.218	-0.199
-424.559	28.591	-0.012	-0.010
-423.544	-125.048	0.176	0.027
-422.530	624.102	-0.085	-0.212
-421.515	800.000	-0.039	0.137
-420.500	-0.403	0.350	-0.247
-419.486	242.010	0.071	0.117
-418.471	-17.809	-0.293	-0.183
-417.457	-200.000	-0.067	0.395
-416.442	331.051	-0.091	-0.174
-415.428	-25.926	0.191	-0.112
-414.413	449.601	0.092	0.202
-413.398	-34.911	-0.262	-0.142
-412.384	203.746	-0.084	-0.129
-411.369	-182.876	-0.167	0.003
-410.355	-200.000	-0.020	-0.162
-409.340	-80.354	-0.143	0.047
-408.325	343.912	-0.111	0.215
-407.311	800.000	0.026	0.078
-406.296	304.592	0.127	0.234
-405.282	-85.735	0.102	0.031
-404.267	-200.000	-0.008	0.187
-403.252	51.096	0.239	0.225
-402.238	-68.122	-0.133	0.051
-401.223	266.458	-0.059	0.103
-400.209	-138.808	-0.156	0.017
-399.194	-15.019	-0.372	0.236
-398.179	18.062	-0.107	-0.085
-397.165	-124.912	0.124	-0.019
-396.150	-24.036	-0.194	-0.115
-395.136	129.994	0.107	0.135
-394.121	44.375	-0.193	0.176
-393.106	383.234	-0.118	-0.241
-392.092	800.000	0.110	0.303
-391.077	73.022	-0.129	-0.134
-390.063	-14.982	-0.247	-0.157
-389.048	-138.631	0.139	0.015
-388.033	70.013	-0.216	-0.221
-387.019	-200.000	0.035	0.270
-386.004	170.968	0.094	-0.133
-384.990	-23.983	0.248	-0.147
-383.975	3.501	0.199	-0.144
-382.960	269.229	-0.067	-0.116
-381.946	800.000	-0.105	0.355
-380.931	-62.944	-0.049	0.020
-379.917	-105.114	-0.111	-0.025
-378.902	-152.829	-0.236	-0.017
-377.888	110.030	0.148	-0.176
-376.873	800.000	-0.029	-0.120
-375.858	40.896	-0.126	0.113
-374.844	-200.000	-0.037	0.270
-373.829	-138.964	-0.219	-0.024
-372.815	-97.786	0.174	-0.045
-371.800	-200.000	0.010	0.147
-370.785	-66.747	0.233	-0.091
-369.771	96.994	-0.168	0.191
-368.756	-76.870	-0.183	0.063
-367.742	-133.322	0.233	0.029
-366.727	64.617	0.115	-0.115
-365.712	-200.000	0.038	0.302
-364.698	-18.632	-0.197	0.122
-363.683	-200.000	-0.020	-0.163
-362.669	-143.194	0.156	0.015
-361.654	-61.957	-0.237	-0.098
-360.639	-25.795	-0.241	-0.141
-359.625	-200.000	-0.019	-0.201
-358.610	-28.310	0.073	-0.042
-357.596	10.887	-0.240	-0.182
-356.581	357.594	0.138	0.273
-355.566	-200.000	0.000	0.050
-354.552	488.799	-0.124	-0.282
-353.537	-87.647	0.185	0.055
-352.523	-200.000	-0.039	0.246
-351.508	170.837	0.182	0.259
-350.493	-64.573	-0.068	-0.027
-349.479	-74.452	-0.276	0.099
-348.464	-69.555	0.339	0.129
-347.450	-200.000	-0.029	0.479
-346.435	58.927	-0.136	0.132
-345.420	606.418	-0.158	-0.391
-344.406	-200.000	-0.060	0.269
-343.391	315.485	0.129	-0.240
-342.377	-200.000	-0.008	-0.126
-341.362	-173.938	-0.213	-0.006
-340.348	-200.000	0.060	0.266
-339.333	305.829	0.045	-0.083
-338.318	-68.306	-0.232	-0.089
-337.304	800.000	-0.073	-0.243
-336.289	-142.718	0.098	0.010
-335.275	-154.621	0.184	-0.012
-334.260	204.338	0.121	-0.185
-333.245	-168.407	0.129	-0.005
-332.231	-99.588	-0.069	0.017
-331.216	-172.996	-0.306	-0.009
-330.202	533.101	-0.189	-0.444
-329.187	-22.361	-0.172	-0.103
-328.172	-66.432	0.212	0.083
-327.158	800.000	-0.094	0.300
-326.143	122.337	-0.063	-0.078
-325.129	-200.000	0.064	-0.373
-324.114	443.537	0.038	0.083
-323.099	800.000	0.060	-0.193
-322.085	206.245	-0.070	0.107
-321.070	-200.000	-0.058	0.275
-320.056	571.450	0.051	0.122
-319.041	123.331	0.148	0.183
-318.026	118.302	-0.086	0.105
-317.012	798.166	0.121	0.329
-315.997	0.442	0.155	0.109
-314.983	-139.034	0.277	0.030
-313.968	365.578	-0.038	-0.077
-312.953	498.827	0.108	0.246
-311.939	503.940	0.004	0.010
-310.924	63.269	-0.146	-0.145
-309.910	550.319	-0.114	-0.269
-308.895	132.262	-0.116	0.148
-307.880	-49.489	0.217	0.102
-306.866	800.000	0.172	0.539
-305.851	356.364	0.156	-0.308
-304.837	-108.612	-0.462	0.098
-303.822	492.208	-0.113	-0.256
-302.807	-89.913	0.380	0.110
-301.793	397.895	-0.081	0.168
-300.778	23.018	0.053	0.043
-299.764	-12.141	-0.108	0.070
-298.749	-108.264	-0.232	-0.050
-297.735	-110.008	0.428	-0.089
-296.720	800.000	-0.032	0.137
-295.705	-43.074	-0.063	-0.032
-294.691	63.673	-0.067	0.067
-293.676	800.000	-0.085	-0.297
-292.662	-137.720	-0.180	-0.020
-291.647	-200.000	0.008	0.166
-290.632	-200.000	-0.026	0.145
-289.618	1.803	0.157	0.112
-288.603	44.003	0.083	-0.075
-287.589	4.488	0.126	-0.091
-286.574	34.819	-0.345	-0.298
-285.559	351.482	-0.112	-0.218
-284.545	333.652	0.101	0.193
-283.530	61.676	0.372	0.366
-282.516	57.954	0.144	-0.139
-281.501	23.546	-0.058	-0.047
-280.486	205.408	0.229	0.351
-279.472	-200.000	0.046	-0.218
-278.457	719.103	-0.148	0.387
-277.443	-57.110	0.128	-0.056
-276.428	40.902	0.289	-0.258
-275.413	-200.000	-0.020	-0.325
-274.399	36.181	-0.185	-0.161
-273.384	-17.951	-0.162	-0.101
-272.370	20.845	-0.178	0.143
-271.355	-81.809	-0.112	-0.036
-270.340	78.591	0.113	-0.119
-269.326	-160.992	-0.406	-0.021
-268.311	-148.804	-0.306	0.024
-267.297	-77.735	0.116	0.039
-266.282	-7.168	-0.368	0.247
-265.267	438.608	-0.117	0.253
-264.253	-200.000	0.026	-0.133
-263.238	-200.000	0.002	0.201
-262.224	-35.347	-0.134	-0.072
-261.209	-37.749	-0.258	-0.136
-260.195	231.409	-0.242	-0.391
-259.180	47.702	-0.239	-0.220
-258.165	707.087	-0.092	-0.239
-257.151	87.271	0.176	-0.192
-256.136	-60.712	0.077	-0.032
-255.122	144.622	-0.304	0.400
-254.107	403.719	-0.070	-0.145
-253.092	-200.000	-0.025	0.350
-252.078	-2.490	-0.167	0.115
-251.063	115.770	-0.125	-0.151
-250.049	-194.210	-0.221	-0.002
-249.034	-200.000	0.068	0.297
-248.019	260.159	-0.155	0.264
-247.005	-170.503	0.194	0.007
-245.990	149.543	0.154	0.206
-244.976	37.850	-0.049	-0.043
-243.961	-99.074	-0.156	0.039
-242.946	36.399	-0.168	0.146
-241.932	203.308	0.133	-0.202
-240.917	55.652	-0.223	0.213
-239.903	-200.000	0.033	0.238
-238.888	800.000	-0.043	0.123
-237.873	-117.655	0.170	0.030
-236.859	-139.329	0.396	-0.042
-235.844	234.844	0.084	-0.137
-234.830	-146.686	-0.078	0.007
-233.815	410.496	-0.019	0.039
-232.800	-62.648	-0.231	0.094
-231.786	-200.000	0.001	-0.254
-230.771	-18.157	0.117	0.072
-229.757	800.000	-0.050	0.196
-228.742	-200.000	-0.019	-0.379
-227.727	-200.000	0.056	-0.298
-226.713	-44.170	0.210	0.104
-225.698	-200.000	0.022	0.102
-224.684	-200.000	0.047	-0.208
-223.669	33.615	0.132	0.113
-222.655	-44.007	0.118	-0.059
-221.640	-200.000	0.101	0.436
-220.625	-64.282	0.352	0.141
-219.611	163.004	-0.055	-0.076
-218.596	-141.460	-0.098	-0.010
-217.582	-200.000	0.002	0.093
-216.567	800.000	-0.009	0.030
-215.552	537.534	-0.043	0.100
-214.538	75.317	-0.019	-0.020
-213.523	-12.759	0.174	-0.112
-212.509	-141.316	-0.114	0.011
-211.494	94.138	0.228	-0.254
-210.479	-200.000	0.006	0.031
-209.465	207.382	-0.150	-0.230
-208.450	-125.928	-0.191	0.028
-207.436	-119.824	0.395	0.067
-206.421	-30.851	0.272	-0.152
-205.406	-94.900	0.387	0.103
-204.392	-127.960	0.279	0.039
-203.377	137.496	0.195	-0.251
-202.363	-200.000	0.060	0.369
-201.348	3.536	-0.143	-0.102
-200.333	47.426	-0.236	0.217
-199.319	44.560	0.372	0.336
-198.304	800.000	-0.021	0.077
-197.290	144.809	0.107	-0.141
-196.275	383.076	0.039	0.078
-195.260	144.234	0.077	0.101
-194.246	-6.411	-0.037	0.025
-193.231	-112.815	-0.367	0.072
-192.217	-200.000	0.058	-0.276
-191.202	142.504	0.158	0.207
-190.187	-42.045	0.182	-0.091
-189.173	169.383	-0.079	-0.111
-188.158	-200.000	0.165	0.000
-187.144	-51.526	-0.057	-0.026
-186.129	-154.896	0.283	0.018
-185.114	125.237	0.108	-0.134
-184.100	331.694	-0.155	0.294
-183.085	150.836	0.065	-0.086
-182.071	-39.073	-0.281	-0.145
-181.056	-42.237	-0.070	0.035
-180.042	-37.913	-0.072	0.038
-179.027	-200.000	0.094	-0.438
-178.012	-149.589	-0.090	0.007
-176.998	-42.846	-0.272	-0.136
-175.983	271.533	-0.195	0.338
-174.969	800.000	-0.094	0.267
-173.954	73.363	0.204	-0.210
-172.939	-135.628	0.176	0.021
-171.925	-45.832	0.147	0.071
-170.910	-200.000	-0.019	0.134
-169.896	-19.519	-0.169	-0.103
-168.881	748.144	-0.073	-0.193
-167.866	-150.620	0.203	-0.015
-166.852	-21.486	-0.170	0.102
-165.837	-200.000	-0.020	-0.188
-164.823	-109.217	0.188	0.039
-163.808	-42.023	-0.316	-0.159
-162.793	800.000	-0.113	-0.461
-161.779	138.950	0.126	-0.163
-160.764	204.451	0.093	-0.142
-159.750	12.309	0.133	-0.101
-158.735	-23.894	-0.258	0.152
-157.720	-117.206	0.190	0.034
-156.706	34.759	0.234	0.201
-155.691	800.000	-0.044	-0.170
-154.677	-94.859	0.272	0.072
-153.662	-53.878	0.175	-0.078
-152.647	-5.946	0.157	-0.105
-151.633	-82.273	-0.110	0.035
-150.618	-30.185	0.212	0.119
-149.604	-200.000	-0.044	-0.277
-148.589	-49.402	0.297	0.139
-147.574	141.410	-0.154	-0.201
-146.560	-200.000	-0.061	-0.478
-145.545	-145.732	0.088	0.008
-144.531	196.539	-0.102	0.153
-143.516	-31.194	0.192	-0.106
-142.502	-146.956	0.047	0.004
-141.487	211.992	-0.131	-0.203
-140.472	-105.369	0.039	0.009
-139.458	-200.000	-0.022	-0.299
-138.443	-121.796	0.545	-0.088
-137.429	-159.919	0.204	0.011
-136.414	-1.828	0.202	-0.139
-135.399	740.321	0.138	-0.365
-134.385	-200.000	0.052	0.356
-133.370	-200.000	-0.030	-0.206
-132.356	126.820	-0.124	0.154
-131.341	34.384	0.046	-0.039
-130.326	427.830	0.057	-0.122
-129.312	-64.195	-0.216	-0.086
-128.297	57.257	-0.090	0.087
-127.283	90.997	0.143	0.158
-126.268	800.000	-0.162	-0.560
-125.253	405.464	0.018	-0.037
-124.239	-200.000	0.089	-0.456
-123.224	-200.000	0.039	-0.322
-122.210	22.572	-0.364	0.292
-121.195	-153.319	0.115	-0.008
