DTS Sentinel unit serial number:	SN413079Multiplexer serial number:	ORYXHardware model number:	OX4-SRSoftware version number:	ORYX F/W v4.00 Oryx Data Collector v3.7.2.0data status	okinstallation	princeton_trtdifferential loss correction	single-endedforward channel	channel 2reverse channel	N/Adate	2019/09/15time	00:47:35forward acquisition time	60.00reverse acquisition time	0.00gamma	496.2192k internal	0.2324k external	0.2324temperature offset calibration	1.0043default loss term (dB/km)	0.3790temperature slope calibration	1.0000multiplexer offset coefficient	1.0000multiplexer slope coefficient	1.0000fibre end	0.00T internal ref (°C)	32.06T ext. ref 1 (°C)	4.59T ext. ref 2 (°C)	27.02length (m)	temperature (°C)	Stokes	anti-Stokes-747.200	800.000	0.021	0.072
-746.185	800.000	-0.097	0.283
-745.171	15.275	0.130	0.103
-744.156	-200.000	-0.011	0.090
-743.142	-90.275	0.075	0.022
-742.127	409.605	-0.070	0.149
-741.112	-150.100	0.178	0.014
-740.098	-157.615	0.094	-0.006
-739.083	-200.000	0.052	0.232
-738.069	73.122	0.126	0.133
-737.054	-200.000	-0.073	-0.361
-736.039	-74.375	-0.184	0.067
-735.025	689.201	0.112	0.295
-734.010	-18.606	-0.136	-0.086
-732.996	-59.404	-0.353	0.153
-731.981	-200.000	-0.027	-0.245
-730.966	136.048	-0.123	0.162
-729.952	-49.880	-0.103	0.050
-728.937	-200.000	-0.017	0.206
-727.923	160.002	-0.196	-0.275
-726.908	800.000	-0.059	0.189
-725.894	-21.673	-0.441	-0.271
-724.879	-61.457	0.080	0.034
-723.864	-58.204	0.291	-0.128
-722.850	676.023	0.075	0.197
-721.835	-38.705	-0.298	0.158
-720.821	800.000	0.140	0.402
-719.806	-200.000	0.015	0.222
-718.791	-63.596	0.164	0.068
-717.777	199.589	-0.084	0.129
-716.762	44.176	-0.042	-0.038
-715.748	-200.000	0.042	-0.243
-714.733	-50.893	-0.159	0.075
-713.718	-200.000	-0.029	0.263
-712.704	-200.000	0.044	-0.200
-711.689	-13.638	-0.219	-0.143
-710.675	-75.291	0.116	-0.042
-709.660	370.098	-0.077	0.156
-708.645	-143.050	-0.295	-0.029
-707.631	-200.000	0.012	0.287
-706.616	105.948	-0.081	-0.096
-705.602	152.574	-0.127	0.174
-704.587	800.000	0.076	-0.276
-703.572	169.932	0.150	-0.216
-702.558	-134.086	-0.213	-0.027
-701.543	-200.000	-0.023	0.143
-700.529	-17.569	0.150	-0.095
-699.514	-118.807	0.207	-0.037
-698.499	569.873	-0.111	-0.271
-697.485	-38.284	-0.267	0.142
-696.470	38.666	-0.084	-0.075
-695.456	-66.052	-0.085	-0.034
-694.441	26.433	-0.197	-0.166
-693.426	-50.769	-0.378	0.179
-692.412	-147.588	0.031	-0.003
-691.397	-200.000	-0.005	-0.252
-690.383	15.548	0.117	0.093
-689.368	143.663	-0.143	0.193
-688.354	118.206	-0.102	0.127
-687.339	648.672	-0.066	0.170
-686.324	800.000	-0.099	-0.289
-685.310	-189.000	0.247	-0.003
-684.295	-124.211	-0.201	-0.032
-683.281	-200.000	-0.087	-0.410
-682.266	578.814	0.085	-0.208
-681.251	775.362	-0.025	-0.068
-680.237	800.000	-0.115	0.325
-679.222	-76.024	-0.259	0.092
-678.208	162.082	0.083	-0.118
-677.193	74.830	0.148	0.156
-676.178	-200.000	0.005	0.202
-675.164	136.039	0.059	-0.078
-674.149	125.239	0.157	0.200
-673.135	800.000	0.057	0.244
-672.120	800.000	0.068	-0.283
-671.105	207.810	-0.154	0.243
-670.091	73.885	-0.037	-0.039
-669.076	505.289	0.052	-0.121
-668.062	97.538	-0.055	-0.064
-667.047	32.523	-0.119	-0.104
-666.032	280.632	0.210	-0.378
-665.018	-200.000	0.031	-0.187
-664.003	-175.594	-0.136	-0.004
-662.989	800.000	0.092	0.283
-661.974	-139.949	0.215	0.023
-660.959	92.047	-0.101	0.115
-659.945	-197.309	-0.093	-0.001
-658.930	-200.000	0.020	0.427
-657.916	147.940	0.099	-0.134
-656.901	-53.986	-0.114	0.052
-655.886	-200.000	-0.005	-0.156
-654.872	-200.000	0.019	-0.090
-653.857	-103.883	0.277	-0.065
-652.843	-200.000	-0.026	0.227
-651.828	-31.787	-0.210	0.118
-650.814	45.153	-0.102	0.095
-649.799	-200.000	0.019	-0.119
-648.784	-46.003	0.316	0.157
-647.770	-130.074	0.198	-0.027
-646.755	68.241	0.033	0.034
-645.741	255.560	0.124	0.213
-644.726	202.613	0.092	0.143
-643.711	-21.250	-0.276	0.170
-642.697	-155.154	-0.533	-0.035
-641.682	-200.000	0.011	0.275
-640.668	9.759	-0.474	0.362
-639.653	-29.893	-0.231	-0.132
-638.638	266.432	0.160	0.280
-637.624	-71.564	-0.248	0.093
-636.609	272.054	0.114	-0.203
-635.595	32.472	-0.249	-0.217
-634.580	-93.838	-0.367	-0.102
-633.565	800.000	0.071	-0.254
-632.551	712.704	-0.036	0.097
-631.536	161.057	-0.177	-0.249
-630.522	-151.061	-0.259	0.020
-629.507	749.681	0.055	0.150
-628.492	317.861	-0.165	0.313
-627.478	-85.599	0.236	0.074
-626.463	-117.152	0.312	-0.057
-625.449	176.776	-0.211	0.309
-624.434	-113.419	-0.410	0.081
-623.419	-163.878	-0.288	0.014
-622.405	-57.302	0.063	0.028
-621.390	-200.000	-0.012	0.222
-620.376	-200.000	-0.006	-0.161
-619.361	12.443	0.197	-0.153
-618.346	-200.000	0.007	0.128
-617.332	-200.000	-0.074	-0.386
-616.317	-98.930	-0.223	0.057
-615.303	-168.773	-0.246	-0.009
-614.288	6.455	-0.116	-0.087
-613.273	800.000	-0.024	0.092
-612.259	-29.423	-0.163	0.094
-611.244	-146.822	0.120	-0.010
-610.230	521.154	0.079	-0.186
-609.215	300.087	0.081	0.150
-608.201	800.000	0.034	-0.112
-607.186	-53.293	-0.283	0.131
-606.171	-10.793	0.079	0.052
-605.157	800.000	-0.008	0.029
-604.142	-24.573	-0.062	-0.037
-603.128	-37.218	-0.104	0.056
-602.113	-134.213	0.342	-0.042
-601.098	800.000	-0.040	-0.137
-600.084	376.478	0.017	0.035
-599.069	237.619	0.226	0.376
-598.055	104.413	0.080	-0.095
-597.040	-88.272	-0.449	0.135
-596.025	-19.781	0.186	0.115
-595.011	-22.061	-0.188	0.115
-593.996	38.863	0.157	-0.141
-592.982	-130.630	-0.303	0.041
-591.967	-200.000	-0.029	-0.291
-590.952	-200.000	-0.044	0.231
-589.938	-200.000	0.004	0.019
-588.923	-69.343	-0.243	0.094
-587.909	-45.538	0.083	0.041
-586.894	-26.164	-0.071	-0.042
-585.879	-200.000	-0.027	-0.179
-584.865	4.237	0.195	-0.143
-583.850	112.210	-0.125	0.152
-582.836	99.040	0.111	-0.129
-581.821	-128.055	-0.379	0.055
-580.806	-55.777	0.425	0.190
-579.792	-161.161	0.287	-0.015
-578.777	-39.421	0.277	-0.146
-577.763	-94.615	-0.329	0.090
-576.748	-11.387	-0.311	-0.205
-575.733	458.763	0.133	-0.297
-574.719	233.603	0.056	0.092
-573.704	306.245	-0.078	-0.146
-572.690	262.042	-0.093	0.162
-571.675	646.109	-0.018	-0.046
-570.661	-200.000	0.005	-0.062
-569.646	625.958	0.134	-0.339
-568.631	-200.000	-0.021	-0.424
-567.617	444.446	0.088	0.194
-566.602	128.007	-0.123	0.157
-565.588	136.622	0.089	-0.117
-564.573	-55.635	-0.085	-0.038
-563.558	9.963	0.311	0.237
-562.544	-166.373	-0.074	0.003
-561.529	-65.866	-0.340	-0.136
-560.515	-22.776	-0.171	0.104
-559.500	302.543	-0.185	0.343
-558.485	-127.958	0.203	-0.029
-557.471	94.351	-0.241	0.275
-556.456	-147.027	-0.268	0.023
-555.442	-126.707	-0.137	0.020
-554.427	-175.619	0.312	-0.008
-553.412	-67.496	0.289	0.113
-552.398	369.042	-0.060	-0.121
-551.383	305.436	-0.121	-0.226
-550.369	-19.107	-0.165	0.103
-549.354	24.017	-0.061	-0.050
-548.339	-137.910	-0.305	0.034
-547.325	-44.103	-0.060	-0.030
-546.310	800.000	-0.051	-0.179
-545.296	406.202	0.089	0.189
-544.281	800.000	0.106	0.375
-543.266	-15.320	-0.220	0.141
-542.252	-150.313	0.038	0.003
-541.237	-51.427	-0.325	-0.152
-540.223	-200.000	-0.033	0.171
-539.208	-200.000	-0.057	0.358
-538.193	-78.871	-0.126	-0.043
-537.179	16.400	-0.383	-0.303
-536.164	-99.960	0.185	-0.046
-535.150	213.539	-0.004	0.007
-534.135	-200.000	0.034	-0.232
-533.121	645.844	0.105	-0.268
-532.106	-75.163	0.147	-0.053
-531.091	736.682	0.211	0.567
-530.077	72.853	0.225	-0.235
-529.062	-99.926	0.152	0.038
-528.048	-37.151	-0.320	-0.171
-527.033	-20.065	0.248	-0.153
-526.018	21.167	-0.324	-0.264
-525.004	-107.729	-0.243	-0.053
-523.989	348.956	0.138	-0.273
-522.975	100.425	0.124	-0.144
-521.960	8.748	0.174	0.131
-520.945	-200.000	0.025	-0.140
-519.931	-118.376	0.178	0.032
-518.916	51.417	-0.065	-0.062
-517.902	-31.824	0.158	-0.089
-516.887	-56.512	-0.098	-0.044
-515.872	-12.023	-0.275	0.180
-514.858	-18.747	-0.317	0.198
-513.843	800.000	0.044	-0.172
-512.829	800.000	-0.080	-0.315
-511.814	132.951	0.084	0.109
-510.799	800.000	0.070	0.219
-509.785	-29.856	-0.016	-0.009
-508.770	147.852	0.063	-0.084
-507.756	585.370	-0.028	0.070
-506.741	222.850	-0.058	0.093
-505.726	800.000	0.058	0.247
-504.712	350.897	0.090	-0.178
-503.697	18.421	0.280	0.224
-502.683	-73.987	0.125	-0.045
-501.668	-189.887	0.367	0.004
-500.653	800.000	0.087	-0.240
-499.639	-200.000	-0.000	-0.216
-498.624	120.337	-0.075	0.094
-497.610	-143.225	0.319	-0.031
-496.595	-130.434	-0.346	0.047
-495.581	-125.274	0.261	-0.040
-494.566	-122.318	-0.035	-0.006
-493.551	-59.374	-0.233	0.100
-492.537	41.783	-0.177	0.161
-491.522	377.580	0.103	-0.210
-490.508	-18.656	-0.140	-0.088
-489.493	-131.462	-0.138	-0.018
-488.478	800.000	-0.120	0.400
-487.464	26.980	-0.086	-0.072
-486.449	-200.000	0.034	0.284
-485.435	75.653	-0.061	0.065
-484.420	-200.000	-0.047	0.291
-483.405	-200.000	-0.013	-0.189
-482.391	-23.035	-0.142	0.086
-481.376	800.000	-0.162	0.540
-480.362	89.876	-0.115	0.128
-479.347	393.322	-0.101	0.210
-478.332	-200.000	-0.012	-0.058
-477.318	508.973	-0.039	0.091
-476.303	-200.000	0.026	0.129
-475.289	431.902	0.071	-0.153
-474.274	-200.000	0.004	-0.077
-473.259	800.000	0.068	-0.208
-472.245	-102.597	0.122	0.029
-471.230	-138.802	0.390	-0.042
-470.216	109.111	-0.257	-0.308
-469.201	451.960	-0.077	0.171
-468.186	-200.000	0.041	-0.217
-467.172	-158.849	-0.357	0.020
-466.157	632.052	-0.116	-0.294
-465.143	62.100	0.074	-0.074
-464.128	-200.000	0.042	-0.309
-463.113	-188.630	-0.241	0.003
-462.099	-36.871	0.461	0.247
-461.084	-136.221	-0.109	0.013
-460.070	-200.000	0.005	0.207
-459.055	87.364	0.207	-0.229
-458.040	326.859	-0.115	0.219
-457.026	-30.892	0.110	-0.062
-456.011	2.262	-0.420	0.303
-454.997	-200.000	-0.011	0.548
-453.982	-200.000	-0.027	-0.194
-452.968	-119.190	-0.278	-0.049
-451.953	41.666	0.271	0.245
-450.938	256.083	0.124	-0.213
-449.924	49.020	-0.120	-0.112
-448.909	93.580	-0.176	-0.198
-447.895	800.000	0.053	0.168
-446.880	62.764	0.081	-0.081
-445.865	-200.000	-0.031	0.175
-444.851	388.032	-0.056	-0.115
-443.836	40.139	0.210	-0.188
-442.822	-12.901	-0.144	-0.093
-441.807	-33.380	0.325	0.180
-440.792	-59.460	-0.443	-0.190
-439.778	340.873	0.171	-0.334
-438.763	-26.956	0.208	-0.121
-437.749	316.410	-0.079	-0.148
-436.734	-50.347	0.023	0.011
-435.719	269.813	0.140	0.245
-434.705	32.319	0.320	0.276
-433.690	800.000	-0.008	-0.029
-432.676	-138.557	-0.140	0.015
-431.661	153.669	0.051	-0.070
-430.646	102.371	0.055	-0.065
-429.632	-86.710	-0.155	-0.047
-428.617	97.151	0.011	-0.013
-427.603	-200.000	-0.008	0.050
-426.588	-200.000	-0.371	-0.001
-425.573	-200.000	-0.038	0.313
-424.559	29.398	-0.161	-0.137
-423.544	45.708	0.151	0.140
-422.530	-142.349	0.207	-0.020
-421.515	-92.732	-0.042	0.012
-420.500	108.070	0.103	-0.123
-419.486	-47.776	-0.178	-0.086
-418.471	-150.540	0.389	0.030
-417.457	40.146	0.187	0.168
-416.442	-200.000	0.043	0.214
-415.428	-200.000	0.025	0.151
-414.413	-142.103	0.148	0.015
-413.398	-137.147	0.334	-0.038
-412.384	-20.787	0.074	0.045
-411.369	-200.000	0.011	-0.090
-410.355	689.701	0.078	-0.202
-409.340	237.867	-0.175	0.290
-408.325	24.117	-0.043	0.035
-407.311	-200.000	-0.020	-0.442
-406.296	-61.306	0.424	-0.178
-405.282	800.000	0.028	-0.080
-404.267	-200.000	-0.001	-0.229
-403.252	-106.234	0.331	-0.074
-402.238	800.000	-0.025	0.088
-401.223	7.877	-0.045	-0.034
-400.209	562.545	0.051	0.124
-399.194	-154.923	0.332	0.022
-398.179	90.667	0.078	0.087
-397.165	-35.611	0.163	0.088
-396.150	49.381	-0.237	-0.222
-395.136	-37.710	-0.154	0.081
-394.121	-200.000	-0.045	-0.293
-393.106	-200.000	-0.048	-0.308
-392.092	-61.518	0.126	-0.053
-391.077	294.754	0.063	0.115
-390.063	175.106	0.130	-0.187
-389.048	37.088	0.060	-0.053
-388.033	-39.124	-0.146	-0.076
-387.019	395.534	0.083	-0.173
-386.004	-22.596	0.135	0.081
-384.990	-200.000	-0.019	-0.301
-383.975	-61.537	-0.117	0.049
-382.960	201.135	-0.106	0.163
-381.946	800.000	0.064	0.263
-380.931	624.523	0.033	-0.083
-379.917	-92.111	0.420	-0.118
-378.902	16.362	-0.156	0.122
-377.888	90.859	0.131	0.146
-376.873	-167.858	0.166	0.006
-375.858	-25.217	-0.240	-0.142
-374.844	-50.959	0.078	0.036
-373.829	-125.126	-0.399	-0.061
-372.815	8.114	0.273	0.204
-371.800	-97.504	-0.204	-0.053
-370.785	-170.822	0.335	-0.011
-369.771	-200.000	-0.020	-0.144
-368.756	2.207	0.145	0.104
-367.742	141.411	0.117	-0.155
-366.727	-21.529	-0.104	-0.063
-365.712	-24.075	0.123	0.073
-364.698	-113.104	-0.331	0.065
-363.683	17.077	0.272	0.214
-362.669	-200.000	-0.006	-0.153
-361.654	800.000	-0.165	0.493
-360.639	201.124	-0.040	-0.061
-359.625	145.041	-0.154	0.204
-358.610	800.000	-0.019	-0.074
-357.596	658.096	-0.091	-0.232
-356.581	-57.687	0.141	-0.061
-355.566	-89.133	0.275	0.081
-354.552	8.951	0.283	0.212
-353.537	-93.635	-0.146	-0.040
-352.523	-200.000	0.012	0.222
-351.508	-200.000	-0.011	0.315
-350.493	40.569	-0.283	-0.253
-349.479	-200.000	0.012	-0.188
-348.464	800.000	-0.079	-0.265
-347.450	-37.599	-0.172	-0.091
-346.435	34.408	0.167	0.145
-345.420	-177.164	-0.228	0.006
-344.406	-76.473	0.202	0.071
-343.391	-101.463	0.286	-0.069
-342.377	-167.848	-0.353	-0.014
-341.362	-96.857	0.146	0.038
-340.348	-88.882	-0.181	0.053
-339.333	82.986	-0.128	-0.139
-338.318	-11.183	-0.036	0.023
-337.304	-200.000	0.010	-0.357
-336.289	-165.714	0.234	0.010
-335.275	48.131	-0.236	-0.220
-334.260	-200.000	-0.053	0.318
-333.245	-30.010	0.233	0.132
-332.231	-156.658	0.101	0.006
-331.216	-200.000	-0.048	-0.216
-330.202	-69.894	0.026	-0.010
-329.187	-200.000	-0.008	-0.055
-328.172	54.045	0.116	0.111
-327.158	-200.000	-0.001	0.103
-326.143	161.412	-0.092	0.128
-325.129	-200.000	0.027	-0.165
-324.114	-200.000	-0.007	0.074
-323.099	-200.000	-0.046	0.200
-322.085	-109.306	-0.308	0.065
-321.070	30.829	-0.175	0.149
-320.056	81.535	0.187	-0.201
-319.041	169.546	0.034	-0.048
-318.026	800.000	0.092	-0.307
-317.012	-1.345	-0.120	-0.084
-315.997	-33.862	-0.213	-0.116
-314.983	800.000	-0.109	0.374
-313.968	206.643	-0.109	0.168
-312.953	31.833	0.213	-0.182
-311.939	365.208	0.047	0.094
-310.924	-82.534	0.070	-0.023
-309.910	-25.574	0.241	-0.141
-308.895	188.964	0.075	0.111
-307.880	162.267	0.172	-0.239
-306.866	57.751	0.066	0.064
-305.851	-200.000	0.017	0.210
-304.837	525.756	-0.019	-0.045
-303.822	-200.000	0.007	-0.244
-302.807	-93.007	-0.239	-0.066
-301.793	800.000	0.055	-0.206
-300.778	35.116	-0.116	-0.101
-299.764	41.969	0.133	0.119
-298.749	-200.000	-0.038	-0.189
-297.735	55.958	-0.222	0.213
-296.720	800.000	-0.036	-0.151
-295.705	648.386	0.123	-0.312
-294.691	535.239	0.066	-0.155
-293.676	-95.292	0.222	-0.059
-292.662	-7.768	0.090	0.060
-291.647	49.244	0.191	-0.178
-290.632	143.258	0.111	-0.146
-289.618	100.572	-0.246	-0.284
-288.603	-17.659	0.298	0.186
-287.589	54.908	-0.097	-0.093
-286.574	800.000	0.108	0.373
-285.559	515.039	-0.106	0.245
-284.545	764.935	-0.074	0.198
-283.530	595.742	0.158	0.388
-282.516	-123.671	0.189	0.030
-281.501	280.058	0.114	-0.202
-280.486	26.996	0.154	0.128
-279.472	-200.000	0.005	-0.175
-278.457	263.817	0.107	0.184
-277.443	-44.066	-0.115	0.057
-276.428	-22.465	-0.291	-0.174
-275.413	-200.000	-0.036	-0.173
-274.399	-200.000	-0.045	-0.409
-273.384	353.934	-0.121	-0.237
-272.370	81.807	-0.089	0.096
-271.355	-77.414	0.400	0.138
-270.340	148.310	0.109	-0.146
-269.326	-65.217	0.174	-0.070
-268.311	70.401	0.177	-0.182
-267.297	357.584	0.115	-0.228
-266.282	800.000	-0.050	0.180
-265.267	-28.322	-0.128	-0.073
-264.253	-85.118	-0.294	-0.091
-263.238	-200.000	0.010	-0.112
-262.224	50.154	-0.106	-0.099
-261.209	800.000	0.032	0.116
-260.195	-200.000	-0.069	-0.361
-259.180	-23.077	-0.089	-0.053
-258.165	133.109	-0.064	-0.082
-257.151	-78.383	0.537	-0.182
-256.136	-36.183	0.188	-0.101
-255.122	-200.000	0.031	0.240
-254.107	-63.518	0.095	-0.039
-253.092	800.000	-0.007	0.028
-252.078	-0.809	-0.169	0.118
-251.063	9.472	0.212	0.159
-250.049	147.422	-0.074	-0.098
-249.034	-92.694	0.238	0.066
-248.019	-152.972	-0.166	0.012
-247.005	-200.000	-0.020	-0.239
-245.990	78.849	0.210	0.222
-244.976	621.662	0.040	0.100
-243.961	-200.000	0.151	0.665
-242.946	152.871	-0.264	0.357
-241.932	-52.133	0.203	-0.093
-240.917	83.206	-0.183	0.197
-239.903	-200.000	0.056	-0.370
-238.888	792.724	0.066	-0.181
-237.873	-172.384	0.165	0.005
-236.859	-200.000	0.014	0.185
-235.844	213.284	0.017	-0.027
-234.830	-37.280	0.113	-0.060
-233.815	189.204	0.043	0.063
-232.800	800.000	-0.064	-0.211
-231.786	115.087	-0.070	0.085
-230.771	20.599	0.146	0.117
-229.757	-74.822	0.140	-0.050
-228.742	-62.113	-0.182	-0.075
-227.727	-59.359	-0.169	-0.072
-226.713	-167.664	-0.205	-0.008
-225.698	258.063	0.039	0.066
-224.684	800.000	0.063	-0.230
-223.669	72.942	0.240	0.248
-222.655	-200.000	0.022	0.117
-221.640	16.292	-0.088	-0.069
-220.625	800.000	0.031	-0.112
-219.611	-108.452	0.347	-0.074
-218.596	542.692	0.193	-0.455
-217.582	186.090	0.115	-0.169
-216.567	142.592	-0.108	-0.142
-215.552	-200.000	-0.002	0.152
-214.538	800.000	0.042	0.116
-213.523	800.000	0.075	0.303
-212.509	-200.000	0.038	0.200
-211.494	800.000	-0.059	0.188
-210.479	-200.000	-0.003	-0.045
-209.465	-200.000	-0.013	0.199
-208.450	-200.000	0.012	-0.174
-207.436	-200.000	0.055	0.345
-206.421	-10.973	-0.114	0.074
-205.406	318.498	0.079	-0.148
-204.392	-124.588	0.286	-0.044
-203.377	-108.245	-0.291	-0.062
-202.363	199.328	-0.171	0.259
-201.348	-45.182	0.319	0.156
-200.333	547.466	-0.084	0.200
-199.319	-25.684	-0.277	0.162
-198.304	87.473	0.113	-0.123
-197.290	800.000	-0.052	-0.177
-196.275	-159.684	-0.165	0.009
-195.260	-18.819	-0.097	0.060
-194.246	134.922	-0.245	-0.315
-193.231	-48.756	-0.271	-0.128
-192.217	-75.754	0.333	0.117
-191.202	-83.257	0.281	0.089
-190.187	70.064	0.059	0.060
-189.173	418.823	0.064	0.136
-188.158	-52.259	-0.280	0.128
-187.144	-61.910	-0.185	0.077
-186.129	-90.866	0.150	-0.043
-185.114	-66.135	0.205	0.081
-184.100	178.290	0.050	0.073
-183.085	800.000	0.048	0.185
-182.071	-145.903	-0.197	-0.017
-181.056	-150.976	0.105	-0.008
-180.042	-59.482	-0.183	-0.077
-179.027	146.533	0.122	0.162
-178.012	440.627	-0.046	0.099
-176.998	-45.322	-0.268	-0.131
-175.983	800.000	0.104	-0.401
-174.969	-200.000	-0.032	0.295
-173.954	-60.112	0.257	0.108
-172.939	132.783	-0.122	0.156
-171.925	134.548	0.081	-0.104
-170.910	37.062	0.113	-0.098
-169.896	800.000	-0.012	-0.052
-168.881	-200.000	-0.007	-0.273
-167.866	-138.214	0.212	-0.023
-166.852	-63.461	0.103	-0.042
-165.837	-102.881	-0.152	-0.036
-164.823	-173.097	0.284	0.009
-163.808	-186.502	-0.160	-0.002
-162.793	-200.000	-0.040	0.202
-161.779	-26.758	-0.274	0.158
-160.764	800.000	0.067	-0.272
-159.750	-200.000	-0.011	-0.113
-158.735	377.197	0.037	0.074
-157.720	-135.211	-0.077	0.009
-156.706	333.855	-0.146	-0.279
-155.691	-134.901	-0.236	0.028
-154.677	-5.047	0.059	-0.040
-153.662	-127.595	0.168	0.024
-152.647	29.740	-0.099	0.083
-151.633	147.550	0.116	0.155
-150.618	-81.577	0.356	-0.115
-149.604	280.605	-0.055	0.097
-148.589	-200.000	0.018	-0.102
-147.574	-200.000	0.009	-0.056
-146.560	474.912	0.175	0.390
-145.545	-43.689	-0.167	-0.083
-144.531	-200.000	0.180	-0.000
-143.516	102.391	-0.123	0.142
-142.502	-114.702	0.094	-0.018
-141.487	800.000	0.049	-0.145
-140.472	-200.000	-0.017	0.077
-139.458	-200.000	0.010	-0.085
-138.443	-1.091	-0.067	0.046
-137.429	-101.027	0.461	-0.112
-136.414	-4.108	0.139	0.095
-135.399	116.068	0.124	-0.150
-134.385	-143.242	-0.290	0.027
-133.370	800.000	-0.063	0.257
-132.356	-63.082	-0.306	0.124
-131.341	677.908	0.064	0.164
-130.326	419.431	0.139	-0.294
-129.312	-5.273	0.173	0.117
-128.297	681.849	-0.117	-0.302
-127.283	-36.056	-0.102	0.054
-126.268	-66.979	-0.271	-0.105
-125.253	-67.684	0.124	-0.048
-124.239	4.183	0.310	0.224
-123.224	-200.000	-0.008	0.291
-122.210	-200.000	0.024	0.292
