DTS Sentinel unit serial number:	SN413079Multiplexer serial number:	ORYXHardware model number:	OX4-SRSoftware version number:	ORYX F/W v4.00 Oryx Data Collector v3.7.2.0data status	okinstallation	princeton_trtdifferential loss correction	single-endedforward channel	channel 2reverse channel	N/Adate	2019/09/13time	05:23:34forward acquisition time	60.00reverse acquisition time	0.00gamma	496.2192k internal	0.2337k external	0.2337temperature offset calibration	1.0190default loss term (dB/km)	0.3790temperature slope calibration	1.0000multiplexer offset coefficient	1.0000multiplexer slope coefficient	1.0000fibre end	0.00T internal ref (°C)	26.31T ext. ref 1 (°C)	4.04T ext. ref 2 (°C)	20.89length (m)	temperature (°C)	Stokes	anti-Stokes-747.200	-200.000	0.001	-0.017
-746.185	-200.000	0.013	-0.172
-745.171	800.000	-0.060	0.172
-744.156	-93.668	0.261	-0.072
-743.142	36.653	0.092	0.081
-742.127	800.000	0.018	-0.066
-741.112	-123.203	-0.158	-0.025
-740.098	800.000	-0.055	0.243
-739.083	263.573	-0.211	0.369
-738.069	-119.294	-0.382	0.067
-737.054	12.706	-0.137	-0.106
-736.039	800.000	-0.040	0.139
-735.025	-6.134	-0.214	-0.147
-734.010	-78.150	-0.242	-0.083
-732.996	-141.570	-0.108	-0.011
-731.981	527.507	0.069	-0.163
-730.966	137.173	-0.176	-0.230
-729.952	-200.000	-0.035	-0.395
-728.937	-200.000	0.045	-0.261
-727.923	95.039	-0.149	0.170
-726.908	217.721	-0.059	-0.094
-725.894	-129.202	-0.227	0.032
-724.879	-100.531	-0.252	0.063
-723.864	7.563	-0.291	0.218
-722.850	-200.000	-0.001	0.027
-721.835	400.787	0.036	-0.076
-720.821	196.194	-0.263	-0.401
-719.806	-79.659	-0.110	0.037
-718.791	-159.334	-0.197	0.011
-717.777	-200.000	0.047	-0.501
-716.762	-127.469	0.383	0.056
-715.748	33.214	0.081	-0.071
-714.733	0.200	-0.148	-0.106
-713.718	546.019	-0.126	0.302
-712.704	307.210	-0.033	-0.061
-711.689	-59.149	-0.035	-0.015
-710.675	-189.456	0.172	-0.002
-709.660	5.127	-0.289	0.213
-708.645	-172.384	0.369	-0.012
-707.631	156.064	0.229	-0.316
-706.616	-54.047	-0.087	-0.040
-705.602	458.032	0.081	0.180
-704.587	-168.910	-0.377	-0.014
-703.572	-13.696	0.182	0.118
-702.558	-26.080	-0.173	0.102
-701.543	-119.959	-0.129	0.022
-700.529	-156.832	0.064	0.004
-699.514	-97.575	-0.265	0.069
-698.499	-200.000	-0.012	-0.177
-697.485	-2.112	-0.344	-0.242
-696.470	263.326	-0.179	-0.312
-695.456	-200.000	0.116	-0.525
-694.441	-200.000	0.003	0.039
-693.426	800.000	0.050	0.140
-692.412	-47.008	0.045	-0.022
-691.397	-182.381	-0.257	0.005
-690.383	800.000	0.081	-0.227
-689.368	-169.687	0.142	-0.005
-688.354	5.775	-0.234	0.173
-687.339	22.187	-0.086	0.070
-686.324	-142.017	0.106	0.011
-685.310	42.115	0.343	0.312
-684.295	-142.761	0.244	-0.024
-683.281	-67.990	-0.107	0.042
-682.266	-106.817	0.098	-0.022
-681.251	800.000	-0.119	0.389
-680.237	-150.177	0.160	-0.012
-679.222	-175.867	-0.278	0.007
-678.208	-39.562	0.270	-0.142
-677.193	-200.000	-0.007	-0.274
-676.178	800.000	-0.072	-0.239
-675.164	-200.000	0.036	0.242
-674.149	800.000	-0.057	-0.215
-673.135	696.202	0.055	0.145
-672.120	92.869	-0.121	0.136
-671.105	-151.385	0.111	-0.008
-670.091	800.000	0.042	-0.158
-669.076	509.863	-0.096	0.223
-668.062	356.454	0.066	-0.132
-667.047	-155.713	-0.139	0.009
-666.032	97.203	-0.124	-0.143
-665.018	3.996	-0.179	-0.131
-664.003	-16.325	-0.260	-0.165
-662.989	-73.175	0.124	-0.045
-661.974	259.892	0.118	-0.203
-660.959	-200.000	0.032	-0.226
-659.945	-200.000	0.008	-0.163
-658.930	-99.449	-0.137	0.035
-657.916	-200.000	0.043	0.213
-656.901	164.250	-0.077	-0.109
-655.886	-200.000	0.016	0.091
-654.872	-118.182	0.070	-0.012
-653.857	800.000	-0.062	-0.188
-652.843	323.253	0.092	-0.175
-651.828	-200.000	-0.036	-0.271
-650.814	-98.191	0.279	0.072
-649.799	-200.000	0.005	0.183
-648.784	104.956	0.153	-0.180
-647.770	265.929	0.090	-0.156
-646.755	6.715	0.075	-0.056
-645.741	242.427	-0.056	0.094
-644.726	73.632	0.281	0.295
-643.711	-34.361	0.148	-0.081
-642.697	-147.628	0.077	-0.006
-641.682	-122.057	-0.289	0.047
-640.668	800.000	-0.045	0.163
-639.653	144.049	0.119	-0.158
-638.638	71.786	-0.420	-0.436
-637.624	-52.905	0.106	-0.049
-636.609	382.714	-0.127	0.262
-635.595	22.736	-0.400	0.327
-634.580	138.058	-0.113	-0.148
-633.565	136.326	0.180	-0.235
-632.551	-86.663	0.095	-0.029
-631.536	344.396	0.037	-0.072
-630.522	90.339	-0.270	-0.302
-629.507	29.980	0.297	0.253
-628.492	228.168	0.234	0.381
-627.478	364.572	-0.039	-0.078
-626.463	626.094	-0.024	0.061
-625.449	-200.000	-0.083	-0.419
-624.434	-200.000	0.053	-0.384
-623.419	128.713	-0.080	-0.102
-622.405	-43.470	-0.106	0.053
-621.390	-109.756	-0.234	0.049
-620.376	-200.000	0.005	0.138
-619.361	126.994	0.157	0.199
-618.346	35.645	-0.032	0.028
-617.332	96.134	0.067	0.076
-616.317	-35.844	-0.205	-0.111
-615.303	-137.548	0.186	0.021
-614.288	-200.000	-0.003	0.034
-613.273	4.737	0.070	-0.052
-612.259	-79.401	-0.104	-0.035
-611.244	-169.553	-0.589	-0.021
-610.230	-12.372	0.065	0.043
-609.215	-200.000	0.011	-0.055
-608.201	15.858	0.101	0.079
-607.186	694.004	-0.113	-0.296
-606.171	241.558	-0.107	0.179
-605.157	-200.000	0.013	0.093
-604.142	-96.648	0.466	-0.123
-603.128	-66.746	-0.321	0.127
-602.113	61.910	-0.307	-0.305
-601.098	800.000	0.073	0.223
-600.084	800.000	0.035	0.138
-599.069	-35.892	-0.060	0.033
-598.055	303.224	0.055	-0.102
-597.040	-200.000	-0.054	0.256
-596.025	174.844	0.223	0.322
-595.011	-128.644	-0.177	0.025
-593.996	-14.759	-0.184	-0.118
-592.982	-104.925	0.403	-0.092
-591.967	700.006	-0.029	0.077
-590.952	800.000	-0.065	-0.200
-589.938	452.041	0.082	-0.181
-588.923	-200.000	-0.020	-0.278
-587.909	800.000	-0.041	-0.122
-586.894	43.567	-0.198	0.180
-585.879	514.418	0.127	0.296
-584.865	-93.921	-0.293	0.080
-583.850	-100.969	-0.221	-0.054
-582.836	-60.522	-0.169	-0.072
-581.821	-136.626	-0.396	0.046
-580.806	94.533	0.064	0.073
-579.792	-200.000	0.027	-0.247
-578.777	-20.439	0.407	0.249
-577.763	-65.132	-0.245	0.098
-576.748	-157.734	0.319	-0.019
-575.733	-78.287	0.276	-0.094
-574.719	800.000	0.013	-0.048
-573.704	347.996	0.047	0.093
-572.690	-44.368	-0.264	0.132
-571.675	800.000	-0.077	0.275
-570.661	44.054	-0.108	-0.099
-569.646	800.000	-0.018	-0.065
-568.631	-88.915	-0.253	-0.075
-567.617	-200.000	0.147	0.000
-566.602	242.430	-0.179	-0.299
-565.588	-117.596	-0.220	0.040
-564.573	201.380	0.194	-0.297
-563.558	244.392	-0.112	-0.188
-562.544	-119.528	-0.267	0.046
-561.529	-71.825	0.335	0.124
-560.515	65.923	0.124	0.125
-559.500	800.000	0.071	0.223
-558.485	-167.018	0.122	-0.005
-557.471	800.000	0.049	0.152
-556.456	22.191	0.330	-0.269
-555.442	-71.363	-0.079	0.029
-554.427	-139.289	0.486	-0.052
-553.412	800.000	0.071	0.235
-552.398	7.590	0.136	0.102
-551.383	-40.433	-0.188	0.097
-550.369	-35.819	0.091	0.049
-549.354	-49.366	0.148	-0.071
-548.339	-86.150	-0.110	0.034
-547.325	-132.794	-0.257	-0.033
-546.310	727.891	-0.020	-0.053
-545.296	750.014	-0.084	0.226
-544.281	-138.581	0.265	-0.029
-543.266	-200.000	0.065	-0.309
-542.252	-63.069	-0.326	0.134
-541.237	265.694	0.143	0.249
-540.223	211.761	-0.029	0.046
-539.208	-200.000	-0.010	-0.181
-538.193	-52.918	0.293	-0.134
-537.179	665.634	-0.093	0.240
-536.164	-42.040	0.119	-0.060
-535.150	38.590	-0.107	-0.095
-534.135	-76.943	0.464	0.161
-533.121	800.000	0.094	0.318
-532.106	8.227	0.031	-0.023
-531.091	800.000	-0.057	-0.180
-530.077	800.000	0.094	-0.386
-529.062	-200.000	0.030	-0.449
-528.048	-200.000	-0.039	0.240
-527.033	-184.797	0.366	0.006
-526.018	-200.000	-0.002	0.151
-525.004	-118.485	0.409	-0.072
-523.989	-0.781	0.193	0.136
-522.975	-200.000	0.005	-0.073
-521.960	125.684	0.016	0.019
-520.945	282.973	0.187	0.334
-519.931	121.861	0.134	0.166
-518.916	-117.313	0.242	0.044
-517.902	800.000	-0.028	-0.088
-516.887	48.410	-0.102	-0.095
-515.872	-115.827	-0.186	-0.035
-514.858	-48.464	0.291	0.139
-513.843	-16.554	-0.214	-0.135
-512.829	-111.296	0.402	-0.082
-511.814	-200.000	0.006	0.186
-510.799	-140.788	0.125	-0.013
-509.785	-200.000	0.045	-0.217
-508.770	22.768	-0.187	-0.152
-507.756	-10.842	0.192	0.126
-506.741	-48.461	0.085	-0.041
-505.726	-22.808	0.360	-0.216
-504.712	-73.139	-0.220	0.080
-503.697	-117.046	0.066	0.012
-502.683	800.000	-0.053	0.190
-501.668	-142.485	-0.376	0.037
-500.653	-198.775	-0.318	-0.002
-499.639	141.078	-0.037	0.049
-498.624	800.000	0.080	0.227
-497.610	800.000	-0.075	-0.253
-496.595	-146.346	0.142	0.012
-495.581	-25.243	-0.053	0.031
-494.566	-91.734	-0.148	-0.042
-493.551	-55.711	0.143	0.063
-492.537	51.087	-0.295	-0.278
-491.522	-70.265	0.166	-0.063
-490.508	477.029	-0.139	-0.313
-489.493	-200.000	-0.011	-0.064
-488.478	67.180	0.136	0.137
-487.464	71.273	-0.164	0.169
-486.449	-200.000	0.046	0.231
-485.435	47.589	-0.204	0.189
-484.420	-200.000	0.042	-0.341
-483.405	-158.567	-0.120	0.007
-482.391	31.606	-0.184	-0.158
-481.376	574.010	0.066	-0.160
-480.362	-200.000	-0.028	-0.225
-479.347	-31.548	0.216	-0.120
-478.332	412.301	0.166	-0.351
-477.318	67.625	0.140	-0.142
-476.303	467.297	0.045	0.100
-475.289	-154.541	0.343	0.023
-474.274	-94.099	-0.124	-0.034
-473.259	-200.000	-0.045	0.255
-472.245	-148.300	-0.079	-0.006
-471.230	-93.422	-0.199	-0.055
-470.216	1.439	0.129	-0.092
-469.201	18.067	-0.172	0.136
-468.186	83.852	-0.086	0.093
-467.172	-187.100	-0.212	0.003
-466.157	-148.105	-0.115	-0.009
-465.143	211.924	-0.116	-0.181
-464.128	121.300	-0.185	0.228
-463.113	-161.302	0.477	-0.025
-462.099	32.449	0.261	0.224
-461.084	-24.279	0.400	-0.237
-460.070	800.000	0.019	-0.079
-459.055	-200.000	-0.039	-0.210
-458.040	104.598	-0.028	0.033
-457.026	250.676	0.133	0.224
-456.011	68.235	0.087	-0.089
-454.997	-17.594	0.134	0.083
-453.982	292.526	0.013	0.024
-452.968	1.639	-0.108	0.077
-451.953	-95.289	-0.030	0.008
-450.938	800.000	-0.067	0.195
-449.924	-44.370	0.090	0.045
-448.909	256.951	-0.108	-0.184
-447.895	8.752	-0.164	0.123
-446.880	-200.000	0.044	-0.207
-445.865	197.857	0.090	-0.137
-444.851	183.832	-0.121	-0.178
-443.836	-58.525	-0.144	0.062
-442.822	-161.649	-0.501	0.025
-441.807	443.927	0.149	-0.324
-440.792	-54.016	-0.182	-0.082
-439.778	354.861	0.157	-0.309
-438.763	46.187	0.128	-0.118
-437.749	-57.011	0.137	0.060
-436.734	-166.247	-0.168	0.007
-435.719	252.964	-0.201	0.340
-434.705	-146.900	0.103	-0.009
-433.690	654.746	0.115	-0.292
-432.676	193.452	0.035	0.053
-431.661	800.000	0.034	-0.111
-430.646	420.826	0.083	0.177
-429.632	-55.699	0.149	0.066
-428.617	-158.878	-0.196	0.011
-427.603	-200.000	-0.009	-0.093
-426.588	184.407	0.148	-0.217
-425.573	800.000	-0.045	0.190
-424.559	-118.048	-0.159	-0.028
-423.544	-22.460	-0.329	0.197
-422.530	0.865	0.231	-0.164
-421.515	-136.049	-0.274	0.032
-420.500	-126.079	0.316	0.047
-419.486	-4.296	0.205	0.141
-418.471	88.874	-0.198	0.218
-417.457	800.000	0.019	-0.054
-416.442	-2.454	-0.232	-0.161
-415.428	-31.406	0.230	-0.128
-414.413	-200.000	-0.008	0.149
-413.398	290.674	0.095	-0.171
-412.384	-200.000	-0.133	0.000
-411.369	163.784	-0.022	-0.030
-410.355	499.458	0.066	0.151
-409.340	-123.830	-0.167	-0.026
-408.325	-200.000	0.001	-0.059
-407.311	-87.318	0.332	0.100
-406.296	-114.015	-0.426	0.082
-405.282	-128.341	0.179	-0.025
-404.267	-200.000	-0.015	-0.107
-403.252	800.000	-0.079	-0.246
-402.238	111.772	0.096	-0.115
-401.223	800.000	-0.038	-0.145
-400.209	800.000	-0.038	-0.147
-399.194	678.751	0.101	-0.260
-398.179	-200.000	-0.036	-0.231
-397.165	-55.936	0.213	-0.094
-396.150	317.418	-0.188	0.351
-395.136	-173.404	-0.152	-0.005
-394.121	-112.681	-0.087	0.017
-393.106	606.944	0.118	-0.290
-392.092	800.000	0.085	0.267
-391.077	116.250	-0.144	0.174
-390.063	150.515	0.075	-0.101
-389.048	800.000	0.047	-0.131
-388.033	-200.000	-0.016	-0.147
-387.019	191.695	-0.258	-0.385
-386.004	800.000	0.053	0.144
-384.990	766.261	0.172	0.462
-383.975	-27.863	-0.153	-0.088
-382.960	-200.000	0.006	-0.053
-381.946	257.942	-0.078	-0.132
-380.931	39.244	0.242	0.215
-379.917	116.527	-0.207	0.251
-378.902	-200.000	0.020	-0.125
-377.888	196.926	-0.077	-0.116
-376.873	-76.118	-0.298	-0.104
-375.858	85.130	-0.044	-0.048
-374.844	800.000	-0.101	0.329
-373.829	-200.000	0.017	0.149
-372.815	-74.895	0.232	0.082
-371.800	800.000	-0.107	-0.371
-370.785	-63.848	-0.376	-0.152
-369.771	800.000	-0.047	0.201
-368.756	458.972	0.153	-0.336
-367.742	-37.522	-0.306	0.161
-366.727	-200.000	0.004	-0.163
-365.712	-144.197	-0.258	-0.024
-364.698	800.000	-0.084	-0.275
-363.683	-29.669	-0.283	0.160
-362.669	-139.773	-0.287	0.030
-361.654	20.558	0.286	0.229
-360.639	-126.095	0.433	0.064
-359.625	-148.685	-0.254	-0.020
-358.610	253.034	0.004	-0.008
-357.596	-193.895	0.440	-0.004
-356.581	800.000	-0.007	0.024
-355.566	-105.186	0.122	0.028
-354.552	-200.000	-0.048	0.285
-353.537	368.150	-0.086	-0.172
-352.523	-63.307	-0.377	-0.153
-351.508	478.794	-0.050	0.112
-350.493	37.616	0.297	-0.261
-349.479	-67.289	-0.070	0.027
-348.464	55.434	-0.140	-0.134
-347.450	-2.081	-0.166	0.115
-346.435	-51.157	0.223	0.103
-345.420	-94.249	-0.131	-0.035
-344.406	-200.000	0.016	0.218
-343.391	68.153	-0.103	0.104
-342.377	151.341	-0.126	0.170
-341.362	403.760	-0.205	0.427
-340.348	-102.504	-0.061	-0.015
-339.333	29.613	0.084	0.071
-338.318	170.543	-0.179	0.254
-337.304	-77.411	0.305	-0.104
-336.289	83.897	-0.194	0.209
-335.275	800.000	-0.096	0.294
-334.260	26.683	-0.097	-0.080
-333.245	-125.870	0.174	-0.026
-332.231	-200.000	-0.058	0.326
-331.216	-147.789	0.220	-0.018
-330.202	-7.518	0.225	-0.151
-329.187	183.172	-0.161	-0.235
-328.172	-200.000	-0.001	0.032
-327.158	-9.284	0.072	0.047
-326.143	-140.415	0.130	0.013
-325.129	-114.841	-0.154	-0.029
-324.114	173.329	0.075	0.107
-323.099	-0.362	-0.168	0.118
-322.085	-200.000	0.027	-0.278
-321.070	-89.491	-0.117	0.034
-320.056	-127.416	0.176	-0.025
-319.041	-200.000	-0.016	-0.138
-318.026	-34.398	0.073	-0.039
-317.012	-43.821	0.209	0.104
-315.997	131.400	0.136	-0.172
-314.983	-129.486	-0.097	0.013
-313.968	21.939	-0.059	0.047
-312.953	-17.884	-0.121	0.075
-311.939	-84.658	-0.267	0.083
-310.924	61.747	-0.195	-0.192
-309.910	-152.937	0.107	0.007
-308.895	-109.053	0.346	0.073
-307.880	-128.357	-0.159	-0.022
-306.866	167.879	0.130	-0.183
-305.851	-51.382	-0.262	-0.121
-304.837	-181.502	-0.104	0.002
-303.822	-38.181	0.078	0.041
-302.807	800.000	-0.019	-0.052
-301.793	13.434	0.265	0.202
-300.778	-200.000	0.031	-0.152
-299.764	-83.420	-0.050	-0.016
-298.749	42.935	0.146	0.131
-297.735	800.000	0.039	-0.146
-296.720	-200.000	-0.035	0.198
-295.705	800.000	0.133	-0.395
-294.691	49.973	0.228	-0.212
-293.676	171.663	-0.232	0.329
-292.662	208.024	-0.146	-0.224
-291.647	122.800	-0.277	0.341
-290.632	-116.025	-0.312	0.057
-289.618	18.065	0.261	0.205
-288.603	-65.261	-0.205	-0.081
-287.589	-200.000	0.001	0.111
-286.574	-200.000	0.023	-0.146
-285.559	83.720	-0.069	-0.074
-284.545	-200.000	0.027	-0.187
-283.530	-96.430	-0.325	0.085
-282.516	267.162	0.233	-0.401
-281.501	108.580	0.057	0.067
-280.486	800.000	0.066	0.255
-279.472	-80.802	-0.102	-0.033
-278.457	-144.643	0.097	0.009
-277.443	205.267	0.085	0.130
-276.428	157.048	0.078	-0.106
-275.413	253.658	-0.182	-0.306
-274.399	-200.000	0.010	0.089
-273.384	245.203	0.127	0.211
-272.370	-136.467	-0.178	0.020
-271.355	571.709	-0.058	0.140
-270.340	8.689	0.096	0.071
-269.326	606.822	-0.119	-0.291
-268.311	-200.000	-0.006	0.091
-267.297	11.977	-0.115	0.087
-266.282	-25.600	-0.297	0.173
-265.267	-125.114	0.339	-0.051
-264.253	-115.624	0.259	0.048
-263.238	-200.000	-0.011	0.396
-262.224	63.420	0.101	0.100
-261.209	-200.000	-0.007	0.129
-260.195	-119.874	-0.122	-0.021
-259.180	146.452	-0.161	0.213
-258.165	-100.015	0.098	-0.024
-257.151	800.000	-0.071	-0.274
-256.136	800.000	-0.074	-0.310
-255.122	51.449	-0.260	-0.243
-254.107	-200.000	-0.050	0.293
-253.092	462.023	-0.117	0.257
-252.078	258.022	-0.033	-0.055
-251.063	-0.380	-0.144	0.101
-250.049	16.068	-0.397	0.308
-249.034	-200.000	0.010	0.053
-248.019	-146.787	0.198	-0.017
-247.005	-146.123	0.156	0.014
-245.990	-106.271	-0.071	0.016
-244.976	-2.113	-0.050	-0.034
-243.961	79.627	0.207	0.219
-242.946	1.021	-0.191	0.135
-241.932	-200.000	0.038	-0.171
-240.917	-58.323	0.397	-0.170
-239.903	227.610	-0.064	-0.102
-238.888	685.681	-0.092	0.237
-237.873	-76.957	0.152	-0.052
-236.859	140.114	0.035	-0.045
-235.844	759.152	0.054	0.144
-234.830	-139.316	0.282	0.030
-233.815	251.578	-0.206	-0.345
-232.800	-200.000	-0.109	-0.591
-231.786	-152.498	0.094	0.007
-230.771	125.559	-0.221	-0.274
-229.757	103.942	0.115	0.133
-228.742	-2.769	0.237	-0.163
-227.727	-163.643	-0.251	0.012
-226.713	324.533	0.118	0.221
-225.698	800.000	0.082	0.346
-224.684	454.443	-0.104	0.226
-223.669	-4.128	0.189	0.129
-222.655	-67.910	-0.360	0.138
-221.640	-169.942	0.141	0.005
-220.625	-121.351	0.120	-0.020
-219.611	-200.000	-0.003	-0.120
-218.596	-40.666	0.298	0.152
-217.582	-200.000	0.002	-0.115
-216.567	0.840	-0.290	-0.204
-215.552	-27.770	-0.048	-0.028
-214.538	800.000	0.055	-0.222
-213.523	-185.715	0.286	0.004
-212.509	161.857	0.160	-0.220
-211.494	9.130	0.135	-0.100
-210.479	800.000	-0.032	-0.089
-209.465	238.923	-0.118	0.193
-208.450	35.144	-0.226	0.195
-207.436	22.536	-0.108	0.087
-206.421	-117.954	0.010	-0.002
-205.406	-128.510	0.450	-0.063
-204.392	-200.000	0.065	0.376
-203.377	800.000	-0.020	0.086
-202.363	-20.896	0.172	-0.103
-201.348	-16.492	0.167	0.104
-200.333	643.706	0.175	-0.437
-199.319	214.429	-0.095	-0.148
-198.304	-200.000	0.034	0.236
-197.290	-141.181	-0.161	0.016
-196.275	-200.000	0.023	-0.307
-195.260	367.263	-0.092	0.182
-194.246	57.936	0.063	-0.061
-193.231	23.545	0.111	-0.090
-192.217	-18.312	0.330	0.202
-191.202	23.089	0.170	-0.137
-190.187	-18.885	-0.267	0.163
-189.173	-39.955	-0.205	0.105
-188.158	-133.258	0.172	0.021
-187.144	205.126	0.060	-0.092
-186.129	-200.000	0.009	0.154
-185.114	-93.437	-0.292	-0.080
-184.100	800.000	0.115	-0.314
-183.085	97.258	-0.055	-0.062
-182.071	-9.391	0.071	-0.046
-181.056	-66.048	0.155	-0.061
-180.042	674.142	-0.057	0.146
-179.027	-72.525	-0.270	-0.098
-178.012	-200.000	0.016	0.108
-176.998	-103.591	0.294	-0.068
-175.983	65.871	0.198	-0.197
-174.969	153.820	0.204	0.274
-173.954	534.037	0.155	0.360
-172.939	-120.551	0.218	0.036
-171.925	-65.988	-0.051	0.020
-170.910	81.798	0.139	0.148
-169.896	33.284	-0.115	0.098
-168.881	129.392	0.030	-0.038
-167.866	91.883	0.034	-0.037
-166.852	56.697	-0.119	-0.113
-165.837	-114.058	-0.074	0.014
-164.823	800.000	0.037	0.134
-163.808	-91.186	-0.362	0.102
-162.793	-39.002	-0.120	-0.062
-161.779	-200.000	0.020	-0.153
-160.764	-25.052	0.148	-0.086
-159.750	-22.639	-0.036	-0.022
-158.735	-70.090	0.202	-0.075
-157.720	-145.546	-0.165	0.015
-156.706	99.727	-0.089	-0.101
-155.691	-200.000	-0.039	0.197
-154.677	-122.553	0.160	-0.025
-153.662	409.024	-0.104	0.215
-152.647	598.561	-0.150	0.364
-151.633	450.716	0.022	0.049
-150.618	13.585	0.264	0.201
-149.604	176.764	0.198	-0.282
-148.589	-119.810	-0.237	-0.040
-147.574	239.249	0.137	-0.224
-146.560	69.699	-0.115	0.116
-145.545	-31.305	0.096	-0.053
-144.531	-144.565	-0.089	0.008
-143.516	-200.000	0.003	-0.181
-142.502	800.000	0.095	0.281
-141.487	-155.994	0.198	-0.012
-140.472	800.000	0.125	0.520
-139.458	-50.617	-0.156	-0.072
-138.443	-120.546	0.168	0.028
-137.429	-62.410	-0.325	-0.132
-136.414	-18.646	-0.194	0.119
-135.399	-39.179	0.288	-0.149
-134.385	334.763	-0.231	0.439
-133.370	-153.612	0.474	0.032
-132.356	570.822	0.007	0.016
-131.341	800.000	0.059	0.175
-130.326	-130.159	-0.146	0.019
-129.312	800.000	-0.060	0.165
-128.297	128.860	-0.121	-0.152
-127.283	17.738	-0.030	0.023
-126.268	-155.333	-0.176	0.011
-125.253	-51.481	0.360	-0.165
-124.239	-200.000	-0.089	-0.442
-123.224	800.000	-0.080	0.281
-122.210	-37.786	0.332	0.173
