DTS Sentinel unit serial number:	SN413079Multiplexer serial number:	ORYXHardware model number:	OX4-SRSoftware version number:	ORYX F/W v4.00 Oryx Data Collector v3.7.2.0data status	okinstallation	princeton_trtdifferential loss correction	single-endedforward channel	channel 2reverse channel	N/Adate	2019/09/11time	04:57:11forward acquisition time	60.00reverse acquisition time	0.00gamma	496.2192k internal	0.2330k external	0.2330temperature offset calibration	0.9937default loss term (dB/km)	0.3790temperature slope calibration	1.0000multiplexer offset coefficient	1.0000multiplexer slope coefficient	1.0000fibre end	0.00T internal ref (°C)	29.50T ext. ref 1 (°C)	-0.28T ext. ref 2 (°C)	23.26length (m)	temperature (°C)	Stokes	anti-Stokes-747.200	-92.255	0.100	-0.028
-746.185	729.422	-0.088	-0.237
-745.171	-200.000	-0.022	-0.167
-744.156	800.000	0.088	0.269
-743.142	22.286	-0.213	0.175
-742.127	614.497	-0.110	0.278
-741.112	753.254	0.055	-0.149
-740.098	505.757	-0.059	-0.139
-739.083	800.000	0.035	0.109
-738.069	-62.752	0.225	0.094
-737.054	-200.000	0.037	0.205
-736.039	-90.196	0.095	-0.028
-735.025	-200.000	0.037	0.215
-734.010	-115.514	-0.358	0.068
-732.996	800.000	0.026	-0.106
-731.981	3.011	0.143	0.104
-730.966	127.344	0.073	-0.093
-729.952	-55.390	-0.024	0.011
-728.937	-65.895	-0.127	0.051
-727.923	444.646	0.100	-0.221
-726.908	58.700	-0.114	0.113
-725.894	-121.267	-0.090	-0.015
-724.879	-26.964	0.138	-0.081
-723.864	-200.000	0.002	0.076
-722.850	-200.000	0.044	-0.200
-721.835	-90.088	-0.469	-0.137
-720.821	-200.000	-0.043	0.202
-719.806	-107.983	-0.200	-0.044
-718.791	-200.000	-0.054	0.258
-717.777	-115.028	-0.132	0.025
-716.762	117.461	-0.069	0.085
-715.748	-174.127	0.271	0.008
-714.733	-37.841	-0.249	-0.133
-713.718	10.453	-0.137	-0.105
-712.704	226.645	0.125	-0.205
-711.689	59.265	0.168	-0.166
-710.675	111.088	0.107	0.130
-709.660	-200.000	0.077	-0.381
-708.645	51.916	0.107	0.102
-707.631	-43.853	-0.217	-0.110
-706.616	8.590	0.199	-0.151
-705.602	800.000	-0.065	0.274
-704.587	800.000	-0.006	0.022
-703.572	-136.311	-0.312	-0.037
-702.558	200.904	-0.209	0.323
-701.543	-97.210	0.322	0.085
-700.529	-121.928	0.265	0.044
-699.514	313.974	0.160	-0.303
-698.499	-200.000	0.019	-0.256
-697.485	260.072	-0.126	-0.219
-696.470	-200.000	0.020	0.231
-695.456	15.297	0.185	0.146
-694.441	33.066	-0.114	-0.100
-693.426	-76.777	-0.267	0.094
-692.412	-128.777	-0.363	0.051
-691.397	-200.000	0.027	-0.232
-690.383	115.762	0.047	0.058
-689.368	-40.146	-0.243	-0.127
-688.354	-200.000	0.029	0.280
-687.339	559.505	0.147	-0.356
-686.324	-44.626	0.099	0.050
-685.310	-14.725	0.202	0.130
-684.295	-1.697	-0.423	-0.299
-683.281	-170.725	0.255	0.009
-682.266	59.786	-0.042	-0.042
-681.251	-200.000	-0.098	-0.495
-680.237	20.461	0.215	-0.175
-679.222	105.841	0.062	-0.073
-678.208	-81.850	-0.337	0.111
-677.193	-78.544	0.090	0.031
-676.178	209.122	-0.105	-0.165
-675.164	-54.892	-0.195	-0.088
-674.149	179.270	-0.184	-0.271
-673.135	-200.000	0.054	-0.382
-672.120	-114.379	-0.232	0.045
-671.105	17.384	-0.079	-0.063
-670.091	-163.230	0.230	-0.011
-669.076	281.779	0.089	-0.159
-668.062	54.681	0.099	-0.096
-667.047	498.349	-0.078	-0.181
-666.032	-13.285	-0.278	-0.181
-665.018	-23.663	0.157	-0.094
-664.003	-7.136	0.289	-0.197
-662.989	276.150	-0.108	-0.192
-661.974	377.005	0.095	0.196
-660.959	-92.242	-0.311	-0.088
-659.945	-112.862	0.324	-0.064
-658.930	-200.000	0.022	0.210
-657.916	-42.918	0.268	-0.136
-656.901	-24.564	-0.312	-0.186
-655.886	-108.343	-0.334	0.072
-654.872	-200.000	-0.032	-0.298
-653.857	39.276	0.184	-0.165
-652.843	800.000	0.106	-0.303
-651.828	-12.377	0.145	0.095
-650.814	-53.171	-0.052	0.024
-649.799	-2.971	-0.106	0.074
-648.784	-20.151	-0.314	-0.194
-647.770	1.032	0.046	-0.033
-646.755	-96.202	-0.263	-0.070
-645.741	-200.000	0.022	-0.120
-644.726	800.000	-0.034	-0.115
-643.711	800.000	0.024	0.088
-642.697	69.081	0.141	0.146
-641.682	-46.378	0.137	0.068
-640.668	-16.906	-0.290	0.184
-639.653	-200.000	-0.024	-0.216
-638.638	67.840	-0.166	-0.170
-637.624	-142.835	-0.447	0.044
-636.609	104.796	0.209	-0.248
-635.595	209.312	0.100	-0.157
-634.580	102.690	0.056	-0.065
-633.565	-200.000	-0.015	0.182
-632.551	513.680	-0.087	0.203
-631.536	28.514	-0.096	0.082
-630.522	169.856	-0.072	0.104
-629.507	-85.213	0.136	0.043
-628.492	-46.265	0.304	-0.150
-627.478	40.017	-0.065	0.059
-626.463	-131.137	0.226	-0.030
-625.449	-149.674	-0.222	0.018
-624.434	245.116	0.070	0.118
-623.419	-107.938	-0.485	-0.106
-622.405	-136.326	0.043	0.005
-621.390	-19.722	0.302	-0.187
-620.376	-105.857	-0.441	-0.100
-619.361	-50.829	-0.081	0.038
-618.346	367.031	0.081	0.164
-617.332	-22.950	0.109	0.066
-616.317	-200.000	-0.019	-0.160
-615.303	-200.000	0.098	0.483
-614.288	328.229	0.063	0.122
-613.273	272.938	-0.178	0.315
-612.259	-102.829	-0.325	0.077
-611.244	229.661	0.131	0.214
-610.230	283.200	0.133	0.240
-609.215	44.005	-0.045	0.041
-608.201	-60.403	-0.301	-0.128
-607.186	-200.000	0.020	0.198
-606.171	-81.893	0.072	-0.024
-605.157	125.027	-0.249	-0.314
-604.142	800.000	0.020	-0.075
-603.128	-46.037	0.284	0.140
-602.113	636.310	-0.094	-0.239
-601.098	69.259	-0.175	-0.181
-600.084	-115.037	0.238	-0.045
-599.069	18.725	-0.222	0.178
-598.055	66.700	0.175	-0.178
-597.040	350.462	0.199	-0.394
-596.025	651.923	0.100	0.257
-595.011	-106.708	-0.231	0.051
-593.996	48.868	0.102	-0.096
-592.982	327.218	0.052	-0.099
-591.967	-82.269	-0.359	0.117
-590.952	172.096	-0.097	0.140
-589.938	-61.070	-0.249	-0.105
-588.923	-104.000	-0.178	0.042
-587.909	-119.984	-0.279	0.048
-586.894	-2.708	0.324	0.227
-585.879	151.621	0.073	0.099
-584.865	-200.000	0.031	0.216
-583.850	33.217	0.158	-0.137
-582.836	19.509	-0.090	0.073
-581.821	76.242	-0.231	0.245
-580.806	126.524	0.084	-0.107
-579.792	-83.118	-0.218	0.070
-578.777	-200.000	-0.023	-0.209
-577.763	-104.088	0.403	-0.094
-576.748	-200.000	0.005	-0.050
-575.733	-36.276	0.306	0.165
-574.719	18.748	-0.302	-0.242
-573.704	-200.000	0.024	-0.509
-572.690	-200.000	0.035	-0.202
-571.675	-76.388	-0.167	-0.059
-570.661	800.000	0.071	0.300
-569.646	-200.000	-0.013	-0.139
-568.631	-102.167	-0.179	-0.043
-567.617	25.898	0.444	0.370
-566.602	-200.000	0.037	0.221
-565.588	49.101	-0.178	-0.167
-564.573	272.106	-0.142	-0.251
-563.558	-200.000	0.013	-0.235
-562.544	-75.267	-0.059	-0.021
-561.529	78.895	0.125	-0.134
-560.515	800.000	-0.019	0.065
-559.500	-159.524	-0.348	-0.019
-558.485	-95.987	-0.124	-0.033
-557.471	345.498	0.058	-0.113
-556.456	121.417	0.085	0.106
-555.442	-200.000	-0.008	0.165
-554.427	-141.479	-0.237	0.024
-553.412	605.391	0.053	0.131
-552.398	796.327	0.078	0.215
-551.383	253.301	-0.171	-0.292
-550.369	136.591	-0.187	-0.244
-549.354	-44.014	0.288	-0.145
-548.339	70.616	0.117	-0.121
-547.325	-200.000	-0.023	-0.190
-546.310	-200.000	0.056	-0.405
-545.296	-56.511	-0.186	0.082
-544.281	260.425	0.291	-0.502
-543.266	-146.996	-0.235	0.020
-542.252	-86.534	0.285	-0.087
-541.237	-200.000	0.073	-0.416
-540.223	-177.356	0.212	0.005
-539.208	-79.209	-0.117	0.040
-538.193	-31.309	0.181	-0.102
-537.179	-101.531	-0.254	-0.062
-536.164	145.404	0.121	0.162
-535.150	-200.000	-0.034	0.179
-534.135	469.958	-0.106	0.238
-533.121	-200.000	-0.019	0.183
-532.106	-12.357	0.206	0.135
-531.091	39.616	-0.123	-0.110
-530.077	-2.824	0.038	-0.027
-529.062	573.640	-0.040	0.098
-528.048	800.000	-0.093	-0.357
-527.033	-200.000	0.030	-0.132
-526.018	0.072	0.242	0.172
-525.004	800.000	-0.058	0.224
-523.989	-120.094	0.159	0.027
-522.975	26.606	0.047	0.040
-521.960	37.065	-0.081	-0.071
-520.945	-132.562	0.585	0.075
-519.931	-62.439	0.369	0.153
-518.916	-69.877	-0.090	-0.034
-517.902	800.000	-0.071	0.303
-516.887	-200.000	-0.001	-0.197
-515.872	284.053	-0.237	-0.425
-514.858	800.000	0.107	-0.402
-513.843	-95.420	-0.385	-0.103
-512.829	139.813	0.265	-0.349
-511.814	-200.000	-0.031	0.182
-510.799	169.143	0.172	0.244
-509.785	-41.561	0.151	0.078
-508.770	800.000	0.066	-0.206
-507.756	-135.463	-0.405	-0.048
-506.741	531.531	0.119	0.280
-505.726	187.516	0.134	-0.200
-504.712	-141.125	0.119	0.012
-503.697	-200.000	-0.016	-0.156
-502.683	800.000	0.115	0.341
-501.668	-200.000	0.004	0.061
-500.653	800.000	0.033	0.094
-499.639	-120.429	0.158	0.027
-498.624	285.800	-0.062	0.111
-497.610	-114.755	-0.340	0.065
-496.595	800.000	0.116	-0.368
-495.581	105.625	-0.088	-0.103
-494.566	183.074	0.213	-0.314
-493.551	-52.428	0.254	-0.117
-492.537	93.253	0.131	0.147
-491.522	-90.680	0.132	0.038
-490.508	-1.057	0.190	0.134
-489.493	-124.473	-0.307	0.048
-488.478	57.886	0.070	0.068
-487.464	800.000	-0.039	0.114
-486.449	800.000	0.010	0.041
-485.435	-200.000	-0.011	-0.146
-484.420	261.813	0.161	0.278
-483.405	-31.270	0.271	0.152
-482.391	-151.113	-0.275	0.021
-481.376	65.072	-0.214	0.215
-480.362	351.078	0.155	-0.306
-479.347	67.269	-0.194	-0.197
-478.332	203.263	-0.017	0.027
-477.318	800.000	-0.060	0.202
-476.303	-24.517	-0.165	0.098
-475.289	-63.910	-0.320	-0.130
-474.274	685.947	-0.088	0.229
-473.259	-144.670	-0.309	0.028
-472.245	10.475	0.423	-0.321
-471.230	-147.588	-0.167	-0.014
-470.216	691.710	-0.075	0.195
-469.201	73.151	-0.182	0.190
-468.186	30.504	-0.098	-0.083
-467.172	800.000	0.112	0.355
-466.157	136.248	-0.065	0.085
-465.143	-89.212	-0.335	0.098
-464.128	84.268	-0.156	0.170
-463.113	91.829	-0.312	0.350
-462.099	2.270	-0.087	0.063
-461.084	468.417	0.129	0.288
-460.070	54.375	0.151	0.144
-459.055	-7.528	0.076	0.051
-458.040	800.000	-0.056	0.164
-457.026	-50.584	-0.139	0.065
-456.011	29.735	-0.097	0.082
-454.997	800.000	-0.071	-0.301
-453.982	147.118	0.035	-0.048
-452.968	-154.638	0.245	0.016
-451.953	800.000	-0.106	0.375
-450.938	-49.986	-0.361	-0.170
-449.924	-73.953	0.086	0.031
-448.909	42.320	0.123	-0.112
-447.895	-200.000	0.026	-0.220
-446.880	39.272	0.153	-0.136
-445.865	-129.869	-0.048	0.007
-444.851	-200.000	-0.368	0.001
-443.836	564.857	-0.222	-0.536
-442.822	-200.000	-0.009	-0.137
-441.807	-70.758	0.085	0.032
-440.792	-47.866	-0.019	-0.009
-439.778	-184.595	0.237	0.004
-438.763	-200.000	-0.008	0.095
-437.749	-200.000	-0.013	0.176
-436.734	-200.000	-0.022	0.112
-435.719	621.591	-0.018	0.046
-434.705	95.743	-0.125	-0.142
-433.690	-38.989	0.167	-0.088
-432.676	-168.405	-0.112	-0.004
-431.661	123.059	-0.087	0.109
-430.646	135.031	-0.202	0.262
-429.632	800.000	0.050	-0.159
-428.617	506.048	-0.078	0.179
-427.603	133.262	0.060	-0.078
-426.588	20.161	0.326	-0.261
-425.573	-28.183	-0.141	-0.081
-424.559	108.579	-0.118	-0.140
-423.544	737.301	0.049	-0.131
-422.530	20.987	-0.291	0.235
-421.515	17.246	-0.127	-0.100
-420.500	41.572	0.103	-0.093
-419.486	-200.000	-0.036	0.280
-418.471	-73.674	0.153	-0.056
-417.457	-36.059	0.050	0.027
-416.442	-85.869	0.248	-0.076
-415.428	-34.864	0.169	-0.092
-414.413	-79.281	0.337	-0.113
-413.398	800.000	-0.043	0.157
-412.384	-33.214	-0.141	-0.078
-411.369	-124.816	0.324	-0.050
-410.355	-56.134	-0.060	-0.027
-409.340	-200.000	-0.002	0.075
-408.325	800.000	-0.080	-0.312
-407.311	41.605	0.066	0.059
-406.296	-32.976	-0.101	0.056
-405.282	-160.597	-0.122	0.006
-404.267	-200.000	0.052	-0.491
-403.252	-149.451	-0.511	0.040
-402.238	-174.271	0.346	0.010
-401.223	-66.522	-0.139	0.055
-400.209	800.000	-0.115	-0.323
-399.194	-84.994	-0.319	0.099
-398.179	-200.000	-0.060	-0.435
-397.165	217.285	-0.194	-0.307
-396.150	42.187	-0.136	-0.122
-395.136	-199.719	0.107	0.001
-394.121	-4.859	0.349	-0.239
-393.106	-122.178	-0.259	0.042
-392.092	-97.388	0.307	-0.079
-391.077	-42.391	-0.093	0.047
-390.063	800.000	0.089	-0.283
-389.048	-75.294	-0.240	-0.085
-388.033	129.011	0.051	0.065
-387.019	-126.796	0.239	-0.035
-386.004	181.645	-0.153	-0.224
-384.990	72.916	-0.262	0.272
-383.975	208.972	-0.271	-0.421
-382.960	-76.565	-0.179	0.062
-381.946	800.000	0.016	-0.069
-380.931	-76.062	-0.074	0.026
-379.917	152.258	0.248	-0.336
-378.902	-53.314	-0.145	0.066
-377.888	-200.000	0.024	0.240
-376.873	800.000	-0.052	-0.168
-375.858	-39.513	0.113	0.059
-374.844	83.881	0.118	0.128
-373.829	-126.733	-0.316	0.046
-372.815	-159.387	-0.373	0.021
-371.800	18.420	0.320	-0.254
-370.785	13.839	0.145	-0.112
-369.771	108.232	-0.178	0.210
-368.756	-200.000	-0.047	0.527
-367.742	410.279	-0.071	-0.149
-366.727	-78.762	0.254	-0.086
-365.712	-181.257	-0.179	-0.004
-364.698	-200.000	-0.025	0.128
-363.683	-74.022	0.144	0.052
-362.669	-48.870	0.268	0.127
-361.654	-200.000	0.034	-0.163
-360.639	-101.995	0.057	0.014
-359.625	-200.000	-0.058	0.306
-358.610	-38.371	-0.386	-0.203
-357.596	175.563	0.050	0.071
-356.581	-56.515	-0.532	-0.234
-355.566	-40.292	0.263	-0.136
-354.552	-38.162	-0.229	0.121
-353.537	-88.395	0.140	-0.041
-352.523	-200.000	0.014	-0.397
-351.508	-42.773	0.082	0.042
-350.493	52.551	0.240	-0.227
-349.479	164.122	-0.311	-0.435
-348.464	527.306	-0.082	-0.192
-347.450	-200.000	0.002	0.188
-346.435	205.777	-0.164	-0.253
-345.420	-115.769	0.207	-0.038
-344.406	-145.368	0.053	0.005
-343.391	-84.896	-0.113	0.035
-342.377	149.495	0.098	-0.131
-341.362	-62.209	-0.379	-0.157
-340.348	800.000	0.044	0.189
-339.333	-37.731	-0.523	0.276
-338.318	-44.205	0.195	-0.097
-337.304	-33.843	0.474	0.259
-336.289	-14.357	0.379	-0.242
-335.275	14.920	0.183	0.142
-334.260	8.831	0.159	0.119
-333.245	-130.988	-0.148	-0.020
-332.231	276.258	0.110	0.193
-331.216	-200.000	-0.001	-0.012
-330.202	76.733	0.194	-0.204
-329.187	-72.411	0.152	0.056
-328.172	-163.811	0.445	-0.021
-327.158	-0.769	-0.341	0.239
-326.143	111.072	-0.039	0.047
-325.129	-180.513	-0.154	0.003
-324.114	800.000	0.057	0.161
-323.099	116.238	0.282	0.342
-322.085	-129.216	-0.164	-0.023
-321.070	467.919	-0.047	-0.105
-320.056	-58.518	-0.307	0.132
-319.041	-90.935	0.413	-0.118
-318.026	149.919	-0.115	-0.155
-317.012	189.836	0.038	0.056
-315.997	-65.592	-0.475	-0.189
-314.983	-20.587	-0.321	0.195
-313.968	-3.410	0.209	-0.144
-312.953	-61.497	0.186	-0.077
-311.939	130.272	0.053	-0.067
-310.924	35.260	-0.293	-0.254
-309.910	-44.309	0.296	-0.147
-308.895	722.755	0.154	-0.406
-307.880	800.000	0.100	-0.293
-306.866	66.917	0.177	-0.179
-305.851	-52.308	0.089	0.041
-304.837	-99.281	-0.069	-0.017
-303.822	-200.000	0.028	0.174
-302.807	98.897	-0.138	-0.157
-301.793	90.318	-0.137	-0.152
-300.778	15.635	-0.135	0.105
-299.764	91.602	0.112	-0.125
-298.749	153.065	0.128	-0.173
-297.735	-43.193	-0.117	-0.059
-296.720	181.686	0.240	0.350
-295.705	-62.919	-0.192	-0.079
-294.691	-200.000	-0.031	-0.254
-293.676	45.241	-0.228	-0.208
-292.662	68.804	0.294	0.299
-291.647	498.444	-0.063	0.143
-290.632	-99.709	0.242	-0.060
-289.618	230.433	-0.074	0.119
-288.603	87.613	0.130	-0.143
-287.589	60.674	-0.034	-0.034
-286.574	-200.000	-0.035	0.271
-285.559	-154.599	-0.534	-0.035
-284.545	-82.549	-0.084	0.027
-283.530	800.000	0.060	-0.226
-282.516	800.000	0.023	-0.081
-281.501	-69.435	0.190	0.072
-280.486	51.182	0.107	0.101
-279.472	61.052	-0.147	0.145
-278.457	-166.369	-0.145	-0.006
-277.443	55.943	-0.089	-0.086
-276.428	28.567	-0.284	-0.238
-275.413	169.946	-0.279	0.394
-274.399	-98.062	0.209	-0.053
-273.384	800.000	0.027	0.094
-272.370	-124.792	0.260	0.040
-271.355	-200.000	-0.219	0.001
-270.340	38.511	-0.170	0.150
-269.326	97.509	0.057	-0.065
-268.311	-150.054	0.130	0.010
-267.297	-86.116	0.409	0.125
-266.282	-133.345	0.290	-0.036
-265.267	800.000	-0.084	-0.250
-264.253	741.013	0.064	-0.169
-263.238	-136.820	-0.179	-0.020
-262.224	44.054	0.196	-0.177
-261.209	-200.000	-0.036	0.316
-260.195	288.074	0.069	0.124
-259.180	-200.000	0.037	-0.177
-258.165	160.107	-0.034	0.047
-257.151	108.746	0.228	-0.270
-256.136	121.535	0.053	-0.065
-255.122	-107.680	0.205	0.044
-254.107	-200.000	-0.082	0.479
-253.092	122.943	0.068	-0.084
-252.078	167.339	0.202	-0.283
-251.063	800.000	0.075	0.220
-250.049	-200.000	0.026	-0.148
-249.034	-59.016	0.151	-0.064
-248.019	371.885	-0.059	0.119
-247.005	103.934	-0.156	0.181
-245.990	-36.152	0.351	-0.187
-244.976	195.833	-0.130	0.196
-243.961	68.212	-0.035	-0.035
-242.946	-73.590	-0.128	-0.046
-241.932	-200.000	0.045	0.299
-240.917	43.571	-0.245	0.221
-239.903	800.000	0.060	0.166
-238.888	-97.448	-0.283	0.073
-237.873	-132.129	0.239	0.031
-236.859	130.567	0.248	0.314
-235.844	154.119	0.030	-0.040
-234.830	-149.308	-0.159	-0.013
-233.815	-65.602	0.114	0.045
-232.800	156.244	0.169	0.230
-231.786	129.343	-0.045	0.056
-230.771	64.028	-0.031	-0.031
-229.757	-65.898	0.374	0.148
-228.742	-138.854	-0.184	0.020
-227.727	-80.159	0.121	-0.040
-226.713	442.959	0.153	-0.332
-225.698	-19.956	-0.327	0.199
-224.684	-36.275	0.114	-0.061
-223.669	800.000	0.072	0.228
-222.655	-200.000	-0.012	-0.071
-221.640	-200.000	-0.007	0.039
-220.625	-11.576	-0.144	-0.093
-219.611	-136.792	0.369	-0.042
-218.596	-83.908	-0.164	0.051
-217.582	800.000	0.106	0.453
-216.567	134.383	0.132	-0.169
-215.552	-144.155	0.278	-0.026
-214.538	-58.166	0.377	-0.162
-213.523	69.759	-0.138	-0.141
-212.509	230.293	0.095	0.154
-211.494	-200.000	0.018	0.106
-210.479	-200.000	0.048	0.279
-209.465	-78.531	0.283	0.095
-208.450	228.842	0.090	0.145
-207.436	21.371	0.119	0.096
-206.421	-144.503	0.475	0.043
-205.406	0.021	-0.132	0.093
-204.392	-172.062	0.439	-0.014
-203.377	-131.713	0.226	0.029
-202.363	-78.611	-0.068	0.023
-201.348	-108.179	-0.016	0.003
-200.333	-27.474	-0.249	0.143
-199.319	-131.566	-0.080	-0.010
-198.304	41.262	-0.195	0.174
-197.290	220.588	0.135	-0.214
-196.275	-80.358	0.514	-0.169
-195.260	-200.000	0.000	0.144
-194.246	-32.084	0.528	-0.291
-193.231	309.490	0.035	-0.064
-192.217	531.703	0.041	-0.095
-191.202	169.915	0.139	0.195
-190.187	-95.854	-0.169	0.044
-189.173	-61.679	-0.388	0.160
-188.158	-200.000	0.037	0.199
-187.144	800.000	-0.030	-0.111
-186.129	19.443	0.415	0.329
-185.114	35.576	0.312	-0.270
-184.100	-138.895	0.196	0.021
-183.085	534.639	-0.074	0.173
-182.071	-7.229	-0.049	-0.033
-181.056	42.661	-0.086	0.077
-180.042	-200.000	0.020	0.191
-179.027	-36.317	-0.082	-0.044
-178.012	79.591	-0.407	0.430
-176.998	311.503	-0.065	0.120
-175.983	278.985	0.194	0.341
-174.969	-199.773	0.187	0.001
-173.954	-200.000	-0.029	-0.214
-172.939	103.296	-0.131	0.152
-171.925	-200.000	0.034	-0.388
-170.910	800.000	0.044	0.183
-169.896	352.502	0.107	0.209
-168.881	-200.000	-0.046	-0.251
-167.866	-35.951	0.139	0.074
-166.852	-29.756	0.051	-0.029
-165.837	176.768	0.088	0.126
-164.823	88.833	-0.175	0.191
-163.808	-143.478	0.315	0.030
-162.793	-126.966	-0.200	0.029
-161.779	-56.865	-0.290	-0.126
-160.764	119.063	-0.152	0.186
-159.750	-200.000	-0.013	0.153
-158.735	344.947	-0.055	0.105
-157.720	800.000	-0.125	0.360
-156.706	-47.062	-0.078	-0.037
-155.691	59.522	-0.147	-0.143
-154.677	-140.473	-0.246	-0.025
-153.662	-169.932	0.049	0.002
-152.647	330.613	-0.159	0.301
-151.633	-49.374	-0.113	0.053
-150.618	5.666	0.151	0.110
-149.604	543.723	-0.068	-0.161
-148.589	-200.000	0.019	0.268
-147.574	-99.607	0.222	-0.055
-146.560	-36.483	0.222	-0.117
-145.545	-200.000	-0.056	0.306
-144.531	124.078	0.073	-0.090
-143.516	108.844	-0.197	0.232
-142.502	67.123	-0.067	0.067
-141.487	800.000	0.060	0.176
-140.472	-142.961	-0.221	-0.021
-139.458	-97.175	0.151	-0.039
-138.443	169.760	0.076	-0.107
-137.429	37.278	0.246	-0.215
-136.414	800.000	0.071	0.209
-135.399	21.624	-0.016	-0.013
-134.385	199.576	0.052	-0.078
-133.370	-200.000	0.001	0.247
-132.356	-200.000	0.023	-0.192
-131.341	-200.000	0.010	0.099
-130.326	-200.000	-0.369	0.001
-129.312	-200.000	0.258	0.001
-128.297	-200.000	-0.059	0.585
-127.283	109.583	-0.124	0.146
-126.268	-120.098	-0.168	-0.028
-125.253	54.171	-0.390	-0.369
-124.239	180.824	0.048	-0.069
-123.224	-200.000	-0.017	0.271
-122.210	-17.062	-0.111	0.069
-121.195	-83.212	0.167	-0.053
-120.180	-37.126	0.175	0.092
