DTS Sentinel unit serial number:	SN413079Multiplexer serial number:	ORYXHardware model number:	OX4-SRSoftware version number:	ORYX F/W v4.00 Oryx Data Collector v3.7.2.0data status	okinstallation	princeton_trtdifferential loss correction	single-endedforward channel	channel 2reverse channel	N/Adate	2019/09/15time	01:51:34forward acquisition time	60.00reverse acquisition time	0.00gamma	496.2192k internal	0.2324k external	0.2324temperature offset calibration	1.0036default loss term (dB/km)	0.3790temperature slope calibration	1.0000multiplexer offset coefficient	1.0000multiplexer slope coefficient	1.0000fibre end	0.00T internal ref (°C)	31.77T ext. ref 1 (°C)	4.52T ext. ref 2 (°C)	26.73length (m)	temperature (°C)	Stokes	anti-Stokes-747.200	-87.205	0.450	-0.138
-746.185	-80.785	-0.295	0.099
-745.171	-200.000	0.036	-0.212
-744.156	-103.139	-0.452	0.108
-743.142	-141.161	0.020	-0.002
-742.127	87.252	-0.035	-0.040
-741.112	23.030	-0.372	-0.308
-740.098	-54.659	-0.184	0.084
-739.083	-7.539	0.180	-0.123
-738.069	497.908	0.093	-0.215
-737.054	-4.544	-0.153	0.106
-736.039	134.419	-0.085	0.111
-735.025	800.000	0.095	0.401
-734.010	51.506	-0.254	0.244
-732.996	-14.081	-0.197	0.128
-731.981	-37.279	0.268	-0.144
-730.966	-39.810	0.184	-0.097
-729.952	-37.716	-0.179	-0.096
-728.937	-60.069	-0.355	-0.153
-727.923	-200.000	0.008	-0.230
-726.908	-4.292	-0.460	-0.321
-725.894	-200.000	0.020	-0.131
-724.879	-200.000	-0.014	-0.117
-723.864	-200.000	0.001	0.027
-722.850	-200.000	-0.031	-0.379
-721.835	-53.268	0.149	-0.069
-720.821	800.000	0.069	-0.299
-719.806	-168.660	-0.133	0.005
-718.791	-103.814	0.301	-0.071
-717.777	-28.935	-0.240	-0.139
-716.762	557.113	0.071	0.173
-715.748	-200.000	-0.008	-0.552
-714.733	-44.515	-0.114	-0.058
-713.718	434.055	-0.148	0.323
-712.704	-200.000	-0.013	-0.144
-711.689	-77.720	-0.124	-0.043
-710.675	-64.191	-0.198	0.081
-709.660	-2.779	0.418	-0.294
-708.645	-4.928	0.096	0.067
-707.631	-18.732	-0.195	-0.123
-706.616	216.958	0.195	-0.313
-705.602	149.539	0.085	0.117
-704.587	-3.500	-0.235	-0.165
-703.572	-60.287	0.310	-0.133
-702.558	-96.275	0.115	0.031
-701.543	-200.000	0.034	0.235
-700.529	-92.202	0.101	-0.029
-699.514	800.000	0.102	-0.428
-698.499	420.527	0.178	-0.384
-697.485	80.551	0.105	0.114
-696.470	-200.000	0.021	-0.122
-695.456	-20.021	0.278	0.173
-694.441	800.000	-0.048	0.140
-693.426	-200.000	0.002	0.066
-692.412	10.736	0.035	0.027
-691.397	314.092	0.084	-0.159
-690.383	27.182	-0.243	0.206
-689.368	-100.168	0.526	0.132
-688.354	99.578	-0.241	-0.280
-687.339	112.071	0.085	-0.103
-686.324	-40.958	-0.147	0.077
-685.310	-36.719	0.124	0.067
-684.295	-110.730	0.113	0.023
-683.281	-63.545	-0.167	0.069
-682.266	-24.157	-0.303	-0.182
-681.251	-6.583	0.066	-0.045
-680.237	-86.308	-0.122	-0.038
-679.222	-200.000	0.014	-0.355
-678.208	800.000	0.040	0.121
-677.193	-39.404	-0.301	0.159
-676.178	331.069	-0.133	-0.258
-675.164	249.504	-0.104	-0.177
-674.149	-200.000	0.017	-0.233
-673.135	33.899	-0.046	-0.040
-672.120	-84.271	0.424	-0.135
-671.105	-200.000	-0.039	-0.248
-670.091	40.630	0.193	-0.175
-669.076	-22.104	0.218	-0.133
-668.062	63.400	-0.204	0.206
-667.047	800.000	0.023	0.074
-666.032	34.244	-0.175	0.153
-665.018	800.000	-0.039	0.157
-664.003	-200.000	-0.007	0.299
-662.989	52.142	0.216	0.207
-661.974	-117.746	0.121	0.022
-660.959	-200.000	-0.028	0.242
-659.945	-200.000	0.005	0.273
-658.930	-200.000	-0.026	-0.151
-657.916	-200.000	-0.021	0.254
-656.901	175.958	0.071	0.104
-655.886	-200.000	-0.006	0.260
-654.872	-200.000	-0.012	-0.087
-653.857	157.925	0.163	0.228
-652.843	46.558	-0.227	-0.212
-651.828	800.000	0.121	-0.430
-650.814	343.544	0.160	0.316
-649.799	-200.000	-0.048	0.364
-648.784	-200.000	-0.012	0.297
-647.770	-200.000	-0.039	-0.368
-646.755	-60.759	0.412	-0.175
-645.741	261.072	0.200	0.349
-644.726	317.351	-0.013	0.025
-643.711	-127.239	-0.099	-0.015
-642.697	140.569	0.044	0.058
-641.682	-200.000	0.009	0.048
-640.668	-141.457	-0.069	0.007
-639.653	-60.829	-0.157	-0.067
-638.638	-53.520	-0.249	-0.114
-637.624	126.965	-0.145	0.185
-636.609	-143.635	-0.010	0.001
-635.595	-31.435	-0.333	-0.188
-634.580	130.409	0.168	-0.216
-633.565	-134.879	-0.180	-0.022
-632.551	-167.217	0.307	0.012
-631.536	458.584	0.133	-0.297
-630.522	26.643	0.257	0.217
-629.507	800.000	-0.135	-0.570
-628.492	-160.118	0.231	0.013
-627.478	-69.913	0.204	-0.078
-626.463	-152.373	-0.211	-0.015
-625.449	-22.408	0.189	-0.115
-624.434	800.000	0.089	0.295
-623.419	22.694	-0.175	-0.144
-622.405	158.261	-0.167	-0.232
-621.390	20.151	0.270	-0.219
-620.376	-200.000	-0.010	-0.359
-619.361	537.779	-0.162	0.388
-618.346	-111.918	-0.283	0.057
-617.332	-156.467	-0.343	-0.021
-616.317	101.555	-0.091	0.106
-615.303	-59.660	0.233	0.100
-614.288	-57.184	0.034	-0.015
-613.273	-98.163	0.235	-0.061
-612.259	-99.612	-0.120	0.030
-611.244	-200.000	-0.016	-0.190
-610.230	221.750	-0.070	-0.114
-609.215	-200.000	-0.005	0.030
-608.201	-200.000	0.057	-0.322
-607.186	369.687	0.093	-0.189
-606.171	36.291	-0.162	0.143
-605.157	252.829	0.138	-0.236
-604.142	-99.851	-0.136	0.034
-603.128	52.718	-0.078	-0.075
-602.113	-134.861	-0.154	0.019
-601.098	10.467	0.208	0.159
-600.084	-82.311	0.063	-0.020
-599.069	800.000	-0.128	-0.369
-598.055	-120.945	0.104	-0.017
-597.040	-188.027	-0.503	-0.007
-596.025	96.885	-0.245	-0.281
-595.011	129.869	-0.132	-0.169
-593.996	800.000	-0.038	-0.127
-592.982	-200.000	-0.011	-0.254
-591.967	-54.869	-0.310	0.140
-590.952	-60.891	-0.171	-0.073
-589.938	-200.000	-0.001	0.164
-588.923	-163.150	0.248	-0.012
-587.909	-8.786	-0.135	0.091
-586.894	-65.769	-0.197	-0.079
-585.879	-24.068	0.156	0.094
-584.865	-200.000	0.040	-0.279
-583.850	800.000	0.119	0.343
-582.836	-200.000	0.024	0.246
-581.821	-34.938	0.173	0.095
-580.806	-27.035	-0.332	0.194
-579.792	46.907	0.420	0.391
-578.777	-164.236	0.122	-0.006
-577.763	-83.196	0.159	0.051
-576.748	-200.000	-0.021	-0.185
-575.733	786.198	-0.041	0.113
-574.719	179.797	0.115	-0.169
-573.704	-5.526	0.125	0.086
-572.690	139.372	-0.182	0.241
-571.675	-65.405	-0.164	0.066
-570.661	-200.000	0.031	-0.258
-569.646	42.652	0.329	0.300
-568.631	286.642	0.157	0.284
-567.617	-122.120	-0.354	-0.058
-566.602	800.000	0.029	0.123
-565.588	474.256	-0.106	0.240
-564.573	265.276	-0.064	0.111
-563.558	531.269	-0.034	-0.080
-562.544	-92.301	-0.282	-0.080
-561.529	378.122	0.055	0.112
-560.515	262.759	0.120	0.209
-559.500	-126.312	-0.310	-0.046
-558.485	-57.323	-0.112	-0.049
-557.471	800.000	-0.036	0.102
-556.456	90.111	-0.037	-0.041
-555.442	-200.000	0.043	-0.216
-554.427	-67.530	-0.287	0.113
-553.412	-173.078	-0.025	0.001
-552.398	-108.874	-0.249	0.053
-551.383	-85.776	0.136	0.042
-550.369	-141.139	0.097	-0.010
-549.354	-200.000	-0.024	0.117
-548.339	67.028	0.133	0.136
-547.325	36.881	-0.287	0.255
-546.310	77.827	-0.081	-0.086
-545.296	553.373	0.123	-0.297
-544.281	447.810	-0.089	0.197
-543.266	19.702	0.153	0.124
-542.252	-75.404	-0.177	0.063
-541.237	131.708	-0.167	0.216
-540.223	236.211	-0.199	0.329
-539.208	9.918	-0.352	0.268
-538.193	-42.477	0.339	0.173
-537.179	-48.821	0.148	-0.071
-536.164	350.739	0.121	0.240
-535.150	-160.216	0.287	-0.016
-534.135	800.000	-0.068	-0.211
-533.121	5.108	0.336	0.248
-532.106	-8.665	0.212	0.142
-531.091	-165.772	-0.099	-0.004
-530.077	-200.000	-0.030	0.152
-529.062	-74.456	-0.261	0.094
-528.048	200.739	-0.191	0.294
-527.033	800.000	0.090	-0.314
-526.018	-32.773	0.069	0.038
-525.004	800.000	0.074	-0.264
-523.989	458.614	-0.023	-0.052
-522.975	-22.683	-0.422	-0.255
-521.960	-200.000	-0.022	-0.207
-520.945	-55.466	-0.216	0.097
-519.931	68.081	-0.201	-0.206
-518.916	-62.368	0.255	-0.106
-517.902	-44.950	-0.319	-0.159
-516.887	157.339	-0.136	0.188
-515.872	86.538	0.128	-0.141
-514.858	-200.000	0.038	-0.245
-513.843	-200.000	-0.038	-0.214
-512.829	-10.107	0.337	0.224
-511.814	800.000	-0.071	0.302
-510.799	150.867	-0.206	-0.281
-509.785	60.085	0.306	-0.303
-508.770	-4.238	-0.238	-0.165
-507.756	30.881	-0.090	0.077
-506.741	-42.283	0.192	-0.098
-505.726	-67.865	0.216	-0.085
-504.712	-101.467	0.203	0.049
-503.697	60.104	0.036	-0.035
-502.683	-115.647	-0.257	-0.048
-501.668	31.814	0.112	-0.096
-500.653	-155.226	0.166	-0.011
-499.639	-126.963	-0.100	0.015
-498.624	800.000	0.054	0.227
-497.610	-103.771	-0.016	-0.004
-496.595	60.056	0.094	0.093
-495.581	-24.968	0.242	-0.144
-494.566	-59.481	-0.143	-0.062
-493.551	167.281	0.027	-0.038
-492.537	34.638	-0.273	0.238
-491.522	-9.648	0.162	0.108
-490.508	-116.468	0.145	0.027
-489.493	-200.000	-0.026	-0.151
-488.478	-84.795	0.066	-0.021
-487.464	-27.338	0.300	0.174
-486.449	-81.246	0.065	-0.021
-485.435	-93.972	0.478	0.131
-484.420	294.897	0.101	-0.184
-483.405	251.042	-0.112	0.191
-482.391	-200.000	0.054	0.287
-481.376	-43.032	0.029	0.015
-480.362	-37.474	0.228	-0.122
-479.347	-200.000	-0.055	0.269
-478.332	71.928	0.161	0.167
-477.318	379.475	-0.023	-0.048
-476.303	-175.383	-0.137	0.004
-475.289	-64.852	0.349	0.141
-474.274	-52.429	-0.106	-0.049
-473.259	-2.765	-0.081	-0.057
-472.245	-120.886	0.030	-0.005
-471.230	-50.113	-0.230	0.109
-470.216	-77.627	-0.201	0.069
-469.201	800.000	-0.033	-0.096
-468.186	23.481	-0.310	0.255
-467.172	-188.129	0.187	0.002
-466.157	69.462	0.223	-0.229
-465.143	128.103	-0.035	-0.044
-464.128	251.863	0.134	0.227
-463.113	326.821	0.079	-0.151
-462.099	2.305	-0.075	-0.054
-461.084	599.777	0.154	0.381
-460.070	-200.000	0.029	0.166
-459.055	3.105	0.147	-0.107
-458.040	800.000	0.107	-0.295
-457.026	-163.688	-0.202	-0.009
-456.011	-109.525	0.133	-0.028
-454.997	-84.054	0.137	-0.043
-453.982	800.000	0.036	0.129
-452.968	-29.040	-0.237	0.136
-451.953	70.773	0.235	0.243
-450.938	-113.376	0.151	-0.030
-449.924	75.932	0.250	-0.263
-448.909	-168.148	0.260	-0.010
-447.895	187.708	-0.173	0.257
-446.880	-34.504	0.099	-0.054
-445.865	-171.170	-0.375	0.013
-444.851	12.613	-0.124	-0.095
-443.836	-3.614	-0.193	0.134
-442.822	-1.259	0.055	-0.039
-441.807	263.140	0.056	-0.097
-440.792	2.280	0.191	-0.138
-439.778	405.036	-0.121	-0.255
-438.763	-114.043	0.166	0.032
-437.749	-200.000	-0.028	0.232
-436.734	94.161	-0.186	-0.211
-435.719	-25.425	0.375	-0.221
-434.705	800.000	-0.040	-0.162
-433.690	-200.000	-0.016	0.246
-432.676	-118.948	-0.250	0.044
-431.661	-161.935	-0.435	-0.022
-430.646	-22.865	-0.196	-0.118
-429.632	-200.000	-0.026	-0.127
-428.617	-106.856	-0.460	0.102
-427.603	120.777	-0.049	-0.061
-426.588	204.548	0.053	-0.082
-425.573	312.358	0.028	0.053
-424.559	542.712	-0.105	-0.250
-423.544	108.222	0.044	0.053
-422.530	126.229	-0.170	-0.215
-421.515	-200.000	-0.006	0.177
-420.500	-188.705	0.353	0.004
-419.486	-59.731	0.485	0.207
-418.471	454.160	0.045	-0.100
-417.457	-143.394	-0.168	0.016
-416.442	313.296	0.168	-0.315
-415.428	-200.000	0.027	-0.298
-414.413	283.606	-0.160	0.287
-413.398	83.342	-0.135	-0.147
-412.384	800.000	-0.076	0.220
-411.369	-92.345	0.196	0.055
-410.355	219.558	-0.100	0.159
-409.340	-151.980	0.330	-0.024
-408.325	103.160	-0.101	0.118
-407.311	-92.630	-0.288	0.080
-406.296	800.000	-0.043	-0.167
-405.282	-200.000	-0.012	0.239
-404.267	101.005	-0.045	-0.053
-403.252	405.408	-0.041	-0.086
-402.238	-27.885	-0.064	-0.037
-401.223	-200.000	-0.032	-0.301
-400.209	-16.022	0.601	0.380
-399.194	-200.000	0.008	-0.106
-398.179	280.862	-0.053	0.095
-397.165	11.322	0.301	0.230
-396.150	26.031	0.131	-0.109
-395.136	133.703	-0.080	-0.103
-394.121	-94.019	0.148	0.040
-393.106	-89.177	-0.276	-0.081
-392.092	43.667	0.057	0.052
-391.077	51.006	-0.009	-0.008
-390.063	305.829	-0.109	0.202
-389.048	194.170	0.178	-0.268
-388.033	-200.000	0.032	-0.358
-387.019	-200.000	0.029	0.217
-386.004	453.630	0.027	-0.059
-384.990	-45.968	0.272	0.133
-383.975	-64.308	0.421	0.171
-382.960	-111.555	-0.169	-0.034
-381.946	-61.135	0.067	-0.028
-380.931	-1.346	0.215	0.151
-379.917	29.138	0.256	-0.216
-378.902	800.000	-0.010	-0.042
-377.888	364.792	-0.081	0.163
-376.873	800.000	-0.050	0.198
-375.858	53.997	-0.310	0.297
-374.844	-36.264	0.127	0.068
-373.829	-166.134	-0.073	-0.003
-372.815	495.379	0.026	-0.059
-371.800	-124.629	-0.280	-0.043
-370.785	-107.462	0.298	-0.065
-369.771	-200.000	0.040	0.211
-368.756	272.250	0.054	-0.095
-367.742	175.919	0.026	0.037
-366.727	-139.832	-0.057	-0.006
-365.712	458.090	-0.025	-0.055
-364.698	-93.888	-0.349	0.096
-363.683	800.000	0.063	0.201
-362.669	756.744	0.135	-0.364
-361.654	-77.991	0.220	0.076
-360.639	-180.802	0.050	-0.001
-359.625	126.443	0.053	-0.067
-358.610	18.238	0.190	-0.150
-357.596	124.266	-0.158	0.198
-356.581	216.229	0.049	-0.077
-355.566	-200.000	0.008	-0.066
-354.552	-200.000	0.012	-0.158
-353.537	391.611	-0.051	-0.105
-352.523	800.000	-0.079	-0.315
-351.508	-103.547	0.126	0.030
-350.493	-74.552	-0.268	0.096
-349.479	-28.232	0.057	-0.033
-348.464	70.530	-0.154	-0.158
-347.450	-32.346	0.142	0.079
-346.435	138.166	-0.329	0.429
-345.420	-143.865	-0.092	-0.009
-344.406	9.695	0.091	0.069
-343.391	800.000	-0.091	0.258
-342.377	-66.988	-0.110	0.043
-341.362	-67.867	-0.273	0.106
-340.348	-65.705	-0.305	0.121
-339.333	63.267	0.136	-0.135
-338.318	399.025	0.136	-0.284
-337.304	61.664	0.231	0.229
-336.289	800.000	-0.065	-0.182
-335.275	15.150	-0.182	0.142
-334.260	800.000	-0.010	-0.040
-333.245	11.991	0.333	0.254
-332.231	-200.000	-0.008	-0.265
-331.216	128.699	0.308	-0.390
-330.202	-200.000	-0.018	0.331
-329.187	-68.038	0.226	0.088
-328.172	621.690	0.080	-0.200
-327.158	168.446	0.160	-0.227
-326.143	558.531	0.085	-0.205
-325.129	21.302	-0.293	-0.237
-324.114	72.481	-0.100	-0.104
-323.099	41.675	0.119	-0.107
-322.085	-133.300	-0.177	0.022
-321.070	-15.067	0.217	-0.138
-320.056	103.412	-0.182	-0.212
-319.041	349.673	-0.124	-0.243
-318.026	301.074	-0.111	0.203
-317.012	-87.706	0.268	-0.080
-315.997	147.055	0.154	-0.206
-314.983	83.711	-0.130	-0.141
-313.968	167.266	-0.046	0.065
-312.953	22.089	0.232	0.188
-311.939	-200.000	0.005	0.193
-310.924	-63.691	-0.303	0.123
-309.910	739.430	0.065	-0.173
-308.895	-200.000	0.042	-0.213
-307.880	30.268	-0.138	-0.117
-306.866	-73.040	0.068	0.025
-305.851	346.484	0.126	-0.246
-304.837	285.318	0.111	-0.198
-303.822	21.961	-0.350	-0.283
-302.807	145.858	-0.272	-0.362
-301.793	-77.542	-0.106	0.036
-300.778	310.130	-0.026	-0.047
-299.764	149.526	0.129	-0.173
-298.749	110.182	-0.185	0.220
-297.735	-166.739	0.167	0.007
-296.720	-107.963	-0.200	0.043
-295.705	-108.618	-0.165	0.035
-294.691	-200.000	0.003	-0.395
-293.676	-80.601	0.163	0.054
-292.662	-125.519	0.125	-0.019
-291.647	-50.455	0.321	0.150
-290.632	-200.000	-0.056	-0.300
-289.618	50.485	-0.170	-0.159
-288.603	186.090	-0.136	0.200
-287.589	332.436	-0.086	0.166
-286.574	363.358	-0.028	0.056
-285.559	33.128	0.162	-0.139
-284.545	-100.186	-0.234	-0.058
-283.530	174.342	-0.234	0.336
-282.516	-140.587	-0.196	-0.020
-281.501	83.058	0.113	-0.122
-280.486	-200.000	-0.007	0.219
-279.472	-200.000	-0.012	0.083
-278.457	-200.000	0.021	0.241
-277.443	775.016	0.096	0.260
-276.428	-191.948	-0.064	0.001
-275.413	160.796	0.268	0.371
-274.399	-164.118	-0.233	-0.011
-273.384	-200.000	0.007	-0.104
-272.370	-112.160	-0.095	-0.019
-271.355	-35.844	0.176	0.094
-270.340	-180.484	0.209	-0.004
-269.326	-105.614	0.265	0.059
-268.311	47.569	-0.077	-0.071
-267.297	417.229	0.089	-0.187
-266.282	115.610	-0.156	-0.188
-265.267	135.682	0.154	0.199
-264.253	191.980	0.082	-0.123
-263.238	108.997	-0.099	-0.117
-262.224	25.415	0.194	-0.160
-261.209	-94.734	-0.297	-0.080
-260.195	189.729	-0.108	-0.160
-259.180	192.767	0.095	0.143
-258.165	-200.000	-0.003	-0.100
-257.151	227.544	0.128	-0.206
-256.136	-132.943	-0.183	0.023
-255.122	-29.467	0.265	-0.150
-254.107	-200.000	0.047	-0.229
-253.092	317.828	-0.118	-0.220
-252.078	-123.988	-0.016	-0.003
-251.063	-200.000	-0.276	0.001
-250.049	800.000	-0.078	0.310
-249.034	-200.000	-0.055	-0.395
-248.019	-30.815	-0.249	-0.139
-247.005	-7.318	-0.077	-0.051
-245.990	47.764	0.147	0.136
-244.976	800.000	0.046	0.191
-243.961	-25.469	-0.411	0.240
-242.946	-56.709	0.382	-0.167
-241.932	-110.255	-0.345	0.071
-240.917	73.516	-0.036	-0.037
-239.903	-155.403	-0.213	-0.014
-238.888	800.000	0.079	0.323
-237.873	-39.642	-0.254	0.132
-236.859	-100.994	-0.289	0.070
-235.844	800.000	0.043	0.127
-234.830	-101.919	0.121	-0.029
-233.815	-150.341	0.218	0.017
-232.800	800.000	-0.062	-0.201
-231.786	800.000	0.026	0.085
-230.771	-200.000	-0.008	-0.309
-229.757	-58.320	-0.159	0.068
-228.742	-91.580	0.270	0.076
-227.727	-200.000	-0.012	0.331
-226.713	-25.509	-0.182	-0.106
-225.698	-32.657	0.137	0.076
-224.684	367.438	-0.203	0.405
-223.669	-200.000	0.011	-0.115
-222.655	-142.379	0.275	-0.027
-221.640	-100.309	0.375	-0.092
-220.625	-72.103	-0.224	-0.082
-219.611	174.531	0.145	-0.207
-218.596	-200.000	0.005	0.255
-217.582	51.535	0.252	0.237
-216.567	-43.140	0.217	-0.109
-215.552	771.928	-0.025	0.066
-214.538	800.000	-0.133	-0.526
-213.523	-64.614	0.278	-0.111
-212.509	156.926	-0.197	0.269
-211.494	-200.000	0.009	0.216
-210.479	-20.192	-0.095	0.058
-209.465	-200.000	-0.009	0.120
-208.450	800.000	-0.043	0.159
-207.436	800.000	-0.066	0.237
-206.421	-200.000	-0.002	0.249
-205.406	-91.882	0.259	-0.073
-204.392	71.200	-0.273	-0.280
-203.377	-157.423	-0.093	0.006
-202.363	169.609	-0.285	-0.402
-201.348	12.116	-0.099	-0.075
-200.333	-17.441	-0.242	-0.150
-199.319	800.000	-0.089	-0.276
-198.304	-39.172	0.037	0.019
-197.290	800.000	0.028	0.091
-196.275	-9.238	0.197	0.130
-195.260	167.299	0.109	0.153
-194.246	-200.000	0.035	0.179
-193.231	280.555	-0.163	0.289
-192.217	-63.415	0.249	0.101
-191.202	120.236	-0.094	0.115
-190.187	-129.498	0.071	-0.010
-189.173	-60.908	-0.290	-0.121
-188.158	7.778	-0.226	0.167
-187.144	-65.578	-0.364	0.144
-186.129	354.779	-0.026	-0.050
-185.114	-3.486	-0.158	-0.108
-184.100	67.423	0.130	-0.132
-183.085	-142.821	0.394	0.038
-182.071	800.000	-0.062	-0.204
-181.056	-149.524	0.353	-0.028
-180.042	-150.899	0.124	0.009
-179.027	-200.000	0.025	-0.156
-178.012	172.908	0.184	-0.261
-176.998	36.831	-0.085	-0.075
-175.983	71.283	-0.112	0.115
-174.969	-71.638	-0.483	-0.178
-173.954	99.426	0.074	0.084
-172.939	-200.000	0.032	0.218
-171.925	-68.082	0.073	0.028
-170.910	85.577	-0.078	-0.085
-169.896	-145.729	0.104	-0.009
-168.881	54.431	0.254	0.241
-167.866	-165.252	-0.238	-0.010
-166.852	682.411	0.115	0.295
-165.837	688.785	-0.061	0.156
-164.823	-200.000	0.041	-0.188
-163.808	-84.693	0.162	0.050
-162.793	403.601	0.030	-0.062
-161.779	800.000	0.046	-0.163
-160.764	37.713	0.061	-0.053
-159.750	-28.750	0.190	0.108
-158.735	800.000	-0.066	0.255
-157.720	-128.583	-0.155	-0.022
-156.706	800.000	0.126	0.371
-155.691	-11.361	0.070	-0.045
-154.677	-149.162	0.327	0.026
-153.662	-20.898	-0.230	-0.139
-152.647	-200.000	0.474	0.001
-151.633	800.000	0.103	0.358
-150.618	312.955	0.101	-0.188
-149.604	800.000	-0.044	0.124
-148.589	-71.171	-0.142	-0.053
-147.574	-134.963	0.193	0.023
-146.560	-154.201	-0.089	-0.006
-145.545	456.995	-0.221	-0.483
-144.531	16.308	0.034	0.026
-143.516	42.294	-0.100	0.089
-142.502	-200.000	0.019	0.112
-141.487	800.000	0.020	0.065
-140.472	-79.493	-0.200	0.066
-139.458	-69.339	-0.087	-0.033
-138.443	-164.054	0.068	-0.003
-137.429	-200.000	-0.007	0.242
-136.414	248.130	0.042	-0.070
-135.399	21.185	0.063	-0.051
-134.385	95.433	0.199	0.223
-133.370	-117.995	-0.093	0.016
-132.356	-159.205	0.329	-0.018
-131.341	-86.808	0.187	-0.056
-130.326	156.972	-0.190	0.258
-129.312	12.713	0.068	0.052
-128.297	15.484	-0.321	0.248
-127.283	263.119	0.096	0.165
-126.268	713.409	-0.174	-0.454
-125.253	-94.745	0.107	-0.029
-124.239	-37.551	-0.151	-0.079
-123.224	-21.964	0.062	-0.037
-122.210	-200.000	0.002	-0.401
-121.195	597.170	0.087	-0.213
