DTS Sentinel unit serial number:	SN413079Multiplexer serial number:	ORYXHardware model number:	OX4-SRSoftware version number:	ORYX F/W v4.00 Oryx Data Collector v3.7.2.0data status	okinstallation	princeton_trtdifferential loss correction	single-endedforward channel	channel 2reverse channel	N/Adate	2019/09/14time	00:51:34forward acquisition time	60.00reverse acquisition time	0.00gamma	496.2192k internal	0.2338k external	0.2338temperature offset calibration	1.0124default loss term (dB/km)	0.3790temperature slope calibration	1.0000multiplexer offset coefficient	1.0000multiplexer slope coefficient	1.0000fibre end	0.00T internal ref (°C)	26.41T ext. ref 1 (°C)	3.18T ext. ref 2 (°C)	21.20length (m)	temperature (°C)	Stokes	anti-Stokes-747.200	14.142	0.166	-0.130
-746.185	-200.000	0.007	-0.246
-745.171	-16.116	0.256	-0.163
-744.156	800.000	-0.082	0.256
-743.142	14.044	0.078	-0.061
-742.127	800.000	0.063	0.180
-741.112	-200.000	-0.037	0.161
-740.098	99.877	0.076	0.088
-739.083	380.061	0.069	0.143
-738.069	194.391	-0.033	0.049
-737.054	-200.000	-0.018	-0.206
-736.039	208.211	0.007	0.010
-735.025	297.480	0.111	0.205
-734.010	800.000	-0.055	-0.238
-732.996	99.912	-0.193	-0.225
-731.981	232.711	-0.021	0.035
-730.966	-20.906	-0.215	-0.132
-729.952	76.812	-0.214	-0.228
-728.937	142.487	0.083	0.110
-727.923	62.186	-0.148	0.148
-726.908	209.345	-0.146	0.229
-725.894	-111.759	-0.193	0.039
-724.879	117.065	-0.304	0.374
-723.864	800.000	0.042	-0.139
-722.850	-108.912	-0.273	-0.058
-721.835	-112.347	0.057	0.012
-720.821	292.490	-0.044	-0.080
-719.806	-93.025	-0.354	0.099
-718.791	318.801	0.056	0.105
-717.777	-200.000	-0.023	-0.164
-716.762	-7.969	0.220	-0.149
-715.748	-110.887	-0.041	-0.008
-714.733	-180.844	-0.473	-0.010
-713.718	-115.998	-0.164	-0.031
-712.704	-39.065	0.096	0.050
-711.689	310.549	-0.130	0.243
-710.675	-159.326	-0.147	-0.008
-709.660	140.476	-0.080	-0.106
-708.645	68.268	-0.120	-0.123
-707.631	-40.130	-0.102	0.053
-706.616	587.014	-0.105	0.258
-705.602	-153.296	-0.342	-0.024
-704.587	96.259	-0.078	0.090
-703.572	-42.033	-0.169	0.087
-702.558	-117.643	0.204	-0.037
-701.543	-36.218	-0.123	0.066
-700.529	15.476	-0.096	-0.076
-699.514	-136.402	-0.245	0.029
-698.499	-137.731	-0.346	0.039
-697.485	116.706	0.041	0.050
-696.470	-129.224	0.079	-0.011
-695.456	-11.210	0.273	-0.180
-694.441	800.000	0.052	-0.178
-693.426	-32.987	-0.244	0.135
-692.412	613.309	-0.127	-0.319
-691.397	-142.564	0.161	-0.016
-690.383	-53.057	-0.112	0.051
-689.368	-132.643	0.181	0.023
-688.354	-137.137	0.030	0.003
-687.339	-134.840	-0.204	0.025
-686.324	-153.557	0.466	0.032
-685.310	-8.494	0.194	0.130
-684.295	-43.677	-0.311	-0.157
-683.281	65.858	-0.190	-0.193
-682.266	105.778	-0.110	-0.130
-681.251	-62.067	-0.121	0.051
-680.237	-119.183	0.170	-0.030
-679.222	267.215	0.147	-0.258
-678.208	240.775	-0.178	0.296
-677.193	-134.714	-0.126	-0.015
-676.178	800.000	0.105	0.362
-675.164	-105.828	-0.221	-0.050
-674.149	-200.000	-0.008	0.045
-673.135	-200.000	0.013	0.116
-672.120	191.983	0.159	0.241
-671.105	43.211	0.162	0.148
-670.091	800.000	-0.091	-0.285
-669.076	-6.612	0.190	-0.130
-668.062	370.139	-0.069	0.139
-667.047	25.636	0.072	0.060
-666.032	-200.000	0.027	-0.187
-665.018	-66.774	-0.139	-0.055
-664.003	-200.000	-0.050	-0.267
-662.989	255.974	-0.177	-0.303
-661.974	175.242	0.023	-0.034
-660.959	800.000	0.012	-0.051
-659.945	-96.554	0.157	0.041
-658.930	-200.000	-0.054	0.247
-657.916	800.000	-0.116	-0.403
-656.901	-18.570	0.118	-0.074
-655.886	100.535	0.215	0.250
-654.872	-200.000	0.058	-0.269
-653.857	118.412	-0.185	0.229
-652.843	529.264	0.028	-0.066
-651.828	-200.000	0.204	0.001
-650.814	50.796	0.019	0.018
-649.799	-65.559	-0.302	-0.121
-648.784	504.255	0.153	0.354
-647.770	449.375	0.062	0.137
-646.755	-105.626	-0.253	0.057
-645.741	195.972	0.065	0.099
-644.726	800.000	-0.079	0.310
-643.711	360.852	-0.102	0.205
-642.697	255.712	-0.035	0.060
-641.682	375.508	-0.088	0.180
-640.668	-106.494	0.097	-0.022
-639.653	-200.000	-0.024	0.212
-638.638	-143.098	-0.053	0.005
-637.624	-46.573	-0.154	0.076
-636.609	98.339	-0.030	-0.035
-635.595	229.259	-0.051	0.084
-634.580	-200.000	0.014	-0.072
-633.565	95.705	-0.348	-0.396
-632.551	40.816	0.125	-0.112
-631.536	165.338	-0.201	-0.284
-630.522	800.000	0.072	-0.210
-629.507	86.998	0.074	0.082
-628.492	102.245	-0.178	0.208
-627.478	-63.606	-0.147	-0.060
-626.463	-200.000	0.032	-0.233
-625.449	-85.307	0.258	0.080
-624.434	-55.356	-0.077	0.035
-623.419	-158.285	0.242	-0.014
-622.405	-200.000	-0.021	0.127
-621.390	-78.140	-0.118	0.041
-620.376	108.637	0.178	-0.213
-619.361	-95.543	0.302	0.081
-618.346	-42.469	-0.240	-0.122
-617.332	643.815	0.076	0.192
-616.317	-200.000	0.014	0.322
-615.303	800.000	-0.048	0.173
-614.288	-200.000	0.027	-0.238
-613.273	-125.881	-0.275	-0.041
-612.259	-62.332	0.333	0.138
-611.244	-141.375	-0.106	0.011
-610.230	-200.000	-0.002	0.279
-609.215	-45.173	0.110	-0.055
-608.201	800.000	0.032	0.099
-607.186	35.729	-0.070	-0.061
-606.171	7.745	0.212	0.158
-605.157	324.894	-0.122	0.233
-604.142	-44.895	-0.052	0.026
-603.128	800.000	-0.061	-0.206
-602.113	-51.933	-0.292	-0.135
-601.098	247.524	0.202	-0.340
-600.084	-63.912	-0.096	0.039
-599.069	744.213	0.065	0.175
-598.055	166.628	-0.073	0.104
-597.040	-35.743	0.132	0.071
-596.025	-13.531	0.172	0.111
-595.011	-200.000	0.000	0.172
-593.996	-31.743	0.127	0.071
-592.982	199.942	-0.175	-0.268
-591.967	529.104	0.071	0.166
-590.952	-200.000	0.005	-0.042
-589.938	176.410	0.060	0.086
-588.923	-200.000	-0.001	-0.171
-587.909	241.963	-0.238	-0.397
-586.894	117.116	-0.237	-0.291
-585.879	795.146	0.071	-0.196
-584.865	-200.000	0.036	-0.231
-583.850	-192.954	0.046	0.000
-582.836	-2.681	-0.163	-0.113
-581.821	-101.812	-0.214	0.052
-580.806	800.000	0.071	0.247
-579.792	-11.589	-0.065	-0.043
-578.777	367.901	-0.056	0.112
-577.763	-164.021	0.586	0.027
-576.748	-79.337	0.140	-0.047
-575.733	159.563	-0.110	-0.152
-574.719	-200.000	-0.026	-0.337
-573.704	13.469	0.212	0.164
-572.690	229.708	-0.150	-0.244
-571.675	368.776	-0.136	-0.274
-570.661	377.681	0.063	-0.129
-569.646	800.000	-0.023	0.064
-568.631	-34.217	0.113	-0.062
-567.617	-11.789	0.038	0.025
-566.602	410.739	0.021	0.045
-565.588	-105.271	-0.121	-0.027
-564.573	163.674	-0.060	-0.083
-563.558	-200.000	0.034	-0.210
-562.544	45.906	0.237	0.218
-561.529	-64.482	-0.371	-0.150
-560.515	-200.000	0.008	-0.196
-559.500	-162.079	0.214	-0.011
-558.485	-38.224	0.228	0.121
-557.471	324.395	0.252	-0.480
-556.456	-46.853	-0.108	-0.053
-555.442	-24.397	0.286	0.170
-554.427	-174.079	-0.251	0.007
-553.412	-61.181	-0.341	0.143
-552.398	-200.000	0.031	-0.317
-551.383	-200.000	-0.009	0.161
-550.369	800.000	0.059	-0.176
-549.354	-19.298	-0.141	0.087
-548.339	119.383	0.097	-0.120
-547.325	-120.198	-0.143	-0.024
-546.310	-130.530	-0.438	-0.059
-545.296	-200.000	0.024	0.209
-544.281	-25.169	0.212	-0.125
-543.266	-76.034	-0.056	0.020
-542.252	-200.000	0.024	-0.154
-541.237	-200.000	-0.014	0.118
-540.223	69.435	-0.059	0.060
-539.208	23.842	-0.113	-0.093
-538.193	59.057	0.229	0.224
-537.179	170.202	-0.220	0.313
-536.164	-168.179	0.032	0.001
-535.150	230.877	0.113	0.184
-534.135	-43.493	-0.423	0.213
-533.121	-68.049	-0.144	-0.056
-532.106	202.025	-0.082	-0.126
-531.091	-76.651	0.063	0.022
-530.077	-184.010	-0.136	0.002
-529.062	238.834	0.286	-0.473
-528.048	-200.000	-0.016	-0.126
-527.033	24.298	0.204	0.168
-526.018	123.777	-0.165	0.206
-525.004	-200.000	-0.024	0.265
-523.989	79.870	0.130	-0.139
-522.975	144.154	0.096	-0.127
-521.960	-200.000	-0.061	0.335
-520.945	48.816	-0.120	-0.112
-519.931	-77.887	0.159	-0.055
-518.916	-4.287	-0.151	-0.104
-517.902	317.978	-0.083	-0.157
-516.887	-200.000	0.032	-0.160
-515.872	201.036	-0.092	-0.140
-514.858	-200.000	0.083	0.371
-513.843	-117.838	0.119	-0.021
-512.829	138.467	-0.261	-0.340
-511.814	800.000	-0.018	-0.059
-510.799	-104.975	-0.091	-0.021
-509.785	-64.982	-0.261	0.105
-508.770	-29.248	-0.180	0.103
-507.756	-200.000	-0.054	-0.317
-506.741	-1.956	-0.060	0.042
-505.726	-200.000	0.025	0.154
-504.712	59.032	-0.178	0.174
-503.697	800.000	-0.136	0.571
-502.683	277.782	-0.161	0.286
-501.668	126.184	0.106	0.133
-500.653	-32.841	-0.182	0.100
-499.639	-92.782	0.208	-0.058
-498.624	26.760	0.077	-0.064
-497.610	-89.957	0.070	-0.020
-496.595	88.240	-0.219	-0.241
-495.581	-200.000	-0.042	-0.243
-494.566	709.146	-0.094	0.246
-493.551	285.289	-0.071	-0.127
-492.537	-17.195	-0.229	-0.144
-491.522	140.044	0.152	0.199
-490.508	122.781	0.060	-0.075
-489.493	-4.006	0.073	0.051
-488.478	322.196	-0.050	-0.095
-487.464	264.512	-0.081	-0.140
-486.449	-200.000	0.010	-0.200
-485.435	573.829	0.139	0.337
-484.420	-156.222	0.275	0.017
-483.405	351.084	-0.094	-0.185
-482.391	-66.790	-0.114	0.045
-481.376	333.644	0.061	0.117
-480.362	-137.318	-0.239	0.027
-479.347	-12.066	-0.131	0.085
-478.332	-200.000	-0.060	0.271
-477.318	-104.753	-0.135	-0.031
-476.303	-200.000	-0.011	0.216
-475.289	-200.000	-0.081	-0.449
-474.274	800.000	0.056	-0.197
-473.259	-200.000	0.176	-0.000
-472.245	-37.849	-0.244	-0.129
-471.230	99.132	0.108	0.124
-470.216	-146.259	-0.372	-0.032
-469.201	319.016	0.048	0.091
-468.186	419.684	0.034	0.073
-467.172	31.776	-0.409	-0.349
-466.157	-68.282	0.172	0.066
-465.143	-150.096	0.302	-0.023
-464.128	173.487	0.171	0.245
-463.113	-200.000	0.001	0.086
-462.099	-200.000	0.001	-0.332
-461.084	-45.058	-0.187	0.092
-460.070	509.620	-0.069	-0.159
-459.055	-34.857	0.060	0.033
-458.040	800.000	-0.026	0.082
-457.026	641.969	-0.073	0.185
-456.011	-96.542	-0.490	-0.128
-454.997	51.644	0.076	0.072
-453.982	545.244	0.187	0.444
-452.968	271.798	-0.011	0.019
-451.953	532.793	0.163	-0.384
-450.938	114.715	-0.157	-0.190
-449.924	-104.012	-0.048	-0.011
-448.909	-26.604	-0.119	0.069
-447.895	-129.672	0.062	-0.008
-446.880	-132.515	0.451	-0.058
-445.865	-95.607	0.130	0.035
-444.851	800.000	-0.117	0.389
-443.836	-200.000	-0.041	-0.297
-442.822	77.648	-0.209	0.221
-441.807	185.685	0.099	0.146
-440.792	-18.107	0.368	0.229
-439.778	-200.000	0.032	-0.158
-438.763	-48.052	-0.146	0.070
-437.749	211.544	-0.103	0.161
-436.734	89.908	0.063	0.070
-435.719	-44.052	-0.176	-0.088
-434.705	37.960	-0.282	-0.248
-433.690	-200.000	-0.007	0.106
-432.676	216.077	-0.204	0.321
-431.661	800.000	0.119	-0.388
-430.646	-137.647	0.152	0.017
-429.632	-87.362	-0.142	0.043
-428.617	296.893	-0.094	0.172
-427.603	-177.761	-0.054	0.001
-426.588	-66.330	-0.214	-0.084
-425.573	-6.835	0.187	0.126
-424.559	300.720	0.107	0.196
-423.544	622.368	0.091	0.227
-422.530	27.824	0.103	0.086
-421.515	-109.364	0.589	0.123
-420.500	-65.081	-0.099	0.040
-419.486	-53.097	-0.108	-0.049
-418.471	-92.005	0.171	-0.048
-417.457	10.355	-0.108	0.082
-416.442	106.757	-0.042	0.049
-415.428	-200.000	0.027	0.132
-414.413	-76.685	-0.062	0.021
-413.398	-61.300	-0.047	-0.020
-412.384	-117.750	-0.052	0.009
-411.369	267.766	0.063	-0.109
-410.355	800.000	0.043	0.178
-409.340	-123.126	0.110	0.017
-408.325	800.000	0.052	-0.209
-407.311	-121.812	-0.222	-0.036
-406.296	-27.472	-0.282	-0.162
-405.282	-16.407	0.023	0.014
-404.267	-97.209	0.283	-0.073
-403.252	-200.000	-0.002	-0.110
-402.238	73.946	0.121	-0.125
-401.223	800.000	-0.067	-0.272
-400.209	321.412	-0.073	0.137
-399.194	800.000	0.043	0.157
-398.179	-28.040	0.191	0.109
-397.165	90.113	0.163	-0.180
-396.150	-200.000	0.028	-0.154
-395.136	800.000	0.063	0.207
-394.121	-200.000	-0.060	-0.345
-393.106	286.369	-0.073	-0.131
-392.092	-200.000	0.017	-0.080
-391.077	174.896	-0.144	-0.206
-390.063	154.101	-0.058	0.078
-389.048	-200.000	-0.017	0.216
-388.033	-200.000	-0.024	0.179
-387.019	-77.478	0.315	-0.108
-386.004	2.700	-0.155	0.111
-384.990	-157.538	-0.142	0.008
-383.975	-126.216	0.267	-0.040
-382.960	-120.509	0.301	0.051
-381.946	-200.000	-0.026	0.204
-380.931	-99.899	0.293	0.072
-379.917	56.197	-0.080	0.077
-378.902	-152.382	-0.136	-0.010
-377.888	-115.790	0.400	-0.074
-376.873	66.281	-0.077	0.077
-375.858	600.773	-0.080	0.198
-374.844	-93.535	0.125	-0.034
-373.829	0.624	0.232	0.164
-372.815	305.009	-0.079	0.145
-371.800	-200.000	0.014	0.205
-370.785	-200.000	0.000	0.178
-369.771	-200.000	-0.018	-0.317
-368.756	530.147	0.094	-0.219
-367.742	81.850	0.034	-0.037
-366.727	73.921	-0.110	0.114
-365.712	190.221	0.095	0.141
-364.698	11.860	-0.101	-0.076
-363.683	521.368	0.062	0.145
-362.669	-200.000	0.020	-0.144
-361.654	205.389	0.078	-0.119
-360.639	9.421	-0.332	0.249
-359.625	163.978	0.126	-0.175
-358.610	-95.455	-0.217	-0.058
-357.596	115.991	0.134	-0.162
-356.581	101.406	-0.288	0.331
-355.566	-33.091	-0.113	0.062
-354.552	467.199	0.055	-0.123
-353.537	-88.996	-0.150	-0.044
-352.523	-4.185	0.367	-0.251
-351.508	734.998	0.045	-0.119
-350.493	-62.062	0.111	0.046
-349.479	51.030	0.142	-0.133
-348.464	-8.439	-0.202	0.134
-347.450	-64.265	0.065	0.026
-346.435	17.279	-0.203	0.159
-345.420	-156.419	-0.198	0.012
-344.406	-150.234	0.197	-0.015
-343.391	-149.864	-0.604	-0.047
-342.377	224.843	-0.084	-0.134
-341.362	-89.045	0.222	0.065
-340.348	88.620	0.167	0.184
-339.333	-200.000	-0.007	0.049
-338.318	800.000	-0.014	-0.051
-337.304	-71.579	-0.282	0.104
-336.289	-58.657	0.143	0.061
-335.275	218.154	-0.126	-0.198
-334.260	-128.275	-0.100	-0.014
-333.245	-200.000	-0.046	-0.227
-332.231	93.501	0.176	-0.197
-331.216	-38.247	0.263	0.138
-330.202	-135.765	-0.019	-0.002
-329.187	-200.000	-0.006	-0.036
-328.172	267.906	-0.091	-0.156
-327.158	-48.462	-0.161	0.077
-326.143	33.916	-0.245	0.211
-325.129	-136.269	0.439	-0.051
-324.114	272.252	-0.112	0.195
-323.099	114.509	-0.201	-0.242
-322.085	23.181	0.177	-0.143
-321.070	232.510	-0.169	-0.273
-320.056	79.039	-0.052	-0.055
-319.041	428.504	0.010	-0.021
-318.026	375.293	-0.109	-0.219
-317.012	-179.822	-0.218	0.005
-315.997	-88.825	0.105	0.031
-314.983	-79.411	0.219	-0.073
-313.968	263.564	0.159	-0.273
-312.953	87.535	0.089	-0.097
-311.939	-200.000	0.015	-0.214
-310.924	99.836	-0.107	0.122
-309.910	128.368	0.117	-0.147
-308.895	-200.000	0.012	-0.122
-307.880	568.113	-0.077	-0.184
-306.866	800.000	0.060	-0.228
-305.851	-144.610	-0.173	-0.016
-304.837	768.832	0.048	0.129
-303.822	800.000	0.057	0.182
-302.807	800.000	-0.130	0.488
-301.793	73.671	0.245	-0.253
-300.778	-200.000	-0.003	0.347
-299.764	589.016	0.106	-0.259
-298.749	-200.000	-0.021	-0.100
-297.735	-200.000	-0.036	0.451
-296.720	-200.000	0.016	0.089
-295.705	562.409	0.030	0.072
-294.691	-54.316	0.270	0.121
-293.676	629.248	0.057	-0.142
-292.662	377.708	-0.186	-0.376
-291.647	-181.630	-0.173	-0.003
-290.632	67.596	-0.106	0.106
-289.618	-123.953	-0.153	-0.024
-288.603	-91.698	-0.069	-0.019
-287.589	-73.969	0.083	0.030
-286.574	-94.596	-0.414	0.111
-285.559	30.898	0.420	0.354
-284.545	-24.889	0.193	0.113
-283.530	800.000	-0.074	0.298
-282.516	-99.883	-0.145	0.036
-281.501	800.000	-0.029	0.109
-280.486	50.898	0.081	0.076
-279.472	-91.045	0.265	-0.075
-278.457	354.202	0.041	0.080
-277.443	-104.464	0.251	-0.057
-276.428	800.000	-0.095	-0.387
-275.413	-200.000	-0.033	0.261
-274.399	22.571	0.100	0.081
-273.384	-99.713	0.090	-0.022
-272.370	2.535	-0.157	0.112
-271.355	132.945	0.073	-0.093
-270.340	-159.094	0.307	0.017
-269.326	180.373	-0.075	0.109
-268.311	-47.712	-0.126	0.060
-267.297	720.161	0.071	0.186
-266.282	-200.000	-0.014	-0.095
-265.267	17.344	0.141	-0.110
-264.253	-92.509	0.492	0.136
-263.238	-122.488	-0.314	-0.050
-262.224	-57.694	-0.150	0.065
-261.209	50.718	-0.154	0.144
-260.195	111.993	0.107	0.127
-259.180	-200.000	0.009	-0.097
-258.165	51.888	-0.110	-0.103
-257.151	39.678	-0.086	-0.076
-256.136	-12.679	0.117	-0.075
-255.122	-153.314	0.102	-0.007
-254.107	-50.336	0.180	-0.084
-253.092	-108.398	0.098	0.021
-252.078	130.999	-0.098	-0.123
-251.063	251.475	0.156	0.262
-250.049	48.937	-0.139	0.128
-249.034	76.666	-0.076	0.079
-248.019	-76.538	-0.254	-0.088
-247.005	-152.497	0.276	-0.019
-245.990	-80.727	-0.222	-0.073
-244.976	-36.210	0.067	-0.036
-243.961	-46.871	0.176	-0.084
-242.946	91.082	-0.160	-0.176
-241.932	18.224	-0.095	0.074
-240.917	104.602	0.379	-0.439
-239.903	-193.490	-0.258	-0.002
-238.888	217.971	0.093	0.146
-237.873	286.311	-0.155	0.276
-236.859	-125.961	-0.215	-0.032
-235.844	-104.074	-0.015	0.003
-234.830	-68.447	-0.431	0.164
-233.815	-200.000	-0.024	0.125
-232.800	534.379	-0.088	-0.206
-231.786	-75.472	-0.301	-0.105
-230.771	215.414	-0.135	-0.211
-229.757	588.120	0.109	-0.263
-228.742	-68.501	-0.244	0.093
-227.727	-200.000	-0.078	-0.443
-226.713	-102.690	0.299	-0.070
-225.698	-200.000	-0.003	0.103
-224.684	800.000	0.145	-0.457
-223.669	-4.483	0.083	-0.056
-222.655	800.000	0.028	0.095
-221.640	58.350	-0.186	0.180
-220.625	783.353	0.056	0.150
-219.611	-66.813	-0.193	-0.075
-218.596	-200.000	0.055	0.241
-217.582	-125.119	0.110	0.017
-216.567	-184.881	-0.045	0.001
-215.552	800.000	0.049	-0.180
-214.538	211.827	-0.163	0.253
-213.523	63.569	0.203	-0.200
-212.509	-72.630	-0.143	-0.052
-211.494	-108.505	0.322	0.068
-210.479	159.716	-0.200	-0.274
-209.465	800.000	0.060	-0.168
-208.450	800.000	0.020	-0.061
-207.436	-13.182	-0.184	-0.117
-206.421	276.432	0.106	0.185
-205.406	194.710	-0.099	0.148
-204.392	705.906	0.011	0.029
-203.377	42.068	0.103	0.092
-202.363	-72.844	-0.288	-0.104
-201.348	-200.000	0.029	0.205
-200.333	-5.545	0.121	0.081
-199.319	-88.132	0.117	-0.035
-198.304	-169.987	0.236	0.008
-197.290	-200.000	-0.092	0.519
-196.275	189.324	0.174	0.256
-195.260	290.246	0.082	0.146
-194.246	800.000	0.013	0.051
-193.231	-71.277	-0.281	-0.104
-192.217	49.706	-0.307	-0.284
-191.202	-200.000	0.060	-0.333
-190.187	-200.000	0.300	-0.000
-189.173	604.997	0.091	-0.222
-188.158	156.848	-0.077	0.105
-187.144	367.316	-0.031	0.061
-186.129	32.308	0.035	-0.030
-185.114	318.960	0.173	-0.322
-184.100	800.000	0.063	0.237
-183.085	59.369	-0.033	0.031
-182.071	-106.664	0.198	0.043
-181.056	-37.205	0.217	0.114
-180.042	69.374	0.183	0.185
-179.027	85.161	0.148	-0.159
-178.012	31.065	0.228	-0.192
-176.998	-140.370	0.221	-0.023
-175.983	369.037	-0.068	-0.134
-174.969	-101.196	0.098	-0.023
-173.954	517.306	-0.125	-0.287
-172.939	-69.641	0.274	-0.103
-171.925	-167.672	0.289	0.011
-170.910	196.212	-0.022	-0.032
-169.896	20.851	-0.156	0.124
-168.881	-11.988	0.248	-0.160
-167.866	-200.000	-0.027	-0.312
-166.852	36.588	0.256	0.221
-165.837	-111.967	-0.299	-0.059
-164.823	3.792	-0.223	0.160
-163.808	-128.337	0.401	-0.056
-162.793	-200.000	-0.043	0.215
-161.779	800.000	-0.038	0.118
-160.764	108.992	0.348	0.408
-159.750	-200.000	-0.017	-0.102
-158.735	218.235	0.066	0.103
-157.720	-71.728	0.191	-0.070
-156.706	-85.301	-0.220	-0.067
-155.691	80.668	0.012	-0.013
-154.677	-29.338	0.314	0.176
-153.662	138.167	-0.073	-0.093
-152.647	-168.888	0.521	0.019
-151.633	-89.804	-0.144	0.041
-150.618	606.430	0.042	-0.102
-149.604	-82.950	-0.075	0.024
-148.589	-71.010	0.139	-0.051
-147.574	-62.330	0.134	-0.055
-146.560	83.825	-0.165	-0.176
-145.545	-137.513	0.538	-0.060
-144.531	-183.518	0.344	0.006
-143.516	-200.000	-0.007	-0.212
-142.502	-69.725	0.159	-0.060
-141.487	-200.000	-0.050	-0.244
-140.472	800.000	-0.055	-0.229
-139.458	-200.000	-0.029	-0.198
-138.443	-200.000	0.011	-0.217
-137.429	-200.000	0.009	0.239
-136.414	30.300	0.150	-0.126
-135.399	204.177	0.138	0.209
-134.385	154.993	0.043	0.057
-133.370	267.232	-0.159	0.273
-132.356	304.641	0.150	-0.272
-131.341	47.359	0.124	-0.113
-130.326	99.346	-0.077	-0.088
-129.312	-55.627	-0.213	0.093
-128.297	-116.739	0.314	0.057
-127.283	-2.531	0.163	0.112
-126.268	-57.035	0.159	-0.069
-125.253	-121.914	-0.256	0.041
-124.239	373.812	-0.094	0.187
-123.224	-200.000	0.010	0.269
-122.210	276.324	0.022	-0.038
-121.195	-14.367	0.274	0.173
