DTS Sentinel unit serial number:	SN413079Multiplexer serial number:	ORYXHardware model number:	OX4-SRSoftware version number:	ORYX F/W v4.00 Oryx Data Collector v3.7.2.0data status	okinstallation	princeton_trtdifferential loss correction	single-endedforward channel	channel 2reverse channel	N/Adate	2019/09/12time	03:09:11forward acquisition time	60.00reverse acquisition time	0.00gamma	496.2192k internal	0.2326k external	0.2326temperature offset calibration	1.0095default loss term (dB/km)	0.3790temperature slope calibration	1.0000multiplexer offset coefficient	1.0000multiplexer slope coefficient	1.0000fibre end	0.00T internal ref (°C)	32.31T ext. ref 1 (°C)	2.11T ext. ref 2 (°C)	27.32length (m)	temperature (°C)	Stokes	anti-Stokes-747.200	-200.000	-0.003	0.218
-746.185	231.393	0.156	0.258
-745.171	-200.000	0.055	0.252
-744.156	266.409	-0.048	0.084
-743.142	-200.000	0.006	0.444
-742.127	115.206	-0.195	0.240
-741.112	-200.000	-0.078	0.357
-740.098	182.129	-0.184	0.274
-739.083	44.347	0.147	-0.136
-738.069	63.810	-0.178	0.181
-737.054	800.000	-0.049	-0.151
-736.039	-22.214	-0.209	-0.128
-735.025	187.858	0.144	0.217
-734.010	95.947	0.278	-0.320
-732.996	51.534	-0.047	-0.045
-731.981	-200.000	0.029	-0.276
-730.966	53.958	-0.372	-0.361
-729.952	-45.923	-0.182	-0.090
-728.937	-200.000	0.035	0.204
-727.923	-100.413	-0.127	0.032
-726.908	340.637	0.170	-0.335
-725.894	-200.000	0.010	-0.179
-724.879	-200.000	-0.008	0.096
-723.864	-200.000	-0.056	-0.330
-722.850	297.564	0.082	0.152
-721.835	419.158	-0.086	-0.185
-720.821	-48.987	0.202	-0.097
-719.806	-200.000	0.056	-0.305
-718.791	47.086	-0.133	-0.125
-717.777	800.000	-0.071	-0.234
-716.762	800.000	0.030	-0.093
-715.748	800.000	-0.058	-0.197
-714.733	216.166	-0.076	0.121
-713.718	-200.000	0.034	-0.312
-712.704	-28.290	0.066	0.038
-711.689	-14.725	-0.232	-0.150
-710.675	37.536	-0.138	-0.123
-709.660	-5.873	0.166	0.114
-708.645	-200.000	0.007	-0.219
-707.631	271.163	-0.027	-0.048
-706.616	-200.000	0.014	-0.078
-705.602	-86.786	-0.139	-0.043
-704.587	-4.215	0.125	-0.087
-703.572	43.284	0.082	0.076
-702.558	237.449	-0.224	-0.375
-701.543	560.518	-0.242	-0.589
-700.529	389.686	0.052	-0.109
-699.514	31.052	-0.169	-0.145
-698.499	-200.000	-0.082	-0.435
-697.485	-91.851	0.210	0.060
-696.470	-200.000	0.063	-0.279
-695.456	274.409	-0.069	-0.122
-694.441	-135.527	-0.472	-0.057
-693.426	114.965	-0.266	-0.326
-692.412	-200.000	-0.027	0.165
-691.397	15.966	0.107	-0.085
-690.383	-161.232	0.297	0.016
-689.368	86.714	-0.146	-0.162
-688.354	-164.193	-0.326	-0.015
-687.339	162.714	-0.131	0.185
-686.324	800.000	0.063	0.255
-685.310	-200.000	-0.062	0.288
-684.295	-110.059	0.333	0.070
-683.281	-93.055	0.137	-0.038
-682.266	800.000	-0.110	-0.376
-681.251	264.187	-0.078	-0.136
-680.237	18.990	0.235	-0.189
-679.222	-42.201	-0.407	-0.209
-678.208	-46.539	-0.102	-0.050
-677.193	-200.000	-0.020	0.200
-676.178	-16.789	0.107	-0.068
-675.164	170.856	0.140	0.202
-674.149	176.623	0.219	-0.320
-673.135	-200.000	-0.036	0.218
-672.120	800.000	0.091	-0.311
-671.105	-117.064	0.289	-0.053
-670.091	800.000	-0.108	-0.427
-669.076	367.015	0.129	-0.262
-668.062	400.474	-0.236	-0.498
-667.047	-200.000	-0.007	-0.050
-666.032	-92.359	0.244	0.069
-665.018	-53.427	-0.051	0.023
-664.003	36.845	-0.280	-0.249
-662.989	-4.299	0.182	-0.127
-661.974	123.882	-0.125	-0.158
-660.959	45.079	0.343	0.317
-659.945	142.737	-0.294	0.393
-658.930	-57.450	0.134	-0.059
-657.916	77.977	-0.254	-0.272
-656.901	-44.083	0.372	0.188
-655.886	154.064	0.026	-0.035
-654.872	800.000	-0.072	0.206
-653.857	39.257	0.224	0.201
-652.843	523.745	0.034	0.080
-651.828	-138.672	-0.198	0.022
-650.814	628.922	-0.162	0.413
-649.799	800.000	-0.111	0.403
-648.784	-200.000	-0.026	0.255
-647.770	2.705	-0.051	-0.037
-646.755	800.000	0.036	-0.101
-645.741	-200.000	0.043	0.302
-644.726	-128.069	-0.297	0.043
-643.711	-32.946	-0.216	-0.120
-642.697	123.958	0.097	0.123
-641.682	357.242	0.078	-0.156
-640.668	258.566	-0.131	0.228
-639.653	106.675	-0.046	0.055
-638.638	-180.396	0.320	0.007
-637.624	-38.349	0.052	-0.028
-636.609	444.036	-0.141	-0.311
-635.595	-118.947	0.195	-0.034
-634.580	-200.000	0.022	-0.153
-633.565	-29.859	0.136	-0.078
-632.551	-112.279	0.205	0.041
-631.536	-102.665	0.160	-0.038
-630.522	46.100	0.177	-0.164
-629.507	-90.221	-0.174	0.051
-628.492	379.895	0.089	-0.184
-627.478	301.972	0.122	-0.226
-626.463	800.000	0.054	-0.181
-625.449	14.727	-0.160	-0.125
-624.434	-200.000	-0.005	0.376
-623.419	593.124	0.080	-0.199
-622.405	-70.294	0.067	-0.025
-621.390	259.707	0.099	0.171
-620.376	-200.000	-0.021	0.186
-619.361	-144.029	-0.203	0.019
-618.346	167.627	0.146	-0.209
-617.332	410.605	0.087	0.186
-616.317	-65.979	-0.109	-0.044
-615.303	-99.129	-0.362	0.092
-614.288	69.277	-0.132	0.137
-613.273	210.473	-0.102	-0.161
-612.259	-200.000	-0.022	0.135
-611.244	-169.603	0.207	0.008
-610.230	-200.000	-0.060	-0.267
-609.215	-53.124	-0.404	0.186
-608.201	286.492	-0.109	-0.197
-607.186	-77.939	0.071	0.024
-606.171	-67.126	-0.165	-0.065
-605.157	-200.000	-0.010	0.062
-604.142	-111.148	0.082	-0.017
-603.128	-125.623	-0.101	0.015
-602.113	657.787	0.079	-0.203
-601.098	-130.386	0.151	-0.020
-600.084	43.841	-0.081	-0.074
-599.069	-102.306	0.334	0.080
-598.055	800.000	0.128	-0.374
-597.040	256.009	-0.049	0.083
-596.025	277.086	-0.242	0.432
-595.011	70.121	0.035	0.036
-593.996	-26.099	-0.122	-0.072
-592.982	-80.185	-0.391	0.131
-591.967	-64.447	0.037	-0.015
-590.952	-99.384	-0.268	-0.068
-589.938	-129.056	-0.066	-0.009
-588.923	800.000	-0.061	-0.219
-587.909	91.318	0.159	-0.179
-586.894	-167.528	-0.229	0.009
-585.879	-1.884	-0.198	0.140
-584.865	-140.063	0.374	-0.039
-583.850	-86.530	-0.179	-0.055
-582.836	-200.000	0.010	-0.136
-581.821	-24.957	0.085	-0.050
-580.806	514.448	-0.048	0.113
-579.792	10.296	-0.427	0.326
-578.777	220.734	0.090	-0.144
-577.763	-109.852	0.144	0.030
-576.748	125.998	0.158	-0.201
-575.733	511.251	0.205	0.478
-574.719	800.000	-0.058	0.177
-573.704	174.727	0.119	-0.173
-572.690	12.336	-0.059	-0.045
-571.675	796.509	-0.057	0.159
-570.661	281.333	0.172	0.308
-569.646	26.143	-0.277	-0.232
-568.631	24.613	-0.263	0.218
-567.617	-97.465	-0.043	0.011
-566.602	-200.000	-0.019	-0.271
-565.588	-171.073	0.289	0.010
-564.573	199.082	-0.039	0.060
-563.558	800.000	0.042	-0.139
-562.544	-170.164	0.200	0.007
-561.529	81.741	-0.266	-0.289
-560.515	-91.904	0.221	-0.063
-559.500	-20.546	0.132	0.081
-558.485	-153.102	0.253	0.018
-557.471	-66.685	-0.124	0.049
-556.456	18.094	-0.269	0.214
-555.442	-152.216	0.125	-0.009
-554.427	15.971	0.069	0.055
-553.412	-108.809	-0.271	-0.058
-552.398	-200.000	0.033	-0.270
-551.383	-170.527	-0.029	-0.001
-550.369	71.329	-0.211	-0.219
-549.354	-36.744	-0.176	0.094
-548.339	262.083	0.226	-0.393
-547.325	-87.255	0.346	0.105
-546.310	-176.586	-0.139	-0.004
-545.296	-200.000	0.012	-0.209
-544.281	582.637	0.097	0.239
-543.266	21.351	-0.245	0.199
-542.252	-58.025	0.024	0.011
-541.237	-46.697	0.154	-0.076
-540.223	-200.000	-0.023	0.146
-539.208	140.693	-0.064	0.084
-538.193	281.566	0.019	-0.034
-537.179	78.491	-0.044	-0.047
-536.164	-27.691	-0.048	-0.028
-535.150	-200.000	0.017	0.153
-534.135	-15.860	0.402	-0.256
-533.121	376.706	0.104	-0.213
-532.106	94.550	-0.026	-0.029
-531.091	-200.000	0.031	-0.178
-530.077	-200.000	-0.018	-0.404
-529.062	-34.409	-0.372	0.204
-528.048	-109.858	-0.354	0.074
-527.033	-200.000	-0.073	-0.355
-526.018	20.529	0.067	0.054
-525.004	-41.877	-0.388	0.199
-523.989	-200.000	-0.029	0.251
-522.975	-200.000	-0.007	-0.044
-521.960	-55.425	-0.178	0.080
-520.945	662.687	0.028	0.071
-519.931	345.947	-0.138	-0.271
-518.916	-200.000	0.015	0.674
-517.902	16.299	-0.262	-0.207
-516.887	519.109	-0.077	-0.181
-515.872	800.000	-0.030	-0.119
-514.858	-89.949	-0.185	0.054
-513.843	-200.000	-0.009	-0.171
-512.829	32.411	0.213	-0.184
-511.814	-72.521	0.239	-0.088
-510.799	-200.000	0.022	0.189
-509.785	196.251	0.150	-0.228
-508.770	48.351	-0.205	-0.192
-507.756	262.478	0.039	0.068
-506.741	113.941	-0.152	-0.185
-505.726	676.259	0.021	-0.055
-504.712	-140.844	0.115	-0.012
-503.697	32.263	-0.096	0.083
-502.683	-115.076	0.121	0.023
-501.668	-54.762	0.116	-0.053
-500.653	43.461	-0.232	0.212
-499.639	213.022	-0.094	0.149
-498.624	800.000	0.054	0.155
-497.610	-100.221	-0.183	0.045
-496.595	473.713	-0.087	-0.195
-495.581	165.895	0.088	0.125
-494.566	-200.000	0.016	-0.271
-493.551	236.127	0.086	-0.142
-492.537	-200.000	0.023	-0.280
-491.522	247.798	-0.112	-0.189
-490.508	165.687	-0.109	0.154
-489.493	-20.606	0.164	0.101
-488.478	-109.582	0.282	0.059
-487.464	127.639	0.166	0.210
-486.449	178.570	-0.195	0.285
-485.435	-110.600	-0.271	0.056
-484.420	800.000	0.041	0.118
-483.405	-200.000	-0.022	0.444
-482.391	-200.000	-0.008	-0.052
-481.376	-9.061	0.120	0.080
-480.362	235.438	-0.033	-0.054
-479.347	-108.150	0.172	-0.037
-478.332	518.083	-0.120	0.281
-477.318	-137.300	0.188	0.021
-476.303	-55.063	0.200	-0.090
-475.289	27.275	-0.190	-0.159
-474.274	307.202	0.096	0.179
-473.259	-200.000	-0.014	0.181
-472.245	800.000	-0.022	0.077
-471.230	60.407	-0.267	0.264
-470.216	60.732	0.158	-0.156
-469.201	-10.136	0.155	0.102
-468.186	232.345	-0.146	-0.239
-467.172	23.089	-0.380	-0.311
-466.157	-56.467	0.256	0.113
-465.143	-130.806	0.092	-0.012
-464.128	25.445	0.095	-0.078
-463.113	800.000	0.024	0.073
-462.099	95.539	0.312	0.355
-461.084	176.765	0.126	0.183
-460.070	-200.000	0.007	-0.091
-459.055	-85.350	0.426	-0.133
-458.040	-75.100	-0.312	-0.111
-457.026	-142.983	0.177	-0.017
-456.011	-128.929	-0.119	-0.017
-454.997	-91.911	0.266	-0.075
-453.982	68.106	-0.063	0.064
-452.968	761.416	-0.031	0.084
-451.953	-127.075	0.069	0.010
-450.938	-78.863	-0.209	-0.071
-449.924	-35.696	-0.167	0.090
-448.909	42.801	0.305	-0.277
-447.895	57.466	-0.132	-0.129
-446.880	-121.663	0.343	-0.057
-445.865	426.837	0.069	0.149
-444.851	81.177	-0.122	-0.131
-443.836	-189.539	0.232	0.003
-442.822	800.000	-0.117	-0.329
-441.807	-143.514	0.192	-0.018
-440.792	214.659	0.123	-0.194
-439.778	153.159	-0.020	-0.028
-438.763	-200.000	-0.092	0.444
-437.749	29.910	-0.098	-0.083
-436.734	37.062	-0.069	0.061
-435.719	-141.507	0.265	-0.027
-434.705	-64.527	-0.148	0.060
-433.690	449.438	-0.069	0.151
-432.676	100.437	-0.025	0.029
-431.661	95.311	0.139	0.157
-430.646	247.768	-0.175	0.295
-429.632	-200.000	0.036	0.275
-428.617	211.655	-0.037	0.058
-427.603	-50.349	0.121	-0.057
-426.588	-160.354	-0.263	0.014
-425.573	-47.850	0.230	-0.111
-424.559	-45.383	-0.177	0.088
-423.544	-200.000	-0.022	-0.171
-422.530	238.636	0.087	0.144
-421.515	263.545	0.107	0.185
-420.500	-200.000	0.031	0.257
-419.486	-4.363	0.297	0.204
-418.471	-131.870	-0.236	-0.031
-417.457	-200.000	-0.002	-0.145
-416.442	-121.114	-0.194	0.032
-415.428	-8.479	-0.267	-0.179
-414.413	-151.091	-0.089	0.007
-413.398	-176.558	0.220	0.006
-412.384	-86.678	-0.215	-0.065
-411.369	-196.096	0.172	0.001
-410.355	206.503	-0.049	0.076
-409.340	-175.672	-0.216	0.006
-408.325	-200.000	-0.012	-0.299
-407.311	494.486	-0.090	0.205
-406.296	328.939	-0.162	0.310
-405.282	14.678	0.134	0.105
-404.267	239.430	0.105	-0.174
-403.252	-183.124	-0.397	0.007
-402.238	-2.727	-0.225	0.157
-401.223	-200.000	-0.052	0.264
-400.209	66.494	-0.138	0.139
-399.194	718.098	0.110	-0.289
-398.179	-63.567	0.042	-0.017
-397.165	-200.000	-0.038	-0.463
-396.150	245.409	0.218	0.365
-395.136	28.654	-0.079	0.067
-394.121	411.528	0.059	0.125
-393.106	-200.000	-0.118	-0.529
-392.092	91.876	-0.181	0.203
-391.077	800.000	0.088	-0.366
-390.063	-30.584	0.226	-0.127
-389.048	356.796	-0.081	0.160
-388.033	-200.000	-0.035	0.251
-387.019	255.893	0.064	0.108
-386.004	-36.742	0.157	-0.084
-384.990	800.000	0.064	0.197
-383.975	634.411	0.052	0.130
-382.960	800.000	-0.081	-0.333
-381.946	800.000	0.023	-0.097
-380.931	-68.973	0.171	-0.066
-379.917	135.552	-0.043	0.055
-378.902	18.271	-0.120	0.095
-377.888	440.054	0.230	-0.501
-376.873	-138.742	0.404	-0.044
-375.858	-26.100	0.148	0.086
-374.844	731.821	-0.097	0.257
-373.829	146.684	-0.216	-0.288
-372.815	11.262	0.300	0.229
-371.800	-137.719	-0.461	0.051
-370.785	-0.924	-0.234	-0.165
-369.771	86.270	0.138	-0.151
-368.756	18.052	-0.042	-0.033
-367.742	-148.505	0.203	-0.016
-366.727	47.733	0.308	0.285
-365.712	-200.000	0.045	0.323
-364.698	-200.000	0.055	0.364
-363.683	-7.374	-0.289	-0.194
-362.669	219.701	-0.134	0.212
-361.654	351.126	-0.173	0.340
-360.639	-83.061	0.204	0.065
-359.625	-177.176	0.095	0.002
-358.610	402.409	-0.092	0.191
-357.596	-147.565	-0.230	0.019
-356.581	-200.000	-0.069	-0.322
-355.566	-112.821	-0.219	-0.043
-354.552	-200.000	0.004	0.037
-353.537	-200.000	0.037	-0.303
-352.523	324.716	-0.083	0.158
-351.508	-59.224	0.268	0.115
-350.493	-110.740	0.370	-0.076
-349.479	1.670	0.091	-0.065
-348.464	-90.712	0.216	0.062
-347.450	309.999	0.097	-0.181
-346.435	-88.771	-0.147	0.043
-345.420	-200.000	0.011	-0.205
-344.406	129.457	-0.098	0.125
-343.391	-93.513	0.228	0.063
-342.377	16.329	-0.434	0.340
-341.362	-119.514	-0.238	-0.041
-340.348	-76.223	-0.086	0.030
-339.333	-200.000	0.008	0.067
-338.318	221.905	-0.236	-0.377
-337.304	-137.667	0.214	0.024
-336.289	91.487	-0.130	0.145
-335.275	-200.000	-0.031	-0.233
-334.260	40.972	0.218	-0.195
-333.245	31.708	-0.282	-0.241
-332.231	38.492	-0.132	-0.117
-331.216	267.505	0.183	0.317
-330.202	-200.000	-0.023	-0.123
-329.187	-200.000	-0.023	0.117
-328.172	-200.000	-0.039	0.470
-327.158	-200.000	-0.008	-0.233
-326.143	800.000	0.070	-0.246
-325.129	402.359	-0.205	-0.427
-324.114	-104.728	-0.151	0.034
-323.099	-200.000	0.049	-0.234
-322.085	-18.370	-0.246	-0.152
-321.070	-200.000	0.007	0.387
-320.056	800.000	-0.016	-0.058
-319.041	23.534	-0.153	-0.124
-318.026	-139.350	-0.106	0.011
-317.012	86.316	0.163	0.179
-315.997	96.766	-0.105	0.120
-314.983	72.107	-0.192	-0.198
-313.968	197.388	-0.147	-0.222
-312.953	-124.374	0.293	-0.045
-311.939	-46.677	0.336	-0.163
-310.924	357.822	0.114	-0.226
-309.910	-200.000	0.036	-0.186
-308.895	-200.000	0.018	0.108
-307.880	-134.162	-0.293	-0.036
-306.866	-155.828	0.207	-0.013
-305.851	396.199	0.083	0.171
-304.837	-200.000	0.082	0.503
-303.822	-113.138	-0.032	0.006
-302.807	263.371	0.159	-0.275
-301.793	8.901	0.121	0.090
-300.778	-200.000	0.183	0.000
-299.764	340.072	-0.046	-0.090
-298.749	-183.499	-0.407	-0.007
-297.735	111.818	0.088	0.105
-296.720	-79.433	-0.371	0.124
-295.705	-54.393	-0.272	0.122
-294.691	40.887	-0.070	-0.063
-293.676	96.571	0.024	0.027
-292.662	-124.456	0.120	0.019
-291.647	-58.851	0.135	0.058
-290.632	288.812	-0.105	-0.188
-289.618	800.000	-0.054	-0.229
-288.603	800.000	-0.127	0.364
-287.589	44.612	0.303	0.276
-286.574	-127.755	0.272	0.039
-285.559	800.000	-0.053	0.178
-284.545	-93.988	0.243	-0.066
-283.530	800.000	-0.019	-0.058
-282.516	-200.000	-0.015	0.294
-281.501	56.194	-0.099	-0.095
-280.486	10.234	-0.135	0.102
-279.472	-133.943	-0.159	0.020
-278.457	-200.000	0.003	0.210
-277.443	11.205	-0.316	-0.240
-276.428	-49.852	0.235	-0.111
-275.413	-84.265	-0.138	0.043
-274.399	-117.452	0.219	-0.039
-273.384	381.247	-0.167	0.340
-272.370	-94.360	-0.418	0.113
-271.355	-200.000	-0.019	0.168
-270.340	-118.619	-0.125	0.022
-269.326	35.114	0.146	-0.127
-268.311	744.129	0.048	-0.128
-267.297	-182.822	-0.200	0.004
-266.282	-200.000	-0.027	0.175
-265.267	-103.083	-0.109	-0.025
-264.253	-85.052	0.092	-0.029
-263.238	5.138	-0.056	-0.040
-262.224	-85.789	-0.199	0.061
-261.209	92.747	0.188	-0.210
-260.195	696.009	-0.078	-0.203
-259.180	-120.263	-0.218	0.037
-258.165	-18.894	0.301	0.185
-257.151	72.518	0.258	-0.266
-256.136	1.360	0.202	-0.144
-255.122	-200.000	0.026	0.130
-254.107	-44.097	-0.078	0.039
-253.092	-6.801	0.391	0.263
-252.078	6.535	0.027	-0.020
-251.063	184.651	0.237	-0.347
-250.049	-200.000	-0.010	-0.058
-249.034	30.639	-0.160	0.136
-248.019	-78.764	0.216	0.073
-247.005	246.299	0.109	0.182
-245.990	54.802	-0.274	-0.261
-244.976	209.641	0.287	0.446
-243.961	-200.000	-0.004	0.186
-242.946	-58.842	0.273	-0.117
-241.932	800.000	-0.049	0.189
-240.917	800.000	0.108	-0.304
-239.903	38.782	0.108	-0.096
-238.888	-194.706	-0.190	-0.001
-237.873	-86.109	-0.305	-0.093
-236.859	-200.000	-0.012	-0.280
-235.844	-147.654	0.223	-0.019
-234.830	800.000	-0.064	-0.251
-233.815	-122.521	0.207	0.033
-232.800	53.282	-0.234	-0.222
-231.786	-3.769	-0.212	-0.146
-230.771	800.000	0.099	-0.285
-229.757	-156.213	-0.217	0.013
-228.742	-159.050	0.246	-0.014
-227.727	464.813	0.024	0.054
-226.713	-97.048	0.355	-0.092
-225.698	-200.000	-0.070	-0.358
-224.684	-128.522	0.100	0.014
-223.669	800.000	0.059	0.167
-222.655	-55.294	-0.225	-0.100
-221.640	436.453	0.044	0.094
-220.625	-3.334	0.175	0.120
-219.611	-200.000	0.005	0.149
-218.596	515.812	0.115	0.265
-217.582	463.373	-0.117	0.259
-216.567	-200.000	0.029	-0.202
-215.552	674.298	0.167	-0.429
-214.538	-114.480	0.124	-0.024
-213.523	13.126	0.278	-0.212
-212.509	208.779	0.132	-0.203
-211.494	161.670	0.082	-0.113
-210.479	648.148	0.049	-0.123
-209.465	96.705	0.084	-0.095
-208.450	-96.708	-0.121	-0.031
-207.436	121.941	-0.079	0.097
-206.421	-171.665	-0.278	0.009
-205.406	24.135	-0.205	0.167
-204.392	18.100	0.191	0.150
-203.377	-199.427	0.285	0.001
-202.363	-200.000	0.041	0.381
-201.348	-70.783	-0.228	0.085
-200.333	-52.668	-0.039	-0.018
-199.319	64.549	0.116	0.115
-198.304	738.825	-0.124	0.329
-197.290	-200.000	-0.010	0.117
-196.275	-13.093	0.269	0.173
-195.260	-29.966	0.123	0.069
-194.246	29.020	-0.143	-0.120
-193.231	-52.513	-0.060	-0.027
-192.217	-200.000	-0.035	0.198
-191.202	398.990	0.137	0.283
-190.187	132.496	-0.239	0.305
-189.173	-200.000	0.028	-0.252
-188.158	153.964	-0.056	-0.076
-187.144	140.503	0.226	-0.294
-186.129	-61.472	0.158	0.065
-185.114	78.434	-0.137	-0.144
-184.100	64.714	-0.077	-0.076
-183.085	58.545	0.145	0.140
-182.071	117.127	0.177	0.215
-181.056	8.102	0.347	0.257
-180.042	-42.962	0.390	-0.195
-179.027	60.286	0.176	-0.172
-178.012	-200.000	-0.000	-0.336
-176.998	82.399	-0.122	-0.130
-175.983	245.238	0.150	-0.249
-174.969	-93.588	-0.383	-0.104
-173.954	13.751	-0.050	0.039
-172.939	-172.250	0.244	-0.008
-171.925	-30.470	0.282	-0.158
-170.910	158.969	-0.142	-0.194
-169.896	-132.789	0.198	0.025
-168.881	-200.000	-0.017	0.310
-167.866	5.745	0.139	-0.101
-166.852	800.000	-0.117	-0.466
-165.837	-200.000	-0.066	-0.296
-164.823	56.228	0.216	0.207
-163.808	8.383	0.083	0.061
-162.793	247.444	0.127	0.212
-161.779	221.136	-0.078	0.124
-160.764	88.314	-0.048	-0.053
-159.750	-91.490	-0.458	0.129
-158.735	-90.663	0.255	0.073
-157.720	-9.807	-0.244	-0.160
-156.706	-70.270	0.171	-0.064
-155.691	177.376	-0.163	0.234
-154.677	-164.781	-0.308	-0.014
-153.662	-31.020	0.105	-0.058
-152.647	-191.487	-0.166	-0.002
-151.633	-200.000	0.004	0.079
-150.618	60.928	-0.049	0.047
-149.604	132.312	0.083	0.106
-148.589	-76.217	0.033	-0.012
-147.574	-200.000	-0.017	0.220
-146.560	56.605	0.124	-0.119
-145.545	-28.243	0.228	-0.130
-144.531	-200.000	0.023	-0.171
-143.516	26.452	-0.194	0.160
-142.502	-130.265	0.233	-0.031
-141.487	-3.942	-0.091	0.062
-140.472	337.716	0.073	0.139
-139.458	263.542	0.151	0.258
-138.443	720.352	0.121	0.316
-137.429	800.000	0.025	0.073
-136.414	1.903	-0.133	-0.095
-135.399	-148.919	-0.187	0.015
-134.385	30.534	0.123	0.103
-133.370	-58.130	-0.044	-0.019
-132.356	-139.341	0.109	0.012
-131.341	-33.925	0.272	-0.147
-130.326	-200.000	0.013	0.374
-129.312	-141.278	0.540	-0.054
-128.297	-86.898	0.068	0.020
-127.283	-23.042	0.327	0.194
-126.268	800.000	-0.016	-0.061
-125.253	-115.056	0.116	-0.022
-124.239	48.349	-0.186	0.171
-123.224	-136.351	-0.485	0.056
-122.210	20.833	0.174	0.139
-121.195	800.000	0.041	0.136
