DTS Sentinel unit serial number:	SN413079Multiplexer serial number:	ORYXHardware model number:	OX4-SRSoftware version number:	ORYX F/W v4.00 Oryx Data Collector v3.7.2.0data status	okinstallation	princeton_trtdifferential loss correction	single-endedforward channel	channel 2reverse channel	N/Adate	2019/09/17time	11:15:35forward acquisition time	60.00reverse acquisition time	0.00gamma	496.2192k internal	0.2323k external	0.2323temperature offset calibration	0.9981default loss term (dB/km)	0.3790temperature slope calibration	1.0000multiplexer offset coefficient	1.0000multiplexer slope coefficient	1.0000fibre end	0.00T internal ref (°C)	30.50T ext. ref 1 (°C)	0.28T ext. ref 2 (°C)	26.25length (m)	temperature (°C)	Stokes	anti-Stokes-747.200	-140.325	0.502	0.053
-746.185	271.330	-0.024	-0.043
-745.171	-54.371	0.039	-0.018
-744.156	-200.000	0.015	-0.168
-743.142	344.973	0.128	-0.255
-742.127	-200.000	-0.049	0.245
-741.112	13.391	-0.147	0.115
-740.098	-9.790	-0.210	0.141
-739.083	517.561	-0.040	0.094
-738.069	-29.596	-0.124	0.072
-737.054	-184.906	-0.509	-0.008
-736.039	-4.391	-0.367	-0.256
-735.025	-85.386	0.469	0.148
-734.010	-75.518	-0.062	-0.022
-732.996	233.428	-0.163	-0.270
-731.981	54.276	-0.079	0.076
-730.966	-46.727	-0.218	-0.108
-729.952	-45.691	0.046	-0.023
-728.937	-181.817	0.132	0.003
-727.923	74.674	0.186	0.198
-726.908	51.301	-0.311	-0.298
-725.894	-89.026	0.292	-0.087
-724.879	-89.972	-0.545	0.160
-723.864	-200.000	-0.008	-0.133
-722.850	800.000	0.006	0.020
-721.835	-147.888	-0.244	-0.021
-720.821	-16.562	-0.223	0.143
-719.806	-51.228	-0.302	-0.143
-718.791	-78.292	0.024	0.008
-717.777	-200.000	-0.054	-0.324
-716.762	181.862	-0.130	-0.193
-715.748	44.193	-0.128	-0.118
-714.733	158.925	-0.134	-0.188
-713.718	-48.032	-0.146	0.071
-712.704	-45.993	-0.263	0.131
-711.689	156.512	-0.281	0.391
-710.675	-26.814	-0.191	0.113
-709.660	107.661	0.137	0.165
-708.645	-106.651	-0.136	0.031
-707.631	-60.807	0.196	-0.084
-706.616	-0.973	-0.285	-0.204
-705.602	70.948	-0.293	0.306
-704.587	-200.000	0.003	-0.066
-703.572	4.674	-0.294	-0.218
-702.558	-98.728	-0.363	0.093
-701.543	-200.000	0.035	-0.259
-700.529	-200.000	-0.012	0.125
-699.514	-126.378	0.330	-0.050
-698.499	-200.000	0.008	-0.201
-697.485	-82.571	-0.142	-0.046
-696.470	-129.293	-0.230	-0.032
-695.456	-127.150	0.077	-0.011
-694.441	-200.000	-0.046	-0.221
-693.426	537.663	0.038	0.090
-692.412	-200.000	0.042	-0.227
-691.397	800.000	0.045	0.156
-690.383	-45.708	-0.011	-0.005
-689.368	77.982	-0.105	0.113
-688.354	-43.829	-0.056	0.028
-687.339	26.391	-0.089	-0.075
-686.324	-147.815	-0.447	-0.038
-685.310	800.000	-0.054	0.192
-684.295	-200.000	-0.068	0.623
-683.281	-172.625	0.349	0.011
-682.266	115.485	-0.071	-0.088
-681.251	1.629	-0.166	0.120
-680.237	497.643	-0.063	-0.146
-679.222	268.666	0.106	-0.187
-678.208	11.932	-0.117	0.090
-677.193	-200.000	-0.020	-0.212
-676.178	-74.144	-0.330	0.120
-675.164	-159.818	-0.288	-0.016
-674.149	-47.791	0.107	-0.052
-673.135	-200.000	-0.006	-0.049
-672.120	-200.000	-0.024	-0.113
-671.105	208.178	-0.122	0.192
-670.091	-200.000	-0.003	0.170
-669.076	734.066	-0.146	-0.394
-668.062	-87.053	0.186	-0.057
-667.047	-200.000	0.009	0.139
-666.032	-157.253	-0.099	-0.006
-665.018	-145.634	0.261	0.024
-664.003	-71.327	0.242	0.091
-662.989	-3.066	-0.192	0.135
-661.974	-200.000	-0.002	-0.055
-660.959	102.217	-0.077	-0.091
-659.945	-78.742	0.280	0.096
-658.930	-108.514	-0.189	-0.041
-657.916	-148.337	0.062	-0.005
-656.901	246.384	0.033	0.056
-655.886	-96.789	0.075	-0.020
-654.872	800.000	-0.102	0.327
-653.857	800.000	-0.046	0.151
-652.843	84.320	-0.072	-0.079
-651.828	-147.574	0.236	-0.020
-650.814	-81.670	0.226	-0.074
-649.799	-93.716	0.118	0.033
-648.784	-19.665	-0.045	-0.028
-647.770	63.916	0.116	-0.117
-646.755	-28.631	0.242	0.140
-645.741	43.972	0.091	-0.084
-644.726	155.906	0.085	0.118
-643.711	-200.000	-0.006	-0.066
-642.697	85.108	-0.211	0.233
-641.682	71.428	0.203	0.212
-640.668	-200.000	0.039	-0.210
-639.653	319.133	0.173	0.329
-638.638	-128.267	0.021	0.003
-637.624	-200.000	0.070	-0.356
-636.609	-41.012	0.278	-0.144
-635.595	35.238	-0.100	0.088
-634.580	-141.100	-0.182	-0.019
-633.565	-176.030	-0.161	-0.004
-632.551	-36.287	0.558	-0.303
-631.536	-73.858	0.143	-0.052
-630.522	363.812	-0.047	-0.096
-629.507	119.310	0.182	-0.226
-628.492	-57.883	-0.135	0.059
-627.478	108.104	0.228	-0.273
-626.463	-200.000	0.020	0.271
-625.449	-50.072	-0.176	0.084
-624.434	45.529	-0.096	-0.089
-623.419	-200.000	-0.042	-0.192
-622.405	-75.565	-0.248	0.088
-621.390	82.180	0.200	-0.218
-620.376	800.000	-0.048	0.153
-619.361	-20.176	0.216	-0.134
-618.346	33.855	-0.286	0.250
-617.332	33.545	0.188	0.164
-616.317	102.901	-0.147	0.173
-615.303	-133.911	-0.239	0.030
-614.288	-200.000	0.021	0.223
-613.273	800.000	0.017	-0.047
-612.259	63.749	0.132	-0.133
-611.244	-200.000	-0.086	0.521
-610.230	-115.733	0.212	-0.040
-609.215	403.121	0.086	-0.182
-608.201	-106.327	-0.212	0.048
-607.186	-79.399	-0.256	-0.087
-606.171	64.199	0.102	0.103
-605.157	-181.106	-0.171	0.003
-604.142	268.944	0.066	-0.116
-603.128	239.788	0.108	-0.180
-602.113	15.044	0.077	-0.061
-601.098	800.000	-0.032	0.137
-600.084	216.526	-0.086	-0.137
-599.069	-200.000	-0.004	0.118
-598.055	225.081	-0.117	-0.190
-597.040	25.688	0.099	0.083
-596.025	-95.728	-0.187	-0.050
-595.011	-93.887	0.058	0.016
-593.996	-200.000	0.032	-0.338
-592.982	800.000	0.051	0.145
-591.967	5.466	-0.082	-0.061
-590.952	-8.097	-0.334	0.226
-589.938	-96.848	0.140	-0.037
-588.923	-38.332	-0.246	0.131
-587.909	-200.000	-0.006	-0.031
-586.894	-90.854	-0.052	0.015
-585.879	162.752	-0.066	0.092
-584.865	-200.000	-0.058	-0.254
-583.850	-76.285	0.327	0.116
-582.836	-64.954	0.122	0.050
-581.821	800.000	-0.089	-0.248
-580.806	206.051	0.043	-0.068
-579.792	-157.482	0.124	-0.007
-578.777	800.000	-0.060	-0.196
-577.763	-12.909	-0.227	-0.148
-576.748	-137.992	-0.223	-0.025
-575.733	252.423	0.101	-0.172
-574.719	-200.000	0.010	-0.074
-573.704	-117.826	-0.133	0.024
-572.690	800.000	-0.073	-0.254
-571.675	-117.108	0.321	0.059
-570.661	61.378	-0.088	0.088
-569.646	167.710	-0.066	-0.094
-568.631	150.907	-0.058	0.080
-567.617	82.339	-0.060	-0.065
-566.602	-200.000	-0.012	0.128
-565.588	-64.177	0.239	-0.098
-564.573	-98.611	-0.103	-0.026
-563.558	-200.000	-0.014	-0.186
-562.544	-57.968	0.071	0.031
-561.529	446.646	-0.088	-0.194
-560.515	154.456	-0.083	-0.115
-559.500	72.255	0.151	-0.158
-558.485	37.640	-0.205	-0.182
-557.471	-148.635	-0.409	-0.033
-556.456	-18.126	-0.041	0.026
-555.442	222.982	0.137	-0.221
-554.427	213.321	0.122	0.193
-553.412	-151.304	-0.128	-0.010
-552.398	-114.033	0.103	0.020
-551.383	-38.927	0.166	0.087
-550.369	-200.000	-0.008	0.156
-549.354	-15.638	-0.098	-0.063
-548.339	37.291	0.214	-0.190
-547.325	-11.764	0.085	-0.056
-546.310	-107.191	0.167	0.037
-545.296	-111.152	0.161	0.033
-544.281	254.514	-0.141	0.243
-543.266	-77.937	-0.094	0.033
-542.252	800.000	0.066	-0.285
-541.237	-200.000	-0.095	0.420
-540.223	-21.018	0.196	0.120
-539.208	-200.000	0.035	-0.227
-538.193	800.000	0.020	-0.078
-537.179	-73.450	-0.308	-0.113
-536.164	-200.000	0.030	-0.279
-535.150	800.000	-0.123	0.373
-534.135	-200.000	0.024	0.335
-533.121	22.041	-0.230	-0.188
-532.106	-16.435	0.376	-0.238
-531.091	41.650	0.045	-0.040
-530.077	80.609	0.133	-0.143
-529.062	-138.869	0.041	-0.004
-528.048	223.162	-0.145	-0.235
-527.033	588.905	0.076	0.187
-526.018	-125.961	-0.157	-0.024
-525.004	-200.000	0.010	-0.179
-523.989	-200.000	0.007	-0.090
-522.975	-106.748	-0.240	0.053
-521.960	142.203	0.072	-0.096
-520.945	48.984	-0.079	0.074
-519.931	-200.000	0.105	-0.468
-518.916	-200.000	0.020	0.129
-517.902	253.502	0.086	0.147
-516.887	800.000	-0.053	0.150
-515.872	-200.000	0.004	-0.116
-514.858	-80.357	-0.216	0.072
-513.843	-200.000	0.009	-0.431
-512.829	-20.183	0.070	-0.043
-511.814	-38.702	-0.149	0.079
-510.799	93.920	-0.221	0.250
-509.785	495.000	-0.123	0.282
-508.770	-200.000	-0.057	-0.251
-507.756	1.465	0.208	0.150
-506.741	65.120	0.155	0.157
-505.726	-200.000	0.076	0.345
-504.712	-122.040	0.158	0.026
-503.697	1.826	0.249	0.179
-502.683	800.000	0.078	0.229
-501.668	-88.931	-0.034	0.010
-500.653	58.989	-0.305	-0.300
-499.639	8.379	-0.090	0.067
-498.624	800.000	0.031	-0.111
-497.610	-6.533	-0.080	-0.054
-496.595	-200.000	0.037	-0.394
-495.581	323.792	-0.058	0.110
-494.566	400.441	-0.047	-0.098
-493.551	800.000	-0.083	-0.338
-492.537	115.636	-0.059	-0.072
-491.522	333.209	0.122	-0.235
-490.508	15.555	-0.103	-0.081
-489.493	370.049	-0.090	0.182
-488.478	-130.554	-0.141	-0.019
-487.464	10.077	-0.123	0.093
-486.449	29.267	-0.254	0.216
-485.435	95.637	0.074	0.084
-484.420	65.740	0.075	0.076
-483.405	-177.590	-0.159	0.004
-482.391	56.789	-0.197	-0.192
-481.376	451.577	0.081	0.179
-480.362	165.867	0.173	-0.244
-479.347	800.000	-0.038	-0.148
-478.332	214.245	0.053	-0.083
-477.318	-80.061	-0.235	-0.079
-476.303	202.296	-0.073	-0.113
-475.289	53.672	-0.080	-0.077
-474.274	338.468	-0.094	0.183
-473.259	375.542	0.140	0.285
-472.245	138.822	0.242	0.318
-471.230	268.167	0.161	-0.282
-470.216	-137.710	-0.390	-0.044
-469.201	-94.514	-0.172	-0.047
-468.186	-117.211	0.200	0.036
-467.172	50.705	0.201	0.190
-466.157	65.898	-0.255	0.258
-465.143	-200.000	0.010	-0.057
-464.128	-113.558	-0.520	-0.102
-463.113	-172.944	-0.162	-0.005
-462.099	85.837	0.210	0.231
-461.084	88.450	0.075	0.083
-460.070	-200.000	0.011	-0.145
-459.055	25.638	-0.140	0.117
-458.040	286.189	-0.092	-0.166
-457.026	-85.348	-0.399	-0.124
-456.011	50.916	-0.039	0.037
-454.997	77.928	0.186	-0.198
-453.982	-200.000	-0.002	0.047
-452.968	800.000	0.051	0.175
-451.953	-169.066	-0.284	-0.011
-450.938	17.336	-0.213	0.169
-449.924	-80.410	0.114	-0.038
-448.909	-33.620	0.165	0.091
-447.895	292.079	0.091	-0.166
-446.880	-26.643	0.225	-0.132
-445.865	-200.000	0.043	-0.205
-444.851	60.383	-0.170	-0.168
-443.836	-4.023	-0.142	0.099
-442.822	68.120	-0.041	-0.042
-441.807	409.215	0.071	-0.150
-440.792	50.839	-0.127	0.120
-439.778	-160.829	0.483	0.025
-438.763	137.380	0.133	-0.174
-437.749	-200.000	-0.005	0.133
-436.734	-45.614	-0.133	-0.066
-435.719	-200.000	-0.019	0.129
-434.705	101.617	0.068	-0.079
-433.690	-10.664	0.197	-0.130
-432.676	741.452	-0.040	-0.108
-431.661	742.545	-0.039	0.106
-430.646	-200.000	0.010	-0.056
-429.632	666.170	0.083	0.215
-428.617	-26.070	0.213	-0.125
-427.603	206.170	-0.212	-0.329
-426.588	-75.923	0.152	-0.054
-425.573	-84.945	-0.101	-0.032
-424.559	-200.000	0.007	0.078
-423.544	-200.000	0.073	-0.392
-422.530	800.000	-0.059	-0.182
-421.515	207.045	-0.122	-0.189
-420.500	-200.000	0.046	-0.395
-419.486	-62.752	0.274	-0.113
-418.471	225.422	0.193	-0.311
-417.457	41.051	-0.089	-0.080
-416.442	-90.931	-0.134	-0.039
-415.428	59.709	0.168	0.165
-414.413	-200.000	-0.027	0.126
-413.398	-132.064	0.260	0.034
-412.384	702.926	0.097	0.254
-411.369	800.000	-0.020	-0.059
-410.355	388.390	-0.155	0.319
-409.340	-105.795	0.347	-0.078
-408.325	81.475	0.040	-0.043
-407.311	110.548	0.194	0.232
-406.296	-26.229	-0.094	-0.055
-405.282	-122.487	0.287	-0.046
-404.267	467.975	0.209	-0.466
-403.252	-200.000	-0.021	-0.310
-402.238	-12.533	0.444	0.288
-401.223	-95.906	-0.186	0.049
-400.209	17.468	0.295	0.234
-399.194	154.093	-0.317	0.433
-398.179	800.000	0.131	-0.366
-397.165	102.042	0.130	-0.151
-396.150	410.031	-0.082	0.173
-395.136	800.000	-0.043	0.161
-394.121	346.238	-0.065	-0.127
-393.106	-200.000	0.033	0.182
-392.092	800.000	0.055	-0.195
-391.077	-75.026	-0.113	0.040
-390.063	-200.000	-0.004	-0.111
-389.048	-200.000	0.226	0.001
-388.033	-31.992	0.189	0.105
-387.019	102.972	-0.230	0.268
-386.004	-11.903	0.290	0.189
-384.990	26.334	-0.195	-0.162
-383.975	-33.966	-0.052	-0.029
-382.960	49.543	0.143	0.134
-381.946	221.102	-0.167	-0.266
-380.931	-52.949	-0.261	0.120
-379.917	-116.234	0.073	-0.013
-378.902	-41.715	0.271	-0.139
-377.888	-113.092	-0.355	-0.070
-376.873	353.240	0.046	0.091
-375.858	800.000	-0.015	-0.043
-374.844	-51.986	0.233	0.108
-373.829	-148.817	0.140	0.011
-372.815	16.391	0.181	-0.142
-371.800	720.106	0.087	-0.231
-370.785	800.000	-0.082	0.286
-369.771	211.695	-0.102	-0.160
-368.756	255.259	0.232	0.395
-367.742	328.241	-0.186	0.356
-366.727	82.455	-0.165	0.178
-365.712	-62.171	-0.237	-0.098
-364.698	-29.718	0.163	-0.092
-363.683	306.792	0.012	0.022
-362.669	20.383	0.096	0.078
-361.654	-122.455	-0.156	0.025
-360.639	300.771	-0.101	-0.186
-359.625	-16.961	0.216	-0.135
-358.610	-200.000	0.074	0.362
-357.596	132.618	-0.077	0.098
-356.581	800.000	0.062	0.187
-355.566	-118.387	-0.116	-0.020
-354.552	144.012	0.166	0.220
-353.537	-170.464	-0.098	-0.003
-352.523	-98.097	-0.219	0.056
-351.508	-200.000	0.027	0.169
-350.493	-78.730	-0.231	0.078
-349.479	95.540	-0.075	0.086
-348.464	312.565	-0.091	-0.169
-347.450	-200.000	0.053	0.496
-346.435	77.795	-0.195	0.206
-345.420	-100.672	0.323	0.079
-344.406	-93.344	0.169	0.047
-343.391	301.293	0.105	-0.193
-342.377	641.124	0.080	-0.203
-341.362	148.074	0.081	0.108
-340.348	-21.096	0.398	-0.242
-339.333	84.657	0.187	0.204
-338.318	-130.573	0.286	-0.038
-337.304	-200.000	-0.035	0.244
-336.289	-200.000	-0.007	0.257
-335.275	353.389	-0.085	-0.168
-334.260	800.000	0.081	-0.259
-333.245	737.771	0.196	-0.522
-332.231	-72.238	0.366	-0.135
-331.216	437.133	-0.137	-0.296
-330.202	-49.184	-0.181	0.086
-329.187	-142.972	0.214	0.021
-328.172	-200.000	-0.026	0.212
-327.158	-200.000	0.038	-0.506
-326.143	-200.000	0.007	0.187
-325.129	21.537	-0.144	0.117
-324.114	-140.697	0.183	0.019
-323.099	-16.178	0.169	0.107
-322.085	643.720	-0.098	0.247
-321.070	647.128	0.083	-0.210
-320.056	-200.000	-0.047	0.358
-319.041	491.706	0.127	0.288
-318.026	-1.380	0.080	-0.056
-317.012	20.669	0.039	-0.032
-315.997	-200.000	0.015	0.343
-314.983	7.925	0.125	-0.093
-313.968	-200.000	0.018	-0.233
-312.953	65.905	0.113	0.113
-311.939	-70.837	0.324	-0.121
-310.924	495.839	0.112	0.255
-309.910	-41.774	-0.178	0.091
-308.895	143.257	-0.194	0.256
-307.880	-143.665	0.136	-0.013
-306.866	-94.991	0.252	-0.068
-305.851	48.555	-0.123	0.115
-304.837	-52.302	-0.524	-0.241
-303.822	-9.030	-0.164	0.109
-302.807	-169.824	-0.188	0.007
-301.793	22.893	-0.248	0.202
-300.778	800.000	0.031	0.112
-299.764	-25.427	-0.376	0.221
-298.749	-200.000	-0.046	-0.208
-297.735	-200.000	-0.025	0.138
-296.720	-200.000	-0.024	0.196
-295.705	800.000	0.034	0.107
-294.691	800.000	-0.060	0.245
-293.676	-29.482	-0.361	0.205
-292.662	38.612	-0.223	0.197
-291.647	-200.000	0.013	-0.178
-290.632	-55.038	-0.317	-0.141
-289.618	103.619	0.141	0.164
-288.603	-93.590	0.294	-0.081
-287.589	313.348	-0.110	-0.205
-286.574	-44.496	-0.062	-0.031
-285.559	800.000	-0.089	-0.355
-284.545	-79.289	0.173	-0.058
-283.530	-139.699	0.244	-0.026
-282.516	145.755	-0.154	-0.205
-281.501	-200.000	-0.026	-0.168
-280.486	21.309	0.227	0.183
-279.472	800.000	0.055	0.177
-278.457	-143.116	-0.113	0.011
-277.443	275.865	0.218	-0.384
-276.428	-200.000	-0.016	-0.130
-275.413	800.000	0.022	-0.081
-274.399	384.786	-0.127	-0.259
-273.384	34.985	-0.216	-0.188
-272.370	345.895	-0.158	0.307
-271.355	-200.000	-0.001	0.167
-270.340	-200.000	-0.083	0.365
-269.326	203.937	0.117	-0.180
-268.311	135.570	0.025	0.032
-267.297	149.755	-0.054	-0.072
-266.282	589.035	0.113	0.275
-265.267	178.451	0.181	0.262
-264.253	-80.049	-0.129	-0.043
-263.238	-59.140	0.071	-0.030
-262.224	800.000	0.170	-0.469
-261.209	358.343	0.112	-0.222
-260.195	451.151	0.049	-0.106
-259.180	800.000	-0.084	0.246
-258.165	-43.859	0.140	0.070
-257.151	-67.900	-0.259	0.100
-256.136	-200.000	0.021	0.370
-255.122	-28.473	-0.187	0.107
-254.107	-200.000	-0.027	0.182
-253.092	800.000	-0.029	0.088
-252.078	138.431	0.085	0.111
-251.063	-200.000	-0.097	0.583
-250.049	-200.000	-0.026	-0.188
-249.034	-18.814	0.071	-0.044
-248.019	-44.732	-0.442	-0.218
-247.005	800.000	0.077	0.230
-245.990	-56.206	-0.184	0.081
-244.976	65.777	0.147	0.148
-243.961	-200.000	-0.007	-0.305
-242.946	448.939	0.063	0.137
-241.932	210.433	0.133	0.207
-240.917	-58.240	-0.462	-0.199
-239.903	-97.924	0.386	-0.099
-238.888	764.053	0.067	-0.180
-237.873	433.046	0.104	0.224
-236.859	45.517	-0.207	0.189
-235.844	-24.768	0.057	0.033
-234.830	18.513	-0.151	0.120
-233.815	44.771	-0.139	0.127
-232.800	276.474	0.133	0.234
-231.786	14.361	0.200	0.155
-230.771	75.988	0.135	0.141
-229.757	-122.911	0.543	0.087
-228.742	170.024	0.147	-0.208
-227.727	-73.355	0.025	0.009
-226.713	-100.365	0.215	-0.053
-225.698	80.858	-0.154	-0.164
-224.684	134.638	0.246	-0.316
-223.669	453.765	0.030	0.067
-222.655	32.633	-0.218	0.186
-221.640	39.332	-0.174	0.154
-220.625	-80.826	-0.017	0.006
-219.611	-102.620	-0.263	0.062
-218.596	738.336	0.060	-0.159
-217.582	-200.000	0.021	-0.149
-216.567	65.319	-0.198	-0.198
-215.552	800.000	0.126	0.357
-214.538	579.818	0.070	-0.169
-213.523	800.000	-0.067	0.277
-212.509	-200.000	0.006	-0.180
-211.494	-10.815	0.104	0.068
-210.479	-23.993	0.271	-0.160
-209.465	-200.000	-0.009	0.530
-208.450	29.909	-0.210	0.177
-207.436	497.130	0.073	0.167
-206.421	253.095	0.120	-0.202
-205.406	79.665	-0.353	0.375
-204.392	-142.468	-0.145	-0.014
-203.377	-117.305	-0.068	0.012
-202.363	-27.058	0.111	-0.064
-201.348	11.084	-0.105	-0.079
-200.333	-100.561	0.114	0.028
-199.319	297.910	0.081	-0.147
-198.304	-29.195	-0.133	-0.075
-197.290	-200.000	0.055	-0.269
-196.275	-2.572	0.064	0.044
-195.260	-200.000	0.009	0.450
-194.246	-105.140	-0.165	-0.037
-193.231	-137.315	-0.254	-0.028
-192.217	-86.669	0.240	-0.073
-191.202	-3.196	0.201	0.139
-190.187	800.000	0.052	-0.191
-189.173	20.550	-0.184	0.147
-188.158	151.358	-0.105	-0.141
-187.144	-20.001	-0.273	0.167
-186.129	800.000	-0.087	0.240
-185.114	381.488	-0.099	-0.201
-184.100	115.374	0.243	0.294
-183.085	-200.000	-0.016	0.279
-182.071	511.572	-0.089	-0.205
-181.056	555.169	-0.125	0.298
-180.042	-200.000	0.011	-0.058
-179.027	-93.563	-0.144	-0.039
-178.012	-136.801	-0.163	0.018
-176.998	224.311	-0.067	-0.107
-175.983	-145.474	-0.096	0.009
-174.969	21.043	-0.088	0.070
-173.954	98.984	0.038	-0.044
-172.939	-200.000	0.008	0.110
-171.925	-66.641	0.243	-0.095
-170.910	-33.022	0.076	0.042
-169.896	-120.569	0.094	-0.016
-168.881	-67.300	-0.270	-0.105
-167.866	-145.705	0.033	-0.003
-166.852	125.704	0.129	-0.161
-165.837	800.000	-0.040	-0.142
-164.823	14.410	-0.106	-0.082
-163.808	-103.546	-0.470	0.109
-162.793	423.447	0.043	0.091
-161.779	14.882	0.118	-0.091
-160.764	760.128	0.058	-0.156
-159.750	235.815	0.120	0.195
-158.735	-200.000	0.038	-0.169
-157.720	84.701	0.218	0.236
-156.706	-200.000	-0.034	-0.217
-155.691	84.902	-0.176	-0.190
-154.677	-117.082	-0.185	-0.033
-153.662	800.000	0.155	-0.576
-152.647	-16.845	-0.286	-0.178
-151.633	800.000	0.072	-0.295
-150.618	329.778	-0.257	0.488
-149.604	-200.000	0.003	-0.250
-148.589	390.385	0.135	0.276
-147.574	255.857	0.209	0.354
-146.560	-189.680	0.352	-0.004
-145.545	800.000	-0.073	0.297
-144.531	-200.000	-0.003	0.320
-143.516	-173.966	-0.075	0.002
-142.502	-200.000	0.011	0.206
-141.487	-200.000	0.016	0.080
-140.472	4.944	0.101	-0.073
-139.458	-200.000	-0.022	-0.106
-138.443	-172.630	-0.159	0.005
-137.429	-200.000	0.032	0.222
-136.414	-34.770	-0.241	0.130
-135.399	105.310	-0.186	-0.216
-134.385	800.000	-0.057	0.208
-133.370	-115.407	-0.449	0.083
-132.356	-20.301	-0.237	-0.144
-131.341	46.431	-0.118	0.108
-130.326	-200.000	0.033	0.296
-129.312	-78.396	0.406	0.137
-128.297	800.000	-0.051	-0.188
-127.283	-63.587	0.299	-0.121
-126.268	100.995	-0.037	-0.043
-125.253	482.172	0.212	0.475
-124.239	679.527	0.106	0.272
-123.224	-144.628	-0.178	-0.016
-122.210	-200.000	0.011	0.120
-121.195	80.458	-0.172	0.182
