DTS Sentinel unit serial number:	SN413079Multiplexer serial number:	ORYXHardware model number:	OX4-SRSoftware version number:	ORYX F/W v4.00 Oryx Data Collector v3.7.2.0data status	okinstallation	princeton_trtdifferential loss correction	single-endedforward channel	channel 2reverse channel	N/Adate	2019/09/14time	21:19:35forward acquisition time	60.00reverse acquisition time	0.00gamma	496.2192k internal	0.2323k external	0.2323temperature offset calibration	1.0079default loss term (dB/km)	0.3790temperature slope calibration	1.0000multiplexer offset coefficient	1.0000multiplexer slope coefficient	1.0000fibre end	0.00T internal ref (°C)	32.95T ext. ref 1 (°C)	4.79T ext. ref 2 (°C)	27.77length (m)	temperature (°C)	Stokes	anti-Stokes-747.200	-14.075	0.398	0.259
-746.185	-200.000	0.001	0.112
-745.171	-176.147	0.212	-0.006
-744.156	-200.000	0.014	0.204
-743.142	-128.623	0.111	0.016
-742.127	796.791	0.065	0.181
-741.112	-98.464	-0.425	-0.110
-740.098	556.177	0.135	0.328
-739.083	-139.241	0.244	-0.027
-738.069	58.915	-0.215	0.213
-737.054	-134.201	0.144	-0.018
-736.039	90.701	-0.040	0.045
-735.025	-65.862	0.164	-0.066
-734.010	-200.000	-0.053	-0.383
-732.996	800.000	-0.089	-0.287
-731.981	79.513	0.082	-0.088
-730.966	95.916	0.151	-0.175
-729.952	165.712	-0.199	-0.284
-728.937	115.183	-0.225	-0.277
-727.923	-58.326	-0.328	-0.144
-726.908	-15.972	-0.152	-0.098
-725.894	-98.730	0.110	0.028
-724.879	-200.000	-0.001	-0.451
-723.864	-89.606	-0.125	-0.037
-722.850	22.083	0.104	0.086
-721.835	-200.000	0.038	0.244
-720.821	353.166	0.089	-0.179
-719.806	393.841	-0.059	-0.125
-718.791	-127.463	-0.366	-0.054
-717.777	-57.735	-0.271	-0.119
-716.762	-59.753	-0.348	0.150
-715.748	-72.971	0.395	0.146
-714.733	721.083	-0.078	-0.210
-713.718	-200.000	-0.014	0.235
-712.704	-37.723	0.213	0.114
-711.689	67.963	0.092	-0.095
-710.675	-86.051	-0.018	0.006
-709.660	-7.411	0.374	-0.256
-708.645	74.905	0.203	-0.216
-707.631	-66.545	-0.094	-0.037
-706.616	-82.703	-0.090	0.030
-705.602	-94.808	-0.267	0.073
-704.587	-19.214	-0.120	0.075
-703.572	-39.118	0.219	-0.116
-702.558	-200.000	-0.013	-0.085
-701.543	144.635	-0.135	0.182
-700.529	-200.000	-0.037	0.388
-699.514	-73.298	-0.081	-0.030
-698.499	-101.917	-0.226	-0.055
-697.485	-200.000	-0.018	0.124
-696.470	73.976	0.279	-0.295
-695.456	225.672	0.134	-0.219
-694.441	-200.000	-0.004	0.072
-693.426	-176.805	0.095	0.002
-692.412	-200.000	0.095	0.423
-691.397	-200.000	-0.016	-0.318
-690.383	-101.826	-0.159	-0.039
-689.368	25.552	-0.218	0.183
-688.354	-200.000	0.024	0.186
-687.339	561.574	-0.100	-0.243
-686.324	34.332	0.130	-0.114
-685.310	-10.151	-0.253	-0.169
-684.295	-143.804	-0.159	-0.015
-683.281	800.000	-0.049	-0.158
-682.266	396.524	0.153	-0.321
-681.251	800.000	0.114	0.412
-680.237	800.000	-0.101	-0.304
-679.222	22.971	-0.022	-0.018
-678.208	800.000	0.087	0.244
-677.193	-200.000	0.029	-0.277
-676.178	14.469	-0.138	-0.109
-675.164	-126.934	-0.192	0.028
-674.149	317.397	0.101	-0.192
-673.135	9.628	0.213	-0.163
-672.120	-127.936	-0.271	-0.039
-671.105	-6.538	-0.210	0.144
-670.091	144.826	0.203	-0.273
-669.076	104.447	0.136	-0.162
-668.062	767.717	0.094	-0.258
-667.047	-200.000	0.011	0.215
-666.032	157.498	-0.093	0.130
-665.018	-200.000	-0.053	0.308
-664.003	-77.443	-0.298	0.104
-662.989	800.000	0.055	-0.230
-661.974	3.072	0.187	0.137
-660.959	103.693	-0.035	-0.041
-659.945	-72.855	-0.200	-0.074
-658.930	342.858	-0.105	0.206
-657.916	419.112	-0.089	-0.191
-656.901	58.994	0.153	0.151
-655.886	-75.460	0.233	-0.083
-654.872	-37.230	-0.111	-0.060
-653.857	-75.160	-0.336	0.121
-652.843	48.855	-0.119	0.112
-651.828	11.266	-0.184	-0.142
-650.814	-137.693	-0.355	0.040
-649.799	-142.829	0.027	0.003
-648.784	-200.000	0.011	0.215
-647.770	800.000	0.112	-0.328
-646.755	72.425	-0.151	-0.158
-645.741	77.021	-0.344	-0.367
-644.726	-200.000	-0.002	0.084
-643.711	247.056	0.126	0.214
-642.697	-200.000	-0.023	0.162
-641.682	-200.000	0.009	0.060
-640.668	455.442	0.019	0.043
-639.653	-200.000	0.028	-0.156
-638.638	121.749	0.161	0.202
-637.624	-97.984	-0.165	0.043
-636.609	-22.692	-0.114	0.069
-635.595	-29.291	0.223	-0.128
-634.580	583.580	-0.061	-0.149
-633.565	-200.000	-0.034	0.210
-632.551	-135.710	0.221	0.026
-631.536	-200.000	0.056	-0.278
-630.522	-116.442	-0.140	0.026
-629.507	192.243	0.256	0.388
-628.492	0.646	0.278	-0.200
-627.478	-119.663	-0.237	0.041
-626.463	-78.683	0.290	-0.100
-625.449	-200.000	0.020	-0.099
-624.434	98.702	0.124	0.144
-623.419	-81.228	0.392	0.130
-622.405	75.984	0.157	-0.166
-621.390	-115.697	-0.378	-0.071
-620.376	-93.153	-0.124	0.035
-619.361	-55.402	0.305	-0.138
-618.346	2.102	0.219	0.159
-617.332	-200.000	-0.106	0.485
-616.317	-18.035	0.200	0.126
-615.303	-117.237	-0.274	-0.050
-614.288	-29.665	0.282	0.162
-613.273	800.000	-0.042	0.167
-612.259	110.402	0.247	0.298
-611.244	-59.236	0.071	0.031
-610.230	43.227	-0.311	0.285
-609.215	-120.502	-0.048	0.008
-608.201	-200.000	-0.016	-0.180
-607.186	69.859	-0.090	-0.094
-606.171	-147.738	0.093	-0.008
-605.157	-200.000	0.000	0.044
-604.142	-200.000	0.025	-0.242
-603.128	800.000	0.034	0.103
-602.113	85.031	0.290	0.319
-601.098	800.000	0.088	0.363
-600.084	-5.663	0.178	-0.122
-599.069	85.555	-0.099	-0.109
-598.055	-200.000	-0.002	0.040
-597.040	-143.785	0.223	-0.021
-596.025	135.479	-0.238	0.311
-595.011	-145.506	0.341	0.031
-593.996	410.654	0.132	-0.281
-592.982	-128.907	-0.097	0.014
-591.967	-119.244	-0.278	-0.049
-590.952	-35.542	0.231	-0.126
-589.938	-30.581	-0.074	-0.042
-588.923	-105.265	-0.175	0.040
-587.909	-67.794	-0.287	0.113
-586.894	428.513	0.011	0.023
-585.879	164.923	0.227	-0.321
-584.865	780.664	0.041	-0.112
-583.850	163.025	-0.256	0.361
-582.836	-103.984	-0.025	0.006
-581.821	-200.000	0.001	-0.089
-580.806	222.902	-0.035	0.056
-579.792	-200.000	-0.018	-0.296
-578.777	13.493	-0.218	-0.169
-577.763	-38.419	0.207	0.110
-576.748	-200.000	-0.021	-0.142
-575.733	-72.706	0.495	-0.183
-574.719	123.231	-0.224	-0.281
-573.704	-85.169	-0.251	-0.079
-572.690	-99.678	-0.054	0.014
-571.675	13.191	-0.091	-0.071
-570.661	80.174	0.340	-0.367
-569.646	-138.420	-0.121	-0.013
-568.631	-198.816	-0.297	0.002
-567.617	-200.000	-0.025	-0.213
-566.602	800.000	0.043	0.147
-565.588	138.014	-0.104	-0.137
-564.573	-169.361	0.076	-0.003
-563.558	-12.151	0.078	-0.051
-562.544	-0.967	0.178	0.126
-561.529	-200.000	-0.011	0.169
-560.515	-200.000	-0.001	-0.064
-559.500	17.500	-0.052	-0.042
-558.485	178.058	-0.221	-0.323
-557.471	-200.000	-0.016	0.187
-556.456	35.126	0.103	0.091
-555.442	-70.526	0.195	-0.074
-554.427	-27.587	0.155	0.090
-553.412	-200.000	0.035	0.199
-552.398	20.196	-0.102	-0.082
-551.383	558.737	0.011	0.025
-550.369	39.120	0.216	-0.194
-549.354	-200.000	0.004	-0.217
-548.339	-59.719	0.353	-0.152
-547.325	127.970	-0.094	-0.119
-546.310	103.734	0.255	0.300
-545.296	6.995	-0.371	-0.277
-544.281	34.011	-0.040	0.035
-543.266	-34.159	-0.131	0.072
-542.252	162.185	0.071	-0.100
-541.237	16.620	0.097	0.077
-540.223	-91.318	0.119	0.034
-539.208	-114.099	-0.452	0.088
-538.193	168.669	0.082	0.116
-537.179	-200.000	-0.001	-0.200
-536.164	-107.921	0.041	0.009
-535.150	45.883	-0.120	0.111
-534.135	182.200	0.032	0.048
-533.121	65.742	-0.104	0.105
-532.106	151.250	0.256	0.349
-531.091	579.019	-0.078	0.192
-530.077	41.486	0.076	0.069
-529.062	-86.808	0.142	-0.043
-528.048	-5.364	-0.212	-0.146
-527.033	543.289	0.044	-0.106
-526.018	-26.073	0.265	-0.156
-525.004	-48.852	-0.198	-0.095
-523.989	202.310	-0.149	0.230
-522.975	-46.541	-0.018	0.009
-521.960	-71.610	-0.293	0.110
-520.945	-195.406	-0.450	0.003
-519.931	-182.470	0.257	-0.005
-518.916	112.195	0.079	0.096
-517.902	41.832	0.098	-0.089
-516.887	-200.000	0.003	0.079
-515.872	54.620	-0.199	0.192
-514.858	55.246	-0.095	-0.092
-513.843	-200.000	0.081	-0.413
-512.829	68.616	0.048	-0.049
-511.814	-78.120	0.335	0.115
-510.799	-106.650	0.259	0.058
-509.785	-23.456	0.180	0.108
-508.770	79.647	0.175	0.188
-507.756	-114.692	0.067	0.013
-506.741	647.555	0.072	-0.184
-505.726	-27.254	0.100	0.058
-504.712	800.000	0.020	0.077
-503.697	-71.589	0.161	-0.060
-502.683	145.256	-0.054	0.073
-501.668	-187.592	-0.057	0.001
-500.653	26.314	-0.212	0.177
-499.639	-78.117	0.243	0.084
-498.624	-200.000	-0.009	0.195
-497.610	118.172	-0.261	0.322
-496.595	18.203	0.153	0.122
-495.581	-81.440	-0.155	0.051
-494.566	-111.378	-0.153	0.031
-493.551	-31.609	0.110	0.062
-492.537	-30.909	0.355	0.201
-491.522	-200.000	-0.091	0.416
-490.508	-42.466	0.448	-0.229
-489.493	-108.308	0.203	0.044
-488.478	-200.000	-0.003	-0.165
-487.464	-200.000	-0.018	0.199
-486.449	-200.000	0.109	-0.483
-485.435	178.650	-0.058	0.085
-484.420	-130.414	0.109	-0.015
-483.405	800.000	0.107	0.305
-482.391	-200.000	-0.006	-0.066
-481.376	-200.000	-0.004	-0.044
-480.362	359.040	-0.043	-0.086
-479.347	-192.402	-0.112	0.001
-478.332	-200.000	-0.036	-0.216
-477.318	-200.000	0.025	-0.222
-476.303	54.436	0.145	0.139
-475.289	800.000	-0.056	-0.243
-474.274	-109.601	0.110	-0.023
-473.259	33.329	-0.172	-0.149
-472.245	-200.000	0.019	0.318
-471.230	800.000	-0.054	0.214
-470.216	771.129	0.062	0.169
-469.201	357.433	0.040	-0.079
-468.186	-159.546	-0.049	0.003
-467.172	-200.000	-0.024	-0.188
-466.157	-78.120	-0.264	-0.091
-465.143	-200.000	-0.013	-0.057
-464.128	198.633	0.217	-0.332
-463.113	236.106	0.076	-0.125
-462.099	264.130	-0.099	0.173
-461.084	-185.460	0.330	-0.005
-460.070	-96.633	0.172	0.045
-459.055	-194.920	0.422	-0.003
-458.040	-155.889	-0.101	0.006
-457.026	-123.860	-0.342	-0.054
-456.011	-138.664	0.264	-0.029
-454.997	344.244	-0.057	0.112
-453.982	246.855	0.014	-0.023
-452.968	800.000	-0.080	-0.291
-451.953	-200.000	0.001	-0.030
-450.938	69.635	0.182	-0.187
-449.924	71.963	0.098	0.102
-448.909	253.568	-0.040	-0.069
-447.895	-17.225	0.226	0.142
-446.880	5.237	0.133	0.098
-445.865	-145.514	0.350	0.031
-444.851	-200.000	0.012	-0.211
-443.836	-115.205	-0.388	-0.073
-442.822	208.997	-0.066	0.104
-441.807	163.826	-0.169	0.237
-440.792	-200.000	-0.018	0.178
-439.778	-0.926	0.227	0.160
-438.763	-127.467	-0.081	-0.012
-437.749	47.631	-0.091	0.085
-436.734	-18.430	-0.129	0.081
-435.719	-87.531	-0.322	-0.097
-434.705	475.848	0.168	0.380
-433.690	-11.614	0.153	0.100
-432.676	-83.372	-0.158	0.050
-431.661	-200.000	-0.009	-0.088
-430.646	800.000	-0.099	-0.278
-429.632	442.328	-0.148	0.324
-428.617	-184.463	-0.366	0.006
-427.603	560.653	-0.149	0.359
-426.588	571.367	-0.110	-0.268
-425.573	308.203	0.088	0.164
-424.559	29.697	-0.235	-0.199
-423.544	-113.912	0.162	0.031
-422.530	287.278	0.153	0.276
-421.515	-3.864	0.200	0.138
-420.500	-48.884	-0.430	-0.205
-419.486	-200.000	0.013	0.141
-418.471	-135.519	0.377	-0.045
-417.457	-200.000	0.003	-0.172
-416.442	96.518	0.172	0.197
-415.428	555.988	0.107	0.256
-414.413	-7.209	0.031	-0.021
-413.398	42.419	-0.188	-0.170
-412.384	-82.891	0.317	-0.102
-411.369	-60.167	0.321	-0.137
-410.355	-109.889	0.104	0.022
-409.340	-18.118	-0.119	-0.074
-408.325	-50.535	0.295	-0.138
-407.311	162.526	-0.034	0.048
-406.296	-177.818	0.186	0.004
-405.282	46.815	-0.141	0.131
-404.267	-200.000	-0.031	-0.407
-403.252	-72.535	0.140	0.052
-402.238	-3.666	0.282	-0.195
-401.223	150.886	-0.167	-0.226
-400.209	-124.684	-0.208	0.032
-399.194	-56.857	0.270	0.119
-398.179	-74.613	-0.205	-0.074
-397.165	-87.012	-0.296	-0.090
-396.150	-200.000	-0.002	-0.056
-395.136	-103.543	-0.328	0.077
-394.121	-60.468	-0.156	0.066
-393.106	-49.874	0.164	-0.077
-392.092	-200.000	-0.050	-0.307
-391.077	636.519	0.001	-0.003
-390.063	141.426	-0.042	-0.055
-389.048	-160.169	0.210	-0.011
-388.033	110.381	-0.226	0.270
-387.019	-200.000	-0.019	-0.134
-386.004	145.241	0.073	-0.097
-384.990	-200.000	0.011	0.110
-383.975	800.000	0.103	0.353
-382.960	800.000	-0.010	-0.039
-381.946	-32.173	0.150	0.084
-380.931	-59.422	0.316	-0.135
-379.917	800.000	0.091	-0.366
-378.902	-175.515	-0.414	-0.011
-377.888	-21.269	-0.145	0.088
-376.873	-67.347	-0.006	-0.002
-375.858	36.331	-0.062	-0.054
-374.844	800.000	0.034	0.096
-373.829	-101.801	-0.101	0.024
-372.815	323.255	-0.058	-0.109
-371.800	-64.950	-0.111	0.045
-370.785	389.853	-0.180	-0.371
-369.771	147.094	-0.099	0.132
-368.756	531.635	0.081	0.190
-367.742	-200.000	-0.039	-0.175
-366.727	64.451	0.090	0.090
-365.712	226.248	0.080	0.129
-364.698	-200.000	0.008	-0.087
-363.683	-200.000	0.031	-0.255
-362.669	57.210	0.088	-0.085
-361.654	-56.880	-0.037	-0.016
-360.639	-200.000	-0.021	0.320
-359.625	800.000	0.047	0.151
-358.610	207.259	-0.080	-0.124
-357.596	-50.499	0.046	-0.022
-356.581	61.707	0.142	-0.141
-355.566	290.075	0.094	0.169
-354.552	800.000	0.031	0.093
-353.537	122.640	0.091	0.114
-352.523	800.000	-0.062	-0.224
-351.508	-200.000	-0.032	0.204
-350.493	194.313	0.115	0.173
-349.479	-20.318	0.068	-0.042
-348.464	-200.000	-0.016	-0.118
-347.450	206.958	-0.147	-0.227
-346.435	-26.696	-0.091	0.053
-345.420	-200.000	0.203	-0.001
-344.406	-154.431	0.150	-0.010
-343.391	-200.000	0.013	-0.360
-342.377	-155.096	-0.416	0.027
-341.362	800.000	-0.149	0.420
-340.348	25.593	0.133	-0.110
-339.333	-19.975	0.054	0.033
-338.318	105.413	0.075	0.088
-337.304	377.405	-0.090	-0.182
-336.289	-89.225	0.249	0.073
-335.275	-143.051	-0.087	0.008
-334.260	-62.038	0.226	-0.094
-333.245	256.084	-0.089	0.152
-332.231	426.411	-0.272	0.582
-331.216	-162.721	-0.259	0.013
-330.202	800.000	0.043	0.174
-329.187	361.806	-0.123	0.245
-328.172	19.289	0.151	0.121
-327.158	-133.257	0.270	0.034
-326.143	432.517	0.076	0.165
-325.129	-200.000	-0.008	-0.212
-324.114	-200.000	0.018	-0.168
-323.099	42.800	-0.277	-0.250
-322.085	714.091	0.083	-0.218
-321.070	365.151	0.170	0.341
-320.056	-200.000	0.026	-0.322
-319.041	800.000	0.043	-0.181
-318.026	249.002	-0.258	-0.434
-317.012	-200.000	0.036	-0.297
-315.997	-47.070	0.380	0.184
-314.983	-55.964	-0.092	0.041
-313.968	-33.331	-0.144	-0.079
-312.953	16.562	-0.141	0.111
-311.939	-200.000	-0.029	-0.283
-310.924	-36.087	-0.250	-0.134
-309.910	-200.000	-0.034	-0.282
-308.895	76.466	-0.100	0.105
-307.880	-200.000	-0.022	-0.152
-306.866	-200.000	0.023	0.107
-305.851	800.000	0.034	-0.096
-304.837	230.282	-0.092	0.149
-303.822	-68.180	0.351	-0.136
-302.807	-170.046	-0.256	0.009
-301.793	-79.140	0.200	-0.067
-300.778	-50.176	-0.174	0.082
-299.764	48.274	0.184	0.171
-298.749	145.191	-0.074	0.098
-297.735	41.621	-0.194	-0.175
-296.720	-200.000	-0.025	-0.157
-295.705	800.000	-0.052	-0.195
-294.691	50.983	0.341	0.321
-293.676	-24.632	0.224	0.132
-292.662	106.003	-0.092	-0.108
-291.647	15.101	-0.130	-0.101
-290.632	-200.000	0.006	-0.347
-289.618	-200.000	-0.010	-0.269
-288.603	-149.570	-0.198	-0.016
-287.589	-200.000	0.035	0.225
-286.574	-121.475	-0.163	0.027
-285.559	61.215	-0.107	0.106
-284.545	-80.635	0.178	0.059
-283.530	-200.000	-0.001	-0.180
-282.516	6.624	-0.139	0.102
-281.501	-200.000	-0.009	-0.129
-280.486	601.806	-0.007	0.016
-279.472	-59.375	-0.324	0.138
-278.457	-71.206	-0.137	0.051
-277.443	128.627	-0.251	-0.317
-276.428	685.088	-0.038	0.097
-275.413	-41.453	-0.317	-0.162
-274.399	157.511	0.197	-0.270
-273.384	-55.534	-0.124	-0.055
-272.370	800.000	-0.120	0.513
-271.355	362.453	-0.112	0.222
-270.340	34.430	-0.147	-0.127
-269.326	118.052	-0.190	0.232
-268.311	-17.637	0.366	-0.228
-267.297	800.000	0.024	-0.084
-266.282	313.158	-0.053	0.099
-265.267	107.012	-0.145	0.171
-264.253	-115.506	0.133	0.025
-263.238	114.644	-0.205	-0.248
-262.224	-42.573	-0.340	-0.172
-261.209	423.513	-0.063	-0.135
-260.195	-97.008	-0.460	0.119
-259.180	-200.000	0.078	0.360
-258.165	70.368	0.124	-0.127
-257.151	-156.370	-0.094	0.006
-256.136	-109.500	0.248	-0.052
-255.122	-113.455	0.447	0.087
-254.107	-59.594	0.181	0.077
-253.092	303.409	0.022	0.040
-252.078	-67.674	-0.340	0.132
-251.063	177.495	-0.020	-0.029
-250.049	-66.129	0.166	0.065
-249.034	800.000	0.056	0.173
-248.019	800.000	0.112	0.450
-247.005	106.788	0.030	-0.035
-245.990	-123.426	0.363	0.057
-244.976	-68.472	0.330	0.127
-243.961	-200.000	0.008	-0.209
-242.946	800.000	-0.054	0.188
-241.932	-172.205	-0.275	-0.009
-240.917	412.186	-0.023	-0.049
-239.903	-150.242	-0.207	0.016
-238.888	-200.000	-0.001	-0.032
-237.873	-84.183	-0.277	0.087
-236.859	-143.020	0.126	0.012
-235.844	-130.179	0.242	0.033
-234.830	-109.882	0.150	-0.031
-233.815	-99.701	-0.237	0.059
-232.800	-89.500	0.289	-0.084
-231.786	161.297	0.109	-0.151
-230.771	-130.742	-0.074	-0.010
-229.757	-107.916	0.467	0.100
-228.742	140.310	-0.034	0.045
-227.727	759.234	-0.049	0.131
-226.713	20.832	-0.256	-0.205
-225.698	25.855	-0.113	-0.093
-224.684	-200.000	0.053	-0.329
-223.669	-100.028	-0.224	0.055
-222.655	-95.307	-0.319	0.085
-221.640	-200.000	0.008	0.155
-220.625	29.970	-0.271	-0.229
-219.611	273.081	0.125	0.218
-218.596	-96.766	-0.271	-0.071
-217.582	-166.620	-0.285	-0.012
-216.567	-200.000	-0.020	-0.122
-215.552	-182.340	-0.242	-0.004
-214.538	-175.693	0.398	0.011
-213.523	-79.675	-0.318	-0.106
-212.509	469.931	-0.085	0.189
-211.494	-133.793	-0.223	0.027
-210.479	-182.864	0.229	0.004
-209.465	-90.494	0.120	0.034
-208.450	-143.502	-0.267	0.025
-207.436	-81.441	0.275	-0.090
-206.421	-55.905	-0.295	-0.130
-205.406	687.195	-0.018	-0.046
-204.392	800.000	-0.021	0.092
-203.377	-3.751	0.300	0.206
-202.363	97.035	0.175	0.198
-201.348	-150.202	-0.362	-0.028
-200.333	-93.143	-0.173	0.048
-199.319	-200.000	-0.032	-0.292
-198.304	-63.323	0.109	0.044
-197.290	-113.475	0.035	0.007
-196.275	15.288	-0.182	-0.141
-195.260	-200.000	-0.062	-0.372
-194.246	-200.000	0.038	-0.166
-193.231	-33.441	0.283	0.155
-192.217	113.714	-0.072	0.086
-191.202	289.583	-0.075	0.135
-190.187	-103.750	-0.378	0.088
-189.173	13.634	0.349	0.268
-188.158	-200.000	-0.006	0.247
-187.144	-200.000	-0.003	0.525
-186.129	174.924	-0.078	-0.112
-185.114	48.908	-0.211	-0.195
-184.100	-96.608	-0.210	-0.055
-183.085	238.113	0.065	-0.106
-182.071	-11.575	0.078	0.051
-181.056	504.007	-0.139	-0.318
-180.042	418.554	-0.126	-0.266
-179.027	25.508	0.164	-0.135
-178.012	3.201	0.154	0.111
-176.998	-121.454	0.224	-0.037
-175.983	-156.099	0.222	-0.014
-174.969	-200.000	-0.007	-0.039
-173.954	-179.640	0.397	0.009
-172.939	-113.081	-0.260	-0.051
-171.925	216.351	0.024	0.037
-170.910	740.835	-0.058	-0.154
-169.896	147.084	-0.296	-0.393
-168.881	-39.296	-0.037	0.019
-167.866	800.000	0.084	0.315
-166.852	-200.000	0.006	-0.115
-165.837	273.078	-0.260	-0.454
-164.823	-80.234	0.415	-0.137
-163.808	11.130	0.143	-0.108
-162.793	-200.000	0.032	-0.146
-161.779	744.466	0.050	0.132
-160.764	22.493	-0.106	0.086
-159.750	423.293	0.093	0.197
-158.735	-63.714	-0.185	-0.075
-157.720	-178.803	0.043	-0.001
-156.706	18.960	-0.045	0.036
-155.691	-59.075	-0.252	0.107
-154.677	-147.718	0.129	-0.011
-153.662	-193.650	-0.238	-0.002
-152.647	-22.850	-0.240	0.143
-151.633	258.719	-0.225	0.382
-150.618	29.970	0.309	0.260
-149.604	-95.564	0.165	-0.044
-148.589	-64.014	0.332	0.134
-147.574	-132.005	-0.148	-0.019
-146.560	-143.913	0.080	-0.007
-145.545	-200.000	-0.058	-0.277
-144.531	-135.115	0.180	0.021
-143.516	-42.447	0.127	-0.064
-142.502	800.000	-0.052	-0.200
-141.487	107.612	0.147	0.173
-140.472	-133.036	-0.268	0.034
-139.458	-153.174	0.010	0.001
-138.443	800.000	0.040	0.118
-137.429	-62.637	-0.264	0.108
-136.414	96.097	0.055	-0.062
-135.399	93.016	-0.059	0.066
-134.385	-93.331	0.133	0.036
-133.370	759.994	0.054	-0.143
-132.356	-159.432	-0.364	0.020
-131.341	49.947	0.213	-0.198
-130.326	453.380	0.129	-0.281
-129.312	-200.000	-0.019	-0.168
-128.297	763.655	0.160	0.429
-127.283	21.637	0.112	0.090
-126.268	-122.753	0.219	0.035
-125.253	585.915	0.054	0.131
-124.239	129.003	-0.221	-0.278
-123.224	58.587	0.185	0.179
-122.210	112.139	-0.078	0.092
