DTS Sentinel unit serial number:	SN413079Multiplexer serial number:	ORYXHardware model number:	OX4-SRSoftware version number:	ORYX F/W v4.00 Oryx Data Collector v3.7.2.0data status	okinstallation	princeton_trtdifferential loss correction	single-endedforward channel	channel 2reverse channel	N/Adate	2019/09/11time	22:41:11forward acquisition time	60.00reverse acquisition time	0.00gamma	496.2192k internal	0.2325k external	0.2325temperature offset calibration	1.0075default loss term (dB/km)	0.3790temperature slope calibration	1.0000multiplexer offset coefficient	1.0000multiplexer slope coefficient	1.0000fibre end	0.00T internal ref (°C)	34.89T ext. ref 1 (°C)	1.77T ext. ref 2 (°C)	28.84length (m)	temperature (°C)	Stokes	anti-Stokes-747.200	120.570	0.050	-0.063
-746.185	-35.064	-0.210	0.116
-745.171	-200.000	-0.023	-0.187
-744.156	-140.371	-0.104	-0.011
-743.142	-118.832	0.312	0.055
-742.127	800.000	0.042	-0.138
-741.112	14.145	0.268	0.211
-740.098	16.479	-0.200	0.160
-739.083	192.431	-0.009	0.014
-738.069	53.843	-0.266	0.258
-737.054	-200.000	-0.025	-0.132
-736.039	-151.743	-0.450	0.033
-735.025	47.279	0.229	0.216
-734.010	205.886	-0.163	-0.256
-732.996	-127.521	-0.485	-0.071
-731.981	169.288	-0.056	0.081
-730.966	800.000	-0.058	-0.205
-729.952	33.219	0.081	-0.070
-728.937	-46.269	0.307	-0.152
-727.923	-46.013	0.306	0.152
-726.908	95.499	0.132	-0.151
-725.894	-92.728	-0.149	-0.042
-724.879	59.944	0.094	0.094
-723.864	264.578	0.222	-0.389
-722.850	-109.316	-0.055	0.012
-721.835	716.586	-0.110	-0.295
-720.821	125.773	0.129	0.165
-719.806	-11.063	-0.296	0.197
-718.791	-125.341	-0.160	-0.025
-717.777	-200.000	-0.014	0.093
-716.762	-109.800	-0.055	-0.012
-715.748	-84.684	0.564	-0.179
-714.733	800.000	-0.064	0.180
-713.718	-43.775	0.106	-0.054
-712.704	-200.000	0.004	-0.206
-711.689	205.358	-0.177	-0.276
-710.675	778.098	0.070	-0.193
-709.660	-133.391	0.108	0.014
-708.645	-180.668	-0.319	-0.007
-707.631	252.458	0.119	0.204
-706.616	-200.000	0.042	0.317
-705.602	-27.460	0.050	0.029
-704.587	-200.000	-0.031	0.161
-703.572	-98.893	0.284	-0.073
-702.558	-42.042	-0.210	0.108
-701.543	-200.000	-0.081	-0.412
-700.529	-200.000	-0.007	0.418
-699.514	-200.000	0.000	0.213
-698.499	26.743	0.114	0.097
-697.485	-29.163	-0.392	-0.227
-696.470	91.947	0.089	-0.101
-695.456	-75.567	-0.250	0.089
-694.441	223.570	0.037	-0.060
-693.426	114.250	0.039	0.048
-692.412	147.843	0.175	0.237
-691.397	45.590	-0.180	-0.167
-690.383	-138.876	-0.097	-0.011
-689.368	230.511	-0.243	0.400
-688.354	-85.033	0.129	-0.041
-687.339	-32.079	-0.124	-0.070
-686.324	33.228	-0.204	0.178
-685.310	-23.348	-0.057	0.035
-684.295	-25.381	0.141	-0.084
-683.281	21.307	0.069	0.056
-682.266	254.482	0.045	-0.078
-681.251	800.000	0.042	0.126
-680.237	-52.555	0.215	0.100
-679.222	800.000	-0.050	-0.176
-678.208	-9.167	-0.231	0.156
-677.193	-200.000	-0.241	-0.001
-676.178	-75.312	-0.164	0.059
-675.164	-13.262	0.079	0.052
-674.149	32.287	-0.300	0.260
-673.135	238.176	0.137	0.229
-672.120	-44.710	-0.302	0.152
-671.105	-15.868	0.173	0.111
-670.091	226.933	-0.193	0.315
-669.076	33.922	-0.064	0.056
-668.062	160.299	-0.155	-0.217
-667.047	-129.529	-0.195	0.027
-666.032	28.481	-0.195	-0.166
-665.018	61.130	0.138	-0.138
-664.003	-173.220	0.200	-0.006
-662.989	800.000	-0.118	-0.362
-661.974	347.125	0.099	-0.196
-660.959	465.436	0.172	-0.388
-659.945	-200.000	-0.007	0.140
-658.930	-15.437	-0.082	0.053
-657.916	-126.237	-0.225	0.034
-656.901	800.000	0.064	-0.180
-655.886	102.721	-0.148	0.174
-654.872	-145.671	-0.279	0.025
-653.857	-135.705	-0.322	-0.038
-652.843	-200.000	0.014	-0.089
-651.828	-5.006	0.386	0.267
-650.814	-200.000	0.017	0.313
-649.799	675.717	0.118	-0.308
-648.784	13.565	-0.186	-0.145
-647.770	-121.659	-0.282	-0.047
-646.755	-123.093	-0.177	-0.029
-645.741	-100.492	-0.285	-0.071
-644.726	-200.000	-0.006	0.036
-643.711	-15.645	-0.258	-0.165
-642.697	-4.902	0.332	-0.230
-641.682	-200.000	0.037	0.391
-640.668	89.524	0.104	-0.117
-639.653	-120.346	0.234	-0.040
-638.638	135.916	0.024	-0.031
-637.624	-139.845	-0.265	0.028
-636.609	-200.000	0.018	0.168
-635.595	144.308	-0.109	-0.147
-634.580	-167.281	0.070	0.003
-633.565	-50.017	0.134	0.064
-632.551	426.226	0.072	0.156
-631.536	-200.000	-0.008	0.257
-630.522	-58.004	0.397	-0.174
-629.507	-200.000	-0.074	-0.338
-628.492	-78.221	-0.281	-0.097
-627.478	-200.000	0.011	0.106
-626.463	-83.645	-0.146	-0.047
-625.449	-20.367	-0.085	0.053
-624.434	-13.849	-0.180	0.117
-623.419	-165.026	0.247	-0.011
-622.405	-200.000	0.016	-0.128
-621.390	8.708	-0.339	0.256
-620.376	-200.000	0.026	0.118
-619.361	78.807	-0.053	-0.057
-618.346	800.000	-0.037	0.137
-617.332	-97.396	0.136	0.035
-616.317	-46.143	-0.286	-0.141
-615.303	78.304	0.159	-0.170
-614.288	83.099	0.199	0.218
-613.273	453.983	-0.157	0.349
-612.259	182.522	0.073	0.108
-611.244	434.132	0.104	0.226
-610.230	18.457	0.176	-0.141
-609.215	74.919	-0.237	-0.251
-608.201	24.448	-0.157	0.130
-607.186	93.571	0.045	-0.051
-606.171	-200.000	0.011	-0.165
-605.157	-46.780	-0.122	0.060
-604.142	687.412	0.076	-0.200
-603.128	108.624	0.080	-0.096
-602.113	169.368	0.121	-0.174
-601.098	315.161	-0.068	-0.128
-600.084	300.140	0.059	-0.110
-599.069	-166.636	0.290	-0.012
-598.055	800.000	-0.033	-0.119
-597.040	-200.000	-0.024	0.124
-596.025	-52.260	-0.381	-0.177
-595.011	-200.000	-0.053	-0.265
-593.996	-19.480	-0.028	-0.018
-592.982	800.000	-0.068	-0.217
-591.967	434.496	0.112	0.244
-590.952	-200.000	0.026	0.148
-589.938	296.143	0.114	0.210
-588.923	800.000	0.053	-0.161
-587.909	-200.000	0.069	0.370
-586.894	-92.066	-0.089	-0.025
-585.879	-107.028	-0.246	-0.054
-584.865	800.000	-0.037	0.119
-583.850	-84.855	-0.091	0.029
-582.836	-0.283	-0.244	-0.174
-581.821	800.000	-0.053	-0.210
-580.806	-112.026	0.393	0.079
-579.792	20.064	-0.114	0.092
-578.777	298.118	-0.076	0.140
-577.763	-181.870	-0.451	0.009
-576.748	-89.063	-0.084	0.025
-575.733	-109.603	-0.174	0.037
-574.719	-181.941	-0.294	0.006
-573.704	-200.000	0.044	-0.280
-572.690	419.985	-0.092	-0.197
-571.675	-66.693	0.083	-0.033
-570.661	800.000	0.067	0.265
-569.646	8.841	0.117	0.088
-568.631	-150.859	-0.080	0.006
-567.617	-200.000	0.006	-0.156
-566.602	67.164	0.263	0.269
-565.588	62.954	-0.089	0.089
-564.573	119.151	0.091	0.113
-563.558	-200.000	0.025	-0.190
-562.544	82.156	-0.219	-0.238
-561.529	3.044	-0.296	-0.216
-560.515	800.000	0.077	0.268
-559.500	-75.881	0.193	0.068
-558.485	266.246	0.069	-0.120
-557.471	-50.608	-0.192	0.090
-556.456	-102.328	-0.291	-0.070
-555.442	73.409	0.150	-0.158
-554.427	14.620	-0.132	-0.103
-553.412	-77.939	-0.046	-0.016
-552.398	-143.740	-0.338	0.032
-551.383	-115.292	-0.197	-0.037
-550.369	416.146	0.106	0.226
-549.354	-51.502	-0.244	0.114
-548.339	-94.268	-0.106	-0.029
-547.325	128.315	0.156	0.199
-546.310	254.076	0.097	-0.167
-545.296	235.868	0.161	-0.266
-544.281	-200.000	0.009	0.072
-543.266	-95.959	0.258	-0.069
-542.252	-200.000	-0.012	0.254
-541.237	800.000	0.079	-0.253
-540.223	176.423	-0.085	-0.124
-539.208	800.000	-0.048	0.208
-538.193	-200.000	0.047	0.322
-537.179	55.565	-0.171	-0.166
-536.164	-110.363	0.174	-0.036
-535.150	-200.000	0.009	0.144
-534.135	-200.000	-0.005	-0.173
-533.121	-76.235	0.235	-0.083
-532.106	-163.620	0.029	-0.001
-531.091	-156.882	0.496	0.030
-530.077	-27.972	0.153	-0.089
-529.062	196.936	-0.163	0.248
-528.048	259.410	0.025	0.043
-527.033	-122.431	0.331	-0.054
-526.018	216.434	0.084	0.133
-525.004	250.778	-0.168	0.285
-523.989	-39.430	0.243	-0.128
-522.975	-14.025	0.377	0.244
-521.960	-200.000	0.032	0.345
-520.945	758.242	0.085	0.230
-519.931	60.191	-0.167	0.165
-518.916	45.434	-0.090	-0.083
-517.902	-172.108	-0.293	0.009
-516.887	-3.137	-0.410	-0.286
-515.872	-47.313	-0.211	-0.103
-514.858	116.299	-0.072	0.089
-513.843	200.650	-0.247	-0.380
-512.829	-24.677	-0.110	-0.065
-511.814	-200.000	0.002	0.106
-510.799	-147.313	-0.133	-0.011
-509.785	56.082	-0.228	0.221
-508.770	-66.092	0.084	-0.033
-507.756	-195.760	0.262	0.002
-506.741	800.000	-0.050	0.149
-505.726	59.152	-0.079	-0.078
-504.712	-122.469	0.134	-0.022
-503.697	-3.914	0.270	-0.187
-502.683	800.000	-0.059	0.182
-501.668	-133.750	0.127	0.016
-500.653	219.613	0.165	-0.264
-499.639	21.121	-0.187	-0.151
-498.624	-44.090	-0.098	-0.049
-497.610	187.732	0.049	0.073
-496.595	-200.000	-0.056	-0.260
-495.581	-63.567	0.107	-0.044
-494.566	-111.663	-0.137	0.028
-493.551	-25.808	0.201	0.119
-492.537	24.747	-0.108	0.089
-491.522	685.032	-0.058	0.150
-490.508	262.048	0.120	-0.207
-489.493	-137.907	-0.135	0.015
-488.478	71.600	0.106	-0.110
-487.464	-147.090	0.402	-0.034
-486.449	800.000	-0.011	-0.042
-485.435	125.228	0.140	-0.177
-484.420	2.777	-0.181	-0.131
-483.405	61.544	-0.170	0.169
-482.391	-81.097	-0.095	-0.031
-481.376	-200.000	0.014	0.209
-480.362	38.613	0.177	-0.158
-479.347	-200.000	0.001	-0.025
-478.332	44.633	-0.032	-0.029
-477.318	415.197	0.088	-0.187
-476.303	-200.000	0.030	0.267
-475.289	-150.410	0.344	0.026
-474.274	-200.000	0.033	-0.297
-473.259	97.209	0.132	0.151
-472.245	-75.136	0.186	-0.066
-471.230	-145.566	-0.301	-0.027
-470.216	-200.000	-0.032	0.270
-469.201	-72.144	0.157	-0.058
-468.186	-99.052	0.085	0.021
-467.172	183.559	0.053	0.078
-466.157	-200.000	-0.044	-0.233
-465.143	-41.767	0.166	-0.085
-464.128	338.745	-0.068	-0.131
-463.113	118.338	0.169	0.207
-462.099	14.937	0.205	-0.160
-461.084	-75.701	0.082	0.029
-460.070	114.169	-0.157	0.191
-459.055	106.037	-0.247	-0.292
-458.040	-200.000	-0.027	0.217
-457.026	-55.839	-0.126	-0.056
-456.011	-70.675	-0.170	0.064
-454.997	-200.000	-0.012	0.246
-453.982	-168.178	-0.245	-0.009
-452.968	531.380	0.169	-0.399
-451.953	800.000	-0.030	-0.092
-450.938	-148.209	-0.231	-0.019
-449.924	358.490	-0.132	-0.263
-448.909	201.604	-0.213	-0.328
-447.895	-200.000	0.007	-0.079
-446.880	-36.599	-0.158	0.085
-445.865	374.131	0.040	-0.082
-444.851	-88.539	0.302	-0.090
-443.836	660.940	0.092	-0.237
-442.822	-200.000	-0.027	0.199
-441.807	43.444	-0.135	-0.123
-440.792	-187.819	0.019	0.000
-439.778	762.832	-0.061	-0.164
-438.763	-72.495	-0.174	0.064
-437.749	27.303	0.256	0.214
-436.734	-200.000	0.024	0.119
-435.719	-86.010	0.219	-0.067
-434.705	101.623	-0.044	0.051
-433.690	42.858	0.220	0.200
-432.676	-200.000	0.017	0.127
-431.661	593.863	-0.056	0.138
-430.646	800.000	0.072	0.256
-429.632	800.000	-0.083	0.302
-428.617	42.384	-0.295	-0.268
-427.603	-200.000	-0.015	0.087
-426.588	-111.858	-0.184	-0.037
-425.573	800.000	0.040	-0.134
-424.559	-1.236	-0.187	-0.132
-423.544	-115.687	-0.390	0.073
-422.530	-28.874	0.279	-0.160
-421.515	32.944	0.427	-0.369
-420.500	-39.614	0.159	0.083
-419.486	-200.000	0.001	-0.124
-418.471	-126.996	-0.287	0.042
-417.457	800.000	-0.020	-0.085
-416.442	800.000	-0.091	-0.348
-415.428	-200.000	-0.048	0.486
-414.413	30.282	-0.231	0.196
-413.398	-200.000	0.020	0.110
-412.384	-65.798	-0.253	-0.101
-411.369	-200.000	-0.021	0.180
-410.355	-94.245	0.113	0.031
-409.340	341.056	0.039	0.076
-408.325	29.843	0.069	0.059
-407.311	204.364	-0.057	0.088
-406.296	82.999	0.149	0.161
-405.282	-200.000	0.014	0.127
-404.267	800.000	0.034	0.101
-403.252	31.088	0.289	-0.247
-402.238	-94.574	0.386	0.105
-401.223	-170.087	-0.324	0.011
-400.209	-161.610	0.319	0.016
-399.194	-63.156	0.342	-0.140
-398.179	-200.000	0.017	0.329
-397.165	-200.000	-0.023	-0.109
-396.150	-89.960	-0.042	-0.012
-395.136	175.072	0.199	-0.287
-394.121	-200.000	-0.049	-0.267
-393.106	-159.038	0.229	-0.013
-392.092	-139.987	0.169	-0.018
-391.077	322.768	0.178	-0.337
-390.063	348.462	0.184	-0.361
-389.048	-57.518	-0.318	0.139
-388.033	-115.499	-0.333	0.062
-387.019	-82.496	0.183	0.059
-386.004	-106.470	0.242	-0.054
-384.990	53.375	0.118	0.113
-383.975	800.000	-0.044	-0.145
-382.960	30.999	-0.077	-0.066
-381.946	-97.729	0.208	0.054
-380.931	60.732	-0.324	0.320
-379.917	-111.367	-0.097	0.020
-378.902	800.000	0.039	0.109
-377.888	82.482	0.244	0.264
-376.873	118.577	0.112	0.138
-375.858	-200.000	0.010	0.105
-374.844	723.605	-0.083	-0.220
-373.829	-98.153	0.087	0.022
-372.815	132.191	-0.161	-0.206
-371.800	-109.681	-0.366	-0.077
-370.785	34.529	0.226	-0.196
-369.771	2.488	-0.211	-0.152
-368.756	-200.000	-0.063	0.400
-367.742	246.329	0.181	0.303
-366.727	-12.686	-0.130	0.084
-365.712	55.892	0.182	-0.176
-364.698	125.895	0.245	0.307
-363.683	-200.000	0.006	0.387
-362.669	-87.027	0.171	0.052
-361.654	-200.000	-0.038	0.262
-360.639	425.708	-0.115	0.246
-359.625	120.279	-0.160	-0.197
-358.610	163.761	0.202	-0.282
-357.596	800.000	0.048	-0.207
-356.581	-0.643	0.317	0.224
-355.566	-200.000	-0.022	0.106
-354.552	-200.000	-0.026	-0.282
-353.537	489.262	0.049	0.111
-352.523	3.540	0.163	-0.118
-351.508	533.103	0.045	-0.105
-350.493	35.302	-0.213	-0.186
-349.479	-6.357	-0.249	-0.169
-348.464	-200.000	-0.018	0.222
-347.450	800.000	-0.056	0.217
-346.435	-200.000	-0.006	0.205
-345.420	748.184	0.102	-0.274
-344.406	345.268	-0.081	-0.158
-343.391	-35.085	-0.173	-0.094
-342.377	220.542	-0.115	-0.183
-341.362	-109.057	-0.261	-0.055
-340.348	227.534	0.065	-0.105
-339.333	8.466	0.221	-0.165
-338.318	-60.640	-0.192	-0.081
-337.304	-85.683	-0.361	0.111
-336.289	377.793	-0.101	0.204
-335.275	249.557	-0.116	0.195
-334.260	307.987	-0.128	0.238
-333.245	-1.265	0.183	0.129
-332.231	565.680	0.076	-0.183
-331.216	-140.432	-0.086	0.009
-330.202	-126.548	-0.278	-0.041
-329.187	-121.241	0.501	0.083
-328.172	800.000	-0.045	0.180
-327.158	800.000	0.082	-0.307
-326.143	225.150	-0.046	0.074
-325.129	-160.749	0.230	0.012
-324.114	152.506	-0.077	-0.104
-323.099	-200.000	-0.008	-0.196
-322.085	-87.574	0.039	0.012
-321.070	445.227	0.071	0.155
-320.056	-3.030	-0.146	0.101
-319.041	46.803	-0.129	-0.119
-318.026	800.000	-0.012	0.039
-317.012	38.103	0.135	0.119
-315.997	56.505	-0.074	-0.071
-314.983	-57.030	0.091	0.040
-313.968	23.465	0.236	-0.193
-312.953	111.936	0.149	-0.178
-311.939	-36.524	0.089	-0.048
-310.924	-200.000	0.019	-0.103
-309.910	-79.659	0.033	-0.011
-308.895	-200.000	-0.041	0.341
-307.880	-98.133	-0.073	-0.019
-306.866	-74.742	-0.210	-0.075
-305.851	-200.000	0.430	-0.002
-304.837	-30.505	0.076	-0.043
-303.822	-117.290	-0.092	-0.017
-302.807	-50.791	0.213	0.099
-301.793	-200.000	-0.002	0.083
-300.778	-48.444	-0.232	-0.111
-299.764	-200.000	-0.010	0.104
-298.749	125.160	0.156	0.195
-297.735	218.754	0.149	0.236
-296.720	-200.000	0.039	0.233
-295.705	-200.000	0.039	0.187
-294.691	-94.936	0.117	-0.032
-293.676	-89.855	0.079	-0.023
-292.662	-119.207	0.168	0.029
-291.647	217.280	-0.116	-0.183
-290.632	-34.870	-0.028	0.015
-289.618	800.000	0.051	-0.203
-288.603	-200.000	-0.010	-0.131
-287.589	-57.867	0.088	-0.038
-286.574	-200.000	-0.013	-0.068
-285.559	-104.752	0.178	-0.041
-284.545	37.998	-0.205	-0.180
-283.530	-36.882	0.163	0.087
-282.516	-99.892	0.007	0.002
-281.501	-13.712	-0.201	0.129
-280.486	30.517	0.101	-0.086
-279.472	62.290	-0.124	0.123
-278.457	174.828	-0.149	-0.214
-277.443	232.598	0.162	0.263
-276.428	276.244	-0.095	-0.168
-275.413	175.791	0.098	-0.141
-274.399	-36.462	-0.075	-0.040
-273.384	-49.011	0.073	-0.034
-272.370	800.000	0.028	0.084
-271.355	-62.337	-0.247	0.102
-270.340	315.910	0.116	-0.217
-269.326	800.000	0.069	-0.196
-268.311	1.351	-0.246	0.175
-267.297	172.865	-0.212	-0.303
-266.282	-139.216	0.206	-0.022
-265.267	564.791	0.078	-0.188
-264.253	-200.000	0.074	0.407
-263.238	15.116	-0.247	0.192
-262.224	-66.432	0.149	-0.059
-261.209	-133.811	0.337	-0.042
-260.195	288.220	-0.036	0.065
-259.180	-25.370	-0.444	0.260
-258.165	800.000	-0.032	-0.134
-257.151	-200.000	-0.034	0.334
-256.136	-200.000	0.003	-0.153
-255.122	102.874	0.165	0.192
-254.107	-113.835	0.166	-0.032
-253.092	-200.000	0.004	0.039
-252.078	-200.000	-0.011	-0.161
-251.063	43.697	0.269	0.244
-250.049	-200.000	-0.036	0.168
-249.034	-200.000	-0.049	-0.298
-248.019	120.427	-0.016	-0.019
-247.005	9.929	-0.155	-0.116
-245.990	403.543	0.208	-0.433
-244.976	-200.000	0.012	0.221
-243.961	68.623	0.239	0.243
-242.946	295.014	0.042	0.076
-241.932	-6.009	-0.210	0.142
-240.917	502.047	0.091	-0.207
-239.903	800.000	-0.027	-0.087
-238.888	800.000	0.014	-0.049
-237.873	-200.000	-0.031	0.144
-236.859	-55.336	0.264	0.117
-235.844	41.230	-0.221	-0.198
-234.830	-200.000	-0.023	0.420
-233.815	49.087	-0.247	-0.229
-232.800	115.933	-0.108	-0.131
-231.786	550.872	-0.095	0.226
-230.771	-200.000	-0.038	-0.169
-229.757	-14.935	0.087	0.055
-228.742	122.002	-0.290	0.358
-227.727	-62.971	-0.287	-0.117
-226.713	570.853	-0.067	-0.160
-225.698	475.707	0.088	0.196
-224.684	227.710	-0.236	0.379
-223.669	800.000	-0.063	-0.177
-222.655	37.311	-0.119	0.104
-221.640	-131.108	0.159	-0.021
-220.625	-200.000	-0.004	0.056
-219.611	-200.000	0.008	0.137
-218.596	-129.219	-0.289	0.040
-217.582	-54.747	-0.067	0.030
-216.567	-200.000	-0.012	0.168
-215.552	256.355	0.041	0.070
-214.538	-97.623	-0.322	-0.083
-213.523	88.430	-0.074	0.081
-212.509	-200.000	-0.034	-0.220
-211.494	-105.539	-0.100	0.022
-210.479	-94.638	-0.058	-0.016
-209.465	800.000	-0.058	0.171
-208.450	423.376	0.106	-0.225
-207.436	800.000	0.053	-0.176
-206.421	800.000	0.047	0.150
-205.406	-123.250	0.078	-0.012
-204.392	23.823	0.032	0.026
-203.377	-62.740	0.123	-0.051
-202.363	-200.000	-0.018	-0.190
-201.348	679.081	-0.088	-0.225
-200.333	-200.000	0.002	-0.293
-199.319	800.000	0.049	0.198
-198.304	188.106	-0.070	0.103
-197.290	-126.489	-0.042	0.006
-196.275	-40.013	0.145	0.075
-195.260	193.314	0.117	-0.175
-194.246	243.181	0.263	0.436
-193.231	669.094	0.095	0.243
-192.217	-200.000	0.025	-0.218
-191.202	-148.165	0.316	0.026
-190.187	35.181	-0.106	-0.092
-189.173	-200.000	-0.041	0.250
-188.158	-53.944	-0.253	0.114
-187.144	17.611	-0.072	-0.056
-186.129	-112.424	0.232	-0.046
-185.114	-200.000	-0.073	-0.453
-184.100	435.600	0.144	-0.309
-183.085	625.998	0.146	0.362
-182.071	232.937	-0.172	0.279
-181.056	353.618	0.159	-0.311
-180.042	800.000	-0.053	-0.185
-179.027	234.982	0.049	0.081
-178.012	-152.797	-0.055	-0.004
-176.998	148.190	-0.192	-0.256
-175.983	-93.338	-0.348	-0.095
-174.969	301.038	0.087	-0.158
-173.954	-200.000	-0.009	0.258
-172.939	-200.000	0.073	0.366
-171.925	-200.000	0.012	0.173
-170.910	61.212	0.157	-0.154
-169.896	-37.804	-0.285	0.150
-168.881	-15.583	0.220	0.138
-167.866	115.549	0.198	-0.239
-166.852	-143.617	-0.281	0.026
-165.837	-200.000	-0.015	0.404
-164.823	-150.805	0.091	0.007
-163.808	-60.227	0.509	-0.214
-162.793	99.679	-0.094	-0.107
-161.779	138.387	-0.071	-0.092
-160.764	1.898	0.205	0.146
-159.750	44.784	0.120	-0.109
-158.735	-200.000	0.017	0.252
-157.720	-200.000	-0.030	0.138
-156.706	-200.000	-0.060	-0.276
-155.691	-106.180	0.057	0.013
-154.677	120.843	0.097	-0.118
-153.662	-72.247	0.112	0.041
-152.647	-91.803	-0.379	0.106
-151.633	-42.825	0.353	-0.177
-150.618	4.543	-0.217	0.157
-149.604	-32.683	-0.220	0.121
-148.589	-48.591	0.151	0.072
-147.574	82.871	-0.063	-0.068
-146.560	-5.548	-0.203	0.137
-145.545	595.083	0.018	0.043
-144.531	159.373	-0.199	0.272
-143.516	-200.000	-0.009	0.044
-142.502	-200.000	0.025	0.245
-141.487	-94.622	0.190	-0.051
-140.472	71.037	0.156	0.159
-139.458	55.447	0.073	0.069
-138.443	-148.519	0.322	0.026
-137.429	214.813	0.099	-0.154
-136.414	-75.121	-0.104	-0.037
-135.399	241.269	-0.100	-0.164
-134.385	-170.493	0.448	0.015
-133.370	-184.823	-0.453	-0.007
-132.356	-135.860	0.267	-0.031
-131.341	800.000	-0.064	-0.201
-130.326	-91.193	0.123	0.035
-129.312	113.073	-0.105	0.126
-128.297	80.060	0.088	-0.093
-127.283	-200.000	-0.074	-0.353
-126.268	-200.000	-0.009	-0.061
-125.253	88.277	-0.061	-0.067
-124.239	800.000	0.031	-0.094
-123.224	124.602	-0.051	0.064
-122.210	-112.417	0.121	-0.024
