DTS Sentinel unit serial number:	SN413079Multiplexer serial number:	ORYXHardware model number:	OX4-SRSoftware version number:	ORYX F/W v4.00 Oryx Data Collector v3.7.2.0data status	okinstallation	princeton_trtdifferential loss correction	single-endedforward channel	channel 2reverse channel	N/Adate	2019/09/19time	08:51:35forward acquisition time	60.00reverse acquisition time	0.00gamma	496.2192k internal	0.2353k external	0.2353temperature offset calibration	1.0006default loss term (dB/km)	0.3790temperature slope calibration	1.0000multiplexer offset coefficient	1.0000multiplexer slope coefficient	1.0000fibre end	0.00T internal ref (°C)	21.22T ext. ref 1 (°C)	0.58T ext. ref 2 (°C)	16.92length (m)	temperature (°C)	Stokes	anti-Stokes-747.200	479.452	-0.029	0.066
-746.185	147.521	-0.137	0.184
-745.171	23.197	0.137	0.112
-744.156	-181.614	-0.136	0.003
-743.142	-200.000	-0.077	0.663
-742.127	-60.364	-0.390	-0.165
-741.112	-96.817	-0.311	0.082
-740.098	69.777	-0.028	-0.029
-739.083	24.257	0.117	0.097
-738.069	-200.000	0.068	0.367
-737.054	13.710	-0.009	-0.007
-736.039	280.193	-0.110	-0.197
-735.025	87.781	0.118	-0.130
-734.010	800.000	-0.098	-0.408
-732.996	-107.096	-0.387	-0.085
-731.981	52.959	-0.022	-0.021
-730.966	-83.077	-0.102	-0.033
-729.952	-75.769	-0.223	-0.079
-728.937	800.000	-0.060	-0.172
-727.923	800.000	0.048	0.191
-726.908	5.001	-0.193	-0.142
-725.894	146.928	0.111	-0.149
-724.879	-200.000	0.013	0.109
-723.864	-200.000	-0.021	0.243
-722.850	-135.830	-0.387	-0.046
-721.835	-48.052	0.387	-0.187
-720.821	116.075	-0.324	-0.395
-719.806	264.024	-0.065	0.113
-718.791	77.645	-0.081	0.086
-717.777	-102.757	0.473	0.112
-716.762	516.839	0.080	-0.187
-715.748	800.000	0.047	0.187
-714.733	800.000	0.077	0.328
-713.718	-200.000	-0.040	-0.265
-712.704	-18.589	0.055	0.034
-711.689	381.860	-0.084	0.171
-710.675	-200.000	0.016	0.000
-709.660	196.610	-0.183	-0.278
-708.645	47.196	-0.174	0.162
-707.631	-15.865	-0.139	0.088
-706.616	-3.839	0.066	0.045
-705.602	800.000	-0.038	0.132
-704.587	-200.000	-0.057	0.306
-703.572	547.080	-0.078	-0.185
-702.558	-3.634	-0.189	0.131
-701.543	-177.932	0.410	0.010
-700.529	-80.903	-0.472	-0.156
-699.514	179.857	0.194	-0.283
-698.499	216.215	0.086	-0.137
-697.485	114.837	0.256	0.310
-696.470	61.570	0.152	-0.151
-695.456	122.352	-0.057	0.071
-694.441	659.507	-0.131	0.335
-693.426	800.000	-0.084	-0.318
-692.412	564.153	-0.091	0.220
-691.397	-148.612	-0.298	0.024
-690.383	-122.564	-0.140	-0.023
-689.368	800.000	-0.062	0.214
-688.354	42.750	0.231	-0.209
-687.339	221.617	-0.182	0.292
-686.324	-11.278	0.047	-0.031
-685.310	-57.212	-0.482	0.211
-684.295	-1.869	-0.252	-0.176
-683.281	-177.075	0.579	-0.014
-682.266	-124.503	0.212	-0.033
-681.251	-81.674	-0.412	-0.134
-680.237	372.312	-0.051	-0.103
-679.222	800.000	-0.048	-0.174
-678.208	-164.231	0.111	-0.005
-677.193	-132.435	-0.104	-0.013
-676.178	-1.655	-0.088	-0.062
-675.164	139.839	-0.068	0.089
-674.149	-119.233	0.193	-0.033
-673.135	-196.457	-0.225	-0.002
-672.120	-200.000	-0.020	-0.355
-671.105	-71.536	-0.124	0.046
-670.091	-200.000	-0.057	-0.249
-669.076	-93.562	-0.294	-0.081
-668.062	1.239	0.108	-0.077
-667.047	219.478	-0.125	-0.199
-666.032	150.924	-0.195	-0.263
-665.018	490.453	0.026	0.060
-664.003	-102.058	0.258	0.062
-662.989	-108.078	-0.093	0.020
-661.974	-200.000	0.027	0.184
-660.959	-78.560	-0.079	-0.027
-659.945	77.425	0.199	-0.210
-658.930	-50.129	-0.206	-0.097
-657.916	-200.000	-0.009	-0.066
-656.901	-16.164	-0.132	-0.084
-655.886	98.976	-0.267	-0.306
-654.872	90.320	0.200	-0.222
-653.857	-137.595	0.213	0.024
-652.843	-200.000	0.052	0.295
-651.828	42.697	-0.133	-0.120
-650.814	-101.975	0.145	-0.035
-649.799	-104.764	0.158	0.036
-648.784	-46.564	0.078	0.038
-647.770	-200.000	0.090	0.515
-646.755	241.226	0.140	0.232
-645.741	78.132	-0.135	-0.144
-644.726	-34.819	0.316	0.172
-643.711	650.648	0.116	0.295
-642.697	-174.006	0.062	-0.002
-641.682	-3.181	-0.186	0.129
-640.668	244.967	0.165	-0.276
-639.653	-118.066	0.222	-0.039
-638.638	-10.163	-0.371	0.245
-637.624	-20.570	-0.244	0.149
-636.609	-146.522	0.023	-0.002
-635.595	-118.790	0.082	0.014
-634.580	-200.000	0.031	0.305
-633.565	-32.245	0.154	0.085
-632.551	-57.053	0.061	-0.027
-631.536	-200.000	-0.006	-0.073
-630.522	-200.000	0.043	-0.318
-629.507	800.000	0.039	0.111
-628.492	41.062	-0.097	-0.087
-627.478	-200.000	0.089	0.498
-626.463	225.591	0.108	0.173
-625.449	345.243	0.114	0.222
-624.434	-200.000	-0.011	-0.149
-623.419	-200.000	-0.259	-0.001
-622.405	800.000	0.075	-0.282
-621.390	-50.802	0.154	0.072
-620.376	740.900	0.125	-0.333
-619.361	-200.000	0.059	-0.457
-618.346	-75.907	0.183	0.064
-617.332	-97.515	0.255	0.066
-616.317	61.058	0.051	0.050
-615.303	188.245	0.010	-0.015
-614.288	61.341	0.045	0.044
-613.273	-200.000	-0.022	-0.426
-612.259	-109.339	0.190	-0.040
-611.244	183.912	-0.060	-0.089
-610.230	256.262	0.137	-0.233
-609.215	307.728	0.029	-0.054
-608.201	-200.000	-0.004	-0.106
-607.186	-85.869	-0.180	0.055
-606.171	800.000	-0.025	-0.098
-605.157	69.538	-0.234	-0.239
-604.142	-37.768	-0.092	-0.049
-603.128	88.418	-0.122	-0.135
-602.113	14.510	-0.220	0.170
-601.098	-200.000	-0.030	-0.196
-600.084	69.451	-0.084	0.086
-599.069	-144.249	-0.189	0.017
-598.055	-117.788	0.277	0.049
-597.040	-163.440	0.306	-0.014
-596.025	8.910	-0.159	-0.119
-595.011	800.000	-0.039	-0.166
-593.996	800.000	-0.027	0.085
-592.982	-200.000	-0.055	-0.421
-591.967	133.937	-0.103	-0.132
-590.952	-3.920	-0.200	0.138
-589.938	120.591	0.142	-0.175
-588.923	-200.000	-0.023	0.104
-587.909	-105.622	0.204	0.046
-586.894	213.838	-0.127	-0.199
-585.879	800.000	0.044	-0.135
-584.865	-1.799	0.276	0.192
-583.850	-55.298	0.265	-0.118
-582.836	71.053	-0.099	0.102
-581.821	38.035	-0.241	0.213
-580.806	-113.632	0.168	0.032
-579.792	13.475	-0.169	0.130
-578.777	-31.856	-0.186	0.103
-577.763	-102.693	-0.191	-0.045
-576.748	255.766	-0.097	-0.165
-575.733	399.126	0.107	0.222
-574.719	192.015	0.062	-0.092
-573.704	278.458	-0.095	-0.167
-572.690	267.981	0.086	0.149
-571.675	-70.043	-0.376	-0.142
-570.661	800.000	-0.123	-0.447
-569.646	-103.852	-0.100	0.023
-568.631	-100.221	0.323	0.079
-567.617	770.205	-0.033	0.090
-566.602	178.715	0.127	0.183
-565.588	146.174	0.140	-0.187
-564.573	466.357	0.015	-0.033
-563.558	-200.000	0.005	-0.093
-562.544	-93.615	-0.359	-0.098
-561.529	-33.521	0.176	-0.096
-560.515	301.380	0.103	-0.187
-559.500	-4.278	-0.176	-0.121
-558.485	101.545	-0.059	-0.068
-557.471	-5.261	0.135	0.092
-556.456	7.533	0.263	-0.194
-555.442	148.414	0.208	0.278
-554.427	-32.602	-0.205	0.113
-553.412	611.645	0.084	0.208
-552.398	33.204	-0.242	0.208
-551.383	99.223	0.181	0.207
-550.369	-12.095	-0.228	0.148
-549.354	-200.000	0.017	-0.136
-548.339	4.728	-0.333	0.242
-547.325	-67.541	0.079	-0.031
-546.310	-16.449	0.284	-0.178
-545.296	-115.739	-0.267	-0.049
-544.281	-200.000	-0.039	0.304
-543.266	-47.742	0.133	0.064
-542.252	-41.850	0.235	0.119
-541.237	-200.000	0.016	0.192
-540.223	-200.000	-0.020	0.228
-539.208	-63.103	-0.079	0.032
-538.193	-200.000	-0.035	-0.304
-537.179	-42.082	0.176	-0.089
-536.164	61.535	0.368	-0.362
-535.150	800.000	-0.017	0.057
-534.135	800.000	0.072	-0.259
-533.121	-200.000	-0.386	-0.000
-532.106	23.599	-0.186	0.151
-531.091	70.507	-0.064	0.066
-530.077	-143.368	-0.147	0.014
-529.062	-200.000	-0.027	0.279
-528.048	-200.000	-0.015	-0.179
-527.033	86.335	0.097	-0.105
-526.018	-117.338	0.182	0.033
-525.004	52.675	0.238	-0.224
-523.989	363.306	0.065	0.128
-522.975	-95.030	-0.076	0.020
-521.960	800.000	0.006	-0.019
-520.945	-57.818	0.077	-0.033
-519.931	47.896	-0.301	0.278
-518.916	79.663	-0.124	-0.132
-517.902	-135.122	-0.079	0.009
-516.887	75.632	0.075	-0.078
-515.872	100.504	-0.136	-0.156
-514.858	-200.000	-0.032	-0.254
-513.843	695.698	-0.095	-0.247
-512.829	-81.039	0.193	-0.063
-511.814	-28.468	0.128	-0.073
-510.799	70.872	-0.167	-0.171
-509.785	104.148	0.236	0.274
-508.770	-52.714	-0.081	-0.037
-507.756	-71.412	-0.104	-0.039
-506.741	0.139	0.225	0.158
-505.726	-49.688	-0.256	0.120
-504.712	489.729	-0.025	-0.057
-503.697	78.600	-0.021	0.022
-502.683	-195.238	0.195	0.001
-501.668	31.857	-0.199	-0.169
-500.653	62.949	0.277	0.274
-499.639	93.224	-0.191	-0.213
-498.624	607.730	-0.038	-0.093
-497.610	-160.011	0.122	-0.007
-496.595	163.654	-0.089	0.124
-495.581	-200.000	-0.047	-0.232
-494.566	-200.000	0.009	0.070
-493.551	170.634	-0.144	-0.203
-492.537	-38.450	0.225	-0.117
-491.522	-101.905	-0.211	0.050
-490.508	35.714	-0.088	0.076
-489.493	-174.385	-0.150	0.004
-488.478	-71.394	0.163	-0.060
-487.464	250.458	0.111	0.186
-486.449	-143.007	-0.484	0.046
-485.435	800.000	0.077	-0.248
-484.420	-106.975	0.173	-0.038
-483.405	-97.973	0.069	0.018
-482.391	648.529	0.143	0.361
-481.376	73.065	0.176	0.182
-480.362	-200.000	-0.062	-0.436
-479.347	-11.080	0.150	-0.098
-478.332	235.155	0.223	-0.363
-477.318	-200.000	-0.042	-0.402
-476.303	468.479	-0.115	0.255
-475.289	475.659	-0.087	0.193
-474.274	-200.000	-0.052	0.347
-473.259	800.000	0.043	0.144
-472.245	105.376	-0.061	0.071
-471.230	135.992	0.275	-0.354
-470.216	190.686	0.145	-0.216
-469.201	542.662	0.084	-0.197
-468.186	86.881	0.123	0.134
-467.172	-167.160	-0.310	0.012
-466.157	-200.000	-0.046	0.221
-465.143	800.000	-0.094	-0.307
-464.128	-2.781	0.159	0.109
-463.113	298.795	0.164	0.298
-462.099	-145.116	-0.131	-0.012
-461.084	800.000	-0.033	0.119
-460.070	69.415	0.245	0.249
-459.055	64.215	0.172	0.170
-458.040	28.961	0.022	-0.019
-457.026	-200.000	-0.034	-0.200
-456.011	800.000	-0.133	-0.386
-454.997	-200.000	0.032	0.225
-453.982	21.114	-0.234	-0.187
-452.968	-159.432	-0.150	0.008
-451.953	800.000	-0.034	-0.131
-450.938	355.870	-0.111	-0.217
-449.924	-200.000	-0.007	0.110
-448.909	800.000	-0.058	-0.233
-447.895	220.796	0.075	0.119
-446.880	-200.000	-0.007	0.116
-445.865	104.719	0.144	-0.168
-444.851	68.136	-0.284	0.287
-443.836	-17.365	0.127	0.079
-442.822	800.000	-0.050	0.205
-441.807	-200.000	-0.009	-0.365
-440.792	469.797	0.046	0.103
-439.778	-108.588	-0.084	-0.018
-438.763	800.000	0.035	-0.122
-437.749	-200.000	0.021	0.171
-436.734	-41.035	0.289	0.147
-435.719	-149.244	0.344	0.027
-434.705	-200.000	-0.017	0.112
-433.690	-0.347	-0.165	0.115
-432.676	-101.357	-0.136	0.033
-431.661	422.404	-0.102	0.215
-430.646	-200.000	0.025	0.327
-429.632	742.791	-0.105	0.278
-428.617	63.975	-0.244	0.242
-427.603	-200.000	0.028	-0.264
-426.588	-57.289	-0.046	0.020
-425.573	-145.347	-0.307	0.027
-424.559	-85.480	-0.246	0.075
-423.544	2.272	-0.163	0.116
-422.530	-0.299	0.340	0.238
-421.515	800.000	-0.016	0.060
-420.500	75.939	-0.137	0.142
-419.486	-65.083	0.561	0.223
-418.471	-12.624	-0.081	0.052
-417.457	57.345	0.256	0.246
-416.442	188.694	-0.138	-0.204
-415.428	-87.777	0.156	0.046
-414.413	-76.797	-0.120	-0.041
-413.398	106.802	-0.187	0.218
-412.384	-94.659	0.380	0.102
-411.369	211.018	-0.116	-0.180
-410.355	689.226	-0.078	-0.202
-409.340	-96.249	-0.208	0.054
-408.325	63.249	-0.058	-0.058
-407.311	442.430	-0.131	0.282
-406.296	-72.283	0.327	0.119
-405.282	-32.942	0.054	-0.029
-404.267	-5.901	0.084	-0.056
-403.252	-100.687	-0.065	0.016
-402.238	175.200	-0.055	-0.078
-401.223	88.797	0.074	0.080
-400.209	-60.508	-0.224	-0.094
-399.194	-59.304	-0.133	-0.056
-398.179	315.567	-0.083	0.153
-397.165	101.425	0.171	-0.196
-396.150	19.340	0.053	0.042
-395.136	-200.000	-0.019	-0.174
-394.121	120.520	-0.162	0.199
-393.106	108.915	0.074	-0.086
-392.092	-152.704	0.157	-0.011
-391.077	1.353	0.237	0.167
-390.063	800.000	0.055	-0.149
-389.048	-200.000	-0.029	0.330
-388.033	11.699	0.275	0.207
-387.019	800.000	0.061	-0.203
-386.004	-121.802	-0.310	0.050
-384.990	-102.470	-0.344	-0.081
-383.975	196.231	-0.143	-0.214
-382.960	-200.000	-0.011	-0.272
-381.946	-200.000	0.030	0.234
-380.931	531.458	-0.199	0.463
-379.917	-21.010	-0.217	0.130
-378.902	176.413	-0.179	0.256
-377.888	86.446	0.206	0.224
-376.873	310.210	-0.125	0.230
-375.858	-138.939	-0.269	-0.029
-374.844	-26.891	-0.178	0.102
-373.829	60.188	-0.210	0.204
-372.815	-122.892	0.224	-0.035
-371.800	-200.000	-0.066	0.379
-370.785	-74.341	-0.240	-0.085
-369.771	149.447	0.207	0.276
-368.756	78.699	0.180	0.190
-367.742	-131.906	0.293	-0.038
-366.727	-99.383	-0.293	0.073
-365.712	-143.146	0.118	-0.011
-364.698	11.009	0.324	0.243
-363.683	-150.165	0.020	-0.002
-362.669	-200.000	-0.066	0.425
-361.654	271.287	0.031	0.053
-360.639	-87.317	0.248	-0.074
-359.625	-8.901	0.119	0.078
-358.610	4.630	-0.212	-0.153
-357.596	-36.593	0.313	0.165
-356.581	83.590	-0.213	0.228
-355.566	-200.000	-0.014	-0.256
-354.552	800.000	-0.041	0.147
-353.537	-15.503	0.170	0.107
-352.523	209.707	0.139	-0.215
-351.508	-16.098	-0.233	-0.146
-350.493	20.103	-0.204	-0.162
-349.479	73.270	0.084	0.087
-348.464	-99.824	-0.195	0.048
-347.450	800.000	0.115	0.335
-346.435	-85.294	0.335	0.103
-345.420	-200.000	0.013	-0.133
-344.406	800.000	-0.030	-0.089
-343.391	32.100	0.201	-0.170
-342.377	154.614	-0.202	-0.272
-341.362	-100.094	0.145	0.035
-340.348	800.000	0.060	0.163
-339.333	371.265	-0.067	-0.132
-338.318	100.719	0.152	0.173
-337.304	221.623	-0.065	-0.102
-336.289	45.836	0.243	-0.221
-335.275	-200.000	0.043	-0.510
-334.260	9.143	-0.141	-0.105
-333.245	800.000	0.080	0.273
-332.231	158.188	-0.053	0.072
-331.216	-200.000	-0.038	0.174
-330.202	-29.116	0.028	0.016
-329.187	-63.807	0.278	-0.112
-328.172	-200.000	-0.083	-0.405
-327.158	-200.000	-0.072	0.526
-326.143	800.000	0.158	-0.475
-325.129	332.138	0.125	0.237
-324.114	-134.769	-0.175	0.021
-323.099	-200.000	-0.006	0.554
-322.085	585.448	0.056	0.136
-321.070	655.126	-0.151	-0.379
-320.056	-0.171	0.161	0.112
-319.041	88.563	0.068	0.074
-318.026	126.406	-0.137	-0.170
-317.012	-200.000	-0.022	0.234
-315.997	192.708	0.157	-0.232
-314.983	-28.904	-0.179	-0.101
-313.968	-126.158	0.082	-0.012
-312.953	-136.333	0.148	-0.017
-311.939	763.572	0.036	0.096
-310.924	-88.928	-0.301	0.087
-309.910	225.628	-0.076	-0.121
-308.895	800.000	0.028	-0.090
-307.880	-104.750	-0.416	-0.094
-306.866	-178.771	-0.095	-0.002
-305.851	66.042	-0.353	0.351
-304.837	-113.980	0.332	0.063
-303.822	-20.734	-0.311	-0.187
-302.807	798.010	-0.146	0.396
-301.793	-154.386	-0.189	0.012
-300.778	-200.000	0.043	-0.185
-299.764	-200.000	0.413	-0.001
-298.749	-59.372	0.187	-0.079
-297.735	-81.231	-0.215	0.070
-296.720	25.490	-0.298	-0.243
-295.705	800.000	0.065	0.208
-294.691	-200.000	0.018	0.089
-293.676	-122.744	-0.094	0.015
-292.662	800.000	0.049	-0.176
-291.647	499.621	0.123	0.278
-290.632	800.000	0.046	0.144
-289.618	-27.686	-0.119	0.067
-288.603	-133.445	0.036	0.004
-287.589	-96.228	-0.194	-0.050
-286.574	-200.000	0.022	0.141
-285.559	17.310	-0.302	-0.234
-284.545	-200.000	0.017	-0.244
-283.530	249.266	0.201	-0.334
-282.516	-43.442	-0.397	0.197
-281.501	-50.641	-0.196	0.091
-280.486	-200.000	0.017	-0.074
-279.472	141.855	0.187	0.243
-278.457	-101.691	0.176	0.042
-277.443	8.859	-0.268	-0.198
-276.428	-63.457	-0.196	0.079
-275.413	-102.373	0.186	0.044
-274.399	-112.844	0.155	-0.030
-273.384	-95.962	-0.433	-0.113
-272.370	763.666	0.076	-0.202
-271.355	-200.000	0.047	-0.345
-270.340	511.709	-0.062	-0.140
-269.326	-200.000	0.040	-0.407
-268.311	569.013	-0.050	-0.119
-267.297	-112.501	-0.388	-0.076
-266.282	19.083	-0.169	-0.133
-265.267	102.604	-0.238	0.273
-264.253	0.322	0.216	-0.151
-263.238	-178.118	-0.328	-0.008
-262.224	-200.000	-0.009	-0.079
-261.209	-131.834	0.138	0.018
-260.195	-200.000	0.029	0.194
-259.180	-133.594	-0.298	-0.037
-258.165	-28.517	-0.268	-0.151
-257.151	-200.000	-0.052	-0.324
-256.136	-120.870	0.359	-0.059
-255.122	-123.283	-0.145	-0.023
-254.107	53.481	0.055	-0.052
-253.092	-192.010	0.341	0.003
-252.078	56.761	-0.340	-0.324
-251.063	-200.000	-0.020	0.104
-250.049	-107.462	0.152	-0.033
-249.034	652.585	-0.026	0.066
-248.019	-200.000	-0.018	-0.130
-247.005	-11.602	-0.145	-0.093
-245.990	89.756	-0.375	-0.409
-244.976	-200.000	-0.008	-0.229
-243.961	66.017	-0.110	0.109
-242.946	405.342	0.016	0.034
-241.932	285.402	0.101	-0.178
-240.917	-200.000	-0.004	-0.182
-239.903	182.621	-0.169	-0.244
-238.888	-38.220	-0.161	-0.083
-237.873	-115.197	-0.402	-0.074
-236.859	-105.005	-0.048	0.011
-235.844	-93.485	-0.170	0.046
-234.830	266.090	0.251	0.428
-233.815	103.457	-0.247	0.283
-232.800	-200.000	0.047	0.255
-231.786	-89.345	0.318	-0.092
-230.771	-200.000	0.014	-0.250
-229.757	23.249	0.089	-0.072
-228.742	240.453	-0.121	-0.197
-227.727	-200.000	-0.012	0.178
-226.713	800.000	-0.064	0.211
-225.698	69.114	0.166	-0.167
-224.684	-135.313	-0.126	0.015
-223.669	16.989	0.084	0.065
-222.655	134.866	0.153	-0.194
-221.640	-200.000	-0.060	-0.376
-220.625	-94.016	0.245	0.066
-219.611	707.224	0.054	-0.138
-218.596	-200.000	0.003	0.077
-217.582	-145.932	-0.041	0.004
-216.567	-52.894	-0.328	0.148
-215.552	587.737	-0.123	-0.295
-214.538	-123.300	0.354	0.055
-213.523	129.529	-0.045	0.056
-212.509	-136.764	-0.468	-0.053
-211.494	-200.000	0.014	-0.188
-210.479	12.612	0.103	0.078
-209.465	-21.739	0.174	0.103
-208.450	383.320	-0.110	0.222
-207.436	-200.000	-0.003	0.061
-206.421	-39.939	0.207	0.105
-205.406	177.719	0.145	-0.206
-204.392	-200.000	-0.046	-0.344
-203.377	-161.611	0.419	-0.021
-202.363	-83.058	0.192	0.060
-201.348	57.492	0.323	-0.308
-200.333	43.228	-0.242	-0.216
-199.319	-64.336	-0.214	-0.085
-198.304	800.000	0.047	-0.146
-197.290	42.478	0.140	0.124
-196.275	295.129	0.109	-0.194
-195.260	800.000	-0.099	0.393
-194.246	38.092	0.120	0.104
-193.231	-200.000	0.004	0.166
-192.217	-101.333	0.361	0.086
-191.202	800.000	0.066	0.260
-190.187	-18.522	0.217	0.132
-189.173	112.271	-0.168	-0.198
-188.158	-200.000	0.025	-0.195
-187.144	-173.237	0.367	0.011
-186.129	800.000	-0.049	0.137
-185.114	-83.336	0.193	-0.060
-184.100	628.874	-0.032	-0.078
-183.085	-116.934	0.031	0.006
-182.071	-200.000	0.021	0.249
-181.056	314.773	-0.172	0.317
-180.042	289.274	0.186	-0.328
-179.027	800.000	-0.072	-0.271
-178.012	800.000	0.168	-0.473
-176.998	-57.608	0.253	0.108
-175.983	-139.024	-0.061	-0.006
-174.969	-87.418	-0.232	-0.068
-173.954	-112.472	0.288	0.056
-172.939	-72.746	-0.179	0.064
-171.925	145.359	-0.006	-0.008
-170.910	0.716	0.232	-0.162
-169.896	800.000	-0.056	0.234
-168.881	-200.000	0.015	0.074
-167.866	-71.635	0.182	0.066
-166.852	-127.649	-0.164	0.023
-165.837	128.265	-0.064	0.079
-164.823	45.318	0.053	-0.048
-163.808	14.697	0.290	0.221
-162.793	-149.239	-0.138	-0.011
-161.779	-119.697	0.261	-0.044
-160.764	-168.548	0.400	-0.015
-159.750	-111.624	0.178	0.035
-158.735	21.096	-0.119	0.094
-157.720	-54.414	-0.282	-0.125
-156.706	216.071	-0.096	-0.148
-155.691	800.000	0.054	-0.158
-154.677	-138.205	0.291	0.031
-153.662	347.980	-0.110	0.212
-152.647	-112.018	0.158	0.031
-151.633	-64.715	-0.184	0.072
-150.618	800.000	0.109	0.302
-149.604	-56.532	0.350	0.151
-148.589	770.835	-0.035	0.092
-147.574	-90.823	-0.185	0.052
-146.560	800.000	0.072	0.236
-145.545	-137.463	0.102	0.011
-144.531	-146.085	-0.355	0.031
-143.516	179.087	-0.080	0.114
-142.502	-40.559	0.290	0.147
-141.487	-50.074	-0.076	0.035
-140.472	-200.000	-0.010	-0.128
-139.458	-200.000	-0.060	0.364
-138.443	800.000	-0.018	0.063
-137.429	79.249	0.195	-0.203
-136.414	-200.000	0.023	0.394
-135.399	9.105	0.071	0.052
-134.385	-200.000	0.006	0.277
-133.370	-133.080	-0.192	-0.024
-132.356	-53.900	0.066	0.029
-131.341	182.513	0.157	-0.225
-130.326	-106.105	-0.250	-0.055
-129.312	-119.910	0.342	-0.057
-128.297	-24.417	0.346	-0.201
-127.283	800.000	-0.012	0.052
-126.268	574.265	-0.041	-0.098
-125.253	195.751	-0.087	0.129
-124.239	410.051	-0.135	-0.279
-123.224	-200.000	0.007	0.046
-122.210	-148.271	0.310	0.025
