DTS Sentinel unit serial number:	SN413079Multiplexer serial number:	ORYXHardware model number:	OX4-SRSoftware version number:	ORYX F/W v4.00 Oryx Data Collector v3.7.2.0data status	okinstallation	princeton_trtdifferential loss correction	single-endedforward channel	channel 2reverse channel	N/Adate	2019/09/11time	13:13:10forward acquisition time	60.00reverse acquisition time	0.00gamma	496.2192k internal	0.2292k external	0.2292temperature offset calibration	1.0004default loss term (dB/km)	0.3790temperature slope calibration	1.0000multiplexer offset coefficient	1.0000multiplexer slope coefficient	1.0000fibre end	0.00T internal ref (°C)	41.94T ext. ref 1 (°C)	0.78T ext. ref 2 (°C)	36.44length (m)	temperature (°C)	Stokes	anti-Stokes-747.200	-139.921	0.042	-0.005
-746.185	205.605	-0.095	-0.152
-745.171	144.440	-0.088	0.120
-744.156	-200.000	-0.013	0.090
-743.142	360.907	0.145	-0.298
-742.127	-200.000	0.015	0.284
-741.112	-200.000	0.018	-0.439
-740.098	-200.000	-0.001	0.212
-739.083	16.446	0.098	0.079
-738.069	-17.500	-0.296	0.190
-737.054	-200.000	-0.015	0.071
-736.039	167.058	0.037	-0.054
-735.025	58.783	0.156	0.157
-734.010	-76.243	-0.320	0.115
-732.996	-173.453	-0.385	0.012
-731.981	-200.000	0.005	0.269
-730.966	-32.776	0.244	-0.139
-729.952	-200.000	0.008	-0.071
-728.937	1.834	0.116	-0.086
-727.923	294.316	-0.260	-0.486
-726.908	-200.000	0.003	0.040
-725.894	372.937	-0.164	-0.342
-724.879	22.488	-0.090	-0.075
-723.864	-115.253	-0.342	0.066
-722.850	74.008	-0.308	-0.331
-721.835	-200.000	0.012	-0.278
-720.821	-166.384	-0.346	0.015
-719.806	174.624	-0.181	-0.268
-718.791	-200.000	0.023	-0.245
-717.777	-146.338	-0.120	0.011
-716.762	71.802	-0.109	0.115
-715.748	-200.000	0.049	0.316
-714.733	-47.751	0.052	0.026
-713.718	91.156	-0.078	-0.089
-712.704	-200.000	-0.007	-0.158
-711.689	37.573	0.112	0.102
-710.675	94.207	0.071	-0.083
-709.660	109.561	-0.263	-0.322
-708.645	276.260	-0.111	0.202
-707.631	-12.013	0.202	0.135
-706.616	-61.345	-0.034	0.014
-705.602	81.936	0.175	-0.194
-704.587	80.741	-0.013	0.015
-703.572	120.669	-0.103	-0.131
-702.558	800.000	0.073	-0.259
-701.543	-147.815	0.131	-0.011
-700.529	-200.000	0.047	-0.263
-699.514	303.023	0.139	0.263
-698.499	237.223	0.107	0.182
-697.485	-10.195	0.135	-0.091
-696.470	238.003	0.156	-0.264
-695.456	-1.026	0.212	0.153
-694.441	800.000	-0.078	-0.259
-693.426	-29.111	0.183	-0.107
-692.412	-131.096	-0.337	-0.046
-691.397	-29.419	-0.177	-0.103
-690.383	-178.925	0.284	0.007
-689.368	-187.551	0.475	0.006
-688.354	684.901	0.096	0.255
-687.339	800.000	0.047	-0.167
-686.324	132.271	0.084	-0.110
-685.310	-135.937	-0.181	0.022
-684.295	22.611	0.476	0.398
-683.281	88.070	-0.090	0.102
-682.266	-120.644	-0.258	-0.045
-681.251	215.300	-0.084	0.137
-680.237	-42.198	-0.413	0.216
-679.222	59.924	-0.133	-0.134
-678.208	-7.456	-0.243	-0.168
-677.193	194.915	-0.179	-0.277
-676.178	-200.000	0.024	-0.184
-675.164	-175.642	-0.099	-0.003
-674.149	-56.268	0.433	-0.197
-673.135	220.688	0.113	-0.185
-672.120	-200.000	-0.034	0.188
-671.105	800.000	0.128	0.389
-670.091	261.282	-0.142	-0.251
-669.076	-200.000	-0.013	-0.228
-668.062	139.197	-0.161	-0.216
-667.047	800.000	0.046	0.137
-666.032	25.693	0.291	-0.247
-665.018	101.593	-0.170	-0.202
-664.003	-9.196	-0.181	-0.124
-662.989	-131.648	0.351	0.047
-661.974	352.244	0.132	-0.267
-660.959	-200.000	0.059	-0.313
-659.945	800.000	-0.075	-0.267
-658.930	379.540	0.046	0.096
-657.916	-124.895	0.049	-0.008
-656.901	26.921	0.140	0.120
-655.886	-69.601	-0.600	-0.234
-654.872	-54.730	-0.118	-0.054
-653.857	-111.824	-0.307	0.063
-652.843	27.445	0.326	-0.279
-651.828	-26.094	-0.199	0.119
-650.814	-162.563	0.155	0.008
-649.799	-33.358	0.058	0.032
-648.784	-93.934	0.112	0.031
-647.770	239.227	-0.153	0.259
-646.755	-50.533	-0.069	0.033
-645.741	-131.557	0.399	-0.054
-644.726	-136.495	0.147	0.017
-643.711	-200.000	-0.011	0.248
-642.697	-45.033	-0.165	0.084
-641.682	79.417	0.308	-0.337
-640.668	343.058	-0.101	-0.201
-639.653	-200.000	0.047	0.376
-638.638	109.868	-0.071	0.087
-637.624	207.126	0.083	-0.132
-636.609	296.911	-0.049	0.093
-635.595	-6.169	-0.204	0.142
-634.580	118.623	-0.233	0.293
-633.565	-56.274	-0.101	-0.046
-632.551	-200.000	0.029	0.160
-631.536	-200.000	0.050	0.255
-630.522	-171.893	0.511	0.017
-629.507	209.230	-0.114	-0.182
-628.492	50.905	-0.250	0.241
-627.478	-162.742	0.149	0.007
-626.463	-0.549	0.176	-0.127
-625.449	75.051	-0.103	0.111
-624.434	-30.224	-0.302	-0.175
-623.419	-47.519	-0.370	0.183
-622.405	85.268	0.207	-0.231
-621.390	800.000	-0.125	0.374
-620.376	-23.711	0.274	-0.168
-619.361	-54.446	0.172	-0.079
-618.346	93.353	-0.312	-0.359
-617.332	63.047	-0.210	0.214
-616.317	370.042	0.195	-0.402
-615.303	267.598	-0.038	0.067
-614.288	233.249	0.084	-0.141
-613.273	164.244	0.057	-0.081
-612.259	29.071	-0.203	-0.175
-611.244	-200.000	-0.005	-0.144
-610.230	-158.468	0.195	-0.011
-609.215	-0.335	0.150	0.108
-608.201	-84.545	0.186	-0.060
-607.186	-119.785	0.201	-0.035
-606.171	162.486	-0.202	-0.289
-605.157	-108.699	-0.294	0.064
-604.142	-18.235	-0.067	-0.043
-603.128	-1.297	0.202	-0.145
-602.113	-50.459	0.414	-0.199
-601.098	-2.801	-0.161	0.114
-600.084	233.430	0.094	-0.158
-599.069	187.653	0.123	0.186
-598.055	800.000	-0.080	0.236
-597.040	-200.000	-0.016	0.388
-596.025	800.000	-0.078	-0.251
-595.011	3.761	0.065	-0.048
-593.996	2.287	0.294	-0.216
-592.982	-113.274	0.389	-0.078
-591.967	-111.341	-0.035	0.007
-590.952	-141.382	-0.214	-0.022
-589.938	800.000	0.079	-0.223
-588.923	800.000	0.048	-0.174
-587.909	-112.612	-0.229	-0.046
-586.894	53.324	-0.109	-0.106
-585.879	-21.410	0.380	0.236
-584.865	-200.000	-0.014	0.336
-583.850	-29.887	0.363	0.210
-582.836	313.992	-0.088	0.168
-581.821	131.138	-0.199	0.260
-580.806	-167.205	-0.186	-0.008
-579.792	-54.826	0.245	0.113
-578.777	45.803	0.290	-0.272
-577.763	-3.147	0.133	0.094
-576.748	-200.000	-0.048	0.272
-575.733	61.049	-0.265	-0.267
-574.719	-139.680	-0.391	0.042
-573.704	800.000	-0.084	0.248
-572.690	-31.934	0.032	-0.018
-571.675	668.749	-0.132	0.348
-570.661	-200.000	0.001	-0.247
-569.646	-18.098	0.120	0.076
-568.631	-118.894	-0.118	0.021
-567.617	109.720	0.232	0.282
-566.602	138.134	-0.050	-0.066
-565.588	-200.000	-0.065	-0.505
-564.573	-35.880	-0.196	0.108
-563.558	-200.000	-0.013	-0.190
-562.544	47.802	-0.201	-0.191
-561.529	-39.395	0.289	0.154
-560.515	494.529	0.138	-0.322
-559.500	219.001	-0.170	-0.276
-558.485	-200.000	-0.045	0.378
-557.471	-200.000	0.016	0.399
-556.456	80.529	0.190	-0.208
-555.442	113.906	-0.094	0.116
-554.427	-9.228	0.492	0.334
-553.412	-123.486	-0.561	-0.091
-552.398	170.247	0.127	0.184
-551.383	17.261	0.342	0.276
-550.369	51.379	0.452	-0.436
-549.354	-17.832	-0.131	-0.083
-548.339	-146.335	0.192	0.017
-547.325	-48.520	-0.213	0.104
-546.310	-49.538	0.124	-0.060
-545.296	30.206	-0.121	-0.105
-544.281	-169.967	0.165	0.006
-543.266	-104.524	0.153	0.036
-542.252	744.130	-0.037	0.100
-541.237	771.594	-0.146	-0.403
-540.223	-15.715	0.195	-0.126
-539.208	800.000	-0.035	-0.121
-538.193	52.974	-0.129	0.125
-537.179	-77.230	-0.217	0.077
-536.164	381.667	-0.044	-0.092
-535.150	354.375	0.207	0.417
-534.135	571.064	-0.141	0.348
-533.121	-200.000	-0.039	0.285
-532.106	155.282	-0.190	0.265
-531.091	-63.429	0.156	0.065
-530.077	142.111	0.310	-0.418
-529.062	-151.881	-0.478	0.036
-528.048	324.487	-0.079	-0.152
-527.033	-57.189	0.172	0.077
-526.018	131.536	-0.106	-0.138
-525.004	246.502	-0.078	0.133
-523.989	223.559	0.108	0.177
-522.975	800.000	-0.030	-0.095
-521.960	-200.000	0.038	-0.426
-520.945	-76.579	0.170	-0.061
-519.931	-200.000	-0.006	-0.395
-518.916	189.550	-0.141	-0.215
-517.902	-200.000	-0.024	0.215
-516.887	-135.625	0.143	0.017
-515.872	92.720	0.072	0.083
-514.858	218.454	-0.304	-0.492
-513.843	-153.823	-0.280	0.019
-512.829	-30.060	-0.169	0.098
-511.814	-7.760	-0.242	-0.165
-510.799	-56.650	0.214	-0.096
-509.785	-61.756	-0.352	-0.149
-508.770	161.396	0.069	-0.098
-507.756	-72.627	0.210	-0.079
-506.741	-200.000	0.023	0.157
-505.726	68.974	-0.158	-0.165
-504.712	-28.723	0.338	-0.197
-503.697	-160.326	0.064	-0.004
-502.683	143.170	0.176	0.238
-501.668	329.593	0.118	-0.230
-500.653	-81.037	0.151	0.051
-499.639	-125.891	0.092	0.014
-498.624	-143.827	-0.094	-0.009
-497.610	-103.940	0.239	-0.057
-496.595	87.096	0.308	0.345
-495.581	-165.855	0.117	0.005
-494.566	-107.606	0.534	-0.118
-493.551	-67.735	0.069	0.027
-492.537	268.678	0.176	-0.313
-491.522	-12.919	-0.148	-0.098
-490.508	-12.580	-0.236	0.156
-489.493	800.000	0.062	-0.188
-488.478	339.667	0.105	0.207
-487.464	-49.872	0.149	0.071
-486.449	34.923	-0.082	0.072
-485.435	-39.772	-0.245	0.130
-484.420	-99.331	-0.203	0.052
-483.405	39.581	0.018	0.017
-482.391	26.957	0.125	0.106
-481.376	119.953	-0.128	-0.160
-480.362	230.779	-0.156	-0.258
-479.347	-200.000	-0.041	0.230
-478.332	-200.000	0.022	0.164
-477.318	39.798	0.209	0.190
-476.303	-139.950	0.015	0.002
-475.289	216.642	0.098	0.157
-474.274	11.206	0.171	0.132
-473.259	-49.389	0.150	-0.072
-472.245	-200.000	0.010	-0.203
-471.230	-147.832	-0.236	-0.020
-470.216	309.077	-0.106	0.201
-469.201	-200.000	0.015	-0.157
-468.186	73.201	0.254	-0.269
-467.172	-130.741	0.098	0.013
-466.157	-200.000	-0.610	0.000
-465.143	-139.399	-0.081	0.009
-464.128	800.000	0.057	-0.244
-463.113	-97.075	0.314	0.083
-462.099	92.965	-0.026	0.030
-461.084	-10.643	0.134	0.090
-460.070	-111.217	0.051	-0.011
-459.055	283.392	0.151	-0.274
-458.040	-164.118	-0.305	-0.014
-457.026	-118.313	-0.144	-0.026
-456.011	-38.993	0.098	0.052
-454.997	-144.648	-0.304	0.028
-453.982	-200.000	0.050	-0.378
-452.968	407.718	0.035	0.075
-451.953	-168.875	0.286	-0.011
-450.938	247.034	-0.070	-0.119
-449.924	-39.962	-0.244	-0.129
-448.909	37.125	-0.253	-0.227
-447.895	-200.000	0.008	-0.218
-446.880	-80.739	0.299	-0.101
-445.865	-28.229	-0.114	-0.067
-444.851	-200.000	-0.050	0.261
-443.836	154.449	-0.177	-0.246
-442.822	-200.000	-0.004	0.236
-441.807	22.254	0.137	0.113
-440.792	432.678	0.090	0.198
-439.778	-60.137	-0.093	0.040
-438.763	472.123	0.121	0.275
-437.749	101.211	-0.034	0.040
-436.734	19.928	0.296	-0.241
-435.719	-120.093	-0.249	-0.043
-434.705	100.468	-0.166	0.195
-433.690	-200.000	0.034	0.212
-432.676	-130.032	-0.083	0.011
-431.661	-121.258	0.421	-0.071
-430.646	-4.193	0.156	0.109
-429.632	-47.522	-0.252	-0.124
-428.617	-119.841	0.161	0.028
-427.603	80.889	0.083	0.090
-426.588	395.351	0.133	0.280
-425.573	4.655	0.230	0.171
-424.559	316.846	-0.115	0.220
-423.544	169.255	0.019	0.027
-422.530	425.425	-0.059	0.128
-421.515	-186.856	-0.332	0.005
-420.500	174.131	0.311	0.454
-419.486	87.169	-0.226	0.253
-418.471	-105.467	-0.103	0.024
-417.457	-200.000	-0.004	-0.204
-416.442	187.987	0.154	0.233
-415.428	-104.087	-0.283	-0.067
-414.413	287.324	-0.095	-0.174
-413.398	468.749	-0.043	-0.097
-412.384	-90.279	-0.249	-0.073
-411.369	-200.000	0.054	0.246
-410.355	-35.414	0.195	-0.107
-409.340	0.236	-0.203	-0.147
-408.325	9.349	0.113	0.087
-407.311	-190.388	-0.196	0.002
-406.296	800.000	-0.071	0.209
-405.282	-200.000	-0.002	0.040
-404.267	-200.000	0.002	-0.357
-403.252	800.000	0.046	-0.137
-402.238	-40.006	-0.082	0.043
-401.223	379.581	-0.029	0.060
-400.209	113.715	-0.105	0.129
-399.194	-200.000	0.077	0.366
-398.179	-200.000	0.028	0.144
-397.165	-109.831	-0.208	0.044
-396.150	472.580	0.036	0.082
-395.136	285.012	0.266	0.484
-394.121	-110.578	-0.373	-0.078
-393.106	-16.096	-0.225	-0.145
-392.092	-45.193	0.328	0.165
-391.077	-53.103	-0.205	-0.095
-390.063	-62.913	-0.275	-0.115
-389.048	157.401	0.087	-0.121
-388.033	54.025	0.235	-0.228
-387.019	800.000	-0.038	-0.167
-386.004	-69.591	0.276	-0.107
-384.990	164.364	0.117	0.166
-383.975	-88.247	-0.105	0.032
-382.960	-160.841	0.282	-0.015
-381.946	-200.000	-0.007	-0.110
-380.931	-200.000	0.015	-0.086
-379.917	-99.145	-0.145	-0.037
-378.902	176.717	0.166	-0.244
-377.888	800.000	0.099	-0.369
-376.873	-111.503	-0.356	0.073
-375.858	-94.402	-0.167	0.046
-374.844	238.638	-0.154	0.259
-373.829	-51.116	-0.125	0.059
-372.815	-98.887	0.146	-0.037
-371.800	199.203	-0.061	-0.095
-370.785	-184.045	-0.339	0.006
-369.771	-75.953	-0.183	-0.065
-368.756	-137.403	-0.234	0.027
-367.742	-128.253	-0.332	0.048
-366.727	-15.838	0.166	-0.106
-365.712	-126.865	0.119	0.018
-364.698	800.000	-0.076	0.313
-363.683	85.377	0.198	-0.219
-362.669	590.270	-0.126	0.314
-361.654	67.661	0.222	-0.229
-360.639	38.491	0.065	-0.059
-359.625	506.855	0.122	0.285
-358.610	-200.000	0.003	-0.149
-357.596	-200.000	-0.002	-0.081
-356.581	-200.000	-0.063	0.342
-355.566	-41.938	-0.385	0.199
-354.552	46.059	-0.110	0.102
-353.537	148.946	0.072	-0.098
-352.523	-191.762	-0.126	-0.001
-351.508	-51.858	0.151	0.071
-350.493	193.187	0.270	-0.412
-349.479	-93.314	0.099	0.028
-348.464	-34.125	-0.120	0.066
-347.450	201.130	-0.038	-0.058
-346.435	800.000	-0.079	-0.242
-345.420	227.877	0.197	-0.324
-344.406	-140.990	0.388	-0.040
-343.391	-106.931	0.271	0.061
-342.377	123.080	0.265	0.334
-341.362	800.000	-0.015	0.059
-340.348	-187.392	-0.158	-0.002
-339.333	-83.880	-0.224	-0.072
-338.318	-99.375	0.261	0.066
-337.304	-84.596	0.244	0.077
-336.289	-0.267	-0.145	-0.104
-335.275	26.868	0.167	0.141
-334.260	28.693	-0.243	-0.207
-333.245	-184.640	-0.012	0.000
-332.231	800.000	-0.049	0.138
-331.216	800.000	-0.082	0.268
-330.202	492.088	0.035	-0.080
-329.187	-200.000	-0.045	0.317
-328.172	800.000	-0.022	0.083
-327.158	800.000	-0.053	0.149
-326.143	-123.198	-0.310	0.050
-325.129	-19.362	0.197	0.123
-324.114	256.056	-0.072	0.125
-323.099	227.466	-0.050	0.082
-322.085	800.000	0.096	0.331
-321.070	-128.998	0.274	-0.039
-320.056	-200.000	0.021	0.157
-319.041	-96.111	-0.329	-0.088
-318.026	28.440	-0.078	0.066
-317.012	6.177	-0.253	0.189
-315.997	-104.537	0.203	-0.047
-314.983	-200.000	0.001	0.241
-313.968	-40.396	0.052	0.027
-312.953	97.973	-0.167	-0.193
-311.939	-17.344	-0.129	0.082
-310.924	153.175	0.301	-0.415
-309.910	-200.000	0.118	-0.563
-308.895	-9.241	-0.089	0.060
-307.880	99.412	-0.055	-0.064
-306.866	-35.957	0.220	0.120
-305.851	135.508	0.220	0.287
-304.837	62.595	0.219	-0.220
-303.822	-70.247	0.110	0.042
-302.807	116.895	-0.020	0.024
-301.793	104.109	0.082	-0.097
-300.778	102.525	0.217	-0.255
-299.764	800.000	-0.098	0.278
-298.749	642.311	0.038	-0.099
-297.735	744.001	0.050	0.135
-296.720	800.000	-0.025	-0.084
-295.705	-200.000	0.018	-0.141
-294.691	586.848	-0.034	-0.084
-293.676	160.165	-0.096	0.135
-292.662	-200.000	-0.007	-0.288
-291.647	-167.445	0.377	0.015
-290.632	-12.221	-0.052	-0.034
-289.618	-140.209	0.378	0.040
-288.603	60.305	0.205	0.203
-287.589	-194.170	0.173	0.001
-286.574	-91.973	-0.093	0.026
-285.559	-77.075	0.180	0.063
-284.545	-19.551	-0.403	-0.251
-283.530	-37.076	0.068	-0.036
-282.516	250.912	0.179	-0.305
-281.501	31.707	0.308	-0.267
-280.486	-105.488	-0.208	0.047
-279.472	-59.813	-0.122	0.052
-278.457	350.896	-0.158	-0.313
-277.443	277.612	-0.105	-0.187
-276.428	-112.817	-0.169	-0.034
-275.413	-120.239	0.185	0.032
-274.399	-145.682	0.059	-0.005
-273.384	800.000	-0.149	0.430
-272.370	-117.414	0.302	-0.055
-271.355	393.738	0.120	-0.252
-270.340	29.195	-0.040	0.034
-269.326	-122.152	-0.125	0.021
-268.311	83.396	-0.135	0.148
-267.297	-68.275	-0.135	0.053
-266.282	-19.053	-0.191	0.119
-265.267	-200.000	-0.000	0.061
-264.253	49.236	-0.349	-0.329
-263.238	-74.382	-0.254	0.092
-262.224	195.986	-0.079	-0.120
-261.209	-200.000	0.006	0.157
-260.195	-200.000	0.024	0.258
-259.180	50.713	0.064	0.061
-258.165	-150.145	-0.176	0.014
-257.151	10.631	0.247	-0.189
-256.136	-93.027	0.247	0.069
-255.122	-18.310	0.062	0.039
-254.107	290.033	0.187	0.341
-253.092	194.892	-0.154	0.234
-252.078	119.246	0.069	-0.086
-251.063	156.455	-0.155	0.215
-250.049	768.515	-0.112	0.306
-249.034	-10.487	-0.067	0.044
-248.019	-200.000	-0.010	-0.173
-247.005	63.432	0.079	0.079
-245.990	-193.433	0.226	0.002
-244.976	18.191	-0.156	0.125
-243.961	-53.274	-0.132	-0.061
-242.946	-188.077	0.271	0.003
-241.932	-200.000	-0.035	0.300
-240.917	453.680	-0.119	0.264
-239.903	-20.936	0.065	-0.040
-238.888	14.301	0.243	0.190
-237.873	800.000	0.080	-0.284
-236.859	-2.805	0.219	0.154
-235.844	623.589	0.115	0.290
-234.830	-161.566	0.266	-0.014
-233.815	725.685	-0.096	-0.258
-232.800	20.701	0.150	-0.122
-231.786	-200.000	0.014	-0.075
-230.771	228.041	-0.178	-0.291
-229.757	-120.030	-0.137	0.024
-228.742	48.422	-0.150	-0.141
-227.727	300.383	-0.143	-0.264
-226.713	-143.849	-0.102	-0.010
-225.698	31.257	0.250	-0.215
-224.684	84.014	-0.202	0.221
-223.669	509.401	0.093	0.216
-222.655	-168.392	0.086	-0.003
-221.640	-87.466	-0.182	-0.055
-220.625	-200.000	-0.041	-0.320
-219.611	285.228	-0.086	0.155
-218.596	-63.574	-0.238	0.098
-217.582	10.430	-0.111	-0.084
-216.567	-200.000	-0.012	0.058
-215.552	800.000	-0.084	-0.328
-214.538	-114.726	0.126	-0.024
-213.523	556.976	-0.066	0.158
-212.509	1.719	0.152	-0.110
-211.494	800.000	-0.076	-0.282
-210.479	800.000	0.036	-0.103
-209.465	-110.867	0.260	-0.054
-208.450	-200.000	-0.020	-0.309
-207.436	-47.080	-0.152	0.074
-206.421	562.337	0.121	0.293
-205.406	-114.855	-0.227	-0.043
-204.392	-200.000	0.055	-0.253
-203.377	-200.000	-0.007	-0.195
-202.363	11.486	0.074	-0.057
-201.348	146.311	0.060	-0.081
-200.333	-200.000	0.052	0.278
-199.319	-134.118	-0.280	-0.035
-198.304	44.234	-0.232	-0.213
-197.290	401.761	-0.073	-0.153
-196.275	46.578	-0.052	-0.048
-195.260	413.796	-0.166	-0.354
-194.246	-200.000	-0.019	-0.276
-193.231	-22.645	-0.076	0.046
-192.217	-48.688	0.288	0.139
-191.202	-133.346	0.126	0.016
-190.187	-46.122	-0.238	0.117
-189.173	800.000	-0.094	-0.284
-188.158	-69.790	0.079	-0.030
-187.144	-142.106	0.382	0.038
-186.129	-200.000	0.060	0.385
-185.114	-101.426	0.073	-0.018
-184.100	392.546	0.184	-0.383
-183.085	-75.216	-0.250	0.089
-182.071	-200.000	-0.029	-0.264
-181.056	235.632	0.085	0.141
-180.042	800.000	-0.007	0.025
-179.027	-90.344	-0.214	0.062
-178.012	-19.524	-0.134	0.083
-176.998	800.000	0.048	0.188
-175.983	800.000	-0.038	0.159
-174.969	106.076	0.158	0.187
-173.954	-200.000	0.025	-0.122
-172.939	-200.000	0.026	0.210
-171.925	59.239	-0.025	0.024
-170.910	-200.000	0.036	-0.282
-169.896	712.312	-0.076	-0.203
-168.881	325.478	-0.208	0.398
-167.866	54.961	-0.090	-0.087
-166.852	-200.000	0.015	-0.108
-165.837	-200.000	0.031	-0.187
-164.823	-200.000	0.008	-0.227
-163.808	-200.000	-0.030	0.201
-162.793	-86.509	-0.145	-0.044
-161.779	-13.341	-0.193	-0.125
-160.764	-68.041	0.104	0.040
-159.750	-147.350	-0.057	0.005
-158.735	-77.565	-0.318	0.110
-157.720	-5.281	-0.193	0.132
-156.706	-200.000	-0.011	0.115
-155.691	-3.506	-0.157	-0.109
-154.677	171.476	-0.139	-0.200
-153.662	174.304	-0.151	-0.218
-152.647	56.790	-0.163	0.159
-151.633	-74.470	-0.179	0.065
-150.618	215.742	0.183	0.290
-149.604	135.921	0.028	-0.037
-148.589	25.125	-0.174	-0.144
-147.574	800.000	0.065	0.189
-146.560	800.000	-0.040	0.136
-145.545	147.903	-0.210	-0.283
-144.531	-200.000	0.015	-0.203
-143.516	-68.378	0.097	-0.038
-142.502	-36.069	-0.159	-0.086
-141.487	-89.686	0.118	0.034
-140.472	-66.161	0.126	-0.050
-139.458	-108.619	0.181	-0.039
-138.443	45.197	0.180	0.166
-137.429	562.078	-0.057	0.139
-136.414	-81.743	0.243	0.080
-135.399	800.000	-0.064	0.183
-134.385	-83.039	0.194	0.062
-133.370	-92.982	0.290	0.081
-132.356	800.000	-0.077	0.278
-131.341	-200.000	-0.018	0.232
-130.326	214.290	0.046	-0.073
-129.312	800.000	-0.027	0.088
-128.297	-57.231	-0.088	-0.039
-127.283	92.317	-0.318	-0.358
-126.268	-200.000	-0.001	0.080
-125.253	800.000	-0.025	-0.083
-124.239	-200.000	0.038	-0.245
-123.224	-57.792	0.208	0.091
-122.210	800.000	-0.074	-0.307
-121.195	-54.247	-0.366	0.166
