DTS Sentinel unit serial number:	SN413079Multiplexer serial number:	ORYXHardware model number:	OX4-SRSoftware version number:	ORYX F/W v4.00 Oryx Data Collector v3.7.2.0data status	okinstallation	princeton_trtdifferential loss correction	single-endedforward channel	channel 2reverse channel	N/Adate	2019/09/11time	07:45:11forward acquisition time	60.00reverse acquisition time	0.00gamma	496.2192k internal	0.2326k external	0.2326temperature offset calibration	0.9951default loss term (dB/km)	0.3790temperature slope calibration	1.0000multiplexer offset coefficient	1.0000multiplexer slope coefficient	1.0000fibre end	0.00T internal ref (°C)	31.58T ext. ref 1 (°C)	0.15T ext. ref 2 (°C)	27.81length (m)	temperature (°C)	Stokes	anti-Stokes-747.200	-60.646	0.352	0.151
-746.185	316.134	0.115	0.219
-745.171	409.577	0.055	-0.117
-744.156	59.529	0.063	0.063
-743.142	-200.000	0.041	-0.208
-742.127	800.000	-0.058	0.180
-741.112	31.147	0.135	0.117
-740.098	228.831	-0.068	0.111
-739.083	259.227	-0.144	-0.251
-738.069	-89.345	-0.419	0.124
-737.054	-200.000	0.073	-0.423
-736.039	-134.488	-0.296	-0.037
-735.025	-168.422	0.416	-0.016
-734.010	-200.000	-0.042	0.267
-732.996	5.630	-0.204	-0.152
-731.981	-200.000	-0.027	-0.164
-730.966	-96.736	-0.112	-0.030
-729.952	182.591	-0.183	0.271
-728.937	370.355	-0.208	0.426
-727.923	-6.768	-0.202	-0.138
-726.908	38.086	-0.421	-0.377
-725.894	-200.000	-0.026	-0.529
-724.879	-29.050	0.167	-0.097
-723.864	800.000	-0.110	-0.374
-722.850	800.000	-0.070	-0.201
-721.835	-200.000	0.012	-0.215
-720.821	-2.175	0.163	0.115
-719.806	-19.257	-0.089	-0.056
-718.791	-200.000	-0.018	-0.204
-717.777	74.751	0.124	0.132
-716.762	-34.200	-0.112	-0.062
-715.748	800.000	0.044	0.128
-714.733	-134.021	0.216	0.027
-713.718	800.000	-0.078	-0.300
-712.704	-200.000	-0.066	0.361
-711.689	800.000	-0.026	-0.099
-710.675	-200.000	-0.044	-0.210
-709.660	580.594	0.069	0.171
-708.645	174.796	0.004	-0.005
-707.631	-74.165	0.193	0.070
-706.616	221.715	-0.141	0.229
-705.602	181.756	-0.055	0.081
-704.587	85.084	0.116	-0.128
-703.572	-68.151	0.058	-0.023
-702.558	34.556	-0.149	-0.131
-701.543	-91.620	0.391	0.112
-700.529	263.432	0.164	0.287
-699.514	-200.000	-0.031	-0.142
-698.499	-200.000	0.030	0.199
-697.485	-135.345	-0.120	-0.014
-696.470	14.368	-0.190	-0.149
-695.456	-88.895	-0.219	0.065
-694.441	-200.000	0.026	-0.211
-693.426	27.367	-0.265	-0.224
-692.412	138.048	-0.135	-0.178
-691.397	629.925	-0.141	0.359
-690.383	-79.506	0.316	0.108
-689.368	-26.009	0.225	0.133
-688.354	-17.131	-0.211	-0.134
-687.339	36.601	0.271	0.241
-686.324	-91.875	-0.039	-0.011
-685.310	-91.599	-0.048	-0.014
-684.295	-38.641	-0.274	-0.145
-683.281	-54.003	-0.283	0.130
-682.266	259.625	0.192	-0.333
-681.251	1.149	-0.049	0.035
-680.237	-127.292	-0.082	0.012
-679.222	-100.651	-0.163	0.041
-678.208	-200.000	0.052	-0.322
-677.193	149.696	0.333	-0.454
-676.178	29.298	-0.241	-0.206
-675.164	274.084	0.116	0.206
-674.149	94.547	0.156	-0.178
-673.135	-16.064	0.088	0.056
-672.120	26.967	0.050	0.042
-671.105	800.000	-0.066	0.187
-670.091	-1.599	0.113	0.080
-669.076	768.233	-0.120	-0.330
-668.062	694.802	-0.131	-0.346
-667.047	-200.000	-0.025	-0.169
-666.032	259.789	0.205	-0.357
-665.018	-97.715	0.222	-0.058
-664.003	-200.000	-0.011	-0.186
-662.989	30.985	0.097	0.084
-661.974	-139.311	0.086	0.009
-660.959	-58.052	-0.277	-0.122
-659.945	-63.051	-0.212	-0.088
-658.930	495.002	-0.119	-0.275
-657.916	-157.708	0.038	-0.002
-656.901	318.704	0.046	0.087
-655.886	-88.070	0.245	0.074
-654.872	48.740	0.091	0.086
-653.857	168.531	-0.206	0.296
-652.843	-29.687	-0.238	-0.136
-651.828	-23.597	-0.453	-0.273
-650.814	-200.000	0.024	-0.217
-649.799	800.000	0.070	-0.249
-648.784	121.146	-0.256	-0.320
-647.770	-200.000	-0.054	-0.443
-646.755	358.270	-0.116	-0.232
-645.741	397.944	-0.042	0.087
-644.726	-89.522	-0.285	-0.084
-643.711	-151.705	-0.346	0.026
-642.697	800.000	0.048	-0.202
-641.682	-142.386	0.210	0.021
-640.668	55.306	0.229	-0.223
-639.653	248.338	-0.144	-0.245
-638.638	167.455	0.092	-0.131
-637.624	90.917	0.179	0.201
-636.609	219.011	-0.193	0.310
-635.595	-39.950	0.120	-0.063
-634.580	-138.447	-0.226	-0.025
-633.565	-121.691	0.174	0.029
-632.551	-164.916	-0.256	0.012
-631.536	-200.000	0.052	-0.407
-630.522	333.608	-0.172	-0.334
-629.507	126.841	0.047	0.060
-628.492	-200.000	-0.035	-0.239
-627.478	84.110	0.170	-0.187
-626.463	-88.166	-0.365	0.110
-625.449	-76.230	0.171	-0.060
-624.434	-40.619	-0.294	0.153
-623.419	117.052	-0.209	0.258
-622.405	-31.622	-0.063	-0.036
-621.390	-82.542	0.216	0.070
-620.376	-200.000	0.043	0.240
-619.361	148.619	0.117	0.158
-618.346	800.000	0.084	0.337
-617.332	-200.000	-0.044	0.199
-616.317	-200.000	0.014	-0.205
-615.303	-43.973	-0.098	0.049
-614.288	-170.325	0.329	-0.012
-613.273	-200.000	-0.044	0.241
-612.259	-200.000	0.023	-0.201
-611.244	-119.826	0.188	-0.033
-610.230	800.000	-0.081	-0.226
-609.215	119.630	-0.084	-0.104
-608.201	-200.000	-0.019	0.380
-607.186	150.021	-0.055	-0.075
-606.171	175.009	0.118	-0.172
-605.157	-157.737	0.125	0.007
-604.142	3.581	-0.228	-0.167
-603.128	800.000	-0.122	-0.408
-602.113	53.278	-0.232	-0.223
-601.098	-142.939	-0.451	0.044
-600.084	-9.727	0.231	0.154
-599.069	-31.707	0.222	-0.125
-598.055	-35.585	-0.190	-0.104
-597.040	-0.077	-0.152	0.108
-596.025	-118.020	-0.158	0.028
-595.011	8.949	-0.044	0.033
-593.996	800.000	-0.026	0.076
-592.982	126.231	0.060	-0.076
-591.967	-10.599	-0.106	-0.070
-590.952	-128.936	0.086	-0.012
-589.938	-200.000	-0.001	-0.063
-588.923	-37.307	-0.254	0.136
-587.909	460.485	0.096	0.214
-586.894	-41.286	-0.163	0.084
-585.879	-180.524	0.274	-0.006
-584.865	21.058	-0.149	-0.121
-583.850	-200.000	0.034	-0.222
-582.836	-106.479	-0.293	-0.066
-581.821	486.425	-0.034	-0.079
-580.806	140.503	0.093	0.123
-579.792	103.193	-0.232	-0.272
-578.777	14.129	0.217	-0.170
-577.763	415.646	0.122	0.261
-576.748	-37.193	-0.250	-0.134
-575.733	42.418	0.296	0.270
-574.719	-13.537	-0.238	0.154
-573.704	46.804	0.218	0.203
-572.690	-200.000	-0.019	-0.211
-571.675	4.007	-0.313	-0.230
-570.661	280.302	0.010	0.017
-569.646	-200.000	0.050	0.335
-568.631	-150.606	0.313	0.024
-567.617	-61.279	0.119	0.050
-566.602	261.295	-0.091	0.157
-565.588	-139.650	-0.235	-0.025
-564.573	-147.293	-0.255	-0.022
-563.558	312.195	0.215	-0.404
-562.544	93.157	-0.142	0.160
-561.529	116.666	-0.081	-0.099
-560.515	-200.000	-0.036	0.296
-559.500	-123.573	-0.257	-0.041
-558.485	-200.000	0.083	-0.375
-557.471	-48.828	-0.229	0.110
-556.456	416.528	-0.113	0.242
-555.442	450.775	0.055	0.121
-554.427	280.011	-0.139	-0.248
-553.412	44.043	0.167	-0.154
-552.398	-200.000	-0.031	0.235
-551.383	-200.000	0.002	-0.449
-550.369	-84.273	0.208	-0.066
-549.354	189.984	-0.125	0.187
-548.339	-200.000	0.004	-0.264
-547.325	45.568	0.087	0.080
-546.310	281.387	-0.250	0.448
-545.296	487.542	-0.141	0.321
-544.281	-46.166	0.041	-0.020
-543.266	800.000	0.056	-0.215
-542.252	208.154	0.106	-0.166
-541.237	-54.599	0.252	-0.114
-540.223	-53.428	0.290	0.133
-539.208	-200.000	0.016	-0.136
-538.193	-133.923	0.298	0.037
-537.179	800.000	-0.104	0.403
-536.164	-107.588	0.227	0.050
-535.150	-7.374	-0.156	-0.106
-534.135	71.268	-0.065	0.067
-533.121	-200.000	-0.063	0.344
-532.106	-91.422	0.312	0.089
-531.091	-166.155	-0.193	-0.008
-530.077	-106.449	-0.081	-0.018
-529.062	-200.000	0.054	-0.331
-528.048	-200.000	0.009	-0.438
-527.033	-96.541	-0.124	0.033
-526.018	-200.000	-0.003	-0.058
-525.004	169.598	0.106	0.151
-523.989	184.244	-0.116	0.172
-522.975	-200.000	0.028	0.340
-521.960	91.173	0.060	0.067
-520.945	-70.694	0.032	-0.012
-519.931	20.456	0.160	-0.129
-518.916	-3.761	-0.135	0.094
-517.902	-200.000	-0.028	0.307
-516.887	277.391	-0.097	0.172
-515.872	-200.000	0.067	-0.321
-514.858	323.390	0.025	-0.047
-513.843	242.948	0.117	-0.197
-512.829	-200.000	0.015	-0.218
-511.814	6.735	0.177	-0.132
-510.799	-121.455	-0.258	-0.043
-509.785	-9.158	0.353	0.236
-508.770	45.016	-0.054	-0.049
-507.756	-9.966	-0.229	-0.152
-506.741	129.370	0.075	0.096
-505.726	-22.165	0.210	0.128
-504.712	107.644	0.199	-0.237
-503.697	-200.000	0.042	0.295
-502.683	9.421	0.164	0.124
-501.668	38.368	-0.234	-0.209
-500.653	-123.886	0.332	0.052
-499.639	-106.783	0.137	0.030
-498.624	-200.000	-0.009	0.115
-497.610	-200.000	0.005	-0.048
-496.595	-44.000	0.061	-0.030
-495.581	-50.898	-0.192	0.090
-494.566	106.415	-0.123	-0.146
-493.551	63.222	0.313	-0.313
-492.537	-200.000	0.006	-0.042
-491.522	87.844	-0.163	-0.180
-490.508	-119.494	0.087	-0.015
-489.493	-200.000	-0.056	-0.376
-488.478	-6.555	-0.191	-0.130
-487.464	188.241	-0.092	0.137
-486.449	-200.000	0.027	0.192
-485.435	-59.867	-0.222	0.095
-484.420	800.000	-0.044	-0.131
-483.405	-93.368	-0.167	0.046
-482.391	-200.000	-0.013	-0.247
-481.376	-200.000	0.001	-0.229
-480.362	5.633	0.134	0.099
-479.347	-187.939	-0.269	-0.003
-478.332	-94.867	0.381	0.103
-477.318	40.688	0.254	0.229
-476.303	196.960	0.153	-0.233
-475.289	-200.000	-0.021	0.206
-474.274	-21.587	0.238	0.145
-473.259	58.117	0.265	-0.259
-472.245	-200.000	-0.005	-0.045
-471.230	-200.000	0.006	0.231
-470.216	-111.468	-0.208	0.042
-469.201	42.480	0.220	0.199
-468.186	-200.000	0.016	0.273
-467.172	800.000	0.099	-0.390
-466.157	-148.056	-0.159	0.013
-465.143	15.118	-0.121	-0.095
-464.128	-120.191	0.257	0.044
-463.113	-39.809	-0.157	0.082
-462.099	143.330	0.082	-0.109
-461.084	16.680	-0.225	-0.177
-460.070	560.945	-0.198	-0.477
-459.055	-13.399	0.080	0.052
-458.040	-69.843	-0.036	0.014
-457.026	258.906	-0.105	-0.180
-456.011	70.167	0.201	0.207
-454.997	-177.059	0.181	0.005
-453.982	-157.473	0.182	-0.011
-452.968	270.290	0.068	0.120
-451.953	64.647	-0.264	-0.265
-450.938	-39.363	0.115	0.060
-449.924	-105.779	0.518	0.117
-448.909	-7.983	-0.359	0.241
-447.895	-27.886	0.449	0.259
-446.880	800.000	0.024	0.102
-445.865	-122.792	0.288	-0.046
-444.851	91.303	0.250	0.280
-443.836	-0.761	0.391	0.277
-442.822	175.253	-0.035	-0.050
-441.807	651.693	-0.057	0.147
-440.792	58.895	-0.234	0.230
-439.778	-138.601	-0.173	-0.019
-438.763	-200.000	0.014	0.274
-437.749	74.190	0.135	-0.141
-436.734	-58.456	-0.197	-0.085
-435.719	126.941	0.037	-0.047
-434.705	-89.668	-0.133	0.039
-433.690	-38.513	0.172	0.091
-432.676	-98.520	-0.361	0.092
-431.661	-70.614	0.223	0.084
-430.646	-194.635	0.425	-0.003
-429.632	-74.317	0.104	0.037
-428.617	-121.584	0.162	0.027
-427.603	121.056	0.191	0.237
-426.588	-111.642	-0.022	-0.004
-425.573	-200.000	0.031	-0.378
-424.559	800.000	0.085	-0.243
-423.544	-99.496	-0.200	-0.050
-422.530	192.904	0.129	-0.194
-421.515	425.236	-0.176	0.377
-420.500	-38.995	-0.269	-0.141
-419.486	-161.699	-0.343	0.017
-418.471	275.767	-0.067	-0.119
-417.457	-97.718	0.133	-0.034
-416.442	-125.558	-0.205	0.031
-415.428	-49.394	-0.518	-0.246
-414.413	29.830	0.074	0.063
-413.398	-124.568	-0.196	-0.030
-412.384	-139.577	0.312	0.033
-411.369	108.696	-0.242	-0.288
-410.355	676.985	-0.084	0.216
-409.340	-124.864	0.208	0.032
-408.325	399.079	0.053	-0.110
-407.311	7.195	-0.058	-0.043
-406.296	156.270	-0.097	-0.133
-405.282	800.000	0.058	-0.169
-404.267	48.768	0.118	0.110
-403.252	-39.368	0.272	0.142
-402.238	-200.000	0.025	0.240
-401.223	-3.793	0.150	0.104
-400.209	-170.147	-0.044	-0.002
-399.194	289.239	-0.096	0.173
-398.179	-59.859	-0.064	0.027
-397.165	800.000	-0.061	-0.174
-396.150	188.592	-0.255	0.380
-395.136	284.447	0.083	-0.148
-394.121	332.666	-0.197	0.378
-393.106	438.764	-0.129	0.281
-392.092	577.993	-0.067	0.163
-391.077	-67.595	0.010	-0.004
-390.063	-164.529	0.205	-0.009
-389.048	-65.288	0.194	0.078
-388.033	-63.572	0.167	0.068
-387.019	51.635	-0.064	0.061
-386.004	-200.000	-0.013	0.488
-384.990	800.000	-0.092	-0.279
-383.975	800.000	-0.026	-0.099
-382.960	80.392	0.213	0.228
-381.946	-31.629	-0.050	-0.028
-380.931	-0.948	0.202	0.142
-379.917	-120.195	-0.324	0.055
-378.902	-11.029	0.208	0.137
-377.888	-87.804	-0.102	0.030
-376.873	21.717	0.057	-0.046
-375.858	108.703	0.118	-0.140
-374.844	10.911	-0.173	-0.131
-373.829	383.732	-0.160	-0.328
-372.815	-70.164	-0.103	-0.039
-371.800	153.514	0.122	0.166
-370.785	-89.201	-0.051	0.015
-369.771	-14.315	0.275	0.176
-368.756	523.222	0.064	-0.150
-367.742	761.001	0.115	-0.309
-366.727	82.342	-0.162	0.174
-365.712	47.782	0.141	0.131
-364.698	-126.474	0.083	-0.012
-363.683	-128.428	0.354	-0.050
-362.669	-0.639	-0.256	-0.180
-361.654	83.753	0.008	-0.009
-360.639	-200.000	0.007	0.059
-359.625	143.145	-0.150	0.198
-358.610	-200.000	-0.018	0.320
-357.596	800.000	-0.048	0.181
-356.581	800.000	-0.072	-0.205
-355.566	-200.000	-0.054	-0.265
-354.552	-200.000	0.089	-0.481
-353.537	-50.609	0.345	0.162
-352.523	-183.298	0.242	-0.004
-351.508	-41.518	0.318	-0.162
-350.493	-52.900	0.255	-0.116
-349.479	96.614	0.143	-0.163
-348.464	-32.945	-0.188	0.103
-347.450	572.436	-0.178	0.431
-346.435	18.960	-0.268	0.213
-345.420	43.273	-0.224	-0.203
-344.406	110.016	0.287	-0.342
-343.391	-200.000	0.047	-0.272
-342.377	800.000	-0.051	0.191
-341.362	800.000	0.065	-0.203
-340.348	638.727	-0.129	-0.326
-339.333	275.196	-0.092	-0.163
-338.318	-200.000	-0.033	-0.486
-337.304	-59.892	-0.120	0.051
-336.289	800.000	0.099	-0.364
-335.275	-187.881	-0.166	0.002
-334.260	-71.681	-0.136	0.050
-333.245	-200.000	0.054	0.402
-332.231	-122.879	-0.356	0.057
-331.216	-30.475	0.096	0.054
-330.202	-200.000	-0.030	0.135
-329.187	-44.127	-0.329	-0.164
-328.172	800.000	0.030	0.095
-327.158	42.104	-0.238	0.214
-326.143	28.232	0.199	-0.167
-325.129	-35.558	-0.284	-0.153
-324.114	-35.105	0.143	-0.077
-323.099	58.285	-0.128	0.125
-322.085	-6.107	-0.277	0.188
-321.070	-200.000	0.046	-0.216
-320.056	-200.000	0.038	0.201
-319.041	800.000	-0.082	0.339
-318.026	179.014	0.119	-0.173
-317.012	-71.503	-0.244	-0.091
-315.997	-179.842	0.158	0.003
-314.983	63.655	-0.056	0.055
-313.968	565.271	0.121	0.291
-312.953	646.329	-0.036	0.091
-311.939	-175.470	-0.150	-0.004
-310.924	381.014	-0.053	-0.107
-309.910	65.196	-0.073	-0.073
-308.895	800.000	-0.073	-0.257
-307.880	-200.000	0.047	0.229
-306.866	94.482	-0.026	-0.030
-305.851	523.668	-0.090	0.211
-304.837	-16.821	-0.182	-0.114
-303.822	171.745	0.163	0.232
-302.807	140.447	0.234	0.306
-301.793	65.047	-0.239	0.239
-300.778	-19.974	-0.228	-0.139
-299.764	-200.000	0.007	0.098
-298.749	246.460	-0.128	-0.214
-297.735	-118.826	0.084	0.015
-296.720	13.420	-0.136	-0.105
-295.705	88.310	0.102	-0.113
-294.691	-77.370	0.534	-0.184
-293.676	124.984	0.045	-0.056
-292.662	-25.158	-0.142	0.083
-291.647	-88.807	0.394	0.116
-290.632	-142.677	0.220	-0.021
-289.618	571.226	0.054	0.130
-288.603	-200.000	0.000	0.126
-287.589	-200.000	0.088	-0.569
-286.574	-200.000	0.031	-0.342
-285.559	800.000	0.073	-0.263
-284.545	-39.015	0.228	-0.119
-283.530	353.158	-0.112	-0.219
-282.516	-60.968	-0.300	0.126
-281.501	-200.000	-0.052	0.536
-280.486	74.239	0.104	0.109
-279.472	423.010	0.027	-0.058
-278.457	1.049	0.167	-0.119
-277.443	800.000	0.045	-0.155
-276.428	-64.592	-0.281	0.113
-275.413	-4.742	-0.059	-0.041
-274.399	-200.000	0.040	0.246
-273.384	-105.961	-0.287	-0.064
-272.370	-200.000	0.050	-0.308
-271.355	41.286	0.134	-0.120
-270.340	-55.122	-0.024	-0.011
-269.326	228.679	-0.101	0.163
-268.311	-85.738	0.257	-0.079
-267.297	244.106	-0.262	-0.436
-266.282	-24.516	-0.286	-0.169
-265.267	-34.732	0.280	-0.151
-264.253	-121.924	-0.324	-0.053
-263.238	-13.491	-0.188	0.121
-262.224	101.064	-0.230	0.265
-261.209	146.665	-0.096	0.128
-260.195	143.934	0.112	0.148
-259.180	-35.643	-0.021	-0.011
-258.165	40.810	0.218	-0.195
-257.151	39.223	-0.165	0.146
-256.136	800.000	-0.048	0.157
-255.122	-13.185	-0.379	0.244
-254.107	60.199	-0.142	-0.139
-253.092	182.764	0.066	-0.096
-252.078	97.297	-0.110	-0.125
-251.063	139.690	0.229	0.298
-250.049	196.102	-0.165	0.249
-249.034	-99.339	0.265	0.066
-248.019	98.460	0.256	-0.292
-247.005	464.118	0.062	0.136
-245.990	-100.663	0.158	0.038
-244.976	-200.000	0.034	0.160
-243.961	86.226	-0.127	0.138
-242.946	-70.750	-0.183	0.068
-241.932	-4.959	-0.090	0.061
-240.917	-108.028	0.294	0.063
-239.903	-105.298	0.157	0.035
-238.888	46.049	-0.112	-0.103
-237.873	-200.000	-0.020	0.291
-236.859	-1.017	-0.245	-0.172
-235.844	716.943	0.021	0.056
-234.830	-200.000	0.027	0.189
-233.815	-51.694	0.220	-0.102
-232.800	-149.560	0.268	-0.021
-231.786	-78.151	-0.165	-0.056
-230.771	184.439	0.312	-0.456
-229.757	800.000	0.137	-0.450
-228.742	34.135	-0.195	-0.168
-227.727	-200.000	-0.077	-0.401
-226.713	-200.000	-0.012	0.092
-225.698	-200.000	0.021	0.419
-224.684	-200.000	-0.004	0.133
-223.669	-6.514	-0.156	-0.105
-222.655	27.721	0.270	0.225
-221.640	41.320	0.276	0.247
-220.625	36.135	-0.187	-0.163
-219.611	-161.981	0.406	0.020
-218.596	-200.000	-0.007	0.294
-217.582	-200.000	-0.005	0.338
-216.567	-157.912	-0.177	0.010
-215.552	-38.363	-0.350	0.183
-214.538	-39.452	-0.381	0.197
-213.523	-60.922	0.474	-0.198
-212.509	-101.993	0.173	0.041
-211.494	6.504	-0.112	-0.082
-210.479	175.001	-0.215	-0.308
-209.465	-200.000	0.061	-0.295
-208.450	506.160	0.052	-0.119
-207.436	144.027	-0.123	0.162
-206.421	-52.049	0.143	-0.065
-205.406	95.701	-0.085	0.095
-204.392	-200.000	-0.020	-0.164
-203.377	23.573	0.229	-0.186
-202.363	247.380	-0.129	-0.215
-201.348	26.442	0.182	0.150
-200.333	781.395	0.123	-0.333
-199.319	-200.000	-0.021	-0.482
-198.304	262.970	-0.133	-0.229
-197.290	185.174	0.032	-0.047
-196.275	137.970	0.215	0.278
-195.260	-29.733	-0.308	0.173
-194.246	-200.000	-0.012	0.063
-193.231	186.025	-0.016	0.024
-192.217	-155.407	0.166	0.011
-191.202	-62.752	0.221	0.090
-190.187	-152.252	-0.284	0.020
-189.173	-200.000	0.017	0.074
-188.158	800.000	0.113	0.327
-187.144	266.797	0.102	0.177
-186.129	-200.000	-0.047	0.350
-185.114	-200.000	0.037	-0.408
-184.100	431.599	-0.145	0.310
-183.085	34.029	-0.231	-0.198
-182.071	104.947	-0.101	0.118
-181.056	411.887	0.016	0.034
-180.042	-200.000	-0.032	0.160
-179.027	-86.926	0.200	0.060
-178.012	-61.305	0.265	0.110
-176.998	270.567	-0.025	-0.043
-175.983	800.000	-0.057	0.183
-174.969	339.497	-0.105	0.202
-173.954	228.663	0.195	0.313
-172.939	0.695	0.019	-0.014
-171.925	292.932	0.253	-0.455
-170.910	-9.841	0.169	0.111
-169.896	721.602	-0.091	0.238
-168.881	-91.210	0.167	-0.047
-167.866	56.053	-0.192	0.184
-166.852	121.017	-0.137	-0.169
-165.837	65.392	-0.183	-0.183
-164.823	-19.083	-0.188	0.115
-163.808	-9.401	-0.186	0.122
-162.793	-32.835	0.085	0.046
-161.779	800.000	-0.023	0.091
-160.764	-169.997	0.078	-0.003
-159.750	-200.000	-0.012	0.193
-158.735	-200.000	-0.019	0.240
-157.720	-55.636	0.248	0.110
-156.706	140.936	0.136	-0.177
-155.691	-200.000	0.019	0.181
-154.677	800.000	-0.004	-0.012
-153.662	-142.480	0.101	0.010
-152.647	194.263	0.185	0.276
-151.633	-200.000	-0.092	-0.451
-150.618	-200.000	0.015	0.164
-149.604	-33.611	-0.098	0.053
-148.589	36.489	-0.057	-0.050
-147.574	-13.660	0.239	0.153
-146.560	520.046	0.080	-0.184
-145.545	-153.853	-0.247	-0.017
-144.531	-200.000	-0.002	0.026
-143.516	800.000	0.118	-0.402
-142.502	-200.000	0.014	-0.169
-141.487	-37.267	-0.165	-0.087
-140.472	-118.101	0.088	0.015
-139.458	83.559	-0.157	0.169
-138.443	-26.056	0.120	-0.070
-137.429	111.599	-0.124	0.147
-136.414	184.375	0.114	0.167
-135.399	-200.000	0.007	0.126
-134.385	243.156	0.154	0.255
-133.370	103.252	0.081	-0.093
-132.356	-61.408	-0.195	0.081
-131.341	-33.389	0.116	-0.063
-130.326	-200.000	-0.023	0.120
-129.312	196.149	0.106	0.159
-128.297	184.167	0.247	-0.360
-127.283	-88.857	-0.322	0.094
-126.268	-167.177	0.492	-0.020
-125.253	-200.000	-0.014	-0.177
-124.239	111.724	0.207	-0.246
-123.224	291.277	0.140	-0.251
-122.210	276.881	-0.085	0.148
-121.195	-104.938	0.236	0.053
