DTS Sentinel unit serial number:	SN413079Multiplexer serial number:	ORYXHardware model number:	OX4-SRSoftware version number:	ORYX F/W v4.00 Oryx Data Collector v3.7.2.0data status	okinstallation	princeton_trtdifferential loss correction	single-endedforward channel	channel 2reverse channel	N/Adate	2019/09/13time	19:19:35forward acquisition time	60.00reverse acquisition time	0.00gamma	496.2192k internal	0.2328k external	0.2328temperature offset calibration	1.0169default loss term (dB/km)	0.3790temperature slope calibration	1.0000multiplexer offset coefficient	1.0000multiplexer slope coefficient	1.0000fibre end	0.00T internal ref (°C)	31.14T ext. ref 1 (°C)	3.79T ext. ref 2 (°C)	24.58length (m)	temperature (°C)	Stokes	anti-Stokes-747.200	-79.963	-0.189	-0.064
-746.185	-200.000	0.006	0.168
-745.171	314.621	-0.099	-0.187
-744.156	-93.515	-0.331	-0.092
-743.142	137.928	-0.118	0.156
-742.127	-200.000	0.009	-0.370
-741.112	-105.576	-0.307	-0.070
-740.098	149.499	0.133	0.182
-739.083	639.344	0.089	0.228
-738.069	13.982	0.190	0.149
-737.054	716.278	0.047	-0.126
-736.039	-69.504	-0.172	-0.066
-735.025	-41.754	-0.135	0.070
-734.010	5.807	0.075	-0.056
-732.996	53.969	0.061	-0.059
-731.981	800.000	-0.105	-0.326
-730.966	73.773	-0.258	-0.272
-729.952	8.766	-0.243	-0.185
-728.937	-200.000	0.174	-0.001
-727.923	301.194	-0.167	-0.311
-726.908	800.000	-0.021	-0.061
-725.894	-135.014	-0.326	-0.040
-724.879	-23.783	0.370	0.223
-723.864	800.000	-0.038	0.107
-722.850	-200.000	0.013	-0.067
-721.835	222.631	-0.186	-0.302
-720.821	800.000	-0.081	0.344
-719.806	-200.000	0.033	0.253
-718.791	68.895	-0.003	-0.004
-717.777	-60.222	-0.113	0.048
-716.762	-128.549	-0.192	-0.027
-715.748	-52.092	-0.346	-0.162
-714.733	-50.056	0.019	-0.009
-713.718	503.174	0.089	-0.207
-712.704	120.150	-0.156	-0.195
-711.689	-200.000	0.014	0.107
-710.675	79.383	-0.117	0.126
-709.660	-40.459	0.235	0.123
-708.645	-200.000	-0.057	0.336
-707.631	160.949	0.040	-0.056
-706.616	-74.531	-0.101	0.037
-705.602	119.673	0.203	-0.253
-704.587	-34.987	-0.248	-0.136
-703.572	-200.000	0.063	-0.447
-702.558	-19.121	0.063	0.039
-701.543	251.810	-0.080	0.137
-700.529	-200.000	-0.062	0.302
-699.514	84.172	0.091	0.100
-698.499	34.010	0.051	0.045
-697.485	-18.829	-0.245	-0.153
-696.470	-131.083	0.238	-0.032
-695.456	-84.238	0.340	-0.108
-694.441	464.901	0.096	-0.216
-693.426	-52.145	-0.178	0.083
-692.412	-84.034	0.113	-0.036
-691.397	641.795	-0.121	-0.309
-690.383	258.621	-0.064	-0.110
-689.368	-21.250	0.243	-0.149
-688.354	141.762	0.088	0.117
-687.339	-45.745	-0.186	-0.092
-686.324	-94.066	-0.263	0.073
-685.310	63.420	-0.071	-0.071
-684.295	-44.939	-0.114	-0.057
-683.281	-142.965	-0.246	-0.024
-682.266	-167.801	-0.317	0.013
-681.251	257.394	0.148	-0.256
-680.237	-200.000	-0.057	0.375
-679.222	-200.000	0.043	0.335
-678.208	-41.151	-0.040	-0.021
-677.193	147.560	-0.176	0.238
-676.178	232.780	-0.108	0.179
-675.164	-10.152	-0.179	0.120
-674.149	183.738	0.151	0.224
-673.135	800.000	-0.067	-0.291
-672.120	-188.718	-0.177	0.002
-671.105	314.297	-0.060	0.114
-670.091	-42.285	-0.152	0.078
-669.076	-200.000	0.006	-0.235
-668.062	-200.000	-0.044	-0.352
-667.047	103.840	-0.170	-0.201
-666.032	-138.431	-0.344	-0.038
-665.018	800.000	0.086	0.249
-664.003	59.130	-0.224	-0.221
-662.989	800.000	0.072	0.211
-661.974	47.461	0.386	0.361
-660.959	-38.027	-0.259	0.138
-659.945	-188.694	0.316	-0.004
-658.930	-200.000	0.003	0.092
-657.916	534.536	-0.086	0.206
-656.901	-200.000	0.011	-0.262
-655.886	-200.000	0.042	0.278
-654.872	101.174	-0.218	0.255
-653.857	-167.158	0.161	-0.007
-652.843	94.492	0.288	0.328
-651.828	655.988	0.074	0.192
-650.814	-151.399	-0.299	-0.022
-649.799	800.000	-0.021	0.065
-648.784	102.661	0.044	0.052
-647.770	60.789	0.290	-0.289
-646.755	-128.881	-0.061	-0.009
-645.741	800.000	-0.013	0.038
-644.726	15.362	-0.441	-0.348
-643.711	-134.701	0.172	0.021
-642.697	492.825	0.053	-0.122
-641.682	358.172	-0.089	-0.179
-640.668	198.703	-0.274	-0.420
-639.653	-200.000	0.041	-0.189
-638.638	-34.316	0.250	0.138
-637.624	328.526	0.046	-0.089
-636.609	455.693	0.124	0.276
-635.595	800.000	-0.079	-0.331
-634.580	-147.628	0.285	-0.024
-633.565	92.699	0.075	0.085
-632.551	-44.414	0.198	-0.099
-631.536	127.972	-0.164	0.209
-630.522	-67.296	0.257	0.101
-629.507	-21.021	-0.283	0.174
-628.492	-15.417	0.128	-0.082
-627.478	-200.000	0.043	0.297
-626.463	-200.000	0.059	0.415
-625.449	-88.271	-0.173	0.052
-624.434	-114.269	0.335	-0.065
-623.419	-129.506	0.235	-0.033
-622.405	-9.785	0.257	-0.171
-621.390	80.128	-0.227	0.245
-620.376	192.549	-0.122	-0.184
-619.361	118.614	0.081	-0.100
-618.346	-200.000	0.075	0.382
-617.332	6.852	0.091	-0.068
-616.317	29.530	-0.147	0.125
-615.303	800.000	0.054	-0.197
-614.288	457.205	0.188	-0.420
-613.273	117.136	-0.059	0.073
-612.259	214.260	0.268	-0.426
-611.244	-120.161	-0.304	-0.052
-610.230	13.529	-0.236	0.184
-609.215	-200.000	-0.018	0.135
-608.201	800.000	0.042	-0.152
-607.186	-200.000	0.013	-0.257
-606.171	-116.419	0.189	-0.035
-605.157	2.330	0.048	-0.034
-604.142	-200.000	-0.009	-0.075
-603.128	-200.000	0.038	0.287
-602.113	597.464	0.110	-0.272
-601.098	-99.977	0.126	0.031
-600.084	-200.000	0.017	0.244
-599.069	-132.080	0.310	-0.040
-598.055	-200.000	-0.014	0.142
-597.040	53.795	-0.129	0.124
-596.025	-189.511	0.042	-0.000
-595.011	264.294	-0.309	0.539
-593.996	-117.975	0.167	-0.030
-592.982	-168.499	0.665	0.025
-591.967	207.791	-0.079	0.124
-590.952	77.600	-0.210	0.224
-589.938	197.845	-0.048	-0.074
-588.923	-12.016	-0.284	-0.186
-587.909	-84.511	-0.303	0.096
-586.894	-124.039	-0.121	0.019
-585.879	68.052	0.078	0.079
-584.865	258.087	0.110	0.189
-583.850	354.377	-0.129	0.256
-582.836	-200.000	0.007	-0.112
-581.821	-111.575	-0.140	0.028
-580.806	-44.634	0.080	-0.040
-579.792	-31.640	0.155	0.087
-578.777	800.000	0.033	0.093
-577.763	-121.709	0.435	0.072
-576.748	-48.147	-0.224	0.108
-575.733	-97.495	-0.325	-0.085
-574.719	-111.301	-0.423	-0.086
-573.704	-200.000	0.011	-0.201
-572.690	67.402	0.075	-0.077
-571.675	-33.743	0.053	-0.029
-570.661	140.257	0.168	-0.222
-569.646	-124.223	0.145	-0.023
-568.631	800.000	-0.078	-0.255
-567.617	-117.605	-0.366	0.066
-566.602	-9.434	0.232	-0.155
-565.588	800.000	-0.041	0.178
-564.573	-111.102	-0.335	0.069
-563.558	-200.000	0.000	-0.041
-562.544	-200.000	0.020	-0.242
-561.529	273.128	-0.208	0.367
-560.515	58.257	0.124	-0.122
-559.500	-0.725	0.280	0.199
-558.485	-200.000	0.005	-0.121
-557.471	33.410	-0.263	-0.228
-556.456	-11.091	0.050	-0.033
-555.442	-200.000	0.008	-0.146
-554.427	-102.780	0.113	-0.027
-553.412	3.245	0.020	-0.014
-552.398	-52.931	0.161	-0.074
-551.383	-95.970	0.041	0.011
-550.369	92.554	-0.093	0.105
-549.354	800.000	0.065	0.256
-548.339	-124.808	0.186	-0.029
-547.325	223.669	0.103	0.167
-546.310	-66.957	-0.193	0.076
-545.296	-200.000	-0.016	0.221
-544.281	-61.839	-0.156	-0.065
-543.266	-41.606	-0.125	-0.064
-542.252	-200.000	0.012	-0.111
-541.237	-200.000	0.024	0.244
-540.223	-87.098	0.125	0.038
-539.208	800.000	-0.038	-0.157
-538.193	96.906	-0.239	0.274
-537.179	574.759	0.073	-0.179
-536.164	186.814	0.301	-0.448
-535.150	342.280	-0.097	-0.190
-534.135	1.794	-0.040	-0.029
-533.121	-200.000	0.031	0.177
-532.106	-62.691	-0.152	0.063
-531.091	-105.804	-0.157	-0.036
-530.077	-79.042	0.401	-0.136
-529.062	-16.579	-0.131	-0.083
-528.048	449.969	-0.162	-0.356
-527.033	790.924	-0.086	-0.237
-526.018	-24.201	0.258	-0.154
-525.004	238.507	0.195	0.324
-523.989	-46.493	0.249	-0.122
-522.975	-2.079	0.078	-0.055
-521.960	-181.150	-0.184	0.004
-520.945	-200.000	0.010	-0.099
-519.931	-102.600	-0.327	-0.078
-518.916	120.019	0.156	-0.194
-517.902	800.000	0.081	0.289
-516.887	-98.456	0.298	-0.076
-515.872	-139.762	-0.356	-0.038
-514.858	54.943	0.137	0.132
-513.843	-136.223	-0.459	-0.054
-512.829	121.428	-0.295	-0.368
-511.814	36.280	0.302	0.266
-510.799	-175.783	0.270	0.007
-509.785	-200.000	0.069	-0.321
-508.770	407.053	-0.040	-0.085
-507.756	-63.343	-0.170	-0.070
-506.741	230.667	-0.153	0.251
-505.726	56.164	0.091	0.088
-504.712	-126.156	-0.068	0.010
-503.697	13.637	0.065	0.051
-502.683	800.000	0.152	-0.493
-501.668	-200.000	0.009	0.333
-500.653	-200.000	-0.039	0.238
-499.639	-26.878	0.163	-0.095
-498.624	-27.694	0.047	0.027
-497.610	582.865	0.077	0.189
-496.595	-71.380	-0.163	0.061
-495.581	11.010	-0.240	-0.183
-494.566	800.000	0.125	-0.399
-493.551	757.272	-0.014	-0.038
-492.537	-97.377	-0.284	-0.074
-491.522	-200.000	-0.025	-0.252
-490.508	4.537	0.167	-0.123
-489.493	-105.348	0.080	-0.018
-488.478	-51.486	0.197	-0.092
-487.464	-200.000	0.000	0.238
-486.449	756.782	-0.053	0.144
-485.435	23.633	-0.054	0.044
-484.420	-182.752	-0.326	0.006
-483.405	800.000	0.057	-0.222
-482.391	-25.348	-0.279	-0.165
-481.376	-200.000	0.000	0.293
-480.362	-31.683	0.068	-0.038
-479.347	-16.826	-0.090	0.057
-478.332	392.934	-0.061	-0.127
-477.318	-125.997	0.119	-0.018
-476.303	116.901	-0.172	-0.211
-475.289	141.661	0.130	0.172
-474.274	152.543	0.192	0.261
-473.259	800.000	-0.118	0.411
-472.245	-91.629	-0.244	-0.069
-471.230	-200.000	-0.002	0.236
-470.216	234.718	-0.100	-0.165
-469.201	238.776	0.083	-0.138
-468.186	-200.000	0.059	0.349
-467.172	-26.509	0.112	0.065
-466.157	-128.586	-0.162	0.023
-465.143	43.499	-0.065	0.059
-464.128	17.342	0.093	0.074
-463.113	-200.000	0.035	-0.219
-462.099	800.000	0.030	-0.119
-461.084	97.841	0.061	-0.070
-460.070	-84.673	0.065	0.020
-459.055	-121.992	0.171	-0.028
-458.040	549.580	-0.057	0.137
-457.026	280.730	0.188	0.334
-456.011	-111.850	0.083	-0.017
-454.997	-200.000	-0.037	-0.216
-453.982	704.317	0.154	-0.404
-452.968	358.157	-0.118	-0.234
-451.953	393.176	0.092	-0.190
-450.938	30.379	0.093	-0.079
-449.924	-73.358	-0.446	0.162
-448.909	405.854	-0.097	-0.203
-447.895	-200.000	-0.017	-0.160
-446.880	64.740	0.179	-0.180
-445.865	-112.366	0.141	0.028
-444.851	27.987	0.100	-0.084
-443.836	210.409	-0.158	-0.247
-442.822	123.199	0.113	-0.140
-441.807	-165.299	0.086	-0.004
-440.792	0.374	-0.196	0.139
-439.778	-100.812	-0.283	0.069
-438.763	-69.974	0.162	-0.061
-437.749	769.775	0.008	-0.022
-436.734	123.524	-0.107	0.133
-435.719	-22.274	0.146	0.088
-434.705	562.742	-0.010	0.024
-433.690	57.060	-0.111	-0.108
-432.676	585.707	-0.115	0.281
-431.661	-98.974	-0.210	0.053
-430.646	-64.394	-0.155	0.063
-429.632	-134.073	-0.045	0.006
-428.617	-143.361	0.166	-0.016
-427.603	432.845	0.105	0.226
-426.588	5.836	-0.168	0.124
-425.573	-131.008	0.339	0.045
-424.559	-200.000	0.025	-0.219
-423.544	-132.090	-0.095	0.012
-422.530	-59.368	0.166	0.071
-421.515	50.822	0.102	-0.096
-420.500	-200.000	-0.035	0.157
-419.486	92.422	-0.071	-0.079
-418.471	9.383	0.295	-0.222
-417.457	-200.000	0.005	0.096
-416.442	800.000	0.067	-0.246
-415.428	137.437	-0.177	-0.230
-414.413	226.328	0.091	-0.147
-413.398	-200.000	-0.012	0.224
-412.384	305.757	0.136	0.252
-411.369	310.791	-0.121	0.226
-410.355	-200.000	-0.009	0.101
-409.340	226.146	-0.106	-0.170
-408.325	-34.305	-0.287	0.157
-407.311	-31.201	0.144	0.081
-406.296	472.941	0.089	0.199
-405.282	-151.977	-0.247	0.018
-404.267	645.555	0.011	0.029
-403.252	-121.309	-0.209	-0.035
-402.238	800.000	0.088	0.331
-401.223	-28.841	0.418	-0.239
-400.209	-76.425	-0.174	-0.061
-399.194	-82.703	-0.257	-0.083
-398.179	227.650	0.150	0.243
-397.165	-144.441	0.051	0.005
-396.150	-103.335	-0.183	0.043
-395.136	-50.607	0.109	0.051
-394.121	61.129	-0.363	0.358
-393.106	-55.439	0.154	0.069
-392.092	-46.632	0.110	0.053
-391.077	309.155	-0.034	0.063
-390.063	-31.225	0.300	-0.168
-389.048	191.543	0.177	0.266
-388.033	-136.686	-0.211	-0.024
-387.019	-131.338	0.135	-0.018
-386.004	-200.000	-0.005	-0.198
-384.990	452.485	-0.078	-0.172
-383.975	79.244	0.115	0.122
-382.960	77.986	0.145	0.153
-381.946	787.733	0.048	-0.130
-380.931	797.833	-0.071	0.193
-379.917	800.000	0.053	-0.162
-378.902	312.301	0.039	-0.072
-377.888	800.000	-0.035	-0.152
-376.873	-146.442	-0.133	0.012
-375.858	-83.174	0.275	-0.088
-374.844	202.852	0.148	-0.227
-373.829	-200.000	-0.065	0.287
-372.815	-200.000	0.042	0.394
-371.800	557.710	-0.098	-0.234
-370.785	557.512	-0.061	-0.146
-369.771	-0.291	-0.030	0.021
-368.756	301.868	0.108	-0.199
-367.742	-98.993	0.097	-0.024
-366.727	8.004	-0.118	-0.088
-365.712	-2.209	0.245	0.170
-364.698	-73.602	-0.178	0.064
-363.683	-180.312	-0.167	-0.003
-362.669	182.108	0.029	0.043
-361.654	-147.627	-0.113	-0.009
-360.639	-200.000	0.024	0.292
-359.625	183.799	0.053	-0.078
-358.610	114.015	0.038	0.046
-357.596	-200.000	0.029	-0.265
-356.581	263.260	0.148	-0.255
-355.566	173.789	-0.143	-0.205
-354.552	-200.000	0.060	-0.274
-353.537	800.000	0.064	-0.214
-352.523	148.443	0.186	0.249
-351.508	-57.599	-0.128	-0.056
-350.493	50.898	-0.196	-0.184
-349.479	-200.000	-0.036	0.192
-348.464	-100.605	0.217	0.053
-347.450	354.192	-0.111	-0.219
-346.435	-91.920	0.483	-0.136
-345.420	-111.184	0.147	-0.030
-344.406	21.051	0.099	-0.080
-343.391	800.000	-0.198	0.548
-342.377	-128.665	0.137	-0.019
-341.362	690.932	-0.005	0.013
-340.348	-200.000	-0.036	-0.208
-339.333	-76.185	-0.363	-0.127
-338.318	800.000	-0.077	0.245
-337.304	-14.672	0.337	0.215
-336.289	-48.505	-0.081	0.039
-335.275	-108.733	-0.116	0.025
-334.260	-101.097	0.138	-0.034
-333.245	-163.729	0.260	0.012
-332.231	578.034	0.034	0.082
-331.216	-91.372	0.449	0.127
-330.202	-193.223	-0.130	0.001
-329.187	-158.372	-0.261	-0.015
-328.172	487.719	0.030	0.068
-327.158	800.000	0.078	0.230
-326.143	-52.957	0.141	0.064
-325.129	-25.343	-0.275	0.161
-324.114	-200.000	0.010	-0.176
-323.099	-200.000	-0.018	-0.104
-322.085	141.309	0.093	0.122
-321.070	-200.000	0.027	-0.151
-320.056	543.379	-0.174	-0.411
-319.041	-131.041	0.237	-0.031
-318.026	100.776	0.175	-0.201
-317.012	22.714	-0.083	0.068
-315.997	62.253	0.339	-0.335
-314.983	800.000	-0.053	0.223
-313.968	-49.339	0.080	0.038
-312.953	149.910	-0.244	-0.328
-311.939	113.321	-0.187	-0.225
-310.924	399.877	0.150	-0.311
-309.910	467.738	-0.085	0.189
-308.895	-51.097	-0.063	0.029
-307.880	-127.014	-0.136	-0.020
-306.866	90.650	0.101	0.112
-305.851	-12.631	-0.326	-0.210
-304.837	273.936	0.175	-0.306
-303.822	335.118	-0.050	-0.096
-302.807	11.022	-0.169	-0.128
-301.793	-200.000	-0.001	0.029
-300.778	-163.569	0.118	-0.006
-299.764	-127.099	-0.146	-0.021
-298.749	133.196	-0.063	-0.080
-297.735	108.583	0.158	0.186
-296.720	-75.136	-0.044	0.016
-295.705	21.890	0.138	-0.111
-294.691	800.000	-0.019	0.052
-293.676	-200.000	0.006	-0.090
-292.662	6.280	-0.191	-0.140
-291.647	-200.000	-0.018	0.375
-290.632	-200.000	0.046	0.413
-289.618	149.699	-0.213	-0.285
-288.603	800.000	0.084	0.321
-287.589	143.873	-0.090	0.119
-286.574	-43.650	0.088	0.044
-285.559	172.646	0.138	-0.196
-284.545	-108.744	-0.144	-0.030
-283.530	161.123	-0.158	-0.218
-282.516	-122.423	0.336	-0.054
-281.501	49.192	-0.203	0.189
-280.486	91.395	-0.163	-0.182
-279.472	501.907	0.029	-0.066
-278.457	800.000	0.039	-0.112
-277.443	53.221	0.061	-0.058
-276.428	-200.000	-0.040	0.289
-275.413	132.217	0.169	-0.215
-274.399	-132.244	-0.143	0.018
-273.384	270.530	-0.087	0.151
-272.370	-136.699	-0.223	-0.025
-271.355	800.000	-0.024	0.081
-270.340	-200.000	0.037	-0.168
-269.326	-200.000	-0.024	-0.177
-268.311	176.377	0.073	0.105
-267.297	336.910	0.111	-0.214
-266.282	729.110	-0.032	-0.083
-265.267	800.000	-0.023	0.087
-264.253	-200.000	-0.018	-0.111
-263.238	-5.615	0.163	-0.111
-262.224	20.783	-0.050	-0.040
-261.209	-67.180	-0.155	0.060
-260.195	-139.310	-0.218	-0.023
-259.180	64.655	0.053	0.052
-258.165	53.244	0.017	-0.016
-257.151	195.087	0.081	0.122
-256.136	419.964	0.050	0.107
-255.122	595.603	-0.064	-0.156
-254.107	800.000	0.046	0.189
-253.092	800.000	0.091	0.326
-252.078	-62.364	0.137	0.056
-251.063	-195.560	-0.404	0.003
-250.049	-190.775	-0.104	-0.001
-249.034	506.517	0.184	0.423
-248.019	530.933	-0.077	0.180
-247.005	391.734	0.065	0.134
-245.990	-51.048	0.174	0.081
-244.976	36.665	0.109	-0.095
-243.961	0.503	-0.089	0.063
-242.946	-31.827	-0.261	-0.144
-241.932	-66.350	-0.401	0.158
-240.917	-39.497	-0.325	-0.168
-239.903	-68.657	-0.288	0.110
-238.888	-14.792	-0.339	-0.215
-237.873	5.874	-0.187	-0.137
-236.859	405.702	0.059	0.123
-235.844	800.000	-0.014	0.049
-234.830	800.000	0.052	-0.152
-233.815	-200.000	0.059	0.472
-232.800	-22.668	-0.147	0.088
-231.786	39.197	0.144	0.127
-230.771	-198.169	0.069	0.000
-229.757	499.502	-0.113	0.257
-228.742	-200.000	-0.045	0.398
-227.727	-40.051	0.140	0.072
-226.713	28.042	0.194	-0.162
-225.698	89.305	-0.119	-0.131
-224.684	-200.000	-0.054	0.296
-223.669	-162.349	0.058	-0.003
-222.655	116.576	0.174	0.211
-221.640	-79.451	-0.161	0.054
-220.625	-49.729	0.180	0.084
-219.611	-82.355	-0.299	-0.096
-218.596	83.585	-0.051	0.055
-217.582	-120.339	0.355	-0.060
-216.567	-200.000	0.093	0.545
-215.552	293.707	-0.124	-0.224
-214.538	76.710	0.125	-0.131
-213.523	105.096	0.124	-0.145
-212.509	155.178	-0.161	0.218
-211.494	-200.000	-0.010	-0.207
-210.479	-101.361	-0.213	0.051
-209.465	-58.379	0.172	0.074
-208.450	-200.000	0.019	0.312
-207.436	800.000	0.112	0.420
-206.421	-48.380	-0.259	0.123
-205.406	47.985	-0.302	0.278
-204.392	-28.649	0.255	0.145
-203.377	425.755	0.120	-0.255
-202.363	78.979	0.083	-0.088
-201.348	-200.000	0.001	0.053
-200.333	-23.667	0.234	-0.138
-199.319	800.000	-0.040	-0.151
-198.304	-122.504	-0.139	-0.022
-197.290	-10.092	0.091	0.059
-196.275	800.000	0.083	0.288
-195.260	35.760	-0.113	-0.098
-194.246	-18.280	0.047	0.029
-193.231	-79.126	0.180	0.060
-192.217	622.217	-0.143	-0.354
-191.202	242.989	0.173	0.286
-190.187	607.874	-0.150	0.369
-189.173	182.232	0.125	0.181
-188.158	36.075	0.106	-0.092
-187.144	-10.378	0.296	0.194
-186.129	-139.401	-0.090	-0.010
-185.114	800.000	-0.121	-0.446
-184.100	160.248	-0.175	-0.240
-183.085	189.182	0.374	-0.553
-182.071	-136.385	-0.173	0.020
-181.056	-81.613	0.158	-0.051
-180.042	635.704	0.078	0.196
-179.027	55.109	-0.044	-0.042
-178.012	130.280	0.110	0.139
-176.998	316.382	0.020	0.036
-175.983	29.302	-0.210	0.176
-174.969	-131.813	0.158	0.020
-173.954	-200.000	-0.039	0.302
-172.939	-8.860	-0.206	0.136
-171.925	-68.407	0.211	0.081
-170.910	14.459	-0.141	0.109
-169.896	-184.127	-0.341	0.006
-168.881	511.821	0.132	-0.302
-167.866	232.769	-0.078	-0.126
-166.852	-139.757	-0.250	-0.026
-165.837	-29.684	-0.200	0.113
-164.823	-200.000	0.007	-0.280
-163.808	-200.000	-0.065	-0.377
-162.793	54.225	-0.078	-0.073
-161.779	800.000	0.059	0.166
-160.764	14.927	0.249	-0.192
-159.750	-200.000	0.021	0.092
-158.735	213.602	-0.098	0.152
-157.720	-24.956	-0.267	0.156
-156.706	-200.000	-0.018	-0.117
-155.691	104.060	0.192	-0.223
-154.677	-78.061	-0.324	-0.110
-153.662	96.473	0.101	-0.114
-152.647	256.748	0.090	0.152
-151.633	304.152	0.168	0.307
-150.618	-170.373	-0.024	0.001
-149.604	-200.000	-0.056	-0.304
-148.589	485.608	0.114	-0.255
-147.574	60.012	-0.074	0.072
-146.560	38.365	0.199	-0.175
-145.545	800.000	0.007	0.032
-144.531	-39.503	-0.227	-0.117
-143.516	85.770	-0.093	0.100
-142.502	340.662	0.084	0.161
-141.487	97.206	0.065	-0.073
-140.472	26.141	0.234	-0.192
-139.458	129.069	0.093	0.117
-138.443	-200.000	-0.030	0.312
-137.429	99.869	0.036	0.041
-136.414	793.675	0.059	0.160
-135.399	-117.710	0.046	-0.008
-134.385	-200.000	-0.043	0.188
-133.370	244.616	-0.035	0.057
-132.356	-152.832	0.150	-0.010
-131.341	90.646	-0.145	0.159
-130.326	56.175	-0.094	-0.089
-129.312	181.720	0.197	-0.285
-128.297	-200.000	-0.021	0.186
-127.283	-7.623	-0.198	0.132
-126.268	-25.360	0.220	0.128
-125.253	-83.490	-0.266	-0.084
-124.239	531.661	-0.066	0.154
-123.224	10.582	-0.320	0.240
-122.210	-200.000	-0.035	0.324
-121.195	73.518	0.240	0.247
