DTS Sentinel unit serial number:	SN413079Multiplexer serial number:	ORYXHardware model number:	OX4-SRSoftware version number:	ORYX F/W v4.00 Oryx Data Collector v3.7.2.0data status	okinstallation	princeton_trtdifferential loss correction	single-endedforward channel	channel 2reverse channel	N/Adate	2019/09/11time	05:57:10forward acquisition time	60.00reverse acquisition time	0.00gamma	496.2192k internal	0.2329k external	0.2329temperature offset calibration	0.9939default loss term (dB/km)	0.3790temperature slope calibration	1.0000multiplexer offset coefficient	1.0000multiplexer slope coefficient	1.0000fibre end	0.00T internal ref (°C)	29.42T ext. ref 1 (°C)	-0.22T ext. ref 2 (°C)	23.53length (m)	temperature (°C)	Stokes	anti-Stokes-747.200	-87.579	0.074	-0.023
-746.185	-200.000	-0.019	0.088
-745.171	431.986	0.195	0.425
-744.156	-200.000	0.027	0.355
-743.142	31.104	0.100	-0.086
-742.127	48.403	-0.157	-0.148
-741.112	46.914	-0.187	-0.175
-740.098	-200.000	0.049	0.445
-739.083	-128.078	0.051	0.007
-738.069	-134.486	-0.109	-0.013
-737.054	-167.165	0.308	0.013
-736.039	-149.545	-0.362	0.029
-735.025	40.280	0.108	-0.098
-734.010	127.025	-0.169	-0.216
-732.996	-14.689	-0.065	-0.042
-731.981	497.649	0.194	-0.449
-730.966	80.620	-0.134	0.146
-729.952	436.406	-0.037	-0.081
-728.937	30.443	0.174	-0.150
-727.923	-17.913	-0.296	-0.187
-726.908	24.808	0.197	-0.164
-725.894	-200.000	0.026	-0.188
-724.879	169.766	0.156	-0.224
-723.864	48.502	-0.024	0.023
-722.850	-88.727	0.221	0.066
-721.835	-200.000	-0.024	0.320
-720.821	800.000	-0.130	0.386
-719.806	-200.000	-0.016	-0.210
-718.791	322.102	0.057	0.109
-717.777	-200.000	0.004	-0.232
-716.762	189.290	-0.088	0.132
-715.748	-88.585	0.132	-0.040
-714.733	167.411	0.082	-0.118
-713.718	259.099	-0.262	-0.455
-712.704	16.133	-0.265	-0.210
-711.689	573.888	-0.116	-0.284
-710.675	-200.000	0.003	0.041
-709.660	-111.874	0.195	-0.040
-708.645	-5.944	0.034	-0.023
-707.631	71.663	-0.236	0.247
-706.616	330.116	-0.139	0.268
-705.602	800.000	0.055	0.176
-704.587	-47.372	-0.335	-0.164
-703.572	-173.680	-0.244	-0.007
-702.558	-200.000	-0.012	0.281
-701.543	-56.585	0.306	0.136
-700.529	445.573	-0.174	-0.385
-699.514	589.457	0.095	0.236
-698.499	-200.000	0.003	0.133
-697.485	-93.246	-0.366	-0.102
-696.470	67.769	0.195	-0.201
-695.456	-200.000	0.019	-0.089
-694.441	800.000	0.035	0.097
-693.426	-22.369	-0.231	-0.141
-692.412	538.687	-0.129	-0.309
-691.397	90.108	0.188	0.211
-690.383	-23.667	0.264	0.159
-689.368	210.675	0.057	-0.090
-688.354	32.197	0.089	-0.077
-687.339	13.169	-0.207	0.161
-686.324	-200.000	-0.005	-0.093
-685.310	800.000	0.059	0.168
-684.295	-23.226	-0.420	0.254
-683.281	-36.892	0.319	0.172
-682.266	58.058	-0.303	-0.298
-681.251	66.864	-0.094	-0.096
-680.237	709.307	0.137	-0.364
-679.222	767.937	0.056	0.154
-678.208	-200.000	-0.044	0.440
-677.193	-200.000	-0.010	-0.094
-676.178	-76.409	-0.147	0.052
-675.164	119.730	0.169	0.210
-674.149	7.519	-0.071	-0.053
-673.135	-25.887	0.091	0.054
-672.120	466.761	0.047	-0.105
-671.105	14.241	-0.187	0.146
-670.091	571.799	-0.045	-0.111
-669.076	-16.969	-0.037	0.023
-668.062	-184.950	0.222	0.004
-667.047	-21.084	-0.318	0.195
-666.032	-143.500	0.185	-0.018
-665.018	-200.000	-0.024	-0.294
-664.003	309.258	-0.076	-0.143
-662.989	-200.000	-0.038	0.214
-661.974	-143.468	-0.136	0.013
-660.959	196.166	-0.048	-0.073
-659.945	-24.218	-0.536	-0.321
-658.930	335.284	-0.121	0.235
-657.916	-10.809	0.219	-0.145
-656.901	-9.182	-0.098	0.066
-655.886	-22.465	-0.227	-0.138
-654.872	-130.540	-0.230	0.031
-653.857	-200.000	0.047	0.301
-652.843	53.464	0.195	0.188
-651.828	-200.000	0.057	-0.334
-650.814	-200.000	0.023	-0.169
-649.799	562.017	-0.045	-0.109
-648.784	-122.287	0.078	-0.013
-647.770	-6.531	-0.134	-0.092
-646.755	155.965	0.148	-0.205
-645.741	-125.086	-0.426	0.066
-644.726	71.406	0.121	0.126
-643.711	-85.040	0.179	0.056
-642.697	-200.000	-0.032	-0.180
-641.682	-200.000	0.007	-0.266
-640.668	191.091	-0.193	-0.292
-639.653	107.795	-0.125	0.149
-638.638	-104.953	0.199	-0.046
-637.624	-141.278	-0.303	-0.031
-636.609	559.742	-0.070	-0.170
-635.595	389.991	-0.151	-0.313
-634.580	-106.432	0.416	0.093
-633.565	73.286	-0.089	-0.093
-632.551	177.181	-0.007	0.010
-631.536	-69.176	0.120	-0.046
-630.522	236.079	0.063	-0.105
-629.507	800.000	-0.015	0.063
-628.492	-98.501	-0.243	0.062
-627.478	-58.547	0.365	0.159
-626.463	-110.204	-0.303	0.063
-625.449	15.782	-0.137	0.108
-624.434	25.780	0.221	-0.185
-623.419	-3.144	-0.224	-0.157
-622.405	-110.697	-0.068	0.014
-621.390	-51.884	-0.219	-0.102
-620.376	94.353	-0.333	-0.379
-619.361	-15.012	-0.088	0.057
-618.346	-141.434	0.128	-0.013
-617.332	150.779	0.291	-0.397
-616.317	79.522	-0.176	-0.190
-615.303	-200.000	0.040	0.265
-614.288	-29.959	-0.159	-0.091
-613.273	-15.978	-0.160	-0.102
-612.259	-96.980	-0.152	0.040
-611.244	800.000	-0.064	0.216
-610.230	800.000	-0.051	0.190
-609.215	-28.097	0.149	0.086
-608.201	524.234	0.041	0.096
-607.186	-188.057	-0.152	-0.002
-606.171	-200.000	0.045	0.287
-605.157	-74.027	-0.279	0.101
-604.142	52.461	-0.011	0.011
-603.128	-87.904	-0.226	-0.068
-602.113	-23.740	-0.271	-0.163
-601.098	-153.869	-0.247	-0.017
-600.084	-73.834	0.091	-0.033
-599.069	147.879	-0.091	-0.123
-598.055	441.011	-0.067	-0.148
-597.040	800.000	0.088	0.246
-596.025	-149.954	0.204	0.016
-595.011	-169.320	-0.443	-0.016
-593.996	8.567	0.254	0.192
-592.982	37.439	0.136	-0.121
-591.967	-6.698	0.041	-0.028
-590.952	-200.000	0.003	-0.195
-589.938	-124.103	-0.112	0.018
-588.923	442.239	0.073	0.160
-587.909	87.688	-0.261	-0.290
-586.894	-174.060	-0.075	0.002
-585.879	772.231	-0.139	0.380
-584.865	-33.980	0.138	0.076
-583.850	-200.000	0.013	-0.294
-582.836	-85.600	-0.094	-0.029
-581.821	228.739	-0.132	0.215
-580.806	-120.969	-0.362	-0.061
-579.792	-200.000	-0.016	0.129
-578.777	6.283	0.248	-0.184
-577.763	-200.000	-0.034	-0.389
-576.748	-200.000	0.036	0.282
-575.733	-62.739	-0.276	-0.115
-574.719	800.000	0.053	-0.210
-573.704	296.302	-0.042	-0.076
-572.690	198.894	-0.074	0.113
-571.675	371.691	-0.115	-0.233
-570.661	-43.784	-0.309	-0.156
-569.646	800.000	0.053	-0.170
-568.631	43.096	-0.196	-0.179
-567.617	68.923	0.084	0.087
-566.602	-2.824	-0.239	0.167
-565.588	9.316	-0.062	0.047
-564.573	-123.834	0.239	-0.038
-563.558	161.683	-0.172	-0.240
-562.544	-200.000	-0.021	-0.272
-561.529	95.121	-0.051	-0.058
-560.515	-7.537	-0.038	0.025
-559.500	58.140	0.143	-0.140
-558.485	19.968	0.192	-0.155
-557.471	-200.000	-0.020	-0.316
-556.456	-69.479	-0.069	0.026
-555.442	800.000	0.105	-0.392
-554.427	8.215	0.289	-0.217
-553.412	-116.023	-0.043	0.008
-552.398	66.588	-0.227	-0.230
-551.383	800.000	0.031	-0.114
-550.369	131.113	-0.106	0.136
-549.354	169.885	0.069	0.098
-548.339	-50.864	0.051	-0.024
-547.325	-70.198	0.381	-0.145
-546.310	-200.000	0.039	-0.228
-545.296	800.000	-0.040	-0.173
-544.281	138.541	0.182	-0.239
-543.266	-172.893	0.137	0.004
-542.252	-3.695	-0.212	0.148
-541.237	-160.724	0.133	0.007
-540.223	-200.000	0.000	0.201
-539.208	-200.000	-0.024	-0.121
-538.193	-105.203	-0.201	-0.046
-537.179	-200.000	-0.009	0.313
-536.164	-59.083	0.125	0.054
-535.150	-107.198	0.127	-0.028
-534.135	-176.823	0.224	-0.006
-533.121	104.006	0.067	0.079
-532.106	-85.477	-0.090	0.028
-531.091	90.209	0.129	0.144
-530.077	56.956	-0.317	0.309
-529.062	73.323	0.055	0.057
-528.048	-111.935	-0.418	-0.084
-527.033	89.537	0.054	-0.060
-526.018	-49.758	-0.069	-0.033
-525.004	-89.068	-0.085	0.025
-523.989	-14.732	0.188	-0.120
-522.975	-70.703	0.248	-0.093
-521.960	-30.857	0.364	0.205
-520.945	800.000	0.054	0.193
-519.931	3.734	0.419	-0.306
-518.916	-148.988	-0.187	0.015
-517.902	-123.365	0.135	0.021
-516.887	213.591	-0.183	-0.288
-515.872	-102.157	-0.174	-0.042
-514.858	-31.540	0.007	-0.004
-513.843	-17.477	-0.433	-0.272
-512.829	197.938	0.075	-0.115
-511.814	-102.147	0.453	-0.109
-510.799	-143.691	-0.393	0.037
-509.785	-130.597	0.065	-0.009
-508.770	800.000	-0.049	-0.183
-507.756	-200.000	-0.068	-0.339
-506.741	-200.000	0.010	0.052
-505.726	-59.478	0.090	0.039
-504.712	-200.000	-0.073	0.401
-503.697	-96.656	-0.204	0.054
-502.683	48.454	-0.028	0.026
-501.668	-112.251	-0.067	-0.013
-500.653	-200.000	0.020	-0.156
-499.639	11.536	0.142	-0.108
-498.624	-200.000	-0.027	0.141
-497.610	367.967	0.064	0.128
-496.595	-122.964	0.340	0.055
-495.581	-200.000	0.024	0.421
-494.566	800.000	-0.079	0.246
-493.551	615.987	-0.167	-0.419
-492.537	-151.922	0.247	-0.018
-491.522	-200.000	0.015	0.239
-490.508	-168.337	-0.099	0.004
-489.493	129.697	0.157	0.200
-488.478	4.847	0.223	0.164
-487.464	-24.826	-0.195	0.115
-486.449	-142.047	0.261	0.026
-485.435	487.351	-0.053	0.121
-484.420	24.880	-0.079	0.065
-483.405	174.802	0.192	0.278
-482.391	-200.000	0.040	0.444
-481.376	-200.000	0.025	0.150
-480.362	-113.392	-0.120	0.023
-479.347	-200.000	0.017	-0.080
-478.332	800.000	0.087	-0.240
-477.318	186.306	-0.080	-0.119
-476.303	800.000	0.042	0.128
-475.289	179.901	-0.105	0.154
-474.274	-200.000	-0.056	0.391
-473.259	385.287	-0.226	0.465
-472.245	69.503	0.066	0.068
-471.230	-121.476	-0.105	0.017
-470.216	-78.148	0.089	0.030
-469.201	800.000	0.061	-0.168
-468.186	12.002	-0.182	-0.139
-467.172	-13.519	0.107	-0.069
-466.157	-32.086	-0.299	0.166
-465.143	203.392	-0.198	-0.304
-464.128	242.579	-0.186	-0.310
-463.113	-200.000	-0.041	0.262
-462.099	10.513	-0.136	0.103
-461.084	59.986	0.151	0.149
-460.070	-2.695	0.074	0.051
-459.055	40.150	-0.209	-0.187
-458.040	800.000	0.064	-0.198
-457.026	-200.000	-0.004	-0.242
-456.011	-200.000	-0.017	0.085
-454.997	91.569	0.208	-0.233
-453.982	62.984	0.069	0.069
-452.968	30.686	0.155	0.132
-451.953	-33.747	-0.174	-0.095
-450.938	174.353	-0.138	-0.199
-449.924	100.083	0.137	0.158
-448.909	161.858	-0.137	-0.192
-447.895	-13.648	-0.201	0.129
-446.880	-68.486	-0.243	0.094
-445.865	460.914	-0.136	0.301
-444.851	-200.000	-0.024	0.290
-443.836	232.783	0.113	0.185
-442.822	-42.109	0.248	0.126
-441.807	-132.282	-0.198	0.025
-440.792	116.314	-0.058	-0.071
-439.778	-33.845	-0.080	-0.044
-438.763	-97.338	0.331	-0.086
-437.749	-200.000	-0.027	-0.178
-436.734	31.638	0.201	-0.172
-435.719	48.109	-0.214	0.199
-434.705	18.432	0.393	0.312
-433.690	2.423	-0.104	0.075
-432.676	-140.798	-0.219	-0.022
-431.661	-65.101	0.190	-0.076
-430.646	188.655	0.254	0.378
-429.632	-17.692	-0.284	-0.178
-428.617	-200.000	0.036	0.367
-427.603	-11.119	0.282	-0.185
-426.588	-38.617	-0.133	0.070
-425.573	175.030	-0.094	-0.136
-424.559	197.977	0.019	-0.030
-423.544	147.818	-0.134	0.180
-422.530	308.906	0.151	0.280
-421.515	5.728	-0.172	-0.127
-420.500	-0.044	0.216	-0.153
-419.486	179.651	-0.116	-0.168
-418.471	144.178	0.162	-0.214
-417.457	800.000	0.034	0.143
-416.442	-80.714	0.388	0.128
-415.428	291.520	0.112	-0.202
-414.413	-108.083	-0.227	0.049
-413.398	-23.761	0.069	-0.041
-412.384	-73.851	-0.251	0.091
-411.369	-173.916	-0.093	-0.003
-410.355	-200.000	0.012	-0.352
-409.340	95.399	-0.097	0.109
-408.325	800.000	-0.107	0.368
-407.311	-71.711	-0.149	-0.055
-406.296	422.285	0.046	0.099
-405.282	-90.482	-0.294	-0.085
-404.267	-149.841	-0.261	0.020
-403.252	-99.889	0.105	0.026
-402.238	152.820	-0.124	0.169
-401.223	-200.000	-0.025	0.151
-400.209	54.628	0.183	-0.176
-399.194	800.000	0.056	-0.213
-398.179	-109.113	-0.328	0.069
-397.165	533.549	-0.048	-0.114
-396.150	-37.549	0.125	-0.066
-395.136	-61.476	-0.181	0.076
-394.121	324.632	-0.126	-0.239
-393.106	195.848	0.160	-0.242
-392.092	-116.339	-0.272	0.050
-391.077	774.392	0.039	0.106
-390.063	800.000	0.032	-0.095
-389.048	-200.000	0.057	-0.375
-388.033	-78.391	0.263	0.090
-387.019	800.000	-0.034	-0.106
-386.004	-200.000	0.008	-0.265
-384.990	-161.450	0.205	0.010
-383.975	173.411	-0.147	0.210
-382.960	-22.290	0.155	-0.093
-381.946	-86.431	-0.168	-0.051
-380.931	-200.000	0.017	0.228
-379.917	261.351	0.115	-0.198
-378.902	-56.141	0.316	-0.140
-377.888	-165.683	0.244	0.010
-376.873	254.262	-0.180	0.306
-375.858	84.393	-0.168	0.182
-374.844	473.983	-0.033	-0.073
-373.829	269.369	0.058	-0.100
-372.815	84.552	0.139	0.150
-371.800	8.643	-0.237	-0.177
-370.785	254.375	0.006	-0.011
-369.771	60.948	-0.060	0.059
-368.756	-200.000	0.026	0.285
-367.742	-153.731	0.385	-0.026
-366.727	640.694	-0.083	0.211
-365.712	-45.333	0.298	0.147
-364.698	63.852	-0.189	-0.188
-363.683	21.432	0.106	-0.086
-362.669	800.000	-0.087	-0.364
-361.654	271.436	0.023	0.039
-360.639	-131.609	0.435	-0.057
-359.625	-16.130	-0.254	0.160
-358.610	800.000	0.080	0.222
-357.596	800.000	-0.070	-0.290
-356.581	-87.983	-0.135	0.040
-355.566	800.000	0.034	0.130
-354.552	-72.883	-0.326	0.119
-353.537	246.048	0.168	0.281
-352.523	240.713	0.151	-0.250
-351.508	-107.534	-0.199	0.043
-350.493	-200.000	-0.001	-0.179
-349.479	771.329	-0.119	0.321
-348.464	431.074	-0.040	0.086
-347.450	-34.093	-0.242	-0.132
-346.435	249.361	-0.049	0.083
-345.420	-200.000	-0.005	0.112
-344.406	-152.161	-0.125	-0.009
-343.391	782.769	-0.127	0.345
-342.377	-200.000	-0.054	0.262
-341.362	800.000	-0.046	0.188
-340.348	-200.000	0.006	-0.096
-339.333	-200.000	0.046	0.202
-338.318	-42.417	0.121	0.061
-337.304	800.000	-0.030	0.094
-336.289	-182.534	0.462	0.008
-335.275	257.533	-0.106	-0.181
-334.260	0.275	-0.248	0.176
-333.245	294.270	0.224	-0.406
-332.231	-46.722	0.353	-0.171
-331.216	-200.000	-0.005	0.098
-330.202	743.356	0.088	-0.233
-329.187	129.688	0.015	-0.018
-328.172	800.000	0.054	0.221
-327.158	92.037	-0.061	0.068
-326.143	71.639	0.158	-0.163
-325.129	70.706	0.156	0.160
-324.114	91.014	-0.199	-0.221
-323.099	304.840	0.331	-0.608
-322.085	215.715	-0.145	-0.229
-321.070	-7.733	-0.035	-0.023
-320.056	-200.000	-0.026	-0.285
-319.041	-5.848	0.218	0.148
-318.026	-200.000	0.035	0.391
-317.012	-135.249	-0.228	0.027
-315.997	307.315	-0.074	-0.136
-314.983	-200.000	0.021	-0.138
-313.968	118.166	0.176	0.214
-312.953	-63.179	0.166	0.068
-311.939	134.085	-0.208	0.267
-310.924	800.000	0.066	-0.191
-309.910	-5.197	-0.233	0.159
-308.895	13.006	0.069	-0.053
-307.880	53.337	-0.277	0.263
-306.866	-102.860	0.274	-0.065
-305.851	654.036	0.061	0.155
-304.837	-111.625	-0.221	0.044
-303.822	144.608	0.201	0.266
-302.807	356.249	-0.102	-0.202
-301.793	132.298	0.093	0.119
-300.778	85.080	0.182	0.197
-299.764	40.506	0.248	-0.221
-298.749	154.276	-0.004	-0.005
-297.735	65.335	0.224	0.224
-296.720	-200.000	-0.008	0.136
-295.705	-35.574	0.469	0.252
-294.691	181.312	-0.071	0.104
-293.676	-96.931	0.365	0.095
-292.662	-92.096	0.162	0.045
-291.647	128.315	0.137	-0.172
-290.632	-47.693	0.234	0.112
-289.618	-42.019	0.213	-0.108
-288.603	-69.198	-0.208	0.079
-287.589	-37.199	-0.044	0.023
-286.574	-143.065	0.222	0.021
-285.559	3.936	-0.068	-0.049
-284.545	83.144	-0.039	-0.042
-283.530	-68.234	-0.169	-0.065
-282.516	137.940	-0.072	-0.093
-281.501	116.875	-0.132	0.160
-280.486	-165.577	0.080	-0.003
-279.472	121.663	0.011	0.013
-278.457	224.973	0.119	-0.190
-277.443	-187.576	-0.221	0.003
-276.428	-80.973	-0.158	-0.052
-275.413	44.656	-0.236	0.214
-274.399	-166.972	-0.111	-0.004
-273.384	-200.000	-0.003	0.282
-272.370	207.198	0.247	0.380
-271.355	71.652	-0.178	0.183
-270.340	-78.591	0.275	0.093
-269.326	-101.159	0.140	0.034
-268.311	-85.529	0.335	-0.103
-267.297	-200.000	-0.030	-0.159
-266.282	-11.069	0.202	-0.131
-265.267	-123.759	-0.250	-0.039
-264.253	79.012	0.072	-0.076
-263.238	-29.800	0.259	0.146
-262.224	-130.739	-0.119	0.016
-261.209	521.345	-0.039	-0.090
-260.195	-200.000	0.003	-0.169
-259.180	-200.000	0.031	0.265
-258.165	-92.122	0.222	-0.062
-257.151	-99.014	-0.034	0.009
-256.136	-40.348	0.327	0.168
-255.122	-28.605	-0.294	-0.167
-254.107	-99.870	0.284	0.070
-253.092	-38.949	-0.223	-0.116
-252.078	-34.835	-0.115	-0.062
-251.063	-28.418	0.166	-0.095
-250.049	-200.000	0.005	-0.157
-249.034	87.572	0.085	0.093
-248.019	-5.066	0.098	0.067
-247.005	-8.044	0.172	-0.114
-245.990	800.000	0.097	0.270
-244.976	478.661	-0.234	-0.524
-243.961	94.660	0.140	-0.158
-242.946	76.815	0.060	-0.062
-241.932	-87.144	-0.276	0.083
-240.917	284.863	0.135	0.239
-239.903	-142.802	-0.198	-0.019
-238.888	42.251	0.120	0.108
-237.873	9.901	0.274	0.206
-236.859	155.178	0.139	0.188
-235.844	357.189	0.035	0.069
-234.830	-200.000	0.006	-0.031
-233.815	800.000	0.128	0.385
-232.800	-58.842	0.277	-0.118
-231.786	-37.646	-0.151	0.079
-230.771	-43.642	0.369	-0.184
-229.757	29.365	0.084	-0.070
-228.742	4.492	0.125	-0.091
-227.727	12.230	-0.139	0.106
-226.713	415.495	0.149	-0.314
-225.698	721.308	-0.056	-0.147
-224.684	179.880	-0.145	0.210
-223.669	800.000	0.049	-0.181
-222.655	428.096	0.030	-0.064
-221.640	-64.684	-0.255	0.102
-220.625	-200.000	-0.005	0.227
-219.611	104.311	0.096	0.112
-218.596	800.000	0.045	-0.167
-217.582	-200.000	-0.025	-0.326
-216.567	-200.000	0.016	-0.271
-215.552	-80.917	0.114	-0.037
-214.538	-101.934	-0.200	-0.048
-213.523	-55.215	0.170	0.075
-212.509	-120.688	0.320	0.053
-211.494	68.836	-0.208	0.210
-210.479	-14.495	-0.066	0.042
-209.465	-67.211	0.287	0.111
-208.450	-44.151	-0.171	0.085
-207.436	243.310	0.088	0.145
-206.421	103.683	-0.287	-0.332
-205.406	800.000	-0.031	0.120
-204.392	15.590	0.197	0.152
-203.377	-200.000	-0.087	0.379
-202.363	-200.000	-0.013	-0.127
-201.348	79.379	-0.192	-0.203
-200.333	-24.149	0.101	0.060
-199.319	-164.995	0.112	-0.005
-198.304	800.000	0.022	0.092
-197.290	-200.000	0.074	-0.375
-196.275	360.002	-0.083	0.163
-195.260	-63.540	-0.513	-0.208
-194.246	7.371	0.138	-0.102
-193.231	-108.633	0.167	-0.035
-192.217	75.380	-0.114	0.118
-191.202	193.388	0.149	-0.223
-190.187	-120.772	-0.176	0.029
-189.173	-136.279	0.434	0.050
-188.158	-200.000	0.005	0.084
-187.144	294.858	0.095	-0.172
-186.129	-74.953	-0.161	-0.057
-185.114	-105.567	0.089	0.020
-184.100	94.678	-0.045	0.051
-183.085	-83.313	-0.108	-0.034
-182.071	363.683	0.117	0.232
-181.056	496.205	0.071	0.162
-180.042	800.000	0.044	0.180
-179.027	261.551	0.150	-0.256
-178.012	43.388	-0.156	0.141
-176.998	225.746	-0.092	0.147
-175.983	501.989	0.050	0.113
-174.969	-129.154	0.246	0.034
-173.954	202.691	-0.224	0.341
-172.939	-1.264	-0.020	0.014
-171.925	-61.009	-0.145	0.060
-170.910	-0.404	-0.186	-0.130
-169.896	126.425	-0.073	0.091
-168.881	800.000	0.002	0.006
-167.866	-112.186	-0.170	-0.034
-166.852	241.522	-0.099	0.163
-165.837	254.510	0.111	-0.187
-164.823	-200.000	-0.026	0.232
-163.808	-200.000	0.020	-0.271
-162.793	800.000	-0.059	-0.216
-161.779	64.966	0.238	0.237
-160.764	-42.487	-0.360	0.181
-159.750	-75.331	-0.079	-0.028
-158.735	37.301	-0.265	-0.231
-157.720	800.000	0.083	0.279
-156.706	10.231	-0.182	-0.136
-155.691	96.121	0.241	-0.272
-154.677	-148.788	0.169	0.013
-153.662	-54.211	-0.219	0.098
-152.647	-200.000	0.002	-0.235
-151.633	-50.559	0.202	-0.094
-150.618	-52.515	0.272	0.124
-149.604	-200.000	0.001	0.012
-148.589	-36.685	-0.412	-0.218
-147.574	-155.577	0.320	0.020
-146.560	-88.494	0.194	-0.057
-145.545	-200.000	-0.028	0.302
-144.531	-200.000	-0.016	0.156
-143.516	-200.000	0.043	0.386
-142.502	800.000	0.036	0.098
-141.487	37.591	-0.160	-0.140
-140.472	33.611	0.161	-0.138
-139.458	-83.323	0.131	-0.041
-138.443	189.669	-0.105	-0.154
-137.429	-107.452	0.223	0.048
-136.414	189.508	0.083	-0.122
-135.399	800.000	0.048	0.168
-134.385	69.178	0.122	-0.123
-133.370	-110.584	-0.101	0.021
-132.356	68.437	0.107	0.108
-131.341	-17.014	0.027	-0.017
-130.326	-92.569	-0.214	-0.059
-129.312	-93.628	0.433	0.118
-128.297	-8.486	0.328	0.217
-127.283	800.000	0.025	0.100
-126.268	-150.626	-0.187	0.014
-125.253	-189.765	-0.309	-0.003
-124.239	759.897	0.043	0.116
-123.224	-5.802	0.324	-0.218
-122.210	389.844	-0.211	-0.430
-121.195	141.305	0.298	0.388
-120.180	-100.106	-0.170	-0.042
