DTS Sentinel unit serial number:	SN413079Multiplexer serial number:	ORYXHardware model number:	OX4-SRSoftware version number:	ORYX F/W v4.00 Oryx Data Collector v3.7.2.0data status	okinstallation	princeton_trtdifferential loss correction	single-endedforward channel	channel 2reverse channel	N/Adate	2019/09/18time	00:23:35forward acquisition time	60.00reverse acquisition time	0.00gamma	496.2192k internal	0.2350k external	0.2350temperature offset calibration	0.9982default loss term (dB/km)	0.3790temperature slope calibration	1.0000multiplexer offset coefficient	1.0000multiplexer slope coefficient	1.0000fibre end	0.00T internal ref (°C)	23.62T ext. ref 1 (°C)	0.16T ext. ref 2 (°C)	17.28length (m)	temperature (°C)	Stokes	anti-Stokes-747.200	-111.219	0.381	0.078
-746.185	-200.000	0.066	0.293
-745.171	800.000	0.065	-0.215
-744.156	-48.323	-0.227	-0.109
-743.142	-14.455	0.316	0.203
-742.127	-77.821	0.103	-0.035
-741.112	-65.719	-0.221	0.089
-740.098	-138.226	-0.373	-0.041
-739.083	432.679	-0.061	-0.132
-738.069	800.000	0.038	0.121
-737.054	-95.104	-0.182	0.049
-736.039	800.000	-0.040	-0.169
-735.025	-200.000	-0.021	-0.157
-734.010	18.719	-0.015	0.012
-732.996	-140.228	-0.331	-0.035
-731.981	-105.732	0.175	-0.039
-730.966	-50.245	-0.206	0.097
-729.952	43.761	-0.184	0.168
-728.937	-137.690	-0.123	-0.014
-727.923	-74.770	0.176	-0.063
-726.908	76.633	-0.180	-0.190
-725.894	319.391	-0.257	-0.485
-724.879	530.483	-0.016	-0.037
-723.864	157.520	0.151	0.208
-722.850	44.686	0.049	0.045
-721.835	214.950	0.031	-0.049
-720.821	-200.000	0.003	-0.112
-719.806	-0.585	0.177	-0.125
-718.791	-99.285	-0.372	-0.094
-717.777	406.238	-0.110	-0.232
-716.762	800.000	0.092	0.329
-715.748	-40.553	0.091	-0.047
-714.733	44.481	-0.183	-0.168
-713.718	-12.108	-0.227	0.148
-712.704	800.000	0.073	-0.288
-711.689	-53.108	-0.233	-0.107
-710.675	800.000	0.044	-0.176
-709.660	800.000	0.059	0.251
-708.645	800.000	0.012	0.053
-707.631	363.155	0.072	-0.145
-706.616	34.034	-0.068	0.059
-705.602	44.346	0.410	0.375
-704.587	112.067	0.126	0.152
-703.572	281.779	-0.044	-0.079
-702.558	800.000	-0.105	-0.384
-701.543	82.025	-0.042	0.045
-700.529	-160.460	-0.335	-0.018
-699.514	-64.861	0.088	-0.036
-698.499	-200.000	-0.005	0.032
-697.485	235.176	-0.090	0.147
-696.470	-98.795	-0.422	-0.107
-695.456	-48.478	-0.256	-0.123
-694.441	-139.114	-0.137	-0.015
-693.426	51.441	0.109	0.103
-692.412	-115.892	-0.514	-0.096
-691.397	25.380	-0.145	0.120
-690.383	-154.920	-0.080	0.005
-689.368	-29.472	-0.136	0.077
-688.354	-200.000	-0.011	-0.175
-687.339	-175.179	-0.152	-0.004
-686.324	-65.913	0.312	-0.124
-685.310	47.323	-0.164	-0.152
-684.295	-103.330	-0.232	-0.054
-683.281	-75.204	0.245	0.087
-682.266	-200.000	0.017	-0.085
-681.251	-200.000	-0.015	-0.408
-680.237	-200.000	-0.003	-0.132
-679.222	-20.201	-0.165	0.101
-678.208	553.776	0.040	-0.097
-677.193	-4.084	0.089	-0.061
-676.178	190.759	-0.141	-0.211
-675.164	-10.253	0.166	0.110
-674.149	-176.622	-0.257	0.007
-673.135	-1.615	0.048	0.034
-672.120	266.743	-0.072	-0.126
-671.105	457.547	-0.128	-0.282
-670.091	139.777	-0.121	-0.158
-669.076	-66.296	-0.143	0.056
-668.062	-200.000	0.013	-0.197
-667.047	-123.500	0.023	0.004
-666.032	-200.000	-0.007	-0.223
-665.018	96.966	0.096	0.110
-664.003	-200.000	0.020	-0.437
-662.989	-90.808	-0.240	-0.069
-661.974	78.246	-0.213	-0.226
-660.959	-200.000	0.043	-0.235
-659.945	-73.464	-0.290	-0.105
-658.930	-23.034	-0.195	-0.117
-657.916	74.896	-0.145	0.152
-656.901	-121.891	-0.153	0.025
-655.886	-104.800	0.348	0.080
-654.872	51.354	-0.109	-0.103
-653.857	141.488	0.197	-0.259
-652.843	-4.528	-0.206	0.142
-651.828	-79.664	-0.119	-0.040
-650.814	-28.364	0.178	-0.102
-649.799	7.457	0.156	0.116
-648.784	-85.919	0.266	-0.082
-647.770	-105.350	-0.269	0.061
-646.755	-75.134	0.193	0.069
-645.741	-124.871	-0.161	0.025
-644.726	-200.000	-0.054	0.322
-643.711	-200.000	-0.001	0.174
-642.697	-91.385	-0.357	-0.101
-641.682	-200.000	0.008	-0.085
-640.668	800.000	-0.097	-0.288
-639.653	12.183	-0.308	-0.236
-638.638	-88.733	-0.245	-0.072
-637.624	199.980	0.084	-0.128
-636.609	101.774	0.121	0.141
-635.595	-189.361	0.277	-0.003
-634.580	-125.570	0.338	0.051
-633.565	-0.997	-0.223	-0.157
-632.551	-14.611	0.111	-0.071
-631.536	800.000	-0.127	-0.409
-630.522	-200.000	-0.010	-0.090
-629.507	-200.000	0.049	-0.281
-628.492	127.254	0.128	-0.161
-627.478	-78.621	0.176	-0.060
-626.463	-200.000	-0.005	0.163
-625.449	462.968	-0.034	0.076
-624.434	-98.913	0.137	0.035
-623.419	-111.264	0.428	0.087
-622.405	142.142	0.036	-0.047
-621.390	152.776	-0.259	-0.351
-620.376	-13.051	0.230	0.149
-619.361	800.000	-0.164	-0.511
-618.346	120.327	0.262	0.323
-617.332	89.016	0.113	0.125
-616.317	139.372	-0.114	0.149
-615.303	-59.416	-0.188	0.080
-614.288	-58.646	-0.071	0.031
-613.273	-90.280	-0.169	0.049
-612.259	800.000	0.055	-0.167
-611.244	-167.370	-0.263	-0.010
-610.230	-117.157	-0.113	-0.021
-609.215	-200.000	-0.047	-0.236
-608.201	800.000	-0.043	-0.144
-607.186	-200.000	0.039	-0.286
-606.171	-36.392	0.128	0.068
-605.157	7.381	0.161	0.120
-604.142	-200.000	-0.011	0.116
-603.128	6.540	-0.215	-0.159
-602.113	-63.426	0.217	-0.089
-601.098	230.430	0.057	0.093
-600.084	-36.467	0.156	-0.083
-599.069	117.990	0.201	-0.246
-598.055	-19.814	-0.155	0.095
-597.040	-55.344	0.074	0.033
-596.025	1.156	0.139	-0.099
-595.011	130.791	-0.264	-0.336
-593.996	-88.069	0.241	-0.072
-592.982	800.000	-0.067	0.217
-591.967	182.988	0.079	-0.116
-590.952	358.348	-0.049	-0.097
-589.938	-87.042	0.324	-0.098
-588.923	-71.881	0.178	0.066
-587.909	-131.175	-0.167	-0.022
-586.894	-110.537	-0.120	-0.025
-585.879	-93.815	0.141	-0.038
-584.865	123.136	0.078	-0.097
-583.850	-158.050	-0.180	0.010
-582.836	-80.608	0.098	0.032
-581.821	-117.211	-0.276	0.050
-580.806	114.751	-0.093	0.113
-579.792	-174.289	-0.265	-0.008
-578.777	-103.649	0.123	-0.029
-577.763	282.984	-0.112	-0.200
-576.748	-123.817	-0.103	-0.016
-575.733	-59.455	-0.162	0.069
-574.719	12.728	-0.118	-0.091
-573.704	-54.422	-0.104	0.047
-572.690	-200.000	0.014	0.210
-571.675	99.632	-0.293	-0.336
-570.661	-150.159	-0.141	0.011
-569.646	-105.835	-0.124	0.028
-568.631	-119.199	-0.077	0.013
-567.617	-200.000	0.046	0.254
-566.602	9.038	-0.368	0.275
-565.588	-200.000	0.025	-0.183
-564.573	3.025	0.099	-0.071
-563.558	-71.453	0.287	-0.107
-562.544	-183.736	-0.481	-0.008
-561.529	-200.000	-0.013	0.197
-560.515	-200.000	0.056	0.321
-559.500	800.000	-0.048	-0.150
-558.485	-174.041	0.154	0.004
-557.471	-9.356	-0.054	-0.036
-556.456	-40.371	0.092	0.047
-555.442	239.276	0.094	-0.155
-554.427	800.000	0.089	-0.343
-553.412	-69.294	-0.168	0.064
-552.398	-44.437	0.366	-0.181
-551.383	-200.000	0.003	-0.047
-550.369	-20.852	0.353	-0.214
-549.354	190.455	0.256	-0.381
-548.339	-30.589	0.127	0.071
-547.325	-200.000	-0.085	0.415
-546.310	417.512	0.177	-0.374
-545.296	-100.518	0.322	0.079
-544.281	-62.298	0.134	-0.055
-543.266	0.922	0.077	-0.054
-542.252	72.374	0.060	-0.062
-541.237	-29.191	-0.336	-0.191
-540.223	-50.154	0.238	-0.112
-539.208	-66.221	-0.175	0.069
-538.193	112.731	0.180	0.216
-537.179	800.000	0.034	0.095
-536.164	-79.893	-0.187	0.062
-535.150	423.477	-0.107	-0.227
-534.135	36.830	0.091	0.080
-533.121	-15.183	-0.119	0.075
-532.106	-55.780	0.139	-0.062
-531.091	-200.000	-0.043	0.216
-530.077	-9.724	-0.325	0.214
-529.062	-191.010	-0.211	0.002
-528.048	-61.004	-0.223	-0.093
-527.033	-200.000	-0.097	0.469
-526.018	142.727	0.080	-0.105
-525.004	-15.005	0.149	0.094
-523.989	-200.000	0.079	0.498
-522.975	-9.045	0.320	0.212
-521.960	-6.306	0.150	0.101
-520.945	-87.629	0.228	0.068
-519.931	116.790	0.194	-0.236
-518.916	-153.494	0.274	0.019
-517.902	-200.000	-0.007	-0.261
-516.887	175.039	0.093	-0.134
-515.872	382.221	-0.020	0.040
-514.858	402.425	0.087	0.180
-513.843	-15.662	0.427	0.269
-512.829	57.967	-0.252	0.244
-511.814	-31.262	-0.165	0.092
-510.799	236.815	-0.150	0.245
-509.785	-5.556	-0.169	0.115
-508.770	-200.000	0.027	-0.316
-507.756	-200.000	0.060	0.305
-506.741	283.574	-0.042	-0.074
-505.726	56.115	0.371	0.356
-504.712	-41.247	-0.152	-0.078
-503.697	97.879	-0.129	0.147
-502.683	153.561	0.210	-0.284
-501.668	271.722	0.119	0.208
-500.653	138.465	-0.214	-0.277
-499.639	-15.487	0.307	-0.194
-498.624	-71.790	0.284	0.105
-497.610	-103.614	-0.319	-0.074
-496.595	23.187	-0.116	-0.094
-495.581	-200.000	-0.001	-0.132
-494.566	-97.142	-0.204	-0.053
-493.551	-125.767	0.135	-0.020
-492.537	209.380	-0.145	-0.224
-491.522	-118.015	0.150	0.027
-490.508	219.394	0.050	0.080
-489.493	-30.590	-0.229	0.128
-488.478	-174.936	-0.143	0.004
-487.464	420.125	-0.041	0.087
-486.449	800.000	0.066	-0.208
-485.435	-102.351	-0.293	0.069
-484.420	-134.385	-0.071	0.009
-483.405	82.702	-0.166	-0.178
-482.391	-129.728	-0.091	-0.012
-481.376	46.052	0.069	0.063
-480.362	-110.183	0.217	-0.045
-479.347	-116.372	0.340	-0.062
-478.332	67.659	-0.293	0.296
-477.318	97.013	0.247	0.280
-476.303	-66.072	-0.258	0.102
-475.289	299.938	-0.078	0.143
-474.274	578.508	0.171	0.412
-473.259	155.009	0.108	-0.147
-472.245	800.000	-0.020	-0.067
-471.230	800.000	0.070	0.265
-470.216	41.243	-0.128	-0.115
-469.201	-52.543	-0.168	-0.077
-468.186	51.761	0.160	0.151
-467.172	29.949	-0.119	-0.100
-466.157	-200.000	-0.005	0.098
-465.143	-83.327	0.024	0.008
-464.128	9.190	0.375	-0.280
-463.113	201.736	0.019	0.029
-462.099	-16.532	0.073	0.046
-461.084	-44.519	0.372	0.184
-460.070	534.527	0.135	0.316
-459.055	-70.152	-0.102	-0.038
-458.040	-140.405	0.151	0.016
-457.026	-200.000	0.063	-0.410
-456.011	397.221	-0.143	-0.296
-454.997	310.292	0.112	-0.208
-453.982	67.179	-0.269	0.271
-452.968	-146.650	-0.084	0.007
-451.953	648.083	0.168	-0.424
-450.938	254.364	-0.214	-0.362
-449.924	-64.470	0.261	0.105
-448.909	104.059	-0.112	0.130
-447.895	-20.491	0.056	-0.034
-446.880	-200.000	0.014	-0.097
-445.865	6.781	0.039	0.028
-444.851	164.801	-0.147	0.205
-443.836	-86.606	-0.302	0.091
-442.822	-18.777	0.580	0.357
-441.807	-150.356	-0.196	0.015
-440.792	53.843	0.113	-0.107
-439.778	76.166	-0.141	-0.148
-438.763	-13.264	-0.042	-0.027
-437.749	-120.252	0.230	-0.039
-436.734	464.166	0.019	0.041
-435.719	-56.613	0.048	0.021
-434.705	800.000	0.106	0.314
-433.690	800.000	-0.087	0.316
-432.676	210.783	-0.125	0.194
-431.661	281.397	-0.166	-0.293
-430.646	-200.000	0.017	-0.197
-429.632	-28.924	-0.120	-0.068
-428.617	-105.956	0.235	-0.052
-427.603	-23.853	0.112	0.066
-426.588	-15.974	-0.033	-0.021
-425.573	800.000	0.070	0.223
-424.559	-200.000	0.019	0.170
-423.544	-62.415	0.246	0.101
-422.530	257.048	-0.146	0.247
-421.515	-200.000	0.001	-0.006
-420.500	269.005	-0.194	0.335
-419.486	352.714	0.172	-0.337
-418.471	85.021	0.069	0.075
-417.457	202.798	0.087	0.132
-416.442	-200.000	0.007	-0.152
-415.428	800.000	-0.034	0.115
-414.413	800.000	0.037	-0.103
-413.398	-57.471	-0.391	-0.169
-412.384	71.113	-0.078	-0.080
-411.369	800.000	-0.102	-0.304
-410.355	800.000	0.045	0.125
-409.340	319.620	-0.007	-0.012
-408.325	-113.418	-0.247	0.048
-407.311	143.267	0.190	0.249
-406.296	-23.408	-0.093	-0.055
-405.282	725.445	-0.074	-0.195
-404.267	321.912	-0.047	0.088
-403.252	-29.046	-0.150	0.085
-402.238	10.200	0.118	-0.089
-401.223	-133.130	-0.186	-0.023
-400.209	800.000	-0.140	0.385
-399.194	-57.279	0.046	-0.020
-398.179	3.474	-0.082	0.059
-397.165	26.294	-0.294	0.242
-396.150	-143.442	-0.162	-0.015
-395.136	-200.000	0.031	0.176
-394.121	-59.811	-0.243	0.102
-393.106	-176.732	-0.093	0.002
-392.092	127.646	-0.192	-0.241
-391.077	183.309	0.144	0.209
-390.063	5.170	0.196	-0.142
-389.048	-32.209	-0.205	-0.113
-388.033	375.640	0.048	-0.097
-387.019	-200.000	-0.029	-0.424
-386.004	641.210	-0.006	0.014
-384.990	-96.320	-0.601	-0.157
-383.975	111.814	0.087	-0.104
-382.960	-86.136	0.480	0.146
-381.946	74.992	0.215	0.223
-380.931	-83.786	0.289	-0.091
-379.917	-149.514	0.411	0.032
-378.902	47.132	-0.183	-0.168
-377.888	192.652	-0.079	0.117
-376.873	8.970	0.113	0.084
-375.858	-200.000	0.009	-0.242
-374.844	800.000	0.060	-0.166
-373.829	483.123	0.063	0.140
-372.815	-51.032	-0.324	-0.150
-371.800	-165.121	-0.074	-0.003
-370.785	-111.465	-0.320	0.064
-369.771	151.398	0.078	-0.105
-368.756	70.562	0.205	-0.209
-367.742	387.586	0.113	0.229
-366.727	16.164	0.133	0.103
-365.712	129.302	-0.152	0.190
-364.698	28.582	0.302	-0.251
-363.683	139.781	-0.193	-0.250
-362.669	348.128	0.086	0.166
-361.654	-101.330	-0.275	-0.066
-360.639	-200.000	-0.057	-0.279
-359.625	-200.000	-0.057	-0.607
-358.610	-27.879	-0.079	-0.045
-357.596	-11.257	0.186	-0.121
-356.581	-200.000	0.011	-0.251
-355.566	-147.697	-0.117	0.010
-354.552	39.301	-0.214	-0.188
-353.537	111.304	0.212	-0.252
-352.523	82.727	0.162	0.173
-351.508	-200.000	-0.057	0.292
-350.493	318.174	-0.128	-0.238
-349.479	0.544	-0.086	-0.060
-348.464	-200.000	0.025	-0.147
-347.450	-175.239	-0.218	-0.006
-346.435	467.118	-0.093	0.205
-345.420	-9.461	-0.289	-0.189
-344.406	137.244	-0.068	-0.088
-343.391	236.758	-0.065	-0.106
-342.377	215.392	-0.095	0.148
-341.362	6.028	0.321	-0.233
-340.348	132.419	-0.146	-0.185
-339.333	-1.524	-0.267	-0.185
-338.318	68.348	0.136	-0.137
-337.304	143.465	-0.201	-0.263
-336.289	74.755	0.112	0.116
-335.275	141.499	0.267	0.347
-334.260	10.153	0.352	0.263
-333.245	267.433	-0.097	-0.166
-332.231	800.000	0.066	0.234
-331.216	-100.442	-0.141	0.034
-330.202	-129.674	-0.204	0.028
-329.187	-200.000	0.040	-0.346
-328.172	-21.905	0.078	-0.047
-327.158	-65.600	-0.103	-0.041
-326.143	-125.444	0.237	0.035
-325.129	-45.292	-0.315	-0.153
-324.114	-46.568	0.215	-0.104
-323.099	-108.213	0.254	0.054
-322.085	252.546	-0.195	0.326
-321.070	-160.116	0.220	0.012
-320.056	-200.000	-0.008	0.488
-319.041	94.203	0.322	0.359
-318.026	800.000	0.085	-0.243
-317.012	-27.435	0.190	-0.109
-315.997	355.952	0.160	-0.312
-314.983	-113.544	-0.099	-0.019
-313.968	276.816	0.146	0.255
-312.953	-82.297	-0.118	-0.038
-311.939	800.000	-0.068	0.223
-310.924	-0.797	0.136	0.095
-309.910	-21.742	-0.440	0.263
-308.895	-31.211	0.235	-0.130
-307.880	-60.908	-0.250	0.104
-306.866	-105.203	0.205	0.046
-305.851	68.527	0.054	-0.055
-304.837	12.772	0.074	-0.056
-303.822	128.924	0.090	0.113
-302.807	-25.994	0.364	0.210
-301.793	47.541	0.187	0.171
-300.778	-200.000	-0.054	0.475
-299.764	-11.928	-0.051	-0.033
-298.749	-117.170	0.201	0.036
-297.735	-200.000	0.021	0.203
-296.720	-19.152	0.298	0.182
-295.705	-109.100	0.350	-0.073
-294.691	-133.753	-0.231	-0.028
-293.676	51.336	-0.209	-0.195
-292.662	-194.186	0.207	0.002
-291.647	800.000	0.049	-0.200
-290.632	-101.860	0.114	-0.027
-289.618	-107.286	-0.125	-0.027
-288.603	-36.858	0.248	0.131
-287.589	81.848	0.030	-0.031
-286.574	94.630	-0.104	-0.116
-285.559	-200.000	0.034	-0.268
-284.545	319.346	-0.050	-0.092
-283.530	725.766	-0.023	-0.060
-282.516	37.628	0.188	-0.164
-281.501	-162.368	0.030	0.001
-280.486	57.906	-0.313	0.300
-279.472	800.000	-0.082	0.242
-278.457	284.792	-0.177	0.313
-277.443	79.138	0.166	-0.175
-276.428	-80.586	-0.317	-0.104
-275.413	-200.000	-0.031	-0.172
-274.399	-200.000	0.009	0.191
-273.384	-29.711	0.084	0.047
-272.370	-161.007	-0.275	0.014
-271.355	-79.976	0.163	-0.054
-270.340	-97.093	-0.408	-0.105
-269.326	-161.004	-0.099	-0.005
-268.311	800.000	0.082	-0.268
-267.297	286.664	0.112	-0.199
-266.282	11.182	0.119	0.089
-265.267	-200.000	0.034	-0.156
-264.253	42.686	0.035	0.031
-263.238	-57.088	-0.155	-0.067
-262.224	-200.000	-0.015	-0.069
-261.209	12.939	0.084	-0.064
-260.195	561.323	-0.151	0.357
-259.180	-31.242	0.428	0.236
-258.165	170.798	-0.167	0.235
-257.151	40.620	-0.075	0.066
-256.136	-140.260	0.044	0.004
-255.122	316.769	0.184	0.340
-254.107	-68.109	0.097	-0.037
-253.092	94.620	0.162	0.180
-252.078	-15.524	-0.094	-0.059
-251.063	123.963	0.115	0.141
-250.049	252.747	-0.096	0.160
-249.034	-171.870	0.354	-0.011
-248.019	-170.292	-0.145	-0.005
-247.005	-82.198	0.358	-0.114
-245.990	23.590	-0.330	0.266
-244.976	36.745	0.245	-0.212
-243.961	-35.396	0.034	-0.018
-242.946	-85.679	-0.492	-0.150
-241.932	2.200	-0.170	0.121
-240.917	-0.443	-0.263	0.183
-239.903	800.000	-0.066	0.193
-238.888	206.113	-0.105	-0.160
-237.873	-51.246	0.456	-0.209
-236.859	-51.201	0.421	0.193
-235.844	-200.000	-0.052	-0.424
-234.830	-11.374	0.240	0.154
-233.815	63.089	0.081	-0.080
-232.800	-3.948	-0.114	-0.077
-231.786	-102.015	-0.189	-0.045
-230.771	167.342	0.077	-0.107
-229.757	47.791	0.068	-0.062
-228.742	800.000	-0.091	-0.338
-227.727	800.000	-0.111	0.416
-226.713	-0.183	-0.366	-0.255
-225.698	-200.000	0.035	-0.336
-224.684	-86.014	-0.220	-0.067
-223.669	-94.804	-0.147	0.039
-222.655	1.761	-0.134	-0.095
-221.640	257.605	0.038	-0.063
-220.625	-108.632	-0.243	0.051
-219.611	243.560	0.075	-0.123
-218.596	183.205	0.042	0.061
-217.582	185.604	0.109	0.159
-216.567	365.742	0.098	0.193
-215.552	-37.795	-0.252	-0.131
-214.538	-151.259	0.325	-0.024
-213.523	-61.713	0.206	-0.084
-212.509	-143.310	0.119	-0.011
-211.494	307.151	0.099	-0.181
-210.479	191.664	0.111	-0.164
-209.465	23.514	0.087	0.070
-208.450	60.088	0.263	-0.254
-207.436	30.805	0.055	-0.046
-206.421	567.729	0.068	-0.161
-205.406	-22.505	-0.134	-0.079
-204.392	199.075	-0.171	-0.256
-203.377	306.551	-0.097	0.177
-202.363	287.529	-0.031	0.055
-201.348	-200.000	-0.045	0.219
-200.333	34.716	0.206	0.176
-199.319	385.196	0.073	-0.148
-198.304	212.564	-0.176	-0.271
-197.290	-107.174	-0.180	-0.039
-196.275	800.000	-0.132	0.375
-195.260	-97.926	-0.199	-0.050
-194.246	42.438	-0.225	-0.200
-193.231	800.000	0.055	-0.183
-192.217	306.224	-0.145	0.264
-191.202	-15.615	0.168	-0.105
-190.187	211.373	0.127	-0.195
-189.173	-200.000	0.061	0.304
-188.158	108.946	-0.327	0.382
-187.144	172.466	-0.092	0.130
-186.129	39.961	0.194	0.170
-185.114	525.512	-0.155	-0.355
-184.100	116.111	-0.222	-0.265
-183.085	-65.030	0.275	0.109
-182.071	-200.000	0.034	0.228
-181.056	-200.000	-0.007	-0.273
-180.042	77.045	-0.121	0.126
-179.027	-81.063	-0.408	-0.132
-178.012	-200.000	-0.013	-0.085
-176.998	40.239	0.101	-0.089
-175.983	-200.000	-0.034	-0.150
-174.969	108.059	-0.141	0.164
-173.954	33.318	0.138	0.117
-172.939	-144.964	0.038	-0.003
-171.925	-200.000	0.023	0.349
-170.910	503.508	0.090	0.202
-169.896	43.597	-0.283	0.253
-168.881	-124.181	0.365	-0.056
-167.866	-32.508	-0.088	0.048
-166.852	412.937	0.053	0.111
-165.837	6.912	-0.364	0.265
-164.823	800.000	0.030	0.115
-163.808	-128.766	0.359	-0.049
-162.793	421.696	-0.086	0.181
-161.779	673.540	-0.148	0.375
-160.764	800.000	0.119	0.369
-159.750	-58.027	0.075	-0.032
-158.735	-146.075	-0.129	-0.011
-157.720	-94.104	-0.285	0.076
-156.706	-27.045	0.279	0.159
-155.691	-97.553	-0.471	-0.119
-154.677	-117.352	-0.301	-0.053
-153.662	-200.000	0.009	0.139
-152.647	-28.531	-0.161	0.090
-151.633	143.393	0.141	-0.183
-150.618	800.000	0.082	-0.243
-149.604	-200.000	0.011	-0.265
-148.589	237.072	-0.061	-0.099
-147.574	-177.153	0.120	0.003
-146.560	800.000	-0.063	0.223
-145.545	-102.439	0.095	0.022
-144.531	-27.014	0.182	-0.104
-143.516	342.982	0.099	0.189
-142.502	72.332	0.162	0.165
-141.487	0.270	-0.425	0.296
-140.472	800.000	0.145	-0.459
-139.458	-200.000	-0.004	-0.404
-138.443	800.000	-0.084	0.308
-137.429	-28.935	-0.023	0.013
-136.414	48.087	-0.161	0.147
-135.399	557.637	-0.105	0.247
-134.385	-200.000	-0.017	-0.129
-133.370	1.069	0.188	-0.131
-132.356	-41.953	0.236	-0.118
-131.341	-76.546	0.172	0.059
-130.326	1.544	-0.162	0.114
-129.312	-124.382	-0.188	-0.029
-128.297	479.717	0.052	-0.115
-127.283	-160.713	0.380	0.020
-126.268	-49.260	-0.127	0.059
-125.253	80.544	0.147	-0.154
-124.239	-200.000	0.013	0.410
-123.224	-146.623	0.239	-0.020
-122.210	-200.000	-0.007	-0.055
-121.195	160.153	0.177	0.240
