DTS Sentinel unit serial number:	SN413079Multiplexer serial number:	ORYXHardware model number:	OX4-SRSoftware version number:	ORYX F/W v4.00 Oryx Data Collector v3.7.2.0data status	okinstallation	princeton_trtdifferential loss correction	single-endedforward channel	channel 2reverse channel	N/Adate	2019/09/11time	15:01:11forward acquisition time	60.00reverse acquisition time	0.00gamma	496.2192k internal	0.2288k external	0.2288temperature offset calibration	1.0012default loss term (dB/km)	0.3790temperature slope calibration	1.0000multiplexer offset coefficient	1.0000multiplexer slope coefficient	1.0000fibre end	0.00T internal ref (°C)	42.81T ext. ref 1 (°C)	0.95T ext. ref 2 (°C)	38.11length (m)	temperature (°C)	Stokes	anti-Stokes-747.200	-99.801	-0.168	0.043
-746.185	-24.842	0.159	0.097
-745.171	-200.000	0.004	0.265
-744.156	8.601	-0.225	0.174
-743.142	-200.000	-0.028	-0.290
-742.127	-200.000	0.020	0.136
-741.112	-2.496	0.140	-0.101
-740.098	-78.492	0.276	-0.097
-739.083	-108.484	-0.208	0.046
-738.069	800.000	-0.059	0.231
-737.054	106.018	-0.227	-0.276
-736.039	44.290	-0.192	-0.181
-735.025	-24.347	0.224	0.137
-734.010	242.620	-0.068	-0.117
-732.996	-99.734	-0.358	-0.092
-731.981	84.515	-0.121	-0.136
-730.966	756.885	0.102	-0.283
-729.952	48.261	0.085	0.081
-728.937	225.904	0.090	-0.150
-727.923	206.298	0.217	-0.346
-726.908	800.000	0.023	-0.092
-725.894	227.282	-0.107	-0.179
-724.879	-45.561	-0.305	0.155
-723.864	-154.855	0.219	0.015
-722.850	-47.719	0.271	-0.134
-721.835	226.563	0.150	-0.249
-720.821	-200.000	-0.001	-0.082
-719.806	-116.574	-0.102	-0.019
-718.791	386.292	0.109	-0.230
-717.777	-20.926	0.050	0.032
-716.762	211.070	-0.064	-0.103
-715.748	800.000	-0.062	-0.257
-714.733	-191.931	0.171	-0.002
-713.718	-131.990	0.151	-0.020
-712.704	-14.073	0.178	-0.118
-711.689	-15.636	0.223	-0.146
-710.675	13.068	0.116	0.092
-709.660	273.235	-0.155	-0.280
-708.645	56.024	0.165	-0.163
-707.631	-18.993	0.252	-0.160
-706.616	83.636	-0.021	-0.024
-705.602	-136.011	-0.312	0.037
-704.587	-200.000	0.014	-0.363
-703.572	-98.553	-0.316	0.083
-702.558	-99.965	0.504	0.129
-701.543	11.426	-0.073	-0.057
-700.529	486.765	-0.044	0.104
-699.514	-121.754	-0.136	0.023
-698.499	106.795	0.177	-0.215
-697.485	-98.785	-0.142	-0.037
-696.470	800.000	0.057	-0.227
-695.456	309.387	0.102	0.196
-694.441	-17.844	0.466	-0.299
-693.426	84.432	0.128	-0.144
-692.412	-159.502	0.085	-0.005
-691.397	-23.988	-0.328	-0.201
-690.383	-200.000	0.041	-0.316
-689.368	13.449	-0.193	-0.153
-688.354	-2.762	-0.408	-0.292
-687.339	627.291	-0.051	0.131
-686.324	-44.252	-0.025	0.013
-685.310	89.283	-0.140	0.160
-684.295	61.859	-0.153	-0.156
-683.281	471.000	0.097	-0.224
-682.266	215.580	0.123	0.200
-681.251	-200.000	0.016	0.085
-680.237	199.220	0.080	-0.125
-679.222	96.587	0.122	0.143
-678.208	37.594	-0.056	-0.051
-677.193	327.397	-0.054	0.106
-676.178	-93.242	-0.198	0.056
-675.164	619.637	-0.161	-0.414
-674.149	50.598	-0.083	0.080
-673.135	800.000	-0.089	-0.325
-672.120	-103.589	-0.137	0.033
-671.105	285.716	-0.037	-0.068
-670.091	-82.388	-0.212	-0.071
-669.076	399.026	-0.091	-0.195
-668.062	-200.000	-0.030	-0.258
-667.047	-162.757	-0.083	-0.004
-666.032	-200.000	-0.029	0.334
-665.018	-105.680	-0.115	-0.027
-664.003	-58.139	-0.480	-0.214
-662.989	-200.000	0.087	-0.418
-661.974	74.598	-0.327	-0.352
-660.959	-200.000	-0.005	-0.229
-659.945	-131.404	-0.222	0.030
-658.930	448.891	0.127	-0.286
-657.916	-96.902	0.164	-0.044
-656.901	592.864	-0.042	-0.107
-655.886	123.975	-0.226	-0.290
-654.872	298.031	-0.116	-0.217
-653.857	557.476	-0.043	0.106
-652.843	-200.000	0.023	0.205
-651.828	-200.000	0.034	-0.290
-650.814	-16.918	-0.209	-0.135
-649.799	154.331	0.075	0.105
-648.784	-82.865	-0.388	-0.128
-647.770	-200.000	-0.022	-0.153
-646.755	575.627	-0.095	-0.237
-645.741	-91.816	-0.490	-0.142
-644.726	46.692	0.094	-0.089
-643.711	-87.066	0.354	-0.110
-642.697	-38.595	0.136	0.073
-641.682	59.614	-0.178	0.179
-640.668	516.108	0.103	-0.247
-639.653	432.900	0.099	0.218
-638.638	-69.287	0.094	-0.037
-637.624	-200.000	0.031	-0.159
-636.609	800.000	-0.122	0.374
-635.595	-13.089	-0.203	0.135
-634.580	-120.603	-0.446	-0.077
-633.565	436.763	-0.107	0.239
-632.551	800.000	-0.049	0.168
-631.536	-175.508	0.061	-0.002
-630.522	795.610	0.070	-0.196
-629.507	800.000	-0.062	-0.199
-628.492	-200.000	-0.002	-0.084
-627.478	-200.000	-0.011	0.142
-626.463	-200.000	0.037	-0.220
-625.449	138.161	0.115	0.154
-624.434	-92.404	-0.146	-0.042
-623.419	-200.000	0.059	0.392
-622.405	468.512	-0.079	0.181
-621.390	-32.095	0.074	-0.042
-620.376	168.114	0.147	-0.214
-619.361	393.976	-0.049	0.104
-618.346	-200.000	-0.053	-0.319
-617.332	-200.000	-0.024	-0.191
-616.317	-200.000	0.111	-0.542
-615.303	24.166	-0.198	0.166
-614.288	322.247	0.135	-0.261
-613.273	-61.874	-0.184	-0.079
-612.259	584.782	-0.173	-0.434
-611.244	-170.919	0.512	-0.018
-610.230	-200.000	-0.017	-0.109
-609.215	9.031	-0.096	0.074
-608.201	130.038	0.077	0.101
-607.186	-200.000	-0.018	-0.099
-606.171	-124.368	0.187	0.030
-605.157	-22.805	0.246	-0.151
-604.142	-200.000	-0.012	0.287
-603.128	-200.000	-0.043	0.255
-602.113	20.947	-0.272	-0.225
-601.098	-35.992	0.282	-0.155
-600.084	-163.936	-0.231	0.011
-599.069	58.355	0.193	-0.193
-598.055	224.002	-0.041	0.067
-597.040	-200.000	-0.035	-0.297
-596.025	-200.000	0.034	-0.164
-595.011	-73.976	-0.231	-0.085
-593.996	-152.493	0.162	-0.012
-592.982	706.570	-0.035	0.094
-591.967	-24.540	-0.209	-0.127
-590.952	-85.537	-0.025	-0.008
-589.938	71.378	-0.034	-0.036
-588.923	109.759	-0.103	-0.125
-587.909	-1.892	0.179	0.128
-586.894	-22.203	0.295	-0.182
-585.879	20.568	0.200	0.165
-584.865	-73.102	0.105	0.039
-583.850	33.913	-0.106	-0.094
-582.836	-84.126	0.199	-0.064
-581.821	686.934	0.026	-0.068
-580.806	-156.047	-0.242	-0.016
-579.792	-18.482	-0.222	-0.141
-578.777	-69.811	-0.115	-0.045
-577.763	231.996	0.018	0.031
-576.748	-200.000	0.014	0.161
-575.733	-200.000	-0.038	0.426
-574.719	-171.208	0.252	-0.009
-573.704	195.281	0.045	0.069
-572.690	-162.097	-0.094	-0.005
-571.675	-70.166	0.240	-0.093
-570.661	54.943	0.035	-0.035
-569.646	129.610	-0.197	0.257
-568.631	46.623	-0.172	0.162
-567.617	-33.907	0.353	-0.198
-566.602	-15.008	0.142	0.093
-565.588	-50.304	0.168	0.081
-564.573	-115.476	-0.274	-0.053
-563.558	83.545	-0.270	0.300
-562.544	-200.000	0.005	-0.319
-561.529	-172.519	-0.050	-0.002
-560.515	-63.953	-0.231	0.096
-559.500	-91.358	0.212	0.062
-558.485	204.212	-0.152	-0.240
-557.471	-78.907	-0.271	-0.094
-556.456	-200.000	0.067	0.502
-555.442	-63.578	0.238	0.099
-554.427	-67.468	0.218	0.087
-553.412	85.021	0.098	0.109
-552.398	14.660	0.145	0.116
-551.383	-119.090	-0.424	-0.076
-550.369	129.130	0.092	0.119
-549.354	-108.812	0.118	0.026
-548.339	-200.000	-0.015	-0.143
-547.325	-200.000	-0.055	0.278
-546.310	800.000	-0.058	-0.204
-545.296	100.965	-0.248	-0.294
-544.281	285.735	-0.145	0.266
-543.266	800.000	-0.011	0.036
-542.252	-97.321	0.383	0.102
-541.237	-94.067	-0.133	-0.037
-540.223	367.015	0.113	-0.232
-539.208	-200.000	0.037	-0.189
-538.193	-157.800	0.264	-0.016
-537.179	-178.954	0.064	-0.001
-536.164	-61.860	-0.045	0.019
-535.150	266.914	0.184	0.327
-534.135	53.129	0.209	0.204
-533.121	-161.964	-0.387	0.020
-532.106	-89.394	-0.362	0.108
-531.091	-127.909	0.372	-0.054
-530.077	-200.000	-0.071	-0.328
-529.062	424.171	0.038	-0.083
-528.048	109.569	0.276	-0.336
-527.033	-150.991	-0.365	-0.028
-526.018	-88.118	0.129	-0.039
-525.004	220.557	0.091	0.148
-523.989	38.884	-0.242	-0.220
-522.975	347.381	-0.065	0.131
-521.960	-108.640	0.155	0.034
-520.945	11.605	0.150	0.117
-519.931	-200.000	-0.021	0.239
-518.916	20.461	-0.138	0.113
-517.902	82.564	-0.165	0.183
-516.887	111.600	-0.282	0.346
-515.872	-3.600	0.233	0.165
-514.858	-26.312	0.128	0.076
-513.843	58.730	-0.102	0.102
-512.829	-200.000	-0.022	-0.213
-511.814	-165.062	-0.143	-0.006
-510.799	-88.546	0.298	0.090
-509.785	742.516	-0.102	0.278
-508.770	-200.000	-0.005	0.203
-507.756	-128.232	0.158	0.023
-506.741	294.066	0.074	-0.138
-505.726	81.713	0.310	-0.340
-504.712	-48.499	-0.211	-0.103
-503.697	278.610	0.127	0.230
-502.683	-148.685	0.242	-0.020
-501.668	-200.000	-0.007	-0.132
-500.653	59.912	0.252	-0.252
-499.639	568.380	0.058	0.142
-498.624	-85.864	-0.286	-0.090
-497.610	601.577	0.019	-0.048
-496.595	125.085	-0.183	0.235
-495.581	100.643	-0.146	-0.172
-494.566	-187.797	-0.291	0.004
-493.551	-200.000	0.027	-0.123
-492.537	-70.749	-0.267	-0.102
-491.522	165.787	0.078	-0.113
-490.508	-200.000	0.003	0.118
-489.493	-108.478	0.311	-0.068
-488.478	-200.000	0.014	0.091
-487.464	-44.969	-0.258	-0.131
-486.449	579.965	0.040	0.099
-485.435	800.000	-0.077	0.247
-484.420	-200.000	-0.230	-0.000
-483.405	-189.195	-0.252	-0.003
-482.391	-200.000	-0.039	0.300
-481.376	201.903	-0.212	0.331
-480.362	178.728	-0.192	-0.285
-479.347	-148.805	0.062	-0.005
-478.332	168.759	-0.213	0.309
-477.318	21.390	-0.128	0.105
-476.303	-200.000	-0.009	0.127
-475.289	800.000	0.052	-0.225
-474.274	45.008	0.087	0.081
-473.259	-200.000	0.013	0.234
-472.245	515.208	-0.110	0.260
-471.230	-23.013	0.177	0.108
-470.216	-200.000	-0.003	-0.050
-469.201	-80.063	-0.221	0.075
-468.186	-200.000	0.014	-0.087
-467.172	86.072	0.069	-0.077
-466.157	-143.445	0.277	0.027
-465.143	-152.954	-0.295	0.021
-464.128	800.000	-0.027	-0.110
-463.113	-65.264	-0.106	-0.043
-462.099	-159.389	0.225	0.013
-461.084	525.832	-0.056	0.134
-460.070	-105.142	-0.398	-0.092
-459.055	-138.592	0.150	-0.017
-458.040	800.000	-0.050	0.166
-457.026	540.001	-0.051	0.122
-456.011	-200.000	-0.005	0.102
-454.997	41.223	-0.247	0.226
-453.982	800.000	-0.028	0.113
-452.968	800.000	-0.068	-0.199
-451.953	121.366	0.338	-0.427
-450.938	249.436	-0.086	-0.147
-449.924	161.622	-0.202	0.286
-448.909	111.720	-0.234	-0.286
-447.895	-151.260	-0.152	-0.012
-446.880	108.411	0.054	-0.066
-445.865	-132.315	-0.111	-0.015
-444.851	-9.535	0.061	-0.041
-443.836	-53.172	-0.082	0.038
-442.822	559.439	-0.080	-0.195
-441.807	-83.819	0.166	-0.053
-440.792	-35.805	-0.178	-0.098
-439.778	156.878	0.071	0.099
-438.763	-200.000	-0.018	-0.173
-437.749	573.181	-0.071	0.175
-436.734	-127.656	0.237	-0.035
-435.719	-171.421	-0.132	0.004
-434.705	-153.200	0.306	0.022
-433.690	-61.219	0.134	-0.057
-432.676	-91.508	-0.217	0.063
-431.661	-133.027	-0.220	-0.028
-430.646	81.951	0.160	0.176
-429.632	162.753	-0.071	0.102
-428.617	-200.000	-0.013	0.090
-427.603	-200.000	0.006	0.065
-426.588	-200.000	-0.066	-0.295
-425.573	-58.407	-0.276	-0.121
-424.559	-200.000	0.002	-0.294
-423.544	-151.442	0.234	0.018
-422.530	150.035	0.042	0.057
-421.515	-200.000	-0.019	-0.099
-420.500	-200.000	0.010	0.143
-419.486	283.602	-0.244	0.444
-418.471	212.863	0.044	-0.071
-417.457	46.494	0.035	0.033
-416.442	-200.000	0.006	0.064
-415.428	-21.980	-0.166	0.102
-414.413	-19.636	0.053	0.033
-413.398	-118.796	0.144	0.026
-412.384	-101.377	0.318	-0.078
-411.369	-162.798	0.264	0.013
-410.355	800.000	-0.074	-0.229
-409.340	800.000	0.152	0.525
-408.325	544.655	-0.034	-0.083
-407.311	-16.772	-0.260	0.167
-406.296	-200.000	0.012	-0.221
-405.282	418.528	-0.039	-0.084
-404.267	66.725	-0.159	-0.163
-403.252	-121.597	0.264	-0.044
-402.238	261.433	0.064	-0.113
-401.223	34.210	0.210	-0.185
-400.209	715.333	-0.037	-0.098
-399.194	-60.092	0.280	0.121
-398.179	15.678	0.191	0.152
-397.165	-147.057	-0.216	0.019
-396.150	-200.000	-0.020	0.173
-395.136	-137.146	0.275	0.032
-394.121	-200.000	-0.016	0.369
-393.106	-200.000	0.022	0.209
-392.092	800.000	-0.061	0.220
-391.077	225.272	-0.081	0.132
-390.063	-200.000	0.018	-0.083
-389.048	-17.960	-0.072	0.046
-388.033	106.845	0.202	-0.243
-387.019	-0.669	0.201	-0.144
-386.004	213.889	-0.178	-0.285
-384.990	23.613	-0.054	0.045
-383.975	40.667	0.094	-0.085
-382.960	-150.832	0.072	0.005
-381.946	-79.097	-0.439	0.151
-380.931	-122.050	0.118	0.020
-379.917	-177.484	0.141	-0.003
-378.902	-9.132	0.120	0.081
-377.888	-51.083	0.270	-0.128
-376.873	25.727	0.038	-0.032
-375.858	307.101	0.118	-0.223
-374.844	-9.868	-0.284	0.191
-373.829	2.179	0.308	0.225
-372.815	-56.629	0.084	-0.038
-371.800	-200.000	0.035	-0.232
-370.785	-200.000	-0.033	-0.167
-369.771	-200.000	-0.025	-0.349
-368.756	585.736	0.118	0.292
-367.742	-7.850	-0.116	-0.079
-366.727	482.527	-0.097	-0.222
-365.712	-200.000	-0.025	0.148
-364.698	283.826	-0.066	0.120
-363.683	-130.670	-0.065	0.009
-362.669	800.000	-0.082	-0.310
-361.654	-101.145	-0.091	-0.022
-360.639	189.760	0.075	-0.113
-359.625	800.000	0.033	0.112
-358.610	-200.000	-0.003	0.228
-357.596	800.000	-0.050	-0.188
-356.581	-99.925	-0.076	0.019
-355.566	-72.429	-0.385	0.144
-354.552	166.873	0.248	-0.355
-353.537	-32.415	0.044	0.025
-352.523	800.000	0.068	0.236
-351.508	-42.814	0.273	0.140
-350.493	-200.000	0.037	-0.225
-349.479	-200.000	0.004	0.097
-348.464	-200.000	-0.037	0.240
-347.450	-182.702	0.271	-0.005
-346.435	-200.000	0.019	-0.145
-345.420	-16.947	0.093	-0.059
-344.406	-200.000	-0.007	-0.197
-343.391	-87.729	-0.113	-0.034
-342.377	-143.353	-0.098	0.009
-341.362	-139.035	0.151	-0.017
-340.348	-103.023	0.133	0.032
-339.333	-41.883	0.062	0.032
-338.318	-5.509	0.147	0.102
-337.304	605.817	-0.050	0.127
-336.289	-141.298	0.124	-0.013
-335.275	-30.881	-0.108	0.062
-334.260	329.268	-0.117	0.226
-333.245	-79.646	0.178	0.061
-332.231	12.843	-0.207	-0.161
-331.216	800.000	0.021	0.091
-330.202	-200.000	0.007	0.244
-329.187	283.373	0.229	0.416
-328.172	13.304	0.099	-0.077
-327.158	-128.147	-0.172	-0.025
-326.143	202.998	-0.196	-0.306
-325.129	163.284	0.153	-0.217
-324.114	800.000	-0.087	0.331
-323.099	-44.051	0.062	0.032
-322.085	97.474	0.223	-0.258
-321.070	-200.000	-0.017	0.212
-320.056	130.933	-0.019	0.024
-319.041	-49.437	0.083	0.040
-318.026	199.461	0.135	-0.208
-317.012	-138.391	0.223	0.025
-315.997	-25.854	0.221	0.131
-314.983	-135.688	-0.429	0.051
-313.968	-34.684	-0.106	0.058
-312.953	-200.000	-0.024	-0.135
-311.939	-83.699	0.309	-0.100
-310.924	800.000	0.043	0.123
-309.910	-158.338	-0.308	-0.018
-308.895	313.221	0.133	0.253
-307.880	98.251	0.121	-0.140
-306.866	5.660	-0.178	0.133
-305.851	-23.319	-0.341	0.206
-304.837	-200.000	0.001	-0.169
-303.822	13.581	0.303	0.237
-302.807	-126.429	0.157	0.023
-301.793	-60.992	-0.291	0.124
-300.778	52.338	-0.077	-0.074
-299.764	-200.000	0.012	-0.110
-298.749	58.456	-0.041	0.041
-297.735	-26.630	-0.276	-0.163
-296.720	34.943	0.198	0.175
-295.705	90.956	0.175	-0.198
-294.691	-102.211	0.188	-0.046
-293.676	35.151	0.113	0.100
-292.662	-14.283	0.151	-0.098
-291.647	114.414	0.095	0.117
-290.632	145.758	-0.161	0.217
-289.618	-101.346	0.185	0.045
-288.603	397.555	-0.078	0.165
-287.589	216.946	-0.149	0.239
-286.574	800.000	0.089	0.317
-285.559	-89.365	0.139	0.041
-284.545	-55.875	0.073	0.033
-283.530	670.380	0.078	-0.203
-282.516	-200.000	-0.052	0.418
-281.501	-57.439	0.070	0.031
-280.486	-57.973	-0.408	-0.179
-279.472	-18.505	0.149	-0.094
-278.457	592.427	-0.149	-0.372
-277.443	-200.000	0.037	-0.219
-276.428	800.000	0.075	-0.315
-275.413	79.919	0.283	0.306
-274.399	-96.418	-0.216	-0.057
-273.384	-41.840	-0.129	-0.067
-272.370	-75.205	-0.242	-0.087
-271.355	-108.364	0.154	0.033
-270.340	-137.062	0.066	-0.008
-269.326	-200.000	-0.003	-0.050
-268.311	-2.161	0.087	0.062
-267.297	-78.256	0.205	-0.071
-266.282	-57.401	0.059	-0.026
-265.267	800.000	-0.023	0.068
-264.253	278.680	-0.109	-0.196
-263.238	3.697	0.172	0.126
-262.224	-105.735	0.276	0.063
-261.209	635.718	0.039	0.100
-260.195	169.650	-0.084	-0.121
-259.180	-91.243	0.308	-0.089
-258.165	-40.957	-0.272	-0.142
-257.151	55.861	-0.271	-0.265
-256.136	-82.457	-0.247	-0.081
-255.122	21.063	0.060	-0.049
-254.107	-44.304	-0.132	-0.066
-253.092	-137.295	0.057	-0.007
-252.078	-200.000	0.023	0.174
-251.063	800.000	-0.059	-0.257
-250.049	172.946	0.188	0.272
-249.034	400.946	-0.033	0.071
-248.019	-36.434	-0.168	0.091
-247.005	181.076	0.230	0.340
-245.990	-146.737	0.146	0.013
-244.976	-200.000	-0.002	-0.117
-243.961	-45.932	0.356	-0.176
-242.946	399.420	-0.057	-0.119
-241.932	146.416	0.102	0.138
-240.917	-112.695	0.540	-0.108
-239.903	-114.507	-0.378	-0.073
-238.888	-59.136	-0.230	0.100
-237.873	105.977	0.159	0.189
-236.859	-200.000	0.054	0.261
-235.844	10.952	0.146	0.112
-234.830	111.179	-0.211	0.255
-233.815	-84.694	0.141	-0.045
-232.800	176.519	-0.282	-0.412
-231.786	43.886	0.203	-0.187
-230.771	34.617	0.120	-0.105
-229.757	-200.000	0.013	-0.379
-228.742	-29.521	0.124	-0.071
-227.727	-28.607	-0.290	0.168
-226.713	152.696	-0.133	0.182
-225.698	-67.311	-0.213	0.084
-224.684	-84.756	0.156	0.049
-223.669	-49.577	-0.013	-0.006
-222.655	-119.158	-0.255	-0.045
-221.640	556.414	-0.137	-0.332
-220.625	73.282	-0.126	0.133
-219.611	0.228	0.170	0.122
-218.596	769.031	0.063	-0.172
-217.582	31.358	0.192	0.166
-216.567	-150.339	0.193	0.015
-215.552	70.719	0.135	0.140
-214.538	242.626	-0.053	-0.089
-213.523	263.763	-0.154	-0.268
-212.509	-149.941	-0.231	0.018
-211.494	335.337	0.048	0.094
-210.479	-200.000	-0.018	-0.237
-209.465	-53.050	0.099	0.046
-208.450	-200.000	0.009	0.250
-207.436	-200.000	0.029	-0.224
-206.421	-200.000	-0.041	-0.529
-205.406	185.532	0.010	0.014
-204.392	-167.046	0.191	-0.008
-203.377	-38.547	0.076	-0.041
-202.363	-23.422	-0.191	-0.115
-201.348	60.243	-0.214	-0.213
-200.333	-200.000	0.001	-0.160
-199.319	-48.983	-0.396	0.190
-198.304	-130.819	-0.067	0.009
-197.290	800.000	-0.094	-0.266
-196.275	104.892	0.069	-0.082
-195.260	75.488	-0.234	0.248
-194.246	-91.551	0.137	0.039
-193.231	76.077	-0.236	0.251
-192.217	34.502	0.147	0.129
-191.202	-70.748	-0.239	0.090
-190.187	17.062	0.284	-0.226
-189.173	43.482	-0.169	-0.155
-188.158	-200.000	0.004	0.215
-187.144	95.485	0.208	-0.238
-186.129	-200.000	-0.016	-0.355
-185.114	621.129	0.083	-0.210
-184.100	-20.333	-0.285	-0.176
-183.085	6.728	0.065	0.048
-182.071	-200.000	-0.021	-0.165
-181.056	800.000	0.049	-0.155
-180.042	24.851	0.115	0.096
-179.027	-51.796	0.026	0.012
-178.012	-109.310	0.174	-0.037
-176.998	-200.000	-0.026	-0.140
-175.983	-13.397	0.135	-0.088
-174.969	-200.000	-0.080	0.381
-173.954	199.859	0.124	0.191
-172.939	-122.455	0.131	0.021
-171.925	-200.000	-0.033	-0.353
-170.910	-119.697	0.117	0.020
-169.896	176.789	0.260	-0.380
-168.881	15.691	-0.327	-0.258
-167.866	186.177	-0.073	0.109
-166.852	90.906	-0.117	-0.131
-165.837	446.074	-0.092	-0.204
-164.823	-187.194	0.082	0.001
-163.808	-34.166	-0.302	0.166
-162.793	800.000	-0.030	-0.091
-161.779	800.000	0.096	0.362
-160.764	800.000	-0.055	-0.158
-159.750	114.066	0.081	0.099
-158.735	-200.000	-0.011	0.455
-157.720	-70.902	0.107	0.040
-156.706	309.211	-0.120	0.224
-155.691	800.000	0.036	0.112
-154.677	47.634	0.409	0.382
-153.662	-46.179	-0.180	0.089
-152.647	-74.651	0.046	0.017
-151.633	-145.386	-0.300	-0.027
-150.618	-141.596	-0.127	0.013
-149.604	481.776	-0.102	-0.231
-148.589	68.372	-0.194	-0.199
-147.574	597.756	0.125	-0.309
-146.560	6.440	-0.263	-0.196
-145.545	335.357	0.036	-0.069
-144.531	-18.772	-0.281	0.175
-143.516	607.511	-0.160	0.400
-142.502	190.995	-0.024	0.037
-141.487	-43.475	-0.134	0.068
-140.472	44.809	-0.116	-0.106
-139.458	132.240	-0.146	0.188
-138.443	116.601	0.117	-0.143
-137.429	-116.148	0.316	-0.059
-136.414	14.716	0.199	0.156
-135.399	58.075	0.312	0.306
-134.385	-200.000	-0.015	-0.204
-133.370	111.374	-0.206	-0.249
-132.356	-190.376	-0.278	-0.003
-131.341	-9.956	0.182	-0.121
-130.326	-200.000	0.053	-0.403
-129.312	-49.148	0.287	-0.137
-128.297	-104.207	-0.353	0.082
-127.283	800.000	-0.033	0.097
-126.268	43.642	0.107	-0.098
-125.253	-66.781	-0.376	0.149
-124.239	-176.394	0.202	-0.005
-123.224	-54.943	0.135	-0.061
-122.210	-116.671	-0.202	0.037
