DTS Sentinel unit serial number:	SN413079Multiplexer serial number:	ORYXHardware model number:	OX4-SRSoftware version number:	ORYX F/W v4.00 Oryx Data Collector v3.7.2.0data status	okinstallation	princeton_trtdifferential loss correction	single-endedforward channel	channel 2reverse channel	N/Adate	2019/09/10time	23:09:11forward acquisition time	60.00reverse acquisition time	0.00gamma	496.2192k internal	0.2330k external	0.2330temperature offset calibration	0.9942default loss term (dB/km)	0.3790temperature slope calibration	1.0000multiplexer offset coefficient	1.0000multiplexer slope coefficient	1.0000fibre end	0.00T internal ref (°C)	29.94T ext. ref 1 (°C)	-0.31T ext. ref 2 (°C)	23.31length (m)	temperature (°C)	Stokes	anti-Stokes-747.200	440.535	0.058	0.127
-746.185	19.715	-0.133	0.108
-745.171	156.895	0.210	0.292
-744.156	505.950	-0.183	0.427
-743.142	-200.000	0.014	-0.107
-742.127	92.465	0.184	0.209
-741.112	77.562	-0.177	-0.190
-740.098	-103.050	0.346	0.083
-739.083	92.294	0.213	0.242
-738.069	-148.342	0.370	-0.031
-737.054	237.935	-0.172	0.287
-736.039	-52.636	0.295	-0.137
-735.025	-71.698	0.203	0.076
-734.010	-83.341	-0.009	-0.003
-732.996	59.434	-0.283	-0.281
-731.981	0.307	0.085	-0.061
-730.966	-96.128	0.225	0.060
-729.952	-200.000	0.017	0.323
-728.937	-200.000	-0.021	-0.325
-727.923	317.615	0.136	-0.259
-726.908	436.576	-0.116	-0.254
-725.894	-200.000	0.069	0.368
-724.879	-200.000	0.008	-0.128
-723.864	-115.829	-0.225	-0.042
-722.850	136.745	0.166	0.218
-721.835	800.000	0.065	0.223
-720.821	61.835	-0.322	-0.322
-719.806	65.195	-0.310	-0.315
-718.791	-200.000	-0.030	-0.133
-717.777	-200.000	-0.011	-0.421
-716.762	262.892	0.065	0.114
-715.748	70.775	0.150	0.156
-714.733	-44.430	-0.260	0.131
-713.718	307.552	-0.131	0.246
-712.704	-106.916	-0.069	-0.015
-711.689	576.867	0.131	0.322
-710.675	-11.760	-0.259	-0.171
-709.660	800.000	-0.090	-0.294
-708.645	800.000	0.049	0.152
-707.631	-105.580	0.261	0.059
-706.616	-32.190	0.258	-0.145
-705.602	-200.000	0.003	0.259
-704.587	177.498	-0.091	0.133
-703.572	-85.815	0.234	-0.073
-702.558	-4.892	0.329	-0.228
-701.543	-123.430	0.168	0.027
-700.529	156.767	-0.225	-0.312
-699.514	-32.551	-0.264	0.148
-698.499	-151.414	-0.116	0.009
-697.485	272.067	0.062	-0.109
-696.470	800.000	0.051	0.168
-695.456	1.577	-0.220	0.159
-694.441	-129.120	-0.369	0.052
-693.426	106.054	0.083	0.098
-692.412	81.093	0.224	0.243
-691.397	66.747	0.044	0.045
-690.383	-200.000	-0.060	0.317
-689.368	159.420	0.034	-0.048
-688.354	-165.849	-0.294	0.013
-687.339	800.000	0.032	0.096
-686.324	197.683	-0.061	-0.093
-685.310	-200.000	-0.022	0.418
-684.295	800.000	-0.072	0.201
-683.281	133.750	0.169	0.220
-682.266	-103.156	-0.372	0.088
-681.251	-200.000	-0.003	0.200
-680.237	-200.000	-0.064	0.398
-679.222	231.603	-0.085	0.141
-678.208	-200.000	-0.001	0.235
-677.193	-126.074	-0.228	-0.034
-676.178	-112.754	-0.185	-0.037
-675.164	-140.103	-0.137	0.014
-674.149	265.372	0.105	0.184
-673.135	-42.526	-0.119	-0.061
-672.120	-16.143	0.184	-0.118
-671.105	-19.046	-0.127	0.079
-670.091	-37.257	0.139	0.075
-669.076	-78.172	0.276	-0.095
-668.062	800.000	0.014	0.039
-667.047	217.445	-0.102	0.163
-666.032	-90.725	0.343	-0.099
-665.018	-168.629	0.372	0.014
-664.003	-200.000	0.051	-0.234
-662.989	800.000	-0.171	-0.479
-661.974	-200.000	-0.029	-0.266
-660.959	86.044	0.201	0.222
-659.945	242.375	0.060	-0.101
-658.930	800.000	0.067	-0.236
-657.916	496.971	0.073	-0.168
-656.901	39.614	-0.168	-0.151
-655.886	-200.000	0.051	-0.282
-654.872	-122.041	-0.180	0.030
-653.857	-130.484	0.142	0.019
-652.843	-157.310	-0.222	0.013
-651.828	-80.629	-0.053	-0.018
-650.814	126.200	0.203	-0.257
-649.799	-44.174	-0.420	0.211
-648.784	-68.118	0.193	0.075
-647.770	-200.000	0.078	-0.431
-646.755	130.926	0.099	0.127
-645.741	-200.000	0.003	-0.421
-644.726	-200.000	-0.037	0.290
-643.711	-200.000	0.046	-0.266
-642.697	182.137	-0.194	-0.287
-641.682	0.301	-0.516	0.369
-640.668	-50.341	-0.269	0.128
-639.653	46.393	0.113	-0.105
-638.638	64.785	-0.069	0.069
-637.624	-56.513	-0.349	0.155
-636.609	61.455	0.077	-0.077
-635.595	-60.845	-0.180	0.076
-634.580	276.239	-0.121	-0.215
-633.565	-24.434	0.235	-0.140
-632.551	86.097	-0.159	-0.176
-631.536	109.408	-0.092	-0.111
-630.522	121.072	-0.193	-0.240
-629.507	-38.493	0.309	-0.164
-628.492	93.400	-0.112	-0.127
-627.478	-16.264	-0.027	0.017
-626.463	7.958	0.359	-0.270
-625.449	-200.000	0.029	0.138
-624.434	-109.847	0.170	-0.036
-623.419	89.509	0.094	0.105
-622.405	433.805	0.045	-0.098
-621.390	-200.000	-0.013	-0.249
-620.376	-102.435	0.143	0.034
-619.361	-200.000	-0.010	-0.127
-618.346	800.000	-0.079	0.311
-617.332	94.348	-0.063	-0.072
-616.317	206.632	0.216	-0.336
-615.303	93.256	-0.304	-0.344
-614.288	-200.000	0.035	-0.243
-613.273	-138.666	-0.133	0.015
-612.259	-200.000	0.017	-0.114
-611.244	89.691	0.023	-0.026
-610.230	59.136	-0.154	-0.152
-609.215	62.278	0.277	0.277
-608.201	800.000	-0.086	-0.302
-607.186	-104.266	-0.259	-0.060
-606.171	-200.000	0.034	0.156
-605.157	-148.266	-0.192	-0.016
-604.142	360.399	0.114	0.228
-603.128	296.852	-0.029	-0.053
-602.113	800.000	-0.034	-0.112
-601.098	800.000	0.070	-0.211
-600.084	-32.267	-0.168	0.094
-599.069	720.277	-0.016	0.044
-598.055	-112.809	0.176	0.035
-597.040	-200.000	-0.041	-0.206
-596.025	-65.896	0.158	-0.063
-595.011	-66.165	-0.193	0.077
-593.996	-103.248	0.097	0.023
-592.982	-200.000	0.113	0.585
-591.967	-154.280	-0.111	-0.007
-590.952	800.000	-0.107	0.443
-589.938	65.939	0.262	-0.266
-588.923	-200.000	-0.001	-0.110
-587.909	800.000	0.036	0.131
-586.894	-71.700	0.219	-0.082
-585.879	-200.000	-0.022	-0.262
-584.865	125.520	0.123	0.155
-583.850	-141.054	-0.291	0.030
-582.836	69.753	0.125	-0.129
-581.821	-200.000	0.010	0.070
-580.806	22.980	0.145	-0.119
-579.792	635.874	0.057	0.146
-578.777	-200.000	0.015	0.455
-577.763	-159.477	0.092	0.005
-576.748	-200.000	-0.033	0.187
-575.733	800.000	-0.047	-0.185
-574.719	278.391	-0.096	0.171
-573.704	52.169	-0.155	-0.148
-572.690	714.357	-0.108	-0.287
-571.675	273.509	0.188	0.332
-570.661	-51.477	-0.317	-0.148
-569.646	332.811	-0.080	0.155
-568.631	-200.000	-0.012	-0.192
-567.617	-200.000	0.014	-0.285
-566.602	278.238	0.070	-0.124
-565.588	781.081	0.118	-0.324
-564.573	-0.994	-0.191	0.135
-563.558	-131.030	0.270	-0.036
-562.544	-112.228	0.228	-0.046
-561.529	102.939	-0.169	0.198
-560.515	-135.996	-0.061	-0.007
-559.500	-168.025	-0.123	-0.005
-558.485	-42.565	-0.169	0.086
-557.471	76.724	0.242	-0.256
-556.456	-75.089	0.054	0.019
-555.442	-88.796	0.063	-0.019
-554.427	119.918	-0.238	0.295
-553.412	-27.952	0.131	-0.076
-552.398	0.636	-0.543	-0.388
-551.383	-59.758	-0.119	0.051
-550.369	15.906	-0.006	0.005
-549.354	-17.222	0.054	0.034
-548.339	-62.647	0.280	0.116
-547.325	-84.320	-0.131	0.041
-546.310	30.161	-0.060	0.051
-545.296	-67.820	-0.196	0.077
-544.281	7.220	-0.242	-0.181
-543.266	66.845	-0.072	-0.073
-542.252	571.409	0.173	-0.422
-541.237	-51.206	0.282	0.132
-540.223	42.084	0.308	-0.279
-539.208	-94.362	0.268	-0.073
-538.193	47.211	-0.226	0.210
-537.179	-18.582	0.224	0.139
-536.164	-72.001	-0.088	-0.033
-535.150	800.000	-0.037	0.139
-534.135	-137.311	-0.181	0.021
-533.121	230.064	-0.014	0.023
-532.106	168.939	-0.153	0.217
-531.091	34.718	0.301	-0.263
-530.077	-126.515	-0.150	-0.022
-529.062	-128.666	-0.157	-0.022
-528.048	-23.271	-0.103	-0.062
-527.033	-29.143	-0.137	0.079
-526.018	-138.631	-0.227	-0.025
-525.004	-76.955	-0.192	0.067
-523.989	-200.000	0.057	0.305
-522.975	59.586	-0.330	0.325
-521.960	-18.790	0.056	-0.035
-520.945	-200.000	0.022	-0.171
-519.931	-159.826	-0.196	0.011
-518.916	-185.793	0.115	0.002
-517.902	-200.000	0.020	-0.117
-516.887	-38.869	0.143	-0.075
-515.872	-200.000	-0.004	-0.188
-514.858	138.835	0.133	0.175
-513.843	-200.000	0.009	-0.195
-512.829	-34.402	-0.189	0.104
-511.814	60.909	0.287	0.284
-510.799	-200.000	-0.060	-0.333
-509.785	408.272	0.073	-0.154
-508.770	800.000	-0.026	-0.100
-507.756	-136.702	-0.086	-0.010
-506.741	-200.000	-0.036	0.317
-505.726	-93.102	-0.234	0.065
-504.712	-46.104	-0.028	-0.014
-503.697	479.850	-0.099	0.223
-502.683	-139.647	-0.240	0.025
-501.668	207.353	0.200	0.311
-500.653	800.000	-0.132	0.413
-499.639	-117.164	0.183	0.033
-498.624	735.403	0.045	0.120
-497.610	119.388	0.148	0.182
-496.595	52.516	-0.207	-0.197
-495.581	800.000	0.012	0.050
-494.566	800.000	-0.050	0.186
-493.551	209.126	-0.180	0.281
-492.537	-69.286	-0.093	0.036
-491.522	146.053	-0.090	0.121
-490.508	-1.547	-0.110	0.077
-489.493	-86.735	0.240	0.073
-488.478	-200.000	0.070	0.404
-487.464	85.413	0.010	-0.011
-486.449	-52.327	0.104	0.048
-485.435	-200.000	-0.072	0.318
-484.420	-200.000	0.073	0.333
-483.405	-39.811	0.196	0.102
-482.391	148.437	-0.297	0.399
-481.376	-140.665	-0.363	-0.037
-480.362	-200.000	-0.086	0.511
-479.347	319.605	-0.137	-0.260
-478.332	73.160	0.144	0.150
-477.318	-88.516	-0.263	0.078
-476.303	-184.206	-0.365	0.006
-475.289	-61.263	0.299	-0.125
-474.274	541.925	-0.187	-0.445
-473.259	800.000	0.031	-0.123
-472.245	-146.481	0.220	0.019
-471.230	220.401	0.062	0.100
-470.216	-200.000	-0.014	0.068
-469.201	132.889	-0.136	0.175
-468.186	-187.129	0.344	0.005
-467.172	800.000	-0.033	-0.092
-466.157	-126.619	0.201	0.030
-465.143	674.414	0.029	-0.074
-464.128	-165.818	-0.379	0.016
-463.113	-58.812	0.177	-0.076
-462.099	-3.713	0.084	0.058
-461.084	-125.979	-0.401	0.060
-460.070	-18.338	-0.205	0.128
-459.055	107.100	-0.052	0.062
-458.040	12.902	-0.202	0.156
-457.026	129.924	0.084	-0.107
-456.011	204.500	-0.040	-0.062
-454.997	29.962	-0.015	-0.013
-453.982	-53.379	-0.042	0.019
-452.968	-179.159	-0.283	0.006
-451.953	-132.004	0.381	0.049
-450.938	-52.726	-0.321	-0.148
-449.924	-129.689	0.252	0.035
-448.909	800.000	-0.031	-0.104
-447.895	-2.908	0.080	0.055
-446.880	216.745	0.096	-0.152
-445.865	474.906	-0.054	-0.121
-444.851	267.606	0.202	-0.351
-443.836	-200.000	-0.007	0.274
-442.822	-200.000	-0.053	-0.349
-441.807	-200.000	-0.054	-0.412
-440.792	-200.000	0.011	-0.094
-439.778	273.945	-0.095	-0.166
-438.763	373.430	0.060	-0.120
-437.749	-141.664	0.174	-0.017
-436.734	312.366	0.102	-0.190
-435.719	73.852	0.163	-0.170
-434.705	-40.259	0.236	-0.122
-433.690	479.927	-0.062	-0.139
-432.676	-144.551	0.259	-0.024
-431.661	-75.494	-0.165	-0.059
-430.646	-78.171	0.260	-0.089
-429.632	-129.241	-0.089	0.012
-428.617	128.698	0.345	0.437
-427.603	34.880	-0.072	-0.062
-426.588	-74.016	-0.222	0.080
-425.573	-200.000	-0.004	-0.207
-424.559	-96.392	0.207	0.055
-423.544	-200.000	0.003	0.127
-422.530	27.879	-0.352	-0.295
-421.515	715.405	0.064	-0.169
-420.500	800.000	0.078	0.305
-419.486	181.828	0.204	-0.299
-418.471	303.738	-0.108	-0.199
-417.457	-22.754	0.020	0.012
-416.442	143.693	0.070	-0.093
-415.428	204.421	-0.058	0.089
-414.413	638.215	0.107	0.271
-413.398	-113.266	0.249	-0.049
-412.384	20.686	-0.154	-0.124
-411.369	125.312	-0.179	-0.225
-410.355	-200.000	-0.001	0.010
-409.340	-16.062	0.432	0.273
-408.325	230.724	-0.061	-0.098
-407.311	-90.579	0.277	0.080
-406.296	-200.000	0.019	-0.356
-405.282	269.930	0.197	0.344
-404.267	-33.008	0.127	-0.070
-403.252	-92.031	-0.131	0.037
-402.238	800.000	0.055	-0.203
-401.223	611.227	0.127	-0.317
-400.209	-86.318	0.242	-0.074
-399.194	-200.000	0.005	-0.208
-398.179	50.346	0.137	-0.129
-397.165	34.714	0.142	-0.123
-396.150	-128.376	0.299	0.042
-395.136	156.386	0.099	0.136
-394.121	140.473	-0.053	0.069
-393.106	-6.797	-0.102	-0.069
-392.092	-116.444	-0.381	0.070
-391.077	1.145	0.205	0.146
-390.063	-76.371	0.365	0.128
-389.048	-161.645	-0.322	-0.016
-388.033	-78.645	-0.168	0.057
-387.019	-200.000	-0.005	0.121
-386.004	106.007	0.276	-0.325
-384.990	279.126	-0.102	0.180
-383.975	-172.129	0.058	0.002
-382.960	-19.533	0.192	-0.118
-381.946	158.660	0.260	-0.359
-380.931	-83.106	-0.325	-0.104
-379.917	-200.000	0.072	0.385
-378.902	-200.000	0.049	-0.220
-377.888	248.004	-0.111	0.187
-376.873	-80.122	0.255	-0.085
-375.858	-3.572	-0.267	-0.184
-374.844	-97.744	-0.062	-0.016
-373.829	24.179	0.392	-0.322
-372.815	59.716	-0.263	-0.257
-371.800	-7.384	0.185	0.125
-370.785	97.703	0.231	0.263
-369.771	543.927	-0.033	0.078
-368.756	87.910	-0.023	-0.025
-367.742	-26.349	-0.045	-0.026
-366.727	-200.000	-0.044	0.345
-365.712	-73.318	-0.161	0.059
-364.698	-65.089	0.107	0.043
-363.683	800.000	-0.093	0.266
-362.669	-167.152	0.414	-0.017
-361.654	154.117	0.161	0.220
-360.639	99.659	-0.033	0.037
-359.625	65.634	0.208	0.209
-358.610	184.357	-0.049	-0.072
-357.596	136.449	-0.151	-0.196
-356.581	-119.118	0.401	-0.070
-355.566	-64.189	0.208	0.084
-354.552	160.950	0.094	0.131
-353.537	175.971	-0.196	0.282
-352.523	70.132	-0.115	0.118
-351.508	-123.524	-0.135	0.021
-350.493	800.000	0.079	-0.251
-349.479	139.684	0.169	-0.220
-348.464	-65.378	-0.053	0.021
-347.450	-56.143	0.135	-0.060
-346.435	37.680	-0.161	-0.141
-345.420	273.193	0.026	-0.045
-344.406	-78.584	-0.206	0.070
-343.391	800.000	-0.082	-0.231
-342.377	-200.000	-0.065	-0.282
-341.362	-56.039	-0.147	0.065
-340.348	27.755	0.066	-0.055
-339.333	-200.000	-0.043	0.221
-338.318	-3.115	-0.110	-0.076
-337.304	800.000	-0.028	-0.105
-336.289	-128.744	0.162	0.023
-335.275	800.000	-0.103	0.320
-334.260	-200.000	-0.002	-0.102
-333.245	-80.813	-0.221	-0.073
-332.231	83.672	0.182	0.196
-331.216	-192.022	0.379	0.004
-330.202	402.212	-0.106	0.220
-329.187	370.109	-0.136	0.273
-328.172	57.882	-0.090	0.087
-327.158	21.298	0.083	0.066
-326.143	-84.826	0.431	-0.134
-325.129	-200.000	-0.008	0.072
-324.114	-161.231	-0.108	-0.006
-323.099	-168.467	-0.107	0.004
-322.085	14.223	-0.501	-0.386
-321.070	-18.934	0.206	0.127
-320.056	-111.278	0.178	0.036
-319.041	800.000	-0.104	0.317
-318.026	158.745	0.191	0.262
-317.012	47.584	0.280	-0.259
-315.997	-200.000	0.003	-0.137
-314.983	-24.717	0.137	-0.081
-313.968	800.000	0.014	0.040
-312.953	94.043	-0.168	-0.189
-311.939	-78.704	-0.301	0.102
-310.924	-66.484	-0.078	-0.031
-309.910	-200.000	0.010	-0.097
-308.895	106.135	-0.229	-0.268
-307.880	-33.168	-0.139	0.076
-306.866	668.755	0.068	-0.174
-305.851	800.000	0.045	-0.153
-304.837	-200.000	-0.061	0.319
-303.822	-145.347	-0.436	0.039
-302.807	31.202	0.119	0.101
-301.793	44.647	0.172	-0.157
-300.778	518.301	0.139	0.323
-299.764	-200.000	-0.047	-0.296
-298.749	-8.713	-0.167	-0.111
-297.735	-129.950	0.232	0.031
-296.720	544.100	0.128	0.303
-295.705	206.494	-0.125	-0.193
-294.691	44.557	0.153	-0.139
-293.676	311.490	-0.265	-0.492
-292.662	134.590	0.070	0.090
-291.647	318.219	-0.098	0.183
-290.632	144.217	0.103	0.136
-289.618	553.808	-0.078	0.185
-288.603	129.901	0.057	0.072
-287.589	800.000	-0.184	0.531
-286.574	-200.000	0.070	0.396
-285.559	-130.806	0.279	0.037
-284.545	-200.000	0.023	-0.192
-283.530	-39.303	0.052	0.027
-282.516	-200.000	-0.082	0.532
-281.501	271.035	-0.180	0.313
-280.486	-3.634	-0.130	0.090
-279.472	-200.000	-0.001	-0.025
-278.457	119.183	0.161	-0.197
-277.443	-200.000	0.029	-0.143
-276.428	9.550	0.342	-0.256
-275.413	13.731	-0.162	-0.124
-274.399	-200.000	0.066	0.305
-273.384	82.268	-0.219	0.235
-272.370	43.088	0.246	-0.222
-271.355	-200.000	0.010	-0.181
-270.340	68.539	-0.278	-0.282
-269.326	-147.940	-0.255	-0.021
-268.311	-21.025	0.271	0.164
-267.297	-37.755	-0.373	0.196
-266.282	36.789	-0.277	0.242
-265.267	800.000	0.062	0.172
-264.253	800.000	0.047	-0.146
-263.238	172.526	0.189	-0.269
-262.224	-53.973	0.110	-0.049
-261.209	2.138	0.077	-0.055
-260.195	-200.000	-0.007	0.232
-259.180	-123.989	-0.436	0.068
-258.165	450.138	0.051	0.112
-257.151	-104.981	-0.120	-0.027
-256.136	-44.565	0.037	0.018
-255.122	-200.000	0.002	-0.024
-254.107	405.763	-0.065	-0.135
-253.092	-129.579	0.090	0.012
-252.078	-200.000	0.013	-0.169
-251.063	-200.000	0.031	0.345
-250.049	-192.136	-0.275	-0.003
-249.034	-125.497	-0.237	0.036
-248.019	136.393	-0.053	0.069
-247.005	-65.820	0.250	0.099
-245.990	40.855	-0.009	-0.008
-244.976	-200.000	0.011	0.087
-243.961	-137.423	-0.200	0.022
-242.946	191.713	-0.043	0.064
-241.932	264.765	0.173	0.298
-240.917	171.428	-0.123	0.175
-239.903	159.721	-0.094	-0.129
-238.888	-2.667	0.317	-0.219
-237.873	207.211	0.141	-0.217
-236.859	13.417	0.181	-0.138
-235.844	-44.399	0.165	-0.082
-234.830	-91.023	0.120	-0.034
-233.815	701.824	0.163	-0.424
-232.800	63.119	-0.072	0.072
-231.786	-200.000	0.003	-0.110
-230.771	255.152	0.051	-0.087
-229.757	-136.998	-0.158	0.018
-228.742	81.756	0.149	0.160
-227.727	3.410	-0.053	0.038
-226.713	160.494	-0.225	-0.310
-225.698	-200.000	-0.050	0.320
-224.684	-200.000	-0.012	0.079
-223.669	-200.000	-0.060	-0.419
-222.655	800.000	0.051	-0.140
-221.640	-200.000	-0.026	-0.295
-220.625	800.000	0.021	0.075
-219.611	8.990	-0.185	0.138
-218.596	-200.000	-0.080	-0.359
-217.582	21.697	-0.165	0.132
-216.567	800.000	0.055	-0.196
-215.552	28.449	0.115	0.096
-214.538	-51.687	-0.344	-0.158
-213.523	39.055	-0.358	-0.316
-212.509	74.639	0.248	-0.257
-211.494	800.000	-0.008	0.024
-210.479	171.128	0.031	0.043
-209.465	-200.000	-0.002	-0.315
-208.450	0.312	0.037	0.026
-207.436	-200.000	-0.073	0.367
-206.421	-93.708	0.254	-0.069
-205.406	-12.884	0.548	0.352
-204.392	114.714	-0.022	0.027
-203.377	0.866	-0.122	-0.086
-202.363	478.523	0.191	0.426
-201.348	-116.949	-0.207	-0.037
-200.333	139.080	-0.154	-0.200
-199.319	-155.130	-0.217	0.014
-198.304	219.507	-0.115	0.181
-197.290	-62.192	-0.081	-0.033
-196.275	30.153	-0.123	0.103
-195.260	127.376	-0.109	0.136
-194.246	284.024	-0.071	0.127
-193.231	-71.367	0.363	0.134
-192.217	-122.817	0.188	0.030
-191.202	-14.280	0.263	-0.167
-190.187	800.000	-0.060	0.193
-189.173	150.275	-0.153	0.204
-188.158	730.062	0.174	0.459
-187.144	98.029	-0.125	0.141
-186.129	-200.000	0.027	-0.404
-185.114	-151.787	0.227	-0.016
-184.100	312.984	-0.071	0.132
-183.085	23.047	0.167	0.135
-182.071	-162.963	0.111	0.005
-181.056	53.971	-0.015	0.015
-180.042	-134.088	0.348	-0.042
-179.027	-27.999	0.181	-0.103
-178.012	-200.000	0.033	0.234
-176.998	189.945	-0.114	-0.168
-175.983	-141.092	-0.329	0.033
-174.969	-91.844	0.122	0.034
-173.954	146.514	-0.162	-0.214
-172.939	-143.739	-0.162	-0.015
-171.925	800.000	-0.014	-0.042
-170.910	70.643	0.242	-0.247
-169.896	800.000	0.048	-0.140
-168.881	740.043	0.091	0.240
-167.866	328.852	-0.131	0.248
-166.852	-114.631	-0.045	-0.008
-165.837	61.314	-0.142	-0.139
-164.823	101.061	0.071	0.081
-163.808	-169.570	0.258	-0.009
-162.793	-73.616	0.153	0.055
-161.779	-116.217	-0.056	-0.010
-160.764	-200.000	-0.007	-0.052
-159.750	-200.000	-0.020	0.285
-158.735	-156.817	0.320	0.019
-157.720	800.000	-0.056	0.175
-156.706	759.334	-0.096	0.257
-155.691	18.081	0.310	-0.243
-154.677	35.285	0.051	-0.044
-153.662	21.898	-0.052	0.042
-152.647	-200.000	-0.019	-0.165
-151.633	-124.370	-0.112	0.017
-150.618	-35.005	0.278	0.149
-149.604	28.260	0.072	-0.059
-148.589	-200.000	-0.044	-0.278
-147.574	-43.507	0.046	-0.023
-146.560	-55.020	0.309	0.137
-145.545	-136.709	-0.105	0.012
-144.531	264.939	-0.113	-0.194
-143.516	52.834	-0.044	-0.041
-142.502	-200.000	-0.007	-0.056
-141.487	44.874	0.114	-0.103
-140.472	64.053	-0.143	-0.142
-139.458	720.665	-0.138	0.360
-138.443	-155.766	0.294	-0.018
-137.429	-200.000	0.003	0.221
-136.414	-75.914	0.187	-0.065
-135.399	269.891	0.180	-0.311
-134.385	800.000	0.030	-0.102
-133.370	-157.837	0.106	0.006
-132.356	779.096	-0.159	0.426
-131.341	-136.056	0.124	0.014
-130.326	56.942	0.196	-0.187
-129.312	599.506	0.122	-0.296
-128.297	-88.890	-0.387	0.113
-127.283	634.369	0.189	0.470
-126.268	-37.251	0.290	0.153
-125.253	163.718	0.032	0.044
-124.239	-45.156	0.419	-0.205
-123.224	-200.000	-0.055	0.358
-122.210	800.000	-0.019	-0.060
-121.195	155.949	-0.106	-0.144
