DTS Sentinel unit serial number:	SN413079Multiplexer serial number:	ORYXHardware model number:	OX4-SRSoftware version number:	ORYX F/W v4.00 Oryx Data Collector v3.7.2.0data status	okinstallation	princeton_trtdifferential loss correction	single-endedforward channel	channel 2reverse channel	N/Adate	2019/09/19time	14:03:35forward acquisition time	60.00reverse acquisition time	0.00gamma	496.2192k internal	0.2325k external	0.2325temperature offset calibration	1.0017default loss term (dB/km)	0.3790temperature slope calibration	1.0000multiplexer offset coefficient	1.0000multiplexer slope coefficient	1.0000fibre end	0.00T internal ref (°C)	31.25T ext. ref 1 (°C)	1.02T ext. ref 2 (°C)	28.52length (m)	temperature (°C)	Stokes	anti-Stokes-747.200	107.335	0.165	-0.198
-746.185	317.104	-0.145	0.277
-745.171	-100.499	0.158	0.039
-744.156	-103.951	0.062	0.014
-743.142	-200.000	-0.079	-0.381
-742.127	-16.195	-0.271	-0.174
-741.112	-105.683	0.066	0.015
-740.098	394.657	0.176	0.371
-739.083	218.382	-0.162	0.262
-738.069	93.520	-0.045	0.052
-737.054	769.840	-0.103	-0.284
-736.039	-117.112	-0.165	0.030
-735.025	148.738	0.265	0.361
-734.010	-26.245	-0.394	-0.233
-732.996	-75.751	-0.296	-0.106
-731.981	3.577	-0.362	-0.266
-730.966	-200.000	0.032	-0.244
-729.952	-200.000	0.019	-0.188
-728.937	325.133	-0.062	0.119
-727.923	-200.000	-0.018	-0.344
-726.908	-87.811	0.193	-0.059
-725.894	31.163	-0.101	0.087
-724.879	521.927	-0.019	-0.046
-723.864	196.575	0.151	-0.232
-722.850	-10.275	0.070	-0.047
-721.835	-119.698	-0.322	-0.056
-720.821	68.131	-0.416	-0.430
-719.806	-200.000	-0.009	-0.065
-718.791	622.119	-0.042	-0.108
-717.777	-64.521	-0.190	0.078
-716.762	98.145	0.092	0.107
-715.748	93.484	-0.086	-0.098
-714.733	-111.064	0.258	0.053
-713.718	-88.178	0.248	0.075
-712.704	30.555	-0.277	0.238
-711.689	-200.000	0.033	-0.331
-710.675	15.267	-0.049	0.039
-709.660	43.113	0.073	-0.067
-708.645	20.013	0.162	-0.132
-707.631	800.000	-0.072	0.203
-706.616	681.983	0.097	0.256
-705.602	-147.666	-0.162	-0.014
-704.587	-14.447	0.279	-0.181
-703.572	-50.971	-0.251	0.119
-702.558	800.000	-0.029	-0.118
-701.543	800.000	0.075	-0.229
-700.529	192.250	0.124	0.189
-699.514	-200.000	-0.003	0.128
-698.499	-8.137	-0.414	-0.281
-697.485	-200.000	-0.010	-0.182
-696.470	800.000	-0.024	-0.094
-695.456	-139.332	-0.280	-0.030
-694.441	-34.032	-0.131	0.072
-693.426	-21.818	-0.275	0.169
-692.412	187.297	0.225	-0.338
-691.397	403.045	0.128	0.272
-690.383	-73.102	0.269	0.099
-689.368	240.096	-0.089	0.149
-688.354	-22.949	0.079	0.048
-687.339	-88.929	-0.324	0.097
-686.324	-47.299	-0.077	-0.038
-685.310	113.389	-0.007	0.008
-684.295	169.664	-0.097	-0.139
-683.281	388.883	-0.080	-0.167
-682.266	184.663	-0.202	-0.301
-681.251	333.115	-0.176	-0.342
-680.237	-5.252	-0.123	-0.085
-679.222	-66.855	-0.168	0.067
-678.208	613.238	-0.104	0.263
-677.193	800.000	0.024	0.089
-676.178	18.948	-0.302	0.244
-675.164	-11.695	-0.187	-0.124
-674.149	188.302	-0.210	-0.316
-673.135	-101.249	-0.414	-0.102
-672.120	407.175	-0.139	-0.297
-671.105	-34.165	0.170	-0.094
-670.091	76.731	-0.228	0.243
-669.076	800.000	-0.065	0.215
-668.062	221.774	-0.033	0.054
-667.047	-200.000	0.017	0.163
-666.032	-138.860	-0.052	-0.006
-665.018	-148.031	0.248	0.021
-664.003	250.564	-0.092	-0.156
-662.989	800.000	0.077	0.259
-661.974	432.866	-0.042	0.093
-660.959	596.093	-0.138	-0.344
-659.945	-30.843	-0.239	0.136
-658.930	316.571	-0.176	0.335
-657.916	280.165	0.152	-0.273
-656.901	-200.000	0.012	-0.090
-655.886	-27.695	0.251	0.147
-654.872	403.725	0.117	-0.248
-653.857	-200.000	-0.000	0.032
-652.843	-25.141	-0.143	-0.085
-651.828	-200.000	0.012	-0.292
-650.814	-15.300	-0.125	-0.080
-649.799	767.744	-0.110	-0.300
-648.784	-30.451	0.087	-0.049
-647.770	151.450	-0.121	0.166
-646.755	231.624	0.038	-0.063
-645.741	-37.988	0.306	-0.163
-644.726	486.041	0.063	0.144
-643.711	76.061	0.175	0.186
-642.697	546.350	0.125	-0.300
-641.682	-23.098	0.645	-0.390
-640.668	507.536	0.123	-0.287
-639.653	-33.257	-0.045	0.025
-638.638	-6.123	0.291	0.200
-637.624	93.672	0.078	0.089
-636.609	-43.829	-0.157	-0.080
-635.595	-200.000	0.026	0.122
-634.580	-53.444	-0.010	-0.005
-633.565	-60.924	0.157	0.067
-632.551	800.000	0.019	0.078
-631.536	54.478	-0.148	-0.143
-630.522	80.542	-0.076	-0.082
-629.507	-200.000	-0.019	-0.151
-628.492	-140.620	-0.230	0.024
-627.478	-200.000	0.004	-0.205
-626.463	54.104	0.278	-0.269
-625.449	-200.000	-0.007	0.312
-624.434	541.765	-0.078	0.187
-623.419	-66.295	0.119	-0.048
-622.405	-200.000	0.130	-0.000
-621.390	-200.000	-0.066	0.488
-620.376	-200.000	-0.004	0.196
-619.361	-200.000	0.089	-0.406
-618.346	239.977	0.118	-0.197
-617.332	-200.000	0.018	0.150
-616.317	9.969	0.319	0.244
-615.303	-100.685	-0.280	-0.069
-614.288	255.242	-0.053	-0.092
-613.273	292.707	0.212	0.388
-612.259	449.825	-0.009	0.020
-611.244	-32.028	-0.129	0.072
-610.230	87.443	0.150	0.167
-609.215	-40.101	0.302	-0.158
-608.201	-200.000	0.001	0.229
-607.186	800.000	-0.053	0.212
-606.171	173.126	-0.219	-0.316
-605.157	-200.000	-0.041	-0.292
-604.142	-46.366	-0.287	-0.142
-603.128	756.299	0.068	-0.184
-602.113	-85.553	-0.115	-0.036
-601.098	800.000	-0.067	-0.220
-600.084	204.441	-0.320	0.498
-599.069	274.288	-0.155	0.275
-598.055	-200.000	-0.041	0.362
-597.040	-101.398	0.131	0.032
-596.025	158.574	0.161	-0.224
-595.011	-18.776	-0.064	-0.040
-593.996	-0.919	-0.196	-0.139
-592.982	-64.420	-0.253	-0.103
-591.967	292.351	0.138	-0.252
-590.952	-190.241	0.104	-0.001
-589.938	60.683	-0.175	-0.174
-588.923	92.570	-0.120	-0.135
-587.909	-43.725	0.381	0.193
-586.894	-104.901	-0.447	-0.103
-585.879	-82.284	0.162	-0.053
-584.865	-200.000	-0.004	-0.094
-583.850	800.000	0.007	-0.023
-582.836	-140.185	0.271	0.029
-581.821	800.000	-0.077	-0.326
-580.806	3.113	0.243	0.177
-579.792	800.000	-0.074	0.290
-578.777	177.232	-0.159	0.232
-577.763	8.150	0.261	-0.197
-576.748	19.530	0.144	-0.116
-575.733	-118.305	-0.383	-0.068
-574.719	-9.915	-0.171	0.114
-573.704	99.403	-0.084	0.097
-572.690	-98.681	-0.250	-0.064
-571.675	800.000	0.025	-0.098
-570.661	-53.127	-0.346	-0.159
-569.646	800.000	0.085	0.270
-568.631	-200.000	0.046	0.253
-567.617	-200.000	0.039	0.470
-566.602	127.005	-0.072	-0.091
-565.588	-145.197	-0.278	-0.025
-564.573	800.000	0.087	-0.331
-563.558	122.879	0.037	-0.047
-562.544	166.745	0.116	0.165
-561.529	-8.279	-0.151	-0.102
-560.515	17.069	0.097	-0.077
-559.500	-49.746	-0.258	-0.123
-558.485	674.324	-0.042	-0.109
-557.471	-46.922	0.174	0.085
-556.456	-200.000	-0.031	0.359
-555.442	-200.000	-0.033	-0.171
-554.427	52.769	-0.090	-0.087
-553.412	-91.112	0.239	0.069
-552.398	-5.216	-0.097	-0.067
-551.383	404.669	0.055	-0.116
-550.369	-200.000	-0.007	0.345
-549.354	-104.286	0.260	0.061
-548.339	192.878	-0.244	-0.369
-547.325	-36.096	0.311	0.168
-546.310	136.737	-0.133	-0.174
-545.296	800.000	0.030	0.120
-544.281	-75.114	0.259	-0.093
-543.266	131.771	-0.074	-0.095
-542.252	28.783	-0.239	0.202
-541.237	-190.395	-0.036	0.000
-540.223	0.047	0.024	-0.017
-539.208	302.690	0.066	0.123
-538.193	184.646	0.209	-0.310
-537.179	-200.000	-0.021	0.212
-536.164	-155.103	0.177	0.012
-535.150	-200.000	-0.055	-0.257
-534.135	-76.446	-0.087	-0.031
-533.121	12.029	0.306	0.236
-532.106	800.000	-0.126	-0.369
-531.091	-60.674	0.178	-0.075
-530.077	-13.055	0.238	-0.155
-529.062	41.415	-0.116	0.105
-528.048	800.000	-0.048	0.140
-527.033	239.048	0.063	0.105
-526.018	311.741	-0.184	0.346
-525.004	45.187	-0.141	0.130
-523.989	-200.000	-0.010	0.098
-522.975	800.000	-0.092	0.261
-521.960	-44.195	-0.156	-0.078
-520.945	-200.000	-0.006	0.066
-519.931	-96.636	0.366	0.096
-518.916	-47.679	-0.320	-0.155
-517.902	-120.500	0.148	-0.025
-516.887	-149.211	-0.106	-0.009
-515.872	800.000	0.098	-0.297
-514.858	154.981	0.131	-0.180
-513.843	-64.136	0.137	-0.056
-512.829	255.374	-0.177	-0.304
-511.814	15.858	-0.031	-0.025
-510.799	-200.000	-0.031	-0.383
-509.785	-200.000	-0.048	-0.391
-508.770	800.000	-0.044	0.146
-507.756	-105.428	-0.681	-0.155
-506.741	-147.639	0.375	-0.032
-505.726	-87.397	0.458	-0.139
-504.712	-94.988	0.051	-0.014
-503.697	9.948	0.176	0.133
-502.683	800.000	-0.030	0.126
-501.668	-14.055	0.085	0.055
-500.653	-112.245	-0.028	-0.006
-499.639	-98.780	0.014	0.004
-498.624	-40.666	-0.280	-0.145
-497.610	86.849	-0.202	-0.223
-496.595	-43.416	0.112	0.057
-495.581	-171.136	0.063	0.002
-494.566	-65.141	-0.015	0.006
-493.551	212.061	-0.214	0.336
-492.537	-58.802	0.266	0.115
-491.522	-200.000	0.040	-0.313
-490.508	656.385	0.065	0.168
-489.493	800.000	0.029	0.092
-488.478	40.283	0.144	-0.130
-487.464	-62.163	-0.182	0.076
-486.449	-200.000	0.036	0.238
-485.435	237.837	0.061	0.101
-484.420	-104.582	0.132	0.030
-483.405	-147.469	-0.122	0.010
-482.391	-140.384	0.069	0.007
-481.376	-200.000	-0.005	-0.105
-480.362	11.521	-0.032	-0.024
-479.347	-24.825	0.238	0.141
-478.332	-92.666	0.131	0.037
-477.318	47.888	0.165	-0.154
-476.303	206.898	0.221	-0.344
-475.289	65.871	0.082	0.083
-474.274	-200.000	-0.042	-0.188
-473.259	-102.705	-0.269	-0.064
-472.245	-200.000	-0.033	0.274
-471.230	-146.066	-0.101	-0.009
-470.216	76.995	-0.062	-0.065
-469.201	245.185	0.170	0.285
-468.186	-17.886	0.096	0.060
-467.172	163.629	-0.063	0.089
-466.157	157.196	-0.102	0.141
-465.143	-84.701	0.045	-0.014
-464.128	-77.008	0.047	0.016
-463.113	-200.000	-0.026	-0.204
-462.099	641.355	0.046	0.117
-461.084	62.848	-0.091	-0.091
-460.070	58.390	-0.528	-0.517
-459.055	-32.628	0.154	-0.085
-458.040	-135.262	0.141	-0.017
-457.026	-99.986	0.353	-0.088
-456.011	369.416	-0.127	0.256
-454.997	-200.000	0.004	-0.148
-453.982	-200.000	-0.011	0.162
-452.968	-93.018	0.019	0.005
-451.953	282.245	-0.075	0.135
-450.938	-47.283	-0.246	0.120
-449.924	-120.869	0.219	0.037
-448.909	-200.000	-0.052	0.378
-447.895	28.005	0.144	0.121
-446.880	173.692	-0.065	0.094
-445.865	451.585	-0.063	-0.139
-444.851	63.687	-0.153	0.153
-443.836	-200.000	-0.039	0.482
-442.822	136.978	-0.202	-0.264
-441.807	-104.278	-0.231	0.053
-440.792	6.566	0.265	0.197
-439.778	103.999	-0.068	0.080
-438.763	-200.000	-0.037	0.337
-437.749	36.016	0.245	-0.215
-436.734	-200.000	-0.015	-0.148
-435.719	100.138	0.099	0.114
-434.705	-200.000	-0.007	-0.316
-433.690	-200.000	-0.010	0.169
-432.676	229.092	0.114	-0.186
-431.661	124.522	-0.130	-0.163
-430.646	-4.082	0.172	0.119
-429.632	111.784	-0.362	0.436
-428.617	800.000	-0.131	0.437
-427.603	-160.200	-0.068	0.004
-426.588	161.848	0.127	0.177
-425.573	-87.151	0.061	-0.019
-424.559	-167.078	-0.063	0.003
-423.544	127.638	-0.062	0.079
-422.530	27.030	0.243	-0.203
-421.515	-100.412	-0.106	0.026
-420.500	-197.922	-0.267	-0.002
-419.486	260.371	-0.178	-0.306
-418.471	-28.489	0.258	-0.148
-417.457	-138.011	-0.166	-0.018
-416.442	-200.000	-0.014	0.081
-415.428	39.928	-0.222	0.199
-414.413	-200.000	-0.004	-0.191
-413.398	131.788	-0.082	-0.105
-412.384	-143.609	-0.201	0.019
-411.369	800.000	-0.073	-0.201
-410.355	-119.720	0.232	0.040
-409.340	800.000	0.073	0.217
-408.325	19.719	0.231	0.185
-407.311	116.161	-0.109	-0.133
-406.296	270.672	-0.204	-0.357
-405.282	628.618	-0.132	-0.333
-404.267	-14.346	-0.405	-0.260
-403.252	-200.000	0.026	-0.411
-402.238	-6.482	-0.095	-0.065
-401.223	-169.789	0.382	-0.014
-400.209	-163.401	0.087	-0.004
-399.194	212.443	-0.053	-0.083
-398.179	-46.314	-0.141	-0.069
-397.165	-200.000	-0.024	0.111
-396.150	75.602	0.306	0.322
-395.136	-28.806	-0.159	-0.091
-394.121	396.112	0.165	0.342
-393.106	410.158	0.136	0.286
-392.092	-19.764	-0.220	0.135
-391.077	-127.695	-0.294	-0.042
-390.063	-4.553	0.040	0.028
-389.048	72.333	0.067	-0.070
-388.033	300.322	-0.050	0.091
-387.019	256.129	-0.083	-0.142
-386.004	-200.000	0.014	0.219
-384.990	-45.400	-0.132	-0.065
-383.975	176.628	-0.117	-0.169
-382.960	82.554	0.179	0.193
-381.946	382.302	-0.052	-0.106
-380.931	-12.567	0.214	0.139
-379.917	-86.796	0.130	0.039
-378.902	-80.139	-0.409	-0.136
-377.888	-116.933	0.336	-0.061
-376.873	800.000	-0.030	0.100
-375.858	-200.000	-0.080	0.408
-374.844	-200.000	-0.030	-0.258
-373.829	800.000	0.052	-0.192
-372.815	-146.895	-0.315	0.027
-371.800	30.361	-0.182	0.155
-370.785	100.089	0.156	0.180
-369.771	-51.653	-0.357	-0.165
-368.756	556.921	-0.020	-0.048
-367.742	88.991	-0.248	0.275
-366.727	-173.096	0.275	0.008
-365.712	1.170	-0.203	-0.145
-364.698	31.911	0.267	0.229
-363.683	-45.643	0.082	-0.040
-362.669	-200.000	-0.001	-0.259
-361.654	15.094	-0.195	0.152
-360.639	129.352	-0.034	0.043
-359.625	800.000	-0.073	-0.270
-358.610	-200.000	0.028	-0.140
-357.596	58.886	0.102	-0.100
-356.581	281.000	0.184	-0.328
-355.566	19.186	-0.109	-0.087
-354.552	-139.382	-0.098	0.010
-353.537	800.000	0.046	0.201
-352.523	-200.000	-0.043	-0.351
-351.508	405.299	0.155	-0.326
-350.493	-25.631	-0.210	0.123
-349.479	-73.032	-0.250	-0.091
-348.464	-81.808	0.119	0.039
-347.450	-34.915	0.123	0.067
-346.435	-78.087	0.098	0.034
-345.420	-72.446	0.067	-0.024
-344.406	-22.657	0.321	-0.193
-343.391	-173.131	0.284	0.009
-342.377	-40.604	-0.250	-0.129
-341.362	-200.000	-0.031	0.175
-340.348	-30.188	-0.093	0.052
-339.333	77.624	-0.102	0.108
-338.318	78.023	-0.108	-0.114
-337.304	44.697	0.102	-0.093
-336.289	-200.000	-0.022	-0.300
-335.275	-171.514	-0.323	-0.011
-334.260	-80.283	0.149	0.049
-333.245	80.451	-0.321	-0.343
-332.231	-200.000	0.001	-0.099
-331.216	-47.493	-0.086	-0.041
-330.202	-200.000	-0.010	-0.126
-329.187	-97.968	-0.180	0.046
-328.172	-164.587	-0.146	-0.007
-327.158	22.564	0.058	-0.047
-326.143	132.300	0.232	-0.297
-325.129	-200.000	0.038	0.183
-324.114	160.081	-0.046	0.063
-323.099	-200.000	-0.044	0.366
-322.085	80.934	0.093	-0.100
-321.070	111.013	-0.104	-0.124
-320.056	459.412	0.061	-0.135
-319.041	-107.404	-0.082	-0.018
-318.026	504.432	0.009	0.021
-317.012	634.244	-0.011	-0.029
-315.997	800.000	-0.100	-0.306
-314.983	204.083	-0.161	0.248
-313.968	-4.736	0.130	-0.089
-312.953	-47.573	-0.164	-0.079
-311.939	68.242	-0.103	0.105
-310.924	62.148	-0.062	0.061
-309.910	362.654	0.140	0.280
-308.895	69.504	-0.090	-0.092
-307.880	-38.277	-0.185	0.097
-306.866	-200.000	0.030	-0.218
-305.851	-41.822	0.212	-0.108
-304.837	-200.000	0.029	0.269
-303.822	-46.994	0.266	-0.129
-302.807	-111.206	0.194	-0.039
-301.793	800.000	-0.084	-0.275
-300.778	800.000	0.063	0.175
-299.764	-122.370	0.104	0.017
-298.749	-200.000	0.015	0.125
-297.735	-30.484	0.116	-0.065
-296.720	-124.161	0.220	-0.034
-295.705	-20.032	-0.086	0.053
-294.691	-144.607	-0.305	-0.028
-293.676	70.379	0.048	0.049
-292.662	96.669	-0.065	0.074
-291.647	-158.339	0.243	-0.014
-290.632	-200.000	-0.028	0.135
-289.618	-200.000	-0.001	0.099
-288.603	-31.799	0.144	0.080
-287.589	-121.104	0.115	-0.019
-286.574	731.362	0.113	0.299
-285.559	800.000	-0.079	-0.296
-284.545	-1.582	-0.188	-0.131
-283.530	51.312	0.111	0.104
-282.516	-94.791	-0.027	0.007
-281.501	-128.764	-0.401	0.056
-280.486	-200.000	-0.006	0.045
-279.472	-76.078	0.110	0.039
-278.457	68.290	-0.135	0.137
-277.443	-65.281	-0.157	0.063
-276.428	313.228	0.149	-0.278
-275.413	188.516	0.085	0.126
-274.399	-5.426	-0.262	0.178
-273.384	-87.918	0.201	0.060
-272.370	-84.338	-0.131	-0.041
-271.355	800.000	0.037	-0.121
-270.340	-18.791	-0.225	0.139
-269.326	-24.070	0.077	0.046
-268.311	-5.154	0.035	-0.024
-267.297	800.000	0.046	0.143
-266.282	-185.779	-0.023	0.000
-265.267	477.622	-0.189	0.423
-264.253	300.652	0.035	-0.065
-263.238	800.000	-0.090	-0.341
-262.224	-200.000	0.024	-0.200
-261.209	-200.000	0.013	0.392
-260.195	131.753	0.071	0.091
-259.180	800.000	-0.036	-0.147
-258.165	-124.577	-0.073	0.011
-257.151	41.665	-0.170	0.152
-256.136	159.520	0.061	0.084
-255.122	-200.000	-0.009	0.215
-254.107	-200.000	0.022	-0.394
-253.092	-61.344	-0.322	0.134
-252.078	-75.815	0.225	-0.079
-251.063	-169.190	0.480	0.018
-250.049	-101.262	0.087	0.021
-249.034	3.517	0.127	-0.092
-248.019	79.960	-0.227	0.242
-247.005	430.301	-0.248	0.531
-245.990	800.000	-0.082	-0.351
-244.976	-23.638	-0.172	0.102
-243.961	99.950	0.084	0.096
-242.946	-148.611	0.242	-0.020
-241.932	99.234	-0.100	0.114
-240.917	-32.661	-0.203	-0.112
-239.903	-8.709	0.100	-0.066
-238.888	-158.588	-0.075	0.004
-237.873	-99.205	0.358	0.090
-236.859	284.002	0.079	-0.141
-235.844	216.494	0.278	0.437
-234.830	-98.157	0.059	0.015
-233.815	-177.530	-0.290	0.007
-232.800	-200.000	-0.001	-0.148
-231.786	-114.266	0.131	-0.025
-230.771	-200.000	-0.008	0.212
-229.757	-101.229	0.073	0.018
-228.742	-154.334	-0.291	0.019
-227.727	-200.000	-0.005	-0.216
-226.713	-42.946	-0.130	-0.065
-225.698	-150.817	-0.078	0.006
-224.684	-58.989	0.246	0.105
-223.669	375.122	0.077	-0.155
-222.655	-22.902	-0.307	0.183
-221.640	26.339	0.112	-0.092
-220.625	105.878	-0.170	-0.199
-219.611	405.920	0.069	-0.144
-218.596	-200.000	0.016	0.364
-217.582	-106.467	0.152	0.034
-216.567	-133.707	-0.037	0.005
-215.552	-200.000	0.009	-0.085
-214.538	-200.000	0.011	-0.206
-213.523	-97.142	-0.015	-0.004
-212.509	-37.893	-0.207	0.109
-211.494	-57.195	-0.237	-0.103
-210.479	-90.493	0.267	-0.077
-209.465	181.243	0.088	0.128
-208.450	-140.282	-0.074	0.008
-207.436	-135.346	0.298	0.035
-206.421	-133.696	0.409	0.050
-205.406	24.733	0.122	0.100
-204.392	438.520	0.106	0.229
-203.377	305.373	0.096	-0.176
-202.363	255.403	0.022	-0.038
-201.348	-50.554	0.139	0.065
-200.333	-200.000	0.049	-0.420
-199.319	66.021	0.361	-0.362
-198.304	34.130	-0.024	0.021
-197.290	155.502	-0.100	-0.136
-196.275	-200.000	-0.030	0.186
-195.260	160.685	0.181	0.249
-194.246	-200.000	-0.032	0.183
-193.231	-54.123	0.081	0.037
-192.217	800.000	-0.076	-0.223
-191.202	595.338	-0.052	-0.127
-190.187	198.883	-0.026	0.039
-189.173	482.062	0.057	-0.127
-188.158	800.000	0.043	0.174
-187.144	-200.000	0.006	0.163
-186.129	57.523	0.168	0.162
-185.114	-200.000	0.018	0.118
-184.100	21.593	0.152	-0.122
-183.085	141.951	-0.193	0.253
-182.071	319.797	0.018	0.034
-181.056	96.828	-0.203	0.230
-180.042	551.281	0.014	-0.034
-179.027	526.275	0.018	0.043
-178.012	-40.453	0.431	0.221
-176.998	507.318	0.200	0.458
-175.983	-89.648	-0.314	-0.091
-174.969	-136.475	0.403	0.046
-173.954	-14.426	-0.176	0.112
-172.939	-82.067	-0.163	0.052
-171.925	800.000	0.046	0.150
-170.910	519.473	0.134	0.310
-169.896	99.873	-0.196	-0.224
-168.881	800.000	0.014	-0.049
-167.866	-118.269	-0.378	0.066
-166.852	-146.537	0.401	-0.034
-165.837	800.000	0.039	-0.117
-164.823	245.572	-0.056	-0.093
-163.808	90.229	-0.109	-0.121
-162.793	800.000	-0.046	0.185
-161.779	130.803	-0.060	-0.076
-160.764	105.743	-0.142	-0.165
-159.750	-62.685	-0.139	-0.057
-158.735	-39.441	-0.152	0.079
-157.720	-73.556	0.200	0.072
-156.706	-62.368	-0.196	-0.080
-155.691	-17.484	0.288	-0.179
-154.677	-200.000	-0.017	-0.397
-153.662	15.751	-0.072	0.056
-152.647	-200.000	0.017	-0.126
-151.633	-200.000	-0.014	-0.073
-150.618	-15.666	0.116	0.073
-149.604	5.756	-0.248	0.181
-148.589	330.308	-0.112	0.213
-147.574	-125.295	-0.181	-0.027
-146.560	-38.234	-0.267	0.140
-145.545	43.104	-0.069	-0.062
-144.531	578.102	0.099	-0.239
-143.516	635.822	-0.108	-0.271
-142.502	800.000	-0.080	-0.262
-141.487	-149.233	-0.175	0.014
-140.472	123.279	0.067	0.083
-139.458	-200.000	-0.043	-0.234
-138.443	-26.744	0.168	0.097
-137.429	114.588	-0.111	0.133
-136.414	-21.671	-0.218	0.131
-135.399	180.133	-0.097	0.139
-134.385	-146.863	-0.191	0.016
-133.370	40.151	0.187	0.166
-132.356	128.107	0.117	0.147
-131.341	-191.022	0.255	0.003
-130.326	-127.821	0.280	-0.040
-129.312	-200.000	-0.013	-0.056
-128.297	-41.653	-0.244	0.124
-127.283	800.000	0.062	-0.197
-126.268	-200.000	0.009	0.146
-125.253	37.633	0.094	-0.082
-124.239	-167.542	0.233	-0.009
-123.224	-200.000	0.027	-0.124
-122.210	33.011	-0.092	0.079
