DTS Sentinel unit serial number:	SN413079Multiplexer serial number:	ORYXHardware model number:	OX4-SRSoftware version number:	ORYX F/W v4.00 Oryx Data Collector v3.7.2.0data status	okinstallation	princeton_trtdifferential loss correction	single-endedforward channel	channel 2reverse channel	N/Adate	2019/09/16time	16:59:35forward acquisition time	60.00reverse acquisition time	0.00gamma	496.2192k internal	0.2306k external	0.2306temperature offset calibration	0.9945default loss term (dB/km)	0.3790temperature slope calibration	1.0000multiplexer offset coefficient	1.0000multiplexer slope coefficient	1.0000fibre end	0.00T internal ref (°C)	39.31T ext. ref 1 (°C)	15.28T ext. ref 2 (°C)	33.62length (m)	temperature (°C)	Stokes	anti-Stokes-747.200	13.311	0.174	0.137
-746.185	-200.000	-0.043	0.433
-745.171	-38.607	-0.073	-0.039
-744.156	57.686	0.131	0.130
-743.142	-165.402	0.377	0.017
-742.127	775.728	0.089	0.246
-741.112	-32.877	0.060	-0.034
-740.098	100.517	0.120	-0.141
-739.083	-200.000	0.032	0.213
-738.069	-32.003	-0.030	0.017
-737.054	-50.184	-0.054	0.026
-736.039	-67.535	0.103	-0.041
-735.025	2.851	0.195	-0.144
-734.010	800.000	0.059	0.202
-732.996	-109.252	-0.209	-0.045
-731.981	16.202	-0.258	0.207
-730.966	44.065	0.020	0.019
-729.952	1.363	-0.259	0.190
-728.937	-200.000	0.028	0.345
-727.923	-80.176	0.240	0.082
-726.908	-107.190	0.145	-0.032
-725.894	800.000	-0.183	-0.515
-724.879	712.831	0.127	-0.341
-723.864	-29.433	0.182	0.106
-722.850	247.550	-0.124	0.212
-721.835	-71.800	0.126	-0.048
-720.821	-70.102	-0.109	0.042
-719.806	-101.189	-0.095	-0.024
-718.791	800.000	-0.055	-0.230
-717.777	-133.291	0.326	0.042
-716.762	-19.106	0.182	0.115
-715.748	799.193	-0.058	-0.164
-714.733	243.827	0.053	-0.090
-713.718	-49.670	0.119	-0.057
-712.704	126.832	-0.187	0.241
-711.689	-156.237	0.373	-0.024
-710.675	5.161	-0.149	0.112
-709.660	-150.587	0.324	-0.025
-708.645	-113.302	-0.242	0.048
-707.631	450.258	0.065	-0.146
-706.616	22.104	0.208	-0.172
-705.602	36.790	-0.101	0.090
-704.587	-85.056	-0.198	-0.063
-703.572	800.000	0.041	-0.163
-702.558	-200.000	0.006	-0.236
-701.543	-200.000	0.015	-0.141
-700.529	331.761	-0.052	-0.101
-699.514	488.264	0.107	-0.248
-698.499	-0.141	-0.240	-0.173
-697.485	37.614	0.191	-0.172
-696.470	240.487	0.120	-0.203
-695.456	-200.000	0.086	-0.419
-694.441	19.997	0.051	-0.042
-693.426	-60.960	0.134	0.058
-692.412	-200.000	-0.025	0.273
-691.397	-147.766	-0.205	0.017
-690.383	-80.501	0.326	0.110
-689.368	-51.907	0.214	0.101
-688.354	48.340	-0.054	0.051
-687.339	439.104	0.132	-0.293
-686.324	800.000	0.075	-0.221
-685.310	378.524	-0.055	-0.114
-684.295	39.937	-0.284	-0.258
-683.281	-200.000	0.002	0.318
-682.266	94.514	-0.153	0.176
-681.251	18.082	0.305	-0.247
-680.237	800.000	-0.060	0.181
-679.222	563.182	-0.118	0.289
-678.208	420.863	-0.040	0.088
-677.193	-71.472	-0.227	-0.086
-676.178	98.096	0.300	0.350
-675.164	24.488	0.255	-0.214
-674.149	65.066	-0.148	0.151
-673.135	-200.000	0.054	-0.336
-672.120	-24.649	0.058	-0.035
-671.105	-20.301	0.343	0.214
-670.091	124.023	-0.057	-0.073
-669.076	234.589	0.130	0.217
-668.062	-71.766	-0.184	0.070
-667.047	-200.000	0.009	-0.310
-666.032	-58.549	0.316	-0.139
-665.018	800.000	0.044	0.141
-664.003	-30.660	-0.138	0.079
-662.989	71.030	-0.022	-0.023
-661.974	-165.698	0.154	-0.007
-660.959	800.000	0.108	0.312
-659.945	156.453	-0.092	-0.128
-658.930	543.050	-0.061	0.147
-657.916	169.721	-0.075	-0.109
-656.901	-1.285	-0.259	-0.186
-655.886	463.164	-0.128	0.290
-654.872	654.297	-0.072	0.187
-653.857	-161.990	0.172	0.009
-652.843	12.717	0.089	-0.070
-651.828	-79.901	-0.379	0.129
-650.814	-200.000	-0.071	-0.473
-649.799	-200.000	-0.043	0.328
-648.784	-20.092	-0.286	0.178
-647.770	212.868	0.182	-0.292
-646.755	195.531	0.334	-0.515
-645.741	301.691	0.051	-0.096
-644.726	500.370	-0.159	-0.371
-643.711	-200.000	-0.064	0.352
-642.697	255.609	0.134	-0.233
-641.682	183.579	0.259	-0.388
-640.668	59.887	-0.277	-0.277
-639.653	162.279	-0.135	0.192
-638.638	-200.000	0.034	-0.214
-637.624	253.459	-0.090	-0.156
-636.609	-200.000	0.012	-0.100
-635.595	-6.392	-0.050	0.034
-634.580	-200.000	0.019	-0.260
-633.565	23.409	0.120	-0.100
-632.551	-200.000	-0.006	0.164
-631.536	-2.390	-0.389	0.276
-630.522	-200.000	0.024	0.192
-629.507	-200.000	0.058	-0.312
-628.492	148.858	-0.129	0.177
-627.478	-200.000	0.008	-0.253
-626.463	35.858	-0.197	0.176
-625.449	79.745	0.052	-0.057
-624.434	137.493	-0.166	-0.220
-623.419	-73.551	-0.187	-0.069
-622.405	-200.000	0.045	0.268
-621.390	361.350	-0.114	-0.232
-620.376	-200.000	-0.002	-0.021
-619.361	-51.088	0.266	0.126
-618.346	597.614	-0.142	0.357
-617.332	250.270	0.113	-0.195
-616.317	450.857	0.073	-0.164
-615.303	-56.764	0.265	-0.119
-614.288	-200.000	-0.023	-0.297
-613.273	58.161	-0.346	-0.343
-612.259	195.279	-0.263	-0.405
-611.244	-156.096	-0.285	-0.018
-610.230	-200.000	-0.012	-0.149
-609.215	-76.759	-0.118	-0.042
-608.201	-149.606	-0.241	0.019
-607.186	-71.132	0.059	-0.023
-606.171	772.951	-0.131	-0.362
-605.157	-200.000	0.113	0.001
-604.142	-44.128	-0.147	-0.075
-603.128	-200.000	0.015	0.228
-602.113	-78.089	0.224	-0.078
-601.098	178.700	-0.069	0.103
-600.084	122.011	-0.195	-0.246
-599.069	-30.992	0.137	-0.078
-598.055	-5.046	-0.153	0.107
-597.040	-11.495	0.136	-0.090
-596.025	156.797	0.149	-0.208
-595.011	-200.000	-0.040	0.283
-593.996	800.000	0.042	-0.163
-592.982	251.450	0.191	-0.329
-591.967	258.826	0.135	-0.235
-590.952	15.489	-0.177	-0.140
-589.938	-200.000	0.003	-0.125
-588.923	16.404	-0.063	-0.050
-587.909	237.883	0.066	0.111
-586.894	-107.826	-0.180	-0.040
-585.879	-200.000	0.048	0.256
-584.865	227.222	0.226	-0.372
-583.850	24.140	0.109	0.091
-582.836	-22.263	-0.089	-0.055
-581.821	-27.152	0.215	0.127
-580.806	-82.656	0.192	-0.063
-579.792	800.000	0.041	-0.139
-578.777	-200.000	-0.030	0.165
-577.763	355.345	-0.139	-0.280
-576.748	-48.687	0.100	-0.049
-575.733	-5.171	-0.127	0.088
-574.719	-96.239	-0.235	-0.063
-573.704	-93.587	0.388	0.108
-572.690	43.972	-0.209	0.194
-571.675	-129.539	-0.304	0.043
-570.661	-117.703	0.372	0.068
-569.646	-160.844	0.205	0.011
-568.631	-200.000	-0.007	-0.554
-567.617	-200.000	0.016	0.188
-566.602	-16.785	-0.259	0.166
-565.588	139.452	0.155	0.207
-564.573	800.000	0.066	0.198
-563.558	4.379	-0.095	0.070
-562.544	-53.164	0.236	-0.109
-561.529	-77.676	-0.268	-0.094
-560.515	139.065	-0.033	-0.043
-559.500	-3.847	-0.131	-0.092
-558.485	81.108	-0.290	0.316
-557.471	291.201	-0.105	-0.193
-556.456	-200.000	-0.016	0.291
-555.442	181.839	0.167	0.248
-554.427	58.411	-0.254	-0.251
-553.412	-177.791	-0.155	-0.004
-552.398	800.000	0.040	0.142
-551.383	-200.000	0.074	0.341
-550.369	-200.000	-0.010	0.216
-549.354	423.229	-0.061	-0.132
-548.339	99.566	0.127	-0.148
-547.325	127.655	-0.092	-0.117
-546.310	51.914	0.086	0.082
-545.296	-200.000	0.000	-0.012
-544.281	-99.270	-0.386	-0.098
-543.266	800.000	-0.046	0.143
-542.252	614.392	0.111	0.280
-541.237	107.507	0.091	0.109
-540.223	-200.000	-0.012	-0.094
-539.208	-151.922	-0.235	0.017
-538.193	-12.479	-0.228	-0.150
-537.179	568.386	-0.074	-0.182
-536.164	25.277	0.161	0.135
-535.150	-16.370	0.175	-0.112
-534.135	-200.000	0.049	-0.279
-533.121	-200.000	-0.038	-0.254
-532.106	-120.211	-0.114	-0.020
-531.091	-200.000	-0.011	0.197
-530.077	800.000	-0.088	-0.299
-529.062	70.340	-0.280	-0.292
-528.048	-13.012	0.263	0.173
-527.033	-0.664	0.256	-0.183
-526.018	800.000	-0.118	-0.334
-525.004	-200.000	0.036	-0.367
-523.989	800.000	0.053	0.178
-522.975	22.898	-0.091	0.075
-521.960	-146.561	0.223	-0.020
-520.945	341.973	0.019	0.038
-519.931	-77.550	-0.099	-0.035
-518.916	55.726	-0.205	0.201
-517.902	56.556	-0.037	-0.036
-516.887	-124.695	-0.028	0.004
-515.872	87.969	0.077	0.087
-514.858	800.000	-0.068	0.257
-513.843	-169.986	0.224	0.008
-512.829	668.109	-0.035	-0.090
-511.814	-51.349	-0.204	-0.096
-510.799	14.415	0.080	-0.063
-509.785	451.227	-0.082	-0.184
-508.770	800.000	0.020	-0.074
-507.756	800.000	-0.107	-0.304
-506.741	132.394	-0.053	-0.069
-505.726	-16.703	-0.260	-0.166
-504.712	319.491	-0.244	-0.466
-503.697	-46.353	0.230	-0.114
-502.683	-9.715	-0.043	0.029
-501.668	-200.000	-0.015	0.104
-500.653	-94.840	0.114	0.031
-499.639	-45.826	-0.150	0.075
-498.624	-200.000	0.013	0.121
-497.610	800.000	0.044	-0.159
-496.595	-178.420	0.150	0.004
-495.581	101.015	0.093	-0.109
-494.566	-118.098	0.202	-0.036
-493.551	-127.511	0.208	-0.030
-492.537	124.202	-0.159	0.202
-491.522	-200.000	-0.007	0.042
-490.508	-63.809	-0.201	0.083
-489.493	-63.251	0.070	0.029
-488.478	-119.682	-0.383	0.067
-487.464	71.916	-0.038	-0.040
-486.449	-34.245	0.339	0.187
-485.435	228.129	-0.158	-0.259
-484.420	-111.713	0.185	-0.038
-483.405	66.936	-0.150	0.154
-482.391	-74.284	0.131	-0.048
-481.376	800.000	-0.028	0.111
-480.362	387.485	0.100	0.209
-479.347	-200.000	-0.008	-0.201
-478.332	26.950	-0.180	-0.152
-477.318	248.891	0.220	0.376
-476.303	456.237	-0.099	0.220
-475.289	800.000	0.073	0.301
-474.274	-200.000	-0.048	0.458
-473.259	-115.811	0.246	-0.046
-472.245	130.636	0.127	0.164
-471.230	-1.861	0.193	-0.137
-470.216	4.232	0.270	-0.199
-469.201	-68.012	0.227	0.089
-468.186	-152.967	-0.362	-0.026
-467.172	-104.905	-0.269	-0.062
-466.157	-61.344	0.056	-0.024
-465.143	173.167	-0.122	-0.176
-464.128	6.314	0.219	-0.164
-463.113	-200.000	-0.025	0.218
-462.099	-26.535	-0.106	0.063
-461.084	-200.000	0.001	0.198
-460.070	800.000	-0.045	-0.155
-459.055	644.500	0.084	0.216
-458.040	92.051	0.121	0.137
-457.026	8.467	-0.179	0.136
-456.011	341.944	-0.057	-0.112
-454.997	-167.280	0.462	0.019
-453.982	494.355	0.072	-0.165
-452.968	-44.621	0.271	-0.136
-451.953	136.086	-0.063	0.083
-450.938	-200.000	0.013	0.109
-449.924	257.627	0.071	0.123
-448.909	476.626	-0.112	0.255
-447.895	414.410	-0.107	-0.228
-446.880	800.000	0.032	0.110
-445.865	-200.000	-0.022	-0.129
-444.851	-78.400	0.187	-0.064
-443.836	131.645	0.129	-0.167
-442.822	85.802	0.296	-0.327
-441.807	-200.000	0.015	0.254
-440.792	800.000	-0.020	0.066
-439.778	-200.000	-0.046	-0.213
-438.763	82.462	-0.301	-0.328
-437.749	800.000	-0.035	-0.151
-436.734	-139.004	-0.218	0.024
-435.719	-200.000	0.018	-0.139
-434.705	-46.963	-0.209	-0.102
-433.690	800.000	0.061	-0.217
-432.676	800.000	0.013	0.056
-431.661	65.740	-0.175	0.178
-430.646	-39.397	-0.167	-0.088
-429.632	-134.110	-0.120	0.015
-428.617	295.965	0.036	0.066
-427.603	421.528	0.019	0.042
-426.588	-9.489	-0.185	0.124
-425.573	117.601	-0.109	-0.135
-424.559	29.805	-0.261	-0.224
-423.544	17.182	-0.281	0.224
-422.530	-81.960	0.231	0.076
-421.515	-157.260	0.248	0.015
-420.500	-86.100	-0.064	0.020
-419.486	458.736	0.125	0.279
-418.471	800.000	-0.032	0.116
-417.457	-46.545	0.121	0.059
-416.442	-56.117	0.089	0.040
-415.428	3.833	0.315	-0.231
-414.413	800.000	-0.055	-0.154
-413.398	9.059	-0.231	-0.175
-412.384	-90.884	-0.083	-0.024
-411.369	-20.156	-0.330	0.204
-410.355	-200.000	0.001	-0.026
-409.340	61.101	-0.115	0.115
-408.325	-144.189	0.331	-0.031
-407.311	-122.813	0.216	0.035
-406.296	477.338	-0.116	0.263
-405.282	-200.000	0.036	-0.453
-404.267	-17.372	0.065	-0.041
-403.252	-52.743	-0.047	0.022
-402.238	800.000	0.070	0.214
-401.223	259.045	-0.244	0.422
-400.209	-111.116	-0.272	-0.056
-399.194	-200.000	0.020	-0.170
-398.179	-138.022	0.114	-0.013
-397.165	106.946	0.113	-0.135
-396.150	111.780	0.166	0.201
-395.136	13.336	-0.218	-0.169
-394.121	322.345	-0.114	-0.218
-393.106	-200.000	-0.032	0.202
-392.092	-200.000	-0.028	-0.338
-391.077	-83.397	0.209	-0.067
-390.063	-134.808	0.043	0.005
-389.048	61.710	-0.239	-0.239
-388.033	-114.079	0.081	-0.016
-387.019	19.788	-0.264	0.213
-386.004	46.726	0.241	0.224
-384.990	373.209	-0.054	-0.110
-383.975	72.706	0.186	-0.195
-382.960	-108.595	0.324	0.070
-381.946	12.965	0.164	0.127
-380.931	55.595	-0.147	0.143
-379.917	-154.016	0.157	0.011
-378.902	135.390	0.135	0.176
-377.888	96.105	-0.088	-0.101
-376.873	119.453	0.148	0.184
-375.858	60.720	-0.049	0.048
-374.844	75.168	-0.238	0.251
-373.829	88.429	0.112	-0.125
-372.815	592.857	-0.057	0.140
-371.800	-6.044	-0.213	-0.146
-370.785	800.000	0.068	0.283
-369.771	91.407	-0.124	-0.139
-368.756	376.866	-0.167	-0.341
-367.742	-200.000	-0.020	-0.287
-366.727	0.957	-0.067	-0.048
-365.712	100.372	-0.052	-0.060
-364.698	405.963	0.093	0.197
-363.683	-21.085	0.143	0.088
-362.669	-115.798	0.185	-0.035
-361.654	126.189	0.115	0.146
-360.639	647.647	0.066	0.170
-359.625	106.118	-0.239	0.284
-358.610	800.000	0.121	-0.347
-357.596	-95.299	-0.200	0.054
-356.581	-55.116	-0.161	0.073
-355.566	9.127	0.159	-0.121
-354.552	-60.520	0.071	0.030
-353.537	800.000	-0.035	-0.098
-352.523	102.315	0.177	0.207
-351.508	27.001	-0.049	-0.041
-350.493	82.839	-0.206	0.224
-349.479	131.879	-0.068	0.087
-348.464	-83.805	0.291	0.093
-347.450	-98.723	0.097	-0.025
-346.435	-55.490	0.186	0.084
-345.420	-15.201	0.185	0.118
-344.406	-200.000	-0.017	0.094
-343.391	-200.000	-0.002	-0.043
-342.377	-2.239	-0.059	0.042
-341.362	338.358	-0.179	-0.350
-340.348	186.370	-0.089	0.132
-339.333	78.251	0.268	-0.287
-338.318	-18.473	-0.136	-0.085
-337.304	30.826	-0.197	0.169
-336.289	-78.685	0.181	0.062
-335.275	-200.000	0.001	-0.031
-334.260	-127.034	0.176	0.026
-333.245	-4.144	-0.111	0.077
-332.231	-41.804	0.357	-0.183
-331.216	-55.623	-0.072	-0.032
-330.202	392.981	-0.123	-0.256
-329.187	129.647	0.076	0.098
-328.172	-200.000	-0.008	-0.161
-327.158	173.933	-0.258	-0.373
-326.143	222.621	0.193	-0.311
-325.129	301.168	-0.046	-0.085
-324.114	-34.942	0.063	0.034
-323.099	800.000	0.060	0.219
-322.085	800.000	-0.057	0.193
-321.070	-48.207	0.091	0.044
-320.056	85.390	0.133	0.146
-319.041	548.231	-0.172	0.412
-318.026	-200.000	0.040	0.232
-317.012	800.000	0.025	0.075
-315.997	-17.103	0.150	-0.095
-314.983	694.753	0.089	-0.234
-313.968	-200.000	0.020	0.130
-312.953	-37.220	-0.251	-0.135
-311.939	3.566	0.076	-0.056
-310.924	-104.570	0.288	0.067
-309.910	-64.183	0.125	0.051
-308.895	-97.942	-0.184	-0.047
-307.880	19.639	-0.047	0.038
-306.866	8.864	-0.335	-0.252
-305.851	-49.082	0.096	0.046
-304.837	20.199	0.318	0.257
-303.822	-131.260	0.116	0.015
-302.807	37.543	0.195	-0.173
-301.793	-10.548	-0.031	-0.020
-300.778	-64.146	-0.080	0.033
-299.764	800.000	-0.053	0.149
-298.749	800.000	0.051	-0.173
-297.735	-200.000	0.052	0.403
-296.720	239.830	0.081	0.135
-295.705	-111.190	-0.134	-0.027
-294.691	-88.825	0.312	0.093
-293.676	141.201	0.127	-0.167
-292.662	2.813	-0.265	0.192
-291.647	-34.974	-0.212	-0.116
-290.632	-50.527	0.268	0.126
-289.618	800.000	0.043	-0.137
-288.603	800.000	-0.073	0.221
-287.589	-42.992	0.274	0.139
-286.574	-62.289	0.132	-0.055
-285.559	800.000	-0.077	-0.268
-284.545	-113.949	0.406	-0.079
-283.530	-67.937	-0.033	-0.013
-282.516	-18.922	-0.207	-0.129
-281.501	-99.504	-0.124	-0.031
-280.486	54.799	-0.090	-0.087
-279.472	-200.000	0.011	0.398
-278.457	522.495	-0.196	0.459
-277.443	-135.984	0.103	-0.012
-276.428	-200.000	0.023	-0.428
-275.413	-72.177	-0.080	-0.030
-274.399	267.436	-0.184	-0.322
-273.384	244.809	0.119	-0.200
-272.370	100.978	-0.128	0.148
-271.355	352.802	0.082	0.163
-270.340	-51.484	-0.157	0.073
-269.326	184.691	-0.165	0.245
-268.311	-179.902	0.157	-0.003
-267.297	-105.351	0.104	0.024
-266.282	-200.000	0.020	0.096
-265.267	34.404	-0.193	0.169
-264.253	-112.564	-0.077	0.015
-263.238	692.075	-0.068	-0.179
-262.224	-148.495	-0.284	0.023
-261.209	-200.000	0.040	-0.541
-260.195	-107.993	-0.153	-0.033
-259.180	800.000	-0.057	0.224
-258.165	46.167	0.153	0.141
-257.151	36.466	0.157	-0.138
-256.136	-0.607	-0.270	-0.192
-255.122	-126.992	0.229	0.034
-254.107	5.942	0.237	-0.175
-253.092	-200.000	-0.000	-0.296
-252.078	85.356	-0.140	-0.153
-251.063	-200.000	0.014	0.245
-250.049	137.728	0.174	0.228
-249.034	-31.412	0.229	0.128
-248.019	-200.000	0.028	0.194
-247.005	-200.000	-0.050	0.282
-245.990	198.677	0.088	0.135
-244.976	473.697	0.107	0.241
-243.961	-100.454	-0.187	-0.046
-242.946	256.683	-0.067	0.115
-241.932	-41.472	0.288	0.148
-240.917	-200.000	-0.002	-0.167
-239.903	-200.000	-0.027	-0.119
-238.888	704.272	-0.071	0.186
-237.873	800.000	0.102	0.346
-236.859	-200.000	0.027	-0.137
-235.844	-88.458	-0.235	0.070
-234.830	80.657	-0.066	-0.071
-233.815	241.004	0.233	-0.388
-232.800	-200.000	0.002	0.377
-231.786	15.324	-0.080	0.062
-230.771	49.552	-0.103	-0.097
-229.757	-56.359	-0.244	0.108
-228.742	-200.000	-0.026	0.130
-227.727	-177.401	0.396	0.010
-226.713	-46.068	0.175	-0.086
-225.698	-200.000	-0.002	0.484
-224.684	473.558	0.046	-0.102
-223.669	67.567	0.299	0.304
-222.655	17.001	0.164	-0.130
-221.640	11.222	-0.125	-0.095
-220.625	100.499	-0.060	0.070
-219.611	-121.664	-0.134	-0.022
-218.596	267.017	0.081	0.140
-217.582	-17.532	0.177	0.111
-216.567	800.000	-0.088	-0.323
-215.552	-72.070	0.203	-0.075
-214.538	70.980	0.211	0.218
-213.523	-36.923	-0.238	0.127
-212.509	-31.301	-0.161	-0.090
-211.494	268.542	0.066	0.116
-210.479	279.268	-0.158	-0.280
-209.465	-92.924	0.071	-0.020
-208.450	-200.000	0.046	0.242
-207.436	-180.266	-0.124	0.003
-206.421	380.357	0.045	-0.092
-205.406	-118.538	0.206	-0.036
-204.392	-167.811	-0.251	-0.010
-203.377	2.392	0.228	0.164
-202.363	-23.843	0.076	0.045
-201.348	438.433	0.057	0.125
-200.333	-176.315	-0.202	-0.005
-199.319	547.247	0.126	0.301
-198.304	-70.197	-0.308	-0.117
-197.290	-102.713	-0.488	0.116
-196.275	6.398	-0.064	0.047
-195.260	67.512	-0.188	-0.191
-194.246	-200.000	0.000	-0.321
-193.231	-200.000	0.004	0.257
-192.217	81.058	0.088	0.095
-191.202	-64.170	-0.144	0.059
-190.187	-200.000	0.001	-0.121
-189.173	214.519	0.023	0.036
-188.158	424.101	-0.007	0.016
-187.144	800.000	0.046	0.163
-186.129	-129.847	0.466	-0.064
-185.114	-14.033	-0.439	-0.282
-184.100	78.389	-0.229	-0.243
-183.085	-150.109	0.406	0.031
-182.071	-200.000	-0.023	0.181
-181.056	265.950	0.170	0.295
-180.042	-67.353	-0.088	-0.034
-179.027	72.511	0.098	-0.101
-178.012	34.949	0.204	-0.177
-176.998	-116.043	0.449	-0.083
-175.983	-40.331	0.210	-0.109
-174.969	201.537	-0.151	0.231
-173.954	617.162	0.111	0.278
-172.939	694.651	-0.162	0.423
-171.925	-200.000	-0.035	0.356
-170.910	57.760	-0.326	0.317
-169.896	-200.000	0.018	0.292
-168.881	-6.896	-0.122	-0.082
-167.866	-162.710	0.044	-0.002
-166.852	-63.641	0.248	-0.101
-165.837	-60.583	-0.030	0.013
-164.823	-14.897	0.126	-0.080
-163.808	-115.035	0.129	0.024
-162.793	-200.000	0.039	-0.282
-161.779	-200.000	-0.053	0.281
-160.764	-10.273	-0.113	0.075
-159.750	309.642	0.063	0.117
-158.735	235.893	-0.092	0.152
-157.720	-200.000	-0.027	0.301
-156.706	-73.512	-0.102	0.037
-155.691	-200.000	-0.008	0.213
-154.677	-89.405	-0.129	0.038
-153.662	800.000	0.094	-0.366
-152.647	800.000	0.020	-0.078
-151.633	-200.000	0.024	0.239
-150.618	-101.172	0.176	0.043
-149.604	-200.000	-0.003	0.244
-148.589	-104.499	-0.267	-0.061
-147.574	-200.000	-0.012	-0.134
-146.560	-101.919	-0.161	0.039
-145.545	-137.185	0.262	0.030
-144.531	-131.789	0.119	-0.016
-143.516	800.000	-0.110	-0.415
-142.502	153.803	-0.021	0.028
-141.487	-200.000	0.001	-0.297
-140.472	147.685	0.068	-0.091
-139.458	165.222	0.120	0.169
-138.443	367.468	-0.105	0.211
-137.429	800.000	-0.016	0.063
-136.414	134.712	-0.224	0.289
-135.399	-111.678	-0.360	-0.072
-134.385	-94.623	0.077	-0.021
-133.370	-200.000	0.055	-0.403
-132.356	-31.029	0.248	-0.139
-131.341	15.748	-0.093	-0.073
-130.326	25.308	0.062	-0.051
-129.312	30.508	-0.169	0.143
-128.297	-123.556	-0.050	0.008
-127.283	-200.000	0.048	0.377
-126.268	106.995	0.186	0.220
-125.253	-133.167	0.103	-0.013
-124.239	-49.892	0.241	0.114
-123.224	-200.000	-0.014	-0.262
-122.210	-200.000	0.008	0.192
-121.195	1.098	-0.142	0.101
-120.180	8.707	-0.009	-0.007
