DTS Sentinel unit serial number:	SN413079Multiplexer serial number:	ORYXHardware model number:	OX4-SRSoftware version number:	ORYX F/W v4.00 Oryx Data Collector v3.7.2.0data status	okinstallation	princeton_trtdifferential loss correction	single-endedforward channel	channel 2reverse channel	N/Adate	2019/09/13time	10:15:34forward acquisition time	60.00reverse acquisition time	0.00gamma	496.2192k internal	0.2323k external	0.2323temperature offset calibration	1.0189default loss term (dB/km)	0.3790temperature slope calibration	1.0000multiplexer offset coefficient	1.0000multiplexer slope coefficient	1.0000fibre end	0.00T internal ref (°C)	30.69T ext. ref 1 (°C)	4.51T ext. ref 2 (°C)	27.91length (m)	temperature (°C)	Stokes	anti-Stokes-747.200	231.667	-0.141	-0.233
-746.185	-111.226	-0.200	-0.041
-745.171	76.997	-0.049	-0.053
-744.156	-127.181	0.178	0.026
-743.142	-200.000	0.035	0.163
-742.127	-107.519	0.101	-0.022
-741.112	800.000	-0.054	0.187
-740.098	312.657	-0.023	-0.044
-739.083	26.060	-0.332	-0.280
-738.069	-122.391	-0.271	0.045
-737.054	-200.000	-0.056	0.541
-736.039	-24.930	-0.122	0.073
-735.025	666.998	-0.051	-0.132
-734.010	25.945	-0.125	-0.106
-732.996	-38.029	-0.262	-0.140
-731.981	11.013	-0.051	-0.039
-730.966	-73.266	-0.091	-0.034
-729.952	-110.703	-0.400	-0.083
-728.937	-125.291	0.299	0.046
-727.923	-200.000	0.002	-0.381
-726.908	-81.515	-0.348	-0.116
-725.894	29.876	0.227	0.195
-724.879	-81.324	-0.271	0.090
-723.864	788.177	-0.113	-0.312
-722.850	-82.444	0.345	-0.113
-721.835	-162.547	-0.252	-0.013
-720.821	136.869	0.137	-0.181
-719.806	-200.000	0.006	-0.169
-718.791	-50.321	-0.093	0.044
-717.777	-120.092	-0.109	0.019
-716.762	653.070	-0.051	0.132
-715.748	-47.050	0.224	-0.110
-714.733	-156.141	-0.238	-0.015
-713.718	-7.984	0.157	-0.107
-712.704	-200.000	0.012	-0.122
-711.689	800.000	0.084	-0.249
-710.675	260.038	0.138	-0.241
-709.660	57.249	0.327	-0.322
-708.645	800.000	0.049	-0.171
-707.631	580.628	0.067	-0.166
-706.616	24.520	-0.216	0.181
-705.602	-114.327	0.224	0.043
-704.587	-128.978	0.329	0.047
-703.572	466.966	-0.056	0.127
-702.558	-200.000	-0.047	-0.517
-701.543	-200.000	0.000	-0.188
-700.529	155.453	-0.103	-0.143
-699.514	-112.397	0.085	0.017
-698.499	-200.000	0.033	-0.242
-697.485	-128.503	-0.215	0.031
-696.470	-58.160	0.080	0.035
-695.456	-200.000	-0.001	0.105
-694.441	-200.000	-0.019	-0.412
-693.426	737.201	0.018	-0.048
-692.412	38.522	0.054	0.049
-691.397	445.567	-0.186	0.412
-690.383	131.631	-0.118	-0.153
-689.368	60.333	-0.037	-0.037
-688.354	221.281	-0.079	-0.128
-687.339	-141.970	0.207	0.021
-686.324	-70.812	-0.120	-0.046
-685.310	800.000	0.030	0.090
-684.295	-126.505	-0.217	-0.032
-683.281	52.180	-0.181	0.174
-682.266	800.000	-0.085	-0.294
-681.251	800.000	-0.061	-0.178
-680.237	800.000	-0.137	0.383
-679.222	175.258	-0.064	-0.093
-678.208	10.471	0.144	0.111
-677.193	4.343	-0.199	-0.147
-676.178	143.495	-0.021	0.029
-675.164	37.548	-0.203	-0.181
-674.149	367.104	0.084	0.170
-673.135	330.736	0.188	0.365
-672.120	222.105	-0.068	-0.110
-671.105	-69.290	0.213	-0.082
-670.091	800.000	0.022	-0.063
-669.076	55.646	0.099	0.096
-668.062	-107.704	0.101	0.022
-667.047	-200.000	-0.079	0.500
-666.032	91.596	0.118	0.133
-665.018	-54.935	0.188	-0.086
-664.003	800.000	0.057	-0.249
-662.989	-3.475	-0.118	0.083
-661.974	-180.591	-0.115	-0.002
-660.959	-91.569	-0.116	-0.033
-659.945	-79.580	0.090	0.031
-658.930	264.257	0.131	0.229
-657.916	-87.856	0.303	-0.092
-656.901	-85.385	0.251	0.079
-655.886	445.823	-0.049	-0.108
-654.872	110.504	-0.125	-0.151
-653.857	800.000	0.076	0.224
-652.843	-89.563	-0.108	0.032
-651.828	351.720	0.216	0.430
-650.814	-200.000	0.075	0.401
-649.799	657.908	0.069	0.178
-648.784	800.000	0.067	-0.236
-647.770	-79.301	0.079	-0.027
-646.755	400.993	0.036	0.076
-645.741	148.485	-0.034	0.046
-644.726	357.713	-0.086	0.173
-643.711	-78.874	-0.063	0.022
-642.697	800.000	0.033	-0.117
-641.682	-153.386	-0.259	-0.018
-640.668	-69.760	-0.322	-0.124
-639.653	-140.554	-0.206	0.021
-638.638	-200.000	0.017	0.085
-637.624	504.297	0.089	0.208
-636.609	-81.668	0.218	-0.072
-635.595	15.261	0.140	0.111
-634.580	-86.330	-0.213	-0.066
-633.565	271.520	-0.047	-0.082
-632.551	-200.000	0.003	0.360
-631.536	93.256	-0.127	-0.144
-630.522	135.953	0.250	-0.328
-629.507	-200.000	-0.003	0.089
-628.492	156.665	0.135	-0.188
-627.478	129.001	-0.082	-0.105
-626.463	708.879	0.117	0.311
-625.449	-155.581	-0.257	-0.017
-624.434	-200.000	0.063	-0.356
-623.419	-118.284	-0.307	-0.055
-622.405	-73.559	0.131	-0.048
-621.390	229.911	0.042	0.070
-620.376	2.399	-0.213	0.155
-619.361	254.990	-0.061	-0.105
-618.346	-87.288	-0.552	-0.168
-617.332	-1.002	-0.348	-0.247
-616.317	-67.356	-0.308	-0.122
-615.303	-200.000	-0.055	-0.281
-614.288	-93.300	0.135	0.038
-613.273	-57.268	-0.416	0.184
-612.259	520.397	-0.115	-0.271
-611.244	-57.461	0.482	-0.213
-610.230	-128.113	-0.094	0.014
-609.215	-200.000	-0.069	-0.314
-608.201	20.658	-0.385	-0.313
-607.186	107.132	0.155	-0.184
-606.171	-120.082	0.229	-0.039
-605.157	-101.260	-0.254	-0.062
-604.142	-197.170	-0.272	-0.002
-603.128	46.953	0.168	-0.157
-602.113	-75.582	-0.105	0.037
-601.098	-25.540	0.269	-0.160
-600.084	-70.167	0.083	-0.032
-599.069	179.714	-0.261	-0.385
-598.055	-109.027	0.320	0.068
-597.040	412.696	0.051	-0.108
-596.025	-200.000	0.035	0.193
-595.011	151.510	0.197	0.270
-593.996	328.483	-0.219	0.422
-592.982	9.714	0.193	0.147
-591.967	-128.651	0.093	-0.013
-590.952	-200.000	0.039	-0.190
-589.938	548.778	-0.084	-0.202
-588.923	306.047	-0.150	-0.281
-587.909	-187.982	-0.186	0.002
-586.894	-119.541	-0.234	-0.041
-585.879	-9.986	0.123	0.082
-584.865	-86.092	0.152	0.047
-583.850	-85.833	0.473	0.147
-582.836	239.917	-0.104	0.174
-581.821	-200.000	-0.009	0.117
-580.806	-200.000	-0.026	-0.153
-579.792	-95.618	-0.249	0.067
-578.777	59.516	-0.052	-0.052
-577.763	-45.152	-0.057	-0.029
-576.748	-28.594	-0.257	-0.149
-575.733	252.633	0.104	-0.177
-574.719	40.761	0.150	0.136
-573.704	-7.003	0.141	0.096
-572.690	-200.000	0.047	-0.281
-571.675	627.585	0.092	-0.234
-570.661	-17.946	0.148	-0.093
-569.646	-115.427	0.090	0.017
-568.631	-200.000	-0.004	0.122
-567.617	63.395	0.166	0.167
-566.602	85.556	-0.200	0.220
-565.588	-108.408	-0.291	-0.063
-564.573	179.144	-0.172	0.252
-563.558	-14.086	-0.273	-0.176
-562.544	-99.149	-0.110	0.028
-561.529	-90.326	0.179	0.052
-560.515	244.071	0.114	-0.192
-559.500	-79.410	-0.218	-0.074
-558.485	-67.062	0.199	0.079
-557.471	-200.000	0.019	-0.330
-556.456	236.744	0.181	-0.301
-555.442	382.749	-0.129	0.265
-554.427	-112.187	-0.259	-0.052
-553.412	-76.352	0.366	-0.129
-552.398	-66.437	0.295	0.117
-551.383	271.225	0.155	-0.273
-550.369	-107.183	-0.223	0.049
-549.354	-118.068	-0.096	-0.017
-548.339	-4.657	-0.147	-0.101
-547.325	-49.755	0.182	-0.087
-546.310	-200.000	-0.008	0.354
-545.296	-118.254	0.224	-0.040
-544.281	143.123	0.115	0.154
-543.266	800.000	-0.134	-0.555
-542.252	-103.645	-0.107	0.025
-541.237	-200.000	0.025	0.144
-540.223	-200.000	-0.035	-0.281
-539.208	361.675	-0.162	-0.326
-538.193	-143.779	0.243	-0.023
-537.179	96.149	-0.227	-0.260
-536.164	398.199	-0.024	0.049
-535.150	12.950	-0.109	-0.084
-534.135	-200.000	0.012	-0.097
-533.121	-131.021	-0.181	-0.024
-532.106	-110.382	-0.359	-0.075
-531.091	84.353	0.129	0.141
-530.077	96.707	0.124	-0.142
-529.062	1.804	-0.320	0.231
-528.048	-200.000	0.019	0.117
-527.033	-124.507	0.208	-0.032
-526.018	-39.791	0.353	-0.185
-525.004	-200.000	-0.014	-0.182
-523.989	-138.699	0.127	0.014
-522.975	553.485	0.105	0.254
-521.960	-181.921	0.436	-0.008
-520.945	30.778	0.267	0.229
-519.931	-85.801	0.456	0.142
-518.916	-43.090	0.499	-0.253
-517.902	-79.759	-0.228	-0.077
-516.887	71.735	-0.142	0.148
-515.872	-19.043	0.252	-0.157
-514.858	-200.000	0.013	-0.238
-513.843	-10.837	-0.258	-0.171
-512.829	108.225	-0.267	-0.319
-511.814	-128.928	0.429	0.060
-510.799	-32.239	-0.219	0.122
-509.785	-14.062	-0.062	0.040
-508.770	800.000	0.079	0.236
-507.756	-200.000	-0.045	-0.222
-506.741	456.268	0.104	-0.231
-505.726	-200.000	-0.003	-0.552
-504.712	-82.313	0.312	-0.102
-503.697	-119.972	-0.118	-0.020
-502.683	259.520	-0.109	-0.189
-501.668	-200.000	-0.005	-0.265
-500.653	-134.092	-0.298	-0.037
-499.639	-157.321	-0.132	0.008
-498.624	600.481	0.069	-0.170
-497.610	-200.000	0.058	-0.263
-496.595	800.000	-0.048	-0.173
-495.581	242.278	0.120	-0.202
-494.566	-200.000	-0.045	-0.280
-493.551	800.000	0.028	-0.084
-492.537	61.344	0.167	-0.166
-491.522	631.860	-0.043	-0.110
-490.508	-200.000	-0.002	-0.051
-489.493	-200.000	0.003	-0.097
-488.478	43.290	-0.124	-0.113
-487.464	237.357	-0.166	-0.275
-486.449	-166.234	0.401	0.017
-485.435	-71.219	-0.235	0.088
-484.420	-200.000	-0.036	-0.176
-483.405	-87.502	0.199	0.060
-482.391	101.301	-0.035	-0.040
-481.376	-132.382	-0.193	-0.025
-480.362	47.435	0.188	-0.175
-479.347	29.689	0.091	0.077
-478.332	-157.243	0.173	-0.010
-477.318	-120.072	-0.167	0.029
-476.303	611.222	0.064	0.159
-475.289	-143.532	-0.340	-0.032
-474.274	-197.173	0.180	-0.001
-473.259	166.526	0.095	0.135
-472.245	800.000	0.052	-0.198
-471.230	-127.966	-0.279	0.040
-470.216	-200.000	-0.060	0.610
-469.201	-86.266	-0.071	0.022
-468.186	800.000	0.063	-0.232
-467.172	9.900	-0.037	0.028
-466.157	593.840	-0.051	0.126
-465.143	-147.717	-0.218	-0.018
-464.128	-39.276	0.173	-0.091
-463.113	323.409	0.189	-0.361
-462.099	89.914	0.170	0.190
-461.084	117.829	0.174	-0.214
-460.070	240.639	-0.140	-0.234
-459.055	800.000	0.039	0.122
-458.040	-113.104	0.488	-0.096
-457.026	651.532	0.038	-0.098
-456.011	133.705	0.235	-0.303
-454.997	800.000	-0.056	0.212
-453.982	800.000	0.088	0.263
-452.968	118.830	0.178	-0.220
-451.953	-200.000	0.014	-0.211
-450.938	73.526	0.133	0.139
-449.924	-98.253	-0.180	-0.046
-448.909	-96.087	0.208	-0.055
-447.895	-77.058	-0.210	0.073
-446.880	800.000	0.082	0.229
-445.865	48.985	-0.088	0.082
-444.851	800.000	-0.158	-0.536
-443.836	211.974	0.092	0.144
-442.822	642.727	-0.111	-0.283
-441.807	157.355	0.185	-0.255
-440.792	616.047	0.117	-0.294
-439.778	344.088	0.082	0.161
-438.763	-23.031	-0.070	0.042
-437.749	106.966	-0.114	-0.135
-436.734	-147.590	-0.155	0.013
-435.719	-42.799	-0.218	0.111
-434.705	-200.000	-0.039	-0.324
-433.690	-8.211	-0.258	0.173
-432.676	167.367	-0.192	-0.272
-431.661	22.113	0.123	0.100
-430.646	-79.615	0.377	0.127
-429.632	-150.662	-0.137	0.010
-428.617	-75.538	0.087	-0.031
-427.603	306.994	-0.160	0.297
-426.588	-200.000	-0.007	-0.057
-425.573	-45.601	-0.035	0.017
-424.559	-200.000	0.015	0.205
-423.544	488.478	-0.118	0.269
-422.530	-200.000	-0.008	0.124
-421.515	-103.009	0.196	0.046
-420.500	-21.706	0.204	-0.124
-419.486	-144.703	-0.210	0.019
-418.471	-56.898	-0.379	-0.167
-417.457	108.717	-0.170	0.202
-416.442	-200.000	-0.038	0.204
-415.428	320.109	0.136	-0.257
-414.413	-82.078	0.313	-0.102
-413.398	-46.950	0.195	-0.095
-412.384	-51.269	-0.129	0.060
-411.369	760.123	0.034	0.092
-410.355	-30.758	-0.207	0.117
-409.340	-89.826	-0.265	0.077
-408.325	-79.289	-0.135	0.046
-407.311	272.491	0.287	-0.506
-406.296	-200.000	-0.064	-0.318
-405.282	525.010	0.121	0.284
-404.267	-64.730	-0.133	0.054
-403.252	-200.000	0.051	-0.338
-402.238	-200.000	0.006	0.079
-401.223	146.556	-0.084	0.112
-400.209	-200.000	0.053	0.280
-399.194	-200.000	-0.023	-0.234
-398.179	800.000	0.045	0.181
-397.165	-200.000	0.016	0.075
-396.150	-96.480	-0.227	-0.060
-395.136	-21.533	0.261	0.158
-394.121	-77.826	0.095	0.033
-393.106	-195.017	-0.238	0.002
-392.092	-90.859	0.237	0.068
-391.077	23.078	0.250	-0.204
-390.063	116.085	-0.253	0.308
-389.048	-4.323	-0.253	-0.174
-388.033	-46.426	0.185	0.090
-387.019	-53.147	0.047	0.022
-386.004	-29.797	-0.247	-0.140
-384.990	-15.699	0.188	-0.120
-383.975	-200.000	0.015	-0.303
-382.960	-53.033	-0.151	0.069
-381.946	-200.000	-0.021	0.315
-380.931	-72.654	0.574	0.211
-379.917	169.518	0.127	-0.180
-378.902	76.030	-0.111	0.117
-377.888	40.308	0.094	0.084
-376.873	273.561	-0.088	-0.156
-375.858	53.348	0.072	-0.068
-374.844	-141.444	0.209	-0.021
-373.829	-143.779	0.276	-0.026
-372.815	-200.000	0.054	-0.279
-371.800	-103.586	-0.168	-0.039
-370.785	297.417	-0.097	-0.178
-369.771	-200.000	-0.098	-0.439
-368.756	-200.000	0.033	0.288
-367.742	-154.340	0.496	-0.033
-366.727	246.065	-0.071	0.119
-365.712	21.341	-0.200	-0.162
-364.698	102.350	-0.065	0.076
-363.683	-106.141	-0.206	-0.046
-362.669	-142.402	0.074	-0.007
-361.654	324.150	-0.073	0.139
-360.639	-127.996	-0.322	0.046
-359.625	-117.700	-0.189	0.034
-358.610	-200.000	0.017	-0.149
-357.596	-139.661	0.319	-0.034
-356.581	-165.231	0.229	-0.010
-355.566	28.487	0.217	-0.182
-354.552	253.919	-0.088	-0.149
-353.537	-22.439	-0.092	-0.055
-352.523	1.586	0.337	0.241
-351.508	-91.698	0.164	-0.046
-350.493	146.234	-0.361	0.481
-349.479	800.000	-0.098	0.301
-348.464	195.057	-0.084	-0.127
-347.450	-157.508	0.179	0.011
-346.435	-200.000	-0.006	0.095
-345.420	344.801	0.022	-0.043
-344.406	9.732	-0.119	0.090
-343.391	101.608	-0.031	-0.036
-342.377	0.784	0.056	-0.040
-341.362	256.287	-0.062	0.106
-340.348	-60.353	0.190	0.080
-339.333	800.000	0.079	0.300
-338.318	-153.986	0.117	0.008
-337.304	16.627	0.101	-0.079
-336.289	-72.789	0.161	0.059
-335.275	75.240	-0.318	0.333
-334.260	-61.656	0.086	-0.036
-333.245	-90.444	0.168	0.048
-332.231	800.000	0.055	0.175
-331.216	-145.027	-0.506	0.046
-330.202	-200.000	0.022	0.316
-329.187	134.430	0.096	0.124
-328.172	-200.000	0.010	-0.189
-327.158	-119.186	-0.151	-0.026
-326.143	-75.282	0.091	0.032
-325.129	203.768	0.074	-0.113
-324.114	43.471	0.307	0.279
-323.099	348.455	-0.064	-0.126
-322.085	365.232	-0.069	0.138
-321.070	-200.000	-0.006	-0.123
-320.056	-29.601	-0.283	0.160
-319.041	211.106	-0.121	-0.190
-318.026	-200.000	0.010	-0.288
-317.012	172.874	0.270	0.386
-315.997	-200.000	0.056	-0.254
-314.983	151.088	-0.008	-0.010
-313.968	800.000	-0.089	0.363
-312.953	51.935	0.341	0.322
-311.939	42.609	-0.249	-0.225
-310.924	344.973	-0.032	0.062
-309.910	196.950	0.090	-0.136
-308.895	800.000	-0.079	0.289
-307.880	-98.849	0.360	0.091
-306.866	-200.000	0.031	0.174
-305.851	402.282	0.034	-0.070
-304.837	-200.000	-0.024	0.107
-303.822	-170.687	-0.546	0.019
-302.807	-27.156	-0.335	0.194
-301.793	283.397	0.188	0.335
-300.778	764.990	-0.088	0.237
-299.764	-200.000	0.014	-0.150
-298.749	-150.390	-0.146	-0.011
-297.735	-43.375	-0.175	0.088
-296.720	-128.857	0.205	-0.029
-295.705	-200.000	0.052	-0.312
-294.691	209.794	0.035	-0.055
-293.676	-70.332	0.145	-0.055
-292.662	-200.000	-0.007	-0.244
-291.647	-200.000	0.027	-0.203
-290.632	10.279	0.173	-0.131
-289.618	-155.745	-0.297	0.019
-288.603	800.000	-0.021	0.060
-287.589	279.222	0.241	0.426
-286.574	21.402	-0.198	0.160
-285.559	66.608	0.120	-0.121
-284.545	42.941	0.154	0.139
-283.530	-15.692	-0.135	-0.086
-282.516	800.000	-0.060	0.202
-281.501	193.353	-0.116	0.173
-280.486	33.504	0.205	0.176
-279.472	0.816	0.395	0.281
-278.457	284.712	-0.065	-0.117
-277.443	-200.000	0.014	0.148
-276.428	-110.877	0.323	-0.066
-275.413	282.610	0.070	0.125
-274.399	100.637	0.050	-0.057
-273.384	-129.136	-0.219	0.030
-272.370	-59.602	0.163	0.069
-271.355	25.128	-0.169	0.139
-270.340	-119.403	-0.225	0.039
-269.326	-200.000	-0.010	0.097
-268.311	152.045	-0.199	0.269
-267.297	183.112	0.039	0.057
-266.282	-55.310	0.110	-0.049
-265.267	109.478	-0.299	-0.356
-264.253	-116.581	0.284	0.052
-263.238	-99.490	-0.138	-0.034
-262.224	66.764	-0.156	0.157
-261.209	-26.406	0.318	0.185
-260.195	-4.406	0.160	-0.109
-259.180	-200.000	-0.004	-0.398
-258.165	800.000	0.022	-0.072
-257.151	800.000	0.048	0.154
-256.136	-39.129	0.269	0.140
-255.122	18.200	-0.090	0.071
-254.107	145.903	-0.076	0.101
-253.092	-109.446	-0.174	0.037
-252.078	230.183	-0.125	0.203
-251.063	-200.000	0.002	0.017
-250.049	-200.000	0.030	0.285
-249.034	-200.000	0.031	0.153
-248.019	-49.679	0.031	0.015
-247.005	178.025	0.164	0.237
-245.990	-102.981	0.222	-0.052
-244.976	-138.398	-0.134	-0.015
-243.961	642.841	-0.011	0.028
-242.946	752.682	0.047	-0.126
-241.932	204.653	-0.082	-0.125
-240.917	800.000	0.042	-0.162
-239.903	-200.000	-0.025	-0.128
-238.888	-113.088	0.244	-0.048
-237.873	-129.878	-0.134	0.018
-236.859	-157.917	-0.177	-0.010
-235.844	-200.000	0.026	-0.225
-234.830	-42.081	-0.373	-0.189
-233.815	186.648	0.042	0.062
-232.800	244.639	-0.096	-0.160
-231.786	-88.780	-0.227	0.067
-230.771	-107.763	-0.365	-0.079
-229.757	175.114	-0.016	-0.023
-228.742	-107.451	0.140	0.030
-227.727	-200.000	-0.009	-0.085
-226.713	800.000	-0.186	0.512
-225.698	-200.000	-0.014	0.183
-224.684	399.635	-0.155	0.322
-223.669	63.726	-0.120	0.120
-222.655	185.516	-0.166	-0.244
-221.640	233.449	-0.090	0.147
-220.625	800.000	0.056	0.226
-219.611	-200.000	0.021	0.094
-218.596	-200.000	0.042	0.250
-217.582	61.515	-0.138	-0.136
-216.567	-104.463	0.411	-0.094
-215.552	800.000	0.060	0.243
-214.538	564.945	-0.197	0.472
-213.523	800.000	-0.155	0.451
-212.509	-200.000	-0.027	-0.149
-211.494	800.000	-0.086	-0.254
-210.479	129.929	-0.069	0.088
-209.465	59.620	0.116	-0.113
-208.450	403.474	-0.075	-0.155
-207.436	-200.000	0.002	0.145
-206.421	800.000	-0.050	0.172
-205.406	-37.121	0.285	-0.151
-204.392	-27.379	0.123	0.071
-203.377	-200.000	0.035	0.169
-202.363	16.580	-0.186	-0.145
-201.348	-25.796	-0.092	0.054
-200.333	-153.919	0.170	0.011
-199.319	-175.023	0.279	0.008
-198.304	800.000	0.055	0.150
-197.290	-106.464	0.328	0.072
-196.275	87.267	-0.162	0.177
-195.260	-153.707	0.556	-0.038
-194.246	-200.000	-0.029	-0.129
-193.231	-196.272	-0.219	-0.001
-192.217	-60.860	0.297	0.124
-191.202	374.486	0.206	0.415
-190.187	-13.496	0.258	0.165
-189.173	51.444	-0.135	-0.127
-188.158	-188.080	0.213	0.003
-187.144	121.853	0.232	0.286
-186.129	-30.279	-0.554	0.311
-185.114	115.786	-0.205	0.248
-184.100	137.802	0.030	0.038
-183.085	330.173	0.020	-0.038
-182.071	-200.000	0.002	-0.077
-181.056	305.338	-0.099	-0.182
-180.042	-41.982	0.049	0.025
-179.027	169.916	-0.071	-0.100
-178.012	800.000	-0.031	-0.084
-176.998	-200.000	0.013	0.121
-175.983	85.279	0.150	0.162
-174.969	232.097	-0.217	0.352
-173.954	43.611	-0.235	-0.212
-172.939	125.251	0.124	-0.155
-171.925	-200.000	0.018	-0.135
-170.910	427.352	-0.039	0.083
-169.896	33.149	-0.188	0.161
-168.881	131.462	-0.071	0.090
-167.866	-4.410	0.264	0.180
-166.852	-35.266	0.198	0.107
-165.837	-76.231	-0.268	0.093
-164.823	-83.175	-0.036	-0.012
-163.808	800.000	0.039	0.169
-162.793	85.017	-0.218	0.236
-161.779	-200.000	0.035	-0.389
-160.764	481.863	0.128	0.287
-159.750	800.000	-0.093	0.290
-158.735	-124.984	-0.350	0.053
-157.720	509.183	-0.112	0.258
-156.706	288.691	0.098	0.176
-155.691	193.311	0.170	-0.254
-154.677	469.001	-0.104	0.230
-153.662	-7.884	0.026	0.017
-152.647	-3.992	0.194	-0.132
-151.633	-136.199	-0.219	-0.025
-150.618	-70.510	0.126	0.047
-149.604	-26.837	0.133	0.076
-148.589	74.960	0.060	0.062
-147.574	661.778	-0.098	0.248
-146.560	10.334	0.199	-0.150
-145.545	-58.683	-0.208	0.089
-144.531	-31.079	-0.142	0.079
-143.516	585.479	-0.137	0.331
-142.502	33.703	-0.132	-0.113
-141.487	-7.863	0.133	0.088
-140.472	-120.167	0.344	0.058
-139.458	-20.027	-0.144	-0.088
-138.443	235.746	-0.081	-0.132
-137.429	-26.588	-0.246	0.142
-136.414	800.000	0.058	-0.172
-135.399	800.000	0.016	-0.059
-134.385	168.942	-0.127	-0.179
-133.370	-200.000	-0.018	-0.189
-132.356	-79.986	0.157	0.052
-131.341	160.385	0.191	0.263
-130.326	-200.000	-0.003	-0.118
-129.312	-79.945	-0.315	0.104
-128.297	-200.000	0.167	0.001
-127.283	130.742	0.063	0.079
-126.268	-200.000	-0.016	-0.109
-125.253	-200.000	-0.016	0.107
-124.239	-19.936	0.119	0.072
-123.224	787.647	0.058	0.157
-122.210	293.224	0.150	0.269
