DTS Sentinel unit serial number:	SN413079Multiplexer serial number:	ORYXHardware model number:	OX4-SRSoftware version number:	ORYX F/W v4.00 Oryx Data Collector v3.7.2.0data status	okinstallation	princeton_trtdifferential loss correction	single-endedforward channel	channel 2reverse channel	N/Adate	2019/09/11time	02:17:11forward acquisition time	60.00reverse acquisition time	0.00gamma	496.2192k internal	0.2331k external	0.2331temperature offset calibration	0.9945default loss term (dB/km)	0.3790temperature slope calibration	1.0000multiplexer offset coefficient	1.0000multiplexer slope coefficient	1.0000fibre end	0.00T internal ref (°C)	29.19T ext. ref 1 (°C)	-0.30T ext. ref 2 (°C)	23.48length (m)	temperature (°C)	Stokes	anti-Stokes-747.200	-16.089	0.236	-0.151
-746.185	-200.000	0.016	-0.328
-745.171	19.617	0.142	0.115
-744.156	136.311	-0.114	0.149
-743.142	57.506	0.153	-0.151
-742.127	-200.000	-0.009	0.319
-741.112	800.000	-0.050	0.198
-740.098	307.487	0.092	-0.172
-739.083	-42.341	0.191	0.098
-738.069	80.456	-0.158	0.171
-737.054	-7.733	0.220	-0.150
-736.039	-139.235	-0.651	-0.071
-735.025	-128.689	0.134	-0.019
-734.010	-200.000	-0.012	-0.150
-732.996	-91.355	-0.276	0.079
-731.981	-9.771	-0.143	-0.096
-730.966	-200.000	-0.019	-0.214
-729.952	-200.000	0.015	-0.406
-728.937	329.678	-0.017	-0.033
-727.923	299.677	-0.115	-0.213
-726.908	-150.914	0.088	-0.007
-725.894	59.415	0.231	0.229
-724.879	-41.064	-0.214	-0.111
-723.864	-200.000	0.001	-0.127
-722.850	-65.975	0.090	0.036
-721.835	-200.000	-0.004	-0.036
-720.821	475.720	0.084	0.191
-719.806	-173.000	-0.172	0.005
-718.791	-200.000	-0.015	-0.165
-717.777	685.206	0.071	-0.188
-716.762	102.703	-0.074	0.086
-715.748	54.560	0.081	0.079
-714.733	-9.004	-0.033	-0.023
-713.718	92.327	0.113	-0.128
-712.704	202.715	0.084	0.130
-711.689	122.332	0.097	-0.122
-710.675	-88.274	-0.211	0.063
-709.660	136.752	0.151	0.198
-708.645	355.420	-0.162	-0.323
-707.631	-151.755	-0.171	-0.013
-706.616	-139.471	-0.128	0.014
-705.602	-200.000	0.021	-0.319
-704.587	-200.000	-0.021	-0.284
-703.572	-200.000	-0.292	0.001
-702.558	-162.573	-0.300	0.015
-701.543	-57.079	-0.299	0.132
-700.529	-87.370	-0.059	0.018
-699.514	-61.226	-0.503	0.213
-698.499	-6.698	0.216	-0.148
-697.485	133.796	-0.067	-0.087
-696.470	-9.758	0.131	-0.088
-695.456	48.658	0.214	0.201
-694.441	-200.000	0.037	0.254
-693.426	280.270	-0.205	-0.368
-692.412	-78.964	-0.158	-0.054
-691.397	-200.000	0.019	0.160
-690.383	-154.573	-0.029	0.002
-689.368	-63.568	-0.072	0.030
-688.354	800.000	0.134	0.424
-687.339	-33.222	-0.165	-0.092
-686.324	-200.000	-0.058	-0.426
-685.310	17.090	-0.192	0.153
-684.295	-200.000	0.003	-0.086
-683.281	5.769	-0.199	0.148
-682.266	90.648	-0.261	-0.294
-681.251	10.698	0.363	-0.278
-680.237	435.984	-0.132	0.289
-679.222	-14.036	0.373	-0.242
-678.208	18.970	-0.031	-0.025
-677.193	-9.314	-0.113	0.075
-676.178	-200.000	0.031	0.200
-675.164	3.512	-0.094	-0.069
-674.149	-200.000	-0.014	0.120
-673.135	-73.888	0.137	-0.050
-672.120	52.992	-0.095	0.092
-671.105	463.337	-0.104	-0.234
-670.091	-111.883	0.135	0.027
-669.076	101.142	-0.164	-0.192
-668.062	26.253	-0.053	0.044
-667.047	83.600	-0.347	0.380
-666.032	-43.814	-0.395	-0.199
-665.018	387.966	-0.061	0.126
-664.003	313.651	0.047	-0.089
-662.989	-73.875	0.116	-0.042
-661.974	800.000	0.055	0.236
-660.959	71.029	-0.041	0.043
-659.945	165.740	-0.097	-0.138
-658.930	105.116	-0.216	-0.255
-657.916	85.962	-0.153	-0.169
-656.901	-150.560	-0.149	0.011
-655.886	667.196	-0.194	-0.504
-654.872	-200.000	0.057	-0.253
-653.857	-3.126	-0.267	-0.187
-652.843	467.787	0.061	-0.137
-651.828	-200.000	-0.028	-0.218
-650.814	62.098	0.063	0.063
-649.799	-26.919	-0.098	0.057
-648.784	47.072	0.060	0.056
-647.770	800.000	-0.083	0.333
-646.755	-93.972	0.283	-0.078
-645.741	-200.000	0.048	-0.284
-644.726	-178.723	0.252	0.006
-643.711	-59.463	-0.127	0.055
-642.697	616.946	0.129	-0.324
-641.682	-200.000	0.006	-0.068
-640.668	-137.317	0.199	-0.023
-639.653	-200.000	-0.043	-0.248
-638.638	-200.000	0.001	-0.173
-637.624	-152.269	0.078	0.006
-636.609	780.794	-0.127	-0.349
-635.595	-200.000	-0.016	-0.203
-634.580	22.016	-0.058	0.047
-633.565	86.683	0.027	-0.030
-632.551	-65.392	0.366	0.147
-631.536	-200.000	-0.003	-0.332
-630.522	-200.000	-0.028	0.155
-629.507	12.784	0.189	-0.146
-628.492	-75.733	0.116	-0.041
-627.478	-200.000	0.012	0.165
-626.463	-73.593	-0.137	-0.050
-625.449	224.817	-0.142	-0.229
-624.434	486.002	-0.067	-0.152
-623.419	125.635	-0.145	0.184
-622.405	-73.520	0.162	-0.059
-621.390	-137.586	-0.264	0.030
-620.376	166.043	-0.140	0.198
-619.361	800.000	-0.050	-0.176
-618.346	800.000	-0.063	-0.269
-617.332	323.077	-0.040	-0.076
-616.317	-107.690	0.375	0.082
-615.303	20.301	0.092	0.075
-614.288	9.942	-0.174	0.132
-613.273	225.455	0.044	-0.071
-612.259	3.950	0.304	-0.223
-611.244	-79.051	-0.218	0.074
-610.230	-21.662	0.136	0.083
-609.215	592.001	0.035	0.087
-608.201	800.000	-0.010	0.037
-607.186	-22.434	0.150	0.091
-606.171	58.068	0.038	0.037
-605.157	-200.000	-0.005	-0.187
-604.142	-132.196	0.048	-0.006
-603.128	800.000	0.031	0.091
-602.113	8.027	0.267	0.201
-601.098	-73.010	0.120	0.044
-600.084	266.318	-0.084	0.147
-599.069	455.901	0.142	0.315
-598.055	-200.000	0.041	0.261
-597.040	207.632	-0.035	0.055
-596.025	-13.268	0.329	-0.214
-595.011	800.000	0.060	-0.187
-593.996	-32.618	0.272	-0.151
-592.982	-29.898	0.270	-0.154
-591.967	-17.866	-0.255	0.160
-590.952	102.765	-0.110	-0.128
-589.938	55.110	-0.200	0.194
-588.923	90.712	0.150	0.168
-587.909	-106.622	-0.396	-0.088
-586.894	9.004	-0.131	-0.099
-585.879	15.230	0.281	0.220
-584.865	227.631	-0.235	-0.383
-583.850	-77.218	0.341	-0.119
-582.836	-25.337	0.273	-0.162
-581.821	162.633	-0.223	0.313
-580.806	53.816	-0.044	-0.043
-579.792	40.865	0.091	-0.082
-578.777	-51.855	-0.183	0.085
-577.763	86.930	-0.182	-0.201
-576.748	263.737	-0.179	-0.312
-575.733	-85.625	0.185	-0.058
-574.719	404.244	0.214	0.451
-573.704	-0.046	0.084	-0.060
-572.690	221.416	-0.020	0.033
-571.675	493.065	0.103	0.235
-570.661	471.380	-0.026	0.059
-569.646	-6.527	-0.135	-0.092
-568.631	212.439	-0.099	0.157
-567.617	-26.651	0.134	-0.078
-566.602	-158.429	-0.144	0.008
-565.588	-200.000	0.029	-0.501
-564.573	36.620	-0.311	-0.274
-563.558	-114.850	-0.106	-0.020
-562.544	41.558	0.107	-0.096
-561.529	229.824	-0.338	0.551
-560.515	-195.862	0.065	0.000
-559.500	-105.653	-0.103	-0.023
-558.485	-160.706	0.333	0.018
-557.471	419.578	0.017	-0.037
-556.456	-200.000	-0.024	-0.123
-555.442	213.083	-0.063	-0.100
-554.427	-84.855	0.215	0.067
-553.412	-200.000	0.007	0.051
-552.398	-159.875	-0.251	-0.014
-551.383	73.289	-0.218	-0.228
-550.369	800.000	-0.094	0.387
-549.354	-49.304	-0.272	-0.129
-548.339	-200.000	-0.040	-0.272
-547.325	291.384	-0.096	-0.174
-546.310	-5.893	-0.066	-0.045
-545.296	-200.000	-0.003	-0.362
-544.281	-85.793	-0.127	-0.039
-543.266	-117.383	0.098	-0.018
-542.252	-85.945	-0.306	0.094
-541.237	-200.000	-0.024	0.252
-540.223	800.000	-0.044	-0.165
-539.208	-55.963	0.317	-0.141
-538.193	800.000	-0.022	-0.068
-537.179	-146.322	-0.083	0.007
-536.164	424.709	-0.035	0.075
-535.150	800.000	0.054	0.149
-534.135	92.786	0.038	0.043
-533.121	60.310	-0.213	-0.210
-532.106	192.657	0.055	0.083
-531.091	70.756	-0.081	-0.083
-530.077	800.000	-0.059	-0.171
-529.062	-115.724	-0.098	-0.018
-528.048	242.454	-0.085	0.141
-527.033	-200.000	-0.038	0.325
-526.018	211.761	0.041	-0.065
-525.004	276.021	0.231	-0.408
-523.989	800.000	0.142	-0.474
-522.975	-200.000	0.003	0.107
-521.960	-4.291	0.209	-0.144
-520.945	-47.343	-0.267	0.130
-519.931	376.450	-0.187	0.381
-518.916	-200.000	-0.042	0.199
-517.902	268.313	-0.059	-0.103
-516.887	-184.682	-0.269	-0.004
-515.872	-200.000	-0.036	-0.190
-514.858	205.629	-0.149	-0.231
-513.843	-200.000	0.019	0.112
-512.829	-5.954	-0.140	0.095
-511.814	-81.815	0.111	0.036
-510.799	-200.000	-0.015	0.275
-509.785	86.269	0.117	-0.128
-508.770	-200.000	-0.007	-0.061
-507.756	66.991	-0.143	-0.145
-506.741	-15.271	-0.147	0.094
-505.726	-151.037	-0.162	-0.012
-504.712	-200.000	0.042	0.413
-503.697	281.030	0.103	0.184
-502.683	-102.590	-0.094	0.022
-501.668	-66.930	-0.299	0.118
-500.653	800.000	-0.042	-0.157
-499.639	-68.010	-0.362	-0.141
-498.624	-200.000	0.010	0.111
-497.610	210.386	-0.146	-0.228
-496.595	162.474	0.081	-0.113
-495.581	45.510	0.203	0.187
-494.566	244.216	0.148	-0.248
-493.551	800.000	0.078	0.277
-492.537	110.752	0.280	0.336
-491.522	201.291	0.140	0.214
-490.508	-200.000	-0.044	-0.210
-489.493	12.211	-0.174	0.134
-488.478	473.763	-0.143	0.320
-487.464	85.118	-0.087	-0.095
-486.449	243.580	-0.070	-0.117
-485.435	226.585	-0.078	0.126
-484.420	84.146	-0.225	0.244
-483.405	-51.075	-0.217	-0.101
-482.391	-66.450	0.461	0.182
-481.376	207.243	0.028	0.044
-480.362	-17.755	0.023	-0.014
-479.347	-67.260	-0.418	-0.164
-478.332	800.000	-0.042	-0.150
-477.318	156.146	-0.097	-0.133
-476.303	289.453	0.082	-0.148
-475.289	-134.589	0.139	0.017
-474.274	-89.936	-0.064	-0.019
-473.259	-94.155	-0.319	0.087
-472.245	-164.045	-0.080	-0.004
-471.230	187.041	0.069	0.102
-470.216	800.000	0.103	0.299
-469.201	146.710	0.194	0.259
-468.186	-52.804	-0.180	0.083
-467.172	-200.000	0.013	0.167
-466.157	-102.886	-0.223	-0.053
-465.143	-92.202	-0.161	-0.045
-464.128	478.721	0.139	0.314
-463.113	362.910	-0.175	0.349
-462.099	-116.272	-0.053	-0.010
-461.084	270.884	0.119	-0.208
-460.070	800.000	-0.135	-0.376
-459.055	-200.000	0.022	0.119
-458.040	-36.229	-0.139	-0.074
-457.026	103.911	-0.149	-0.174
-456.011	204.787	0.131	-0.202
-454.997	-30.162	-0.256	-0.145
-453.982	-145.025	-0.417	0.038
-452.968	-31.282	0.043	0.024
-451.953	-61.116	-0.344	0.144
-450.938	345.786	-0.044	0.086
-449.924	95.381	0.143	-0.162
-448.909	-200.000	0.030	0.263
-447.895	-75.652	0.107	-0.038
-446.880	41.098	-0.096	-0.086
-445.865	-55.590	-0.129	0.058
-444.851	-33.192	-0.141	-0.078
-443.836	-200.000	-0.052	0.253
-442.822	126.119	0.158	-0.198
-441.807	-111.314	-0.380	-0.077
-440.792	-36.229	0.306	0.164
-439.778	117.135	0.008	0.010
-438.763	764.232	0.039	0.105
-437.749	47.740	-0.128	-0.119
-436.734	230.421	0.150	0.244
-435.719	159.692	-0.040	0.056
-434.705	-159.644	-0.285	-0.016
-433.690	-90.014	-0.128	0.037
-432.676	800.000	0.061	0.210
-431.661	-200.000	-0.066	0.329
-430.646	-51.346	-0.104	-0.048
-429.632	211.874	0.222	-0.348
-428.617	47.734	-0.145	-0.135
-427.603	52.766	-0.060	0.057
-426.588	650.663	0.029	0.074
-425.573	-11.784	0.120	-0.078
-424.559	-92.966	-0.440	-0.122
-423.544	-119.498	-0.136	-0.023
-422.530	-200.000	-0.005	-0.409
-421.515	-17.524	-0.383	-0.239
-420.500	94.521	0.309	0.349
-419.486	-153.170	-0.417	0.029
-418.471	-200.000	0.025	-0.182
-417.457	57.351	0.123	-0.120
-416.442	-163.318	-0.234	-0.011
-415.428	-138.345	-0.158	-0.017
-414.413	539.244	0.052	-0.123
-413.398	-91.763	-0.162	0.046
-412.384	-89.852	0.203	0.059
-411.369	-75.515	-0.044	-0.016
-410.355	800.000	-0.067	-0.245
-409.340	-200.000	-0.013	0.090
-408.325	284.622	0.044	0.079
-407.311	-116.998	0.348	-0.063
-406.296	97.661	0.082	-0.094
-405.282	-129.853	0.252	0.034
-404.267	433.623	0.117	0.253
-403.252	16.072	0.329	0.257
-402.238	-149.067	-0.115	0.009
-401.223	4.707	-0.092	0.067
-400.209	714.040	-0.051	0.135
-399.194	-200.000	-0.004	0.381
-398.179	215.863	-0.095	-0.150
-397.165	-92.686	-0.338	0.094
-396.150	-106.876	0.181	-0.040
-395.136	33.325	-0.133	0.114
-394.121	504.799	0.075	0.172
-393.106	-60.424	0.043	0.018
-392.092	85.607	0.128	-0.140
-391.077	-134.649	-0.159	0.019
-390.063	213.962	-0.065	0.101
-389.048	-200.000	-0.002	0.086
-388.033	-200.000	0.005	0.103
-387.019	-58.456	0.126	0.054
-386.004	175.252	-0.084	-0.120
-384.990	10.389	-0.237	-0.179
-383.975	353.753	0.083	-0.164
-382.960	350.078	0.038	0.074
-381.946	-126.098	0.219	-0.033
-380.931	90.294	-0.305	0.339
-379.917	-107.871	-0.229	-0.049
-378.902	-200.000	-0.042	-0.253
-377.888	800.000	0.116	0.361
-376.873	-11.615	0.076	-0.050
-375.858	-144.362	0.412	0.038
-374.844	87.960	0.016	0.018
-373.829	87.405	-0.044	-0.049
-372.815	651.363	-0.072	0.184
-371.800	800.000	-0.067	0.231
-370.785	-49.504	-0.095	0.045
-369.771	-44.324	-0.058	0.029
-368.756	677.462	0.095	0.245
-367.742	800.000	0.091	0.320
-366.727	144.444	-0.294	0.390
-365.712	210.711	-0.191	-0.298
-364.698	-28.861	0.070	0.040
-363.683	-50.759	-0.010	0.005
-362.669	-122.812	0.358	-0.057
-361.654	-112.796	-0.112	-0.022
-360.639	-39.321	-0.187	-0.097
-359.625	-54.853	0.499	-0.223
-358.610	153.561	0.175	-0.238
-357.596	605.796	-0.098	0.242
-356.581	61.458	0.072	-0.071
-355.566	118.370	0.044	0.054
-354.552	800.000	-0.029	-0.123
-353.537	800.000	-0.073	-0.236
-352.523	-20.520	0.088	0.053
-351.508	-16.943	-0.119	0.075
-350.493	-200.000	0.006	-0.042
-349.479	301.764	0.145	-0.266
-348.464	800.000	-0.081	-0.287
-347.450	-200.000	-0.033	0.174
-346.435	-200.000	-0.031	0.152
-345.420	-141.265	-0.097	0.010
-344.406	81.033	0.297	-0.318
-343.391	452.901	-0.155	-0.340
-342.377	-3.902	0.278	-0.191
-341.362	-187.491	0.189	-0.003
-340.348	-12.318	-0.171	-0.111
-339.333	-200.000	0.032	-0.237
-338.318	-182.829	0.191	-0.003
-337.304	-200.000	-0.023	-0.116
-336.289	800.000	-0.040	-0.126
-335.275	291.364	0.080	-0.144
-334.260	-173.373	-0.266	0.008
-333.245	324.991	0.149	0.282
-332.231	388.782	0.150	0.308
-331.216	-92.087	0.329	0.092
-330.202	324.874	-0.094	0.177
-329.187	-68.677	0.095	0.036
-328.172	-28.592	-0.177	0.101
-327.158	424.353	0.108	-0.229
-326.143	-98.704	0.164	-0.041
-325.129	170.880	-0.092	-0.131
-324.114	145.202	0.121	0.160
-323.099	-1.418	0.186	0.130
-322.085	108.877	-0.093	0.110
-321.070	-99.685	-0.402	0.100
-320.056	-144.848	-0.142	0.013
-319.041	-53.127	0.175	0.080
-318.026	-78.696	-0.158	0.054
-317.012	44.562	0.210	0.191
-315.997	-68.035	-0.238	0.092
-314.983	197.437	-0.033	-0.050
-313.968	279.884	0.204	0.360
-312.953	-149.091	0.265	0.021
-311.939	-127.785	-0.222	0.032
-310.924	77.794	0.199	0.210
-309.910	345.676	0.136	-0.264
-308.895	-21.555	0.203	0.122
-307.880	-26.608	-0.056	0.032
-306.866	-96.339	0.322	0.084
-305.851	-56.043	-0.108	0.048
-304.837	252.101	0.120	0.202
-303.822	-96.982	-0.311	-0.081
-302.807	27.386	0.106	-0.088
-301.793	98.819	-0.246	-0.281
-300.778	800.000	0.137	0.404
-299.764	-200.000	-0.007	0.173
-298.749	-200.000	0.021	-0.114
-297.735	800.000	0.098	0.302
-296.720	-147.774	0.378	0.031
-295.705	-176.568	0.175	0.004
-294.691	-39.859	-0.256	0.132
-293.676	-200.000	-0.040	-0.276
-292.662	109.964	0.125	-0.148
-291.647	-33.471	-0.112	-0.061
-290.632	-200.000	0.054	0.283
-289.618	-77.460	-0.212	0.073
-288.603	-200.000	0.002	0.230
-287.589	-11.679	-0.238	-0.155
-286.574	-75.080	0.319	-0.113
-285.559	-8.022	0.231	0.154
-284.545	-111.245	0.117	0.024
-283.530	-200.000	0.011	0.189
-282.516	571.971	0.080	0.191
-281.501	8.630	0.050	-0.038
-280.486	186.167	-0.079	0.116
-279.472	-200.000	-0.008	0.162
-278.457	-80.161	-0.273	-0.090
-277.443	10.804	0.168	-0.127
-276.428	-100.339	-0.115	-0.028
-275.413	235.045	0.144	0.235
-274.399	83.400	0.069	0.075
-273.384	0.121	0.047	0.033
-272.370	98.318	0.061	-0.069
-271.355	-70.365	0.297	-0.111
-270.340	-89.022	0.128	0.037
-269.326	240.874	0.129	-0.213
-268.311	-200.000	0.027	0.154
-267.297	517.245	0.210	-0.485
-266.282	-32.767	0.210	-0.115
-265.267	-200.000	0.031	-0.318
-264.253	-200.000	0.052	-0.268
-263.238	-200.000	-0.034	0.272
-262.224	-200.000	-0.064	0.302
-261.209	-200.000	0.013	-0.179
-260.195	-124.399	0.097	-0.015
-259.180	-200.000	-0.034	-0.282
-258.165	-73.928	-0.225	-0.081
-257.151	58.435	-0.133	0.129
-256.136	350.933	-0.083	0.163
-255.122	800.000	-0.054	-0.159
-254.107	6.776	-0.084	-0.062
-253.092	-9.414	-0.142	-0.094
-252.078	-109.339	-0.129	-0.027
-251.063	-110.886	0.216	-0.044
-250.049	32.446	0.175	-0.149
-249.034	-93.797	-0.205	-0.056
-248.019	-93.735	-0.135	0.037
-247.005	387.393	0.070	0.143
-245.990	-141.503	-0.155	0.015
-244.976	208.853	0.296	0.458
-243.961	800.000	0.033	-0.112
-242.946	132.903	-0.025	-0.032
-241.932	64.321	-0.297	0.295
-240.917	48.664	0.107	0.099
-239.903	-130.050	0.442	-0.060
-238.888	800.000	0.058	-0.160
-237.873	56.620	-0.099	0.095
-236.859	-52.445	-0.216	-0.098
-235.844	-23.445	-0.240	-0.142
-234.830	800.000	0.026	0.112
-233.815	-200.000	0.003	0.217
-232.800	-170.232	0.494	0.017
-231.786	-49.307	0.095	0.045
-230.771	800.000	-0.067	0.251
-229.757	800.000	0.083	-0.300
-228.742	45.665	-0.237	-0.216
-227.727	-167.131	0.222	-0.009
-226.713	603.505	0.127	0.312
-225.698	-200.000	0.031	-0.146
-224.684	6.079	-0.121	-0.089
-223.669	10.757	-0.038	-0.029
-222.655	-165.553	0.128	-0.005
-221.640	22.541	-0.151	0.122
-220.625	320.849	0.082	0.154
-219.611	197.356	0.156	-0.235
-218.596	-40.272	-0.045	0.023
-217.582	-200.000	0.054	-0.396
-216.567	43.777	0.213	-0.192
-215.552	-157.993	-0.158	-0.009
-214.538	407.428	-0.093	0.193
-213.523	-41.457	-0.185	-0.094
-212.509	56.117	-0.090	0.086
-211.494	800.000	0.051	0.210
-210.479	-138.249	0.496	-0.054
-209.465	17.836	-0.237	-0.186
-208.450	-188.494	0.168	0.002
-207.436	-24.679	-0.116	0.068
-206.421	105.721	0.084	-0.098
-205.406	76.334	-0.201	-0.210
-204.392	-116.925	0.205	-0.037
-203.377	-68.562	0.450	0.172
-202.363	-31.252	-0.070	0.039
-201.348	-54.002	0.221	-0.099
-200.333	-98.202	-0.165	0.042
-199.319	800.000	-0.091	0.277
-198.304	-102.364	0.169	0.040
-197.290	45.458	-0.289	-0.263
-196.275	292.637	0.122	-0.220
-195.260	736.087	-0.066	0.174
-194.246	35.810	-0.115	-0.100
-193.231	44.000	0.135	-0.122
-192.217	65.722	0.270	-0.269
-191.202	-48.476	-0.134	-0.063
-190.187	570.160	0.059	-0.141
-189.173	-100.470	0.213	0.052
-188.158	146.186	0.284	-0.375
-187.144	188.253	0.171	-0.252
-186.129	-200.000	-0.055	0.335
-185.114	-157.755	-0.220	-0.013
-184.100	-142.010	0.082	-0.008
-183.085	-95.279	0.161	-0.043
-182.071	-77.834	-0.127	-0.043
-181.056	-117.052	0.155	-0.028
-180.042	51.333	-0.182	0.170
-179.027	-200.000	-0.117	0.553
-178.012	18.244	-0.151	0.118
-176.998	-115.710	0.244	-0.045
-175.983	-34.442	0.267	-0.144
-174.969	-136.219	-0.152	-0.017
-173.954	64.193	0.188	0.186
-172.939	671.718	-0.021	-0.054
-171.925	-2.237	0.201	-0.139
-170.910	248.809	-0.272	-0.453
-169.896	-200.000	0.000	-0.195
-168.881	-174.408	-0.177	-0.005
-167.866	-39.171	0.256	0.132
-166.852	-200.000	0.003	-0.023
-165.837	800.000	-0.209	-0.692
-164.823	544.601	0.113	-0.266
-163.808	48.764	-0.088	-0.081
-162.793	-200.000	-0.025	0.192
-161.779	13.440	-0.096	0.074
-160.764	165.104	0.192	0.267
-159.750	449.451	0.058	0.126
-158.735	-20.576	-0.074	0.045
-157.720	-200.000	-0.025	-0.237
-156.706	-200.000	-0.030	0.268
-155.691	-181.661	0.125	0.002
-154.677	56.169	-0.229	0.219
-153.662	298.000	-0.145	0.262
-152.647	-57.249	0.259	-0.112
-151.633	800.000	-0.060	0.194
-150.618	-200.000	-0.004	-0.216
-149.604	-99.188	-0.154	-0.038
-148.589	-16.663	-0.292	0.182
-147.574	-200.000	-0.001	-0.012
-146.560	-130.379	-0.148	0.020
-145.545	290.239	0.136	-0.243
-144.531	-94.893	0.373	-0.099
-143.516	-48.254	-0.525	-0.249
-142.502	-78.823	-0.158	0.053
-141.487	152.312	-0.150	-0.201
-140.472	-70.938	-0.073	0.027
-139.458	-134.714	-0.349	0.042
-138.443	267.042	-0.076	-0.130
-137.429	-11.987	0.334	-0.215
-136.414	-200.000	-0.028	0.193
-135.399	-37.910	-0.382	0.199
-134.385	-53.825	0.154	-0.069
-133.370	-46.302	0.184	0.089
-132.356	800.000	-0.147	-0.408
-131.341	-200.000	-0.085	-0.464
-130.326	-150.220	0.134	-0.010
-129.312	-38.130	-0.484	-0.252
-128.297	302.231	-0.030	0.055
-127.283	68.488	-0.164	0.166
-126.268	43.943	0.123	0.111
-125.253	-113.537	-0.348	-0.067
-124.239	-200.000	-0.008	-0.254
-123.224	-90.208	-0.425	0.121
-122.210	-88.144	0.191	-0.056
