DTS Sentinel unit serial number:	SN413079Multiplexer serial number:	ORYXHardware model number:	OX4-SRSoftware version number:	ORYX F/W v4.00 Oryx Data Collector v3.7.2.0data status	okinstallation	princeton_trtdifferential loss correction	single-endedforward channel	channel 2reverse channel	N/Adate	2019/09/18time	15:55:35forward acquisition time	60.00reverse acquisition time	0.00gamma	496.2192k internal	0.2309k external	0.2309temperature offset calibration	1.0004default loss term (dB/km)	0.3790temperature slope calibration	1.0000multiplexer offset coefficient	1.0000multiplexer slope coefficient	1.0000fibre end	0.00T internal ref (°C)	36.97T ext. ref 1 (°C)	0.80T ext. ref 2 (°C)	36.23length (m)	temperature (°C)	Stokes	anti-Stokes-747.200	-102.688	-0.137	-0.033
-746.185	-141.691	0.274	0.028
-745.171	-43.541	-0.097	0.050
-744.156	274.361	-0.143	0.257
-743.142	-23.645	0.112	0.068
-742.127	222.488	-0.172	0.281
-741.112	-91.944	0.360	-0.104
-740.098	50.687	-0.392	0.377
-739.083	-78.022	0.091	0.032
-738.069	-195.759	-0.210	-0.002
-737.054	-193.510	-0.414	-0.004
-736.039	-62.565	-0.158	-0.067
-735.025	42.117	0.150	0.138
-734.010	-200.000	-0.015	-0.211
-732.996	389.151	-0.070	-0.147
-731.981	-108.259	0.165	-0.036
-730.966	800.000	0.045	0.166
-729.952	-200.000	-0.004	0.223
-728.937	57.224	-0.225	-0.223
-727.923	-52.198	0.222	0.105
-726.908	591.357	0.069	-0.172
-725.894	741.016	-0.063	-0.171
-724.879	316.674	-0.116	-0.223
-723.864	29.971	0.211	-0.182
-722.850	-53.582	-0.168	0.078
-721.835	-114.934	-0.409	-0.079
-720.821	83.675	-0.056	0.062
-719.806	800.000	-0.060	0.216
-718.791	-131.573	-0.316	-0.042
-717.777	409.649	0.140	-0.301
-716.762	-3.710	-0.103	0.073
-715.748	86.580	0.214	-0.239
-714.733	-65.220	-0.233	0.095
-713.718	-200.000	0.020	-0.345
-712.704	800.000	0.007	-0.026
-711.689	-62.563	0.217	-0.091
-710.675	-3.284	0.100	-0.071
-709.660	-4.276	-0.112	0.078
-708.645	5.648	0.148	0.111
-707.631	597.454	0.020	0.050
-706.616	7.551	-0.221	0.168
-705.602	18.081	0.222	-0.180
-704.587	-200.000	-0.028	0.138
-703.572	-135.148	-0.251	-0.031
-702.558	-200.000	0.020	-0.313
-701.543	-48.580	0.201	0.098
-700.529	-200.000	0.016	-0.338
-699.514	-24.447	-0.455	-0.275
-698.499	133.531	0.136	-0.179
-697.485	-73.999	0.213	0.078
-696.470	58.003	-0.190	-0.189
-695.456	391.235	0.061	-0.129
-694.441	-91.536	0.279	-0.081
-693.426	121.708	0.165	0.209
-692.412	-31.796	-0.318	0.181
-691.397	800.000	0.042	-0.138
-690.383	272.244	0.025	0.045
-689.368	-200.000	0.058	-0.264
-688.354	-77.946	0.290	0.101
-687.339	-68.851	-0.129	-0.050
-686.324	-91.481	0.274	-0.079
-685.310	-33.153	0.070	-0.039
-684.295	65.810	0.160	0.164
-683.281	252.487	-0.032	0.055
-682.266	49.296	0.058	0.055
-681.251	402.050	0.117	-0.250
-680.237	-192.270	0.208	-0.002
-679.222	14.398	-0.327	0.259
-678.208	-67.560	-0.307	0.122
-677.193	94.645	-0.036	-0.041
-676.178	-176.015	0.296	0.008
-675.164	35.534	-0.105	0.094
-674.149	15.980	-0.149	-0.119
-673.135	198.122	-0.148	-0.230
-672.120	-1.569	-0.151	0.108
-671.105	4.369	-0.121	0.090
-670.091	509.872	0.009	0.021
-669.076	84.741	0.038	-0.042
-668.062	-18.286	-0.058	-0.037
-667.047	-200.000	0.026	-0.155
-666.032	-109.501	-0.251	0.054
-665.018	373.921	-0.046	-0.094
-664.003	-116.230	0.114	-0.021
-662.989	800.000	-0.023	0.102
-661.974	-5.673	0.173	-0.120
-660.959	36.432	-0.131	-0.117
-659.945	246.080	-0.088	-0.151
-658.930	-200.000	-0.020	0.116
-657.916	-38.315	0.151	-0.081
-656.901	800.000	0.012	0.054
-655.886	800.000	0.101	0.293
-654.872	-157.366	0.449	0.027
-653.857	232.152	0.199	0.330
-652.843	263.313	-0.093	-0.164
-651.828	800.000	-0.060	-0.187
-650.814	-121.641	0.275	-0.046
-649.799	-60.781	0.339	0.145
-648.784	-200.000	-0.014	0.078
-647.770	-72.874	0.327	0.122
-646.755	-58.657	0.199	0.087
-645.741	17.605	-0.157	0.126
-644.726	-200.000	-0.056	-0.255
-643.711	800.000	-0.094	-0.333
-642.697	-200.000	0.057	-0.368
-641.682	92.302	-0.210	-0.240
-640.668	-30.526	-0.325	-0.187
-639.653	619.403	-0.153	0.389
-638.638	-110.913	0.104	0.022
-637.624	-200.000	0.012	0.133
-636.609	-115.682	0.152	-0.029
-635.595	-12.471	0.025	0.017
-634.580	-104.623	0.120	-0.028
-633.565	267.660	-0.005	0.009
-632.551	-200.000	0.003	0.222
-631.536	-115.031	0.213	0.041
-630.522	-9.010	0.188	-0.127
-629.507	-115.043	0.238	0.046
-628.492	-47.852	-0.180	0.088
-627.478	-46.837	0.165	0.082
-626.463	-136.156	0.304	-0.036
-625.449	188.109	-0.056	0.084
-624.434	-83.192	-0.138	0.045
-623.419	70.538	-0.114	0.119
-622.405	-117.832	0.086	0.016
-621.390	30.732	-0.032	0.027
-620.376	-33.419	0.133	0.074
-619.361	-151.166	0.070	0.005
-618.346	-29.862	0.084	0.048
-617.332	98.665	-0.155	-0.181
-616.317	13.740	0.212	0.166
-615.303	800.000	0.089	-0.270
-614.288	364.962	0.088	0.179
-613.273	-176.620	0.112	0.003
-612.259	-148.227	-0.250	-0.021
-611.244	-108.567	0.207	-0.045
-610.230	-200.000	-0.028	-0.166
-609.215	-173.728	0.205	0.006
-608.201	-88.631	-0.157	0.047
-607.186	-200.000	-0.043	0.294
-606.171	800.000	0.140	0.477
-605.157	163.942	-0.086	-0.123
-604.142	-52.271	-0.121	0.056
-603.128	128.259	0.055	0.071
-602.113	133.772	0.131	-0.171
-601.098	-116.636	0.044	0.008
-600.084	-102.669	0.247	-0.060
-599.069	18.018	0.311	0.251
-598.055	-144.998	-0.122	0.011
-597.040	-65.881	-0.226	0.091
-596.025	323.819	0.076	0.147
-595.011	-200.000	0.001	-0.224
-593.996	-119.182	-0.139	-0.025
-592.982	-200.000	-0.020	-0.240
-591.967	53.391	0.332	0.321
-590.952	-140.634	-0.227	-0.024
-589.938	32.613	-0.178	0.156
-588.923	36.459	0.116	0.103
-587.909	-123.571	0.187	0.030
-586.894	-200.000	0.005	0.219
-585.879	-200.000	0.001	-0.126
-584.865	800.000	-0.063	0.182
-583.850	-200.000	-0.010	0.052
-582.836	-46.681	-0.128	-0.063
-581.821	129.625	-0.164	-0.212
-580.806	-169.004	0.309	-0.012
-579.792	-176.910	-0.277	0.007
-578.777	800.000	-0.063	0.227
-577.763	-113.701	-0.377	0.074
-576.748	45.991	0.093	-0.087
-575.733	-125.188	-0.055	0.009
-574.719	-38.190	-0.227	-0.121
-573.704	85.504	0.050	0.055
-572.690	-185.552	-0.063	0.001
-571.675	99.776	0.197	-0.230
-570.661	-146.124	-0.179	0.016
-569.646	77.997	0.142	-0.153
-568.631	-200.000	0.021	0.117
-567.617	-31.390	0.221	0.125
-566.602	96.073	0.266	0.307
-565.588	330.638	0.024	-0.047
-564.573	-153.939	0.059	-0.004
-563.558	169.487	0.175	-0.252
-562.544	11.633	-0.198	-0.153
-561.529	-200.000	-0.023	-0.248
-560.515	-99.068	-0.219	0.056
-559.500	-200.000	-0.006	-0.130
-558.485	126.770	-0.100	0.128
-557.471	-54.821	-0.347	-0.158
-556.456	-84.581	0.070	-0.022
-555.442	-170.062	0.345	-0.012
-554.427	-12.379	0.138	0.091
-553.412	-93.800	-0.274	0.076
-552.398	-49.657	0.195	-0.093
-551.383	37.295	-0.198	0.177
-550.369	800.000	-0.096	0.350
-549.354	-200.000	0.034	0.279
-548.339	24.469	-0.062	-0.052
-547.325	-56.609	-0.070	0.031
-546.310	53.757	0.161	0.155
-545.296	124.062	-0.108	-0.137
-544.281	-0.556	0.331	0.237
-543.266	-200.000	-0.092	0.459
-542.252	-200.000	0.051	-0.228
-541.237	-145.503	0.230	-0.021
-540.223	218.950	0.139	-0.225
-539.208	656.347	0.066	-0.172
-538.193	-65.298	0.108	0.044
-537.179	-61.010	0.296	0.126
-536.164	795.309	0.034	-0.095
-535.150	-200.000	-0.024	0.378
-534.135	-9.168	0.072	-0.049
-533.121	-64.620	0.272	-0.111
-532.106	163.440	-0.095	-0.135
-531.091	-110.858	-0.277	0.058
-530.077	628.395	-0.024	-0.061
-529.062	117.544	-0.241	-0.299
-528.048	725.938	-0.030	0.080
-527.033	800.000	-0.048	0.144
-526.018	-28.221	0.147	0.086
-525.004	800.000	0.040	0.153
-523.989	-65.735	-0.438	-0.177
-522.975	358.245	-0.105	0.211
-521.960	-158.820	0.313	0.018
-520.945	-87.476	-0.335	-0.102
-519.931	-88.381	-0.226	-0.068
-518.916	-200.000	-0.007	0.032
-517.902	106.852	-0.146	-0.175
-516.887	194.166	0.123	0.188
-515.872	-134.359	0.190	0.024
-514.858	191.373	-0.123	0.187
-513.843	-60.810	-0.129	-0.055
-512.829	255.333	0.090	0.155
-511.814	-200.000	0.039	-0.308
-510.799	-69.829	-0.393	0.151
-509.785	-123.285	-0.237	0.038
-508.770	-77.118	-0.071	-0.025
-507.756	-133.017	-0.280	0.036
-506.741	-152.226	0.101	0.007
-505.726	-9.124	0.223	-0.150
-504.712	-200.000	0.072	-0.515
-503.697	-200.000	0.141	0.000
-502.683	72.331	-0.190	-0.199
-501.668	-200.000	-0.041	0.306
-500.653	111.798	0.231	-0.281
-499.639	10.346	-0.189	-0.145
-498.624	-62.839	-0.052	-0.022
-497.610	800.000	0.040	0.160
-496.595	800.000	-0.062	0.200
-495.581	7.977	-0.236	-0.178
-494.566	67.284	0.069	0.071
-493.551	-117.036	-0.087	-0.016
-492.537	-11.415	-0.179	-0.119
-491.522	0.093	0.167	0.120
-490.508	420.581	-0.120	0.259
-489.493	392.961	0.056	0.117
-488.478	-60.783	-0.151	0.064
-487.464	800.000	0.008	0.035
-486.449	-3.505	-0.041	-0.029
-485.435	354.542	0.038	-0.076
-484.420	268.082	0.079	-0.139
-483.405	-39.377	-0.244	-0.129
-482.391	-152.563	0.263	-0.019
-481.376	-47.453	0.315	0.154
-480.362	5.440	0.141	-0.105
-479.347	-200.000	0.033	0.239
-478.332	-55.218	-0.102	-0.046
-477.318	194.164	-0.079	-0.121
-476.303	-200.000	0.022	0.119
-475.289	-200.000	0.404	-0.001
-474.274	-200.000	-0.005	-0.219
-473.259	120.238	-0.270	-0.337
-472.245	-56.174	-0.100	-0.045
-471.230	-3.107	0.329	0.231
-470.216	-11.200	-0.382	-0.253
-469.201	800.000	0.105	-0.426
-468.186	275.032	0.230	0.410
-467.172	-200.000	0.004	-0.038
-466.157	-92.400	0.113	0.032
-465.143	-76.919	-0.475	0.167
-464.128	-84.643	-0.415	0.132
-463.113	162.266	0.050	0.070
-462.099	-6.424	0.280	0.192
-461.084	-200.000	0.028	-0.251
-460.070	127.630	-0.075	0.096
-459.055	800.000	-0.048	0.206
-458.040	-25.840	0.282	0.167
-457.026	-36.815	-0.088	0.048
-456.011	-89.813	-0.188	0.055
-454.997	633.573	0.074	-0.188
-453.982	-44.697	-0.257	0.129
-452.968	436.964	0.097	0.213
-451.953	-200.000	0.012	0.088
-450.938	-200.000	-0.012	-0.102
-449.924	28.277	-0.214	0.181
-448.909	-121.979	0.313	0.052
-447.895	-59.518	0.129	-0.056
-446.880	-97.106	-0.167	0.044
-445.865	-200.000	-0.006	0.060
-444.851	16.561	-0.141	0.112
-443.836	63.523	-0.182	-0.183
-442.822	800.000	-0.093	0.277
-441.807	-200.000	0.000	-0.149
-440.792	-200.000	-0.030	0.145
-439.778	800.000	-0.079	-0.256
-438.763	-87.954	-0.194	-0.059
-437.749	800.000	0.088	-0.333
-436.734	-75.446	-0.317	-0.113
-435.719	-31.558	0.143	-0.081
-434.705	-28.570	0.118	-0.068
-433.690	128.389	0.240	-0.307
-432.676	36.802	0.183	0.163
-431.661	-22.678	0.306	-0.186
-430.646	468.921	-0.047	0.106
-429.632	-23.776	-0.138	0.083
-428.617	-29.231	-0.192	0.110
-427.603	-63.647	-0.182	0.075
-426.588	9.087	0.155	-0.118
-425.573	-103.738	-0.020	-0.005
-424.559	-169.670	0.243	0.009
-423.544	-103.247	-0.106	0.025
-422.530	-47.098	0.133	0.065
-421.515	-68.046	-0.073	-0.029
-420.500	-117.403	0.249	-0.045
-419.486	-41.800	0.116	0.060
-418.471	64.835	0.054	-0.055
-417.457	800.000	0.036	-0.119
-416.442	800.000	0.004	-0.013
-415.428	-33.301	0.125	-0.070
-414.413	105.143	0.067	0.079
-413.398	-10.302	-0.094	-0.062
-412.384	378.629	-0.116	-0.237
-411.369	688.201	-0.127	-0.334
-410.355	191.223	-0.235	-0.354
-409.340	325.226	0.243	0.466
-408.325	-111.385	-0.205	-0.042
-407.311	137.893	-0.127	-0.167
-406.296	-200.000	-0.012	0.111
-405.282	-90.888	0.148	0.043
-404.267	48.235	0.272	0.255
-403.252	-200.000	-0.019	-0.188
-402.238	-200.000	0.010	0.223
-401.223	-5.653	0.049	-0.034
-400.209	121.639	-0.081	-0.101
-399.194	133.435	-0.226	0.293
-398.179	-84.638	0.132	-0.042
-397.165	-34.090	0.296	0.163
-396.150	-18.375	0.075	-0.047
-395.136	-61.575	0.283	0.119
-394.121	-200.000	0.023	-0.164
-393.106	-63.682	0.085	-0.035
-392.092	-93.786	0.251	-0.069
-391.077	-61.146	-0.385	-0.163
-390.063	-117.446	0.106	-0.019
-389.048	800.000	-0.034	0.112
-388.033	800.000	0.025	0.072
-387.019	-200.000	0.087	0.465
-386.004	-200.000	-0.007	-0.077
-384.990	257.920	0.131	-0.226
-383.975	287.137	0.091	-0.165
-382.960	-123.177	-0.050	-0.008
-381.946	-200.000	-0.015	-0.083
-380.931	274.090	-0.040	-0.071
-379.917	-81.030	0.132	-0.044
-378.902	-5.801	0.129	0.088
-377.888	-159.314	0.171	0.010
-376.873	45.878	0.165	0.153
-375.858	-138.098	-0.138	-0.015
-374.844	-56.046	0.241	-0.108
-373.829	-63.095	-0.251	0.104
-372.815	13.049	0.311	0.241
-371.800	-28.673	0.154	0.089
-370.785	-61.379	-0.116	-0.049
-369.771	306.989	0.063	-0.118
-368.756	-127.376	-0.459	0.067
-367.742	-200.000	0.007	-0.473
-366.727	-35.301	0.219	0.119
-365.712	-200.000	0.063	-0.411
-364.698	-187.359	-0.337	0.005
-363.683	-145.623	0.110	0.010
-362.669	206.516	0.052	0.081
-361.654	57.534	-0.174	0.170
-360.639	-200.000	0.016	-0.116
-359.625	268.640	-0.093	0.164
-358.610	364.348	-0.164	0.329
-357.596	18.684	0.097	-0.078
-356.581	-62.317	-0.141	-0.059
-355.566	-6.350	0.236	-0.161
-354.552	-200.000	-0.070	-0.426
-353.537	-200.000	-0.009	0.120
-352.523	130.035	-0.089	0.114
-351.508	359.795	-0.081	-0.163
-350.493	188.729	0.173	-0.259
-349.479	-200.000	0.001	-0.286
-348.464	2.941	-0.406	-0.295
-347.450	-200.000	-0.054	0.247
-346.435	-129.142	-0.152	0.021
-345.420	75.745	0.347	-0.367
-344.406	628.963	-0.089	0.225
-343.391	-6.181	-0.182	-0.124
-342.377	800.000	0.105	-0.314
-341.362	187.310	-0.226	-0.337
-340.348	-200.000	0.041	-0.198
-339.333	15.149	-0.190	-0.149
-338.318	-87.864	0.084	-0.025
-337.304	-146.068	-0.093	0.008
-336.289	129.369	-0.133	-0.170
-335.275	-3.149	-0.108	0.075
-334.260	-200.000	-0.035	0.164
-333.245	-15.191	-0.323	0.206
-332.231	8.524	0.260	-0.195
-331.216	16.743	0.192	-0.152
-330.202	316.867	-0.098	-0.185
-329.187	-122.069	0.185	-0.030
-328.172	129.820	0.119	-0.153
-327.158	547.859	0.034	-0.082
-326.143	109.900	-0.085	0.102
-325.129	69.505	0.049	0.051
-324.114	-107.737	0.176	-0.038
-323.099	559.712	0.052	0.125
-322.085	527.255	-0.102	0.240
-321.070	52.817	-0.253	-0.242
-320.056	22.456	0.038	0.031
-319.041	116.391	-0.134	-0.164
-318.026	800.000	-0.027	0.108
-317.012	-53.249	-0.116	0.053
-315.997	-98.116	-0.171	0.044
-314.983	-65.012	0.192	0.078
-313.968	117.417	0.114	-0.140
-312.953	-200.000	0.038	-0.333
-311.939	-200.000	-0.000	-0.254
-310.924	-119.685	-0.314	0.054
-309.910	-56.335	0.286	-0.127
-308.895	740.594	0.033	-0.088
-307.880	-179.658	0.187	-0.004
-306.866	506.065	-0.095	0.220
-305.851	57.115	-0.064	0.062
-304.837	-41.420	-0.328	0.169
-303.822	-200.000	0.020	0.403
-302.807	77.358	0.168	-0.179
-301.793	-108.637	-0.153	-0.033
-300.778	71.878	-0.155	0.161
-299.764	-162.346	-0.327	-0.016
-298.749	-200.000	-0.008	-0.096
-297.735	-200.000	0.006	0.030
-296.720	-106.766	-0.237	0.053
-295.705	-114.413	0.101	0.019
-294.691	-200.000	0.017	-0.193
-293.676	-21.985	0.010	0.006
-292.662	-115.493	0.199	0.037
-291.647	161.767	0.039	-0.055
-290.632	-65.493	-0.134	0.054
-289.618	-26.844	0.258	-0.151
-288.603	43.784	0.193	0.177
-287.589	-114.454	-0.325	0.062
-286.574	-37.212	0.079	-0.042
-285.559	102.656	0.270	-0.315
-284.545	9.520	-0.113	0.085
-283.530	-8.529	-0.099	-0.067
-282.516	-162.228	0.112	0.006
-281.501	-157.822	-0.275	0.016
-280.486	469.337	-0.088	-0.197
-279.472	-170.570	0.028	0.001
-278.457	800.000	0.013	0.053
-277.443	-200.000	-0.055	0.324
-276.428	254.289	0.032	0.054
-275.413	-157.465	-0.097	-0.006
-274.399	800.000	0.039	0.115
-273.384	-200.000	-0.004	0.331
-272.370	14.407	0.099	0.077
-271.355	-145.844	0.200	-0.018
-270.340	243.166	-0.033	-0.056
-269.326	800.000	0.103	-0.331
-268.311	331.798	-0.127	-0.245
-267.297	31.113	0.196	0.167
-266.282	-56.750	-0.373	0.165
-265.267	-200.000	-0.009	0.109
-264.253	3.494	0.182	0.132
-263.238	-31.077	0.054	-0.030
-262.224	-81.181	0.181	0.060
-261.209	-64.933	-0.177	-0.071
-260.195	-200.000	0.000	-0.122
-259.180	-113.902	0.063	-0.012
-258.165	33.282	-0.075	-0.064
-257.151	-90.280	0.156	0.045
-256.136	95.700	0.028	0.032
-255.122	-200.000	0.005	0.487
-254.107	89.901	-0.098	-0.110
-253.092	-48.803	0.314	0.150
-252.078	-85.563	-0.148	0.046
-251.063	-95.114	0.040	0.011
-250.049	140.751	0.290	0.382
-249.034	276.259	-0.113	0.200
-248.019	123.553	-0.128	0.160
-247.005	60.983	0.282	-0.279
-245.990	190.583	0.108	0.161
-244.976	175.706	-0.118	0.171
-243.961	-99.108	-0.271	-0.068
-242.946	-123.842	-0.279	-0.044
-241.932	471.665	-0.077	0.172
-240.917	-200.000	-0.005	-0.179
-239.903	159.078	0.107	0.148
-238.888	555.891	-0.023	0.055
-237.873	25.513	0.096	0.080
-236.859	-116.734	-0.355	0.065
-235.844	-2.090	-0.360	0.252
-234.830	131.094	-0.122	-0.156
-233.815	-96.308	0.111	0.029
-232.800	-78.319	-0.315	0.108
-231.786	-9.627	0.216	0.143
-230.771	-200.000	0.011	0.071
-229.757	88.169	0.280	0.310
-228.742	94.186	0.168	-0.189
-227.727	800.000	-0.079	0.233
-226.713	-34.929	-0.036	-0.019
-225.698	-153.347	-0.313	-0.022
-224.684	58.194	0.171	-0.167
-223.669	202.108	-0.157	0.241
-222.655	-19.125	-0.120	0.074
-221.640	206.549	0.155	-0.240
-220.625	-191.959	0.190	-0.002
-219.611	237.504	-0.141	-0.233
-218.596	69.565	0.124	-0.127
-217.582	-30.253	0.162	0.092
-216.567	-135.556	0.077	-0.009
-215.552	-7.769	-0.166	-0.112
-214.538	211.999	-0.154	-0.241
-213.523	-200.000	-0.012	-0.310
-212.509	-78.924	-0.093	-0.032
-211.494	-88.621	0.286	-0.085
-210.479	6.167	-0.073	0.054
-209.465	-200.000	-0.007	-0.070
-208.450	202.895	0.144	-0.222
-207.436	31.727	-0.201	-0.172
-206.421	-62.380	-0.196	-0.081
-205.406	27.495	-0.179	0.150
-204.392	-47.377	-0.200	-0.097
-203.377	571.894	-0.072	-0.173
-202.363	222.786	-0.014	0.023
-201.348	28.771	0.112	-0.094
-200.333	-200.000	0.020	0.134
-199.319	544.191	0.029	-0.069
-198.304	-127.086	0.130	-0.019
-197.290	66.510	0.353	-0.357
-196.275	-14.887	0.177	-0.113
-195.260	73.619	-0.189	-0.197
-194.246	-174.602	0.080	-0.002
-193.231	800.000	0.085	-0.249
-192.217	-200.000	-0.040	-0.200
-191.202	-200.000	0.004	0.018
-190.187	-23.038	0.216	-0.129
-189.173	177.775	-0.151	0.219
-188.158	171.082	-0.134	0.191
-187.144	772.329	0.072	0.194
-186.129	-118.293	0.077	0.014
-185.114	-200.000	-0.053	0.496
-184.100	-79.996	-0.181	-0.060
-183.085	-15.682	-0.376	-0.239
-182.071	214.161	0.082	0.130
-181.056	48.104	0.276	0.256
-180.042	43.885	0.217	0.197
-179.027	212.373	0.077	0.120
-178.012	-11.731	-0.212	-0.138
-176.998	-95.411	0.297	-0.079
-175.983	800.000	-0.025	0.087
-174.969	329.075	0.106	0.202
-173.954	-130.366	0.275	-0.037
-172.939	502.164	-0.113	-0.260
-171.925	800.000	-0.028	-0.092
-170.910	-91.294	-0.100	0.029
-169.896	584.319	-0.139	0.340
-168.881	72.395	0.057	-0.059
-167.866	14.258	-0.211	-0.164
-166.852	-111.487	-0.089	0.018
-165.837	-49.225	0.069	-0.033
-164.823	227.493	-0.127	0.205
-163.808	-200.000	-0.008	0.182
-162.793	-137.414	-0.398	-0.045
-161.779	61.647	0.259	-0.256
-160.764	-195.069	-0.325	0.002
-159.750	13.350	0.185	-0.142
-158.735	-6.124	0.094	-0.064
-157.720	-35.312	0.181	0.098
-156.706	-200.000	-0.037	0.223
-155.691	-200.000	0.010	0.142
-154.677	277.579	-0.034	0.061
-153.662	-99.965	0.117	0.029
-152.647	-82.131	0.352	-0.114
-151.633	-2.396	-0.176	0.123
-150.618	-96.085	0.100	0.026
-149.604	13.799	0.228	0.176
-148.589	92.593	-0.293	0.328
-147.574	-71.915	0.243	0.090
-146.560	429.809	0.143	0.307
-145.545	5.638	0.305	-0.224
-144.531	-134.481	0.122	0.015
-143.516	-68.953	-0.205	-0.079
-142.502	-117.436	0.196	-0.035
-141.487	-15.104	0.133	0.085
-140.472	126.597	-0.181	-0.228
-139.458	87.805	0.411	-0.452
-138.443	-25.519	-0.247	0.145
-137.429	201.913	0.066	0.100
-136.414	-57.226	-0.092	0.040
-135.399	-200.000	0.012	0.189
-134.385	16.154	-0.103	-0.080
-133.370	-200.000	0.028	-0.129
-132.356	-41.411	-0.205	0.105
-131.341	-15.440	-0.116	-0.074
-130.326	-87.856	0.183	-0.055
-129.312	149.305	0.149	0.201
-128.297	-169.010	-0.323	0.012
-127.283	-114.374	-0.290	-0.055
-126.268	-47.855	-0.152	-0.073
-125.253	26.585	-0.109	-0.090
-124.239	4.888	-0.179	0.131
-123.224	800.000	-0.035	0.104
-122.210	-56.477	0.049	0.022
-121.195	3.253	0.345	-0.249
-120.180	54.110	0.172	-0.164
