DTS Sentinel unit serial number:	SN413079Multiplexer serial number:	ORYXHardware model number:	OX4-SRSoftware version number:	ORYX F/W v4.00 Oryx Data Collector v3.7.2.0data status	okinstallation	princeton_trtdifferential loss correction	single-endedforward channel	channel 2reverse channel	N/Adate	2019/09/14time	19:55:35forward acquisition time	60.00reverse acquisition time	0.00gamma	496.2192k internal	0.2320k external	0.2320temperature offset calibration	1.0095default loss term (dB/km)	0.3790temperature slope calibration	1.0000multiplexer offset coefficient	1.0000multiplexer slope coefficient	1.0000fibre end	0.00T internal ref (°C)	34.17T ext. ref 1 (°C)	4.87T ext. ref 2 (°C)	28.44length (m)	temperature (°C)	Stokes	anti-Stokes-747.200	800.000	0.068	-0.237
-746.185	-86.424	-0.116	0.036
-745.171	-56.533	0.188	0.084
-744.156	800.000	0.032	0.120
-743.142	-200.000	0.009	-0.338
-742.127	-200.000	-0.054	-0.404
-741.112	69.866	0.149	-0.156
-740.098	-96.175	-0.260	0.070
-739.083	224.634	0.153	0.251
-738.069	800.000	0.075	0.260
-737.054	-20.749	-0.185	0.114
-736.039	-200.000	-0.002	0.085
-735.025	-153.775	0.265	0.018
-734.010	19.969	-0.156	0.127
-732.996	148.043	-0.060	0.082
-731.981	138.938	-0.197	-0.262
-730.966	-52.368	-0.167	0.078
-729.952	-115.024	-0.565	0.109
-728.937	-96.453	-0.167	-0.045
-727.923	-106.404	-0.398	-0.090
-726.908	800.000	-0.049	-0.146
-725.894	545.688	-0.067	0.162
-724.879	-132.535	-0.296	0.038
-723.864	652.213	-0.163	0.423
-722.850	124.541	-0.066	0.084
-721.835	-125.270	-0.331	-0.051
-720.821	560.483	-0.065	0.159
-719.806	-94.610	0.089	-0.024
-718.791	-15.005	-0.055	0.035
-717.777	-200.000	-0.031	0.350
-716.762	561.822	-0.083	0.203
-715.748	77.748	-0.197	0.212
-714.733	32.054	-0.193	-0.168
-713.718	-34.882	0.190	-0.105
-712.704	-136.664	-0.366	0.043
-711.689	-53.398	0.360	0.166
-710.675	126.887	-0.025	0.033
-709.660	-200.000	-0.010	0.326
-708.645	4.268	-0.200	-0.148
-707.631	-26.665	-0.165	-0.097
-706.616	-18.537	-0.056	-0.035
-705.602	111.227	0.126	-0.154
-704.587	544.791	-0.043	-0.104
-703.572	-64.787	-0.262	0.107
-702.558	210.140	-0.048	-0.076
-701.543	-78.757	0.385	0.133
-700.529	-200.000	0.015	-0.232
-699.514	20.119	-0.104	-0.085
-698.499	800.000	0.041	0.136
-697.485	414.695	0.050	0.107
-696.470	55.017	0.101	-0.098
-695.456	48.470	0.040	-0.038
-694.441	-144.885	0.412	-0.038
-693.426	-61.921	-0.197	-0.083
-692.412	-27.148	-0.140	0.083
-691.397	-21.763	0.122	-0.075
-690.383	-129.730	-0.505	-0.070
-689.368	-58.829	0.118	-0.051
-688.354	-43.504	0.228	0.116
-687.339	451.423	-0.069	0.155
-686.324	434.317	0.093	0.205
-685.310	-37.703	-0.265	-0.142
-684.295	-149.411	-0.293	-0.024
-683.281	-134.710	0.219	0.027
-682.266	-80.660	-0.160	0.054
-681.251	-138.374	0.227	-0.025
-680.237	58.995	-0.156	-0.155
-679.222	-200.000	-0.025	-0.232
-678.208	353.319	-0.108	-0.216
-677.193	288.242	-0.132	-0.242
-676.178	-200.000	0.000	0.063
-675.164	188.861	0.222	0.335
-674.149	-200.000	-0.004	-0.064
-673.135	-200.000	0.032	-0.274
-672.120	-71.558	-0.339	-0.128
-671.105	598.650	0.158	0.394
-670.091	725.309	0.118	0.317
-669.076	93.139	0.190	-0.217
-668.062	146.761	0.120	-0.162
-667.047	33.907	-0.284	0.249
-666.032	71.769	0.099	-0.104
-665.018	-42.509	0.232	0.119
-664.003	-144.668	0.391	-0.036
-662.989	333.548	-0.088	0.171
-661.974	81.128	0.074	-0.080
-660.959	-112.899	0.440	-0.088
-659.945	-42.852	0.119	-0.061
-658.930	-200.000	0.046	-0.242
-657.916	16.726	-0.232	-0.185
-656.901	-66.277	0.309	-0.124
-655.886	488.876	-0.069	-0.160
-654.872	-200.000	-0.031	-0.175
-653.857	-200.000	0.010	0.058
-652.843	800.000	-0.051	0.208
-651.828	-53.688	-0.379	0.174
-650.814	-86.722	0.328	-0.101
-649.799	-69.313	0.069	0.027
-648.784	-106.897	-0.070	0.016
-647.770	-59.323	0.152	-0.066
-646.755	-68.854	0.422	0.164
-645.741	349.695	-0.066	0.132
-644.726	-200.000	-0.019	-0.161
-643.711	-57.255	0.238	0.105
-642.697	-108.863	-0.228	-0.049
-641.682	277.770	-0.176	-0.315
-640.668	25.687	-0.218	-0.182
-639.653	800.000	-0.020	-0.083
-638.638	14.700	0.270	0.213
-637.624	-77.793	-0.174	0.061
-636.609	-92.905	-0.048	0.014
-635.595	109.733	0.097	-0.117
-634.580	7.849	-0.165	-0.125
-633.565	125.675	0.099	-0.125
-632.551	174.038	0.133	-0.194
-631.536	-114.460	0.384	0.074
-630.522	89.727	0.157	-0.177
-629.507	283.667	-0.048	-0.087
-628.492	138.163	0.259	0.342
-627.478	-200.000	0.187	-0.001
-626.463	-200.000	-0.052	-0.600
-625.449	-200.000	0.006	-0.060
-624.434	57.009	-0.300	0.294
-623.419	800.000	0.025	0.080
-622.405	-107.942	-0.209	-0.046
-621.390	-35.204	-0.336	0.184
-620.376	428.068	0.087	0.189
-619.361	220.444	-0.167	-0.270
-618.346	-200.000	0.031	-0.236
-617.332	-39.821	0.058	0.030
-616.317	252.612	-0.149	0.255
-615.303	-83.180	0.108	-0.035
-614.288	-130.113	-0.257	0.035
-613.273	489.452	-0.046	-0.106
-612.259	-199.591	0.068	-0.000
-611.244	317.307	-0.130	-0.248
-610.230	-200.000	0.065	-0.389
-609.215	-148.345	-0.398	-0.033
-608.201	-113.485	-0.214	0.042
-607.186	94.611	-0.035	0.040
-606.171	346.261	0.079	0.157
-605.157	-143.895	-0.170	-0.016
-604.142	62.732	-0.197	-0.199
-603.128	-15.723	-0.109	-0.070
-602.113	-200.000	0.027	-0.245
-601.098	782.424	0.060	0.167
-600.084	780.781	-0.052	0.143
-599.069	37.320	-0.125	0.112
-598.055	-54.472	-0.160	-0.073
-597.040	360.761	-0.109	-0.219
-596.025	2.295	-0.208	0.152
-595.011	133.967	0.280	-0.364
-593.996	-130.836	0.188	-0.025
-592.982	-90.148	0.355	-0.104
-591.967	-60.026	-0.154	0.066
-590.952	370.675	-0.051	-0.105
-589.938	666.029	0.168	-0.437
-588.923	800.000	-0.047	0.160
-587.909	9.289	0.085	-0.065
-586.894	114.229	-0.267	-0.326
-585.879	-30.488	-0.106	-0.061
-584.865	31.630	0.155	0.134
-583.850	549.388	0.134	-0.323
-582.836	218.260	-0.200	0.320
-581.821	-17.600	0.071	-0.045
-580.806	-61.434	0.128	-0.054
-579.792	39.395	0.075	0.068
-578.777	53.348	-0.116	0.112
-577.763	-200.000	0.003	-0.125
-576.748	130.384	-0.100	0.129
-575.733	-200.000	-0.009	-0.170
-574.719	-22.117	-0.269	-0.164
-573.704	-13.751	0.102	0.066
-572.690	-159.493	0.254	0.014
-571.675	104.845	0.153	-0.181
-570.661	716.793	-0.113	0.302
-569.646	116.701	-0.177	-0.218
-568.631	108.189	0.125	-0.150
-567.617	-168.181	-0.143	0.006
-566.602	-200.000	-0.010	-0.229
-565.588	667.307	-0.058	0.151
-564.573	-147.055	0.224	0.019
-563.558	221.153	0.103	-0.166
-562.544	-10.087	-0.090	-0.060
-561.529	-6.264	0.134	0.092
-560.515	44.886	0.307	0.283
-559.500	-13.988	-0.299	0.194
-558.485	254.549	0.139	-0.239
-557.471	-36.159	-0.188	0.102
-556.456	-84.304	0.364	-0.116
-555.442	-115.659	-0.378	0.071
-554.427	-175.723	0.301	0.008
-553.412	565.204	-0.019	0.045
-552.398	-27.551	-0.120	0.070
-551.383	-200.000	0.053	-0.438
-550.369	-112.247	0.207	0.042
-549.354	-200.000	-0.017	0.094
-548.339	-93.840	-0.472	-0.130
-547.325	733.609	0.099	0.265
-546.310	-45.547	-0.453	-0.225
-545.296	78.063	0.062	-0.066
-544.281	800.000	-0.051	0.144
-543.266	155.969	-0.083	0.115
-542.252	-130.207	-0.008	-0.001
-541.237	800.000	-0.065	-0.195
-540.223	-69.587	-0.148	-0.057
-539.208	-137.222	-0.161	-0.018
-538.193	648.512	0.087	0.223
-537.179	62.141	0.120	0.120
-536.164	495.178	-0.108	-0.249
-535.150	22.805	-0.206	0.169
-534.135	88.343	-0.232	-0.259
-533.121	-200.000	-0.009	-0.322
-532.106	665.832	-0.137	-0.355
-531.091	-12.791	-0.217	-0.141
-530.077	-200.000	0.020	-0.106
-529.062	155.384	0.135	0.187
-528.048	-54.654	-0.233	0.106
-527.033	-94.830	-0.241	0.066
-526.018	172.536	-0.076	-0.109
-525.004	69.416	0.178	-0.183
-523.989	-84.621	0.178	-0.056
-522.975	-200.000	0.003	0.042
-521.960	-76.396	-0.111	-0.039
-520.945	-200.000	0.051	-0.300
-519.931	114.309	-0.152	-0.186
-518.916	-87.886	0.218	-0.066
-517.902	22.442	-0.310	0.254
-516.887	-43.135	0.143	0.073
-515.872	5.223	0.179	-0.132
-514.858	800.000	-0.110	-0.357
-513.843	-59.909	-0.288	0.123
-512.829	23.253	-0.166	0.136
-511.814	-27.496	-0.186	-0.109
-510.799	-117.638	0.268	-0.048
-509.785	-122.719	-0.184	0.030
-508.770	-200.000	-0.028	0.145
-507.756	52.614	0.207	-0.198
-506.741	-18.580	-0.408	-0.255
-505.726	-200.000	0.033	0.161
-504.712	147.633	-0.224	-0.302
-503.697	2.326	-0.217	-0.157
-502.683	-166.725	0.295	-0.012
-501.668	800.000	0.037	-0.129
-500.653	186.964	-0.183	0.273
-499.639	49.984	-0.186	0.176
-498.624	192.312	0.077	0.117
-497.610	800.000	0.068	-0.223
-496.595	-19.133	0.141	-0.088
-495.581	445.122	0.123	-0.270
-494.566	69.801	0.079	-0.081
-493.551	-65.765	0.215	0.086
-492.537	36.643	-0.203	-0.180
-491.522	-167.401	0.217	0.009
-490.508	-7.834	0.163	0.110
-489.493	-20.737	0.084	0.051
-488.478	800.000	0.084	0.272
-487.464	40.750	0.154	0.139
-486.449	-90.202	0.391	-0.114
-485.435	-174.909	0.432	0.012
-484.420	-58.655	-0.096	0.042
-483.405	62.263	-0.405	0.405
-482.391	-31.182	-0.120	-0.068
-481.376	-200.000	-0.019	-0.319
-480.362	17.434	0.206	0.164
-479.347	116.439	0.180	0.221
-478.332	-116.269	0.105	0.019
-477.318	-200.000	0.014	-0.246
-476.303	-52.440	-0.236	-0.109
-475.289	-200.000	0.020	0.256
-474.274	526.602	-0.175	-0.412
-473.259	570.367	0.046	0.111
-472.245	-51.106	0.320	0.150
-471.230	194.456	0.089	0.135
-470.216	-32.573	0.073	-0.041
-469.201	-200.000	0.013	-0.112
-468.186	610.491	-0.035	-0.087
-467.172	-86.177	-0.290	-0.089
-466.157	800.000	-0.034	0.145
-465.143	-200.000	0.053	0.294
-464.128	-100.031	-0.134	-0.033
-463.113	-169.332	-0.256	-0.009
-462.099	800.000	-0.004	-0.014
-461.084	173.278	0.088	0.127
-460.070	122.588	0.036	-0.045
-459.055	-152.332	0.067	-0.005
-458.040	-70.950	-0.188	0.071
-457.026	390.674	0.029	-0.060
-456.011	-85.352	0.109	-0.034
-454.997	62.226	-0.145	-0.145
-453.982	-39.316	-0.099	-0.052
-452.968	-29.304	0.243	-0.139
-451.953	-23.763	-0.063	0.038
-450.938	446.506	-0.109	-0.239
-449.924	408.573	0.179	0.380
-448.909	-96.237	-0.069	0.018
-447.895	-84.642	0.380	0.120
-446.880	-200.000	0.001	0.382
-445.865	84.434	0.273	-0.298
-444.851	-32.229	-0.203	0.114
-443.836	-200.000	0.017	0.384
-442.822	-112.640	0.188	-0.037
-441.807	93.898	0.211	-0.239
-440.792	33.771	-0.025	-0.022
-439.778	21.619	0.198	0.161
-438.763	456.095	-0.055	0.122
-437.749	-67.605	-0.224	0.088
-436.734	6.654	0.176	-0.131
-435.719	-200.000	0.012	0.148
-434.705	704.614	0.056	-0.149
-433.690	-200.000	0.049	-0.400
-432.676	137.548	-0.093	-0.122
-431.661	12.673	0.131	0.101
-430.646	-117.423	-0.406	-0.073
-429.632	-90.297	-0.107	-0.031
-428.617	-34.704	-0.167	0.091
-427.603	-78.324	-0.055	-0.019
-426.588	-200.000	-0.009	0.195
-425.573	285.297	0.055	0.100
-424.559	33.607	-0.118	-0.103
-423.544	-135.638	-0.237	-0.028
-422.530	-150.408	0.169	-0.013
-421.515	-31.647	-0.344	0.193
-420.500	-50.738	0.449	-0.211
-419.486	250.129	0.190	0.321
-418.471	-38.062	-0.211	-0.112
-417.457	254.381	0.094	0.160
-416.442	0.291	0.143	0.102
-415.428	222.518	-0.028	0.044
-414.413	-155.787	-0.310	-0.020
-413.398	304.574	-0.140	0.260
-412.384	218.924	-0.134	0.214
-411.369	-15.818	-0.238	-0.152
-410.355	-113.247	0.270	0.053
-409.340	-140.121	-0.264	-0.028
-408.325	-51.181	-0.195	-0.091
-407.311	109.804	0.140	-0.167
-406.296	210.033	-0.177	-0.277
-405.282	-152.287	0.258	-0.019
-404.267	287.440	0.108	0.196
-403.252	-163.720	0.075	0.004
-402.238	-200.000	0.009	-0.042
-401.223	-109.933	0.419	0.088
-400.209	800.000	0.037	0.129
-399.194	-75.132	0.299	-0.107
-398.179	282.938	-0.108	0.193
-397.165	-200.000	-0.027	0.396
-396.150	-200.000	0.021	0.266
-395.136	-159.557	-0.272	-0.015
-394.121	92.297	0.169	0.190
-393.106	-47.965	0.205	-0.099
-392.092	-119.384	0.154	-0.027
-391.077	800.000	0.102	0.369
-390.063	-155.165	-0.090	-0.006
-389.048	323.535	-0.049	0.092
-388.033	800.000	-0.070	0.231
-387.019	-16.261	-0.176	-0.112
-386.004	519.144	0.056	0.130
-384.990	-45.347	0.365	0.180
-383.975	-53.687	-0.296	-0.135
-382.960	-200.000	-0.010	-0.152
-381.946	38.388	-0.289	-0.257
-380.931	-200.000	0.018	0.248
-379.917	136.284	-0.139	0.180
-378.902	-200.000	0.026	0.192
-377.888	-179.023	0.309	0.007
-376.873	-200.000	-0.002	-0.078
-375.858	241.601	-0.008	-0.013
-374.844	800.000	0.027	0.077
-373.829	-135.886	0.259	0.030
-372.815	-200.000	0.031	0.307
-371.800	125.708	0.235	-0.296
-370.785	65.390	0.094	-0.094
-369.771	-44.450	-0.220	-0.110
-368.756	-200.000	-0.036	0.260
-367.742	85.891	-0.086	-0.094
-366.727	-200.000	0.004	-0.190
-365.712	-59.889	-0.062	0.026
-364.698	146.660	-0.158	-0.211
-363.683	800.000	-0.026	0.081
-362.669	88.100	-0.157	0.173
-361.654	153.835	0.100	0.136
-360.639	344.621	0.049	0.095
-359.625	162.484	0.083	-0.115
-358.610	-200.000	0.005	-0.057
-357.596	-200.000	-0.016	-0.150
-356.581	-39.059	0.045	-0.024
-355.566	800.000	0.030	0.114
-354.552	111.653	-0.161	0.194
-353.537	-200.000	0.088	0.450
-352.523	290.523	-0.077	-0.140
-351.508	373.463	0.167	-0.339
-350.493	-42.467	0.252	0.128
-349.479	319.747	-0.062	-0.116
-348.464	-29.741	-0.206	0.117
-347.450	219.124	0.162	0.259
-346.435	598.018	-0.086	-0.212
-345.420	212.723	0.174	0.274
-344.406	-138.069	-0.543	0.060
-343.391	-193.229	-0.231	0.002
-342.377	-200.000	0.026	0.179
-341.362	238.033	0.173	0.286
-340.348	211.439	0.086	-0.135
-339.333	800.000	-0.060	0.220
-338.318	-52.278	0.362	0.167
-337.304	157.919	-0.070	-0.096
-336.289	487.272	-0.055	0.125
-335.275	-10.226	-0.162	0.107
-334.260	51.460	0.159	0.151
-333.245	-133.098	0.135	0.017
-332.231	-64.378	-0.078	0.031
-331.216	-66.573	0.108	0.043
-330.202	336.094	0.069	-0.133
-329.187	-77.439	0.229	0.079
-328.172	10.288	0.068	0.052
-327.158	-154.657	-0.150	0.010
-326.143	265.334	-0.062	0.108
-325.129	410.549	-0.046	-0.098
-324.114	147.066	-0.184	0.247
-323.099	579.951	-0.079	0.192
-322.085	-200.000	-0.019	0.241
-321.070	165.516	0.030	-0.042
-320.056	-75.348	-0.203	-0.072
-319.041	509.898	0.029	0.068
-318.026	102.208	-0.035	-0.041
-317.012	800.000	0.062	0.195
-315.997	190.557	-0.080	0.120
-314.983	75.507	0.060	-0.063
-313.968	-200.000	0.002	0.078
-312.953	-59.237	-0.172	-0.074
-311.939	769.698	0.054	0.147
-310.924	-23.054	0.167	0.100
-309.910	-200.000	0.001	0.093
-308.895	-142.426	0.094	0.009
-307.880	96.603	-0.250	0.285
-306.866	-46.552	-0.049	0.024
-305.851	199.685	0.088	0.134
-304.837	-57.000	0.057	0.025
-303.822	-200.000	-0.027	0.171
-302.807	800.000	-0.127	0.404
-301.793	-76.236	0.228	0.080
-300.778	56.238	0.179	0.172
-299.764	-200.000	0.041	-0.498
-298.749	152.889	0.150	0.204
-297.735	-47.745	0.420	-0.202
-296.720	-132.593	0.249	0.032
-295.705	-200.000	0.015	0.214
-294.691	60.415	0.339	0.333
-293.676	20.486	0.152	-0.122
-292.662	-113.536	-0.095	-0.018
-291.647	-200.000	-0.039	-0.284
-290.632	43.172	-0.187	-0.169
-289.618	47.618	0.040	-0.037
-288.603	-74.506	0.112	-0.040
-287.589	11.461	-0.133	0.101
-286.574	-200.000	-0.056	0.327
-285.559	-4.332	0.183	0.126
-284.545	-10.504	0.134	-0.088
-283.530	-89.388	-0.336	-0.098
-282.516	-10.694	0.136	-0.089
-281.501	12.022	0.119	-0.091
-280.486	124.441	-0.105	-0.131
-279.472	-200.000	0.021	-0.321
-278.457	37.052	-0.021	-0.019
-277.443	800.000	0.045	0.188
-276.428	37.757	-0.077	-0.068
-275.413	-134.287	0.165	-0.020
-274.399	56.592	-0.096	0.092
-273.384	102.820	0.126	0.146
-272.370	-2.666	-0.163	0.113
-271.355	596.276	0.022	-0.053
-270.340	-81.828	0.387	0.126
-269.326	800.000	-0.034	-0.142
-268.311	-96.611	0.089	-0.023
-267.297	290.920	0.083	-0.149
-266.282	800.000	0.124	0.452
-265.267	-200.000	0.070	0.315
-264.253	-63.369	0.227	-0.093
-263.238	-200.000	0.063	-0.340
-262.224	162.975	0.159	0.222
-261.209	-101.408	0.175	0.042
-260.195	-31.943	-0.143	-0.079
-259.180	-8.380	0.033	0.022
-258.165	-200.000	-0.043	-0.189
-257.151	-81.630	-0.256	0.083
-256.136	-199.469	0.153	-0.001
-255.122	331.225	0.129	-0.247
-254.107	-30.912	0.195	-0.109
-253.092	-200.000	0.002	0.090
-252.078	-57.948	0.161	-0.070
-251.063	-125.308	-0.324	-0.049
-250.049	24.968	0.304	-0.250
-249.034	-200.000	0.015	-0.079
-248.019	-69.231	0.274	-0.105
-247.005	-88.047	0.313	0.093
-245.990	58.996	-0.279	-0.272
-244.976	-27.349	-0.042	0.024
-243.961	317.396	-0.235	-0.442
-242.946	-30.655	0.220	-0.123
-241.932	-200.000	-0.039	-0.202
-240.917	-200.000	-0.019	-0.096
-239.903	-200.000	0.028	-0.234
-238.888	576.015	-0.132	-0.319
-237.873	-48.118	0.213	-0.102
-236.859	-119.510	0.078	0.013
-235.844	-200.000	-0.026	0.211
-234.830	34.527	0.201	-0.174
-233.815	-47.647	0.155	-0.075
-232.800	-22.787	-0.118	0.071
-231.786	-116.370	0.062	-0.011
-230.771	-200.000	0.032	0.263
-229.757	-118.640	-0.287	0.050
-228.742	800.000	-0.068	0.208
-227.727	-89.806	-0.033	0.009
-226.713	-7.607	0.435	-0.291
-225.698	800.000	-0.080	0.236
-224.684	119.138	-0.046	0.056
-223.669	-200.000	-0.019	0.102
-222.655	25.501	-0.160	0.132
-221.640	-4.043	0.045	-0.031
-220.625	-102.303	-0.317	0.075
-219.611	-10.732	-0.254	-0.167
-218.596	51.890	-0.217	0.204
-217.582	582.618	-0.067	0.163
-216.567	-68.434	0.178	0.068
-215.552	-147.354	0.159	0.013
-214.538	272.094	-0.023	0.040
-213.523	-107.922	0.182	0.039
-212.509	434.136	0.069	0.148
-211.494	-200.000	0.001	0.207
-210.479	-47.160	0.121	0.058
-209.465	-200.000	-0.104	0.513
-208.450	-200.000	0.026	0.245
-207.436	-200.000	0.025	0.144
-206.421	-98.722	-0.126	0.032
-205.406	-132.459	-0.301	0.038
-204.392	131.524	0.167	0.212
-203.377	384.894	0.058	0.119
-202.363	346.574	0.060	-0.116
-201.348	58.673	-0.178	-0.173
-200.333	17.940	-0.155	-0.122
-199.319	-104.643	-0.309	-0.070
-198.304	78.016	-0.028	-0.030
-197.290	103.890	0.059	0.068
-196.275	453.978	-0.067	-0.146
-195.260	-200.000	0.097	-0.496
-194.246	-200.000	-0.015	-0.239
-193.231	-200.000	-0.010	0.081
-192.217	-71.467	0.049	-0.018
-191.202	44.408	0.042	-0.039
-190.187	353.981	-0.107	0.209
-189.173	-80.663	0.352	-0.116
-188.158	-198.057	0.188	-0.001
-187.144	-200.000	-0.052	-0.290
-186.129	307.106	-0.090	0.166
-185.114	-22.227	-0.152	-0.091
-184.100	800.000	-0.028	-0.104
-183.085	-56.626	0.059	0.026
-182.071	39.001	0.064	0.056
-181.056	-200.000	-0.004	0.050
-180.042	800.000	-0.018	-0.056
-179.027	122.248	0.090	0.111
-178.012	4.604	-0.251	-0.182
-176.998	-81.386	-0.229	-0.075
-175.983	-200.000	0.012	-0.155
-174.969	193.327	0.142	-0.212
-173.954	-48.296	-0.128	-0.061
-172.939	404.400	0.014	-0.028
-171.925	-111.552	0.298	0.060
-170.910	-93.250	0.302	0.083
-169.896	784.602	0.086	-0.234
-168.881	-200.000	0.000	-0.053
-167.866	800.000	-0.097	0.272
-166.852	77.048	-0.189	0.199
-165.837	47.987	-0.418	-0.386
-164.823	-200.000	0.017	-0.338
-163.808	236.836	0.032	-0.052
-162.793	-132.602	-0.141	-0.018
-161.779	-57.062	0.258	0.112
-160.764	-200.000	-0.049	0.283
-159.750	-200.000	0.031	-0.326
-158.735	-139.794	-0.183	-0.019
-157.720	269.877	0.030	-0.052
-156.706	425.183	0.024	-0.051
-155.691	22.919	-0.163	-0.132
-154.677	-200.000	-0.016	0.099
-153.662	-22.887	-0.193	-0.115
-152.647	26.548	-0.168	0.139
-151.633	800.000	-0.120	0.389
-150.618	-169.387	-0.167	0.006
-149.604	-78.431	0.190	-0.064
-148.589	71.482	0.140	0.144
-147.574	490.225	-0.189	-0.426
-146.560	435.344	-0.087	0.188
-145.545	191.261	0.070	0.104
-144.531	166.721	0.211	-0.296
-143.516	199.205	-0.059	0.090
-142.502	-86.285	0.141	0.043
-141.487	37.064	-0.216	-0.189
-140.472	441.934	0.118	0.256
-139.458	-117.738	-0.349	-0.062
-138.443	-88.091	-0.133	-0.039
-137.429	8.902	0.045	0.034
-136.414	429.133	-0.074	0.159
-135.399	56.575	-0.073	-0.070
-134.385	124.950	0.158	0.196
-133.370	-200.000	-0.033	-0.206
-132.356	-62.153	-0.202	-0.083
-131.341	453.756	-0.028	0.061
-130.326	-162.504	0.226	-0.011
-129.312	-200.000	0.033	-0.267
-128.297	-47.748	0.300	-0.144
-127.283	-31.045	0.119	-0.066
-126.268	-200.000	-0.004	0.279
-125.253	800.000	0.052	0.215
-124.239	-200.000	0.025	0.134
-123.224	13.225	-0.205	-0.157
-122.210	-131.207	-0.197	0.026
-121.195	-200.000	0.055	0.296
