DTS Sentinel unit serial number:	SN413079Multiplexer serial number:	ORYXHardware model number:	OX4-SRSoftware version number:	ORYX F/W v4.00 Oryx Data Collector v3.7.2.0data status	okinstallation	princeton_trtdifferential loss correction	single-endedforward channel	channel 2reverse channel	N/Adate	2019/09/12time	12:21:11forward acquisition time	60.00reverse acquisition time	0.00gamma	496.2192k internal	0.2299k external	0.2299temperature offset calibration	1.0078default loss term (dB/km)	0.3790temperature slope calibration	1.0000multiplexer offset coefficient	1.0000multiplexer slope coefficient	1.0000fibre end	0.00T internal ref (°C)	40.61T ext. ref 1 (°C)	2.03T ext. ref 2 (°C)	35.11length (m)	temperature (°C)	Stokes	anti-Stokes-747.200	-56.150	-0.160	-0.073
-746.185	-132.699	0.200	0.026
-745.171	220.677	0.112	-0.183
-744.156	-200.000	0.004	-0.194
-743.142	-200.000	-0.044	-0.262
-742.127	-150.014	0.102	-0.008
-741.112	157.783	0.103	-0.145
-740.098	534.914	-0.027	0.065
-739.083	612.342	0.073	-0.186
-738.069	143.379	0.216	0.294
-737.054	75.031	-0.125	0.134
-736.039	28.468	-0.247	-0.213
-735.025	-200.000	0.007	0.138
-734.010	800.000	-0.039	0.139
-732.996	-200.000	0.008	-0.092
-731.981	-3.446	0.181	0.128
-730.966	-45.635	0.140	0.071
-729.952	-200.000	-0.002	0.093
-728.937	-111.079	-0.262	0.055
-727.923	-122.626	0.135	0.022
-726.908	-200.000	0.039	-0.215
-725.894	-85.114	-0.245	0.078
-724.879	800.000	-0.017	-0.054
-723.864	-78.064	-0.287	0.101
-722.850	-26.473	0.248	-0.148
-721.835	-11.547	-0.331	0.222
-720.821	-147.521	-0.203	0.017
-719.806	69.253	0.053	0.055
-718.791	142.078	0.296	-0.400
-717.777	-200.000	-0.017	-0.211
-716.762	244.270	-0.045	0.077
-715.748	43.105	0.161	-0.150
-714.733	-1.388	0.059	0.042
-713.718	-82.836	0.093	0.031
-712.704	695.080	0.072	0.192
-711.689	43.111	-0.299	0.278
-710.675	188.494	-0.118	-0.180
-709.660	-98.012	-0.213	0.056
-708.645	406.166	-0.138	-0.297
-707.631	94.754	-0.326	-0.378
-706.616	-200.000	-0.110	0.000
-705.602	-116.915	0.252	0.047
-704.587	279.373	0.142	0.259
-703.572	-107.849	-0.342	-0.076
-702.558	-67.517	0.076	-0.030
-701.543	-200.000	0.033	-0.199
-700.529	-200.000	0.009	0.175
-699.514	6.380	-0.110	-0.083
-698.499	-6.092	0.195	-0.136
-697.485	-130.352	0.225	0.031
-696.470	-7.568	-0.124	0.086
-695.456	-200.000	-0.024	0.158
-694.441	-200.000	-0.007	-0.062
-693.426	-107.992	-0.252	-0.056
-692.412	550.330	-0.061	-0.149
-691.397	35.232	-0.307	-0.274
-690.383	-137.332	0.054	-0.006
-689.368	-200.000	0.011	0.165
-688.354	-200.000	-0.003	-0.055
-687.339	-200.000	-0.070	0.403
-686.324	194.720	-0.207	-0.319
-685.310	800.000	-0.078	0.264
-684.295	-14.656	-0.293	0.192
-683.281	-130.674	-0.296	-0.041
-682.266	-124.284	-0.234	-0.037
-681.251	11.312	0.152	-0.119
-680.237	-200.000	-0.044	0.210
-679.222	56.247	0.352	0.348
-678.208	152.787	0.229	0.318
-677.193	-40.630	0.143	0.076
-676.178	-164.258	0.133	-0.006
-675.164	588.043	0.115	0.288
-674.149	-143.773	-0.311	-0.030
-673.135	79.569	0.200	-0.218
-672.120	53.953	-0.114	-0.111
-671.105	-22.835	-0.459	-0.282
-670.091	149.658	0.199	-0.275
-669.076	800.000	-0.102	-0.399
-668.062	-98.048	-0.247	-0.065
-667.047	53.649	0.188	0.183
-666.032	-200.000	-0.023	-0.313
-665.018	800.000	-0.021	-0.064
-664.003	-159.099	0.255	0.015
-662.989	-5.547	-0.218	0.152
-661.974	-50.998	-0.252	-0.121
-660.959	1.841	-0.107	-0.079
-659.945	-48.487	-0.325	0.159
-658.930	-139.765	-0.338	-0.037
-657.916	-200.000	0.053	-0.318
-656.901	-200.000	0.019	0.145
-655.886	-106.226	-0.317	0.072
-654.872	-52.076	-0.130	-0.061
-653.857	19.795	0.147	-0.121
-652.843	359.727	-0.088	0.179
-651.828	800.000	0.040	-0.175
-650.814	800.000	0.030	-0.095
-649.799	-5.361	-0.244	-0.171
-648.784	13.465	-0.189	0.149
-647.770	-55.153	-0.182	-0.083
-646.755	776.419	0.035	-0.096
-645.741	727.689	-0.052	0.141
-644.726	32.145	-0.276	-0.242
-643.711	-100.527	0.305	-0.077
-642.697	-39.016	0.201	-0.108
-641.682	800.000	-0.083	-0.325
-640.668	-173.037	-0.068	-0.002
-639.653	257.508	0.081	-0.141
-638.638	800.000	0.108	-0.337
-637.624	-8.932	-0.265	-0.180
-636.609	14.121	0.158	0.125
-635.595	70.202	-0.109	-0.114
-634.580	-199.295	-0.123	-0.001
-633.565	76.600	-0.061	0.066
-632.551	-83.877	-0.143	-0.046
-631.536	-66.009	0.112	-0.045
-630.522	-111.289	0.364	0.076
-629.507	165.293	0.133	0.192
-628.492	18.564	0.059	0.048
-627.478	800.000	-0.015	-0.050
-626.463	-109.961	-0.079	0.017
-625.449	405.184	0.105	0.224
-624.434	376.659	0.040	0.083
-623.419	185.162	0.089	0.134
-622.405	72.547	0.281	0.298
-621.390	28.097	-0.211	0.181
-620.376	-41.426	0.227	-0.119
-619.361	800.000	-0.071	-0.289
-618.346	-99.343	-0.178	-0.046
-617.332	-100.919	-0.386	-0.096
-616.317	-10.989	-0.338	0.226
-615.303	-105.150	-0.077	-0.018
-614.288	768.269	-0.076	-0.210
-613.273	-15.641	-0.149	-0.097
-612.259	629.086	-0.072	-0.185
-611.244	-126.870	-0.206	-0.031
-610.230	180.342	-0.151	-0.225
-609.215	372.945	-0.099	0.203
-608.201	151.296	-0.081	0.112
-607.186	800.000	0.007	0.028
-606.171	-60.205	0.264	0.114
-605.157	49.153	0.167	0.159
-604.142	-167.740	0.142	-0.006
-603.128	253.680	-0.110	0.191
-602.113	52.768	0.177	0.172
-601.098	54.383	-0.123	-0.120
-600.084	62.114	-0.071	-0.072
-599.069	98.397	0.204	0.238
-598.055	-107.321	0.032	-0.007
-597.040	-107.351	0.083	-0.019
-596.025	278.648	-0.234	-0.423
-595.011	-13.874	-0.399	-0.262
-593.996	61.166	0.182	0.183
-592.982	-67.557	0.341	0.136
-591.967	515.334	0.129	0.306
-590.952	-23.211	0.244	0.149
-589.938	-116.688	0.531	0.099
-588.923	-14.518	0.212	-0.138
-587.909	800.000	-0.186	-0.617
-586.894	-24.031	-0.168	-0.102
-585.879	627.729	-0.061	-0.156
-584.865	-84.056	0.158	-0.051
-583.850	-34.144	-0.311	0.174
-582.836	62.734	-0.202	-0.205
-581.821	800.000	-0.052	0.201
-580.806	-82.670	-0.164	-0.054
-579.792	286.896	-0.096	-0.176
-578.777	800.000	0.101	0.419
-577.763	-60.074	0.158	0.068
-576.748	-137.918	-0.407	0.046
-575.733	-30.623	0.208	-0.119
-574.719	-120.717	0.242	-0.041
-573.704	-52.322	-0.123	0.058
-572.690	160.334	0.175	-0.247
-571.675	-44.300	0.306	0.156
-570.661	183.265	-0.205	-0.307
-569.646	-200.000	-0.013	0.178
-568.631	-46.795	0.094	0.047
-567.617	31.577	-0.044	0.038
-566.602	-34.625	-0.139	-0.077
-565.588	-166.971	-0.298	-0.012
-564.573	219.982	0.126	-0.205
-563.558	89.881	0.019	-0.022
-562.544	-81.671	-0.106	-0.035
-561.529	49.850	-0.040	0.038
-560.515	-200.000	0.024	0.151
-559.500	-200.000	-0.134	0.001
-558.485	187.998	-0.273	0.413
-557.471	-70.570	0.207	-0.079
-556.456	-4.041	0.098	-0.069
-555.442	180.991	0.170	-0.254
-554.427	-140.857	0.306	0.032
-553.412	85.058	0.106	0.118
-552.398	-54.292	0.402	0.185
-551.383	141.419	-0.194	-0.260
-550.369	127.812	0.036	0.046
-549.354	-200.000	0.010	-0.089
-548.339	-150.395	0.303	-0.024
-547.325	227.153	-0.079	0.131
-546.310	511.931	0.030	0.071
-545.296	318.405	0.214	-0.411
-544.281	396.399	-0.117	0.247
-543.266	151.268	0.049	0.068
-542.252	47.177	0.103	0.097
-541.237	-200.000	0.047	0.220
-540.223	-76.632	-0.188	0.067
-539.208	-167.799	0.328	-0.013
-538.193	-176.261	0.331	-0.009
-537.179	498.175	-0.087	-0.202
-536.164	-200.000	0.019	-0.351
-535.150	303.258	-0.043	0.080
-534.135	-70.258	0.359	-0.138
-533.121	-16.558	-0.302	0.193
-532.106	800.000	0.073	0.270
-531.091	401.056	-0.065	0.138
-530.077	-58.626	-0.104	-0.046
-529.062	-65.672	0.227	-0.092
-528.048	443.531	-0.120	0.267
-527.033	208.464	-0.118	0.187
-526.018	629.226	-0.108	0.276
-525.004	-76.479	-0.175	-0.062
-523.989	-200.000	0.004	-0.247
-522.975	-7.634	-0.452	-0.309
-521.960	800.000	0.057	-0.227
-520.945	105.129	-0.161	-0.193
-519.931	123.005	-0.071	-0.090
-518.916	-65.427	-0.268	0.109
-517.902	733.475	-0.074	0.201
-516.887	800.000	-0.053	-0.217
-515.872	-136.564	0.157	-0.018
-514.858	-200.000	-0.007	0.063
-513.843	-200.000	-0.055	0.278
-512.829	68.290	0.026	0.027
-511.814	135.490	0.150	-0.198
-510.799	-200.000	0.047	-0.323
-509.785	-79.207	0.313	-0.108
-508.770	-108.406	-0.144	0.031
-507.756	-108.503	-0.106	-0.023
-506.741	-19.645	0.247	0.154
-505.726	-29.123	-0.132	0.076
-504.712	-154.958	-0.262	-0.017
-503.697	-91.123	-0.413	-0.120
-502.683	-61.639	0.118	0.050
-501.668	24.340	-0.097	0.081
-500.653	-192.449	-0.149	0.001
-499.639	-200.000	0.034	0.284
-498.624	44.080	0.145	-0.135
-497.610	118.402	-0.159	-0.199
-496.595	46.942	0.162	0.152
-495.581	-21.677	0.123	-0.075
-494.566	450.583	0.096	0.215
-493.551	-99.858	0.335	-0.085
-492.537	-136.219	0.156	0.018
-491.522	-65.771	-0.076	-0.031
-490.508	800.000	-0.062	0.265
-489.493	-200.000	0.097	-0.442
-488.478	147.306	0.021	0.029
-487.464	-77.088	-0.521	0.184
-486.449	-41.224	0.179	0.093
-485.435	-200.000	-0.034	0.206
-484.420	161.413	-0.068	-0.096
-483.405	35.183	-0.174	0.154
-482.391	67.201	-0.094	0.096
-481.376	800.000	-0.094	-0.279
-480.362	425.443	-0.072	0.157
-479.347	-200.000	-0.150	-0.000
-478.332	-72.810	0.252	0.093
-477.318	210.982	0.078	-0.123
-476.303	-16.075	0.280	-0.179
-475.289	625.822	0.051	-0.130
-474.274	-47.824	-0.297	0.145
-473.259	-6.917	-0.215	-0.148
-472.245	72.490	-0.166	0.174
-471.230	15.672	0.196	-0.156
-470.216	-162.277	0.043	-0.002
-469.201	-200.000	-0.065	-0.436
-468.186	-118.277	0.166	0.030
-467.172	-6.583	0.239	0.164
-466.157	800.000	0.033	0.140
-465.143	444.122	-0.213	-0.472
-464.128	-200.000	0.020	-0.329
-463.113	-22.307	-0.305	0.186
-462.099	100.247	-0.188	0.220
-461.084	87.580	-0.162	0.181
-460.070	-35.751	-0.150	0.082
-459.055	-110.227	-0.177	-0.037
-458.040	-73.975	0.053	0.020
-457.026	-200.000	-0.008	0.275
-456.011	351.460	-0.051	0.103
-454.997	141.380	-0.098	0.131
-453.982	-65.218	-0.038	0.015
-452.968	-114.944	0.135	0.026
-451.953	-200.000	-0.006	-0.279
-450.938	-25.324	0.074	-0.044
-449.924	-136.946	-0.221	0.026
-448.909	-52.932	0.257	-0.120
-447.895	-81.091	0.195	0.065
-446.880	-163.278	-0.141	-0.007
-445.865	290.366	0.149	0.273
-444.851	79.734	-0.177	0.192
-443.836	555.662	-0.034	-0.082
-442.822	-38.634	0.387	-0.206
-441.807	38.470	0.033	0.030
-440.792	39.329	0.107	0.097
-439.778	-7.708	-0.300	0.205
-438.763	16.250	0.216	0.172
-437.749	56.934	0.083	-0.082
-436.734	329.118	0.113	-0.219
-435.719	274.564	-0.048	0.085
-434.705	-171.894	0.203	-0.007
-433.690	201.399	0.125	0.193
-432.676	800.000	-0.032	-0.115
-431.661	-128.300	-0.398	0.057
-430.646	800.000	-0.034	-0.102
-429.632	-4.958	0.193	0.134
-428.617	120.286	-0.092	-0.115
-427.603	534.341	0.145	-0.346
-426.588	40.761	-0.200	-0.182
-425.573	-200.000	-0.015	0.134
-424.559	-171.225	0.393	0.013
-423.544	-200.000	-0.033	0.274
-422.530	-79.527	0.303	-0.103
-421.515	152.082	0.096	-0.132
-420.500	-29.248	-0.102	-0.059
-419.486	-88.664	-0.262	-0.079
-418.471	800.000	0.031	-0.109
-417.457	-111.382	-0.058	-0.012
-416.442	97.571	-0.205	-0.238
-415.428	723.573	0.012	-0.032
-414.413	-13.886	0.088	-0.058
-413.398	-200.000	0.007	-0.535
-412.384	-200.000	0.006	0.292
-411.369	293.562	0.147	-0.271
-410.355	-200.000	-0.045	0.373
-409.340	800.000	0.058	0.251
-408.325	385.359	0.111	0.231
-407.311	589.883	0.072	0.179
-406.296	-200.000	-0.017	-0.263
-405.282	-20.893	-0.210	-0.130
-404.267	10.153	-0.233	-0.179
-403.252	-60.000	-0.078	0.034
-402.238	-200.000	0.011	0.061
-401.223	212.028	-0.202	0.321
-400.209	-74.311	0.261	-0.095
-399.194	144.015	0.240	-0.322
-398.179	-200.000	0.108	-0.508
-397.165	183.593	0.234	0.348
-396.150	-157.386	0.193	0.012
-395.136	608.630	0.230	0.579
-394.121	800.000	-0.030	0.091
-393.106	229.330	-0.122	-0.200
-392.092	-91.326	-0.302	-0.087
-391.077	-200.000	0.006	0.154
-390.063	63.475	-0.122	0.123
-389.048	234.172	-0.120	-0.200
-388.033	-29.038	0.112	-0.065
-387.019	415.753	-0.112	-0.241
-386.004	-200.000	-0.019	0.194
-384.990	800.000	0.072	0.299
-383.975	-82.904	-0.038	-0.012
-382.960	-132.788	0.235	-0.030
-381.946	147.108	-0.112	-0.151
-380.931	-200.000	0.003	-0.075
-379.917	-78.737	0.492	0.169
-378.902	173.883	0.115	0.168
-377.888	135.257	-0.191	0.250
-376.873	109.009	-0.220	-0.265
-375.858	-118.191	0.178	0.032
-374.844	-200.000	0.014	-0.103
-373.829	2.508	-0.163	0.118
-372.815	253.356	0.087	-0.150
-371.800	1.943	-0.153	0.111
-370.785	-200.000	0.007	0.164
-369.771	-38.336	0.087	-0.046
-368.756	-93.438	-0.308	0.086
-367.742	-12.971	0.339	0.222
-366.727	800.000	0.075	0.317
-365.712	-193.783	-0.193	-0.002
-364.698	800.000	-0.025	-0.082
-363.683	-85.361	0.125	-0.039
-362.669	-200.000	0.021	-0.254
-361.654	800.000	-0.174	-0.515
-360.639	80.035	-0.064	-0.069
-359.625	-46.319	-0.076	0.038
-358.610	-126.588	0.333	-0.050
-357.596	223.849	0.079	0.129
-356.581	-20.009	-0.445	0.276
-355.566	200.085	0.072	-0.111
-354.552	-98.289	0.022	-0.006
-353.537	53.316	0.246	0.237
-352.523	-101.065	-0.158	-0.039
-351.508	281.727	0.058	0.105
-350.493	-200.000	-0.003	0.135
-349.479	262.439	0.098	0.170
-348.464	12.443	0.253	-0.196
-347.450	-175.060	0.446	-0.012
-346.435	800.000	-0.044	0.127
-345.420	245.351	-0.104	0.176
-344.406	800.000	0.021	0.081
-343.391	342.265	-0.071	-0.140
-342.377	-23.807	0.157	-0.095
-341.362	-68.632	-0.012	-0.005
-340.348	55.537	-0.109	0.106
-339.333	-200.000	-0.024	0.167
-338.318	374.452	0.137	0.281
-337.304	-135.801	-0.057	0.007
-336.289	-200.000	-0.012	0.099
-335.275	126.876	-0.185	-0.236
-334.260	305.668	0.047	0.088
-333.245	-76.491	0.150	-0.053
-332.231	464.361	-0.126	0.283
-331.216	-174.497	0.201	0.006
-330.202	-200.000	0.045	-0.294
-329.187	56.297	-0.121	0.118
-328.172	86.124	-0.218	-0.241
-327.158	302.082	-0.133	-0.247
-326.143	-200.000	-0.021	-0.204
-325.129	-96.247	0.392	0.104
-324.114	597.767	0.089	0.221
-323.099	-200.000	0.002	0.032
-322.085	-77.094	-0.068	0.024
-321.070	-125.772	-0.174	-0.026
-320.056	32.862	0.331	0.288
-319.041	-75.953	-0.293	0.104
-318.026	800.000	-0.052	0.167
-317.012	-62.056	0.149	0.062
-315.997	-110.700	0.116	0.024
-314.983	-110.953	-0.418	-0.086
-313.968	188.299	-0.050	0.075
-312.953	-50.913	0.363	-0.171
-311.939	80.434	0.258	-0.279
-310.924	-17.984	0.163	-0.102
-309.910	800.000	0.057	0.237
-308.895	-40.938	-0.100	-0.052
-307.880	-200.000	-0.003	-0.118
-306.866	592.197	0.063	-0.155
-305.851	800.000	0.212	-0.622
-304.837	800.000	0.057	0.194
-303.822	-122.182	-0.262	-0.043
-302.807	331.446	-0.092	0.178
-301.793	-200.000	0.001	0.035
-300.778	-41.079	0.133	-0.069
-299.764	367.083	-0.105	0.212
-298.749	800.000	-0.116	-0.358
-297.735	-28.601	0.256	-0.148
-296.720	-51.124	-0.386	-0.181
-295.705	18.599	0.223	0.179
-294.691	-54.867	-0.372	-0.168
-293.676	-200.000	0.032	0.648
-292.662	-98.173	0.253	0.065
-291.647	207.164	-0.069	-0.108
-290.632	800.000	-0.032	-0.106
-289.618	-30.890	-0.207	0.117
-288.603	-43.582	-0.193	0.098
-287.589	35.854	-0.303	-0.267
-286.574	800.000	0.027	0.103
-285.559	-135.336	0.090	-0.011
-284.545	-123.200	0.330	0.053
-283.530	-78.099	-0.136	0.047
-282.516	800.000	-0.102	-0.370
-281.501	800.000	0.113	-0.388
-280.486	-200.000	0.035	0.225
-279.472	-200.000	0.058	0.277
-278.457	-185.067	-0.075	0.001
-277.443	-157.102	-0.188	0.011
-276.428	611.765	-0.069	0.173
-275.413	78.267	-0.215	0.230
-274.399	-78.941	0.069	0.023
-273.384	509.481	0.128	-0.297
-272.370	800.000	0.036	-0.155
-271.355	331.268	0.089	-0.171
-270.340	-200.000	-0.036	0.391
-269.326	98.966	-0.047	-0.054
-268.311	120.379	-0.160	-0.198
-267.297	-54.185	0.200	0.091
-266.282	532.751	0.107	0.254
-265.267	800.000	0.051	0.195
-264.253	-51.231	-0.199	0.093
-263.238	-84.393	-0.160	0.051
-262.224	-200.000	-0.015	-0.318
-261.209	233.055	-0.319	-0.525
-260.195	-50.806	-0.132	-0.062
-259.180	-200.000	-0.004	0.218
-258.165	-137.866	-0.271	0.030
-257.151	-127.735	-0.147	0.021
-256.136	-200.000	0.074	-0.408
-255.122	76.521	-0.109	0.115
-254.107	278.779	0.064	-0.115
-253.092	388.371	-0.031	0.065
-252.078	-41.007	0.449	0.232
-251.063	13.173	0.062	-0.048
-250.049	-1.435	0.203	-0.143
-249.034	-98.439	0.336	0.086
-248.019	20.865	-0.219	0.177
-247.005	53.775	0.202	-0.194
-245.990	-130.016	-0.143	-0.020
-244.976	39.229	0.049	-0.044
-243.961	-57.485	-0.145	0.064
-242.946	68.059	0.075	-0.077
-241.932	-108.786	-0.223	-0.048
-240.917	-152.940	-0.043	-0.003
-239.903	380.215	0.144	0.295
-238.888	-33.621	0.245	-0.135
-237.873	339.214	-0.120	0.233
-236.859	-162.661	0.339	-0.017
-235.844	89.523	-0.222	0.247
-234.830	-33.967	-0.160	-0.088
-233.815	800.000	0.035	-0.102
-232.800	-200.000	-0.012	-0.246
-231.786	-200.000	-0.033	0.202
-230.771	-163.365	-0.216	-0.010
-229.757	64.878	-0.096	-0.097
-228.742	-31.826	-0.290	-0.163
-227.727	368.852	0.142	-0.287
-226.713	381.953	0.032	-0.066
-225.698	-67.442	-0.206	0.081
-224.684	25.611	-0.130	-0.108
-223.669	-105.874	0.075	0.017
-222.655	-200.000	-0.007	-0.181
-221.640	564.610	0.051	-0.124
-220.625	-200.000	0.029	-0.281
-219.611	-103.444	-0.134	0.032
-218.596	800.000	-0.036	0.159
-217.582	-18.175	0.102	-0.064
-216.567	32.550	0.113	-0.098
-215.552	-200.000	0.026	-0.222
-214.538	-43.482	0.134	-0.068
-213.523	-102.039	-0.165	0.040
-212.509	102.126	-0.154	-0.180
-211.494	-42.492	0.300	-0.153
-210.479	-48.154	-0.189	0.091
-209.465	800.000	-0.062	0.191
-208.450	102.000	0.214	0.250
-207.436	293.871	0.115	0.211
-206.421	348.404	0.046	-0.090
-205.406	800.000	0.095	-0.273
-204.392	-26.409	-0.270	0.158
-203.377	-200.000	-0.025	0.173
-202.363	-70.034	0.384	0.146
-201.348	403.707	0.164	0.345
-200.333	-200.000	0.017	0.077
-199.319	-45.871	-0.065	0.032
-198.304	-118.928	0.371	-0.065
-197.290	-23.217	-0.288	-0.173
-196.275	-101.265	-0.225	0.055
-195.260	451.608	0.113	0.250
-194.246	800.000	0.059	-0.173
-193.231	-37.110	0.406	0.217
-192.217	-152.765	0.344	-0.024
-191.202	-91.670	0.278	-0.079
-190.187	-200.000	0.000	-0.083
-189.173	-200.000	-0.029	-0.253
-188.158	-200.000	-0.031	-0.303
-187.144	115.367	0.065	0.079
-186.129	-31.019	-0.086	0.048
-185.114	138.195	0.077	0.101
-184.100	800.000	-0.117	0.349
-183.085	178.646	-0.151	-0.220
-182.071	99.356	-0.172	0.198
-181.056	-200.000	-0.003	0.076
-180.042	55.466	-0.137	-0.132
-179.027	261.495	-0.089	-0.154
-178.012	675.569	-0.020	0.051
-176.998	-128.077	0.070	-0.010
-175.983	-24.557	0.107	0.064
-174.969	113.087	0.113	0.137
-173.954	-3.816	0.305	0.211
-172.939	-200.000	0.026	0.241
-171.925	-105.714	-0.424	0.096
-170.910	459.842	0.126	0.279
-169.896	428.653	0.269	0.581
-168.881	54.556	0.213	0.205
-167.866	83.793	-0.217	-0.236
-166.852	-92.384	-0.148	-0.042
-165.837	-200.000	0.010	0.043
-164.823	51.084	-0.115	0.109
-163.808	-200.000	-0.053	-0.250
-162.793	-74.512	-0.062	0.022
-161.779	89.806	0.230	-0.256
-160.764	129.689	-0.113	0.144
-159.750	179.839	-0.261	-0.381
-158.735	2.409	0.141	0.102
-157.720	-102.286	0.033	-0.008
-156.706	327.627	0.103	0.197
-155.691	246.845	-0.149	0.251
-154.677	-103.775	-0.212	0.050
-153.662	-150.573	-0.098	0.007
-152.647	39.100	-0.116	-0.104
-151.633	308.537	0.128	-0.237
-150.618	533.292	0.059	0.139
-149.604	212.840	0.054	0.084
-148.589	-13.522	0.346	0.223
-147.574	-200.000	0.004	0.238
-146.560	800.000	-0.080	-0.254
-145.545	-141.298	-0.132	-0.013
-144.531	800.000	0.065	0.232
-143.516	800.000	0.025	0.090
-142.502	109.867	0.093	-0.112
-141.487	-1.800	0.336	0.235
-140.472	190.296	0.118	-0.176
-139.458	199.386	0.112	-0.171
-138.443	-35.545	0.386	-0.209
-137.429	216.463	-0.145	0.230
-136.414	56.483	0.192	0.186
-135.399	31.623	0.145	0.124
-134.385	-151.773	0.172	0.013
-133.370	-59.576	0.359	0.154
-132.356	-76.714	0.421	-0.147
-131.341	17.583	0.246	-0.195
-130.326	-82.817	0.090	-0.029
-129.312	-200.000	0.011	-0.068
-128.297	-200.000	0.013	-0.216
-127.283	6.307	0.176	-0.130
-126.268	58.764	0.125	-0.123
-125.253	-45.842	-0.196	0.097
-124.239	-16.269	-0.129	-0.082
-123.224	-20.656	-0.271	0.166
-122.210	-127.558	-0.184	-0.027
-121.195	307.212	-0.039	-0.072
