DTS Sentinel unit serial number:	SN413079Multiplexer serial number:	ORYXHardware model number:	OX4-SRSoftware version number:	ORYX F/W v4.00 Oryx Data Collector v3.7.2.0data status	okinstallation	princeton_trtdifferential loss correction	single-endedforward channel	channel 2reverse channel	N/Adate	2019/09/13time	05:43:34forward acquisition time	60.00reverse acquisition time	0.00gamma	496.2192k internal	0.2337k external	0.2337temperature offset calibration	1.0194default loss term (dB/km)	0.3790temperature slope calibration	1.0000multiplexer offset coefficient	1.0000multiplexer slope coefficient	1.0000fibre end	0.00T internal ref (°C)	26.19T ext. ref 1 (°C)	4.05T ext. ref 2 (°C)	20.91length (m)	temperature (°C)	Stokes	anti-Stokes-747.200	545.545	0.084	-0.200
-746.185	-69.742	-0.135	0.052
-745.171	36.683	0.252	-0.224
-744.156	-63.716	-0.086	0.035
-743.142	-22.375	-0.368	-0.224
-742.127	600.011	0.155	0.386
-741.112	-200.000	-0.026	-0.131
-740.098	66.275	0.132	-0.135
-739.083	-23.542	0.213	-0.128
-738.069	-9.678	-0.233	0.156
-737.054	80.330	0.146	-0.158
-736.039	-87.212	-0.381	-0.116
-735.025	-152.786	-0.248	-0.018
-734.010	-110.721	-0.379	0.078
-732.996	21.892	0.216	0.177
-731.981	131.759	0.195	-0.252
-730.966	-103.095	-0.128	-0.030
-729.952	-83.650	-0.202	-0.065
-728.937	-200.000	-0.003	-0.107
-727.923	-156.381	-0.072	0.004
-726.908	-13.621	-0.153	-0.100
-725.894	11.939	-0.103	-0.079
-724.879	154.773	-0.206	0.284
-723.864	-200.000	0.027	-0.281
-722.850	120.371	-0.059	-0.074
-721.835	741.916	0.083	0.223
-720.821	-200.000	-0.020	0.160
-719.806	-44.430	-0.455	0.228
-718.791	123.810	0.085	-0.107
-717.777	128.297	-0.069	0.088
-716.762	-200.000	-0.004	-0.073
-715.748	51.131	-0.258	-0.245
-714.733	75.280	0.221	0.233
-713.718	-38.359	-0.289	0.153
-712.704	-112.786	-0.063	0.013
-711.689	-165.571	0.071	-0.003
-710.675	-200.000	-0.016	0.119
-709.660	-130.162	-0.332	0.045
-708.645	-200.000	0.027	0.188
-707.631	-200.000	0.064	-0.596
-706.616	68.839	0.064	0.066
-705.602	-168.333	-0.180	-0.007
-704.587	-177.353	-0.373	-0.009
-703.572	465.887	0.130	-0.292
-702.558	554.067	-0.083	-0.199
-701.543	-200.000	0.021	-0.170
-700.529	14.780	-0.180	0.141
-699.514	151.827	0.052	-0.071
-698.499	-170.070	-0.142	-0.005
-697.485	-200.000	0.033	-0.348
-696.470	-98.418	-0.301	-0.077
-695.456	-86.382	0.216	0.067
-694.441	178.550	0.077	0.112
-693.426	-200.000	-0.006	0.064
-692.412	-200.000	0.006	0.091
-691.397	-52.124	0.087	0.040
-690.383	72.118	-0.055	0.057
-689.368	-182.882	0.052	0.001
-688.354	-88.279	-0.181	0.054
-687.339	-119.691	0.200	0.035
-686.324	-104.385	-0.152	-0.035
-685.310	-110.602	0.119	-0.025
-684.295	-121.803	-0.231	-0.038
-683.281	-112.309	0.181	0.036
-682.266	-57.260	-0.156	0.069
-681.251	176.090	0.087	-0.126
-680.237	-200.000	0.003	0.082
-679.222	-200.000	-0.013	0.067
-678.208	22.170	-0.234	-0.192
-677.193	-161.250	0.175	0.009
-676.178	-200.000	-0.005	0.300
-675.164	-23.292	-0.089	-0.053
-674.149	275.873	-0.191	-0.339
-673.135	800.000	0.054	0.230
-672.120	339.541	-0.117	-0.229
-671.105	346.877	0.028	0.055
-670.091	236.193	0.248	-0.411
-669.076	101.312	-0.244	-0.284
-668.062	25.610	0.099	0.082
-667.047	-127.701	-0.313	-0.045
-666.032	86.690	0.225	-0.248
-665.018	14.006	0.079	-0.062
-664.003	96.085	-0.120	0.137
-662.989	102.260	-0.106	-0.124
-661.974	101.382	-0.178	0.208
-660.959	-200.000	-0.015	0.192
-659.945	800.000	0.104	0.375
-658.930	-170.500	-0.301	-0.010
-657.916	-200.000	0.018	0.146
-656.901	-99.878	-0.250	0.062
-655.886	-122.818	-0.195	-0.031
-654.872	800.000	0.086	-0.331
-653.857	81.551	0.251	0.271
-652.843	-8.384	-0.097	0.065
-651.828	73.749	0.111	-0.116
-650.814	214.988	0.133	-0.211
-649.799	26.321	-0.227	0.189
-648.784	-139.296	0.414	0.045
-647.770	-124.816	-0.248	-0.038
-646.755	800.000	-0.108	0.311
-645.741	-61.328	-0.043	0.018
-644.726	-200.000	0.081	-0.461
-643.711	-8.322	0.204	0.137
-642.697	-110.394	-0.284	0.059
-641.682	-94.694	-0.100	0.027
-640.668	438.854	0.147	0.321
-639.653	252.674	-0.177	0.302
-638.638	-200.000	-0.005	0.083
-637.624	117.355	-0.272	0.334
-636.609	-35.326	-0.248	-0.135
-635.595	-2.290	0.082	-0.058
-634.580	37.035	-0.151	-0.134
-633.565	-119.408	-0.448	0.078
-632.551	63.921	-0.162	-0.163
-631.536	28.457	0.245	0.207
-630.522	1.100	0.082	-0.059
-629.507	800.000	0.103	0.309
-628.492	259.231	0.066	0.114
-627.478	800.000	0.033	-0.099
-626.463	436.659	-0.064	-0.139
-625.449	-200.000	-0.022	-0.110
-624.434	318.203	0.123	-0.234
-623.419	133.201	-0.113	-0.146
-622.405	-110.279	0.203	0.042
-621.390	-200.000	-0.003	-0.116
-620.376	-42.966	-0.192	0.097
-619.361	-166.897	0.174	-0.007
-618.346	-200.000	-0.083	-0.406
-617.332	-158.177	0.254	-0.015
-616.317	-124.767	-0.046	0.007
-615.303	-49.181	0.245	-0.117
-614.288	87.118	-0.163	-0.180
-613.273	-200.000	0.022	0.130
-612.259	800.000	-0.036	-0.106
-611.244	96.810	-0.184	0.210
-610.230	800.000	0.075	0.239
-609.215	800.000	0.132	-0.536
-608.201	-92.079	0.100	-0.028
-607.186	-155.957	0.162	-0.010
-606.171	-61.330	0.214	0.090
-605.157	-25.343	-0.119	0.070
-604.142	-200.000	-0.024	-0.285
-603.128	-200.000	0.010	0.158
-602.113	800.000	-0.103	-0.419
-601.098	800.000	0.026	0.110
-600.084	-200.000	-0.333	-0.002
-599.069	800.000	0.110	0.402
-598.055	262.979	0.100	-0.174
-597.040	208.014	0.113	-0.176
-596.025	800.000	0.025	-0.074
-595.011	542.928	0.012	0.028
-593.996	-107.832	-0.313	-0.068
-592.982	178.564	0.282	-0.411
-591.967	-70.871	-0.388	0.146
-590.952	157.842	-0.222	-0.307
-589.938	800.000	0.131	-0.494
-588.923	-71.826	0.098	0.036
-587.909	800.000	-0.020	-0.073
-586.894	-38.805	-0.264	-0.139
-585.879	-27.088	0.230	0.134
-584.865	-200.000	-0.019	0.194
-583.850	-16.485	-0.133	0.084
-582.836	707.359	0.067	-0.178
-581.821	93.911	-0.295	0.334
-580.806	-86.247	-0.139	-0.043
-579.792	26.660	-0.159	0.133
-578.777	226.852	0.226	0.367
-577.763	-106.789	0.290	0.064
-576.748	-142.504	-0.095	0.009
-575.733	336.423	-0.069	0.134
-574.719	386.695	-0.077	0.158
-573.704	-31.581	-0.452	-0.253
-572.690	-128.045	-0.293	0.042
-571.675	800.000	-0.037	0.118
-570.661	-55.649	0.044	-0.019
-569.646	260.386	-0.061	-0.106
-568.631	109.397	0.254	0.303
-567.617	202.263	0.290	0.446
-566.602	-21.399	-0.186	0.113
-565.588	-42.617	-0.316	0.160
-564.573	90.085	-0.062	-0.069
-563.558	170.011	-0.196	-0.279
-562.544	-163.403	0.110	-0.005
-561.529	800.000	0.044	-0.122
-560.515	3.271	0.214	-0.155
-559.500	-200.000	-0.016	0.322
-558.485	-61.882	0.106	0.044
-557.471	-11.163	-0.272	0.178
-556.456	-200.000	0.000	0.263
-555.442	-91.155	0.161	-0.046
-554.427	800.000	-0.050	-0.175
-553.412	74.060	0.336	-0.351
-552.398	22.024	-0.183	-0.149
-551.383	-200.000	-0.007	0.082
-550.369	-39.416	-0.287	0.150
-549.354	-200.000	-0.037	0.253
-548.339	331.272	0.073	-0.140
-547.325	-125.977	0.198	0.030
-546.310	138.073	0.025	-0.032
-545.296	-79.493	-0.268	-0.090
-544.281	-200.000	-0.003	-0.113
-543.266	-102.880	-0.297	-0.070
-542.252	76.557	-0.169	0.179
-541.237	64.114	-0.054	0.054
-540.223	627.722	-0.102	0.255
-539.208	-72.524	0.058	-0.021
-538.193	800.000	0.018	-0.079
-537.179	-69.101	-0.160	-0.061
-536.164	36.491	-0.051	-0.045
-535.150	-134.403	0.178	0.022
-534.135	-200.000	0.032	-0.283
-533.121	10.429	0.221	0.167
-532.106	226.032	-0.118	0.191
-531.091	162.316	0.080	-0.112
-530.077	-36.472	-0.278	0.149
-529.062	41.024	-0.081	0.073
-528.048	-74.614	-0.317	0.113
-527.033	-16.722	-0.172	0.108
-526.018	-133.864	-0.140	0.017
-525.004	-24.999	-0.192	0.113
-523.989	-77.692	-0.240	0.083
-522.975	54.970	-0.136	-0.131
-521.960	-25.586	-0.215	-0.126
-520.945	-99.430	0.339	-0.085
-519.931	64.630	0.221	-0.222
-518.916	312.510	-0.064	-0.119
-517.902	-139.063	-0.184	0.020
-516.887	450.798	0.057	-0.126
-515.872	-91.206	0.419	-0.120
-514.858	603.500	-0.012	0.030
-513.843	-200.000	-0.044	-0.219
-512.829	420.523	-0.056	-0.119
-511.814	-200.000	-0.017	0.139
-510.799	466.605	0.005	0.012
-509.785	-119.656	0.068	0.012
-508.770	800.000	-0.041	0.130
-507.756	-139.673	-0.101	0.011
-506.741	-125.057	0.133	0.020
-505.726	4.004	0.411	0.299
-504.712	-55.543	0.176	-0.078
-503.697	212.806	0.158	-0.248
-502.683	800.000	-0.042	-0.136
-501.668	-145.178	0.052	0.005
-500.653	55.358	-0.038	-0.037
-499.639	-200.000	-0.037	-0.175
-498.624	-1.923	-0.123	0.086
-497.610	-75.074	-0.359	-0.128
-496.595	-200.000	0.021	0.174
-495.581	246.137	0.127	-0.213
-494.566	-200.000	0.011	-0.143
-493.551	-200.000	-0.002	-0.065
-492.537	-133.854	0.359	-0.044
-491.522	-14.774	0.223	-0.142
-490.508	245.973	-0.097	0.162
-489.493	68.550	0.047	-0.048
-488.478	218.343	-0.115	0.183
-487.464	-10.343	0.266	0.176
-486.449	-130.407	-0.362	-0.049
-485.435	-200.000	-0.015	0.511
-484.420	-200.000	0.030	0.278
-483.405	800.000	0.058	-0.194
-482.391	-200.000	0.026	-0.184
-481.376	-90.754	0.281	0.081
-480.362	-200.000	0.023	-0.144
-479.347	778.611	-0.094	0.255
-478.332	-138.102	0.162	-0.018
-477.318	-180.853	0.271	0.005
-476.303	-89.584	0.130	0.038
-475.289	5.054	0.146	-0.107
-474.274	-67.333	0.192	-0.075
-473.259	22.971	-0.253	0.206
-472.245	-200.000	-0.079	0.387
-471.230	-141.784	0.271	-0.027
-470.216	77.729	-0.236	-0.250
-469.201	800.000	0.072	0.275
-468.186	199.586	0.164	0.249
-467.172	45.429	0.331	0.303
-466.157	153.907	-0.154	-0.210
-465.143	266.812	0.136	0.236
-464.128	-50.083	0.167	0.079
-463.113	-78.338	-0.212	0.072
-462.099	-12.009	0.288	0.187
-461.084	-85.755	0.148	0.045
-460.070	16.686	-0.081	-0.063
-459.055	-200.000	-0.075	0.341
-458.040	79.638	0.093	-0.099
-457.026	-181.718	-0.083	0.002
-456.011	-123.557	-0.355	0.056
-454.997	-98.459	-0.396	0.101
-453.982	-200.000	0.026	-0.299
-452.968	-55.925	-0.080	0.035
-451.953	367.462	-0.079	0.158
-450.938	-55.034	-0.297	-0.133
-449.924	-79.211	0.279	0.094
-448.909	800.000	0.029	0.084
-447.895	224.851	-0.082	-0.132
-446.880	497.961	0.061	0.140
-445.865	123.801	0.321	0.399
-444.851	-200.000	-0.039	0.310
-443.836	367.020	-0.041	-0.081
-442.822	-200.000	0.040	-0.342
-441.807	-200.000	-0.041	-0.450
-440.792	-86.221	-0.089	0.027
-439.778	782.572	-0.089	-0.243
-438.763	-81.990	0.277	-0.090
-437.749	-200.000	0.002	-0.076
-436.734	-200.000	-0.029	-0.265
-435.719	-200.000	0.010	0.349
-434.705	-200.000	0.041	-0.195
-433.690	139.095	0.252	-0.328
-432.676	-69.970	0.126	-0.048
-431.661	-135.117	0.050	0.006
-430.646	-200.000	-0.064	-0.408
-429.632	-28.630	-0.151	0.086
-428.617	-200.000	0.028	-0.249
-427.603	445.469	0.038	-0.083
-426.588	578.488	0.022	0.054
-425.573	172.373	0.093	-0.133
-424.559	667.333	-0.038	0.097
-423.544	-95.641	-0.216	0.057
-422.530	169.191	-0.149	0.211
-421.515	-81.627	-0.078	-0.025
-420.500	273.539	-0.098	0.171
-419.486	-139.106	-0.204	-0.022
-418.471	69.441	0.480	0.490
-417.457	-63.666	-0.457	0.186
-416.442	23.950	-0.092	-0.075
-415.428	-12.282	0.127	-0.082
-414.413	-120.730	0.175	-0.029
-413.398	800.000	0.034	-0.103
-412.384	84.037	0.155	-0.168
-411.369	-200.000	0.004	0.051
-410.355	83.568	0.289	-0.312
-409.340	-200.000	0.009	-0.257
-408.325	-200.000	-0.003	0.146
-407.311	-200.000	-0.051	-0.320
-406.296	800.000	0.043	-0.124
-405.282	-43.246	0.322	-0.161
-404.267	-38.761	-0.312	0.163
-403.252	135.047	0.016	-0.020
-402.238	95.953	-0.298	0.337
-401.223	-129.560	0.449	0.061
-400.209	-185.753	0.147	0.002
-399.194	111.677	-0.059	-0.070
-398.179	800.000	0.082	0.280
-397.165	242.552	0.117	-0.194
-396.150	21.888	-0.169	-0.136
-395.136	63.971	-0.267	-0.266
-394.121	8.568	-0.062	-0.046
-393.106	447.819	-0.189	-0.411
-392.092	111.674	-0.109	-0.130
-391.077	-200.000	-0.020	0.274
-390.063	479.744	0.020	0.044
-389.048	-74.721	0.155	0.055
-388.033	74.421	0.279	-0.290
-387.019	103.063	0.090	-0.105
-386.004	6.073	-0.260	0.191
-384.990	-40.362	-0.377	0.194
-383.975	319.359	0.085	0.160
-382.960	-38.707	0.183	0.096
-381.946	766.397	-0.042	0.113
-380.931	30.128	-0.067	0.057
-379.917	-121.876	-0.204	0.033
-378.902	453.417	-0.082	-0.180
-377.888	142.563	-0.042	0.055
-376.873	-128.222	-0.167	-0.024
-375.858	-159.925	-0.161	0.009
-374.844	131.863	0.128	0.164
-373.829	573.022	-0.107	0.259
-372.815	182.382	-0.036	-0.052
-371.800	-200.000	0.019	0.191
-370.785	800.000	-0.141	-0.484
-369.771	634.838	0.053	0.134
-368.756	-200.000	0.001	0.453
-367.742	-124.253	0.167	-0.026
-366.727	-11.071	-0.108	-0.070
-365.712	309.421	0.121	0.224
-364.698	50.825	0.120	0.113
-363.683	29.142	0.173	0.145
-362.669	609.631	-0.173	0.428
-361.654	-200.000	0.007	0.206
-360.639	171.554	0.113	0.161
-359.625	304.915	0.016	-0.030
-358.610	55.690	0.079	0.075
-357.596	0.831	0.290	0.206
-356.581	-200.000	-0.044	0.370
-355.566	-118.067	-0.173	0.031
-354.552	480.477	0.064	0.144
-353.537	547.098	-0.177	-0.420
-352.523	281.596	-0.097	-0.171
-351.508	228.698	0.054	0.087
-350.493	-84.086	0.121	0.038
-349.479	800.000	-0.071	0.195
-348.464	-200.000	-0.015	0.213
-347.450	-101.154	-0.227	0.055
-346.435	-108.487	-0.243	-0.052
-345.420	-200.000	-0.016	0.094
-344.406	-27.435	0.214	-0.123
-343.391	9.864	0.198	0.149
-342.377	-111.324	-0.123	-0.025
-341.362	-65.500	-0.146	-0.058
-340.348	-200.000	-0.099	0.493
-339.333	-39.560	0.116	-0.060
-338.318	3.483	-0.184	0.132
-337.304	-76.806	-0.130	-0.045
-336.289	-48.381	0.228	0.109
-335.275	148.910	0.163	-0.218
-334.260	-47.173	0.169	0.081
-333.245	79.193	-0.119	0.126
-332.231	-200.000	0.006	-0.077
-331.216	79.744	-0.057	-0.061
-330.202	-116.217	-0.141	-0.026
-329.187	159.099	0.061	-0.084
-328.172	-79.640	0.137	0.046
-327.158	-200.000	0.020	-0.369
-326.143	133.223	0.254	0.324
-325.129	-200.000	-0.039	0.214
-324.114	-200.000	-0.012	0.097
-323.099	12.908	-0.092	-0.070
-322.085	-59.895	0.202	-0.085
-321.070	100.874	0.345	0.397
-320.056	38.902	0.095	0.083
-319.041	-200.000	-0.040	0.250
-318.026	547.901	-0.109	0.259
-317.012	39.442	-0.301	-0.266
-315.997	-200.000	-0.003	0.046
-314.983	-83.882	0.332	0.105
-313.968	44.030	0.212	0.192
-312.953	-64.884	0.421	-0.168
-311.939	46.147	-0.052	0.048
-310.924	-88.373	-0.191	0.056
-309.910	22.182	-0.054	-0.044
-308.895	-89.733	0.166	0.048
-307.880	-150.937	-0.024	0.002
-306.866	-109.922	-0.158	-0.033
-305.851	20.861	0.231	-0.185
-304.837	-54.975	0.211	0.094
-303.822	800.000	-0.025	-0.102
-302.807	398.201	0.041	-0.085
-301.793	-28.617	0.196	0.111
-300.778	-1.664	-0.231	0.161
-299.764	-94.601	-0.189	0.051
-298.749	108.730	-0.042	-0.049
-297.735	-105.175	-0.323	0.073
-296.720	180.026	0.115	-0.166
-295.705	-125.613	0.387	-0.058
-294.691	-75.721	0.074	0.026
-293.676	-85.102	-0.174	-0.054
-292.662	-200.000	-0.006	0.160
-291.647	-132.362	0.197	0.025
-290.632	258.725	-0.019	0.033
-289.618	-101.668	-0.102	-0.024
-288.603	-28.668	0.265	0.150
-287.589	268.893	0.165	-0.285
-286.574	29.510	0.154	0.129
-285.559	337.071	0.139	-0.267
-284.545	-200.000	-0.027	-0.156
-283.530	-101.794	0.156	-0.037
-282.516	-200.000	0.005	-0.131
-281.501	84.393	-0.135	-0.146
-280.486	-200.000	-0.025	-0.132
-279.472	800.000	-0.041	0.148
-278.457	135.466	-0.120	0.154
-277.443	-37.523	0.288	0.152
-276.428	337.177	0.182	-0.349
-275.413	800.000	-0.049	-0.154
-274.399	-200.000	0.059	-0.265
-273.384	21.593	0.197	-0.158
-272.370	-104.872	0.036	-0.008
-271.355	-200.000	0.156	0.000
-270.340	800.000	-0.040	0.133
-269.326	135.217	-0.113	0.145
-268.311	-101.042	-0.585	0.141
-267.297	-20.623	0.070	0.042
-266.282	-200.000	-0.010	-0.111
-265.267	93.196	-0.079	0.088
-264.253	53.699	-0.130	-0.123
-263.238	800.000	-0.091	-0.258
-262.224	10.905	0.274	-0.206
-261.209	335.864	-0.082	-0.157
-260.195	92.107	0.122	-0.136
-259.180	-173.861	-0.154	0.004
-258.165	-77.910	0.375	0.127
-257.151	-12.464	0.146	0.094
-256.136	-200.000	-0.023	-0.277
-255.122	48.608	0.023	-0.021
-254.107	295.796	-0.182	-0.328
-253.092	42.223	0.101	-0.090
-252.078	-200.000	0.012	-0.210
-251.063	212.062	-0.128	-0.198
-250.049	139.574	-0.044	0.058
-249.034	800.000	-0.032	0.102
-248.019	120.282	-0.208	-0.254
-247.005	411.541	-0.099	-0.206
-245.990	-18.293	-0.362	-0.223
-244.976	328.335	-0.063	0.120
-243.961	-12.471	-0.057	0.037
-242.946	-93.337	-0.245	0.067
-241.932	347.376	0.165	0.320
-240.917	35.158	-0.182	-0.157
-239.903	-44.567	0.135	0.066
-238.888	-42.467	-0.332	-0.166
-237.873	-29.244	-0.155	-0.088
-236.859	629.954	0.149	0.371
-235.844	227.753	0.213	-0.342
-234.830	-134.851	-0.365	-0.044
-233.815	-200.000	-0.019	-0.091
-232.800	285.878	0.126	0.224
-231.786	-99.946	-0.188	-0.046
-230.771	800.000	0.052	0.218
-229.757	164.445	0.354	0.491
-228.742	-98.646	-0.133	-0.033
-227.727	337.137	0.069	-0.132
-226.713	-200.000	-0.018	0.077
-225.698	63.857	0.109	0.108
-224.684	147.212	0.117	-0.155
-223.669	800.000	0.084	-0.227
-222.655	-97.662	-0.071	-0.018
-221.640	604.200	0.103	-0.251
-220.625	-40.059	0.292	-0.150
-219.611	800.000	-0.035	-0.126
-218.596	84.615	-0.075	0.081
-217.582	-77.865	0.227	0.077
-216.567	190.018	-0.025	-0.037
-215.552	800.000	0.004	-0.012
-214.538	-200.000	0.049	0.265
-213.523	159.989	-0.047	-0.065
-212.509	-167.739	0.207	0.008
-211.494	163.285	-0.006	-0.009
-210.479	456.264	-0.050	-0.110
-209.465	-75.092	-0.151	-0.053
-208.450	285.658	0.139	0.247
-207.436	489.086	0.110	-0.246
-206.421	26.661	-0.157	-0.129
-205.406	91.004	-0.287	-0.317
-204.392	-200.000	-0.016	-0.238
-203.377	60.401	0.206	-0.201
-202.363	-200.000	0.042	-0.198
-201.348	307.589	0.135	0.247
-200.333	800.000	0.103	-0.358
-199.319	-157.531	-0.234	0.014
-198.304	-28.508	0.290	0.165
-197.290	-103.787	-0.245	-0.056
-196.275	-162.506	0.405	-0.020
-195.260	59.824	-0.203	0.197
-194.246	149.141	-0.139	0.185
-193.231	-200.000	-0.007	0.095
-192.217	-112.610	0.177	-0.035
-191.202	-92.052	0.222	-0.062
-190.187	207.330	0.193	-0.295
-189.173	-200.000	-0.000	0.224
-188.158	776.341	-0.107	-0.288
-187.144	-162.089	-0.304	-0.015
-186.129	-93.486	0.113	-0.031
-185.114	225.298	-0.039	-0.061
-184.100	364.773	-0.133	0.263
-183.085	800.000	-0.036	-0.140
-182.071	-200.000	-0.002	0.107
-181.056	-80.227	0.046	-0.015
-180.042	137.948	0.198	0.255
-179.027	247.217	0.120	0.199
-178.012	-97.513	-0.186	0.047
-176.998	245.925	0.088	-0.146
-175.983	-200.000	0.013	0.073
-174.969	800.000	-0.110	-0.403
-173.954	800.000	0.088	0.252
-172.939	146.672	0.141	-0.186
-171.925	327.164	0.062	-0.116
-170.910	265.828	0.189	-0.323
-169.896	466.025	-0.116	0.254
-168.881	-159.215	-0.519	-0.029
-167.866	-66.983	0.105	0.041
-166.852	-52.607	0.199	0.090
-165.837	59.964	0.091	-0.088
-164.823	144.752	-0.163	-0.213
-163.808	-178.678	-0.041	0.001
-162.793	-200.000	-0.005	0.094
-161.779	79.353	-0.258	0.272
-160.764	-200.000	-0.004	-0.105
-159.750	-82.832	0.331	0.105
-158.735	251.799	0.048	0.080
-157.720	-200.000	0.015	0.123
-156.706	800.000	-0.081	-0.324
-155.691	-105.301	-0.280	-0.063
-154.677	-200.000	0.019	-0.126
-153.662	-78.763	0.248	-0.083
-152.647	-35.868	-0.234	-0.124
-151.633	-82.508	0.176	0.056
-150.618	-162.229	-0.299	0.015
-149.604	-200.000	0.046	0.250
-148.589	800.000	0.056	0.199
-147.574	34.195	0.127	-0.108
-146.560	-56.144	-0.043	-0.019
-145.545	-47.343	0.104	-0.050
-144.531	-200.000	-0.006	0.478
-143.516	-200.000	0.028	-0.178
-142.502	181.222	0.112	0.162
-141.487	-200.000	0.015	0.198
-140.472	9.576	-0.074	-0.055
-139.458	-191.291	0.389	0.004
-138.443	-38.618	0.256	0.133
-137.429	171.023	-0.102	0.143
-136.414	-37.321	0.113	0.059
-135.399	-200.000	0.001	0.028
-134.385	800.000	-0.057	0.190
-133.370	-137.981	-0.264	0.029
-132.356	651.510	-0.109	-0.274
-131.341	-111.868	-0.207	-0.041
-130.326	-200.000	0.014	0.089
-129.312	93.751	-0.159	-0.176
-128.297	-200.000	0.048	-0.359
-127.283	173.978	0.108	-0.152
-126.268	254.746	0.133	-0.223
-125.253	-200.000	0.020	-0.414
-124.239	476.600	0.140	-0.310
-123.224	-101.296	0.375	0.090
-122.210	800.000	0.059	-0.195
