DTS Sentinel unit serial number:	SN413079Multiplexer serial number:	ORYXHardware model number:	OX4-SRSoftware version number:	ORYX F/W v4.00 Oryx Data Collector v3.7.2.0data status	okinstallation	princeton_trtdifferential loss correction	single-endedforward channel	channel 2reverse channel	N/Adate	2019/09/17time	06:39:34forward acquisition time	60.00reverse acquisition time	0.00gamma	496.2192k internal	0.2332k external	0.2332temperature offset calibration	0.9981default loss term (dB/km)	0.3790temperature slope calibration	1.0000multiplexer offset coefficient	1.0000multiplexer slope coefficient	1.0000fibre end	0.00T internal ref (°C)	27.94T ext. ref 1 (°C)	0.12T ext. ref 2 (°C)	21.35length (m)	temperature (°C)	Stokes	anti-Stokes-747.200	-136.393	0.120	-0.014
-746.185	800.000	-0.051	0.173
-745.171	800.000	0.014	0.044
-744.156	-200.000	-0.050	0.267
-743.142	154.697	-0.209	-0.289
-742.127	-200.000	0.057	0.306
-741.112	324.254	0.196	0.376
-740.098	6.699	0.201	0.151
-739.083	-200.000	-0.024	0.156
-738.069	-200.000	-0.044	0.238
-737.054	-95.212	-0.086	-0.023
-736.039	800.000	0.074	0.253
-735.025	-200.000	0.070	0.318
-734.010	158.457	-0.151	-0.210
-732.996	-121.876	-0.275	-0.046
-731.981	-200.000	-0.014	-0.229
-730.966	147.923	0.149	-0.202
-729.952	94.936	-0.197	-0.225
-728.937	-76.809	-0.181	-0.064
-727.923	103.422	0.199	0.235
-726.908	800.000	-0.170	-0.599
-725.894	133.856	-0.111	-0.144
-724.879	-137.193	-0.190	0.022
-723.864	800.000	0.114	-0.319
-722.850	-150.872	-0.187	-0.014
-721.835	374.759	0.063	0.130
-720.821	800.000	0.095	0.361
-719.806	-98.328	-0.187	-0.048
-718.791	124.848	0.010	0.013
-717.777	-128.691	0.187	-0.027
-716.762	282.931	-0.143	-0.258
-715.748	12.010	-0.220	-0.170
-714.733	-77.044	0.413	-0.145
-713.718	262.425	-0.096	0.167
-712.704	-200.000	0.057	0.274
-711.689	265.878	0.101	-0.178
-710.675	445.876	0.118	-0.261
-709.660	800.000	0.079	0.305
-708.645	53.351	-0.108	0.104
-707.631	-200.000	0.038	0.317
-706.616	-34.694	0.147	0.081
-705.602	9.906	0.106	-0.081
-704.587	-51.695	0.372	0.174
-703.572	800.000	0.085	-0.316
-702.558	-133.927	-0.313	-0.039
-701.543	-200.000	-0.055	-0.282
-700.529	130.821	-0.148	0.191
-699.514	46.368	-0.117	-0.109
-698.499	-118.478	-0.459	-0.082
-697.485	-200.000	0.004	0.030
-696.470	-200.000	0.001	-0.351
-695.456	-200.000	0.007	0.381
-694.441	-79.676	-0.193	0.065
-693.426	-73.792	0.084	0.031
-692.412	-23.664	-0.180	-0.109
-691.397	800.000	0.027	0.102
-690.383	-65.608	0.147	-0.059
-689.368	-200.000	-0.016	0.101
-688.354	-200.000	0.029	-0.131
-687.339	523.603	-0.100	0.235
-686.324	393.507	-0.070	0.147
-685.310	163.615	0.147	0.208
-684.295	98.447	-0.069	-0.080
-683.281	234.997	0.033	0.055
-682.266	-200.000	-0.014	-0.372
-681.251	-21.879	-0.138	0.084
-680.237	-50.385	0.249	0.118
-679.222	-141.515	0.313	0.032
-678.208	-200.000	-0.041	0.217
-677.193	800.000	0.048	0.136
-676.178	456.305	0.093	-0.206
-675.164	-174.443	0.180	0.005
-674.149	-105.527	-0.161	-0.037
-673.135	80.313	-0.200	0.216
-672.120	-20.658	0.086	-0.053
-671.105	152.641	-0.116	0.159
-670.091	49.565	-0.120	-0.113
-669.076	-102.028	-0.080	0.019
-668.062	-88.693	-0.298	-0.089
-667.047	9.470	-0.205	0.156
-666.032	800.000	-0.102	0.314
-665.018	-200.000	-0.015	0.154
-664.003	-200.000	-0.028	-0.158
-662.989	-100.258	0.304	0.076
-661.974	-200.000	0.043	0.364
-660.959	175.014	-0.007	-0.010
-659.945	-58.339	-0.278	0.121
-658.930	800.000	-0.087	-0.248
-657.916	-13.598	-0.057	-0.037
-656.901	-105.217	-0.177	-0.040
-655.886	309.529	0.022	0.041
-654.872	-97.520	0.206	0.054
-653.857	-171.345	-0.080	0.003
-652.843	-155.977	-0.373	0.024
-651.828	304.187	0.073	0.136
-650.814	62.194	0.159	0.159
-649.799	246.413	-0.177	0.299
-648.784	-18.817	-0.090	0.056
-647.770	-148.394	0.144	-0.012
-646.755	67.100	-0.232	0.237
-645.741	-156.205	-0.235	0.015
-644.726	800.000	-0.047	0.197
-643.711	800.000	-0.028	-0.093
-642.697	146.162	-0.031	-0.042
-641.682	-45.271	-0.241	-0.120
-640.668	-113.551	0.077	-0.015
-639.653	-200.000	-0.006	-0.164
-638.638	51.533	-0.184	-0.175
-637.624	-61.211	-0.577	-0.244
-636.609	-200.000	-0.028	-0.265
-635.595	484.291	0.151	-0.345
-634.580	18.129	0.179	-0.143
-633.565	36.125	-0.127	-0.112
-632.551	-100.226	-0.108	-0.027
-631.536	211.033	0.141	-0.222
-630.522	-129.589	-0.286	-0.040
-629.507	-200.000	0.008	0.115
-628.492	-9.918	-0.084	0.056
-627.478	-60.251	-0.040	-0.017
-626.463	-200.000	0.031	-0.267
-625.449	800.000	0.087	-0.342
-624.434	-144.287	-0.310	0.029
-623.419	-32.156	0.099	0.055
-622.405	-31.665	-0.283	0.159
-621.390	553.059	0.097	0.234
-620.376	-86.903	0.214	0.065
-619.361	169.924	0.141	0.202
-618.346	228.708	0.323	0.527
-617.332	792.205	0.070	0.193
-616.317	-200.000	-0.001	0.011
-615.303	111.527	0.119	0.144
-614.288	58.203	-0.112	0.110
-613.273	-200.000	-0.020	0.195
-612.259	-140.200	-0.228	-0.024
-611.244	252.023	-0.057	-0.097
-610.230	-7.291	0.186	-0.126
-609.215	800.000	-0.053	-0.158
-608.201	-59.666	-0.078	0.033
-607.186	112.418	-0.221	-0.268
-606.171	88.814	0.197	-0.219
-605.157	35.912	-0.160	-0.141
-604.142	373.009	-0.245	-0.498
-603.128	-177.733	0.288	0.007
-602.113	355.194	-0.068	-0.134
-601.098	-200.000	-0.014	-0.112
-600.084	67.238	0.089	0.091
-599.069	-200.000	0.018	-0.306
-598.055	-78.268	0.259	-0.089
-597.040	98.155	0.190	0.219
-596.025	-91.349	0.285	0.082
-595.011	-61.939	0.097	0.041
-593.996	-121.575	-0.098	-0.016
-592.982	248.226	-0.137	0.231
-591.967	-200.000	-0.050	0.331
-590.952	-32.170	0.158	-0.088
-589.938	-131.308	-0.355	-0.047
-588.923	-200.000	0.051	-0.224
-587.909	82.053	-0.320	0.347
-586.894	131.459	-0.169	0.217
-585.879	-113.081	-0.255	0.050
-584.865	423.122	0.086	0.184
-583.850	-28.341	0.392	-0.226
-582.836	160.125	-0.112	0.156
-581.821	-200.000	-0.018	0.272
-580.806	-15.037	-0.155	-0.099
-579.792	58.494	0.140	0.137
-578.777	-145.023	-0.347	-0.032
-577.763	313.415	0.134	-0.251
-576.748	108.875	-0.152	0.181
-575.733	-119.532	0.078	-0.014
-574.719	-79.618	0.048	-0.016
-573.704	800.000	-0.087	-0.250
-572.690	800.000	-0.094	-0.281
-571.675	-155.251	-0.289	0.019
-570.661	-200.000	0.002	-0.040
-569.646	-200.000	-0.081	0.421
-568.631	-200.000	0.019	0.154
-567.617	20.742	0.165	0.133
-566.602	220.941	-0.090	-0.145
-565.588	-90.865	0.249	-0.072
-564.573	-113.871	0.189	0.037
-563.558	-144.657	0.171	0.016
-562.544	-123.222	0.278	-0.044
-561.529	-200.000	-0.078	-0.416
-560.515	800.000	0.106	-0.329
-559.500	-126.563	-0.299	-0.044
-558.485	-138.255	0.205	0.023
-557.471	-200.000	0.000	0.137
-556.456	-14.109	0.167	0.108
-555.442	-200.000	-0.014	-0.104
-554.427	53.184	0.035	-0.033
-553.412	-102.926	0.228	0.054
-552.398	14.624	0.103	-0.080
-551.383	37.397	-0.148	0.131
-550.369	-200.000	-0.012	0.154
-549.354	-78.212	-0.552	0.189
-548.339	-200.000	-0.003	0.055
-547.325	74.680	0.071	-0.075
-546.310	-170.088	-0.075	-0.003
-545.296	104.040	0.189	-0.222
-544.281	-87.701	-0.347	0.105
-543.266	-78.917	0.271	0.092
-542.252	-85.019	-0.456	0.143
-541.237	215.111	-0.053	0.084
-540.223	-200.000	0.054	0.236
-539.208	81.180	-0.115	0.124
-538.193	-200.000	-0.014	0.108
-537.179	-190.070	0.187	-0.002
-536.164	179.349	-0.148	-0.215
-535.150	103.339	-0.085	0.099
-534.135	-48.919	0.341	-0.163
-533.121	-200.000	0.001	0.098
-532.106	642.740	-0.054	-0.138
-531.091	547.147	-0.016	-0.038
-530.077	189.149	-0.155	0.232
-529.062	434.534	-0.123	-0.267
-528.048	-200.000	0.039	-0.324
-527.033	-157.597	-0.251	-0.015
-526.018	-147.124	0.190	0.016
-525.004	149.825	-0.093	0.126
-523.989	-87.700	0.246	0.074
-522.975	-200.000	0.042	0.207
-521.960	71.031	0.123	-0.127
-520.945	720.603	-0.058	-0.155
-519.931	800.000	-0.056	-0.167
-518.916	-200.000	0.024	0.125
-517.902	-56.211	-0.033	-0.015
-516.887	-81.875	-0.246	0.080
-515.872	-200.000	-0.058	-0.426
-514.858	430.773	0.095	-0.205
-513.843	-65.225	0.354	-0.142
-512.829	1.993	0.205	0.147
-511.814	-147.897	-0.225	0.019
-510.799	-196.751	0.156	0.001
-509.785	-2.174	0.166	-0.116
-508.770	-20.078	-0.136	0.084
-507.756	-200.000	-0.014	0.112
-506.741	561.346	0.123	0.298
-505.726	5.607	-0.111	0.082
-504.712	-149.778	-0.178	-0.014
-503.697	800.000	0.041	-0.139
-502.683	-200.000	-0.025	-0.213
-501.668	-200.000	0.017	-0.145
-500.653	3.509	0.184	-0.134
-499.639	776.563	-0.126	0.343
-498.624	800.000	0.071	-0.260
-497.610	-103.386	0.295	0.069
-496.595	800.000	-0.104	0.366
-495.581	-85.427	-0.093	0.029
-494.566	-159.274	-0.170	0.009
-493.551	800.000	0.046	0.190
-492.537	-90.483	0.297	-0.086
-491.522	-77.609	-0.358	-0.124
-490.508	224.229	0.035	-0.057
-489.493	-200.000	0.082	0.404
-488.478	13.705	0.245	-0.190
-487.464	-200.000	0.021	-0.189
-486.449	18.503	-0.183	-0.146
-485.435	-79.531	-0.179	-0.060
-484.420	-105.468	-0.227	-0.051
-483.405	-15.760	-0.192	-0.122
-482.391	-68.967	0.121	-0.047
-481.376	324.168	-0.225	0.427
-480.362	-200.000	0.087	-0.592
-479.347	90.676	-0.114	-0.128
-478.332	-52.279	0.136	-0.063
-477.318	760.626	0.081	0.218
-476.303	650.546	0.083	0.211
-475.289	29.459	-0.051	0.043
-474.274	800.000	-0.014	-0.057
-473.259	-140.931	-0.100	0.010
-472.245	252.978	0.102	-0.172
-471.230	679.307	0.035	-0.091
-470.216	-200.000	-0.022	-0.376
-469.201	-6.192	0.161	-0.109
-468.186	-59.827	0.137	-0.058
-467.172	-107.513	-0.254	0.055
-466.157	-200.000	-0.010	-0.184
-465.143	-200.000	0.006	-0.252
-464.128	-200.000	-0.001	0.518
-463.113	-34.648	0.200	-0.109
-462.099	92.474	-0.173	0.194
-461.084	112.556	-0.210	-0.253
-460.070	316.216	0.175	0.329
-459.055	119.369	-0.178	0.219
-458.040	-30.560	-0.170	-0.096
-457.026	-53.284	0.238	-0.109
-456.011	-200.000	-0.073	0.506
-454.997	-200.000	-0.027	-0.296
-453.982	-200.000	0.030	0.162
-452.968	-190.647	-0.209	-0.002
-451.953	101.174	-0.220	-0.254
-450.938	-155.782	-0.250	0.016
-449.924	-90.251	-0.251	-0.073
-448.909	-200.000	0.024	-0.210
-447.895	187.578	-0.055	-0.081
-446.880	99.151	-0.091	-0.104
-445.865	765.615	0.071	0.193
-444.851	316.895	-0.135	0.253
-443.836	-54.703	-0.220	-0.099
-442.822	-23.789	0.359	0.214
-441.807	-162.037	0.183	0.009
-440.792	800.000	0.053	-0.194
-439.778	-200.000	0.004	-0.080
-438.763	115.894	-0.178	0.217
-437.749	-79.810	-0.244	-0.082
-436.734	-56.203	0.314	-0.139
-435.719	68.361	-0.109	0.111
-434.705	-138.496	0.185	-0.020
-433.690	-200.000	0.062	0.285
-432.676	48.153	0.331	0.308
-431.661	123.985	-0.169	0.211
-430.646	484.948	-0.058	0.132
-429.632	800.000	-0.069	-0.192
-428.617	-136.797	-0.140	-0.016
-427.603	-92.111	-0.171	0.048
-426.588	-200.000	0.019	0.086
-425.573	-160.436	-0.214	-0.011
-424.559	-32.147	-0.209	0.116
-423.544	733.905	0.100	-0.266
-422.530	88.524	0.055	-0.061
-421.515	-101.393	-0.343	0.083
-420.500	-75.846	-0.202	0.071
-419.486	800.000	0.068	0.203
-418.471	-173.405	-0.207	-0.006
-417.457	-200.000	-0.037	0.461
-416.442	15.563	0.039	0.030
-415.428	-200.000	0.005	0.069
-414.413	-94.646	-0.076	0.021
-413.398	-90.291	-0.289	0.083
-412.384	-103.013	-0.204	0.048
-411.369	800.000	0.082	0.292
-410.355	-160.845	-0.311	0.016
-409.340	21.128	0.202	-0.163
-408.325	-92.971	-0.183	-0.051
-407.311	-200.000	-0.071	-0.339
-406.296	-82.042	-0.081	0.026
-405.282	73.947	0.230	-0.239
-404.267	-200.000	-0.015	-0.183
-403.252	-83.095	0.270	0.086
-402.238	60.672	-0.145	0.143
-401.223	152.031	0.205	0.278
-400.209	-200.000	0.008	0.276
-399.194	361.537	0.052	-0.103
-398.179	-89.096	-0.220	0.065
-397.165	2.801	0.089	0.064
-396.150	-25.748	0.109	-0.064
-395.136	-200.000	0.025	-0.144
-394.121	490.667	-0.077	-0.174
-393.106	-13.107	-0.292	0.188
-392.092	0.621	-0.152	0.108
-391.077	-68.845	-0.245	-0.094
-390.063	729.043	-0.073	0.194
-389.048	90.771	0.174	0.193
-388.033	-30.599	-0.158	0.089
-387.019	800.000	-0.060	-0.231
-386.004	-152.113	0.109	-0.008
-384.990	-200.000	0.354	0.001
-383.975	-161.228	-0.207	-0.011
-382.960	-153.794	0.068	-0.005
-381.946	548.828	0.088	-0.208
-380.931	-200.000	0.045	0.197
-379.917	436.840	0.066	-0.143
-378.902	-135.871	0.370	0.043
-377.888	-70.553	0.305	0.114
-376.873	-24.326	0.156	0.092
-375.858	218.976	0.104	0.165
-374.844	-200.000	-0.013	-0.186
-373.829	-45.770	0.217	-0.106
-372.815	-61.716	-0.030	-0.012
-371.800	38.339	0.163	0.144
-370.785	2.262	-0.179	-0.128
-369.771	800.000	0.039	0.166
-368.756	-200.000	-0.001	0.278
-367.742	-116.234	-0.158	-0.029
-366.727	153.728	0.104	0.141
-365.712	-3.771	-0.164	-0.113
-364.698	122.128	-0.114	0.141
-363.683	-200.000	-0.009	0.120
-362.669	-89.236	0.176	0.052
-361.654	460.667	-0.134	0.296
-360.639	-200.000	-0.018	-0.294
-359.625	41.259	-0.197	0.176
-358.610	178.398	0.100	-0.144
-357.596	-200.000	0.014	0.136
-356.581	177.512	-0.203	-0.293
-355.566	116.053	0.107	0.130
-354.552	800.000	-0.096	-0.367
-353.537	800.000	-0.008	-0.033
-352.523	43.694	0.079	-0.072
-351.508	29.671	-0.067	0.057
-350.493	317.599	-0.094	0.176
-349.479	-200.000	-0.009	0.212
-348.464	-40.280	0.190	-0.098
-347.450	800.000	-0.024	0.068
-346.435	-81.118	0.154	0.050
-345.420	188.365	0.190	0.281
-344.406	-200.000	-0.019	0.274
-343.391	224.173	0.135	-0.216
-342.377	-106.068	0.264	-0.059
-341.362	167.906	-0.071	-0.100
-340.348	-29.379	0.147	0.083
-339.333	-128.918	0.236	0.033
-338.318	-200.000	-0.011	-0.057
-337.304	-135.997	-0.292	0.034
-336.289	26.922	-0.377	0.313
-335.275	49.019	-0.294	0.273
-334.260	-60.968	-0.017	-0.007
-333.245	-165.482	0.144	-0.006
-332.231	443.997	-0.115	-0.249
-331.216	18.841	0.062	-0.049
-330.202	-6.920	0.423	0.285
-329.187	312.467	0.160	0.297
-328.172	8.292	0.325	0.242
-327.158	32.459	-0.243	0.208
-326.143	35.438	0.107	-0.093
-325.129	-116.576	0.096	-0.017
-324.114	-91.014	-0.357	0.102
-323.099	-200.000	-0.046	0.285
-322.085	125.631	0.164	-0.205
-321.070	-110.101	-0.160	0.033
-320.056	130.041	0.204	-0.258
-319.041	-198.645	0.320	-0.002
-318.026	212.879	-0.127	-0.199
-317.012	2.640	0.325	0.233
-315.997	72.644	0.135	-0.139
-314.983	-58.052	0.107	-0.046
-313.968	800.000	0.013	0.039
-312.953	-159.479	0.264	0.015
-311.939	-126.591	-0.225	-0.033
-310.924	-105.672	0.255	0.057
-309.910	-200.000	0.022	0.216
-308.895	9.587	-0.034	-0.026
-307.880	669.912	0.052	-0.132
-306.866	108.477	0.056	-0.066
-305.851	464.678	0.037	-0.083
-304.837	-32.929	0.167	0.092
-303.822	-63.094	-0.163	0.067
-302.807	-13.002	0.056	-0.036
-301.793	73.245	0.144	0.148
-300.778	7.142	-0.077	-0.057
-299.764	-200.000	-0.007	0.129
-298.749	328.025	-0.103	-0.195
-297.735	-122.187	0.068	0.011
-296.720	-66.461	0.071	-0.028
-295.705	-59.621	-0.254	0.108
-294.691	-104.809	0.468	-0.106
-293.676	38.682	0.099	-0.087
-292.662	123.620	-0.253	-0.314
-291.647	745.797	-0.026	-0.070
-290.632	53.116	-0.221	0.209
-289.618	-173.193	0.284	0.009
-288.603	-200.000	0.042	0.192
-287.589	303.345	-0.216	-0.396
-286.574	-34.490	-0.215	-0.116
-285.559	-200.000	0.035	-0.245
-284.545	800.000	0.024	-0.079
-283.530	92.586	0.052	0.058
-282.516	-19.626	-0.063	0.039
-281.501	-86.038	-0.241	-0.074
-280.486	24.621	-0.079	-0.065
-279.472	538.865	0.186	0.438
-278.457	-54.028	0.263	-0.118
-277.443	-200.000	-0.034	-0.191
-276.428	800.000	0.050	-0.179
-275.413	800.000	-0.061	-0.174
-274.399	278.001	0.068	-0.120
-273.384	193.376	-0.020	-0.030
-272.370	-17.878	-0.244	0.151
-271.355	-200.000	0.016	-0.090
-270.340	622.684	0.050	0.125
-269.326	800.000	-0.070	0.239
-268.311	423.403	-0.085	0.181
-267.297	512.460	0.044	-0.102
-266.282	29.754	0.135	-0.114
-265.267	-198.967	0.140	-0.001
-264.253	800.000	-0.058	-0.200
-263.238	148.616	-0.157	-0.209
-262.224	-200.000	0.007	0.035
-261.209	-200.000	-0.013	0.109
-260.195	-51.696	0.036	-0.016
-259.180	-160.722	-0.079	0.004
-258.165	-7.748	0.149	-0.099
-257.151	56.314	-0.070	-0.067
-256.136	17.748	-0.097	-0.077
-255.122	-200.000	-0.014	-0.339
-254.107	-9.475	0.089	-0.058
-253.092	8.251	-0.271	0.201
-252.078	-175.117	0.384	-0.011
-251.063	14.274	0.188	-0.144
-250.049	-5.804	-0.067	0.045
-249.034	59.900	-0.211	-0.206
-248.019	800.000	0.129	-0.374
-247.005	-200.000	0.086	0.392
-245.990	30.812	-0.038	0.032
-244.976	-23.968	0.170	0.101
-243.961	-143.477	-0.335	-0.032
-242.946	-42.031	-0.263	-0.133
-241.932	-35.432	-0.111	0.060
-240.917	-174.372	0.152	-0.004
-239.903	-159.566	0.292	-0.016
-238.888	403.618	0.186	0.385
-237.873	-122.993	0.250	0.040
-236.859	-200.000	-0.022	-0.295
-235.844	155.436	-0.278	-0.378
-234.830	-53.672	0.101	-0.046
-233.815	-1.696	0.171	-0.119
-232.800	159.590	0.141	-0.193
-231.786	-82.629	-0.246	0.078
-230.771	800.000	-0.084	-0.239
-229.757	102.671	0.160	-0.184
-228.742	-32.968	0.154	0.084
-227.727	800.000	0.022	-0.071
-226.713	-12.337	0.253	-0.163
-225.698	-92.003	-0.057	-0.016
-224.684	-136.581	-0.533	0.061
-223.669	-82.756	0.263	0.084
-222.655	-0.668	0.048	0.033
-221.640	125.356	-0.256	0.318
-220.625	173.416	-0.006	-0.009
-219.611	-200.000	-0.076	-0.000
-218.596	409.327	0.055	-0.115
-217.582	-200.000	0.027	-0.153
-216.567	-97.428	-0.095	0.024
-215.552	31.652	0.197	-0.167
-214.538	29.529	0.077	0.064
-213.523	-200.000	-0.067	0.399
-212.509	65.711	0.245	-0.245
-211.494	-200.000	-0.061	0.356
-210.479	47.897	0.128	-0.118
-209.465	112.747	0.329	-0.393
-208.450	-21.662	0.075	0.045
-207.436	430.526	0.223	-0.476
-206.421	-29.256	-0.238	-0.135
-205.406	67.754	-0.046	-0.046
-204.392	-200.000	-0.046	0.269
-203.377	800.000	-0.070	-0.236
-202.363	18.817	-0.117	0.093
-201.348	800.000	-0.106	0.375
-200.333	-147.949	-0.161	-0.013
-199.319	-113.088	-0.232	-0.045
-198.304	407.725	0.068	0.141
-197.290	29.748	-0.175	0.147
-196.275	5.553	0.048	0.035
-195.260	-200.000	-0.086	-0.429
-194.246	-200.000	-0.041	0.211
-193.231	-128.377	0.503	0.070
-192.217	252.716	0.122	0.205
-191.202	64.594	-0.079	-0.078
-190.187	-200.000	-0.059	-0.373
-189.173	-126.405	-0.113	0.017
-188.158	-200.000	0.022	-0.141
-187.144	149.407	-0.059	-0.079
-186.129	310.514	0.142	-0.262
-185.114	71.816	0.176	0.180
-184.100	-200.000	0.021	0.146
-183.085	-108.704	0.129	0.027
-182.071	-34.411	-0.133	-0.072
-181.056	10.446	0.142	-0.106
-180.042	800.000	0.075	-0.245
-179.027	189.350	-0.119	-0.176
-178.012	800.000	0.067	0.248
-176.998	213.702	-0.055	0.086
-175.983	158.825	0.186	0.255
-174.969	11.504	-0.057	0.043
-173.954	104.991	0.208	0.241
-172.939	414.792	0.035	0.074
-171.925	745.381	0.020	0.052
-170.910	-200.000	-0.017	-0.221
-169.896	-200.000	-0.040	-0.304
-168.881	198.226	0.111	-0.168
-167.866	288.643	0.084	0.150
-166.852	36.689	-0.147	0.128
-165.837	21.538	0.065	-0.052
-164.823	57.322	0.265	-0.254
-163.808	-200.000	-0.010	0.050
-162.793	97.469	-0.149	-0.168
-161.779	128.924	-0.218	0.273
-160.764	800.000	0.163	0.472
-159.750	80.819	0.023	-0.024
-158.735	-117.206	0.297	0.053
-157.720	-200.000	0.008	0.258
-156.706	800.000	0.093	0.261
-155.691	-41.389	0.356	-0.180
-154.677	-59.377	0.080	-0.034
-153.662	-137.056	0.252	0.028
-152.647	228.100	0.162	0.260
-151.633	-89.264	-0.252	-0.073
-150.618	-66.786	-0.080	-0.031
-149.604	8.203	-0.245	-0.181
-148.589	-127.219	-0.180	-0.026
-147.574	21.411	0.108	-0.086
-146.560	-116.209	0.179	-0.033
-145.545	228.039	-0.185	-0.296
-144.531	143.612	-0.232	0.304
-143.516	-74.754	0.116	-0.041
-142.502	-71.516	0.249	0.091
-141.487	-113.904	0.249	-0.047
-140.472	800.000	-0.035	-0.120
-139.458	278.537	0.039	0.067
-138.443	374.343	0.157	0.315
-137.429	-200.000	-0.020	0.145
-136.414	-200.000	-0.011	-0.127
-135.399	52.578	-0.155	0.145
-134.385	-148.250	0.196	0.016
-133.370	-116.492	0.137	-0.025
-132.356	-200.000	-0.012	0.282
-131.341	64.679	-0.035	-0.035
-130.326	207.446	-0.106	0.162
-129.312	105.856	0.053	-0.062
-128.297	6.442	-0.140	0.102
-127.283	666.698	-0.116	-0.296
-126.268	-200.000	0.002	0.011
-125.253	-200.000	-0.009	0.059
-124.239	-137.036	-0.248	0.028
-123.224	-36.380	0.357	0.189
-122.210	140.118	0.079	0.103
