DTS Sentinel unit serial number:	SN413079Multiplexer serial number:	ORYXHardware model number:	OX4-SRSoftware version number:	ORYX F/W v4.00 Oryx Data Collector v3.7.2.0data status	okinstallation	princeton_trtdifferential loss correction	single-endedforward channel	channel 2reverse channel	N/Adate	2019/09/12time	04:57:11forward acquisition time	60.00reverse acquisition time	0.00gamma	496.2192k internal	0.2326k external	0.2326temperature offset calibration	1.0075default loss term (dB/km)	0.3790temperature slope calibration	1.0000multiplexer offset coefficient	1.0000multiplexer slope coefficient	1.0000fibre end	0.00T internal ref (°C)	31.69T ext. ref 1 (°C)	1.80T ext. ref 2 (°C)	27.07length (m)	temperature (°C)	Stokes	anti-Stokes-747.200	800.000	0.049	-0.208
-746.185	-200.000	0.018	0.126
-745.171	-200.000	0.048	-0.435
-744.156	-200.000	-0.018	0.130
-743.142	800.000	0.056	-0.182
-742.127	-11.399	-0.157	0.104
-741.112	21.979	0.288	0.237
-740.098	92.841	-0.050	-0.057
-739.083	-126.720	-0.338	-0.050
-738.069	-41.249	-0.135	0.070
-737.054	-124.932	-0.169	0.026
-736.039	-151.467	-0.434	0.032
-735.025	-200.000	0.026	0.160
-734.010	15.234	-0.126	-0.100
-732.996	251.052	-0.125	-0.214
-731.981	417.209	-0.229	-0.492
-730.966	-200.000	0.070	-0.426
-729.952	311.860	0.174	-0.330
-728.937	-94.131	0.176	0.049
-727.923	-200.000	0.049	-0.316
-726.908	146.948	0.061	-0.083
-725.894	192.458	-0.089	0.136
-724.879	-156.769	0.311	0.019
-723.864	-14.983	0.090	-0.058
-722.850	-106.580	-0.124	-0.028
-721.835	63.633	0.133	-0.135
-720.821	209.533	0.144	-0.228
-719.806	-12.583	-0.377	-0.248
-718.791	5.274	0.058	0.043
-717.777	800.000	0.093	0.343
-716.762	138.403	-0.275	-0.363
-715.748	800.000	0.049	0.178
-714.733	-200.000	-0.019	-0.261
-713.718	-135.588	0.159	-0.019
-712.704	-83.188	-0.154	0.050
-711.689	640.702	-0.066	-0.170
-710.675	-200.000	-0.038	-0.208
-709.660	-200.000	0.013	-0.167
-708.645	-200.000	-0.005	-0.250
-707.631	245.168	0.009	0.016
-706.616	-200.000	-0.054	-0.250
-705.602	-78.034	-0.169	-0.058
-704.587	-50.218	0.026	-0.012
-703.572	102.757	-0.103	-0.121
-702.558	-200.000	0.025	0.215
-701.543	-47.831	-0.252	0.123
-700.529	-0.981	0.215	0.153
-699.514	-200.000	-0.005	0.043
-698.499	800.000	-0.107	-0.325
-697.485	52.797	0.259	-0.249
-696.470	800.000	0.133	0.434
-695.456	211.463	0.085	-0.135
-694.441	-28.769	-0.101	0.058
-693.426	800.000	0.071	0.229
-692.412	64.390	0.069	0.070
-691.397	-200.000	0.008	-0.538
-690.383	176.688	-0.128	-0.188
-689.368	-63.493	-0.259	-0.107
-688.354	159.002	0.088	0.124
-687.339	734.939	-0.056	0.151
-686.324	775.968	0.049	0.134
-685.310	800.000	-0.030	-0.099
-684.295	800.000	0.047	-0.174
-683.281	-192.564	-0.178	-0.002
-682.266	27.029	0.107	-0.091
-681.251	-2.878	-0.179	0.126
-680.237	46.006	0.216	0.202
-679.222	33.783	-0.247	-0.217
-678.208	-46.584	-0.336	0.166
-677.193	-200.000	0.049	-0.355
-676.178	-200.000	0.019	0.222
-675.164	-69.203	-0.461	-0.178
-674.149	-106.705	0.354	0.079
-673.135	15.249	0.172	-0.135
-672.120	260.031	-0.142	-0.247
-671.105	336.205	-0.051	-0.099
-670.091	800.000	-0.025	0.091
-669.076	-87.659	-0.506	-0.154
-668.062	-116.690	0.324	0.060
-667.047	-24.131	-0.086	-0.052
-666.032	397.711	0.068	-0.143
-665.018	-128.794	-0.235	0.033
-664.003	-63.131	-0.150	-0.062
-662.989	800.000	-0.097	-0.293
-661.974	-127.022	0.307	0.045
-660.959	442.611	0.069	-0.152
-659.945	-159.329	-0.065	-0.004
-658.930	-1.372	-0.246	-0.174
-657.916	177.775	0.250	0.367
-656.901	99.309	-0.155	-0.181
-655.886	-105.123	0.428	-0.098
-654.872	106.134	0.158	0.188
-653.857	-17.927	0.065	-0.041
-652.843	-200.000	-0.076	0.353
-651.828	20.589	-0.161	-0.131
-650.814	267.500	0.081	0.143
-649.799	311.364	-0.124	0.234
-648.784	-200.000	-0.028	-0.216
-647.770	71.566	0.145	0.151
-646.755	-200.000	0.035	0.410
-645.741	-200.000	0.008	0.317
-644.726	-100.507	-0.130	0.032
-643.711	800.000	-0.077	-0.264
-642.697	800.000	0.085	-0.256
-641.682	48.203	0.339	-0.319
-640.668	800.000	-0.086	-0.244
-639.653	-137.858	-0.237	0.027
-638.638	228.422	0.187	-0.306
-637.624	-143.069	-0.238	-0.023
-636.609	800.000	-0.082	-0.304
-635.595	581.558	-0.150	-0.368
-634.580	-38.034	0.384	0.205
-633.565	35.380	-0.227	0.200
-632.551	20.578	0.087	-0.071
-631.536	800.000	-0.105	-0.408
-630.522	800.000	-0.085	-0.241
-629.507	-52.948	-0.144	0.067
-628.492	-14.520	-0.217	0.140
-627.478	211.445	-0.276	-0.436
-626.463	-200.000	-0.002	-0.295
-625.449	-123.617	-0.149	0.024
-624.434	-2.416	-0.110	-0.077
-623.419	-200.000	0.010	0.075
-622.405	-200.000	-0.014	-0.514
-621.390	239.460	0.070	-0.116
-620.376	800.000	-0.076	-0.255
-619.361	-200.000	0.023	0.109
-618.346	-200.000	-0.016	-0.246
-617.332	193.107	-0.047	0.071
-616.317	-200.000	0.044	-0.361
-615.303	10.493	0.053	0.041
-614.288	-142.963	0.202	-0.020
-613.273	-88.530	-0.191	-0.057
-612.259	-121.045	0.248	0.042
-611.244	520.652	-0.092	-0.217
-610.230	-200.000	-0.040	0.189
-609.215	14.550	0.237	0.186
-608.201	37.387	-0.125	0.111
-607.186	42.571	-0.079	-0.072
-606.171	-33.334	-0.039	-0.022
-605.157	-42.702	-0.304	-0.155
-604.142	738.755	0.168	-0.452
-603.128	55.779	-0.104	-0.101
-602.113	-91.731	0.351	0.100
-601.098	-200.000	0.024	-0.286
-600.084	104.599	-0.227	0.268
-599.069	-200.000	0.032	0.152
-598.055	-39.281	-0.235	-0.124
-597.040	305.495	-0.085	-0.158
-596.025	0.120	-0.020	-0.015
-595.011	384.255	-0.036	0.074
-593.996	-95.372	0.196	-0.053
-592.982	-136.608	-0.223	-0.026
-591.967	-44.272	-0.152	0.076
-590.952	-84.170	-0.306	-0.097
-589.938	800.000	-0.017	0.068
-588.923	106.999	-0.316	-0.376
-587.909	-200.000	-0.049	-0.248
-586.894	800.000	-0.131	-0.395
-585.879	-70.662	-0.470	-0.178
-584.865	800.000	-0.116	-0.381
-583.850	-101.536	-0.398	-0.097
-582.836	144.545	-0.370	0.496
-581.821	-80.384	0.256	-0.086
-580.806	-123.122	-0.437	0.070
-579.792	-68.016	-0.135	0.053
-578.777	-200.000	-0.002	-0.088
-577.763	197.656	-0.309	0.473
-576.748	-48.011	0.164	-0.079
-575.733	-80.032	0.258	0.087
-574.719	487.970	-0.172	0.393
-573.704	66.632	0.157	0.160
-572.690	-83.683	0.149	-0.048
-571.675	-200.000	0.002	0.102
-570.661	525.730	0.146	0.345
-569.646	345.565	0.086	0.169
-568.631	-200.000	0.079	-0.486
-567.617	-136.752	-0.079	0.009
-566.602	-200.000	-0.049	-0.348
-565.588	530.611	0.031	-0.074
-564.573	204.445	0.129	-0.200
-563.558	-186.745	-0.276	-0.004
-562.544	-200.000	-0.022	0.126
-561.529	-121.473	0.123	0.020
-560.515	-151.488	-0.193	-0.014
-559.500	243.684	-0.135	-0.228
-558.485	-200.000	0.029	0.138
-557.471	-89.524	0.144	0.042
-556.456	41.699	-0.129	0.117
-555.442	-153.135	-0.335	0.024
-554.427	468.619	-0.087	0.195
-553.412	-52.620	-0.446	0.206
-552.398	-47.394	-0.056	-0.027
-551.383	-200.000	-0.049	0.232
-550.369	216.560	-0.207	0.329
-549.354	-49.423	-0.157	-0.075
-548.339	-79.194	-0.227	0.077
-547.325	-200.000	-0.017	-0.090
-546.310	-134.120	0.154	-0.019
-545.296	800.000	-0.033	0.098
-544.281	-139.408	0.381	-0.041
-543.266	-126.661	0.187	0.028
-542.252	800.000	-0.042	-0.152
-541.237	-102.817	0.070	0.017
-540.223	-93.583	-0.178	-0.049
-539.208	27.977	-0.190	0.161
-538.193	-117.903	-0.226	-0.041
-537.179	-200.000	0.047	-0.331
-536.164	-106.080	0.245	-0.055
-535.150	260.686	0.059	0.101
-534.135	-104.250	0.066	-0.015
-533.121	-154.399	0.360	-0.024
-532.106	-153.057	-0.230	0.016
-531.091	-4.426	0.110	-0.076
-530.077	-10.564	0.375	0.248
-529.062	-200.000	0.001	-0.194
-528.048	-53.105	0.215	-0.099
-527.033	800.000	0.103	-0.342
-526.018	89.168	0.255	-0.284
-525.004	800.000	0.046	0.180
-523.989	800.000	0.072	0.291
-522.975	-200.000	-0.038	-0.316
-521.960	-162.656	0.343	-0.017
-520.945	-59.583	0.082	0.035
-519.931	-160.081	-0.309	0.017
-518.916	110.797	-0.243	-0.293
-517.902	6.334	-0.198	0.147
-516.887	17.787	-0.100	0.079
-515.872	122.407	0.042	-0.052
-514.858	81.580	0.041	-0.045
-513.843	-200.000	-0.007	0.123
-512.829	776.539	-0.052	-0.141
-511.814	15.037	-0.213	-0.167
-510.799	-71.169	0.139	0.052
-509.785	63.057	0.089	0.089
-508.770	-37.836	0.268	0.142
-507.756	40.977	0.089	0.080
-506.741	-62.156	-0.405	-0.169
-505.726	800.000	-0.042	0.163
-504.712	32.124	0.115	-0.099
-503.697	-111.152	-0.080	-0.016
-502.683	-170.863	0.307	0.011
-501.668	-64.469	-0.070	-0.028
-500.653	-139.739	0.233	0.025
-499.639	800.000	0.082	0.278
-498.624	46.987	-0.273	0.253
-497.610	-200.000	-0.042	-0.200
-496.595	-200.000	0.009	-0.331
-495.581	-27.740	0.273	0.158
-494.566	-143.270	0.126	-0.012
-493.551	22.561	0.251	-0.205
-492.537	-54.598	0.133	0.060
-491.522	-103.933	0.046	-0.011
-490.508	141.200	0.093	-0.122
-489.493	44.359	-0.004	-0.004
-488.478	88.161	-0.056	0.062
-487.464	491.701	-0.104	-0.237
-486.449	-11.213	-0.149	-0.098
-485.435	-59.952	-0.066	0.028
-484.420	800.000	-0.128	-0.365
-483.405	-200.000	0.067	-0.353
-482.391	-37.446	0.162	-0.086
-481.376	-200.000	0.021	-0.137
-480.362	800.000	0.102	-0.412
-479.347	-200.000	-0.168	0.000
-478.332	-47.402	0.334	-0.162
-477.318	-17.021	-0.075	-0.047
-476.303	-112.502	-0.277	0.055
-475.289	8.558	-0.249	0.187
-474.274	-145.357	-0.100	0.009
-473.259	-191.849	-0.451	-0.004
-472.245	656.407	0.041	0.106
-471.230	-124.276	-0.148	-0.023
-470.216	114.990	-0.149	0.181
-469.201	-152.026	-0.185	-0.013
-468.186	-1.950	-0.424	0.297
-467.172	-200.000	-0.021	0.091
-466.157	-153.684	-0.136	-0.009
-465.143	800.000	-0.119	-0.428
-464.128	151.529	0.142	0.193
-463.113	-100.215	0.180	-0.045
-462.099	-200.000	0.006	-0.124
-461.084	-200.000	0.015	-0.129
-460.070	-70.193	-0.052	0.020
-459.055	800.000	-0.062	-0.270
-458.040	800.000	0.058	0.181
-457.026	-68.116	0.237	-0.092
-456.011	-9.171	-0.327	0.218
-454.997	90.665	0.243	-0.272
-453.982	-200.000	-0.044	-0.226
-452.968	57.214	-0.060	0.058
-451.953	53.133	0.108	0.103
-450.938	-200.000	-0.027	-0.145
-449.924	429.699	-0.127	-0.273
-448.909	-200.000	-0.018	0.239
-447.895	-159.785	0.265	-0.015
-446.880	-200.000	0.015	0.086
-445.865	-133.063	0.305	0.039
-444.851	484.075	0.142	-0.321
-443.836	-126.625	-0.179	0.027
-442.822	-117.342	0.335	0.061
-441.807	-58.746	0.216	0.093
-440.792	-200.000	0.009	-0.244
-439.778	-157.553	0.293	0.017
-438.763	800.000	0.025	-0.092
-437.749	236.551	-0.130	-0.214
-436.734	72.239	-0.106	0.110
-435.719	-42.846	0.225	0.114
-434.705	-50.358	-0.238	-0.112
-433.690	26.518	-0.290	-0.241
-432.676	-12.974	-0.123	0.080
-431.661	-200.000	0.035	0.251
-430.646	-33.183	0.453	-0.250
-429.632	800.000	-0.011	0.044
-428.617	29.799	0.220	-0.187
-427.603	10.080	0.100	-0.076
-426.588	-41.431	-0.106	0.054
-425.573	-58.156	0.304	0.132
-424.559	-116.597	0.143	-0.026
-423.544	-101.185	0.295	-0.072
-422.530	380.074	0.035	0.071
-421.515	114.182	0.115	0.139
-420.500	-103.032	0.228	-0.054
-419.486	-25.053	0.205	0.121
-418.471	-163.204	0.063	0.003
-417.457	202.236	-0.171	0.262
-416.442	138.213	0.045	0.059
-415.428	-75.624	0.195	0.069
-414.413	800.000	0.019	-0.056
-413.398	165.487	-0.118	0.166
-412.384	59.409	-0.281	0.276
-411.369	-200.000	-0.002	0.102
-410.355	-79.210	-0.281	0.095
-409.340	-200.000	0.100	0.457
-408.325	125.766	-0.138	0.173
-407.311	33.951	-0.206	-0.179
-406.296	-70.044	0.107	-0.040
-405.282	25.332	0.033	0.028
-404.267	4.646	-0.214	0.156
-403.252	-50.804	0.060	0.028
-402.238	800.000	0.016	-0.055
-401.223	116.867	-0.244	0.299
-400.209	87.318	0.137	-0.151
-399.194	333.304	0.224	0.432
-398.179	131.467	-0.138	-0.176
-397.165	160.197	-0.052	-0.073
-396.150	-200.000	0.002	0.434
-395.136	-200.000	0.042	0.203
-394.121	-200.000	-0.016	0.228
-393.106	-100.106	-0.282	0.070
-392.092	308.734	0.104	-0.193
-391.077	-200.000	-0.006	-0.216
-390.063	75.622	0.084	0.088
-389.048	367.897	-0.123	0.248
-388.033	-50.374	-0.085	-0.040
-387.019	4.486	0.293	0.214
-386.004	-72.232	-0.187	0.069
-384.990	122.652	-0.091	-0.113
-383.975	-200.000	-0.010	0.193
-382.960	13.922	-0.170	0.132
-381.946	432.433	0.086	0.185
-380.931	20.639	-0.224	-0.180
-379.917	-200.000	-0.013	0.367
-378.902	2.824	0.197	-0.142
-377.888	-200.000	-0.019	-0.143
-376.873	-200.000	-0.008	-0.144
-375.858	-135.434	0.238	0.028
-374.844	-19.350	0.194	-0.120
-373.829	-200.000	0.036	-0.175
-372.815	-200.000	-0.011	-0.115
-371.800	-43.149	-0.276	-0.139
-370.785	-110.153	-0.482	-0.100
-369.771	800.000	0.118	-0.448
-368.756	-85.283	-0.060	0.019
-367.742	14.241	0.206	-0.160
-366.727	-9.889	0.134	0.089
-365.712	-60.660	0.167	0.070
-364.698	-39.736	0.171	0.089
-363.683	-200.000	0.010	0.094
-362.669	343.681	-0.169	0.330
-361.654	-122.853	0.125	0.020
-360.639	-200.000	-0.011	0.121
-359.625	-200.000	-0.003	-0.315
-358.610	-71.379	-0.434	0.162
-357.596	245.732	0.016	0.027
-356.581	13.838	0.181	0.140
-355.566	330.239	-0.080	0.153
-354.552	-200.000	0.010	-0.076
-353.537	293.117	-0.101	-0.183
-352.523	-111.129	0.189	-0.038
-351.508	170.691	0.081	-0.116
-350.493	40.915	-0.294	-0.263
-349.479	-95.800	0.196	-0.052
-348.464	800.000	-0.043	-0.133
-347.450	-115.185	-0.169	0.032
-346.435	-28.266	-0.049	-0.028
-345.420	-78.587	0.099	-0.033
-344.406	123.636	0.086	0.108
-343.391	791.629	-0.091	0.249
-342.377	-110.969	0.215	-0.044
-341.362	44.840	0.169	0.155
-340.348	361.210	-0.065	-0.128
-339.333	800.000	0.053	0.170
-338.318	680.917	0.118	0.305
-337.304	187.400	0.258	-0.382
-336.289	199.664	-0.070	0.107
-335.275	210.317	0.145	-0.226
-334.260	748.695	0.055	0.147
-333.245	-200.000	0.047	0.236
-332.231	-200.000	-0.018	0.179
-331.216	325.767	-0.135	0.257
-330.202	438.996	0.055	-0.120
-329.187	-34.236	-0.209	-0.114
-328.172	-200.000	0.005	-0.365
-327.158	-87.330	0.331	0.100
-326.143	233.006	-0.231	0.377
-325.129	-200.000	0.037	0.308
-324.114	3.775	0.180	-0.130
-323.099	-65.489	-0.134	-0.053
-322.085	-200.000	-0.030	0.204
-321.070	-200.000	-0.031	0.243
-320.056	-50.950	0.255	-0.119
-319.041	-28.170	0.195	0.112
-318.026	-35.731	-0.332	0.179
-317.012	-20.565	-0.164	-0.100
-315.997	800.000	0.040	0.148
-314.983	116.873	-0.058	-0.070
-313.968	27.255	0.103	0.086
-312.953	-200.000	0.009	0.071
-311.939	201.670	0.247	-0.378
-310.924	800.000	0.096	0.389
-309.910	-200.000	0.022	-0.313
-308.895	-200.000	0.027	0.351
-307.880	65.255	0.068	0.068
-306.866	-58.083	0.397	0.172
-305.851	129.990	0.157	0.200
-304.837	-200.000	0.007	0.060
-303.822	-111.087	0.401	-0.081
-302.807	-109.593	0.225	0.047
-301.793	-16.843	-0.199	0.125
-300.778	-52.800	0.296	0.135
-299.764	-200.000	0.034	0.301
-298.749	582.777	0.200	0.487
-297.735	800.000	-0.101	0.319
-296.720	800.000	-0.105	0.337
-295.705	153.454	0.090	0.122
-294.691	22.007	-0.198	0.160
-293.676	-30.825	0.265	0.148
-292.662	-37.511	0.171	0.090
-291.647	-101.258	-0.068	-0.016
-290.632	-200.000	0.004	0.092
-289.618	-106.111	-0.214	0.048
-288.603	-200.000	-0.031	-0.136
-287.589	660.090	-0.064	-0.162
-286.574	98.318	0.101	0.116
-285.559	-97.125	-0.142	-0.037
-284.545	-182.135	0.205	-0.004
-283.530	-170.130	0.398	-0.014
-282.516	-113.150	-0.172	-0.034
-281.501	-144.671	0.052	0.005
-280.486	96.668	-0.230	-0.261
-279.472	42.765	-0.046	0.042
-278.457	31.779	0.358	0.306
-277.443	-57.039	-0.287	0.125
-276.428	-95.816	0.216	0.057
-275.413	-200.000	0.015	0.070
-274.399	79.625	-0.195	-0.207
-273.384	-200.000	0.050	-0.250
-272.370	311.212	-0.087	0.161
-271.355	-138.062	0.344	-0.038
-270.340	13.162	-0.248	-0.190
-269.326	535.873	-0.091	-0.214
-268.311	-24.925	-0.122	-0.072
-267.297	-200.000	-0.045	0.199
-266.282	110.189	-0.219	0.261
-265.267	-200.000	-0.010	0.092
-264.253	104.577	-0.036	0.042
-263.238	800.000	-0.070	-0.211
-262.224	694.426	0.086	0.222
-261.209	291.354	-0.119	0.214
-260.195	-89.481	0.031	-0.009
-259.180	800.000	-0.015	0.050
-258.165	800.000	-0.056	-0.212
-257.151	434.717	-0.050	-0.107
-256.136	-200.000	0.008	0.140
-255.122	16.286	0.262	0.204
-254.107	-85.247	-0.116	-0.036
-253.092	-200.000	0.013	0.111
-252.078	800.000	0.133	-0.372
-251.063	39.808	-0.085	-0.075
-250.049	217.906	-0.096	-0.151
-249.034	-200.000	0.008	-0.115
-248.019	800.000	-0.062	0.182
-247.005	800.000	-0.110	0.368
-245.990	-200.000	0.133	0.589
-244.976	800.000	0.126	0.448
-243.961	-77.887	0.340	0.116
-242.946	441.575	-0.077	-0.167
-241.932	-200.000	0.024	-0.371
-240.917	-144.221	0.167	-0.015
-239.903	59.364	-0.187	-0.182
-238.888	26.044	0.138	0.114
-237.873	71.705	0.169	0.174
-236.859	-102.682	0.190	-0.045
-235.844	-84.376	-0.365	0.114
-234.830	61.891	-0.323	0.319
-233.815	189.379	0.209	0.310
-232.800	274.539	0.092	-0.160
-231.786	334.456	-0.102	0.196
-230.771	-200.000	-0.057	0.248
-229.757	800.000	0.040	-0.111
-228.742	261.267	0.030	-0.052
-227.727	-200.000	-0.083	-0.361
-226.713	800.000	-0.077	-0.214
-225.698	188.355	0.152	0.224
-224.684	-200.000	-0.017	0.239
-223.669	-185.658	-0.251	0.004
-222.655	489.077	0.166	0.376
-221.640	-200.000	-0.041	0.307
-220.625	-200.000	0.046	-0.257
-219.611	-102.340	-0.226	-0.054
-218.596	1.631	0.139	-0.099
-217.582	-200.000	0.004	-0.042
-216.567	-75.872	-0.409	-0.143
-215.552	-119.515	0.170	-0.029
-214.538	152.958	-0.102	-0.138
-213.523	-200.000	0.040	0.286
-212.509	737.466	0.085	0.226
-211.494	-78.953	0.053	0.018
-210.479	58.730	-0.446	-0.433
-209.465	800.000	-0.038	0.133
-208.450	66.125	-0.088	0.089
-207.436	800.000	-0.062	-0.256
-206.421	78.618	0.243	-0.257
-205.406	669.670	0.072	-0.184
-204.392	-200.000	-0.034	-0.162
-203.377	-8.564	-0.024	0.016
-202.363	-72.349	0.038	0.014
-201.348	-200.000	-0.063	0.338
-200.333	-50.042	-0.106	0.050
-199.319	112.529	0.230	-0.275
-198.304	274.067	0.084	0.147
-197.290	30.539	0.148	-0.125
-196.275	-200.000	-0.006	-0.092
-195.260	473.296	0.070	0.157
-194.246	-109.193	-0.271	-0.057
-193.231	290.080	-0.043	-0.078
-192.217	62.547	-0.060	0.059
-191.202	-24.012	0.162	0.096
-190.187	-77.363	-0.130	-0.045
-189.173	138.288	-0.019	-0.024
-188.158	-161.519	0.324	0.016
-187.144	84.683	0.251	0.272
-186.129	308.784	0.168	0.309
-185.114	-14.590	-0.108	0.069
-184.100	261.661	0.099	-0.168
-183.085	-200.000	-0.027	-0.136
-182.071	454.590	-0.051	0.112
-181.056	71.229	0.061	0.062
-180.042	-90.539	0.510	-0.146
-179.027	-49.816	-0.181	0.085
-178.012	-117.980	-0.219	-0.039
-176.998	37.179	-0.069	0.060
-175.983	800.000	0.091	0.354
-174.969	-16.724	0.183	-0.114
-173.954	100.998	-0.237	-0.272
-172.939	-141.581	0.317	-0.032
-171.925	-92.163	-0.178	-0.050
-170.910	29.417	0.166	-0.139
-169.896	-95.386	0.111	-0.030
-168.881	-73.988	-0.184	0.066
-167.866	-62.064	-0.236	0.097
-166.852	-63.461	-0.252	-0.102
-165.837	120.708	0.072	-0.088
-164.823	-49.151	0.294	-0.139
-163.808	117.796	0.332	-0.403
-162.793	187.962	0.184	0.271
-161.779	14.932	0.020	-0.016
-160.764	-200.000	-0.019	-0.463
-159.750	-112.536	-0.285	-0.056
-158.735	-17.669	0.090	-0.056
-157.720	800.000	0.066	0.249
-156.706	-13.677	0.173	-0.110
-155.691	1.098	-0.106	-0.075
-154.677	18.870	0.373	-0.295
-153.662	-200.000	0.008	-0.127
-152.647	-200.000	-0.026	0.159
-151.633	-88.403	-0.091	0.027
-150.618	20.435	0.392	0.312
-149.604	336.548	-0.123	0.235
-148.589	-200.000	0.100	-0.437
-147.574	236.334	0.208	-0.339
-146.560	-50.004	0.341	-0.159
-145.545	800.000	-0.036	0.132
-144.531	45.575	-0.170	0.154
-143.516	800.000	0.062	-0.209
-142.502	-100.596	-0.208	-0.051
-141.487	800.000	0.037	-0.108
-140.472	-81.358	0.220	-0.071
-139.458	196.566	-0.157	-0.236
-138.443	-98.315	-0.155	0.039
-137.429	-78.728	-0.312	0.105
-136.414	23.645	-0.092	0.074
-135.399	129.857	-0.166	0.210
-134.385	-109.562	-0.336	0.070
-133.370	-102.005	-0.323	-0.077
-132.356	-51.623	0.254	0.117
-131.341	800.000	0.024	-0.101
-130.326	-200.000	0.004	0.195
-129.312	302.733	0.177	0.322
-128.297	-200.000	0.009	0.062
-127.283	-0.628	0.239	-0.167
-126.268	40.580	0.223	-0.198
-125.253	800.000	0.092	0.257
-124.239	20.118	-0.185	0.147
-123.224	58.488	0.229	-0.221
-122.210	-26.783	-0.135	0.078
