DTS Sentinel unit serial number:	SN413079Multiplexer serial number:	ORYXHardware model number:	OX4-SRSoftware version number:	ORYX F/W v4.00 Oryx Data Collector v3.7.2.0data status	okinstallation	princeton_trtdifferential loss correction	single-endedforward channel	channel 2reverse channel	N/Adate	2019/09/10time	18:45:11forward acquisition time	60.00reverse acquisition time	0.00gamma	496.2192k internal	0.2322k external	0.2322temperature offset calibration	0.9942default loss term (dB/km)	0.3790temperature slope calibration	1.0000multiplexer offset coefficient	1.0000multiplexer slope coefficient	1.0000fibre end	0.00T internal ref (°C)	35.19T ext. ref 1 (°C)	-0.31T ext. ref 2 (°C)	27.32length (m)	temperature (°C)	Stokes	anti-Stokes-747.200	80.431	-0.115	0.125
-746.185	-98.218	0.129	0.033
-745.171	-50.229	0.235	0.112
-744.156	-164.166	-0.293	0.014
-743.142	290.786	-0.063	0.115
-742.127	2.058	-0.252	0.183
-741.112	-200.000	0.003	0.090
-740.098	-200.000	-0.024	0.186
-739.083	800.000	0.018	-0.060
-738.069	-127.871	0.208	0.030
-737.054	-91.911	-0.176	-0.050
-736.039	196.363	-0.012	0.018
-735.025	-8.245	0.308	0.209
-734.010	26.770	-0.041	0.035
-732.996	-116.188	0.108	0.020
-731.981	161.892	0.149	-0.211
-730.966	370.312	-0.234	-0.479
-729.952	800.000	-0.119	-0.432
-728.937	28.499	-0.081	-0.069
-727.923	131.494	-0.150	0.195
-726.908	-200.000	0.010	-0.191
-725.894	343.587	-0.164	0.325
-724.879	-200.000	-0.013	-0.067
-723.864	-65.878	0.106	-0.043
-722.850	-8.012	-0.431	-0.294
-721.835	3.036	0.056	0.041
-720.821	-17.717	0.048	-0.030
-719.806	58.435	0.211	-0.209
-718.791	110.243	-0.070	-0.085
-717.777	19.441	0.448	-0.363
-716.762	-32.272	-0.397	0.224
-715.748	-200.000	-0.017	-0.188
-714.733	-200.000	0.007	0.286
-713.718	191.557	0.082	0.125
-712.704	-200.000	0.027	-0.207
-711.689	-200.000	0.044	-0.331
-710.675	-99.237	0.292	-0.074
-709.660	128.130	0.189	0.242
-708.645	-28.810	-0.250	-0.145
-707.631	-135.615	-0.250	-0.030
-706.616	77.149	0.075	-0.081
-705.602	-122.375	0.135	0.022
-704.587	-111.076	0.044	-0.009
-703.572	95.081	0.132	0.151
-702.558	-200.000	0.031	-0.146
-701.543	588.636	-0.072	-0.178
-700.529	-37.980	0.199	0.107
-699.514	800.000	-0.051	0.159
-698.499	-109.409	-0.057	0.012
-697.485	78.213	-0.047	0.050
-696.470	18.254	-0.178	-0.143
-695.456	-70.610	0.095	-0.036
-694.441	4.934	-0.267	0.198
-693.426	-128.620	-0.162	0.023
-692.412	333.725	0.037	0.073
-691.397	-87.251	0.073	-0.022
-690.383	744.320	-0.038	-0.104
-689.368	-63.160	0.220	-0.092
-688.354	-20.057	-0.392	0.244
-687.339	-200.000	0.042	-0.305
-686.324	-34.169	0.170	0.094
-685.310	800.000	0.090	-0.311
-684.295	-200.000	-0.030	-0.155
-683.281	-84.234	-0.244	-0.078
-682.266	-107.791	-0.167	-0.037
-681.251	356.481	-0.193	-0.387
-680.237	-39.819	0.080	-0.042
-679.222	-147.042	-0.299	0.026
-678.208	190.898	0.173	-0.262
-677.193	800.000	0.091	-0.253
-676.178	410.196	0.030	-0.064
-675.164	-140.565	0.323	0.034
-674.149	-180.444	0.242	0.005
-673.135	-81.767	-0.063	-0.021
-672.120	300.788	-0.115	-0.214
-671.105	-60.687	0.239	0.102
-670.091	170.331	0.173	-0.249
-669.076	56.498	0.203	-0.199
-668.062	800.000	-0.017	0.061
-667.047	-200.000	0.007	-0.337
-666.032	-200.000	0.030	-0.275
-665.018	101.070	0.195	-0.229
-664.003	-123.290	-0.199	0.032
-662.989	-63.744	-0.311	0.128
-661.974	-200.000	0.028	0.187
-660.959	30.800	-0.193	-0.166
-659.945	-200.000	-0.025	-0.141
-658.930	-139.046	-0.120	0.013
-657.916	482.567	0.140	0.320
-656.901	-102.539	-0.203	0.049
-655.886	94.274	0.034	0.039
-654.872	14.514	0.320	-0.252
-653.857	8.153	-0.155	0.117
-652.843	256.660	-0.031	-0.054
-651.828	-54.263	0.156	-0.071
-650.814	-9.667	0.097	-0.065
-649.799	36.274	0.121	-0.108
-648.784	-100.878	0.565	0.140
-647.770	-133.910	0.272	-0.034
-646.755	-4.933	-0.223	-0.155
-645.741	111.081	-0.067	0.082
-644.726	44.861	0.332	-0.307
-643.711	-162.839	0.220	-0.011
-642.697	87.941	0.036	0.040
-641.682	800.000	0.042	-0.128
-640.668	85.233	-0.094	-0.104
-639.653	-200.000	0.051	-0.248
-638.638	-37.757	0.031	0.017
-637.624	-200.000	0.004	0.165
-636.609	800.000	-0.067	-0.253
-635.595	40.098	-0.340	0.307
-634.580	440.596	-0.094	0.206
-633.565	-78.477	-0.262	-0.090
-632.551	-40.175	-0.250	-0.131
-631.536	293.059	0.065	-0.120
-630.522	-57.920	-0.234	-0.103
-629.507	59.159	-0.173	-0.171
-628.492	-200.000	0.016	-0.185
-627.478	-69.306	-0.250	0.097
-626.463	-102.848	0.014	-0.003
-625.449	800.000	-0.111	0.428
-624.434	394.517	0.070	-0.147
-623.419	-129.577	0.103	-0.014
-622.405	-106.824	-0.279	-0.062
-621.390	-200.000	-0.077	-0.617
-620.376	155.153	-0.083	0.115
-619.361	-140.697	0.133	0.014
-618.346	-119.225	0.403	-0.071
-617.332	-35.770	-0.304	0.165
-616.317	-200.000	0.013	-0.063
-615.303	-24.569	-0.151	0.090
-614.288	-159.055	-0.117	0.007
-613.273	177.937	-0.126	0.184
-612.259	-52.259	-0.290	0.135
-611.244	-200.000	-0.022	-0.405
-610.230	-200.000	0.016	0.278
-609.215	-91.356	0.146	-0.042
-608.201	122.907	0.138	0.173
-607.186	-140.685	0.150	-0.016
-606.171	-22.194	0.209	0.128
-605.157	282.848	0.122	-0.220
-604.142	-200.000	0.009	0.132
-603.128	97.710	-0.186	-0.215
-602.113	19.688	-0.430	-0.348
-601.098	643.808	0.052	0.134
-600.084	-92.689	-0.144	-0.040
-599.069	800.000	0.058	0.174
-598.055	-200.000	0.029	0.139
-597.040	50.346	-0.072	0.068
-596.025	800.000	0.011	0.031
-595.011	-200.000	-0.002	0.064
-593.996	668.410	-0.024	-0.061
-592.982	-143.423	0.212	-0.020
-591.967	-43.446	0.122	-0.062
-590.952	265.405	0.019	-0.033
-589.938	-48.696	-0.146	0.071
-588.923	-4.531	0.019	0.014
-587.909	-7.969	0.159	-0.108
-586.894	219.795	0.035	0.056
-585.879	48.888	0.290	0.274
-584.865	-154.484	0.333	-0.022
-583.850	160.195	-0.233	0.327
-582.836	-200.000	0.007	0.154
-581.821	-47.588	-0.159	-0.077
-580.806	-17.565	0.253	0.160
-579.792	-200.000	-0.030	-0.143
-578.777	368.505	0.068	0.138
-577.763	-89.865	0.130	-0.038
-576.748	-200.000	-0.041	0.198
-575.733	-37.921	0.178	0.095
-574.719	414.798	-0.067	0.142
-573.704	-90.516	0.049	-0.014
-572.690	86.582	-0.103	0.114
-571.675	-22.923	-0.138	-0.084
-570.661	-75.669	-0.071	-0.025
-569.646	-100.762	-0.169	0.042
-568.631	-107.454	0.418	0.092
-567.617	-69.906	-0.145	-0.055
-566.602	-171.863	-0.132	0.004
-565.588	20.513	0.271	0.220
-564.573	28.829	0.048	-0.041
-563.558	-200.000	0.037	-0.263
-562.544	-82.647	-0.260	0.084
-561.529	583.943	0.043	0.105
-560.515	-73.089	-0.289	-0.106
-559.500	-108.907	-0.213	0.046
-558.485	357.548	0.058	-0.116
-557.471	800.000	-0.040	-0.151
-556.456	-200.000	-0.005	-0.476
-555.442	51.551	-0.142	0.136
-554.427	74.516	0.087	0.092
-553.412	-93.780	0.205	0.057
-552.398	113.326	-0.179	-0.218
-551.383	-200.000	0.012	-0.150
-550.369	-200.000	0.033	-0.153
-549.354	-200.000	-0.002	0.116
-548.339	-200.000	0.006	-0.050
-547.325	54.693	0.125	-0.121
-546.310	-10.902	-0.342	-0.227
-545.296	-166.724	0.193	0.008
-544.281	250.381	-0.084	-0.143
-543.266	-57.132	-0.407	-0.180
-542.252	150.482	0.091	0.123
-541.237	-172.574	0.192	-0.006
-540.223	-117.020	0.309	-0.057
-539.208	-200.000	0.058	-0.446
-538.193	150.490	-0.132	-0.180
-537.179	-92.463	-0.234	0.066
-536.164	-47.523	0.243	0.118
-535.150	-200.000	-0.035	0.244
-534.135	258.191	0.041	-0.071
-533.121	645.946	-0.132	-0.338
-532.106	-200.000	0.024	-0.116
-531.091	800.000	-0.040	-0.163
-530.077	-200.000	0.040	-0.288
-529.062	185.111	0.038	0.057
-528.048	800.000	-0.041	-0.128
-527.033	43.947	0.042	0.038
-526.018	75.847	-0.225	0.239
-525.004	154.789	-0.112	0.154
-523.989	-127.052	0.217	-0.032
-522.975	22.605	0.229	-0.188
-521.960	27.786	-0.048	-0.041
-520.945	-30.163	0.162	0.092
-519.931	-118.761	-0.033	-0.006
-518.916	274.317	0.119	-0.210
-517.902	224.734	-0.132	-0.213
-516.887	-8.929	0.181	0.121
-515.872	-47.795	-0.259	-0.126
-514.858	-76.606	0.080	-0.028
-513.843	800.000	-0.143	-0.458
-512.829	193.412	-0.265	-0.401
-511.814	-99.670	-0.067	-0.017
-510.799	107.440	0.204	0.243
-509.785	-72.726	-0.227	-0.084
-508.770	-200.000	0.024	-0.146
-507.756	44.069	0.161	0.147
-506.741	-200.000	0.028	-0.218
-505.726	-200.000	-0.023	0.122
-504.712	-28.589	-0.214	-0.124
-503.697	-200.000	0.019	-0.239
-502.683	-131.006	-0.254	-0.034
-501.668	-34.452	0.524	0.287
-500.653	-200.000	-0.012	-0.282
-499.639	156.036	0.157	0.217
-498.624	48.293	0.140	-0.131
-497.610	-200.000	-0.005	-0.035
-496.595	-94.428	-0.298	-0.081
-495.581	9.855	0.062	0.047
-494.566	-139.331	0.028	0.003
-493.551	34.790	0.094	0.082
-492.537	-135.308	0.160	0.019
-491.522	-135.821	0.165	0.019
-490.508	-159.830	-0.151	0.008
-489.493	132.395	-0.129	-0.166
-488.478	800.000	0.168	0.486
-487.464	-200.000	0.036	0.235
-486.449	-162.909	-0.085	-0.004
-485.435	24.616	-0.115	-0.095
-484.420	722.990	0.109	0.290
-483.405	293.744	-0.056	0.103
-482.391	-66.318	0.230	0.092
-481.376	-131.956	-0.174	-0.023
-480.362	-96.929	-0.310	0.081
-479.347	27.947	-0.339	-0.286
-478.332	800.000	-0.071	-0.277
-477.318	83.592	-0.147	-0.160
-476.303	108.663	0.026	-0.031
-475.289	800.000	0.052	0.147
-474.274	-200.000	-0.019	0.290
-473.259	-200.000	0.007	0.439
-472.245	-27.466	0.101	-0.058
-471.230	-158.637	-0.287	0.016
-470.216	124.686	-0.314	0.395
-469.201	-200.000	0.048	0.300
-468.186	467.766	0.060	0.135
-467.172	-200.000	0.030	-0.148
-466.157	-123.202	0.152	-0.024
-465.143	76.489	0.064	-0.068
-464.128	-106.242	0.095	0.021
-463.113	-87.971	-0.098	0.029
-462.099	-50.637	0.301	-0.142
-461.084	83.979	0.269	-0.293
-460.070	713.253	-0.065	-0.171
-459.055	148.084	0.184	-0.248
-458.040	-200.000	-0.080	0.395
-457.026	446.344	-0.053	-0.116
-456.011	-131.835	-0.537	0.070
-454.997	-84.817	0.069	0.022
-453.982	-36.870	-0.099	-0.053
-452.968	-189.634	0.192	-0.002
-451.953	-84.235	-0.199	-0.063
-450.938	-47.291	-0.243	-0.118
-449.924	-200.000	0.023	0.249
-448.909	-200.000	-0.056	0.477
-447.895	42.082	0.132	0.119
-446.880	22.799	0.159	0.130
-445.865	145.418	0.341	0.456
-444.851	-200.000	0.020	0.171
-443.836	154.618	-0.111	-0.152
-442.822	800.000	-0.051	-0.157
-441.807	192.193	0.100	0.150
-440.792	-109.804	-0.226	-0.047
-439.778	-33.422	0.225	-0.124
-438.763	78.498	-0.061	-0.065
-437.749	-200.000	0.060	-0.358
-436.734	-200.000	0.002	0.201
-435.719	-87.710	-0.043	-0.013
-434.705	38.652	0.137	0.122
-433.690	-200.000	-0.023	-0.287
-432.676	-200.000	-0.008	-0.201
-431.661	-142.875	-0.237	-0.023
-430.646	117.648	-0.235	0.289
-429.632	-200.000	0.013	-0.221
-428.617	-84.820	-0.153	-0.048
-427.603	-187.881	0.400	0.005
-426.588	-200.000	-0.010	-0.262
-425.573	-200.000	-0.025	-0.118
-424.559	-45.568	0.410	-0.202
-423.544	-200.000	-0.037	0.272
-422.530	-120.437	0.281	-0.048
-421.515	-154.676	-0.331	0.022
-420.500	-55.157	0.052	0.023
-419.486	-34.269	0.211	-0.115
-418.471	-96.070	0.338	-0.090
-417.457	-118.722	-0.548	0.096
-416.442	-139.094	0.305	-0.033
-415.428	173.555	0.152	-0.218
-414.413	-97.595	-0.448	0.116
-413.398	140.716	0.071	-0.094
-412.384	96.714	-0.167	-0.191
-411.369	-200.000	0.026	0.304
-410.355	800.000	0.051	-0.142
-409.340	-126.843	0.152	0.022
-408.325	161.539	0.169	-0.236
-407.311	-200.000	0.036	-0.301
-406.296	-200.000	0.017	0.167
-405.282	111.932	-0.147	-0.177
-404.267	-45.524	0.251	0.124
-403.252	322.951	-0.071	-0.135
-402.238	-200.000	-0.031	0.188
-401.223	18.602	0.096	0.076
-400.209	-170.799	0.195	0.007
-399.194	-136.125	-0.102	-0.012
-398.179	800.000	0.142	0.411
-397.165	-47.073	0.049	-0.024
-396.150	-200.000	-0.006	0.199
-395.136	-148.776	0.215	0.017
-394.121	1.877	0.033	-0.024
-393.106	-195.885	0.293	-0.002
-392.092	-67.756	0.085	0.033
-391.077	-132.412	0.171	0.022
-390.063	-9.105	-0.089	0.059
-389.048	-200.000	-0.042	0.309
-388.033	800.000	-0.140	0.471
-387.019	11.360	-0.160	-0.122
-386.004	800.000	-0.052	-0.166
-384.990	40.336	-0.102	-0.091
-383.975	-200.000	-0.015	0.097
-382.960	-200.000	0.009	0.075
-381.946	-39.794	-0.052	0.027
-380.931	-52.494	-0.182	-0.084
-379.917	227.986	0.146	0.236
-378.902	-96.320	0.184	-0.049
-377.888	-146.644	0.105	0.009
-376.873	800.000	0.060	-0.208
-375.858	115.185	0.041	-0.050
-374.844	800.000	0.057	-0.187
-373.829	-200.000	0.104	0.459
-372.815	30.487	0.085	-0.072
-371.800	800.000	-0.043	-0.164
-370.785	435.561	-0.136	0.295
-369.771	-24.139	-0.334	0.199
-368.756	-179.290	0.128	0.003
-367.742	-116.091	-0.334	0.062
-366.727	-200.000	-0.040	-0.371
-365.712	159.130	-0.208	0.288
-364.698	-37.051	-0.264	0.141
-363.683	234.979	0.067	-0.109
-362.669	800.000	-0.031	-0.098
-361.654	-19.973	0.145	-0.089
-360.639	71.084	0.117	0.121
-359.625	-3.819	-0.048	-0.033
-358.610	-147.253	-0.175	0.015
-357.596	49.486	0.153	-0.143
-356.581	-48.882	-0.148	-0.071
-355.566	-98.084	0.327	0.084
-354.552	6.439	0.145	0.107
-353.537	-47.061	-0.199	-0.097
-352.523	121.245	0.076	-0.094
-351.508	583.633	-0.065	0.159
-350.493	-79.729	0.251	0.084
-349.479	146.120	-0.081	-0.108
-348.464	127.770	-0.061	-0.077
-347.450	383.138	0.069	0.141
-346.435	-76.431	0.334	0.117
-345.420	-132.886	0.208	0.026
-344.406	41.712	-0.180	-0.162
-343.391	437.483	0.068	-0.146
-342.377	800.000	0.113	-0.392
-341.362	423.809	-0.073	-0.155
-340.348	-29.461	0.062	0.035
-339.333	151.729	0.039	0.053
-338.318	800.000	0.095	0.411
-337.304	21.189	-0.210	0.169
-336.289	22.948	0.043	0.035
-335.275	800.000	0.081	-0.239
-334.260	293.436	-0.143	0.259
-333.245	800.000	-0.061	0.222
-332.231	37.496	0.083	0.073
-331.216	-95.076	0.194	-0.052
-330.202	-81.414	0.174	0.057
-329.187	-102.655	0.058	0.014
-328.172	-50.763	0.190	-0.089
-327.158	28.542	0.245	-0.206
-326.143	-38.678	-0.377	-0.198
-325.129	206.981	-0.194	0.300
-324.114	-200.000	-0.025	0.336
-323.099	-101.415	0.155	0.038
-322.085	-59.788	0.128	-0.055
-321.070	800.000	0.036	0.117
-320.056	-102.798	0.340	0.080
-319.041	-129.287	-0.122	-0.017
-318.026	450.995	0.030	-0.065
-317.012	296.690	-0.151	-0.276
-315.997	-1.684	-0.290	0.203
-314.983	660.614	0.060	-0.154
-313.968	254.196	0.185	-0.313
-312.953	136.705	0.191	-0.247
-311.939	800.000	0.105	-0.355
-310.924	-172.935	-0.298	-0.009
-309.910	-200.000	0.003	0.222
-308.895	800.000	-0.063	-0.209
-307.880	37.468	0.155	-0.137
-306.866	67.838	-0.255	0.259
-305.851	620.042	-0.123	0.307
-304.837	-99.049	0.297	0.075
-303.822	61.458	0.224	-0.222
-302.807	-200.000	0.007	-0.285
-301.793	490.957	-0.116	0.264
-300.778	-59.211	0.369	0.158
-299.764	201.524	-0.160	0.244
-298.749	-200.000	-0.007	-0.180
-297.735	-66.885	0.167	0.065
-296.720	800.000	0.094	-0.353
-295.705	38.318	-0.148	-0.131
-294.691	-123.040	-0.163	-0.026
-293.676	-82.049	-0.177	-0.057
-292.662	83.299	0.091	0.099
-291.647	389.005	0.040	0.082
-290.632	-99.007	-0.268	-0.067
-289.618	-69.153	-0.281	-0.107
-288.603	800.000	0.106	0.375
-287.589	28.517	-0.258	0.217
-286.574	144.570	-0.069	-0.091
-285.559	1.754	-0.147	-0.105
-284.545	-76.503	-0.342	0.119
-283.530	36.871	0.204	-0.179
-282.516	-28.425	-0.245	-0.140
-281.501	-143.428	-0.217	-0.021
-280.486	800.000	0.068	-0.209
-279.472	-40.044	0.345	0.178
-278.457	404.175	0.106	0.221
-277.443	-128.915	-0.233	0.032
-276.428	658.648	-0.074	-0.188
-275.413	-81.457	0.180	-0.059
-274.399	89.708	0.090	0.099
-273.384	-13.621	0.180	-0.116
-272.370	89.709	0.104	0.115
-271.355	-40.772	0.240	-0.123
-270.340	-53.294	0.148	0.067
-269.326	8.070	-0.341	-0.254
-268.311	-200.000	-0.018	0.158
-267.297	-78.241	0.319	0.109
-266.282	-200.000	-0.036	0.233
-265.267	170.832	0.184	-0.262
-264.253	-200.000	0.043	0.201
-263.238	606.908	-0.094	-0.232
-262.224	738.739	0.065	-0.172
-261.209	-43.423	0.248	0.124
-260.195	-6.093	-0.140	-0.095
-259.180	79.299	-0.218	0.232
-258.165	-85.457	-0.229	-0.071
-257.151	-106.578	0.210	0.046
-256.136	-123.483	-0.271	0.043
-255.122	800.000	0.074	0.246
-254.107	-115.060	-0.226	0.043
-253.092	-131.324	-0.322	-0.042
-252.078	29.338	0.171	0.144
-251.063	3.575	-0.138	0.100
-250.049	-109.467	-0.087	0.018
-249.034	-200.000	-0.099	0.492
-248.019	58.154	-0.238	-0.231
-247.005	188.155	-0.069	0.101
-245.990	-185.986	0.437	0.006
-244.976	-117.330	0.095	-0.017
-243.961	-200.000	-0.018	0.191
-242.946	800.000	0.059	-0.214
-241.932	-98.379	0.138	0.035
-240.917	83.932	-0.193	-0.209
-239.903	205.677	0.028	-0.043
-238.888	-179.900	-0.077	-0.002
-237.873	-128.756	0.255	-0.036
-236.859	-152.999	-0.187	-0.013
-235.844	131.104	-0.213	-0.270
-234.830	800.000	-0.077	0.241
-233.815	-200.000	0.019	0.131
-232.800	2.894	0.391	-0.281
-231.786	-46.460	0.114	-0.055
-230.771	-200.000	-0.005	0.065
-229.757	128.740	0.055	0.069
-228.742	-200.000	0.019	0.312
-227.727	-200.000	0.001	0.279
-226.713	110.571	0.243	0.290
-225.698	800.000	0.075	0.272
-224.684	-79.750	-0.055	-0.018
-223.669	-200.000	0.002	-0.486
-222.655	-116.324	-0.304	0.056
-221.640	800.000	0.038	0.106
-220.625	-200.000	-0.019	-0.320
-219.611	800.000	0.101	0.373
-218.596	56.120	0.197	0.189
-217.582	334.915	0.121	-0.233
-216.567	800.000	-0.030	0.085
-215.552	36.971	-0.308	0.269
-214.538	-200.000	-0.027	-0.123
-213.523	-69.666	-0.281	0.107
-212.509	-200.000	0.001	0.044
-211.494	-200.000	0.003	-0.123
-210.479	-2.554	0.129	0.089
-209.465	-200.000	-0.008	-0.084
-208.450	800.000	0.069	0.284
-207.436	-91.411	-0.100	0.028
-206.421	340.415	-0.058	0.111
-205.406	-38.909	0.245	-0.128
-204.392	-200.000	-0.007	-0.085
-203.377	-160.591	0.144	0.008
-202.363	327.650	-0.081	0.153
-201.348	-9.992	0.126	0.083
-200.333	-156.511	-0.164	-0.010
-199.319	105.728	-0.147	0.172
-198.304	800.000	0.043	-0.142
-197.290	-200.000	-0.025	-0.403
-196.275	-200.000	0.021	0.111
-195.260	-200.000	0.005	0.222
-194.246	-200.000	0.016	0.092
-193.231	-108.949	-0.186	-0.039
-192.217	126.065	0.204	-0.255
-191.202	-200.000	-0.033	-0.293
-190.187	-0.159	-0.214	-0.151
-189.173	497.114	0.058	-0.132
-188.158	-29.557	-0.266	0.150
-187.144	13.356	0.125	-0.096
-186.129	-200.000	-0.055	0.272
-185.114	-200.000	-0.036	-0.388
-184.100	800.000	0.026	0.084
-183.085	-73.842	0.201	0.072
-182.071	87.710	-0.175	0.192
-181.056	-75.543	-0.285	0.100
-180.042	68.728	0.178	-0.181
-179.027	-200.000	-0.003	-0.062
-178.012	-28.368	0.123	0.070
-176.998	800.000	0.044	0.179
-175.983	-200.000	0.035	0.359
-174.969	615.791	-0.211	0.523
-173.954	733.383	0.094	-0.248
-172.939	330.447	0.148	0.282
-171.925	-142.290	0.366	0.036
-170.910	800.000	-0.072	-0.274
-169.896	37.329	-0.171	-0.150
-168.881	-200.000	-0.024	-0.306
-167.866	32.251	0.066	-0.057
-166.852	-90.256	0.320	-0.092
-165.837	89.319	-0.134	-0.148
-164.823	591.370	0.119	0.290
-163.808	800.000	-0.148	-0.479
-162.793	94.547	0.166	0.186
-161.779	-200.000	-0.008	-0.295
-160.764	265.012	0.036	-0.062
-159.750	115.823	0.133	0.160
-158.735	-78.181	0.044	-0.015
-157.720	22.687	0.201	0.163
-156.706	-145.452	-0.364	0.032
-155.691	-200.000	0.014	0.098
-154.677	2.551	-0.473	-0.338
-153.662	-28.479	-0.193	0.110
-152.647	52.206	0.131	0.124
-151.633	9.361	-0.383	0.286
-150.618	-24.625	0.138	0.081
-149.604	140.909	-0.105	-0.137
-148.589	-200.000	-0.009	0.275
-147.574	73.845	-0.102	-0.106
-146.560	74.678	0.045	-0.047
-145.545	-21.026	-0.029	0.018
-144.531	-151.245	-0.163	0.012
-143.516	-54.897	-0.161	0.071
-142.502	-153.202	-0.305	0.021
-141.487	-200.000	0.003	0.031
-140.472	-117.178	0.302	0.054
-139.458	245.404	0.101	0.168
-138.443	155.112	-0.159	0.215
-137.429	28.245	0.238	-0.198
-136.414	76.076	0.053	-0.055
-135.399	-150.877	-0.244	0.018
-134.385	-102.840	-0.116	0.027
-133.370	-130.892	0.396	0.052
-132.356	75.162	-0.146	-0.152
-131.341	73.459	-0.247	-0.255
-130.326	7.937	0.122	0.090
-129.312	400.531	-0.119	-0.246
-128.297	374.232	-0.030	-0.060
-127.283	409.810	0.065	-0.135
-126.268	-179.731	-0.041	-0.001
-125.253	-111.012	0.144	-0.029
-124.239	88.672	-0.317	0.347
-123.224	800.000	0.048	-0.138
-122.210	143.272	-0.155	0.203
-121.195	800.000	0.070	-0.241
