DTS Sentinel unit serial number:	SN413079Multiplexer serial number:	ORYXHardware model number:	OX4-SRSoftware version number:	ORYX F/W v4.00 Oryx Data Collector v3.7.2.0data status	okinstallation	princeton_trtdifferential loss correction	single-endedforward channel	channel 2reverse channel	N/Adate	2019/09/15time	06:31:35forward acquisition time	60.00reverse acquisition time	0.00gamma	496.2192k internal	0.2326k external	0.2326temperature offset calibration	1.0031default loss term (dB/km)	0.3790temperature slope calibration	1.0000multiplexer offset coefficient	1.0000multiplexer slope coefficient	1.0000fibre end	0.00T internal ref (°C)	30.50T ext. ref 1 (°C)	4.81T ext. ref 2 (°C)	25.37length (m)	temperature (°C)	Stokes	anti-Stokes-747.200	6.659	-0.058	0.044
-746.185	-162.535	0.358	-0.018
-745.171	-52.817	-0.263	0.122
-744.156	-15.553	-0.212	-0.136
-743.142	-135.374	-0.270	-0.033
-742.127	288.409	0.011	-0.020
-741.112	105.677	0.143	0.171
-740.098	465.924	-0.153	0.346
-739.083	-28.681	-0.133	-0.077
-738.069	-146.631	-0.319	-0.028
-737.054	-101.876	-0.136	-0.033
-736.039	322.572	-0.088	0.170
-735.025	-67.535	0.121	0.048
-734.010	-200.000	0.038	0.223
-732.996	-131.822	-0.236	-0.031
-731.981	81.480	0.138	-0.151
-730.966	-167.437	-0.137	-0.006
-729.952	184.813	0.087	0.130
-728.937	-200.000	-0.038	-0.238
-727.923	-107.915	0.192	-0.042
-726.908	126.934	-0.097	-0.124
-725.894	-121.849	-0.383	0.064
-724.879	136.067	-0.076	-0.100
-723.864	-200.000	-0.078	0.430
-722.850	-98.291	-0.159	0.041
-721.835	213.884	0.072	0.115
-720.821	191.907	0.033	0.051
-719.806	-98.231	-0.445	0.115
-718.791	-71.535	0.028	-0.011
-717.777	-34.518	-0.339	-0.187
-716.762	-172.901	-0.179	0.006
-715.748	-36.224	-0.374	-0.203
-714.733	409.224	-0.139	-0.297
-713.718	-23.751	0.241	-0.146
-712.704	-152.257	-0.195	0.014
-711.689	624.083	0.126	-0.321
-710.675	-112.191	0.111	0.022
-709.660	-59.356	0.151	-0.065
-708.645	-6.516	0.307	0.211
-707.631	82.066	0.245	-0.267
-706.616	-84.029	-0.142	0.045
-705.602	-125.273	-0.125	-0.019
-704.587	-59.100	-0.307	-0.133
-703.572	330.793	0.129	0.251
-702.558	-103.650	0.175	0.041
-701.543	-200.000	-0.010	-0.194
-700.529	58.559	0.157	0.156
-699.514	-25.362	0.389	-0.232
-698.499	-139.069	-0.347	0.038
-697.485	-200.000	0.001	-0.060
-696.470	800.000	-0.094	-0.301
-695.456	26.460	-0.205	-0.173
-694.441	-200.000	0.015	-0.308
-693.426	-164.301	-0.340	0.016
-692.412	488.580	0.028	0.065
-691.397	800.000	-0.108	-0.310
-690.383	28.753	0.298	-0.254
-689.368	-96.167	-0.143	-0.038
-688.354	-114.678	0.221	-0.042
-687.339	-200.000	0.010	-0.173
-686.324	-200.000	-0.058	-0.267
-685.310	-54.682	-0.307	-0.140
-684.295	-87.193	0.334	-0.102
-683.281	-10.810	0.115	-0.076
-682.266	14.252	-0.178	0.139
-681.251	201.622	0.102	0.157
-680.237	260.440	0.054	-0.094
-679.222	102.290	-0.132	0.156
-678.208	135.708	0.075	0.098
-677.193	280.752	-0.062	-0.112
-676.178	-200.000	0.038	0.468
-675.164	-53.163	-0.368	-0.170
-674.149	139.846	-0.174	-0.230
-673.135	172.001	0.047	0.067
-672.120	109.835	-0.080	-0.096
-671.105	-115.206	0.209	-0.040
-670.091	149.865	0.118	-0.161
-669.076	-71.859	-0.362	0.136
-668.062	155.373	0.233	-0.322
-667.047	70.560	0.304	-0.316
-666.032	-200.000	-0.028	-0.142
-665.018	50.085	-0.204	-0.194
-664.003	800.000	-0.058	0.256
-662.989	-90.141	-0.167	0.049
-661.974	11.861	-0.200	-0.154
-660.959	-200.000	-0.020	-0.165
-659.945	-99.862	0.196	-0.049
-658.930	-67.122	-0.020	0.008
-657.916	800.000	-0.124	0.479
-656.901	-91.268	-0.229	0.066
-655.886	60.484	-0.372	-0.370
-654.872	12.184	-0.160	0.124
-653.857	800.000	-0.092	-0.361
-652.843	-82.762	0.391	-0.127
-651.828	232.964	0.090	-0.149
-650.814	414.997	0.112	0.241
-649.799	-107.514	-0.420	0.092
-648.784	-8.295	-0.262	0.177
-647.770	-13.081	-0.127	-0.083
-646.755	15.696	0.186	-0.147
-645.741	-21.776	0.069	-0.042
-644.726	-5.308	-0.207	0.143
-643.711	-157.568	-0.263	0.016
-642.697	-62.075	-0.074	0.031
-641.682	800.000	0.067	0.243
-640.668	800.000	0.047	0.147
-639.653	-13.294	-0.075	0.049
-638.638	-111.459	0.141	-0.029
-637.624	-200.000	-0.041	0.230
-636.609	-137.040	-0.209	-0.024
-635.595	-84.444	-0.183	-0.058
-634.580	-75.353	0.297	0.106
-633.565	509.275	0.144	0.336
-632.551	-69.070	-0.125	-0.048
-631.536	-98.731	-0.196	0.050
-630.522	-64.611	0.214	-0.087
-629.507	-200.000	-0.017	0.348
-628.492	-105.249	0.208	-0.048
-627.478	337.362	-0.039	-0.077
-626.463	-118.618	-0.290	0.051
-625.449	40.983	0.259	-0.235
-624.434	-200.000	0.007	-0.060
-623.419	58.148	0.160	-0.157
-622.405	-46.214	0.267	-0.132
-621.390	-67.164	-0.441	-0.174
-620.376	245.920	-0.098	-0.166
-619.361	-120.570	0.185	0.032
-618.346	296.537	0.026	0.048
-617.332	-90.843	0.291	-0.084
-616.317	800.000	0.054	0.197
-615.303	800.000	0.047	0.176
-614.288	-48.969	-0.361	-0.173
-613.273	-200.000	-0.005	-0.195
-612.259	470.545	-0.224	0.505
-611.244	-151.413	0.188	0.014
-610.230	-82.631	0.201	-0.065
-609.215	-200.000	-0.033	-0.147
-608.201	321.112	0.059	0.113
-607.186	-18.163	0.247	0.155
-606.171	-133.220	0.421	-0.053
-605.157	105.423	0.128	0.152
-604.142	176.775	-0.069	0.101
-603.128	648.940	0.102	-0.262
-602.113	-53.221	-0.239	-0.110
-601.098	-200.000	-0.009	-0.145
-600.084	800.000	-0.091	-0.363
-599.069	-200.000	-0.018	0.199
-598.055	55.204	0.248	-0.241
-597.040	51.568	-0.117	-0.111
-596.025	387.465	-0.091	0.188
-595.011	-200.000	-0.009	-0.196
-593.996	170.178	-0.093	-0.133
-592.982	-200.000	0.021	0.156
-591.967	-200.000	-0.002	-0.082
-590.952	416.472	-0.130	0.279
-589.938	-18.945	-0.138	-0.086
-588.923	-124.904	-0.242	0.037
-587.909	176.450	0.220	0.321
-586.894	800.000	-0.055	-0.222
-585.879	-165.207	-0.131	-0.006
-584.865	160.626	-0.147	0.206
-583.850	-200.000	0.024	-0.179
-582.836	-120.334	-0.157	0.027
-581.821	-69.409	0.332	-0.128
-580.806	-200.000	-0.014	-0.194
-579.792	227.043	0.232	-0.377
-578.777	123.581	-0.160	-0.202
-577.763	-15.827	0.157	-0.100
-576.748	-52.672	-0.078	0.036
-575.733	-125.246	-0.047	0.007
-574.719	52.118	-0.337	0.322
-573.704	800.000	0.065	0.197
-572.690	27.735	-0.251	-0.212
-571.675	155.603	-0.145	0.200
-570.661	800.000	-0.071	0.287
-569.646	6.210	-0.205	-0.153
-568.631	800.000	-0.102	-0.293
-567.617	97.412	0.120	0.138
-566.602	800.000	-0.080	0.259
-565.588	-29.514	0.139	0.079
-564.573	-29.655	-0.091	-0.052
-563.558	393.822	-0.094	-0.195
-562.544	-43.166	0.180	-0.091
-561.529	265.984	0.178	0.312
-560.515	-145.076	0.354	-0.032
-559.500	-121.170	-0.169	0.028
-558.485	-200.000	0.055	0.330
-557.471	152.785	-0.081	0.111
-556.456	-72.972	0.215	-0.079
-555.442	-200.000	0.030	0.453
-554.427	-47.767	-0.103	-0.050
-553.412	286.938	-0.082	-0.149
-552.398	-160.846	0.164	-0.009
-551.383	-200.000	-0.013	0.093
-550.369	800.000	-0.022	0.092
-549.354	75.562	0.263	-0.278
-548.339	-159.398	-0.259	0.014
-547.325	16.067	-0.196	0.155
-546.310	143.388	0.092	0.123
-545.296	445.970	-0.119	0.261
-544.281	-200.000	-0.003	-0.112
-543.266	-145.785	-0.166	0.015
-542.252	-200.000	0.063	0.352
-541.237	-135.490	0.217	-0.026
-540.223	800.000	0.076	-0.293
-539.208	-16.979	0.081	0.051
-538.193	518.876	0.078	-0.183
-537.179	-166.361	-0.120	0.005
-536.164	800.000	0.032	-0.128
-535.150	-140.305	-0.231	-0.024
-534.135	-30.431	-0.083	0.047
-533.121	-200.000	0.032	0.408
-532.106	624.013	-0.096	-0.242
-531.091	621.454	0.071	-0.180
-530.077	-134.282	0.143	-0.018
-529.062	132.586	0.128	-0.166
-528.048	-12.642	0.206	0.134
-527.033	-200.000	0.027	-0.258
-526.018	13.777	-0.137	-0.107
-525.004	215.009	-0.179	0.284
-523.989	-161.905	-0.282	-0.014
-522.975	173.811	0.012	0.017
-521.960	-78.328	0.283	-0.097
-520.945	41.430	-0.300	-0.272
-519.931	-101.857	0.329	-0.080
-518.916	-124.143	0.174	0.027
-517.902	-159.278	0.188	-0.011
-516.887	584.796	-0.084	0.207
-515.872	-34.602	-0.263	0.144
-514.858	14.946	0.138	-0.108
-513.843	-7.172	-0.313	-0.212
-512.829	-175.390	-0.266	-0.007
-511.814	220.556	-0.167	-0.267
-510.799	-79.837	0.252	0.085
-509.785	-80.558	-0.289	0.096
-508.770	-62.345	-0.147	-0.061
-507.756	-5.631	0.168	-0.115
-506.741	800.000	0.101	0.330
-505.726	48.645	0.167	0.157
-504.712	-2.210	0.158	0.111
-503.697	-200.000	0.006	0.136
-502.683	293.966	-0.038	-0.070
-501.668	-129.030	-0.414	-0.058
-500.653	55.680	0.204	0.198
-499.639	280.263	0.052	-0.092
-498.624	34.206	-0.224	-0.195
-497.610	-200.000	-0.050	0.318
-496.595	800.000	0.051	0.183
-495.581	32.682	0.042	-0.036
-494.566	-200.000	0.014	0.082
-493.551	66.831	0.188	-0.191
-492.537	26.182	0.367	-0.306
-491.522	90.933	-0.132	0.148
-490.508	-89.943	-0.251	-0.073
-489.493	-100.244	-0.116	-0.029
-488.478	800.000	-0.052	0.198
-487.464	-200.000	0.003	-0.167
-486.449	44.929	-0.105	-0.096
-485.435	800.000	0.043	0.123
-484.420	800.000	0.058	0.207
-483.405	-78.927	0.121	0.041
-482.391	-75.963	-0.205	-0.072
-481.376	-43.972	-0.300	-0.151
-480.362	118.062	0.186	-0.229
-479.347	728.207	-0.043	0.114
-478.332	40.371	-0.177	-0.159
-477.318	366.129	-0.037	-0.075
-476.303	-135.856	-0.145	-0.017
-475.289	-13.713	0.033	0.021
-474.274	250.981	0.129	-0.218
-473.259	173.072	-0.064	-0.093
-472.245	387.919	0.124	0.257
-471.230	-151.707	-0.229	0.017
-470.216	493.158	0.031	0.071
-469.201	-21.816	0.065	0.040
-468.186	-47.897	0.027	0.013
-467.172	-53.744	-0.087	-0.040
-466.157	-23.667	0.107	-0.064
-465.143	-18.789	-0.051	0.032
-464.128	-200.000	-0.002	0.214
-463.113	-70.090	0.192	0.073
-462.099	-63.821	0.182	-0.074
-461.084	-120.482	0.333	0.056
-460.070	800.000	-0.075	0.224
-459.055	635.105	-0.014	0.036
-458.040	734.185	0.097	-0.259
-457.026	220.128	-0.197	-0.315
-456.011	8.261	-0.156	-0.117
-454.997	-129.195	0.451	0.063
-453.982	260.720	-0.201	0.347
-452.968	-200.000	-0.017	-0.129
-451.953	800.000	-0.045	-0.190
-450.938	90.905	-0.170	0.191
-449.924	-64.099	-0.075	-0.030
-448.909	-23.379	-0.244	-0.146
-447.895	-54.319	-0.225	0.102
-446.880	598.038	0.100	0.246
-445.865	-200.000	-0.022	0.323
-444.851	-53.811	0.176	-0.080
-443.836	-200.000	0.013	-0.357
-442.822	139.762	0.115	-0.151
-441.807	800.000	0.083	-0.243
-440.792	-15.793	0.161	0.102
-439.778	242.699	-0.247	0.413
-438.763	-117.853	0.069	0.012
-437.749	595.446	-0.077	-0.191
-436.734	32.735	-0.218	-0.188
-435.719	85.284	0.049	0.054
-434.705	252.464	0.220	0.373
-433.690	-73.800	0.203	0.073
-432.676	-200.000	-0.064	-0.543
-431.661	759.732	-0.173	0.468
-430.646	118.414	-0.318	0.391
-429.632	-117.487	0.199	-0.036
-428.617	-116.757	-0.086	0.016
-427.603	-151.685	0.194	-0.014
-426.588	8.713	-0.211	0.159
-425.573	370.469	-0.125	-0.252
-424.559	-17.739	-0.126	0.079
-423.544	-20.491	-0.251	-0.154
-422.530	-4.908	-0.100	0.069
-421.515	-148.025	-0.025	0.002
-420.500	-57.756	-0.107	-0.047
-419.486	-26.180	-0.115	-0.067
-418.471	514.276	-0.079	0.184
-417.457	800.000	0.049	0.164
-416.442	-112.736	-0.105	-0.021
-415.428	-35.580	0.047	0.026
-414.413	-95.855	-0.132	0.035
-413.398	291.109	0.044	-0.079
-412.384	-200.000	0.031	-0.198
-411.369	-51.871	-0.246	-0.114
-410.355	-29.864	0.278	-0.158
-409.340	-200.000	-0.043	-0.229
-408.325	-200.000	0.010	-0.339
-407.311	-200.000	0.045	0.229
-406.296	222.334	-0.121	0.193
-405.282	442.600	-0.083	-0.181
-404.267	187.567	0.184	-0.273
-403.252	-69.693	0.174	-0.066
-402.238	-79.631	-0.246	-0.083
-401.223	88.977	0.098	-0.108
-400.209	-102.756	0.212	0.050
-399.194	-24.292	-0.401	-0.238
-398.179	267.231	-0.069	-0.119
-397.165	-49.372	0.443	-0.210
-396.150	-200.000	-0.071	0.438
-395.136	82.202	0.191	0.207
-394.121	-22.867	0.155	-0.093
-393.106	4.563	0.151	-0.110
-392.092	-153.893	0.164	-0.011
-391.077	-75.212	-0.179	0.064
-390.063	50.355	-0.093	0.087
-389.048	11.212	-0.296	-0.225
-388.033	-200.000	0.003	-0.110
-387.019	185.119	-0.123	-0.181
-386.004	292.635	-0.202	0.366
-384.990	800.000	0.034	0.142
-383.975	-140.927	0.230	0.024
-382.960	-86.782	-0.258	-0.078
-381.946	130.020	0.260	-0.330
-380.931	128.327	0.240	-0.304
-379.917	-95.939	0.339	-0.090
-378.902	-73.027	0.323	-0.118
-377.888	300.840	0.244	-0.447
-376.873	-11.199	0.293	0.192
-375.858	321.909	-0.074	0.139
-374.844	303.729	-0.089	0.164
-373.829	152.277	-0.192	-0.261
-372.815	-200.000	-0.024	-0.176
-371.800	189.858	-0.051	0.076
-370.785	7.814	0.266	-0.198
-369.771	800.000	-0.062	-0.199
-368.756	54.487	-0.066	-0.064
-367.742	180.855	0.045	0.066
-366.727	127.490	-0.263	0.332
-365.712	-48.927	-0.295	-0.140
-364.698	-200.000	-0.014	-0.127
-363.683	-200.000	-0.062	0.292
-362.669	69.882	-0.065	0.066
-361.654	-18.015	-0.201	0.125
-360.639	-133.955	0.267	0.033
-359.625	800.000	0.037	0.156
-358.610	753.500	0.107	-0.288
-357.596	200.463	0.234	-0.358
-356.581	46.112	0.091	-0.083
-355.566	-106.906	0.050	0.011
-354.552	-80.235	0.461	-0.153
-353.537	65.857	0.247	0.249
-352.523	173.268	0.121	0.174
-351.508	-152.087	-0.247	-0.018
-350.493	75.846	-0.131	-0.137
-349.479	-172.271	0.120	0.004
-348.464	560.602	0.037	-0.088
-347.450	-127.089	0.215	0.031
-346.435	800.000	0.057	-0.185
-345.420	-68.801	0.072	-0.027
-344.406	124.672	0.218	-0.272
-343.391	239.486	-0.036	0.060
-342.377	331.874	0.025	0.047
-341.362	-80.081	-0.119	0.040
-340.348	18.668	0.145	-0.115
-339.333	-56.127	0.027	-0.012
-338.318	800.000	-0.100	0.397
-337.304	-29.712	0.084	-0.048
-336.289	-200.000	0.015	0.148
-335.275	-200.000	0.052	-0.328
-334.260	-200.000	0.001	-0.131
-333.245	800.000	0.100	0.348
-332.231	1.545	0.255	-0.182
-331.216	-153.810	-0.481	0.033
-330.202	-98.689	0.406	0.103
-329.187	-132.162	0.327	-0.042
-328.172	-200.000	-0.038	-0.166
-327.158	18.047	-0.123	-0.097
-326.143	800.000	-0.098	0.277
-325.129	800.000	0.025	-0.069
-324.114	-47.168	-0.382	-0.185
-323.099	-60.630	0.353	-0.148
-322.085	-38.603	-0.407	-0.213
-321.070	-200.000	0.041	0.194
-320.056	-160.160	0.336	-0.018
-319.041	43.765	-0.048	-0.044
-318.026	585.412	-0.103	0.251
-317.012	800.000	0.070	-0.255
-315.997	-110.403	-0.209	-0.043
-314.983	800.000	-0.074	-0.211
-313.968	66.470	0.148	-0.149
-312.953	562.688	0.130	-0.312
-311.939	571.148	0.132	-0.319
-310.924	-146.934	-0.284	-0.024
-309.910	92.311	0.108	0.121
-308.895	-200.000	0.023	-0.340
-307.880	107.137	0.006	-0.007
-306.866	-66.189	-0.160	-0.063
-305.851	-22.852	0.079	0.047
-304.837	-48.161	0.082	0.039
-303.822	-147.605	-0.090	0.008
-302.807	-40.144	0.197	-0.102
-301.793	695.846	-0.101	0.262
-300.778	-16.024	0.053	0.033
-299.764	-147.718	-0.407	-0.034
-298.749	-133.988	-0.217	-0.027
-297.735	750.204	0.100	-0.268
-296.720	-129.835	0.019	0.003
-295.705	296.263	-0.092	0.168
-294.691	17.747	0.092	-0.073
-293.676	-43.294	-0.170	-0.085
-292.662	655.299	0.075	0.190
-291.647	136.448	-0.180	0.233
-290.632	208.364	-0.026	0.040
-289.618	-39.604	0.051	0.026
-288.603	-160.720	-0.367	-0.019
-287.589	800.000	0.030	0.084
-286.574	800.000	0.019	-0.057
-285.559	-124.716	-0.161	-0.025
-284.545	-26.500	0.126	0.073
-283.530	220.274	-0.121	0.193
-282.516	-77.788	0.347	0.119
-281.501	-54.899	-0.357	-0.159
-280.486	800.000	-0.025	0.080
-279.472	-153.582	0.332	-0.023
-278.457	-19.469	0.159	0.098
-277.443	-85.076	0.257	0.080
-276.428	-65.893	0.120	0.048
-275.413	9.638	0.199	0.149
-274.399	112.076	-0.117	0.140
-273.384	273.288	0.120	-0.209
-272.370	-83.201	0.285	0.091
-271.355	569.574	0.026	0.062
-270.340	-200.000	0.071	-0.342
-269.326	335.746	0.173	0.333
-268.311	-78.675	0.163	-0.055
-267.297	-128.340	-0.216	-0.030
-266.282	68.417	0.226	-0.229
-265.267	-59.731	-0.227	0.096
-264.253	-19.788	0.169	-0.104
-263.238	-200.000	0.034	-0.198
-262.224	-8.779	-0.174	0.115
-261.209	163.066	0.035	-0.049
-260.195	-200.000	0.009	0.077
-259.180	800.000	-0.025	0.109
-258.165	701.076	0.138	-0.360
-257.151	6.207	0.167	0.123
-256.136	756.434	0.104	-0.279
-255.122	-200.000	-0.005	0.282
-254.107	800.000	-0.090	-0.327
-253.092	-43.979	-0.192	-0.096
-252.078	123.087	0.154	0.191
-251.063	38.673	-0.184	0.162
-250.049	800.000	-0.084	-0.287
-249.034	-53.054	0.051	0.023
-248.019	713.306	0.139	0.365
-247.005	-116.641	-0.075	0.014
-245.990	-200.000	-0.006	0.075
-244.976	-200.000	-0.002	0.190
-243.961	-13.368	0.142	0.091
-242.946	-65.970	0.310	0.123
-241.932	103.368	-0.033	-0.038
-240.917	316.420	-0.169	-0.316
-239.903	357.649	-0.099	-0.195
-238.888	-19.425	0.322	0.197
-237.873	800.000	-0.092	0.295
-236.859	239.278	0.138	0.228
-235.844	-117.772	-0.138	-0.025
-234.830	669.456	-0.101	0.258
-233.815	-200.000	-0.023	0.189
-232.800	79.591	-0.272	0.288
-231.786	-49.334	-0.162	-0.076
-230.771	636.412	-0.012	0.030
-229.757	-94.062	0.287	-0.078
-228.742	-1.601	-0.014	0.010
-227.727	-26.119	0.231	0.134
-226.713	-44.619	-0.051	0.025
-225.698	-200.000	-0.053	0.314
-224.684	800.000	-0.087	0.326
-223.669	800.000	-0.074	0.236
-222.655	113.630	-0.277	0.333
-221.640	-68.461	-0.212	0.081
-220.625	-80.392	0.151	0.050
-219.611	-114.909	-0.036	-0.007
-218.596	800.000	-0.061	0.229
-217.582	-47.612	-0.173	-0.083
-216.567	-200.000	0.010	0.300
-215.552	114.879	-0.209	0.252
-214.538	369.169	-0.034	0.067
-213.523	800.000	-0.059	0.183
-212.509	79.557	-0.229	0.243
-211.494	584.287	0.103	-0.250
-210.479	-64.201	-0.038	0.015
-209.465	-38.793	0.105	-0.055
-208.450	487.002	-0.109	-0.246
-207.436	-200.000	0.001	0.095
-206.421	-29.527	-0.204	0.115
-205.406	5.832	-0.109	0.079
-204.392	199.811	0.068	-0.103
-203.377	87.439	-0.103	0.113
-202.363	-115.252	0.046	0.009
-201.348	800.000	-0.027	-0.096
-200.333	436.808	0.150	-0.322
-199.319	-11.158	0.123	-0.080
-198.304	218.164	0.151	0.237
-197.290	800.000	-0.083	0.349
-196.275	-120.998	-0.163	-0.027
-195.260	195.790	-0.177	-0.265
-194.246	-44.316	-0.011	-0.006
-193.231	-200.000	-0.031	0.323
-192.217	-58.235	-0.177	0.076
-191.202	-200.000	0.023	0.181
-190.187	-200.000	0.007	-0.308
-189.173	490.125	0.077	0.174
-188.158	-56.350	0.126	-0.055
-187.144	277.692	-0.084	0.148
-186.129	99.306	-0.239	-0.272
-185.114	196.163	-0.112	0.168
-184.100	306.249	0.068	-0.124
-183.085	93.776	0.177	-0.198
-182.071	-25.327	-0.113	-0.066
-181.056	-144.931	-0.213	-0.019
-180.042	142.857	-0.260	-0.341
-179.027	64.445	-0.161	0.160
-178.012	-20.955	0.094	0.057
-176.998	-13.400	0.088	-0.057
-175.983	-24.604	0.223	0.131
-174.969	-96.610	0.079	-0.021
-173.954	-200.000	0.000	-0.104
-172.939	-45.209	0.084	-0.041
-171.925	688.238	-0.033	-0.085
-170.910	36.474	-0.074	0.064
-169.896	-190.689	0.255	-0.003
-168.881	65.177	-0.084	-0.084
-167.866	132.819	0.369	-0.469
-166.852	35.359	0.089	0.077
-165.837	-200.000	-0.026	0.154
-164.823	-172.407	0.301	0.009
-163.808	800.000	-0.053	-0.198
-162.793	-200.000	0.039	-0.171
-161.779	800.000	-0.046	-0.186
-160.764	-200.000	0.001	0.096
-159.750	-192.641	0.263	-0.002
-158.735	32.727	0.272	0.232
-157.720	-200.000	0.022	-0.238
-156.706	-200.000	0.380	-0.002
-155.691	-112.758	0.137	0.027
-154.677	800.000	0.045	0.170
-153.662	-117.885	-0.128	0.023
-152.647	-77.021	-0.157	-0.054
-151.633	-85.074	-0.250	-0.077
-150.618	800.000	0.045	0.147
-149.604	254.004	0.173	-0.291
-148.589	115.206	-0.184	-0.221
-147.574	-200.000	0.036	-0.202
-146.560	135.775	0.103	-0.132
-145.545	466.670	0.136	0.300
-144.531	-107.367	-0.120	-0.026
-143.516	800.000	-0.031	-0.115
-142.502	800.000	-0.091	-0.346
-141.487	243.023	-0.124	0.205
-140.472	97.365	0.159	0.180
-139.458	153.582	-0.109	-0.147
-138.443	-129.636	0.052	-0.007
-137.429	-200.000	-0.003	0.172
-136.414	-200.000	-0.009	0.110
-135.399	442.604	-0.065	0.140
-134.385	-200.000	0.010	-0.126
-133.370	-84.707	0.173	-0.054
-132.356	13.434	0.306	-0.234
-131.341	21.892	-0.147	-0.118
-130.326	71.687	0.155	-0.159
-129.312	-140.128	0.158	-0.016
-128.297	-113.448	-0.116	-0.022
-127.283	317.045	-0.059	0.110
-126.268	-105.190	0.095	-0.021
-125.253	-200.000	-0.045	-0.219
-124.239	18.739	-0.185	-0.146
-123.224	-200.000	-0.062	0.367
-122.210	149.310	0.109	0.145
