DTS Sentinel unit serial number:	SN413079Multiplexer serial number:	ORYXHardware model number:	OX4-SRSoftware version number:	ORYX F/W v4.00 Oryx Data Collector v3.7.2.0data status	okinstallation	princeton_trtdifferential loss correction	single-endedforward channel	channel 2reverse channel	N/Adate	2019/09/11time	18:13:11forward acquisition time	60.00reverse acquisition time	0.00gamma	496.2192k internal	0.2285k external	0.2285temperature offset calibration	1.0023default loss term (dB/km)	0.3790temperature slope calibration	1.0000multiplexer offset coefficient	1.0000multiplexer slope coefficient	1.0000fibre end	0.00T internal ref (°C)	44.00T ext. ref 1 (°C)	1.15T ext. ref 2 (°C)	38.81length (m)	temperature (°C)	Stokes	anti-Stokes-747.200	-47.772	-0.375	0.187
-746.185	191.247	0.151	-0.233
-745.171	-115.434	0.189	0.036
-744.156	-200.000	0.013	0.223
-743.142	74.528	-0.226	-0.244
-742.127	15.613	0.076	0.061
-741.112	-15.212	0.293	-0.193
-740.098	111.396	0.189	-0.234
-739.083	68.358	0.136	0.144
-738.069	800.000	0.038	0.157
-737.054	800.000	0.076	-0.256
-736.039	-191.128	0.113	-0.001
-735.025	-151.220	0.023	-0.002
-734.010	-135.921	0.134	0.016
-732.996	-79.110	-0.254	0.089
-731.981	342.664	-0.080	-0.160
-730.966	19.712	-0.192	-0.159
-729.952	-73.983	-0.228	-0.085
-728.937	800.000	0.072	0.231
-727.923	-0.878	-0.075	-0.054
-726.908	768.696	0.044	-0.123
-725.894	-200.000	0.002	-0.105
-724.879	-114.107	0.202	-0.040
-723.864	560.007	0.071	0.177
-722.850	11.440	0.192	0.151
-721.835	444.962	-0.062	-0.140
-720.821	-200.000	-0.034	-0.175
-719.806	-200.000	-0.019	-0.218
-718.791	-200.000	0.034	0.268
-717.777	-96.805	0.089	0.024
-716.762	-17.405	-0.067	-0.043
-715.748	-62.129	-0.259	-0.111
-714.733	-200.000	0.017	0.197
-713.718	194.762	0.256	0.399
-712.704	217.584	0.171	-0.280
-711.689	191.681	0.024	0.037
-710.675	-161.254	0.128	0.007
-709.660	777.856	0.027	-0.074
-708.645	800.000	-0.040	-0.167
-707.631	-159.207	-0.170	-0.010
-706.616	-105.899	0.233	-0.054
-705.602	124.448	-0.269	-0.347
-704.587	65.546	0.124	0.129
-703.572	-46.148	-0.330	-0.166
-702.558	-169.597	-0.223	0.008
-701.543	800.000	0.148	-0.462
-700.529	-137.848	0.316	-0.036
-699.514	29.826	-0.148	-0.130
-698.499	-0.221	0.206	-0.150
-697.485	-120.996	0.044	0.008
-696.470	-200.000	-0.024	0.227
-695.456	285.614	-0.103	0.189
-694.441	-128.658	0.258	0.037
-693.426	-5.962	0.324	-0.227
-692.412	800.000	0.090	-0.303
-691.397	800.000	0.041	-0.153
-690.383	-55.675	-0.078	0.036
-689.368	122.949	-0.082	0.105
-688.354	525.371	0.162	-0.390
-687.339	-91.105	-0.134	0.039
-686.324	800.000	-0.032	-0.107
-685.310	-200.000	0.003	0.030
-684.295	-99.056	0.104	-0.027
-683.281	-75.334	-0.197	-0.072
-682.266	17.011	-0.149	0.121
-681.251	-149.548	0.300	0.024
-680.237	144.789	-0.298	-0.407
-679.222	-85.841	0.108	0.034
-678.208	31.012	-0.145	-0.128
-677.193	118.313	0.099	-0.125
-676.178	-194.086	-0.316	-0.003
-675.164	340.868	-0.153	0.307
-674.149	509.013	-0.094	0.224
-673.135	800.000	0.061	-0.243
-672.120	200.044	0.049	-0.077
-671.105	109.137	0.044	0.053
-670.091	116.148	0.131	0.164
-669.076	-200.000	0.082	-0.391
-668.062	-83.148	0.089	0.029
-667.047	210.721	0.130	0.209
-666.032	451.408	0.059	-0.133
-665.018	-41.103	0.138	0.073
-664.003	-38.065	0.306	0.166
-662.989	241.819	-0.104	-0.178
-661.974	-200.000	0.030	0.154
-660.959	-200.000	-0.036	-0.219
-659.945	-200.000	-0.019	0.167
-658.930	-55.352	0.228	-0.105
-657.916	173.206	-0.179	0.264
-656.901	-89.426	0.168	0.051
-655.886	122.138	-0.175	-0.223
-654.872	31.942	0.016	0.014
-653.857	207.308	0.125	0.199
-652.843	374.699	-0.088	-0.183
-651.828	-200.000	0.014	-0.248
-650.814	214.238	-0.199	-0.323
-649.799	60.809	0.059	0.060
-648.784	-78.701	-0.186	-0.065
-647.770	-13.778	0.199	-0.132
-646.755	-148.470	0.250	0.021
-645.741	152.245	0.125	-0.175
-644.726	263.968	-0.187	-0.332
-643.711	-37.789	-0.462	-0.251
-642.697	509.341	-0.142	-0.337
-641.682	-27.452	0.340	-0.202
-640.668	481.695	-0.036	0.084
-639.653	-200.000	-0.026	-0.132
-638.638	-65.207	0.142	-0.059
-637.624	800.000	-0.078	-0.234
-636.609	-117.791	0.365	-0.067
-635.595	-43.463	-0.209	0.108
-634.580	-200.000	-0.008	0.078
-633.565	-200.000	-0.011	0.187
-632.551	3.192	-0.338	-0.251
-631.536	41.042	-0.162	-0.149
-630.522	-108.602	0.403	-0.089
-629.507	-34.995	0.268	0.149
-628.492	276.809	-0.072	0.130
-627.478	-200.000	-0.042	-0.249
-626.463	-200.000	0.013	0.125
-625.449	507.828	-0.065	0.154
-624.434	190.253	0.067	0.103
-623.419	-38.500	0.388	-0.210
-622.405	147.222	0.029	0.040
-621.390	-200.000	-0.031	0.228
-620.376	-105.474	0.197	0.046
-619.361	-200.000	-0.070	0.327
-618.346	-180.059	0.083	-0.002
-617.332	-66.274	-0.163	0.066
-616.317	800.000	0.066	0.201
-615.303	-101.580	-0.244	0.061
-614.288	139.088	0.058	0.078
-613.273	175.319	0.134	0.199
-612.259	189.574	-0.107	-0.164
-611.244	-89.926	-0.168	0.050
-610.230	155.130	0.097	0.136
-609.215	287.846	0.112	-0.206
-608.201	-42.240	-0.075	-0.039
-607.186	65.828	-0.056	0.058
-606.171	800.000	0.039	0.127
-605.157	-28.335	-0.096	0.057
-604.142	331.324	-0.115	-0.227
-603.128	37.526	0.199	0.180
-602.113	-40.163	-0.271	-0.144
-601.098	-53.034	-0.194	-0.091
-600.084	-60.127	0.046	0.020
-599.069	26.113	0.298	0.254
-598.055	40.574	-0.242	-0.223
-597.040	-82.850	-0.434	0.143
-596.025	-200.000	0.053	0.258
-595.011	-155.299	-0.121	-0.008
-593.996	-98.136	-0.549	0.144
-592.982	62.222	0.119	0.121
-591.967	-95.802	0.156	-0.042
-590.952	532.614	-0.140	0.339
-589.938	146.007	0.061	-0.084
-588.923	-80.103	-0.092	0.031
-587.909	-62.103	-0.206	0.088
-586.894	-119.200	-0.228	0.041
-585.879	235.177	-0.068	-0.114
-584.865	-78.225	0.415	-0.145
-583.850	166.009	0.035	0.051
-582.836	-110.151	-0.127	0.027
-581.821	-22.959	0.114	0.070
-580.806	1.419	0.148	-0.109
-579.792	-13.841	0.144	0.095
-578.777	-13.593	-0.409	-0.271
-577.763	-200.000	-0.014	-0.073
-576.748	23.545	-0.298	-0.250
-575.733	82.561	-0.179	-0.198
-574.719	193.865	-0.162	0.250
-573.704	-200.000	-0.000	0.025
-572.690	40.533	0.161	0.148
-571.675	800.000	0.050	-0.210
-570.661	29.178	0.229	0.198
-569.646	-106.725	0.132	-0.030
-568.631	-39.576	-0.208	-0.111
-567.617	-200.000	0.031	0.149
-566.602	66.768	-0.186	-0.193
-565.588	-138.977	-0.225	-0.025
-564.573	552.304	0.050	0.122
-563.558	-200.000	0.024	-0.142
-562.544	-107.201	0.031	0.007
-561.529	32.423	-0.270	0.237
-560.515	188.248	-0.187	0.285
-559.500	-77.641	0.322	-0.113
-558.485	35.539	0.266	-0.238
-557.471	-146.949	-0.251	-0.022
-556.456	-200.000	0.002	-0.259
-555.442	48.757	-0.152	0.145
-554.427	298.681	-0.167	-0.313
-553.412	-200.000	-0.025	-0.352
-552.398	118.889	-0.089	0.112
-551.383	99.050	0.087	0.103
-550.369	297.520	-0.124	0.232
-549.354	284.144	-0.090	-0.164
-548.339	-91.029	-0.216	-0.063
-547.325	-57.546	0.391	0.175
-546.310	-115.906	0.306	-0.058
-545.296	-184.610	0.180	0.003
-544.281	-200.000	0.041	-0.514
-543.266	-200.000	-0.013	-0.085
-542.252	-200.000	-0.015	0.223
-541.237	-143.485	-0.142	0.014
-540.223	79.906	0.029	0.032
-539.208	-131.380	-0.433	0.058
-538.193	-200.000	0.011	-0.255
-537.179	-78.893	0.332	0.115
-536.164	67.480	-0.177	-0.184
-535.150	-78.583	0.212	0.074
-534.135	193.678	0.088	-0.136
-533.121	-91.329	-0.150	-0.044
-532.106	-39.104	0.052	-0.028
-531.091	-200.000	-0.011	-0.111
-530.077	25.979	0.282	0.239
-529.062	-200.000	-0.030	-0.243
-528.048	45.905	0.146	0.137
-527.033	51.810	0.161	0.156
-526.018	41.119	0.156	-0.143
-525.004	-64.478	-0.196	-0.081
-523.989	-200.000	0.003	-0.304
-522.975	-22.036	-0.099	-0.061
-521.960	800.000	-0.029	0.093
-520.945	-28.595	0.216	-0.127
-519.931	379.027	0.081	0.168
-518.916	55.325	0.093	-0.092
-517.902	-200.000	-0.027	-0.177
-516.887	-52.170	-0.168	0.079
-515.872	-19.003	-0.227	0.144
-514.858	-200.000	-0.002	-0.093
-513.843	198.324	-0.241	-0.375
-512.829	-56.006	-0.172	0.078
-511.814	-200.000	-0.015	0.283
-510.799	-85.069	-0.277	0.088
-509.785	231.730	0.116	-0.194
-508.770	-200.000	0.107	-0.477
-507.756	-162.025	-0.107	0.005
-506.741	213.948	-0.158	0.254
-505.726	-52.645	-0.216	-0.102
-504.712	-65.698	-0.283	0.116
-503.697	28.617	0.240	0.206
-502.683	800.000	-0.057	-0.190
-501.668	159.812	-0.143	0.203
-500.653	-84.733	-0.202	0.065
-499.639	449.117	-0.016	-0.036
-498.624	-200.000	0.038	0.291
-497.610	107.344	-0.191	-0.231
-496.595	-200.000	0.055	-0.514
-495.581	-52.954	0.167	0.078
-494.566	-91.822	-0.109	-0.032
-493.551	800.000	-0.063	-0.270
-492.537	-127.705	-0.215	0.032
-491.522	42.594	-0.271	0.251
-490.508	800.000	0.090	0.314
-489.493	-80.291	-0.228	-0.078
-488.478	59.430	0.188	-0.189
-487.464	14.746	-0.066	-0.053
-486.449	-137.542	0.501	-0.057
-485.435	800.000	-0.055	0.211
-484.420	-183.157	0.156	0.003
-483.405	-48.692	-0.249	0.121
-482.391	1.814	0.141	-0.104
-481.376	-155.293	-0.319	0.021
-480.362	-60.982	-0.075	-0.032
-479.347	800.000	-0.079	0.242
-478.332	800.000	-0.055	0.208
-477.318	36.641	0.061	0.055
-476.303	-65.122	-0.009	-0.004
-475.289	-200.000	0.030	-0.190
-474.274	-123.437	-0.126	0.020
-473.259	-102.540	-0.315	0.077
-472.245	371.570	-0.047	-0.098
-471.230	62.030	0.230	0.233
-470.216	800.000	0.050	0.223
-469.201	-122.463	-0.212	-0.035
-468.186	27.480	-0.040	-0.034
-467.172	800.000	-0.004	0.017
-466.157	-37.280	-0.062	0.034
-465.143	-82.683	-0.290	-0.095
-464.128	-133.533	-0.319	-0.041
-463.113	15.235	0.008	0.007
-462.099	73.476	-0.108	0.114
-461.084	-200.000	-0.060	-0.303
-460.070	-166.935	-0.203	-0.008
-459.055	309.594	-0.118	-0.224
-458.040	800.000	-0.060	-0.187
-457.026	-188.698	0.202	0.003
-456.011	157.541	0.198	-0.278
-454.997	348.085	-0.066	0.132
-453.982	-60.037	0.148	-0.064
-452.968	-109.261	0.382	0.082
-451.953	-19.417	-0.162	0.102
-450.938	-92.393	-0.261	0.075
-449.924	-121.727	-0.111	-0.019
-448.909	377.222	-0.112	-0.232
-447.895	-116.101	-0.199	0.038
-446.880	-122.645	0.344	-0.057
-445.865	-8.231	0.240	0.164
-444.851	-166.996	-0.029	0.001
-443.836	-110.532	0.149	-0.031
-442.822	-41.206	0.192	0.101
-441.807	-168.847	0.101	-0.004
-440.792	-44.310	0.280	-0.143
-439.778	50.162	-0.139	0.133
-438.763	121.743	-0.159	-0.201
-437.749	-93.818	0.164	0.046
-436.734	-159.547	-0.211	0.012
-435.719	56.960	0.103	0.102
-434.705	470.839	0.152	-0.346
-433.690	71.403	-0.317	0.333
-432.676	156.497	-0.086	0.121
-431.661	189.658	0.083	-0.127
-430.646	-70.000	-0.103	-0.040
-429.632	21.206	0.061	0.050
-428.617	-121.561	0.299	-0.050
-427.603	800.000	0.072	0.214
-426.588	23.709	0.192	-0.160
-425.573	-200.000	0.042	0.264
-424.559	-13.841	0.180	0.118
-423.544	12.486	-0.212	-0.166
-422.530	-56.940	0.026	0.012
-421.515	-104.357	-0.256	0.060
-420.500	-200.000	-0.018	-0.126
-419.486	-93.551	-0.133	0.037
-418.471	13.803	-0.045	0.035
-417.457	-200.000	0.023	-0.232
-416.442	389.442	-0.132	-0.278
-415.428	800.000	-0.019	0.070
-414.413	-147.963	0.169	0.014
-413.398	-8.214	-0.091	-0.062
-412.384	800.000	0.064	0.180
-411.369	-200.000	0.017	-0.106
-410.355	-200.000	0.009	0.397
-409.340	139.528	-0.163	-0.217
-408.325	-66.214	-0.479	0.193
-407.311	-15.963	-0.100	-0.064
-406.296	32.442	-0.052	0.046
-405.282	348.365	0.053	0.106
-404.267	-66.392	0.223	0.090
-403.252	-101.120	0.213	0.053
-402.238	-183.046	0.181	0.003
-401.223	403.789	0.074	-0.158
-400.209	-86.114	0.127	-0.040
-399.194	-200.000	-0.017	0.271
-398.179	-162.863	0.472	-0.023
-397.165	-120.352	-0.180	0.031
-396.150	-105.162	0.100	-0.023
-395.136	195.563	-0.074	0.114
-394.121	-200.000	0.006	-0.165
-393.106	-68.645	0.183	0.072
-392.092	-63.434	0.149	0.062
-391.077	-191.234	0.242	0.003
-390.063	547.096	-0.066	-0.160
-389.048	-200.000	-0.031	0.216
-388.033	568.521	-0.084	0.206
-387.019	-200.000	0.011	-0.079
-386.004	-18.300	-0.124	-0.078
-384.990	138.511	-0.138	-0.184
-383.975	22.313	-0.411	-0.340
-382.960	213.042	-0.231	-0.369
-381.946	138.121	-0.258	-0.342
-380.931	539.051	0.159	0.383
-379.917	78.114	0.131	0.142
-378.902	800.000	0.131	0.484
-377.888	-88.815	-0.458	-0.138
-376.873	-45.729	-0.162	0.081
-375.858	-200.000	-0.010	-0.085
-374.844	-83.134	0.166	0.054
-373.829	-200.000	0.017	0.237
-372.815	-99.239	0.394	0.101
-371.800	-200.000	0.001	0.013
-370.785	192.056	-0.025	-0.038
-369.771	22.831	-0.263	-0.218
-368.756	322.651	-0.048	-0.092
-367.742	-10.209	-0.186	-0.125
-366.727	-200.000	0.007	0.079
-365.712	232.175	0.189	-0.314
-364.698	488.949	-0.049	-0.114
-363.683	-111.136	0.081	0.017
-362.669	-137.145	-0.334	0.039
-361.654	151.055	0.071	-0.098
-360.639	-49.730	0.321	0.154
-359.625	-200.000	0.018	0.164
-358.610	-81.262	-0.115	-0.038
-357.596	-44.611	-0.144	-0.073
-356.581	-116.387	0.328	0.061
-355.566	800.000	0.045	0.183
-354.552	88.127	-0.163	0.183
-353.537	-124.122	0.364	0.058
-352.523	-200.000	-0.012	0.171
-351.508	161.215	0.166	-0.235
-350.493	-200.000	0.063	-0.351
-349.479	-130.198	-0.379	0.052
-348.464	-200.000	0.020	-0.202
-347.450	-83.684	-0.294	0.095
-346.435	-123.833	0.288	0.046
-345.420	-66.605	0.239	0.096
-344.406	742.342	0.118	0.321
-343.391	288.527	0.235	0.430
-342.377	-158.473	0.145	-0.008
-341.362	-57.493	0.057	0.025
-340.348	288.971	-0.094	0.172
-339.333	-45.316	0.178	-0.089
-338.318	-47.570	-0.209	-0.102
-337.304	-58.915	-0.178	-0.078
-336.289	-200.000	-0.002	-0.373
-335.275	-200.000	0.015	-0.283
-334.260	-140.585	0.184	-0.019
-333.245	535.054	0.072	0.173
-332.231	-62.559	-0.169	-0.071
-331.216	-200.000	0.008	-0.049
-330.202	800.000	-0.072	-0.269
-329.187	240.601	-0.158	0.267
-328.172	650.519	0.097	0.250
-327.158	-119.067	0.342	0.061
-326.143	19.777	0.107	0.087
-325.129	166.907	-0.242	0.346
-324.114	-200.000	-0.024	-0.114
-323.099	-123.018	0.163	0.026
-322.085	-146.582	-0.213	0.019
-321.070	-18.063	0.174	0.110
-320.056	-195.023	0.097	-0.001
-319.041	261.479	0.096	-0.168
-318.026	-200.000	-0.004	-0.309
-317.012	287.678	-0.088	0.161
-315.997	72.391	0.006	-0.007
-314.983	65.027	-0.233	0.238
-313.968	322.397	0.021	0.040
-312.953	-145.685	-0.086	-0.008
-311.939	-138.665	0.399	-0.044
-310.924	68.227	0.214	0.221
-309.910	7.799	-0.255	-0.193
-308.895	40.851	0.155	0.141
-307.880	800.000	0.082	-0.358
-306.866	-32.283	-0.192	0.108
-305.851	-200.000	-0.003	-0.060
-304.837	-200.000	-0.007	-0.113
-303.822	213.350	-0.047	0.075
-302.807	173.040	-0.156	0.226
-301.793	108.051	0.135	-0.163
-300.778	-124.482	0.231	-0.036
-299.764	800.000	0.035	0.146
-298.749	-200.000	0.010	0.050
-297.735	5.904	0.355	-0.265
-296.720	-152.563	-0.090	-0.007
-295.705	20.905	0.075	-0.062
-294.691	10.493	-0.243	-0.187
-293.676	-16.699	0.056	0.036
-292.662	-109.632	0.115	-0.024
-291.647	707.438	-0.061	0.162
-290.632	96.483	0.104	0.121
-289.618	800.000	0.069	0.246
-288.603	-1.190	0.169	0.120
-287.589	92.431	0.124	0.141
-286.574	-101.515	-0.369	0.091
-285.559	-15.194	-0.125	0.081
-284.545	-44.401	0.042	0.021
-283.530	-200.000	0.005	0.108
-282.516	-34.628	0.200	-0.110
-281.501	800.000	0.014	-0.057
-280.486	800.000	0.058	0.231
-279.472	184.129	-0.046	0.069
-278.457	368.252	0.025	-0.052
-277.443	-92.360	-0.507	-0.144
-276.428	117.982	0.053	0.066
-275.413	16.992	0.104	0.083
-274.399	-108.507	-0.226	-0.049
-273.384	-200.000	0.022	0.244
-272.370	81.817	0.157	-0.171
-271.355	800.000	-0.109	-0.423
-270.340	800.000	0.049	0.145
-269.326	188.890	-0.199	0.301
-268.311	-154.506	0.187	0.013
-267.297	110.060	-0.276	0.334
-266.282	-66.227	0.123	0.049
-265.267	800.000	0.052	-0.194
-264.253	-200.000	-0.005	0.239
-263.238	-133.372	0.110	-0.014
-262.224	800.000	0.019	-0.074
-261.209	12.689	0.061	0.048
-260.195	-62.405	0.236	0.099
-259.180	190.333	-0.224	-0.338
-258.165	-38.603	-0.098	-0.052
-257.151	-23.786	0.078	-0.047
-256.136	-200.000	-0.111	0.500
-255.122	-200.000	0.054	0.280
-254.107	143.153	-0.075	-0.100
-253.092	162.290	-0.082	-0.116
-252.078	3.450	-0.267	0.196
-251.063	93.507	-0.185	0.211
-250.049	-52.852	0.194	-0.090
-249.034	-200.000	-0.046	0.256
-248.019	-38.788	0.052	0.028
-247.005	694.921	0.064	-0.170
-245.990	323.863	-0.086	-0.165
-244.976	800.000	0.034	-0.121
-243.961	-127.843	0.435	-0.063
-242.946	-94.436	-0.225	-0.062
-241.932	133.564	-0.116	-0.151
-240.917	800.000	0.043	-0.135
-239.903	-200.000	0.012	0.159
-238.888	800.000	-0.013	-0.054
-237.873	47.599	-0.155	0.145
-236.859	-105.335	-0.153	-0.035
-235.844	21.228	-0.225	0.184
-234.830	9.882	0.145	0.111
-233.815	71.274	0.238	-0.249
-232.800	-200.000	0.047	0.403
-231.786	-200.000	0.006	-0.091
-230.771	-72.721	0.274	-0.101
-229.757	-41.128	0.087	-0.045
-228.742	219.108	0.075	-0.121
-227.727	-106.957	-0.260	-0.058
-226.713	-123.464	0.295	-0.047
-225.698	651.817	-0.031	0.079
-224.684	-200.000	-0.020	0.171
-223.669	-149.621	0.129	0.010
-222.655	86.706	-0.168	0.187
-221.640	-162.618	0.150	0.007
-220.625	-94.919	0.359	0.098
-219.611	42.619	0.169	0.155
-218.596	522.915	-0.067	-0.158
-217.582	-91.561	0.348	-0.100
-216.567	-200.000	0.000	-0.041
-215.552	207.782	-0.064	-0.101
-214.538	51.000	0.079	0.075
-213.523	526.526	0.065	-0.155
-212.509	-1.952	0.112	-0.079
-211.494	-177.833	-0.313	0.008
-210.479	285.587	-0.216	0.391
-209.465	-156.306	0.202	-0.013
-208.450	359.819	0.044	-0.089
-207.436	0.398	-0.153	0.110
-206.421	-200.000	0.015	0.451
-205.406	800.000	-0.058	0.216
-204.392	294.703	0.058	0.106
-203.377	-4.850	0.127	0.088
-202.363	-62.620	0.168	0.070
-201.348	-156.350	-0.137	0.009
-200.333	-200.000	0.006	0.057
-199.319	535.534	-0.161	-0.384
-198.304	-22.495	0.401	-0.244
-197.290	-173.854	0.189	0.006
-196.275	229.134	0.077	0.127
-195.260	-20.135	0.319	0.198
-194.246	785.760	0.030	0.083
-193.231	-200.000	-0.023	0.251
-192.217	12.373	-0.086	0.066
-191.202	-133.043	0.057	0.007
-190.187	62.147	-0.333	-0.334
-189.173	-31.795	0.345	-0.194
-188.158	12.384	-0.003	-0.002
-187.144	376.420	-0.207	-0.425
-186.129	102.660	0.150	-0.176
-185.114	-6.358	0.217	-0.149
-184.100	-200.000	-0.021	0.171
-183.085	-128.073	-0.245	0.035
-182.071	-195.648	-0.426	0.003
-181.056	-200.000	-0.017	0.244
-180.042	-12.530	0.177	0.116
-179.027	347.841	-0.145	0.287
-178.012	31.637	0.286	-0.247
-176.998	-129.036	0.411	0.058
-175.983	148.037	-0.136	0.184
-174.969	723.160	-0.176	0.471
-173.954	69.887	0.355	0.368
-172.939	15.967	0.422	-0.334
-171.925	-26.102	-0.121	0.072
-170.910	-137.511	0.027	-0.003
-169.896	159.593	-0.160	-0.224
-168.881	-200.000	-0.011	-0.278
-167.866	13.482	-0.132	-0.103
-166.852	156.179	-0.120	-0.166
-165.837	-123.405	0.120	0.019
-164.823	-132.579	0.090	-0.012
-163.808	145.523	0.022	-0.030
-162.793	-200.000	0.049	-0.222
-161.779	800.000	0.125	-0.410
-160.764	-89.092	0.273	-0.081
-159.750	92.307	-0.132	0.149
-158.735	-4.665	0.415	-0.287
-157.720	-64.850	0.255	-0.104
-156.706	800.000	-0.037	-0.141
-155.691	-200.000	-0.001	-0.056
-154.677	-141.187	-0.078	-0.008
-153.662	-83.352	0.252	-0.081
-152.647	561.661	-0.112	0.272
-151.633	-40.859	-0.236	-0.123
-150.618	315.022	0.063	0.119
-149.604	-100.130	0.071	-0.018
-148.589	320.475	-0.054	0.103
-147.574	-65.120	-0.222	0.090
-146.560	49.880	-0.185	0.175
-145.545	-144.595	0.168	-0.016
-144.531	49.885	0.061	0.058
-143.516	154.969	0.124	-0.171
-142.502	-122.519	-0.133	-0.022
-141.487	770.894	0.018	-0.049
-140.472	371.598	-0.044	-0.090
-139.458	-200.000	-0.008	-0.182
-138.443	239.350	-0.095	-0.158
-137.429	-138.366	-0.165	0.018
-136.414	84.191	-0.128	0.140
-135.399	-42.710	-0.050	0.025
-134.385	800.000	0.146	0.520
-133.370	-17.718	0.173	0.109
-132.356	-200.000	0.020	0.195
-131.341	-150.017	0.200	-0.016
-130.326	150.959	-0.198	0.270
-129.312	-155.695	-0.430	-0.028
-128.297	-200.000	-0.042	-0.269
-127.283	-114.061	-0.360	-0.070
-126.268	98.521	0.218	0.252
-125.253	-200.000	-0.049	-0.247
-124.239	286.233	-0.135	-0.244
-123.224	211.978	-0.109	-0.172
-122.210	-33.674	0.247	0.136
-121.195	-200.000	0.015	-0.159
