DTS Sentinel unit serial number:	SN413079Multiplexer serial number:	ORYXHardware model number:	OX4-SRSoftware version number:	ORYX F/W v4.00 Oryx Data Collector v3.7.2.0data status	okinstallation	princeton_trtdifferential loss correction	single-endedforward channel	channel 2reverse channel	N/Adate	2019/09/16time	07:07:35forward acquisition time	60.00reverse acquisition time	0.00gamma	496.2192k internal	0.2334k external	0.2334temperature offset calibration	0.9979default loss term (dB/km)	0.3790temperature slope calibration	1.0000multiplexer offset coefficient	1.0000multiplexer slope coefficient	1.0000fibre end	0.00T internal ref (°C)	27.36T ext. ref 1 (°C)	11.53T ext. ref 2 (°C)	21.91length (m)	temperature (°C)	Stokes	anti-Stokes-747.200	548.686	0.088	-0.212
-746.185	35.084	0.109	0.096
-745.171	-38.795	0.209	0.111
-744.156	-15.400	0.015	-0.010
-743.142	-150.994	-0.067	0.005
-742.127	129.327	-0.174	0.223
-741.112	37.687	-0.145	0.129
-740.098	235.472	0.062	0.102
-739.083	156.274	-0.039	-0.054
-738.069	-200.000	0.025	0.219
-737.054	800.000	0.010	0.033
-736.039	20.411	0.231	0.188
-735.025	-85.135	-0.185	0.058
-734.010	14.204	0.180	0.141
-732.996	800.000	0.043	-0.174
-731.981	180.309	-0.084	0.124
-730.966	68.869	-0.116	0.119
-729.952	-200.000	-0.001	-0.068
-728.937	60.162	-0.166	-0.164
-727.923	-200.000	0.060	-0.340
-726.908	103.572	-0.158	0.186
-725.894	96.223	-0.066	-0.075
-724.879	11.654	-0.329	-0.253
-723.864	-200.000	0.038	-0.369
-722.850	177.000	-0.199	-0.290
-721.835	-200.000	0.012	-0.237
-720.821	251.983	-0.178	0.304
-719.806	-53.799	-0.075	0.034
-718.791	-62.083	-0.280	-0.118
-717.777	-189.819	-0.104	-0.001
-716.762	7.846	-0.140	-0.105
-715.748	221.436	0.031	0.050
-714.733	280.534	0.035	0.062
-713.718	99.294	0.156	0.181
-712.704	-116.555	-0.199	0.037
-711.689	-200.000	0.008	-0.335
-710.675	-200.000	-0.001	0.248
-709.660	-200.000	0.004	-0.061
-708.645	-200.000	-0.059	-0.281
-707.631	-35.266	-0.241	0.131
-706.616	800.000	0.095	0.291
-705.602	800.000	-0.049	0.174
-704.587	-200.000	-0.022	0.102
-703.572	106.121	0.125	0.149
-702.558	-136.697	-0.146	0.017
-701.543	14.727	0.155	0.122
-700.529	13.263	0.270	0.210
-699.514	800.000	0.065	0.202
-698.499	243.754	0.055	-0.093
-697.485	314.697	0.069	-0.131
-696.470	-90.207	-0.189	-0.055
-695.456	545.145	0.046	-0.110
-694.441	19.958	0.107	0.087
-693.426	-56.449	-0.103	-0.046
-692.412	-56.430	0.229	0.102
-691.397	-127.719	-0.077	-0.011
-690.383	-106.243	-0.375	0.084
-689.368	-200.000	-0.018	-0.114
-688.354	-71.548	0.228	-0.086
-687.339	-200.000	-0.059	0.343
-686.324	-70.553	-0.480	-0.182
-685.310	-13.215	0.088	0.057
-684.295	-200.000	-0.009	0.187
-683.281	35.956	-0.145	-0.128
-682.266	27.649	-0.355	-0.300
-681.251	80.535	0.141	-0.152
-680.237	262.485	-0.116	-0.201
-679.222	278.624	0.055	-0.098
-678.208	-101.842	0.130	-0.031
-677.193	-42.985	0.088	-0.045
-676.178	-200.000	0.014	-0.223
-675.164	-52.886	0.168	-0.077
-674.149	-200.000	0.032	0.172
-673.135	-80.331	-0.139	-0.047
-672.120	-110.199	-0.231	-0.048
-671.105	117.318	0.176	0.217
-670.091	-6.946	0.158	0.107
-669.076	-73.630	-0.307	-0.112
-668.062	-76.140	-0.066	-0.023
-667.047	-81.218	0.099	-0.033
-666.032	-33.976	-0.047	0.026
-665.018	592.150	-0.050	0.125
-664.003	-200.000	-0.008	0.096
-662.989	-200.000	0.021	0.172
-661.974	-133.190	0.128	0.016
-660.959	23.806	-0.093	0.077
-659.945	-200.000	0.012	0.384
-658.930	-53.198	-0.228	0.105
-657.916	-112.799	-0.143	0.028
-656.901	-175.885	-0.083	-0.002
-655.886	88.890	0.036	0.040
-654.872	121.432	0.171	-0.214
-653.857	-40.115	-0.201	-0.105
-652.843	-144.696	0.286	-0.026
-651.828	60.435	-0.213	0.211
-650.814	69.704	0.172	-0.178
-649.799	800.000	-0.123	-0.437
-648.784	169.943	0.045	-0.064
-647.770	-200.000	-0.031	0.371
-646.755	-75.625	0.287	0.102
-645.741	-200.000	-0.004	-0.185
-644.726	-200.000	-0.024	0.210
-643.711	147.012	-0.152	-0.205
-642.697	800.000	0.026	0.095
-641.682	800.000	-0.024	-0.080
-640.668	158.676	-0.013	-0.018
-639.653	-76.839	0.143	0.050
-638.638	497.286	-0.066	-0.152
-637.624	-200.000	0.079	0.373
-636.609	98.182	-0.027	-0.031
-635.595	218.966	-0.043	-0.069
-634.580	25.432	-0.074	0.061
-633.565	-73.491	0.009	-0.003
-632.551	366.562	0.139	-0.280
-631.536	29.749	0.014	0.012
-630.522	578.309	-0.075	0.183
-629.507	800.000	0.111	0.327
-628.492	800.000	-0.093	-0.346
-627.478	800.000	-0.093	-0.328
-626.463	-20.082	-0.056	0.035
-625.449	-89.714	-0.135	0.040
-624.434	5.755	0.168	0.124
-623.419	-73.403	-0.227	0.083
-622.405	-200.000	0.054	-0.455
-621.390	2.512	0.096	-0.070
-620.376	-101.004	-0.601	-0.147
-619.361	10.547	0.129	0.099
-618.346	418.034	-0.030	0.063
-617.332	-94.304	0.122	-0.033
-616.317	143.008	0.158	0.210
-615.303	155.021	-0.236	-0.325
-614.288	-200.000	-0.011	0.096
-613.273	41.209	0.062	0.056
-612.259	300.589	-0.080	0.148
-611.244	12.326	-0.224	0.173
-610.230	508.551	0.080	-0.186
-609.215	-153.663	-0.349	-0.024
-608.201	624.450	-0.064	0.161
-607.186	48.553	0.257	0.241
-606.171	283.665	-0.132	0.238
-605.157	-200.000	-0.278	-0.001
-604.142	-161.551	-0.228	-0.012
-603.128	800.000	-0.039	-0.115
-602.113	83.224	0.370	-0.403
-601.098	140.490	0.176	0.232
-600.084	-9.517	0.258	-0.172
-599.069	-200.000	0.018	-0.126
-598.055	-37.189	0.321	-0.172
-597.040	-200.000	0.048	0.252
-596.025	-200.000	0.013	0.210
-595.011	-111.127	0.194	0.040
-593.996	-57.538	0.352	0.154
-592.982	-22.987	-0.089	-0.054
-591.967	-168.466	-0.139	-0.005
-590.952	-67.344	-0.260	-0.102
-589.938	-200.000	0.003	-0.060
-588.923	-161.855	0.298	-0.015
-587.909	-74.848	0.087	0.031
-586.894	-13.158	0.204	-0.132
-585.879	-200.000	-0.037	-0.252
-584.865	350.713	-0.085	-0.169
-583.850	60.230	-0.151	-0.149
-582.836	800.000	-0.115	-0.411
-581.821	-149.785	-0.284	-0.022
-580.806	-83.053	-0.067	-0.022
-579.792	74.321	0.161	-0.168
-578.777	101.266	-0.061	-0.071
-577.763	128.479	0.151	-0.192
-576.748	-53.823	-0.034	-0.016
-575.733	800.000	-0.088	-0.360
-574.719	-117.183	0.141	-0.026
-573.704	-39.704	-0.246	-0.129
-572.690	228.302	-0.099	0.160
-571.675	-179.565	-0.156	-0.003
-570.661	113.014	-0.098	-0.119
-569.646	-78.381	0.239	0.082
-568.631	21.839	0.150	-0.122
-567.617	9.308	0.151	0.114
-566.602	246.105	0.215	0.362
-565.588	-200.000	-0.002	-0.049
-564.573	-200.000	0.003	0.156
-563.558	-161.259	-0.398	0.021
-562.544	-200.000	-0.017	0.195
-561.529	51.537	0.034	-0.032
-560.515	346.107	0.157	0.308
-559.500	-200.000	-0.044	0.378
-558.485	-54.411	-0.294	0.133
-557.471	164.854	0.097	-0.137
-556.456	-24.667	-0.041	-0.024
-555.442	-143.823	-0.368	-0.035
-554.427	131.914	-0.064	-0.083
-553.412	-104.131	0.200	-0.046
-552.398	-60.475	-0.198	-0.084
-551.383	578.905	-0.084	-0.206
-550.369	496.991	0.128	0.293
-549.354	-200.000	0.088	0.445
-548.339	-86.025	0.333	0.103
-547.325	-69.284	-0.144	-0.055
-546.310	14.855	-0.236	0.184
-545.296	-94.844	0.086	-0.023
-544.281	217.218	0.090	0.143
-543.266	-200.000	-0.088	0.452
-542.252	73.191	0.193	0.201
-541.237	258.679	0.127	-0.218
-540.223	-100.463	0.130	0.032
-539.208	-92.447	0.396	0.111
-538.193	-200.000	0.002	-0.150
-537.179	159.924	0.132	0.184
-536.164	411.923	0.040	-0.085
-535.150	-113.245	0.251	0.049
-534.135	-101.007	-0.183	0.045
-533.121	12.962	0.190	-0.147
-532.106	-34.512	-0.096	-0.052
-531.091	-114.345	-0.107	0.021
-530.077	-200.000	-0.038	-0.232
-529.062	-134.465	-0.151	-0.018
-528.048	-114.752	-0.422	0.080
-527.033	-32.735	0.120	-0.067
-526.018	-200.000	-0.022	0.129
-525.004	-200.000	-0.005	0.195
-523.989	42.995	0.056	-0.051
-522.975	364.006	-0.283	0.568
-521.960	-17.943	-0.184	-0.115
-520.945	-200.000	0.125	0.000
-519.931	-200.000	0.044	-0.315
-518.916	-200.000	0.017	-0.216
-517.902	800.000	0.098	0.365
-516.887	-200.000	0.057	-0.254
-515.872	10.491	-0.014	0.010
-514.858	-87.983	0.275	0.082
-513.843	-0.196	-0.173	0.122
-512.829	-1.007	-0.346	0.244
-511.814	-58.525	0.154	0.066
-510.799	-200.000	0.001	-0.270
-509.785	800.000	0.106	0.317
-508.770	800.000	0.021	0.068
-507.756	23.630	0.094	-0.077
-506.741	-174.517	0.177	-0.005
-505.726	135.676	-0.117	-0.152
-504.712	11.927	0.321	-0.246
-503.697	-115.468	-0.339	0.064
-502.683	618.546	0.146	0.364
-501.668	-118.680	0.054	-0.009
-500.653	800.000	-0.057	-0.212
-499.639	76.798	0.171	-0.181
-498.624	800.000	0.037	-0.116
-497.610	8.733	-0.071	0.054
-496.595	2.276	-0.185	-0.133
-495.581	642.497	-0.066	-0.167
-494.566	-75.663	0.084	0.030
-493.551	120.062	-0.139	0.171
-492.537	415.238	0.133	-0.282
-491.522	-12.085	0.045	-0.029
-490.508	12.167	-0.104	-0.080
-489.493	290.891	-0.116	-0.209
-488.478	-200.000	0.022	0.213
-487.464	800.000	0.075	0.276
-486.449	58.373	0.128	-0.125
-485.435	-95.297	0.052	0.014
-484.420	130.600	-0.140	0.179
-483.405	100.663	-0.278	0.322
-482.391	303.462	-0.061	-0.113
-481.376	-1.265	-0.075	-0.053
-480.362	-112.531	0.356	0.071
-479.347	-200.000	-0.006	-0.544
-478.332	-54.631	-0.311	-0.140
-477.318	464.907	-0.066	-0.147
-476.303	800.000	0.021	0.090
-475.289	-143.565	0.318	-0.030
-474.274	387.564	-0.093	0.192
-473.259	800.000	0.017	0.058
-472.245	-60.221	-0.226	-0.096
-471.230	150.381	0.180	-0.243
-470.216	46.450	-0.199	0.184
-469.201	24.692	0.273	0.224
-468.186	-44.297	-0.054	0.027
-467.172	18.921	0.208	-0.165
-466.157	673.476	-0.088	-0.228
-465.143	-200.000	-0.008	-0.131
-464.128	70.232	0.145	0.149
-463.113	-200.000	-0.020	-0.308
-462.099	-88.998	-0.270	0.079
-461.084	-35.323	-0.073	0.039
-460.070	78.974	-0.145	0.154
-459.055	349.997	0.150	-0.295
-458.040	-89.297	-0.215	0.063
-457.026	155.707	-0.121	-0.166
-456.011	171.464	-0.038	0.054
-454.997	-200.000	-0.033	0.232
-453.982	122.394	-0.130	0.162
-452.968	-129.862	-0.354	-0.048
-451.953	800.000	0.019	-0.062
-450.938	227.719	-0.101	-0.164
-449.924	308.261	0.056	-0.105
-448.909	800.000	-0.092	0.385
-447.895	115.121	0.059	-0.072
-446.880	-142.928	-0.089	-0.009
-445.865	800.000	0.045	0.164
-444.851	-73.749	0.231	-0.083
-443.836	-140.341	0.173	-0.018
-442.822	800.000	-0.076	-0.210
-441.807	7.475	0.258	-0.192
-440.792	260.717	-0.140	-0.240
-439.778	-58.023	-0.049	0.021
-438.763	217.956	-0.182	-0.289
-437.749	141.890	0.058	0.076
-436.734	234.512	0.073	0.120
-435.719	242.255	0.080	0.133
-434.705	-39.362	-0.111	-0.058
-433.690	-37.171	-0.073	0.039
-432.676	-104.814	0.398	0.091
-431.661	800.000	-0.012	-0.052
-430.646	-110.671	0.309	0.063
-429.632	-157.018	-0.254	0.015
-428.617	211.648	-0.103	-0.161
-427.603	-18.296	0.229	0.142
-426.588	27.454	-0.170	0.142
-425.573	800.000	-0.031	-0.110
-424.559	117.657	-0.148	-0.181
-423.544	-119.060	-0.245	0.043
-422.530	-64.438	0.297	-0.120
-421.515	800.000	-0.108	-0.336
-420.500	327.823	-0.065	0.123
-419.486	3.924	0.219	-0.159
-418.471	-78.427	0.437	0.149
-417.457	434.150	-0.107	0.231
-416.442	800.000	-0.111	-0.312
-415.428	-148.849	0.371	-0.030
-414.413	327.706	-0.143	-0.273
-413.398	800.000	0.097	-0.288
-412.384	75.688	-0.008	0.009
-411.369	-200.000	0.083	-0.373
-410.355	-200.000	-0.068	0.299
-409.340	84.119	-0.130	0.141
-408.325	-1.023	0.158	0.111
-407.311	55.463	-0.068	0.065
-406.296	800.000	-0.096	0.404
-405.282	174.518	-0.129	0.185
-404.267	-147.663	-0.094	-0.008
-403.252	637.644	-0.090	0.226
-402.238	800.000	0.066	0.181
-401.223	-34.617	-0.237	-0.129
-400.209	111.831	-0.316	0.378
-399.194	332.850	0.129	0.248
-398.179	-77.930	-0.239	0.082
-397.165	168.007	0.030	-0.042
-396.150	-200.000	0.068	0.319
-395.136	800.000	0.028	0.115
-394.121	-187.258	-0.134	0.002
-393.106	649.762	-0.070	0.179
-392.092	73.304	-0.189	-0.196
-391.077	162.531	0.187	0.259
-390.063	-200.000	0.006	0.289
-389.048	118.250	-0.108	-0.133
-388.033	86.500	-0.188	0.205
-387.019	-71.611	0.050	0.019
-386.004	-151.572	0.423	0.031
-384.990	64.137	0.201	0.200
-383.975	-152.099	0.472	0.034
-382.960	-176.771	-0.171	0.004
-381.946	-91.127	-0.340	0.097
-380.931	-106.021	-0.180	-0.040
-379.917	227.029	-0.034	0.054
-378.902	-27.254	0.288	-0.166
-377.888	85.011	0.251	-0.273
-376.873	-111.113	0.262	-0.053
-375.858	-88.370	0.150	-0.044
-374.844	-132.901	0.166	0.021
-373.829	-136.244	0.213	0.025
-372.815	-112.623	-0.360	0.071
-371.800	23.343	-0.177	0.144
-370.785	-138.227	-0.196	-0.021
-369.771	-200.000	0.040	0.345
-368.756	54.810	0.133	0.127
-367.742	-200.000	0.056	-0.313
-366.727	-200.000	0.020	0.211
-365.712	532.253	0.104	0.245
-364.698	-200.000	-0.022	0.189
-363.683	-200.000	-0.023	0.204
-362.669	37.560	-0.158	-0.139
-361.654	34.407	-0.153	-0.132
-360.639	-7.763	-0.099	-0.066
-359.625	800.000	-0.124	0.386
-358.610	530.791	-0.058	0.135
-357.596	800.000	0.023	0.074
-356.581	-30.740	0.181	0.101
-355.566	314.112	-0.101	-0.188
-354.552	688.976	-0.090	-0.232
-353.537	800.000	0.019	-0.076
-352.523	41.751	-0.057	-0.051
-351.508	-200.000	0.006	-0.152
-350.493	7.662	0.134	0.099
-349.479	600.650	-0.069	-0.170
-348.464	109.840	0.231	-0.274
-347.450	-200.000	0.031	-0.174
-346.435	110.001	-0.183	-0.218
-345.420	-42.430	-0.361	0.182
-344.406	217.846	0.117	-0.184
-343.391	-121.521	-0.238	-0.039
-342.377	170.948	0.194	-0.276
-341.362	254.921	0.177	-0.299
-340.348	24.836	0.101	-0.083
-339.333	-200.000	-0.049	-0.232
-338.318	616.020	0.091	-0.226
-337.304	-69.314	0.238	-0.090
-336.289	-92.465	0.126	0.035
-335.275	-73.964	0.313	0.112
-334.260	-57.522	0.138	0.060
-333.245	305.672	0.082	0.151
-332.231	45.334	0.047	-0.043
-331.216	-140.397	-0.146	-0.015
-330.202	-28.769	-0.212	0.121
-329.187	-200.000	-0.017	0.147
-328.172	-200.000	0.011	-0.130
-327.158	-59.962	0.321	-0.136
-326.143	184.145	-0.113	-0.165
-325.129	497.299	-0.107	-0.243
-324.114	290.604	-0.148	-0.265
-323.099	468.401	-0.031	-0.069
-322.085	-200.000	0.026	0.166
-321.070	-66.470	-0.390	0.153
-320.056	-93.382	0.224	0.061
-319.041	159.078	-0.155	-0.213
-318.026	69.961	-0.207	-0.211
-317.012	87.892	0.340	-0.372
-315.997	-6.908	0.165	0.111
-314.983	-200.000	-0.031	-0.136
-313.968	-179.495	0.192	-0.004
-312.953	-54.933	0.197	0.088
-311.939	41.196	0.287	-0.256
-310.924	-86.001	-0.344	0.105
-309.910	506.352	0.101	0.232
-308.895	-6.104	-0.160	-0.108
-307.880	-99.133	0.313	0.078
-306.866	-8.456	0.073	0.049
-305.851	-17.054	-0.203	0.126
-304.837	-200.000	0.002	0.303
-303.822	155.790	-0.229	0.312
-302.807	800.000	-0.096	0.344
-301.793	-57.485	-0.322	0.140
-300.778	229.690	0.077	0.125
-299.764	-77.932	-0.118	-0.040
-298.749	131.594	0.075	0.095
-297.735	-166.501	0.076	0.003
-296.720	-151.045	0.359	0.027
-295.705	-180.056	0.170	-0.004
-294.691	-200.000	-0.035	0.193
-293.676	-200.000	-0.028	-0.313
-292.662	484.061	-0.088	-0.198
-291.647	40.576	0.114	0.101
-290.632	449.620	0.082	0.178
-289.618	61.660	-0.123	0.121
-288.603	31.530	0.250	-0.212
-287.589	-48.746	-0.178	-0.084
-286.574	180.828	-0.154	-0.223
-285.559	-150.830	0.327	-0.024
-284.545	-200.000	-0.006	0.051
-283.530	-81.340	0.118	-0.038
-282.516	9.573	0.354	-0.265
-281.501	-154.804	0.111	0.007
-280.486	-200.000	-0.038	-0.198
-279.472	118.922	-0.060	-0.073
-278.457	-141.234	0.080	0.008
-277.443	-200.000	0.037	-0.249
-276.428	494.342	-0.089	-0.201
-275.413	686.113	-0.033	0.085
-274.399	-148.883	0.196	0.016
-273.384	207.969	-0.043	0.067
-272.370	-63.648	0.359	0.145
-271.355	500.630	-0.143	0.326
-270.340	-141.769	-0.171	-0.017
-269.326	-8.349	-0.094	-0.062
-268.311	61.647	0.178	-0.175
-267.297	-50.623	0.225	0.105
-266.282	41.563	-0.330	-0.295
-265.267	72.648	-0.176	0.181
-264.253	-28.467	-0.222	-0.126
-263.238	-22.303	-0.475	0.284
-262.224	82.757	0.137	0.147
-261.209	124.025	-0.283	0.351
-260.195	-22.180	0.393	0.235
-259.180	-115.785	0.157	0.029
-258.165	-200.000	-0.011	-0.168
-257.151	-33.867	-0.114	-0.062
-256.136	-63.738	0.520	0.210
-255.122	-29.472	0.145	-0.082
-254.107	-200.000	-0.000	0.084
-253.092	-19.197	-0.119	-0.073
-252.078	280.014	-0.065	-0.115
-251.063	152.328	-0.043	0.058
-250.049	800.000	0.094	0.350
-249.034	-92.147	-0.158	-0.044
-248.019	-35.996	0.221	-0.118
-247.005	-34.555	0.122	-0.066
-245.990	-195.710	-0.170	0.001
-244.976	800.000	-0.139	-0.409
-243.961	-23.711	-0.401	-0.237
-242.946	-200.000	0.025	-0.190
-241.932	800.000	0.077	-0.299
-240.917	-200.000	-0.012	0.186
-239.903	49.304	0.096	0.089
-238.888	-92.624	-0.289	0.080
-237.873	-200.000	0.017	0.136
-236.859	-200.000	-0.019	-0.117
-235.844	-200.000	0.012	-0.333
-234.830	57.147	0.136	0.131
-233.815	-90.871	-0.169	-0.048
-232.800	52.218	-0.240	0.226
-231.786	-47.854	0.296	0.141
-230.771	103.697	0.214	-0.247
-229.757	-111.427	-0.204	-0.041
-228.742	-200.000	-0.015	-0.145
-227.727	83.912	-0.078	0.084
-226.713	-200.000	0.034	-0.178
-225.698	-9.752	0.280	-0.183
-224.684	-142.804	-0.063	-0.006
-223.669	-53.110	0.254	-0.115
-222.655	800.000	0.049	0.178
-221.640	-88.449	-0.148	0.043
-220.625	-200.000	-0.055	0.300
-219.611	-200.000	0.023	-0.279
-218.596	35.118	-0.258	0.223
-217.582	-200.000	0.014	0.140
-216.567	123.953	0.219	-0.271
-215.552	-93.619	-0.084	-0.023
-214.538	-88.730	0.174	0.051
-213.523	-200.000	-0.003	-0.088
-212.509	-46.600	0.293	-0.141
-211.494	-13.683	-0.146	-0.093
-210.479	-51.601	-0.345	0.158
-209.465	-52.964	0.071	-0.032
-208.450	716.747	0.041	0.106
-207.436	29.859	0.149	-0.125
-206.421	-24.807	-0.225	0.131
-205.406	93.103	-0.196	-0.218
-204.392	85.653	-0.123	-0.133
-203.377	800.000	0.080	0.294
-202.363	-59.582	0.102	-0.043
-201.348	-2.726	-0.197	-0.135
-200.333	-96.897	0.400	-0.103
-199.319	67.491	-0.014	-0.014
-198.304	175.670	0.145	0.207
-197.290	800.000	-0.079	0.259
-196.275	-200.000	-0.036	0.184
-195.260	291.517	0.206	0.368
-194.246	11.620	0.030	-0.023
-193.231	-9.193	-0.256	-0.169
-192.217	507.321	0.075	-0.172
-191.202	800.000	-0.068	-0.195
-190.187	-9.184	-0.269	-0.177
-189.173	-49.813	-0.210	0.098
-188.158	-200.000	-0.032	0.154
-187.144	-200.000	0.019	0.098
-186.129	25.845	-0.184	0.151
-185.114	266.521	0.243	0.417
-184.100	-72.748	0.106	-0.039
-183.085	36.222	-0.197	-0.171
-182.071	-200.000	-0.101	-0.454
-181.056	-200.000	0.014	-0.104
-180.042	-80.062	0.204	-0.067
-179.027	182.878	-0.152	-0.221
-178.012	199.600	0.224	0.337
-176.998	-200.000	0.000	0.258
-175.983	164.654	0.011	-0.016
-174.969	133.951	-0.193	0.245
-173.954	-45.725	-0.334	-0.162
-172.939	-9.988	0.107	-0.070
-171.925	5.792	-0.271	-0.197
-170.910	125.454	-0.194	-0.241
-169.896	800.000	0.069	0.205
-168.881	74.750	0.206	0.213
-167.866	183.737	-0.261	-0.379
-166.852	764.396	-0.130	0.347
-165.837	12.417	-0.219	0.166
-164.823	205.782	-0.028	-0.043
-163.808	-194.949	0.236	0.002
-162.793	-121.681	0.383	-0.062
-161.779	43.043	0.117	0.105
-160.764	171.560	0.133	0.187
-159.750	-97.832	-0.319	0.081
-158.735	-63.966	0.326	0.131
-157.720	87.302	0.198	0.215
-156.706	-16.500	-0.061	0.038
-155.691	-191.124	0.278	0.003
-154.677	800.000	-0.055	-0.171
-153.662	24.332	-0.236	0.191
-152.647	-61.718	-0.202	-0.083
-151.633	-30.034	0.220	-0.123
-150.618	-200.000	-0.033	-0.278
-149.604	15.478	-0.053	-0.041
-148.589	135.347	-0.116	-0.148
-147.574	235.053	-0.181	-0.293
-146.560	-67.172	0.208	-0.081
-145.545	112.862	0.160	0.190
-144.531	-107.546	0.211	0.045
-143.516	800.000	0.099	0.350
-142.502	-117.661	0.342	0.061
-141.487	80.027	-0.072	0.075
-140.472	-43.995	0.160	0.079
-139.458	-37.964	-0.181	-0.095
-138.443	-129.243	0.599	0.082
-137.429	800.000	0.114	-0.340
-136.414	-80.202	0.188	0.062
-135.399	205.438	0.203	0.309
-134.385	79.726	-0.134	0.141
-133.370	-39.059	0.202	0.104
-132.356	-88.525	0.213	-0.062
-131.341	81.959	-0.159	-0.169
-130.326	33.988	0.214	0.183
-129.312	20.871	0.114	0.091
-128.297	224.994	0.142	0.226
-127.283	-200.000	0.006	0.107
-126.268	53.358	-0.192	0.181
-125.253	-109.787	-0.201	-0.041
-124.239	111.282	0.024	-0.028
-123.224	-146.541	0.221	-0.019
-122.210	235.868	0.208	0.338
-121.195	-134.869	-0.112	-0.013
-120.180	48.644	-0.185	-0.170
