DTS Sentinel unit serial number:	SN413079Multiplexer serial number:	ORYXHardware model number:	OX4-SRSoftware version number:	ORYX F/W v4.00 Oryx Data Collector v3.7.2.0data status	okinstallation	princeton_trtdifferential loss correction	single-endedforward channel	channel 2reverse channel	N/Adate	2019/09/15time	02:35:34forward acquisition time	60.00reverse acquisition time	0.00gamma	496.2192k internal	0.2326k external	0.2326temperature offset calibration	1.0033default loss term (dB/km)	0.3790temperature slope calibration	1.0000multiplexer offset coefficient	1.0000multiplexer slope coefficient	1.0000fibre end	0.00T internal ref (°C)	31.48T ext. ref 1 (°C)	4.58T ext. ref 2 (°C)	25.87length (m)	temperature (°C)	Stokes	anti-Stokes-747.200	192.369	0.272	0.414
-746.185	21.770	-0.290	0.238
-745.171	-9.848	-0.199	0.133
-744.156	-140.064	0.150	-0.016
-743.142	-93.628	-0.169	0.047
-742.127	115.219	-0.099	0.122
-741.112	-200.000	-0.019	0.212
-740.098	-128.278	-0.210	0.030
-739.083	-166.990	0.275	-0.011
-738.069	332.432	0.014	-0.027
-737.054	-68.543	0.126	0.049
-736.039	-200.000	-0.003	0.212
-735.025	750.241	-0.070	0.191
-734.010	214.783	0.245	-0.392
-732.996	-44.961	-0.236	0.118
-731.981	35.236	-0.273	0.241
-730.966	-153.122	-0.064	-0.005
-729.952	800.000	-0.051	-0.180
-728.937	-131.227	-0.238	-0.032
-727.923	-200.000	0.014	-0.088
-726.908	-174.441	-0.432	-0.013
-725.894	131.521	0.222	-0.288
-724.879	126.850	0.040	0.051
-723.864	-68.905	-0.121	-0.047
-722.850	-22.144	0.089	-0.054
-721.835	-200.000	0.006	-0.198
-720.821	-93.337	-0.433	-0.121
-719.806	-92.237	-0.216	-0.061
-718.791	800.000	-0.018	-0.055
-717.777	-0.908	-0.101	0.072
-716.762	90.293	-0.211	-0.238
-715.748	147.361	-0.093	-0.126
-714.733	-111.311	0.423	0.087
-713.718	-53.335	-0.142	0.065
-712.704	607.409	0.071	0.178
-711.689	-46.765	-0.427	0.211
-710.675	57.788	0.204	-0.201
-709.660	-92.112	-0.127	0.036
-708.645	-50.810	-0.117	0.055
-707.631	-200.000	0.011	0.386
-706.616	183.962	0.078	0.116
-705.602	80.779	0.133	0.144
-704.587	-200.000	-0.076	0.384
-703.572	54.592	-0.077	-0.074
-702.558	-200.000	-0.002	0.040
-701.543	137.059	0.315	0.415
-700.529	658.167	0.048	-0.125
-699.514	800.000	0.108	-0.351
-698.499	134.168	-0.193	0.251
-697.485	-76.130	-0.314	0.112
-696.470	36.124	0.157	-0.139
-695.456	-21.288	-0.314	0.193
-694.441	375.694	0.125	0.256
-693.426	-200.000	0.009	-0.077
-692.412	161.897	0.088	-0.123
-691.397	800.000	-0.062	-0.271
-690.383	800.000	-0.070	-0.281
-689.368	-38.411	0.038	0.020
-688.354	377.854	-0.111	-0.228
-687.339	800.000	0.077	0.223
-686.324	800.000	-0.032	0.099
-685.310	9.731	-0.226	0.172
-684.295	90.461	0.201	-0.226
-683.281	-200.000	-0.029	0.345
-682.266	-99.349	-0.207	0.053
-681.251	114.275	0.101	-0.124
-680.237	800.000	0.015	0.063
-679.222	-137.002	0.191	-0.022
-678.208	-132.366	-0.317	0.041
-677.193	76.047	0.200	0.213
-676.178	-95.694	-0.261	-0.070
-675.164	-159.876	-0.260	0.014
-674.149	800.000	0.080	-0.296
-673.135	-46.242	-0.025	-0.012
-672.120	-200.000	0.006	-0.331
-671.105	155.489	0.195	-0.269
-670.091	49.819	-0.035	-0.033
-669.076	390.464	-0.076	0.158
-668.062	-137.469	0.134	0.015
-667.047	-73.524	0.186	0.068
-666.032	-33.944	-0.344	0.191
-665.018	-97.758	-0.244	0.064
-664.003	-200.000	0.024	0.287
-662.989	-100.813	-0.177	-0.044
-661.974	-135.255	0.210	-0.025
-660.959	158.422	-0.056	0.079
-659.945	474.988	-0.059	-0.133
-658.930	-200.000	0.019	0.217
-657.916	320.111	-0.144	-0.274
-656.901	-85.235	0.102	0.032
-655.886	-63.545	0.283	-0.117
-654.872	-48.494	0.087	-0.042
-653.857	163.808	0.020	0.028
-652.843	387.172	-0.053	-0.110
-651.828	-32.704	-0.162	0.091
-650.814	-117.151	-0.376	0.069
-649.799	128.306	-0.151	0.194
-648.784	-15.055	0.137	0.088
-647.770	-10.535	-0.374	-0.249
-646.755	-124.911	0.110	-0.017
-645.741	-106.304	0.040	0.009
-644.726	-71.742	0.152	-0.057
-643.711	-5.157	0.347	-0.240
-642.697	119.753	-0.034	-0.042
-641.682	-108.005	-0.195	-0.043
-640.668	196.048	-0.138	0.210
-639.653	-200.000	-0.002	0.231
-638.638	-106.055	-0.092	0.021
-637.624	-200.000	0.006	-0.029
-636.609	463.019	0.049	-0.111
-635.595	-28.208	0.170	-0.099
-634.580	109.195	-0.173	-0.208
-633.565	-10.541	0.054	-0.036
-632.551	25.420	0.145	0.121
-631.536	-86.977	0.205	0.063
-630.522	-133.563	0.043	0.005
-629.507	512.486	0.117	0.274
-628.492	-94.529	-0.186	-0.051
-627.478	800.000	-0.073	0.274
-626.463	-33.681	0.295	0.164
-625.449	-118.507	-0.205	-0.036
-624.434	-200.000	0.020	0.170
-623.419	256.344	-0.226	-0.389
-622.405	502.019	0.140	-0.325
-621.390	289.324	-0.135	-0.246
-620.376	2.451	0.214	-0.155
-619.361	-200.000	-0.122	0.575
-618.346	-160.573	0.110	0.006
-617.332	-200.000	-0.008	0.317
-616.317	292.157	0.094	0.171
-615.303	-80.282	-0.209	-0.070
-614.288	-200.000	-0.032	-0.263
-613.273	18.813	-0.072	-0.058
-612.259	40.658	0.190	-0.172
-611.244	85.919	-0.180	0.199
-610.230	-41.703	-0.089	-0.046
-609.215	-22.387	-0.228	-0.139
-608.201	-112.416	0.188	0.038
-607.186	-29.261	-0.385	-0.221
-606.171	177.020	-0.215	-0.314
-605.157	139.663	0.131	0.173
-604.142	-80.095	-0.195	0.065
-603.128	-200.000	-0.017	-0.075
-602.113	-5.255	0.311	-0.214
-601.098	12.334	-0.214	-0.166
-600.084	-25.649	0.234	-0.139
-599.069	-200.000	0.000	-0.002
-598.055	386.236	-0.096	-0.198
-597.040	283.417	-0.173	-0.311
-596.025	143.039	-0.189	-0.252
-595.011	344.860	-0.060	-0.118
-593.996	221.454	0.081	0.131
-592.982	-200.000	-0.019	-0.226
-591.967	16.389	-0.131	0.103
-590.952	-200.000	-0.018	0.240
-589.938	-101.754	-0.243	0.059
-588.923	-184.137	-0.066	-0.001
-587.909	116.139	0.058	-0.072
-586.894	-200.000	-0.004	0.255
-585.879	-161.282	-0.318	0.017
-584.865	-19.123	-0.097	-0.060
-583.850	-92.964	-0.282	-0.079
-582.836	-200.000	-0.006	0.109
-581.821	45.036	0.122	0.112
-580.806	800.000	0.112	-0.337
-579.792	-200.000	0.021	-0.291
-578.777	-48.202	0.142	0.069
-577.763	800.000	0.057	0.226
-576.748	-200.000	-0.023	0.317
-575.733	-47.870	-0.280	0.136
-574.719	-98.840	-0.053	0.014
-573.704	-77.066	0.072	0.025
-572.690	332.403	-0.067	-0.130
-571.675	380.426	0.069	0.142
-570.661	-86.919	0.083	-0.025
-569.646	-117.298	0.271	-0.049
-568.631	3.778	0.314	0.230
-567.617	-120.001	0.206	0.035
-566.602	-199.282	0.129	0.001
-565.588	-74.549	-0.288	0.104
-564.573	-200.000	-0.086	-0.420
-563.558	-200.000	0.077	0.540
-562.544	-121.087	0.202	0.034
-561.529	-200.000	-0.052	0.274
-560.515	-160.720	0.138	0.007
-559.500	101.016	-0.063	0.074
-558.485	64.030	0.211	0.212
-557.471	800.000	0.038	-0.120
-556.456	77.957	-0.213	0.227
-555.442	-200.000	0.004	-0.036
-554.427	-124.713	0.229	-0.036
-553.412	300.837	0.120	-0.222
-552.398	-145.335	-0.275	0.025
-551.383	160.718	-0.181	0.253
-550.369	496.969	-0.100	-0.230
-549.354	800.000	0.030	0.094
-548.339	-200.000	-0.049	0.379
-547.325	-69.066	-0.159	0.061
-546.310	-19.246	-0.034	0.021
-545.296	-84.247	-0.220	0.070
-544.281	522.714	0.090	0.211
-543.266	18.021	-0.066	0.052
-542.252	245.572	0.159	0.267
-541.237	-200.000	0.007	-0.160
-540.223	-200.000	-0.004	0.032
-539.208	-12.949	-0.133	-0.087
-538.193	800.000	0.020	0.089
-537.179	-16.723	-0.128	0.081
-536.164	150.030	0.140	-0.190
-535.150	76.073	-0.173	0.183
-534.135	-31.627	0.083	-0.047
-533.121	-200.000	0.014	-0.241
-532.106	-29.056	0.062	0.036
-531.091	-200.000	0.002	-0.215
-530.077	-97.720	0.165	-0.043
-529.062	778.673	0.055	0.150
-528.048	40.793	-0.042	0.038
-527.033	236.983	-0.148	0.246
-526.018	-200.000	-0.009	0.182
-525.004	-200.000	0.033	-0.194
-523.989	163.599	-0.097	-0.136
-522.975	800.000	0.068	-0.199
-521.960	-52.044	0.037	-0.017
-520.945	163.063	-0.057	0.079
-519.931	-128.211	0.383	0.055
-518.916	365.084	0.038	0.077
-517.902	60.182	-0.116	0.115
-516.887	274.364	-0.138	-0.244
-515.872	48.337	0.136	-0.128
-514.858	394.381	-0.197	0.410
-513.843	-14.310	0.261	-0.168
-512.829	-124.741	0.419	0.065
-511.814	611.878	-0.056	-0.141
-510.799	-39.630	0.273	-0.143
-509.785	0.849	0.121	-0.086
-508.770	101.293	0.112	0.131
-507.756	-96.111	-0.055	-0.015
-506.741	49.743	-0.177	0.167
-505.726	800.000	-0.043	0.135
-504.712	171.737	0.209	0.300
-503.697	67.053	-0.088	-0.090
-502.683	162.984	0.171	-0.240
-501.668	210.766	-0.071	-0.111
-500.653	-200.000	0.000	-0.096
-499.639	-200.000	-0.004	0.312
-498.624	56.093	-0.231	-0.224
-497.610	-200.000	-0.050	-0.247
-496.595	360.367	-0.092	0.183
-495.581	-114.262	0.415	-0.080
-494.566	800.000	0.015	0.050
-493.551	-0.421	0.175	-0.124
-492.537	592.556	-0.039	0.097
-491.522	-103.536	-0.204	-0.048
-490.508	-139.364	-0.136	0.015
-489.493	-120.847	0.165	-0.028
-488.478	268.258	0.028	-0.050
-487.464	-40.239	-0.110	-0.057
-486.449	-200.000	-0.035	-0.215
-485.435	-103.602	0.280	-0.066
-484.420	800.000	0.140	-0.509
-483.405	196.514	-0.161	0.246
-482.391	-200.000	-0.011	0.098
-481.376	289.613	-0.100	0.181
-480.362	179.901	0.091	-0.132
-479.347	-36.523	-0.291	-0.157
-478.332	-200.000	0.028	-0.355
-477.318	-43.753	-0.216	-0.109
-476.303	-19.792	0.204	0.126
-475.289	-200.000	0.011	-0.166
-474.274	800.000	-0.148	-0.430
-473.259	14.832	0.243	0.190
-472.245	32.306	-0.166	-0.143
-471.230	-79.021	0.171	-0.058
-470.216	-77.497	0.044	0.015
-469.201	-133.209	0.041	0.005
-468.186	-200.000	-0.156	-0.000
-467.172	-147.885	-0.345	-0.029
-466.157	247.098	0.184	-0.310
-465.143	59.937	-0.237	-0.233
-464.128	478.643	0.030	-0.069
-463.113	672.009	0.008	0.020
-462.099	10.149	0.125	-0.095
-461.084	-200.000	-0.002	0.065
-460.070	97.143	-0.156	-0.179
-459.055	-90.869	-0.208	0.060
-458.040	-200.000	-0.259	0.001
-457.026	-200.000	-0.052	-0.280
-456.011	-200.000	0.098	-0.457
-454.997	-125.901	-0.183	-0.027
-453.982	-200.000	0.043	0.456
-452.968	-106.656	0.151	0.034
-451.953	-77.226	-0.250	0.087
-450.938	-148.557	-0.105	0.009
-449.924	16.323	0.131	0.103
-448.909	70.258	0.026	0.026
-447.895	387.038	-0.166	-0.343
-446.880	-57.859	-0.063	0.027
-445.865	-200.000	0.005	0.098
-444.851	-131.654	0.203	-0.027
-443.836	-154.792	0.563	0.037
-442.822	-200.000	-0.049	0.304
-441.807	-200.000	0.069	0.372
-440.792	-200.000	-0.042	0.261
-439.778	-73.502	0.394	0.143
-438.763	-69.788	0.141	0.053
-437.749	11.127	-0.211	0.161
-436.734	74.562	-0.074	0.078
-435.719	-200.000	0.004	-0.161
-434.705	628.802	0.079	0.199
-433.690	800.000	0.064	0.182
-432.676	94.203	-0.127	0.143
-431.661	-2.829	0.237	0.165
-430.646	76.327	-0.263	0.277
-429.632	-153.373	0.191	-0.013
-428.617	800.000	-0.078	-0.281
-427.603	512.370	-0.074	-0.172
-426.588	7.402	-0.074	-0.055
-425.573	-59.257	0.253	0.109
-424.559	543.896	-0.046	0.111
-423.544	-125.833	-0.204	-0.031
-422.530	-144.660	-0.136	-0.013
-421.515	87.387	-0.227	-0.250
-420.500	800.000	0.055	0.169
-419.486	751.060	-0.044	-0.117
-418.471	-18.425	0.239	-0.149
-417.457	-129.478	-0.153	-0.021
-416.442	-200.000	-0.002	0.325
-415.428	12.065	-0.129	0.099
-414.413	-90.444	0.195	0.056
-413.398	-200.000	-0.013	-0.177
-412.384	24.664	0.149	-0.123
-411.369	-186.927	0.297	0.004
-410.355	-200.000	0.003	-0.060
-409.340	72.480	0.100	-0.104
-408.325	97.644	0.069	-0.079
-407.311	-69.556	-0.384	-0.146
-406.296	133.689	0.025	-0.032
-405.282	-99.537	-0.221	0.055
-404.267	158.688	-0.108	-0.150
-403.252	51.331	0.187	-0.177
-402.238	-118.432	0.066	0.012
-401.223	109.609	0.086	-0.103
-400.209	351.750	0.185	0.365
-399.194	-43.928	0.119	0.059
-398.179	800.000	-0.112	0.420
-397.165	-51.781	0.087	-0.040
-396.150	-65.052	0.266	-0.107
-395.136	107.011	0.063	-0.074
-394.121	69.021	-0.272	0.278
-393.106	-200.000	0.006	0.200
-392.092	194.691	-0.049	-0.074
-391.077	-67.352	0.099	0.039
-390.063	40.279	0.264	0.236
-389.048	202.701	-0.133	0.205
-388.033	-15.029	-0.212	0.135
-387.019	13.387	-0.141	-0.109
-386.004	-200.000	0.008	-0.290
-384.990	714.909	0.095	0.249
-383.975	-21.924	0.154	0.093
-382.960	-89.233	-0.131	-0.038
-381.946	-144.182	0.161	0.015
-380.931	-107.147	-0.083	-0.018
-379.917	53.192	-0.156	-0.149
-378.902	18.806	0.182	0.145
-377.888	-128.860	-0.202	-0.028
-376.873	167.383	0.132	0.186
-375.858	169.336	0.122	0.174
-374.844	-181.613	0.164	-0.003
-373.829	74.632	0.113	-0.118
-372.815	-98.353	0.206	-0.053
-371.800	188.046	0.193	-0.287
-370.785	-63.080	0.087	-0.036
-369.771	627.890	-0.094	-0.236
-368.756	-200.000	0.025	-0.446
-367.742	702.147	-0.004	-0.011
-366.727	-105.946	-0.321	-0.072
-365.712	9.200	0.175	-0.132
-364.698	45.481	0.184	-0.169
-363.683	-200.000	-0.042	0.208
-362.669	-200.000	-0.034	-0.270
-361.654	-39.974	-0.264	0.137
-360.639	-200.000	-0.007	-0.255
-359.625	406.948	-0.048	-0.102
-358.610	-199.303	-0.414	0.002
-357.596	2.821	-0.226	0.163
-356.581	-17.411	0.127	-0.080
-355.566	-101.799	-0.059	0.014
-354.552	-107.578	-0.056	0.012
-353.537	800.000	-0.030	0.128
-352.523	-200.000	-0.054	-0.288
-351.508	118.590	-0.127	0.156
-350.493	36.158	-0.249	0.218
-349.479	223.599	-0.182	-0.292
-348.464	362.379	-0.075	-0.150
-347.450	167.661	0.070	-0.099
-346.435	93.575	0.135	0.151
-345.420	-200.000	0.006	0.040
-344.406	175.240	0.058	-0.084
-343.391	339.569	-0.214	0.414
-342.377	-24.648	-0.186	-0.110
-341.362	18.414	-0.199	-0.158
-340.348	272.251	0.152	-0.266
-339.333	61.514	-0.038	-0.037
-338.318	-158.957	-0.252	0.014
-337.304	800.000	-0.063	-0.177
-336.289	-32.570	-0.162	0.090
-335.275	-186.958	0.179	0.002
-334.260	-119.158	0.237	-0.041
-333.245	-83.576	-0.352	-0.112
-332.231	-200.000	0.019	0.236
-331.216	-185.993	-0.075	-0.001
-330.202	-64.830	-0.244	0.098
-329.187	77.193	-0.033	0.034
-328.172	-200.000	-0.029	0.212
-327.158	-56.889	0.243	0.107
-326.143	268.217	0.062	-0.108
-325.129	-0.211	0.405	0.286
-324.114	800.000	-0.038	-0.110
-323.099	124.028	-0.084	-0.104
-322.085	-127.062	0.463	0.067
-321.070	143.657	-0.143	0.189
-320.056	619.596	0.098	0.245
-319.041	-22.949	0.233	0.139
-318.026	-58.861	-0.368	0.158
-317.012	452.956	-0.097	0.213
-315.997	322.164	0.062	0.117
-314.983	-200.000	0.013	0.325
-313.968	-111.487	0.208	-0.042
-312.953	-71.428	0.242	-0.090
-311.939	309.110	0.086	-0.159
-310.924	52.969	-0.163	-0.155
-309.910	-140.589	0.073	0.008
-308.895	-112.407	-0.217	0.043
-307.880	-200.000	0.047	-0.266
-306.866	-57.531	-0.228	-0.099
-305.851	-128.314	0.270	-0.038
-304.837	19.561	-0.209	-0.167
-303.822	37.615	0.121	0.106
-302.807	-200.000	-0.134	-0.671
-301.793	-200.000	0.319	0.001
-300.778	3.779	0.232	0.168
-299.764	338.264	-0.176	0.339
-298.749	44.972	-0.230	-0.210
-297.735	-67.919	-0.101	-0.039
-296.720	-200.000	0.019	0.112
-295.705	-200.000	-0.035	0.219
-294.691	-109.315	0.178	-0.037
-293.676	70.491	0.136	-0.139
-292.662	423.483	-0.078	-0.166
-291.647	0.542	-0.127	0.090
-290.632	-200.000	-0.022	-0.156
-289.618	-69.852	-0.270	0.102
-288.603	-111.090	-0.295	0.060
-287.589	39.438	0.087	0.077
-286.574	-10.740	-0.216	0.142
-285.559	217.171	-0.132	-0.208
-284.545	-55.404	-0.092	-0.041
-283.530	-36.635	0.236	0.126
-282.516	331.827	-0.140	-0.267
-281.501	71.145	0.198	0.203
-280.486	800.000	0.041	0.173
-279.472	-112.338	0.248	-0.049
-278.457	-22.914	-0.248	-0.148
-277.443	-200.000	0.018	0.118
-276.428	800.000	-0.083	-0.260
-275.413	-11.186	0.150	0.098
-274.399	-20.428	-0.089	-0.054
-273.384	545.841	0.100	0.236
-272.370	318.887	0.124	-0.233
-271.355	36.262	-0.073	0.064
-270.340	800.000	0.059	0.162
-269.326	-200.000	0.015	-0.258
-268.311	116.655	0.149	-0.180
-267.297	0.075	0.085	-0.060
-266.282	-51.153	0.373	0.173
-265.267	-74.324	-0.140	-0.050
-264.253	-200.000	0.201	0.001
-263.238	800.000	-0.029	0.088
-262.224	41.101	-0.109	0.098
-261.209	-60.226	-0.178	0.075
-260.195	-126.106	-0.296	-0.044
-259.180	-200.000	-0.046	0.200
-258.165	44.551	0.208	0.189
-257.151	-200.000	-0.001	-0.049
-256.136	-42.668	0.172	-0.087
-255.122	-43.530	0.151	-0.075
-254.107	93.493	0.088	-0.098
-253.092	44.489	0.198	-0.180
-252.078	-14.602	0.127	-0.081
-251.063	91.214	0.225	0.250
-250.049	-58.276	-0.228	0.098
-249.034	-145.369	-0.191	0.017
-248.019	351.127	0.120	0.235
-247.005	-200.000	-0.025	0.209
-245.990	-200.000	-0.007	-0.092
-244.976	-142.055	-0.405	0.040
-243.961	92.164	-0.063	-0.071
-242.946	-200.000	0.018	-0.231
-241.932	316.340	0.042	0.078
-240.917	-147.911	-0.208	0.017
-239.903	-102.786	-0.094	-0.022
-238.888	471.208	-0.057	0.126
-237.873	-174.417	-0.180	0.005
-236.859	-38.004	-0.032	0.017
-235.844	-111.775	0.359	0.072
-234.830	-94.074	-0.147	0.040
-233.815	43.299	0.211	0.190
-232.800	-42.633	-0.074	-0.037
-231.786	-59.511	0.384	-0.163
-230.771	-19.090	0.080	0.049
-229.757	205.070	-0.069	-0.105
-228.742	111.380	0.145	0.173
-227.727	-110.109	0.085	-0.018
-226.713	-181.343	0.363	0.007
-225.698	63.961	-0.143	0.142
-224.684	157.633	0.083	0.114
-223.669	340.262	-0.084	-0.163
-222.655	345.134	-0.036	-0.070
-221.640	-200.000	0.024	-0.114
-220.625	-9.804	-0.078	-0.051
-219.611	-200.000	-0.006	-0.069
-218.596	-189.250	-0.300	0.004
-217.582	-128.262	-0.413	0.058
-216.567	800.000	-0.051	-0.153
-215.552	-132.377	0.144	0.018
-214.538	614.661	0.078	0.193
-213.523	26.005	-0.172	0.142
-212.509	55.791	-0.181	0.173
-211.494	800.000	-0.071	-0.244
-210.479	359.985	0.051	-0.100
-209.465	315.039	0.209	-0.388
-208.450	193.267	0.131	-0.195
-207.436	52.592	0.181	-0.171
-206.421	177.161	0.133	0.191
-205.406	241.025	0.105	0.173
-204.392	710.060	-0.100	0.261
-203.377	-22.321	0.101	0.060
-202.363	800.000	-0.065	-0.200
-201.348	156.889	0.219	0.299
-200.333	312.747	0.052	0.096
-199.319	63.790	0.109	0.108
-198.304	24.457	-0.156	0.127
-197.290	199.694	-0.111	-0.169
-196.275	71.305	-0.136	0.139
-195.260	309.138	0.065	-0.121
-194.246	79.512	0.082	-0.087
-193.231	800.000	0.036	-0.112
-192.217	30.002	-0.402	0.339
-191.202	372.298	0.045	-0.090
-190.187	800.000	0.055	0.188
-189.173	-79.167	-0.170	-0.057
-188.158	-25.803	-0.242	-0.141
-187.144	164.979	0.248	0.346
-186.129	-116.144	0.107	-0.020
-185.114	675.334	-0.053	-0.137
-184.100	51.002	-0.165	0.154
-183.085	17.441	0.283	-0.222
-182.071	-15.119	-0.314	-0.198
-181.056	233.129	0.217	-0.351
-180.042	-200.000	0.003	-0.081
-179.027	-36.769	-0.079	0.042
-178.012	26.673	-0.162	-0.134
-176.998	-120.367	-0.078	0.013
-175.983	-136.504	-0.146	-0.017
-174.969	-83.611	-0.123	0.039
-173.954	-200.000	-0.025	-0.244
-172.939	-17.915	0.097	-0.060
-171.925	-123.213	-0.024	-0.004
-170.910	21.458	-0.119	0.095
-169.896	167.901	0.075	-0.105
-168.881	93.870	0.058	-0.065
-167.866	-140.946	0.345	-0.035
-166.852	-18.925	-0.066	-0.041
-165.837	-35.952	-0.127	0.068
-164.823	-86.374	0.119	-0.036
-163.808	227.968	-0.056	0.090
-162.793	-84.086	0.360	0.113
-161.779	-26.379	0.261	0.151
-160.764	-134.757	0.334	0.040
-159.750	-200.000	-0.007	0.259
-158.735	-164.181	0.338	0.015
-157.720	68.900	-0.071	-0.072
-156.706	28.054	-0.232	0.193
-155.691	-62.296	-0.126	0.052
-154.677	-7.942	-0.112	-0.075
-153.662	106.161	0.385	0.449
-152.647	-0.610	0.265	-0.185
-151.633	-12.537	-0.179	-0.115
-150.618	-49.014	0.185	0.087
-149.604	540.701	-0.096	-0.226
-148.589	209.221	-0.179	-0.277
-147.574	-200.000	0.048	0.257
-146.560	-33.061	-0.247	-0.135
-145.545	-139.686	0.298	0.031
-144.531	514.081	0.072	-0.166
-143.516	55.824	0.222	0.212
-142.502	800.000	-0.079	0.224
-141.487	309.107	-0.203	0.374
-140.472	-137.560	-0.129	-0.014
-139.458	32.421	0.231	-0.197
-138.443	-36.527	-0.162	0.086
-137.429	250.127	-0.196	-0.327
-136.414	245.738	0.070	0.115
-135.399	800.000	0.145	-0.451
-134.385	3.452	0.057	0.041
-133.370	580.687	0.049	-0.119
-132.356	-42.474	0.172	0.086
-131.341	161.146	-0.175	-0.241
-130.326	378.202	-0.016	0.032
-129.312	-91.413	0.315	-0.089
-128.297	110.953	-0.183	0.217
-127.283	93.564	-0.262	0.293
-126.268	-24.002	-0.355	-0.209
-125.253	197.380	0.132	-0.198
-124.239	204.284	-0.108	0.165
-123.224	-183.988	-0.123	0.002
-122.210	537.663	-0.096	0.224
-121.195	-121.218	0.137	0.022
