DTS Sentinel unit serial number:	SN413079Multiplexer serial number:	ORYXHardware model number:	OX4-SRSoftware version number:	ORYX F/W v4.00 Oryx Data Collector v3.7.2.0data status	okinstallation	princeton_trtdifferential loss correction	single-endedforward channel	channel 2reverse channel	N/Adate	2019/09/12time	21:55:35forward acquisition time	60.00reverse acquisition time	0.00gamma	496.2192k internal	0.2329k external	0.2329temperature offset calibration	1.0175default loss term (dB/km)	0.3790temperature slope calibration	1.0000multiplexer offset coefficient	1.0000multiplexer slope coefficient	1.0000fibre end	0.00T internal ref (°C)	30.12T ext. ref 1 (°C)	3.74T ext. ref 2 (°C)	24.74length (m)	temperature (°C)	Stokes	anti-Stokes-747.200	80.678	-0.048	0.052
-746.185	-30.345	-0.254	0.145
-745.171	-66.790	0.215	-0.086
-744.156	-173.313	-0.315	0.010
-743.142	-200.000	-0.008	-0.212
-742.127	-0.326	-0.186	0.133
-741.112	800.000	0.057	0.213
-740.098	63.691	-0.333	0.337
-739.083	-80.295	0.170	0.057
-738.069	-200.000	-0.003	0.311
-737.054	-13.644	-0.238	-0.155
-736.039	-0.770	0.130	0.093
-735.025	-100.885	0.528	0.131
-734.010	71.761	-0.177	-0.185
-732.996	-200.000	0.050	-0.347
-731.981	800.000	-0.032	-0.089
-730.966	-42.522	-0.159	0.081
-729.952	-57.928	-0.551	-0.242
-728.937	1.962	0.318	-0.231
-727.923	-72.726	-0.168	0.062
-726.908	-87.785	-0.097	0.030
-725.894	145.564	-0.169	-0.228
-724.879	-33.486	-0.097	-0.054
-723.864	-74.354	-0.165	-0.060
-722.850	371.722	0.117	0.239
-721.835	-72.955	-0.188	0.070
-720.821	-62.679	-0.209	-0.087
-719.806	800.000	-0.059	-0.194
-718.791	-71.105	-0.282	0.107
-717.777	-73.224	0.364	0.134
-716.762	-128.521	-0.267	-0.038
-715.748	-31.737	-0.398	0.225
-714.733	230.570	-0.150	-0.247
-713.718	55.601	0.107	-0.104
-712.704	661.064	0.077	-0.199
-711.689	800.000	0.080	0.258
-710.675	-77.361	-0.340	-0.119
-709.660	-37.347	-0.297	0.160
-708.645	-154.543	-0.132	-0.009
-707.631	-29.236	-0.168	0.097
-706.616	-81.415	-0.264	0.087
-705.602	85.712	0.131	-0.145
-704.587	20.029	-0.441	-0.357
-703.572	282.169	-0.164	-0.296
-702.558	35.233	0.187	0.165
-701.543	-118.838	0.153	0.027
-700.529	-200.000	0.000	-0.118
-699.514	180.008	0.200	0.294
-698.499	-200.000	-0.029	0.133
-697.485	-66.928	-0.394	0.156
-696.470	-75.897	0.285	0.101
-695.456	-90.933	-0.096	-0.028
-694.441	638.753	-0.053	-0.136
-693.426	-40.897	-0.362	0.188
-692.412	42.402	-0.061	-0.056
-691.397	-200.000	0.014	0.072
-690.383	-200.000	0.014	-0.156
-689.368	-108.901	-0.316	-0.068
-688.354	5.089	0.040	0.030
-687.339	-116.286	-0.115	0.021
-686.324	347.464	-0.141	0.279
-685.310	181.732	-0.168	0.249
-684.295	800.000	0.046	0.163
-683.281	-200.000	-0.028	-0.285
-682.266	800.000	-0.033	-0.098
-681.251	-74.825	-0.068	-0.024
-680.237	39.046	0.129	0.116
-679.222	-137.669	-0.183	0.021
-678.208	344.681	0.065	-0.128
-677.193	-130.316	-0.179	-0.024
-676.178	-159.896	0.143	-0.008
-675.164	-76.449	-0.255	-0.090
-674.149	800.000	0.059	0.240
-673.135	289.108	-0.200	-0.365
-672.120	800.000	-0.043	-0.158
-671.105	40.687	0.133	-0.120
-670.091	-103.469	-0.235	0.056
-669.076	-80.974	-0.198	0.066
-668.062	800.000	0.062	-0.272
-667.047	70.456	-0.247	-0.256
-666.032	-200.000	0.005	0.254
-665.018	-123.494	0.170	-0.027
-664.003	93.605	-0.177	0.201
-662.989	-120.491	0.378	-0.064
-661.974	-11.475	-0.282	-0.186
-660.959	800.000	-0.049	0.200
-659.945	-76.809	-0.103	-0.036
-658.930	-137.832	0.189	0.021
-657.916	11.629	-0.270	0.208
-656.901	187.528	0.088	0.131
-655.886	33.958	-0.092	-0.081
-654.872	-200.000	-0.010	-0.416
-653.857	43.072	0.224	0.205
-652.843	-49.431	-0.213	-0.102
-651.828	-6.619	-0.101	-0.069
-650.814	-80.424	-0.290	-0.097
-649.799	-69.103	-0.157	0.061
-648.784	-146.281	-0.281	-0.025
-647.770	161.859	0.092	-0.130
-646.755	93.095	0.144	0.164
-645.741	-127.634	-0.117	-0.017
-644.726	-161.073	0.181	-0.009
-643.711	52.832	-0.147	-0.141
-642.697	-200.000	0.034	-0.223
-641.682	-200.000	-0.053	0.388
-640.668	-81.181	-0.245	0.081
-639.653	559.612	-0.085	-0.207
-638.638	-47.621	-0.144	-0.070
-637.624	-200.000	-0.041	0.387
-636.609	800.000	0.037	-0.129
-635.595	119.710	0.023	-0.029
-634.580	240.642	0.083	-0.139
-633.565	-33.718	0.181	0.100
-632.551	-147.317	0.185	-0.016
-631.536	79.375	-0.236	0.254
-630.522	-48.344	0.140	0.067
-629.507	162.873	-0.200	0.282
-628.492	-2.906	-0.239	-0.167
-627.478	-200.000	-0.061	-0.344
-626.463	-200.000	0.045	0.302
-625.449	-200.000	-0.003	0.220
-624.434	-81.156	0.212	-0.070
-623.419	-158.905	-0.205	-0.012
-622.405	-200.000	0.076	-0.393
-621.390	-179.748	-0.212	-0.005
-620.376	160.718	0.232	0.325
-619.361	0.697	-0.248	-0.178
-618.346	-200.000	-0.003	-0.240
-617.332	-92.143	-0.051	0.015
-616.317	103.356	0.094	0.111
-615.303	134.196	-0.066	0.086
-614.288	-47.645	-0.068	-0.033
-613.273	800.000	-0.044	0.125
-612.259	167.110	0.190	-0.270
-611.244	-124.654	0.137	-0.021
-610.230	800.000	-0.119	0.351
-609.215	-96.412	-0.166	0.044
-608.201	28.971	-0.185	-0.157
-607.186	182.750	0.109	-0.162
-606.171	259.551	0.124	0.215
-605.157	-118.660	-0.305	0.054
-604.142	-63.397	-0.192	-0.079
-603.128	-94.214	0.126	-0.035
-602.113	-38.432	-0.192	0.102
-601.098	-16.232	-0.127	0.081
-600.084	136.439	0.110	-0.143
-599.069	150.138	-0.137	-0.186
-598.055	506.508	0.099	-0.230
-597.040	51.977	-0.174	-0.166
-596.025	-15.281	-0.336	-0.216
-595.011	87.751	-0.114	0.126
-593.996	44.374	-0.163	0.150
-592.982	600.544	0.109	0.270
-591.967	-8.799	-0.202	0.135
-590.952	190.887	-0.038	-0.057
-589.938	-45.644	-0.166	0.082
-588.923	-75.940	0.065	0.023
-587.909	16.140	0.249	0.196
-586.894	-148.677	0.197	-0.016
-585.879	-139.195	-0.258	0.028
-584.865	458.231	0.180	0.401
-583.850	-200.000	-0.018	0.204
-582.836	-200.000	0.014	0.270
-581.821	-111.128	-0.161	-0.033
-580.806	-200.000	-0.073	-0.348
-579.792	445.546	0.033	-0.072
-578.777	115.401	-0.220	0.269
-577.763	-200.000	0.029	0.187
-576.748	120.042	-0.085	0.106
-575.733	800.000	0.113	-0.333
-574.719	800.000	-0.056	-0.214
-573.704	-200.000	-0.052	-0.238
-572.690	-200.000	0.024	-0.173
-571.675	444.037	-0.072	0.157
-570.661	-152.379	0.245	-0.018
-569.646	39.646	-0.058	-0.052
-568.631	-200.000	0.004	0.198
-567.617	304.476	-0.175	0.324
-566.602	-200.000	0.006	0.427
-565.588	42.359	0.339	0.308
-564.573	800.000	0.075	0.237
-563.558	104.327	-0.147	-0.173
-562.544	162.560	0.088	-0.124
-561.529	433.379	0.043	0.094
-560.515	-85.908	0.244	0.076
-559.500	517.691	-0.021	0.050
-558.485	-101.176	0.106	0.026
-557.471	-181.100	-0.134	-0.003
-556.456	-62.380	0.087	0.036
-555.442	-109.941	-0.142	-0.030
-554.427	643.110	-0.039	0.099
-553.412	140.910	0.204	-0.270
-552.398	-200.000	-0.004	-0.189
-551.383	-134.608	0.189	-0.023
-550.369	-20.557	-0.225	0.138
-549.354	-137.282	-0.503	-0.057
-548.339	-200.000	0.065	-0.290
-547.325	563.135	0.164	0.398
-546.310	127.310	-0.177	0.224
-545.296	4.219	-0.199	0.146
-544.281	-32.591	-0.162	-0.090
-543.266	-200.000	-0.001	0.146
-542.252	36.415	0.083	-0.074
-541.237	-154.246	-0.158	-0.011
-540.223	-200.000	0.003	-0.169
-539.208	28.793	0.153	0.129
-538.193	186.262	-0.133	-0.197
-537.179	-200.000	-0.035	-0.247
-536.164	-200.000	-0.017	-0.241
-535.150	-175.234	-0.264	0.007
-534.135	98.622	0.146	0.168
-533.121	24.963	-0.064	-0.053
-532.106	80.214	0.191	-0.205
-531.091	467.373	-0.022	-0.050
-530.077	51.268	0.222	-0.210
-529.062	-121.452	0.209	0.035
-528.048	-189.870	0.091	-0.001
-527.033	185.304	0.159	-0.236
-526.018	800.000	-0.044	0.137
-525.004	114.772	-0.250	-0.304
-523.989	370.091	-0.125	-0.252
-522.975	249.620	-0.099	0.168
-521.960	-200.000	0.027	-0.310
-520.945	-200.000	-0.005	-0.172
-519.931	-88.560	0.250	0.074
-518.916	-90.225	-0.222	-0.065
-517.902	-130.369	-0.257	-0.035
-516.887	372.164	0.070	-0.142
-515.872	29.179	-0.060	0.050
-514.858	338.809	0.117	0.227
-513.843	90.222	0.133	-0.148
-512.829	-200.000	-0.008	-0.038
-511.814	-91.687	-0.240	0.068
-510.799	-200.000	0.018	0.107
-509.785	-146.618	-0.497	-0.043
-508.770	-200.000	0.002	-0.118
-507.756	260.382	-0.128	0.221
-506.741	-48.741	0.183	-0.088
-505.726	156.477	-0.147	-0.203
-504.712	-124.239	-0.226	0.035
-503.697	-200.000	0.052	0.325
-502.683	-200.000	0.027	-0.195
-501.668	331.333	-0.182	-0.350
-500.653	15.406	0.051	-0.040
-499.639	-52.924	-0.123	-0.056
-498.624	-200.000	0.065	0.372
-497.610	-54.092	-0.162	0.074
-496.595	-134.428	0.240	0.029
-495.581	126.933	-0.040	0.051
-494.566	-178.710	-0.247	-0.006
-493.551	-120.196	0.123	0.021
-492.537	-23.151	-0.254	0.153
-491.522	70.452	-0.037	0.038
-490.508	-200.000	-0.032	-0.322
-489.493	89.021	0.127	0.141
-488.478	53.245	0.287	0.274
-487.464	-57.132	0.334	0.147
-486.449	-200.000	0.027	0.254
-485.435	-75.936	-0.108	0.038
-484.420	800.000	0.033	0.126
-483.405	-64.758	-0.083	0.033
-482.391	-62.757	-0.357	0.147
-481.376	25.267	-0.126	0.105
-480.362	800.000	-0.046	0.159
-479.347	170.398	0.179	-0.255
-478.332	-173.116	-0.145	0.004
-477.318	-133.896	-0.180	-0.022
-476.303	-200.000	-0.025	-0.325
-475.289	67.845	0.174	0.178
-474.274	-128.420	0.236	-0.033
-473.259	800.000	0.000	-0.001
-472.245	-156.987	0.377	0.023
-471.230	-107.079	-0.292	0.064
-470.216	-200.000	0.049	-0.334
-469.201	800.000	0.145	0.472
-468.186	800.000	-0.071	0.236
-467.172	-200.000	-0.022	-0.213
-466.157	-11.267	0.034	-0.022
-465.143	252.306	-0.053	0.090
-464.128	-128.148	-0.364	0.052
-463.113	800.000	0.085	-0.359
-462.099	800.000	-0.030	0.105
-461.084	-150.476	-0.353	0.027
-460.070	255.152	0.177	-0.302
-459.055	-200.000	-0.021	-0.218
-458.040	-100.272	0.022	-0.005
-457.026	-200.000	-0.038	-0.318
-456.011	25.393	0.283	-0.235
-454.997	78.680	-0.159	-0.169
-453.982	-200.000	-0.000	0.050
-452.968	91.759	0.077	0.086
-451.953	72.558	-0.214	-0.222
-450.938	-24.233	-0.194	-0.115
-449.924	-22.186	-0.271	0.163
-448.909	-72.299	0.199	0.073
-447.895	-200.000	0.007	0.110
-446.880	-200.000	-0.013	0.185
-445.865	800.000	0.139	0.429
-444.851	-87.148	-0.242	-0.073
-443.836	800.000	0.082	-0.306
-442.822	-84.153	0.138	-0.043
-441.807	645.466	-0.107	-0.273
-440.792	800.000	0.089	-0.277
-439.778	35.883	-0.103	-0.090
-438.763	15.897	-0.202	0.158
-437.749	-42.416	0.160	0.081
-436.734	383.143	-0.076	-0.156
-435.719	-72.088	0.248	-0.092
-434.705	556.698	0.050	0.120
-433.690	535.158	0.072	-0.169
-432.676	237.319	-0.102	-0.168
-431.661	170.558	0.090	0.129
-430.646	-64.194	0.278	-0.113
-429.632	57.333	0.065	-0.063
-428.617	800.000	0.094	0.298
-427.603	-77.232	0.365	0.127
-426.588	-39.784	0.241	0.125
-425.573	-120.523	-0.344	0.058
-424.559	273.663	0.295	-0.520
-423.544	-196.451	-0.285	-0.002
-422.530	82.718	-0.121	0.131
-421.515	132.784	-0.031	0.039
-420.500	-187.347	-0.265	-0.004
-419.486	-200.000	-0.008	0.321
-418.471	-2.060	-0.142	-0.100
-417.457	-71.708	0.106	-0.039
-416.442	-200.000	0.010	0.043
-415.428	515.623	0.149	0.345
-414.413	237.304	-0.034	-0.056
-413.398	-146.867	0.443	-0.038
-412.384	141.907	-0.061	0.081
-411.369	-114.762	0.386	-0.073
-410.355	393.090	0.167	0.344
-409.340	601.165	0.098	-0.243
-408.325	33.142	-0.239	-0.206
-407.311	40.463	-0.115	0.103
-406.296	-200.000	-0.080	-0.359
-405.282	-140.734	0.142	0.015
-404.267	8.059	0.038	-0.028
-403.252	-178.269	-0.223	-0.005
-402.238	-15.909	0.097	-0.061
-401.223	-77.952	-0.203	-0.070
-400.209	68.216	-0.132	0.134
-399.194	-57.377	0.442	0.193
-398.179	-200.000	0.011	-0.222
-397.165	-200.000	0.029	0.154
-396.150	-85.566	0.337	-0.104
-395.136	-200.000	-0.007	0.036
-394.121	117.610	-0.070	-0.086
-393.106	-77.119	0.116	-0.040
-392.092	35.068	-0.128	0.112
-391.077	158.359	0.143	-0.197
-390.063	-66.440	-0.129	0.051
-389.048	-200.000	-0.200	0.001
-388.033	107.896	-0.110	-0.130
-387.019	800.000	-0.056	-0.220
-386.004	94.886	0.151	-0.170
-384.990	-107.430	0.259	-0.057
-383.975	-99.620	-0.058	0.015
-382.960	29.786	-0.083	0.070
-381.946	-104.396	0.184	-0.042
-380.931	-200.000	-0.062	-0.461
-379.917	-200.000	0.014	0.128
-378.902	170.755	-0.060	-0.085
-377.888	76.031	-0.199	-0.209
-376.873	337.905	0.039	-0.075
-375.858	-95.096	0.420	-0.113
-374.844	696.408	0.137	-0.357
-373.829	800.000	-0.114	-0.362
-372.815	-200.000	0.050	0.264
-371.800	-140.602	0.317	-0.033
-370.785	-200.000	0.000	0.010
-369.771	-127.608	-0.098	-0.014
-368.756	-200.000	0.023	0.129
-367.742	800.000	-0.045	0.124
-366.727	-127.470	-0.192	-0.028
-365.712	632.336	0.062	-0.156
-364.698	800.000	-0.057	0.219
-363.683	-200.000	-0.026	0.315
-362.669	4.520	-0.129	0.094
-361.654	261.094	-0.024	0.041
-360.639	-200.000	0.047	0.294
-359.625	800.000	-0.057	0.242
-358.610	-200.000	0.118	0.524
-357.596	-200.000	-0.010	0.240
-356.581	-105.893	-0.330	-0.074
-355.566	499.682	-0.120	-0.276
-354.552	-52.644	-0.158	0.072
-353.537	800.000	-0.094	0.270
-352.523	-38.030	-0.196	0.103
-351.508	-200.000	-0.049	-0.314
-350.493	29.969	0.220	-0.186
-349.479	32.826	-0.185	-0.159
-348.464	-70.488	0.045	-0.017
-347.450	18.609	-0.242	-0.192
-346.435	74.616	0.095	0.099
-345.420	-200.000	0.013	-0.165
-344.406	800.000	-0.190	0.522
-343.391	800.000	-0.012	0.046
-342.377	52.605	0.186	-0.177
-341.362	110.325	0.243	-0.290
-340.348	594.009	0.053	-0.129
-339.333	800.000	-0.037	0.122
-338.318	130.594	0.072	0.092
-337.304	-40.198	0.310	-0.160
-336.289	800.000	-0.021	0.080
-335.275	670.506	-0.099	0.254
-334.260	-181.393	-0.092	0.002
-333.245	83.718	0.057	0.062
-332.231	800.000	-0.057	-0.205
-331.216	-68.694	0.278	0.107
-330.202	-83.234	-0.068	-0.022
-329.187	-51.098	-0.259	-0.121
-328.172	-200.000	0.026	-0.251
-327.158	30.667	0.375	0.318
-326.143	-198.564	-0.080	0.000
-325.129	582.522	0.158	0.385
-324.114	-107.354	0.420	-0.092
-323.099	-25.763	0.058	-0.034
-322.085	-123.176	-0.169	0.027
-321.070	264.764	0.153	0.263
-320.056	-40.241	-0.184	0.095
-319.041	36.511	0.027	-0.023
-318.026	800.000	-0.068	-0.281
-317.012	86.813	0.097	0.107
-315.997	800.000	0.061	0.224
-314.983	-107.071	-0.329	-0.072
-313.968	-200.000	0.055	-0.397
-312.953	-18.366	-0.133	-0.082
-311.939	356.697	0.124	0.244
-310.924	-105.819	-0.236	0.053
-309.910	800.000	0.025	0.080
-308.895	17.488	0.120	0.094
-307.880	-93.511	0.171	0.047
-306.866	639.064	-0.051	0.129
-305.851	196.370	-0.207	-0.312
-304.837	-113.447	0.226	0.044
-303.822	-137.981	-0.198	-0.022
-302.807	-55.463	0.127	-0.056
-301.793	255.015	0.223	0.378
-300.778	40.424	0.023	0.020
-299.764	800.000	0.056	0.167
-298.749	156.490	0.152	0.207
-297.735	-60.160	-0.226	-0.095
-296.720	-200.000	-0.008	0.124
-295.705	-142.881	-0.381	-0.037
-294.691	-200.000	-0.001	-0.004
-293.676	290.252	0.027	0.049
-292.662	-200.000	-0.016	-0.214
-291.647	196.068	0.171	0.258
-290.632	-146.401	0.257	0.022
-289.618	144.017	0.123	-0.162
-288.603	800.000	0.051	0.171
-287.589	43.415	-0.089	0.080
-286.574	259.070	-0.089	-0.151
-285.559	136.713	-0.211	0.273
-284.545	135.015	0.174	-0.224
-283.530	113.801	-0.145	-0.174
-282.516	-49.041	-0.219	0.104
-281.501	-200.000	-0.031	0.316
-280.486	-84.136	0.121	-0.038
-279.472	58.260	-0.134	0.130
-278.457	-117.344	-0.256	0.046
-277.443	-93.209	0.351	0.096
-276.428	66.272	0.213	-0.214
-275.413	-92.993	-0.030	0.008
-274.399	-49.479	-0.093	0.044
-273.384	-200.000	0.026	-0.181
-272.370	-200.000	0.006	0.144
-271.355	-74.460	-0.304	-0.108
-270.340	-200.000	-0.027	0.166
-269.326	236.429	-0.054	0.088
-268.311	-13.185	0.050	-0.032
-267.297	-142.709	-0.329	-0.032
-266.282	21.377	0.383	-0.308
-265.267	710.739	-0.092	-0.241
-264.253	256.610	-0.105	0.179
-263.238	70.924	-0.320	-0.328
-262.224	-39.408	0.123	0.064
-261.209	-127.080	0.138	0.020
-260.195	273.014	-0.208	-0.363
-259.180	235.799	-0.134	-0.219
-258.165	-135.296	0.215	-0.026
-257.151	133.541	0.086	-0.110
-256.136	150.578	0.304	0.408
-255.122	-32.625	-0.242	-0.133
-254.107	-105.610	-0.219	-0.049
-253.092	342.240	-0.082	-0.158
-252.078	-110.083	0.515	-0.106
-251.063	-140.740	-0.106	0.011
-250.049	-24.295	-0.076	-0.045
-249.034	34.495	0.142	0.123
-248.019	15.598	-0.145	-0.113
-247.005	-86.610	-0.259	-0.078
-245.990	-27.362	0.430	-0.247
-244.976	-45.694	-0.215	0.105
-243.961	-200.000	-0.054	0.348
-242.946	-49.995	0.135	-0.063
-241.932	-116.241	0.279	0.051
-240.917	-23.992	0.081	-0.048
-239.903	-48.241	0.087	-0.042
-238.888	76.203	0.322	0.336
-237.873	800.000	-0.042	0.149
-236.859	-112.982	0.148	-0.029
-235.844	142.184	-0.165	0.216
-234.830	199.288	0.097	-0.146
-233.815	121.807	0.030	0.037
-232.800	-108.521	0.285	0.061
-231.786	800.000	0.063	0.219
-230.771	268.589	-0.047	0.081
-229.757	-154.194	-0.107	-0.007
-228.742	131.600	-0.074	-0.094
-227.727	70.158	-0.106	0.108
-226.713	-200.000	-0.020	0.096
-225.698	88.946	0.230	0.252
-224.684	534.446	0.086	-0.201
-223.669	349.620	-0.133	0.260
-222.655	286.384	0.139	0.248
-221.640	-73.145	-0.047	0.017
-220.625	40.159	0.127	0.113
-219.611	-36.655	0.088	-0.047
-218.596	-19.504	0.318	-0.195
-217.582	-129.243	-0.351	-0.048
-216.567	586.499	0.040	0.098
-215.552	800.000	0.128	0.357
-214.538	307.009	-0.026	0.049
-213.523	-200.000	0.043	0.194
-212.509	-62.488	-0.042	-0.017
-211.494	-42.351	0.111	-0.056
-210.479	88.599	0.141	0.154
-209.465	800.000	-0.112	-0.364
-208.450	188.642	-0.163	0.240
-207.436	-21.979	0.154	0.092
-206.421	227.314	-0.028	-0.044
-205.406	-186.372	-0.062	-0.001
-204.392	-102.708	-0.163	-0.038
-203.377	-0.263	0.256	-0.179
-202.363	-106.786	-0.131	0.029
-201.348	-168.926	-0.389	-0.014
-200.333	800.000	-0.152	-0.518
-199.319	73.391	0.323	0.333
-198.304	464.683	0.115	-0.254
-197.290	-126.959	0.108	-0.016
-196.275	800.000	-0.027	0.114
-195.260	353.895	0.117	-0.229
-194.246	-131.963	0.208	0.027
-193.231	235.159	-0.166	-0.270
-192.217	-185.842	-0.222	-0.003
-191.202	-36.584	-0.364	0.193
-190.187	-200.000	-0.001	0.094
-189.173	800.000	0.021	-0.073
-188.158	-19.608	0.185	-0.113
-187.144	-200.000	-0.016	0.200
-186.129	-83.764	0.134	-0.042
-185.114	-10.590	-0.307	-0.200
-184.100	50.750	0.143	-0.133
-183.085	-200.000	-0.011	-0.063
-182.071	800.000	0.053	0.220
-181.056	-77.837	0.332	0.113
-180.042	200.928	0.197	0.298
-179.027	-200.000	0.023	-0.251
-178.012	518.278	-0.071	0.163
-176.998	60.704	0.143	-0.139
-175.983	-162.377	0.333	-0.016
-174.969	-56.326	0.064	-0.028
-173.954	-78.287	-0.209	-0.071
-172.939	180.007	0.190	-0.274
-171.925	-58.245	0.337	-0.144
-170.910	-36.254	-0.151	0.080
-169.896	55.116	0.041	0.039
-168.881	525.220	-0.092	0.213
-167.866	-56.880	-0.015	0.007
-166.852	800.000	0.147	-0.401
-165.837	800.000	-0.067	0.189
-164.823	122.543	-0.153	-0.188
-163.808	-169.152	0.065	-0.002
-162.793	-200.000	-0.014	0.225
-161.779	-200.000	-0.006	-0.093
-160.764	-172.262	-0.207	0.007
-159.750	56.576	-0.047	0.045
-158.735	-75.854	0.447	0.156
-157.720	-200.000	0.055	-0.296
-156.706	17.730	0.156	-0.122
-155.691	29.813	0.080	-0.067
-154.677	85.000	0.205	0.222
-153.662	76.824	-0.058	-0.061
-152.647	479.039	0.168	-0.376
-151.633	-93.635	0.236	-0.064
-150.618	289.258	0.182	0.324
-149.604	-200.000	0.005	0.280
-148.589	-200.000	0.005	0.049
-147.574	-31.648	-0.117	0.065
-146.560	221.805	-0.094	0.149
-145.545	-200.000	-0.015	-0.192
-144.531	-200.000	-0.007	-0.059
-143.516	-87.550	-0.316	0.094
-142.502	-200.000	0.007	0.097
-141.487	313.419	0.053	0.099
-140.472	800.000	-0.082	0.288
-139.458	442.337	-0.024	0.052
-138.443	12.941	0.170	-0.129
-137.429	134.303	-0.126	-0.161
-136.414	800.000	-0.087	0.285
-135.399	-107.539	0.132	-0.028
-134.385	-9.823	0.124	0.081
-133.370	-180.814	0.193	0.004
-132.356	396.345	0.041	0.084
-131.341	-83.726	-0.173	-0.054
-130.326	118.907	0.206	-0.251
-129.312	-200.000	0.043	0.366
-128.297	13.858	-0.223	-0.171
-127.283	-200.000	0.032	0.392
-126.268	-200.000	0.023	-0.345
-125.253	-200.000	0.035	-0.237
-124.239	-200.000	0.105	-0.480
-123.224	90.476	0.159	-0.175
-122.210	215.240	0.075	-0.117
