DTS Sentinel unit serial number:	SN413079Multiplexer serial number:	ORYXHardware model number:	OX4-SRSoftware version number:	ORYX F/W v4.00 Oryx Data Collector v3.7.2.0data status	okinstallation	princeton_trtdifferential loss correction	single-endedforward channel	channel 2reverse channel	N/Adate	2019/09/13time	15:55:35forward acquisition time	60.00reverse acquisition time	0.00gamma	496.2192k internal	0.2316k external	0.2316temperature offset calibration	1.0212default loss term (dB/km)	0.3790temperature slope calibration	1.0000multiplexer offset coefficient	1.0000multiplexer slope coefficient	1.0000fibre end	0.00T internal ref (°C)	34.62T ext. ref 1 (°C)	4.80T ext. ref 2 (°C)	30.65length (m)	temperature (°C)	Stokes	anti-Stokes-747.200	-200.000	-0.002	-0.084
-746.185	-6.163	-0.199	0.137
-745.171	-111.735	-0.272	-0.056
-744.156	47.925	0.137	-0.130
-743.142	158.848	0.149	-0.210
-742.127	431.748	-0.147	0.323
-741.112	-200.000	0.007	-0.081
-740.098	-200.000	0.041	-0.519
-739.083	800.000	-0.006	-0.021
-738.069	-130.706	-0.117	-0.016
-737.054	-200.000	0.017	-0.119
-736.039	-200.000	-0.040	-0.366
-735.025	-200.000	0.006	0.439
-734.010	800.000	-0.066	-0.204
-732.996	146.054	-0.132	-0.179
-731.981	55.224	-0.031	0.030
-730.966	-200.000	-0.023	0.222
-729.952	3.299	-0.313	-0.231
-728.937	-186.271	0.195	0.003
-727.923	-200.000	-0.045	-0.218
-726.908	-11.839	-0.192	0.127
-725.894	800.000	-0.068	-0.222
-724.879	-3.760	-0.327	0.230
-723.864	499.457	0.094	0.219
-722.850	502.309	-0.136	-0.317
-721.835	676.247	0.199	-0.523
-720.821	-124.861	-0.390	-0.061
-719.806	-68.802	0.274	0.107
-718.791	-64.754	-0.026	-0.011
-717.777	-97.553	-0.241	-0.063
-716.762	-1.742	0.101	-0.072
-715.748	800.000	-0.083	-0.316
-714.733	635.380	-0.104	-0.267
-713.718	21.179	0.106	0.087
-712.704	35.150	0.259	-0.230
-711.689	90.080	-0.113	-0.128
-710.675	406.447	0.132	0.282
-709.660	112.283	-0.182	-0.222
-708.645	-73.171	0.331	0.123
-707.631	-32.179	-0.233	0.132
-706.616	63.013	0.106	0.108
-705.602	128.858	-0.091	0.117
-704.587	-127.658	0.158	0.023
-703.572	800.000	-0.101	0.284
-702.558	-82.946	0.280	0.091
-701.543	781.767	-0.088	-0.243
-700.529	-70.973	0.293	-0.112
-699.514	-33.860	-0.312	0.174
-698.499	-170.093	-0.505	0.018
-697.485	-200.000	-0.009	0.168
-696.470	-145.230	0.067	0.006
-695.456	-91.218	0.205	-0.059
-694.441	-200.000	-0.007	0.089
-693.426	53.633	-0.177	0.172
-692.412	-121.781	-0.493	-0.082
-691.397	475.935	-0.111	0.253
-690.383	-195.309	-0.085	0.001
-689.368	754.897	0.145	-0.396
-688.354	-36.686	-0.300	-0.163
-687.339	181.329	0.023	0.034
-686.324	-200.000	-0.005	-0.426
-685.310	-165.559	-0.177	-0.008
-684.295	-200.000	-0.005	0.254
-683.281	-23.769	-0.377	0.228
-682.266	-200.000	-0.051	-0.289
-681.251	106.087	0.233	-0.278
-680.237	-101.986	-0.091	-0.022
-679.222	145.116	-0.085	-0.115
-678.208	-5.791	0.066	0.046
-677.193	82.279	-0.067	-0.074
-676.178	800.000	0.063	0.184
-675.164	-164.474	-0.185	0.009
-674.149	-57.602	0.148	-0.065
-673.135	184.610	-0.199	0.298
-672.120	-200.000	0.053	0.271
-671.105	62.942	0.033	0.033
-670.091	-92.239	-0.416	-0.118
-669.076	-34.634	-0.055	0.030
-668.062	119.463	0.058	0.072
-667.047	-200.000	-0.015	-0.088
-666.032	77.243	-0.140	0.150
-665.018	-123.868	0.070	0.011
-664.003	-200.000	-0.003	0.203
-662.989	-32.898	-0.285	0.160
-661.974	800.000	-0.046	-0.159
-660.959	-200.000	0.083	-0.423
-659.945	-200.000	0.009	-0.079
-658.930	-70.062	-0.091	0.035
-657.916	-84.149	-0.162	-0.052
-656.901	-122.636	0.131	0.021
-655.886	123.198	-0.146	-0.185
-654.872	-42.294	-0.368	-0.190
-653.857	-94.843	0.220	0.060
-652.843	-105.057	-0.383	-0.088
-651.828	-200.000	0.022	-0.272
-650.814	537.553	-0.105	0.252
-649.799	800.000	-0.028	-0.081
-648.784	-200.000	-0.112	-0.503
-647.770	-200.000	0.036	-0.176
-646.755	66.966	-0.300	-0.308
-645.741	-122.249	0.162	-0.027
-644.726	-147.579	-0.250	0.021
-643.711	8.751	0.163	0.124
-642.697	-16.053	0.144	-0.092
-641.682	-200.000	0.021	-0.266
-640.668	-96.580	-0.238	0.063
-639.653	-107.478	-0.315	-0.070
-638.638	-200.000	-0.083	-0.487
-637.624	96.339	-0.075	0.086
-636.609	-200.000	-0.024	0.268
-635.595	-9.303	0.066	0.044
-634.580	-84.606	-0.169	-0.054
-633.565	121.675	-0.172	-0.216
-632.551	360.419	0.018	-0.035
-631.536	-119.467	0.198	0.035
-630.522	-200.000	0.028	-0.285
-629.507	-200.000	-0.015	-0.093
-628.492	-41.036	-0.318	-0.166
-627.478	257.611	-0.218	-0.377
-626.463	730.785	-0.083	-0.225
-625.449	420.053	0.022	-0.047
-624.434	-102.308	-0.153	-0.037
-623.419	199.981	-0.130	-0.201
-622.405	-67.055	-0.256	0.102
-621.390	-28.342	-0.126	0.074
-620.376	-96.514	-0.161	-0.043
-619.361	-136.231	-0.436	-0.051
-618.346	50.486	0.100	-0.096
-617.332	-90.040	0.316	0.093
-616.317	-54.828	-0.171	0.078
-615.303	410.843	0.030	-0.063
-614.288	-121.921	0.101	0.017
-613.273	-200.000	0.022	0.132
-612.259	-13.024	-0.253	-0.166
-611.244	800.000	-0.069	0.204
-610.230	800.000	0.069	-0.267
-609.215	427.343	0.041	-0.090
-608.201	-152.259	0.298	0.022
-607.186	-106.599	-0.160	0.036
-606.171	764.140	0.043	0.116
-605.157	-73.945	0.140	0.051
-604.142	800.000	-0.030	0.086
-603.128	-43.281	0.133	0.068
-602.113	-117.869	0.320	-0.058
-601.098	600.119	-0.152	0.379
-600.084	-108.841	-0.306	0.066
-599.069	-98.783	-0.244	-0.063
-598.055	34.192	-0.154	-0.135
-597.040	-112.066	0.363	-0.074
-596.025	800.000	-0.073	0.254
-595.011	425.077	0.078	0.169
-593.996	568.723	0.119	0.291
-592.982	202.367	-0.075	0.117
-591.967	-40.658	0.225	-0.117
-590.952	77.826	-0.052	0.055
-589.938	-200.000	-0.028	-0.125
-588.923	19.323	-0.355	0.287
-587.909	48.222	-0.282	-0.266
-586.894	-112.493	-0.109	0.022
-585.879	254.902	-0.083	0.144
-584.865	121.375	0.108	0.135
-583.850	643.708	-0.075	0.194
-582.836	99.534	-0.179	0.208
-581.821	-200.000	-0.011	-0.073
-580.806	188.015	0.140	-0.211
-579.792	-90.510	-0.234	0.068
-578.777	800.000	0.112	0.461
-577.763	800.000	0.026	0.081
-576.748	82.657	-0.086	-0.094
-575.733	16.985	0.186	-0.149
-574.719	-64.984	-0.116	-0.047
-573.704	538.851	-0.050	-0.119
-572.690	-200.000	-0.045	-0.407
-571.675	-47.157	0.269	-0.132
-570.661	-200.000	-0.043	-0.248
-569.646	-98.211	-0.350	-0.091
-568.631	-81.653	0.114	-0.038
-567.617	-149.384	-0.179	0.014
-566.602	-87.003	-0.227	0.070
-565.588	-145.789	0.082	0.007
-564.573	-161.706	0.056	0.003
-563.558	-58.835	0.008	0.003
-562.544	-84.919	-0.440	0.139
-561.529	250.255	-0.021	-0.037
-560.515	149.862	0.021	-0.028
-559.500	-125.983	0.236	0.036
-558.485	800.000	0.091	-0.320
-557.471	-200.000	0.212	-0.001
-556.456	-200.000	-0.093	-0.448
-555.442	-35.249	-0.253	-0.138
-554.427	-200.000	0.024	-0.157
-553.412	-145.941	-0.215	-0.019
-552.398	-200.000	0.001	-0.193
-551.383	-200.000	0.021	0.275
-550.369	-87.569	0.331	0.101
-549.354	800.000	0.067	-0.225
-548.339	379.013	0.074	0.153
-547.325	187.232	-0.136	-0.204
-546.310	470.011	0.080	0.180
-545.296	-108.774	-0.244	0.052
-544.281	230.930	-0.065	0.106
-543.266	-200.000	-0.007	0.184
-542.252	26.845	-0.176	-0.148
-541.237	618.105	0.125	0.315
-540.223	-140.968	-0.109	-0.011
-539.208	-139.711	-0.263	0.028
-538.193	-200.000	0.014	0.168
-537.179	105.946	-0.233	0.277
-536.164	276.037	0.208	0.370
-535.150	-31.252	0.063	-0.036
-534.135	-61.230	0.132	0.056
-533.121	425.140	0.056	-0.121
-532.106	-105.396	-0.091	0.021
-531.091	-30.806	0.085	0.048
-530.077	-83.338	-0.192	-0.062
-529.062	800.000	0.101	0.297
-528.048	-15.562	-0.193	-0.124
-527.033	-103.886	0.316	0.074
-526.018	617.656	-0.119	0.300
-525.004	44.978	0.159	0.147
-523.989	-111.914	-0.115	-0.023
-522.975	311.782	0.028	-0.052
-521.960	-151.437	-0.109	-0.008
-520.945	472.950	-0.105	0.239
-519.931	-100.178	-0.268	0.067
-518.916	-144.143	0.198	0.019
-517.902	-148.851	0.452	0.037
-516.887	-200.000	-0.008	-0.322
-515.872	800.000	0.034	-0.141
-514.858	70.301	0.153	-0.158
-513.843	219.017	0.224	-0.359
-512.829	18.786	-0.379	0.305
-511.814	-200.000	0.059	-0.269
-510.799	95.580	-0.162	-0.186
-509.785	-9.776	-0.294	0.197
-508.770	204.769	0.069	0.107
-507.756	71.439	0.090	-0.094
-506.741	-34.196	-0.075	0.042
-505.726	-72.334	0.048	-0.018
-504.712	-145.655	0.059	0.005
-503.697	-32.315	0.112	-0.063
-502.683	-200.000	0.008	0.248
-501.668	28.472	-0.084	-0.072
-500.653	-133.131	-0.124	-0.016
-499.639	-200.000	-0.026	-0.226
-498.624	800.000	-0.034	-0.110
-497.610	-67.899	-0.063	0.025
-496.595	-145.707	-0.248	0.022
-495.581	58.935	0.118	0.117
-494.566	-83.522	0.091	-0.029
-493.551	-73.583	0.267	0.098
-492.537	-176.968	-0.255	-0.006
-491.522	326.797	-0.107	-0.205
-490.508	-200.000	-0.020	-0.274
-489.493	-36.282	-0.224	-0.121
-488.478	4.941	0.195	0.144
-487.464	-72.025	-0.311	0.116
-486.449	-69.187	0.159	0.061
-485.435	47.483	0.144	-0.135
-484.420	-153.800	0.282	0.019
-483.405	155.462	-0.145	0.200
-482.391	14.994	-0.103	0.081
-481.376	-61.675	-0.318	-0.134
-480.362	-0.016	-0.262	-0.187
-479.347	87.980	0.163	-0.181
-478.332	575.670	-0.075	-0.184
-477.318	-73.785	0.237	-0.087
-476.303	-102.870	0.389	0.093
-475.289	-63.088	0.125	-0.052
-474.274	147.423	-0.165	-0.222
-473.259	261.003	-0.115	0.200
-472.245	-79.379	-0.208	0.071
-471.230	-30.531	-0.077	0.044
-470.216	-41.501	-0.138	-0.071
-469.201	-200.000	-0.007	0.062
-468.186	-200.000	-0.001	-0.130
-467.172	-59.327	0.128	0.055
-466.157	-3.609	-0.166	-0.116
-465.143	-200.000	-0.006	-0.065
-464.128	237.887	0.035	0.057
-463.113	-200.000	-0.016	-0.407
-462.099	-200.000	0.042	-0.291
-461.084	40.364	0.203	0.183
-460.070	-200.000	-0.029	0.335
-459.055	440.749	-0.116	0.253
-458.040	409.009	0.104	0.220
-457.026	800.000	-0.076	-0.210
-456.011	-186.316	0.230	-0.003
-454.997	-200.000	-0.057	0.268
-453.982	224.302	0.112	-0.181
-452.968	-200.000	0.026	0.182
-451.953	-89.846	0.194	-0.057
-450.938	-3.293	-0.144	0.100
-449.924	-89.113	-0.152	-0.045
-448.909	-200.000	0.009	-0.222
-447.895	328.939	0.113	0.217
-446.880	383.117	-0.140	0.289
-445.865	97.553	-0.163	-0.188
-444.851	-32.787	0.160	-0.089
-443.836	-200.000	0.011	0.157
-442.822	800.000	0.034	-0.113
-441.807	800.000	0.075	-0.281
-440.792	800.000	-0.048	0.158
-439.778	-33.234	0.080	0.045
-438.763	-47.572	-0.024	-0.012
-437.749	61.960	0.034	0.034
-436.734	72.555	-0.239	-0.250
-435.719	-160.565	-0.134	-0.007
-434.705	800.000	0.060	-0.167
-433.690	-200.000	-0.028	0.128
-432.676	-113.634	-0.364	0.071
-431.661	110.505	0.070	-0.084
-430.646	-182.554	-0.237	0.004
-429.632	-200.000	0.005	0.131
-428.617	75.748	0.389	-0.412
-427.603	-200.000	-0.009	0.371
-426.588	80.623	0.239	0.258
-425.573	-91.588	0.121	-0.035
-424.559	24.383	-0.030	0.025
-423.544	-38.171	0.148	0.079
-422.530	-18.850	-0.142	-0.088
-421.515	-27.070	0.086	-0.050
-420.500	144.420	0.190	0.253
-419.486	-115.337	-0.168	0.032
-418.471	-90.451	0.163	-0.047
-417.457	-200.000	-0.017	-0.152
-416.442	800.000	-0.071	0.264
-415.428	-95.331	0.272	0.073
-414.413	-103.265	-0.142	-0.033
-413.398	-74.631	-0.262	-0.094
-412.384	-79.236	-0.018	0.006
-411.369	-200.000	-0.004	-0.287
-410.355	490.819	0.163	-0.373
-409.340	-12.578	0.057	0.037
-408.325	119.099	-0.022	0.027
-407.311	-41.053	0.157	-0.081
-406.296	15.474	0.278	0.218
-405.282	-200.000	-0.021	0.118
-404.267	800.000	0.127	0.394
-403.252	-200.000	0.007	0.191
-402.238	104.502	-0.136	-0.160
-401.223	123.362	0.158	-0.198
-400.209	104.844	-0.120	-0.142
-399.194	-80.949	0.058	0.019
-398.179	800.000	0.024	0.088
-397.165	-71.823	0.108	-0.040
-396.150	126.513	0.261	-0.330
-395.136	-80.542	0.250	-0.083
-394.121	-84.373	0.117	-0.037
-393.106	568.170	-0.030	0.073
-392.092	65.578	-0.120	0.121
-391.077	-117.804	-0.285	-0.051
-390.063	2.402	0.271	0.196
-389.048	-132.510	-0.134	0.017
-388.033	800.000	0.042	-0.152
-387.019	18.444	0.045	0.036
-386.004	-32.645	0.356	-0.198
-384.990	-45.239	0.079	-0.039
-383.975	183.933	-0.098	-0.145
-382.960	173.966	0.189	-0.272
-381.946	-139.292	0.261	0.028
-380.931	71.873	-0.198	0.206
-379.917	25.749	-0.078	0.065
-378.902	167.959	-0.167	0.237
-377.888	511.867	0.061	-0.141
-376.873	151.219	0.029	-0.040
-375.858	157.804	-0.142	0.196
-374.844	-123.536	-0.229	0.036
-373.829	75.954	-0.218	0.231
-372.815	190.382	0.103	-0.154
-371.800	160.700	-0.056	-0.078
-370.785	-14.726	-0.144	0.092
-369.771	800.000	0.041	0.123
-368.756	-101.661	-0.142	0.034
-367.742	-200.000	0.040	0.213
-366.727	496.787	0.080	0.185
-365.712	112.771	0.126	0.152
-364.698	-200.000	-0.016	0.072
-363.683	-200.000	-0.011	0.236
-362.669	124.488	0.098	-0.123
-361.654	-155.214	-0.252	-0.016
-360.639	-200.000	-0.014	0.280
-359.625	610.333	-0.099	0.246
-358.610	12.451	-0.160	0.123
-357.596	134.860	-0.094	0.122
-356.581	800.000	0.030	-0.131
-355.566	-200.000	-0.039	-0.285
-354.552	-40.240	0.366	0.190
-353.537	166.295	-0.048	0.068
-352.523	94.926	0.119	-0.135
-351.508	273.614	0.211	-0.371
-350.493	290.593	-0.060	0.109
-349.479	321.920	-0.056	-0.106
-348.464	105.433	0.299	0.352
-347.450	16.295	0.205	-0.161
-346.435	-196.046	0.202	0.001
-345.420	-173.472	0.092	-0.003
-344.406	500.773	-0.159	0.367
-343.391	-200.000	0.071	-0.362
-342.377	158.365	0.140	-0.193
-341.362	80.919	0.060	-0.064
-340.348	-61.869	-0.296	0.123
-339.333	18.916	-0.306	-0.245
-338.318	-141.323	0.178	-0.018
-337.304	-69.588	-0.267	0.102
-336.289	-200.000	-0.001	0.436
-335.275	21.006	0.203	0.164
-334.260	-7.592	0.212	-0.143
-333.245	-115.081	-0.226	0.043
-332.231	800.000	-0.034	-0.111
-331.216	-59.367	-0.164	-0.070
-330.202	80.792	-0.223	0.240
-329.187	-200.000	-0.030	-0.325
-328.172	179.653	-0.200	-0.292
-327.158	800.000	-0.133	-0.496
-326.143	800.000	0.051	0.149
-325.129	800.000	0.037	-0.110
-324.114	234.871	-0.087	0.143
-323.099	-200.000	0.105	-0.000
-322.085	-16.595	-0.281	-0.177
-321.070	-135.996	-0.559	-0.065
-320.056	452.360	0.114	-0.252
-319.041	-200.000	0.015	0.175
-318.026	800.000	0.086	0.376
-317.012	-110.176	-0.234	-0.049
-315.997	742.872	-0.127	-0.341
-314.983	-110.971	-0.029	-0.006
-313.968	-10.861	0.109	-0.072
-312.953	-57.286	0.443	-0.194
-311.939	415.516	0.106	-0.226
-310.924	28.058	-0.091	0.076
-309.910	-86.949	0.171	0.052
-308.895	30.989	-0.258	-0.220
-307.880	363.631	0.110	-0.219
-306.866	-200.000	0.021	-0.096
-305.851	-42.090	0.156	0.080
-304.837	4.832	0.188	0.138
-303.822	-200.000	0.022	0.110
-302.807	347.827	-0.135	0.264
-301.793	-18.009	-0.165	0.103
-300.778	-100.669	0.520	-0.128
-299.764	800.000	-0.075	-0.232
-298.749	-79.294	0.110	0.037
-297.735	-95.496	0.243	-0.065
-296.720	800.000	-0.026	-0.086
-295.705	41.046	0.133	0.119
-294.691	-66.871	0.166	0.065
-293.676	-200.000	0.009	-0.059
-292.662	-61.442	0.248	-0.104
-291.647	206.667	0.212	0.329
-290.632	215.434	-0.257	0.406
-289.618	-151.666	0.252	-0.018
-288.603	255.052	0.157	0.268
-287.589	-147.971	-0.211	0.017
-286.574	76.432	-0.124	0.131
-285.559	84.510	0.067	-0.073
-284.545	5.246	-0.122	0.089
-283.530	342.517	0.089	0.173
-282.516	-115.826	0.299	-0.056
-281.501	-146.998	0.442	0.038
-280.486	-76.523	0.221	-0.077
-279.472	473.211	-0.096	0.215
-278.457	-115.585	-0.259	0.048
-277.443	22.444	0.163	0.133
-276.428	61.189	0.465	0.459
-275.413	800.000	0.043	0.164
-274.399	-167.906	-0.390	-0.015
-273.384	-152.343	0.448	0.032
-272.370	211.172	0.023	0.037
-271.355	120.670	-0.118	-0.146
-270.340	119.751	-0.291	0.358
-269.326	71.489	0.089	0.092
-268.311	-200.000	-0.003	-0.328
-267.297	469.915	0.101	-0.225
-266.282	-166.923	0.303	0.012
-265.267	800.000	0.128	0.384
-264.253	-160.129	0.177	0.010
-263.238	-87.396	-0.250	-0.075
-262.224	-29.829	0.412	0.233
-261.209	-124.008	0.342	0.053
-260.195	95.546	0.151	-0.172
-259.180	181.376	0.117	0.171
-258.165	256.905	-0.040	0.069
-257.151	-98.898	0.240	0.061
-256.136	200.024	-0.080	0.122
-255.122	24.831	-0.151	0.124
-254.107	102.739	0.191	0.222
-253.092	-9.818	-0.365	0.241
-252.078	111.361	-0.069	-0.082
-251.063	-200.000	-0.016	0.203
-250.049	34.011	0.213	0.184
-249.034	156.503	0.080	-0.110
-248.019	800.000	0.075	0.326
-247.005	23.882	-0.147	0.120
-245.990	112.752	-0.076	0.092
-244.976	174.340	0.083	-0.119
-243.961	-148.234	-0.041	-0.003
-242.946	-104.600	-0.332	0.076
-241.932	-200.000	-0.057	0.263
-240.917	-200.000	0.008	-0.082
-239.903	76.563	-0.083	-0.088
-238.888	44.135	0.169	0.154
-237.873	-51.131	0.092	0.043
-236.859	-200.000	0.084	-0.372
-235.844	-200.000	-0.051	0.397
-234.830	-200.000	-0.013	-0.152
-233.815	5.048	0.156	0.114
-232.800	305.334	-0.064	-0.119
-231.786	-167.970	-0.308	-0.012
-230.771	232.779	-0.099	0.162
-229.757	-20.762	0.063	-0.038
-228.742	-47.308	-0.058	-0.028
-227.727	406.966	0.123	-0.258
-226.713	-200.000	-0.051	-0.269
-225.698	247.578	-0.143	0.240
-224.684	-96.325	0.148	0.039
-223.669	-200.000	0.068	-0.383
-222.655	381.514	0.095	0.194
-221.640	307.381	-0.200	0.370
-220.625	-73.527	-0.135	0.049
-219.611	-200.000	-0.034	-0.165
-218.596	78.639	-0.094	-0.099
-217.582	38.066	0.207	0.183
-216.567	186.488	0.154	-0.227
-215.552	-118.966	0.249	-0.043
-214.538	90.906	-0.193	-0.215
-213.523	-200.000	0.062	-0.314
-212.509	-59.275	-0.105	0.045
-211.494	-68.701	0.278	-0.107
-210.479	14.220	0.184	0.142
-209.465	-39.260	0.073	0.038
-208.450	800.000	-0.056	0.200
-207.436	800.000	0.066	-0.218
-206.421	138.697	0.145	-0.189
-205.406	-104.527	0.099	0.023
-204.392	-114.616	-0.421	0.080
-203.377	159.624	0.050	0.068
-202.363	-116.807	0.215	-0.039
-201.348	62.087	-0.029	-0.029
-200.333	-8.591	0.171	0.114
-199.319	23.261	0.171	-0.139
-198.304	-105.225	-0.342	0.077
-197.290	-157.726	-0.572	-0.034
-196.275	97.538	-0.040	-0.046
-195.260	-144.451	-0.192	0.018
-194.246	245.061	-0.138	0.231
-193.231	-168.532	-0.256	0.010
-192.217	-22.187	-0.084	0.051
-191.202	-200.000	-0.015	-0.144
-190.187	64.237	-0.243	-0.243
-189.173	-103.894	0.381	0.088
-188.158	-200.000	0.007	0.087
-187.144	-118.546	0.143	-0.025
-186.129	-114.620	0.271	-0.051
-185.114	43.234	0.179	0.162
-184.100	111.426	-0.117	0.140
-183.085	800.000	-0.032	-0.104
-182.071	-53.894	-0.077	-0.035
-181.056	67.088	-0.042	-0.042
-180.042	159.785	0.158	-0.218
-179.027	-5.987	0.215	0.146
-178.012	-168.894	0.082	-0.003
-176.998	-138.250	0.113	-0.012
-175.983	126.655	0.106	0.133
-174.969	-87.304	-0.060	0.018
-173.954	-30.890	0.092	0.051
-172.939	-39.876	-0.145	0.075
-171.925	-200.000	-0.073	0.320
-170.910	-116.374	0.149	0.027
-169.896	-13.628	-0.188	-0.121
-168.881	-200.000	-0.015	-0.085
-167.866	54.534	0.126	0.120
-166.852	67.059	0.180	0.182
-165.837	16.524	0.317	0.248
-164.823	-65.276	0.181	0.072
-163.808	-122.253	-0.213	-0.034
-162.793	-200.000	0.066	-0.327
-161.779	-200.000	0.023	-0.454
-160.764	-200.000	-0.048	-0.360
-159.750	72.431	0.150	-0.154
-158.735	14.833	-0.115	0.089
-157.720	91.482	0.208	-0.231
-156.706	-93.022	-0.277	0.077
-155.691	122.658	-0.102	-0.127
-154.677	-51.464	-0.103	0.048
-153.662	-200.000	-0.042	-0.298
-152.647	-47.166	-0.269	0.130
-151.633	-162.596	0.260	0.013
-150.618	-200.000	-0.016	0.104
-149.604	13.428	-0.093	0.072
-148.589	388.036	0.061	-0.125
-147.574	20.334	0.118	-0.094
-146.560	540.834	-0.067	-0.158
-145.545	-48.015	-0.052	-0.025
-144.531	34.503	0.105	0.090
-143.516	129.710	-0.250	0.317
-142.502	168.605	0.149	-0.210
-141.487	800.000	-0.027	0.100
-140.472	-82.242	0.152	0.049
-139.458	86.021	-0.286	-0.312
-138.443	305.900	-0.107	-0.198
-137.429	-195.225	-0.130	0.001
-136.414	-41.764	-0.141	-0.071
-135.399	-200.000	0.008	0.183
-134.385	800.000	0.018	-0.059
-133.370	800.000	-0.108	0.336
-132.356	178.561	0.099	0.143
-131.341	-200.000	0.053	0.237
-130.326	-200.000	-0.032	-0.220
-129.312	92.558	-0.183	-0.204
-128.297	-109.837	0.232	-0.048
-127.283	800.000	0.060	0.225
-126.268	281.567	0.062	0.110
-125.253	800.000	-0.075	0.247
-124.239	-200.000	0.013	-0.060
-123.224	172.299	0.152	0.217
-122.210	401.251	0.197	-0.409
