DTS Sentinel unit serial number:	SN413079Multiplexer serial number:	ORYXHardware model number:	OX4-SRSoftware version number:	ORYX F/W v4.00 Oryx Data Collector v3.7.2.0data status	okinstallation	princeton_trtdifferential loss correction	single-endedforward channel	channel 2reverse channel	N/Adate	2019/09/16time	09:23:35forward acquisition time	60.00reverse acquisition time	0.00gamma	496.2192k internal	0.2325k external	0.2325temperature offset calibration	0.9964default loss term (dB/km)	0.3790temperature slope calibration	1.0000multiplexer offset coefficient	1.0000multiplexer slope coefficient	1.0000fibre end	0.00T internal ref (°C)	31.53T ext. ref 1 (°C)	12.17T ext. ref 2 (°C)	29.18length (m)	temperature (°C)	Stokes	anti-Stokes-747.200	-59.434	-0.124	0.054
-746.185	-71.841	0.354	0.133
-745.171	800.000	-0.033	-0.130
-744.156	-48.789	0.137	0.066
-743.142	-200.000	0.002	-0.148
-742.127	800.000	0.095	0.403
-741.112	-146.765	0.449	0.039
-740.098	-200.000	-0.032	0.177
-739.083	-200.000	0.036	-0.193
-738.069	-200.000	0.074	0.373
-737.054	-200.000	0.001	0.046
-736.039	475.833	-0.079	0.180
-735.025	-87.240	0.050	-0.015
-734.010	-47.805	0.106	0.052
-732.996	-200.000	-0.056	-0.356
-731.981	128.817	0.180	-0.231
-730.966	-66.746	0.217	0.087
-729.952	-109.453	-0.093	-0.020
-728.937	16.188	-0.171	-0.136
-727.923	-88.310	-0.191	0.057
-726.908	-90.244	-0.211	0.062
-725.894	-60.959	0.089	0.038
-724.879	98.780	-0.119	-0.138
-723.864	-200.000	0.003	-0.053
-722.850	192.732	0.136	-0.207
-721.835	125.505	0.020	0.026
-720.821	1.547	0.278	-0.202
-719.806	132.670	0.126	-0.164
-718.791	-46.872	-0.503	0.248
-717.777	-100.398	0.191	-0.048
-716.762	522.134	0.084	0.200
-715.748	800.000	0.058	0.242
-714.733	-200.000	0.026	0.118
-713.718	-200.000	0.007	-0.161
-712.704	57.420	-0.089	0.088
-711.689	-94.107	0.174	-0.048
-710.675	-173.168	0.244	0.008
-709.660	-16.118	0.343	-0.220
-708.645	-200.000	-0.010	-0.052
-707.631	-58.072	0.179	0.079
-706.616	10.314	-0.143	-0.109
-705.602	-23.144	-0.134	0.081
-704.587	572.297	-0.053	-0.131
-703.572	-200.000	-0.022	-0.179
-702.558	-23.740	-0.093	0.056
-701.543	97.894	0.129	-0.149
-700.529	-156.476	-0.241	0.015
-699.514	-141.510	0.240	0.024
-698.499	163.938	0.143	0.203
-697.485	-127.341	-0.118	0.017
-696.470	34.986	-0.262	-0.231
-695.456	40.163	0.133	0.121
-694.441	37.440	0.302	0.269
-693.426	79.422	-0.063	0.068
-692.412	-61.142	0.173	-0.073
-691.397	20.369	0.125	0.102
-690.383	-178.714	0.277	-0.006
-689.368	-23.138	0.141	-0.085
-688.354	-121.397	-0.423	-0.071
-687.339	800.000	0.016	-0.068
-686.324	-47.174	0.124	-0.061
-685.310	-169.408	-0.259	-0.010
-684.295	-59.260	-0.134	0.058
-683.281	5.007	-0.202	0.150
-682.266	-136.232	-0.657	0.077
-681.251	196.224	0.104	-0.160
-680.237	735.734	-0.088	-0.236
-679.222	800.000	-0.065	-0.186
-678.208	398.726	0.148	-0.312
-677.193	-200.000	0.012	0.110
-676.178	225.560	0.211	0.343
-675.164	379.051	-0.161	0.333
-674.149	800.000	0.024	0.083
-673.135	313.915	-0.159	0.301
-672.120	-83.915	0.439	-0.141
-671.105	-16.898	-0.080	0.051
-670.091	-35.769	0.045	-0.025
-669.076	417.464	-0.084	0.181
-668.062	-200.000	-0.003	-0.147
-667.047	-200.000	-0.022	-0.246
-666.032	-121.877	0.350	0.058
-665.018	-139.683	-0.211	-0.023
-664.003	-64.808	0.369	-0.150
-662.989	79.499	-0.099	-0.107
-661.974	-132.194	-0.247	0.032
-660.959	1.454	-0.354	0.256
-659.945	29.746	0.264	-0.226
-658.930	633.055	0.103	-0.263
-657.916	-200.000	0.076	-0.400
-656.901	63.702	-0.177	-0.179
-655.886	-175.299	0.112	0.003
-654.872	111.701	-0.011	0.014
-653.857	162.102	-0.126	0.178
-652.843	-94.025	0.164	0.045
-651.828	-200.000	0.007	0.330
-650.814	162.862	0.144	0.204
-649.799	-200.000	0.012	-0.339
-648.784	-200.000	0.000	0.089
-647.770	-164.987	-0.510	-0.023
-646.755	800.000	0.085	0.239
-645.741	8.406	0.112	0.085
-644.726	40.713	-0.163	0.147
-643.711	800.000	0.114	-0.372
-642.697	-110.563	0.532	0.111
-641.682	-54.643	-0.396	-0.180
-640.668	56.417	-0.130	-0.127
-639.653	-53.979	0.110	0.050
-638.638	-9.602	-0.198	-0.133
-637.624	-22.932	-0.101	-0.061
-636.609	-133.657	-0.158	0.020
-635.595	31.272	0.382	0.329
-634.580	602.980	0.110	0.274
-633.565	-94.024	0.157	-0.043
-632.551	-51.753	-0.082	0.038
-631.536	133.806	-0.078	0.101
-630.522	800.000	-0.037	-0.144
-629.507	-4.915	-0.106	-0.073
-628.492	-137.150	0.073	0.008
-627.478	136.335	0.082	0.107
-626.463	-88.267	-0.335	-0.101
-625.449	-196.987	-0.276	-0.002
-624.434	325.565	0.204	0.391
-623.419	186.062	-0.078	-0.117
-622.405	110.190	-0.167	-0.201
-621.390	-91.253	0.253	-0.073
-620.376	4.184	-0.247	-0.182
-619.361	-200.000	-0.026	-0.247
-618.346	615.324	0.026	0.065
-617.332	37.215	-0.042	-0.037
-616.317	-43.918	-0.282	0.142
-615.303	-200.000	0.025	-0.261
-614.288	800.000	0.045	-0.187
-613.273	126.060	-0.192	0.244
-612.259	-200.000	-0.030	0.150
-611.244	-104.373	0.191	0.044
-610.230	179.389	-0.034	0.050
-609.215	231.380	0.123	-0.203
-608.201	337.173	-0.065	-0.126
-607.186	-76.859	-0.092	-0.032
-606.171	204.982	-0.141	0.220
-605.157	249.514	-0.071	-0.121
-604.142	-200.000	0.011	-0.152
-603.128	-200.000	-0.012	-0.175
-602.113	52.136	0.133	-0.127
-601.098	46.864	0.127	0.118
-600.084	81.152	0.167	-0.181
-599.069	13.853	0.116	-0.091
-598.055	585.312	-0.094	-0.231
-597.040	-46.190	0.206	-0.102
-596.025	485.443	0.169	-0.385
-595.011	-74.090	0.035	0.013
-593.996	50.141	0.039	0.037
-592.982	-22.669	0.143	0.086
-591.967	4.317	0.266	-0.195
-590.952	-200.000	-0.026	-0.352
-589.938	411.432	0.186	-0.396
-588.923	340.672	0.029	-0.056
-587.909	225.995	-0.115	-0.187
-586.894	-75.417	-0.157	-0.056
-585.879	-38.742	0.251	-0.133
-584.865	143.111	0.090	-0.120
-583.850	48.556	-0.118	-0.111
-582.836	-76.483	-0.189	-0.067
-581.821	-200.000	-0.026	0.204
-580.806	26.287	-0.021	-0.018
-579.792	-142.220	-0.078	-0.008
-578.777	-75.633	0.253	-0.090
-577.763	580.589	-0.112	-0.274
-576.748	20.232	0.130	0.106
-575.733	601.673	0.268	-0.669
-574.719	-31.149	-0.038	0.021
-573.704	-2.824	-0.057	-0.040
-572.690	155.579	0.076	0.105
-571.675	259.972	-0.075	0.130
-570.661	-74.876	-0.293	-0.105
-569.646	-181.253	0.190	-0.004
-568.631	-200.000	-0.041	-0.000
-567.617	-46.612	-0.267	-0.131
-566.602	-200.000	0.011	-0.088
-565.588	-136.778	-0.256	-0.030
-564.573	800.000	0.140	0.425
-563.558	298.722	0.038	0.070
-562.544	-39.411	-0.185	0.097
-561.529	-200.000	0.020	0.250
-560.515	93.285	0.092	-0.104
-559.500	-200.000	0.009	-0.108
-558.485	33.354	-0.262	-0.228
-557.471	1.739	-0.190	0.137
-556.456	800.000	0.135	0.390
-555.442	352.701	-0.152	0.303
-554.427	-51.257	0.161	-0.075
-553.412	-15.837	0.110	-0.070
-552.398	800.000	0.034	-0.132
-551.383	60.455	-0.262	-0.260
-550.369	-158.891	-0.177	0.010
-549.354	19.265	0.182	0.146
-548.339	-39.621	-0.314	-0.164
-547.325	55.374	-0.094	0.091
-546.310	141.956	0.076	-0.101
-545.296	67.393	-0.336	0.343
-544.281	-6.356	-0.213	0.145
-543.266	-41.677	-0.148	-0.076
-542.252	-52.373	0.193	-0.090
-541.237	-94.832	-0.172	-0.047
-540.223	-200.000	0.036	0.210
-539.208	-120.120	0.115	-0.020
-538.193	-124.877	-0.207	-0.032
-537.179	800.000	-0.045	-0.162
-536.164	107.953	0.073	0.087
-535.150	-149.722	-0.091	-0.007
-534.135	800.000	0.160	-0.451
-533.121	545.583	0.056	0.135
-532.106	-200.000	0.010	-0.262
-531.091	-200.000	0.050	0.372
-530.077	3.754	0.301	0.220
-529.062	171.650	0.093	0.133
-528.048	36.294	0.259	-0.229
-527.033	800.000	-0.055	-0.190
-526.018	800.000	0.030	0.099
-525.004	396.873	-0.062	0.129
-523.989	110.391	0.042	0.051
-522.975	-136.360	-0.092	0.011
-521.960	-110.708	0.072	-0.015
-520.945	12.116	-0.104	-0.080
-519.931	104.096	-0.026	-0.030
-518.916	-45.948	-0.327	0.161
-517.902	-200.000	-0.001	-0.042
-516.887	78.528	0.056	-0.060
-515.872	-75.917	0.177	0.063
-514.858	-200.000	-0.014	-0.172
-513.843	-132.691	-0.157	0.020
-512.829	292.232	0.046	-0.084
-511.814	24.110	0.136	-0.112
-510.799	-149.511	-0.128	-0.010
-509.785	-50.143	-0.034	-0.016
-508.770	-1.107	0.260	0.184
-507.756	11.058	-0.058	0.044
-506.741	-35.478	0.155	0.084
-505.726	-76.597	0.336	-0.118
-504.712	800.000	-0.098	0.312
-503.697	-117.038	-0.129	-0.024
-502.683	150.591	0.230	0.312
-501.668	800.000	-0.061	0.190
-500.653	68.783	0.235	0.241
-499.639	222.416	-0.059	-0.094
-498.624	4.432	0.147	-0.107
-497.610	-200.000	0.006	0.074
-496.595	-83.860	-0.087	0.028
-495.581	-59.277	-0.099	-0.043
-494.566	255.064	0.056	-0.096
-493.551	-168.925	-0.293	-0.011
-492.537	-46.590	0.304	-0.149
-491.522	-200.000	0.014	-0.097
-490.508	-33.092	0.054	-0.030
-489.493	-200.000	0.016	-0.073
-488.478	23.141	-0.148	-0.121
-487.464	50.143	0.046	-0.043
-486.449	-200.000	-0.036	-0.420
-485.435	-115.446	0.046	0.009
-484.420	-164.776	-0.150	-0.007
-483.405	-143.347	-0.077	0.007
-482.391	-107.638	0.108	-0.023
-481.376	800.000	0.052	0.145
-480.362	-200.000	0.065	0.363
-479.347	208.285	0.306	0.478
-478.332	-200.000	0.010	0.141
-477.318	100.302	-0.105	0.122
-476.303	471.252	-0.103	-0.230
-475.289	96.046	-0.186	-0.212
-474.274	800.000	0.026	-0.097
-473.259	-46.038	0.050	-0.025
-472.245	-126.467	-0.090	-0.013
-471.230	-75.571	0.224	-0.079
-470.216	235.057	0.006	0.011
-469.201	-121.262	-0.110	-0.018
-468.186	-94.789	0.188	0.051
-467.172	-97.822	-0.065	0.017
-466.157	141.608	0.160	0.212
-465.143	37.446	0.080	0.070
-464.128	-77.580	-0.216	-0.075
-463.113	-200.000	-0.030	0.133
-462.099	353.855	-0.092	0.182
-461.084	79.251	0.052	-0.056
-460.070	-118.789	0.191	0.034
-459.055	-144.944	0.147	-0.013
-458.040	800.000	-0.066	-0.268
-457.026	800.000	0.102	-0.363
-456.011	-134.279	0.205	-0.025
-454.997	-48.416	-0.149	-0.071
-453.982	99.772	-0.069	-0.079
-452.968	-200.000	-0.009	0.098
-451.953	739.381	0.165	0.443
-450.938	754.051	-0.094	-0.254
-449.924	232.701	-0.137	-0.224
-448.909	27.084	0.294	0.246
-447.895	-160.293	-0.389	-0.021
-446.880	-51.601	0.232	-0.108
-445.865	800.000	0.081	0.286
-444.851	-200.000	0.021	-0.272
-443.836	20.691	0.273	-0.221
-442.822	596.845	0.051	-0.127
-441.807	-200.000	0.033	-0.328
-440.792	225.286	-0.087	0.141
-439.778	624.886	0.063	0.157
-438.763	306.871	0.175	-0.325
-437.749	68.960	-0.068	0.070
-436.734	246.229	-0.043	0.072
-435.719	-108.660	-0.341	-0.073
-434.705	800.000	0.056	0.168
-433.690	-18.934	0.124	0.077
-432.676	800.000	0.128	-0.363
-431.661	100.338	-0.130	-0.150
-430.646	-182.642	0.074	-0.001
-429.632	-71.948	0.212	-0.079
-428.617	202.302	0.094	0.145
-427.603	-1.488	-0.141	-0.099
-426.588	394.866	-0.069	0.144
-425.573	-2.633	0.232	0.162
-424.559	-200.000	0.007	-0.178
-423.544	-72.623	0.279	0.103
-422.530	329.731	-0.087	0.167
-421.515	7.872	0.206	-0.154
-420.500	162.054	0.020	0.028
-419.486	-200.000	-0.021	-0.306
-418.471	-121.539	0.123	0.020
-417.457	13.193	0.177	-0.137
-416.442	280.344	-0.054	0.096
-415.428	-60.697	-0.228	0.096
-414.413	8.043	-0.262	-0.196
-413.398	-200.000	-0.022	0.102
-412.384	-200.000	-0.011	-0.173
-411.369	-61.608	0.076	-0.032
-410.355	-200.000	-0.002	0.337
-409.340	800.000	-0.060	0.211
-408.325	36.260	0.246	0.216
-407.311	15.947	0.131	-0.102
-406.296	-114.391	-0.046	0.009
-405.282	-68.629	0.061	0.024
-404.267	800.000	0.091	-0.256
-403.252	411.223	-0.156	0.330
-402.238	125.903	0.054	0.067
-401.223	-119.338	-0.171	0.030
-400.209	610.430	-0.061	0.151
-399.194	-200.000	0.104	0.472
-398.179	-166.041	-0.073	0.003
-397.165	800.000	-0.085	0.283
-396.150	297.253	-0.056	-0.101
-395.136	-71.626	-0.155	0.058
-394.121	-172.753	-0.247	0.008
-393.106	-154.724	0.141	0.009
-392.092	-200.000	-0.014	0.307
-391.077	-77.299	0.126	0.044
-390.063	-200.000	0.003	0.096
-389.048	-96.420	0.247	-0.065
-388.033	35.538	-0.339	0.296
-387.019	97.217	0.125	-0.143
-386.004	-86.321	0.111	-0.034
-384.990	-164.121	-0.079	-0.004
-383.975	345.984	0.061	0.120
-382.960	170.465	-0.151	0.215
-381.946	458.188	0.090	-0.198
-380.931	800.000	0.116	-0.346
-379.917	-200.000	-0.033	0.198
-378.902	468.120	0.086	0.191
-377.888	-200.000	-0.019	0.130
-376.873	-127.200	-0.172	-0.025
-375.858	-74.151	0.146	-0.053
-374.844	-79.923	0.277	-0.092
-373.829	-200.000	0.001	-0.250
-372.815	-72.556	0.202	0.074
-371.800	9.910	-0.048	-0.036
-370.785	-59.086	0.255	0.109
-369.771	17.060	0.249	-0.196
-368.756	-119.362	0.185	-0.032
-367.742	158.700	0.007	-0.010
-366.727	-51.828	-0.156	0.072
-365.712	122.395	-0.134	0.166
-364.698	800.000	0.052	0.177
-363.683	196.756	-0.113	-0.171
-362.669	78.425	-0.218	-0.231
-361.654	-173.168	0.146	0.004
-360.639	44.309	0.054	-0.050
-359.625	-49.542	-0.040	-0.019
-358.610	51.943	-0.207	0.196
-357.596	73.866	-0.354	0.368
-356.581	671.773	0.133	-0.342
-355.566	448.395	-0.129	-0.282
-354.552	-71.990	0.136	-0.050
-353.537	-144.426	0.201	0.019
-352.523	141.963	-0.112	0.148
-351.508	-98.599	-0.408	-0.103
-350.493	219.647	0.207	0.330
-349.479	-200.000	0.024	0.132
-348.464	800.000	0.036	-0.135
-347.450	54.557	0.100	0.096
-346.435	455.408	0.070	-0.154
-345.420	175.651	0.214	0.308
-344.406	-112.984	-0.330	-0.065
-343.391	570.520	-0.188	-0.455
-342.377	616.178	0.129	-0.322
-341.362	800.000	0.010	-0.031
-340.348	-200.000	0.024	0.418
-339.333	64.602	0.055	-0.055
-338.318	557.033	-0.020	-0.048
-337.304	108.181	0.161	0.191
-336.289	-17.428	-0.286	0.179
-335.275	-200.000	-0.164	0.001
-334.260	216.469	0.072	-0.114
-333.245	252.667	0.100	0.170
-332.231	-200.000	-0.003	0.250
-331.216	-22.512	0.274	-0.164
-330.202	69.840	0.164	0.168
-329.187	800.000	0.073	0.232
-328.172	-75.831	0.638	0.225
-327.158	-64.317	0.263	-0.106
-326.143	741.830	-0.115	0.306
-325.129	83.207	-0.190	0.206
-324.114	-46.239	0.049	-0.024
-323.099	106.642	0.425	0.500
-322.085	66.573	-0.335	-0.338
-321.070	-136.777	-0.122	0.014
-320.056	-200.000	-0.023	-0.290
-319.041	-200.000	-0.023	-0.309
-318.026	-69.503	-0.204	0.078
-317.012	-150.683	-0.033	0.003
-315.997	128.360	-0.078	-0.098
-314.983	247.264	-0.105	0.177
-313.968	98.880	0.098	0.112
-312.953	-16.325	0.193	0.121
-311.939	-16.076	0.155	-0.098
-310.924	800.000	-0.010	0.031
-309.910	58.920	0.180	0.175
-308.895	-138.577	0.177	-0.019
-307.880	-158.006	-0.219	-0.013
-306.866	-17.559	-0.133	0.083
-305.851	-51.023	-0.041	0.019
-304.837	-8.664	-0.217	-0.145
-303.822	-124.078	-0.056	0.009
-302.807	-112.492	0.208	0.041
-301.793	429.620	0.026	0.056
-300.778	-200.000	0.004	-0.240
-299.764	-65.863	-0.140	-0.056
-298.749	-200.000	-0.038	-0.216
-297.735	-83.445	-0.033	-0.010
-296.720	-93.652	-0.116	0.032
-295.705	-20.563	-0.209	-0.127
-294.691	193.024	-0.105	0.157
-293.676	-64.344	0.234	0.095
-292.662	-200.000	0.006	-0.118
-291.647	800.000	-0.086	-0.341
-290.632	20.997	-0.138	0.111
-289.618	-200.000	0.028	0.135
-288.603	56.737	-0.307	0.296
-287.589	-141.794	-0.292	-0.029
-286.574	-160.097	-0.116	-0.006
-285.559	-121.622	0.147	-0.024
-284.545	81.328	-0.116	0.124
-283.530	91.571	0.327	0.364
-282.516	314.329	0.174	0.324
-281.501	-57.269	-0.075	-0.033
-280.486	-59.965	-0.408	-0.173
-279.472	-10.420	0.144	0.095
-278.457	279.916	0.127	0.225
-277.443	4.327	-0.043	0.031
-276.428	40.211	0.025	-0.022
-275.413	-200.000	-0.015	-0.165
-274.399	800.000	0.064	-0.210
-273.384	25.981	-0.110	0.091
-272.370	-33.320	-0.288	0.158
-271.355	-22.863	0.389	-0.232
-270.340	-78.306	-0.164	-0.056
-269.326	147.872	0.073	0.098
-268.311	2.096	-0.207	-0.148
-267.297	434.130	-0.066	0.142
-266.282	-196.841	0.185	-0.001
-265.267	35.498	0.114	0.099
-264.253	-200.000	0.002	0.153
-263.238	-95.446	0.185	0.049
-262.224	194.594	-0.152	0.228
-261.209	190.369	0.062	-0.093
-260.195	-72.238	-0.065	0.024
-259.180	475.092	-0.109	-0.243
-258.165	800.000	0.088	-0.242
-257.151	-120.050	0.077	0.013
-256.136	33.552	-0.147	0.126
-255.122	-200.000	-0.002	-0.046
-254.107	83.408	0.372	-0.401
-253.092	117.455	0.073	-0.089
-252.078	-200.000	0.028	0.210
-251.063	800.000	0.054	0.155
-250.049	-83.118	0.123	0.039
-249.034	-126.127	-0.162	0.024
-248.019	-93.373	0.383	0.105
-247.005	-79.174	-0.172	-0.058
-245.990	-200.000	-0.006	-0.188
-244.976	-194.629	0.392	0.003
-243.961	-200.000	0.086	0.379
-242.946	33.973	0.041	0.035
-241.932	606.194	-0.105	-0.259
-240.917	147.427	-0.093	0.124
-239.903	571.753	-0.095	0.229
-238.888	-23.797	-0.232	-0.137
-237.873	-24.620	0.312	0.184
-236.859	529.170	0.077	-0.180
-235.844	-138.842	-0.406	-0.044
-234.830	-9.168	-0.106	0.070
-233.815	-200.000	-0.037	-0.187
-232.800	-46.604	-0.021	0.010
-231.786	151.383	0.154	-0.208
-230.771	-200.000	-0.040	0.188
-229.757	-200.000	0.040	0.440
-228.742	-3.230	0.239	-0.165
-227.727	128.854	0.121	0.153
-226.713	156.734	-0.073	-0.100
-225.698	287.877	-0.142	0.254
-224.684	-200.000	-0.021	0.242
-223.669	-187.450	-0.292	-0.004
-222.655	6.887	-0.169	0.124
-221.640	-90.714	0.259	-0.074
-220.625	800.000	0.097	-0.303
-219.611	28.951	-0.220	-0.184
-218.596	765.970	0.070	-0.188
-217.582	-189.607	-0.129	0.001
-216.567	-82.781	0.342	-0.109
-215.552	14.715	-0.200	-0.154
-214.538	65.690	0.145	0.145
-213.523	-200.000	0.009	-0.143
-212.509	-200.000	-0.180	0.000
-211.494	-86.749	0.260	0.079
-210.479	-51.063	-0.260	-0.120
-209.465	-200.000	-0.018	-0.093
-208.450	64.493	-0.171	0.170
-207.436	-138.952	0.312	0.033
-206.421	-68.377	-0.133	-0.051
-205.406	-172.733	0.129	0.004
-204.392	201.924	0.184	-0.280
-203.377	74.557	0.169	0.176
-202.363	121.331	-0.247	0.304
-201.348	509.791	0.140	0.321
-200.333	-61.883	0.108	0.045
-199.319	-105.429	-0.149	-0.033
-198.304	-200.000	0.040	0.192
-197.290	-200.000	-0.022	0.290
-196.275	-200.000	-0.128	0.589
-195.260	-131.018	-0.328	0.043
-194.246	-73.909	0.148	-0.053
-193.231	800.000	-0.080	0.248
-192.217	41.094	0.079	0.071
-191.202	-79.158	0.138	0.046
-190.187	188.072	-0.113	-0.167
-189.173	-193.769	-0.211	0.002
-188.158	-96.201	-0.193	0.051
-187.144	-200.000	-0.060	-0.394
-186.129	-53.187	-0.107	-0.049
-185.114	252.527	0.159	-0.268
-184.100	524.846	-0.071	-0.164
-183.085	-200.000	-0.002	0.119
-182.071	493.580	0.155	-0.351
-181.056	135.221	-0.006	-0.008
-180.042	29.385	-0.058	-0.049
-179.027	641.837	0.043	-0.108
-178.012	-84.226	-0.263	-0.082
-176.998	232.344	0.083	0.135
-175.983	287.480	-0.104	-0.185
-174.969	246.227	-0.101	0.168
-173.954	39.467	-0.063	0.055
-172.939	-136.049	-0.155	0.018
-171.925	28.207	-0.256	0.213
-170.910	-84.086	0.098	0.031
-169.896	-151.327	0.224	-0.017
-168.881	293.179	-0.125	-0.225
-167.866	800.000	-0.030	-0.129
-166.852	-110.327	-0.195	-0.040
-165.837	64.716	-0.125	-0.124
-164.823	-200.000	0.014	-0.126
-163.808	800.000	-0.142	-0.391
-162.793	-180.685	0.080	0.002
-161.779	129.764	-0.043	0.055
-160.764	296.562	0.017	0.031
-159.750	-200.000	0.010	-0.280
-158.735	-2.109	0.131	0.090
-157.720	800.000	0.109	0.306
-156.706	800.000	-0.046	-0.187
-155.691	122.748	0.108	-0.134
-154.677	-46.610	-0.269	0.130
-153.662	39.045	-0.240	0.212
-152.647	21.142	-0.148	0.118
-151.633	-46.674	0.188	0.091
-150.618	-1.882	-0.265	-0.184
-149.604	175.431	0.173	-0.247
-148.589	268.198	0.114	0.197
-147.574	-200.000	-0.015	0.182
-146.560	62.549	0.312	0.307
-145.545	-112.594	-0.252	-0.049
-144.531	222.191	-0.201	0.319
-143.516	243.331	-0.074	0.122
-142.502	79.079	0.103	-0.109
-141.487	800.000	0.066	0.264
-140.472	165.410	0.162	0.226
-139.458	-95.269	-0.300	-0.080
-138.443	-43.365	0.195	0.097
-137.429	-100.457	-0.203	-0.049
-136.414	-39.364	0.172	0.089
-135.399	-6.816	-0.105	0.070
-134.385	800.000	-0.040	-0.162
-133.370	301.170	0.112	0.204
-132.356	-166.199	0.337	0.014
-131.341	800.000	0.118	-0.453
-130.326	10.083	-0.197	-0.147
-129.312	160.807	0.233	-0.321
-128.297	-36.570	0.133	-0.071
-127.283	55.726	0.186	-0.178
-126.268	-200.000	-0.059	-0.298
-125.253	95.174	-0.095	0.107
-124.239	52.722	-0.243	0.229
-123.224	-128.239	0.128	0.018
-122.210	329.131	-0.074	-0.141
-121.195	-1.777	-0.164	0.114
-120.180	800.000	-0.025	0.084
