DTS Sentinel unit serial number:	SN413079Multiplexer serial number:	ORYXHardware model number:	OX4-SRSoftware version number:	ORYX F/W v4.00 Oryx Data Collector v3.7.2.0data status	okinstallation	princeton_trtdifferential loss correction	single-endedforward channel	channel 2reverse channel	N/Adate	2019/09/12time	00:21:11forward acquisition time	60.00reverse acquisition time	0.00gamma	496.2192k internal	0.2325k external	0.2325temperature offset calibration	1.0088default loss term (dB/km)	0.3790temperature slope calibration	1.0000multiplexer offset coefficient	1.0000multiplexer slope coefficient	1.0000fibre end	0.00T internal ref (°C)	33.50T ext. ref 1 (°C)	2.04T ext. ref 2 (°C)	28.10length (m)	temperature (°C)	Stokes	anti-Stokes-747.200	651.868	0.057	0.146
-746.185	-125.312	-0.236	-0.036
-745.171	-200.000	-0.036	-0.161
-744.156	-108.238	0.311	0.068
-743.142	-145.525	0.187	0.017
-742.127	-200.000	-0.028	0.176
-741.112	-52.737	-0.284	0.132
-740.098	800.000	-0.108	0.419
-739.083	800.000	-0.037	-0.107
-738.069	16.375	-0.143	-0.114
-737.054	-140.817	0.034	0.004
-736.039	-117.351	-0.527	-0.096
-735.025	404.277	-0.090	0.191
-734.010	193.940	-0.295	-0.451
-732.996	-107.636	-0.230	0.051
-731.981	-2.478	0.034	0.024
-730.966	246.207	-0.027	-0.045
-729.952	603.682	0.079	0.199
-728.937	-101.666	-0.437	-0.107
-727.923	-200.000	-0.021	-0.415
-726.908	-189.061	0.223	0.003
-725.894	800.000	-0.123	-0.417
-724.879	800.000	-0.130	-0.379
-723.864	-200.000	0.006	-0.154
-722.850	141.329	0.143	-0.191
-721.835	6.652	0.241	-0.180
-720.821	627.775	-0.060	-0.153
-719.806	-24.721	-0.038	-0.023
-718.791	17.255	0.085	-0.068
-717.777	153.135	-0.069	0.095
-716.762	12.191	-0.161	-0.125
-715.748	404.723	0.158	-0.335
-714.733	-119.635	0.038	-0.007
-713.718	87.219	-0.085	0.095
-712.704	-113.043	-0.083	-0.017
-711.689	-200.000	0.026	0.360
-710.675	-200.000	0.014	0.239
-709.660	-200.000	-0.031	-0.248
-708.645	441.396	-0.146	-0.323
-707.631	87.809	-0.208	0.232
-706.616	-13.560	0.136	0.089
-705.602	-23.349	0.102	0.062
-704.587	-200.000	0.040	-0.217
-703.572	61.112	-0.292	-0.292
-702.558	331.613	-0.070	-0.136
-701.543	800.000	-0.053	0.153
-700.529	61.281	-0.145	-0.145
-699.514	-8.800	-0.287	0.194
-698.499	6.713	0.370	0.277
-697.485	200.082	-0.101	-0.156
-696.470	800.000	0.035	0.149
-695.456	46.485	0.181	-0.169
-694.441	534.746	-0.176	0.420
-693.426	84.078	-0.143	0.157
-692.412	429.365	-0.062	-0.135
-691.397	-84.639	0.305	-0.097
-690.383	554.493	0.066	-0.160
-689.368	120.199	-0.161	0.201
-688.354	-33.785	-0.292	0.162
-687.339	405.375	-0.275	0.583
-686.324	-116.993	-0.118	0.022
-685.310	95.448	0.065	0.075
-684.295	-148.273	0.137	-0.011
-683.281	-166.501	0.331	0.014
-682.266	611.911	-0.143	-0.360
-681.251	-65.444	-0.158	-0.064
-680.237	-2.954	0.235	0.165
-679.222	-32.869	-0.197	-0.110
-678.208	-108.743	-0.399	-0.086
-677.193	107.969	0.207	-0.249
-676.178	-96.960	-0.120	-0.032
-675.164	-34.451	-0.178	0.098
-674.149	-200.000	-0.038	0.177
-673.135	-132.689	0.159	0.020
-672.120	800.000	0.054	0.175
-671.105	80.096	-0.077	0.083
-670.091	247.740	-0.097	-0.165
-669.076	31.439	-0.182	-0.157
-668.062	246.071	0.036	-0.062
-667.047	81.432	-0.233	0.253
-666.032	-72.396	0.239	0.089
-665.018	208.512	0.106	0.167
-664.003	5.029	0.410	0.304
-662.989	-103.585	0.211	-0.050
-661.974	-99.302	-0.159	-0.040
-660.959	-136.480	0.322	0.038
-659.945	800.000	-0.054	0.156
-658.930	129.626	0.096	-0.123
-657.916	-94.406	-0.104	0.029
-656.901	800.000	-0.118	-0.386
-655.886	-176.129	0.307	-0.008
-654.872	602.656	0.094	-0.234
-653.857	800.000	-0.038	0.132
-652.843	502.731	-0.029	0.067
-651.828	387.588	0.062	-0.130
-650.814	-22.241	-0.247	-0.151
-649.799	246.888	0.125	-0.212
-648.784	-200.000	0.014	-0.136
-647.770	-69.541	-0.104	-0.040
-646.755	800.000	0.049	0.162
-645.741	246.655	-0.102	-0.172
-644.726	-46.220	-0.074	0.037
-643.711	125.018	-0.148	-0.187
-642.697	-200.000	-0.022	0.133
-641.682	-78.279	0.189	0.065
-640.668	-25.274	0.276	0.164
-639.653	800.000	-0.107	-0.396
-638.638	-81.652	0.297	0.098
-637.624	-47.762	-0.295	-0.144
-636.609	-200.000	0.010	-0.128
-635.595	-200.000	0.002	0.234
-634.580	-69.419	0.110	-0.043
-633.565	800.000	-0.111	-0.395
-632.551	-113.793	-0.194	0.038
-631.536	-200.000	0.041	0.380
-630.522	-90.912	0.283	-0.082
-629.507	46.694	-0.221	-0.206
-628.492	-142.970	0.361	0.035
-627.478	-200.000	0.022	-0.125
-626.463	36.789	-0.212	0.188
-625.449	-112.032	-0.141	0.028
-624.434	117.886	0.088	-0.108
-623.419	146.982	-0.249	-0.336
-622.405	128.726	-0.125	0.160
-621.390	-96.599	-0.217	-0.058
-620.376	-33.187	-0.294	-0.164
-619.361	-70.318	0.156	0.060
-618.346	-200.000	-0.006	0.165
-617.332	85.430	0.046	0.051
-616.317	-200.000	-0.062	-0.357
-615.303	-200.000	0.016	-0.104
-614.288	797.156	-0.047	0.131
-613.273	-134.730	0.195	0.024
-612.259	800.000	0.017	-0.062
-611.244	-17.499	-0.186	0.117
-610.230	102.966	-0.100	0.118
-609.215	33.228	0.242	-0.210
-608.201	34.162	0.126	-0.110
-607.186	272.842	-0.107	-0.190
-606.171	42.760	0.145	0.133
-605.157	124.944	0.082	0.104
-604.142	157.243	-0.126	-0.175
-603.128	-200.000	0.055	-0.329
-602.113	-61.772	-0.144	-0.061
-601.098	697.706	-0.026	0.069
-600.084	87.292	0.122	-0.135
-599.069	-200.000	0.015	0.104
-598.055	11.062	0.129	-0.099
-597.040	-68.112	0.113	0.044
-596.025	-43.597	0.052	-0.026
-595.011	8.040	0.326	0.245
-593.996	-200.000	0.007	-0.296
-592.982	130.895	0.293	-0.377
-591.967	755.674	-0.041	0.110
-590.952	-200.000	-0.012	0.106
-589.938	137.463	-0.115	0.151
-588.923	-107.608	-0.022	-0.005
-587.909	-69.342	0.584	-0.225
-586.894	10.165	-0.021	-0.016
-585.879	265.597	0.146	0.255
-584.865	48.268	-0.325	-0.305
-583.850	800.000	-0.052	-0.155
-582.836	17.474	0.223	-0.178
-581.821	97.628	-0.277	0.319
-580.806	359.572	0.060	-0.121
-579.792	-200.000	0.047	0.220
-578.777	-200.000	-0.087	0.429
-577.763	721.396	-0.151	0.402
-576.748	87.543	0.074	-0.082
-575.733	-38.640	-0.043	-0.023
-574.719	169.001	-0.210	-0.301
-573.704	-40.824	-0.208	-0.108
-572.690	-44.371	0.256	0.129
-571.675	184.046	0.075	-0.111
-570.661	94.877	-0.091	-0.104
-569.646	202.588	0.026	-0.040
-568.631	229.649	-0.105	0.172
-567.617	92.050	-0.187	-0.211
-566.602	-44.038	0.085	0.043
-565.588	-49.871	0.146	-0.069
-564.573	-200.000	0.003	-0.255
-563.558	38.058	0.109	0.097
-562.544	316.521	0.003	0.006
-561.529	173.619	0.143	0.206
-560.515	-54.866	0.238	-0.107
-559.500	74.163	0.245	0.258
-558.485	-200.000	-0.029	0.315
-557.471	18.781	0.208	-0.167
-556.456	-149.712	0.162	-0.013
-555.442	177.700	-0.059	0.086
-554.427	-137.901	0.476	0.053
-553.412	156.503	-0.065	-0.089
-552.398	52.166	-0.249	-0.238
-551.383	-200.000	-0.018	0.123
-550.369	-200.000	0.058	-0.257
-549.354	-200.000	0.011	-0.052
-548.339	-200.000	-0.027	-0.181
-547.325	-152.716	-0.156	-0.011
-546.310	51.440	0.263	-0.251
-545.296	800.000	0.027	0.080
-544.281	86.965	-0.200	-0.221
-543.266	746.756	0.031	-0.084
-542.252	-200.000	-0.039	0.174
-541.237	-200.000	0.045	0.244
-540.223	-200.000	0.015	-0.412
-539.208	386.483	-0.045	0.094
-538.193	-9.162	-0.087	-0.058
-537.179	-200.000	-0.012	0.058
-536.164	27.051	-0.024	0.020
-535.150	800.000	0.116	0.328
-534.135	-200.000	0.161	-0.000
-533.121	-96.272	-0.256	-0.068
-532.106	138.427	-0.118	-0.155
-531.091	-22.889	-0.401	-0.242
-530.077	-76.551	-0.224	-0.079
-529.062	33.987	-0.010	0.008
-528.048	731.305	0.085	0.228
-527.033	800.000	0.109	-0.331
-526.018	-200.000	-0.010	0.125
-525.004	-36.054	0.174	-0.094
-523.989	167.637	0.147	-0.209
-522.975	176.616	-0.079	0.115
-521.960	800.000	0.018	-0.061
-520.945	-21.636	0.292	-0.178
-519.931	800.000	-0.110	-0.424
-518.916	89.673	0.065	0.072
-517.902	90.959	-0.091	-0.103
-516.887	336.319	0.010	0.019
-515.872	-44.820	0.243	0.121
-514.858	-112.962	-0.220	0.044
-513.843	-19.891	-0.162	-0.100
-512.829	-177.659	-0.445	0.011
-511.814	84.151	-0.223	0.244
-510.799	-16.558	-0.179	0.113
-509.785	-88.823	0.296	-0.088
-508.770	199.506	0.040	0.061
-507.756	-103.984	-0.108	0.025
-506.741	-7.979	0.250	0.168
-505.726	-151.197	-0.049	-0.004
-504.712	74.050	0.212	-0.222
-503.697	-92.094	-0.149	0.042
-502.683	218.412	0.014	0.022
-501.668	264.722	-0.145	0.253
-500.653	-200.000	-0.048	-0.299
-499.639	-142.814	0.299	-0.029
-498.624	-11.183	0.020	0.013
-497.610	-149.499	0.206	0.016
-496.595	171.894	-0.037	0.053
-495.581	-108.307	0.093	0.020
-494.566	124.107	0.303	-0.380
-493.551	-78.433	-0.129	-0.044
-492.537	-124.925	0.250	-0.038
-491.522	800.000	-0.024	-0.098
-490.508	75.251	-0.113	-0.119
-489.493	-33.293	-0.090	0.050
-488.478	-112.922	0.332	-0.066
-487.464	-51.129	-0.078	-0.036
-486.449	-111.245	0.186	-0.038
-485.435	299.450	-0.089	0.164
-484.420	-200.000	-0.045	0.202
-483.405	-80.770	0.096	0.032
-482.391	-200.000	-0.019	-0.155
-481.376	-121.660	-0.072	-0.012
-480.362	-150.265	0.303	0.023
-479.347	207.097	-0.204	-0.317
-478.332	-136.357	0.145	0.017
-477.318	-200.000	-0.008	-0.078
-476.303	-200.000	-0.069	-0.345
-475.289	-174.254	-0.296	-0.009
-474.274	800.000	0.091	-0.272
-473.259	-124.924	0.331	0.051
-472.245	-200.000	-0.002	0.304
-471.230	-78.251	-0.060	0.021
-470.216	-19.218	-0.240	0.149
-469.201	63.575	0.241	-0.242
-468.186	-94.641	0.362	-0.098
-467.172	800.000	-0.048	-0.131
-466.157	308.604	0.148	0.276
-465.143	0.169	0.039	-0.028
-464.128	6.774	0.208	-0.155
-463.113	379.657	0.022	0.044
-462.099	493.330	0.010	-0.023
-461.084	-200.000	-0.009	0.280
-460.070	-94.031	0.140	-0.038
-459.055	183.226	-0.117	-0.172
-458.040	-125.100	0.103	-0.016
-457.026	-126.914	-0.027	-0.004
-456.011	-147.522	0.222	-0.019
-454.997	226.074	0.203	0.328
-453.982	-96.616	-0.087	0.023
-452.968	508.570	-0.058	0.134
-451.953	77.615	0.089	-0.094
-450.938	-200.000	-0.006	-0.224
-449.924	35.532	0.170	0.149
-448.909	-49.897	-0.359	0.170
-447.895	-200.000	-0.008	-0.074
-446.880	800.000	0.084	0.238
-445.865	-200.000	0.015	0.169
-444.851	-37.861	0.206	-0.109
-443.836	-116.673	0.420	0.077
-442.822	800.000	-0.066	0.211
-441.807	-81.794	-0.256	-0.084
-440.792	-186.471	0.241	0.003
-439.778	160.434	0.217	-0.302
-438.763	-95.280	0.260	-0.070
-437.749	-200.000	-0.037	-0.185
-436.734	36.113	-0.107	0.094
-435.719	-200.000	-0.030	-0.216
-434.705	64.543	-0.120	-0.121
-433.690	2.127	-0.275	0.198
-432.676	-200.000	0.005	0.212
-431.661	-66.563	-0.289	0.114
-430.646	-200.000	0.045	-0.249
-429.632	37.302	-0.310	-0.274
-428.617	-80.593	-0.082	0.027
-427.603	-170.371	0.148	0.005
-426.588	-90.639	0.169	0.049
-425.573	-28.381	-0.341	0.196
-424.559	-92.062	-0.220	0.062
-423.544	-200.000	0.032	0.294
-422.530	-200.000	0.006	-0.042
-421.515	-200.000	-0.001	0.270
-420.500	-200.000	-0.025	0.191
-419.486	258.948	0.064	-0.110
-418.471	279.796	-0.219	-0.389
-417.457	800.000	-0.083	-0.266
-416.442	356.378	-0.081	0.162
-415.428	-200.000	-0.028	-0.295
-414.413	53.012	-0.244	0.233
-413.398	800.000	-0.071	-0.308
-412.384	-21.947	-0.474	0.287
-411.369	-200.000	-0.008	-0.051
-410.355	-200.000	-0.022	-0.211
-409.340	-134.919	-0.218	-0.026
-408.325	-73.036	0.221	-0.081
-407.311	195.811	-0.109	-0.166
-406.296	272.194	-0.112	0.197
-405.282	408.819	-0.126	-0.266
-404.267	44.129	0.226	0.206
-403.252	-148.345	0.188	0.015
-402.238	31.050	0.339	0.289
-401.223	800.000	0.063	0.231
-400.209	-1.714	0.144	0.101
-399.194	729.693	0.143	0.381
-398.179	241.872	0.093	0.156
-397.165	-175.556	-0.170	0.005
-396.150	-160.776	-0.031	-0.002
-395.136	-48.300	-0.222	-0.107
-394.121	281.355	-0.114	-0.204
-393.106	-43.383	-0.166	-0.083
-392.092	175.753	-0.034	-0.049
-391.077	-108.648	-0.291	0.062
-390.063	47.855	0.105	0.098
-389.048	53.595	-0.079	-0.076
-388.033	23.821	0.258	-0.211
-387.019	-176.455	-0.477	0.012
-386.004	-200.000	0.020	0.303
-384.990	800.000	-0.059	0.190
-383.975	-75.461	0.107	-0.038
-382.960	11.833	0.036	-0.027
-381.946	357.777	-0.079	-0.156
-380.931	-6.190	-0.254	-0.173
-379.917	132.503	-0.169	-0.217
-378.902	197.212	0.106	-0.160
-377.888	-126.883	-0.208	0.030
-376.873	800.000	0.084	0.297
-375.858	34.278	-0.220	-0.191
-374.844	-52.215	0.075	0.035
-373.829	-68.885	-0.173	0.067
-372.815	-44.836	0.075	0.037
-371.800	233.642	0.053	0.087
-370.785	-200.000	0.320	-0.000
-369.771	-128.683	0.250	-0.035
-368.756	-130.701	0.275	0.037
-367.742	-93.747	-0.184	0.050
-366.727	17.158	-0.107	-0.084
-365.712	-200.000	-0.070	-0.443
-364.698	-156.163	-0.217	0.014
-363.683	-84.982	-0.281	-0.087
-362.669	110.042	-0.254	0.303
-361.654	800.000	0.076	-0.214
-360.639	755.166	0.037	0.100
-359.625	-113.896	-0.084	-0.016
-358.610	-200.000	0.007	-0.036
-357.596	447.473	-0.033	-0.073
-356.581	-31.859	0.290	-0.162
-355.566	140.534	0.051	0.067
-354.552	-50.556	0.023	-0.011
-353.537	800.000	0.116	0.337
-352.523	47.726	-0.051	-0.047
-351.508	-11.714	0.112	-0.073
-350.493	17.409	-0.094	0.075
-349.479	800.000	0.034	-0.101
-348.464	-44.106	-0.226	0.113
-347.450	416.941	-0.098	-0.208
-346.435	800.000	0.042	-0.139
-345.420	-200.000	-0.058	0.557
-344.406	-11.705	-0.142	-0.093
-343.391	136.073	-0.099	0.129
-342.377	-42.466	-0.138	-0.070
-341.362	-148.617	-0.263	-0.021
-340.348	427.808	-0.149	0.321
-339.333	609.892	-0.157	0.390
-338.318	212.695	0.093	-0.146
-337.304	-142.396	0.370	0.036
-336.289	-149.628	-0.163	0.013
-335.275	800.000	-0.067	0.269
-334.260	114.631	-0.177	-0.214
-333.245	-200.000	0.031	0.587
-332.231	173.148	-0.051	-0.073
-331.216	800.000	-0.065	-0.209
-330.202	800.000	-0.077	0.235
-329.187	695.371	0.105	0.274
-328.172	191.441	0.038	-0.056
-327.158	189.270	0.229	-0.341
-326.143	290.282	-0.134	0.242
-325.129	-87.698	0.335	-0.100
-324.114	74.255	0.105	-0.109
-323.099	-11.464	0.062	0.041
-322.085	345.285	0.041	0.080
-321.070	-131.997	-0.469	0.061
-320.056	-23.112	-0.145	0.087
-319.041	38.277	0.191	-0.169
-318.026	-200.000	-0.049	-0.393
-317.012	448.496	-0.044	0.097
-315.997	35.621	-0.166	0.144
-314.983	25.809	0.327	-0.270
-313.968	112.712	-0.135	-0.162
-312.953	-200.000	0.061	0.317
-311.939	-17.383	0.176	-0.110
-310.924	-200.000	0.011	-0.276
-309.910	2.034	0.097	-0.070
-308.895	-67.888	0.069	0.027
-307.880	-41.981	0.072	0.036
-306.866	-96.808	-0.169	-0.044
-305.851	-200.000	-0.020	0.153
-304.837	29.758	0.182	-0.154
-303.822	202.511	-0.027	0.041
-302.807	800.000	-0.046	0.159
-301.793	708.801	-0.078	-0.205
-300.778	-146.285	-0.370	0.032
-299.764	-200.000	0.021	0.141
-298.749	-147.051	0.146	-0.012
-297.735	-25.828	-0.176	0.103
-296.720	800.000	0.102	0.313
-295.705	76.256	-0.159	0.167
-294.691	-169.891	0.101	0.004
-293.676	-99.323	0.145	-0.036
-292.662	644.047	-0.106	0.267
-291.647	274.200	0.073	0.127
-290.632	72.665	-0.086	-0.089
-289.618	-200.000	-0.035	-0.225
-288.603	188.017	0.044	-0.065
-287.589	-14.009	-0.067	-0.043
-286.574	-200.000	0.027	0.419
-285.559	800.000	0.077	-0.215
-284.545	-114.625	-0.569	0.108
-283.530	800.000	0.044	0.155
-282.516	-200.000	-0.059	-0.259
-281.501	-148.131	0.117	0.010
-280.486	-29.430	0.095	-0.054
-279.472	-113.821	-0.052	-0.010
-278.457	3.334	-0.088	-0.064
-277.443	-93.225	-0.112	-0.031
-276.428	-178.271	0.180	0.004
-275.413	42.890	-0.078	0.071
-274.399	237.874	-0.160	-0.263
-273.384	496.425	-0.068	-0.154
-272.370	-97.389	0.132	-0.034
-271.355	-112.247	-0.156	0.031
-270.340	-200.000	0.018	-0.237
-269.326	360.267	-0.029	0.058
-268.311	-64.372	0.150	0.060
-267.297	-149.831	0.139	0.011
-266.282	55.887	0.147	0.141
-265.267	-134.690	-0.145	0.017
-264.253	800.000	-0.024	-0.100
-263.238	-138.924	0.241	0.026
-262.224	125.579	0.068	0.085
-261.209	800.000	-0.011	0.043
-260.195	800.000	-0.047	-0.197
-259.180	-44.601	-0.199	-0.098
-258.165	-200.000	0.023	0.804
-257.151	-200.000	-0.032	0.243
-256.136	-200.000	0.052	0.301
-255.122	14.054	0.174	0.134
-254.107	-200.000	-0.022	0.124
-253.092	164.437	-0.252	0.352
-252.078	-17.272	0.389	0.242
-251.063	-30.716	-0.215	0.121
-250.049	134.924	0.235	-0.302
-249.034	-117.213	0.140	0.025
-248.019	-200.000	-0.001	-0.028
-247.005	-200.000	-0.006	-0.095
-245.990	-30.002	0.069	0.039
-244.976	-119.389	-0.236	0.041
-243.961	25.627	-0.064	-0.053
-242.946	585.825	-0.127	0.309
-241.932	69.167	0.216	-0.220
-240.917	800.000	-0.116	-0.322
-239.903	-112.642	-0.304	0.060
-238.888	-13.279	0.129	-0.083
-237.873	-177.563	-0.265	0.006
-236.859	-130.131	0.483	-0.065
-235.844	159.818	0.304	0.418
-234.830	389.659	-0.097	-0.199
-233.815	42.245	-0.076	-0.068
-232.800	-200.000	-0.015	-0.126
-231.786	-200.000	-0.016	0.437
-230.771	-59.791	-0.123	-0.052
-229.757	56.212	-0.199	-0.192
-228.742	2.410	0.381	0.273
-227.727	-63.394	-0.142	-0.058
-226.713	-200.000	-0.013	-0.332
-225.698	490.320	0.043	0.097
-224.684	95.447	0.058	0.066
-223.669	593.290	-0.154	-0.377
-222.655	800.000	-0.057	-0.157
-221.640	71.277	0.212	0.218
-220.625	-68.162	0.320	0.123
-219.611	-114.348	-0.181	-0.034
-218.596	-200.000	-0.001	-0.283
-217.582	-200.000	-0.005	-0.508
-216.567	-100.339	-0.325	0.080
-215.552	800.000	-0.130	0.471
-214.538	175.640	0.102	0.146
-213.523	240.484	-0.154	0.254
-212.509	176.551	0.029	0.042
-211.494	271.748	-0.087	0.152
-210.479	800.000	-0.099	0.328
-209.465	-153.526	-0.358	0.024
-208.450	-200.000	0.031	-0.217
-207.436	22.639	0.320	0.259
-206.421	-200.000	0.024	0.379
-205.406	521.217	0.064	-0.148
-204.392	-70.726	-0.297	-0.111
-203.377	127.942	0.196	-0.246
-202.363	800.000	0.117	0.398
-201.348	123.843	-0.154	0.192
-200.333	-200.000	0.017	0.236
-199.319	22.534	-0.189	-0.152
-198.304	-43.602	0.297	-0.148
-197.290	-104.178	0.114	0.026
-196.275	615.881	-0.113	-0.281
-195.260	-129.479	-0.272	-0.037
-194.246	-35.010	0.123	-0.066
-193.231	-200.000	-0.009	0.126
-192.217	800.000	0.051	0.215
-191.202	800.000	-0.054	-0.192
-190.187	-127.369	-0.085	0.012
-189.173	153.576	-0.058	0.078
-188.158	-200.000	-0.074	-0.416
-187.144	-80.031	0.216	0.072
-186.129	111.607	-0.282	0.336
-185.114	79.679	-0.087	0.093
-184.100	92.874	0.179	0.200
-183.085	68.476	0.120	0.121
-182.071	-200.000	-0.002	-0.039
-181.056	366.590	0.183	0.364
-180.042	-114.307	0.035	0.007
-179.027	-138.808	0.291	-0.031
-178.012	-24.890	-0.157	0.092
-176.998	399.785	0.096	0.199
-175.983	128.138	-0.069	0.087
-174.969	191.790	0.072	-0.107
-173.954	629.076	0.048	-0.120
-172.939	-72.093	-0.158	-0.058
-171.925	-12.407	-0.149	-0.096
-170.910	89.407	-0.294	0.323
-169.896	-91.574	0.361	-0.101
-168.881	800.000	-0.011	-0.044
-167.866	-200.000	0.029	-0.203
-166.852	-200.000	-0.006	0.228
-165.837	-39.146	0.214	0.111
-164.823	128.170	-0.095	0.120
-163.808	-143.062	0.072	-0.007
-162.793	27.895	0.187	0.155
-161.779	-48.992	0.128	-0.061
-160.764	55.983	0.167	-0.160
-159.750	298.937	0.137	0.248
-158.735	60.834	0.152	-0.149
-157.720	-75.766	-0.265	0.093
-156.706	-200.000	-0.044	-0.231
-155.691	-122.616	0.257	0.041
-154.677	63.419	0.227	-0.224
-153.662	-73.237	-0.237	-0.086
-152.647	460.451	0.027	-0.058
-151.633	-200.000	-0.038	-0.194
-150.618	-120.797	-0.299	0.050
-149.604	307.909	0.142	-0.261
-148.589	800.000	0.042	0.127
-147.574	-200.000	0.004	-0.068
-146.560	243.851	-0.061	-0.101
-145.545	267.268	0.166	0.286
-144.531	32.888	-0.086	0.073
-143.516	-200.000	-0.038	0.178
-142.502	10.593	0.226	0.170
-141.487	-149.345	0.123	-0.010
-140.472	-65.127	0.009	0.004
-139.458	-45.202	-0.194	-0.095
-138.443	-200.000	0.044	-0.244
-137.429	248.794	0.065	-0.108
-136.414	-200.000	-0.004	0.252
-135.399	496.593	-0.090	0.204
-134.385	26.181	0.168	-0.138
-133.370	-84.213	0.145	-0.045
-132.356	-151.048	-0.340	-0.025
-131.341	-69.866	-0.215	-0.081
-130.326	-200.000	-0.039	-0.316
-129.312	-18.548	-0.243	-0.149
-128.297	181.869	-0.163	0.237
-127.283	171.288	0.047	0.066
-126.268	-102.258	0.335	-0.079
-125.253	-39.987	-0.263	-0.135
-124.239	-110.863	0.395	-0.080
-123.224	-200.000	0.009	0.077
-122.210	-58.269	0.182	-0.078
