DTS Sentinel unit serial number:	SN413079Multiplexer serial number:	ORYXHardware model number:	OX4-SRSoftware version number:	ORYX F/W v4.00 Oryx Data Collector v3.7.2.0data status	okinstallation	princeton_trtdifferential loss correction	single-endedforward channel	channel 2reverse channel	N/Adate	2019/09/10time	21:37:10forward acquisition time	60.00reverse acquisition time	0.00gamma	496.2192k internal	0.2330k external	0.2330temperature offset calibration	0.9945default loss term (dB/km)	0.3790temperature slope calibration	1.0000multiplexer offset coefficient	1.0000multiplexer slope coefficient	1.0000fibre end	0.00T internal ref (°C)	31.03T ext. ref 1 (°C)	-0.31T ext. ref 2 (°C)	24.30length (m)	temperature (°C)	Stokes	anti-Stokes-747.200	-200.000	-0.017	0.300
-746.185	99.578	0.188	0.219
-745.171	-12.100	0.145	-0.096
-744.156	115.108	-0.098	0.121
-743.142	75.707	0.168	0.179
-742.127	253.013	0.185	0.318
-741.112	18.451	-0.193	-0.155
-740.098	43.550	-0.298	0.274
-739.083	-84.184	-0.034	0.011
-738.069	-84.578	0.236	0.075
-737.054	251.669	0.151	-0.258
-736.039	-57.111	-0.154	0.068
-735.025	-136.844	0.057	-0.007
-734.010	-16.027	-0.177	-0.113
-732.996	-200.000	-0.065	-0.388
-731.981	800.000	0.089	-0.272
-730.966	-200.000	0.002	-0.350
-729.952	800.000	-0.074	-0.221
-728.937	-11.391	0.031	-0.020
-727.923	-200.000	-0.042	-0.212
-726.908	-26.566	-0.120	0.071
-725.894	-42.834	0.054	-0.027
-724.879	-200.000	-0.034	-0.296
-723.864	-73.444	0.291	-0.107
-722.850	82.121	-0.287	0.313
-721.835	-70.452	-0.073	-0.028
-720.821	485.839	-0.085	-0.195
-719.806	7.257	0.175	-0.132
-718.791	-29.852	-0.311	0.178
-717.777	26.623	-0.179	-0.151
-716.762	140.249	-0.152	-0.202
-715.748	800.000	-0.124	-0.367
-714.733	800.000	0.063	-0.263
-713.718	-22.890	-0.172	-0.104
-712.704	-107.252	0.101	-0.022
-711.689	276.682	0.102	-0.183
-710.675	17.656	-0.112	0.089
-709.660	-120.170	0.150	-0.026
-708.645	-120.411	-0.117	-0.020
-707.631	-200.000	-0.003	0.116
-706.616	6.657	0.223	-0.167
-705.602	124.559	-0.169	-0.213
-704.587	-76.745	-0.476	-0.168
-703.572	567.033	-0.073	0.178
-702.558	559.458	0.091	0.221
-701.543	-200.000	0.003	-0.039
-700.529	-33.102	-0.236	-0.131
-699.514	369.621	0.051	0.104
-698.499	22.994	-0.209	-0.173
-697.485	75.513	-0.239	-0.254
-696.470	800.000	0.010	0.029
-695.456	3.774	-0.078	0.057
-694.441	-41.926	-0.188	0.097
-693.426	800.000	-0.014	-0.047
-692.412	-29.976	-0.073	-0.042
-691.397	-88.253	-0.206	-0.062
-690.383	-200.000	-0.002	0.419
-689.368	-84.146	0.313	-0.100
-688.354	100.147	-0.032	0.037
-687.339	-35.657	-0.160	-0.087
-686.324	295.842	0.042	-0.078
-685.310	-18.173	-0.244	-0.154
-684.295	-41.876	0.278	0.143
-683.281	-200.000	0.074	0.420
-682.266	800.000	0.034	0.146
-681.251	-44.778	-0.195	-0.098
-680.237	-78.470	-0.090	0.031
-679.222	-200.000	0.027	0.218
-678.208	-200.000	-0.041	-0.208
-677.193	-55.248	0.111	-0.050
-676.178	-139.625	0.184	0.020
-675.164	196.894	0.147	0.224
-674.149	-196.330	0.164	0.001
-673.135	-33.836	-0.426	-0.236
-672.120	800.000	-0.079	0.345
-671.105	-10.807	0.107	0.071
-670.091	-42.937	-0.386	0.197
-669.076	-4.442	0.055	0.038
-668.062	428.979	-0.104	0.225
-667.047	-143.400	0.305	0.029
-666.032	-6.241	0.339	-0.232
-665.018	800.000	0.038	0.112
-664.003	800.000	-0.127	0.372
-662.989	87.564	-0.087	0.097
-661.974	136.964	-0.247	-0.323
-660.959	-55.090	-0.097	-0.044
-659.945	800.000	0.047	-0.203
-658.930	618.640	0.019	0.049
-657.916	-122.497	0.449	0.073
-656.901	-200.000	-0.013	0.361
-655.886	233.255	0.051	0.085
-654.872	186.361	-0.125	-0.187
-653.857	-121.413	0.262	-0.044
-652.843	290.641	0.104	-0.189
-651.828	-79.822	-0.134	0.045
-650.814	40.249	0.290	-0.262
-649.799	-200.000	0.011	-0.133
-648.784	68.194	-0.237	0.244
-647.770	232.037	-0.026	0.042
-646.755	-116.569	-0.070	-0.013
-645.741	-61.748	-0.325	-0.137
-644.726	125.076	-0.156	-0.198
-643.711	210.037	-0.184	-0.289
-642.697	683.297	0.062	0.162
-641.682	-200.000	0.032	0.191
-640.668	800.000	0.082	0.232
-639.653	51.577	0.060	-0.057
-638.638	800.000	-0.115	-0.414
-637.624	-154.584	0.209	-0.014
-636.609	229.350	-0.138	-0.226
-635.595	-64.560	-0.128	0.052
-634.580	-13.651	0.372	-0.242
-633.565	800.000	0.111	-0.403
-632.551	140.552	0.034	-0.045
-631.536	-66.860	-0.129	-0.051
-630.522	46.656	-0.166	-0.155
-629.507	-200.000	0.008	0.076
-628.492	-134.999	-0.169	0.020
-627.478	-33.345	0.575	0.319
-626.463	-10.430	0.214	0.142
-625.449	-149.086	0.307	0.025
-624.434	70.001	-0.224	-0.231
-623.419	-200.000	-0.062	-0.380
-622.405	751.355	-0.035	0.094
-621.390	131.972	0.247	-0.319
-620.376	681.159	-0.056	0.146
-619.361	-169.731	0.158	0.006
-618.346	-200.000	0.042	-0.316
-617.332	-77.352	-0.242	-0.084
-616.317	-92.406	0.080	-0.023
-615.303	9.077	-0.361	0.273
-614.288	-200.000	0.011	0.163
-613.273	143.931	-0.019	-0.025
-612.259	54.169	0.242	-0.233
-611.244	-200.000	0.008	-0.227
-610.230	-147.299	0.192	-0.016
-609.215	340.565	-0.095	-0.185
-608.201	-80.839	0.233	-0.077
-607.186	352.669	-0.151	-0.301
-606.171	70.109	-0.076	-0.078
-605.157	-200.000	0.031	-0.279
-604.142	-53.444	-0.100	0.046
-603.128	45.037	-0.141	0.130
-602.113	-47.355	-0.319	0.156
-601.098	234.012	-0.066	-0.109
-600.084	-21.651	0.090	-0.055
-599.069	-200.000	-0.037	0.455
-598.055	268.575	0.130	-0.228
-597.040	473.396	-0.126	-0.285
-596.025	800.000	-0.022	-0.073
-595.011	-139.327	-0.115	0.012
-593.996	-200.000	0.012	0.101
-592.982	147.399	-0.079	0.106
-591.967	800.000	0.009	0.026
-590.952	-111.585	0.383	-0.078
-589.938	239.100	-0.094	0.157
-588.923	-62.550	-0.283	-0.118
-587.909	184.979	0.228	-0.338
-586.894	123.221	-0.147	0.185
-585.879	-136.375	-0.073	0.009
-584.865	352.976	0.168	-0.334
-583.850	-200.000	0.038	-0.203
-582.836	15.240	-0.314	0.247
-581.821	17.229	0.104	0.083
-580.806	-166.930	-0.183	0.008
-579.792	8.866	0.079	-0.060
-578.777	110.468	0.156	0.187
-577.763	-129.670	-0.105	-0.014
-576.748	-6.445	-0.335	0.228
-575.733	-31.484	0.278	0.156
-574.719	428.747	0.067	-0.144
-573.704	-49.811	0.097	0.046
-572.690	-200.000	-0.010	0.252
-571.675	-200.000	-0.004	0.309
-570.661	-200.000	-0.053	0.300
-569.646	-145.772	-0.264	0.024
-568.631	120.045	0.146	-0.181
-567.617	-64.522	-0.271	0.110
-566.602	-89.636	0.227	-0.067
-565.588	-22.069	-0.196	-0.119
-564.573	-27.951	-0.063	-0.037
-563.558	-82.920	-0.393	0.127
-562.544	190.044	0.076	-0.115
-561.529	54.662	-0.098	-0.094
-560.515	-87.032	-0.085	0.026
-559.500	93.152	-0.296	0.334
-558.485	-12.874	-0.186	-0.121
-557.471	-64.770	-0.065	0.026
-556.456	-112.314	-0.188	-0.038
-555.442	-148.261	-0.159	0.013
-554.427	-153.458	0.287	-0.020
-553.412	765.856	0.157	-0.426
-552.398	-41.900	-0.120	0.062
-551.383	220.412	-0.136	0.217
-550.369	-30.014	-0.297	-0.169
-549.354	-86.828	-0.252	0.077
-548.339	4.239	-0.197	0.144
-547.325	407.960	-0.016	-0.033
-546.310	800.000	-0.046	-0.132
-545.296	297.225	-0.045	0.082
-544.281	800.000	0.022	-0.078
-543.266	-200.000	0.016	0.219
-542.252	82.187	0.086	0.093
-541.237	498.344	-0.073	0.168
-540.223	634.403	0.057	-0.146
-539.208	-33.658	-0.019	0.010
-538.193	96.449	-0.088	0.101
-537.179	800.000	-0.096	0.295
-536.164	-11.589	-0.234	-0.154
-535.150	800.000	-0.025	0.074
-534.135	-93.355	0.259	-0.072
-533.121	-137.578	-0.329	0.037
-532.106	-32.177	-0.131	-0.073
-531.091	526.066	0.108	-0.253
-530.077	800.000	-0.070	-0.246
-529.062	438.481	-0.142	0.309
-528.048	-172.814	0.169	-0.005
-527.033	400.603	-0.022	-0.046
-526.018	-88.476	0.154	0.046
-525.004	-200.000	-0.015	-0.113
-523.989	318.541	-0.122	-0.230
-522.975	-101.590	-0.145	-0.035
-521.960	64.588	0.314	0.316
-520.945	32.481	-0.299	-0.258
-519.931	-84.326	0.097	0.031
-518.916	-79.830	-0.321	0.108
-517.902	71.163	-0.221	-0.229
-516.887	-90.583	0.025	0.007
-515.872	-124.303	0.166	-0.026
-514.858	87.907	-0.188	0.208
-513.843	179.302	0.083	-0.120
-512.829	509.249	-0.110	-0.256
-511.814	266.659	0.042	0.073
-510.799	-128.418	0.152	0.022
-509.785	24.554	-0.134	-0.110
-508.770	-32.035	-0.163	0.091
-507.756	-41.982	0.327	0.167
-506.741	-200.000	-0.001	-0.051
-505.726	-200.000	0.012	-0.079
-504.712	343.667	0.112	-0.219
-503.697	374.848	-0.034	-0.068
-502.683	-118.090	-0.366	0.065
-501.668	-72.970	-0.169	-0.062
-500.653	-46.929	0.190	0.093
-499.639	76.366	0.261	0.276
-498.624	405.049	0.107	-0.226
-497.610	216.975	-0.125	0.199
-496.595	-116.728	-0.341	0.062
-495.581	-145.611	0.198	-0.018
-494.566	-200.000	0.044	0.194
-493.551	-25.191	0.187	0.110
-492.537	-126.888	0.256	0.038
-491.522	113.381	0.275	-0.333
-490.508	28.180	-0.040	0.034
-489.493	-26.847	-0.148	0.086
-488.478	-200.000	0.038	-0.254
-487.464	47.095	-0.127	-0.118
-486.449	35.902	-0.030	-0.026
-485.435	2.626	-0.142	-0.103
-484.420	110.334	-0.145	0.174
-483.405	-24.551	-0.245	0.145
-482.391	800.000	-0.023	0.073
-481.376	800.000	-0.049	-0.190
-480.362	210.627	0.113	-0.177
-479.347	501.336	-0.120	0.277
-478.332	-200.000	-0.010	0.092
-477.318	-88.663	-0.211	-0.062
-476.303	781.515	0.140	0.382
-475.289	-79.161	0.170	0.057
-474.274	235.609	-0.098	0.162
-473.259	4.725	0.271	0.198
-472.245	-14.569	0.257	0.164
-471.230	44.115	-0.120	0.109
-470.216	49.113	0.269	-0.251
-469.201	-200.000	-0.017	-0.226
-468.186	-200.000	-0.074	0.360
-467.172	461.922	-0.090	-0.200
-466.157	-77.137	0.133	0.046
-465.143	118.923	0.180	0.222
-464.128	-97.903	0.057	-0.015
-463.113	191.697	-0.138	0.207
-462.099	-97.665	0.386	-0.100
-461.084	-200.000	-0.059	0.379
-460.070	-161.313	0.099	0.005
-459.055	-171.985	0.095	0.003
-458.040	-194.804	0.394	0.003
-457.026	-200.000	-0.007	-0.061
-456.011	7.619	0.066	0.049
-454.997	-124.305	0.343	0.053
-453.982	391.077	0.101	-0.208
-452.968	100.522	0.205	-0.236
-451.953	137.468	0.129	-0.168
-450.938	-157.118	0.109	-0.007
-449.924	-31.093	0.156	-0.088
-448.909	-200.000	-0.054	0.289
-447.895	-200.000	0.019	-0.292
-446.880	-200.000	0.036	-0.198
-445.865	140.394	-0.259	-0.340
-444.851	-200.000	0.009	-0.065
-443.836	680.604	-0.070	-0.183
-442.822	271.272	0.205	-0.359
-441.807	-29.072	-0.304	0.173
-440.792	32.086	-0.104	-0.090
-439.778	-200.000	-0.020	0.100
-438.763	-200.000	-0.024	-0.192
-437.749	316.138	-0.040	0.075
-436.734	-114.073	-0.453	0.087
-435.719	-200.000	0.028	0.265
-434.705	724.454	-0.020	0.053
-433.690	-59.756	0.084	-0.036
-432.676	300.369	-0.109	-0.200
-431.661	545.219	-0.067	-0.160
-430.646	-28.679	0.039	-0.022
-429.632	-181.752	-0.113	0.002
-428.617	85.698	0.136	0.148
-427.603	-53.035	0.214	0.098
-426.588	-102.636	0.400	0.095
-425.573	61.689	-0.082	0.081
-424.559	-200.000	-0.014	-0.219
-423.544	-200.000	-0.016	0.173
-422.530	75.299	-0.085	-0.089
-421.515	800.000	-0.014	-0.058
-420.500	188.526	-0.110	0.163
-419.486	-135.991	-0.221	0.026
-418.471	-200.000	0.024	0.156
-417.457	-10.605	0.344	0.226
-416.442	-200.000	-0.011	0.117
-415.428	280.242	-0.263	0.468
-414.413	-200.000	0.009	0.100
-413.398	91.312	0.236	-0.264
-412.384	22.054	-0.169	-0.137
-411.369	3.929	0.062	-0.045
-410.355	-162.310	0.046	-0.002
-409.340	-200.000	-0.002	-0.288
-408.325	800.000	-0.071	-0.233
-407.311	18.371	-0.087	-0.069
-406.296	651.402	-0.173	0.440
-405.282	748.388	-0.075	-0.200
-404.267	28.682	0.168	-0.141
-403.252	-197.087	-0.288	-0.002
-402.238	-9.927	-0.361	0.238
-401.223	123.596	-0.075	0.093
-400.209	800.000	-0.075	-0.241
-399.194	-147.376	-0.316	-0.027
-398.179	73.136	-0.155	0.161
-397.165	-200.000	0.023	0.317
-396.150	365.577	-0.074	0.147
-395.136	59.349	-0.170	-0.166
-394.121	74.739	0.033	-0.034
-393.106	-17.244	0.126	0.079
-392.092	164.866	-0.183	-0.256
-391.077	-99.192	0.071	-0.018
-390.063	-117.631	-0.196	-0.035
-389.048	98.528	-0.193	-0.221
-388.033	-126.661	-0.260	-0.038
-387.019	800.000	0.048	-0.184
-386.004	-133.659	-0.185	-0.023
-384.990	-200.000	-0.008	-0.223
-383.975	82.952	0.185	0.200
-382.960	-200.000	-0.016	-0.112
-381.946	17.392	-0.370	-0.292
-380.931	33.566	0.108	-0.093
-379.917	-44.471	0.306	0.152
-378.902	-200.000	-0.042	0.209
-377.888	406.662	0.074	-0.154
-376.873	790.787	-0.075	0.204
-375.858	38.918	-0.153	-0.136
-374.844	-122.555	-0.277	0.045
-373.829	-171.829	0.070	-0.002
-372.815	-64.998	-0.126	0.050
-371.800	-200.000	-0.068	-0.465
-370.785	113.047	0.196	-0.236
-369.771	-95.342	0.278	0.074
-368.756	-74.209	0.249	-0.089
-367.742	43.711	0.206	-0.187
-366.727	-62.254	-0.155	-0.064
-365.712	332.328	0.093	-0.179
-364.698	-94.841	0.261	0.070
-363.683	616.096	0.182	0.452
-362.669	-200.000	-0.038	-0.193
-361.654	-28.543	-0.037	0.021
-360.639	-107.163	0.204	0.045
-359.625	225.508	-0.063	0.101
-358.610	56.164	0.057	-0.055
-357.596	9.007	-0.409	0.306
-356.581	-200.000	-0.039	0.193
-355.566	439.793	0.123	0.266
-354.552	239.220	-0.132	-0.217
-353.537	-87.475	-0.148	-0.044
-352.523	16.066	0.311	0.243
-351.508	-200.000	0.023	0.314
-350.493	62.078	-0.140	-0.139
-349.479	-133.985	0.107	-0.013
-348.464	40.847	0.096	-0.086
-347.450	800.000	-0.028	-0.101
-346.435	-74.201	0.171	-0.061
-345.420	242.412	0.095	0.158
-344.406	216.882	0.119	0.188
-343.391	201.758	-0.080	0.122
-342.377	-60.932	0.154	-0.064
-341.362	-66.122	-0.287	0.114
-340.348	74.790	-0.125	0.130
-339.333	220.435	0.112	0.178
-338.318	122.357	-0.084	0.104
-337.304	-99.495	0.148	-0.037
-336.289	-200.000	-0.058	0.386
-335.275	74.378	-0.249	0.259
-334.260	-114.439	-0.329	-0.063
-333.245	-74.173	0.160	0.057
-332.231	218.278	-0.046	-0.072
-331.216	-120.655	-0.274	-0.046
-330.202	-11.578	0.264	-0.172
-329.187	49.753	0.095	0.089
-328.172	-200.000	-0.043	-0.290
-327.158	207.527	-0.063	0.097
-326.143	-7.980	0.275	0.184
-325.129	60.922	0.264	-0.259
-324.114	-69.536	0.245	-0.093
-323.099	-115.617	0.115	0.021
-322.085	360.989	0.083	0.165
-321.070	135.720	0.165	0.213
-320.056	-84.449	0.205	0.064
-319.041	-55.188	-0.204	-0.091
-318.026	-134.948	0.161	0.019
-317.012	17.779	-0.139	0.110
-315.997	33.001	-0.193	0.165
-314.983	612.912	-0.078	0.194
-313.968	140.046	0.123	-0.160
-312.953	307.648	-0.089	-0.165
-311.939	432.543	0.187	0.401
-310.924	100.029	-0.056	-0.064
-309.910	135.767	0.302	-0.390
-308.895	-200.000	0.035	-0.310
-307.880	-144.944	-0.229	-0.021
-306.866	-66.972	-0.123	-0.048
-305.851	-60.733	0.157	0.066
-304.837	412.083	0.043	0.091
-303.822	-159.308	0.338	0.019
-302.807	-81.334	0.219	-0.071
-301.793	204.740	0.142	0.218
-300.778	108.299	-0.084	-0.100
-299.764	800.000	0.045	-0.189
-298.749	800.000	-0.078	0.278
-297.735	-78.214	-0.093	0.032
-296.720	-11.924	0.328	0.213
-295.705	-43.266	-0.204	-0.102
-294.691	-43.190	0.262	-0.131
-293.676	195.391	0.046	0.069
-292.662	-0.386	-0.120	0.084
-291.647	-198.414	-0.329	0.002
-290.632	460.839	-0.064	0.140
-289.618	-200.000	0.005	-0.204
-288.603	-48.412	0.237	-0.113
-287.589	217.377	-0.002	-0.003
-286.574	800.000	-0.044	0.168
-285.559	45.148	-0.168	0.154
-284.545	-99.566	0.117	0.029
-283.530	-73.532	-0.256	0.092
-282.516	67.428	-0.228	0.230
-281.501	800.000	-0.020	-0.061
-280.486	45.086	-0.017	-0.015
-279.472	-147.444	-0.285	0.024
-278.457	800.000	-0.038	0.142
-277.443	68.416	-0.161	0.163
-276.428	-200.000	0.040	-0.208
-275.413	800.000	0.089	-0.289
-274.399	0.925	0.045	-0.032
-273.384	22.244	-0.041	0.033
-272.370	800.000	0.064	-0.179
-271.355	95.106	0.153	-0.173
-270.340	-112.844	-0.321	-0.063
-269.326	163.323	0.070	0.097
-268.311	-40.333	0.138	0.071
-267.297	24.453	-0.361	0.295
-266.282	68.973	0.139	0.141
-265.267	188.766	-0.184	-0.272
-264.253	479.836	0.132	0.295
-263.238	-200.000	0.057	-0.271
-262.224	354.813	-0.069	-0.136
-261.209	5.081	0.343	0.250
-260.195	-172.201	-0.246	0.008
-259.180	-91.427	-0.014	-0.004
-258.165	34.649	0.059	-0.051
-257.151	31.223	0.233	0.197
-256.136	-33.333	0.383	-0.209
-255.122	-135.109	0.176	-0.021
-254.107	5.204	-0.238	-0.173
-253.092	-35.895	0.195	0.104
-252.078	327.001	-0.247	0.468
-251.063	365.642	-0.042	0.084
-250.049	228.285	0.108	-0.173
-249.034	28.625	-0.187	-0.156
-248.019	53.586	-0.159	-0.150
-247.005	-77.971	-0.190	-0.065
-245.990	800.000	0.080	0.330
-244.976	-119.800	0.391	0.067
-243.961	591.254	0.014	0.034
-242.946	45.480	0.188	0.171
-241.932	317.361	0.110	0.206
-240.917	257.027	0.044	-0.075
-239.903	92.892	0.049	0.055
-238.888	800.000	0.024	0.072
-237.873	131.534	0.201	0.255
-236.859	141.415	0.163	-0.213
-235.844	-200.000	-0.035	-0.203
-234.830	-200.000	0.008	0.112
-233.815	251.050	0.333	0.558
-232.800	-55.315	0.464	-0.206
-231.786	-47.568	-0.276	0.132
-230.771	430.330	0.093	-0.198
-229.757	-200.000	-0.016	-0.094
-228.742	29.329	-0.103	0.087
-227.727	-200.000	-0.014	-0.257
-226.713	-92.386	0.165	0.046
-225.698	123.278	0.083	0.103
-224.684	-180.032	0.160	0.003
-223.669	314.336	-0.124	0.231
-222.655	800.000	0.048	-0.136
-221.640	-116.249	0.180	-0.033
-220.625	800.000	-0.060	0.179
-219.611	655.937	-0.098	-0.247
-218.596	249.522	0.254	0.425
-217.582	98.720	-0.250	-0.285
-216.567	-63.467	-0.104	-0.042
-215.552	-200.000	0.018	-0.080
-214.538	-102.361	-0.116	-0.027
-213.523	224.613	0.130	-0.207
-212.509	-77.695	-0.351	0.120
-211.494	-200.000	-0.027	0.145
-210.479	-97.660	0.127	-0.032
-209.465	800.000	0.078	-0.246
-208.450	59.869	-0.060	0.058
-207.436	-200.000	-0.067	0.336
-206.421	-101.921	-0.271	-0.064
-205.406	800.000	-0.061	0.232
-204.392	-60.452	0.120	-0.050
-203.377	-200.000	0.056	-0.508
-202.363	-16.450	-0.155	0.097
-201.348	-30.472	0.162	0.091
-200.333	-1.455	0.139	0.096
-199.319	-154.257	0.315	-0.021
-198.304	165.219	-0.115	-0.160
-197.290	-200.000	0.005	-0.111
-196.275	-29.575	-0.113	-0.063
-195.260	-128.052	0.184	0.026
-194.246	181.924	0.135	0.196
-193.231	-151.584	0.301	0.022
-192.217	-200.000	-0.003	-0.023
-191.202	-70.451	0.149	0.056
-190.187	800.000	-0.089	0.256
-189.173	-200.000	0.011	-0.273
-188.158	-66.723	-0.099	-0.039
-187.144	-22.360	0.119	0.071
-186.129	177.795	0.193	-0.277
-185.114	138.565	-0.081	0.105
-184.100	337.955	-0.041	-0.078
-183.085	-200.000	0.011	-0.228
-182.071	-137.478	0.324	-0.036
-181.056	220.278	0.113	0.179
-180.042	-45.407	-0.028	-0.014
-179.027	683.892	0.127	-0.327
-178.012	-200.000	0.023	0.209
-176.998	800.000	0.048	0.202
-175.983	-173.072	0.027	0.001
-174.969	800.000	0.047	0.129
-173.954	48.535	-0.225	0.208
-172.939	160.315	-0.041	-0.056
-171.925	-200.000	0.025	-0.390
-170.910	-88.650	-0.265	0.078
-169.896	-200.000	0.051	0.433
-168.881	178.168	-0.051	0.073
-167.866	409.911	0.100	0.209
-166.852	143.041	0.030	-0.039
-165.837	55.015	-0.023	-0.022
-164.823	83.227	-0.040	0.042
-163.808	52.804	-0.034	0.032
-162.793	91.000	0.244	-0.270
-161.779	-37.240	-0.155	-0.081
-160.764	338.430	0.025	-0.049
-159.750	55.256	0.203	-0.193
-158.735	-106.559	0.241	0.053
-157.720	-200.000	0.043	-0.191
-156.706	-25.665	-0.293	0.170
-155.691	67.676	0.133	-0.134
-154.677	800.000	-0.053	0.201
-153.662	-7.832	0.162	-0.108
-152.647	-10.194	0.072	-0.047
-151.633	91.933	-0.085	-0.094
-150.618	94.038	0.208	0.232
-149.604	274.866	0.069	-0.120
-148.589	2.920	0.388	-0.277
-147.574	800.000	0.091	0.320
-146.560	800.000	-0.059	-0.188
-145.545	800.000	-0.099	-0.345
-144.531	-94.606	0.265	-0.071
-143.516	-26.106	-0.064	0.037
-142.502	69.361	0.049	-0.050
-141.487	40.251	-0.086	-0.076
-140.472	121.289	0.118	0.145
-139.458	-48.981	-0.207	-0.098
-138.443	-69.222	-0.248	-0.094
-137.429	800.000	0.021	0.084
-136.414	-200.000	-0.020	-0.276
-135.399	-30.983	-0.156	0.087
-134.385	420.153	-0.074	0.155
-133.370	800.000	0.041	-0.134
-132.356	642.207	0.075	-0.187
-131.341	-200.000	-0.018	0.316
-130.326	-180.816	-0.463	-0.009
-129.312	-26.921	-0.051	-0.029
-128.297	-69.823	0.468	-0.175
-127.283	35.365	0.135	-0.116
-126.268	-14.062	-0.244	-0.155
-125.253	143.814	-0.084	0.111
-124.239	-200.000	-0.013	-0.062
-123.224	8.005	-0.159	0.117
-122.210	198.045	0.177	-0.266
-121.195	241.791	0.158	-0.259
