DTS Sentinel unit serial number:	SN413079Multiplexer serial number:	ORYXHardware model number:	OX4-SRSoftware version number:	ORYX F/W v4.00 Oryx Data Collector v3.7.2.0data status	okinstallation	princeton_trtdifferential loss correction	single-endedforward channel	channel 2reverse channel	N/Adate	2019/09/11time	12:21:10forward acquisition time	60.00reverse acquisition time	0.00gamma	496.2192k internal	0.2298k external	0.2298temperature offset calibration	0.9964default loss term (dB/km)	0.3790temperature slope calibration	1.0000multiplexer offset coefficient	1.0000multiplexer slope coefficient	1.0000fibre end	0.00T internal ref (°C)	40.12T ext. ref 1 (°C)	0.19T ext. ref 2 (°C)	38.48length (m)	temperature (°C)	Stokes	anti-Stokes-747.200	-84.972	0.132	-0.042
-746.185	224.680	-0.178	0.294
-745.171	-200.000	-0.014	0.080
-744.156	-134.594	-0.468	0.058
-743.142	552.023	0.147	-0.360
-742.127	-122.279	-0.358	-0.060
-741.112	358.745	0.102	-0.209
-740.098	-152.170	-0.422	0.031
-739.083	-88.758	0.127	0.038
-738.069	-200.000	-0.048	0.263
-737.054	-30.423	0.161	-0.093
-736.039	-124.408	-0.290	-0.046
-735.025	-171.668	-0.239	-0.008
-734.010	-200.000	0.000	0.346
-732.996	800.000	0.049	0.144
-731.981	800.000	-0.080	0.273
-730.966	-200.000	0.031	0.170
-729.952	142.405	-0.246	-0.333
-728.937	-145.694	0.178	-0.016
-727.923	218.079	0.127	-0.206
-726.908	-156.032	-0.248	-0.016
-725.894	29.878	-0.129	0.112
-724.879	95.312	0.182	-0.212
-723.864	-200.000	-0.005	0.180
-722.850	0.230	-0.067	0.049
-721.835	73.773	0.048	-0.051
-720.821	-141.330	-0.315	0.033
-719.806	35.219	-0.163	-0.145
-718.791	129.070	-0.150	-0.195
-717.777	-70.300	-0.079	-0.031
-716.762	-200.000	-0.042	-0.241
-715.748	429.907	0.199	-0.438
-714.733	673.170	0.034	0.090
-713.718	62.583	-0.051	0.052
-712.704	-50.111	0.165	-0.080
-711.689	-200.000	0.033	-0.306
-710.675	-111.700	-0.153	-0.032
-709.660	-182.070	-0.067	-0.001
-708.645	716.002	0.054	-0.147
-707.631	-132.929	0.190	0.025
-706.616	67.312	-0.058	-0.060
-705.602	-60.745	-0.317	-0.137
-704.587	82.182	0.143	-0.158
-703.572	800.000	-0.024	-0.071
-702.558	-84.484	0.137	-0.044
-701.543	42.250	-0.109	-0.101
-700.529	272.442	-0.256	0.460
-699.514	-36.859	0.195	-0.107
-698.499	-122.966	0.108	0.018
-697.485	800.000	0.043	-0.122
-696.470	456.347	-0.026	0.059
-695.456	-91.231	0.259	0.076
-694.441	-189.256	0.076	-0.001
-693.426	206.956	0.124	-0.197
-692.412	-200.000	0.004	0.195
-691.397	327.480	-0.090	-0.177
-690.383	-200.000	0.009	0.089
-689.368	-172.710	-0.347	-0.011
-688.354	-200.000	-0.012	-0.065
-687.339	800.000	-0.070	-0.213
-686.324	98.395	-0.154	-0.181
-685.310	800.000	-0.017	0.060
-684.295	-200.000	0.011	-0.272
-683.281	374.696	0.161	0.334
-682.266	-200.000	0.034	0.507
-681.251	-19.482	-0.310	-0.196
-680.237	-101.701	0.099	0.024
-679.222	-145.288	0.160	-0.015
-678.208	-200.000	0.035	0.218
-677.193	14.373	0.138	-0.110
-676.178	800.000	-0.069	-0.276
-675.164	334.001	-0.080	-0.157
-674.149	-200.000	-0.001	-0.133
-673.135	-200.000	0.070	-0.378
-672.120	-200.000	-0.004	-0.128
-671.105	-32.737	-0.219	0.124
-670.091	9.480	0.104	0.080
-669.076	131.310	-0.243	-0.317
-668.062	29.430	-0.368	0.319
-667.047	800.000	-0.082	0.272
-666.032	-113.291	-0.170	0.034
-665.018	800.000	0.088	0.323
-664.003	316.484	-0.145	0.280
-662.989	67.869	-0.221	0.230
-661.974	115.675	-0.085	0.106
-660.959	800.000	0.078	-0.266
-659.945	-146.232	-0.049	0.004
-658.930	-63.479	-0.184	-0.077
-657.916	-78.303	-0.198	0.069
-656.901	-200.000	-0.056	0.353
-655.886	43.105	-0.051	0.048
-654.872	-41.611	0.148	0.077
-653.857	16.394	0.059	0.048
-652.843	350.987	-0.171	0.344
-651.828	-93.088	0.141	0.040
-650.814	22.231	-0.094	0.078
-649.799	-2.090	-0.268	-0.192
-648.784	-87.054	-0.151	-0.047
-647.770	765.804	0.119	0.328
-646.755	-72.480	-0.306	-0.115
-645.741	189.418	0.251	0.383
-644.726	13.906	-0.216	-0.171
-643.711	329.249	-0.205	-0.401
-642.697	-69.105	-0.128	-0.050
-641.682	284.815	0.089	0.164
-640.668	28.762	0.091	-0.079
-639.653	-123.281	-0.332	0.054
-638.638	800.000	0.068	0.267
-637.624	268.266	0.134	0.239
-636.609	-33.500	-0.245	-0.138
-635.595	-140.023	-0.316	-0.034
-634.580	-77.871	0.221	-0.078
-633.565	-200.000	0.044	-0.287
-632.551	105.959	0.135	-0.163
-631.536	-200.000	-0.017	-0.211
-630.522	-136.970	-0.254	0.030
-629.507	6.892	-0.047	-0.036
-628.492	-200.000	0.016	0.141
-627.478	-32.189	0.012	0.007
-626.463	0.746	-0.089	-0.065
-625.449	-200.000	0.016	-0.246
-624.434	559.785	0.153	-0.375
-623.419	-68.447	0.353	-0.139
-622.405	-40.907	0.338	0.178
-621.390	223.903	0.024	-0.039
-620.376	-200.000	-0.045	-0.207
-619.361	800.000	-0.064	0.240
-618.346	-129.383	-0.089	-0.013
-617.332	-74.284	-0.130	0.048
-616.317	96.486	0.194	-0.225
-615.303	124.064	0.129	0.165
-614.288	-128.921	0.372	-0.053
-613.273	-155.818	-0.318	0.021
-612.259	-81.560	-0.192	-0.064
-611.244	-93.147	-0.152	0.043
-610.230	-200.000	0.025	-0.124
-609.215	-19.711	-0.256	-0.161
-608.201	-200.000	0.016	0.274
-607.186	37.455	-0.116	0.104
-606.171	-200.000	0.029	-0.259
-605.157	30.874	-0.045	-0.039
-604.142	10.039	-0.078	0.060
-603.128	-87.366	0.079	-0.024
-602.113	389.246	0.059	0.124
-601.098	-200.000	-0.027	-0.256
-600.084	-10.152	-0.107	-0.072
-599.069	-97.133	-0.524	-0.139
-598.055	585.374	0.100	0.249
-597.040	-80.810	0.081	-0.027
-596.025	-115.288	-0.297	-0.057
-595.011	800.000	-0.033	0.122
-593.996	-200.000	0.025	-0.473
-592.982	92.153	0.129	0.147
-591.967	499.477	0.053	-0.123
-590.952	227.110	0.086	-0.142
-589.938	-90.215	-0.209	-0.062
-588.923	58.790	-0.092	0.092
-587.909	-200.000	-0.022	0.103
-586.894	40.478	-0.015	0.014
-585.879	-33.279	-0.220	-0.124
-584.865	-41.240	-0.096	0.050
-583.850	245.565	0.091	0.156
-582.836	-125.986	-0.178	-0.027
-581.821	-44.883	-0.238	0.120
-580.806	-113.511	0.052	-0.010
-579.792	-52.375	-0.338	-0.159
-578.777	-122.986	0.379	-0.062
-577.763	-45.250	0.051	0.026
-576.748	118.763	0.181	0.227
-575.733	-200.000	-0.029	-0.141
-574.719	691.916	-0.038	0.101
-573.704	212.597	-0.155	0.247
-572.690	-155.292	-0.176	-0.012
-571.675	-111.659	-0.272	-0.056
-570.661	-200.000	0.097	-0.509
-569.646	14.382	0.098	0.078
-568.631	-72.732	-0.289	0.108
-567.617	51.286	-0.139	-0.134
-566.602	-156.322	-0.175	0.011
-565.588	146.184	0.117	0.160
-564.573	-25.505	0.364	0.218
-563.558	225.100	-0.154	0.253
-562.544	-200.000	0.013	-0.257
-561.529	-200.000	0.000	-0.244
-560.515	164.553	-0.171	0.245
-559.500	-200.000	0.014	-0.252
-558.485	205.876	-0.055	0.087
-557.471	-37.001	0.109	0.059
-556.456	800.000	0.034	-0.104
-555.442	412.522	-0.016	-0.035
-554.427	15.899	-0.329	-0.263
-553.412	-16.007	-0.192	-0.124
-552.398	-13.648	-0.106	0.069
-551.383	28.502	0.153	0.131
-550.369	34.969	-0.029	0.025
-549.354	-200.000	-0.010	-0.103
-548.339	-96.160	0.349	-0.094
-547.325	-54.580	-0.267	-0.122
-546.310	160.113	-0.142	0.200
-545.296	120.455	-0.075	-0.094
-544.281	132.000	0.180	-0.234
-543.266	-51.291	0.177	-0.084
-542.252	587.689	0.090	0.225
-541.237	800.000	0.069	-0.205
-540.223	70.180	0.237	0.248
-539.208	800.000	0.037	0.153
-538.193	-66.162	-0.072	-0.029
-537.179	236.214	-0.034	-0.057
-536.164	-200.000	0.064	0.359
-535.150	-113.617	-0.027	0.005
-534.135	316.535	-0.090	-0.172
-533.121	-106.331	0.170	0.039
-532.106	800.000	-0.071	0.272
-531.091	-200.000	0.037	0.194
-530.077	442.050	-0.139	-0.308
-529.062	21.947	-0.320	0.264
-528.048	76.711	0.126	-0.135
-527.033	-45.014	-0.143	-0.072
-526.018	-177.928	-0.277	-0.007
-525.004	71.972	0.035	-0.037
-523.989	-137.145	0.087	0.010
-522.975	-3.846	-0.140	-0.098
-521.960	141.455	0.253	0.339
-520.945	800.000	0.100	-0.398
-519.931	-16.194	0.136	0.087
-518.916	344.877	-0.066	-0.132
-517.902	286.660	-0.026	-0.047
-516.887	345.244	-0.050	0.100
-515.872	-108.757	0.147	-0.032
-514.858	-197.787	-0.154	0.001
-513.843	283.953	-0.082	0.148
-512.829	800.000	0.060	0.218
-511.814	35.697	0.147	-0.131
-510.799	300.336	0.049	0.091
-509.785	376.441	0.096	0.198
-508.770	800.000	0.091	0.292
-507.756	800.000	0.066	0.233
-506.741	-51.282	-0.045	0.021
-505.726	-120.667	0.054	-0.009
-504.712	-98.220	0.278	0.072
-503.697	800.000	-0.068	0.233
-502.683	347.748	-0.128	0.254
-501.668	-66.739	0.257	0.103
-500.653	800.000	0.033	0.134
-499.639	20.525	-0.084	0.069
-498.624	181.324	0.098	-0.146
-497.610	157.388	0.083	-0.116
-496.595	123.577	0.030	-0.037
-495.581	553.722	0.004	0.009
-494.566	-16.000	0.171	0.110
-493.551	-85.304	-0.326	0.103
-492.537	-200.000	-0.031	0.160
-491.522	-145.310	-0.080	-0.007
-490.508	-200.000	-0.023	-0.273
-489.493	-13.372	0.431	-0.283
-488.478	-152.606	0.221	0.016
-487.464	-33.732	-0.319	0.178
-486.449	31.765	-0.263	0.229
-485.435	75.906	0.069	-0.073
-484.420	2.253	-0.098	0.071
-483.405	-52.537	0.203	-0.095
-482.391	539.551	0.125	-0.302
-481.376	-54.836	-0.150	0.068
-480.362	-3.200	0.154	-0.108
-479.347	179.119	0.124	-0.183
-478.332	489.039	0.035	0.080
-477.318	-146.297	0.295	-0.026
-476.303	-137.092	-0.229	0.026
-475.289	-121.250	0.262	0.044
-474.274	458.169	0.081	-0.182
-473.259	800.000	-0.024	0.091
-472.245	-170.158	0.127	-0.005
-471.230	-86.884	-0.147	0.045
-470.216	-188.826	0.273	-0.003
-469.201	-122.397	-0.341	-0.056
-468.186	301.358	-0.072	0.134
-467.172	137.450	-0.079	0.104
-466.157	-60.915	-0.426	-0.182
-465.143	-200.000	0.053	0.246
-464.128	632.311	0.101	0.258
-463.113	-200.000	0.022	-0.149
-462.099	541.872	-0.040	0.096
-461.084	800.000	0.038	-0.161
-460.070	31.141	0.168	0.146
-459.055	316.207	-0.088	-0.168
-458.040	102.790	-0.138	0.163
-457.026	-116.404	0.156	0.029
-456.011	-200.000	0.012	0.075
-454.997	-107.901	0.095	-0.021
-453.982	95.577	0.027	-0.031
-452.968	489.157	0.016	-0.036
-451.953	353.917	0.132	0.265
-450.938	49.097	0.271	0.257
-449.924	800.000	-0.152	0.574
-448.909	776.711	0.075	-0.207
-447.895	-45.640	0.100	-0.050
-446.880	-200.000	0.023	-0.193
-445.865	-78.999	-0.210	-0.072
-444.851	-27.762	-0.437	-0.256
-443.836	-46.750	0.280	-0.138
-442.822	-200.000	0.017	-0.214
-441.807	121.103	0.121	0.152
-440.792	1.772	0.118	-0.085
-439.778	-200.000	0.008	0.372
-438.763	-66.939	0.210	-0.084
-437.749	234.027	-0.194	0.322
-436.734	-200.000	0.022	-0.287
-435.719	161.607	0.084	-0.119
-434.705	-142.004	-0.099	-0.010
-433.690	51.524	0.249	-0.238
-432.676	-75.303	-0.132	0.048
-431.661	-200.000	0.007	0.043
-430.646	289.913	-0.037	-0.067
-429.632	800.000	0.062	-0.177
-428.617	-63.103	0.165	0.069
-427.603	-81.354	-0.152	-0.051
-426.588	-18.815	-0.307	0.193
-425.573	131.193	0.241	-0.312
-424.559	383.377	-0.077	0.159
-423.544	-94.890	0.137	-0.037
-422.530	611.933	0.038	-0.097
-421.515	-60.066	0.037	0.016
-420.500	-53.783	-0.109	0.050
-419.486	-98.027	-0.246	-0.064
-418.471	-200.000	-0.059	0.313
-417.457	61.928	-0.085	0.085
-416.442	308.119	0.121	0.227
-415.428	12.209	0.146	0.113
-414.413	-61.271	-0.237	0.101
-413.398	-136.033	-0.218	0.026
-412.384	-200.000	-0.059	-0.336
-411.369	-123.475	-0.093	0.015
-410.355	151.766	-0.067	0.092
-409.340	-1.666	0.082	0.058
-408.325	-162.495	0.333	0.017
-407.311	-200.000	0.018	-0.130
-406.296	-200.000	-0.005	-0.113
-405.282	-105.766	-0.195	-0.044
-404.267	147.488	-0.164	0.223
-403.252	32.477	-0.249	-0.216
-402.238	-200.000	-0.002	0.194
-401.223	-180.036	-0.358	-0.008
-400.209	-61.050	0.262	-0.112
-399.194	36.708	-0.022	-0.019
-398.179	43.740	-0.183	-0.169
-397.165	-63.368	0.186	0.077
-396.150	-200.000	-0.002	0.011
-395.136	-45.124	-0.291	0.146
-394.121	-200.000	0.010	-0.239
-393.106	800.000	-0.027	0.086
-392.092	-200.000	-0.022	0.138
-391.077	255.956	0.089	-0.154
-390.063	71.648	0.133	0.139
-389.048	-160.427	0.065	-0.004
-388.033	471.842	0.060	0.136
-387.019	-102.596	0.069	0.017
-386.004	-125.678	0.212	0.032
-384.990	-39.069	0.117	0.062
-383.975	99.512	-0.179	-0.208
-382.960	70.028	-0.313	-0.325
-381.946	267.214	-0.212	-0.373
-380.931	800.000	0.113	0.371
-379.917	419.126	0.048	0.104
-378.902	-200.000	0.026	-0.178
-377.888	-120.750	0.426	-0.072
-376.873	800.000	0.070	-0.193
-375.858	114.408	0.218	0.267
-374.844	-96.015	0.205	-0.055
-373.829	1.790	0.112	-0.081
-372.815	161.949	0.103	0.145
-371.800	53.872	-0.220	-0.213
-370.785	-200.000	-0.007	0.078
-369.771	-27.672	0.135	0.079
-368.756	118.221	0.175	0.217
-367.742	-200.000	0.038	-0.311
-366.727	-120.929	-0.038	-0.006
-365.712	328.317	0.007	0.013
-364.698	27.915	-0.052	-0.044
-363.683	-109.334	0.356	0.076
-362.669	-54.347	0.117	-0.053
-361.654	-200.000	0.025	-0.214
-360.639	-124.284	-0.199	-0.031
-359.625	387.570	0.073	-0.153
-358.610	140.544	-0.175	-0.233
-357.596	218.908	0.047	0.076
-356.581	-111.857	0.089	0.018
-355.566	-66.978	0.214	0.085
-354.552	-200.000	-0.011	-0.173
-353.537	-89.509	-0.355	-0.105
-352.523	-200.000	-0.005	-0.126
-351.508	-25.162	-0.267	0.159
-350.493	800.000	0.040	0.159
-349.479	-84.910	0.244	-0.077
-348.464	800.000	-0.070	-0.218
-347.450	800.000	0.023	-0.073
-346.435	-33.931	0.070	-0.039
-345.420	51.213	0.057	0.054
-344.406	-17.444	0.168	0.106
-343.391	37.993	0.359	-0.321
-342.377	-200.000	0.018	0.275
-341.362	-200.000	0.041	0.204
-340.348	-24.682	-0.434	0.260
-339.333	-200.000	0.028	0.302
-338.318	800.000	0.083	-0.308
-337.304	180.315	-0.132	-0.194
-336.289	-145.254	-0.178	0.016
-335.275	282.451	0.083	0.149
-334.260	-78.480	0.118	-0.041
-333.245	317.967	-0.062	-0.117
-332.231	-38.435	0.202	0.107
-331.216	-133.642	-0.162	0.020
-330.202	122.075	-0.130	0.164
-329.187	-12.546	0.266	0.174
-328.172	800.000	-0.078	-0.263
-327.158	-80.412	0.101	0.034
-326.143	-109.472	-0.196	0.042
-325.129	-200.000	0.058	-0.310
-324.114	-108.486	0.173	-0.037
-323.099	579.581	-0.071	0.175
-322.085	-200.000	0.011	0.154
-321.070	-148.504	-0.070	0.006
-320.056	-142.182	0.425	0.042
-319.041	-90.949	0.238	0.069
-318.026	19.357	-0.237	0.191
-317.012	280.090	0.145	-0.261
-315.997	800.000	-0.146	0.463
-314.983	800.000	0.019	-0.064
-313.968	800.000	0.044	-0.154
-312.953	-88.073	-0.414	0.125
-311.939	-21.606	-0.151	-0.092
-310.924	-200.000	0.009	-0.178
-309.910	-145.811	0.044	-0.004
-308.895	-44.985	-0.053	-0.026
-307.880	-200.000	0.163	0.000
-306.866	-120.154	-0.137	-0.023
-305.851	-57.333	0.154	0.068
-304.837	772.352	0.077	-0.210
-303.822	-39.918	-0.075	0.039
-302.807	800.000	-0.092	-0.356
-301.793	748.310	0.045	0.121
-300.778	277.945	-0.056	-0.101
-299.764	21.902	0.211	-0.173
-298.749	-36.523	-0.457	-0.246
-297.735	516.217	-0.041	-0.096
-296.720	25.834	-0.165	-0.138
-295.705	-43.045	-0.357	0.182
-294.691	-200.000	0.017	0.133
-293.676	800.000	-0.055	0.179
-292.662	-38.670	-0.233	-0.123
-291.647	-200.000	-0.027	-0.351
-290.632	-0.525	-0.328	0.233
-289.618	690.638	-0.099	0.260
-288.603	-200.000	-0.020	0.268
-287.589	-148.185	0.227	-0.019
-286.574	-135.835	-0.068	-0.008
-285.559	708.010	0.068	0.181
-284.545	-200.000	0.004	0.139
-283.530	191.093	0.206	0.311
-282.516	-200.000	0.003	-0.115
-281.501	94.731	0.143	-0.163
-280.486	-151.304	0.239	0.018
-279.472	-200.000	-0.115	-0.504
-278.457	-200.000	-0.014	-0.198
-277.443	152.511	0.075	0.103
-276.428	96.058	0.096	-0.109
-275.413	10.014	0.107	-0.082
-274.399	119.646	-0.101	0.125
-273.384	-200.000	-0.054	0.243
-272.370	-80.723	0.336	0.112
-271.355	30.749	-0.174	0.149
-270.340	58.181	-0.288	0.283
-269.326	-95.705	0.234	-0.063
-268.311	162.925	-0.132	0.186
-267.297	-200.000	0.014	-0.161
-266.282	-200.000	0.022	0.190
-265.267	106.846	0.171	0.203
-264.253	800.000	0.086	0.261
-263.238	410.705	0.031	0.066
-262.224	-200.000	0.008	0.079
-261.209	354.736	0.084	-0.167
-260.195	-109.217	-0.355	0.076
-259.180	-200.000	-0.063	0.320
-258.165	209.490	-0.104	0.163
-257.151	-110.809	-0.234	0.048
-256.136	-53.998	0.081	0.037
-255.122	800.000	-0.090	0.307
-254.107	-51.139	0.182	-0.086
-253.092	-46.505	0.198	-0.097
-252.078	420.941	-0.171	-0.367
-251.063	-119.617	0.228	-0.040
-250.049	-200.000	-0.005	0.066
-249.034	-46.890	0.024	0.012
-248.019	800.000	-0.091	0.342
-247.005	-200.000	0.078	0.352
-245.990	97.679	0.114	0.132
-244.976	-40.048	0.149	-0.078
-243.961	-200.000	-0.012	-0.422
-242.946	-200.000	0.001	-0.139
-241.932	700.758	0.041	-0.107
-240.917	102.946	0.243	-0.285
-239.903	-57.116	0.274	-0.121
-238.888	60.656	0.047	-0.046
-237.873	52.173	-0.108	-0.103
-236.859	-115.612	0.149	0.028
-235.844	-67.246	-0.268	-0.105
-234.830	800.000	0.138	-0.408
-233.815	-200.000	0.007	-0.094
-232.800	-200.000	-0.011	0.160
-231.786	-125.214	-0.230	0.035
-230.771	-128.799	-0.243	0.034
-229.757	-100.488	-0.261	-0.065
-228.742	410.833	0.049	-0.104
-227.727	-200.000	-0.023	-0.100
-226.713	132.879	0.118	0.152
-225.698	-117.014	0.216	0.039
-224.684	-200.000	0.031	-0.193
-223.669	36.749	0.112	0.099
-222.655	64.226	0.111	0.111
-221.640	1.711	0.057	-0.041
-220.625	163.405	-0.113	0.159
-219.611	-74.050	0.176	-0.064
-218.596	330.757	-0.120	-0.231
-217.582	-200.000	-0.009	-0.430
-216.567	237.196	0.148	-0.245
-215.552	-155.770	0.160	0.010
-214.538	-34.893	-0.435	-0.238
-213.523	-96.760	0.357	0.094
-212.509	-200.000	-0.027	0.178
-211.494	103.726	0.114	0.133
-210.479	-27.085	-0.432	0.252
-209.465	800.000	-0.013	-0.050
-208.450	800.000	-0.060	0.252
-207.436	103.936	-0.083	0.098
-206.421	1.722	-0.151	-0.108
-205.406	699.218	-0.057	-0.150
-204.392	-7.667	0.373	0.252
-203.377	78.610	0.299	0.320
-202.363	285.099	-0.050	-0.090
-201.348	96.622	0.247	-0.283
-200.333	-36.288	0.088	-0.047
-199.319	-140.609	-0.387	-0.040
-198.304	242.121	-0.071	0.119
-197.290	595.974	0.141	0.348
-196.275	71.864	0.127	-0.131
-195.260	222.567	0.068	0.109
-194.246	-200.000	0.052	-0.289
-193.231	-135.129	0.154	0.019
-192.217	-200.000	-0.003	0.266
-191.202	-200.000	-0.037	0.198
-190.187	26.267	0.084	0.070
-189.173	-200.000	-0.003	0.253
-188.158	800.000	-0.045	-0.141
-187.144	-39.856	0.072	0.038
-186.129	-152.753	-0.233	0.017
-185.114	-1.841	-0.059	0.042
-184.100	249.212	0.219	-0.371
-183.085	-200.000	0.069	-0.389
-182.071	286.480	-0.064	0.116
-181.056	217.816	0.180	0.286
-180.042	-90.182	-0.174	-0.051
-179.027	67.994	-0.104	0.106
-178.012	603.386	-0.059	-0.148
-176.998	-105.306	-0.367	0.083
-175.983	138.942	-0.134	0.176
-174.969	-102.286	-0.162	-0.039
-173.954	-143.472	0.386	0.037
-172.939	-200.000	-0.010	-0.133
-171.925	215.501	0.062	0.099
-170.910	-200.000	0.036	-0.309
-169.896	-15.863	0.218	0.138
-168.881	82.596	0.137	-0.149
-167.866	-99.951	0.222	-0.055
-166.852	-49.238	-0.263	-0.125
-165.837	3.402	0.140	-0.102
-164.823	117.527	-0.139	0.170
-163.808	-200.000	0.058	0.311
-162.793	-88.628	0.133	-0.040
-161.779	-200.000	-0.012	-0.079
-160.764	79.171	0.179	0.191
-159.750	-86.971	0.190	0.058
-158.735	-200.000	0.029	0.137
-157.720	36.144	0.081	0.071
-156.706	-13.525	0.247	0.159
-155.691	162.819	-0.351	-0.491
-154.677	259.309	-0.163	0.281
-153.662	-73.663	0.165	0.060
-152.647	800.000	-0.039	-0.164
-151.633	240.775	0.127	-0.212
-150.618	248.561	-0.149	0.252
-149.604	522.237	0.153	0.357
-148.589	-200.000	-0.018	-0.312
-147.574	-149.596	-0.071	-0.006
-146.560	-200.000	0.043	-0.360
-145.545	-120.797	-0.178	0.030
-144.531	-109.022	-0.157	-0.033
-143.516	-33.246	0.081	-0.045
-142.502	-200.000	0.008	0.089
-141.487	52.732	-0.118	0.113
-140.472	-54.980	0.094	-0.042
-139.458	800.000	0.083	0.242
-138.443	-77.510	0.195	0.067
-137.429	-25.644	0.131	0.077
-136.414	0.339	0.223	-0.159
-135.399	321.119	-0.047	-0.088
-134.385	800.000	0.048	-0.176
-133.370	-95.180	0.246	0.066
-132.356	-47.015	-0.218	-0.106
-131.341	-10.545	0.019	-0.012
-130.326	-200.000	0.011	-0.386
-129.312	-200.000	0.084	0.000
-128.297	38.386	-0.156	0.138
-127.283	487.597	-0.155	-0.353
-126.268	-76.717	0.159	0.056
-125.253	-200.000	0.012	-0.197
-124.239	46.679	0.212	0.196
-123.224	8.510	0.225	0.169
-122.210	-79.949	-0.147	-0.049
-121.195	-37.353	0.424	0.226
