DTS Sentinel unit serial number:	SN413079Multiplexer serial number:	ORYXHardware model number:	OX4-SRSoftware version number:	ORYX F/W v4.00 Oryx Data Collector v3.7.2.0data status	okinstallation	princeton_trtdifferential loss correction	single-endedforward channel	channel 2reverse channel	N/Adate	2019/09/12time	18:31:49forward acquisition time	15.00reverse acquisition time	0.00gamma	496.2192k internal	0.2324k external	0.2324temperature offset calibration	1.0119default loss term (dB/km)	0.3790temperature slope calibration	1.0000multiplexer offset coefficient	1.0000multiplexer slope coefficient	1.0000fibre end	0.00T internal ref (°C)	33.25T ext. ref 1 (°C)	2.96T ext. ref 2 (°C)	27.84length (m)	temperature (°C)	Stokes	anti-Stokes-747.200	-165.003	-0.753	-0.034
-746.185	124.536	-0.286	-0.363
-745.171	11.762	0.526	0.408
-744.156	-139.698	0.341	-0.037
-743.142	-163.497	0.111	0.005
-742.127	415.608	-0.107	0.230
-741.112	285.354	-0.135	-0.246
-740.098	774.667	0.201	0.552
-739.083	309.183	0.340	0.641
-738.069	-56.864	0.462	0.206
-737.054	9.686	0.837	0.641
-736.039	-131.480	-0.618	0.082
-735.025	435.987	0.381	0.838
-734.010	-166.052	-0.283	-0.012
-732.996	-83.669	-0.328	-0.106
-731.981	-34.363	-0.520	0.288
-730.966	581.027	0.045	-0.111
-729.952	-100.744	0.387	0.096
-728.937	-164.812	-0.813	-0.037
-727.923	-200.000	-0.086	-0.424
-726.908	-99.553	0.290	0.073
-725.894	-89.815	0.695	-0.205
-724.879	-13.186	-0.666	-0.436
-723.864	-34.274	-0.196	0.108
-722.850	-34.930	0.246	0.136
-721.835	133.916	0.184	-0.240
-720.821	-194.543	-0.580	0.005
-719.806	449.743	-0.093	-0.206
-718.791	-114.263	-0.497	0.097
-717.777	800.000	0.267	0.785
-716.762	187.098	-0.260	-0.391
-715.748	-85.509	-0.115	-0.036
-714.733	39.701	-0.822	-0.744
-713.718	-113.181	-0.422	-0.084
-712.704	247.775	0.246	-0.420
-711.689	668.378	-0.063	-0.165
-710.675	-83.870	0.264	-0.085
-709.660	154.964	0.282	0.391
-708.645	-200.000	0.091	-0.544
-707.631	440.325	-0.229	-0.505
-706.616	746.626	0.229	-0.623
-705.602	430.533	0.309	-0.674
-704.587	-200.000	-0.010	-0.275
-703.572	-62.200	0.438	-0.184
-702.558	-45.676	-0.249	0.124
-701.543	800.000	0.048	0.149
-700.529	-200.000	0.143	-0.779
-699.514	-56.751	0.650	0.290
-698.499	-200.000	-0.085	0.553
-697.485	2.344	0.177	-0.129
-696.470	800.000	-0.254	-0.733
-695.456	-169.635	-0.262	0.010
-694.441	81.969	0.319	-0.349
-693.426	-105.413	-0.503	0.115
-692.412	81.740	-0.404	0.441
-691.397	17.313	0.338	0.270
-690.383	-78.002	-0.467	0.162
-689.368	-200.000	0.016	0.111
-688.354	-200.000	0.024	-0.509
-687.339	-125.655	-0.482	0.074
-686.324	55.945	-0.504	-0.492
-685.310	800.000	-0.335	1.179
-684.295	-200.000	-0.058	0.679
-683.281	192.488	-0.334	0.507
-682.266	-98.737	0.569	0.146
-681.251	13.190	-1.008	-0.786
-680.237	-6.579	-0.481	0.330
-679.222	-22.178	0.369	0.226
-678.208	800.000	0.139	-0.484
-677.193	-97.696	-0.821	-0.214
-676.178	-10.731	-0.363	0.242
-675.164	-200.000	0.012	-0.665
-674.149	-127.551	-0.566	0.083
-673.135	-161.585	-0.373	-0.019
-672.120	-64.587	-0.525	0.214
-671.105	-75.394	-0.392	0.141
-670.091	506.389	-0.275	-0.641
-669.076	-96.328	-0.352	0.094
-668.062	-200.000	0.005	0.613
-667.047	-173.987	-0.512	-0.015
-666.032	336.418	-0.406	0.792
-665.018	-6.690	0.174	0.119
-664.003	419.109	-0.064	0.138
-662.989	-200.000	-0.020	-0.787
-661.974	21.669	0.520	-0.426
-660.959	-46.129	-0.588	-0.291
-659.945	-3.902	-0.313	0.218
-658.930	-174.246	0.599	-0.017
-657.916	200.147	0.334	-0.516
-656.901	-200.000	0.005	-0.799
-655.886	717.239	-0.321	-0.857
-654.872	800.000	-0.188	0.614
-653.857	50.161	0.208	0.197
-652.843	508.276	0.355	-0.830
-651.828	-200.000	0.027	-0.897
-650.814	800.000	-0.095	-0.299
-649.799	-200.000	-0.634	0.001
-648.784	800.000	-0.206	-0.581
-647.770	2.387	0.095	0.069
-646.755	-64.266	-0.450	-0.184
-645.741	36.067	0.328	-0.290
-644.726	182.274	-0.268	0.398
-643.711	-200.000	0.007	0.269
-642.697	-110.756	0.469	0.097
-641.682	191.864	-0.531	-0.804
-640.668	800.000	0.464	-1.396
-639.653	-200.000	0.034	0.717
-638.638	139.377	0.101	-0.133
-637.624	11.639	-0.246	-0.190
-636.609	800.000	0.117	-0.474
-635.595	-200.000	-0.025	-0.993
-634.580	9.022	0.503	-0.382
-633.565	800.000	0.040	0.174
-632.551	9.865	0.705	-0.538
-631.536	77.617	-0.663	0.709
-630.522	174.750	0.695	1.010
-629.507	800.000	-0.189	-0.549
-628.492	800.000	-0.351	-1.179
-627.478	800.000	-0.089	-0.351
-626.463	-36.306	-0.469	-0.254
-625.449	-22.647	0.185	0.112
-624.434	11.487	-0.341	0.263
-623.419	-46.028	0.800	0.396
-622.405	21.008	-0.093	0.076
-621.390	54.564	0.029	0.028
-620.376	800.000	0.150	0.506
-619.361	540.341	-0.177	0.422
-618.346	-60.740	0.015	-0.006
-617.332	149.385	0.211	0.287
-616.317	272.691	-0.390	0.691
-615.303	345.418	-0.168	0.331
-614.288	620.055	-0.213	0.539
-613.273	-51.107	-0.883	-0.416
-612.259	-194.283	-1.585	0.013
-611.244	-130.323	-0.840	-0.115
-610.230	-5.146	-0.598	0.413
-609.215	-42.717	-0.473	-0.242
-608.201	-200.000	0.176	-0.909
-607.186	13.577	0.422	0.329
-606.171	61.266	-0.575	-0.573
-605.157	-200.000	0.051	0.247
-604.142	-97.463	-0.380	-0.099
-603.128	-109.440	0.657	-0.139
-602.113	-113.959	0.383	-0.075
-601.098	-59.836	-0.687	-0.295
-600.084	-88.014	0.529	0.159
-599.069	179.139	-0.387	0.568
-598.055	93.103	-0.174	0.197
-597.040	-92.670	-0.454	0.128
-596.025	-142.217	-0.601	-0.060
-595.011	354.354	0.257	-0.512
-593.996	-200.000	0.059	0.358
-592.982	-175.286	0.554	0.015
-591.967	340.095	-0.288	-0.563
-590.952	-135.591	0.814	0.097
-589.938	-28.612	0.260	-0.150
-588.923	492.562	0.120	-0.275
-587.909	477.231	0.321	0.729
-586.894	513.808	-0.256	0.599
-585.879	118.407	0.130	0.161
-584.865	522.059	-0.127	0.300
-583.850	-128.180	-0.250	-0.036
-582.836	-200.000	-0.082	0.457
-581.821	290.481	0.350	-0.638
-580.806	-109.268	-0.455	0.097
-579.792	800.000	0.193	-0.798
-578.777	23.671	-0.374	-0.308
-577.763	-43.642	-0.422	0.214
-576.748	-55.251	0.524	-0.236
-575.733	-8.940	0.194	0.130
-574.719	-100.266	-0.530	0.132
-573.704	-200.000	0.054	-0.523
-572.690	-153.220	-0.942	-0.066
-571.675	-11.966	0.657	0.432
-570.661	99.289	-0.281	-0.326
-569.646	-200.000	0.165	0.944
-568.631	306.398	0.205	-0.382
-567.617	-40.296	-0.607	0.316
-566.602	-96.160	-0.697	0.186
-565.588	800.000	0.218	-0.709
-564.573	176.508	0.426	-0.621
-563.558	160.057	0.118	-0.165
-562.544	173.128	-0.158	0.228
-561.529	-15.171	0.590	-0.378
-560.515	-111.275	-0.352	0.072
-559.500	800.000	-0.129	0.429
-558.485	248.428	0.203	0.345
-557.471	-85.813	-0.660	-0.205
-556.456	144.657	0.447	-0.598
-555.442	-28.741	0.543	-0.313
-554.427	31.857	-0.583	-0.503
-553.412	-200.000	-0.149	-1.062
-552.398	-69.365	0.169	-0.065
-551.383	48.903	-0.296	0.278
-550.369	-200.000	0.014	-0.776
-549.354	-114.119	0.812	0.157
-548.339	61.658	0.182	-0.181
-547.325	-75.143	-0.533	-0.191
-546.310	248.055	0.325	-0.551
-545.296	117.375	-0.151	0.186
-544.281	21.682	0.531	0.433
-543.266	-200.000	0.047	-0.248
-542.252	-127.977	0.724	0.104
-541.237	800.000	0.234	0.690
-540.223	-190.413	0.296	-0.003
-539.208	196.731	0.081	-0.124
-538.193	-200.000	0.063	-0.554
-537.179	-91.214	0.525	-0.151
-536.164	-131.747	0.489	0.064
-535.150	-181.467	0.128	-0.003
-534.135	122.111	0.309	0.386
-533.121	-172.470	-0.111	-0.004
-532.106	502.194	-0.417	-0.965
-531.091	-122.574	0.726	-0.118
-530.077	800.000	-0.194	-0.615
-529.062	-75.329	0.922	-0.329
-528.048	46.197	0.472	-0.438
-527.033	181.329	0.393	0.578
-526.018	-200.000	0.029	-0.171
-525.004	194.843	0.196	-0.298
-523.989	396.301	-0.348	-0.727
-522.975	-0.220	-0.664	-0.472
-521.960	-200.000	-0.023	-0.776
-520.945	-47.804	-0.434	0.210
-519.931	-200.000	-0.015	-0.603
-518.916	-102.485	0.486	0.116
-517.902	379.082	0.151	-0.310
-516.887	-181.619	-0.359	-0.007
-515.872	183.691	-0.384	0.568
-514.858	375.347	0.248	-0.506
-513.843	-129.471	0.284	0.039
-512.829	134.124	0.294	0.381
-511.814	0.626	0.170	-0.122
-510.799	-200.000	0.083	-1.196
-509.785	43.199	0.393	0.359
-508.770	10.759	0.304	0.232
-507.756	-200.000	0.026	0.118
-506.741	-200.000	-0.013	0.818
-505.726	800.000	-0.237	0.858
-504.712	-159.637	0.438	0.024
-503.697	-3.226	-0.639	0.445
-502.683	159.476	0.365	-0.507
-501.668	388.117	0.547	-1.132
-500.653	-123.637	-0.887	0.141
-499.639	800.000	-0.113	-0.477
-498.624	-44.541	-0.449	-0.224
-497.610	-200.000	0.077	0.559
-496.595	-57.563	0.378	-0.166
-495.581	90.567	-0.543	0.608
-494.566	-62.025	-0.840	0.351
-493.551	447.762	-0.285	-0.627
-492.537	100.708	0.231	-0.268
-491.522	324.188	-0.240	-0.458
-490.508	800.000	-0.200	-0.774
-489.493	-29.803	0.227	-0.129
-488.478	-11.369	-0.176	0.116
-487.464	135.792	-0.102	0.133
-486.449	45.230	0.055	0.051
-485.435	76.294	-0.399	-0.422
-484.420	390.244	0.170	-0.353
-483.405	800.000	-0.036	0.136
-482.391	78.943	0.666	0.712
-481.376	-131.805	-0.369	-0.048
-480.362	800.000	-0.090	-0.270
-479.347	219.700	-0.503	-0.804
-478.332	152.084	-0.419	-0.571
-477.318	-200.000	-0.132	0.654
-476.303	-200.000	-0.026	-0.452
-475.289	-200.000	-0.083	-0.558
-474.274	-200.000	-0.076	-0.592
-473.259	-97.080	-0.267	-0.070
-472.245	-90.069	0.318	0.092
-471.230	-200.000	0.072	0.764
-470.216	-147.865	-0.477	0.040
-469.201	-105.356	0.069	-0.016
-468.186	-200.000	-0.055	-0.837
-467.172	-200.000	-0.097	-0.654
-466.157	149.066	0.582	-0.786
-465.143	13.987	-0.626	-0.486
-464.128	48.400	-0.689	0.644
-463.113	292.664	-0.584	-1.062
-462.099	25.279	0.191	0.159
-461.084	175.591	-0.244	0.354
-460.070	-200.000	-0.011	0.369
-459.055	-65.317	0.354	-0.142
-458.040	-161.735	0.479	-0.024
-457.026	251.371	0.372	0.632
-456.011	-99.974	-0.793	0.197
-454.997	-200.000	0.033	-0.339
-453.982	-43.578	0.800	-0.403
-452.968	29.298	-0.549	0.465
-451.953	-43.886	0.242	-0.121
-450.938	-174.757	-0.499	0.014
-449.924	217.242	-0.315	0.500
-448.909	49.433	0.278	0.261
-447.895	184.457	-0.465	-0.687
-446.880	-132.431	-1.268	0.163
-445.865	133.411	0.247	-0.319
-444.851	-200.000	-0.035	0.417
-443.836	-180.549	0.634	-0.013
-442.822	-200.000	0.064	1.083
-441.807	-125.028	1.002	-0.154
-440.792	-200.000	0.014	0.154
-439.778	238.579	-0.297	-0.492
-438.763	-105.320	-0.376	0.086
-437.749	-146.942	0.820	-0.070
-436.734	800.000	-0.039	-0.170
-435.719	800.000	-0.057	0.167
-434.705	149.251	0.662	0.893
-433.690	-185.867	0.476	-0.007
-432.676	3.594	0.338	0.246
-431.661	305.390	0.183	-0.339
-430.646	-200.000	-0.037	0.605
-429.632	-83.398	-0.809	0.259
-428.617	-200.000	-0.080	0.445
-427.603	63.421	-0.675	-0.675
-426.588	-200.000	0.004	0.318
-425.573	800.000	0.276	0.953
-424.559	92.073	-0.455	0.510
-423.544	-6.183	-0.695	-0.473
-422.530	-34.725	-0.960	0.523
-421.515	678.064	-0.241	0.625
-420.500	-152.874	0.725	0.051
-419.486	390.003	0.401	-0.829
-418.471	31.724	-0.312	0.267
-417.457	99.115	-0.306	0.353
-416.442	90.405	0.446	0.497
-415.428	185.490	-0.318	-0.470
-414.413	595.647	-0.522	-1.289
-413.398	378.814	-0.240	0.489
-412.384	-32.314	0.446	0.248
-411.369	-148.666	-0.367	0.030
-410.355	509.278	-0.213	0.493
-409.340	613.202	-0.534	1.331
-408.325	800.000	0.214	0.863
-407.311	30.749	-0.652	0.556
-406.296	-32.091	0.780	-0.435
-405.282	-40.514	-0.631	0.326
-404.267	362.568	-0.351	-0.702
-403.252	480.661	0.111	-0.251
-402.238	-88.728	-0.240	-0.071
-401.223	-200.000	-0.044	-0.443
-400.209	260.111	-0.327	-0.562
-399.194	-32.250	-1.040	0.578
-398.179	-170.234	0.389	-0.014
-397.165	479.695	0.253	-0.572
-396.150	62.017	0.349	0.346
-395.136	-200.000	-0.008	0.223
-394.121	-200.000	-0.038	0.261
-393.106	800.000	0.305	-0.838
-392.092	89.772	0.156	-0.174
-391.077	490.532	0.411	-0.936
-390.063	276.271	0.488	0.862
-389.048	-34.176	-0.908	0.496
-388.033	800.000	0.096	-0.279
-387.019	-200.000	0.103	0.606
-386.004	91.151	0.370	-0.413
-384.990	-191.530	0.463	-0.005
-383.975	-90.243	-0.348	0.101
-382.960	-44.145	-0.234	-0.117
-381.946	33.668	-0.574	-0.496
-380.931	-200.000	0.094	1.029
-379.917	-161.802	0.583	0.030
-378.902	800.000	-0.153	-0.479
-377.888	84.808	-0.369	0.402
-376.873	-200.000	-0.033	-0.427
-375.858	-58.144	-0.251	-0.109
-374.844	-2.718	0.433	0.301
-373.829	118.627	-0.195	-0.239
-372.815	154.184	0.479	0.654
-371.800	168.319	0.486	0.689
-370.785	-200.000	-0.088	0.447
-369.771	-200.000	-0.045	-0.276
-368.756	-138.003	0.262	-0.029
-367.742	-97.908	0.774	0.199
-366.727	507.294	-0.260	-0.601
-365.712	-200.000	-0.066	0.520
-364.698	-69.360	-0.857	-0.327
-363.683	-43.059	0.643	0.324
-362.669	-186.814	0.961	0.013
-361.654	800.000	0.083	0.310
-360.639	480.380	0.199	0.450
-359.625	416.958	-0.217	0.461
-358.610	-200.000	0.020	-0.476
-357.596	-56.110	-0.300	0.133
-356.581	-33.428	-0.140	0.077
-355.566	-168.622	-0.129	-0.005
-354.552	-200.000	0.147	0.730
-353.537	-6.202	-0.377	0.256
-352.523	292.225	-0.085	-0.153
-351.508	-200.000	0.046	-0.445
-350.493	253.964	-0.185	-0.315
-349.479	180.323	0.369	-0.538
-348.464	226.552	-0.277	-0.446
-347.450	-59.793	0.529	-0.225
-346.435	800.000	0.183	-0.759
-345.420	-50.787	0.711	0.333
-344.406	84.603	-0.543	-0.591
-343.391	-153.318	0.324	-0.022
-342.377	-200.000	0.017	-1.124
-341.362	-1.826	0.391	-0.273
-340.348	800.000	0.101	0.307
-339.333	92.178	-0.591	-0.662
-338.318	9.860	0.708	0.534
-337.304	392.782	0.404	0.835
-336.289	-115.533	-0.664	0.124
-335.275	45.071	0.409	-0.375
-334.260	-200.000	0.016	-0.742
-333.245	130.002	0.407	-0.517
-332.231	64.631	0.282	0.282
-331.216	51.145	0.130	-0.123
-330.202	-200.000	-0.030	0.370
-329.187	-79.248	1.013	0.341
-328.172	301.509	0.094	0.173
-327.158	800.000	0.118	0.332
-326.143	35.275	-0.141	0.123
-325.129	262.584	-0.276	-0.475
-324.114	-40.322	0.571	0.295
-323.099	-82.667	-0.311	-0.100
-322.085	-137.814	-0.223	0.025
-321.070	-200.000	-0.024	-0.212
-320.056	-63.666	-0.237	-0.096
-319.041	-28.250	0.784	0.450
-318.026	-83.598	-0.399	-0.127
-317.012	-105.062	0.684	-0.155
-315.997	79.844	0.367	-0.391
-314.983	122.366	0.432	0.536
-313.968	121.781	0.277	-0.342
-312.953	-113.307	-0.395	-0.077
-311.939	-31.795	0.321	-0.179
-310.924	4.154	-0.428	-0.311
-309.910	123.687	-0.234	0.291
-308.895	110.195	-0.273	0.326
-307.880	-74.074	0.402	0.145
-306.866	-59.676	0.450	0.191
-305.851	-200.000	-0.017	-0.211
-304.837	-151.229	0.927	0.069
-303.822	-200.000	0.088	-0.408
-302.807	-138.905	0.387	0.042
-301.793	-200.000	0.138	0.654
-300.778	-153.558	0.906	-0.062
-299.764	-173.512	0.378	-0.011
-298.749	-58.677	0.531	0.228
-297.735	800.000	-0.155	0.588
-296.720	800.000	-0.112	-0.315
-295.705	-130.580	0.730	0.098
-294.691	204.714	-0.318	0.489
-293.676	-200.000	0.084	0.991
-292.662	800.000	-0.088	0.318
-291.647	-170.718	0.667	-0.023
-290.632	8.615	-0.137	-0.102
-289.618	48.880	0.527	-0.490
-288.603	800.000	-0.137	-0.478
-287.589	106.562	-0.393	0.462
-286.574	68.605	0.542	-0.551
-285.559	-15.093	-0.469	0.298
-284.545	-200.000	-0.039	-0.671
-283.530	-59.308	0.278	0.119
-282.516	148.515	-0.295	-0.395
-281.501	232.325	0.398	-0.647
-280.486	-200.000	0.001	-0.381
-279.472	-35.969	-0.446	0.239
-278.457	37.540	0.265	0.233
-277.443	-200.000	0.085	-0.435
-276.428	-84.033	0.175	0.055
-275.413	37.455	0.252	-0.222
-274.399	-80.003	-0.372	0.124
-273.384	-200.000	-0.098	0.597
-272.370	-62.970	0.576	0.236
-271.355	779.077	-0.051	0.138
-270.340	-103.109	-0.569	-0.133
-269.326	-85.896	-0.088	-0.027
-268.311	800.000	0.038	0.158
-267.297	-163.938	-1.013	0.047
-266.282	-28.149	0.379	0.217
-265.267	137.381	-0.196	-0.255
-264.253	800.000	-0.228	0.727
-263.238	-128.292	-0.333	0.047
-262.224	157.179	0.045	0.062
-261.209	576.496	-0.310	0.751
-260.195	-200.000	0.001	0.385
-259.180	221.393	-0.201	-0.320
-258.165	-148.459	-1.109	0.090
-257.151	-143.304	0.394	0.037
-256.136	183.021	-0.148	0.216
-255.122	126.678	0.391	0.490
-254.107	-10.074	-0.024	-0.016
-253.092	-8.641	0.680	-0.452
-252.078	151.436	-0.570	0.769
-251.063	178.656	0.135	-0.195
-250.049	92.290	0.360	-0.401
-249.034	-16.450	-0.357	0.224
-248.019	257.768	0.080	0.136
-247.005	-31.177	0.220	0.123
-245.990	352.962	0.370	-0.727
-244.976	-49.982	0.500	0.234
-243.961	21.936	-0.218	0.176
-242.946	-93.985	0.625	-0.170
-241.932	24.039	-0.128	-0.105
-240.917	798.008	-0.181	-0.494
-239.903	-200.000	0.083	-0.463
-238.888	-111.219	-0.557	-0.113
-237.873	-81.695	-0.279	0.091
-236.859	329.114	-0.189	0.360
-235.844	477.954	-0.109	0.244
-234.830	-16.600	-0.674	0.423
-233.815	800.000	-0.166	0.698
-232.800	350.463	0.302	-0.591
-231.786	800.000	-0.137	-0.564
-230.771	800.000	0.131	-0.535
-229.757	-103.346	0.538	0.126
-228.742	-4.577	-0.287	0.196
-227.727	-177.889	-0.408	-0.010
-226.713	-200.000	0.188	1.045
-225.698	41.317	-0.731	0.654
-224.684	60.798	0.362	0.355
-223.669	-178.251	0.511	0.012
-222.655	-112.058	-0.569	-0.113
-221.640	-200.000	0.046	0.354
-220.625	-200.000	-0.058	-0.616
-219.611	800.000	0.162	-0.448
-218.596	-25.820	-0.367	-0.214
-217.582	-146.260	0.242	0.021
-216.567	350.128	0.270	0.527
-215.552	-110.955	-0.716	0.145
-214.538	173.469	-0.117	0.167
-213.523	33.342	0.680	0.584
-212.509	800.000	0.151	0.596
-211.494	78.589	-0.829	-0.875
-210.479	-131.670	0.295	-0.038
-209.465	25.024	0.191	0.156
-208.450	-200.000	-0.019	-0.425
-207.436	800.000	0.110	-0.414
-206.421	800.000	0.055	0.201
-205.406	-200.000	-0.094	0.591
-204.392	24.029	0.275	0.224
-203.377	-40.146	1.051	-0.541
-202.363	-184.362	0.477	-0.008
-201.348	800.000	-0.191	-0.547
-200.333	191.683	-0.424	0.631
-199.319	-125.326	0.638	0.096
-198.304	435.892	-0.292	0.628
-197.290	-21.341	-0.578	0.349
-196.275	-200.000	0.081	0.579
-195.260	-60.942	0.187	-0.078
-194.246	-200.000	0.011	-0.202
-193.231	218.217	-0.360	-0.568
-192.217	-148.965	-0.258	0.021
-191.202	-10.221	0.303	0.198
-190.187	356.792	0.189	0.372
-189.173	800.000	0.070	-0.192
-188.158	64.677	0.659	0.657
-187.144	173.196	0.291	0.415
-186.129	114.795	0.147	-0.177
-185.114	800.000	-0.194	-0.724
-184.100	800.000	0.163	-0.497
-183.085	800.000	-0.045	-0.141
-182.071	800.000	0.183	0.547
-181.056	-86.059	0.548	-0.167
-180.042	-200.000	0.242	1.473
-179.027	20.304	0.561	-0.448
-178.012	93.038	-0.389	-0.434
-176.998	238.966	0.234	0.384
-175.983	35.961	0.452	0.393
-174.969	-1.582	-0.244	-0.169
-173.954	144.264	0.268	-0.353
-172.939	91.285	0.572	-0.634
-171.925	-200.000	-0.038	0.718
-170.910	44.100	-0.188	-0.170
-169.896	-200.000	0.011	0.233
-168.881	-26.284	0.461	0.267
-167.866	-57.952	0.615	0.265
-166.852	463.994	0.124	0.272
-165.837	-200.000	-0.105	-0.571
-164.823	-200.000	-0.078	0.758
-163.808	-78.090	-1.109	0.377
-162.793	25.887	-0.567	0.466
-161.779	654.472	0.341	0.864
-160.764	67.987	-0.510	0.515
-159.750	-83.923	-0.305	-0.096
-158.735	800.000	-0.083	-0.243
-157.720	-90.470	-0.330	-0.094
-156.706	39.929	0.148	-0.131
-155.691	-114.842	-0.620	0.117
-154.677	-191.112	-0.882	-0.009
-153.662	58.249	-0.710	0.686
-152.647	800.000	-0.199	0.619
-151.633	-91.332	-0.553	-0.156
-150.618	-110.667	-0.362	0.074
-149.604	-200.000	-0.021	0.904
-148.589	1.267	0.522	0.369
-147.574	35.811	0.458	-0.397
-146.560	-200.000	0.004	-0.236
-145.545	-152.103	0.351	-0.025
-144.531	-82.569	0.246	-0.079
-143.516	-70.516	-0.834	-0.311
-142.502	-41.569	0.561	-0.284
-141.487	-200.000	0.086	-0.462
-140.472	800.000	-0.154	0.439
-139.458	-200.000	0.031	-0.226
-138.443	-56.666	0.653	-0.285
-137.429	-200.000	0.232	1.027
-136.414	393.158	0.312	-0.641
-135.399	-104.690	-0.500	-0.113
-134.385	-200.000	0.021	0.447
-133.370	-200.000	0.074	0.468
-132.356	-200.000	0.008	0.141
-131.341	-153.559	0.245	-0.017
-130.326	-7.796	-0.407	-0.271
-129.312	-9.629	-0.492	-0.323
-128.297	-101.739	-0.263	-0.063
-127.283	-61.503	-0.699	-0.289
-126.268	-53.934	-0.688	-0.309
-125.253	800.000	0.075	-0.280
-124.239	-120.594	-1.274	-0.213
-123.224	-25.881	-0.513	-0.298
-122.210	-200.000	-0.030	-0.414
-121.195	50.017	-0.225	0.209
