DTS Sentinel unit serial number:	SN413079Multiplexer serial number:	ORYXHardware model number:	OX4-SRSoftware version number:	ORYX F/W v4.00 Oryx Data Collector v3.7.2.0data status	okinstallation	princeton_trtdifferential loss correction	single-endedforward channel	channel 2reverse channel	N/Adate	2019/09/15time	22:19:35forward acquisition time	60.00reverse acquisition time	0.00gamma	496.2192k internal	0.2335k external	0.2335temperature offset calibration	0.9943default loss term (dB/km)	0.3790temperature slope calibration	1.0000multiplexer offset coefficient	1.0000multiplexer slope coefficient	1.0000fibre end	0.00T internal ref (°C)	29.39T ext. ref 1 (°C)	8.66T ext. ref 2 (°C)	22.77length (m)	temperature (°C)	Stokes	anti-Stokes-747.200	427.553	0.071	0.154
-746.185	-165.938	-0.287	-0.012
-745.171	-32.534	0.180	-0.101
-744.156	-73.010	0.150	0.055
-743.142	-90.301	0.217	0.063
-742.127	-200.000	0.047	0.371
-741.112	-97.467	-0.307	-0.080
-740.098	-106.623	0.047	0.010
-739.083	647.267	-0.056	-0.143
-738.069	14.371	0.060	0.047
-737.054	-11.692	-0.316	0.209
-736.039	-17.829	-0.264	-0.167
-735.025	684.299	-0.049	-0.128
-734.010	800.000	-0.087	0.371
-732.996	47.628	0.199	0.187
-731.981	-28.150	0.123	0.072
-730.966	72.816	-0.141	-0.148
-729.952	-6.868	0.278	0.190
-728.937	-85.428	-0.228	-0.071
-727.923	-200.000	0.044	-0.314
-726.908	-200.000	0.022	-0.265
-725.894	64.085	-0.176	-0.178
-724.879	-155.304	-0.125	-0.008
-723.864	41.716	-0.168	0.153
-722.850	106.149	0.082	-0.098
-721.835	-200.000	-0.008	-0.202
-720.821	133.127	-0.066	-0.086
-719.806	91.744	-0.101	0.114
-718.791	-200.000	-0.044	-0.209
-717.777	-200.000	0.003	-0.241
-716.762	26.515	0.303	-0.255
-715.748	-69.712	0.369	-0.142
-714.733	53.830	-0.284	-0.274
-713.718	800.000	0.097	0.304
-712.704	-148.213	0.144	0.012
-711.689	-109.065	-0.242	-0.052
-710.675	800.000	0.005	0.019
-709.660	-60.158	-0.077	-0.033
-708.645	-122.670	0.221	0.036
-707.631	-121.306	-0.128	-0.021
-706.616	-200.000	0.008	0.186
-705.602	800.000	0.037	0.140
-704.587	-86.063	-0.169	0.052
-703.572	-59.129	0.301	-0.130
-702.558	-200.000	-0.003	-0.357
-701.543	-135.453	-0.166	0.020
-700.529	-200.000	0.066	0.362
-699.514	-163.908	-0.086	-0.004
-698.499	75.440	-0.185	-0.196
-697.485	-50.260	-0.121	-0.057
-696.470	15.633	0.104	-0.082
-695.456	242.659	-0.059	0.098
-694.441	159.748	0.260	-0.362
-693.426	471.266	-0.163	-0.368
-692.412	-200.000	0.007	-0.125
-691.397	-45.119	0.112	-0.056
-690.383	201.931	-0.141	-0.218
-689.368	-67.580	-0.490	0.193
-688.354	177.115	-0.101	-0.148
-687.339	270.297	0.085	0.150
-686.324	-31.012	0.327	-0.185
-685.310	148.861	-0.059	0.079
-684.295	391.692	0.041	-0.085
-683.281	-123.733	0.121	-0.019
-682.266	-10.811	-0.456	-0.302
-681.251	800.000	0.059	0.234
-680.237	343.527	-0.072	0.141
-679.222	-22.767	0.226	-0.137
-678.208	43.657	0.070	-0.064
-677.193	-110.943	-0.367	0.076
-676.178	-25.778	-0.116	0.068
-675.164	-12.396	-0.219	-0.143
-674.149	-200.000	-0.038	-0.353
-673.135	484.308	0.146	0.334
-672.120	200.003	0.041	0.063
-671.105	-200.000	0.020	-0.427
-670.091	111.826	-0.200	-0.241
-669.076	-72.447	0.493	-0.182
-668.062	-24.797	0.217	0.129
-667.047	60.025	-0.283	0.280
-666.032	-200.000	0.017	0.111
-665.018	-200.000	0.044	-0.372
-664.003	-200.000	0.002	-0.071
-662.989	65.945	-0.150	-0.152
-661.974	-200.000	0.017	0.118
-660.959	-200.000	-0.030	-0.283
-659.945	26.637	0.169	0.141
-658.930	253.389	0.111	0.189
-657.916	24.537	0.161	-0.133
-656.901	247.197	0.154	0.260
-655.886	-64.132	-0.223	-0.091
-654.872	-91.863	-0.231	0.066
-653.857	44.870	0.178	-0.164
-652.843	129.142	-0.139	0.177
-651.828	-200.000	-0.020	0.351
-650.814	588.385	0.040	0.099
-649.799	271.307	-0.089	0.156
-648.784	116.100	0.176	0.215
-647.770	800.000	0.102	0.349
-646.755	-75.483	0.229	-0.081
-645.741	-57.203	0.066	-0.029
-644.726	-61.111	-0.093	-0.039
-643.711	-86.609	-0.279	-0.086
-642.697	-175.695	-0.260	-0.007
-641.682	45.060	-0.233	0.215
-640.668	206.010	-0.101	-0.158
-639.653	147.397	0.024	-0.033
-638.638	-200.000	-0.002	0.232
-637.624	-154.044	-0.418	-0.028
-636.609	-76.813	0.121	-0.042
-635.595	19.735	-0.289	0.233
-634.580	-165.154	-0.034	-0.002
-633.565	366.886	-0.075	0.152
-632.551	8.946	-0.200	-0.151
-631.536	-96.403	-0.098	-0.026
-630.522	-106.197	0.178	0.040
-629.507	62.256	0.234	0.234
-628.492	714.357	-0.030	-0.080
-627.478	187.067	0.145	0.216
-626.463	-128.908	0.198	-0.028
-625.449	-3.887	0.109	-0.076
-624.434	47.946	-0.041	-0.038
-623.419	88.060	-0.081	0.089
-622.405	-200.000	-0.014	-0.061
-621.390	-71.920	0.317	-0.118
-620.376	168.043	-0.108	-0.154
-619.361	456.352	-0.143	-0.317
-618.346	-133.435	0.210	-0.026
-617.332	-200.000	-0.019	0.090
-616.317	-102.962	-0.138	-0.033
-615.303	-200.000	-0.014	0.190
-614.288	212.534	0.149	-0.234
-613.273	33.940	0.199	-0.173
-612.259	151.568	0.243	-0.330
-611.244	135.334	0.248	0.322
-610.230	800.000	-0.153	-0.461
-609.215	474.217	-0.057	-0.129
-608.201	-200.000	0.034	-0.224
-607.186	-6.534	0.273	-0.186
-606.171	-176.991	0.072	-0.002
-605.157	67.983	-0.253	-0.259
-604.142	471.351	-0.107	-0.241
-603.128	-200.000	-0.026	-0.274
-602.113	53.011	-0.249	0.238
-601.098	134.582	0.109	-0.142
-600.084	21.080	0.075	-0.061
-599.069	457.383	-0.095	-0.212
-598.055	-200.000	-0.048	0.354
-597.040	347.801	-0.110	0.217
-596.025	-57.918	-0.248	0.108
-595.011	800.000	-0.099	0.305
-593.996	281.096	-0.147	-0.263
-592.982	437.708	0.123	-0.267
-591.967	-200.000	0.037	-0.335
-590.952	-48.332	-0.104	-0.050
-589.938	-106.350	-0.144	-0.032
-588.923	-180.790	0.140	0.003
-587.909	85.912	0.160	0.176
-586.894	800.000	0.038	-0.127
-585.879	-200.000	-0.035	-0.251
-584.865	-200.000	0.010	-0.059
-583.850	-126.715	-0.526	0.078
-582.836	28.869	-0.196	-0.166
-581.821	30.791	-0.159	0.136
-580.806	-57.481	-0.072	0.032
-579.792	-121.334	-0.457	0.076
-578.777	430.419	-0.143	-0.310
-577.763	12.677	-0.110	0.084
-576.748	-99.370	-0.370	0.093
-575.733	-36.603	-0.085	-0.046
-574.719	107.744	-0.077	0.092
-573.704	-61.434	-0.241	-0.101
-572.690	40.465	-0.263	-0.237
-571.675	-9.570	0.278	0.185
-570.661	-89.540	-0.215	-0.063
-569.646	-11.344	0.171	-0.113
-568.631	800.000	-0.122	-0.354
-567.617	800.000	-0.086	0.272
-566.602	203.004	0.136	0.210
-565.588	-38.858	-0.173	-0.091
-564.573	800.000	-0.091	0.310
-563.558	-92.136	0.180	0.051
-562.544	-138.534	0.127	-0.014
-561.529	-143.637	0.188	-0.018
-560.515	44.020	-0.216	0.197
-559.500	63.567	-0.237	-0.237
-558.485	283.535	0.089	0.159
-557.471	-30.659	-0.227	0.128
-556.456	-9.955	-0.102	0.068
-555.442	-180.097	-0.416	-0.009
-554.427	12.914	-0.132	-0.101
-553.412	14.458	-0.080	-0.062
-552.398	800.000	0.063	-0.228
-551.383	341.265	0.160	-0.312
-550.369	23.036	0.099	0.081
-549.354	-76.501	0.064	-0.022
-548.339	-200.000	-0.021	-0.150
-547.325	-104.725	-0.524	-0.120
-546.310	103.974	-0.101	-0.118
-545.296	-12.379	0.057	-0.037
-544.281	-62.100	-0.354	-0.147
-543.266	-109.921	-0.212	-0.044
-542.252	142.270	0.071	-0.093
-541.237	-131.080	-0.093	-0.012
-540.223	648.083	-0.072	0.184
-539.208	109.246	0.133	-0.158
-538.193	-174.754	-0.073	-0.002
-537.179	-28.537	-0.259	-0.148
-536.164	-88.596	0.094	0.028
-535.150	403.445	-0.111	-0.232
-534.135	-200.000	-0.022	-0.222
-533.121	150.384	-0.160	-0.217
-532.106	57.827	0.108	-0.105
-531.091	16.363	-0.158	-0.125
-530.077	29.144	-0.049	0.041
-529.062	-13.757	0.222	0.143
-528.048	-59.210	-0.095	0.041
-527.033	715.908	-0.017	-0.046
-526.018	-200.000	0.026	0.285
-525.004	-39.768	-0.227	0.118
-523.989	-165.745	-0.058	-0.002
-522.975	-92.673	-0.127	-0.035
-521.960	-27.538	-0.178	0.103
-520.945	118.220	-0.108	0.132
-519.931	-65.091	-0.247	-0.099
-518.916	122.051	0.129	0.161
-517.902	471.096	-0.216	-0.485
-516.887	-34.213	-0.389	-0.213
-515.872	-14.253	-0.105	0.068
-514.858	-200.000	0.002	0.193
-513.843	459.989	-0.138	-0.306
-512.829	-141.268	0.220	-0.022
-511.814	800.000	0.024	-0.093
-510.799	800.000	0.062	0.182
-509.785	-146.008	-0.136	-0.012
-508.770	-200.000	0.031	0.205
-507.756	800.000	0.044	0.133
-506.741	-156.812	0.164	0.010
-505.726	2.894	0.113	0.082
-504.712	798.267	0.033	-0.092
-503.697	-79.883	0.096	0.032
-502.683	800.000	0.048	0.148
-501.668	308.646	0.187	0.348
-500.653	-200.000	0.008	-0.231
-499.639	-84.790	-0.161	-0.050
-498.624	-5.314	0.259	0.177
-497.610	-97.155	-0.152	0.039
-496.595	800.000	-0.109	-0.377
-495.581	535.584	-0.152	-0.358
-494.566	15.659	0.164	-0.128
-493.551	91.976	0.163	-0.182
-492.537	-200.000	-0.004	0.174
-491.522	177.261	0.140	0.202
-490.508	246.849	-0.057	0.095
-489.493	-17.327	-0.152	0.095
-488.478	716.906	-0.063	0.166
-487.464	176.018	0.082	0.118
-486.449	127.691	0.129	-0.163
-485.435	228.561	-0.138	-0.223
-484.420	-42.970	-0.112	-0.057
-483.405	35.169	0.235	-0.204
-482.391	-42.223	-0.048	0.024
-481.376	57.073	0.128	-0.125
-480.362	-159.895	-0.171	0.009
-479.347	95.122	0.342	0.387
-478.332	-85.873	0.231	-0.071
-477.318	70.677	0.237	0.244
-476.303	-56.633	-0.213	0.094
-475.289	-92.455	-0.151	-0.042
-474.274	-125.483	-0.220	0.033
-473.259	-6.751	-0.055	-0.037
-472.245	-146.718	-0.393	-0.034
-471.230	800.000	-0.103	-0.363
-470.216	62.577	0.121	-0.120
-469.201	-12.581	-0.161	0.104
-468.186	130.540	0.301	-0.383
-467.172	-34.369	-0.296	-0.161
-466.157	527.086	0.140	-0.329
-465.143	103.154	-0.077	-0.090
-464.128	-200.000	0.063	0.420
-463.113	800.000	0.082	0.312
-462.099	-200.000	0.004	-0.101
-461.084	-42.919	0.439	0.221
-460.070	326.769	0.076	0.145
-459.055	4.851	0.040	-0.029
-458.040	-56.916	-0.219	0.096
-457.026	98.116	0.235	-0.269
-456.011	61.328	-0.189	-0.187
-454.997	-107.158	0.067	-0.015
-453.982	-28.550	0.225	-0.129
-452.968	-200.000	0.019	-0.345
-451.953	-200.000	-0.002	0.072
-450.938	-200.000	0.061	0.405
-449.924	-97.872	0.171	-0.044
-448.909	-200.000	0.002	0.527
-447.895	-159.757	-0.017	-0.001
-446.880	-39.891	-0.184	-0.095
-445.865	800.000	-0.045	0.145
-444.851	-4.397	-0.247	-0.170
-443.836	411.362	-0.098	0.207
-442.822	-200.000	0.011	0.346
-441.807	82.168	0.212	0.228
-440.792	-120.861	-0.222	0.037
-439.778	51.257	-0.291	-0.274
-438.763	40.596	-0.174	-0.156
-437.749	-67.010	-0.042	0.017
-436.734	-200.000	-0.017	0.172
-435.719	800.000	-0.011	-0.037
-434.705	-94.698	0.085	-0.023
-433.690	-43.216	0.142	-0.072
-432.676	-120.173	0.082	0.014
-431.661	-0.672	-0.108	-0.076
-430.646	-19.299	-0.263	-0.162
-429.632	-111.305	0.060	0.012
-428.617	64.654	0.202	0.202
-427.603	-106.404	0.176	0.039
-426.588	150.746	-0.111	-0.149
-425.573	43.669	0.193	0.175
-424.559	415.788	-0.068	-0.144
-423.544	371.621	0.050	0.100
-422.530	-200.000	0.008	-0.126
-421.515	-200.000	-0.005	-0.440
-420.500	213.576	-0.194	0.303
-419.486	-18.648	0.053	-0.033
-418.471	-152.209	0.223	-0.016
-417.457	-200.000	0.015	-0.093
-416.442	109.849	0.080	0.095
-415.428	-200.000	0.023	-0.172
-414.413	179.505	-0.107	0.155
-413.398	800.000	0.021	0.070
-412.384	92.034	-0.117	-0.131
-411.369	58.924	-0.081	0.079
-410.355	26.376	0.161	-0.133
-409.340	100.750	0.155	0.179
-408.325	459.897	-0.041	-0.090
-407.311	-95.594	0.196	0.052
-406.296	-200.000	-0.010	0.106
-405.282	800.000	0.056	0.194
-404.267	-81.029	0.083	0.027
-403.252	238.419	0.144	-0.238
-402.238	19.251	-0.195	0.155
-401.223	-63.593	0.453	-0.184
-400.209	310.122	0.158	-0.293
-399.194	-200.000	-0.010	-0.123
-398.179	-200.000	0.038	-0.418
-397.165	457.272	-0.078	-0.173
-396.150	-0.868	0.149	0.105
-395.136	498.774	-0.129	0.295
-394.121	24.168	0.233	0.191
-393.106	-200.000	-0.016	-0.105
-392.092	800.000	0.040	0.129
-391.077	-64.283	0.183	0.074
-390.063	-152.058	-0.171	0.012
-389.048	66.639	0.287	0.290
-388.033	-54.165	0.167	0.075
-387.019	-84.796	-0.247	0.077
-386.004	244.601	0.130	0.216
-384.990	8.310	0.292	-0.217
-383.975	467.017	-0.025	0.055
-382.960	-161.795	0.266	-0.013
-381.946	-69.454	-0.315	0.120
-380.931	-159.750	-0.134	-0.007
-379.917	350.663	0.116	0.227
-378.902	-159.846	-0.231	0.013
-377.888	194.251	-0.087	-0.130
-376.873	427.946	-0.089	0.191
-375.858	-156.466	-0.252	-0.016
-374.844	-96.006	0.254	0.067
-373.829	-13.289	0.072	0.046
-372.815	-200.000	0.021	0.262
-371.800	-41.233	0.101	-0.052
-370.785	-200.000	-0.059	0.298
-369.771	406.129	-0.105	0.220
-368.756	382.903	-0.072	-0.146
-367.742	-90.250	0.350	-0.101
-366.727	-17.662	-0.226	0.140
-365.712	346.249	0.107	-0.208
-364.698	52.766	-0.445	0.421
-363.683	13.772	0.157	-0.121
-362.669	-200.000	0.033	0.224
-361.654	-21.003	0.250	-0.152
-360.639	-200.000	-0.068	-0.420
-359.625	800.000	-0.005	0.015
-358.610	-73.059	0.168	-0.061
-357.596	29.120	0.048	0.040
-356.581	-200.000	-0.021	0.258
-355.566	-115.329	-0.257	0.048
-354.552	61.965	-0.060	0.059
-353.537	134.093	-0.083	0.107
-352.523	88.025	-0.164	-0.180
-351.508	-200.000	0.024	0.256
-350.493	-139.164	-0.189	-0.020
-349.479	48.079	-0.035	0.032
-348.464	241.516	-0.154	0.255
-347.450	-85.571	0.205	0.063
-346.435	83.360	-0.132	-0.142
-345.420	-23.731	0.401	-0.238
-344.406	-69.969	-0.101	0.038
-343.391	315.196	-0.074	-0.138
-342.377	180.257	0.056	-0.081
-341.362	145.293	0.170	0.224
-340.348	-103.593	0.332	-0.077
-339.333	-59.400	-0.018	-0.008
-338.318	-137.850	-0.235	-0.026
-337.304	-105.785	-0.230	-0.051
-336.289	-47.629	0.030	0.014
-335.275	67.992	-0.308	-0.311
-334.260	-111.808	-0.476	-0.095
-333.245	800.000	-0.017	0.056
-332.231	44.228	0.162	0.147
-331.216	-75.605	0.171	0.060
-330.202	800.000	0.045	-0.124
-329.187	395.751	-0.135	-0.279
-328.172	-200.000	0.028	-0.233
-327.158	-200.000	-0.016	-0.389
-326.143	800.000	0.206	0.583
-325.129	-123.387	0.204	0.032
-324.114	-200.000	0.000	0.054
-323.099	-172.017	0.110	-0.004
-322.085	-32.677	0.188	-0.104
-321.070	-200.000	-0.007	0.108
-320.056	15.195	0.022	0.017
-319.041	41.616	0.193	0.173
-318.026	-170.377	0.211	-0.007
-317.012	800.000	-0.041	-0.130
-315.997	366.980	-0.048	0.096
-314.983	166.569	-0.211	0.295
-313.968	86.408	0.181	-0.197
-312.953	-130.094	-0.300	-0.040
-311.939	62.104	-0.135	0.133
-310.924	-129.520	0.078	-0.011
-309.910	-24.639	-0.101	-0.059
-308.895	197.976	0.156	0.235
-307.880	154.304	0.116	0.157
-306.866	102.028	0.229	-0.265
-305.851	-200.000	-0.005	0.092
-304.837	-62.775	-0.106	0.043
-303.822	3.711	-0.137	0.099
-302.807	-65.883	-0.256	-0.101
-301.793	347.385	0.127	0.247
-300.778	-38.118	-0.185	0.097
-299.764	800.000	0.032	0.098
-298.749	617.921	0.140	-0.347
-297.735	133.049	-0.093	-0.119
-296.720	-48.301	-0.242	-0.115
-295.705	-102.110	-0.255	-0.061
-294.691	493.551	-0.037	0.083
-293.676	214.441	0.158	0.247
-292.662	800.000	-0.063	0.247
-291.647	744.310	-0.149	-0.394
-290.632	54.984	-0.088	0.084
-289.618	277.981	-0.114	-0.201
-288.603	-18.396	0.071	0.044
-287.589	534.729	0.065	-0.152
-286.574	-80.585	0.144	0.047
-285.559	785.616	-0.057	-0.155
-284.545	-166.922	-0.142	-0.006
-283.530	800.000	0.056	-0.238
-282.516	-85.677	0.291	0.089
-281.501	-86.820	0.380	0.115
-280.486	269.749	-0.241	0.418
-279.472	-33.190	0.272	0.149
-278.457	153.236	0.300	0.406
-277.443	133.421	-0.072	0.092
-276.428	-71.783	0.144	0.053
-275.413	-200.000	-0.008	-0.238
-274.399	-122.164	-0.238	-0.038
-273.384	-200.000	0.020	-0.350
-272.370	33.091	0.252	0.216
-271.355	27.562	0.205	0.170
-270.340	83.797	0.064	0.069
-269.326	183.120	0.186	0.270
-268.311	-146.386	0.229	0.020
-267.297	-32.628	0.145	0.080
-266.282	43.799	0.072	0.065
-265.267	-54.583	0.223	0.100
-264.253	134.891	0.103	-0.132
-263.238	-200.000	-0.057	0.294
-262.224	-179.874	-0.219	0.005
-261.209	6.226	-0.133	-0.097
-260.195	23.121	0.089	0.072
-259.180	-118.901	0.141	-0.024
-258.165	-200.000	-0.001	-0.241
-257.151	239.075	0.079	-0.129
-256.136	323.619	-0.138	0.260
-255.122	-117.545	-0.169	0.030
-254.107	134.191	0.077	-0.098
-253.092	-148.473	0.248	0.020
-252.078	445.410	0.094	0.203
-251.063	90.724	0.119	-0.131
-250.049	-162.479	0.305	0.015
-249.034	800.000	0.050	-0.152
-248.019	123.684	0.016	0.020
-247.005	-55.522	0.230	-0.101
-245.990	-80.441	-0.221	-0.073
-244.976	800.000	0.049	-0.163
-243.961	85.063	-0.124	0.134
-242.946	73.869	0.207	0.214
-241.932	0.427	0.172	-0.121
-240.917	800.000	0.062	-0.179
-239.903	172.171	0.193	-0.273
-238.888	800.000	0.113	0.396
-237.873	708.921	0.117	-0.305
-236.859	503.690	-0.191	0.435
-235.844	800.000	-0.082	-0.303
-234.830	-12.794	-0.304	0.195
-233.815	-56.343	-0.286	0.125
-232.800	794.827	-0.110	-0.299
-231.786	-200.000	0.065	-0.321
-230.771	69.500	0.252	-0.255
-229.757	19.931	-0.247	-0.196
-228.742	62.196	0.401	0.394
-227.727	-76.462	0.268	-0.093
-226.713	-122.865	-0.188	0.030
-225.698	-181.683	0.373	-0.007
-224.684	-125.334	-0.289	0.043
-223.669	-69.491	-0.090	-0.034
-222.655	800.000	-0.102	0.298
-221.640	-8.705	0.387	0.256
-220.625	421.013	0.098	-0.207
-219.611	-151.390	0.114	0.008
-218.596	-58.787	-0.210	-0.090
-217.582	-200.000	-0.007	-0.117
-216.567	-200.000	-0.017	0.073
-215.552	-173.354	0.327	-0.010
-214.538	-5.381	-0.057	0.039
-213.523	800.000	-0.075	0.316
-212.509	187.159	0.217	0.318
-211.494	800.000	-0.166	-0.487
-210.479	147.598	0.254	0.336
-209.465	-19.251	0.177	0.108
-208.450	-7.520	0.140	0.093
-207.436	-161.778	-0.122	0.006
-206.421	-200.000	-0.009	-0.196
-205.406	-200.000	0.077	-0.345
-204.392	-83.425	0.290	0.091
-203.377	171.465	0.048	-0.067
-202.363	-9.014	-0.189	-0.124
-201.348	-69.756	0.252	-0.095
-200.333	800.000	-0.087	-0.298
-199.319	-200.000	0.024	0.177
-198.304	-79.165	-0.117	0.039
-197.290	99.826	0.155	-0.177
-196.275	-123.642	0.194	-0.030
-195.260	169.030	0.010	0.014
-194.246	67.638	0.238	0.239
-193.231	-200.000	-0.050	0.270
-192.217	-104.024	0.174	-0.040
-191.202	-81.793	0.162	-0.052
-190.187	-200.000	-0.014	0.288
-189.173	-80.925	-0.415	0.135
-188.158	263.280	-0.176	0.300
-187.144	53.516	0.190	0.179
-186.129	-200.000	-0.027	-0.151
-185.114	202.630	0.026	-0.039
-184.100	800.000	0.093	0.291
-183.085	-26.034	-0.155	-0.090
-182.071	238.040	0.161	-0.263
-181.056	573.266	0.130	-0.311
-180.042	-87.012	-0.369	0.110
-179.027	-111.947	-0.402	-0.080
-178.012	-172.832	0.203	0.006
-176.998	-44.187	-0.317	-0.156
-175.983	-200.000	0.037	-0.201
-174.969	-81.990	0.200	0.064
-173.954	112.743	-0.250	-0.297
-172.939	-63.241	0.072	0.029
-171.925	124.115	0.055	-0.068
-170.910	472.786	0.145	0.322
-169.896	-93.197	-0.130	0.035
-168.881	148.465	-0.101	0.134
-167.866	290.776	0.207	0.369
-166.852	209.947	0.080	0.123
-165.837	88.589	0.117	0.128
-164.823	55.877	0.144	-0.138
-163.808	-183.545	0.413	-0.007
-162.793	51.912	0.100	0.094
-161.779	133.988	-0.208	0.264
-160.764	8.783	0.251	-0.186
-159.750	9.248	-0.149	0.111
-158.735	126.145	-0.259	0.321
-157.720	344.621	0.097	-0.188
-156.706	-134.991	0.257	0.030
-155.691	-55.374	0.357	-0.158
-154.677	141.353	0.135	0.176
-153.662	-200.000	-0.042	0.275
-152.647	37.357	-0.058	-0.051
-151.633	34.836	-0.175	-0.151
-150.618	-200.000	0.011	-0.219
-149.604	-107.940	0.161	-0.034
-148.589	800.000	0.095	0.322
-147.574	142.502	0.176	-0.229
-146.560	-75.724	0.104	0.036
-145.545	-46.953	0.145	-0.070
-144.531	568.399	0.121	0.290
-143.516	-105.698	0.218	0.048
-142.502	-35.161	0.354	0.189
-141.487	-64.916	-0.306	0.121
-140.472	295.483	-0.087	-0.157
-139.458	-185.572	0.367	0.005
-138.443	-45.160	-0.344	-0.168
-137.429	12.001	0.042	-0.032
-136.414	-60.474	0.272	-0.113
-135.399	519.672	0.063	0.144
-134.385	288.561	0.061	0.108
-133.370	159.644	0.250	-0.341
-132.356	61.718	-0.209	-0.204
-131.341	127.274	-0.198	0.247
-130.326	800.000	-0.078	0.232
-129.312	-114.666	0.281	-0.053
-128.297	317.927	0.161	-0.299
-127.283	-168.536	0.225	0.008
-126.268	508.402	0.075	0.172
-125.253	-200.000	0.032	0.141
-124.239	14.446	0.029	-0.022
-123.224	233.955	0.182	0.294
-122.210	247.234	0.063	0.105
-121.195	800.000	0.086	-0.338
-120.180	-200.000	-0.001	-0.189
