DTS Sentinel unit serial number:	SN413079Multiplexer serial number:	ORYXHardware model number:	OX4-SRSoftware version number:	ORYX F/W v4.00 Oryx Data Collector v3.7.2.0data status	okinstallation	princeton_trtdifferential loss correction	single-endedforward channel	channel 2reverse channel	N/Adate	2019/09/10time	23:41:10forward acquisition time	60.00reverse acquisition time	0.00gamma	496.2192k internal	0.2331k external	0.2331temperature offset calibration	0.9945default loss term (dB/km)	0.3790temperature slope calibration	1.0000multiplexer offset coefficient	1.0000multiplexer slope coefficient	1.0000fibre end	0.00T internal ref (°C)	29.61T ext. ref 1 (°C)	-0.31T ext. ref 2 (°C)	22.95length (m)	temperature (°C)	Stokes	anti-Stokes-747.200	-200.000	0.041	-0.442
-746.185	-138.541	-0.141	-0.016
-745.171	-62.752	0.372	0.155
-744.156	418.726	-0.139	0.300
-743.142	-200.000	-0.051	0.356
-742.127	33.712	0.066	-0.058
-741.112	-200.000	0.010	0.255
-740.098	170.106	-0.233	0.335
-739.083	74.706	0.278	0.295
-738.069	34.799	-0.348	0.306
-737.054	780.927	-0.084	0.231
-736.039	107.270	-0.190	0.227
-735.025	536.565	0.052	0.125
-734.010	-80.291	-0.207	-0.070
-732.996	-17.333	0.123	0.078
-731.981	-124.108	-0.311	0.049
-730.966	14.203	0.120	-0.094
-729.952	800.000	0.074	-0.311
-728.937	800.000	0.073	-0.292
-727.923	153.873	-0.199	-0.274
-726.908	80.280	-0.103	0.112
-725.894	-181.871	0.278	-0.005
-724.879	93.867	0.045	-0.051
-723.864	-88.960	0.184	0.055
-722.850	18.295	-0.231	0.186
-721.835	-97.349	-0.421	-0.110
-720.821	-78.460	0.167	-0.057
-719.806	-200.000	-0.032	0.223
-718.791	-200.000	0.018	-0.138
-717.777	-92.747	-0.209	0.059
-716.762	-34.071	0.144	0.079
-715.748	254.837	0.146	0.251
-714.733	800.000	0.062	-0.187
-713.718	13.970	0.103	0.080
-712.704	230.667	-0.192	0.316
-711.689	14.753	0.156	-0.122
-710.675	-87.445	-0.433	0.132
-709.660	-66.555	-0.427	-0.170
-708.645	61.730	0.290	-0.291
-707.631	405.716	0.050	-0.106
-706.616	-74.262	-0.307	0.112
-705.602	-135.224	-0.475	0.057
-704.587	-75.052	0.168	0.060
-703.572	330.997	0.135	-0.261
-702.558	294.613	-0.148	0.272
-701.543	-79.676	0.193	0.065
-700.529	-19.790	-0.216	0.134
-699.514	-22.420	-0.197	0.120
-698.499	-120.353	-0.091	0.016
-697.485	133.401	-0.096	-0.125
-696.470	-110.593	0.233	0.048
-695.456	46.167	-0.186	0.174
-694.441	168.147	-0.079	0.113
-693.426	-120.321	-0.112	0.019
-692.412	15.764	-0.308	-0.244
-691.397	-200.000	-0.045	0.237
-690.383	-176.271	0.164	-0.004
-689.368	73.321	0.155	-0.163
-688.354	-10.571	0.146	0.097
-687.339	643.413	0.112	0.287
-686.324	-0.378	0.133	0.095
-685.310	-101.573	-0.077	0.019
-684.295	-132.518	0.348	-0.045
-683.281	146.362	-0.198	-0.266
-682.266	-200.000	-0.061	-0.319
-681.251	-195.592	-0.242	0.002
-680.237	643.156	-0.066	0.170
-679.222	-200.000	-0.035	-0.345
-678.208	325.628	0.078	-0.151
-677.193	369.078	0.083	0.168
-676.178	132.538	-0.061	-0.079
-675.164	-97.698	-0.187	0.049
-674.149	252.414	0.068	-0.116
-673.135	800.000	-0.049	0.193
-672.120	800.000	0.085	-0.315
-671.105	-58.320	-0.480	0.210
-670.091	227.458	0.129	-0.210
-669.076	142.525	-0.071	-0.095
-668.062	131.135	-0.125	0.161
-667.047	-64.490	-0.163	0.066
-666.032	-28.784	0.169	-0.097
-665.018	-200.000	0.009	-0.227
-664.003	9.884	0.162	0.123
-662.989	-18.230	-0.149	-0.093
-661.974	-38.501	-0.050	0.026
-660.959	67.064	-0.018	0.018
-659.945	-39.486	-0.405	-0.213
-658.930	126.142	-0.109	0.139
-657.916	9.180	0.118	-0.089
-656.901	-200.000	0.005	0.116
-655.886	-5.251	-0.184	0.127
-654.872	85.272	-0.228	-0.251
-653.857	799.964	-0.137	-0.379
-652.843	-90.111	-0.241	-0.070
-651.828	-140.364	-0.469	-0.049
-650.814	247.428	-0.103	-0.174
-649.799	-84.707	-0.371	-0.117
-648.784	-112.525	0.191	-0.038
-647.770	7.670	0.216	-0.162
-646.755	-102.840	-0.106	-0.025
-645.741	59.802	-0.080	0.080
-644.726	-200.000	0.028	-0.192
-643.711	57.420	0.181	0.178
-642.697	439.943	0.047	-0.103
-641.682	522.455	0.023	0.053
-640.668	-200.000	0.017	-0.198
-639.653	404.712	-0.142	-0.301
-638.638	-140.663	-0.359	-0.037
-637.624	16.591	-0.189	0.150
-636.609	430.987	0.067	0.146
-635.595	-15.522	-0.240	-0.154
-634.580	84.244	0.165	0.181
-633.565	-54.292	0.144	-0.065
-632.551	183.416	-0.046	0.068
-631.536	203.449	-0.134	0.207
-630.522	-47.912	0.064	0.031
-629.507	-69.014	0.284	-0.110
-628.492	416.208	0.059	-0.126
-627.478	29.255	-0.030	-0.026
-626.463	-200.000	0.023	-0.118
-625.449	-25.243	-0.192	-0.114
-624.434	46.337	-0.125	0.117
-623.419	-200.000	-0.010	-0.420
-622.405	-200.000	-0.011	-0.119
-621.390	717.832	-0.093	-0.248
-620.376	-108.749	0.138	-0.030
-619.361	-78.405	-0.372	0.128
-618.346	58.942	0.136	0.134
-617.332	36.940	-0.188	-0.166
-616.317	673.142	0.081	-0.210
-615.303	-22.825	-0.116	-0.070
-614.288	-200.000	0.014	-0.068
-613.273	-135.089	0.472	-0.057
-612.259	-49.528	0.116	0.055
-611.244	49.593	-0.020	-0.018
-610.230	-91.982	0.309	-0.088
-609.215	45.450	-0.046	0.043
-608.201	-94.581	-0.272	0.074
-607.186	-57.568	0.271	-0.119
-606.171	379.707	0.045	0.091
-605.157	220.231	0.156	-0.250
-604.142	100.749	0.170	0.198
-603.128	120.190	-0.117	0.146
-602.113	487.286	-0.084	-0.193
-601.098	800.000	0.018	-0.073
-600.084	437.626	0.069	-0.150
-599.069	-200.000	-0.010	0.118
-598.055	-200.000	0.020	-0.180
-597.040	-200.000	-0.452	0.000
-596.025	-95.270	0.085	-0.023
-595.011	81.142	0.152	0.164
-593.996	-137.337	-0.179	0.020
-592.982	69.607	-0.123	-0.127
-591.967	72.007	0.318	-0.331
-590.952	800.000	-0.037	0.160
-589.938	-21.806	-0.068	0.041
-588.923	-147.866	0.199	-0.017
-587.909	51.742	-0.166	-0.158
-586.894	800.000	-0.076	0.248
-585.879	800.000	-0.056	0.211
-584.865	-200.000	-0.003	-0.199
-583.850	-190.129	0.081	-0.001
-582.836	257.025	-0.113	0.194
-581.821	94.046	0.126	0.143
-580.806	226.199	-0.161	-0.261
-579.792	400.739	0.032	-0.068
-578.777	497.694	0.098	0.226
-577.763	-0.616	0.207	-0.147
-576.748	28.947	0.018	0.015
-575.733	-40.648	0.130	-0.067
-574.719	-73.580	-0.166	-0.060
-573.704	13.680	0.239	-0.186
-572.690	800.000	0.119	0.379
-571.675	800.000	-0.070	0.283
-570.661	5.099	0.200	-0.148
-569.646	-23.649	-0.358	-0.214
-568.631	-60.899	-0.227	0.096
-567.617	-200.000	0.039	0.425
-566.602	171.586	-0.048	0.068
-565.588	-60.207	0.197	-0.084
-564.573	-26.224	0.088	0.052
-563.558	-135.030	-0.224	-0.027
-562.544	37.766	-0.018	0.016
-561.529	-68.639	0.167	0.065
-560.515	-93.437	0.095	-0.026
-559.500	194.938	-0.049	0.075
-558.485	37.872	0.089	-0.079
-557.471	32.917	-0.175	-0.152
-556.456	-149.887	0.207	0.016
-555.442	445.225	-0.023	-0.050
-554.427	79.278	0.223	0.238
-553.412	86.665	0.013	-0.015
-552.398	96.338	-0.072	0.082
-551.383	394.020	-0.128	0.266
-550.369	-157.293	-0.214	-0.013
-549.354	-15.563	-0.420	-0.268
-548.339	-71.552	-0.525	0.196
-547.325	-200.000	-0.013	-0.144
-546.310	-200.000	-0.025	-0.159
-545.296	538.213	0.078	-0.184
-544.281	382.930	-0.014	0.028
-543.266	219.886	0.117	0.187
-542.252	-52.551	0.095	-0.044
-541.237	245.548	0.177	0.297
-540.223	800.000	-0.016	0.065
-539.208	-200.000	-0.026	0.249
-538.193	-200.000	-0.005	0.077
-537.179	20.515	-0.177	-0.143
-536.164	13.024	-0.328	-0.253
-535.150	-43.990	0.174	0.087
-534.135	-33.486	-0.237	-0.131
-533.121	800.000	-0.105	0.432
-532.106	-200.000	0.013	0.313
-531.091	-85.343	-0.078	0.024
-530.077	-200.000	-0.047	-0.295
-529.062	255.533	-0.082	-0.140
-528.048	-184.407	0.182	0.003
-527.033	203.822	0.100	-0.154
-526.018	1.774	0.458	-0.329
-525.004	-102.154	0.333	-0.080
-523.989	-79.549	0.088	0.030
-522.975	-200.000	0.011	0.053
-521.960	-106.616	0.238	0.053
-520.945	-54.140	0.105	0.048
-519.931	-150.587	0.126	-0.010
-518.916	800.000	-0.080	-0.258
-517.902	-6.004	-0.235	-0.160
-516.887	133.600	-0.198	0.255
-515.872	353.534	0.075	-0.148
-514.858	-70.505	-0.034	0.013
-513.843	-200.000	-0.030	0.234
-512.829	-84.036	0.193	0.061
-511.814	258.068	-0.105	-0.180
-510.799	-200.000	0.083	-0.430
-509.785	-200.000	0.000	0.289
-508.770	-107.960	-0.371	-0.080
-507.756	326.601	-0.063	-0.120
-506.741	12.443	-0.093	0.071
-505.726	436.323	-0.142	0.309
-504.712	800.000	-0.032	-0.140
-503.697	-200.000	0.031	0.164
-502.683	-92.475	-0.089	0.025
-501.668	-200.000	-0.002	-0.075
-500.653	0.270	0.091	0.065
-499.639	-122.777	-0.275	0.044
-498.624	0.915	0.067	-0.048
-497.610	-200.000	-0.015	-0.400
-496.595	301.725	-0.034	-0.063
-495.581	-28.118	-0.098	-0.056
-494.566	528.770	0.030	0.071
-493.551	-113.326	0.095	-0.019
-492.537	800.000	-0.034	-0.110
-491.522	-175.003	-0.165	0.005
-490.508	800.000	-0.029	-0.086
-489.493	603.181	0.127	-0.314
-488.478	-200.000	-0.006	0.187
-487.464	-37.671	-0.295	0.156
-486.449	139.517	0.149	-0.195
-485.435	-125.530	-0.268	-0.041
-484.420	-38.205	0.167	-0.088
-483.405	-200.000	0.029	0.263
-482.391	800.000	0.099	-0.360
-481.376	155.546	-0.034	0.047
-480.362	-196.667	-0.200	0.001
-479.347	-167.235	-0.118	-0.005
-478.332	-45.827	-0.114	0.056
-477.318	-200.000	0.018	0.134
-476.303	-200.000	-0.042	0.327
-475.289	-200.000	-0.024	-0.239
-474.274	-200.000	-0.010	0.205
-473.259	-200.000	0.020	0.093
-472.245	657.256	0.041	-0.105
-471.230	800.000	-0.072	0.216
-470.216	552.467	-0.167	0.400
-469.201	-34.165	0.298	0.163
-468.186	175.011	0.206	-0.296
-467.172	-200.000	-0.022	-0.396
-466.157	-81.472	0.154	-0.050
-465.143	98.498	-0.089	0.102
-464.128	-131.302	0.721	0.095
-463.113	22.382	-0.254	0.207
-462.099	800.000	0.059	0.178
-461.084	374.805	-0.116	0.236
-460.070	425.576	-0.078	0.167
-459.055	800.000	-0.082	0.347
-458.040	-46.848	-0.292	-0.142
-457.026	-104.894	0.202	-0.046
-456.011	-27.445	-0.030	-0.017
-454.997	-139.199	-0.111	-0.012
-453.982	-200.000	-0.035	-0.435
-452.968	193.373	0.152	-0.229
-451.953	-42.492	-0.253	0.128
-450.938	-126.972	-0.263	-0.038
-449.924	-92.384	-0.430	-0.120
-448.909	-200.000	0.027	-0.319
-447.895	-157.248	-0.079	0.005
-446.880	-100.797	-0.253	0.062
-445.865	612.705	-0.079	-0.197
-444.851	187.738	0.203	-0.302
-443.836	-5.100	0.121	-0.083
-442.822	232.652	0.081	-0.132
-441.807	-200.000	-0.013	0.220
-440.792	171.107	0.149	-0.213
-439.778	-16.305	-0.124	-0.078
-438.763	62.819	-0.106	0.105
-437.749	800.000	-0.079	0.229
-436.734	95.978	-0.095	0.108
-435.719	-116.579	-0.131	0.024
-434.705	59.755	-0.124	-0.122
-433.690	-200.000	-0.054	-0.249
-432.676	-109.118	0.068	0.014
-431.661	9.166	0.386	0.290
-430.646	-0.579	0.059	-0.041
-429.632	-69.465	-0.180	-0.069
-428.617	73.961	-0.060	-0.063
-427.603	79.764	-0.287	-0.306
-426.588	-75.907	0.155	-0.055
-425.573	721.477	-0.103	-0.273
-424.559	-16.545	-0.144	0.090
-423.544	-160.730	-0.205	-0.011
-422.530	223.501	-0.290	-0.464
-421.515	-142.136	0.223	-0.022
-420.500	-200.000	-0.016	-0.125
-419.486	-200.000	0.033	-0.188
-418.471	-153.367	0.152	0.011
-417.457	-111.718	0.229	-0.046
-416.442	-15.075	-0.033	-0.021
-415.428	-35.308	0.169	-0.091
-414.413	263.969	0.212	0.366
-413.398	228.516	-0.112	-0.182
-412.384	-14.400	0.174	-0.111
-411.369	-59.091	0.247	0.106
-410.355	-200.000	0.118	-0.570
-409.340	97.474	-0.146	0.166
-408.325	123.475	-0.135	0.169
-407.311	800.000	-0.052	-0.210
-406.296	627.687	0.145	0.363
-405.282	-173.642	0.340	-0.010
-404.267	-81.902	0.340	-0.110
-403.252	102.925	-0.137	-0.159
-402.238	474.189	-0.056	0.126
-401.223	97.524	-0.204	-0.233
-400.209	-1.057	0.127	-0.089
-399.194	-33.770	-0.264	0.144
-398.179	-200.000	0.010	0.065
-397.165	335.083	-0.122	-0.235
-396.150	-13.582	0.269	0.173
-395.136	-18.339	-0.296	0.183
-394.121	-12.285	-0.128	0.083
-393.106	-7.414	0.032	-0.022
-392.092	118.551	-0.096	0.118
-391.077	-4.191	0.315	0.217
-390.063	-200.000	0.035	0.170
-389.048	-85.206	-0.321	0.100
-388.033	800.000	-0.021	0.071
-387.019	243.238	-0.084	-0.140
-386.004	-158.643	0.029	0.002
-384.990	-24.031	-0.089	0.053
-383.975	183.615	0.044	0.065
-382.960	86.944	0.153	-0.168
-381.946	314.901	0.131	0.245
-380.931	453.794	0.097	0.214
-379.917	-29.939	-0.109	-0.061
-378.902	-162.797	-0.098	-0.005
-377.888	-200.000	-0.003	-0.243
-376.873	-65.615	0.207	-0.082
-375.858	-95.555	0.227	0.060
-374.844	-35.779	0.139	-0.075
-373.829	-110.925	0.114	-0.023
-372.815	-56.625	0.123	-0.054
-371.800	-75.074	0.344	0.122
-370.785	94.891	0.249	0.281
-369.771	800.000	0.024	-0.083
-368.756	-179.296	-0.189	-0.004
-367.742	-168.864	0.151	-0.006
-366.727	197.641	-0.047	-0.072
-365.712	34.826	-0.325	0.282
-364.698	664.659	0.140	0.358
-363.683	363.969	0.100	-0.199
-362.669	800.000	0.045	-0.149
-361.654	-27.651	0.131	0.075
-360.639	316.462	-0.166	-0.311
-359.625	348.980	-0.079	-0.155
-358.610	-200.000	-0.041	0.224
-357.596	19.492	0.321	-0.256
-356.581	0.239	-0.243	-0.172
-355.566	134.506	0.051	0.066
-354.552	170.814	0.079	-0.113
-353.537	800.000	0.057	0.178
-352.523	-156.332	-0.609	0.038
-351.508	-15.822	-0.157	-0.099
-350.493	-52.452	-0.472	-0.216
-349.479	-23.877	0.168	-0.100
-348.464	-36.846	0.199	-0.106
-347.450	-200.000	-0.001	-0.359
-346.435	800.000	-0.013	0.049
-345.420	-200.000	0.013	-0.141
-344.406	45.610	-0.069	-0.063
-343.391	-162.070	0.083	0.004
-342.377	258.081	0.111	0.189
-341.362	47.268	0.085	0.079
-340.348	-121.983	0.261	-0.043
-339.333	62.671	0.023	-0.023
-338.318	105.367	0.074	0.087
-337.304	-102.678	0.112	-0.026
-336.289	-98.245	-0.222	-0.056
-335.275	800.000	0.070	0.277
-334.260	-200.000	-0.028	0.142
-333.245	-54.999	0.151	0.067
-332.231	-89.016	0.123	0.036
-331.216	800.000	-0.017	-0.048
-330.202	-69.368	0.102	-0.039
-329.187	-16.596	0.254	0.160
-328.172	322.846	0.090	0.170
-327.158	70.835	-0.201	-0.207
-326.143	800.000	0.096	0.298
-325.129	-83.548	0.464	0.147
-324.114	-200.000	-0.071	-0.478
-323.099	-200.000	0.013	0.181
-322.085	231.451	0.158	0.257
-321.070	-115.371	0.145	0.027
-320.056	146.479	-0.158	0.210
-319.041	53.616	-0.096	-0.092
-318.026	41.424	0.284	-0.254
-317.012	-33.690	0.348	0.190
-315.997	-200.000	0.007	0.075
-314.983	-59.072	0.107	0.046
-313.968	55.975	0.171	-0.164
-312.953	-110.814	-0.307	0.063
-311.939	-92.022	-0.129	-0.036
-310.924	-36.941	0.251	-0.133
-309.910	-200.000	0.072	0.339
-308.895	449.138	-0.264	0.576
-307.880	-165.371	0.243	-0.011
-306.866	-105.906	-0.264	0.059
-305.851	-110.120	-0.245	0.051
-304.837	-167.173	-0.048	0.002
-303.822	-94.047	0.366	0.099
-302.807	800.000	-0.081	0.335
-301.793	-60.649	-0.468	-0.196
-300.778	181.448	-0.075	-0.109
-299.764	-200.000	-0.007	0.542
-298.749	241.457	0.081	0.135
-297.735	130.996	0.289	-0.367
-296.720	-200.000	0.059	-0.271
-295.705	103.441	-0.141	0.164
-294.691	-85.094	0.168	0.052
-293.676	5.110	0.055	-0.040
-292.662	519.801	0.042	-0.096
-291.647	34.548	-0.258	-0.223
-290.632	-0.275	-0.136	0.095
-289.618	-86.838	0.176	-0.053
-288.603	-200.000	-0.053	0.306
-287.589	17.619	0.240	0.189
-286.574	-102.525	-0.252	-0.060
-285.559	-200.000	-0.027	-0.173
-284.545	249.582	-0.068	-0.114
-283.530	56.698	-0.178	0.171
-282.516	205.228	-0.136	-0.209
-281.501	146.002	0.189	-0.250
-280.486	672.690	0.077	0.198
-279.472	800.000	-0.082	0.278
-278.457	800.000	-0.056	0.228
-277.443	103.904	-0.101	-0.117
-276.428	-158.216	-0.442	0.026
-275.413	255.669	0.097	0.164
-274.399	-10.301	0.195	-0.128
-273.384	-43.062	-0.268	0.134
-272.370	-75.774	-0.311	0.109
-271.355	-132.873	0.210	-0.026
-270.340	800.000	-0.079	-0.215
-269.326	261.417	0.029	0.050
-268.311	608.598	0.105	0.260
-267.297	97.342	0.166	-0.188
-266.282	-66.599	0.226	0.089
-265.267	-200.000	-0.020	0.302
-264.253	-47.730	0.160	0.077
-263.238	-62.358	0.196	0.081
-262.224	308.527	0.111	0.205
-261.209	-20.684	0.137	-0.083
-260.195	28.689	0.219	-0.183
-259.180	-19.744	0.298	-0.182
-258.165	473.964	-0.100	0.224
-257.151	800.000	-0.019	0.074
-256.136	-200.000	0.026	-0.165
-255.122	-31.009	0.247	-0.138
-254.107	263.072	0.142	-0.244
-253.092	213.287	0.033	-0.052
-252.078	-21.251	0.243	-0.147
-251.063	95.919	0.173	0.195
-250.049	-136.282	0.338	0.039
-249.034	100.250	-0.251	0.287
-248.019	-200.000	-0.083	0.395
-247.005	37.872	-0.213	0.187
-245.990	123.414	-0.127	-0.157
-244.976	4.341	-0.199	0.144
-243.961	-61.070	0.313	-0.130
-242.946	257.779	0.033	-0.056
-241.932	111.879	0.221	-0.264
-240.917	-145.155	-0.190	0.017
-239.903	152.852	-0.113	-0.153
-238.888	681.913	0.219	0.563
-237.873	-200.000	-0.008	0.221
-236.859	237.282	-0.121	0.198
-235.844	800.000	-0.006	-0.016
-234.830	-105.783	0.344	0.077
-233.815	195.318	0.032	0.048
-232.800	32.340	-0.193	0.165
-231.786	0.997	-0.103	-0.073
-230.771	-200.000	-0.026	-0.216
-229.757	-55.020	-0.373	0.166
-228.742	-71.567	-0.164	0.061
-227.727	-148.327	0.165	-0.013
-226.713	-79.239	-0.085	-0.028
-225.698	-200.000	-0.017	-0.131
-224.684	-200.000	-0.067	-0.332
-223.669	-200.000	0.033	-0.448
-222.655	71.494	0.150	-0.153
-221.640	-108.078	0.145	-0.031
-220.625	108.090	-0.196	-0.230
-219.611	-96.685	-0.233	0.061
-218.596	-85.148	0.419	-0.129
-217.582	-200.000	0.044	-0.323
-216.567	-104.030	0.165	0.038
-215.552	-32.032	-0.389	0.215
-214.538	426.604	-0.062	-0.132
-213.523	-22.922	-0.108	0.064
-212.509	-85.457	0.086	0.027
-211.494	741.571	0.024	-0.064
-210.479	16.932	-0.195	-0.152
-209.465	17.351	-0.114	-0.089
-208.450	31.650	-0.199	-0.169
-207.436	-152.649	0.386	-0.027
-206.421	-122.348	0.156	0.025
-205.406	-113.960	-0.259	0.050
-204.392	-200.000	0.021	-0.146
-203.377	16.108	-0.084	-0.065
-202.363	-14.116	0.135	-0.086
-201.348	-0.427	-0.281	-0.197
-200.333	-24.067	-0.131	0.077
-199.319	-200.000	0.062	0.319
-198.304	-146.594	-0.520	-0.044
-197.290	132.066	-0.251	0.318
-196.275	-39.337	-0.296	0.153
-195.260	-54.722	-0.109	0.048
-194.246	-189.609	-0.273	0.003
-193.231	59.596	-0.133	-0.129
-192.217	-83.551	-0.166	-0.052
-191.202	86.823	0.170	0.185
-190.187	30.109	0.315	-0.264
-189.173	-105.830	-0.376	-0.084
-188.158	-46.832	0.133	0.064
-187.144	-200.000	-0.008	-0.147
-186.129	-70.550	0.156	-0.058
-185.114	199.731	0.140	-0.211
-184.100	261.950	0.093	0.159
-183.085	25.492	-0.068	-0.056
-182.071	18.956	0.241	0.190
-181.056	38.854	0.229	0.202
-180.042	-200.000	-0.031	0.196
-179.027	-200.000	0.032	0.218
-178.012	346.764	-0.124	-0.241
-176.998	294.064	-0.088	-0.157
-175.983	-112.540	0.154	0.030
-174.969	-113.466	0.168	-0.032
-173.954	-200.000	0.042	0.239
-172.939	-58.516	0.188	0.080
-171.925	-137.644	-0.123	0.014
-170.910	65.663	0.216	-0.216
-169.896	150.210	-0.151	0.201
-168.881	-161.084	0.346	0.018
-167.866	-200.000	-0.023	0.158
-166.852	142.617	-0.142	-0.185
-165.837	267.322	0.234	0.402
-164.823	-200.000	0.003	-0.138
-163.808	-200.000	0.008	-0.040
-162.793	27.950	-0.097	0.081
-161.779	3.911	0.133	0.096
-160.764	-14.009	-0.066	-0.042
-159.750	65.735	-0.056	-0.055
-158.735	211.538	0.041	-0.063
-157.720	-19.989	-0.281	0.171
-156.706	106.707	-0.144	0.168
-155.691	800.000	0.018	-0.064
-154.677	61.215	0.256	0.250
-153.662	-200.000	-0.016	0.191
-152.647	727.201	-0.111	0.291
-151.633	141.713	-0.086	0.113
-150.618	146.345	-0.144	-0.190
-149.604	-54.748	0.141	-0.062
-148.589	18.031	-0.123	-0.097
-147.574	-68.336	0.407	-0.156
-146.560	-200.000	-0.036	0.166
-145.545	26.990	-0.171	-0.141
-144.531	-142.978	0.139	0.013
-143.516	800.000	-0.079	-0.224
-142.502	-7.498	0.141	-0.094
-141.487	56.410	0.090	0.086
-140.472	128.572	0.038	0.048
-139.458	286.331	-0.039	-0.069
-138.443	-150.830	0.422	-0.031
-137.429	511.350	0.005	0.011
-136.414	800.000	-0.035	0.151
-135.399	-44.961	-0.262	0.128
-134.385	39.406	0.305	-0.269
-133.370	-32.865	0.115	-0.063
-132.356	264.148	-0.104	0.178
-131.341	502.246	-0.095	0.216
-130.326	-31.328	-0.211	-0.117
-129.312	-129.612	0.452	-0.061
-128.297	154.743	-0.106	-0.143
-127.283	-21.875	0.161	0.096
-126.268	150.683	0.029	0.039
-125.253	45.210	0.086	0.078
-124.239	408.389	0.114	0.236
-123.224	47.560	-0.209	-0.191
-122.210	-20.419	-0.066	0.040
-121.195	33.836	-0.163	0.139
