DTS Sentinel unit serial number:	SN413079Multiplexer serial number:	ORYXHardware model number:	OX4-SRSoftware version number:	ORYX F/W v4.00 Oryx Data Collector v3.7.2.0data status	okinstallation	princeton_trtdifferential loss correction	single-endedforward channel	channel 2reverse channel	N/Adate	2019/09/17time	10:19:34forward acquisition time	60.00reverse acquisition time	0.00gamma	496.2192k internal	0.2326k external	0.2326temperature offset calibration	0.9974default loss term (dB/km)	0.3790temperature slope calibration	1.0000multiplexer offset coefficient	1.0000multiplexer slope coefficient	1.0000fibre end	0.00T internal ref (°C)	29.86T ext. ref 1 (°C)	0.18T ext. ref 2 (°C)	25.46length (m)	temperature (°C)	Stokes	anti-Stokes-747.200	-200.000	-0.050	0.382
-746.185	-200.000	0.037	0.314
-745.171	86.592	0.127	0.141
-744.156	-30.411	0.305	0.174
-743.142	-117.974	0.129	-0.023
-742.127	-101.299	0.070	0.017
-741.112	20.491	-0.179	0.146
-740.098	-200.000	0.078	0.378
-739.083	-133.882	0.140	-0.018
-738.069	0.957	-0.394	0.285
-737.054	800.000	-0.055	-0.210
-736.039	33.536	-0.231	0.202
-735.025	-72.866	0.207	0.077
-734.010	-95.297	-0.238	-0.065
-732.996	-120.412	-0.382	-0.066
-731.981	-150.968	-0.295	-0.022
-730.966	-200.000	-0.032	0.145
-729.952	-111.361	-0.034	0.007
-728.937	-200.000	0.001	0.013
-727.923	427.286	0.160	0.349
-726.908	-89.372	-0.148	-0.044
-725.894	321.369	-0.125	-0.240
-724.879	-43.962	0.225	-0.114
-723.864	-43.094	-0.453	0.231
-722.850	257.918	-0.120	0.209
-721.835	372.676	-0.117	-0.239
-720.821	-86.761	-0.195	-0.060
-719.806	-200.000	-0.027	-0.146
-718.791	-81.757	-0.234	-0.077
-717.777	-54.881	-0.278	-0.126
-716.762	234.973	-0.233	-0.387
-715.748	254.623	-0.226	0.390
-714.733	24.222	-0.362	0.302
-713.718	800.000	-0.031	0.115
-712.704	-200.000	0.033	-0.224
-711.689	258.263	-0.045	0.078
-710.675	-200.000	0.011	-0.440
-709.660	-107.651	0.140	0.031
-708.645	-200.000	0.022	0.102
-707.631	800.000	0.027	-0.093
-706.616	76.280	-0.154	-0.165
-705.602	-66.936	-0.203	0.081
-704.587	-72.060	0.221	-0.083
-703.572	117.814	0.101	-0.126
-702.558	-30.755	-0.079	0.045
-701.543	209.868	0.305	-0.482
-700.529	800.000	-0.021	0.069
-699.514	73.699	-0.415	-0.437
-698.499	-50.384	0.236	-0.112
-697.485	-200.000	0.013	0.293
-696.470	35.140	-0.223	0.197
-695.456	-74.320	0.209	0.076
-694.441	-96.085	0.127	-0.034
-693.426	800.000	-0.075	0.324
-692.412	-200.000	0.026	0.141
-691.397	75.038	-0.183	0.194
-690.383	93.633	-0.145	-0.166
-689.368	233.568	0.102	0.169
-688.354	800.000	-0.015	-0.063
-687.339	-5.488	0.170	-0.117
-686.324	-200.000	-0.023	-0.171
-685.310	-92.959	-0.326	-0.092
-684.295	150.679	-0.060	-0.082
-683.281	-102.686	-0.288	0.069
-682.266	335.615	0.069	0.134
-681.251	311.096	-0.187	0.353
-680.237	800.000	-0.071	0.244
-679.222	-135.786	-0.216	-0.026
-678.208	-52.480	0.051	0.024
-677.193	-83.198	-0.180	0.058
-676.178	-52.120	-0.196	-0.091
-675.164	-200.000	0.043	-0.272
-674.149	51.754	0.219	0.210
-673.135	564.186	-0.110	-0.268
-672.120	800.000	-0.047	0.178
-671.105	-29.926	-0.040	-0.023
-670.091	-46.932	-0.074	0.036
-669.076	20.264	0.154	0.125
-668.062	113.234	0.111	-0.135
-667.047	-200.000	-0.044	-0.236
-666.032	273.623	-0.102	-0.181
-665.018	731.471	0.029	0.079
-664.003	-192.846	-0.190	0.002
-662.989	-200.000	-0.044	0.249
-661.974	-52.349	-0.341	0.159
-660.959	8.456	-0.230	-0.174
-659.945	-200.000	-0.029	0.197
-658.930	17.792	-0.065	-0.052
-657.916	624.064	-0.161	0.408
-656.901	45.006	-0.014	0.013
-655.886	-134.676	-0.268	0.033
-654.872	65.805	-0.183	-0.187
-653.857	-200.000	0.012	-0.057
-652.843	-156.707	0.157	-0.010
-651.828	-200.000	0.030	0.000
-650.814	-86.435	0.206	0.064
-649.799	-13.173	-0.071	0.046
-648.784	-115.924	-0.339	-0.064
-647.770	-100.048	0.150	-0.038
-646.755	-200.000	-0.009	0.075
-645.741	168.979	0.127	0.181
-644.726	136.409	-0.128	-0.168
-643.711	800.000	-0.085	0.334
-642.697	800.000	0.114	0.380
-641.682	-146.904	-0.086	-0.007
-640.668	-34.604	0.258	-0.142
-639.653	-91.527	0.189	-0.054
-638.638	13.844	-0.197	0.154
-637.624	-200.000	-0.019	-0.373
-636.609	-135.066	-0.174	0.021
-635.595	-23.495	-0.136	0.082
-634.580	-3.909	0.165	-0.115
-633.565	-200.000	-0.013	-0.188
-632.551	244.980	0.091	-0.153
-631.536	-200.000	0.011	-0.204
-630.522	800.000	-0.020	0.084
-629.507	-96.510	-0.256	-0.068
-628.492	168.185	-0.106	0.152
-627.478	-51.734	0.276	-0.129
-626.463	-200.000	-0.019	-0.116
-625.449	18.204	-0.100	-0.080
-624.434	-51.270	-0.322	-0.151
-623.419	-86.156	-0.303	-0.094
-622.405	800.000	-0.095	0.370
-621.390	417.738	-0.042	-0.089
-620.376	128.706	-0.162	0.207
-619.361	442.523	-0.093	0.203
-618.346	-200.000	-0.010	-0.071
-617.332	-85.398	0.131	-0.041
-616.317	39.140	-0.475	-0.427
-615.303	348.006	-0.089	0.176
-614.288	-164.654	0.280	-0.013
-613.273	1.482	0.218	-0.157
-612.259	-35.321	0.199	-0.108
-611.244	-200.000	0.027	-0.133
-610.230	800.000	-0.071	0.197
-609.215	-7.411	0.162	0.110
-608.201	-2.117	0.191	-0.134
-607.186	-46.193	0.162	-0.080
-606.171	-62.669	-0.356	-0.148
-605.157	259.495	0.073	0.126
-604.142	-47.361	-0.089	-0.043
-603.128	771.939	0.114	-0.313
-602.113	-186.874	-0.272	-0.004
-601.098	-137.910	0.112	-0.012
-600.084	178.639	0.098	-0.143
-599.069	100.923	-0.118	-0.138
-598.055	12.815	-0.193	0.150
-597.040	-200.000	0.030	-0.187
-596.025	233.148	0.172	0.283
-595.011	-107.949	0.328	0.071
-593.996	-91.006	0.145	-0.042
-592.982	22.875	-0.183	0.150
-591.967	221.040	-0.126	-0.203
-590.952	-89.649	0.162	0.048
-589.938	69.114	-0.310	-0.320
-588.923	-118.243	-0.189	0.034
-587.909	86.788	0.129	-0.143
-586.894	-200.000	-0.006	0.228
-585.879	13.821	-0.172	0.134
-584.865	191.338	0.259	0.391
-583.850	-110.965	0.263	-0.054
-582.836	-39.202	0.082	-0.043
-581.821	349.175	0.103	0.204
-580.806	-200.000	-0.063	-0.400
-579.792	800.000	0.113	-0.399
-578.777	85.351	0.056	0.061
-577.763	-120.374	-0.172	-0.029
-576.748	-143.479	-0.410	0.039
-575.733	532.352	0.082	-0.195
-574.719	258.277	0.025	0.043
-573.704	273.701	-0.063	0.111
-572.690	29.704	-0.187	-0.160
-571.675	1.171	-0.161	0.116
-570.661	122.729	-0.311	0.389
-569.646	800.000	0.005	0.019
-568.631	95.906	0.065	-0.074
-567.617	-200.000	0.005	0.201
-566.602	-200.000	-0.025	0.229
-565.588	5.152	0.250	-0.185
-564.573	-200.000	0.002	-0.197
-563.558	-200.000	-0.002	-0.021
-562.544	-43.197	0.367	-0.186
-561.529	123.285	-0.069	-0.087
-560.515	22.898	-0.243	0.199
-559.500	-113.165	-0.196	0.039
-558.485	623.877	0.120	-0.302
-557.471	-200.000	-0.061	-0.385
-556.456	-37.989	-0.085	-0.045
-555.442	-66.557	0.142	-0.056
-554.427	-164.755	-0.248	-0.011
-553.412	800.000	-0.078	-0.293
-552.398	94.142	-0.131	-0.149
-551.383	-6.070	0.199	0.136
-550.369	307.408	-0.056	0.105
-549.354	800.000	0.044	-0.143
-548.339	800.000	-0.081	-0.282
-547.325	-8.702	0.138	0.093
-546.310	-197.643	-0.104	-0.001
-545.296	800.000	-0.035	-0.117
-544.281	800.000	-0.053	-0.182
-543.266	-1.660	-0.264	-0.186
-542.252	37.786	0.107	-0.095
-541.237	433.157	-0.129	0.280
-540.223	-200.000	0.004	0.034
-539.208	21.367	0.142	0.116
-538.193	397.852	0.117	0.246
-537.179	24.848	-0.093	-0.077
-536.164	12.121	-0.051	-0.039
-535.150	603.130	-0.074	-0.185
-534.135	-27.708	0.155	-0.090
-533.121	-16.001	-0.191	-0.122
-532.106	-76.950	0.107	0.037
-531.091	423.789	0.038	-0.081
-530.077	-141.542	-0.284	-0.029
-529.062	12.707	0.237	0.183
-528.048	-200.000	0.026	0.160
-527.033	-200.000	-0.028	0.143
-526.018	-173.323	0.153	-0.005
-525.004	222.840	0.102	-0.165
-523.989	100.045	-0.257	-0.298
-522.975	71.956	0.257	-0.267
-521.960	353.110	-0.074	0.147
-520.945	118.556	0.139	0.172
-519.931	26.606	-0.208	0.174
-518.916	-137.460	-0.195	-0.022
-517.902	800.000	-0.118	-0.364
-516.887	800.000	-0.013	0.045
-515.872	-200.000	0.036	-0.188
-514.858	-31.627	-0.067	0.038
-513.843	264.771	0.101	-0.176
-512.829	-139.146	0.126	-0.014
-511.814	97.021	-0.212	0.243
-510.799	800.000	-0.023	0.099
-509.785	50.664	-0.083	0.078
-508.770	-147.458	0.231	-0.020
-507.756	184.060	0.078	0.116
-506.741	-200.000	0.003	0.124
-505.726	532.038	-0.078	0.185
-504.712	82.891	0.173	-0.188
-503.697	-45.237	-0.150	0.075
-502.683	72.718	-0.077	-0.080
-501.668	715.119	0.106	-0.282
-500.653	141.342	0.111	-0.147
-499.639	197.379	0.096	-0.146
-498.624	-167.260	0.256	-0.010
-497.610	800.000	0.130	0.406
-496.595	-144.128	-0.225	-0.021
-495.581	800.000	-0.025	0.098
-494.566	-19.063	-0.139	0.086
-493.551	-200.000	-0.011	0.395
-492.537	-200.000	0.042	-0.320
-491.522	-105.686	0.074	-0.017
-490.508	800.000	-0.098	-0.403
-489.493	102.757	0.228	-0.267
-488.478	800.000	0.040	0.127
-487.464	-4.227	0.039	-0.027
-486.449	-17.308	-0.193	0.121
-485.435	-11.553	0.117	0.077
-484.420	39.626	0.149	0.134
-483.405	81.342	0.218	-0.235
-482.391	-200.000	-0.048	0.273
-481.376	136.657	-0.151	-0.197
-480.362	-93.674	-0.124	-0.034
-479.347	234.287	-0.109	0.179
-478.332	-121.527	0.180	0.030
-477.318	553.651	-0.029	0.069
-476.303	-200.000	-0.005	-0.256
-475.289	215.566	-0.110	-0.174
-474.274	-142.485	0.114	0.011
-473.259	216.895	0.106	-0.169
-472.245	-200.000	0.042	-0.227
-471.230	800.000	0.077	-0.233
-470.216	50.653	0.056	-0.053
-469.201	-145.807	0.245	0.022
-468.186	800.000	0.103	-0.330
-467.172	49.167	-0.158	0.148
-466.157	465.810	0.044	-0.098
-465.143	581.943	0.067	0.165
-464.128	800.000	-0.071	0.227
-463.113	-96.401	0.303	-0.080
-462.099	-200.000	0.321	0.000
-461.084	-3.234	-0.254	-0.177
-460.070	60.015	0.075	0.074
-459.055	-200.000	0.005	0.120
-458.040	639.431	-0.114	-0.288
-457.026	104.900	0.048	0.056
-456.011	-148.170	-0.082	0.007
-454.997	-7.726	0.123	0.083
-453.982	259.772	-0.203	0.350
-452.968	259.058	0.116	0.200
-451.953	16.137	0.166	0.130
-450.938	-200.000	0.071	-0.471
-449.924	800.000	0.060	0.186
-448.909	-102.346	0.123	-0.029
-447.895	-65.954	0.237	-0.095
-446.880	-148.822	0.325	0.026
-445.865	537.081	-0.083	-0.197
-444.851	35.205	0.196	0.171
-443.836	800.000	0.017	0.058
-442.822	-200.000	-0.027	0.257
-441.807	-60.919	-0.131	0.055
-440.792	-82.301	0.320	0.104
-439.778	303.657	-0.123	0.227
-438.763	-96.033	0.070	0.019
-437.749	-200.000	-0.008	-0.046
-436.734	-200.000	-0.029	0.317
-435.719	-28.123	-0.135	0.078
-434.705	-112.087	0.077	-0.015
-433.690	-98.773	0.079	-0.020
-432.676	-43.472	-0.173	-0.087
-431.661	-128.618	0.257	-0.036
-430.646	127.663	0.215	-0.273
-429.632	800.000	0.026	0.075
-428.617	-120.618	0.205	0.035
-427.603	41.160	0.262	0.236
-426.588	-200.000	-0.019	-0.246
-425.573	-160.123	0.048	-0.003
-424.559	-144.689	-0.565	-0.052
-423.544	350.959	-0.113	-0.222
-422.530	-123.165	-0.257	-0.041
-421.515	-191.803	-0.172	0.002
-420.500	-200.000	0.027	-0.186
-419.486	-110.438	0.262	-0.054
-418.471	539.585	-0.040	-0.096
-417.457	-200.000	-0.014	0.160
-416.442	-200.000	0.015	0.147
-415.428	-31.718	-0.252	-0.141
-414.413	800.000	0.021	0.083
-413.398	56.868	0.336	-0.326
-412.384	161.896	-0.148	-0.207
-411.369	800.000	-0.072	0.297
-410.355	293.913	0.070	0.127
-409.340	159.785	-0.114	-0.158
-408.325	-187.784	0.099	0.001
-407.311	3.265	-0.200	-0.145
-406.296	-28.290	0.102	-0.059
-405.282	427.457	-0.056	-0.120
-404.267	800.000	0.040	0.112
-403.252	-59.958	0.142	-0.061
-402.238	-200.000	-0.019	0.177
-401.223	-200.000	-0.021	0.241
-400.209	-113.465	-0.239	-0.047
-399.194	800.000	-0.063	0.181
-398.179	-156.464	-0.065	-0.004
-397.165	-200.000	0.023	0.258
-396.150	-200.000	0.038	0.164
-395.136	84.490	0.220	0.240
-394.121	129.628	0.070	0.089
-393.106	322.506	0.021	-0.039
-392.092	-200.000	-0.027	-0.170
-391.077	800.000	-0.004	0.011
-390.063	800.000	-0.171	-0.596
-389.048	800.000	-0.052	-0.215
-388.033	-200.000	-0.025	0.177
-387.019	269.346	-0.127	-0.223
-386.004	510.558	0.135	-0.312
-384.990	277.296	0.177	-0.313
-383.975	315.830	0.097	0.182
-382.960	-92.415	0.340	0.095
-381.946	289.929	-0.084	0.151
-380.931	0.615	0.357	0.254
-379.917	-62.606	-0.137	0.057
-378.902	-89.910	-0.207	-0.060
-377.888	-61.579	0.305	0.127
-376.873	-200.000	0.043	0.217
-375.858	-70.848	0.158	-0.059
-374.844	285.426	-0.049	-0.087
-373.829	197.930	-0.207	0.314
-372.815	-162.854	-0.323	0.016
-371.800	150.598	-0.197	0.266
-370.785	-169.092	-0.063	-0.002
-369.771	-48.172	0.043	0.021
-368.756	-200.000	-0.034	-0.365
-367.742	-138.937	-0.290	-0.031
-366.727	-100.903	0.395	0.096
-365.712	-144.345	-0.249	-0.023
-364.698	-53.344	0.159	-0.072
-363.683	-200.000	0.035	-0.212
-362.669	-42.008	-0.171	0.087
-361.654	95.170	0.147	0.166
-360.639	773.980	-0.052	-0.140
-359.625	-200.000	0.187	0.000
-358.610	190.209	0.038	0.057
-357.596	-200.000	0.034	0.322
-356.581	-41.392	0.326	0.167
-355.566	-53.766	-0.101	0.046
-354.552	5.849	0.382	-0.281
-353.537	363.284	0.183	-0.365
-352.523	-145.297	-0.361	0.032
-351.508	77.282	-0.067	-0.071
-350.493	800.000	-0.101	-0.365
-349.479	-200.000	-0.009	0.100
-348.464	-43.763	0.172	-0.086
-347.450	32.262	-0.284	0.243
-346.435	-200.000	-0.017	0.138
-345.420	800.000	-0.025	-0.101
-344.406	-116.868	-0.118	-0.021
-343.391	-200.000	-0.014	0.133
-342.377	182.140	0.063	-0.093
-341.362	-200.000	0.004	0.062
-340.348	-129.016	0.041	-0.006
-339.333	-200.000	0.039	0.294
-338.318	137.052	-0.053	-0.069
-337.304	-33.520	0.037	-0.021
-336.289	-130.580	-0.130	0.017
-335.275	-13.375	-0.189	0.122
-334.260	-179.557	-0.139	0.003
-333.245	-200.000	0.031	-0.312
-332.231	-186.815	-0.092	-0.001
-331.216	-200.000	0.018	-0.217
-330.202	-99.308	-0.177	-0.044
-329.187	-200.000	0.005	0.201
-328.172	-1.543	-0.216	0.151
-327.158	-20.349	0.459	-0.280
-326.143	-19.844	-0.040	0.025
-325.129	107.326	-0.232	0.274
-324.114	-135.429	-0.230	0.027
-323.099	48.647	-0.277	-0.258
-322.085	5.196	0.111	-0.081
-321.070	-16.262	0.163	-0.103
-320.056	-200.000	-0.002	0.167
-319.041	219.066	0.061	0.097
-318.026	-200.000	0.003	0.445
-317.012	781.323	0.016	0.045
-315.997	25.711	-0.059	-0.048
-314.983	-27.079	-0.154	-0.089
-313.968	-59.136	0.078	0.033
-312.953	68.888	0.065	-0.066
-311.939	800.000	-0.053	0.149
-310.924	-110.804	-0.303	-0.062
-309.910	-128.452	-0.195	0.027
-308.895	92.330	0.166	0.185
-307.880	89.852	-0.090	-0.100
-306.866	-38.704	-0.024	0.013
-305.851	-113.571	0.332	0.064
-304.837	51.447	0.080	0.076
-303.822	-39.786	0.127	0.066
-302.807	411.418	-0.082	0.173
-301.793	23.249	0.220	0.179
-300.778	212.485	-0.066	0.104
-299.764	-85.651	0.104	0.032
-298.749	-37.054	0.090	-0.048
-297.735	-47.107	0.196	-0.095
-296.720	-200.000	0.011	0.063
-295.705	66.541	0.243	0.245
-294.691	-200.000	0.006	-0.059
-293.676	800.000	0.033	0.119
-292.662	-43.817	-0.099	0.050
-291.647	180.009	0.105	0.153
-290.632	800.000	-0.028	0.099
-289.618	-115.503	-0.148	0.028
-288.603	637.060	-0.053	-0.133
-287.589	-60.204	-0.343	0.145
-286.574	17.746	-0.356	-0.281
-285.559	265.199	-0.176	0.304
-284.545	-126.935	-0.059	0.009
-283.530	-129.992	0.195	0.026
-282.516	-17.078	0.086	-0.054
-281.501	-171.964	0.361	0.012
-280.486	17.529	-0.049	0.039
-279.472	655.359	-0.127	-0.323
-278.457	150.835	0.099	-0.133
-277.443	133.692	0.148	-0.190
-276.428	-102.326	-0.245	-0.058
-275.413	800.000	0.006	0.017
-274.399	104.196	0.111	0.129
-273.384	-33.279	-0.351	0.192
-272.370	-25.711	0.150	0.088
-271.355	-46.194	-0.282	-0.137
-270.340	4.537	-0.268	-0.195
-269.326	800.000	-0.058	0.204
-268.311	-132.226	-0.338	-0.043
-267.297	800.000	0.044	0.165
-266.282	302.606	-0.250	-0.458
-265.267	-50.103	0.137	-0.064
-264.253	578.931	-0.082	0.198
-263.238	-200.000	0.032	-0.176
-262.224	310.659	0.172	-0.320
-261.209	145.352	-0.171	0.226
-260.195	600.547	0.218	0.535
-259.180	581.055	0.075	-0.182
-258.165	-200.000	0.031	-0.295
-257.151	639.523	-0.077	-0.194
-256.136	62.065	0.016	0.016
-255.122	-2.329	0.173	-0.120
-254.107	-138.184	0.236	0.026
-253.092	800.000	-0.049	0.150
-252.078	264.918	0.115	-0.198
-251.063	247.546	-0.030	-0.050
-250.049	63.007	-0.232	-0.229
-249.034	-200.000	0.003	0.111
-248.019	79.304	-0.098	0.103
-247.005	-24.934	-0.233	0.137
-245.990	-46.335	-0.180	0.087
-244.976	800.000	0.078	0.322
-243.961	156.958	-0.077	0.105
-242.946	-200.000	-0.014	-0.180
-241.932	21.177	0.102	0.082
-240.917	-64.869	0.185	0.074
-239.903	-200.000	0.040	0.312
-238.888	-10.167	-0.108	-0.071
-237.873	8.268	-0.227	-0.168
-236.859	-112.465	-0.317	0.063
-235.844	624.884	-0.123	0.307
-234.830	-200.000	0.005	0.058
-233.815	-149.929	0.097	-0.007
-232.800	188.999	0.135	-0.201
-231.786	-73.862	0.229	0.082
-230.771	-132.819	-0.199	0.025
-229.757	-113.280	0.225	0.044
-228.742	240.336	0.120	-0.198
-227.727	800.000	0.056	0.173
-226.713	-167.320	0.188	0.007
-225.698	-130.298	0.381	0.051
-224.684	-123.007	0.203	0.032
-223.669	-97.011	-0.210	-0.054
-222.655	-53.387	-0.164	-0.074
-221.640	-114.389	-0.185	-0.035
-220.625	97.104	-0.085	0.097
-219.611	56.338	-0.223	-0.214
-218.596	-46.018	0.100	-0.049
-217.582	800.000	0.057	-0.232
-216.567	-27.804	0.157	-0.090
-215.552	-200.000	0.021	0.274
-214.538	-200.000	0.068	0.303
-213.523	145.216	0.100	-0.132
-212.509	-90.214	-0.199	0.057
-211.494	-121.738	0.199	0.032
-210.479	56.678	-0.172	-0.166
-209.465	416.916	0.035	0.073
-208.450	-76.459	0.132	-0.046
-207.436	-100.364	-0.225	-0.055
-206.421	-89.124	0.249	0.073
-205.406	133.920	0.150	0.192
-204.392	176.538	-0.131	0.189
-203.377	-200.000	0.011	0.073
-202.363	-33.600	-0.178	0.097
-201.348	-43.473	-0.137	-0.068
-200.333	37.003	-0.117	-0.102
-199.319	-200.000	0.022	0.119
-198.304	-103.771	0.138	0.032
-197.290	732.223	-0.013	0.035
-196.275	-86.245	0.086	0.026
-195.260	157.425	0.206	0.281
-194.246	-151.592	0.312	0.023
-193.231	203.142	0.143	-0.218
-192.217	88.057	0.037	-0.041
-191.202	217.743	0.038	-0.060
-190.187	-79.057	0.219	0.073
-189.173	504.883	-0.114	-0.261
-188.158	800.000	0.034	-0.129
-187.144	-154.582	0.427	0.028
-186.129	621.772	0.128	-0.317
-185.114	-172.130	-0.353	0.011
-184.100	641.160	-0.040	0.099
-183.085	-200.000	0.038	0.304
-182.071	173.614	-0.275	-0.391
-181.056	-200.000	0.013	-0.116
-180.042	-115.818	-0.106	0.020
-179.027	-149.156	-0.268	0.021
-178.012	-200.000	-0.003	0.181
-176.998	10.875	-0.137	-0.104
-175.983	-200.000	0.025	0.206
-174.969	-37.742	-0.028	0.015
-173.954	32.622	-0.038	0.033
-172.939	86.972	0.175	0.190
-171.925	-200.000	0.015	-0.243
-170.910	33.368	0.133	-0.114
-169.896	-48.780	-0.263	0.124
-168.881	785.603	0.068	-0.183
-167.866	-33.799	-0.059	-0.032
-166.852	128.940	-0.214	0.270
-165.837	466.019	0.146	-0.323
-164.823	-200.000	0.024	-0.297
-163.808	800.000	-0.118	0.428
-162.793	-119.947	0.324	-0.055
-161.779	85.308	0.171	0.185
-160.764	-99.916	-0.248	-0.061
-159.750	147.660	0.116	0.154
-158.735	190.386	0.237	0.351
-157.720	800.000	0.162	0.472
-156.706	-23.282	0.174	0.103
-155.691	372.165	-0.067	-0.135
-154.677	72.315	0.039	-0.040
-153.662	419.350	-0.186	0.393
-152.647	340.254	0.175	0.336
-151.633	-53.281	-0.214	0.097
-150.618	34.127	0.130	-0.112
-149.604	-99.932	0.183	0.045
-148.589	207.987	0.152	0.234
-147.574	-90.327	-0.163	0.047
-146.560	-14.566	0.094	0.060
-145.545	800.000	-0.051	-0.175
-144.531	-5.037	-0.073	-0.049
-143.516	106.247	0.132	-0.154
-142.502	-56.989	-0.263	0.114
-141.487	29.756	-0.044	-0.037
-140.472	438.207	-0.117	-0.252
-139.458	279.644	-0.094	-0.165
-138.443	436.963	0.054	0.117
-137.429	-200.000	0.004	-0.323
-136.414	45.963	-0.175	0.159
-135.399	800.000	-0.024	0.080
-134.385	-200.000	-0.030	0.211
-133.370	800.000	-0.062	0.175
-132.356	78.470	-0.320	0.337
-131.341	800.000	-0.060	0.244
-130.326	-27.691	-0.172	0.098
-129.312	12.337	0.147	-0.111
-128.297	-79.052	0.218	0.073
-127.283	-200.000	-0.011	-0.193
-126.268	-24.738	0.401	-0.235
-125.253	56.629	0.111	0.106
-124.239	800.000	-0.036	0.127
-123.224	-111.328	-0.208	-0.042
-122.210	3.236	-0.173	0.124
-121.195	-188.355	-0.211	-0.003
