DTS Sentinel unit serial number:	SN413079Multiplexer serial number:	ORYXHardware model number:	OX4-SRSoftware version number:	ORYX F/W v4.00 Oryx Data Collector v3.7.2.0data status	okinstallation	princeton_trtdifferential loss correction	single-endedforward channel	channel 2reverse channel	N/Adate	2019/09/17time	21:11:35forward acquisition time	60.00reverse acquisition time	0.00gamma	496.2192k internal	0.2338k external	0.2338temperature offset calibration	0.9987default loss term (dB/km)	0.3790temperature slope calibration	1.0000multiplexer offset coefficient	1.0000multiplexer slope coefficient	1.0000fibre end	0.00T internal ref (°C)	28.03T ext. ref 1 (°C)	0.20T ext. ref 2 (°C)	19.71length (m)	temperature (°C)	Stokes	anti-Stokes-747.200	97.002	-0.187	0.215
-746.185	50.066	-0.308	0.291
-745.171	-200.000	-0.036	0.202
-744.156	167.588	-0.131	0.186
-743.142	-50.082	0.254	-0.121
-742.127	-137.230	0.125	0.014
-741.112	-101.562	0.248	-0.060
-740.098	114.350	-0.322	0.393
-739.083	14.825	-0.153	-0.120
-738.069	-75.157	-0.027	0.010
-737.054	-34.811	0.352	0.193
-736.039	-165.813	-0.273	0.012
-735.025	-25.474	0.216	-0.128
-734.010	-134.452	-0.181	-0.022
-732.996	-132.805	-0.215	-0.028
-731.981	484.306	-0.083	0.189
-730.966	-94.730	0.166	-0.045
-729.952	-200.000	-0.004	0.059
-728.937	-75.094	0.119	-0.043
-727.923	44.274	-0.342	0.314
-726.908	207.307	-0.061	-0.095
-725.894	-90.096	-0.241	-0.071
-724.879	-44.243	-0.048	0.024
-723.864	-102.901	-0.226	-0.054
-722.850	466.343	-0.206	-0.462
-721.835	82.582	-0.149	-0.162
-720.821	187.385	-0.073	-0.110
-719.806	561.191	-0.126	0.306
-718.791	-188.830	0.101	0.001
-717.777	-10.963	-0.239	-0.158
-716.762	-200.000	-0.004	-0.255
-715.748	-158.373	0.108	0.006
-714.733	-111.388	0.262	-0.054
-713.718	-200.000	0.045	0.456
-712.704	-200.000	0.062	-0.280
-711.689	30.782	0.217	-0.186
-710.675	-200.000	0.005	-0.145
-709.660	614.522	0.103	0.259
-708.645	-120.695	0.528	0.089
-707.631	127.948	0.235	0.300
-706.616	-47.034	0.302	-0.148
-705.602	-0.943	0.134	0.095
-704.587	800.000	-0.117	0.352
-703.572	-86.097	-0.120	-0.037
-702.558	-62.336	0.333	-0.139
-701.543	639.880	-0.149	0.380
-700.529	800.000	0.084	0.365
-699.514	-138.581	0.201	-0.022
-698.499	-54.949	-0.267	-0.121
-697.485	-200.000	0.077	-0.388
-696.470	800.000	0.025	0.071
-695.456	761.248	0.039	-0.105
-694.441	521.441	0.098	0.230
-693.426	-89.478	-0.324	0.095
-692.412	-200.000	-0.036	-0.335
-691.397	529.267	-0.151	-0.357
-690.383	-38.537	0.331	-0.175
-689.368	277.456	0.188	-0.335
-688.354	18.628	0.165	-0.132
-687.339	1.456	-0.258	-0.186
-686.324	-39.377	0.274	0.144
-685.310	178.837	-0.171	-0.250
-684.295	800.000	-0.032	-0.116
-683.281	236.538	0.185	-0.306
-682.266	-65.514	-0.130	-0.052
-681.251	303.329	0.178	-0.331
-680.237	-162.755	-0.050	-0.002
-679.222	1.994	0.372	0.268
-678.208	431.643	-0.066	-0.142
-677.193	271.276	-0.179	-0.316
-676.178	-108.258	0.292	0.063
-675.164	-56.869	-0.248	0.110
-674.149	-3.945	0.350	0.243
-673.135	-14.255	-0.342	-0.220
-672.120	71.649	0.063	-0.065
-671.105	800.000	0.085	-0.274
-670.091	-87.300	-0.203	-0.061
-669.076	-136.785	-0.262	-0.030
-668.062	381.987	0.136	0.279
-667.047	-137.088	0.357	0.041
-666.032	-136.032	-0.479	-0.056
-665.018	13.500	-0.171	-0.133
-664.003	17.408	0.048	0.038
-662.989	-128.140	-0.351	0.050
-661.974	3.280	0.249	0.181
-660.959	24.853	0.106	-0.088
-659.945	41.502	-0.102	-0.092
-658.930	800.000	-0.017	-0.063
-657.916	-135.839	0.358	-0.042
-656.901	-23.229	-0.262	0.158
-655.886	800.000	-0.110	-0.355
-654.872	-99.038	-0.177	0.045
-653.857	426.756	0.021	-0.044
-652.843	-40.355	0.093	-0.048
-651.828	-200.000	0.068	0.316
-650.814	-200.000	-0.012	-0.217
-649.799	31.893	-0.020	-0.017
-648.784	-134.219	0.115	-0.014
-647.770	-149.363	0.126	0.010
-646.755	800.000	-0.081	0.325
-645.741	800.000	0.087	-0.302
-644.726	-151.689	0.102	0.007
-643.711	-31.275	0.402	-0.226
-642.697	800.000	0.028	-0.083
-641.682	-91.358	0.223	0.064
-640.668	-130.067	-0.229	0.031
-639.653	-112.420	0.144	0.029
-638.638	-36.638	0.124	0.067
-637.624	800.000	0.082	0.259
-636.609	27.950	-0.132	-0.112
-635.595	-142.916	0.283	-0.027
-634.580	800.000	-0.059	-0.236
-633.565	-51.854	-0.234	-0.109
-632.551	-200.000	-0.030	0.205
-631.536	-71.432	-0.158	0.059
-630.522	-12.279	-0.280	0.183
-629.507	-23.628	-0.126	0.075
-628.492	-200.000	-0.016	-0.339
-627.478	-138.293	-0.218	-0.024
-626.463	-200.000	0.021	-0.093
-625.449	-9.274	-0.219	-0.146
-624.434	138.982	-0.065	0.086
-623.419	-145.128	-0.060	-0.005
-622.405	236.862	0.034	-0.056
-621.390	73.067	-0.360	-0.376
-620.376	-98.790	0.255	0.065
-619.361	-105.000	0.498	0.114
-618.346	-48.882	0.046	-0.022
-617.332	-200.000	-0.001	0.111
-616.317	-200.000	0.013	-0.088
-615.303	-38.497	-0.118	-0.062
-614.288	131.538	-0.183	0.235
-613.273	168.793	0.235	-0.335
-612.259	-87.506	-0.315	-0.095
-611.244	-144.259	0.018	0.002
-610.230	294.308	0.138	0.251
-609.215	-200.000	0.052	-0.421
-608.201	800.000	0.060	-0.263
-607.186	-200.000	-0.005	-0.110
-606.171	-167.936	0.172	0.007
-605.157	800.000	-0.070	0.257
-604.142	273.944	-0.090	0.159
-603.128	-200.000	0.002	-0.193
-602.113	66.133	-0.154	-0.156
-601.098	-122.764	-0.220	0.035
-600.084	12.139	0.075	-0.057
-599.069	-200.000	0.044	-0.310
-598.055	66.312	0.291	-0.295
-597.040	205.903	0.139	-0.216
-596.025	-200.000	0.021	-0.177
-595.011	76.534	-0.084	-0.089
-593.996	279.845	0.109	0.194
-592.982	2.615	0.204	0.147
-591.967	460.609	-0.062	-0.138
-590.952	800.000	0.052	-0.166
-589.938	464.661	0.055	0.123
-588.923	-100.071	0.038	0.010
-587.909	-200.000	0.054	0.287
-586.894	78.979	0.135	0.144
-585.879	800.000	0.052	0.208
-584.865	800.000	-0.047	-0.194
-583.850	-157.706	0.133	0.008
-582.836	220.002	0.141	0.225
-581.821	-61.990	0.145	0.060
-580.806	150.272	0.098	0.133
-579.792	-85.734	0.143	0.044
-578.777	-44.676	-0.121	-0.060
-577.763	-42.949	-0.093	0.047
-576.748	-70.208	-0.225	0.085
-575.733	10.238	0.049	-0.037
-574.719	-16.867	-0.280	-0.176
-573.704	-200.000	-0.013	0.357
-572.690	-119.254	-0.186	-0.032
-571.675	629.383	-0.147	-0.371
-570.661	-7.158	-0.325	-0.220
-569.646	159.410	-0.215	-0.299
-568.631	111.188	0.213	-0.255
-567.617	44.687	0.058	-0.053
-566.602	-200.000	0.007	-0.313
-565.588	68.481	-0.160	-0.164
-564.573	-200.000	-0.005	-0.049
-563.558	800.000	0.031	-0.100
-562.544	800.000	0.082	-0.282
-561.529	-100.332	-0.234	-0.058
-560.515	586.605	-0.075	-0.183
-559.500	-49.573	-0.387	-0.183
-558.485	-10.078	0.112	-0.074
-557.471	-200.000	-0.064	0.371
-556.456	-98.940	0.257	-0.065
-555.442	2.722	-0.043	-0.031
-554.427	-200.000	-0.002	-0.049
-553.412	800.000	0.043	-0.125
-552.398	32.257	0.142	-0.122
-551.383	182.630	0.052	0.076
-550.369	-48.494	-0.184	-0.088
-549.354	301.345	0.130	-0.238
-548.339	163.199	0.213	-0.298
-547.325	-33.974	-0.156	-0.086
-546.310	682.267	-0.156	-0.406
-545.296	-118.447	-0.180	-0.032
-544.281	-200.000	0.006	-0.228
-543.266	51.659	-0.075	-0.071
-542.252	611.811	-0.079	0.197
-541.237	800.000	-0.042	0.178
-540.223	192.503	-0.147	0.220
-539.208	800.000	0.068	0.191
-538.193	-24.218	-0.201	0.119
-537.179	10.912	-0.210	0.160
-536.164	-200.000	0.022	0.261
-535.150	253.416	-0.094	0.160
-534.135	66.394	-0.272	0.275
-533.121	800.000	0.040	0.156
-532.106	-200.000	0.002	0.013
-531.091	155.685	-0.158	-0.217
-530.077	-200.000	0.007	-0.120
-529.062	-27.014	-0.165	0.096
-528.048	800.000	0.069	-0.201
-527.033	-191.806	0.340	0.003
-526.018	800.000	0.096	0.277
-525.004	556.732	0.053	0.127
-523.989	301.751	0.048	-0.088
-522.975	61.031	0.023	-0.022
-521.960	186.392	0.166	0.245
-520.945	79.198	-0.213	-0.227
-519.931	202.465	-0.140	-0.215
-518.916	-69.862	-0.364	0.138
-517.902	25.274	-0.086	-0.071
-516.887	79.528	0.237	-0.253
-515.872	-22.611	-0.233	-0.140
-514.858	237.782	0.136	-0.224
-513.843	-200.000	-0.016	-0.296
-512.829	-200.000	0.002	0.252
-511.814	-47.325	0.073	-0.035
-510.799	72.902	-0.392	-0.407
-509.785	-28.331	-0.415	-0.238
-508.770	-200.000	0.014	-0.190
-507.756	-46.644	0.176	-0.086
-506.741	405.939	-0.101	0.213
-505.726	-200.000	0.013	-0.131
-504.712	-0.949	0.123	-0.087
-503.697	91.923	0.302	0.338
-502.683	-62.942	-0.264	-0.108
-501.668	187.279	-0.094	-0.139
-500.653	10.740	-0.095	-0.072
-499.639	3.316	-0.085	0.061
-498.624	586.514	0.032	-0.077
-497.610	-84.755	-0.291	-0.091
-496.595	-200.000	-0.007	0.488
-495.581	145.823	-0.032	0.042
-494.566	-121.355	-0.305	0.050
-493.551	-45.604	0.131	-0.065
-492.537	510.089	-0.045	-0.105
-491.522	-200.000	-0.028	0.532
-490.508	781.673	0.019	0.051
-489.493	158.712	0.166	0.229
-488.478	88.918	-0.253	0.280
-487.464	535.733	0.013	-0.030
-486.449	50.457	0.144	0.135
-485.435	-200.000	0.001	-0.201
-484.420	-200.000	-0.006	0.207
-483.405	800.000	-0.079	0.239
-482.391	-14.741	-0.253	-0.161
-481.376	18.340	0.121	-0.096
-480.362	-39.916	0.311	-0.161
-479.347	-67.031	0.172	-0.067
-478.332	-104.167	-0.191	-0.044
-477.318	654.439	-0.132	-0.336
-476.303	-101.566	0.086	-0.021
-475.289	-22.370	-0.169	0.101
-474.274	18.922	-0.181	0.144
-473.259	-70.908	-0.199	-0.075
-472.245	-87.820	-0.330	0.099
-471.230	306.860	0.081	0.150
-470.216	191.346	0.175	-0.262
-469.201	16.464	-0.164	-0.128
-468.186	19.440	0.166	0.133
-467.172	-200.000	0.011	0.205
-466.157	-44.530	0.310	0.154
-465.143	75.304	0.150	0.157
-464.128	-31.266	0.180	-0.100
-463.113	246.872	0.141	0.237
-462.099	721.047	0.056	0.149
-461.084	800.000	0.156	0.492
-460.070	767.766	-0.120	-0.324
-459.055	4.346	-0.166	0.121
-458.040	321.111	0.046	-0.087
-457.026	-108.072	0.291	-0.063
-456.011	-105.595	-0.338	0.076
-454.997	111.819	0.142	0.170
-453.982	-199.316	-0.158	-0.001
-452.968	-154.696	0.168	-0.011
-451.953	-200.000	0.009	-0.039
-450.938	38.294	0.148	-0.131
-449.924	-70.541	0.180	-0.068
-448.909	508.096	0.029	0.066
-447.895	-200.000	0.033	-0.166
-446.880	-27.358	-0.183	0.105
-445.865	217.953	0.102	-0.161
-444.851	800.000	-0.080	0.238
-443.836	-167.017	0.218	-0.009
-442.822	-200.000	0.014	0.259
-441.807	-106.295	-0.183	-0.041
-440.792	-200.000	-0.064	0.351
-439.778	-37.129	-0.200	-0.106
-438.763	-200.000	-0.043	0.391
-437.749	269.952	0.173	-0.301
-436.734	26.528	0.437	0.363
-435.719	-200.000	0.057	0.265
-434.705	-55.687	0.122	0.054
-433.690	-200.000	-0.008	0.325
-432.676	800.000	-0.093	0.383
-431.661	-111.128	0.208	0.042
-430.646	80.216	0.245	0.261
-429.632	717.491	0.104	-0.274
-428.617	155.808	-0.151	0.206
-427.603	800.000	-0.060	0.258
-426.588	41.238	0.220	0.197
-425.573	-121.747	0.111	-0.018
-424.559	-104.222	-0.211	-0.049
-423.544	-8.569	-0.299	0.199
-422.530	-27.352	0.380	-0.219
-421.515	-16.180	0.175	0.110
-420.500	-200.000	-0.002	0.114
-419.486	800.000	0.031	-0.125
-418.471	-26.727	-0.299	-0.173
-417.457	513.694	0.078	0.179
-416.442	392.226	-0.211	-0.435
-415.428	800.000	-0.169	-0.556
-414.413	-164.993	-0.213	0.009
-413.398	377.211	-0.062	-0.125
-412.384	-10.971	-0.269	-0.176
-411.369	-200.000	-0.005	0.155
-410.355	409.063	-0.090	0.188
-409.340	52.126	0.164	0.154
-408.325	-200.000	0.021	-0.237
-407.311	239.241	0.029	0.048
-406.296	-54.838	0.139	0.062
-405.282	-66.589	-0.076	-0.030
-404.267	-200.000	-0.001	0.113
-403.252	-200.000	0.023	0.167
-402.238	265.571	0.174	0.300
-401.223	-200.000	-0.009	-0.317
-400.209	130.327	0.225	-0.285
-399.194	83.106	0.052	-0.056
-398.179	-95.439	-0.124	-0.033
-397.165	-33.533	-0.220	0.120
-396.150	675.326	0.048	0.125
-395.136	-107.172	0.277	-0.060
-394.121	258.733	-0.096	-0.164
-393.106	-77.592	0.066	0.023
-392.092	-200.000	0.023	0.175
-391.077	291.744	0.154	-0.277
-390.063	255.035	-0.105	-0.178
-389.048	68.863	0.139	-0.141
-388.033	675.851	0.113	0.291
-387.019	744.153	0.099	0.264
-386.004	-81.625	-0.340	0.110
-384.990	-200.000	-0.003	0.170
-383.975	-200.000	-0.008	-0.200
-382.960	-200.000	0.006	-0.147
-381.946	-109.124	-0.259	0.054
-380.931	18.511	-0.113	0.090
-379.917	237.847	0.193	0.316
-378.902	-35.063	-0.219	-0.118
-377.888	-161.357	-0.082	0.004
-376.873	175.847	0.175	-0.251
-375.858	-200.000	0.009	-0.370
-374.844	-89.307	0.045	-0.013
-373.829	-86.648	-0.360	-0.109
-372.815	-123.038	-0.171	-0.027
-371.800	5.390	0.238	-0.173
-370.785	-200.000	0.004	-0.022
-369.771	-97.279	0.040	0.010
-368.756	-147.519	0.186	0.015
-367.742	220.843	-0.171	-0.271
-366.727	182.673	0.060	-0.087
-365.712	-30.525	0.027	-0.015
-364.698	54.383	0.266	-0.253
-363.683	-173.704	-0.446	-0.013
-362.669	-156.042	0.274	-0.017
-361.654	-184.706	-0.025	-0.000
-360.639	-64.031	0.130	0.052
-359.625	451.873	-0.099	0.217
-358.610	70.407	-0.084	-0.086
-357.596	-83.319	-0.107	-0.034
-356.581	-193.184	-0.329	0.003
-355.566	800.000	0.069	-0.248
-354.552	-200.000	0.008	0.194
-353.537	82.348	-0.052	0.056
-352.523	800.000	0.085	-0.243
-351.508	118.619	0.158	-0.192
-350.493	800.000	-0.087	-0.267
-349.479	800.000	-0.094	-0.283
-348.464	-73.610	0.133	0.048
-347.450	90.204	-0.092	-0.101
-346.435	-168.670	0.223	0.008
-345.420	-152.697	0.020	0.001
-344.406	-7.257	-0.155	-0.104
-343.391	-94.077	0.235	0.064
-342.377	-175.433	-0.156	0.004
-341.362	585.127	-0.056	-0.135
-340.348	208.554	-0.075	-0.115
-339.333	419.470	-0.071	-0.151
-338.318	-200.000	-0.011	-0.162
-337.304	323.428	0.115	0.217
-336.289	800.000	0.029	-0.084
-335.275	128.020	-0.234	0.294
-334.260	126.867	0.175	0.219
-333.245	53.674	-0.100	-0.095
-332.231	-200.000	-0.004	0.025
-331.216	-17.936	0.255	-0.158
-330.202	301.137	-0.100	-0.182
-329.187	82.792	-0.229	-0.246
-328.172	-200.000	-0.033	-0.179
-327.158	70.727	-0.092	0.094
-326.143	46.271	0.113	0.104
-325.129	-139.457	0.043	-0.005
-324.114	-87.353	-0.143	-0.043
-323.099	-200.000	-0.088	-0.397
-322.085	34.502	0.095	-0.082
-321.070	-14.399	0.101	-0.064
-320.056	-106.290	-0.176	-0.039
-319.041	103.894	-0.233	0.270
-318.026	-96.251	0.263	0.069
-317.012	-200.000	-0.034	0.553
-315.997	800.000	0.021	-0.091
-314.983	-75.526	0.190	-0.067
-313.968	-200.000	0.051	0.395
-312.953	513.513	-0.098	0.227
-311.939	72.264	0.150	0.154
-310.924	151.565	-0.207	-0.278
-309.910	141.016	0.114	0.148
-308.895	90.429	0.213	0.235
-307.880	-200.000	-0.007	-0.107
-306.866	-129.504	0.170	-0.023
-305.851	33.593	0.125	-0.107
-304.837	800.000	0.043	-0.155
-303.822	282.893	-0.042	0.074
-302.807	90.889	-0.052	0.058
-301.793	619.403	0.141	0.349
-300.778	117.829	-0.122	0.148
-299.764	-154.063	-0.147	-0.010
-298.749	11.625	0.039	-0.029
-297.735	-200.000	0.009	0.238
-296.720	127.612	-0.152	0.191
-295.705	-105.748	-0.220	0.049
-294.691	29.158	-0.118	-0.099
-293.676	125.372	-0.282	-0.351
-292.662	9.306	-0.052	-0.039
-291.647	36.473	-0.087	-0.076
-290.632	-98.881	-0.048	-0.012
-289.618	-172.198	-0.251	-0.008
-288.603	404.388	-0.083	0.171
-287.589	376.694	-0.031	0.062
-286.574	-200.000	0.001	0.110
-285.559	-200.000	0.014	-0.134
-284.545	145.716	0.250	0.330
-283.530	755.019	-0.076	0.202
-282.516	304.862	-0.186	0.340
-281.501	50.279	-0.068	-0.064
-280.486	38.357	0.131	-0.115
-279.472	66.347	0.180	-0.181
-278.457	-127.400	0.137	0.020
-277.443	-86.539	-0.180	-0.055
-276.428	-37.029	0.196	-0.103
-275.413	239.696	0.245	0.401
-274.399	469.582	-0.122	-0.271
-273.384	169.189	-0.282	-0.396
-272.370	-83.831	-0.253	0.080
-271.355	-104.817	0.130	0.029
-270.340	-166.818	0.156	-0.006
-269.326	-113.171	0.107	-0.021
-268.311	-200.000	0.012	-0.116
-267.297	-200.000	0.042	-0.327
-266.282	-67.227	0.349	-0.135
-265.267	74.117	-0.194	0.201
-264.253	-68.231	-0.363	-0.139
-263.238	-200.000	0.011	-0.048
-262.224	-147.850	0.262	0.022
-261.209	141.253	-0.152	0.198
-260.195	47.711	-0.238	0.219
-259.180	-47.224	-0.128	-0.062
-258.165	-121.339	0.136	0.022
-257.151	67.038	0.093	0.093
-256.136	151.242	-0.048	0.065
-255.122	414.565	0.032	-0.066
-254.107	-27.296	0.262	0.150
-253.092	121.929	0.317	0.389
-252.078	553.041	0.145	-0.343
-251.063	101.787	0.117	-0.135
-250.049	135.304	0.066	-0.085
-249.034	45.472	-0.243	0.221
-248.019	109.920	-0.253	0.299
-247.005	-11.018	0.225	0.146
-245.990	50.629	-0.080	-0.075
-244.976	66.470	0.163	-0.163
-243.961	-200.000	-0.072	0.377
-242.946	264.721	0.135	-0.232
-241.932	130.301	0.170	-0.214
-240.917	-115.980	-0.110	-0.020
-239.903	-83.723	-0.109	0.034
-238.888	275.117	0.104	-0.181
-237.873	55.854	0.098	0.094
-236.859	371.541	0.099	0.197
-235.844	335.785	-0.038	-0.072
-234.830	-183.570	0.074	0.001
-233.815	208.689	0.073	0.112
-232.800	-36.469	-0.025	-0.013
-231.786	-200.000	0.002	-0.084
-230.771	-28.877	0.191	0.108
-229.757	-200.000	0.008	0.113
-228.742	-109.675	0.019	0.004
-227.727	-200.000	0.005	0.066
-226.713	-0.114	-0.199	0.139
-225.698	131.168	0.129	0.163
-224.684	778.089	-0.119	-0.320
-223.669	-200.000	0.023	-0.113
-222.655	-109.485	0.244	0.051
-221.640	49.766	0.044	0.040
-220.625	119.542	0.094	-0.115
-219.611	-200.000	0.006	0.085
-218.596	800.000	0.153	0.446
-217.582	-101.357	0.308	0.074
-216.567	800.000	0.008	0.033
-215.552	57.726	0.024	-0.023
-214.538	-113.838	-0.269	0.051
-213.523	227.281	-0.075	-0.120
-212.509	-118.309	0.250	-0.044
-211.494	55.145	0.201	-0.191
-210.479	338.803	-0.115	-0.221
-209.465	133.709	-0.082	0.104
-208.450	-32.357	-0.389	-0.213
-207.436	-59.654	0.290	-0.122
-206.421	-7.581	-0.262	-0.174
-205.406	-8.294	-0.192	0.127
-204.392	-70.160	0.147	0.055
-203.377	56.397	0.104	0.099
-202.363	88.403	0.215	0.235
-201.348	620.132	-0.101	-0.249
-200.333	5.624	0.290	-0.211
-199.319	-50.934	-0.263	0.121
-198.304	-200.000	0.014	0.244
-197.290	-200.000	0.002	0.497
-196.275	800.000	0.098	0.270
-195.260	242.580	0.156	0.256
-194.246	-19.657	-0.255	0.155
-193.231	-200.000	-0.001	0.108
-192.217	800.000	0.071	0.243
-191.202	800.000	0.051	-0.192
-190.187	-89.185	-0.199	0.058
-189.173	-122.621	-0.248	0.039
-188.158	167.534	-0.078	-0.108
-187.144	12.593	0.299	-0.227
-186.129	55.810	0.230	-0.219
-185.114	-82.193	-0.467	0.149
-184.100	-25.114	0.268	0.156
-183.085	148.969	-0.164	0.218
-182.071	-92.576	0.133	0.037
-181.056	-55.800	0.240	0.105
-180.042	239.370	0.113	-0.184
-179.027	800.000	0.058	-0.211
-178.012	101.105	-0.158	0.180
-176.998	-3.090	-0.312	-0.213
-175.983	-35.371	0.080	0.043
-174.969	-200.000	0.006	-0.066
-173.954	25.585	0.142	0.116
-172.939	-200.000	-0.024	0.223
-171.925	-81.471	0.478	0.154
-170.910	134.787	-0.078	0.099
-169.896	-200.000	-0.000	0.032
-168.881	-22.538	-0.064	0.038
-167.866	252.639	0.025	-0.042
-166.852	-120.014	0.158	0.027
-165.837	-196.599	0.194	-0.001
-164.823	-128.106	0.256	0.036
-163.808	-200.000	0.000	-0.085
-162.793	338.995	0.055	-0.105
-161.779	15.153	0.045	-0.035
-160.764	162.068	0.083	-0.114
-159.750	-135.621	-0.436	0.051
-158.735	-200.000	0.026	-0.285
-157.720	-200.000	-0.008	0.297
-156.706	-66.800	0.331	0.128
-155.691	721.244	-0.089	0.232
-154.677	52.882	-0.042	0.039
-153.662	140.467	-0.050	0.065
-152.647	-139.987	0.292	-0.030
-151.633	-200.000	-0.010	0.084
-150.618	13.924	0.185	-0.141
-149.604	-200.000	-0.002	0.165
-148.589	474.540	0.050	-0.110
-147.574	-170.035	-0.440	-0.015
-146.560	-45.897	0.172	-0.083
-145.545	55.399	-0.192	0.182
-144.531	122.903	0.171	-0.209
-143.516	800.000	0.057	0.165
-142.502	800.000	-0.122	-0.368
-141.487	-81.393	-0.104	0.034
-140.472	800.000	-0.155	-0.435
-139.458	-24.719	0.345	0.201
-138.443	75.450	0.193	0.200
-137.429	800.000	0.090	-0.282
-136.414	-34.580	0.269	0.144
-135.399	-74.896	-0.152	-0.053
-134.385	-83.231	0.357	-0.112
-133.370	800.000	-0.089	0.272
-132.356	-200.000	-0.048	-0.422
-131.341	-200.000	-0.088	-0.480
-130.326	106.947	-0.071	-0.083
-129.312	-4.789	0.250	0.169
-128.297	-52.977	0.088	-0.040
-127.283	-82.285	-0.385	-0.123
-126.268	-200.000	-0.003	-0.071
-125.253	800.000	0.044	-0.130
-124.239	12.107	-0.006	-0.005
-123.224	-200.000	0.006	-0.230
-122.210	445.196	0.048	-0.103
-121.195	-80.595	0.185	0.060
