DTS Sentinel unit serial number:	SN413079Multiplexer serial number:	ORYXHardware model number:	OX4-SRSoftware version number:	ORYX F/W v4.00 Oryx Data Collector v3.7.2.0data status	okinstallation	princeton_trtdifferential loss correction	single-endedforward channel	channel 2reverse channel	N/Adate	2019/09/12time	02:13:11forward acquisition time	60.00reverse acquisition time	0.00gamma	496.2192k internal	0.2326k external	0.2326temperature offset calibration	1.0090default loss term (dB/km)	0.3790temperature slope calibration	1.0000multiplexer offset coefficient	1.0000multiplexer slope coefficient	1.0000fibre end	0.00T internal ref (°C)	32.69T ext. ref 1 (°C)	2.08T ext. ref 2 (°C)	27.42length (m)	temperature (°C)	Stokes	anti-Stokes-747.200	-200.000	-0.017	-0.192
-746.185	-56.305	-0.205	0.092
-745.171	-120.330	0.091	-0.016
-744.156	-153.394	-0.142	0.010
-743.142	115.950	0.179	0.221
-742.127	80.038	0.242	0.262
-741.112	800.000	-0.083	-0.255
-740.098	-104.753	-0.456	0.106
-739.083	-200.000	-0.081	-0.442
-738.069	34.901	0.104	0.092
-737.054	-44.182	0.209	0.106
-736.039	670.537	-0.154	-0.402
-735.025	-200.000	0.025	0.292
-734.010	85.131	-0.204	-0.226
-732.996	174.336	-0.230	-0.335
-731.981	109.226	0.062	-0.075
-730.966	-82.262	-0.364	-0.120
-729.952	501.290	-0.125	-0.291
-728.937	526.288	-0.034	-0.080
-727.923	346.838	-0.222	-0.440
-726.908	-200.000	-0.065	-0.304
-725.894	-48.974	-0.194	0.094
-724.879	-165.570	-0.043	-0.002
-723.864	55.341	-0.403	-0.392
-722.850	225.219	-0.095	0.155
-721.835	-200.000	0.017	0.449
-720.821	-154.185	-0.170	0.012
-719.806	139.895	0.155	-0.206
-718.791	-46.149	0.088	-0.044
-717.777	18.949	0.163	0.132
-716.762	-58.681	0.411	0.179
-715.748	-200.000	-0.026	-0.406
-714.733	800.000	-0.040	-0.115
-713.718	91.502	0.110	-0.125
-712.704	-93.258	0.112	-0.031
-711.689	800.000	0.038	-0.149
-710.675	-171.478	0.145	-0.005
-709.660	284.995	-0.101	0.183
-708.645	-65.051	0.087	0.035
-707.631	-76.717	-0.556	-0.196
-706.616	230.944	-0.051	-0.084
-705.602	-200.000	0.014	0.105
-704.587	20.547	-0.104	-0.085
-703.572	-68.392	-0.278	0.109
-702.558	-70.412	0.271	0.103
-701.543	-200.000	0.031	-0.201
-700.529	-63.060	-0.199	0.083
-699.514	361.576	-0.115	0.233
-698.499	90.975	0.136	-0.154
-697.485	240.522	0.050	-0.084
-696.470	-58.717	0.133	0.058
-695.456	297.125	0.057	-0.105
-694.441	-157.451	0.041	-0.002
-693.426	-200.000	0.008	-0.128
-692.412	-200.000	-0.000	-0.437
-691.397	165.760	0.098	-0.140
-690.383	-80.965	-0.311	0.104
-689.368	800.000	0.043	0.172
-688.354	49.739	-0.058	-0.055
-687.339	-70.106	-0.108	-0.041
-686.324	698.290	-0.101	-0.267
-685.310	-131.543	0.238	-0.032
-684.295	800.000	0.021	0.081
-683.281	281.734	0.067	0.121
-682.266	-200.000	0.002	0.106
-681.251	400.595	-0.143	-0.301
-680.237	12.767	-0.100	0.078
-679.222	-67.293	-0.225	0.089
-678.208	-131.227	-0.032	-0.004
-677.193	132.970	0.185	-0.240
-676.178	566.001	0.183	-0.445
-675.164	-98.067	-0.436	-0.113
-674.149	-100.069	-0.113	-0.028
-673.135	-17.522	-0.356	0.225
-672.120	-140.654	-0.459	0.048
-671.105	-13.438	-0.239	-0.156
-670.091	698.893	-0.032	0.085
-669.076	-3.470	0.210	0.147
-668.062	-200.000	-0.019	0.224
-667.047	-111.588	0.052	-0.011
-666.032	800.000	-0.060	0.195
-665.018	-93.729	-0.089	0.025
-664.003	391.541	0.096	0.201
-662.989	-30.925	-0.095	-0.054
-661.974	370.932	-0.038	-0.077
-660.959	-68.783	-0.234	-0.091
-659.945	-164.819	0.208	0.009
-658.930	489.351	0.098	0.226
-657.916	-6.729	0.089	-0.061
-656.901	285.036	0.098	-0.178
-655.886	-99.160	-0.394	-0.100
-654.872	377.078	0.091	0.187
-653.857	-200.000	-0.042	0.293
-652.843	-131.012	0.122	0.016
-651.828	-77.229	-0.184	-0.064
-650.814	-41.980	-0.399	-0.205
-649.799	-200.000	0.027	-0.134
-648.784	572.630	0.090	-0.221
-647.770	54.950	-0.081	-0.078
-646.755	282.590	0.130	-0.234
-645.741	-92.634	-0.254	0.072
-644.726	206.818	-0.213	0.334
-643.711	-154.341	-0.104	0.007
-642.697	163.588	-0.064	0.090
-641.682	132.411	0.239	-0.310
-640.668	-54.267	0.301	-0.137
-639.653	146.806	0.163	0.220
-638.638	209.237	0.081	-0.127
-637.624	-200.000	-0.027	0.211
-636.609	108.787	-0.210	-0.252
-635.595	139.297	-0.101	0.134
-634.580	464.493	0.088	-0.199
-633.565	-200.000	0.017	0.232
-632.551	-54.768	0.134	0.061
-631.536	-116.445	-0.207	0.038
-630.522	-94.629	-0.212	0.058
-629.507	-49.388	-0.336	0.161
-628.492	-136.798	0.185	0.021
-627.478	30.777	-0.162	0.139
-626.463	-200.000	0.018	-0.235
-625.449	-88.695	-0.310	0.092
-624.434	130.340	-0.128	-0.165
-623.419	267.621	0.054	-0.095
-622.405	-2.769	-0.355	-0.249
-621.390	30.383	-0.079	-0.068
-620.376	281.237	-0.206	-0.370
-619.361	168.166	-0.008	0.012
-618.346	-91.240	-0.128	0.037
-617.332	-9.325	0.119	-0.079
-616.317	233.055	0.173	0.285
-615.303	-80.875	-0.237	0.079
-614.288	174.036	0.105	0.152
-613.273	-153.809	0.238	0.016
-612.259	-96.538	-0.358	-0.095
-611.244	-200.000	0.002	-0.071
-610.230	-58.644	0.149	0.065
-609.215	-200.000	0.019	-0.158
-608.201	175.518	-0.110	-0.160
-607.186	-200.000	-0.043	-0.384
-606.171	-129.946	0.272	-0.037
-605.157	800.000	0.037	0.128
-604.142	64.026	0.071	0.072
-603.128	-45.166	0.224	0.112
-602.113	107.634	-0.128	-0.153
-601.098	-184.295	-0.429	-0.007
-600.084	-200.000	-0.012	-0.118
-599.069	800.000	0.015	0.049
-598.055	-200.000	-0.017	-0.141
-597.040	42.261	0.137	-0.125
-596.025	-200.000	0.025	0.284
-595.011	-170.897	0.153	0.005
-593.996	800.000	-0.064	-0.260
-592.982	39.221	0.197	0.177
-591.967	-102.728	0.156	0.037
-590.952	790.232	-0.062	-0.172
-589.938	145.780	-0.229	0.308
-588.923	-6.759	0.107	-0.073
-587.909	-76.109	0.041	-0.015
-586.894	-104.089	0.116	-0.027
-585.879	-44.302	0.299	0.150
-584.865	-43.772	0.082	-0.042
-583.850	-13.209	0.313	-0.204
-582.836	132.391	0.214	0.276
-581.821	543.063	0.142	0.341
-580.806	-17.126	-0.213	-0.135
-579.792	18.797	0.226	-0.182
-578.777	800.000	-0.061	0.199
-577.763	136.803	0.054	-0.071
-576.748	262.206	0.133	0.231
-575.733	198.857	-0.158	0.243
-574.719	191.919	0.131	0.198
-573.704	-87.521	-0.364	-0.110
-572.690	405.321	-0.030	0.063
-571.675	-57.767	0.047	0.020
-570.661	-126.125	0.350	0.053
-569.646	273.030	-0.104	-0.185
-568.631	389.741	-0.146	-0.303
-567.617	-200.000	-0.013	-0.124
-566.602	265.301	-0.140	-0.245
-565.588	-200.000	-0.031	0.340
-564.573	219.118	-0.025	0.041
-563.558	-89.201	0.314	-0.093
-562.544	-30.951	-0.150	-0.085
-561.529	321.795	0.162	-0.309
-560.515	409.627	-0.101	-0.215
-559.500	-79.484	0.071	-0.024
-558.485	15.448	-0.223	-0.176
-557.471	-121.903	-0.372	-0.061
-556.456	-62.655	0.294	0.122
-555.442	-200.000	0.074	-0.328
-554.427	389.467	0.063	-0.130
-553.412	-200.000	0.016	0.108
-552.398	-71.235	-0.232	-0.087
-551.383	800.000	0.048	0.183
-550.369	103.177	0.027	0.031
-549.354	-6.379	-0.128	0.087
-548.339	250.892	-0.148	0.251
-547.325	-200.000	-0.010	-0.125
-546.310	86.601	0.140	0.155
-545.296	-71.217	0.228	0.086
-544.281	183.227	-0.130	-0.192
-543.266	112.150	-0.039	-0.048
-542.252	-139.220	0.251	-0.027
-541.237	800.000	0.078	0.227
-540.223	51.438	-0.144	-0.137
-539.208	14.996	0.071	-0.056
-538.193	-6.329	-0.131	-0.090
-537.179	91.620	-0.343	0.386
-536.164	-180.978	0.179	0.004
-535.150	-52.787	-0.258	-0.119
-534.135	-200.000	0.029	-0.192
-533.121	-131.385	0.204	-0.027
-532.106	-152.022	0.101	-0.007
-531.091	-200.000	0.004	0.280
-530.077	-117.099	-0.272	-0.049
-529.062	-103.960	-0.200	-0.047
-528.048	-101.451	0.234	0.057
-527.033	521.454	0.052	-0.121
-526.018	-76.777	0.103	-0.036
-525.004	-200.000	-0.027	0.157
-523.989	-25.767	-0.228	-0.135
-522.975	146.549	0.055	0.074
-521.960	87.326	0.113	-0.125
-520.945	-167.524	0.516	0.021
-519.931	718.398	0.031	0.082
-518.916	-130.209	-0.365	0.050
-517.902	-35.227	-0.048	-0.026
-516.887	61.822	-0.112	0.112
-515.872	631.338	-0.095	0.241
-514.858	-60.905	-0.155	-0.065
-513.843	151.140	0.141	0.191
-512.829	-119.679	-0.188	0.032
-511.814	800.000	-0.047	-0.137
-510.799	-200.000	-0.006	0.095
-509.785	-148.289	0.377	0.031
-508.770	406.301	0.106	-0.225
-507.756	54.066	0.170	0.164
-506.741	-128.795	0.176	-0.025
-505.726	-42.311	-0.142	-0.073
-504.712	326.346	-0.129	0.247
-503.697	800.000	-0.105	0.319
-502.683	-119.440	0.037	0.006
-501.668	314.623	0.014	-0.027
-500.653	148.644	-0.045	0.061
-499.639	157.750	-0.071	0.098
-498.624	-90.600	-0.418	0.121
-497.610	328.642	-0.027	0.051
-496.595	100.594	0.138	0.160
-495.581	-87.346	-0.321	0.097
-494.566	-162.347	0.143	-0.007
-493.551	800.000	-0.029	0.124
-492.537	-161.717	0.186	0.009
-491.522	-0.088	-0.211	0.150
-490.508	407.409	-0.091	0.191
-489.493	-114.210	-0.298	-0.057
-488.478	-200.000	0.008	-0.085
-487.464	314.579	-0.070	-0.131
-486.449	-14.922	-0.208	0.133
-485.435	-70.352	0.249	-0.094
-484.420	696.465	0.125	0.327
-483.405	48.482	0.100	0.094
-482.391	36.540	0.244	-0.215
-481.376	-48.402	0.130	0.062
-480.362	-152.373	0.070	0.005
-479.347	70.175	-0.062	-0.064
-478.332	-83.910	0.265	-0.084
-477.318	42.449	0.106	0.096
-476.303	-96.499	0.182	-0.048
-475.289	5.581	-0.180	-0.132
-474.274	800.000	-0.061	-0.259
-473.259	-200.000	0.008	-0.159
-472.245	66.918	0.139	0.141
-471.230	335.994	0.197	0.381
-470.216	-200.000	-0.043	-0.201
-469.201	67.021	-0.249	-0.253
-468.186	800.000	-0.073	-0.219
-467.172	142.425	0.221	0.293
-466.157	800.000	-0.115	-0.347
-465.143	-200.000	-0.037	0.276
-464.128	-144.960	0.389	0.035
-463.113	90.815	-0.109	0.121
-462.099	-200.000	-0.011	0.113
-461.084	-37.649	-0.152	-0.081
-460.070	46.502	-0.175	-0.162
-459.055	-57.121	0.112	-0.049
-458.040	-140.422	-0.231	0.024
-457.026	446.902	-0.137	-0.301
-456.011	-46.662	0.160	-0.078
-454.997	-2.331	-0.179	0.125
-453.982	229.008	-0.147	0.239
-452.968	-178.410	0.341	0.008
-451.953	505.681	-0.103	0.237
-450.938	-30.060	0.259	0.147
-449.924	371.870	-0.065	0.131
-448.909	405.315	0.114	-0.239
-447.895	-200.000	0.008	0.059
-446.880	-133.118	-0.025	-0.003
-445.865	-200.000	0.060	0.266
-444.851	76.299	-0.158	0.167
-443.836	-154.355	-0.263	-0.018
-442.822	492.775	-0.082	-0.187
-441.807	-18.237	0.106	0.066
-440.792	25.202	-0.043	0.035
-439.778	800.000	0.045	-0.167
-438.763	782.331	-0.090	0.247
-437.749	243.278	-0.077	-0.128
-436.734	-38.068	0.314	-0.166
-435.719	800.000	-0.027	0.100
-434.705	-109.203	-0.139	-0.029
-433.690	219.421	0.225	-0.359
-432.676	-200.000	-0.012	-0.172
-431.661	-73.806	-0.082	-0.030
-430.646	-30.880	-0.372	0.209
-429.632	800.000	0.083	0.249
-428.617	800.000	-0.027	0.106
-427.603	54.466	0.294	0.282
-426.588	-66.185	-0.204	0.081
-425.573	-131.410	0.048	-0.006
-424.559	-110.637	-0.078	-0.016
-423.544	73.451	-0.208	-0.217
-422.530	205.929	-0.177	0.274
-421.515	-51.551	0.092	0.043
-420.500	-147.844	-0.269	-0.022
-419.486	66.521	0.075	-0.076
-418.471	2.750	-0.158	-0.114
-417.457	800.000	0.059	0.217
-416.442	-29.970	-0.069	0.039
-415.428	-21.680	0.054	0.033
-414.413	245.453	-0.250	0.419
-413.398	-200.000	0.013	0.125
-412.384	-98.355	0.080	0.020
-411.369	736.796	0.072	0.191
-410.355	-16.333	-0.151	0.096
-409.340	10.700	0.179	-0.136
-408.325	-200.000	-0.066	-0.350
-407.311	-136.050	-0.247	0.029
-406.296	800.000	0.031	-0.111
-405.282	-200.000	-0.017	0.270
-404.267	-134.645	0.209	-0.025
-403.252	161.417	-0.110	0.154
-402.238	-105.509	-0.122	-0.028
-401.223	326.326	0.049	0.094
-400.209	197.948	-0.232	-0.353
-399.194	104.575	-0.062	-0.073
-398.179	31.901	-0.264	0.226
-397.165	119.975	0.162	-0.200
-396.150	-37.424	0.310	-0.165
-395.136	129.960	0.132	-0.168
-394.121	-200.000	0.005	-0.155
-393.106	95.492	-0.058	0.066
-392.092	-145.203	0.203	-0.018
-391.077	-200.000	-0.018	0.082
-390.063	-139.076	0.478	-0.051
-389.048	-200.000	-0.058	-0.295
-388.033	800.000	0.054	-0.168
-387.019	-24.046	-0.057	-0.034
-386.004	-148.455	-0.115	0.009
-384.990	-30.625	-0.182	-0.102
-383.975	-20.305	-0.055	0.034
-382.960	132.170	-0.072	0.092
-381.946	-200.000	-0.028	0.340
-380.931	-200.000	-0.007	-0.305
-379.917	-75.378	-0.094	0.033
-378.902	256.283	0.045	-0.077
-377.888	312.035	0.183	-0.341
-376.873	-200.000	-0.039	0.182
-375.858	255.708	0.004	0.008
-374.844	-161.723	0.082	-0.004
-373.829	-20.395	-0.234	-0.143
-372.815	171.209	0.080	0.114
-371.800	724.848	-0.015	0.040
-370.785	149.748	-0.176	-0.238
-369.771	244.197	0.032	0.054
-368.756	-200.000	-0.037	0.165
-367.742	-100.610	-0.309	-0.076
-366.727	235.647	-0.165	0.270
-365.712	138.297	-0.101	0.131
-364.698	33.865	-0.142	-0.123
-363.683	34.016	0.254	-0.220
-362.669	-97.546	0.228	0.059
-361.654	26.110	-0.225	0.186
-360.639	-200.000	-0.058	0.274
-359.625	-0.623	-0.399	0.281
-358.610	567.572	0.106	-0.255
-357.596	82.082	0.254	0.273
-356.581	12.883	-0.383	0.294
-355.566	-104.714	0.385	0.088
-354.552	-200.000	0.009	0.097
-353.537	-111.580	-0.094	-0.019
-352.523	-78.069	0.356	0.122
-351.508	-200.000	-0.007	0.090
-350.493	-45.158	0.335	-0.165
-349.479	-34.208	0.177	-0.096
-348.464	-200.000	0.013	0.059
-347.450	-72.128	0.272	0.100
-346.435	86.943	-0.093	-0.102
-345.420	-79.137	-0.081	-0.027
-344.406	-200.000	0.001	-0.312
-343.391	92.674	-0.186	0.209
-342.377	-200.000	0.015	0.071
-341.362	179.871	0.172	-0.250
-340.348	800.000	-0.098	-0.269
-339.333	-78.761	0.129	-0.044
-338.318	43.603	-0.253	0.230
-337.304	-53.145	0.425	0.194
-336.289	-86.278	0.387	0.118
-335.275	318.761	-0.247	0.464
-334.260	-96.870	-0.243	-0.063
-333.245	70.524	-0.134	-0.138
-332.231	26.310	-0.303	-0.252
-331.216	31.608	-0.100	-0.086
-330.202	91.950	0.097	0.108
-329.187	-63.657	-0.300	-0.122
-328.172	-4.190	-0.226	0.155
-327.158	508.250	0.200	-0.462
-326.143	800.000	0.063	0.188
-325.129	32.759	0.147	-0.126
-324.114	-128.761	-0.325	-0.045
-323.099	-200.000	-0.007	-0.044
-322.085	164.440	0.274	0.383
-321.070	-137.317	0.156	-0.018
-320.056	-78.159	-0.321	0.110
-319.041	-91.083	-0.040	-0.012
-318.026	423.076	-0.078	0.165
-317.012	-179.650	-0.167	0.004
-315.997	800.000	-0.029	-0.112
-314.983	192.813	0.310	-0.464
-313.968	-9.292	-0.066	-0.044
-312.953	-200.000	-0.010	0.106
-311.939	-30.815	-0.135	-0.076
-310.924	-53.677	0.360	-0.163
-309.910	-200.000	0.017	-0.425
-308.895	-82.641	0.013	0.004
-307.880	11.996	-0.253	-0.193
-306.866	-25.716	-0.253	0.148
-305.851	-144.274	-0.144	-0.013
-304.837	-200.000	0.000	-0.200
-303.822	21.905	-0.146	0.118
-302.807	-85.236	0.436	0.135
-301.793	-124.735	-0.289	0.044
-300.778	-151.494	-0.056	-0.004
-299.764	219.992	0.167	0.265
-298.749	-200.000	0.055	0.467
-297.735	164.884	0.136	0.190
-296.720	-132.589	0.289	-0.037
-295.705	-147.512	-0.403	-0.034
-294.691	499.215	0.088	-0.200
-293.676	-34.062	-0.090	0.049
-292.662	359.796	0.080	-0.158
-291.647	-200.000	0.014	-0.268
-290.632	-138.193	-0.160	0.018
-289.618	61.213	-0.162	0.160
-288.603	82.793	0.267	0.287
-287.589	-166.869	0.113	-0.005
-286.574	-200.000	-0.009	0.119
-285.559	-72.070	0.048	-0.018
-284.545	-49.445	-0.140	-0.066
-283.530	-170.511	0.241	-0.008
-282.516	199.309	0.022	0.033
-281.501	353.835	0.185	0.365
-280.486	-200.000	-0.028	0.312
-279.472	-200.000	-0.012	0.089
-278.457	-200.000	-0.001	-0.157
-277.443	-200.000	0.003	-0.132
-276.428	-141.206	0.157	-0.016
-275.413	-200.000	0.020	0.231
-274.399	-0.732	0.129	-0.091
-273.384	431.607	-0.167	-0.357
-272.370	-200.000	0.043	0.232
-271.355	-62.209	0.267	0.110
-270.340	-200.000	0.011	0.266
-269.326	-32.070	-0.412	-0.228
-268.311	339.345	-0.153	-0.296
-267.297	-200.000	-0.008	0.110
-266.282	392.132	0.110	-0.227
-265.267	115.147	-0.072	0.087
-264.253	-8.305	-0.217	0.144
-263.238	185.096	-0.028	0.041
-262.224	151.756	0.053	-0.072
-261.209	107.783	-0.157	0.185
-260.195	-200.000	0.040	-0.277
-259.180	666.433	0.080	-0.204
-258.165	-142.768	-0.174	0.017
-257.151	-62.586	0.075	0.031
-256.136	-83.036	-0.037	-0.012
-255.122	47.756	-0.063	0.058
-254.107	63.822	-0.041	0.041
-253.092	-114.922	0.206	-0.039
-252.078	-15.011	0.178	0.113
-251.063	-86.784	0.092	-0.028
-250.049	800.000	0.066	0.209
-249.034	-139.797	-0.184	-0.019
-248.019	680.268	0.151	-0.389
-247.005	-200.000	-0.045	-0.383
-245.990	-156.837	-0.184	0.011
-244.976	-200.000	-0.389	0.001
-243.961	20.069	0.262	-0.209
-242.946	-200.000	0.021	-0.129
-241.932	155.802	0.023	-0.032
-240.917	800.000	0.101	-0.286
-239.903	212.145	0.057	-0.089
-238.888	233.880	0.115	0.188
-237.873	103.309	-0.182	0.211
-236.859	122.467	0.039	-0.048
-235.844	615.519	-0.131	0.325
-234.830	25.146	0.013	-0.011
-233.815	-97.863	-0.171	-0.044
-232.800	-125.076	-0.193	0.029
-231.786	-200.000	0.014	-0.156
-230.771	284.612	-0.127	-0.226
-229.757	21.413	-0.101	-0.081
-228.742	-49.183	0.261	0.123
-227.727	800.000	0.129	0.377
-226.713	78.974	0.202	0.214
-225.698	-154.811	0.044	0.003
-224.684	13.492	-0.261	0.200
-223.669	4.247	-0.175	-0.127
-222.655	-134.707	-0.227	-0.027
-221.640	-200.000	-0.023	-0.132
-220.625	-108.653	0.161	0.034
-219.611	-200.000	0.041	-0.223
-218.596	562.290	0.192	-0.458
-217.582	-115.500	-0.060	0.011
-216.567	228.621	0.145	0.234
-215.552	-170.626	0.270	0.009
-214.538	800.000	0.011	0.041
-213.523	-200.000	-0.007	-0.238
-212.509	-46.671	0.105	-0.051
-211.494	-200.000	0.031	0.496
-210.479	-158.083	0.286	0.017
-209.465	631.296	0.047	0.116
-208.450	123.553	-0.202	-0.250
-207.436	102.891	0.180	-0.208
-206.421	-82.787	-0.183	-0.058
-205.406	-200.000	0.067	-0.479
-204.392	-146.296	-0.226	-0.020
-203.377	-100.383	0.257	-0.063
-202.363	-32.795	-0.098	0.054
-201.348	-200.000	-0.038	0.220
-200.333	272.864	0.137	0.239
-199.319	-132.424	0.366	-0.047
-198.304	333.100	-0.094	0.180
-197.290	800.000	-0.049	0.155
-196.275	518.814	0.092	0.212
-195.260	627.982	-0.011	0.028
-194.246	-108.314	0.356	0.076
-193.231	700.522	0.055	0.144
-192.217	-94.538	0.138	0.037
-191.202	-200.000	0.042	-0.352
-190.187	800.000	-0.066	-0.186
-189.173	146.482	0.084	0.111
-188.158	-37.686	-0.118	0.062
-187.144	-3.208	0.281	-0.194
-186.129	277.820	-0.039	0.069
-185.114	800.000	-0.050	-0.145
-184.100	203.760	0.165	-0.252
-183.085	-8.895	-0.184	-0.122
-182.071	159.502	-0.061	-0.084
-181.056	118.014	-0.206	0.250
-180.042	643.881	0.051	0.129
-179.027	-14.853	0.058	0.037
-178.012	-200.000	-0.025	-0.215
-176.998	-140.294	-0.289	0.030
-175.983	-52.076	-0.187	-0.086
-174.969	155.496	-0.131	-0.178
-173.954	-127.920	0.156	-0.022
-172.939	502.428	-0.123	-0.281
-171.925	800.000	0.050	0.135
-170.910	-124.089	0.315	-0.049
-169.896	-200.000	0.062	-0.387
-168.881	446.913	-0.072	0.157
-167.866	800.000	0.068	0.256
-166.852	50.319	0.140	-0.130
-165.837	-34.190	0.081	-0.044
-164.823	402.496	-0.172	0.357
-163.808	-43.058	-0.185	0.092
-162.793	62.668	0.122	0.120
-161.779	-200.000	-0.028	-0.462
-160.764	-48.469	0.109	0.052
-159.750	-81.484	0.269	0.087
-158.735	121.619	0.097	0.119
-157.720	800.000	0.009	0.029
-156.706	-200.000	0.012	0.087
-155.691	-124.845	0.311	0.047
-154.677	287.164	-0.224	-0.400
-153.662	-95.346	0.403	-0.107
-152.647	-32.753	-0.137	-0.075
-151.633	-70.299	0.419	0.157
-150.618	-20.001	0.229	0.139
-149.604	656.684	-0.030	-0.075
-148.589	258.501	-0.189	-0.321
-147.574	800.000	-0.037	-0.122
-146.560	-74.264	-0.015	0.005
-145.545	-200.000	0.017	0.083
-144.531	-27.728	0.135	0.077
-143.516	30.557	0.171	0.144
-142.502	-200.000	0.019	-0.085
-141.487	-200.000	-0.017	0.157
-140.472	-57.581	-0.142	-0.061
-139.458	-40.051	-0.119	0.061
-138.443	650.499	0.136	0.343
-137.429	33.392	-0.119	0.102
-136.414	-0.379	-0.205	0.143
-135.399	-160.856	-0.274	0.014
-134.385	-85.152	0.223	0.069
-133.370	617.346	-0.042	-0.104
-132.356	418.431	0.083	0.175
-131.341	800.000	0.041	0.114
-130.326	268.590	-0.044	-0.077
-129.312	-63.786	-0.334	0.135
-128.297	178.051	0.151	-0.217
-127.283	19.712	-0.233	0.185
-126.268	162.990	-0.007	-0.009
-125.253	759.997	-0.030	0.080
-124.239	-163.219	-0.208	0.010
-123.224	-200.000	-0.007	0.215
-122.210	-49.394	0.111	0.052
