DTS Sentinel unit serial number:	SN413079Multiplexer serial number:	ORYXHardware model number:	OX4-SRSoftware version number:	ORYX F/W v4.00 Oryx Data Collector v3.7.2.0data status	okinstallation	princeton_trtdifferential loss correction	single-endedforward channel	channel 2reverse channel	N/Adate	2019/09/12time	22:51:35forward acquisition time	60.00reverse acquisition time	0.00gamma	496.2192k internal	0.2332k external	0.2332temperature offset calibration	1.0173default loss term (dB/km)	0.3790temperature slope calibration	1.0000multiplexer offset coefficient	1.0000multiplexer slope coefficient	1.0000fibre end	0.00T internal ref (°C)	29.44T ext. ref 1 (°C)	3.73T ext. ref 2 (°C)	24.01length (m)	temperature (°C)	Stokes	anti-Stokes-747.200	-94.394	0.378	-0.104
-746.185	72.888	0.238	0.250
-745.171	-34.944	0.236	-0.129
-744.156	254.838	-0.028	0.048
-743.142	-157.023	0.419	-0.026
-742.127	77.521	-0.045	0.048
-741.112	666.891	0.028	-0.073
-740.098	235.876	-0.166	0.275
-739.083	10.413	0.129	0.099
-738.069	-147.545	0.170	-0.014
-737.054	-67.476	0.145	-0.057
-736.039	667.304	0.050	-0.129
-735.025	-200.000	0.033	-0.151
-734.010	28.393	-0.113	0.096
-732.996	262.087	-0.078	-0.136
-731.981	-58.202	-0.214	-0.094
-730.966	800.000	-0.101	0.368
-729.952	-17.903	-0.308	-0.194
-728.937	-164.585	-0.161	0.007
-727.923	58.614	0.230	-0.227
-726.908	80.636	0.098	-0.106
-725.894	-109.231	-0.169	0.036
-724.879	225.437	0.131	-0.213
-723.864	92.490	0.176	-0.200
-722.850	120.239	-0.160	-0.199
-721.835	208.895	-0.028	-0.045
-720.821	-90.419	-0.329	0.096
-719.806	16.334	0.210	0.166
-718.791	164.485	-0.195	-0.276
-717.777	-177.263	-0.335	-0.008
-716.762	94.632	-0.085	-0.097
-715.748	2.334	-0.110	0.080
-714.733	-194.654	-0.049	-0.000
-713.718	-113.283	0.090	0.018
-712.704	-80.477	-0.135	-0.045
-711.689	800.000	-0.062	-0.224
-710.675	48.147	-0.168	-0.158
-709.660	314.925	-0.182	-0.345
-708.645	39.528	-0.115	-0.104
-707.631	-200.000	-0.039	-0.310
-706.616	-200.000	-0.006	-0.209
-705.602	294.307	-0.136	0.250
-704.587	370.269	-0.070	0.142
-703.572	-200.000	-0.047	-0.338
-702.558	731.763	-0.082	-0.219
-701.543	694.349	-0.057	-0.150
-700.529	163.741	-0.028	-0.039
-699.514	-7.282	-0.041	-0.028
-698.499	60.070	-0.186	-0.185
-697.485	71.201	-0.272	-0.283
-696.470	-23.890	-0.267	-0.160
-695.456	800.000	-0.035	0.128
-694.441	-26.100	-0.138	0.081
-693.426	771.711	-0.124	-0.341
-692.412	-200.000	-0.025	-0.132
-691.397	-96.232	-0.113	0.030
-690.383	38.526	-0.326	0.292
-689.368	-62.240	-0.161	-0.068
-688.354	183.998	-0.024	0.036
-687.339	529.943	-0.027	0.063
-686.324	187.865	0.043	-0.064
-685.310	-200.000	-0.014	0.255
-684.295	325.773	-0.064	0.123
-683.281	-106.640	0.366	0.082
-682.266	73.995	0.062	0.065
-681.251	-67.471	-0.078	-0.031
-680.237	151.242	0.130	-0.178
-679.222	-200.000	0.018	-0.084
-678.208	800.000	-0.057	-0.233
-677.193	-36.030	0.323	-0.175
-676.178	-37.257	-0.216	-0.116
-675.164	-200.000	0.024	-0.298
-674.149	-143.609	-0.063	-0.006
-673.135	-200.000	0.018	-0.197
-672.120	-66.986	-0.164	0.065
-671.105	-120.836	0.279	-0.047
-670.091	456.601	-0.126	-0.281
-669.076	-178.327	-0.321	0.008
-668.062	800.000	0.078	0.341
-667.047	-200.000	-0.011	-0.077
-666.032	-106.952	0.266	-0.059
-665.018	-200.000	0.019	0.266
-664.003	-7.001	-0.124	-0.084
-662.989	-90.250	-0.058	0.017
-661.974	-200.000	-0.013	0.162
-660.959	-45.964	-0.302	0.149
-659.945	105.578	0.019	-0.022
-658.930	-200.000	-0.014	0.194
-657.916	-111.804	0.123	-0.025
-656.901	417.957	0.095	0.204
-655.886	236.397	-0.126	-0.209
-654.872	-200.000	0.008	0.130
-653.857	-200.000	-0.026	0.198
-652.843	178.240	0.103	-0.151
-651.828	-200.000	0.017	0.192
-650.814	-140.608	0.137	0.014
-649.799	-24.564	0.190	0.113
-648.784	800.000	-0.007	0.021
-647.770	-134.593	-0.094	-0.012
-646.755	40.307	0.321	0.289
-645.741	-19.878	0.133	-0.082
-644.726	111.148	-0.103	-0.124
-643.711	39.739	-0.147	-0.133
-642.697	-54.302	-0.109	-0.050
-641.682	-110.585	0.035	0.007
-640.668	-200.000	-0.037	-0.388
-639.653	119.073	0.243	0.301
-638.638	-98.642	0.198	0.051
-637.624	800.000	-0.083	-0.310
-636.609	69.071	-0.311	0.320
-635.595	-200.000	-0.081	0.371
-634.580	488.306	0.015	0.035
-633.565	36.734	-0.297	0.263
-632.551	10.046	-0.075	0.057
-631.536	-54.291	0.139	-0.063
-630.522	60.067	-0.072	-0.071
-629.507	-50.070	-0.200	-0.095
-628.492	-42.767	0.285	-0.145
-627.478	-78.129	-0.325	-0.112
-626.463	-200.000	0.001	0.084
-625.449	-154.128	-0.325	-0.022
-624.434	800.000	-0.163	0.468
-623.419	25.403	-0.178	-0.148
-622.405	-71.203	-0.137	-0.051
-621.390	41.299	0.148	-0.134
-620.376	-152.014	-0.123	0.009
-619.361	-65.302	0.024	0.010
-618.346	-200.000	-0.061	-0.372
-617.332	-167.771	-0.149	-0.006
-616.317	168.416	-0.056	0.080
-615.303	-72.247	-0.280	0.104
-614.288	39.545	0.087	0.078
-613.273	-27.297	-0.149	-0.087
-612.259	239.444	-0.161	0.269
-611.244	-117.673	-0.092	0.017
-610.230	34.012	0.060	-0.052
-609.215	236.687	-0.144	-0.239
-608.201	-136.152	0.229	0.027
-607.186	90.045	-0.280	-0.313
-606.171	-51.333	-0.286	-0.134
-605.157	-153.713	0.111	-0.008
-604.142	800.000	-0.069	0.247
-603.128	-74.768	-0.267	-0.096
-602.113	42.272	-0.345	-0.313
-601.098	-200.000	-0.002	0.209
-600.084	-51.069	0.216	0.102
-599.069	-33.415	-0.168	0.093
-598.055	-110.142	-0.313	-0.065
-597.040	139.497	0.066	0.086
-596.025	-200.000	0.002	0.053
-595.011	-59.621	0.070	-0.030
-593.996	238.445	0.072	0.119
-592.982	-200.000	-0.046	0.333
-591.967	366.662	-0.062	0.125
-590.952	198.161	-0.251	-0.383
-589.938	78.575	0.193	0.206
-588.923	400.468	-0.130	-0.274
-587.909	-97.544	0.154	-0.040
-586.894	92.317	-0.059	-0.067
-585.879	-139.141	-0.227	-0.025
-584.865	-200.000	-0.050	-0.304
-583.850	-200.000	0.002	0.025
-582.836	800.000	0.054	-0.210
-581.821	399.148	0.112	0.234
-580.806	-52.711	-0.259	-0.120
-579.792	44.146	0.383	-0.351
-578.777	-200.000	0.008	-0.138
-577.763	-197.352	0.206	0.001
-576.748	303.204	-0.159	-0.294
-575.733	643.883	0.055	-0.141
-574.719	226.009	-0.153	-0.248
-573.704	-200.000	0.016	0.079
-572.690	-39.744	-0.118	0.062
-571.675	-125.816	-0.166	0.025
-570.661	3.517	0.221	0.161
-569.646	5.282	0.182	-0.134
-568.631	246.654	-0.068	0.115
-567.617	-156.752	-0.146	0.009
-566.602	-59.096	0.066	-0.028
-565.588	-123.245	-0.309	-0.049
-564.573	-37.598	-0.299	-0.159
-563.558	375.168	0.126	0.257
-562.544	-200.000	0.038	-0.179
-561.529	269.218	0.107	-0.187
-560.515	387.077	0.122	0.252
-559.500	91.561	0.136	0.153
-558.485	-200.000	-0.005	-0.063
-557.471	-200.000	0.033	0.251
-556.456	-7.697	-0.235	0.159
-555.442	800.000	0.131	-0.422
-554.427	-126.551	0.279	0.041
-553.412	-200.000	0.005	-0.192
-552.398	-200.000	-0.015	0.160
-551.383	-200.000	-0.018	-0.083
-550.369	-144.709	-0.328	0.030
-549.354	212.103	-0.123	-0.194
-548.339	-59.054	-0.298	0.129
-547.325	12.027	-0.425	-0.326
-546.310	-200.000	0.000	0.047
-545.296	27.113	0.250	0.210
-544.281	-56.597	0.207	-0.092
-543.266	428.894	0.023	0.049
-542.252	40.848	-0.267	-0.241
-541.237	88.335	-0.046	0.051
-540.223	-200.000	0.006	-0.276
-539.208	-136.480	0.082	0.009
-538.193	70.885	-0.118	-0.122
-537.179	-121.089	-0.120	0.020
-536.164	81.379	-0.335	-0.361
-535.150	376.567	-0.127	-0.259
-534.135	351.848	0.152	-0.300
-533.121	-38.833	0.152	0.080
-532.106	382.314	-0.148	0.304
-531.091	-111.472	-0.145	-0.029
-530.077	18.237	0.161	-0.128
-529.062	662.548	0.175	0.450
-528.048	331.315	0.146	0.280
-527.033	37.072	-0.168	-0.149
-526.018	-66.814	0.356	0.140
-525.004	-39.053	-0.178	-0.093
-523.989	564.869	0.079	0.190
-522.975	289.754	-0.034	-0.061
-521.960	-147.267	0.093	0.008
-520.945	-144.525	-0.295	0.027
-519.931	-27.180	0.197	-0.115
-518.916	-121.717	0.134	-0.022
-517.902	-78.282	-0.241	0.083
-516.887	51.464	0.204	0.193
-515.872	527.630	-0.050	-0.118
-514.858	36.077	0.286	-0.252
-513.843	-166.589	0.334	0.014
-512.829	22.198	0.119	-0.097
-511.814	-25.818	0.008	-0.005
-510.799	101.829	-0.109	0.126
-509.785	-8.192	0.088	-0.059
-508.770	-104.678	-0.062	0.014
-507.756	70.504	-0.046	0.048
-506.741	-127.323	-0.160	0.023
-505.726	-37.102	0.479	0.255
-504.712	-119.399	0.243	0.042
-503.697	-200.000	0.022	0.155
-502.683	800.000	0.083	-0.319
-501.668	800.000	-0.072	-0.197
-500.653	16.230	0.222	-0.175
-499.639	-83.305	-0.103	-0.033
-498.624	-165.584	0.133	0.006
-497.610	63.082	0.227	0.226
-496.595	119.402	0.198	-0.245
-495.581	-169.677	-0.182	0.007
-494.566	800.000	0.014	0.063
-493.551	123.511	-0.132	-0.165
-492.537	-200.000	0.067	-0.540
-491.522	-200.000	-0.002	0.049
-490.508	247.770	-0.021	-0.035
-489.493	-78.028	0.309	-0.106
-488.478	108.644	-0.307	0.365
-487.464	800.000	0.028	-0.120
-486.449	-91.459	0.183	-0.052
-485.435	85.708	-0.128	-0.140
-484.420	-186.980	0.137	0.002
-483.405	-200.000	0.022	-0.160
-482.391	-95.879	0.131	-0.035
-481.376	-200.000	0.034	-0.178
-480.362	127.402	0.181	-0.229
-479.347	-170.554	-0.087	0.003
-478.332	440.435	0.078	-0.171
-477.318	-79.266	0.423	-0.143
-476.303	32.054	0.168	0.144
-475.289	127.172	0.163	0.206
-474.274	800.000	-0.035	-0.099
-473.259	-152.115	-0.319	0.023
-472.245	-138.547	0.269	-0.029
-471.230	724.992	-0.071	0.187
-470.216	414.060	-0.034	-0.072
-469.201	38.773	-0.258	0.229
-468.186	96.100	0.172	-0.195
-467.172	180.052	0.254	0.371
-466.157	-200.000	0.014	0.087
-465.143	-15.221	-0.137	-0.087
-464.128	800.000	0.110	-0.395
-463.113	-126.746	0.397	-0.058
-462.099	770.249	0.093	-0.252
-461.084	-73.067	0.230	0.084
-460.070	131.843	-0.267	0.342
-459.055	29.189	-0.328	0.277
-458.040	-35.875	-0.149	-0.080
-457.026	-125.017	0.124	-0.019
-456.011	-200.000	0.008	0.079
-454.997	-200.000	0.055	0.401
-453.982	-115.479	0.378	-0.071
-452.968	-200.000	0.001	-0.044
-451.953	145.814	0.081	-0.108
-450.938	-125.935	0.069	0.010
-449.924	11.736	0.137	0.105
-448.909	-200.000	0.016	0.128
-447.895	-200.000	-0.004	0.155
-446.880	-162.078	0.123	-0.006
-445.865	800.000	-0.112	0.360
-444.851	800.000	-0.115	0.435
-443.836	-200.000	-0.048	-0.413
-442.822	4.607	-0.298	-0.218
-441.807	-83.197	0.239	-0.076
-440.792	165.547	-0.196	0.275
-439.778	214.066	0.219	0.345
-438.763	-200.000	-0.001	-0.415
-437.749	30.699	0.069	0.059
-436.734	420.120	-0.156	-0.332
-435.719	-37.310	-0.122	-0.065
-434.705	25.795	0.087	0.072
-433.690	-39.105	0.123	-0.064
-432.676	161.225	0.030	-0.041
-431.661	385.114	-0.183	-0.376
-430.646	358.820	-0.138	-0.274
-429.632	-200.000	0.018	0.082
-428.617	22.276	0.088	-0.071
-427.603	13.534	0.145	0.112
-426.588	800.000	0.038	0.164
-425.573	800.000	0.027	0.082
-424.559	800.000	0.048	0.169
-423.544	230.493	-0.112	-0.183
-422.530	-47.695	-0.218	0.105
-421.515	-142.551	0.064	-0.006
-420.500	44.714	0.089	0.081
-419.486	57.025	-0.103	-0.100
-418.471	176.405	0.108	-0.156
-417.457	-26.839	-0.268	-0.156
-416.442	-200.000	0.035	0.392
-415.428	-102.771	-0.228	-0.054
-414.413	-64.415	-0.345	-0.139
-413.398	-12.575	0.160	-0.104
-412.384	184.299	0.058	0.086
-411.369	93.202	-0.128	0.144
-410.355	-111.945	-0.189	-0.038
-409.340	-115.764	-0.088	-0.016
-408.325	601.974	0.044	-0.108
-407.311	-200.000	0.002	-0.258
-406.296	-73.028	-0.317	-0.116
-405.282	-44.033	0.224	0.112
-404.267	-7.141	-0.031	-0.021
-403.252	-74.231	0.063	-0.023
-402.238	136.969	-0.145	0.189
-401.223	37.683	-0.091	-0.080
-400.209	-146.402	0.095	-0.008
-399.194	349.219	-0.151	-0.295
-398.179	217.632	-0.121	0.191
-397.165	-157.387	0.153	0.009
-396.150	143.538	0.109	-0.144
-395.136	-55.843	0.130	-0.058
-394.121	-200.000	-0.004	0.166
-393.106	-40.826	0.052	-0.027
-392.092	190.605	0.078	0.117
-391.077	527.338	0.048	0.111
-390.063	145.475	-0.071	-0.095
-389.048	-45.827	-0.363	-0.178
-388.033	-60.836	0.173	0.073
-387.019	89.050	-0.219	0.242
-386.004	50.930	0.295	-0.277
-384.990	-31.374	-0.370	0.207
-383.975	-200.000	-0.083	-0.512
-382.960	800.000	-0.049	-0.169
-381.946	-93.351	0.173	-0.048
-380.931	800.000	0.027	-0.094
-379.917	293.868	-0.112	0.203
-378.902	-19.657	0.356	0.219
-377.888	-23.634	-0.197	-0.117
-376.873	-82.962	0.179	0.057
-375.858	40.090	-0.100	-0.089
-374.844	-163.451	-0.325	-0.015
-373.829	163.638	0.097	0.135
-372.815	371.014	-0.107	-0.214
-371.800	18.930	-0.150	0.120
-370.785	800.000	0.037	-0.127
-369.771	-63.165	-0.326	0.133
-368.756	30.578	-0.294	0.249
-367.742	16.524	-0.182	0.143
-366.727	-200.000	0.025	0.378
-365.712	1.699	-0.049	0.035
-364.698	-200.000	-0.049	-0.221
-363.683	800.000	0.048	-0.148
-362.669	-0.320	0.135	0.095
-361.654	363.420	0.075	0.149
-360.639	800.000	-0.072	0.231
-359.625	231.126	0.093	-0.151
-358.610	123.138	-0.200	0.248
-357.596	800.000	0.053	0.207
-356.581	24.610	-0.057	0.047
-355.566	151.272	-0.093	0.125
-354.552	-200.000	0.011	0.093
-353.537	131.305	-0.046	0.058
-352.523	800.000	-0.070	0.296
-351.508	-121.312	0.257	0.042
-350.493	-28.094	0.195	-0.112
-349.479	496.367	-0.028	-0.064
-348.464	-200.000	-0.003	0.282
-347.450	-104.965	-0.060	0.014
-346.435	-19.018	0.160	0.098
-345.420	115.753	0.146	-0.177
-344.406	52.592	-0.085	-0.080
-343.391	800.000	0.052	0.157
-342.377	36.502	-0.282	-0.247
-341.362	135.707	0.154	0.198
-340.348	-108.212	-0.214	0.046
-339.333	800.000	-0.064	0.193
-338.318	-169.665	0.193	0.007
-337.304	-150.870	0.208	0.016
-336.289	-34.565	-0.092	-0.050
-335.275	-66.748	-0.124	-0.049
-334.260	69.388	-0.250	-0.255
-333.245	-32.484	0.039	0.022
-332.231	133.058	-0.204	-0.261
-331.216	-82.358	0.210	-0.068
-330.202	-1.475	0.193	0.135
-329.187	-64.852	-0.185	-0.074
-328.172	149.295	-0.106	-0.143
-327.158	144.502	0.219	-0.289
-326.143	19.246	0.118	-0.094
-325.129	154.444	0.114	-0.155
-324.114	-156.101	-0.136	-0.008
-323.099	230.455	-0.198	0.320
-322.085	-200.000	-0.019	0.134
-321.070	-48.085	-0.247	-0.118
-320.056	-200.000	0.018	-0.153
-319.041	214.046	0.202	0.316
-318.026	-104.424	0.240	0.055
-317.012	60.751	-0.188	-0.185
-315.997	108.628	-0.173	0.205
-314.983	126.409	0.175	-0.220
-313.968	-33.009	-0.205	0.112
-312.953	138.168	-0.036	0.046
-311.939	-154.954	0.190	-0.012
-310.924	62.078	0.152	0.150
-309.910	-200.000	-0.009	-0.068
-308.895	-200.000	-0.039	0.194
-307.880	-200.000	0.042	0.227
-306.866	-122.514	-0.227	-0.037
-305.851	-71.895	-0.197	0.073
-304.837	86.779	-0.211	0.231
-303.822	238.519	0.052	-0.085
-302.807	124.015	-0.050	-0.062
-301.793	-200.000	-0.045	-0.656
-300.778	241.669	0.021	0.035
-299.764	-17.370	0.300	-0.187
-298.749	-200.000	0.025	0.218
-297.735	-15.265	-0.100	-0.064
-296.720	-200.000	0.015	-0.108
-295.705	-112.135	0.218	0.043
-294.691	800.000	0.072	0.251
-293.676	-36.202	-0.445	0.238
-292.662	176.686	0.094	-0.135
-291.647	476.578	-0.086	0.193
-290.632	800.000	0.038	0.162
-289.618	225.566	-0.081	-0.129
-288.603	-42.924	0.208	-0.104
-287.589	501.973	0.078	0.178
-286.574	137.163	0.101	0.130
-285.559	343.376	0.124	0.239
-284.545	-124.071	-0.120	0.019
-283.530	-200.000	0.010	0.146
-282.516	-16.525	0.154	0.097
-281.501	-35.063	-0.281	0.151
-280.486	-144.099	-0.355	-0.033
-279.472	15.417	-0.180	-0.139
-278.457	214.640	0.051	0.080
-277.443	39.904	-0.126	-0.112
-276.428	-139.320	0.100	0.011
-275.413	-10.853	0.436	0.284
-274.399	41.663	-0.096	-0.086
-273.384	-99.147	-0.102	0.026
-272.370	30.474	-0.265	0.224
-271.355	-117.174	-0.279	-0.050
-270.340	110.568	0.186	-0.221
-269.326	41.484	-0.188	0.168
-268.311	-200.000	-0.025	0.118
-267.297	800.000	-0.006	-0.023
-266.282	800.000	0.061	-0.227
-265.267	-5.812	-0.088	0.060
-264.253	28.714	0.176	-0.147
-263.238	-83.727	0.054	0.017
-262.224	-95.919	-0.056	-0.015
-261.209	-8.128	0.304	-0.202
-260.195	-65.784	0.313	-0.124
-259.180	800.000	-0.127	0.378
-258.165	-200.000	-0.014	-0.125
-257.151	-30.401	-0.340	0.190
-256.136	349.391	0.067	-0.130
-255.122	-83.362	-0.224	0.071
-254.107	-46.593	-0.312	-0.151
-253.092	-30.221	-0.093	0.052
-252.078	236.002	-0.091	0.148
-251.063	53.499	-0.157	0.148
-250.049	800.000	0.069	0.204
-249.034	-23.900	0.212	-0.125
-248.019	601.686	0.023	-0.056
-247.005	-138.497	0.053	0.006
-245.990	349.203	0.165	-0.321
-244.976	284.013	-0.049	0.087
-243.961	-30.153	0.140	0.079
-242.946	-105.020	0.197	-0.045
-241.932	-200.000	-0.068	0.297
-240.917	26.735	-0.363	0.300
-239.903	77.671	-0.143	-0.150
-238.888	-200.000	-0.020	-0.358
-237.873	-200.000	0.024	0.252
-236.859	400.443	0.058	0.120
-235.844	522.528	0.101	0.234
-234.830	149.448	-0.016	0.022
-233.815	134.574	0.232	0.297
-232.800	62.678	0.028	-0.028
-231.786	14.674	0.116	0.090
-230.771	800.000	0.029	0.119
-229.757	754.182	-0.072	-0.192
-228.742	-50.522	0.307	-0.143
-227.727	-149.245	0.404	0.032
-226.713	-149.583	0.197	-0.015
-225.698	800.000	0.037	-0.106
-224.684	413.886	0.098	0.206
-223.669	-96.647	-0.201	0.052
-222.655	-29.785	0.098	0.055
-221.640	-200.000	0.055	-0.299
-220.625	800.000	0.084	-0.246
-219.611	310.374	-0.212	0.392
-218.596	-139.837	0.270	-0.028
-217.582	13.379	-0.055	-0.042
-216.567	-41.217	-0.083	0.042
-215.552	-128.038	-0.113	0.016
-214.538	-36.821	0.337	0.178
-213.523	475.061	0.139	0.308
-212.509	-85.419	-0.083	0.025
-211.494	-113.734	-0.156	-0.030
-210.479	178.967	0.095	-0.137
-209.465	-200.000	0.001	0.365
-208.450	497.737	-0.115	-0.261
-207.436	-200.000	0.045	-0.348
-206.421	-107.735	-0.040	-0.009
-205.406	35.626	0.268	-0.232
-204.392	-116.524	-0.171	-0.031
-203.377	97.661	0.099	-0.112
-202.363	-114.268	-0.213	-0.040
-201.348	58.926	-0.015	-0.014
-200.333	-48.829	-0.327	-0.155
-199.319	-124.693	0.278	0.042
-198.304	-45.709	0.082	0.040
-197.290	-92.720	-0.152	0.042
-196.275	244.639	0.214	0.354
-195.260	-200.000	-0.041	-0.189
-194.246	800.000	0.054	0.175
-193.231	-79.759	-0.169	-0.056
-192.217	-111.274	0.110	-0.022
-191.202	-200.000	0.031	-0.133
-190.187	-33.838	-0.071	-0.038
-189.173	60.549	-0.085	-0.083
-188.158	68.510	-0.190	-0.191
-187.144	-200.000	-0.054	0.253
-186.129	463.048	-0.051	-0.112
-185.114	23.990	0.218	0.177
-184.100	76.151	-0.139	-0.144
-183.085	335.813	0.113	0.216
-182.071	99.275	0.251	-0.286
-181.056	12.330	0.199	-0.151
-180.042	-200.000	0.001	-0.097
-179.027	-59.792	0.280	-0.118
-178.012	-171.971	-0.161	0.005
-176.998	28.442	0.193	-0.161
-175.983	-200.000	0.006	-0.047
-174.969	-171.842	0.215	-0.007
-173.954	4.457	0.277	0.200
-172.939	39.842	0.129	-0.114
-171.925	-78.560	0.337	0.113
-170.910	800.000	0.063	0.185
-169.896	-17.218	0.205	-0.127
-168.881	-159.260	0.116	0.006
-167.866	-3.806	-0.254	0.174
-166.852	227.812	0.122	0.196
-165.837	328.763	0.107	0.201
-164.823	89.806	-0.048	-0.053
-163.808	-200.000	-0.020	0.136
-162.793	-12.556	0.225	-0.144
-161.779	-32.636	0.121	-0.066
-160.764	-132.677	0.415	-0.052
-159.750	-28.954	0.136	0.077
-158.735	58.347	0.182	-0.175
-157.720	-56.403	-0.311	0.136
-156.706	259.119	-0.142	-0.242
-155.691	-146.001	-0.127	0.011
-154.677	-108.439	0.183	-0.039
-153.662	29.488	0.176	0.147
-152.647	-200.000	0.011	0.181
-151.633	37.313	0.285	0.248
-150.618	49.770	0.234	0.217
-149.604	800.000	0.094	0.286
-148.589	-164.851	0.106	-0.005
-147.574	800.000	-0.006	0.022
-146.560	627.601	-0.080	-0.198
-145.545	-200.000	0.033	-0.231
-144.531	-18.884	-0.277	-0.169
-143.516	643.159	0.170	-0.426
-142.502	290.670	-0.042	-0.075
-141.487	0.104	-0.202	-0.142
-140.472	-104.925	0.170	-0.038
-139.458	-46.025	-0.521	-0.252
-138.443	-98.274	0.141	-0.036
-137.429	13.450	-0.075	-0.057
-136.414	-83.827	-0.200	0.062
-135.399	-143.603	0.210	-0.020
-134.385	-122.011	0.083	-0.013
-133.370	61.531	-0.188	-0.184
-132.356	-65.428	0.094	-0.037
-131.341	-87.823	0.316	0.094
-130.326	-26.192	0.091	-0.053
-129.312	404.728	-0.180	-0.373
-128.297	788.523	0.073	0.196
-127.283	-32.711	-0.226	-0.123
-126.268	-200.000	-0.013	-0.319
-125.253	755.180	0.020	-0.054
-124.239	-93.069	-0.157	0.043
-123.224	-141.470	0.222	0.022
-122.210	-68.920	0.058	-0.022
-121.195	186.851	0.103	0.150
