DTS Sentinel unit serial number:	SN413079Multiplexer serial number:	ORYXHardware model number:	OX4-SRSoftware version number:	ORYX F/W v4.00 Oryx Data Collector v3.7.2.0data status	okinstallation	princeton_trtdifferential loss correction	single-endedforward channel	channel 2reverse channel	N/Adate	2019/09/17time	08:07:35forward acquisition time	60.00reverse acquisition time	0.00gamma	496.2192k internal	0.2334k external	0.2334temperature offset calibration	0.9973default loss term (dB/km)	0.3790temperature slope calibration	1.0000multiplexer offset coefficient	1.0000multiplexer slope coefficient	1.0000fibre end	0.00T internal ref (°C)	27.31T ext. ref 1 (°C)	0.12T ext. ref 2 (°C)	22.51length (m)	temperature (°C)	Stokes	anti-Stokes-747.200	10.584	0.304	0.233
-746.185	311.243	-0.189	0.355
-745.171	-143.549	0.230	0.022
-744.156	800.000	0.088	0.342
-743.142	-61.430	-0.136	0.058
-742.127	13.689	-0.230	-0.179
-741.112	24.245	-0.073	0.061
-740.098	-32.492	0.021	0.012
-739.083	478.685	0.148	0.338
-738.069	447.037	-0.107	0.236
-737.054	542.463	0.028	0.066
-736.039	-200.000	0.036	-0.263
-735.025	-200.000	-0.033	0.337
-734.010	-60.050	0.150	-0.064
-732.996	280.086	0.100	0.179
-731.981	-58.026	0.361	0.158
-730.966	-200.000	0.005	-0.068
-729.952	80.491	-0.081	0.088
-728.937	-75.687	0.175	-0.062
-727.923	267.756	-0.034	0.060
-726.908	-200.000	-0.009	-0.073
-725.894	-14.350	0.308	-0.199
-724.879	-200.000	-0.058	-0.294
-723.864	234.716	-0.022	-0.037
-722.850	54.487	0.122	-0.118
-721.835	259.194	0.092	0.160
-720.821	2.332	-0.155	-0.113
-719.806	-83.449	0.195	0.063
-718.791	-200.000	0.030	-0.161
-717.777	473.355	-0.108	0.245
-716.762	-200.000	0.000	-0.128
-715.748	800.000	0.107	-0.370
-714.733	-200.000	0.009	-0.216
-713.718	103.007	0.093	-0.110
-712.704	-200.000	-0.054	-0.247
-711.689	124.949	-0.182	0.230
-710.675	-200.000	0.000	0.064
-709.660	-200.000	0.024	0.154
-708.645	-3.884	-0.172	-0.120
-707.631	-152.923	0.432	0.031
-706.616	49.841	-0.208	-0.197
-705.602	-200.000	-0.008	-0.211
-704.587	60.290	-0.133	-0.133
-703.572	-200.000	0.034	-0.212
-702.558	-89.477	-0.291	-0.086
-701.543	13.224	-0.047	0.036
-700.529	800.000	-0.055	0.238
-699.514	-200.000	-0.029	0.417
-698.499	800.000	-0.049	-0.153
-697.485	-200.000	0.039	-0.208
-696.470	276.364	0.139	0.248
-695.456	-200.000	0.020	0.333
-694.441	1.169	0.325	-0.234
-693.426	-200.000	-0.036	0.338
-692.412	552.498	-0.113	0.272
-691.397	224.306	0.110	0.179
-690.383	-176.388	-0.305	-0.008
-689.368	-200.000	0.012	0.109
-688.354	151.070	0.076	0.103
-687.339	19.696	0.093	0.075
-686.324	17.161	-0.181	-0.144
-685.310	480.836	0.108	-0.245
-684.295	378.819	0.138	0.283
-683.281	100.309	-0.202	0.235
-682.266	10.589	-0.240	-0.184
-681.251	-7.401	-0.223	-0.151
-680.237	-32.730	0.296	0.165
-679.222	-110.550	0.112	-0.023
-678.208	-83.099	0.165	-0.053
-677.193	-90.516	-0.254	0.074
-676.178	800.000	0.047	-0.189
-675.164	-55.573	0.336	-0.151
-674.149	27.640	0.129	0.109
-673.135	9.448	-0.078	0.059
-672.120	-200.000	0.020	0.241
-671.105	-200.000	-0.006	-0.148
-670.091	-81.078	0.127	-0.042
-669.076	45.972	0.348	-0.323
-668.062	164.111	-0.207	-0.293
-667.047	407.179	0.068	-0.144
-666.032	-109.909	-0.124	0.026
-665.018	322.023	0.028	0.054
-664.003	-113.024	0.226	0.045
-662.989	-132.772	-0.171	-0.022
-661.974	129.250	-0.043	-0.055
-660.959	57.896	-0.235	-0.230
-659.945	89.575	-0.164	0.184
-658.930	-79.261	0.405	-0.138
-657.916	315.983	-0.055	0.104
-656.901	-107.803	-0.240	0.052
-655.886	-200.000	0.003	0.059
-654.872	143.406	0.136	-0.181
-653.857	573.124	-0.039	0.096
-652.843	-120.998	-0.074	0.012
-651.828	-200.000	-0.037	-0.193
-650.814	-30.792	0.196	0.111
-649.799	-175.710	0.196	-0.005
-648.784	88.982	-0.185	0.206
-647.770	-63.132	0.280	0.116
-646.755	729.076	-0.069	-0.186
-645.741	249.094	0.218	0.371
-644.726	-124.247	-0.107	0.017
-643.711	-149.932	-0.173	0.014
-642.697	278.120	0.055	0.098
-641.682	-200.000	0.032	-0.167
-640.668	-74.996	-0.299	-0.107
-639.653	800.000	-0.069	-0.266
-638.638	140.710	0.151	-0.200
-637.624	244.302	0.077	0.129
-636.609	-200.000	-0.008	0.168
-635.595	263.433	-0.063	0.109
-634.580	-18.415	-0.251	-0.157
-633.565	-89.046	0.361	0.107
-632.551	-62.506	-0.154	0.064
-631.536	-72.287	-0.217	0.080
-630.522	49.082	-0.228	0.215
-629.507	108.795	0.147	0.176
-628.492	139.708	0.057	0.075
-627.478	-200.000	0.044	0.241
-626.463	800.000	0.040	-0.167
-625.449	-188.108	-0.157	-0.002
-624.434	64.406	0.104	0.105
-623.419	443.495	-0.162	-0.356
-622.405	-57.991	0.132	-0.058
-621.390	-69.058	-0.333	-0.128
-620.376	160.049	-0.175	-0.244
-619.361	196.104	-0.182	0.277
-618.346	1.036	-0.260	0.187
-617.332	50.562	-0.225	-0.213
-616.317	3.227	0.136	-0.099
-615.303	613.222	-0.033	-0.083
-614.288	-200.000	-0.028	-0.202
-613.273	-66.562	-0.172	0.068
-612.259	-95.133	-0.163	-0.044
-611.244	-96.357	0.224	0.059
-610.230	560.340	-0.062	-0.149
-609.215	532.195	-0.157	-0.373
-608.201	70.318	-0.265	-0.274
-607.186	502.061	0.072	-0.166
-606.171	-11.735	-0.111	-0.073
-605.157	648.944	-0.116	0.297
-604.142	319.930	0.041	-0.077
-603.128	62.381	-0.213	0.212
-602.113	800.000	-0.068	0.257
-601.098	800.000	0.032	-0.095
-600.084	73.093	0.175	-0.183
-599.069	216.849	-0.193	0.308
-598.055	83.829	-0.237	0.258
-597.040	81.164	0.226	0.244
-596.025	-7.210	-0.311	0.211
-595.011	-155.198	0.363	-0.024
-593.996	0.778	0.124	0.089
-592.982	-130.126	-0.276	0.038
-591.967	800.000	0.112	-0.417
-590.952	-200.000	-0.011	-0.100
-589.938	-97.126	-0.241	-0.063
-588.923	-32.243	-0.319	-0.178
-587.909	-19.021	0.222	-0.138
-586.894	-200.000	-0.031	0.299
-585.879	800.000	0.031	-0.117
-584.865	642.325	0.059	-0.151
-583.850	800.000	0.038	-0.148
-582.836	-168.297	-0.144	0.006
-581.821	-106.845	-0.127	0.028
-580.806	34.058	0.021	0.019
-579.792	490.846	0.079	0.181
-578.777	36.168	-0.161	0.142
-577.763	-78.107	0.139	0.048
-576.748	-157.514	-0.325	0.019
-575.733	-32.450	-0.264	0.147
-574.719	149.531	-0.118	-0.160
-573.704	-179.506	0.117	-0.003
-572.690	-82.567	0.224	-0.073
-571.675	179.933	0.043	-0.062
-570.661	106.225	0.013	-0.016
-569.646	-37.675	-0.172	-0.091
-568.631	800.000	0.014	-0.058
-567.617	-137.856	-0.063	-0.007
-566.602	-27.533	0.294	0.171
-565.588	626.719	-0.175	-0.441
-564.573	-28.640	-0.167	0.096
-563.558	-23.158	-0.347	-0.209
-562.544	-14.900	0.065	-0.041
-561.529	59.616	0.257	-0.253
-560.515	305.579	-0.018	-0.033
-559.500	-166.659	-0.515	0.021
-558.485	7.560	-0.226	0.168
-557.471	18.543	0.223	0.178
-556.456	-84.637	-0.329	0.103
-555.442	-200.000	-0.025	-0.238
-554.427	800.000	-0.064	-0.250
-553.412	-200.000	0.030	-0.245
-552.398	800.000	0.115	0.417
-551.383	-93.997	-0.203	-0.055
-550.369	13.668	0.110	0.086
-549.354	-200.000	0.000	0.065
-548.339	-18.060	0.112	-0.070
-547.325	199.594	0.059	0.091
-546.310	-17.715	0.155	-0.097
-545.296	24.896	-0.138	0.114
-544.281	130.779	-0.091	0.116
-543.266	41.207	-0.208	0.187
-542.252	-200.000	-0.021	0.107
-541.237	-74.207	-0.149	-0.054
-540.223	216.750	-0.089	0.141
-539.208	-154.346	-0.215	-0.014
-538.193	144.480	-0.040	0.053
-537.179	685.328	-0.141	0.368
-536.164	800.000	0.050	-0.168
-535.150	300.441	0.035	-0.065
-534.135	-200.000	-0.001	0.011
-533.121	-173.373	0.244	0.007
-532.106	-10.990	0.285	-0.188
-531.091	-200.000	-0.031	0.156
-530.077	-200.000	0.033	0.228
-529.062	-119.264	-0.167	-0.029
-528.048	-140.015	0.105	0.011
-527.033	-200.000	0.026	-0.119
-526.018	-107.661	-0.190	-0.041
-525.004	-181.300	0.243	-0.005
-523.989	-200.000	0.057	0.323
-522.975	800.000	0.004	-0.018
-521.960	103.452	-0.069	0.080
-520.945	336.070	-0.084	-0.162
-519.931	209.487	-0.187	-0.292
-518.916	-125.490	-0.259	-0.039
-517.902	7.862	-0.196	0.146
-516.887	118.785	0.137	0.169
-515.872	94.536	-0.098	0.111
-514.858	800.000	-0.077	-0.213
-513.843	-114.692	0.192	-0.037
-512.829	30.394	-0.156	0.132
-511.814	800.000	0.077	0.254
-510.799	-1.317	-0.097	0.068
-509.785	3.780	-0.351	-0.255
-508.770	-40.908	0.255	-0.131
-507.756	800.000	0.090	0.330
-506.741	800.000	-0.090	0.278
-505.726	-19.182	0.157	0.097
-504.712	800.000	-0.016	0.063
-503.697	-102.080	0.120	0.029
-502.683	-24.519	-0.181	0.107
-501.668	-200.000	-0.008	-0.212
-500.653	243.867	0.178	0.298
-499.639	135.545	-0.173	0.225
-498.624	-62.590	-0.369	-0.152
-497.610	104.950	-0.134	-0.158
-496.595	-139.642	-0.381	-0.040
-495.581	476.819	0.071	0.160
-494.566	-76.145	-0.078	0.027
-493.551	-118.586	0.510	-0.090
-492.537	-150.629	-0.363	0.028
-491.522	127.797	-0.037	0.047
-490.508	-78.337	-0.142	0.048
-489.493	-82.362	-0.100	0.032
-488.478	36.477	-0.165	-0.145
-487.464	218.151	0.025	0.039
-486.449	-14.416	-0.288	0.184
-485.435	7.195	0.120	0.089
-484.420	-31.470	0.137	0.077
-483.405	2.269	-0.091	0.066
-482.391	-140.738	0.056	0.006
-481.376	-70.090	0.273	0.103
-480.362	32.422	0.091	-0.078
-479.347	146.691	0.119	0.160
-478.332	-200.000	0.054	-0.317
-477.318	-116.603	-0.313	-0.057
-476.303	-200.000	0.012	-0.241
-475.289	-84.475	0.474	0.149
-474.274	145.436	0.124	0.165
-473.259	-24.085	-0.342	-0.203
-472.245	800.000	0.017	0.072
-471.230	-200.000	-0.031	-0.345
-470.216	-90.006	0.553	0.161
-469.201	-20.430	-0.161	-0.098
-468.186	579.082	0.069	0.168
-467.172	-36.681	0.330	-0.176
-466.157	-122.957	0.250	0.040
-465.143	-34.807	-0.134	-0.073
-464.128	-112.460	-0.130	0.026
-463.113	47.278	0.182	0.168
-462.099	44.342	0.160	0.146
-461.084	-6.959	-0.219	0.148
-460.070	-101.556	-0.275	-0.066
-459.055	800.000	0.092	-0.265
-458.040	-130.145	-0.316	-0.043
-457.026	800.000	-0.101	0.408
-456.011	-47.632	0.108	0.052
-454.997	800.000	0.006	0.025
-453.982	40.839	-0.188	0.169
-452.968	-87.077	-0.229	0.069
-451.953	-67.738	0.235	-0.092
-450.938	171.126	0.157	-0.223
-449.924	129.722	-0.208	-0.265
-448.909	-181.712	0.220	0.004
-447.895	-144.663	0.239	0.022
-446.880	41.809	0.056	0.051
-445.865	-200.000	0.050	-0.283
-444.851	-123.477	-0.285	-0.045
-443.836	375.724	0.093	0.188
-442.822	-154.069	-0.197	-0.013
-441.807	111.179	0.190	-0.227
-440.792	-41.189	-0.201	0.103
-439.778	-44.287	0.301	0.150
-438.763	59.343	0.204	-0.200
-437.749	800.000	0.046	-0.143
-436.734	-47.929	-0.257	0.124
-435.719	-8.424	-0.092	-0.062
-434.705	-111.134	0.570	-0.116
-433.690	-63.494	-0.090	-0.037
-432.676	247.421	-0.079	-0.133
-431.661	-91.981	0.340	-0.096
-430.646	71.451	0.319	-0.329
-429.632	-81.524	0.150	-0.049
-428.617	83.009	0.067	-0.073
-427.603	-57.066	0.265	0.116
-426.588	-37.796	0.146	0.077
-425.573	-40.064	-0.091	-0.047
-424.559	262.371	0.118	-0.203
-423.544	655.288	-0.101	0.256
-422.530	-200.000	0.007	0.409
-421.515	-200.000	0.022	-0.100
-420.500	18.573	0.188	-0.149
-419.486	-189.653	-0.127	0.001
-418.471	75.158	-0.181	0.189
-417.457	197.304	-0.244	0.370
-416.442	703.635	-0.021	0.054
-415.428	-200.000	0.024	-0.149
-414.413	-41.911	-0.155	0.079
-413.398	384.139	-0.176	0.361
-412.384	-179.753	0.073	-0.002
-411.369	340.098	-0.094	0.183
-410.355	99.197	-0.010	0.011
-409.340	-59.428	-0.072	0.031
-408.325	800.000	0.014	0.051
-407.311	204.942	-0.185	-0.284
-406.296	-50.448	0.381	-0.178
-405.282	19.532	0.085	-0.068
-404.267	-200.000	0.020	-0.273
-403.252	39.123	0.109	-0.097
-402.238	50.470	0.171	0.161
-401.223	-153.422	-0.350	0.024
-400.209	-58.644	-0.160	-0.069
-399.194	121.815	-0.168	-0.208
-398.179	-200.000	0.014	-0.135
-397.165	-105.289	-0.139	0.031
-396.150	-170.752	0.249	0.009
-395.136	-32.632	0.254	-0.140
-394.121	-59.647	0.153	-0.065
-393.106	-200.000	0.004	0.075
-392.092	-200.000	-0.054	-0.266
-391.077	-163.683	0.337	-0.016
-390.063	-110.514	-0.345	-0.071
-389.048	105.249	-0.153	0.179
-388.033	201.725	0.202	-0.309
-387.019	-85.099	0.254	0.079
-386.004	380.236	-0.085	0.173
-384.990	800.000	0.059	0.204
-383.975	-78.104	-0.101	-0.034
-382.960	30.705	0.229	0.194
-381.946	19.948	-0.265	-0.212
-380.931	-200.000	-0.027	-0.160
-379.917	-33.481	-0.174	0.095
-378.902	-27.403	-0.147	0.085
-377.888	19.367	-0.203	-0.162
-376.873	-114.676	0.276	-0.052
-375.858	633.417	-0.060	0.150
-374.844	-101.807	0.099	0.024
-373.829	800.000	0.059	0.206
-372.815	800.000	-0.084	0.267
-371.800	-96.477	0.045	-0.012
-370.785	470.703	-0.057	0.128
-369.771	214.596	0.258	-0.406
-368.756	-96.560	-0.181	0.047
-367.742	-200.000	0.025	-0.138
-366.727	-116.911	0.308	0.056
-365.712	346.202	0.218	0.425
-364.698	21.671	0.181	-0.146
-363.683	800.000	-0.110	-0.338
-362.669	439.989	-0.130	0.282
-361.654	25.345	0.114	-0.094
-360.639	-171.679	0.344	0.011
-359.625	-200.000	0.001	0.199
-358.610	357.950	0.105	0.207
-357.596	-111.597	-0.543	-0.109
-356.581	-200.000	0.008	-0.184
-355.566	-29.802	0.103	-0.058
-354.552	-200.000	0.033	-0.291
-353.537	800.000	-0.136	0.410
-352.523	-138.471	-0.143	0.016
-351.508	100.582	0.159	0.182
-350.493	800.000	0.112	0.367
-349.479	490.528	0.039	0.089
-348.464	-28.345	0.276	0.158
-347.450	38.253	-0.080	-0.071
-346.435	132.581	0.170	-0.216
-345.420	182.577	0.148	0.216
-344.406	800.000	0.221	0.630
-343.391	-10.411	0.139	0.091
-342.377	800.000	0.124	-0.353
-341.362	-106.516	0.064	-0.014
-340.348	-35.866	-0.199	-0.107
-339.333	94.179	-0.079	0.089
-338.318	636.733	-0.048	-0.120
-337.304	98.664	0.179	0.204
-336.289	460.491	-0.071	-0.156
-335.275	-104.024	-0.104	-0.024
-334.260	13.079	0.365	0.280
-333.245	-200.000	0.040	0.188
-332.231	-200.000	0.051	0.450
-331.216	-200.000	-0.003	-0.226
-330.202	-200.000	0.008	0.268
-329.187	-200.000	0.213	0.000
-328.172	238.209	0.126	0.207
-327.158	800.000	0.093	0.322
-326.143	288.106	-0.046	-0.081
-325.129	127.972	-0.225	0.283
-324.114	52.760	0.157	-0.148
-323.099	800.000	-0.018	-0.076
-322.085	126.041	-0.107	0.133
-321.070	-84.344	0.137	0.043
-320.056	261.361	0.092	-0.158
-319.041	112.721	0.063	-0.076
-318.026	-86.536	0.220	-0.067
-317.012	-200.000	0.007	0.248
-315.997	70.544	-0.185	0.189
-314.983	248.384	0.137	0.229
-313.968	470.093	-0.097	0.216
-312.953	292.669	-0.141	-0.254
-311.939	59.289	-0.210	-0.205
-310.924	800.000	0.113	-0.360
-309.910	781.491	0.077	0.208
-308.895	301.634	0.120	0.220
-307.880	715.619	-0.138	-0.362
-306.866	-69.251	0.312	0.118
-305.851	-161.558	0.356	0.018
-304.837	1.163	-0.275	-0.195
-303.822	26.175	-0.025	0.021
-302.807	-200.000	0.004	0.205
-301.793	-29.342	0.181	-0.103
-300.778	-38.802	-0.100	-0.052
-299.764	111.544	0.128	-0.153
-298.749	-88.712	-0.072	0.021
-297.735	399.823	0.253	0.523
-296.720	-200.000	0.060	-0.375
-295.705	182.140	0.146	0.213
-294.691	-91.804	-0.246	-0.069
-293.676	525.098	0.140	-0.325
-292.662	335.752	0.123	-0.235
-291.647	24.874	0.315	-0.258
-290.632	255.192	-0.097	-0.165
-289.618	-44.073	0.197	-0.097
-288.603	101.111	-0.203	-0.233
-287.589	-200.000	0.025	-0.306
-286.574	-78.667	0.243	-0.082
-285.559	-103.356	0.123	0.029
-284.545	-45.191	-0.045	-0.022
-283.530	800.000	-0.038	0.160
-282.516	-28.389	-0.256	-0.146
-281.501	-14.048	0.302	-0.193
-280.486	670.888	0.012	0.031
-279.472	-65.013	0.079	0.031
-278.457	-32.983	-0.243	-0.133
-277.443	79.727	-0.209	-0.221
-276.428	-75.999	-0.124	0.043
-275.413	121.904	-0.141	0.173
-274.399	-200.000	0.007	-0.431
-273.384	292.713	-0.126	-0.226
-272.370	72.654	0.096	0.099
-271.355	297.269	-0.211	0.382
-270.340	63.017	0.169	-0.167
-269.326	-78.067	-0.314	-0.107
-268.311	-162.102	-0.300	0.015
-267.297	552.514	-0.032	-0.076
-266.282	-200.000	-0.079	-0.429
-265.267	396.097	0.025	-0.051
-264.253	-200.000	-0.008	0.062
-263.238	-118.685	0.129	0.023
-262.224	171.681	0.207	-0.293
-261.209	578.061	0.032	0.077
-260.195	-156.916	-0.200	-0.012
-259.180	32.207	-0.140	0.119
-258.165	734.104	-0.059	0.155
-257.151	-49.214	0.351	-0.165
-256.136	-200.000	-0.035	0.339
-255.122	-49.061	0.092	-0.043
-254.107	163.964	-0.196	-0.272
-253.092	167.499	-0.095	0.133
-252.078	626.036	0.061	0.153
-251.063	211.561	-0.145	0.225
-250.049	428.982	0.102	0.217
-249.034	-66.606	-0.052	0.020
-248.019	-21.634	0.482	-0.289
-247.005	-200.000	0.004	0.035
-245.990	-40.408	-0.084	0.043
-244.976	800.000	0.065	-0.190
-243.961	800.000	-0.125	0.487
-242.946	-188.753	0.230	0.003
-241.932	-200.000	0.020	-0.107
-240.917	18.269	-0.208	0.164
-239.903	-200.000	0.010	-0.227
-238.888	125.710	-0.167	-0.208
-237.873	-1.728	0.203	0.141
-236.859	-200.000	0.009	-0.427
-235.844	24.107	-0.253	-0.206
-234.830	800.000	0.098	-0.300
-233.815	-42.951	-0.161	-0.081
-232.800	48.750	0.176	-0.163
-231.786	222.008	0.016	-0.025
-230.771	-93.611	0.102	0.028
-229.757	337.561	0.147	-0.282
-228.742	-200.000	-0.002	-0.081
-227.727	128.067	-0.277	-0.347
-226.713	52.970	0.232	-0.219
-225.698	99.482	0.153	0.175
-224.684	495.712	0.040	0.090
-223.669	155.252	0.157	0.213
-222.655	11.281	0.096	-0.072
-221.640	-106.231	0.017	0.004
-220.625	595.722	-0.125	-0.304
-219.611	-137.645	0.193	0.021
-218.596	-166.722	-0.277	-0.011
-217.582	-81.012	0.252	0.082
-216.567	800.000	0.036	0.100
-215.552	-200.000	-0.054	0.243
-214.538	9.608	-0.230	0.171
-213.523	-46.319	0.292	-0.141
-212.509	-86.813	-0.229	0.069
-211.494	-200.000	-0.002	-0.359
-210.479	52.857	0.297	0.280
-209.465	800.000	0.081	0.311
-208.450	-42.115	0.194	-0.098
-207.436	187.547	0.092	0.135
-206.421	-180.024	0.335	-0.007
-205.406	91.988	-0.318	-0.352
-204.392	-173.404	0.121	-0.004
-203.377	143.890	-0.009	-0.012
-202.363	16.590	0.115	-0.089
-201.348	17.607	-0.066	-0.051
-200.333	32.700	-0.066	-0.057
-199.319	-108.530	-0.161	-0.034
-198.304	72.394	-0.031	-0.032
-197.290	231.119	-0.071	0.115
-196.275	62.176	0.156	0.154
-195.260	686.849	-0.065	0.167
-194.246	-76.654	0.434	-0.150
-193.231	258.613	-0.136	-0.231
-192.217	-200.000	0.018	-0.083
-191.202	44.517	-0.069	0.062
-190.187	-200.000	-0.065	-0.349
-189.173	56.359	0.400	-0.382
-188.158	23.853	0.175	-0.142
-187.144	-57.273	0.455	0.197
-186.129	-57.588	-0.262	0.113
-185.114	148.223	0.084	0.112
-184.100	-200.000	0.264	-0.001
-183.085	-24.847	0.053	0.031
-182.071	754.699	0.049	-0.130
-181.056	-148.065	-0.250	-0.020
-180.042	-200.000	0.010	0.092
-179.027	-154.258	0.173	0.011
-178.012	-16.078	-0.217	0.136
-176.998	-197.514	0.063	-0.000
-175.983	-165.722	-0.126	-0.005
-174.969	-82.071	0.338	0.109
-173.954	800.000	0.120	0.390
-172.939	444.973	-0.125	0.270
-171.925	106.208	0.252	0.294
-170.910	-200.000	0.001	0.089
-169.896	51.197	-0.172	0.160
-168.881	144.418	-0.203	0.267
-167.866	-200.000	0.041	-0.185
-166.852	71.654	-0.228	0.232
-165.837	777.574	-0.035	-0.093
-164.823	310.415	-0.078	0.144
-163.808	-79.689	-0.354	-0.117
-162.793	-200.000	0.039	-0.341
-161.779	681.739	-0.097	0.249
-160.764	-39.515	0.216	-0.111
-159.750	647.439	-0.022	-0.054
-158.735	-85.994	-0.072	-0.022
-157.720	-113.826	0.198	0.038
-156.706	106.214	-0.186	-0.217
-155.691	179.997	-0.117	0.169
-154.677	-166.284	-0.180	0.007
-153.662	267.316	0.033	-0.057
-152.647	-200.000	0.082	-0.384
-151.633	0.432	-0.228	0.160
-150.618	-80.866	0.125	0.041
-149.604	-37.032	-0.149	-0.078
-148.589	-200.000	0.017	0.149
-147.574	-112.307	-0.110	0.022
-146.560	65.441	0.279	0.277
-145.545	-8.227	-0.089	-0.059
-144.531	606.759	-0.026	-0.064
-143.516	219.205	0.219	0.344
-142.502	-119.575	0.226	-0.038
-141.487	-27.813	0.041	0.023
-140.472	42.219	-0.235	-0.210
-139.458	-82.549	0.204	-0.065
-138.443	-38.770	-0.308	0.159
-137.429	15.172	0.135	0.104
-136.414	-55.712	-0.167	0.073
-135.399	220.526	-0.087	0.137
-134.385	-124.916	0.234	0.035
-133.370	215.721	0.130	-0.203
-132.356	129.061	-0.030	-0.037
-131.341	732.053	-0.136	0.356
-130.326	18.059	-0.064	-0.050
-129.312	-200.000	0.018	0.125
-128.297	-200.000	0.012	0.305
-127.283	-200.000	0.080	-0.389
-126.268	117.834	0.162	0.196
-125.253	800.000	-0.076	0.322
-124.239	-200.000	0.027	0.237
-123.224	-133.561	0.211	0.026
-122.210	-200.000	0.031	-0.219
-121.195	-131.827	-0.171	-0.022
-120.180	107.762	0.071	0.083
