DTS Sentinel unit serial number:	SN413079Multiplexer serial number:	ORYXHardware model number:	OX4-SRSoftware version number:	ORYX F/W v4.00 Oryx Data Collector v3.7.2.0data status	okinstallation	princeton_trtdifferential loss correction	single-endedforward channel	channel 2reverse channel	N/Adate	2019/09/17time	22:27:35forward acquisition time	60.00reverse acquisition time	0.00gamma	496.2192k internal	0.2344k external	0.2344temperature offset calibration	0.9984default loss term (dB/km)	0.3790temperature slope calibration	1.0000multiplexer offset coefficient	1.0000multiplexer slope coefficient	1.0000fibre end	0.00T internal ref (°C)	25.37T ext. ref 1 (°C)	0.18T ext. ref 2 (°C)	18.55length (m)	temperature (°C)	Stokes	anti-Stokes-747.200	-117.948	0.071	0.013
-746.185	-79.063	0.153	0.052
-745.171	60.538	0.030	0.030
-744.156	-90.292	-0.249	0.072
-743.142	-200.000	-0.038	-0.298
-742.127	618.943	-0.118	0.296
-741.112	800.000	-0.088	0.254
-740.098	-200.000	0.022	-0.241
-739.083	-40.454	0.119	-0.062
-738.069	7.808	-0.317	0.238
-737.054	-68.651	-0.167	0.065
-736.039	-200.000	0.029	0.203
-735.025	-200.000	0.055	-0.327
-734.010	-200.000	-0.006	0.249
-732.996	-143.765	0.225	-0.021
-731.981	-13.450	-0.166	0.108
-730.966	-200.000	-0.017	-0.169
-729.952	-67.523	-0.137	0.054
-728.937	76.637	-0.067	0.071
-727.923	-28.105	0.269	-0.156
-726.908	-200.000	-0.031	-0.186
-725.894	-76.278	0.192	0.068
-724.879	722.365	0.086	-0.229
-723.864	-200.000	0.043	-0.244
-722.850	84.614	-0.114	-0.125
-721.835	486.117	-0.058	-0.133
-720.821	-142.194	0.368	0.037
-719.806	-88.891	-0.527	-0.156
-718.791	-141.143	0.179	0.018
-717.777	459.930	-0.110	-0.245
-716.762	-200.000	-0.018	0.385
-715.748	5.578	-0.017	0.012
-714.733	-200.000	0.024	0.109
-713.718	105.175	-0.291	0.343
-712.704	-200.000	0.026	-0.378
-711.689	339.769	0.044	0.086
-710.675	-81.169	0.147	-0.049
-709.660	22.992	0.037	0.030
-708.645	653.440	0.052	0.134
-707.631	-71.834	-0.341	-0.127
-706.616	504.780	-0.056	-0.129
-705.602	800.000	-0.075	0.301
-704.587	61.306	0.116	-0.116
-703.572	800.000	-0.143	-0.439
-702.558	-102.349	-0.159	0.038
-701.543	374.606	-0.185	-0.377
-700.529	-145.504	0.340	-0.030
-699.514	-61.803	-0.230	-0.096
-698.499	142.556	0.223	-0.296
-697.485	-200.000	0.014	-0.153
-696.470	-200.000	0.028	-0.183
-695.456	47.371	0.158	0.147
-694.441	-200.000	0.003	-0.079
-693.426	268.741	0.088	0.154
-692.412	-137.706	-0.199	-0.022
-691.397	-200.000	0.002	-0.591
-690.383	711.312	-0.020	0.054
-689.368	-200.000	0.052	-0.263
-688.354	267.520	0.080	0.140
-687.339	-93.265	-0.310	0.086
-686.324	-29.821	-0.170	0.097
-685.310	7.242	0.306	0.228
-684.295	-143.742	0.182	0.017
-683.281	-158.523	-0.018	-0.001
-682.266	-29.788	-0.219	0.125
-681.251	149.583	0.107	0.145
-680.237	290.943	-0.144	0.261
-679.222	-116.358	-0.152	0.028
-678.208	-72.025	0.066	-0.024
-677.193	-104.356	-0.314	0.073
-676.178	295.598	-0.137	0.251
-675.164	53.730	-0.170	-0.163
-674.149	17.113	-0.135	-0.107
-673.135	-53.030	-0.269	-0.123
-672.120	160.314	0.070	0.098
-671.105	-15.123	0.253	-0.162
-670.091	-119.154	0.249	0.043
-669.076	20.955	0.116	0.094
-668.062	-181.894	-0.189	-0.004
-667.047	788.288	0.066	0.182
-666.032	-200.000	-0.056	-0.342
-665.018	51.824	0.249	-0.236
-664.003	-30.214	-0.054	0.031
-662.989	800.000	-0.061	-0.236
-661.974	-200.000	0.001	-0.140
-660.959	-200.000	0.015	0.296
-659.945	-137.262	0.109	-0.012
-658.930	143.685	-0.080	0.106
-657.916	126.739	0.038	-0.048
-656.901	428.973	-0.070	-0.152
-655.886	-103.907	-0.612	-0.143
-654.872	-200.000	0.014	0.151
-653.857	129.834	0.172	-0.220
-652.843	-27.059	0.021	0.012
-651.828	-27.316	-0.245	0.142
-650.814	-8.186	-0.122	-0.082
-649.799	-90.115	0.451	0.131
-648.784	464.651	-0.091	-0.203
-647.770	205.467	0.073	-0.114
-646.755	-134.674	-0.182	0.022
-645.741	-200.000	0.017	-0.142
-644.726	-200.000	0.001	-0.263
-643.711	-70.217	-0.217	-0.082
-642.697	-140.156	0.158	-0.017
-641.682	86.880	-0.151	0.166
-640.668	45.673	0.127	0.117
-639.653	-200.000	-0.023	-0.624
-638.638	-200.000	-0.060	-0.273
-637.624	-14.929	-0.262	-0.168
-636.609	160.341	-0.281	0.391
-635.595	-52.753	0.178	0.082
-634.580	20.140	-0.267	-0.214
-633.565	247.402	0.086	-0.144
-632.551	-110.667	-0.015	-0.003
-631.536	-69.900	-0.240	-0.091
-630.522	67.987	0.211	-0.215
-629.507	-109.412	0.119	-0.025
-628.492	-5.357	0.121	-0.083
-627.478	492.691	-0.082	-0.187
-626.463	-189.110	-0.301	-0.004
-625.449	321.049	-0.080	0.151
-624.434	800.000	-0.037	-0.114
-623.419	-16.407	-0.147	-0.093
-622.405	-68.302	0.296	-0.115
-621.390	-167.200	-0.093	-0.004
-620.376	356.098	-0.109	-0.216
-619.361	78.249	0.066	0.071
-618.346	144.393	-0.093	0.124
-617.332	242.121	0.088	0.146
-616.317	366.652	0.111	0.224
-615.303	-40.060	-0.256	-0.133
-614.288	-200.000	-0.024	-0.505
-613.273	257.497	-0.176	-0.302
-612.259	149.766	-0.201	0.271
-611.244	482.627	0.088	0.199
-610.230	800.000	-0.035	-0.139
-609.215	-60.198	-0.122	-0.052
-608.201	-149.566	-0.091	-0.007
-607.186	-55.279	0.062	-0.028
-606.171	37.094	-0.177	-0.156
-605.157	-103.330	-0.333	0.078
-604.142	-43.419	0.265	-0.133
-603.128	211.680	0.023	-0.036
-602.113	-200.000	0.045	0.200
-601.098	23.704	-0.071	-0.058
-600.084	-175.597	-0.144	-0.004
-599.069	-200.000	-0.017	0.098
-598.055	309.275	-0.081	-0.150
-597.040	281.820	-0.048	-0.086
-596.025	-89.233	0.076	0.022
-595.011	-200.000	0.013	0.326
-593.996	-198.153	0.124	0.001
-592.982	-35.452	0.276	-0.149
-591.967	-200.000	0.013	-0.077
-590.952	-41.949	-0.068	-0.035
-589.938	271.120	-0.033	-0.058
-588.923	-200.000	0.004	-0.025
-587.909	-34.844	0.384	0.209
-586.894	538.362	0.020	0.047
-585.879	-200.000	-0.017	0.177
-584.865	-104.798	-0.480	0.110
-583.850	95.705	0.162	0.184
-582.836	-13.387	-0.218	0.141
-581.821	-200.000	0.045	0.526
-580.806	94.841	-0.209	0.237
-579.792	800.000	-0.033	0.138
-578.777	239.925	-0.185	-0.307
-577.763	-200.000	0.028	0.279
-576.748	176.887	0.071	0.103
-575.733	-200.000	0.006	-0.167
-574.719	-200.000	0.083	-0.435
-573.704	116.114	0.013	-0.016
-572.690	4.270	-0.117	0.085
-571.675	-123.192	-0.216	-0.034
-570.661	-200.000	0.062	0.415
-569.646	142.527	0.047	-0.062
-568.631	-1.060	-0.165	-0.116
-567.617	3.479	0.183	-0.133
-566.602	-66.685	-0.186	0.073
-565.588	-140.129	0.276	-0.029
-564.573	778.942	-0.118	0.319
-563.558	-34.716	-0.139	0.075
-562.544	-75.476	0.297	0.105
-561.529	144.772	0.246	0.327
-560.515	23.401	0.110	-0.090
-559.500	12.282	-0.154	0.118
-558.485	-24.895	-0.167	-0.098
-557.471	-143.894	0.368	0.034
-556.456	800.000	0.060	0.208
-555.442	-191.306	0.236	-0.002
-554.427	-145.706	-0.114	0.010
-553.412	800.000	0.067	-0.191
-552.398	-6.365	-0.152	-0.103
-551.383	88.979	0.227	-0.251
-550.369	132.094	-0.134	0.172
-549.354	-66.433	-0.288	0.114
-548.339	-54.852	0.376	-0.169
-547.325	-87.651	-0.304	-0.091
-546.310	-40.168	-0.044	0.023
-545.296	530.609	0.019	-0.044
-544.281	185.888	0.136	-0.200
-543.266	166.593	-0.141	0.199
-542.252	-137.101	0.301	0.034
-541.237	32.195	0.179	-0.153
-540.223	-200.000	-0.015	-0.088
-539.208	-46.321	0.045	-0.022
-538.193	128.090	-0.073	0.092
-537.179	106.547	0.155	-0.182
-536.164	-23.336	0.184	0.110
-535.150	37.131	-0.317	-0.279
-534.135	-164.146	-0.150	-0.007
-533.121	-117.343	-0.215	-0.039
-532.106	-5.941	0.109	0.074
-531.091	-26.078	0.113	0.066
-530.077	-86.142	-0.126	-0.038
-529.062	-94.913	0.228	0.061
-528.048	-200.000	-0.002	0.232
-527.033	-110.960	-0.110	0.022
-526.018	-138.406	0.361	-0.040
-525.004	-77.129	-0.450	0.156
-523.989	75.137	-0.133	0.139
-522.975	-127.605	-0.102	-0.015
-521.960	-200.000	-0.049	0.220
-520.945	-200.000	-0.026	0.185
-519.931	-36.352	0.261	0.139
-518.916	206.628	-0.073	-0.113
-517.902	800.000	-0.014	0.051
-516.887	800.000	0.136	0.444
-515.872	-72.282	0.023	0.008
-514.858	142.667	0.113	0.149
-513.843	-87.977	-0.166	0.049
-512.829	269.458	-0.113	0.196
-511.814	56.145	0.227	-0.218
-510.799	133.867	-0.053	0.068
-509.785	151.312	0.060	0.081
-508.770	119.232	-0.115	-0.141
-507.756	-200.000	-0.047	0.275
-506.741	-167.610	0.264	-0.010
-505.726	276.665	0.046	-0.081
-504.712	-200.000	-0.007	0.129
-503.697	136.299	-0.216	-0.279
-502.683	-147.513	0.108	-0.009
-501.668	-94.393	-0.324	0.088
-500.653	-100.162	0.256	0.063
-499.639	89.359	0.064	0.071
-498.624	465.619	-0.059	0.132
-497.610	295.823	0.105	-0.190
-496.595	-200.000	0.007	0.146
-495.581	-64.529	0.104	0.042
-494.566	-163.530	-0.351	-0.017
-493.551	-74.821	-0.066	-0.024
-492.537	-154.274	0.285	-0.019
-491.522	353.818	-0.019	0.038
-490.508	23.495	0.166	-0.135
-489.493	140.004	-0.093	0.122
-488.478	413.358	0.129	-0.271
-487.464	-69.224	-0.317	-0.121
-486.449	26.222	0.170	-0.141
-485.435	91.373	-0.235	0.261
-484.420	278.501	0.110	-0.195
-483.405	-200.000	0.000	0.169
-482.391	268.450	-0.414	0.719
-481.376	-14.675	-0.293	-0.187
-480.362	-34.367	0.177	0.096
-479.347	800.000	-0.090	0.282
-478.332	-55.500	-0.241	0.107
-477.318	800.000	-0.018	-0.060
-476.303	236.361	-0.134	0.219
-475.289	265.527	-0.021	-0.036
-474.274	35.958	-0.160	-0.139
-473.259	7.129	0.085	0.062
-472.245	72.482	-0.180	-0.186
-471.230	126.686	-0.041	0.052
-470.216	158.148	0.080	-0.110
-469.201	-40.560	-0.296	0.152
-468.186	-96.918	-0.172	-0.045
-467.172	-200.000	-0.042	0.292
-466.157	42.719	-0.063	-0.056
-465.143	800.000	-0.099	-0.381
-464.128	130.704	-0.145	-0.184
-463.113	693.911	0.136	-0.354
-462.099	87.975	-0.183	-0.201
-461.084	-64.058	0.099	-0.040
-460.070	-20.656	-0.053	0.032
-459.055	-156.625	-0.090	-0.006
-458.040	800.000	-0.081	-0.322
-457.026	-60.401	0.231	-0.097
-456.011	-97.704	-0.351	-0.090
-454.997	124.499	0.179	-0.223
-453.982	-53.002	0.269	-0.122
-452.968	-200.000	0.036	-0.304
-451.953	34.910	-0.126	0.109
-450.938	800.000	-0.094	-0.322
-449.924	-12.919	-0.143	0.092
-448.909	-200.000	0.046	0.275
-447.895	-168.153	0.224	0.009
-446.880	4.631	-0.088	-0.064
-445.865	-142.194	0.235	-0.023
-444.851	-41.910	-0.021	-0.010
-443.836	800.000	-0.071	-0.260
-442.822	-200.000	-0.042	-0.191
-441.807	-156.900	-0.203	0.012
-440.792	-200.000	0.001	0.203
-439.778	594.148	0.029	0.072
-438.763	135.407	-0.277	-0.356
-437.749	0.700	-0.129	0.092
-436.734	-200.000	-0.011	0.135
-435.719	3.075	-0.057	0.041
-434.705	800.000	-0.033	0.137
-433.690	-28.830	-0.411	0.234
-432.676	-112.265	0.421	-0.084
-431.661	402.088	-0.164	-0.341
-430.646	198.614	0.039	0.059
-429.632	-63.791	0.071	-0.029
-428.617	-200.000	0.082	-0.387
-427.603	-168.236	-0.100	0.004
-426.588	203.274	-0.174	0.266
-425.573	258.202	0.132	0.225
-424.559	158.802	-0.104	-0.143
-423.544	-200.000	0.013	0.064
-422.530	145.262	0.099	0.130
-421.515	-200.000	0.036	0.160
-420.500	-200.000	0.017	-0.183
-419.486	-62.246	0.107	0.044
-418.471	-22.175	0.323	-0.194
-417.457	39.180	-0.275	0.243
-416.442	15.266	0.134	-0.104
-415.428	-87.971	-0.066	-0.019
-414.413	-92.828	-0.055	0.015
-413.398	-71.270	-0.147	0.055
-412.384	-200.000	0.019	-0.096
-411.369	-200.000	0.005	-0.096
-410.355	263.912	-0.120	0.206
-409.340	8.808	0.213	0.159
-408.325	7.269	0.157	0.116
-407.311	29.652	-0.116	0.098
-406.296	-11.838	0.281	0.182
-405.282	120.635	-0.223	0.274
-404.267	800.000	0.121	-0.339
-403.252	91.311	0.101	0.112
-402.238	-20.557	-0.142	-0.086
-401.223	725.580	0.093	-0.244
-400.209	-37.046	-0.118	0.062
-399.194	-200.000	0.001	-0.160
-398.179	202.553	-0.109	0.167
-397.165	-42.279	0.228	0.115
-396.150	73.236	-0.110	0.114
-395.136	310.412	-0.082	-0.152
-394.121	20.022	0.110	-0.088
-393.106	145.841	-0.151	-0.200
-392.092	207.227	-0.108	-0.167
-391.077	67.272	0.358	-0.360
-390.063	-200.000	0.007	0.034
-389.048	-18.864	0.080	0.049
-388.033	601.793	0.160	0.391
-387.019	-200.000	0.042	0.320
-386.004	762.846	0.091	-0.243
-384.990	10.213	-0.287	-0.216
-383.975	102.745	0.085	0.099
-382.960	800.000	0.031	-0.108
-381.946	-195.808	-0.206	0.001
-380.931	-103.207	0.177	0.041
-379.917	55.708	0.148	0.142
-378.902	134.842	-0.029	-0.038
-377.888	800.000	-0.128	0.396
-376.873	-96.315	-0.223	0.058
-375.858	168.441	0.052	-0.073
-374.844	-56.424	0.126	0.055
-373.829	-200.000	0.003	-0.246
-372.815	772.810	-0.054	0.145
-371.800	-129.944	0.395	-0.053
-370.785	81.506	0.106	-0.113
-369.771	324.295	0.018	0.034
-368.756	335.497	0.073	0.140
-367.742	-35.065	-0.138	0.074
-366.727	-152.277	-0.075	0.005
-365.712	233.357	0.095	0.155
-364.698	74.834	0.131	-0.136
-363.683	-109.726	0.082	-0.017
-362.669	216.154	0.121	-0.190
-361.654	-104.615	0.206	0.047
-360.639	-200.000	-0.033	0.345
-359.625	-94.099	-0.094	0.026
-358.610	93.088	-0.173	0.193
-357.596	-27.494	0.349	-0.200
-356.581	-200.000	0.304	-0.000
-355.566	49.147	0.156	-0.145
-354.552	-87.788	-0.178	-0.053
-353.537	145.847	-0.203	0.269
-352.523	158.578	0.062	0.085
-351.508	-39.453	0.129	-0.066
-350.493	87.627	-0.134	0.146
-349.479	-115.357	-0.201	0.037
-348.464	-148.738	0.167	-0.013
-347.450	127.600	0.090	0.113
-346.435	138.294	0.202	-0.261
-345.420	-96.084	-0.194	-0.051
-344.406	168.591	-0.256	0.359
-343.391	800.000	0.047	0.163
-342.377	-200.000	0.013	-0.105
-341.362	-200.000	-0.004	0.315
-340.348	712.595	0.034	-0.089
-339.333	-196.879	0.258	-0.002
-338.318	-176.593	-0.234	0.006
-337.304	-97.059	0.127	0.033
-336.289	-78.465	-0.327	0.110
-335.275	-39.961	-0.155	0.080
-334.260	4.437	0.202	-0.146
-333.245	-170.497	0.260	-0.009
-332.231	428.335	0.091	-0.194
-331.216	800.000	-0.037	0.114
-330.202	-148.359	0.128	0.010
-329.187	-200.000	-0.032	-0.269
-328.172	800.000	0.063	0.267
-327.158	5.897	0.288	-0.210
-326.143	800.000	-0.076	0.309
-325.129	133.860	-0.060	0.076
-324.114	41.154	0.106	0.094
-323.099	550.241	-0.024	-0.056
-322.085	-33.149	0.402	0.219
-321.070	-54.028	-0.137	0.061
-320.056	-52.219	-0.295	0.135
-319.041	38.068	-0.060	-0.053
-318.026	412.152	0.111	-0.233
-317.012	119.874	-0.046	-0.056
-315.997	-200.000	-0.079	0.352
-314.983	352.508	0.091	-0.178
-313.968	113.957	-0.094	0.112
-312.953	-117.500	0.134	-0.024
-311.939	-29.895	-0.193	0.108
-310.924	306.378	-0.168	-0.308
-309.910	-188.819	0.224	-0.003
-308.895	-11.031	0.094	0.061
-307.880	-200.000	-0.094	-0.503
-306.866	-10.983	-0.241	-0.156
-305.851	-200.000	0.015	-0.213
-304.837	-75.543	-0.366	0.128
-303.822	39.115	0.318	-0.280
-302.807	800.000	-0.023	-0.066
-301.793	-59.439	0.148	0.063
-300.778	610.058	0.048	-0.117
-299.764	20.001	0.019	0.015
-298.749	-131.683	-0.054	-0.007
-297.735	370.694	-0.151	-0.301
-296.720	-200.000	0.001	-0.138
-295.705	82.078	0.059	0.063
-294.691	436.766	0.131	0.281
-293.676	800.000	0.030	0.102
-292.662	28.397	-0.018	0.015
-291.647	-40.799	-0.240	-0.122
-290.632	-145.974	0.103	-0.009
-289.618	-26.886	0.244	0.140
-288.603	61.579	-0.066	0.065
-287.589	-66.127	-0.088	-0.034
-286.574	-149.486	-0.091	0.007
-285.559	-134.631	0.137	0.016
-284.545	800.000	-0.099	0.348
-283.530	141.937	-0.115	0.150
-282.516	44.683	0.049	0.044
-281.501	800.000	-0.026	-0.106
-280.486	-200.000	-0.025	0.186
-279.472	-140.048	-0.106	0.011
-278.457	121.852	-0.113	0.138
-277.443	-111.654	0.244	0.049
-276.428	321.743	0.113	-0.211
-275.413	410.913	-0.067	-0.139
-274.399	137.634	0.183	0.236
-273.384	678.164	0.069	0.176
-272.370	-200.000	-0.005	0.381
-271.355	61.931	-0.060	-0.059
-270.340	-149.798	0.136	0.011
-269.326	230.223	0.186	-0.298
-268.311	246.581	0.155	0.256
-267.297	16.424	-0.269	-0.209
-266.282	-200.000	-0.078	-0.373
-265.267	-200.000	0.013	0.438
-264.253	415.189	0.117	-0.244
-263.238	-109.090	0.174	-0.036
-262.224	-64.890	0.109	0.043
-261.209	247.799	-0.157	-0.261
-260.195	-200.000	-0.006	-0.142
-259.180	44.991	-0.237	-0.214
-258.165	-117.608	-0.175	-0.031
-257.151	-174.904	0.523	-0.014
-256.136	-155.299	-0.212	-0.014
-255.122	-105.338	0.351	0.078
-254.107	-40.755	0.249	-0.126
-253.092	-200.000	0.011	-0.134
-252.078	-32.274	0.147	-0.081
-251.063	23.389	0.258	-0.208
-250.049	800.000	0.050	0.197
-249.034	-200.000	0.003	0.064
-248.019	-87.971	0.318	-0.094
-247.005	72.697	-0.142	0.145
-245.990	-5.336	-0.369	0.249
-244.976	22.636	0.297	-0.238
-243.961	-78.740	0.270	-0.090
-242.946	-44.279	-0.192	0.095
-241.932	-91.293	0.326	-0.092
-240.917	-63.371	-0.523	-0.211
-239.903	8.625	-0.093	-0.069
-238.888	-200.000	-0.059	0.478
-237.873	730.013	-0.118	0.309
-236.859	-151.585	0.219	-0.016
-235.844	-44.126	-0.198	0.097
-234.830	25.955	0.409	0.335
-233.815	63.420	0.210	-0.206
-232.800	-130.854	-0.236	0.031
-231.786	560.071	0.005	-0.013
-230.771	770.357	-0.117	0.312
-229.757	278.055	-0.019	-0.034
-228.742	-26.104	0.205	-0.118
-227.727	107.180	0.152	0.178
-226.713	800.000	-0.065	0.265
-225.698	-57.016	0.052	0.022
-224.684	66.980	0.227	-0.227
-223.669	-142.971	-0.340	0.032
-222.655	632.320	-0.028	0.071
-221.640	709.623	0.073	0.189
-220.625	30.591	0.105	0.088
-219.611	-88.466	-0.147	0.043
-218.596	257.517	-0.181	0.305
-217.582	87.527	0.192	-0.209
-216.567	-200.000	-0.025	-0.139
-215.552	-16.968	0.194	0.120
-214.538	-4.447	0.282	0.191
-213.523	162.115	-0.069	-0.095
-212.509	-98.872	0.432	-0.108
-211.494	82.785	-0.103	0.110
-210.479	-79.144	-0.107	-0.036
-209.465	-58.926	-0.189	-0.080
-208.450	-130.718	0.340	0.045
-207.436	-107.113	-0.205	-0.044
-206.421	-200.000	0.012	0.066
-205.406	354.739	0.040	-0.078
-204.392	-145.058	-0.225	-0.020
-203.377	-25.198	0.148	0.086
-202.363	-26.593	-0.184	0.106
-201.348	310.005	0.158	0.290
-200.333	-59.684	-0.218	-0.091
-199.319	-106.383	-0.144	0.032
-198.304	82.699	0.084	0.089
-197.290	724.612	0.138	0.360
-196.275	182.891	-0.101	-0.146
-195.260	800.000	0.104	-0.337
-194.246	-121.138	0.621	0.102
-193.231	71.866	0.180	-0.183
-192.217	800.000	-0.105	0.322
-191.202	-22.091	0.109	0.065
-190.187	108.619	-0.313	-0.367
-189.173	121.207	-0.201	-0.245
-188.158	-200.000	0.044	-0.221
-187.144	-100.330	-0.364	-0.088
-186.129	-23.800	0.110	-0.064
-185.114	95.915	-0.153	-0.171
-184.100	-200.000	0.036	-0.280
-183.085	53.686	0.362	-0.341
-182.071	800.000	-0.075	-0.271
-181.056	25.033	0.084	0.068
-180.042	72.703	-0.098	0.100
-179.027	195.214	-0.114	0.169
-178.012	-200.000	-0.026	0.573
-176.998	-30.547	-0.316	0.175
-175.983	21.019	-0.146	-0.116
-174.969	237.256	0.244	-0.396
-173.954	800.000	0.123	-0.528
-172.939	-47.455	0.268	-0.128
-171.925	-200.000	-0.033	-0.230
-170.910	-200.000	-0.036	-0.191
-169.896	-71.823	0.303	-0.111
-168.881	800.000	0.053	0.203
-167.866	-170.673	0.233	-0.008
-166.852	-138.411	0.347	-0.037
-165.837	687.320	-0.102	-0.262
-164.823	524.208	-0.031	0.070
-163.808	800.000	0.026	0.084
-162.793	-200.000	-0.001	0.086
-161.779	14.559	-0.224	-0.171
-160.764	648.470	0.097	-0.244
-159.750	-200.000	0.000	0.221
-158.735	77.595	-0.191	0.199
-157.720	-132.862	-0.363	-0.045
-156.706	-125.342	0.154	-0.023
-155.691	398.784	-0.179	0.366
-154.677	670.420	-0.091	0.229
-153.662	-50.209	-0.104	-0.048
-152.647	-173.239	-0.193	0.006
-151.633	800.000	0.067	-0.222
-150.618	-79.527	0.283	0.093
-149.604	-165.453	-0.260	0.011
-148.589	136.358	-0.153	0.195
-147.574	800.000	0.135	0.385
-146.560	-25.332	-0.071	-0.041
-145.545	-92.907	-0.333	0.091
-144.531	92.982	-0.115	0.127
-143.516	-200.000	0.027	0.155
-142.502	800.000	0.063	-0.257
-141.487	800.000	-0.075	-0.280
-140.472	800.000	-0.089	0.245
-139.458	-200.000	-0.023	0.112
-138.443	-34.229	0.394	0.212
-137.429	118.540	0.089	0.108
-136.414	671.700	-0.086	-0.217
-135.399	-80.529	0.295	-0.096
-134.385	305.475	0.094	-0.170
-133.370	462.418	-0.147	0.320
-132.356	-73.776	-0.211	0.075
-131.341	111.936	0.120	0.141
-130.326	-77.745	0.195	0.066
-129.312	-92.205	0.079	-0.022
-128.297	-118.651	-0.050	-0.009
-127.283	800.000	0.041	0.144
-126.268	-200.000	0.003	-0.116
-125.253	-133.578	0.204	0.025
-124.239	-90.600	-0.061	0.017
-123.224	-91.892	-0.215	0.060
-122.210	229.046	0.051	-0.082
-121.195	-200.000	0.024	0.105
