DTS Sentinel unit serial number:	SN413079Multiplexer serial number:	ORYXHardware model number:	OX4-SRSoftware version number:	ORYX F/W v4.00 Oryx Data Collector v3.7.2.0data status	okinstallation	princeton_trtdifferential loss correction	single-endedforward channel	channel 2reverse channel	N/Adate	2019/09/19time	11:19:35forward acquisition time	60.00reverse acquisition time	0.00gamma	496.2192k internal	0.2341k external	0.2341temperature offset calibration	1.0011default loss term (dB/km)	0.3790temperature slope calibration	1.0000multiplexer offset coefficient	1.0000multiplexer slope coefficient	1.0000fibre end	0.00T internal ref (°C)	25.19T ext. ref 1 (°C)	0.78T ext. ref 2 (°C)	20.82length (m)	temperature (°C)	Stokes	anti-Stokes-747.200	-28.113	-0.343	0.199
-746.185	-200.000	0.014	0.065
-745.171	-31.690	0.272	-0.153
-744.156	87.036	-0.198	0.219
-743.142	-200.000	-0.010	-0.149
-742.127	-117.466	-0.230	-0.042
-741.112	-144.235	-0.255	-0.024
-740.098	103.524	-0.071	0.084
-739.083	-119.992	-0.110	0.019
-738.069	-115.682	-0.062	-0.012
-737.054	-129.662	-0.128	0.018
-736.039	800.000	-0.012	0.041
-735.025	178.894	0.192	0.281
-734.010	649.327	-0.220	-0.563
-732.996	101.193	0.234	-0.273
-731.981	-109.868	-0.214	0.045
-730.966	672.965	-0.012	-0.032
-729.952	84.074	-0.270	0.295
-728.937	380.950	0.068	-0.140
-727.923	-27.965	-0.166	0.097
-726.908	-48.417	-0.130	-0.063
-725.894	-52.677	-0.403	-0.186
-724.879	-131.089	-0.293	0.039
-723.864	-71.086	0.242	0.091
-722.850	-136.220	0.478	0.056
-721.835	36.928	-0.108	0.096
-720.821	-200.000	0.044	-0.254
-719.806	260.847	0.108	-0.187
-718.791	-96.871	-0.308	0.081
-717.777	800.000	-0.072	-0.236
-716.762	800.000	0.039	-0.141
-715.748	-64.583	-0.136	0.055
-714.733	-138.692	0.194	0.021
-713.718	46.618	-0.186	0.172
-712.704	-37.850	-0.098	0.052
-711.689	-200.000	0.005	-0.049
-710.675	-97.098	-0.194	0.051
-709.660	800.000	-0.104	0.400
-708.645	-200.000	0.000	-0.193
-707.631	800.000	-0.007	-0.021
-706.616	7.075	0.018	-0.014
-705.602	-200.000	0.036	-0.270
-704.587	-200.000	-0.045	-0.227
-703.572	-67.692	-0.348	-0.136
-702.558	-200.000	0.020	-0.331
-701.543	-114.092	-0.054	0.011
-700.529	514.371	-0.118	0.275
-699.514	-200.000	0.022	-0.168
-698.499	-8.041	0.254	0.172
-697.485	-44.457	-0.089	-0.045
-696.470	-200.000	0.072	0.315
-695.456	-102.366	-0.265	0.064
-694.441	78.753	0.230	-0.246
-693.426	-161.715	-0.104	0.005
-692.412	107.855	-0.103	-0.122
-691.397	800.000	0.022	-0.074
-690.383	161.971	-0.201	-0.282
-689.368	227.717	0.068	-0.110
-688.354	-186.832	0.270	0.004
-687.339	-200.000	-0.007	-0.045
-686.324	49.312	-0.048	-0.045
-685.310	-180.406	0.257	-0.005
-684.295	-153.109	-0.259	0.018
-683.281	-88.964	-0.403	0.119
-682.266	-200.000	0.010	-0.123
-681.251	159.406	0.041	-0.057
-680.237	129.094	-0.122	0.155
-679.222	-200.000	0.013	0.068
-678.208	800.000	0.072	0.222
-677.193	-102.197	-0.056	0.013
-676.178	346.737	0.179	0.352
-675.164	11.687	0.153	0.118
-674.149	-33.853	-0.248	-0.136
-673.135	101.475	-0.146	-0.170
-672.120	-200.000	0.024	0.146
-671.105	367.184	-0.044	0.089
-670.091	-68.443	-0.163	0.063
-669.076	108.048	0.117	0.139
-668.062	217.935	-0.028	0.045
-667.047	-200.000	0.011	-0.116
-666.032	577.963	-0.054	-0.132
-665.018	326.997	0.078	0.148
-664.003	-97.335	0.243	0.063
-662.989	255.359	-0.174	-0.298
-661.974	800.000	0.064	0.243
-660.959	-3.582	0.400	-0.278
-659.945	-179.445	0.281	-0.006
-658.930	95.271	0.138	-0.157
-657.916	-91.519	-0.050	-0.014
-656.901	-200.000	0.006	-0.074
-655.886	78.059	-0.146	0.156
-654.872	396.075	0.123	0.257
-653.857	-104.464	0.251	-0.058
-652.843	82.787	0.224	-0.244
-651.828	-200.000	0.020	-0.344
-650.814	272.711	-0.204	-0.360
-649.799	-200.000	-0.044	-0.307
-648.784	102.980	-0.059	0.069
-647.770	800.000	-0.021	-0.068
-646.755	-155.256	-0.264	0.017
-645.741	-72.354	-0.302	-0.112
-644.726	-134.101	-0.154	0.019
-643.711	-83.143	-0.117	0.037
-642.697	66.577	0.013	0.013
-641.682	-86.079	0.031	0.010
-640.668	47.687	-0.185	-0.172
-639.653	800.000	-0.034	-0.149
-638.638	129.345	-0.118	-0.150
-637.624	-112.304	-0.328	-0.066
-636.609	-3.325	-0.068	-0.047
-635.595	-200.000	-0.024	0.392
-634.580	-142.116	0.337	0.033
-633.565	-45.863	-0.133	0.066
-632.551	637.608	0.085	-0.215
-631.536	-77.707	-0.132	-0.046
-630.522	800.000	-0.018	-0.065
-629.507	754.484	-0.100	0.269
-628.492	104.154	-0.132	-0.155
-627.478	114.122	-0.016	0.019
-626.463	130.679	-0.126	-0.161
-625.449	-200.000	0.014	-0.113
-624.434	800.000	-0.038	0.110
-623.419	-56.468	0.199	0.088
-622.405	-12.843	0.369	-0.240
-621.390	-64.331	-0.208	0.085
-620.376	-200.000	0.007	0.053
-619.361	-126.216	0.309	0.046
-618.346	29.330	0.250	0.212
-617.332	800.000	-0.118	-0.367
-616.317	-68.192	-0.308	0.120
-615.303	133.573	0.206	0.266
-614.288	-200.000	0.047	-0.264
-613.273	129.984	0.029	-0.037
-612.259	-144.258	-0.065	0.006
-611.244	-49.077	-0.234	0.111
-610.230	63.127	-0.040	-0.040
-609.215	-200.000	-0.111	0.539
-608.201	-57.840	0.002	0.001
-607.186	-200.000	0.010	0.169
-606.171	169.100	-0.075	-0.107
-605.157	-32.948	0.126	-0.070
-604.142	108.243	0.162	-0.192
-603.128	84.821	0.080	0.087
-602.113	-55.652	0.184	-0.082
-601.098	97.706	0.150	-0.172
-600.084	-157.317	-0.281	0.017
-599.069	-22.349	-0.062	-0.037
-598.055	12.309	-0.320	-0.246
-597.040	-73.606	0.243	-0.088
-596.025	157.821	0.011	-0.015
-595.011	-141.023	-0.413	-0.042
-593.996	-43.466	-0.305	0.154
-592.982	800.000	0.038	0.105
-591.967	-67.362	-0.328	0.128
-590.952	386.932	0.171	-0.352
-589.938	-89.207	-0.124	-0.036
-588.923	-80.505	0.198	0.066
-587.909	48.175	-0.131	0.122
-586.894	55.603	0.234	-0.225
-585.879	-86.711	0.303	0.092
-584.865	260.078	0.144	-0.248
-583.850	1.200	-0.117	0.084
-582.836	745.739	0.101	-0.272
-581.821	64.415	-0.070	0.070
-580.806	800.000	-0.062	-0.226
-579.792	65.688	0.156	0.157
-578.777	121.657	-0.179	-0.222
-577.763	37.065	0.151	0.133
-576.748	-81.341	0.115	0.038
-575.733	-200.000	-0.005	-0.078
-574.719	221.592	0.110	-0.175
-573.704	800.000	0.053	0.209
-572.690	-174.547	0.320	0.009
-571.675	-94.627	-0.106	0.029
-570.661	92.278	-0.193	-0.216
-569.646	-129.839	0.022	-0.003
-568.631	-157.528	-0.141	-0.008
-567.617	-95.544	0.241	-0.064
-566.602	-87.253	-0.281	0.085
-565.588	168.351	-0.233	0.330
-564.573	123.176	0.117	-0.146
-563.558	-79.717	-0.119	-0.040
-562.544	-61.790	-0.194	0.081
-561.529	-165.565	0.154	-0.007
-560.515	76.632	-0.101	-0.106
-559.500	-200.000	-0.024	-0.200
-558.485	763.948	0.089	-0.240
-557.471	-51.191	0.074	-0.034
-556.456	-74.612	0.066	0.024
-555.442	-111.920	0.205	-0.041
-554.427	-200.000	0.026	0.206
-553.412	195.828	-0.198	-0.299
-552.398	800.000	0.038	0.145
-551.383	800.000	-0.062	0.255
-550.369	-138.502	-0.149	-0.016
-549.354	18.484	-0.084	-0.067
-548.339	-200.000	-0.022	0.198
-547.325	-63.996	-0.098	0.040
-546.310	639.651	-0.085	0.216
-545.296	34.955	0.118	-0.102
-544.281	94.757	0.173	-0.195
-543.266	-42.237	0.068	-0.035
-542.252	-65.412	-0.105	0.042
-541.237	-59.546	-0.269	-0.115
-540.223	106.082	0.151	-0.178
-539.208	-153.869	-0.279	-0.019
-538.193	255.900	0.015	-0.025
-537.179	160.047	-0.214	0.297
-536.164	-92.279	0.231	0.065
-535.150	800.000	-0.032	0.101
-534.135	626.324	0.075	-0.189
-533.121	-82.414	-0.103	0.033
-532.106	-122.787	-0.190	0.030
-531.091	-200.000	-0.014	-0.479
-530.077	129.203	0.140	-0.178
-529.062	-72.082	-0.049	-0.018
-528.048	-68.800	-0.069	-0.026
-527.033	290.395	-0.167	0.301
-526.018	-123.398	-0.230	-0.036
-525.004	122.685	0.199	0.247
-523.989	446.382	-0.079	-0.173
-522.975	-88.317	-0.251	0.074
-521.960	-200.000	-0.008	-0.124
-520.945	-24.041	0.262	-0.156
-519.931	185.728	-0.197	-0.291
-518.916	434.041	-0.114	-0.246
-517.902	253.440	-0.157	0.266
-516.887	800.000	-0.097	0.362
-515.872	-157.009	-0.196	0.012
-514.858	528.631	0.076	0.178
-513.843	138.710	-0.100	-0.131
-512.829	6.025	0.114	-0.084
-511.814	-200.000	0.012	-0.108
-510.799	-69.710	-0.293	-0.111
-509.785	-200.000	-0.050	-0.338
-508.770	-63.636	0.172	-0.070
-507.756	-200.000	-0.032	0.363
-506.741	81.302	-0.135	-0.145
-505.726	149.118	0.093	0.126
-504.712	-26.975	-0.137	0.080
-503.697	-0.559	-0.123	0.087
-502.683	-200.000	0.002	0.140
-501.668	-200.000	-0.047	-0.360
-500.653	2.490	0.181	0.130
-499.639	-200.000	0.021	-0.144
-498.624	-4.464	0.093	0.064
-497.610	-137.855	-0.331	-0.037
-496.595	311.833	-0.096	0.178
-495.581	423.008	0.157	0.336
-494.566	44.046	0.154	-0.140
-493.551	242.201	0.027	-0.045
-492.537	-64.532	-0.113	-0.045
-491.522	-200.000	0.004	-0.145
-490.508	-5.012	-0.187	0.128
-489.493	255.369	0.080	-0.136
-488.478	-67.148	0.434	-0.170
-487.464	-200.000	-0.057	0.340
-486.449	225.316	0.112	-0.180
-485.435	-121.899	-0.126	0.021
-484.420	800.000	0.054	0.167
-483.405	541.108	-0.040	0.095
-482.391	-200.000	-0.004	0.266
-481.376	3.228	-0.169	-0.122
-480.362	31.130	-0.317	0.270
-479.347	800.000	0.046	0.171
-478.332	-200.000	-0.004	0.357
-477.318	-200.000	-0.022	0.306
-476.303	800.000	0.039	0.112
-475.289	-31.463	-0.108	0.060
-474.274	-59.096	0.273	-0.117
-473.259	-133.877	0.223	-0.028
-472.245	-200.000	-0.005	-0.155
-471.230	-168.228	0.253	0.010
-470.216	-200.000	0.022	0.156
-469.201	29.442	-0.102	-0.086
-468.186	172.491	-0.098	-0.140
-467.172	-48.418	-0.385	-0.184
-466.157	212.219	-0.083	-0.129
-465.143	0.345	0.269	0.191
-464.128	-200.000	0.022	-0.095
-463.113	210.029	-0.063	-0.098
-462.099	-193.866	-0.001	0.000
-461.084	-57.526	0.285	0.124
-460.070	-81.389	0.072	0.023
-459.055	800.000	-0.027	-0.086
-458.040	800.000	0.067	0.184
-457.026	800.000	-0.136	-0.454
-456.011	-91.837	0.196	-0.055
-454.997	-200.000	0.000	-0.040
-453.982	-200.000	0.003	-0.142
-452.968	-76.208	-0.253	-0.088
-451.953	-129.520	0.329	-0.045
-450.938	-83.835	0.296	-0.093
-449.924	-171.997	0.143	0.005
-448.909	-92.374	0.363	-0.101
-447.895	-29.932	-0.080	0.045
-446.880	-200.000	0.009	0.205
-445.865	-152.197	-0.635	-0.046
-444.851	-8.664	0.408	0.271
-443.836	-53.986	0.037	-0.017
-442.822	-33.299	-0.452	-0.248
-441.807	-31.070	-0.135	-0.075
-440.792	223.099	-0.041	0.066
-439.778	800.000	0.052	-0.160
-438.763	-49.614	0.137	-0.065
-437.749	16.817	0.177	-0.139
-436.734	558.277	0.098	-0.235
-435.719	-20.286	0.388	-0.237
-434.705	-105.269	0.130	-0.029
-433.690	-11.295	0.216	0.141
-432.676	587.108	0.086	-0.209
-431.661	-79.523	-0.256	-0.086
-430.646	3.113	0.381	-0.274
-429.632	-200.000	-0.028	-0.130
-428.617	194.568	-0.112	-0.168
-427.603	147.630	-0.271	-0.361
-426.588	-200.000	-0.008	-0.104
-425.573	800.000	-0.054	-0.156
-424.559	-130.519	0.130	0.017
-423.544	115.005	0.187	0.225
-422.530	-200.000	-0.017	0.145
-421.515	175.596	-0.066	-0.095
-420.500	71.656	-0.181	-0.186
-419.486	-68.949	-0.109	0.042
-418.471	-96.748	0.208	0.054
-417.457	-200.000	0.001	-0.235
-416.442	-93.994	0.115	0.031
-415.428	321.863	0.044	0.082
-414.413	-169.765	0.205	0.007
-413.398	800.000	-0.108	0.305
-412.384	-9.768	-0.269	0.177
-411.369	800.000	-0.031	0.106
-410.355	-80.780	0.255	-0.084
-409.340	800.000	0.079	-0.246
-408.325	-86.797	-0.221	-0.067
-407.311	-200.000	0.000	-0.171
-406.296	800.000	0.040	-0.122
-405.282	668.118	-0.091	0.232
-404.267	761.173	-0.069	-0.186
-403.252	800.000	-0.007	-0.023
-402.238	-31.625	-0.229	0.127
-401.223	-67.023	-0.238	-0.093
-400.209	-104.581	-0.346	0.079
-399.194	800.000	0.114	-0.344
-398.179	-73.471	-0.146	-0.053
-397.165	533.544	0.070	0.164
-396.150	150.390	0.055	0.074
-395.136	-43.145	-0.210	0.105
-394.121	-200.000	0.028	-0.213
-393.106	-109.198	0.203	-0.043
-392.092	-200.000	0.002	0.084
-391.077	-200.000	0.110	-0.000
-390.063	37.895	-0.320	-0.282
-389.048	-200.000	-0.069	0.392
-388.033	0.389	0.175	-0.123
-387.019	11.412	0.112	0.085
-386.004	129.331	-0.181	-0.229
-384.990	-200.000	-0.011	-0.333
-383.975	-104.304	0.111	0.025
-382.960	383.055	-0.073	0.149
-381.946	-200.000	0.017	0.093
-380.931	-25.756	0.086	0.050
-379.917	-70.205	0.544	0.204
-378.902	626.503	0.038	-0.095
-377.888	-200.000	0.000	-0.131
-376.873	-58.991	0.048	0.021
-375.858	-24.318	0.114	-0.067
-374.844	-200.000	-0.006	-0.339
-373.829	354.422	-0.131	0.257
-372.815	-200.000	0.019	-0.099
-371.800	800.000	-0.028	-0.090
-370.785	73.204	-0.282	-0.291
-369.771	-200.000	-0.039	-0.256
-368.756	-200.000	0.020	-0.151
-367.742	66.502	0.088	0.089
-366.727	-48.475	-0.369	0.175
-365.712	-96.173	0.304	-0.080
-364.698	69.849	0.173	-0.176
-363.683	800.000	-0.022	-0.082
-362.669	800.000	0.110	0.318
-361.654	-50.430	0.263	-0.122
-360.639	22.038	-0.145	-0.117
-359.625	162.676	0.074	0.103
-358.610	-106.264	-0.194	0.043
-357.596	-111.698	-0.229	-0.046
-356.581	86.082	-0.104	-0.113
-355.566	80.163	-0.083	-0.088
-354.552	457.662	0.079	0.173
-353.537	222.976	-0.138	0.219
-352.523	-114.520	-0.211	-0.040
-351.508	-72.474	-0.188	-0.069
-350.493	800.000	0.011	-0.037
-349.479	800.000	0.011	-0.040
-348.464	-200.000	-0.033	-0.246
-347.450	-149.508	-0.377	-0.029
-346.435	-118.403	-0.195	0.034
-345.420	-200.000	-0.000	-0.101
-344.406	-85.277	0.127	-0.039
-343.391	450.849	0.094	0.205
-342.377	-200.000	-0.042	-0.386
-341.362	404.367	-0.158	0.329
-340.348	-26.252	0.226	0.131
-339.333	-72.426	-0.209	0.076
-338.318	145.473	-0.013	-0.018
-337.304	337.483	0.138	0.265
-336.289	-31.180	0.343	0.191
-335.275	-75.290	-0.176	0.062
-334.260	-200.000	0.222	0.001
-333.245	-67.459	0.288	-0.111
-332.231	-65.587	-0.349	-0.138
-331.216	-200.000	-0.111	0.533
-330.202	212.079	0.027	0.043
-329.187	800.000	-0.099	0.359
-328.172	137.522	-0.182	0.235
-327.158	241.489	0.075	-0.124
-326.143	-200.000	-0.029	0.390
-325.129	-79.202	-0.205	-0.068
-324.114	297.956	0.149	0.269
-323.099	-44.635	-0.100	0.049
-322.085	-118.443	0.283	-0.049
-321.070	-142.197	0.209	0.020
-320.056	-75.976	-0.237	-0.083
-319.041	-26.782	-0.212	0.122
-318.026	115.533	0.066	0.080
-317.012	147.953	-0.173	-0.230
-315.997	800.000	0.014	0.057
-314.983	-168.445	-0.245	0.009
-313.968	308.278	0.129	0.237
-312.953	-5.220	-0.031	-0.021
-311.939	206.704	-0.059	-0.090
-310.924	332.308	0.077	-0.146
-309.910	6.217	-0.122	-0.089
-308.895	-200.000	-0.051	0.238
-307.880	273.013	-0.153	0.266
-306.866	107.786	0.131	-0.154
-305.851	167.617	0.162	0.226
-304.837	24.503	-0.057	-0.047
-303.822	219.351	0.094	0.147
-302.807	0.281	0.132	0.093
-301.793	-117.182	0.222	-0.040
-300.778	-200.000	0.029	-0.139
-299.764	800.000	-0.015	0.058
-298.749	157.584	-0.189	0.258
-297.735	-123.225	0.143	-0.023
-296.720	-200.000	-0.008	-0.065
-295.705	199.680	-0.048	-0.072
-294.691	-88.074	0.089	0.026
-293.676	44.432	-0.067	-0.061
-292.662	42.809	0.191	0.172
-291.647	-200.000	0.062	-0.440
-290.632	-56.656	-0.143	0.062
-289.618	59.523	-0.149	-0.144
-288.603	-200.000	0.030	0.232
-287.589	-155.094	0.085	-0.005
-286.574	327.959	-0.168	0.318
-285.559	4.127	0.120	-0.087
-284.545	7.734	0.236	0.174
-283.530	-143.782	0.256	0.024
-282.516	254.738	-0.026	0.043
-281.501	161.871	-0.236	0.325
-280.486	748.082	0.068	0.181
-279.472	-47.569	-0.183	0.088
-278.457	98.582	-0.078	-0.088
-277.443	379.251	0.150	0.302
-276.428	-38.280	-0.369	-0.192
-275.413	38.346	0.122	-0.107
-274.399	-27.904	-0.153	0.087
-273.384	-56.109	0.372	0.163
-272.370	1.345	0.057	-0.040
-271.355	-34.308	0.248	-0.134
-270.340	-46.990	0.088	0.042
-269.326	-51.270	0.345	-0.159
-268.311	223.993	0.156	0.248
-267.297	39.009	-0.115	-0.101
-266.282	-200.000	-0.095	-0.524
-265.267	-123.150	0.224	-0.035
-264.253	547.815	-0.106	0.250
-263.238	-97.525	-0.161	-0.041
-262.224	-71.161	-0.042	0.015
-261.209	-39.609	-0.243	0.125
-260.195	186.280	-0.077	0.113
-259.180	207.507	0.045	0.069
-258.165	282.871	0.082	0.145
-257.151	287.090	-0.048	0.086
-256.136	419.048	-0.055	-0.116
-255.122	428.820	0.152	0.322
-254.107	-103.128	0.055	-0.013
-253.092	-200.000	-0.023	-0.283
-252.078	-92.381	0.211	-0.058
-251.063	227.279	-0.018	0.029
-250.049	18.085	-0.146	-0.114
-249.034	-25.580	-0.228	-0.133
-248.019	800.000	0.029	0.118
-247.005	0.075	0.242	-0.170
-245.990	226.805	0.073	0.116
-244.976	29.039	0.144	-0.120
-243.961	800.000	0.112	-0.348
-242.946	316.198	-0.104	-0.194
-241.932	-162.217	0.228	0.011
-240.917	-200.000	0.060	0.328
-239.903	-200.000	0.000	0.022
-238.888	800.000	-0.083	0.336
-237.873	159.424	-0.203	0.278
-236.859	313.727	0.282	0.522
-235.844	-200.000	-0.055	0.239
-234.830	-108.099	0.201	-0.043
-233.815	-133.852	-0.211	-0.026
-232.800	22.727	0.394	0.317
-231.786	-163.183	-0.306	0.014
-230.771	-69.431	-0.279	-0.105
-229.757	37.213	0.077	0.067
-228.742	-200.000	-0.027	-0.196
-227.727	-65.745	0.243	-0.095
-226.713	-70.167	0.246	-0.092
-225.698	-22.984	0.262	0.155
-224.684	76.622	-0.209	0.218
-223.669	-115.952	0.309	-0.057
-222.655	-30.087	-0.237	0.132
-221.640	-200.000	-0.027	0.220
-220.625	-8.764	-0.067	0.044
-219.611	459.063	0.077	-0.168
-218.596	756.223	0.020	-0.053
-217.582	-32.808	0.103	0.056
-216.567	-87.007	0.207	0.062
-215.552	28.408	0.118	0.098
-214.538	156.614	-0.116	-0.157
-213.523	-200.000	-0.031	0.308
-212.509	103.961	0.140	0.162
-211.494	312.745	-0.212	-0.392
-210.479	-66.021	-0.124	0.048
-209.465	104.235	0.064	0.073
-208.450	70.305	0.120	-0.122
-207.436	-158.167	0.264	0.015
-206.421	-200.000	0.032	-0.225
-205.406	-154.910	-0.038	0.002
-204.392	-200.000	-0.050	0.347
-203.377	-200.000	0.018	-0.097
-202.363	-40.596	0.341	-0.173
-201.348	112.186	0.122	0.145
-200.333	800.000	0.058	0.178
-199.319	-94.394	0.364	0.097
-198.304	55.242	-0.189	0.179
-197.290	690.268	-0.093	0.240
-196.275	104.945	-0.100	0.115
-195.260	300.617	-0.091	-0.165
-194.246	463.026	0.029	0.064
-193.231	214.563	-0.120	-0.187
-192.217	-200.000	-0.001	-0.231
-191.202	196.408	0.145	0.217
-190.187	-46.046	0.159	-0.077
-189.173	-200.000	-0.072	-0.501
-188.158	1.089	0.191	-0.134
-187.144	34.796	0.066	0.057
-186.129	36.443	0.204	-0.176
-185.114	-71.556	0.216	0.079
-184.100	-126.126	0.082	0.012
-183.085	-54.226	-0.183	-0.081
-182.071	98.242	0.175	0.197
-181.056	-9.502	0.113	0.074
-180.042	800.000	-0.035	-0.104
-179.027	-200.000	-0.014	-0.262
-178.012	800.000	-0.021	-0.075
-176.998	249.603	-0.042	0.070
-175.983	-71.200	-0.179	-0.066
-174.969	-200.000	0.002	-0.127
-173.954	254.622	0.037	-0.062
-172.939	244.899	-0.183	0.302
-171.925	-200.000	-0.016	-0.112
-170.910	-164.664	0.079	-0.003
-169.896	161.508	0.242	-0.331
-168.881	220.557	0.170	0.266
-167.866	800.000	-0.013	-0.039
-166.852	-50.520	0.280	-0.130
-165.837	68.694	0.223	0.225
-164.823	52.462	0.249	0.233
-163.808	106.198	0.170	0.198
-162.793	-74.004	0.226	-0.080
-161.779	-85.152	-0.426	-0.131
-160.764	-200.000	-0.064	0.361
-159.750	67.849	-0.151	-0.151
-158.735	11.588	0.129	0.097
-157.720	76.641	0.043	0.045
-156.706	-121.269	0.028	0.005
-155.691	800.000	-0.052	-0.182
-154.677	-200.000	0.013	0.067
-153.662	282.629	-0.108	0.190
-152.647	99.516	-0.223	0.253
-151.633	-165.872	-0.194	-0.008
-150.618	800.000	0.059	-0.184
-149.604	163.826	0.086	0.118
-148.589	-200.000	0.022	-0.379
-147.574	-200.000	0.028	0.139
-146.560	6.388	-0.137	-0.099
-145.545	46.315	0.044	0.040
-144.531	764.279	-0.129	-0.344
-143.516	245.802	0.097	-0.160
-142.502	-0.151	-0.210	0.146
-141.487	-136.418	0.362	0.041
-140.472	739.518	0.084	-0.221
-139.458	-35.436	0.252	0.134
-138.443	-94.232	0.251	0.067
-137.429	800.000	0.062	-0.231
-136.414	-84.256	-0.299	0.093
-135.399	260.788	-0.126	0.212
-134.385	375.589	0.016	-0.033
-133.370	-124.833	-0.155	0.023
-132.356	360.754	-0.073	0.142
-131.341	-200.000	-0.054	-0.235
-130.326	21.388	-0.265	-0.211
-129.312	38.585	-0.065	0.056
-128.297	-19.865	-0.208	-0.126
-127.283	800.000	0.074	-0.219
-126.268	-82.426	-0.202	-0.064
-125.253	-129.147	0.223	-0.030
-124.239	-77.061	-0.245	0.084
-123.224	-174.405	0.274	0.008
-122.210	-90.666	-0.309	-0.087
