DTS Sentinel unit serial number:	SN413079Multiplexer serial number:	ORYXHardware model number:	OX4-SRSoftware version number:	ORYX F/W v4.00 Oryx Data Collector v3.7.2.0data status	okinstallation	princeton_trtdifferential loss correction	single-endedforward channel	channel 2reverse channel	N/Adate	2019/09/13time	06:23:35forward acquisition time	60.00reverse acquisition time	0.00gamma	496.2192k internal	0.2338k external	0.2338temperature offset calibration	1.0191default loss term (dB/km)	0.3790temperature slope calibration	1.0000multiplexer offset coefficient	1.0000multiplexer slope coefficient	1.0000fibre end	0.00T internal ref (°C)	26.12T ext. ref 1 (°C)	4.09T ext. ref 2 (°C)	20.75length (m)	temperature (°C)	Stokes	anti-Stokes-747.200	800.000	-0.031	0.099
-746.185	254.183	0.106	0.182
-745.171	200.241	0.105	0.162
-744.156	-106.625	-0.185	0.041
-743.142	-154.120	-0.140	-0.010
-742.127	-67.789	-0.433	0.170
-741.112	800.000	-0.088	-0.277
-740.098	-53.448	-0.091	-0.042
-739.083	127.401	-0.060	0.076
-738.069	107.798	-0.150	0.179
-737.054	-93.818	0.218	-0.060
-736.039	224.567	0.041	-0.066
-735.025	245.408	0.148	0.251
-734.010	101.515	-0.078	0.091
-732.996	-200.000	0.011	-0.226
-731.981	-38.531	0.235	0.125
-730.966	153.383	-0.307	-0.422
-729.952	227.707	0.088	0.143
-728.937	125.614	-0.088	-0.111
-727.923	-49.559	0.242	-0.116
-726.908	-63.729	-0.417	0.171
-725.894	104.199	-0.066	-0.078
-724.879	-200.000	-0.011	0.124
-723.864	394.068	-0.067	-0.141
-722.850	800.000	0.095	-0.266
-721.835	-54.826	-0.335	-0.152
-720.821	542.651	0.090	-0.214
-719.806	284.669	0.124	0.224
-718.791	639.129	0.078	-0.198
-717.777	312.359	-0.080	0.151
-716.762	-34.265	0.382	-0.210
-715.748	-200.000	-0.001	0.174
-714.733	-164.541	-0.200	-0.009
-713.718	-82.885	0.131	0.042
-712.704	122.037	0.105	0.131
-711.689	-135.451	0.112	-0.013
-710.675	-31.597	0.161	-0.091
-709.660	-90.142	-0.107	-0.031
-708.645	-92.514	0.097	0.027
-707.631	-77.365	0.057	0.020
-706.616	374.361	-0.122	-0.249
-705.602	-110.620	0.144	-0.030
-704.587	81.601	-0.089	-0.096
-703.572	-14.267	-0.205	0.132
-702.558	-85.060	-0.147	0.046
-701.543	-108.625	0.186	-0.040
-700.529	394.513	0.052	-0.108
-699.514	-106.773	-0.360	-0.080
-698.499	-200.000	0.343	-0.001
-697.485	77.976	-0.150	0.160
-696.470	-200.000	0.001	0.026
-695.456	-200.000	0.053	0.301
-694.441	-200.000	-0.032	-0.162
-693.426	29.224	-0.205	-0.174
-692.412	57.210	-0.199	-0.194
-691.397	38.850	-0.118	-0.106
-690.383	-200.000	0.011	-0.338
-689.368	800.000	0.048	-0.171
-688.354	-120.221	0.296	0.051
-687.339	261.544	0.185	-0.321
-686.324	-32.517	-0.136	-0.076
-685.310	-20.689	-0.199	0.122
-684.295	238.153	0.070	-0.116
-683.281	-24.873	0.156	-0.093
-682.266	800.000	0.038	-0.138
-681.251	139.665	0.167	-0.221
-680.237	98.488	0.134	-0.155
-679.222	-200.000	0.024	-0.311
-678.208	-35.121	0.323	0.176
-677.193	31.075	-0.078	0.067
-676.178	-161.231	0.098	-0.005
-675.164	-196.613	0.167	-0.001
-674.149	-101.467	-0.283	-0.069
-673.135	800.000	0.078	0.297
-672.120	-119.681	0.053	-0.009
-671.105	-200.000	0.007	-0.229
-670.091	72.493	0.084	-0.087
-669.076	-200.000	-0.013	-0.170
-668.062	300.353	0.189	-0.349
-667.047	-110.784	-0.059	0.012
-666.032	50.092	0.135	-0.127
-665.018	53.326	-0.098	0.094
-664.003	-200.000	0.010	-0.063
-662.989	-200.000	0.026	-0.283
-661.974	-200.000	0.066	-0.313
-660.959	-15.756	0.034	0.022
-659.945	89.826	-0.150	-0.168
-658.930	391.626	0.032	-0.067
-657.916	-49.146	-0.240	-0.115
-656.901	-200.000	0.036	0.188
-655.886	-101.043	-0.098	-0.024
-654.872	-200.000	-0.016	-0.163
-653.857	39.292	0.298	-0.266
-652.843	-106.305	0.348	-0.078
-651.828	-51.403	0.076	-0.035
-650.814	246.216	0.050	0.085
-649.799	-27.257	-0.213	-0.124
-648.784	-118.504	0.394	-0.070
-647.770	-200.000	-0.051	0.000
-646.755	-7.925	-0.343	0.231
-645.741	-149.671	-0.159	0.013
-644.726	800.000	0.057	-0.181
-643.711	-30.341	0.279	0.158
-642.697	-65.349	-0.117	-0.047
-641.682	467.083	0.040	-0.091
-640.668	19.792	-0.138	0.111
-639.653	44.737	-0.106	-0.097
-638.638	153.331	0.071	-0.097
-637.624	-62.876	-0.129	-0.053
-636.609	-200.000	-0.033	-0.372
-635.595	-200.000	-0.051	-0.339
-634.580	-158.366	0.241	0.014
-633.565	-32.184	-0.277	0.155
-632.551	34.168	0.101	-0.088
-631.536	-200.000	-0.051	0.351
-630.522	-12.578	0.218	0.142
-629.507	-200.000	-0.040	-0.273
-628.492	-200.000	-0.003	0.092
-627.478	-53.733	0.170	0.077
-626.463	-53.173	0.149	-0.068
-625.449	-104.279	-0.099	-0.023
-624.434	-48.767	0.296	0.142
-623.419	111.877	-0.050	-0.060
-622.405	-23.323	-0.468	-0.281
-621.390	638.707	0.125	-0.317
-620.376	-200.000	-0.000	0.062
-619.361	-169.695	-0.064	0.002
-618.346	-121.926	-0.262	0.043
-617.332	-200.000	0.008	0.380
-616.317	-44.619	-0.177	0.088
-615.303	-48.635	-0.161	0.077
-614.288	-81.854	-0.268	-0.088
-613.273	642.675	-0.048	0.122
-612.259	-200.000	0.033	0.286
-611.244	36.363	-0.143	0.126
-610.230	-127.925	0.442	0.063
-609.215	-21.274	0.110	0.067
-608.201	-70.603	0.063	-0.024
-607.186	236.820	0.052	0.086
-606.171	-200.000	-0.053	0.377
-605.157	-105.212	0.296	0.067
-604.142	-10.208	-0.070	0.047
-603.128	-163.075	-0.144	0.007
-602.113	109.803	-0.025	0.030
-601.098	-2.444	-0.100	-0.070
-600.084	24.892	-0.168	0.139
-599.069	230.122	0.087	0.142
-598.055	774.858	0.128	-0.347
-597.040	135.037	0.222	-0.288
-596.025	-165.444	-0.417	-0.018
-595.011	35.007	0.164	0.144
-593.996	100.090	0.074	-0.086
-592.982	24.244	-0.144	0.119
-591.967	-38.708	-0.079	0.042
-590.952	-45.092	0.099	-0.049
-589.938	55.082	-0.070	0.068
-588.923	-49.255	-0.146	-0.069
-587.909	-200.000	-0.031	-0.151
-586.894	-200.000	-0.008	-0.109
-585.879	592.410	0.186	-0.457
-584.865	-200.000	-0.053	-0.371
-583.850	-85.313	0.194	-0.060
-582.836	-69.124	0.305	0.117
-581.821	-151.287	0.405	0.030
-580.806	-38.096	0.089	-0.047
-579.792	-200.000	0.010	-0.238
-578.777	-146.978	0.245	-0.021
-577.763	382.564	0.176	0.361
-576.748	34.230	-0.111	-0.096
-575.733	800.000	-0.078	-0.229
-574.719	-200.000	0.003	-0.022
-573.704	-102.352	-0.310	-0.074
-572.690	310.841	-0.095	-0.177
-571.675	-57.467	-0.299	-0.131
-570.661	-41.284	-0.206	0.106
-569.646	-93.682	0.142	0.039
-568.631	-163.337	-0.267	0.013
-567.617	-44.074	0.274	-0.137
-566.602	-200.000	0.025	0.307
-565.588	185.660	-0.053	-0.079
-564.573	149.818	-0.197	0.266
-563.558	-6.700	0.355	0.240
-562.544	47.143	0.099	-0.092
-561.529	800.000	0.043	-0.169
-560.515	46.188	-0.203	-0.188
-559.500	-140.064	0.276	-0.029
-558.485	-157.277	0.180	-0.011
-557.471	148.649	-0.112	0.150
-556.456	-200.000	-0.026	-0.139
-555.442	163.951	0.065	-0.091
-554.427	194.113	-0.098	0.148
-553.412	-80.335	-0.300	-0.100
-552.398	11.626	0.187	0.143
-551.383	800.000	0.041	0.161
-550.369	207.758	0.017	-0.027
-549.354	34.765	0.130	-0.113
-548.339	-200.000	-0.032	-0.278
-547.325	-17.183	0.169	0.106
-546.310	-119.393	0.050	0.009
-545.296	-140.431	-0.194	0.020
-544.281	63.162	-0.089	0.089
-543.266	393.798	0.113	0.235
-542.252	514.370	-0.094	-0.219
-541.237	-200.000	-0.042	0.188
-540.223	-200.000	-0.001	-0.224
-539.208	-104.413	0.125	-0.029
-538.193	43.046	-0.133	0.121
-537.179	164.760	-0.017	0.024
-536.164	566.570	0.059	0.142
-535.150	800.000	-0.086	0.252
-534.135	800.000	0.069	0.259
-533.121	103.604	-0.016	0.018
-532.106	-200.000	0.036	0.245
-531.091	800.000	-0.103	-0.309
-530.077	-200.000	-0.027	-0.508
-529.062	-56.672	-0.234	0.103
-528.048	800.000	-0.109	0.435
-527.033	55.298	0.058	0.056
-526.018	-145.810	-0.311	0.028
-525.004	-122.674	0.036	-0.006
-523.989	-112.444	-0.144	0.029
-522.975	-200.000	0.021	0.248
-521.960	-200.000	0.009	0.062
-520.945	220.833	0.015	-0.024
-519.931	-54.581	0.096	0.043
-518.916	-200.000	-0.048	-0.216
-517.902	113.886	-0.094	-0.114
-516.887	-181.629	-0.158	0.003
-515.872	-189.468	-0.337	-0.004
-514.858	-159.982	0.113	0.006
-513.843	-80.642	0.207	0.068
-512.829	-200.000	-0.022	0.246
-511.814	-21.285	-0.241	0.146
-510.799	-104.349	0.124	0.029
-509.785	-106.272	0.298	0.066
-508.770	-155.046	0.229	-0.015
-507.756	-65.082	-0.111	-0.045
-506.741	228.025	0.045	-0.073
-505.726	-12.313	0.135	-0.088
-504.712	108.412	0.137	-0.162
-503.697	-200.000	0.047	0.218
-502.683	-200.000	-0.035	0.228
-501.668	20.201	-0.147	0.118
-500.653	-200.000	-0.052	0.252
-499.639	800.000	-0.034	-0.133
-498.624	-200.000	0.060	-0.363
-497.610	63.501	-0.148	-0.148
-496.595	800.000	-0.075	-0.239
-495.581	162.090	-0.194	0.270
-494.566	-109.881	-0.162	-0.034
-493.551	531.524	-0.126	0.295
-492.537	71.378	-0.141	0.146
-491.522	-76.585	-0.179	0.063
-490.508	534.834	0.200	0.470
-489.493	508.856	0.047	-0.109
-488.478	12.126	-0.276	0.211
-487.464	-193.211	-0.332	0.003
-486.449	37.354	0.083	0.073
-485.435	800.000	0.092	0.324
-484.420	-102.705	-0.195	-0.046
-483.405	-156.919	0.089	-0.005
-482.391	208.432	0.022	0.035
-481.376	-200.000	-0.035	0.275
-480.362	22.385	-0.167	0.136
-479.347	92.274	0.049	-0.055
-478.332	19.518	-0.258	-0.206
-477.318	-24.989	0.158	-0.093
-476.303	43.722	0.219	0.199
-475.289	-200.000	-0.035	0.395
-474.274	-23.504	0.139	-0.083
-473.259	-121.589	0.348	0.057
-472.245	-153.030	0.192	0.013
-471.230	97.440	-0.177	0.202
-470.216	200.080	0.204	0.310
-469.201	187.510	0.103	-0.153
-468.186	15.826	0.162	-0.127
-467.172	-56.392	-0.249	0.110
-466.157	133.874	-0.124	-0.160
-465.143	800.000	-0.071	0.231
-464.128	132.657	0.022	0.029
-463.113	-114.341	0.124	-0.024
-462.099	-200.000	0.022	-0.233
-461.084	-65.049	-0.120	-0.048
-460.070	-200.000	0.076	0.333
-459.055	-200.000	0.036	0.410
-458.040	-120.472	0.240	0.040
-457.026	-200.000	-0.002	-0.531
-456.011	-200.000	-0.031	0.252
-454.997	-152.644	0.374	-0.026
-453.982	-137.727	-0.204	0.023
-452.968	329.235	-0.156	0.298
-451.953	104.699	0.131	0.153
-450.938	-200.000	0.015	0.100
-449.924	-200.000	0.003	0.116
-448.909	131.541	0.154	-0.196
-447.895	-73.401	0.304	0.110
-446.880	363.912	-0.101	-0.202
-445.865	165.517	0.170	-0.239
-444.851	215.465	-0.277	-0.436
-443.836	778.426	-0.136	-0.368
-442.822	45.123	0.094	-0.086
-441.807	-200.000	-0.041	0.198
-440.792	-200.000	0.002	0.170
-439.778	22.221	0.226	-0.183
-438.763	-200.000	-0.005	-0.233
-437.749	800.000	0.088	-0.378
-436.734	-57.647	-0.120	-0.052
-435.719	-64.783	-0.202	0.081
-434.705	5.236	0.210	0.153
-433.690	9.773	0.174	0.131
-432.676	49.277	-0.056	-0.052
-431.661	-173.775	-0.415	-0.012
-430.646	-200.000	0.010	0.094
-429.632	-152.335	-0.323	0.023
-428.617	-60.301	-0.167	-0.070
-427.603	-160.577	0.175	-0.009
-426.588	-60.479	-0.290	-0.122
-425.573	3.675	0.133	0.096
-424.559	800.000	0.012	0.052
-423.544	24.977	0.191	-0.157
-422.530	489.888	0.089	-0.202
-421.515	800.000	-0.102	-0.310
-420.500	800.000	0.059	-0.173
-419.486	-200.000	-0.003	0.178
-418.471	-39.482	0.256	0.133
-417.457	16.538	0.202	0.158
-416.442	521.651	-0.093	-0.216
-415.428	-88.354	-0.183	-0.054
-414.413	100.305	0.165	0.190
-413.398	800.000	-0.022	-0.092
-412.384	320.345	-0.206	0.388
-411.369	-15.638	-0.315	0.199
-410.355	166.470	-0.159	0.224
-409.340	88.058	-0.102	0.112
-408.325	800.000	-0.094	0.382
-407.311	-200.000	-0.017	0.120
-406.296	-200.000	-0.018	-0.299
-405.282	34.367	0.197	0.171
-404.267	-179.576	0.176	0.004
-403.252	235.122	-0.104	-0.170
-402.238	-102.767	0.332	0.078
-401.223	-68.321	0.112	0.043
-400.209	-14.349	-0.193	0.123
-399.194	-150.814	-0.250	-0.019
-398.179	85.467	0.162	-0.176
-397.165	-200.000	-0.008	0.078
-396.150	800.000	0.037	-0.152
-395.136	-74.242	-0.127	-0.045
-394.121	37.301	0.266	-0.233
-393.106	136.397	0.105	-0.136
-392.092	618.728	0.103	0.256
-391.077	193.514	-0.171	-0.256
-390.063	304.296	0.180	0.331
-389.048	200.667	-0.062	0.094
-388.033	-200.000	-0.221	-0.001
-387.019	-200.000	-0.002	-0.085
-386.004	7.270	0.183	0.135
-384.990	-75.711	-0.254	0.089
-383.975	392.845	-0.072	-0.148
-382.960	-73.028	-0.569	-0.207
-381.946	-173.799	0.194	-0.006
-380.931	-200.000	0.038	-0.173
-379.917	46.671	0.250	0.230
-378.902	-188.287	-0.374	-0.005
-377.888	-121.412	0.123	-0.020
-376.873	-200.000	-0.043	-0.310
-375.858	-200.000	-0.080	-0.425
-374.844	720.466	0.076	0.200
-373.829	-200.000	-0.044	0.383
-372.815	-59.404	0.074	0.031
-371.800	-96.466	-0.071	0.018
-370.785	150.158	-0.046	-0.062
-369.771	7.096	-0.243	0.179
-368.756	-200.000	-0.034	-0.416
-367.742	-200.000	0.040	-0.504
-366.727	340.209	-0.123	0.238
-365.712	-148.790	0.386	0.031
-364.698	-200.000	0.019	0.228
-363.683	800.000	0.057	0.241
-362.669	-200.000	-0.019	-0.085
-361.654	-158.387	-0.244	-0.014
-360.639	-175.778	0.283	-0.007
-359.625	717.073	-0.119	-0.313
-358.610	369.021	0.190	0.381
-357.596	-200.000	0.000	-0.086
-356.581	-36.118	-0.078	-0.041
-355.566	286.074	-0.235	-0.419
-354.552	-200.000	-0.057	-0.274
-353.537	54.459	-0.138	0.131
-352.523	-79.781	-0.228	-0.076
-351.508	-109.481	-0.300	0.063
-350.493	-200.000	0.062	-0.370
-349.479	45.486	0.133	-0.121
-348.464	485.908	-0.083	0.187
-347.450	-99.596	0.229	-0.057
-346.435	-108.019	0.163	-0.035
-345.420	-85.097	0.296	0.092
-344.406	-200.000	0.016	0.112
-343.391	98.573	0.079	0.090
-342.377	-7.640	-0.219	0.146
-341.362	-200.000	-0.015	0.201
-340.348	-200.000	-0.028	0.364
-339.333	-200.000	0.033	-0.340
-338.318	64.432	-0.065	-0.064
-337.304	800.000	0.034	-0.115
-336.289	-124.329	0.043	0.007
-335.275	99.288	-0.096	0.109
-334.260	-39.255	-0.141	0.073
-333.245	-200.000	-0.013	-0.154
-332.231	-159.661	-0.202	0.011
-331.216	40.560	0.123	-0.109
-330.202	-90.034	-0.125	0.036
-329.187	-200.000	-0.031	0.142
-328.172	15.246	-0.152	0.118
-327.158	-200.000	0.037	-0.197
-326.143	-72.289	0.142	0.052
-325.129	180.588	0.134	0.195
-324.114	-86.988	-0.125	-0.038
-323.099	322.133	-0.169	0.317
-322.085	-69.692	0.265	0.100
-321.070	178.367	0.084	-0.121
-320.056	-175.065	-0.111	-0.003
-319.041	341.179	-0.051	-0.099
-318.026	-5.478	0.194	0.131
-317.012	-4.279	-0.225	-0.154
-315.997	83.149	0.124	0.134
-314.983	229.222	0.146	0.235
-313.968	-200.000	-0.043	-0.310
-312.953	116.940	-0.062	-0.075
-311.939	443.227	-0.079	0.170
-310.924	-150.100	-0.061	-0.005
-309.910	-200.000	-0.030	-0.417
-308.895	186.524	0.185	-0.271
-307.880	-121.989	-0.409	0.066
-306.866	-80.265	-0.250	0.082
-305.851	-181.635	0.229	0.004
-304.837	-34.641	-0.236	0.127
-303.822	17.613	-0.165	0.130
-302.807	-54.413	0.306	-0.137
-301.793	-200.000	-0.033	-0.153
-300.778	-200.000	-0.059	-0.282
-299.764	-84.586	0.104	0.032
-298.749	87.062	-0.054	0.059
-297.735	-200.000	-0.021	-0.236
-296.720	-80.239	0.333	0.110
-295.705	-144.739	-0.232	-0.021
-294.691	102.888	0.146	0.168
-293.676	-78.505	0.201	0.068
-292.662	43.500	0.258	-0.232
-291.647	364.155	-0.172	-0.341
-290.632	320.048	-0.061	0.113
-289.618	-200.000	0.028	-0.227
-288.603	-200.000	0.053	-0.344
-287.589	213.693	0.168	0.262
-286.574	-200.000	-0.038	-0.204
-285.559	-10.738	0.409	0.267
-284.545	800.000	0.053	0.167
-283.530	-173.555	0.052	0.002
-282.516	129.852	0.007	-0.008
-281.501	-59.302	0.150	-0.064
-280.486	688.149	-0.082	-0.212
-279.472	-109.282	0.165	0.034
-278.457	-132.090	-0.173	-0.022
-277.443	-200.000	-0.034	-0.198
-276.428	13.384	-0.122	-0.093
-275.413	-200.000	0.044	-0.300
-274.399	-20.758	-0.152	-0.092
-273.384	800.000	0.116	0.416
-272.370	-31.436	0.150	0.083
-271.355	174.004	-0.316	0.450
-270.340	84.223	-0.177	-0.190
-269.326	-33.295	-0.138	-0.075
-268.311	353.229	-0.113	-0.221
-267.297	-119.867	0.078	-0.013
-266.282	194.715	0.051	-0.077
-265.267	-101.510	0.144	0.034
-264.253	184.057	0.094	-0.138
-263.238	800.000	-0.065	0.268
-262.224	131.789	0.140	-0.177
-261.209	-115.902	0.329	0.060
-260.195	584.503	0.187	-0.452
-259.180	-200.000	0.018	0.215
-258.165	-139.577	-0.104	-0.011
-257.151	-36.517	-0.279	0.148
-256.136	179.002	0.111	0.160
-255.122	-55.703	0.265	-0.117
-254.107	-111.188	-0.315	-0.063
-253.092	-42.696	0.242	0.121
-252.078	289.247	-0.196	0.350
-251.063	-128.659	0.276	0.038
-250.049	-106.919	-0.292	-0.064
-249.034	40.049	-0.200	-0.177
-248.019	-200.000	-0.072	-0.398
-247.005	-200.000	0.018	-0.262
-245.990	-115.202	0.245	-0.046
-244.976	154.662	0.204	-0.276
-243.961	284.715	-0.058	-0.103
-242.946	19.767	-0.229	0.182
-241.932	694.383	0.123	0.317
-240.917	295.911	-0.037	0.068
-239.903	-123.795	0.004	0.001
-238.888	-86.108	0.213	-0.065
-237.873	-144.851	0.218	0.020
-236.859	3.818	0.239	0.172
-235.844	712.189	-0.085	0.223
-234.830	-200.000	0.007	-0.129
-233.815	-200.000	0.050	-0.231
-232.800	181.626	0.101	0.147
-231.786	357.971	-0.083	0.162
-230.771	232.221	0.018	0.029
-229.757	-67.319	-0.131	-0.050
-228.742	-29.666	-0.116	-0.065
-227.727	-23.867	-0.166	-0.098
-226.713	-30.400	0.293	-0.163
-225.698	-87.981	0.243	-0.072
-224.684	7.555	-0.153	-0.113
-223.669	104.159	0.091	0.105
-222.655	-28.302	0.136	0.077
-221.640	-21.045	-0.075	-0.045
-220.625	-177.046	-0.394	0.010
-219.611	-49.725	0.213	0.099
-218.596	-1.885	0.145	0.100
-217.582	-200.000	-0.046	0.279
-216.567	-71.893	0.188	0.069
-215.552	-32.531	-0.307	0.168
-214.538	-42.274	0.022	0.011
-213.523	-26.479	0.388	-0.223
-212.509	33.515	-0.292	0.250
-211.494	-50.385	-0.091	0.042
-210.479	483.105	0.084	0.188
-209.465	-33.935	-0.145	0.079
-208.450	240.270	-0.095	0.155
-207.436	-182.022	0.290	-0.005
-206.421	-106.682	0.289	0.063
-205.406	-200.000	0.004	0.372
-204.392	-96.358	-0.108	0.028
-203.377	19.155	0.128	0.101
-202.363	800.000	0.052	-0.147
-201.348	-53.410	-0.214	-0.096
-200.333	109.039	0.201	0.236
-199.319	-95.489	0.379	-0.100
-198.304	-108.050	-0.288	-0.061
-197.290	-200.000	0.109	0.000
-196.275	-19.625	0.282	-0.172
-195.260	-64.569	0.415	0.165
-194.246	600.549	0.121	-0.296
-193.231	90.096	0.154	0.169
-192.217	800.000	-0.073	-0.208
-191.202	-12.195	-0.267	0.172
-190.187	23.045	0.044	-0.036
-189.173	471.116	0.137	-0.304
-188.158	-200.000	-0.032	-0.425
-187.144	-14.499	0.251	-0.159
-186.129	-145.288	-0.273	0.024
-185.114	-31.608	-0.115	-0.063
-184.100	-100.621	-0.024	0.006
-183.085	-200.000	0.027	0.244
-182.071	-200.000	-0.052	-0.398
-181.056	-122.879	0.253	-0.040
-180.042	396.837	-0.197	-0.403
-179.027	-200.000	-0.009	0.080
-178.012	-32.562	-0.116	0.064
-176.998	408.509	0.075	0.156
-175.983	-200.000	0.018	-0.115
-174.969	-153.445	0.047	0.003
-173.954	41.151	0.059	-0.052
-172.939	44.991	-0.062	0.056
-171.925	782.583	0.082	0.220
-170.910	-200.000	-0.016	0.260
-169.896	100.633	-0.386	-0.440
-168.881	49.176	0.153	-0.141
-167.866	-43.758	0.207	-0.102
-166.852	-49.783	-0.255	-0.119
-165.837	-200.000	0.012	0.282
-164.823	-101.104	0.451	-0.108
-163.808	-69.891	0.113	0.042
-162.793	-200.000	0.017	-0.282
-161.779	800.000	-0.049	0.174
-160.764	22.521	-0.100	0.080
-159.750	185.241	0.139	0.202
-158.735	-27.710	-0.105	0.060
-157.720	-200.000	0.040	0.181
-156.706	-45.266	-0.383	-0.186
-155.691	-57.955	-0.477	-0.204
-154.677	800.000	0.035	-0.103
-153.662	-101.593	0.120	-0.029
-152.647	643.134	-0.040	0.099
-151.633	800.000	0.028	-0.076
-150.618	-200.000	0.049	-0.306
-149.604	-86.739	0.177	0.053
-148.589	-19.379	-0.156	-0.095
-147.574	301.612	-0.060	-0.110
-146.560	473.291	-0.132	-0.291
-145.545	-200.000	0.003	0.084
-144.531	-48.933	-0.112	0.053
-143.516	-200.000	-0.001	0.063
-142.502	30.743	-0.141	0.119
-141.487	-78.228	0.164	-0.055
-140.472	-200.000	0.039	-0.387
-139.458	202.562	0.092	-0.139
-138.443	199.763	-0.110	-0.166
-137.429	321.486	0.292	-0.544
-136.414	257.807	-0.160	0.270
-135.399	-114.430	0.081	-0.015
-134.385	4.565	-0.256	0.184
-133.370	254.666	0.058	0.097
-132.356	800.000	0.064	-0.264
-131.341	-152.221	-0.304	0.022
-130.326	-65.076	0.163	0.065
-129.312	-73.887	-0.162	0.058
-128.297	-19.089	-0.258	0.157
-127.283	350.198	0.105	0.203
-126.268	-200.000	0.001	0.079
-125.253	-200.000	0.024	0.133
-124.239	800.000	0.055	-0.202
-123.224	-200.000	-0.020	0.177
