DTS Sentinel unit serial number:	SN413079Multiplexer serial number:	ORYXHardware model number:	OX4-SRSoftware version number:	ORYX F/W v4.00 Oryx Data Collector v3.7.2.0data status	okinstallation	princeton_trtdifferential loss correction	single-endedforward channel	channel 2reverse channel	N/Adate	2019/09/12time	01:01:11forward acquisition time	60.00reverse acquisition time	0.00gamma	496.2192k internal	0.2325k external	0.2325temperature offset calibration	1.0090default loss term (dB/km)	0.3790temperature slope calibration	1.0000multiplexer offset coefficient	1.0000multiplexer slope coefficient	1.0000fibre end	0.00T internal ref (°C)	33.19T ext. ref 1 (°C)	2.07T ext. ref 2 (°C)	26.92length (m)	temperature (°C)	Stokes	anti-Stokes-747.200	211.988	-0.077	0.122
-746.185	242.239	-0.044	-0.074
-745.171	-200.000	0.008	-0.210
-744.156	-42.507	-0.414	0.213
-743.142	34.940	-0.074	0.066
-742.127	-167.023	0.303	-0.012
-741.112	-126.791	-0.269	-0.040
-740.098	-200.000	-0.047	0.379
-739.083	-126.176	-0.145	-0.022
-738.069	35.586	0.260	-0.231
-737.054	800.000	-0.037	-0.109
-736.039	-200.000	-0.018	-0.126
-735.025	-200.000	-0.010	-0.192
-734.010	-27.167	-0.336	-0.198
-732.996	-200.000	-0.021	0.167
-731.981	-200.000	-0.044	0.244
-730.966	-200.000	-0.100	-0.578
-729.952	136.299	-0.035	-0.047
-728.937	140.627	-0.136	0.181
-727.923	99.812	0.073	0.086
-726.908	-200.000	-0.006	0.187
-725.894	2.772	-0.128	-0.094
-724.879	152.884	-0.172	-0.237
-723.864	-26.199	-0.375	-0.222
-722.850	-200.000	-0.015	-0.159
-721.835	800.000	0.023	-0.099
-720.821	277.626	0.033	0.059
-719.806	-70.538	-0.309	0.118
-718.791	287.928	0.046	-0.084
-717.777	44.469	-0.276	-0.255
-716.762	800.000	0.074	-0.227
-715.748	-21.671	-0.104	0.064
-714.733	-85.391	0.226	0.071
-713.718	-200.000	-0.010	0.228
-712.704	371.086	-0.110	0.225
-711.689	-119.686	0.205	-0.036
-710.675	800.000	-0.031	0.106
-709.660	46.379	0.201	-0.188
-708.645	41.533	0.117	-0.107
-707.631	-15.944	-0.217	-0.139
-706.616	-200.000	0.027	-0.145
-705.602	-29.482	-0.142	0.082
-704.587	74.270	-0.221	0.234
-703.572	317.221	0.041	0.078
-702.558	-105.409	0.051	0.012
-701.543	165.240	0.124	0.176
-700.529	800.000	-0.115	-0.350
-699.514	25.320	0.191	0.160
-698.499	341.192	0.025	-0.049
-697.485	-200.000	-0.042	-0.283
-696.470	64.690	-0.079	-0.080
-695.456	503.481	-0.056	0.130
-694.441	187.456	0.074	0.110
-693.426	177.949	0.119	-0.175
-692.412	47.209	0.217	-0.203
-691.397	-43.103	-0.022	0.011
-690.383	241.745	-0.170	0.286
-689.368	165.170	0.101	-0.144
-688.354	-142.513	-0.106	0.010
-687.339	-200.000	-0.008	-0.289
-686.324	-111.644	-0.266	-0.054
-685.310	77.567	0.149	0.160
-684.295	20.796	-0.246	0.200
-683.281	800.000	-0.051	-0.161
-682.266	27.805	0.124	-0.105
-681.251	64.545	0.173	-0.175
-680.237	42.396	-0.249	0.228
-679.222	-122.416	-0.196	-0.032
-678.208	87.607	-0.116	-0.129
-677.193	183.080	-0.018	-0.026
-676.178	86.631	-0.022	0.025
-675.164	-200.000	0.006	-0.135
-674.149	-105.047	0.335	0.077
-673.135	9.938	0.120	-0.091
-672.120	45.053	0.332	-0.308
-671.105	701.351	0.097	-0.256
-670.091	-200.000	0.051	0.240
-669.076	-89.937	-0.261	-0.077
-668.062	358.643	0.087	-0.174
-667.047	287.493	0.238	-0.433
-666.032	-167.717	-0.214	-0.009
-665.018	36.098	-0.082	0.072
-664.003	-67.125	-0.393	-0.156
-662.989	-78.439	0.145	-0.050
-661.974	484.235	-0.062	-0.142
-660.959	-56.794	0.232	-0.103
-659.945	33.390	-0.272	0.237
-658.930	-122.887	0.062	0.010
-657.916	-53.974	-0.074	-0.034
-656.901	33.167	-0.210	0.183
-655.886	301.780	0.061	0.114
-654.872	516.826	-0.113	-0.266
-653.857	-11.356	0.212	-0.140
-652.843	-200.000	-0.036	0.174
-651.828	-200.000	0.044	-0.433
-650.814	-200.000	-0.038	-0.277
-649.799	-180.928	0.303	-0.006
-648.784	12.801	-0.252	-0.196
-647.770	-81.349	0.313	-0.104
-646.755	325.898	0.032	-0.061
-645.741	-170.191	-0.240	-0.009
-644.726	105.737	0.027	0.032
-643.711	-115.594	-0.185	-0.035
-642.697	800.000	-0.107	0.343
-641.682	30.239	-0.137	0.118
-640.668	-149.016	-0.136	0.011
-639.653	-78.746	0.178	-0.061
-638.638	-118.964	0.122	-0.022
-637.624	51.234	0.196	0.187
-636.609	-127.646	0.222	0.032
-635.595	47.779	0.125	-0.118
-634.580	197.515	0.157	0.241
-633.565	31.349	0.230	0.198
-632.551	800.000	-0.081	-0.327
-631.536	263.815	0.136	-0.237
-630.522	657.050	0.062	0.160
-629.507	13.199	-0.302	0.235
-628.492	11.094	0.231	-0.177
-627.478	-200.000	-0.025	0.209
-626.463	-33.903	0.248	-0.137
-625.449	313.019	0.157	-0.297
-624.434	45.223	0.169	-0.156
-623.419	-40.513	0.275	-0.144
-622.405	-105.211	0.467	-0.107
-621.390	-43.320	-0.143	0.073
-620.376	32.466	0.056	-0.049
-619.361	446.992	0.145	-0.320
-618.346	-200.000	0.035	-0.282
-617.332	-51.349	0.098	-0.046
-616.317	74.408	0.040	-0.042
-615.303	-130.284	-0.326	0.044
-614.288	125.891	-0.104	-0.131
-613.273	-98.876	0.215	0.055
-612.259	-45.233	0.157	-0.078
-611.244	-95.826	-0.301	-0.081
-610.230	325.307	0.087	-0.167
-609.215	-200.000	-0.101	-0.504
-608.201	-200.000	0.003	0.069
-607.186	-200.000	-0.016	0.263
-606.171	-200.000	-0.027	0.142
-605.157	-58.479	-0.399	0.174
-604.142	800.000	0.033	-0.117
-603.128	96.890	-0.159	-0.183
-602.113	110.496	0.135	-0.162
-601.098	79.846	-0.073	-0.079
-600.084	-200.000	-0.054	0.464
-599.069	800.000	-0.088	0.343
-598.055	310.035	0.226	-0.425
-597.040	-83.566	0.515	0.165
-596.025	123.460	-0.091	-0.115
-595.011	119.987	0.173	0.215
-593.996	800.000	-0.082	0.280
-592.982	30.321	0.262	-0.224
-591.967	-200.000	-0.010	0.173
-590.952	173.695	0.031	-0.045
-589.938	-119.463	-0.196	-0.034
-588.923	800.000	-0.078	0.257
-587.909	-41.647	-0.329	0.169
-586.894	-108.137	-0.281	0.061
-585.879	89.463	-0.147	0.165
-584.865	239.476	0.048	0.080
-583.850	34.027	0.176	0.154
-582.836	14.048	0.275	-0.215
-581.821	-200.000	0.018	0.099
-580.806	331.971	0.135	-0.261
-579.792	-200.000	0.038	-0.169
-578.777	-138.211	0.029	-0.003
-577.763	41.558	-0.139	-0.127
-576.748	-115.945	0.048	0.009
-575.733	-200.000	0.047	-0.262
-574.719	695.485	-0.022	-0.059
-573.704	92.263	-0.128	-0.144
-572.690	53.322	-0.156	-0.150
-571.675	-200.000	0.004	0.424
-570.661	209.033	-0.107	0.167
-569.646	434.947	0.104	-0.226
-568.631	94.638	-0.115	0.131
-567.617	108.007	-0.035	-0.041
-566.602	24.750	0.206	-0.171
-565.588	170.171	-0.122	-0.175
-564.573	-139.737	0.218	0.023
-563.558	24.353	-0.122	0.101
-562.544	101.073	0.153	-0.178
-561.529	-200.000	0.032	0.145
-560.515	-37.755	-0.172	-0.092
-559.500	800.000	0.062	-0.262
-558.485	-94.904	0.368	0.100
-557.471	8.516	0.023	0.017
-556.456	-70.310	0.076	-0.029
-555.442	-200.000	-0.014	-0.362
-554.427	800.000	0.047	0.182
-553.412	127.262	-0.059	0.075
-552.398	68.194	0.220	0.226
-551.383	40.237	-0.219	0.198
-550.369	18.277	-0.185	0.148
-549.354	-200.000	0.018	-0.609
-548.339	-43.988	-0.111	-0.056
-547.325	-5.624	0.253	-0.173
-546.310	254.104	-0.246	-0.421
-545.296	800.000	-0.110	0.341
-544.281	183.698	0.158	0.233
-543.266	-200.000	-0.002	-0.192
-542.252	-108.383	-0.328	0.071
-541.237	225.108	-0.132	-0.213
-540.223	6.523	0.123	0.092
-539.208	800.000	-0.083	0.236
-538.193	800.000	0.110	0.319
-537.179	-200.000	-0.051	-0.314
-536.164	-50.679	0.062	-0.029
-535.150	-57.985	-0.046	-0.020
-534.135	-197.139	-0.129	0.001
-533.121	-200.000	0.002	0.033
-532.106	510.674	-0.090	-0.209
-531.091	89.007	-0.132	0.147
-530.077	-200.000	-0.022	-0.154
-529.062	-59.970	-0.082	-0.035
-528.048	800.000	0.094	-0.303
-527.033	-190.890	-0.155	0.002
-526.018	-125.181	-0.215	-0.033
-525.004	415.478	-0.095	-0.202
-523.989	-142.438	-0.446	-0.044
-522.975	-200.000	-0.033	-0.197
-521.960	7.353	-0.144	0.107
-520.945	-200.000	-0.040	-0.278
-519.931	800.000	-0.087	0.248
-518.916	11.591	0.209	-0.160
-517.902	3.601	-0.429	-0.313
-516.887	-200.000	-0.010	0.087
-515.872	-15.829	0.084	0.053
-514.858	81.758	-0.193	0.209
-513.843	-98.785	0.386	0.098
-512.829	-65.217	0.349	0.141
-511.814	101.660	-0.212	-0.247
-510.799	-200.000	-0.005	-0.308
-509.785	-66.346	-0.163	0.065
-508.770	800.000	0.042	0.135
-507.756	800.000	-0.028	0.096
-506.741	-117.087	-0.063	-0.011
-505.726	1.583	0.291	0.210
-504.712	27.403	-0.109	-0.091
-503.697	-82.504	0.194	0.063
-502.683	102.222	0.072	0.084
-501.668	-200.000	-0.031	0.170
-500.653	-174.547	-0.146	-0.004
-499.639	-119.780	0.246	-0.042
-498.624	800.000	-0.059	0.184
-497.610	-109.849	-0.443	0.093
-496.595	54.518	-0.136	0.131
-495.581	-78.349	-0.030	0.010
-494.566	-200.000	0.006	-0.046
-493.551	-200.000	-0.026	-0.124
-492.537	40.426	-0.326	-0.293
-491.522	61.502	0.102	0.101
-490.508	-200.000	0.027	-0.159
-489.493	-79.125	-0.086	-0.029
-488.478	-200.000	-0.008	-0.273
-487.464	800.000	-0.055	0.154
-486.449	168.254	-0.131	-0.186
-485.435	-198.643	-0.303	-0.002
-484.420	-23.664	-0.080	-0.048
-483.405	221.635	0.161	-0.259
-482.391	282.316	-0.103	0.184
-481.376	800.000	0.090	-0.282
-480.362	-127.860	-0.398	-0.057
-479.347	-187.712	-0.389	-0.005
-478.332	800.000	0.089	-0.269
-477.318	-200.000	-0.031	0.398
-476.303	747.360	0.044	-0.118
-475.289	-0.487	-0.129	-0.092
-474.274	800.000	0.044	-0.166
-473.259	-150.916	0.162	0.012
-472.245	-200.000	0.096	0.548
-471.230	-81.635	-0.105	-0.034
-470.216	-133.697	0.112	0.014
-469.201	4.415	-0.176	-0.129
-468.186	-39.690	0.063	0.033
-467.172	-200.000	-0.077	-0.466
-466.157	-86.170	-0.221	0.068
-465.143	720.734	-0.078	0.206
-464.128	73.755	0.229	0.239
-463.113	2.192	-0.138	-0.100
-462.099	-128.657	0.200	0.028
-461.084	-91.539	0.015	0.004
-460.070	-28.567	0.147	-0.084
-459.055	800.000	-0.023	0.082
-458.040	-74.060	0.086	-0.031
-457.026	-200.000	-0.050	0.364
-456.011	-138.898	0.212	-0.023
-454.997	-31.340	0.087	0.049
-453.982	-24.102	0.146	0.087
-452.968	76.263	-0.125	-0.132
-451.953	-200.000	0.022	-0.163
-450.938	-162.589	0.198	-0.010
-449.924	800.000	0.101	0.413
-448.909	-22.997	-0.209	-0.126
-447.895	-200.000	0.045	-0.288
-446.880	86.595	0.346	0.380
-445.865	800.000	-0.016	-0.051
-444.851	-38.495	-0.096	0.050
-443.836	-80.238	-0.219	-0.073
-442.822	665.920	0.133	0.343
-441.807	-90.877	0.352	-0.101
-440.792	336.310	0.090	-0.175
-439.778	87.110	-0.124	-0.137
-438.763	-60.050	-0.266	-0.113
-437.749	-200.000	-0.008	0.049
-436.734	419.244	0.074	-0.158
-435.719	800.000	0.029	-0.125
-434.705	-86.574	0.457	-0.140
-433.690	-105.190	-0.193	-0.044
-432.676	800.000	0.105	0.288
-431.661	18.802	-0.303	-0.242
-430.646	755.012	-0.071	-0.193
-429.632	69.112	0.266	0.273
-428.617	-45.444	-0.036	0.018
-427.603	425.975	0.050	0.108
-426.588	-182.964	-0.195	-0.003
-425.573	602.957	0.063	-0.157
-424.559	69.422	-0.142	0.146
-423.544	-174.084	-0.260	-0.008
-422.530	-100.654	-0.361	-0.089
-421.515	-69.589	0.257	-0.098
-420.500	-140.500	0.123	0.013
-419.486	-120.724	0.534	0.090
-418.471	92.201	-0.109	-0.122
-417.457	-84.262	-0.386	0.122
-416.442	25.264	0.241	0.200
-415.428	-81.769	0.247	0.081
-414.413	-200.000	-0.033	-0.210
-413.398	-200.000	0.002	-0.056
-412.384	-14.738	0.224	-0.143
-411.369	-92.792	0.148	0.041
-410.355	-200.000	-0.025	0.168
-409.340	182.622	-0.016	0.023
-408.325	385.843	-0.058	0.120
-407.311	-200.000	-0.048	-0.344
-406.296	291.005	-0.074	-0.134
-405.282	-200.000	0.096	-0.565
-404.267	800.000	0.074	-0.216
-403.252	800.000	0.066	-0.238
-402.238	-200.000	-0.046	-0.330
-401.223	114.730	0.052	0.063
-400.209	-200.000	-0.004	0.270
-399.194	140.551	0.177	0.232
-398.179	-57.399	0.137	0.060
-397.165	10.278	0.096	-0.072
-396.150	-200.000	0.023	0.242
-395.136	55.971	0.281	-0.271
-394.121	1.978	-0.080	-0.057
-393.106	-40.911	-0.086	0.044
-392.092	-132.371	0.122	0.016
-391.077	-200.000	0.001	-0.131
-390.063	800.000	0.020	-0.076
-389.048	-200.000	-0.054	0.267
-388.033	51.329	0.087	0.082
-387.019	-4.246	-0.298	-0.206
-386.004	-200.000	-0.077	0.545
-384.990	-174.362	0.145	0.004
-383.975	10.422	0.197	-0.149
-382.960	-21.095	-0.144	-0.087
-381.946	-31.634	0.254	0.142
-380.931	11.234	0.289	0.220
-379.917	-123.467	0.236	0.037
-378.902	37.833	0.215	0.190
-377.888	-180.523	-0.019	0.000
-376.873	43.348	-0.113	-0.103
-375.858	-28.061	-0.112	0.065
-374.844	-92.466	-0.328	0.092
-373.829	800.000	-0.093	-0.336
-372.815	797.805	0.098	0.268
-371.800	-133.820	-0.166	0.021
-370.785	-200.000	0.047	0.298
-369.771	-128.373	-0.091	-0.013
-368.756	800.000	0.050	0.150
-367.742	800.000	-0.155	0.461
-366.727	479.209	0.100	0.225
-365.712	-97.241	-0.250	0.065
-364.698	28.819	-0.202	0.170
-363.683	154.713	0.212	-0.290
-362.669	31.506	-0.228	0.195
-361.654	-200.000	0.004	0.393
-360.639	-200.000	0.021	0.490
-359.625	-200.000	-0.005	0.242
-358.610	-98.934	-0.134	-0.034
-357.596	800.000	0.087	-0.271
-356.581	184.436	-0.127	0.186
-355.566	56.343	0.274	0.265
-354.552	-22.862	-0.246	0.148
-353.537	49.676	0.215	-0.201
-352.523	-171.567	-0.325	-0.011
-351.508	471.439	-0.019	0.042
-350.493	-200.000	0.003	0.265
-349.479	-149.980	-0.327	-0.025
-348.464	227.754	0.133	-0.214
-347.450	-72.031	0.236	0.087
-346.435	-130.818	0.098	0.013
-345.420	-56.651	0.096	-0.042
-344.406	-51.013	-0.147	0.068
-343.391	55.027	0.093	0.089
-342.377	-111.296	0.292	-0.059
-341.362	-101.730	0.172	-0.042
-340.348	21.405	-0.292	-0.236
-339.333	-200.000	0.026	0.142
-338.318	141.104	0.093	-0.122
-337.304	102.901	0.116	0.134
-336.289	-106.202	0.045	0.010
-335.275	-22.347	0.345	0.207
-334.260	745.933	-0.062	0.166
-333.245	485.657	-0.120	0.271
-332.231	-116.440	0.160	0.029
-331.216	800.000	0.102	0.309
-330.202	-57.940	-0.060	0.026
-329.187	-85.993	0.397	0.122
-328.172	-74.313	-0.039	0.014
-327.158	156.018	-0.195	0.267
-326.143	-157.233	0.165	0.010
-325.129	87.218	-0.162	0.178
-324.114	-113.522	0.144	-0.028
-323.099	-105.953	-0.172	0.039
-322.085	-17.032	-0.162	0.102
-321.070	-123.036	-0.202	0.032
-320.056	-22.711	0.375	0.225
-319.041	-24.803	0.101	-0.060
-318.026	-125.222	-0.196	0.030
-317.012	-65.419	0.206	0.082
-315.997	-147.338	-0.182	-0.015
-314.983	-24.975	-0.212	0.125
-313.968	115.137	0.110	0.133
-312.953	-63.634	-0.179	-0.073
-311.939	773.288	-0.142	0.384
-310.924	361.983	-0.052	0.103
-309.910	-15.799	0.138	0.087
-308.895	-73.495	0.127	0.046
-307.880	222.162	-0.130	-0.207
-306.866	208.307	-0.303	-0.470
-305.851	528.748	0.067	0.158
-304.837	-46.851	0.267	-0.130
-303.822	66.279	-0.190	0.191
-302.807	253.218	-0.075	0.127
-301.793	-36.642	0.382	-0.203
-300.778	-47.932	0.352	0.169
-299.764	-200.000	0.002	-0.146
-298.749	-60.926	0.252	0.106
-297.735	-108.233	0.149	-0.032
-296.720	-200.000	0.205	-0.001
-295.705	354.136	0.069	-0.136
-294.691	-146.157	0.129	0.011
-293.676	-200.000	0.036	0.163
-292.662	-108.062	-0.270	-0.058
-291.647	-200.000	0.004	-0.148
-290.632	-200.000	-0.020	0.120
-289.618	800.000	-0.060	-0.201
-288.603	-171.418	-0.092	0.003
-287.589	-154.231	-0.391	-0.026
-286.574	800.000	0.011	0.040
-285.559	26.765	-0.079	0.066
-284.545	800.000	-0.059	-0.233
-283.530	43.251	-0.168	-0.152
-282.516	-13.905	-0.202	-0.129
-281.501	-78.183	-0.157	0.053
-280.486	-80.187	0.297	-0.099
-279.472	-200.000	0.027	0.398
-278.457	211.558	-0.095	-0.148
-277.443	-200.000	-0.049	0.362
-276.428	-32.655	-0.150	0.083
-275.413	-117.427	0.102	-0.018
-274.399	-75.157	-0.138	0.049
-273.384	-24.863	0.082	0.048
-272.370	128.757	0.078	0.099
-271.355	-72.232	-0.074	-0.027
-270.340	122.622	0.086	0.106
-269.326	-171.106	0.292	-0.010
-268.311	-35.035	0.323	-0.175
-267.297	217.226	-0.102	-0.162
-266.282	-30.724	-0.145	-0.081
-265.267	-130.842	0.212	-0.028
-264.253	-142.633	-0.226	-0.022
-263.238	-177.832	0.337	0.008
-262.224	800.000	-0.014	-0.047
-261.209	800.000	-0.033	0.101
-260.195	-200.000	-0.018	-0.121
-259.180	-200.000	0.031	0.222
-258.165	-116.724	0.217	0.039
-257.151	-19.210	-0.454	0.279
-256.136	32.868	0.201	-0.172
-255.122	-106.845	-0.113	0.025
-254.107	-129.574	0.390	0.053
-253.092	-200.000	-0.052	-0.476
-252.078	-78.495	-0.316	-0.107
-251.063	-200.000	-0.049	0.358
-250.049	-23.498	0.170	-0.101
-249.034	800.000	-0.042	-0.135
-248.019	51.839	0.085	0.080
-247.005	-60.282	0.229	0.096
-245.990	-29.826	-0.385	0.217
-244.976	43.294	-0.169	-0.153
-243.961	-32.446	-0.030	0.017
-242.946	366.343	0.073	0.146
-241.932	-38.506	-0.210	0.110
-240.917	-178.209	-0.312	0.007
-239.903	800.000	0.028	0.086
-238.888	219.811	-0.062	0.099
-237.873	-76.526	0.196	0.068
-236.859	-36.393	0.061	-0.032
-235.844	-200.000	0.031	-0.317
-234.830	-87.626	-0.249	0.074
-233.815	-136.494	-0.235	0.027
-232.800	212.599	0.140	0.219
-231.786	213.312	-0.027	-0.042
-230.771	-77.698	-0.222	-0.076
-229.757	-200.000	0.002	0.094
-228.742	-110.496	0.379	-0.078
-227.727	600.103	-0.134	-0.328
-226.713	-200.000	0.009	0.193
-225.698	-52.476	0.200	-0.091
-224.684	-63.290	0.082	-0.034
-223.669	-11.595	0.158	0.103
-222.655	-43.569	-0.170	-0.085
-221.640	285.102	-0.082	-0.145
-220.625	800.000	0.005	-0.018
-219.611	172.342	0.095	0.134
-218.596	-200.000	0.001	0.009
-217.582	-42.656	0.147	-0.074
-216.567	144.465	-0.165	0.218
-215.552	-141.289	-0.256	0.026
-214.538	-80.495	0.143	-0.047
-213.523	800.000	-0.049	0.160
-212.509	-18.786	-0.227	0.140
-211.494	-200.000	-0.002	-0.502
-210.479	73.180	-0.185	-0.191
-209.465	-97.814	-0.615	0.157
-208.450	-104.789	0.277	-0.063
-207.436	110.927	0.189	-0.224
-206.421	63.005	-0.093	-0.092
-205.406	-0.550	0.262	0.183
-204.392	87.651	-0.174	0.190
-203.377	104.583	-0.070	0.082
-202.363	110.974	-0.127	0.150
-201.348	487.758	0.119	-0.269
-200.333	-58.905	0.197	-0.084
-199.319	-75.038	0.114	-0.040
-198.304	-134.081	0.125	-0.015
-197.290	-86.840	0.089	0.027
-196.275	313.521	0.020	-0.037
-195.260	-200.000	0.018	-0.339
-194.246	-200.000	-0.013	-0.180
-193.231	-158.403	0.092	0.005
-192.217	-158.660	-0.236	0.013
-191.202	-200.000	0.017	-0.116
-190.187	-200.000	-0.047	0.281
-189.173	800.000	-0.058	-0.204
-188.158	-24.508	-0.197	-0.116
-187.144	22.277	-0.316	-0.255
-186.129	190.089	0.181	-0.269
-185.114	-200.000	-0.024	-0.426
-184.100	583.129	0.067	-0.162
-183.085	-53.044	0.142	-0.064
-182.071	-26.911	-0.061	0.035
-181.056	13.886	-0.152	0.117
-180.042	-196.592	0.068	-0.000
-179.027	26.451	0.245	0.202
-178.012	800.000	-0.044	-0.149
-176.998	432.877	-0.132	0.283
-175.983	-66.245	0.198	0.078
-174.969	214.340	-0.236	-0.369
-173.954	-19.637	0.068	0.042
-172.939	-180.177	0.089	-0.002
-171.925	-18.975	-0.143	0.087
-170.910	-200.000	0.008	-0.122
-169.896	109.121	-0.018	0.022
-168.881	-22.210	0.151	-0.090
-167.866	-119.062	-0.187	0.032
-166.852	-155.643	0.046	0.003
-165.837	-200.000	-0.034	0.157
-164.823	-200.000	-0.050	0.356
-163.808	332.812	0.106	0.202
-162.793	431.722	0.081	-0.172
-161.779	-19.949	0.182	-0.111
-160.764	-128.022	-0.426	-0.060
-159.750	-114.165	0.334	-0.064
-158.735	-115.527	-0.203	0.038
-157.720	-200.000	-0.070	0.317
-156.706	800.000	-0.079	-0.331
-155.691	74.239	-0.089	-0.092
-154.677	-96.052	-0.211	0.055
-153.662	-106.869	0.172	-0.038
-152.647	-200.000	0.007	0.124
-151.633	-200.000	0.002	0.019
-150.618	-17.386	-0.319	-0.198
-149.604	-200.000	0.054	0.262
-148.589	60.627	-0.239	-0.233
-147.574	-74.183	-0.094	-0.034
-146.560	-200.000	-0.001	0.094
-145.545	80.829	0.228	0.243
-144.531	159.449	0.065	-0.089
-143.516	-200.000	-0.044	0.252
-142.502	-73.165	0.105	0.038
-141.487	118.625	-0.060	0.074
-140.472	427.419	0.023	0.049
-139.458	-189.892	-0.093	0.001
-138.443	237.261	-0.147	-0.240
-137.429	-200.000	0.020	-0.496
-136.414	-200.000	0.019	-0.190
-135.399	-126.631	0.139	0.020
-134.385	-200.000	-0.000	-0.108
-133.370	800.000	-0.061	0.259
-132.356	71.702	0.147	-0.151
-131.341	-88.365	-0.288	-0.085
-130.326	104.914	-0.327	0.380
-129.312	33.989	0.087	0.075
-128.297	85.245	-0.249	0.269
-127.283	-47.132	0.117	-0.056
-126.268	-200.000	0.090	0.000
-125.253	-73.419	-0.280	-0.101
-124.239	253.606	-0.048	-0.081
-123.224	-77.929	-0.159	-0.054
-122.210	-200.000	-0.123	0.554
