DTS Sentinel unit serial number:	SN413079Multiplexer serial number:	ORYXHardware model number:	OX4-SRSoftware version number:	ORYX F/W v4.00 Oryx Data Collector v3.7.2.0data status	okinstallation	princeton_trtdifferential loss correction	single-endedforward channel	channel 2reverse channel	N/Adate	2019/09/12time	02:09:11forward acquisition time	60.00reverse acquisition time	0.00gamma	496.2192k internal	0.2325k external	0.2325temperature offset calibration	1.0092default loss term (dB/km)	0.3790temperature slope calibration	1.0000multiplexer offset coefficient	1.0000multiplexer slope coefficient	1.0000fibre end	0.00T internal ref (°C)	32.69T ext. ref 1 (°C)	2.08T ext. ref 2 (°C)	27.37length (m)	temperature (°C)	Stokes	anti-Stokes-747.200	-117.814	-0.117	0.021
-746.185	792.191	-0.133	0.369
-745.171	-1.768	-0.131	0.093
-744.156	-60.361	-0.044	0.019
-743.142	-200.000	0.010	-0.274
-742.127	-54.425	0.221	0.101
-741.112	-87.969	-0.093	-0.028
-740.098	81.502	0.053	0.058
-739.083	393.495	-0.042	0.088
-738.069	16.281	-0.156	0.124
-737.054	-50.757	-0.246	0.117
-736.039	-186.364	-0.153	0.002
-735.025	-33.002	0.194	0.108
-734.010	800.000	0.054	-0.176
-732.996	-41.135	-0.258	-0.134
-731.981	213.289	-0.222	-0.354
-730.966	-200.000	-0.065	-0.314
-729.952	-200.000	0.015	0.208
-728.937	-86.076	0.034	0.011
-727.923	-200.000	0.028	0.280
-726.908	800.000	-0.151	-0.501
-725.894	63.043	-0.239	0.241
-724.879	-189.902	0.416	-0.005
-723.864	227.009	-0.046	-0.076
-722.850	-106.553	0.207	0.046
-721.835	-5.814	-0.107	-0.074
-720.821	-200.000	0.000	0.252
-719.806	-65.582	0.156	-0.063
-718.791	17.246	-0.341	-0.273
-717.777	-168.591	-0.344	0.013
-716.762	59.173	-0.271	-0.269
-715.748	-22.134	0.038	0.023
-714.733	800.000	-0.060	-0.263
-713.718	-2.763	-0.211	0.149
-712.704	-129.514	0.271	-0.038
-711.689	9.783	0.030	-0.023
-710.675	-86.547	0.231	-0.072
-709.660	43.913	0.039	0.036
-708.645	800.000	-0.007	0.022
-707.631	-54.579	0.265	-0.121
-706.616	-155.719	-0.122	0.008
-705.602	213.809	0.095	0.152
-704.587	159.193	0.134	0.188
-703.572	-62.604	-0.281	0.118
-702.558	-96.414	0.222	0.059
-701.543	26.074	0.110	-0.093
-700.529	226.216	-0.100	0.163
-699.514	57.307	0.056	-0.055
-698.499	-120.522	-0.059	-0.010
-697.485	84.388	-0.182	0.201
-696.470	301.540	-0.077	-0.143
-695.456	800.000	0.046	-0.148
-694.441	168.364	-0.276	-0.395
-693.426	800.000	-0.094	0.288
-692.412	-126.627	-0.177	-0.026
-691.397	800.000	0.027	-0.078
-690.383	-27.154	0.472	-0.277
-689.368	-125.050	-0.335	0.052
-688.354	-56.398	-0.225	-0.100
-687.339	-20.819	-0.203	-0.126
-686.324	-104.949	0.134	0.031
-685.310	12.196	-0.212	-0.164
-684.295	99.825	-0.065	-0.076
-683.281	800.000	-0.110	-0.351
-682.266	429.467	0.042	0.092
-681.251	-84.173	-0.090	-0.029
-680.237	-63.212	-0.227	0.094
-679.222	-200.000	0.019	-0.286
-678.208	-154.876	0.295	0.020
-677.193	-200.000	0.027	-0.251
-676.178	-67.905	0.136	-0.053
-675.164	-160.571	0.263	0.014
-674.149	800.000	-0.093	-0.262
-673.135	-200.000	-0.000	-0.197
-672.120	-49.197	0.369	-0.178
-671.105	264.051	-0.240	-0.420
-670.091	800.000	0.047	-0.206
-669.076	451.508	-0.139	-0.308
-668.062	287.088	0.053	-0.096
-667.047	-107.488	-0.230	0.051
-666.032	-200.000	0.059	-0.342
-665.018	220.002	0.079	-0.128
-664.003	-200.000	0.012	0.100
-662.989	-10.830	0.449	-0.298
-661.974	-126.170	-0.599	-0.090
-660.959	-54.905	-0.271	-0.123
-659.945	616.335	-0.078	-0.197
-658.930	-5.014	0.249	-0.172
-657.916	-78.014	-0.350	0.121
-656.901	-16.347	-0.138	-0.088
-655.886	800.000	-0.049	-0.204
-654.872	-28.041	-0.224	0.130
-653.857	-66.794	0.423	-0.168
-652.843	-107.896	-0.177	0.039
-651.828	105.440	0.008	0.010
-650.814	-80.099	-0.182	-0.061
-649.799	352.181	-0.128	-0.255
-648.784	800.000	0.043	-0.143
-647.770	418.186	-0.095	-0.204
-646.755	-125.635	0.063	-0.010
-645.741	92.462	0.070	-0.079
-644.726	-38.815	0.318	0.168
-643.711	-46.451	0.162	-0.080
-642.697	-122.427	-0.294	-0.048
-641.682	-53.262	0.305	-0.141
-640.668	45.159	-0.285	-0.263
-639.653	-129.844	0.017	-0.002
-638.638	-51.771	0.235	0.110
-637.624	38.297	-0.077	0.069
-636.609	-114.253	0.410	-0.080
-635.595	424.037	0.061	0.132
-634.580	-200.000	-0.037	0.198
-633.565	-109.068	-0.173	-0.037
-632.551	256.839	-0.171	-0.295
-631.536	800.000	-0.034	-0.117
-630.522	493.190	-0.148	0.340
-629.507	16.830	-0.173	-0.138
-628.492	-48.176	0.296	-0.143
-627.478	44.605	0.076	-0.070
-626.463	364.904	0.056	-0.113
-625.449	73.349	0.113	0.119
-624.434	-200.000	-0.016	0.324
-623.419	100.895	-0.199	-0.232
-622.405	-180.795	0.094	-0.002
-621.390	-66.810	0.059	0.023
-620.376	800.000	0.105	-0.386
-619.361	-59.434	-0.196	-0.084
-618.346	-94.411	0.114	0.031
-617.332	-126.796	-0.405	-0.060
-616.317	800.000	-0.105	-0.349
-615.303	-154.424	0.205	0.014
-614.288	-200.000	0.033	0.193
-613.273	-11.876	0.225	-0.148
-612.259	-111.731	0.264	-0.054
-611.244	775.615	-0.011	-0.031
-610.230	800.000	-0.095	-0.356
-609.215	-104.056	-0.373	-0.087
-608.201	55.765	-0.134	-0.130
-607.186	128.426	-0.136	-0.174
-606.171	229.846	0.065	-0.107
-605.157	-10.466	-0.077	0.051
-604.142	-82.846	0.317	0.103
-603.128	-200.000	-0.071	-0.515
-602.113	-130.265	0.280	0.038
-601.098	-169.666	-0.127	0.005
-600.084	800.000	0.077	0.247
-599.069	-73.178	0.127	0.047
-598.055	-27.774	0.088	0.051
-597.040	109.892	0.142	0.171
-596.025	-49.357	-0.259	0.124
-595.011	-200.000	-0.022	0.209
-593.996	258.700	-0.222	-0.383
-592.982	-200.000	-0.029	-0.579
-591.967	-200.000	-0.009	0.273
-590.952	-200.000	0.017	0.197
-589.938	-158.854	-0.065	0.004
-588.923	-9.202	0.121	0.081
-587.909	-107.991	-0.216	-0.047
-586.894	-21.874	0.055	0.033
-585.879	253.143	-0.003	-0.005
-584.865	-185.709	-0.137	-0.002
-583.850	800.000	0.086	0.248
-582.836	-30.127	-0.251	0.143
-581.821	-142.995	-0.240	-0.023
-580.806	35.470	0.334	-0.294
-579.792	89.088	0.109	-0.122
-578.777	-197.247	0.162	-0.001
-577.763	91.889	0.201	0.227
-576.748	-37.627	-0.101	0.054
-575.733	-200.000	0.072	-0.323
-574.719	2.640	-0.294	-0.213
-573.704	-200.000	-0.028	0.186
-572.690	66.814	-0.063	0.064
-571.675	339.409	0.123	0.239
-570.661	800.000	0.084	0.280
-569.646	174.742	0.190	0.275
-568.631	-200.000	0.016	-0.340
-567.617	-50.573	0.173	-0.082
-566.602	90.891	0.302	-0.339
-565.588	-200.000	-0.038	0.196
-564.573	-200.000	-0.005	-0.092
-563.558	290.135	0.156	0.284
-562.544	497.095	-0.069	-0.158
-561.529	0.655	0.189	-0.136
-560.515	-81.636	0.182	0.060
-559.500	-200.000	-0.067	-0.339
-558.485	38.682	-0.018	-0.016
-557.471	-29.228	0.151	-0.087
-556.456	282.192	-0.007	-0.013
-555.442	199.274	-0.053	-0.082
-554.427	-200.000	-0.029	0.691
-553.412	-200.000	-0.051	0.424
-552.398	64.734	-0.066	0.067
-551.383	17.448	0.158	0.126
-550.369	-200.000	-0.034	-0.185
-549.354	2.328	-0.273	-0.198
-548.339	81.180	-0.048	0.052
-547.325	-55.030	-0.376	0.169
-546.310	82.144	0.145	-0.158
-545.296	-200.000	0.072	-0.329
-544.281	6.827	-0.189	-0.141
-543.266	-90.274	-0.099	0.029
-542.252	-200.000	0.299	-0.001
-541.237	-105.543	0.389	0.088
-540.223	153.345	-0.031	-0.042
-539.208	-200.000	-0.004	-0.220
-538.193	-87.068	0.196	-0.060
-537.179	-81.571	0.039	-0.013
-536.164	-200.000	0.029	0.246
-535.150	598.485	-0.119	0.294
-534.135	525.419	0.081	0.191
-533.121	800.000	0.064	0.178
-532.106	-131.658	0.210	-0.028
-531.091	800.000	-0.050	-0.166
-530.077	-200.000	-0.147	0.000
-529.062	-31.277	-0.194	0.109
-528.048	800.000	-0.070	-0.279
-527.033	-50.390	-0.362	0.171
-526.018	39.023	0.127	-0.113
-525.004	-72.665	-0.140	0.052
-523.989	110.914	0.124	0.149
-522.975	-61.565	-0.058	0.024
-521.960	145.308	0.131	0.176
-520.945	-92.343	-0.092	-0.026
-519.931	549.325	0.040	0.097
-518.916	800.000	-0.101	-0.411
-517.902	-200.000	-0.022	-0.159
-516.887	800.000	-0.070	0.205
-515.872	-83.034	-0.403	0.130
-514.858	15.686	-0.154	-0.121
-513.843	233.264	-0.279	-0.459
-512.829	-200.000	0.008	0.214
-511.814	39.972	-0.097	0.087
-510.799	-20.504	0.133	-0.081
-509.785	-107.190	-0.224	-0.049
-508.770	55.240	0.175	0.169
-507.756	436.417	0.055	-0.119
-506.741	86.268	-0.166	0.183
-505.726	-10.649	-0.428	0.283
-504.712	-53.788	0.178	0.081
-503.697	86.843	0.045	0.050
-502.683	-70.682	0.172	-0.065
-501.668	-104.551	-0.210	-0.048
-500.653	100.935	-0.181	-0.210
-499.639	-51.432	-0.037	-0.017
-498.624	-200.000	0.033	0.234
-497.610	251.840	0.075	0.128
-496.595	19.143	-0.270	0.216
-495.581	-27.893	0.431	-0.250
-494.566	-114.703	-0.214	-0.041
-493.551	242.497	-0.137	-0.229
-492.537	626.902	-0.094	0.238
-491.522	72.565	0.360	-0.375
-490.508	-63.622	-0.017	-0.007
-489.493	60.134	-0.041	0.041
-488.478	-80.346	-0.192	0.064
-487.464	-22.522	0.265	-0.160
-486.449	-123.699	-0.283	0.045
-485.435	800.000	0.033	0.096
-484.420	180.723	-0.028	0.041
-483.405	-49.438	-0.170	-0.081
-482.391	181.465	-0.164	-0.241
-481.376	-34.593	-0.235	-0.128
-480.362	800.000	-0.085	-0.236
-479.347	185.925	0.116	-0.173
-478.332	76.462	-0.478	-0.506
-477.318	-200.000	0.022	-0.159
-476.303	-50.522	0.100	0.047
-475.289	-141.304	0.169	-0.017
-474.274	-105.109	-0.092	-0.021
-473.259	-200.000	-0.034	0.226
-472.245	-200.000	-0.014	0.175
-471.230	231.627	0.264	0.431
-470.216	72.835	0.122	0.127
-469.201	-154.682	0.217	-0.014
-468.186	156.693	0.125	0.173
-467.172	-148.622	0.376	-0.031
-466.157	136.476	-0.024	0.032
-465.143	361.984	0.093	0.187
-464.128	800.000	-0.054	-0.185
-463.113	-200.000	0.002	-0.481
-462.099	-200.000	-0.026	-0.185
-461.084	-200.000	0.203	0.001
-460.070	-36.229	0.247	0.133
-459.055	-63.200	-0.200	0.082
-458.040	800.000	-0.048	0.163
-457.026	76.440	-0.154	-0.163
-456.011	15.865	-0.118	-0.093
-454.997	-200.000	-0.027	0.185
-453.982	-13.485	-0.138	-0.089
-452.968	-43.369	-0.373	-0.188
-451.953	233.967	0.168	0.277
-450.938	-0.149	-0.368	0.261
-449.924	-132.333	0.166	-0.021
-448.909	-172.977	-0.265	0.008
-447.895	-126.351	0.326	-0.049
-446.880	-22.104	-0.307	-0.186
-445.865	-200.000	-0.011	0.163
-444.851	-63.925	-0.271	-0.111
-443.836	800.000	-0.002	-0.010
-442.822	-88.908	0.167	0.049
-441.807	800.000	0.090	0.295
-440.792	-127.806	0.241	-0.035
-439.778	-29.975	-0.116	-0.066
-438.763	-152.805	-0.096	-0.007
-437.749	58.190	0.215	-0.210
-436.734	118.537	-0.161	-0.198
-435.719	321.331	-0.138	0.261
-434.705	57.846	-0.052	-0.050
-433.690	-134.720	0.304	-0.037
-432.676	72.695	0.258	0.268
-431.661	258.794	-0.128	-0.220
-430.646	-35.235	-0.212	-0.115
-429.632	487.466	-0.027	-0.061
-428.617	-200.000	0.038	0.223
-427.603	204.852	0.095	0.146
-426.588	137.865	0.155	0.203
-425.573	800.000	0.055	-0.200
-424.559	-99.516	-0.150	-0.038
-423.544	-117.840	0.231	-0.041
-422.530	129.838	-0.142	0.181
-421.515	-81.881	-0.093	-0.030
-420.500	-97.000	-0.297	0.078
-419.486	800.000	0.108	0.355
-418.471	16.221	0.104	0.082
-417.457	405.191	-0.062	-0.130
-416.442	-166.348	0.170	0.007
-415.428	-53.333	-0.237	0.108
-414.413	-117.160	0.079	0.014
-413.398	65.716	-0.056	-0.056
-412.384	-163.778	0.365	-0.017
-411.369	800.000	0.076	0.263
-410.355	800.000	-0.041	-0.153
-409.340	800.000	0.107	-0.354
-408.325	-138.729	-0.481	-0.052
-407.311	-187.313	0.253	-0.003
-406.296	800.000	0.030	-0.085
-405.282	800.000	0.057	0.165
-404.267	-200.000	0.009	0.044
-403.252	-99.528	-0.296	-0.074
-402.238	-118.638	0.198	0.035
-401.223	-85.113	-0.424	-0.132
-400.209	2.263	-0.114	-0.082
-399.194	800.000	0.100	0.387
-398.179	-200.000	0.041	-0.216
-397.165	148.579	0.122	0.164
-396.150	-133.697	0.333	-0.041
-395.136	-200.000	0.000	0.249
-394.121	259.477	0.181	0.310
-393.106	-80.505	-0.338	-0.112
-392.092	-129.039	0.168	-0.023
-391.077	-126.957	0.380	-0.056
-390.063	-200.000	0.020	-0.128
-389.048	63.255	0.184	0.183
-388.033	-177.418	-0.048	-0.001
-387.019	-46.511	-0.353	0.172
-386.004	-200.000	0.010	-0.116
-384.990	-200.000	0.010	-0.058
-383.975	-142.789	-0.314	-0.030
-382.960	-200.000	0.018	0.132
-381.946	302.763	-0.230	0.423
-380.931	-16.842	-0.171	-0.108
-379.917	88.950	-0.216	0.239
-378.902	-105.585	0.078	0.018
-377.888	635.650	0.055	0.138
-376.873	54.743	-0.225	-0.216
-375.858	94.853	-0.265	-0.300
-374.844	-1.241	-0.097	0.068
-373.829	81.709	-0.260	0.280
-372.815	-46.938	0.233	-0.113
-371.800	-200.000	-0.011	0.073
-370.785	77.402	-0.166	0.175
-369.771	-17.616	-0.112	0.070
-368.756	-19.287	0.299	-0.184
-367.742	-19.988	-0.450	0.276
-366.727	-78.717	-0.093	-0.031
-365.712	125.449	-0.119	0.150
-364.698	574.903	-0.071	-0.173
-363.683	800.000	-0.083	-0.311
-362.669	800.000	0.112	-0.327
-361.654	-116.940	-0.217	-0.039
-360.639	800.000	0.071	-0.216
-359.625	7.307	0.251	-0.186
-358.610	9.668	0.184	0.138
-357.596	224.189	0.086	0.138
-356.581	800.000	0.068	0.238
-355.566	394.030	-0.145	-0.300
-354.552	24.572	-0.176	0.145
-353.537	-129.196	0.264	0.037
-352.523	171.343	-0.194	0.277
-351.508	362.193	-0.115	-0.230
-350.493	-72.982	0.051	0.019
-349.479	-178.695	0.169	-0.004
-348.464	-65.169	-0.187	0.075
-347.450	18.910	-0.157	0.125
-346.435	51.680	-0.093	-0.088
-345.420	-128.805	0.453	0.063
-344.406	-200.000	-0.070	0.549
-343.391	800.000	-0.056	-0.189
-342.377	42.928	-0.082	0.075
-341.362	236.871	-0.233	0.382
-340.348	800.000	0.018	0.063
-339.333	668.686	-0.098	0.253
-338.318	581.887	0.027	0.067
-337.304	-58.244	0.132	0.057
-336.289	800.000	-0.022	-0.089
-335.275	-200.000	-0.020	-0.185
-334.260	-99.200	0.182	0.046
-333.245	-134.607	-0.333	0.040
-332.231	135.122	0.152	-0.196
-331.216	800.000	0.084	0.232
-330.202	308.452	-0.125	-0.232
-329.187	88.188	-0.094	0.104
-328.172	800.000	0.085	-0.295
-327.158	-139.423	-0.328	-0.035
-326.143	245.356	0.089	0.149
-325.129	65.441	-0.259	0.261
-324.114	-96.949	0.352	-0.092
-323.099	-22.788	0.165	-0.099
-322.085	800.000	-0.080	-0.322
-321.070	58.874	-0.167	-0.163
-320.056	138.732	0.166	-0.216
-319.041	-74.780	0.319	-0.114
-318.026	800.000	0.057	-0.196
-317.012	-99.403	-0.239	0.060
-315.997	5.031	-0.335	-0.244
-314.983	92.569	0.191	-0.214
-313.968	-31.321	-0.094	-0.053
-312.953	-148.136	0.291	-0.024
-311.939	-200.000	0.018	-0.099
-310.924	-128.820	0.131	-0.018
-309.910	-134.395	0.312	0.038
-308.895	13.058	0.182	0.139
-307.880	-12.503	-0.390	0.253
-306.866	-109.726	0.287	-0.060
-305.851	-42.499	-0.564	0.285
-304.837	-200.000	-0.008	-0.052
-303.822	-106.248	0.128	-0.028
-302.807	47.707	0.257	-0.238
-301.793	800.000	-0.023	-0.070
-300.778	-24.208	-0.257	0.152
-299.764	-3.748	0.118	0.081
-298.749	-6.798	0.316	0.213
-297.735	-200.000	-0.009	-0.450
-296.720	-93.907	0.210	0.057
-295.705	-114.828	-0.319	0.060
-294.691	-200.000	0.020	-0.212
-293.676	-200.000	0.005	-0.141
-292.662	-7.211	-0.134	-0.090
-291.647	-0.511	-0.137	-0.097
-290.632	-200.000	0.015	0.107
-289.618	-133.884	0.110	0.014
-288.603	-32.586	-0.088	-0.048
-287.589	10.916	-0.199	0.151
-286.574	58.883	0.313	0.305
-285.559	-13.383	0.157	0.101
-284.545	147.641	0.065	0.087
-283.530	-30.983	-0.232	0.130
-282.516	-11.962	0.158	-0.103
-281.501	800.000	0.060	-0.172
-280.486	144.639	0.049	0.065
-279.472	800.000	-0.038	-0.154
-278.457	16.594	-0.047	0.037
-277.443	-200.000	0.016	0.083
-276.428	800.000	0.076	0.212
-275.413	24.546	0.011	-0.009
-274.399	-5.775	-0.093	0.063
-273.384	214.293	0.019	0.031
-272.370	6.093	-0.179	0.132
-271.355	-90.579	0.554	-0.159
-270.340	501.670	-0.033	-0.076
-269.326	-83.396	0.122	0.039
-268.311	-104.553	-0.093	-0.021
-267.297	568.821	-0.106	-0.254
-266.282	-47.190	0.181	0.087
-265.267	-200.000	-0.006	-0.027
-264.253	-194.930	-0.118	0.001
-263.238	440.315	0.098	0.212
-262.224	53.715	0.445	-0.423
-261.209	-49.198	-0.264	-0.125
-260.195	800.000	0.075	-0.255
-259.180	800.000	0.006	0.021
-258.165	93.316	-0.194	-0.217
-257.151	-141.789	0.156	0.015
-256.136	52.807	-0.103	0.098
-255.122	-200.000	0.022	0.228
-254.107	-200.000	-0.054	-0.241
-253.092	745.331	0.059	-0.157
-252.078	-8.143	0.326	-0.218
-251.063	-121.011	-0.192	-0.032
-250.049	116.595	0.254	-0.309
-249.034	290.907	0.068	-0.122
-248.019	19.267	-0.162	-0.129
-247.005	-27.882	0.323	-0.185
-245.990	363.289	-0.099	-0.197
-244.976	-81.930	0.230	0.074
-243.961	-200.000	0.028	0.224
-242.946	13.016	-0.141	0.108
-241.932	122.429	-0.221	0.274
-240.917	101.050	-0.133	-0.153
-239.903	-119.072	0.194	-0.034
-238.888	54.941	0.275	-0.263
-237.873	-57.878	0.257	0.111
-236.859	229.932	0.176	-0.285
-235.844	-200.000	-0.018	-0.214
-234.830	378.337	0.130	-0.262
-233.815	35.524	0.133	-0.116
-232.800	22.133	0.347	0.280
-231.786	-2.884	-0.092	0.064
-230.771	-200.000	0.006	0.165
-229.757	-88.047	-0.176	0.052
-228.742	211.449	0.030	0.047
-227.727	564.463	0.022	0.053
-226.713	157.622	-0.097	0.132
-225.698	408.550	-0.186	0.389
-224.684	71.332	-0.152	-0.156
-223.669	-143.349	0.165	0.016
-222.655	-200.000	0.050	-0.569
-221.640	-48.323	-0.146	0.070
-220.625	-200.000	-0.010	-0.172
-219.611	158.570	-0.134	0.184
-218.596	-200.000	0.032	0.221
-217.582	27.373	-0.193	-0.161
-216.567	-78.650	-0.117	-0.040
-215.552	-0.588	-0.021	-0.015
-214.538	800.000	0.040	-0.138
-213.523	-33.439	-0.050	-0.027
-212.509	-36.771	-0.137	0.073
-211.494	16.814	0.166	0.130
-210.479	29.439	-0.138	0.116
-209.465	-10.829	0.110	0.072
-208.450	-200.000	0.081	-0.395
-207.436	-40.640	0.178	-0.091
-206.421	-163.700	0.144	-0.007
-205.406	-86.879	0.076	-0.023
-204.392	145.762	-0.191	-0.253
-203.377	-100.015	0.043	0.011
-202.363	400.004	-0.142	-0.294
-201.348	-200.000	-0.001	-0.087
-200.333	0.343	-0.153	-0.108
-199.319	-96.410	-0.081	-0.021
-198.304	-200.000	-0.012	0.207
-197.290	315.918	-0.162	0.302
-196.275	-7.615	-0.288	0.192
-195.260	-157.080	-0.094	0.006
-194.246	-77.580	0.195	0.067
-193.231	-87.540	0.248	-0.074
-192.217	202.166	-0.143	-0.217
-191.202	4.036	0.204	-0.147
-190.187	-200.000	-0.027	0.164
-189.173	773.724	0.083	0.223
-188.158	-42.441	-0.095	-0.048
-187.144	-200.000	0.064	0.490
-186.129	3.598	-0.140	0.101
-185.114	70.916	-0.095	-0.098
-184.100	202.331	-0.165	-0.251
-183.085	-36.809	-0.153	0.081
-182.071	25.691	-0.209	-0.172
-181.056	9.653	-0.230	-0.172
-180.042	13.386	-0.064	0.049
-179.027	256.623	0.037	0.062
-178.012	-200.000	-0.027	-0.170
-176.998	404.468	-0.100	0.208
-175.983	800.000	0.137	0.380
-174.969	-200.000	-0.001	-0.009
-173.954	-200.000	-0.004	-0.152
-172.939	-114.895	0.765	0.144
-171.925	800.000	0.076	0.247
-170.910	-76.882	-0.216	0.075
-169.896	-200.000	0.017	0.234
-168.881	-200.000	-0.013	0.090
-167.866	7.184	0.317	0.234
-166.852	-200.000	0.056	0.244
-165.837	-146.535	-0.208	0.018
-164.823	-127.899	0.219	0.031
-163.808	247.200	0.061	0.101
-162.793	738.904	0.135	0.358
-161.779	-130.133	0.302	0.041
-160.764	106.337	0.052	0.061
-159.750	800.000	0.057	0.243
-158.735	-100.029	0.307	0.075
-157.720	173.577	-0.046	0.065
-156.706	-200.000	-0.041	0.287
-155.691	-200.000	0.008	0.368
-154.677	273.398	-0.143	0.250
-153.662	-200.000	-0.005	0.234
-152.647	103.933	-0.156	0.181
-151.633	-95.336	0.514	-0.136
-150.618	17.555	0.195	-0.153
-149.604	188.705	0.169	0.249
-148.589	800.000	0.030	0.122
-147.574	-157.428	-0.218	0.013
-146.560	-92.789	-0.245	0.068
-145.545	92.933	0.066	-0.074
-144.531	-200.000	-0.057	0.259
-143.516	800.000	0.119	-0.479
-142.502	-200.000	-0.022	-0.099
-141.487	-107.920	0.282	-0.060
-140.472	-105.578	-0.262	-0.059
-139.458	-123.449	0.107	0.017
-138.443	-68.218	-0.218	-0.084
-137.429	-158.518	0.214	0.012
-136.414	86.141	-0.095	0.104
-135.399	-23.233	-0.148	0.088
-134.385	89.532	0.186	0.204
-133.370	-67.201	0.164	-0.063
-132.356	-76.650	0.191	0.066
-131.341	-14.663	0.218	-0.138
-130.326	102.314	-0.181	-0.209
-129.312	-111.991	0.170	-0.034
-128.297	257.429	0.091	-0.153
-127.283	-8.496	0.200	-0.132
-126.268	-28.996	0.196	0.111
-125.253	-200.000	-0.007	-0.058
-124.239	59.768	0.060	0.058
-123.224	-11.233	-0.089	-0.058
-122.210	-1.791	0.133	-0.092
-121.195	-51.882	-0.210	-0.096
