DTS Sentinel unit serial number:	SN413079Multiplexer serial number:	ORYXHardware model number:	OX4-SRSoftware version number:	ORYX F/W v4.00 Oryx Data Collector v3.7.2.0data status	okinstallation	princeton_trtdifferential loss correction	single-endedforward channel	channel 2reverse channel	N/Adate	2019/09/15time	01:31:34forward acquisition time	60.00reverse acquisition time	0.00gamma	496.2192k internal	0.2325k external	0.2325temperature offset calibration	1.0036default loss term (dB/km)	0.3790temperature slope calibration	1.0000multiplexer offset coefficient	1.0000multiplexer slope coefficient	1.0000fibre end	0.00T internal ref (°C)	31.87T ext. ref 1 (°C)	4.52T ext. ref 2 (°C)	26.70length (m)	temperature (°C)	Stokes	anti-Stokes-747.200	153.019	-0.111	0.153
-746.185	-138.735	0.124	-0.014
-745.171	597.726	-0.055	-0.138
-744.156	-200.000	-0.013	-0.285
-743.142	-136.077	0.412	0.049
-742.127	43.412	-0.233	0.215
-741.112	-55.342	0.383	-0.174
-740.098	800.000	0.061	0.193
-739.083	800.000	0.100	-0.302
-738.069	534.332	0.034	-0.082
-737.054	66.188	-0.074	0.075
-736.039	-47.288	-0.236	0.116
-735.025	800.000	0.064	0.256
-734.010	90.641	-0.095	0.108
-732.996	-153.359	-0.264	0.019
-731.981	52.034	-0.104	0.100
-730.966	115.984	0.159	-0.197
-729.952	800.000	0.042	-0.156
-728.937	83.445	-0.192	0.211
-727.923	-69.043	-0.353	0.137
-726.908	83.517	-0.259	0.284
-725.894	-91.692	-0.232	-0.066
-724.879	-134.455	-0.103	0.013
-723.864	-16.345	0.169	0.108
-722.850	-21.236	-0.210	-0.129
-721.835	-127.065	0.263	-0.039
-720.821	-54.913	-0.145	0.066
-719.806	-200.000	-0.001	-0.189
-718.791	-57.131	-0.149	0.066
-717.777	-200.000	-0.021	-0.144
-716.762	-6.457	-0.017	0.012
-715.748	-56.884	-0.126	0.056
-714.733	-58.088	0.261	0.115
-713.718	800.000	-0.111	-0.404
-712.704	-200.000	-0.015	-0.092
-711.689	-134.949	0.156	-0.019
-710.675	331.430	-0.170	0.331
-709.660	236.192	-0.163	-0.271
-708.645	4.817	-0.212	0.157
-707.631	-200.000	0.003	0.071
-706.616	-95.251	0.290	0.079
-705.602	34.905	0.231	0.204
-704.587	143.601	-0.130	0.174
-703.572	-54.717	-0.262	0.119
-702.558	-200.000	0.003	-0.199
-701.543	-73.767	0.317	-0.116
-700.529	-200.000	-0.034	-0.270
-699.514	40.087	-0.373	-0.337
-698.499	-200.000	-0.027	0.189
-697.485	800.000	0.040	0.167
-696.470	-200.000	0.042	-0.242
-695.456	246.945	-0.063	0.107
-694.441	-103.056	0.336	0.080
-693.426	-200.000	0.008	-0.235
-692.412	246.401	-0.115	-0.196
-691.397	-200.000	0.004	0.028
-690.383	493.079	0.061	-0.140
-689.368	16.843	0.067	-0.053
-688.354	-167.433	-0.283	0.011
-687.339	-200.000	0.020	-0.106
-686.324	-200.000	0.040	-0.190
-685.310	-200.000	-0.031	-0.488
-684.295	363.383	0.052	0.106
-683.281	-121.076	0.199	-0.034
-682.266	-117.880	0.143	0.026
-681.251	-51.254	0.212	-0.100
-680.237	-200.000	0.028	-0.167
-679.222	800.000	0.050	-0.212
-678.208	800.000	-0.086	0.274
-677.193	800.000	-0.057	-0.186
-676.178	800.000	-0.043	0.175
-675.164	-200.000	0.007	0.111
-674.149	-0.636	0.178	-0.127
-673.135	-185.648	-0.123	0.002
-672.120	17.360	0.192	0.153
-671.105	-11.990	0.059	-0.039
-670.091	145.526	0.090	0.122
-669.076	-134.174	-0.277	0.034
-668.062	97.704	0.130	-0.150
-667.047	-94.017	0.243	0.067
-666.032	-200.000	0.013	-0.091
-665.018	-199.125	-0.339	-0.002
-664.003	613.651	0.075	-0.189
-662.989	-131.658	0.272	-0.036
-661.974	-126.353	-0.124	-0.019
-660.959	-104.898	-0.214	-0.049
-659.945	-102.771	-0.265	-0.063
-658.930	771.679	0.048	-0.130
-657.916	8.100	0.168	-0.126
-656.901	49.756	0.155	-0.147
-655.886	-73.073	0.203	-0.075
-654.872	-141.422	0.101	-0.010
-653.857	-124.291	-0.067	0.011
-652.843	180.175	-0.234	-0.345
-651.828	210.497	0.065	0.102
-650.814	-19.296	0.235	0.147
-649.799	-200.000	-0.028	0.128
-648.784	454.807	0.061	-0.136
-647.770	-42.455	0.100	-0.051
-646.755	-200.000	-0.020	-0.159
-645.741	-200.000	0.007	-0.067
-644.726	343.717	0.091	-0.180
-643.711	-30.182	0.372	0.213
-642.697	0.063	-0.138	-0.099
-641.682	157.428	0.063	-0.087
-640.668	-76.426	0.118	-0.042
-639.653	178.641	-0.185	-0.271
-638.638	659.440	0.044	-0.114
-637.624	-56.474	0.093	-0.042
-636.609	-67.175	0.070	-0.028
-635.595	14.597	0.076	0.059
-634.580	36.398	0.218	0.193
-633.565	15.543	-0.348	-0.274
-632.551	800.000	-0.054	0.167
-631.536	800.000	-0.079	0.306
-630.522	70.929	0.087	0.090
-629.507	-200.000	-0.010	-0.072
-628.492	180.930	-0.240	-0.355
-627.478	-185.847	0.189	0.003
-626.463	-111.567	-0.265	-0.054
-625.449	-29.078	-0.215	-0.124
-624.434	326.246	0.095	0.182
-623.419	-28.502	0.086	0.050
-622.405	-138.073	0.025	0.003
-621.390	472.677	0.113	-0.255
-620.376	-116.504	-0.058	0.011
-619.361	-200.000	0.002	-0.026
-618.346	-107.518	0.311	0.068
-617.332	377.236	0.098	-0.201
-616.317	-159.543	0.285	-0.016
-615.303	0.032	0.331	0.237
-614.288	6.628	0.087	0.065
-613.273	-200.000	0.021	0.204
-612.259	800.000	-0.071	0.258
-611.244	-200.000	0.000	-0.039
-610.230	-200.000	-0.025	-0.156
-609.215	-54.912	-0.012	0.006
-608.201	73.433	-0.157	0.165
-607.186	-67.854	0.305	-0.120
-606.171	-3.802	-0.165	-0.115
-605.157	-41.623	0.142	0.073
-604.142	-125.414	0.178	0.027
-603.128	165.421	-0.058	0.082
-602.113	-84.189	0.143	0.046
-601.098	179.171	0.048	-0.071
-600.084	-200.000	0.005	0.217
-599.069	800.000	-0.091	-0.379
-598.055	800.000	0.075	-0.255
-597.040	-88.252	-0.224	0.067
-596.025	-179.680	0.241	-0.005
-595.011	-66.046	0.386	-0.154
-593.996	-138.547	0.181	-0.020
-592.982	18.765	-0.374	-0.301
-591.967	9.523	-0.185	-0.140
-590.952	800.000	0.146	-0.468
-589.938	800.000	-0.055	0.242
-588.923	-200.000	-0.044	0.323
-587.909	-72.496	0.129	-0.048
-586.894	800.000	-0.037	0.121
-585.879	-19.059	-0.153	0.096
-584.865	44.092	0.182	-0.168
-583.850	246.521	0.119	0.201
-582.836	-200.000	-0.007	0.182
-581.821	79.897	0.118	0.127
-580.806	-11.596	-0.096	0.063
-579.792	156.753	0.076	-0.105
-578.777	-200.000	0.038	-0.173
-577.763	19.475	0.062	-0.050
-576.748	11.583	0.232	-0.178
-575.733	108.811	0.351	-0.420
-574.719	-19.135	-0.117	-0.073
-573.704	-161.554	-0.134	0.007
-572.690	256.463	-0.098	-0.169
-571.675	61.953	0.068	-0.068
-570.661	-28.929	-0.199	0.114
-569.646	-110.867	-0.322	0.066
-568.631	105.495	-0.108	-0.128
-567.617	-34.553	0.119	0.065
-566.602	89.936	-0.220	-0.246
-565.588	260.621	-0.088	0.153
-564.573	-200.000	0.055	0.350
-563.558	28.143	0.322	0.273
-562.544	-91.318	0.303	-0.087
-561.529	-146.143	-0.263	0.023
-560.515	-160.972	-0.189	-0.010
-559.500	212.724	0.108	-0.171
-558.485	-44.293	-0.141	-0.071
-557.471	-78.571	-0.265	-0.091
-556.456	-159.822	0.272	-0.015
-555.442	-200.000	-0.002	-0.151
-554.427	24.317	-0.193	0.160
-553.412	-49.747	0.132	0.063
-552.398	81.860	-0.130	-0.141
-551.383	800.000	-0.073	-0.287
-550.369	-121.416	-0.342	-0.057
-549.354	-143.007	0.630	0.061
-548.339	-104.651	-0.093	0.021
-547.325	-120.667	0.175	-0.030
-546.310	-109.561	0.286	-0.060
-545.296	-200.000	-0.025	0.211
-544.281	-200.000	0.042	0.332
-543.266	-57.064	-0.246	-0.109
-542.252	-5.657	-0.169	0.116
-541.237	-200.000	0.011	-0.298
-540.223	-199.128	-0.302	-0.002
-539.208	21.122	0.196	0.159
-538.193	-7.669	-0.290	0.196
-537.179	-89.077	-0.136	-0.040
-536.164	-125.406	-0.180	0.027
-535.150	22.957	0.310	0.254
-534.135	138.156	-0.162	0.213
-533.121	168.141	0.056	-0.079
-532.106	-72.160	0.129	0.048
-531.091	5.585	-0.045	-0.033
-530.077	-93.752	-0.318	-0.088
-529.062	184.336	0.102	-0.152
-528.048	13.860	0.078	0.061
-527.033	161.207	0.041	0.058
-526.018	-127.431	0.296	0.043
-525.004	-37.608	-0.155	-0.083
-523.989	704.266	0.054	0.142
-522.975	149.581	0.184	-0.250
-521.960	650.215	0.099	-0.253
-520.945	800.000	-0.112	-0.395
-519.931	54.355	0.423	0.408
-518.916	-105.636	-0.315	0.071
-517.902	183.529	0.204	-0.301
-516.887	-117.638	-0.237	0.043
-515.872	0.210	-0.128	-0.091
-514.858	-131.791	-0.162	0.021
-513.843	-200.000	-0.007	-0.229
-512.829	-40.398	0.056	-0.029
-511.814	-200.000	-0.016	-0.112
-510.799	-200.000	-0.043	0.476
-509.785	-97.226	0.126	0.033
-508.770	-117.880	0.322	0.058
-507.756	-181.942	-0.336	0.006
-506.741	-19.213	0.250	0.155
-505.726	-200.000	-0.021	0.103
-504.712	-200.000	-0.018	0.149
-503.697	-97.400	-0.284	0.074
-502.683	-35.690	0.069	-0.037
-501.668	290.496	0.102	-0.186
-500.653	-93.689	0.099	-0.027
-499.639	-40.534	0.257	-0.133
-498.624	-73.533	0.179	0.065
-497.610	66.249	-0.060	0.061
-496.595	-192.246	-0.229	0.002
-495.581	5.853	-0.208	0.154
-494.566	-182.785	0.143	-0.003
-493.551	-147.564	-0.093	-0.008
-492.537	365.575	-0.034	-0.069
-491.522	800.000	0.053	0.201
-490.508	144.791	-0.220	0.294
-489.493	139.916	-0.075	-0.099
-488.478	-84.188	-0.087	-0.027
-487.464	161.543	-0.112	-0.156
-486.449	-122.828	-0.267	0.043
-485.435	-62.113	0.159	0.066
-484.420	291.111	0.079	-0.144
-483.405	54.200	0.260	0.249
-482.391	150.846	0.088	0.119
-481.376	800.000	0.068	-0.274
-480.362	-22.063	0.079	-0.048
-479.347	-147.749	-0.128	0.011
-478.332	576.604	-0.168	0.410
-477.318	-56.024	0.128	0.057
-476.303	237.021	0.128	-0.212
-475.289	-3.813	-0.041	0.028
-474.274	206.100	0.050	0.077
-473.259	30.451	-0.125	-0.107
-472.245	-200.000	0.029	-0.507
-471.230	-200.000	0.023	0.225
-470.216	21.898	-0.206	0.168
-469.201	112.516	0.143	-0.172
-468.186	800.000	0.049	0.143
-467.172	7.296	0.145	0.108
-466.157	-200.000	-0.034	-0.172
-465.143	-91.424	-0.270	-0.077
-464.128	412.768	0.079	0.168
-463.113	376.758	0.043	0.088
-462.099	800.000	-0.005	-0.019
-461.084	473.284	-0.158	0.355
-460.070	-54.020	0.228	0.103
-459.055	800.000	0.026	0.098
-458.040	-9.326	-0.209	0.139
-457.026	800.000	-0.062	-0.222
-456.011	-120.363	0.214	0.036
-454.997	-138.214	0.137	0.015
-453.982	-200.000	0.033	-0.333
-452.968	171.036	0.035	-0.050
-451.953	422.112	0.064	-0.136
-450.938	129.383	0.027	0.034
-449.924	-196.780	0.481	-0.003
-448.909	133.525	-0.118	-0.152
-447.895	146.304	-0.082	0.110
-446.880	246.898	0.261	-0.440
-445.865	36.106	0.157	-0.138
-444.851	-200.000	0.009	-0.146
-443.836	462.360	-0.068	-0.152
-442.822	302.169	-0.073	0.135
-441.807	800.000	-0.132	0.440
-440.792	-31.374	-0.291	-0.163
-439.778	214.621	-0.250	-0.396
-438.763	-126.310	0.195	0.029
-437.749	-50.045	-0.117	-0.055
-436.734	24.389	0.062	0.051
-435.719	328.388	-0.029	-0.056
-434.705	-197.809	0.198	0.001
-433.690	-85.146	0.161	-0.050
-432.676	-200.000	0.055	0.539
-431.661	268.880	0.063	-0.110
-430.646	-28.944	-0.103	0.059
-429.632	800.000	-0.093	-0.361
-428.617	800.000	0.180	-0.580
-427.603	114.386	-0.161	0.196
-426.588	800.000	-0.045	0.133
-425.573	-200.000	-0.055	0.361
-424.559	212.505	0.178	-0.279
-423.544	-10.038	0.122	0.081
-422.530	191.292	-0.023	0.035
-421.515	122.601	0.167	-0.208
-420.500	800.000	0.076	-0.211
-419.486	-42.685	-0.386	0.196
-418.471	-17.864	0.108	-0.067
-417.457	-200.000	0.018	0.184
-416.442	-132.128	0.188	0.024
-415.428	-40.253	0.221	-0.115
-414.413	-125.621	-0.163	0.025
-413.398	51.561	0.188	-0.178
-412.384	-111.479	0.139	-0.028
-411.369	122.461	-0.068	0.085
-410.355	-200.000	0.007	0.178
-409.340	602.167	0.099	-0.244
-408.325	-144.079	-0.063	-0.006
-407.311	-111.115	0.332	-0.068
-406.296	800.000	-0.058	0.164
-405.282	107.184	0.217	-0.257
-404.267	30.589	0.185	0.157
-403.252	-4.290	0.122	0.084
-402.238	-106.639	0.108	-0.024
-401.223	-200.000	0.015	-0.229
-400.209	95.925	-0.218	0.248
-399.194	-44.451	-0.386	-0.192
-398.179	-82.411	-0.170	0.055
-397.165	-98.754	-0.217	0.055
-396.150	69.705	0.040	0.042
-395.136	10.347	-0.145	-0.110
-394.121	-73.032	0.060	-0.022
-393.106	-129.231	0.171	-0.024
-392.092	48.887	-0.160	0.149
-391.077	-200.000	0.020	0.270
-390.063	8.769	0.074	0.055
-389.048	64.209	0.045	-0.045
-388.033	36.868	0.093	-0.081
-387.019	-35.832	0.170	-0.092
-386.004	614.800	0.111	-0.276
-384.990	-59.264	-0.313	-0.134
-383.975	-16.089	0.100	-0.063
-382.960	247.922	0.163	-0.274
-381.946	-200.000	-0.032	0.198
-380.931	275.699	0.167	-0.294
-379.917	800.000	0.063	0.172
-378.902	-158.083	0.106	0.006
-377.888	-110.772	-0.199	-0.041
-376.873	356.327	0.051	-0.100
-375.858	765.869	-0.066	0.178
-374.844	-200.000	-0.043	-0.257
-373.829	267.559	-0.194	0.338
-372.815	-69.439	-0.057	-0.022
-371.800	97.865	0.101	-0.116
-370.785	-200.000	0.018	-0.140
-369.771	-119.784	-0.301	-0.052
-368.756	-45.002	0.261	0.129
-367.742	-73.082	0.090	0.033
-366.727	-200.000	0.054	-0.379
-365.712	-200.000	0.004	-0.297
-364.698	-104.936	-0.030	0.007
-363.683	800.000	0.070	-0.280
-362.669	87.653	0.121	-0.133
-361.654	180.699	0.238	-0.348
-360.639	25.889	-0.285	-0.236
-359.625	299.249	-0.059	0.107
-358.610	79.033	0.301	-0.320
-357.596	-119.626	0.287	-0.049
-356.581	-110.591	-0.154	-0.032
-355.566	94.052	-0.286	0.323
-354.552	-27.375	0.190	0.110
-353.537	-142.139	-0.266	0.026
-352.523	67.762	0.250	-0.254
-351.508	-200.000	-0.002	-0.034
-350.493	33.671	0.181	-0.157
-349.479	47.905	0.081	-0.075
-348.464	-13.992	0.359	0.230
-347.450	-75.518	0.373	0.132
-346.435	-82.863	0.158	0.051
-345.420	-83.058	-0.341	-0.109
-344.406	-89.893	0.311	-0.090
-343.391	165.403	0.093	0.130
-342.377	-44.811	-0.110	0.055
-341.362	-200.000	0.017	-0.182
-340.348	-62.826	-0.225	0.092
-339.333	-50.434	-0.157	-0.074
-338.318	-157.083	0.092	0.006
-337.304	-200.000	-0.072	-0.386
-336.289	618.852	-0.021	0.052
-335.275	-115.705	0.132	0.025
-334.260	60.758	-0.141	-0.139
-333.245	59.861	0.190	0.186
-332.231	-200.000	0.008	-0.148
-331.216	-62.371	0.340	-0.140
-330.202	-9.983	-0.418	-0.276
-329.187	-154.200	-0.121	-0.008
-328.172	238.483	0.024	0.039
-327.158	-42.972	-0.159	0.080
-326.143	800.000	-0.056	0.194
-325.129	-47.151	0.102	0.049
-324.114	-32.828	0.149	-0.082
-323.099	-142.499	-0.309	-0.030
-322.085	-115.697	-0.028	0.005
-321.070	-82.389	-0.248	0.080
-320.056	224.312	-0.099	-0.158
-319.041	83.687	0.144	0.156
-318.026	-200.000	0.029	-0.170
-317.012	48.770	0.032	0.030
-315.997	-167.554	0.376	-0.015
-314.983	-200.000	0.011	-0.413
-313.968	800.000	-0.021	-0.084
-312.953	305.854	-0.024	-0.044
-311.939	-66.488	0.159	0.063
-310.924	29.413	0.125	-0.105
-309.910	334.034	-0.166	0.318
-308.895	197.153	-0.183	0.277
-307.880	-200.000	0.004	-0.025
-306.866	5.535	0.282	0.207
-305.851	169.345	0.025	-0.036
-304.837	-200.000	0.022	-0.235
-303.822	722.019	-0.050	0.131
-302.807	-1.151	-0.103	-0.072
-301.793	264.698	-0.130	0.224
-300.778	-15.159	0.058	-0.037
-299.764	-170.174	-0.128	-0.005
-298.749	12.933	-0.227	0.174
-297.735	-200.000	-0.018	0.124
-296.720	-200.000	-0.007	-0.119
-295.705	-50.423	-0.185	-0.087
-294.691	-104.182	-0.114	-0.026
-293.676	-83.200	-0.196	-0.062
-292.662	-200.000	-0.007	0.106
-291.647	-37.287	-0.318	0.168
-290.632	-173.153	-0.420	0.013
-289.618	-126.119	-0.074	0.011
-288.603	-200.000	-0.048	0.435
-287.589	130.278	-0.091	0.116
-286.574	2.587	0.275	0.197
-285.559	800.000	-0.058	0.219
-284.545	-23.929	-0.080	0.047
-283.530	-21.424	0.127	0.077
-282.516	-200.000	0.022	-0.111
-281.501	-200.000	-0.004	-0.183
-280.486	125.109	0.178	0.222
-279.472	-106.608	0.031	0.007
-278.457	-138.573	-0.333	-0.036
-277.443	-200.000	-0.087	0.447
-276.428	-153.762	-0.299	-0.020
-275.413	301.042	-0.054	0.098
-274.399	-180.857	0.244	0.005
-273.384	-21.191	-0.239	0.145
-272.370	-1.204	0.326	-0.228
-271.355	-200.000	-0.047	0.235
-270.340	-10.842	-0.322	0.211
-269.326	-90.115	-0.441	-0.127
-268.311	34.294	0.191	-0.165
-267.297	18.186	0.213	0.168
-266.282	-200.000	-0.018	0.093
-265.267	134.161	-0.095	-0.122
-264.253	305.246	0.061	0.112
-263.238	-151.254	-0.158	0.012
-262.224	61.950	0.305	-0.301
-261.209	-2.247	-0.124	0.086
-260.195	800.000	0.012	0.043
-259.180	-146.893	-0.213	-0.018
-258.165	-81.017	0.226	-0.074
-257.151	555.127	0.058	-0.138
-256.136	-64.526	-0.132	0.053
-255.122	-68.349	0.345	0.133
-254.107	294.979	0.176	-0.318
-253.092	-200.000	-0.020	-0.164
-252.078	-200.000	0.037	0.167
-251.063	-200.000	-0.073	0.398
-250.049	432.618	-0.057	0.121
-249.034	191.067	0.097	0.144
-248.019	-200.000	-0.025	0.264
-247.005	-200.000	-0.047	0.388
-245.990	-200.000	0.063	0.470
-244.976	-48.678	0.267	0.127
-243.961	-86.190	-0.206	0.063
-242.946	-90.519	-0.294	0.084
-241.932	800.000	0.117	0.393
-240.917	53.770	0.132	0.125
-239.903	14.647	-0.137	-0.106
-238.888	561.862	-0.076	0.181
-237.873	-128.821	0.336	-0.047
-236.859	-116.062	-0.140	0.026
-235.844	-53.625	0.206	-0.093
-234.830	-67.788	-0.374	0.145
-233.815	172.594	0.072	0.102
-232.800	-186.271	0.066	-0.001
-231.786	-20.507	-0.145	-0.088
-230.771	-200.000	0.032	0.182
-229.757	-41.925	0.120	-0.061
-228.742	-109.108	0.095	0.020
-227.727	-1.218	0.222	0.155
-226.713	-200.000	0.030	0.139
-225.698	-82.888	-0.168	0.054
-224.684	52.920	-0.030	-0.028
-223.669	-92.791	0.057	0.016
-222.655	156.298	-0.065	-0.088
-221.640	-80.706	-0.203	0.067
-220.625	-22.831	-0.158	-0.094
-219.611	32.597	0.203	0.174
-218.596	30.100	-0.129	0.109
-217.582	0.935	-0.403	0.285
-216.567	127.018	0.249	0.312
-215.552	34.507	-0.142	-0.123
-214.538	-70.776	-0.197	-0.073
-213.523	-181.543	0.185	-0.004
-212.509	-69.849	0.176	-0.066
-211.494	72.084	-0.139	-0.143
-210.479	-64.910	0.108	0.043
-209.465	2.027	0.074	-0.053
-208.450	422.885	0.054	0.115
-207.436	101.532	-0.078	0.090
-206.421	72.537	0.116	0.119
-205.406	494.807	-0.126	0.287
-204.392	112.484	-0.239	-0.286
-203.377	299.512	-0.054	0.097
-202.363	-105.024	-0.115	-0.026
-201.348	800.000	-0.144	0.456
-200.333	-78.656	0.343	0.116
-199.319	426.326	0.085	-0.181
-198.304	14.331	-0.289	0.223
-197.290	-144.160	-0.217	-0.020
-196.275	14.245	-0.194	-0.150
-195.260	-200.000	0.005	0.162
-194.246	-108.591	-0.214	-0.045
-193.231	166.650	-0.089	-0.125
-192.217	-67.131	-0.102	0.040
-191.202	168.306	-0.088	0.124
-190.187	535.141	0.212	0.497
-189.173	-200.000	-0.059	-0.388
-188.158	-90.239	-0.247	-0.071
-187.144	-200.000	-0.044	-0.426
-186.129	-200.000	-0.018	-0.112
-185.114	-99.620	0.208	-0.052
-184.100	-99.753	-0.256	-0.063
-183.085	-30.747	-0.224	-0.125
-182.071	26.653	-0.155	-0.128
-181.056	-70.094	-0.119	-0.045
-180.042	-1.055	0.134	0.093
-179.027	159.354	-0.158	-0.217
-178.012	-200.000	-0.009	0.256
-176.998	-200.000	0.032	0.152
-175.983	-59.969	-0.549	-0.231
-174.969	328.227	-0.034	0.064
-173.954	21.013	-0.109	-0.087
-172.939	55.669	-0.239	0.229
-171.925	800.000	0.032	-0.096
-170.910	-45.856	-0.052	0.025
-169.896	-200.000	-0.057	0.290
-168.881	5.045	0.160	-0.116
-167.866	-200.000	-0.013	-0.187
-166.852	19.730	0.103	-0.082
-165.837	3.504	0.223	-0.160
-164.823	-66.306	0.238	-0.093
-163.808	-200.000	-0.012	-0.119
-162.793	79.234	-0.163	-0.173
-161.779	-20.396	-0.111	-0.067
-160.764	256.326	0.151	0.256
-159.750	-40.369	-0.246	0.126
-158.735	-65.616	0.214	-0.085
-157.720	-119.980	-0.298	0.051
-156.706	-54.842	0.092	0.041
-155.691	-33.431	0.239	-0.130
-154.677	-82.491	0.212	0.068
-153.662	800.000	0.044	0.166
-152.647	54.793	-0.177	-0.169
-151.633	-200.000	-0.022	0.128
-150.618	185.993	0.202	-0.297
-149.604	74.144	-0.206	0.213
-148.589	-196.289	-0.219	0.001
-147.574	-14.947	0.215	-0.136
-146.560	-33.375	0.345	-0.188
-145.545	800.000	0.072	-0.205
-144.531	209.765	0.065	-0.100
-143.516	-200.000	-0.089	-0.579
-142.502	800.000	0.071	-0.267
-141.487	25.591	0.132	-0.109
-140.472	118.021	0.240	-0.291
-139.458	-39.764	-0.280	0.144
-138.443	-200.000	-0.008	-0.061
-137.429	432.298	-0.076	-0.162
-136.414	65.389	0.145	-0.145
-135.399	-55.768	-0.224	0.099
-134.385	41.803	0.246	0.219
-133.370	614.316	0.151	0.372
-132.356	564.861	-0.034	0.082
-131.341	55.351	0.077	-0.074
-130.326	-200.000	-0.005	-0.216
-129.312	-157.840	-0.121	0.007
-128.297	-13.915	-0.397	-0.252
-127.283	127.766	0.187	0.234
-126.268	-81.393	-0.201	0.065
-125.253	28.732	-0.016	-0.013
-124.239	-102.089	0.341	-0.081
-123.224	-54.265	-0.165	0.074
-122.210	107.753	-0.125	0.147
-121.195	166.472	0.257	0.358
