DTS Sentinel unit serial number:	SN413079Multiplexer serial number:	ORYXHardware model number:	OX4-SRSoftware version number:	ORYX F/W v4.00 Oryx Data Collector v3.7.2.0data status	okinstallation	princeton_trtdifferential loss correction	single-endedforward channel	channel 2reverse channel	N/Adate	2019/09/11time	21:29:11forward acquisition time	60.00reverse acquisition time	0.00gamma	496.2192k internal	0.2325k external	0.2325temperature offset calibration	1.0065default loss term (dB/km)	0.3790temperature slope calibration	1.0000multiplexer offset coefficient	1.0000multiplexer slope coefficient	1.0000fibre end	0.00T internal ref (°C)	36.06T ext. ref 1 (°C)	1.63T ext. ref 2 (°C)	29.94length (m)	temperature (°C)	Stokes	anti-Stokes-747.200	800.000	-0.041	0.177
-746.185	229.053	-0.052	0.085
-745.171	-125.147	0.277	-0.043
-744.156	-95.647	0.099	-0.027
-743.142	28.559	0.296	-0.252
-742.127	800.000	-0.010	0.032
-741.112	-154.144	0.078	-0.005
-740.098	212.864	0.128	0.204
-739.083	77.792	0.172	0.185
-738.069	800.000	0.050	-0.220
-737.054	40.368	0.158	0.143
-736.039	68.372	-0.119	-0.123
-735.025	631.758	0.082	0.209
-734.010	-92.272	-0.144	-0.041
-732.996	461.268	0.037	-0.084
-731.981	-9.541	0.214	-0.144
-730.966	-45.447	0.157	0.078
-729.952	-200.000	-0.079	-0.503
-728.937	-2.995	0.112	-0.079
-727.923	670.959	-0.103	-0.270
-726.908	-200.000	-0.016	-0.456
-725.894	-68.041	-0.226	-0.089
-724.879	141.446	0.020	0.027
-723.864	-40.982	0.289	-0.151
-722.850	-125.265	-0.024	0.004
-721.835	-200.000	-0.023	0.107
-720.821	-107.491	-0.379	0.084
-719.806	445.928	0.159	0.351
-718.791	340.781	-0.191	-0.377
-717.777	62.643	0.072	0.073
-716.762	-72.078	-0.487	-0.182
-715.748	-68.831	-0.094	0.037
-714.733	25.962	0.212	-0.178
-713.718	-36.349	-0.300	-0.163
-712.704	97.922	0.074	0.085
-711.689	-200.000	-0.006	0.277
-710.675	-200.000	-0.060	-0.339
-709.660	60.373	-0.339	-0.338
-708.645	800.000	0.013	0.050
-707.631	63.285	0.113	-0.114
-706.616	685.935	0.110	0.290
-705.602	-134.424	0.112	0.014
-704.587	203.908	-0.166	-0.260
-703.572	-15.620	-0.218	0.140
-702.558	-27.811	-0.143	0.084
-701.543	-200.000	-0.009	0.390
-700.529	215.463	0.236	0.377
-699.514	800.000	0.063	-0.218
-698.499	-138.315	-0.073	-0.008
-697.485	-94.510	0.076	-0.021
-696.470	-125.135	-0.377	0.058
-695.456	-200.000	0.010	0.066
-694.441	-131.095	-0.223	-0.030
-693.426	800.000	0.034	-0.120
-692.412	-118.691	-0.074	0.013
-691.397	-135.450	-0.163	-0.020
-690.383	47.572	-0.154	-0.145
-689.368	-140.394	-0.179	0.019
-688.354	-200.000	-0.013	-0.194
-687.339	139.939	-0.159	0.211
-686.324	-144.011	0.456	-0.043
-685.310	800.000	0.112	0.370
-684.295	107.332	-0.056	-0.066
-683.281	470.778	-0.064	-0.145
-682.266	-200.000	-0.016	-0.349
-681.251	98.847	0.238	-0.276
-680.237	100.422	-0.049	-0.057
-679.222	-106.671	0.281	0.063
-678.208	58.902	0.271	0.268
-677.193	-1.153	-0.216	0.154
-676.178	340.575	-0.092	0.180
-675.164	87.735	-0.103	-0.115
-674.149	238.737	0.024	0.041
-673.135	-200.000	0.019	-0.223
-672.120	19.673	-0.175	-0.142
-671.105	-66.659	-0.164	0.065
-670.091	13.105	-0.162	0.126
-669.076	88.069	-0.147	0.164
-668.062	179.105	-0.199	0.294
-667.047	181.657	0.163	-0.242
-666.032	-36.659	0.208	-0.113
-665.018	-30.704	0.223	-0.127
-664.003	800.000	0.010	-0.041
-662.989	767.098	0.164	-0.448
-661.974	800.000	0.053	-0.152
-660.959	405.998	-0.141	-0.298
-659.945	-154.012	0.191	-0.013
-658.930	61.867	0.269	0.269
-657.916	800.000	-0.079	0.344
-656.901	198.777	-0.192	-0.296
-655.886	130.293	0.100	-0.129
-654.872	800.000	-0.040	0.149
-653.857	-81.555	0.345	0.114
-652.843	516.713	0.191	-0.449
-651.828	388.852	-0.147	-0.306
-650.814	276.183	-0.060	-0.107
-649.799	11.901	-0.249	0.193
-648.784	-50.673	-0.140	0.066
-647.770	-1.899	-0.134	0.095
-646.755	297.363	-0.070	-0.129
-645.741	53.137	0.158	0.152
-644.726	-200.000	0.072	-0.343
-643.711	140.571	0.163	0.216
-642.697	800.000	-0.094	0.275
-641.682	187.511	-0.108	0.161
-640.668	65.061	0.046	0.047
-639.653	-113.432	0.175	0.034
-638.638	-154.698	0.284	0.019
-637.624	-38.488	-0.137	-0.073
-636.609	102.056	0.048	-0.056
-635.595	476.197	0.011	0.024
-634.580	-106.103	0.257	0.058
-633.565	800.000	-0.049	0.140
-632.551	-35.930	-0.269	0.146
-631.536	-77.506	0.061	-0.021
-630.522	429.165	0.051	0.110
-629.507	34.094	0.211	0.184
-628.492	-200.000	0.002	0.273
-627.478	303.046	0.098	-0.183
-626.463	321.328	-0.112	-0.214
-625.449	-95.632	0.321	-0.086
-624.434	554.667	0.098	0.237
-623.419	-200.000	0.005	-0.176
-622.405	-89.315	-0.491	0.145
-621.390	-41.640	-0.162	-0.084
-620.376	-114.592	-0.323	0.062
-619.361	-200.000	-0.011	-0.178
-618.346	283.805	0.143	-0.258
-617.332	-50.343	-0.113	-0.054
-616.317	49.434	0.103	0.097
-615.303	20.307	-0.234	-0.190
-614.288	47.619	0.146	-0.136
-613.273	155.644	-0.016	-0.022
-612.259	11.350	0.179	-0.138
-611.244	-200.000	-0.043	0.311
-610.230	593.135	-0.124	0.308
-609.215	208.355	0.076	0.120
-608.201	132.811	-0.245	0.318
-607.186	36.024	-0.063	-0.055
-606.171	-200.000	-0.018	0.110
-605.157	-170.819	0.177	-0.006
-604.142	-8.923	0.384	-0.258
-603.128	800.000	0.023	-0.093
-602.113	53.834	0.075	-0.072
-601.098	-46.640	-0.226	-0.111
-600.084	-200.000	0.038	0.298
-599.069	-126.224	0.106	-0.016
-598.055	-61.950	0.179	-0.075
-597.040	800.000	0.077	0.223
-596.025	308.568	-0.130	0.243
-595.011	800.000	0.064	-0.250
-593.996	28.869	-0.284	-0.241
-592.982	-200.000	-0.022	-0.143
-591.967	-200.000	0.063	-0.293
-590.952	267.635	-0.084	0.147
-589.938	-200.000	0.018	0.141
-588.923	278.666	0.173	0.310
-587.909	-105.122	0.111	-0.026
-586.894	800.000	-0.154	-0.468
-585.879	-200.000	-0.050	-0.241
-584.865	-200.000	-0.025	-0.263
-583.850	-200.000	-0.001	-0.145
-582.836	-166.305	0.246	-0.010
-581.821	-113.196	-0.140	-0.028
-580.806	-27.745	0.116	-0.067
-579.792	-158.836	-0.189	-0.011
-578.777	-200.000	0.003	-0.133
-577.763	-19.221	0.298	-0.185
-576.748	-200.000	-0.001	-0.331
-575.733	-200.000	0.019	-0.122
-574.719	136.508	-0.135	0.177
-573.704	28.989	0.201	-0.171
-572.690	-184.719	-0.204	-0.003
-571.675	187.066	-0.097	-0.144
-570.661	-14.046	-0.311	-0.201
-569.646	-13.379	0.374	0.243
-568.631	-28.734	0.279	-0.161
-567.617	-65.550	-0.263	-0.106
-566.602	325.839	0.040	-0.077
-565.588	-200.000	-0.037	0.243
-564.573	-71.224	-0.332	0.125
-563.558	596.772	0.087	0.215
-562.544	336.336	-0.134	0.261
-561.529	-104.678	0.221	-0.051
-560.515	-38.356	0.027	0.014
-559.500	-200.000	-0.001	-0.126
-558.485	96.848	-0.078	-0.089
-557.471	-200.000	0.034	-0.216
-556.456	-156.888	-0.446	0.027
-555.442	-40.185	0.226	-0.118
-554.427	4.978	-0.015	-0.011
-553.412	31.090	-0.182	0.156
-552.398	71.932	0.157	-0.163
-551.383	-133.699	-0.344	-0.043
-550.369	-200.000	-0.030	0.381
-549.354	-200.000	0.003	-0.050
-548.339	212.458	-0.118	-0.186
-547.325	374.764	-0.127	0.258
-546.310	-135.439	-0.402	0.048
-545.296	-200.000	-0.014	-0.246
-544.281	-200.000	0.065	-0.420
-543.266	-135.826	-0.300	-0.035
-542.252	545.332	0.153	0.365
-541.237	194.507	-0.099	0.150
-540.223	54.440	0.041	0.040
-539.208	-95.558	-0.518	-0.139
-538.193	-156.524	0.227	-0.014
-537.179	-118.348	-0.124	0.022
-536.164	314.429	0.183	0.344
-535.150	-177.614	-0.036	0.001
-534.135	-200.000	0.032	0.153
-533.121	450.068	0.065	-0.144
-532.106	-171.165	0.162	0.005
-531.091	-200.000	0.046	0.504
-530.077	-121.453	-0.460	-0.077
-529.062	-200.000	0.003	-0.262
-528.048	213.342	0.017	-0.028
-527.033	-161.907	0.129	0.007
-526.018	-200.000	-0.024	0.359
-525.004	-22.524	-0.135	-0.082
-523.989	394.015	0.033	0.068
-522.975	-13.007	0.147	-0.096
-521.960	-159.608	0.022	-0.001
-520.945	642.249	-0.063	-0.161
-519.931	-200.000	-0.034	-0.271
-518.916	729.196	0.017	-0.045
-517.902	15.958	-0.185	-0.145
-516.887	34.526	0.168	0.147
-515.872	544.244	0.036	0.087
-514.858	687.840	0.057	0.149
-513.843	362.175	-0.099	-0.199
-512.829	-140.597	-0.220	-0.023
-511.814	800.000	-0.033	-0.127
-510.799	30.955	-0.212	-0.182
-509.785	222.802	-0.175	-0.282
-508.770	-200.000	-0.027	-0.174
-507.756	49.792	-0.258	-0.244
-506.741	-86.620	-0.243	-0.075
-505.726	-200.000	0.011	0.279
-504.712	-41.565	-0.297	-0.153
-503.697	-101.676	0.165	0.040
-502.683	-200.000	-0.012	-0.111
-501.668	72.852	-0.155	-0.162
-500.653	-55.634	0.047	-0.021
-499.639	-200.000	-0.015	-0.227
-498.624	360.235	-0.061	-0.121
-497.610	-149.660	0.044	-0.003
-496.595	-200.000	0.038	-0.408
-495.581	-53.759	-0.227	-0.103
-494.566	-200.000	-0.043	-0.260
-493.551	489.866	0.157	-0.358
-492.537	-200.000	-0.037	-0.196
-491.522	766.760	-0.051	0.140
-490.508	-200.000	-0.036	0.206
-489.493	-200.000	-0.009	0.205
-488.478	169.521	-0.194	0.277
-487.464	289.024	0.113	0.204
-486.449	-127.034	-0.235	-0.034
-485.435	-200.000	-0.033	-0.446
-484.420	239.651	-0.060	-0.100
-483.405	45.254	0.289	-0.266
-482.391	-7.578	-0.239	-0.162
-481.376	530.320	0.110	0.259
-480.362	-200.000	-0.049	0.360
-479.347	173.652	-0.236	0.340
-478.332	406.525	0.079	-0.166
-477.318	800.000	0.017	-0.061
-476.303	-96.169	0.056	0.015
-475.289	-200.000	0.032	-0.195
-474.274	-41.410	0.151	0.078
-473.259	255.354	-0.028	0.048
-472.245	-22.794	-0.328	-0.198
-471.230	194.472	-0.179	0.271
-470.216	77.337	0.198	0.211
-469.201	-200.000	-0.002	-0.355
-468.186	186.964	-0.033	-0.050
-467.172	-200.000	-0.019	-0.188
-466.157	-53.124	-0.136	-0.062
-465.143	154.017	0.070	0.096
-464.128	-79.863	-0.129	0.043
-463.113	-195.950	0.527	-0.004
-462.099	180.009	0.027	0.040
-461.084	-80.546	-0.312	0.104
-460.070	-149.028	0.198	-0.016
-459.055	33.066	-0.181	-0.157
-458.040	800.000	0.060	-0.180
-457.026	547.912	0.083	-0.199
-456.011	74.170	0.170	-0.179
-454.997	12.849	-0.364	0.281
-453.982	19.431	-0.102	0.082
-452.968	-200.000	0.002	0.039
-451.953	-41.307	-0.215	-0.111
-450.938	742.399	0.174	-0.468
-449.924	80.700	0.074	0.080
-448.909	21.410	0.218	0.177
-447.895	59.289	0.315	-0.309
-446.880	-136.505	0.332	0.038
-445.865	800.000	-0.042	0.126
-444.851	42.786	-0.012	-0.011
-443.836	-101.217	-0.251	-0.061
-442.822	28.154	0.234	-0.197
-441.807	209.143	-0.034	0.053
-440.792	30.072	0.216	0.184
-439.778	21.573	-0.095	0.077
-438.763	121.765	-0.225	-0.280
-437.749	782.992	0.053	0.145
-436.734	108.967	-0.156	-0.186
-435.719	-200.000	-0.038	-0.243
-434.705	344.361	-0.158	0.308
-433.690	-59.806	-0.139	0.059
-432.676	-7.099	-0.283	-0.192
-431.661	230.682	0.063	-0.103
-430.646	-16.536	-0.160	0.101
-429.632	-86.548	-0.202	-0.062
-428.617	-200.000	0.005	0.111
-427.603	-185.979	-0.272	-0.004
-426.588	-16.852	0.499	-0.314
-425.573	575.050	-0.080	0.194
-424.559	-97.823	-0.350	-0.090
-423.544	-174.560	0.182	-0.005
-422.530	720.295	-0.161	0.428
-421.515	-130.186	0.239	0.032
-420.500	100.174	0.158	0.183
-419.486	-160.073	-0.197	-0.011
-418.471	136.602	-0.143	0.186
-417.457	-75.835	-0.218	0.077
-416.442	256.374	-0.061	-0.105
-415.428	-77.964	0.159	0.055
-414.413	-200.000	0.009	0.215
-413.398	-90.412	0.347	0.100
-412.384	-117.534	0.280	0.050
-411.369	-200.000	-0.015	0.246
-410.355	140.783	0.157	-0.207
-409.340	33.619	-0.151	-0.131
-408.325	219.836	-0.288	0.459
-407.311	12.513	0.056	0.043
-406.296	800.000	0.039	0.108
-405.282	800.000	0.099	0.302
-404.267	-200.000	-0.033	0.341
-403.252	-51.572	-0.105	0.049
-402.238	25.057	0.263	-0.218
-401.223	-200.000	-0.000	0.236
-400.209	142.188	-0.042	0.056
-399.194	154.653	0.177	0.242
-398.179	-140.807	-0.179	-0.018
-397.165	589.619	-0.078	0.192
-396.150	275.946	0.169	-0.298
-395.136	800.000	-0.101	0.308
-394.121	76.106	0.082	-0.086
-393.106	-57.461	0.452	-0.198
-392.092	69.581	-0.121	0.124
-391.077	-200.000	0.009	0.309
-390.063	-21.940	0.227	0.138
-389.048	800.000	0.036	-0.107
-388.033	-25.344	0.209	-0.123
-387.019	67.824	0.024	-0.025
-386.004	800.000	-0.015	-0.046
-384.990	-127.788	-0.094	0.013
-383.975	-124.799	0.220	-0.034
-382.960	375.066	-0.119	0.241
-381.946	-101.851	0.021	0.005
-380.931	56.127	0.171	-0.165
-379.917	-147.442	-0.139	-0.012
-378.902	-135.410	0.105	-0.012
-377.888	281.466	0.146	-0.259
-376.873	-99.357	-0.055	-0.014
-375.858	-103.101	-0.258	-0.061
-374.844	92.694	0.295	0.331
-373.829	-200.000	-0.009	-0.142
-372.815	35.519	0.237	0.207
-371.800	-24.686	-0.084	-0.050
-370.785	109.344	0.097	-0.116
-369.771	-135.488	0.168	-0.020
-368.756	-118.475	0.238	0.042
-367.742	-176.719	0.164	-0.004
-366.727	-107.164	0.171	-0.038
-365.712	-86.462	0.094	-0.029
-364.698	100.967	-0.048	0.056
-363.683	95.126	0.115	-0.130
-362.669	-164.898	-0.150	0.007
-361.654	-100.946	-0.208	0.051
-360.639	-149.855	-0.314	-0.024
-359.625	800.000	-0.102	0.314
-358.610	130.691	0.135	0.172
-357.596	80.263	-0.195	-0.209
-356.581	303.163	-0.113	-0.207
-355.566	329.264	0.136	-0.259
-354.552	339.937	-0.197	-0.383
-353.537	1.248	-0.366	0.261
-352.523	375.675	0.092	0.186
-351.508	36.345	0.187	0.164
-350.493	-200.000	0.064	-0.305
-349.479	-10.383	-0.260	-0.171
-348.464	-200.000	-0.022	0.302
-347.450	800.000	-0.127	0.488
-346.435	411.663	0.154	0.325
-345.420	-83.236	0.277	0.089
-344.406	216.877	-0.070	-0.110
-343.391	20.112	-0.059	0.048
-342.377	100.533	0.206	0.238
-341.362	79.858	-0.127	0.135
-340.348	-200.000	-0.011	0.305
-339.333	-133.925	0.071	-0.009
-338.318	21.532	-0.321	-0.260
-337.304	-1.105	-0.220	0.155
-336.289	-111.994	-0.167	0.034
-335.275	-29.260	-0.035	-0.020
-334.260	68.110	-0.126	0.128
-333.245	705.813	-0.044	0.116
-332.231	-117.973	0.015	0.003
-331.216	-127.169	-0.272	0.040
-330.202	302.899	0.175	0.322
-329.187	-59.248	-0.132	0.056
-328.172	-81.272	-0.259	-0.085
-327.158	461.600	-0.159	-0.352
-326.143	41.751	0.119	-0.107
-325.129	-200.000	-0.034	-0.210
-324.114	-132.150	-0.180	-0.023
-323.099	-184.225	-0.460	0.008
-322.085	99.880	0.136	0.157
-321.070	-200.000	-0.019	-0.143
-320.056	-54.500	0.396	0.178
-319.041	51.553	0.133	0.126
-318.026	237.878	-0.118	0.195
-317.012	411.598	-0.030	0.062
-315.997	260.526	-0.081	0.139
-314.983	800.000	-0.102	-0.372
-313.968	-71.016	0.316	-0.118
-312.953	-116.860	-0.158	-0.029
-311.939	8.449	0.338	0.252
-310.924	654.531	-0.091	0.232
-309.910	26.600	0.311	-0.259
-308.895	-103.274	-0.134	0.031
-307.880	-43.832	0.016	-0.008
-306.866	-59.365	-0.227	0.097
-305.851	346.642	-0.045	0.089
-304.837	34.445	0.087	-0.075
-303.822	23.261	-0.264	0.215
-302.807	-84.477	-0.223	0.070
-301.793	-145.676	0.284	0.025
-300.778	-200.000	-0.083	0.556
-299.764	507.386	0.039	-0.089
-298.749	490.651	0.220	0.499
-297.735	49.329	0.311	0.290
-296.720	-1.910	0.367	0.256
-295.705	15.204	-0.160	-0.125
-294.691	-105.911	0.356	-0.080
-293.676	-3.094	0.287	-0.198
-292.662	-200.000	0.120	0.000
-291.647	-160.203	-0.334	-0.018
-290.632	145.947	-0.363	-0.482
-289.618	28.991	0.044	0.037
-288.603	-79.738	-0.258	-0.086
-287.589	-57.085	-0.241	-0.105
-286.574	-103.098	-0.135	-0.032
-285.559	376.308	0.152	-0.308
-284.545	-72.029	0.115	0.043
-283.530	-132.232	0.251	0.032
-282.516	-200.000	-0.009	-0.216
-281.501	-200.000	-0.006	0.031
-280.486	463.677	-0.199	0.441
-279.472	512.184	0.137	0.317
-278.457	-78.329	0.249	0.085
-277.443	146.507	0.056	0.075
-276.428	664.503	-0.029	-0.075
-275.413	-200.000	-0.035	0.360
-274.399	-10.125	0.202	0.133
-273.384	-93.434	-0.176	-0.048
-272.370	130.942	-0.121	0.154
-271.355	-200.000	-0.014	0.253
-270.340	-40.105	-0.187	-0.097
-269.326	-135.652	0.232	0.027
-268.311	497.250	-0.101	0.230
-267.297	-129.315	0.118	0.016
-266.282	-200.000	-0.016	0.128
-265.267	-75.541	0.312	-0.110
-264.253	-76.888	0.232	-0.080
-263.238	526.242	-0.152	-0.355
-262.224	311.944	0.160	-0.298
-261.209	50.864	-0.257	0.241
-260.195	212.255	-0.072	-0.113
-259.180	-200.000	0.028	0.145
-258.165	54.259	0.186	0.177
-257.151	152.512	0.191	-0.259
-256.136	-200.000	0.011	0.271
-255.122	26.136	0.140	-0.116
-254.107	-100.729	0.199	-0.049
-253.092	-19.092	-0.270	0.166
-252.078	-96.512	-0.151	0.039
-251.063	800.000	0.065	0.179
-250.049	-200.000	0.063	0.297
-249.034	-161.600	-0.298	-0.015
-248.019	-187.512	0.212	0.003
-247.005	-72.018	0.153	0.056
-245.990	46.806	0.385	0.354
-244.976	240.656	0.062	0.103
-243.961	-46.548	0.518	0.251
-242.946	-108.577	-0.146	0.031
-241.932	236.888	0.055	0.091
-240.917	-28.044	-0.105	-0.060
-239.903	76.271	0.085	-0.089
-238.888	714.788	0.153	-0.402
-237.873	340.375	-0.037	-0.072
-236.859	-200.000	-0.035	0.164
-235.844	800.000	-0.056	-0.204
-234.830	210.224	0.050	-0.077
-233.815	-80.407	-0.172	0.057
-232.800	-79.912	0.116	-0.039
-231.786	-163.368	0.524	0.025
-230.771	-200.000	0.017	0.093
-229.757	322.891	0.082	-0.154
-228.742	-65.475	0.127	0.051
-227.727	225.344	-0.079	0.126
-226.713	-200.000	0.009	-0.280
-225.698	-10.726	0.125	0.082
-224.684	-28.788	0.261	-0.148
-223.669	800.000	0.046	0.172
-222.655	-1.690	0.071	-0.049
-221.640	-88.408	0.345	-0.102
-220.625	-200.000	-0.034	0.229
-219.611	-28.906	0.118	-0.067
-218.596	-200.000	-0.011	0.161
-217.582	-200.000	0.037	0.165
-216.567	85.799	-0.128	-0.139
-215.552	-120.327	-0.455	0.077
-214.538	141.051	0.167	-0.219
-213.523	-6.690	0.253	-0.170
-212.509	72.641	0.085	-0.087
-211.494	-59.152	0.174	0.074
-210.479	31.711	-0.023	0.019
-209.465	-28.408	-0.252	0.144
-208.450	-3.428	0.269	0.185
-207.436	-200.000	0.056	-0.528
-206.421	-200.000	0.026	-0.517
-205.406	83.193	0.089	-0.096
-204.392	5.835	0.070	-0.051
-203.377	-41.132	0.063	-0.032
-202.363	-106.869	-0.055	0.012
-201.348	-118.183	-0.165	0.029
-200.333	-24.020	0.193	0.114
-199.319	-36.893	0.355	0.188
-198.304	-48.642	0.121	0.057
-197.290	-101.981	0.151	0.036
-196.275	-56.496	0.081	0.035
-195.260	247.466	-0.056	0.093
-194.246	-200.000	-0.055	-0.254
-193.231	-200.000	0.014	-0.385
-192.217	43.292	-0.144	-0.129
-191.202	800.000	-0.060	0.223
-190.187	-200.000	-0.019	-0.125
-189.173	-51.919	-0.300	0.138
-188.158	-12.806	-0.189	-0.122
-187.144	800.000	0.052	-0.205
-186.129	-200.000	0.010	-0.218
-185.114	37.683	0.251	0.220
-184.100	30.167	-0.259	-0.218
-183.085	-99.916	0.323	-0.080
-182.071	112.545	0.198	0.236
-181.056	203.021	0.084	-0.128
-180.042	50.932	-0.158	-0.148
-179.027	-200.000	-0.020	-0.144
-178.012	366.753	-0.101	-0.202
-176.998	-200.000	0.057	-0.258
-175.983	156.693	-0.118	-0.161
-174.969	-200.000	-0.008	0.172
-173.954	-23.495	-0.113	-0.067
-172.939	6.487	0.119	-0.087
-171.925	-200.000	-0.014	-0.187
-170.910	197.835	-0.066	0.100
-169.896	-200.000	-0.019	-0.276
-168.881	631.206	-0.038	-0.094
-167.866	427.285	0.092	-0.195
-166.852	122.122	-0.049	-0.061
-165.837	219.785	0.131	0.208
-164.823	-37.871	-0.142	-0.074
-163.808	-51.855	-0.152	0.070
-162.793	-132.137	0.086	0.011
-161.779	-200.000	-0.049	0.345
-160.764	-152.186	0.268	-0.019
-159.750	-72.492	0.314	0.114
-158.735	-24.914	-0.123	-0.072
-157.720	543.831	-0.122	0.288
-156.706	346.267	-0.075	-0.145
-155.691	51.011	-0.210	-0.196
-154.677	-45.875	-0.186	-0.091
-153.662	496.161	-0.095	-0.214
-152.647	-200.000	-0.013	-0.132
-151.633	-113.885	0.093	0.018
-150.618	476.507	-0.131	0.292
-149.604	-11.887	-0.229	-0.148
-148.589	-127.030	0.293	0.042
-147.574	436.752	-0.113	0.243
-146.560	800.000	0.039	0.152
-145.545	-85.065	-0.175	-0.054
-144.531	485.472	-0.192	-0.430
-143.516	105.153	-0.170	0.198
-142.502	-200.000	0.048	0.378
-141.487	-110.038	0.106	-0.022
-140.472	800.000	-0.102	-0.367
-139.458	303.011	0.222	0.405
-138.443	-22.987	-0.093	0.055
-137.429	724.558	-0.158	-0.415
-136.414	234.651	0.142	0.231
-135.399	23.657	0.166	-0.135
-134.385	800.000	0.060	0.166
-133.370	56.535	0.186	0.179
-132.356	313.335	-0.133	-0.247
-131.341	-1.354	-0.109	-0.075
-130.326	-70.660	-0.311	0.116
-129.312	30.623	0.081	-0.069
-128.297	174.154	0.131	0.187
-127.283	-59.782	-0.112	0.047
-126.268	735.834	-0.047	-0.125
-125.253	-170.416	-0.443	0.015
-124.239	-41.666	-0.192	0.097
-123.224	-58.099	0.175	-0.075
-122.210	-200.000	-0.019	0.088
