DTS Sentinel unit serial number:	SN413079Multiplexer serial number:	ORYXHardware model number:	OX4-SRSoftware version number:	ORYX F/W v4.00 Oryx Data Collector v3.7.2.0data status	okinstallation	princeton_trtdifferential loss correction	single-endedforward channel	channel 2reverse channel	N/Adate	2019/09/17time	14:03:35forward acquisition time	60.00reverse acquisition time	0.00gamma	496.2192k internal	0.2315k external	0.2315temperature offset calibration	0.9981default loss term (dB/km)	0.3790temperature slope calibration	1.0000multiplexer offset coefficient	1.0000multiplexer slope coefficient	1.0000fibre end	0.00T internal ref (°C)	35.69T ext. ref 1 (°C)	0.40T ext. ref 2 (°C)	32.63length (m)	temperature (°C)	Stokes	anti-Stokes-747.200	-200.000	-0.027	-0.228
-746.185	-15.140	0.072	0.047
-745.171	-132.153	-0.434	0.057
-744.156	800.000	0.089	0.282
-743.142	-14.378	-0.054	-0.035
-742.127	-120.784	0.201	-0.034
-741.112	72.534	0.184	-0.194
-740.098	171.723	0.252	0.366
-739.083	-109.010	-0.161	-0.035
-738.069	404.432	0.107	0.228
-737.054	-16.549	0.249	-0.160
-736.039	-14.836	-0.173	-0.112
-735.025	-175.572	-0.276	0.008
-734.010	609.105	-0.154	0.389
-732.996	-200.000	-0.046	0.325
-731.981	654.057	0.101	-0.262
-730.966	136.969	0.159	-0.211
-729.952	379.002	-0.078	-0.162
-728.937	-55.844	-0.391	-0.177
-727.923	-200.000	-0.017	-0.139
-726.908	-57.473	-0.079	0.035
-725.894	-172.169	0.316	0.010
-724.879	95.159	-0.091	-0.105
-723.864	-154.427	-0.067	-0.005
-722.850	-200.000	-0.004	0.163
-721.835	-122.640	0.123	0.020
-720.821	21.888	-0.202	-0.167
-719.806	419.342	-0.124	-0.268
-718.791	800.000	0.091	-0.337
-717.777	800.000	-0.041	-0.163
-716.762	-200.000	-0.104	-0.497
-715.748	-82.163	-0.071	0.023
-714.733	-200.000	-0.001	-0.086
-713.718	-12.727	-0.235	0.155
-712.704	152.426	0.110	-0.152
-711.689	-45.319	-0.329	-0.165
-710.675	796.583	-0.099	0.275
-709.660	63.020	0.111	0.113
-708.645	11.803	-0.222	-0.172
-707.631	-146.844	0.067	0.006
-706.616	-117.662	0.187	-0.034
-705.602	800.000	0.124	-0.364
-704.587	-11.581	-0.159	-0.106
-703.572	-15.022	0.426	0.276
-702.558	-200.000	-0.013	0.089
-701.543	-96.606	0.238	-0.063
-700.529	11.674	-0.162	0.126
-699.514	564.200	0.096	0.236
-698.499	-83.378	-0.284	-0.092
-697.485	-170.362	0.420	0.015
-696.470	16.768	-0.112	-0.090
-695.456	68.747	0.162	-0.168
-694.441	800.000	-0.044	-0.163
-693.426	-71.624	-0.083	-0.031
-692.412	-125.264	0.306	-0.047
-691.397	166.308	-0.055	-0.079
-690.383	-200.000	0.015	-0.344
-689.368	187.634	-0.193	-0.291
-688.354	-200.000	-0.015	-0.283
-687.339	472.853	-0.126	-0.288
-686.324	326.622	-0.049	0.094
-685.310	64.821	-0.262	0.267
-684.295	-16.506	0.147	-0.094
-683.281	-200.000	-0.019	-0.106
-682.266	125.862	0.078	-0.099
-681.251	-200.000	0.025	0.142
-680.237	234.018	-0.106	-0.176
-679.222	107.063	-0.111	0.134
-678.208	183.632	-0.175	-0.262
-677.193	-111.726	-0.394	0.081
-676.178	97.224	0.103	0.120
-675.164	-146.707	0.154	-0.013
-674.149	-200.000	-0.041	-0.345
-673.135	205.850	0.114	0.179
-672.120	183.412	0.220	-0.328
-671.105	800.000	-0.045	0.162
-670.091	-55.926	-0.202	-0.091
-669.076	256.045	-0.152	0.264
-668.062	-5.403	0.293	-0.203
-667.047	-145.632	-0.242	0.022
-666.032	-115.649	-0.281	-0.053
-665.018	18.471	-0.024	0.019
-664.003	-200.000	0.004	0.226
-662.989	800.000	-0.100	0.291
-661.974	143.115	-0.154	-0.207
-660.959	-111.530	0.188	0.039
-659.945	-161.611	0.037	-0.002
-658.930	-79.915	-0.178	-0.060
-657.916	40.164	0.137	-0.125
-656.901	-61.801	-0.415	-0.176
-655.886	269.218	0.084	-0.149
-654.872	-123.857	0.128	-0.020
-653.857	-34.669	0.237	-0.131
-652.843	37.617	0.128	-0.115
-651.828	554.649	0.090	-0.218
-650.814	144.247	0.129	0.174
-649.799	800.000	0.035	0.129
-648.784	138.996	-0.156	-0.207
-647.770	-200.000	-0.047	0.349
-646.755	297.499	-0.142	0.263
-645.741	-200.000	-0.023	0.122
-644.726	-26.137	-0.123	-0.073
-643.711	800.000	0.044	-0.185
-642.697	-200.000	-0.006	-0.088
-641.682	101.067	0.071	-0.083
-640.668	185.946	0.084	-0.126
-639.653	-200.000	-0.008	-0.150
-638.638	-120.192	0.211	0.036
-637.624	-73.064	-0.168	-0.062
-636.609	-200.000	0.049	-0.250
-635.595	156.255	0.056	0.078
-634.580	800.000	-0.102	0.287
-633.565	-21.215	-0.225	-0.139
-632.551	280.324	-0.152	-0.274
-631.536	110.871	-0.260	-0.315
-630.522	-200.000	-0.007	-0.138
-629.507	800.000	-0.063	0.218
-628.492	-81.059	-0.380	-0.127
-627.478	115.032	-0.174	-0.215
-626.463	108.437	0.072	-0.086
-625.449	-200.000	-0.009	0.116
-624.434	47.246	-0.193	0.182
-623.419	-200.000	-0.023	0.129
-622.405	122.484	-0.129	-0.163
-621.390	-45.272	0.086	0.043
-620.376	-200.000	-0.044	-0.445
-619.361	800.000	-0.090	-0.343
-618.346	257.359	0.202	-0.351
-617.332	-54.821	-0.620	-0.282
-616.317	-200.000	0.035	0.201
-615.303	-5.618	-0.184	0.127
-614.288	-15.531	0.462	-0.298
-613.273	153.206	0.030	-0.041
-612.259	800.000	-0.010	0.046
-611.244	-200.000	-0.057	-0.324
-610.230	-89.163	-0.126	-0.037
-609.215	-114.405	-0.083	0.016
-608.201	-43.663	-0.128	0.065
-607.186	196.076	-0.107	-0.164
-606.171	25.961	-0.241	-0.203
-605.157	243.186	-0.049	-0.082
-604.142	293.329	-0.072	0.132
-603.128	644.488	0.051	-0.130
-602.113	800.000	0.039	0.145
-601.098	52.023	-0.309	-0.297
-600.084	369.364	-0.089	-0.181
-599.069	-19.475	-0.120	-0.075
-598.055	-81.304	0.412	0.137
-597.040	103.426	-0.082	-0.097
-596.025	180.170	-0.203	-0.300
-595.011	18.112	-0.029	0.024
-593.996	-69.812	-0.282	-0.108
-592.982	-200.000	-0.027	-0.123
-591.967	-20.918	0.136	0.084
-590.952	316.243	-0.040	0.077
-589.938	-85.188	0.036	0.011
-588.923	-185.473	0.242	-0.004
-587.909	78.738	-0.236	0.254
-586.894	-112.276	-0.189	0.038
-585.879	-156.048	-0.174	-0.011
-584.865	-200.000	0.013	-0.109
-583.850	-200.000	0.005	0.113
-582.836	800.000	0.024	0.079
-581.821	-200.000	-0.006	0.106
-580.806	54.946	-0.197	0.191
-579.792	332.045	-0.161	0.313
-578.777	5.385	-0.287	-0.213
-577.763	-16.661	0.129	-0.082
-576.748	-1.099	-0.268	0.191
-575.733	553.219	-0.102	-0.246
-574.719	-200.000	0.032	0.146
-573.704	93.705	0.124	0.141
-572.690	-35.218	0.160	-0.087
-571.675	19.351	0.170	-0.137
-570.661	-54.884	0.268	-0.122
-569.646	-133.339	-0.383	-0.049
-568.631	-175.594	-0.289	-0.008
-567.617	756.946	0.110	-0.299
-566.602	-200.000	0.066	-0.314
-565.588	12.179	-0.170	-0.132
-564.573	-200.000	0.026	0.124
-563.558	-77.576	-0.140	0.049
-562.544	800.000	0.063	0.191
-561.529	-58.956	-0.225	-0.098
-560.515	-14.758	-0.284	0.183
-559.500	-200.000	0.057	-0.254
-558.485	5.147	-0.032	0.024
-557.471	297.501	-0.113	-0.209
-556.456	133.762	-0.285	0.371
-555.442	-0.636	-0.166	-0.119
-554.427	-50.714	0.411	-0.195
-553.412	781.324	-0.046	-0.127
-552.398	-50.408	-0.174	0.083
-551.383	449.214	-0.054	-0.121
-550.369	-98.690	0.265	-0.068
-549.354	-200.000	0.013	0.166
-548.339	-30.209	-0.133	-0.076
-547.325	-161.014	0.401	0.021
-546.310	437.488	-0.048	0.104
-545.296	-50.214	0.384	0.183
-544.281	-54.929	0.056	0.025
-543.266	-21.904	0.258	0.158
-542.252	221.000	0.053	-0.085
-541.237	-146.745	-0.325	0.028
-540.223	-117.320	0.383	0.070
-539.208	-5.912	0.214	0.147
-538.193	-99.663	-0.283	-0.071
-537.179	800.000	0.075	-0.251
-536.164	365.651	0.193	0.392
-535.150	-50.085	0.071	0.034
-534.135	265.700	0.172	0.301
-533.121	167.361	0.119	-0.170
-532.106	800.000	-0.107	0.400
-531.091	-44.156	0.036	-0.018
-530.077	-157.138	0.245	0.015
-529.062	3.346	0.103	0.075
-528.048	332.758	0.089	0.172
-527.033	180.649	0.088	0.129
-526.018	27.747	-0.024	0.020
-525.004	63.196	-0.037	0.037
-523.989	785.982	-0.145	-0.400
-522.975	0.123	0.213	-0.152
-521.960	37.439	0.052	0.046
-520.945	-144.388	-0.398	-0.037
-519.931	-200.000	0.026	-0.334
-518.916	418.076	0.163	-0.350
-517.902	140.565	0.044	-0.059
-516.887	4.377	0.268	0.197
-515.872	-112.673	-0.149	0.030
-514.858	-48.352	-0.264	0.128
-513.843	-47.003	0.194	0.095
-512.829	-90.330	-0.417	0.122
-511.814	504.003	0.087	-0.203
-510.799	342.926	0.085	0.167
-509.785	7.899	0.148	0.112
-508.770	226.712	0.103	0.168
-507.756	800.000	0.032	-0.106
-506.741	-97.822	-0.317	-0.082
-505.726	421.117	0.112	-0.241
-504.712	10.784	-0.256	-0.196
-503.697	-200.000	-0.000	-0.166
-502.683	457.179	-0.122	0.273
-501.668	-200.000	-0.015	-0.239
-500.653	-130.461	-0.236	-0.032
-499.639	9.774	0.212	-0.161
-498.624	-15.853	-0.193	0.123
-497.610	-200.000	0.000	-0.002
-496.595	800.000	-0.025	-0.083
-495.581	18.810	-0.122	0.098
-494.566	-200.000	-0.048	0.236
-493.551	-116.082	-0.200	0.037
-492.537	-59.945	0.150	0.064
-491.522	-200.000	-0.048	0.213
-490.508	-56.804	0.233	-0.103
-489.493	-200.000	-0.026	-0.210
-488.478	157.611	-0.113	-0.156
-487.464	-200.000	-0.013	-0.151
-486.449	-156.969	0.297	-0.018
-485.435	-25.605	-0.190	0.113
-484.420	-177.440	0.297	0.007
-483.405	-83.669	0.175	-0.056
-482.391	-29.938	0.265	-0.151
-481.376	-200.000	-0.008	0.160
-480.362	-51.559	0.128	-0.060
-479.347	17.327	0.133	0.106
-478.332	800.000	0.086	-0.281
-477.318	-70.806	-0.182	-0.069
-476.303	800.000	-0.129	0.399
-475.289	-115.103	-0.196	-0.037
-474.274	193.080	-0.114	0.173
-473.259	800.000	0.109	-0.360
-472.245	-59.948	-0.153	-0.065
-471.230	58.221	0.077	-0.076
-470.216	614.560	0.134	-0.335
-469.201	-75.648	0.447	-0.159
-468.186	-117.413	-0.136	-0.025
-467.172	31.044	-0.128	0.110
-466.157	717.637	-0.132	0.352
-465.143	-200.000	-0.015	0.294
-464.128	800.000	-0.047	0.158
-463.113	-127.703	0.423	0.061
-462.099	-200.000	0.002	0.193
-461.084	-62.612	-0.255	0.106
-460.070	-67.440	-0.325	-0.128
-459.055	-18.558	-0.182	-0.114
-458.040	360.698	0.088	-0.176
-457.026	-45.588	-0.201	0.100
-456.011	-43.384	-0.230	-0.116
-454.997	-131.066	0.363	-0.048
-453.982	-26.668	-0.299	-0.175
-452.968	800.000	-0.025	0.083
-451.953	14.900	0.250	0.196
-450.938	-38.604	-0.184	0.097
-449.924	-200.000	0.020	-0.163
-448.909	-59.274	0.111	-0.048
-447.895	-77.882	-0.199	-0.069
-446.880	-33.138	-0.183	0.102
-445.865	83.614	-0.208	-0.228
-444.851	19.494	0.226	-0.182
-443.836	-107.911	0.038	0.008
-442.822	-26.968	-0.196	0.114
-441.807	-200.000	-0.021	0.284
-440.792	652.651	-0.081	-0.207
-439.778	-142.100	0.160	0.016
-438.763	-15.561	-0.245	-0.156
-437.749	-200.000	-0.084	-0.396
-436.734	-74.990	0.184	-0.066
-435.719	636.109	0.125	0.317
-434.705	-200.000	-0.020	-0.089
-433.690	-185.972	0.178	-0.003
-432.676	-200.000	0.013	-0.083
-431.661	-200.000	0.010	-0.108
-430.646	19.908	0.315	-0.254
-429.632	207.266	-0.141	0.220
-428.617	30.686	-0.045	0.039
-427.603	307.173	-0.062	-0.116
-426.588	6.639	0.274	0.204
-425.573	127.895	0.174	-0.221
-424.559	124.591	0.022	-0.028
-423.544	125.167	0.173	0.219
-422.530	-17.340	-0.034	0.021
-421.515	328.785	0.016	0.031
-420.500	250.958	-0.106	-0.180
-419.486	89.978	0.096	0.107
-418.471	119.035	0.108	-0.134
-417.457	353.263	-0.099	0.196
-416.442	46.104	-0.157	0.145
-415.428	-200.000	0.027	0.123
-414.413	-91.053	-0.132	-0.038
-413.398	289.334	0.119	-0.216
-412.384	685.384	-0.060	-0.156
-411.369	57.747	0.208	-0.204
-410.355	800.000	-0.034	-0.138
-409.340	-51.994	-0.150	0.070
-408.325	57.520	0.124	0.121
-407.311	-6.171	-0.194	-0.132
-406.296	703.964	-0.078	0.204
-405.282	10.180	-0.188	-0.143
-404.267	-200.000	0.017	-0.135
-403.252	-55.327	0.195	-0.087
-402.238	-138.177	-0.180	-0.020
-401.223	558.475	-0.092	0.221
-400.209	20.512	0.156	0.126
-399.194	-78.925	0.159	0.054
-398.179	-105.274	-0.147	-0.034
-397.165	800.000	0.051	-0.165
-396.150	-200.000	-0.000	0.082
-395.136	-23.488	-0.156	0.093
-394.121	-200.000	-0.118	0.000
-393.106	-43.092	-0.316	0.160
-392.092	-108.358	-0.287	-0.062
-391.077	107.052	0.088	0.104
-390.063	111.887	0.129	-0.156
-389.048	115.889	0.145	0.177
-388.033	-94.395	-0.074	-0.020
-387.019	-200.000	-0.025	0.149
-386.004	-16.194	0.166	-0.105
-384.990	-36.414	-0.148	0.079
-383.975	217.991	0.068	0.109
-382.960	576.625	-0.097	0.236
-381.946	-75.137	-0.368	0.131
-380.931	-6.808	0.269	-0.183
-379.917	-200.000	0.004	0.058
-378.902	103.282	0.163	0.191
-377.888	250.457	-0.134	0.227
-376.873	62.125	0.081	0.081
-375.858	165.134	0.136	-0.192
-374.844	49.531	-0.186	-0.175
-373.829	84.134	0.125	-0.137
-372.815	75.902	0.202	0.213
-371.800	-140.934	0.266	-0.027
-370.785	-130.666	-0.132	-0.018
-369.771	-200.000	-0.000	-0.044
-368.756	800.000	-0.078	-0.277
-367.742	-92.115	0.120	-0.034
-366.727	-44.819	-0.313	0.156
-365.712	412.735	0.068	0.144
-364.698	-63.854	0.500	0.204
-363.683	369.569	-0.052	-0.104
-362.669	-26.400	-0.290	-0.170
-361.654	46.675	-0.097	-0.090
-360.639	278.451	0.102	-0.182
-359.625	-163.414	0.084	0.004
-358.610	-200.000	0.000	0.108
-357.596	-128.418	-0.293	0.042
-356.581	-178.992	0.233	0.005
-355.566	-200.000	0.019	0.401
-354.552	-200.000	0.015	-0.076
-353.537	-136.404	0.061	0.007
-352.523	-200.000	-0.003	0.201
-351.508	-7.042	0.143	-0.097
-350.493	-200.000	0.031	-0.157
-349.479	244.812	0.091	0.152
-348.464	-22.702	-0.257	-0.155
-347.450	-200.000	0.002	-0.234
-346.435	-108.535	0.227	0.049
-345.420	45.114	0.191	-0.176
-344.406	287.798	-0.090	0.163
-343.391	191.818	0.106	-0.159
-342.377	800.000	-0.054	-0.189
-341.362	-200.000	-0.014	0.225
-340.348	221.189	0.084	0.135
-339.333	371.631	0.072	0.146
-338.318	-99.106	0.368	-0.093
-337.304	-19.366	-0.163	-0.101
-336.289	55.569	-0.269	0.260
-335.275	-170.622	0.378	-0.013
-334.260	-98.143	-0.101	0.026
-333.245	-200.000	-0.034	0.248
-332.231	438.834	0.081	0.177
-331.216	185.018	0.305	0.452
-330.202	-4.999	0.051	-0.035
-329.187	119.119	0.173	0.213
-328.172	252.037	0.133	-0.226
-327.158	800.000	0.089	-0.280
-326.143	-200.000	0.019	-0.445
-325.129	41.084	-0.204	-0.184
-324.114	402.330	-0.030	0.062
-323.099	-200.000	-0.146	-0.656
-322.085	-109.054	-0.114	-0.024
-321.070	800.000	0.028	0.106
-320.056	-28.969	-0.224	0.128
-319.041	-36.373	0.249	-0.134
-318.026	-200.000	0.038	-0.463
-317.012	-102.945	-0.203	-0.048
-315.997	-87.900	-0.204	-0.061
-314.983	-200.000	-0.042	-0.233
-313.968	411.914	-0.021	0.044
-312.953	-19.859	0.090	-0.055
-311.939	-200.000	0.006	-0.038
-310.924	90.990	0.191	0.213
-309.910	-116.167	0.133	0.025
-308.895	-200.000	0.007	0.073
-307.880	425.299	0.138	-0.297
-306.866	-200.000	-0.067	0.421
-305.851	104.196	0.254	-0.297
-304.837	-31.646	0.321	0.180
-303.822	29.454	0.132	0.112
-302.807	-200.000	-0.066	-0.311
-301.793	41.775	0.182	0.164
-300.778	-200.000	0.051	-0.242
-299.764	33.020	0.205	0.177
-298.749	1.017	-0.094	-0.067
-297.735	-200.000	-0.013	-0.090
-296.720	-3.204	-0.127	0.088
-295.705	-65.119	0.221	-0.089
-294.691	-148.683	0.103	0.008
-293.676	348.876	-0.142	0.278
-292.662	-200.000	-0.035	0.201
-291.647	-200.000	-0.025	0.162
-290.632	-200.000	-0.049	0.269
-289.618	-17.819	0.078	0.048
-288.603	-97.370	0.267	-0.069
-287.589	-200.000	-0.070	-0.000
-286.574	-96.362	0.272	-0.072
-285.559	800.000	0.082	0.281
-284.545	-200.000	-0.035	0.264
-283.530	-200.000	-0.034	-0.195
-282.516	-102.674	0.275	-0.065
-281.501	136.906	-0.220	-0.286
-280.486	-112.404	0.288	-0.057
-279.472	94.226	0.101	0.114
-278.457	89.839	0.162	0.180
-277.443	154.804	-0.222	-0.303
-276.428	-131.057	-0.094	0.012
-275.413	-200.000	0.078	-0.386
-274.399	216.994	-0.131	-0.207
-273.384	-200.000	0.352	-0.000
-272.370	-51.861	-0.148	0.068
-271.355	800.000	-0.030	-0.130
-270.340	108.048	-0.234	0.278
-269.326	435.732	0.031	0.068
-268.311	110.926	-0.067	0.080
-267.297	-200.000	0.025	0.246
-266.282	800.000	-0.044	-0.131
-265.267	-67.073	-0.475	-0.186
-264.253	-200.000	-0.003	-0.139
-263.238	-36.048	-0.316	-0.170
-262.224	299.739	-0.040	0.073
-261.209	-79.949	0.275	0.092
-260.195	-200.000	-0.001	-0.214
-259.180	-13.189	-0.375	-0.242
-258.165	-105.514	0.110	-0.025
-257.151	800.000	0.073	0.217
-256.136	-122.173	0.105	0.017
-255.122	120.077	0.171	-0.211
-254.107	200.494	0.048	-0.073
-253.092	-200.000	-0.015	-0.293
-252.078	800.000	0.079	-0.315
-251.063	13.090	-0.128	0.098
-250.049	-130.071	-0.217	-0.029
-249.034	-151.178	0.314	0.023
-248.019	71.588	-0.075	-0.077
-247.005	10.759	-0.216	0.164
-245.990	-200.000	0.005	0.248
-244.976	-200.000	-0.018	0.085
-243.961	-200.000	0.010	0.256
-242.946	176.160	-0.091	-0.132
-241.932	-33.087	-0.092	0.051
-240.917	-42.680	0.286	0.145
-239.903	31.480	0.296	0.252
-238.888	102.980	-0.136	-0.159
-237.873	-200.000	0.019	-0.357
-236.859	27.672	-0.184	0.153
-235.844	18.081	-0.143	0.114
-234.830	147.707	0.054	-0.072
-233.815	116.873	-0.022	0.027
-232.800	-200.000	0.002	-0.131
-231.786	-128.677	-0.333	-0.047
-230.771	450.617	-0.111	0.242
-229.757	154.265	-0.077	0.104
-228.742	581.689	0.052	0.126
-227.727	-73.528	0.116	-0.042
-226.713	-108.364	-0.096	0.021
-225.698	321.189	0.078	0.148
-224.684	118.151	0.276	0.338
-223.669	-4.404	-0.151	0.103
-222.655	-23.715	0.194	0.115
-221.640	33.955	-0.031	0.026
-220.625	-10.194	0.265	0.175
-219.611	800.000	-0.063	0.239
-218.596	20.112	-0.066	0.053
-217.582	-119.586	0.369	0.063
-216.567	-74.090	0.467	0.168
-215.552	-175.893	-0.179	0.005
-214.538	798.178	0.085	0.233
-213.523	1.393	0.379	0.271
-212.509	327.177	-0.039	-0.074
-211.494	380.822	-0.104	0.213
-210.479	-45.681	-0.185	0.091
-209.465	321.575	-0.088	-0.166
-208.450	163.787	0.291	-0.406
-207.436	-40.530	-0.352	0.181
-206.421	41.414	-0.265	0.238
-205.406	444.482	-0.030	0.064
-204.392	254.850	0.111	0.189
-203.377	479.035	-0.093	0.208
-202.363	267.053	0.064	0.111
-201.348	511.825	0.035	-0.082
-200.333	-134.647	0.361	0.044
-199.319	19.607	-0.067	0.053
-198.304	-200.000	0.080	0.353
-197.290	90.468	0.117	-0.130
-196.275	-200.000	0.013	0.292
-195.260	17.542	-0.100	0.079
-194.246	-200.000	-0.050	0.249
-193.231	800.000	-0.057	0.188
-192.217	-96.556	0.354	-0.093
-191.202	-7.041	0.313	-0.210
-190.187	-32.514	-0.107	0.059
-189.173	-200.000	0.013	-0.113
-188.158	-200.000	-0.051	0.229
-187.144	134.821	0.138	0.178
-186.129	503.377	-0.102	0.233
-185.114	234.108	0.081	0.132
-184.100	-49.201	0.144	0.068
-183.085	-34.960	0.222	0.120
-182.071	-107.695	0.120	-0.026
-181.056	80.922	0.100	0.107
-180.042	559.804	-0.037	0.088
-179.027	119.354	0.042	0.052
-178.012	800.000	0.082	-0.317
-176.998	205.464	-0.153	-0.235
-175.983	800.000	0.067	0.216
-174.969	-16.939	0.233	0.146
-173.954	-200.000	-0.007	0.045
-172.939	-49.978	-0.199	-0.094
-171.925	-0.868	0.089	0.063
-170.910	225.946	0.180	0.289
-169.896	-200.000	0.023	0.202
-168.881	800.000	-0.033	-0.141
-167.866	-39.813	0.131	-0.068
-166.852	335.965	0.094	-0.180
-165.837	-200.000	-0.180	-0.000
-164.823	-63.000	0.181	0.074
-163.808	-160.408	-0.305	0.016
-162.793	800.000	-0.015	0.042
-161.779	-38.288	-0.154	0.081
-160.764	800.000	-0.070	0.192
-159.750	-69.948	0.114	0.043
-158.735	-14.715	-0.252	0.160
-157.720	-49.269	0.312	-0.148
-156.706	-131.595	-0.215	-0.028
-155.691	-133.023	-0.478	0.060
-154.677	34.145	0.150	-0.129
-153.662	-200.000	-0.001	0.081
-152.647	-46.717	0.117	-0.057
-151.633	-200.000	0.046	-0.218
-150.618	-63.727	0.130	-0.053
-149.604	-33.432	0.295	0.162
-148.589	159.027	-0.091	0.126
-147.574	315.252	-0.136	0.255
-146.560	-200.000	-0.029	-0.163
-145.545	-200.000	-0.041	0.292
-144.531	126.350	0.105	-0.131
-143.516	0.759	0.257	-0.182
-142.502	153.191	0.130	-0.177
-141.487	-200.000	-0.024	-0.222
-140.472	-109.676	-0.195	0.041
-139.458	-200.000	0.052	0.284
-138.443	-2.374	-0.230	-0.159
-137.429	109.308	0.025	0.029
-136.414	229.433	-0.139	0.224
-135.399	-200.000	-0.035	0.169
-134.385	299.521	-0.149	-0.271
-133.370	-200.000	-0.078	0.427
-132.356	154.426	0.123	0.167
-131.341	-7.343	0.377	-0.252
-130.326	21.916	0.301	-0.243
-129.312	-200.000	0.015	-0.151
-128.297	-2.388	0.101	0.070
-127.283	800.000	-0.106	-0.296
-126.268	336.293	0.047	0.090
-125.253	-200.000	0.031	0.296
-124.239	-78.963	0.325	-0.109
-123.224	-200.000	0.035	0.219
-122.210	-45.600	0.162	-0.079
