DTS Sentinel unit serial number:	SN413079Multiplexer serial number:	ORYXHardware model number:	OX4-SRSoftware version number:	ORYX F/W v4.00 Oryx Data Collector v3.7.2.0data status	okinstallation	princeton_trtdifferential loss correction	single-endedforward channel	channel 2reverse channel	N/Adate	2019/09/11time	15:53:11forward acquisition time	60.00reverse acquisition time	0.00gamma	496.2192k internal	0.2288k external	0.2288temperature offset calibration	1.0014default loss term (dB/km)	0.3790temperature slope calibration	1.0000multiplexer offset coefficient	1.0000multiplexer slope coefficient	1.0000fibre end	0.00T internal ref (°C)	42.94T ext. ref 1 (°C)	1.00T ext. ref 2 (°C)	38.52length (m)	temperature (°C)	Stokes	anti-Stokes-747.200	373.261	0.162	0.338
-746.185	52.545	0.060	0.059
-745.171	-8.578	-0.185	0.127
-744.156	-97.244	-0.227	-0.061
-743.142	-74.374	-0.104	0.038
-742.127	-137.567	-0.099	-0.011
-741.112	-200.000	0.035	-0.166
-740.098	-33.705	0.265	0.150
-739.083	-17.521	-0.015	-0.010
-738.069	-133.332	0.175	-0.023
-737.054	-200.000	0.009	-0.082
-736.039	64.369	-0.071	-0.073
-735.025	-200.000	0.315	0.001
-734.010	-200.000	0.014	-0.065
-732.996	-46.322	-0.326	0.164
-731.981	6.146	-0.186	-0.141
-730.966	-121.164	0.269	0.046
-729.952	11.437	0.338	-0.265
-728.937	-41.685	0.258	-0.136
-727.923	59.584	0.094	0.095
-726.908	-200.000	-0.022	-0.175
-725.894	-152.578	-0.203	0.015
-724.879	-17.998	-0.211	-0.136
-723.864	268.610	0.092	0.166
-722.850	-142.777	-0.280	-0.028
-721.835	-51.008	-0.209	0.101
-720.821	162.351	0.177	0.255
-719.806	402.939	0.070	-0.151
-718.791	-57.866	-0.124	-0.055
-717.777	81.028	0.177	-0.195
-716.762	15.769	-0.152	0.123
-715.748	255.523	0.114	-0.200
-714.733	-200.000	0.002	0.079
-713.718	28.585	-0.094	-0.081
-712.704	-86.952	-0.253	0.079
-711.689	567.331	-0.243	-0.604
-710.675	-200.000	-0.032	-0.266
-709.660	-34.617	0.335	-0.188
-708.645	-108.967	0.259	0.057
-707.631	-122.502	0.234	-0.039
-706.616	426.806	0.116	-0.256
-705.602	-82.011	-0.445	0.149
-704.587	217.794	-0.112	0.183
-703.572	-200.000	0.063	-0.368
-702.558	241.976	0.126	-0.215
-701.543	-35.569	-0.188	0.105
-700.529	481.728	0.130	-0.302
-699.514	-7.720	0.012	0.008
-698.499	82.520	0.071	0.079
-697.485	-36.241	-0.049	0.027
-696.470	-200.000	-0.017	-0.359
-695.456	-94.279	0.124	-0.035
-694.441	-200.000	0.047	0.255
-693.426	-186.600	-0.398	-0.006
-692.412	-200.000	0.035	0.251
-691.397	466.082	0.051	-0.118
-690.383	112.127	-0.091	0.112
-689.368	252.027	0.179	0.311
-688.354	163.861	0.131	0.188
-687.339	-200.000	-0.013	0.062
-686.324	-200.000	-0.029	-0.440
-685.310	7.291	0.171	0.131
-684.295	168.887	0.166	0.241
-683.281	-106.361	-0.119	0.027
-682.266	-27.980	0.252	0.149
-681.251	-200.000	-0.020	0.095
-680.237	800.000	-0.017	-0.076
-679.222	-200.000	-0.006	-0.148
-678.208	-200.000	-0.085	-0.380
-677.193	-125.034	-0.291	0.046
-676.178	458.465	-0.100	0.228
-675.164	423.186	0.158	-0.346
-674.149	-172.764	-0.293	-0.009
-673.135	-34.822	0.390	-0.218
-672.120	169.408	-0.157	-0.229
-671.105	-80.153	-0.151	0.052
-670.091	-79.260	0.064	0.022
-669.076	-9.016	-0.197	0.135
-668.062	-16.752	-0.262	0.170
-667.047	-9.617	0.176	0.120
-666.032	-200.000	0.001	0.024
-665.018	-200.000	0.031	0.279
-664.003	800.000	0.030	-0.130
-662.989	27.695	0.188	-0.162
-661.974	-200.000	-0.033	-0.170
-660.959	30.881	-0.063	-0.055
-659.945	-65.595	-0.251	-0.103
-658.930	28.638	-0.075	0.065
-657.916	17.079	-0.193	0.156
-656.901	-103.922	-0.220	0.052
-655.886	-61.206	0.199	0.086
-654.872	-70.850	-0.079	-0.030
-653.857	-108.119	0.123	-0.027
-652.843	-62.423	0.239	-0.101
-651.828	13.780	0.126	0.100
-650.814	-200.000	0.007	-0.032
-649.799	18.300	-0.323	0.263
-648.784	135.032	-0.101	-0.133
-647.770	-150.004	0.200	-0.016
-646.755	-180.764	-0.035	-0.001
-645.741	82.549	-0.073	-0.081
-644.726	800.000	0.065	0.195
-643.711	185.925	-0.061	-0.092
-642.697	800.000	-0.063	-0.188
-641.682	-90.229	0.322	-0.095
-640.668	20.761	-0.053	0.043
-639.653	322.499	0.088	-0.171
-638.638	800.000	-0.047	0.140
-637.624	77.387	0.166	0.181
-636.609	353.118	0.006	0.012
-635.595	-22.572	-0.125	-0.077
-634.580	-95.510	-0.097	0.026
-633.565	-183.230	0.156	0.003
-632.551	-200.000	-0.035	-0.376
-631.536	-200.000	-0.012	-0.076
-630.522	-91.703	-0.044	-0.013
-629.507	-80.400	-0.147	0.050
-628.492	62.269	-0.238	0.242
-627.478	-200.000	0.001	0.067
-626.463	-200.000	-0.000	0.413
-625.449	270.459	0.131	-0.234
-624.434	9.714	-0.202	-0.156
-623.419	89.226	-0.087	-0.099
-622.405	335.171	0.132	0.260
-621.390	800.000	-0.029	0.094
-620.376	-110.997	0.103	-0.022
-619.361	499.577	-0.093	-0.218
-618.346	-6.920	-0.083	0.057
-617.332	-136.035	0.386	0.046
-616.317	800.000	0.039	0.158
-615.303	164.902	-0.162	-0.233
-614.288	-103.924	0.141	0.034
-613.273	47.739	-0.152	-0.145
-612.259	59.221	-0.130	0.130
-611.244	-95.402	0.098	-0.027
-610.230	-200.000	-0.086	-0.404
-609.215	238.294	-0.127	-0.215
-608.201	35.345	0.126	0.112
-607.186	171.742	-0.157	0.229
-606.171	-130.010	-0.150	0.021
-605.157	-151.211	-0.048	0.004
-604.142	104.756	0.196	0.236
-603.128	657.144	0.033	-0.085
-602.113	237.906	-0.093	0.157
-601.098	191.760	-0.047	0.073
-600.084	421.127	0.088	-0.192
-599.069	-200.000	-0.014	-0.309
-598.055	146.112	0.017	-0.023
-597.040	72.705	-0.213	-0.227
-596.025	-144.493	-0.223	0.021
-595.011	321.230	-0.191	-0.370
-593.996	-200.000	-0.035	-0.264
-592.982	224.504	-0.150	0.246
-591.967	146.343	0.045	-0.061
-590.952	-98.875	-0.368	0.095
-589.938	-200.000	-0.012	0.104
-588.923	-84.193	-0.203	-0.065
-587.909	-190.022	-0.727	-0.008
-586.894	398.024	0.143	0.305
-585.879	268.084	0.073	-0.129
-584.865	800.000	-0.033	-0.118
-583.850	-24.095	-0.318	-0.193
-582.836	193.336	0.146	0.226
-581.821	-200.000	0.003	0.118
-580.806	-10.542	-0.116	-0.078
-579.792	99.866	0.160	-0.189
-578.777	59.051	-0.117	-0.117
-577.763	-51.714	0.221	0.105
-576.748	16.332	0.022	-0.018
-575.733	800.000	0.136	-0.400
-574.719	-200.000	-0.024	-0.227
-573.704	5.195	-0.031	-0.023
-572.690	800.000	-0.109	-0.400
-571.675	800.000	-0.069	-0.252
-570.661	-11.410	0.109	-0.073
-569.646	355.841	0.120	-0.244
-568.631	433.758	0.042	-0.092
-567.617	44.951	-0.105	0.099
-566.602	-200.000	-0.024	-0.172
-565.588	260.804	-0.075	-0.132
-564.573	-200.000	-0.017	0.265
-563.558	-13.387	0.395	0.261
-562.544	-149.440	0.229	0.019
-561.529	800.000	0.031	0.093
-560.515	70.490	-0.152	-0.160
-559.500	282.088	-0.199	0.362
-558.485	-142.995	0.190	-0.019
-557.471	406.876	-0.164	-0.352
-556.456	323.011	0.109	0.211
-555.442	99.398	-0.121	-0.143
-554.427	-87.420	0.106	0.033
-553.412	800.000	0.028	-0.109
-552.398	9.114	-0.293	0.226
-551.383	157.148	0.086	0.121
-550.369	35.707	0.078	-0.069
-549.354	2.256	-0.084	-0.062
-548.339	-128.089	0.383	0.056
-547.325	-40.736	0.394	0.208
-546.310	-5.865	0.028	-0.019
-545.296	-200.000	-0.073	0.469
-544.281	-200.000	-0.025	0.139
-543.266	-74.179	0.354	-0.130
-542.252	92.096	-0.032	-0.037
-541.237	45.228	-0.194	0.182
-540.223	28.745	0.115	-0.099
-539.208	-108.671	0.213	-0.046
-538.193	800.000	0.165	0.491
-537.179	-200.000	0.013	-0.201
-536.164	398.488	-0.053	-0.114
-535.150	-143.353	0.213	-0.021
-534.135	89.176	-0.155	-0.176
-533.121	-19.039	0.266	-0.168
-532.106	63.235	-0.089	0.090
-531.091	694.722	0.060	-0.159
-530.077	-73.979	-0.373	0.137
-529.062	-44.762	-0.159	-0.080
-528.048	-200.000	0.012	-0.359
-527.033	-200.000	0.012	0.072
-526.018	125.916	0.102	0.132
-525.004	363.170	-0.089	0.182
-523.989	-200.000	0.081	0.458
-522.975	-112.257	-0.164	-0.034
-521.960	39.596	0.218	-0.198
-520.945	522.423	-0.162	0.387
-519.931	-35.788	0.237	0.131
-518.916	578.237	0.077	0.191
-517.902	-111.828	-0.140	0.029
-516.887	308.786	0.144	0.273
-515.872	-200.000	0.001	-0.052
-514.858	261.846	0.099	-0.174
-513.843	-57.852	0.156	-0.069
-512.829	-200.000	-0.060	0.428
-511.814	-39.067	0.247	0.132
-510.799	-95.520	-0.107	0.029
-509.785	-101.235	-0.489	0.122
-508.770	10.728	-0.061	0.047
-507.756	-85.769	0.367	0.116
-506.741	-104.890	-0.066	0.015
-505.726	-199.061	-0.031	-0.000
-504.712	-200.000	-0.010	-0.247
-503.697	-67.435	0.079	-0.032
-502.683	475.899	-0.086	-0.198
-501.668	-200.000	-0.000	0.027
-500.653	-200.000	-0.034	-0.219
-499.639	342.365	0.121	-0.241
-498.624	-61.778	-0.356	-0.152
-497.610	800.000	0.042	-0.156
-496.595	-4.799	-0.122	0.085
-495.581	-126.854	-0.101	-0.015
-494.566	-200.000	0.000	0.086
-493.551	-200.000	0.020	-0.164
-492.537	112.634	0.182	-0.223
-491.522	-200.000	-0.050	0.426
-490.508	-136.305	0.157	0.019
-489.493	118.275	0.041	0.051
-488.478	25.378	0.131	0.110
-487.464	-200.000	0.019	-0.102
-486.449	-76.530	-0.296	-0.105
-485.435	48.993	0.172	0.164
-484.420	230.226	-0.102	-0.170
-483.405	-9.886	0.300	0.203
-482.391	-167.770	-0.181	-0.007
-481.376	370.318	0.092	0.190
-480.362	-111.880	-0.282	0.058
-479.347	163.072	-0.059	0.085
-478.332	149.051	-0.094	0.129
-477.318	721.114	-0.070	-0.189
-476.303	-200.000	0.036	0.368
-475.289	-200.000	0.014	0.319
-474.274	74.153	-0.204	-0.218
-473.259	24.500	0.273	-0.229
-472.245	-200.000	0.014	0.387
-471.230	-23.101	0.128	0.078
-470.216	-123.745	0.247	0.040
-469.201	531.373	-0.240	-0.576
-468.186	-23.441	0.198	-0.121
-467.172	57.362	-0.216	-0.214
-466.157	-69.749	-0.303	0.118
-465.143	781.514	0.035	-0.098
-464.128	339.931	0.101	-0.200
-463.113	-167.872	0.079	-0.003
-462.099	-78.807	-0.067	0.023
-461.084	-47.763	-0.210	-0.103
-460.070	-110.198	0.435	-0.092
-459.055	-200.000	-0.026	-0.142
-458.040	800.000	-0.108	0.430
-457.026	-20.938	-0.085	-0.053
-456.011	-113.387	-0.238	-0.047
-454.997	800.000	0.059	0.212
-453.982	-200.000	0.013	-0.336
-452.968	800.000	-0.039	0.149
-451.953	235.316	0.126	0.211
-450.938	-200.000	-0.016	0.100
-449.924	800.000	0.050	-0.178
-448.909	-106.751	-0.147	-0.033
-447.895	-200.000	0.009	-0.422
-446.880	266.017	-0.101	-0.178
-445.865	318.252	-0.140	0.268
-444.851	121.778	-0.183	0.231
-443.836	-54.771	-0.167	-0.077
-442.822	-82.686	0.037	-0.012
-441.807	-110.738	-0.411	-0.086
-440.792	399.425	0.150	-0.319
-439.778	54.232	-0.234	-0.228
-438.763	178.868	-0.201	-0.298
-437.749	223.939	-0.036	-0.059
-436.734	44.241	0.221	-0.206
-435.719	30.146	0.090	0.078
-434.705	-200.000	-0.041	0.255
-433.690	-200.000	-0.013	0.430
-432.676	-200.000	-0.005	0.471
-431.661	76.371	0.176	0.189
-430.646	800.000	-0.024	-0.093
-429.632	184.594	0.132	-0.198
-428.617	800.000	-0.035	0.150
-427.603	110.133	0.280	-0.341
-426.588	100.870	0.352	0.414
-425.573	-36.015	0.384	0.210
-424.559	171.163	-0.204	-0.297
-423.544	-37.653	0.118	0.064
-422.530	-17.383	0.328	0.209
-421.515	28.951	-0.055	-0.047
-420.500	318.264	0.098	-0.187
-419.486	-200.000	0.039	-0.266
-418.471	-12.994	-0.178	0.117
-417.457	-106.500	0.148	-0.034
-416.442	-162.090	0.202	-0.010
-415.428	303.014	0.080	0.150
-414.413	-200.000	-0.052	-0.299
-413.398	-27.942	-0.177	0.103
-412.384	159.947	0.195	-0.275
-411.369	-12.699	0.215	-0.142
-410.355	87.482	0.102	-0.115
-409.340	-173.313	0.145	0.004
-408.325	117.121	-0.103	-0.128
-407.311	-200.000	0.020	-0.147
-406.296	800.000	0.065	-0.237
-405.282	-35.029	0.130	0.072
-404.267	-155.485	0.184	0.012
-403.252	-167.895	0.236	0.009
-402.238	-90.423	-0.222	0.065
-401.223	-51.838	0.408	0.192
-400.209	-52.277	0.107	-0.050
-399.194	-34.640	-0.109	0.061
-398.179	126.946	0.276	-0.353
-397.165	-200.000	0.018	0.123
-396.150	-200.000	0.007	0.061
-395.136	-200.000	-0.204	-0.000
-394.121	800.000	-0.042	-0.156
-393.106	284.446	-0.098	-0.178
-392.092	800.000	0.055	0.182
-391.077	39.110	0.238	0.215
-390.063	559.888	0.158	-0.386
-389.048	6.533	-0.090	-0.068
-388.033	50.124	0.194	0.185
-387.019	-48.626	-0.066	-0.032
-386.004	-200.000	0.034	0.181
-384.990	-30.658	0.158	0.090
-383.975	93.634	0.319	-0.366
-382.960	-16.218	0.147	-0.094
-381.946	55.777	0.295	-0.289
-380.931	167.241	0.289	0.415
-379.917	-200.000	0.012	0.328
-378.902	-106.582	0.276	0.062
-377.888	-15.680	-0.302	-0.195
-376.873	-111.876	0.144	-0.029
-375.858	-200.000	0.065	0.419
-374.844	-200.000	-0.056	0.289
-373.829	-24.140	0.188	-0.114
-372.815	-100.875	0.169	0.042
-371.800	187.658	-0.203	0.306
-370.785	-100.035	-0.181	-0.046
-369.771	-79.305	-0.289	0.099
-368.756	154.120	-0.147	0.203
-367.742	-200.000	-0.007	-0.233
-366.727	800.000	0.036	-0.130
-365.712	-41.995	0.158	-0.082
-364.698	544.637	0.035	0.085
-363.683	-200.000	0.006	0.107
-362.669	-124.820	0.347	-0.054
-361.654	800.000	-0.125	-0.374
-360.639	143.118	0.079	0.106
-359.625	57.183	-0.114	-0.112
-358.610	-135.104	0.112	0.014
-357.596	-50.382	0.326	-0.155
-356.581	-169.256	0.159	-0.006
-355.566	232.033	0.163	0.269
-354.552	-98.004	0.084	-0.022
-353.537	2.076	0.257	0.188
-352.523	-41.489	-0.098	0.051
-351.508	35.782	0.110	0.098
-350.493	-200.000	0.036	0.211
-349.479	43.890	-0.151	0.140
-348.464	191.291	-0.201	0.306
-347.450	-144.744	-0.074	-0.007
-346.435	800.000	-0.070	0.245
-345.420	-11.479	-0.150	0.099
-344.406	85.395	-0.160	-0.177
-343.391	-200.000	-0.009	-0.059
-342.377	87.297	-0.022	-0.025
-341.362	-73.974	0.320	0.117
-340.348	469.616	0.149	-0.338
-339.333	-60.754	0.202	0.086
-338.318	289.354	0.167	-0.305
-337.304	228.443	-0.126	-0.207
-336.289	80.247	0.122	0.133
-335.275	457.654	-0.063	-0.142
-334.260	-48.951	0.042	0.020
-333.245	416.122	0.245	0.528
-332.231	386.108	0.056	-0.116
-331.216	-200.000	-0.029	-0.184
-330.202	-200.000	-0.016	-0.291
-329.187	800.000	-0.084	0.348
-328.172	686.411	-0.093	-0.246
-327.158	210.468	0.207	-0.328
-326.143	-79.908	0.262	0.089
-325.129	432.223	0.097	-0.212
-324.114	-59.845	-0.103	0.045
-323.099	323.434	0.052	-0.100
-322.085	-144.743	0.463	-0.043
-321.070	231.239	-0.198	-0.327
-320.056	46.624	-0.179	0.168
-319.041	-200.000	-0.048	0.242
-318.026	-2.393	-0.252	-0.178
-317.012	78.992	-0.381	-0.411
-315.997	13.493	-0.036	0.028
-314.983	84.917	-0.108	0.119
-313.968	800.000	0.040	-0.122
-312.953	-50.014	0.267	0.128
-311.939	-85.849	0.127	0.040
-310.924	-200.000	0.003	0.122
-309.910	-35.768	-0.077	0.042
-308.895	-50.744	-0.132	0.063
-307.880	3.722	-0.185	-0.136
-306.866	15.885	-0.078	0.062
-305.851	374.947	0.011	0.023
-304.837	106.568	0.215	-0.257
-303.822	-200.000	-0.029	-0.343
-302.807	477.524	-0.083	-0.189
-301.793	-200.000	0.004	0.215
-300.778	-200.000	0.048	0.259
-299.764	-17.589	-0.010	0.006
-298.749	-114.146	-0.203	-0.039
-297.735	42.246	-0.285	-0.261
-296.720	293.599	0.130	-0.239
-295.705	-113.653	0.045	0.009
-294.691	27.532	-0.126	-0.107
-293.676	-200.000	0.017	0.100
-292.662	800.000	0.006	-0.028
-291.647	170.296	-0.190	0.274
-290.632	-60.892	-0.262	0.111
-289.618	174.923	0.183	0.266
-288.603	-200.000	-0.014	-0.080
-287.589	-71.571	-0.032	0.012
-286.574	-99.861	-0.101	0.026
-285.559	-200.000	-0.034	-0.185
-284.545	-200.000	0.030	0.234
-283.530	362.824	-0.144	0.291
-282.516	14.685	0.133	-0.105
-281.501	-85.145	-0.293	-0.092
-280.486	-200.000	-0.075	-0.352
-279.472	-75.389	-0.288	0.103
-278.457	707.077	0.015	-0.040
-277.443	60.361	0.256	-0.255
-276.428	286.624	-0.155	0.281
-275.413	93.158	0.078	0.089
-274.399	-200.000	-0.008	0.349
-273.384	800.000	0.097	0.400
-272.370	-145.452	0.147	0.013
-271.355	91.680	-0.201	0.228
-270.340	112.196	-0.195	-0.237
-269.326	-200.000	0.002	0.074
-268.311	-34.435	-0.181	-0.100
-267.297	114.933	-0.184	0.226
-266.282	56.900	0.138	-0.135
-265.267	-200.000	-0.069	-0.328
-264.253	-157.925	0.248	-0.015
-263.238	133.381	-0.098	0.127
-262.224	102.540	0.082	0.096
-261.209	-129.344	-0.245	0.034
-260.195	-17.035	-0.071	0.045
-259.180	0.841	-0.069	0.050
-258.165	-95.508	0.386	0.104
-257.151	40.205	0.022	0.020
-256.136	204.733	-0.069	0.108
-255.122	-115.441	0.337	-0.064
-254.107	781.793	-0.033	0.091
-253.092	-184.865	0.122	0.002
-252.078	178.027	0.112	0.164
-251.063	-57.606	0.173	0.076
-250.049	-15.357	0.188	-0.121
-249.034	-200.000	0.030	-0.238
-248.019	41.357	-0.358	-0.325
-247.005	-80.878	0.296	-0.099
-245.990	237.398	0.068	-0.113
-244.976	274.038	0.142	0.252
-243.961	-73.255	0.438	0.161
-242.946	-1.259	0.207	0.147
-241.932	-200.000	0.002	0.115
-240.917	67.001	-0.268	-0.275
-239.903	-94.817	-0.130	-0.035
-238.888	800.000	-0.050	0.180
-237.873	-200.000	-0.015	0.164
-236.859	88.553	-0.054	-0.060
-235.844	-200.000	-0.000	-0.029
-234.830	-0.076	-0.240	0.171
-233.815	-200.000	0.012	0.252
-232.800	800.000	0.056	-0.213
-231.786	9.110	-0.195	-0.148
-230.771	-47.662	-0.146	-0.071
-229.757	-200.000	-0.008	0.039
-228.742	-200.000	-0.027	-0.260
-227.727	-87.435	0.213	-0.065
-226.713	35.642	0.191	0.169
-225.698	105.623	0.163	-0.193
-224.684	-41.915	-0.109	0.056
-223.669	64.274	-0.213	0.216
-222.655	0.923	0.238	0.171
-221.640	-55.500	0.140	0.063
-220.625	800.000	-0.139	-0.396
-219.611	-63.356	-0.391	-0.162
-218.596	-73.581	-0.265	0.097
-217.582	63.299	-0.188	-0.189
-216.567	-61.669	0.175	-0.074
-215.552	593.852	-0.025	0.062
-214.538	76.124	0.143	-0.152
-213.523	229.844	-0.119	0.195
-212.509	1.786	-0.055	-0.039
-211.494	11.310	0.368	0.283
-210.479	-65.741	0.018	0.007
-209.465	9.983	-0.104	0.079
-208.450	213.782	-0.077	-0.122
-207.436	9.613	-0.101	0.077
-206.421	-59.774	0.099	0.042
-205.406	84.349	0.055	0.061
-204.392	105.134	-0.172	0.203
-203.377	171.614	-0.159	0.229
-202.363	41.181	0.219	0.199
-201.348	-154.572	-0.506	-0.034
-200.333	800.000	0.087	-0.349
-199.319	-66.363	0.099	-0.039
-198.304	178.542	-0.224	-0.328
-197.290	800.000	0.033	-0.139
-196.275	-104.270	0.129	-0.030
-195.260	128.360	-0.094	-0.121
-194.246	278.057	-0.178	-0.319
-193.231	800.000	0.096	0.324
-192.217	93.185	0.163	0.185
-191.202	-27.602	0.089	0.052
-190.187	-4.398	-0.188	0.130
-189.173	-114.859	-0.378	-0.072
-188.158	-200.000	0.016	-0.226
-187.144	800.000	-0.026	0.094
-186.129	310.812	-0.108	-0.203
-185.114	-59.168	0.043	-0.019
-184.100	197.968	-0.364	0.558
-183.085	372.957	0.122	0.249
-182.071	-28.145	-0.134	0.077
-181.056	-40.485	0.053	-0.028
-180.042	-200.000	-0.016	0.202
-179.027	-50.677	-0.152	0.072
-178.012	800.000	0.076	-0.246
-176.998	-61.635	-0.122	-0.051
-175.983	-144.218	-0.323	-0.030
-174.969	-200.000	0.072	0.342
-173.954	170.951	0.190	-0.272
-172.939	-30.168	-0.099	0.056
-171.925	100.445	0.173	-0.201
-170.910	425.819	0.039	0.084
-169.896	-29.387	-0.146	0.084
-168.881	66.068	-0.151	0.153
-167.866	330.406	-0.055	-0.106
-166.852	-200.000	-0.042	0.339
-165.837	-96.375	0.288	0.076
-164.823	800.000	-0.091	-0.266
-163.808	-118.004	0.424	-0.076
-162.793	800.000	-0.040	0.145
-161.779	-59.006	-0.285	0.123
-160.764	-138.535	-0.221	-0.024
-159.750	206.430	-0.122	-0.190
-158.735	-104.800	-0.227	0.052
-157.720	455.150	-0.038	-0.084
-156.706	-50.118	-0.148	0.070
-155.691	30.838	0.027	-0.023
-154.677	16.855	-0.204	0.162
-153.662	-200.000	0.018	-0.218
-152.647	800.000	0.077	0.298
-151.633	499.029	0.011	0.026
-150.618	15.784	0.070	0.055
-149.604	-129.523	0.321	0.045
-148.589	-35.106	-0.151	0.082
-147.574	62.008	0.043	0.043
-146.560	-71.573	0.216	0.081
-145.545	146.709	-0.147	-0.198
-144.531	116.423	-0.223	-0.274
-143.516	396.992	0.106	-0.221
-142.502	800.000	0.107	-0.303
-141.487	-200.000	-0.032	0.156
-140.472	191.417	-0.119	0.179
-139.458	-35.367	0.131	-0.071
-138.443	-104.127	-0.436	0.101
-137.429	28.000	-0.061	0.052
-136.414	65.031	-0.163	0.165
-135.399	155.804	0.196	-0.271
-134.385	-95.212	-0.254	0.068
-133.370	-200.000	0.006	-0.094
-132.356	45.273	0.390	-0.360
-131.341	-149.929	-0.114	-0.009
-130.326	167.277	0.058	-0.082
-129.312	800.000	-0.087	0.296
-128.297	33.385	-0.169	-0.147
-127.283	40.846	-0.163	-0.147
-126.268	45.244	0.124	0.115
-125.253	487.592	-0.058	-0.133
-124.239	800.000	0.064	-0.201
-123.224	-4.510	0.225	0.156
-122.210	224.679	-0.121	0.196
-121.195	-74.390	0.211	-0.076
-120.180	-101.385	0.236	-0.057
