DTS Sentinel unit serial number:	SN413079Multiplexer serial number:	ORYXHardware model number:	OX4-SRSoftware version number:	ORYX F/W v4.00 Oryx Data Collector v3.7.2.0data status	okinstallation	princeton_trtdifferential loss correction	single-endedforward channel	channel 2reverse channel	N/Adate	2019/09/19time	01:31:35forward acquisition time	60.00reverse acquisition time	0.00gamma	496.2192k internal	0.2353k external	0.2353temperature offset calibration	1.0017default loss term (dB/km)	0.3790temperature slope calibration	1.0000multiplexer offset coefficient	1.0000multiplexer slope coefficient	1.0000fibre end	0.00T internal ref (°C)	21.56T ext. ref 1 (°C)	0.71T ext. ref 2 (°C)	15.06length (m)	temperature (°C)	Stokes	anti-Stokes-747.200	49.966	0.103	-0.097
-746.185	-200.000	0.010	0.131
-745.171	-135.142	-0.302	0.036
-744.156	-31.947	-0.486	0.271
-743.142	11.119	-0.150	0.115
-742.127	-200.000	0.018	0.115
-741.112	-149.333	-0.398	-0.032
-740.098	148.734	-0.235	0.317
-739.083	-175.425	-0.322	0.009
-738.069	291.438	0.196	0.356
-737.054	-200.000	-0.078	0.506
-736.039	-26.462	-0.363	-0.212
-735.025	3.109	0.508	0.368
-734.010	426.093	0.106	0.228
-732.996	-16.014	-0.159	0.101
-731.981	-86.040	-0.201	-0.062
-730.966	98.876	-0.189	0.217
-729.952	352.702	0.115	-0.227
-728.937	800.000	-0.051	0.174
-727.923	-143.460	-0.330	-0.031
-726.908	323.165	0.156	0.296
-725.894	497.205	0.072	-0.166
-724.879	-200.000	0.024	0.207
-723.864	121.639	-0.144	-0.179
-722.850	192.384	0.071	-0.107
-721.835	-200.000	-0.027	-0.176
-720.821	50.720	-0.140	-0.132
-719.806	67.398	0.179	-0.182
-718.791	-158.167	-0.321	-0.019
-717.777	-200.000	0.034	-0.242
-716.762	-94.118	0.094	0.026
-715.748	317.084	-0.144	-0.272
-714.733	-200.000	0.008	-0.275
-713.718	311.336	0.021	-0.039
-712.704	-42.546	0.160	-0.081
-711.689	272.006	-0.146	0.256
-710.675	-36.611	0.171	-0.092
-709.660	388.913	0.094	-0.195
-708.645	37.120	-0.082	-0.072
-707.631	9.670	-0.144	0.108
-706.616	-200.000	0.017	0.131
-705.602	-143.612	0.262	0.025
-704.587	293.032	-0.066	-0.120
-703.572	407.598	-0.022	-0.047
-702.558	576.278	0.041	-0.099
-701.543	-9.899	-0.183	-0.121
-700.529	-145.815	0.300	0.027
-699.514	-0.976	0.150	-0.105
-698.499	121.383	0.090	0.112
-697.485	-39.956	0.104	-0.054
-696.470	-200.000	0.039	0.244
-695.456	46.356	-0.090	-0.083
-694.441	-74.164	0.205	0.074
-693.426	316.789	-0.059	0.112
-692.412	-200.000	-0.043	0.238
-691.397	-19.272	-0.215	-0.132
-690.383	-200.000	-0.044	-0.294
-689.368	-131.540	0.336	-0.044
-688.354	-60.359	0.168	-0.071
-687.339	496.602	-0.042	0.096
-686.324	290.603	-0.104	-0.187
-685.310	58.008	0.113	0.110
-684.295	153.032	0.028	0.037
-683.281	800.000	-0.094	0.270
-682.266	91.157	0.035	-0.039
-681.251	-33.433	-0.357	-0.196
-680.237	-35.606	0.039	0.021
-679.222	92.759	-0.208	-0.234
-678.208	152.502	0.153	0.208
-677.193	-190.015	-0.169	0.002
-676.178	168.699	-0.081	0.114
-675.164	-162.255	0.385	0.019
-674.149	134.918	0.189	0.244
-673.135	349.617	0.149	0.292
-672.120	-200.000	-0.040	-0.235
-671.105	28.788	-0.083	-0.070
-670.091	115.675	-0.295	-0.359
-669.076	-200.000	0.001	-0.141
-668.062	-126.479	0.323	-0.048
-667.047	647.749	-0.110	0.280
-666.032	136.779	0.201	0.261
-665.018	800.000	-0.042	-0.132
-664.003	-47.742	-0.085	-0.041
-662.989	131.553	0.160	-0.205
-661.974	-74.182	0.075	0.027
-660.959	36.018	0.082	-0.072
-659.945	800.000	0.088	-0.372
-658.930	-64.534	-0.075	-0.030
-657.916	-82.831	-0.215	0.069
-656.901	-55.738	0.148	0.066
-655.886	349.883	0.146	-0.287
-654.872	62.013	-0.124	-0.123
-653.857	-200.000	0.016	-0.126
-652.843	-107.966	-0.182	0.039
-651.828	-200.000	-0.058	-0.323
-650.814	-200.000	0.029	-0.410
-649.799	3.087	0.327	0.236
-648.784	176.969	-0.211	0.304
-647.770	62.427	0.043	-0.042
-646.755	101.244	0.203	-0.235
-645.741	50.903	0.157	-0.148
-644.726	-136.750	0.111	0.013
-643.711	80.163	-0.369	-0.394
-642.697	-200.000	-0.014	-0.219
-641.682	153.302	-0.143	-0.195
-640.668	-116.736	0.389	-0.071
-639.653	247.670	0.070	0.117
-638.638	-46.261	-0.309	-0.151
-637.624	800.000	0.073	-0.309
-636.609	-70.457	0.278	-0.105
-635.595	-136.530	0.213	-0.024
-634.580	71.600	0.189	-0.195
-633.565	-117.299	0.341	0.061
-632.551	-200.000	-0.034	0.156
-631.536	132.109	0.156	0.200
-630.522	7.526	0.101	0.075
-629.507	165.316	-0.024	-0.034
-628.492	-22.988	-0.093	-0.056
-627.478	-200.000	-0.023	0.106
-626.463	310.034	-0.021	0.039
-625.449	-200.000	0.037	0.386
-624.434	579.905	-0.085	0.205
-623.419	284.774	0.080	-0.144
-622.405	-124.186	0.395	0.061
-621.390	101.930	0.167	0.194
-620.376	-92.147	0.111	0.031
-619.361	32.994	0.187	0.161
-618.346	121.502	0.166	-0.205
-617.332	-200.000	-0.027	-0.390
-616.317	127.107	0.098	-0.124
-615.303	-148.981	0.373	-0.030
-614.288	-200.000	-0.093	-0.478
-613.273	-154.349	-0.287	-0.019
-612.259	-142.811	-0.301	0.029
-611.244	-118.448	-0.100	-0.018
-610.230	193.145	-0.134	-0.202
-609.215	-52.920	0.207	-0.095
-608.201	-200.000	-0.007	-0.367
-607.186	-35.444	-0.125	0.068
-606.171	-123.665	-0.084	-0.013
-605.157	264.637	-0.077	0.133
-604.142	27.294	-0.383	-0.319
-603.128	-81.348	0.170	-0.056
-602.113	28.838	-0.041	-0.034
-601.098	97.571	-0.077	-0.088
-600.084	-81.192	-0.104	0.034
-599.069	-45.305	-0.212	-0.104
-598.055	122.249	-0.259	-0.320
-597.040	-52.350	0.178	-0.082
-596.025	-12.100	0.149	-0.097
-595.011	-22.501	-0.209	0.125
-593.996	-59.922	-0.165	-0.070
-592.982	185.320	-0.142	0.208
-591.967	-200.000	0.006	0.114
-590.952	101.464	-0.185	0.213
-589.938	-123.639	0.131	0.021
-588.923	418.158	-0.035	-0.073
-587.909	-171.863	0.320	0.010
-586.894	742.956	0.082	-0.218
-585.879	12.055	-0.051	0.039
-584.865	-91.192	-0.293	-0.083
-583.850	-37.293	-0.269	0.143
-582.836	-200.000	-0.017	-0.082
-581.821	-200.000	-0.009	-0.184
-580.806	-62.740	0.390	0.160
-579.792	800.000	0.054	0.196
-578.777	164.950	0.145	0.203
-577.763	541.268	0.118	-0.279
-576.748	93.564	0.028	0.031
-575.733	-60.632	-0.258	-0.108
-574.719	-17.828	0.180	0.112
-573.704	800.000	-0.077	0.211
-572.690	-70.146	0.192	-0.072
-571.675	-109.338	-0.304	-0.064
-570.661	-200.000	0.102	0.492
-569.646	-200.000	0.067	0.334
-568.631	800.000	-0.090	-0.376
-567.617	238.333	0.150	-0.246
-566.602	-70.015	-0.161	-0.061
-565.588	800.000	0.072	-0.214
-564.573	-57.695	0.152	0.066
-563.558	-200.000	0.023	0.284
-562.544	84.693	0.040	0.044
-561.529	-200.000	-0.048	-0.220
-560.515	-200.000	0.039	0.173
-559.500	800.000	0.072	-0.282
-558.485	-82.684	-0.258	0.083
-557.471	-200.000	-0.021	-0.195
-556.456	-102.284	-0.121	0.029
-555.442	-97.525	-0.100	-0.026
-554.427	-97.708	0.526	0.135
-553.412	-40.963	-0.148	0.076
-552.398	-172.487	-0.189	-0.006
-551.383	-200.000	-0.031	0.144
-550.369	-200.000	0.002	-0.105
-549.354	-125.599	0.380	0.057
-548.339	800.000	-0.115	-0.326
-547.325	-200.000	0.017	-0.096
-546.310	-135.791	-0.327	-0.038
-545.296	-200.000	-0.002	-0.022
-544.281	-200.000	-0.156	0.001
-543.266	61.676	0.095	0.094
-542.252	-82.205	-0.366	-0.118
-541.237	472.267	0.099	-0.220
-540.223	5.171	-0.039	-0.028
-539.208	-102.170	0.447	0.106
-538.193	-5.873	-0.377	-0.255
-537.179	-88.029	-0.233	0.069
-536.164	-34.964	-0.119	-0.064
-535.150	-32.389	-0.154	0.085
-534.135	-151.469	0.152	-0.011
-533.121	800.000	-0.024	0.088
-532.106	-188.919	-0.236	0.003
-531.091	-33.589	0.064	0.035
-530.077	119.814	0.234	-0.286
-529.062	-200.000	0.012	0.311
-528.048	-26.345	0.043	-0.025
-527.033	800.000	-0.023	0.077
-526.018	374.388	-0.125	0.251
-525.004	-61.524	0.222	0.092
-523.989	-200.000	-0.065	-0.330
-522.975	-19.157	-0.187	0.115
-521.960	21.281	-0.135	0.109
-520.945	-200.000	0.029	-0.381
-519.931	-150.058	0.162	-0.012
-518.916	-27.773	-0.100	-0.057
-517.902	-81.457	0.229	-0.075
-516.887	119.504	0.127	-0.155
-515.872	-153.459	0.427	0.029
-514.858	91.035	0.017	0.018
-513.843	-22.245	-0.212	0.127
-512.829	174.946	-0.161	0.230
-511.814	319.114	-0.119	-0.224
-510.799	-74.318	0.188	-0.067
-509.785	800.000	-0.074	0.229
-508.770	-200.000	-0.007	-0.151
-507.756	-101.240	-0.055	-0.013
-506.741	-200.000	-0.018	-0.387
-505.726	9.009	-0.126	-0.094
-504.712	338.394	0.146	0.281
-503.697	14.438	0.077	-0.060
-502.683	71.679	0.112	-0.115
-501.668	392.503	0.068	0.140
-500.653	427.021	-0.026	-0.055
-499.639	-131.433	-0.309	-0.040
-498.624	-22.463	-0.200	0.119
-497.610	642.364	-0.077	0.194
-496.595	-125.733	-0.329	-0.049
-495.581	-200.000	0.011	-0.088
-494.566	-200.000	-0.016	-0.070
-493.551	800.000	0.051	0.185
-492.537	-200.000	0.011	-0.068
-491.522	-200.000	0.034	0.282
-490.508	-86.988	0.315	0.095
-489.493	-61.496	0.191	0.079
-488.478	423.475	-0.094	0.200
-487.464	-21.993	-0.219	0.131
-486.449	-39.972	0.090	-0.046
-485.435	-119.074	0.274	-0.047
-484.420	64.953	-0.215	-0.214
-483.405	-71.668	-0.171	-0.063
-482.391	-200.000	0.016	0.157
-481.376	223.197	-0.076	0.121
-480.362	800.000	0.116	-0.316
-479.347	7.639	-0.372	-0.274
-478.332	800.000	-0.052	-0.163
-477.318	-67.105	-0.277	-0.108
-476.303	223.695	-0.143	0.227
-475.289	311.025	0.106	0.197
-474.274	42.421	0.383	0.344
-473.259	-14.291	-0.293	0.186
-472.245	-22.263	-0.097	-0.058
-471.230	306.308	-0.072	-0.132
-470.216	1.625	0.248	-0.176
-469.201	151.181	0.149	0.200
-468.186	128.766	0.278	0.349
-467.172	-14.635	-0.154	-0.098
-466.157	-140.825	-0.160	0.016
-465.143	122.932	0.120	0.148
-464.128	49.140	-0.153	0.142
-463.113	23.240	-0.111	-0.090
-462.099	-147.325	-0.247	-0.021
-461.084	0.141	0.118	0.083
-460.070	-83.293	-0.051	0.016
-459.055	-163.404	-0.158	-0.007
-458.040	-95.324	0.167	0.044
-457.026	-136.364	-0.308	0.035
-456.011	-100.254	0.354	0.087
-454.997	-77.984	-0.297	0.101
-453.982	361.348	0.097	-0.191
-452.968	284.531	-0.164	-0.290
-451.953	-50.565	-0.377	-0.175
-450.938	-65.773	0.233	-0.092
-449.924	-200.000	0.004	0.133
-448.909	520.497	0.120	0.277
-447.895	43.519	-0.157	0.141
-446.880	236.007	0.100	0.162
-445.865	40.664	-0.118	-0.105
-444.851	-200.000	-0.008	-0.132
-443.836	-102.712	0.436	-0.102
-442.822	800.000	-0.030	-0.115
-441.807	-165.416	-0.143	0.006
-440.792	800.000	0.031	0.133
-439.778	32.041	-0.190	0.161
-438.763	658.365	-0.094	-0.237
-437.749	-102.484	0.158	0.037
-436.734	-36.074	0.398	-0.212
-435.719	800.000	0.058	0.191
-434.705	-72.567	-0.133	0.048
-433.690	-27.905	0.121	-0.069
-432.676	-200.000	0.022	-0.499
-431.661	188.897	0.047	0.070
-430.646	-200.000	-0.011	0.295
-429.632	-65.211	0.109	0.043
-428.617	-6.191	-0.475	-0.319
-427.603	800.000	0.085	0.344
-426.588	21.676	-0.162	0.130
-425.573	-70.904	0.111	-0.041
-424.559	73.321	0.127	-0.131
-423.544	399.354	0.114	-0.236
-422.530	-145.565	-0.123	-0.011
-421.515	231.056	0.171	0.276
-420.500	-44.534	0.182	0.090
-419.486	-200.000	-0.023	-0.105
-418.471	-118.211	0.306	0.054
-417.457	-200.000	0.054	-0.308
-416.442	-200.000	-0.023	0.329
-415.428	-28.634	0.088	0.050
-414.413	379.649	0.040	-0.080
-413.398	-200.000	0.036	-0.249
-412.384	211.789	0.030	-0.046
-411.369	18.122	0.275	-0.216
-410.355	800.000	-0.049	0.164
-409.340	101.072	-0.100	-0.115
-408.325	-78.485	-0.030	-0.010
-407.311	230.346	0.039	0.062
-406.296	800.000	-0.012	0.031
-405.282	800.000	0.069	-0.232
-404.267	-200.000	-0.013	0.098
-403.252	453.258	-0.046	-0.100
-402.238	-27.204	-0.112	-0.064
-401.223	-90.812	-0.268	0.076
-400.209	-72.007	0.341	0.125
-399.194	-125.803	0.210	0.031
-398.179	-157.540	-0.169	0.010
-397.165	71.325	-0.322	0.328
-396.150	800.000	0.043	-0.170
-395.136	-107.486	0.067	0.014
-394.121	800.000	-0.010	-0.040
-393.106	800.000	-0.006	0.019
-392.092	38.651	0.176	-0.154
-391.077	-166.566	0.114	-0.005
-390.063	-138.857	0.279	0.030
-389.048	800.000	0.051	-0.163
-388.033	800.000	0.039	-0.141
-387.019	-143.251	0.175	-0.017
-386.004	68.650	0.048	0.048
-384.990	-157.988	-0.289	0.017
-383.975	800.000	0.038	0.111
-382.960	657.287	0.111	-0.280
-381.946	791.788	-0.010	-0.027
-380.931	-77.505	-0.207	-0.071
-379.917	172.234	-0.118	-0.167
-378.902	160.565	-0.058	0.079
-377.888	800.000	-0.088	0.283
-376.873	-39.243	-0.380	-0.196
-375.858	25.720	0.053	0.044
-374.844	79.158	0.199	-0.210
-373.829	347.074	-0.035	0.067
-372.815	16.671	0.027	-0.021
-371.800	800.000	-0.074	0.218
-370.785	-28.619	-0.100	0.057
-369.771	57.412	0.085	0.082
-368.756	65.604	0.197	0.196
-367.742	737.155	-0.108	-0.284
-366.727	800.000	0.042	0.119
-365.712	-156.493	-0.065	-0.004
-364.698	20.261	-0.369	0.292
-363.683	800.000	0.006	0.020
-362.669	-184.753	-0.372	-0.006
-361.654	800.000	0.119	0.329
-360.639	800.000	0.076	0.305
-359.625	-111.480	-0.214	-0.043
-358.610	4.097	-0.115	0.082
-357.596	-57.938	0.225	0.096
-356.581	30.583	-0.042	-0.035
-355.566	-4.747	0.124	0.084
-354.552	-200.000	0.002	0.224
-353.537	-200.000	-0.043	0.529
-352.523	-144.827	0.283	-0.025
-351.508	209.581	-0.225	-0.347
-350.493	-32.801	-0.385	0.210
-349.479	8.691	0.137	0.101
-348.464	-69.478	0.252	-0.095
-347.450	800.000	-0.090	-0.243
-346.435	-154.140	0.530	-0.035
-345.420	-200.000	0.075	0.362
-344.406	-200.000	-0.140	0.000
-343.391	9.322	-0.449	0.333
-342.377	-60.092	-0.113	0.047
-341.362	-45.580	0.189	0.092
-340.348	18.677	-0.276	0.217
-339.333	-167.703	0.477	-0.019
-338.318	-172.770	-0.463	0.014
-337.304	-51.273	-0.105	-0.048
-336.289	94.860	0.252	0.281
-335.275	-117.927	0.376	-0.066
-334.260	28.696	0.125	-0.104
-333.245	37.422	-0.033	-0.028
-332.231	-23.528	-0.150	-0.088
-331.216	-90.448	-0.074	0.021
-330.202	103.024	0.103	-0.119
-329.187	800.000	0.190	0.541
-328.172	-200.000	0.069	0.316
-327.158	-7.507	-0.221	-0.147
-326.143	-118.426	-0.320	0.056
-325.129	-22.942	-0.252	-0.149
-324.114	20.813	-0.224	0.178
-323.099	-46.562	0.428	0.206
-322.085	-104.213	-0.326	0.074
-321.070	-200.000	-0.020	0.130
-320.056	-140.378	0.290	0.030
-319.041	-67.965	-0.159	0.061
-318.026	688.033	0.040	0.103
-317.012	-59.266	0.091	0.038
-315.997	-2.692	0.269	0.184
-314.983	17.718	0.077	0.060
-313.968	91.868	0.057	-0.063
-312.953	-200.000	-0.016	0.149
-311.939	800.000	0.024	0.076
-310.924	68.578	-0.260	-0.262
-309.910	24.471	0.121	-0.098
-308.895	17.662	-0.119	-0.093
-307.880	85.843	0.203	-0.219
-306.866	-93.121	0.195	0.053
-305.851	800.000	0.056	0.162
-304.837	-102.253	-0.312	-0.073
-303.822	-125.056	0.220	-0.033
-302.807	112.983	0.055	-0.065
-301.793	-177.262	-0.047	0.001
-300.778	-200.000	0.028	-0.321
-299.764	210.529	-0.079	-0.122
-298.749	-200.000	-0.034	-0.153
-297.735	-200.000	-0.057	-0.252
-296.720	-195.473	-0.246	-0.002
-295.705	-109.040	-0.168	0.035
-294.691	-200.000	0.014	0.233
-293.676	-59.977	0.286	0.120
-292.662	-200.000	-0.008	0.146
-291.647	-126.609	0.132	-0.019
-290.632	-82.846	0.048	-0.015
-289.618	-14.911	0.224	-0.140
-288.603	56.910	0.104	0.100
-287.589	-129.732	0.120	-0.016
-286.574	-67.787	0.142	0.054
-285.559	-97.538	-0.280	0.071
-284.545	-105.215	0.266	-0.060
-283.530	-119.037	0.349	-0.060
-282.516	800.000	-0.043	-0.119
-281.501	76.379	-0.153	0.159
-280.486	-200.000	-0.456	-0.002
-279.472	-105.832	-0.174	-0.038
-278.457	8.320	-0.068	-0.050
-277.443	800.000	0.044	-0.154
-276.428	800.000	0.031	-0.091
-275.413	-200.000	0.181	0.001
-274.399	-91.431	0.388	-0.109
-273.384	155.732	-0.100	-0.135
-272.370	-200.000	0.024	0.171
-271.355	114.364	-0.126	-0.150
-270.340	129.615	0.034	0.043
-269.326	203.014	-0.142	-0.215
-268.311	-34.259	-0.246	-0.132
-267.297	-151.315	0.302	-0.022
-266.282	-200.000	0.072	-0.310
-265.267	354.450	-0.147	0.286
-264.253	-200.000	0.002	0.223
-263.238	-20.718	-0.198	0.119
-262.224	-35.933	-0.288	-0.152
-261.209	-194.287	0.212	-0.002
-260.195	-85.722	-0.222	-0.068
-259.180	287.032	-0.064	0.113
-258.165	204.256	-0.202	-0.307
-257.151	-200.000	-0.011	0.271
-256.136	-114.446	-0.152	0.029
-255.122	-114.717	0.200	-0.037
-254.107	41.673	-0.442	-0.392
-253.092	-47.442	0.228	0.108
-252.078	-134.281	-0.122	0.015
-251.063	2.583	-0.076	-0.054
-250.049	288.585	0.015	-0.027
-249.034	639.221	-0.019	-0.047
-248.019	-55.082	-0.017	0.007
-247.005	-200.000	-0.002	-0.031
-245.990	16.817	0.376	-0.291
-244.976	-63.472	0.351	0.141
-243.961	800.000	0.080	0.279
-242.946	-54.860	-0.146	-0.064
-241.932	609.523	-0.090	0.220
-240.917	800.000	-0.138	-0.468
-239.903	-191.831	0.310	0.003
-238.888	-138.979	0.177	0.019
-237.873	-200.000	0.029	0.179
-236.859	136.357	0.111	0.141
-235.844	-20.806	-0.118	0.071
-234.830	-127.663	-0.137	0.019
-233.815	-141.027	0.286	-0.029
-232.800	340.389	-0.176	-0.336
-231.786	-54.108	-0.033	-0.015
-230.771	-200.000	-0.016	-0.137
-229.757	0.486	0.252	0.176
-228.742	-179.004	0.245	-0.005
-227.727	-200.000	-0.032	0.227
-226.713	-18.903	-0.080	-0.049
-225.698	613.221	-0.097	-0.238
-224.684	-200.000	-0.033	0.194
-223.669	39.735	0.032	0.028
-222.655	301.291	-0.035	0.063
-221.640	800.000	0.062	-0.178
-220.625	-176.458	0.409	0.010
-219.611	-114.497	-0.178	-0.033
-218.596	-81.690	0.083	0.027
-217.582	-87.339	0.264	-0.078
-216.567	-90.764	-0.176	-0.049
-215.552	800.000	0.090	-0.387
-214.538	-200.000	-0.011	0.238
-213.523	3.067	0.027	-0.019
-212.509	-8.044	-0.068	0.045
-211.494	177.358	0.063	0.089
-210.479	-79.164	0.215	-0.071
-209.465	-155.397	-0.267	-0.017
-208.450	177.688	-0.070	-0.099
-207.436	-200.000	0.027	-0.303
-206.421	-200.000	-0.082	-0.378
-205.406	0.918	-0.076	0.053
-204.392	-175.050	-0.187	-0.005
-203.377	47.504	0.088	-0.080
-202.363	-130.026	0.160	0.021
-201.348	-155.680	0.204	-0.013
-200.333	-200.000	-0.064	0.300
-199.319	-90.742	-0.213	-0.060
-198.304	-200.000	0.024	0.148
-197.290	-47.097	0.431	0.205
-196.275	-200.000	-0.025	0.296
-195.260	308.854	-0.098	-0.179
-194.246	322.585	0.057	0.106
-193.231	-102.578	0.141	-0.033
-192.217	305.376	0.129	-0.233
-191.202	-121.326	-0.088	-0.014
-190.187	-116.225	-0.254	0.046
-189.173	211.431	0.022	0.033
-188.158	-200.000	-0.004	0.231
-187.144	173.737	0.209	-0.294
-186.129	-106.416	-0.255	0.056
-185.114	800.000	-0.079	0.222
-184.100	800.000	-0.051	0.215
-183.085	-79.020	-0.276	0.091
-182.071	800.000	-0.078	0.214
-181.056	800.000	-0.083	-0.223
-180.042	-23.698	0.209	-0.122
-179.027	50.747	0.120	0.111
-178.012	800.000	-0.075	-0.241
-176.998	-163.734	0.198	0.009
-175.983	-200.000	-0.073	0.361
-174.969	344.754	-0.106	-0.202
-173.954	-83.045	0.283	0.089
-172.939	60.338	0.333	0.321
-171.925	525.628	-0.103	0.236
-170.910	251.920	0.109	-0.180
-169.896	152.945	-0.134	0.179
-168.881	-136.141	-0.091	-0.010
-167.866	-79.052	-0.153	0.051
-166.852	-55.364	0.195	-0.085
-165.837	-128.845	-0.135	0.019
-164.823	-200.000	0.007	0.052
-163.808	124.820	-0.189	0.232
-162.793	800.000	0.029	0.125
-161.779	-200.000	-0.022	-0.319
-160.764	600.695	-0.038	-0.093
-159.750	-27.036	0.246	-0.140
-158.735	74.339	-0.071	0.073
-157.720	-47.569	-0.373	0.176
-156.706	102.761	0.137	-0.156
-155.691	-58.041	-0.295	-0.125
-154.677	-200.000	-0.001	-0.074
-153.662	-95.120	-0.435	-0.114
-152.647	601.028	0.154	0.373
-151.633	-200.000	-0.010	0.112
-150.618	-18.907	0.261	-0.158
-149.604	45.085	0.163	0.147
-148.589	-184.078	0.164	-0.003
-147.574	491.968	0.040	0.090
-146.560	800.000	-0.047	0.198
-145.545	-200.000	-0.019	0.109
-144.531	48.525	-0.199	0.182
-143.516	800.000	-0.095	-0.258
-142.502	800.000	-0.076	0.239
-141.487	487.939	-0.130	-0.288
-140.472	-200.000	-0.050	-0.222
-139.458	800.000	0.043	-0.141
-138.443	54.635	0.265	0.248
-137.429	-108.281	-0.363	0.076
-136.414	-21.567	-0.119	-0.070
-135.399	-127.830	-0.103	0.015
-134.385	-30.107	0.179	-0.099
-133.370	-94.138	-0.356	0.095
-132.356	682.950	-0.015	-0.037
-131.341	28.419	0.268	0.220
-130.326	53.039	-0.253	-0.236
-129.312	-200.000	0.011	-0.204
-128.297	77.886	-0.184	0.191
-127.283	-99.103	0.070	0.017
-126.268	59.059	0.203	-0.194
-125.253	73.530	0.021	-0.022
-124.239	234.400	0.218	0.350
-123.224	-1.000	0.220	0.152
-122.210	-200.000	0.010	0.048
