DTS Sentinel unit serial number:	SN413079Multiplexer serial number:	ORYXHardware model number:	OX4-SRSoftware version number:	ORYX F/W v4.00 Oryx Data Collector v3.7.2.0data status	okinstallation	princeton_trtdifferential loss correction	single-endedforward channel	channel 2reverse channel	N/Adate	2019/09/14time	02:19:35forward acquisition time	60.00reverse acquisition time	0.00gamma	496.2192k internal	0.2337k external	0.2337temperature offset calibration	1.0126default loss term (dB/km)	0.3790temperature slope calibration	1.0000multiplexer offset coefficient	1.0000multiplexer slope coefficient	1.0000fibre end	0.00T internal ref (°C)	26.50T ext. ref 1 (°C)	3.23T ext. ref 2 (°C)	21.50length (m)	temperature (°C)	Stokes	anti-Stokes-747.200	362.468	-0.073	0.147
-746.185	-142.927	-0.187	0.018
-745.171	-47.052	-0.320	0.157
-744.156	-47.786	-0.108	-0.053
-743.142	532.746	-0.050	-0.120
-742.127	800.000	0.065	-0.180
-741.112	-94.723	-0.045	-0.012
-740.098	-200.000	-0.031	-0.235
-739.083	-200.000	0.031	-0.345
-738.069	148.669	-0.164	0.222
-737.054	44.684	-0.077	-0.071
-736.039	44.612	-0.181	-0.167
-735.025	94.457	0.126	0.144
-734.010	433.351	-0.085	-0.186
-732.996	-200.000	0.006	-0.164
-731.981	-11.878	-0.087	0.058
-730.966	342.834	-0.081	-0.158
-729.952	-176.830	0.274	-0.007
-728.937	-106.443	-0.444	-0.099
-727.923	-200.000	0.022	-0.288
-726.908	-41.563	0.033	0.017
-725.894	-142.547	0.226	0.022
-724.879	266.631	0.202	-0.353
-723.864	-20.034	0.221	-0.137
-722.850	220.308	0.097	-0.155
-721.835	-200.000	-0.011	-0.105
-720.821	61.684	-0.101	-0.101
-719.806	21.585	-0.116	0.094
-718.791	96.480	0.317	0.363
-717.777	9.451	0.161	-0.122
-716.762	633.028	0.013	0.033
-715.748	89.696	-0.185	0.207
-714.733	-133.424	-0.399	0.050
-713.718	366.102	0.128	-0.259
-712.704	-65.382	0.215	0.087
-711.689	3.518	0.090	0.066
-710.675	-200.000	-0.022	-0.115
-709.660	-183.565	-0.086	-0.001
-708.645	-200.000	0.051	-0.302
-707.631	227.792	0.121	0.197
-706.616	-177.505	-0.146	-0.004
-705.602	46.233	0.109	-0.101
-704.587	-174.747	0.162	0.005
-703.572	800.000	0.109	-0.424
-702.558	-67.959	-0.354	0.138
-701.543	800.000	0.113	-0.398
-700.529	378.859	-0.062	-0.128
-699.514	800.000	-0.071	-0.214
-698.499	800.000	0.050	-0.178
-697.485	-122.258	-0.111	-0.018
-696.470	-127.943	-0.345	-0.050
-695.456	-86.629	0.068	0.021
-694.441	344.819	-0.224	0.441
-693.426	-200.000	-0.046	0.280
-692.412	20.726	-0.170	-0.138
-691.397	-111.297	0.116	0.024
-690.383	-31.212	-0.163	0.092
-689.368	-200.000	0.010	0.180
-688.354	139.792	-0.113	0.149
-687.339	-200.000	-0.042	0.275
-686.324	-117.715	-0.108	0.019
-685.310	-200.000	-0.034	0.168
-684.295	192.167	-0.144	-0.218
-683.281	-20.756	0.114	-0.070
-682.266	-200.000	-0.013	-0.229
-681.251	-200.000	0.018	-0.203
-680.237	534.034	-0.022	0.053
-679.222	-107.876	-0.224	-0.049
-678.208	89.788	0.058	-0.065
-677.193	-79.177	0.136	-0.046
-676.178	-77.595	-0.437	-0.151
-675.164	101.326	-0.038	-0.044
-674.149	-18.559	-0.117	-0.073
-673.135	-9.599	-0.263	0.175
-672.120	104.076	0.051	0.060
-671.105	-200.000	-0.003	0.314
-670.091	-200.000	-0.004	-0.068
-669.076	-66.546	-0.233	-0.092
-668.062	-111.110	-0.152	-0.031
-667.047	102.721	-0.180	-0.211
-666.032	-26.328	-0.140	-0.082
-665.018	-25.251	0.210	-0.124
-664.003	20.164	0.136	0.109
-662.989	800.000	-0.041	0.161
-661.974	566.957	0.054	0.131
-660.959	-200.000	-0.008	0.248
-659.945	3.274	-0.201	-0.146
-658.930	63.058	-0.250	-0.251
-657.916	-200.000	0.016	-0.146
-656.901	-118.295	-0.390	-0.069
-655.886	-200.000	0.001	-0.213
-654.872	-119.977	0.088	0.015
-653.857	-200.000	0.046	-0.315
-652.843	510.506	-0.148	-0.344
-651.828	-83.035	-0.240	-0.077
-650.814	73.368	-0.160	-0.167
-649.799	-123.148	-0.210	0.034
-648.784	146.587	0.088	0.119
-647.770	327.138	-0.049	0.095
-646.755	-2.984	-0.376	-0.263
-645.741	134.985	-0.060	-0.078
-644.726	338.218	-0.075	-0.146
-643.711	-153.083	-0.251	0.018
-642.697	800.000	0.054	-0.226
-641.682	-200.000	0.039	-0.176
-640.668	-200.000	0.020	-0.090
-639.653	-95.424	0.216	-0.058
-638.638	5.811	-0.111	-0.082
-637.624	469.621	-0.100	-0.225
-636.609	258.604	0.149	0.257
-635.595	-97.849	0.022	0.006
-634.580	800.000	-0.045	-0.148
-633.565	360.404	-0.088	-0.175
-632.551	239.681	-0.051	-0.085
-631.536	653.581	0.087	-0.224
-630.522	-120.088	-0.182	-0.031
-629.507	404.287	-0.151	0.317
-628.492	-155.731	-0.183	0.012
-627.478	-200.000	0.018	0.175
-626.463	-32.185	-0.052	-0.029
-625.449	-84.092	0.096	-0.031
-624.434	65.000	-0.102	-0.103
-623.419	-200.000	-0.011	-0.073
-622.405	-200.000	-0.030	-0.141
-621.390	-93.902	0.153	0.042
-620.376	123.377	0.092	-0.115
-619.361	341.707	0.048	-0.094
-618.346	285.676	-0.187	0.337
-617.332	800.000	0.028	0.104
-616.317	-84.330	-0.130	0.041
-615.303	426.454	-0.108	-0.233
-614.288	-74.095	-0.139	-0.050
-613.273	195.668	0.105	-0.160
-612.259	124.934	-0.054	0.067
-611.244	-67.025	0.148	0.058
-610.230	193.509	-0.117	0.177
-609.215	-200.000	0.016	-0.360
-608.201	636.877	0.111	0.281
-607.186	30.896	0.043	-0.037
-606.171	-200.000	0.016	0.173
-605.157	23.413	0.185	-0.152
-604.142	-55.137	-0.093	0.042
-603.128	800.000	-0.057	-0.232
-602.113	800.000	-0.097	-0.347
-601.098	-30.419	0.052	0.029
-600.084	-200.000	-0.022	-0.327
-599.069	27.124	0.096	-0.080
-598.055	207.999	0.128	-0.200
-597.040	-181.917	-0.118	-0.002
-596.025	-113.638	0.274	-0.053
-595.011	800.000	-0.040	-0.151
-593.996	58.061	-0.136	-0.133
-592.982	-48.343	0.064	-0.031
-591.967	800.000	0.128	-0.464
-590.952	92.672	-0.146	-0.164
-589.938	-200.000	0.007	0.090
-588.923	-158.415	-0.100	0.006
-587.909	-139.740	0.273	0.029
-586.894	383.029	0.107	0.219
-585.879	800.000	0.038	-0.163
-584.865	800.000	0.082	0.357
-583.850	0.346	-0.099	-0.071
-582.836	-37.155	0.249	-0.133
-581.821	-38.031	-0.414	-0.219
-580.806	24.250	-0.345	0.284
-579.792	-200.000	0.025	0.148
-578.777	32.607	-0.235	0.203
-577.763	-20.444	-0.152	0.093
-576.748	-200.000	0.028	0.142
-575.733	-100.461	-0.243	0.060
-574.719	-71.104	-0.305	0.114
-573.704	-200.000	-0.021	0.179
-572.690	-159.017	0.544	-0.031
-571.675	231.135	0.085	0.140
-570.661	-40.456	-0.164	0.085
-569.646	-200.000	0.053	0.241
-568.631	13.530	-0.401	0.310
-567.617	100.454	0.102	0.118
-566.602	156.504	0.083	0.114
-565.588	-20.094	0.177	0.109
-564.573	-44.087	-0.139	-0.070
-563.558	-200.000	0.006	0.039
-562.544	28.069	0.373	-0.314
-561.529	-128.393	-0.306	0.043
-560.515	166.362	0.324	-0.458
-559.500	133.629	-0.162	-0.208
-558.485	-55.719	-0.223	0.099
-557.471	-105.702	-0.025	0.006
-556.456	-200.000	-0.005	0.117
-555.442	-63.084	-0.083	0.034
-554.427	-114.891	0.187	-0.035
-553.412	800.000	-0.129	-0.423
-552.398	-200.000	0.024	-0.210
-551.383	-50.555	-0.112	0.053
-550.369	-163.381	-0.150	0.007
-549.354	-129.041	0.035	-0.005
-548.339	327.658	0.254	0.485
-547.325	-48.135	-0.183	-0.088
-546.310	347.231	-0.106	0.207
-545.296	-11.789	-0.150	-0.098
-544.281	-100.766	-0.259	0.063
-543.266	-117.494	0.076	0.014
-542.252	86.650	-0.272	-0.299
-541.237	17.533	-0.168	-0.133
-540.223	240.057	0.131	0.217
-539.208	-103.243	0.188	0.044
-538.193	-63.947	-0.227	-0.093
-537.179	800.000	0.049	-0.204
-536.164	-200.000	-0.016	0.301
-535.150	-6.757	0.260	0.176
-534.135	120.472	-0.209	0.258
-533.121	333.833	-0.077	-0.148
-532.106	128.210	-0.130	-0.165
-531.091	-181.903	0.430	-0.008
-530.077	800.000	0.063	-0.226
-529.062	124.509	0.115	0.144
-528.048	54.140	-0.036	0.035
-527.033	-124.665	0.196	-0.030
-526.018	175.298	-0.033	-0.047
-525.004	-35.193	0.357	-0.194
-523.989	60.659	0.071	-0.070
-522.975	-82.985	0.290	-0.093
-521.960	70.787	0.099	0.102
-520.945	-114.165	-0.308	-0.059
-519.931	-128.481	0.375	0.053
-518.916	17.374	0.280	0.221
-517.902	140.360	0.156	0.205
-516.887	-129.632	-0.212	-0.029
-515.872	-200.000	-0.007	-0.236
-514.858	-43.622	-0.188	0.094
-513.843	-200.000	0.016	0.287
-512.829	800.000	0.051	-0.151
-511.814	800.000	-0.101	0.318
-510.799	222.013	0.071	-0.114
-509.785	-184.355	-0.347	-0.006
-508.770	-74.600	0.166	0.059
-507.756	-200.000	0.028	-0.204
-506.741	0.245	-0.225	0.159
-505.726	-92.640	-0.246	-0.069
-504.712	-77.801	0.525	-0.180
-503.697	-200.000	-0.002	0.041
-502.683	-138.272	-0.328	-0.036
-501.668	97.075	-0.158	-0.181
-500.653	126.074	-0.078	0.097
-499.639	139.047	0.138	-0.181
-498.624	-129.998	-0.213	0.029
-497.610	-36.400	-0.178	0.096
-496.595	800.000	0.043	0.177
-495.581	-104.753	-0.390	0.089
-494.566	606.519	-0.111	0.276
-493.551	55.872	-0.070	-0.068
-492.537	-200.000	-0.071	0.340
-491.522	-200.000	-0.005	0.072
-490.508	-200.000	-0.045	0.334
-489.493	-76.011	0.076	-0.027
-488.478	-162.817	-0.067	-0.003
-487.464	-200.000	0.047	0.326
-486.449	800.000	-0.067	0.238
-485.435	408.918	-0.089	0.188
-484.420	434.015	0.060	0.128
-483.405	800.000	-0.030	0.104
-482.391	-76.492	-0.314	-0.109
-481.376	-19.483	0.157	0.097
-480.362	382.575	-0.128	-0.261
-479.347	32.092	0.287	0.246
-478.332	-200.000	-0.026	0.112
-477.318	195.217	-0.148	-0.223
-476.303	-34.262	0.139	-0.076
-475.289	800.000	0.070	-0.284
-474.274	-107.783	-0.173	0.038
-473.259	-200.000	0.032	-0.201
-472.245	-200.000	-0.005	0.099
-471.230	-49.290	-0.320	0.152
-470.216	-200.000	0.021	0.308
-469.201	800.000	0.036	-0.100
-468.186	-122.977	0.444	-0.071
-467.172	345.618	0.114	0.222
-466.157	-84.806	-0.172	0.054
-465.143	-101.053	0.097	-0.024
-464.128	15.402	0.121	0.094
-463.113	-40.120	-0.318	-0.165
-462.099	-136.110	0.376	-0.044
-461.084	135.311	0.214	-0.277
-460.070	-166.553	0.068	0.003
-459.055	-104.790	0.040	-0.009
-458.040	28.338	0.238	-0.199
-457.026	-153.153	0.339	0.024
-456.011	299.968	0.148	0.271
-454.997	-124.585	0.138	-0.021
-453.982	-166.360	0.228	0.009
-452.968	-107.063	-0.284	-0.062
-451.953	-101.053	0.066	0.016
-450.938	744.065	0.016	0.042
-449.924	-63.921	-0.076	0.031
-448.909	56.257	-0.071	0.069
-447.895	227.738	0.158	0.255
-446.880	-26.804	-0.252	-0.146
-445.865	800.000	-0.019	-0.072
-444.851	292.446	-0.034	-0.062
-443.836	-94.241	-0.200	0.054
-442.822	102.065	0.168	-0.195
-441.807	-58.316	0.183	0.079
-440.792	192.296	-0.023	0.034
-439.778	620.963	-0.070	-0.175
-438.763	800.000	0.127	-0.349
-437.749	-72.956	0.096	-0.035
-436.734	-75.089	0.198	0.070
-435.719	-200.000	-0.002	0.270
-434.705	-200.000	0.084	-0.380
-433.690	800.000	-0.052	0.180
-432.676	433.922	-0.088	0.190
-431.661	-1.961	-0.379	-0.264
-430.646	-104.003	-0.173	-0.040
-429.632	800.000	0.070	0.193
-428.617	-14.854	-0.141	0.090
-427.603	8.322	-0.176	0.131
-426.588	76.135	-0.066	-0.069
-425.573	-96.264	-0.326	-0.086
-424.559	-92.477	0.369	0.103
-423.544	-89.891	0.363	-0.105
-422.530	-200.000	-0.039	0.246
-421.515	102.289	-0.144	-0.166
-420.500	-157.988	0.186	-0.011
-419.486	-163.916	0.042	-0.002
-418.471	611.113	0.051	-0.126
-417.457	191.429	-0.039	0.059
-416.442	88.360	-0.262	0.289
-415.428	800.000	-0.095	0.312
-414.413	-67.945	0.204	-0.079
-413.398	-200.000	0.029	-0.236
-412.384	276.483	-0.090	-0.158
-411.369	10.098	0.188	-0.142
-410.355	118.366	-0.014	0.018
-409.340	123.825	0.103	-0.128
-408.325	199.479	0.014	0.021
-407.311	-89.877	-0.250	0.072
-406.296	-16.273	0.244	-0.153
-405.282	732.460	0.115	-0.304
-404.267	-200.000	-0.008	0.089
-403.252	-200.000	0.026	-0.127
-402.238	-160.257	-0.349	0.019
-401.223	-200.000	-0.052	0.298
-400.209	-9.648	-0.352	-0.232
-399.194	145.864	0.174	0.231
-398.179	22.978	-0.079	-0.064
-397.165	203.231	0.103	-0.158
-396.150	-200.000	-0.069	-0.457
-395.136	-200.000	-0.097	-0.493
-394.121	-55.242	-0.304	0.135
-393.106	283.131	-0.164	0.291
-392.092	-200.000	0.065	-0.288
-391.077	800.000	0.058	-0.196
-390.063	175.083	0.091	0.131
-389.048	744.962	-0.073	0.194
-388.033	-200.000	0.023	0.173
-387.019	-35.015	0.134	-0.072
-386.004	-106.929	0.284	0.062
-384.990	-200.000	-0.021	-0.318
-383.975	-127.718	0.393	0.056
-382.960	-74.011	-0.114	-0.041
-381.946	-99.769	0.022	-0.006
-380.931	115.450	0.193	-0.233
-379.917	-148.803	-0.222	-0.018
-378.902	-200.000	0.038	-0.176
-377.888	-58.998	0.032	0.013
-376.873	-75.148	-0.114	-0.040
-375.858	800.000	0.042	-0.160
-374.844	-47.237	-0.184	0.089
-373.829	342.868	0.216	0.418
-372.815	-144.247	-0.381	0.035
-371.800	-19.009	-0.209	-0.129
-370.785	-71.445	0.188	-0.070
-369.771	593.937	0.066	0.162
-368.756	-95.854	0.340	0.090
-367.742	16.024	0.154	-0.120
-366.727	-200.000	0.028	0.578
-365.712	-93.340	0.091	-0.025
-364.698	-139.229	0.134	0.014
-363.683	-132.573	0.106	0.013
-362.669	81.447	-0.239	-0.255
-361.654	85.520	-0.153	-0.166
-360.639	-142.021	0.231	0.023
-359.625	21.851	-0.167	0.134
-358.610	322.804	-0.123	0.232
-357.596	-78.423	0.251	0.085
-356.581	800.000	0.065	-0.212
-355.566	-200.000	0.004	-0.035
-354.552	-158.235	-0.059	-0.003
-353.537	249.967	-0.054	-0.091
-352.523	-200.000	-0.058	-0.255
-351.508	149.058	-0.029	-0.039
-350.493	560.304	-0.021	0.050
-349.479	91.032	-0.167	0.186
-348.464	-68.513	-0.195	0.075
-347.450	203.096	-0.186	-0.285
-346.435	204.451	-0.043	-0.066
-345.420	-160.076	0.165	0.009
-344.406	-115.281	-0.225	-0.042
-343.391	73.205	-0.158	0.164
-342.377	19.560	-0.121	0.096
-341.362	-146.726	0.220	0.019
-340.348	800.000	0.016	0.047
-339.333	800.000	0.021	0.084
-338.318	-3.798	-0.138	0.094
-337.304	575.209	-0.018	0.044
-336.289	119.519	0.072	0.088
-335.275	-114.555	-0.146	0.028
-334.260	-49.054	0.295	-0.139
-333.245	365.146	0.048	0.096
-332.231	-1.583	0.113	-0.079
-331.216	-113.188	0.240	-0.047
-330.202	125.297	-0.221	0.276
-329.187	-200.000	-0.021	-0.123
-328.172	87.135	0.175	0.191
-327.158	-200.000	0.016	0.380
-326.143	29.334	0.191	0.160
-325.129	-17.877	0.250	0.155
-324.114	494.857	0.106	0.241
-323.099	72.714	-0.262	-0.270
-322.085	800.000	-0.050	-0.208
-321.070	-53.568	-0.042	0.019
-320.056	-3.739	0.170	-0.116
-319.041	-200.000	-0.017	-0.201
-318.026	137.942	0.044	-0.057
-317.012	37.865	-0.179	0.157
-315.997	442.231	0.122	-0.263
-314.983	800.000	0.017	-0.060
-313.968	-52.116	0.247	-0.113
-312.953	61.106	-0.306	0.300
-311.939	640.793	-0.032	0.080
-310.924	348.069	-0.150	-0.293
-309.910	-71.541	0.075	0.028
-308.895	-114.584	-0.144	0.027
-307.880	-3.502	-0.022	0.015
-306.866	425.688	-0.135	0.287
-305.851	169.217	0.205	0.289
-304.837	-99.267	0.092	0.023
-303.822	-71.814	0.076	-0.028
-302.807	593.087	0.097	0.237
-301.793	-78.971	0.266	-0.089
-300.778	800.000	-0.057	-0.225
-299.764	154.665	-0.118	-0.160
-298.749	-132.384	0.167	0.021
-297.735	-73.676	0.213	-0.077
-296.720	-63.665	-0.164	0.066
-295.705	-22.866	0.168	0.100
-294.691	-108.652	0.209	-0.044
-293.676	-63.375	-0.304	-0.124
-292.662	800.000	0.053	0.190
-291.647	48.551	-0.056	-0.052
-290.632	223.545	-0.171	0.272
-289.618	261.360	-0.188	0.322
-288.603	261.065	-0.082	0.140
-287.589	56.551	-0.082	0.079
-286.574	800.000	-0.067	0.283
-285.559	247.731	-0.177	0.294
-284.545	-113.160	-0.103	0.020
-283.530	210.358	0.090	0.140
-282.516	800.000	0.022	0.092
-281.501	164.784	0.115	-0.160
-280.486	800.000	0.077	-0.251
-279.472	-4.663	0.182	-0.124
-278.457	-80.142	0.096	0.032
-277.443	-59.815	-0.248	-0.104
-276.428	-200.000	-0.025	0.115
-275.413	27.890	0.349	-0.290
-274.399	53.904	0.086	-0.081
-273.384	-200.000	0.001	-0.121
-272.370	800.000	-0.023	-0.100
-271.355	-5.764	-0.296	-0.199
-270.340	272.451	-0.172	0.299
-269.326	-13.382	-0.251	-0.160
-268.311	-82.589	-0.042	-0.014
-267.297	-200.000	-0.028	0.317
-266.282	-58.185	-0.350	-0.150
-265.267	-55.955	-0.344	-0.151
-264.253	337.602	-0.078	-0.149
-263.238	-13.920	0.104	-0.066
-262.224	-15.502	0.234	-0.147
-261.209	-89.730	0.365	0.105
-260.195	800.000	0.068	-0.231
-259.180	-28.032	-0.246	-0.140
-258.165	285.298	0.102	0.181
-257.151	302.287	-0.110	0.201
-256.136	-200.000	0.012	-0.262
-255.122	-200.000	-0.032	-0.325
-254.107	-200.000	-0.009	0.163
-253.092	800.000	0.110	0.392
-252.078	336.285	0.091	0.174
-251.063	117.444	-0.281	-0.341
-250.049	325.827	0.052	-0.097
-249.034	1.180	-0.319	-0.225
-248.019	43.110	-0.117	0.105
-247.005	172.174	-0.039	0.055
-245.990	-47.181	-0.075	0.036
-244.976	17.607	0.083	-0.065
-243.961	-12.830	0.174	0.111
-242.946	800.000	-0.018	-0.072
-241.932	-200.000	-0.032	-0.146
-240.917	-104.628	-0.136	0.031
-239.903	469.201	-0.203	0.449
-238.888	800.000	0.090	0.323
-237.873	-77.295	0.192	-0.066
-236.859	99.059	0.102	-0.116
-235.844	-200.000	-0.014	-0.187
-234.830	800.000	0.093	-0.323
-233.815	-116.098	-0.158	-0.029
-232.800	-135.279	0.205	-0.024
-231.786	-4.012	-0.170	0.116
-230.771	-118.290	-0.106	0.019
-229.757	800.000	0.038	0.136
-228.742	21.986	0.088	-0.071
-227.727	-40.373	-0.288	-0.147
-226.713	124.455	0.109	-0.135
-225.698	26.755	0.381	0.314
-224.684	-200.000	-0.093	-0.000
-223.669	772.044	0.149	0.399
-222.655	-76.502	-0.192	0.066
-221.640	-72.872	-0.265	-0.096
-220.625	-200.000	0.082	0.439
-219.611	369.340	-0.007	-0.014
-218.596	-145.055	-0.031	-0.003
-217.582	559.705	-0.036	0.085
-216.567	620.022	-0.107	0.264
-215.552	-57.999	-0.208	-0.089
-214.538	800.000	0.043	0.171
-213.523	-200.000	0.017	-0.233
-212.509	-137.279	-0.159	-0.018
-211.494	800.000	-0.079	-0.235
-210.479	86.211	0.154	-0.166
-209.465	-4.642	0.262	-0.178
-208.450	113.515	-0.265	0.316
-207.436	-200.000	0.272	-0.000
-206.421	-200.000	-0.005	0.458
-205.406	710.503	0.007	0.018
-204.392	18.736	0.120	-0.095
-203.377	687.602	0.098	-0.253
-202.363	-200.000	-0.026	0.465
-201.348	-77.920	0.259	-0.088
-200.333	212.803	0.157	0.243
-199.319	83.181	-0.136	0.145
-198.304	800.000	0.152	-0.542
-197.290	55.637	-0.106	0.101
-196.275	-2.302	0.103	0.071
-195.260	-13.249	0.165	0.105
-194.246	-62.017	-0.054	0.022
-193.231	-163.204	0.421	0.020
-192.217	-95.723	0.197	0.052
-191.202	7.741	-0.245	0.181
-190.187	-200.000	-0.031	-0.139
-189.173	-106.344	0.207	0.046
-188.158	-135.503	0.219	-0.026
-187.144	-141.955	0.012	-0.001
-186.129	65.210	0.089	-0.088
-185.114	283.865	0.175	-0.310
-184.100	-78.254	0.095	-0.032
-183.085	-101.516	0.307	-0.073
-182.071	34.746	-0.269	-0.231
-181.056	186.267	-0.234	-0.342
-180.042	800.000	0.013	0.045
-179.027	-150.461	-0.143	0.011
-178.012	800.000	0.033	-0.111
-176.998	68.282	0.162	0.163
-175.983	-11.264	-0.132	0.085
-174.969	242.540	0.086	0.142
-173.954	-200.000	0.037	-0.250
-172.939	73.687	0.131	0.135
-171.925	-200.000	0.011	0.193
-170.910	178.414	0.175	-0.251
-169.896	-200.000	0.008	0.079
-168.881	-74.884	-0.339	-0.119
-167.866	-200.000	0.043	0.215
-166.852	-54.133	0.233	0.104
-165.837	204.027	0.015	-0.023
-164.823	-32.114	0.211	-0.116
-163.808	336.288	0.080	-0.153
-162.793	51.955	0.191	-0.179
-161.779	-39.237	0.304	-0.156
-160.764	-49.306	0.257	-0.120
-159.750	558.199	-0.040	-0.094
-158.735	-200.000	0.012	-0.210
-157.720	617.228	0.193	0.475
-156.706	-200.000	0.050	0.268
-155.691	-200.000	-0.050	-0.321
-154.677	800.000	-0.043	0.137
-153.662	-200.000	0.001	0.151
-152.647	-61.327	-0.108	-0.045
-151.633	-28.519	-0.067	0.038
-150.618	-200.000	0.004	-0.120
-149.604	800.000	-0.044	0.174
-148.589	800.000	-0.043	-0.145
-147.574	-117.826	0.162	-0.028
-146.560	10.101	-0.157	0.117
-145.545	-200.000	0.019	0.352
-144.531	-200.000	-0.015	0.115
-143.516	126.568	-0.235	0.292
-142.502	-155.626	-0.318	0.020
-141.487	-200.000	0.010	0.140
-140.472	23.613	-0.015	-0.012
-139.458	800.000	-0.118	-0.355
-138.443	29.379	-0.116	-0.096
-137.429	-109.638	-0.070	0.015
-136.414	-72.910	0.056	-0.020
-135.399	-28.880	0.134	0.075
-134.385	463.279	-0.097	0.212
-133.370	218.013	0.147	0.230
-132.356	-128.102	-0.351	0.049
-131.341	21.261	0.281	0.224
-130.326	-176.230	-0.330	-0.008
-129.312	-200.000	-0.014	-0.063
-128.297	-200.000	-0.015	-0.078
-127.283	404.807	0.028	-0.059
-126.268	674.048	-0.030	0.077
-125.253	-200.000	-0.024	0.104
-124.239	-1.782	-0.108	0.075
-123.224	-145.797	0.276	0.024
-122.210	165.046	-0.103	-0.143
