DTS Sentinel unit serial number:	SN413079Multiplexer serial number:	ORYXHardware model number:	OX4-SRSoftware version number:	ORYX F/W v4.00 Oryx Data Collector v3.7.2.0data status	okinstallation	princeton_trtdifferential loss correction	single-endedforward channel	channel 2reverse channel	N/Adate	2019/09/12time	09:13:11forward acquisition time	60.00reverse acquisition time	0.00gamma	496.2192k internal	0.2316k external	0.2316temperature offset calibration	1.0062default loss term (dB/km)	0.3790temperature slope calibration	1.0000multiplexer offset coefficient	1.0000multiplexer slope coefficient	1.0000fibre end	0.00T internal ref (°C)	34.72T ext. ref 1 (°C)	1.80T ext. ref 2 (°C)	33.09length (m)	temperature (°C)	Stokes	anti-Stokes-747.200	-200.000	-0.065	0.378
-746.185	800.000	-0.027	0.087
-745.171	-184.788	-0.106	0.002
-744.156	800.000	-0.094	0.285
-743.142	-96.799	-0.135	0.036
-742.127	-6.114	-0.057	0.039
-741.112	-164.859	-0.158	-0.007
-740.098	202.596	0.085	0.133
-739.083	55.446	-0.116	0.114
-738.069	43.432	0.296	0.274
-737.054	194.258	0.022	0.033
-736.039	-76.367	-0.128	-0.045
-735.025	-158.474	0.394	-0.023
-734.010	196.450	-0.153	-0.235
-732.996	196.037	-0.182	-0.280
-731.981	-7.566	0.388	0.266
-730.966	149.994	-0.003	-0.004
-729.952	-59.089	-0.256	0.112
-728.937	300.510	-0.163	-0.305
-727.923	-75.334	-0.255	-0.092
-726.908	-170.860	-0.524	0.018
-725.894	63.025	0.051	-0.051
-724.879	59.717	0.182	0.182
-723.864	-200.000	-0.035	-0.198
-722.850	52.204	-0.201	0.194
-721.835	-54.296	-0.119	0.055
-720.821	377.244	0.117	-0.243
-719.806	-200.000	-0.003	0.036
-718.791	-112.716	-0.270	0.054
-717.777	623.054	0.033	-0.084
-716.762	20.103	-0.177	-0.144
-715.748	-48.672	-0.117	-0.057
-714.733	1.802	0.147	-0.107
-713.718	-5.278	-0.215	-0.149
-712.704	-200.000	0.010	-0.181
-711.689	-200.000	-0.006	0.106
-710.675	-140.208	-0.342	0.036
-709.660	-135.100	0.295	0.036
-708.645	-28.766	-0.280	0.163
-707.631	-177.379	0.122	-0.003
-706.616	-133.254	-0.186	-0.024
-705.602	777.452	0.099	0.274
-704.587	-168.974	-0.092	-0.003
-703.572	-30.647	-0.132	-0.075
-702.558	-8.048	-0.228	0.156
-701.543	9.623	-0.127	-0.098
-700.529	-136.048	-0.122	-0.014
-699.514	-80.573	0.322	-0.108
-698.499	800.000	-0.086	0.378
-697.485	-75.741	-0.202	-0.072
-696.470	-38.744	-0.355	-0.190
-695.456	800.000	-0.117	-0.458
-694.441	-1.822	-0.049	-0.035
-693.426	79.359	-0.117	0.127
-692.412	800.000	0.062	-0.234
-691.397	124.145	0.130	0.166
-690.383	-87.239	-0.125	-0.038
-689.368	-8.179	0.241	0.164
-688.354	-29.807	-0.053	-0.031
-687.339	-46.739	-0.200	-0.099
-686.324	800.000	-0.048	0.178
-685.310	800.000	0.019	0.066
-684.295	-124.120	-0.232	-0.037
-683.281	800.000	-0.052	0.190
-682.266	-200.000	0.005	-0.049
-681.251	800.000	0.058	0.213
-680.237	-41.211	0.284	0.148
-679.222	-105.303	0.185	-0.043
-678.208	-200.000	-0.030	-0.236
-677.193	-70.200	0.070	-0.027
-676.178	-19.721	0.146	0.091
-675.164	364.170	-0.178	0.361
-674.149	-110.669	-0.150	0.031
-673.135	114.363	-0.025	0.031
-672.120	-200.000	-0.018	-0.271
-671.105	-126.971	0.196	0.029
-670.091	800.000	-0.020	0.087
-669.076	-107.714	-0.383	-0.084
-668.062	-59.580	-0.077	0.033
-667.047	206.047	-0.135	-0.213
-666.032	-136.836	0.146	0.017
-665.018	526.447	-0.089	-0.212
-664.003	698.258	0.084	0.223
-662.989	-200.000	-0.003	0.156
-661.974	103.334	0.119	-0.141
-660.959	71.062	0.213	-0.223
-659.945	-124.013	-0.182	0.029
-658.930	-28.954	-0.134	0.078
-657.916	389.138	-0.085	0.179
-656.901	-200.000	-0.005	0.232
-655.886	106.250	-0.107	0.128
-654.872	-38.091	-0.489	-0.262
-653.857	118.035	-0.037	-0.047
-652.843	-200.000	0.045	0.000
-651.828	800.000	0.055	-0.205
-650.814	124.821	0.119	0.151
-649.799	800.000	0.053	-0.154
-648.784	0.503	-0.150	-0.108
-647.770	16.291	0.113	-0.090
-646.755	-135.315	0.293	0.035
-645.741	113.865	0.324	-0.397
-644.726	-200.000	0.044	-0.522
-643.711	-59.937	0.113	-0.049
-642.697	-185.603	-0.151	-0.002
-641.682	-16.433	0.284	-0.182
-640.668	-200.000	0.016	-0.095
-639.653	-200.000	0.027	-0.174
-638.638	-128.464	-0.365	0.052
-637.624	800.000	-0.007	0.029
-636.609	-200.000	0.010	0.048
-635.595	743.623	-0.014	0.039
-634.580	-84.473	0.272	-0.087
-633.565	327.587	0.160	-0.310
-632.551	800.000	-0.025	0.076
-631.536	-78.835	0.112	0.038
-630.522	-5.656	-0.233	0.161
-629.507	-200.000	0.001	-0.011
-628.492	-75.497	0.197	-0.071
-627.478	-99.073	0.301	-0.077
-626.463	-200.000	-0.080	-0.362
-625.449	-3.604	-0.089	-0.062
-624.434	127.831	0.036	0.046
-623.419	295.683	0.103	-0.190
-622.405	800.000	-0.078	0.236
-621.390	-59.182	0.336	-0.146
-620.376	-30.511	-0.426	0.243
-619.361	-200.000	-0.009	0.172
-618.346	-170.434	0.095	-0.003
-617.332	-71.447	-0.180	-0.068
-616.317	0.108	-0.205	-0.147
-615.303	-62.891	-0.253	-0.105
-614.288	150.564	0.092	-0.125
-613.273	-189.889	0.202	-0.002
-612.259	-109.788	0.251	0.053
-611.244	21.541	0.231	-0.189
-610.230	229.760	-0.038	-0.063
-609.215	434.552	-0.222	-0.487
-608.201	-6.398	0.282	0.194
-607.186	-49.422	-0.509	-0.244
-606.171	66.174	-0.166	-0.170
-605.157	77.763	-0.076	0.081
-604.142	-44.906	0.236	-0.118
-603.128	-56.602	-0.276	0.123
-602.113	421.569	0.159	0.344
-601.098	800.000	-0.055	-0.158
-600.084	174.579	0.087	-0.127
-599.069	608.037	-0.090	0.227
-598.055	-200.000	0.000	0.227
-597.040	-115.940	-0.300	-0.056
-596.025	-200.000	-0.070	-0.362
-595.011	-50.248	0.113	-0.054
-593.996	-200.000	-0.032	-0.270
-592.982	-200.000	-0.037	-0.242
-591.967	234.816	-0.096	-0.160
-590.952	800.000	0.054	-0.207
-589.938	266.073	0.163	-0.287
-588.923	800.000	-0.152	-0.434
-587.909	-90.268	-0.226	0.066
-586.894	-200.000	-0.021	-0.115
-585.879	800.000	0.093	-0.347
-584.865	-159.904	0.303	0.017
-583.850	-103.381	-0.055	-0.013
-582.836	800.000	0.065	-0.237
-581.821	73.062	0.087	0.092
-580.806	-200.000	-0.047	-0.250
-579.792	-48.877	-0.238	-0.115
-578.777	800.000	-0.052	0.156
-577.763	220.478	-0.118	0.190
-576.748	800.000	-0.056	0.189
-575.733	15.638	0.234	-0.185
-574.719	-71.079	-0.457	-0.173
-573.704	-154.614	-0.154	0.010
-572.690	467.815	-0.088	-0.198
-571.675	-32.136	0.080	0.045
-570.661	-85.826	-0.166	0.052
-569.646	127.143	0.188	-0.240
-568.631	-22.423	0.141	0.086
-567.617	-75.776	-0.320	-0.114
-566.602	-200.000	0.025	-0.332
-565.588	0.415	-0.107	-0.077
-564.573	-34.526	0.036	0.020
-563.558	-42.622	-0.209	-0.107
-562.544	-195.330	-0.149	0.001
-561.529	-155.089	-0.105	0.007
-560.515	247.963	-0.122	-0.208
-559.500	-31.757	-0.197	0.111
-558.485	-200.000	-0.055	0.284
-557.471	-123.459	-0.114	0.018
-556.456	-18.938	0.064	-0.040
-555.442	800.000	0.041	-0.140
-554.427	709.099	-0.045	0.121
-553.412	-149.614	-0.104	-0.008
-552.398	-20.364	0.146	0.090
-551.383	43.411	-0.195	0.179
-550.369	-132.072	-0.139	-0.018
-549.354	-35.914	0.064	0.035
-548.339	-200.000	-0.007	-0.167
-547.325	-5.712	-0.258	0.178
-546.310	-200.000	-0.033	0.191
-545.296	800.000	0.050	-0.193
-544.281	188.658	-0.078	0.117
-543.266	800.000	0.108	0.352
-542.252	-26.158	0.219	-0.129
-541.237	-200.000	-0.049	0.240
-540.223	-17.232	0.047	0.030
-539.208	800.000	0.011	0.041
-538.193	-62.235	0.083	-0.035
-537.179	-200.000	0.026	0.199
-536.164	28.072	0.354	0.300
-535.150	-100.129	0.100	-0.025
-534.135	19.336	-0.176	-0.142
-533.121	37.858	-0.035	0.032
-532.106	68.998	-0.034	-0.036
-531.091	227.622	0.117	0.191
-530.077	-31.926	-0.326	0.183
-529.062	-200.000	-0.080	0.406
-528.048	-79.026	-0.154	0.053
-527.033	32.647	-0.119	-0.103
-526.018	298.099	-0.177	0.327
-525.004	382.419	-0.100	-0.206
-523.989	-123.868	0.433	-0.069
-522.975	-6.735	-0.290	0.198
-521.960	-43.068	-0.529	-0.269
-520.945	-200.000	-0.014	-0.070
-519.931	76.147	-0.048	-0.051
-518.916	178.210	0.102	-0.149
-517.902	-119.755	-0.274	0.047
-516.887	-158.442	-0.177	0.010
-515.872	17.306	0.156	0.124
-514.858	-200.000	0.031	0.231
-513.843	-200.000	0.079	0.503
-512.829	29.168	0.175	0.149
-511.814	443.933	-0.147	-0.325
-510.799	52.620	0.135	-0.129
-509.785	409.415	0.154	-0.327
-508.770	-200.000	0.064	0.373
-507.756	-105.708	0.264	0.060
-506.741	-22.822	-0.288	0.175
-505.726	-137.422	-0.215	0.024
-504.712	-151.481	-0.023	-0.002
-503.697	-161.096	0.027	-0.001
-502.683	8.133	-0.286	0.215
-501.668	-200.000	-0.008	0.157
-500.653	102.939	-0.211	0.248
-499.639	14.002	-0.231	-0.180
-498.624	-12.605	0.229	-0.150
-497.610	374.179	0.058	-0.118
-496.595	-40.078	-0.304	0.159
-495.581	-200.000	-0.041	-0.392
-494.566	-10.664	0.207	0.137
-493.551	31.131	-0.047	0.041
-492.537	43.555	0.200	0.183
-491.522	-167.878	0.566	-0.022
-490.508	275.872	-0.113	0.201
-489.493	-125.098	0.095	0.015
-488.478	-200.000	0.033	-0.270
-487.464	445.454	-0.088	0.194
-486.449	-200.000	0.007	-0.285
-485.435	-88.830	-0.236	-0.070
-484.420	767.355	0.063	-0.171
-483.405	12.221	-0.227	0.176
-482.391	800.000	-0.069	-0.235
-481.376	-52.256	-0.168	-0.078
-480.362	-85.056	-0.281	-0.088
-479.347	-200.000	-0.038	0.487
-478.332	-200.000	-0.036	0.314
-477.318	-200.000	-0.020	-0.386
-476.303	176.293	0.148	-0.215
-475.289	-200.000	0.000	0.069
-474.274	-20.456	0.154	0.095
-473.259	54.835	-0.188	0.182
-472.245	-113.815	-0.219	0.043
-471.230	114.410	0.144	0.176
-470.216	382.249	-0.135	0.279
-469.201	-184.035	-0.270	0.005
-468.186	253.541	0.097	-0.167
-467.172	-119.365	0.391	0.068
-466.157	-200.000	0.021	-0.252
-465.143	752.238	-0.086	0.233
-464.128	-117.232	0.206	-0.037
-463.113	-26.568	0.104	-0.061
-462.099	-83.942	-0.121	0.039
-461.084	-88.222	0.355	0.106
-460.070	132.103	0.102	0.132
-459.055	756.650	-0.056	-0.152
-458.040	109.972	0.311	0.373
-457.026	800.000	0.093	-0.300
-456.011	13.228	-0.069	-0.053
-454.997	-200.000	0.326	0.000
-453.982	-28.791	0.097	0.056
-452.968	-69.989	0.097	0.037
-451.953	-200.000	-0.015	0.236
-450.938	35.414	-0.085	0.075
-449.924	-74.613	-0.122	-0.044
-448.909	197.956	-0.103	0.157
-447.895	63.680	0.123	0.123
-446.880	-176.420	-0.329	-0.009
-445.865	51.074	0.166	0.157
-444.851	3.454	-0.273	-0.199
-443.836	269.060	0.037	0.065
-442.822	-200.000	0.035	-0.178
-441.807	-200.000	-0.039	-0.264
-440.792	-141.475	0.342	-0.035
-439.778	-200.000	0.008	-0.140
-438.763	-200.000	-0.014	0.241
-437.749	31.667	-0.210	0.181
-436.734	-37.753	0.283	-0.151
-435.719	800.000	-0.048	0.159
-434.705	-200.000	-0.013	0.078
-433.690	-116.365	0.161	0.030
-432.676	57.524	0.210	0.205
-431.661	-146.582	0.190	0.017
-430.646	57.556	-0.144	0.141
-429.632	53.948	0.199	-0.191
-428.617	800.000	0.012	0.045
-427.603	-43.006	-0.128	-0.065
-426.588	-6.781	-0.030	0.021
-425.573	-200.000	0.014	0.136
-424.559	-51.597	-0.134	-0.063
-423.544	-67.957	-0.083	0.033
-422.530	-200.000	0.028	-0.234
-421.515	-200.000	0.014	-0.104
-420.500	800.000	-0.042	0.145
-419.486	-4.420	0.365	-0.252
-418.471	-53.576	-0.118	-0.054
-417.457	47.832	0.097	0.091
-416.442	-200.000	0.014	0.077
-415.428	-100.226	0.298	-0.074
-414.413	130.275	0.228	0.291
-413.398	292.909	0.169	-0.308
-412.384	-18.065	0.371	0.233
-411.369	-78.900	-0.258	-0.088
-410.355	-79.040	0.238	0.081
-409.340	-127.325	0.058	-0.008
-408.325	116.368	-0.075	0.092
-407.311	308.757	-0.208	-0.389
-406.296	317.936	-0.017	0.033
-405.282	64.768	0.096	0.097
-404.267	106.634	0.047	-0.055
-403.252	177.571	0.103	-0.150
-402.238	-148.038	-0.071	-0.006
-401.223	800.000	0.027	-0.096
-400.209	142.847	0.306	0.407
-399.194	352.984	0.179	-0.354
-398.179	-125.093	0.186	-0.029
-397.165	199.673	0.027	0.042
-396.150	739.987	0.136	0.366
-395.136	42.820	0.190	0.173
-394.121	57.748	-0.375	0.367
-393.106	521.226	-0.027	-0.064
-392.092	-134.719	0.216	-0.026
-391.077	-200.000	-0.029	0.137
-390.063	144.380	-0.050	-0.066
-389.048	800.000	-0.030	0.126
-388.033	178.109	-0.246	-0.359
-387.019	179.764	0.199	-0.292
-386.004	-85.385	-0.098	0.031
-384.990	477.178	0.011	0.025
-383.975	47.730	-0.152	0.142
-382.960	618.220	-0.061	-0.154
-381.946	-19.353	0.154	0.095
-380.931	130.482	-0.072	-0.092
-379.917	-5.946	0.038	0.026
-378.902	-200.000	0.005	-0.091
-377.888	-90.840	0.081	-0.023
-376.873	-131.140	-0.238	-0.032
-375.858	800.000	-0.193	-0.568
-374.844	243.640	0.122	0.204
-373.829	41.559	0.117	0.105
-372.815	-37.445	-0.117	-0.063
-371.800	36.503	-0.128	0.113
-370.785	-93.490	-0.192	-0.053
-369.771	67.948	0.088	0.090
-368.756	267.249	-0.146	-0.255
-367.742	136.544	-0.276	-0.360
-366.727	66.991	-0.144	0.147
-365.712	-200.000	-0.030	-0.139
-364.698	134.657	0.379	0.491
-363.683	243.407	-0.213	0.356
-362.669	54.397	-0.037	-0.035
-361.654	-200.000	-0.037	0.506
-360.639	800.000	-0.126	0.388
-359.625	10.858	0.097	-0.074
-358.610	347.269	-0.201	-0.395
-357.596	452.493	0.074	-0.163
-356.581	577.731	-0.134	0.327
-355.566	-200.000	-0.038	0.200
-354.552	256.529	-0.070	-0.119
-353.537	148.232	0.268	0.361
-352.523	-6.706	-0.147	0.100
-351.508	82.402	0.103	-0.112
-350.493	-135.793	0.048	-0.006
-349.479	-200.000	0.001	0.124
-348.464	487.208	-0.095	-0.216
-347.450	-200.000	-0.002	-0.013
-346.435	800.000	0.070	-0.202
-345.420	800.000	0.070	0.263
-344.406	-83.418	-0.246	-0.079
-343.391	219.293	-0.041	0.065
-342.377	-0.463	0.136	-0.096
-341.362	98.932	0.145	0.167
-340.348	87.153	-0.044	0.049
-339.333	103.684	-0.120	0.141
-338.318	129.334	0.218	0.278
-337.304	800.000	-0.162	-0.446
-336.289	126.067	0.096	-0.121
-335.275	-91.499	0.246	0.070
-334.260	636.565	-0.079	0.199
-333.245	379.258	-0.088	-0.179
-332.231	-200.000	0.063	0.332
-331.216	299.401	-0.089	-0.163
-330.202	-200.000	-0.025	-0.339
-329.187	-47.390	0.445	0.216
-328.172	-200.000	0.073	0.340
-327.158	800.000	-0.142	-0.492
-326.143	-200.000	-0.034	0.340
-325.129	-91.990	-0.393	-0.111
-324.114	-93.789	-0.186	-0.051
-323.099	272.490	-0.119	0.209
-322.085	-55.630	-0.179	0.080
-321.070	-200.000	-0.014	-0.144
-320.056	780.245	-0.074	-0.201
-319.041	-200.000	0.426	0.000
-318.026	40.313	-0.300	-0.269
-317.012	-137.020	-0.254	0.029
-315.997	640.819	-0.083	0.211
-314.983	220.501	-0.105	0.168
-313.968	-200.000	-0.056	0.266
-312.953	141.425	0.101	-0.134
-311.939	-77.559	-0.277	-0.096
-310.924	-60.999	0.211	-0.089
-309.910	-74.139	-0.133	0.048
-308.895	-82.331	-0.103	-0.033
-307.880	-200.000	-0.088	-0.510
-306.866	666.657	-0.126	-0.325
-305.851	-156.443	0.187	0.012
-304.837	-97.786	-0.182	0.047
-303.822	39.705	0.202	-0.180
-302.807	284.619	-0.074	-0.132
-301.793	275.432	-0.237	0.419
-300.778	103.689	0.394	0.460
-299.764	77.205	-0.044	0.047
-298.749	138.954	0.319	-0.418
-297.735	-200.000	0.005	0.152
-296.720	80.758	-0.222	0.238
-295.705	33.768	0.170	0.147
-294.691	207.411	0.243	0.377
-293.676	-77.751	0.145	0.050
-292.662	39.757	0.177	-0.158
-291.647	77.243	-0.101	0.106
-290.632	800.000	-0.102	0.287
-289.618	232.064	0.092	0.151
-288.603	-200.000	-0.069	0.405
-287.589	573.412	0.094	0.228
-286.574	-58.450	0.236	0.102
-285.559	-47.870	0.236	0.114
-284.545	-200.000	0.020	-0.276
-283.530	-130.243	0.225	-0.030
-282.516	253.408	0.208	-0.353
-281.501	-144.081	-0.074	0.007
-280.486	259.763	-0.180	-0.308
-279.472	800.000	0.037	-0.151
-278.457	-101.159	-0.387	0.094
-277.443	-200.000	0.104	0.454
-276.428	102.516	0.158	0.184
-275.413	-14.449	0.144	0.092
-274.399	-109.105	0.226	-0.048
-273.384	741.249	-0.167	-0.446
-272.370	40.803	-0.261	0.234
-271.355	-96.508	0.322	0.085
-270.340	-200.000	0.008	0.037
-269.326	-46.101	-0.261	-0.128
-268.311	-68.588	-0.257	-0.099
-267.297	258.582	0.127	-0.218
-266.282	-39.685	0.126	-0.066
-265.267	242.142	0.130	-0.215
-264.253	-156.546	0.104	-0.006
-263.238	-6.367	0.321	-0.218
-262.224	-4.403	0.399	0.274
-261.209	800.000	0.125	-0.403
-260.195	-63.557	0.137	0.056
-259.180	-200.000	-0.006	0.188
-258.165	-136.073	0.306	-0.036
-257.151	45.690	0.130	0.119
-256.136	-200.000	-0.014	-0.067
-255.122	-99.224	0.178	-0.045
-254.107	-200.000	-0.071	-0.413
-253.092	800.000	-0.049	-0.137
-252.078	577.046	-0.113	-0.274
-251.063	592.194	0.119	-0.292
-250.049	800.000	0.078	-0.251
-249.034	183.205	0.100	-0.146
-248.019	800.000	0.201	0.623
-247.005	-39.629	0.212	0.110
-245.990	477.058	-0.160	-0.359
-244.976	778.330	0.104	0.283
-243.961	-93.849	0.192	0.052
-242.946	-200.000	0.034	0.341
-241.932	-200.000	0.003	-0.084
-240.917	364.573	-0.074	-0.148
-239.903	61.974	0.081	-0.080
-238.888	800.000	-0.054	-0.211
-237.873	339.745	-0.025	-0.048
-236.859	59.874	0.118	0.116
-235.844	-50.746	-0.236	0.110
-234.830	-154.711	0.168	-0.011
-233.815	-13.002	-0.394	-0.255
-232.800	-155.843	0.177	0.011
-231.786	800.000	0.065	0.214
-230.771	99.536	0.073	-0.084
-229.757	439.624	-0.053	0.115
-228.742	-200.000	-0.002	0.161
-227.727	26.413	0.306	0.254
-226.713	-200.000	-0.026	-0.175
-225.698	270.804	-0.059	0.103
-224.684	800.000	0.036	-0.131
-223.669	-32.396	-0.155	-0.086
-222.655	176.981	-0.069	-0.100
-221.640	-200.000	0.013	-0.284
-220.625	736.637	-0.062	-0.166
-219.611	523.612	0.087	-0.203
-218.596	-144.492	0.359	-0.033
-217.582	454.753	-0.077	0.170
-216.567	-200.000	0.004	0.234
-215.552	247.525	-0.012	-0.020
-214.538	1.107	0.211	0.151
-213.523	-43.498	-0.306	0.153
-212.509	-29.293	0.192	-0.109
-211.494	84.258	0.205	0.222
-210.479	315.851	0.058	0.109
-209.465	-200.000	0.020	-0.094
-208.450	193.397	-0.112	0.168
-207.436	-53.694	0.188	-0.085
-206.421	-68.429	-0.257	-0.099
-205.406	279.311	0.152	-0.269
-204.392	-200.000	-0.012	-0.360
-203.377	83.550	-0.169	-0.183
-202.363	246.269	-0.110	0.183
-201.348	116.140	-0.186	0.226
-200.333	-66.124	0.248	0.098
-199.319	44.860	0.109	0.100
-198.304	-200.000	-0.001	0.074
-197.290	180.875	-0.044	-0.065
-196.275	-8.796	-0.156	0.104
-195.260	-30.010	0.175	-0.099
-194.246	-11.298	0.351	0.229
-193.231	192.715	-0.211	0.317
-192.217	-4.036	0.149	0.102
-191.202	266.624	-0.181	-0.313
-190.187	246.097	0.127	-0.212
-189.173	-88.778	-0.109	0.032
-188.158	-200.000	0.022	-0.120
-187.144	-200.000	0.000	0.127
-186.129	163.364	0.087	-0.121
-185.114	-93.282	0.158	-0.043
-184.100	-104.883	0.285	0.065
-183.085	-92.989	0.312	0.086
-182.071	-16.257	-0.123	-0.078
-181.056	202.684	-0.096	0.146
-180.042	257.023	0.060	0.102
-179.027	-86.678	0.321	0.097
-178.012	752.421	0.113	0.303
-176.998	27.767	-0.210	0.175
-175.983	-173.456	-0.305	0.009
-174.969	-55.714	-0.251	0.111
-173.954	25.079	-0.332	0.273
-172.939	-89.902	0.366	0.106
-171.925	-45.368	-0.199	0.098
-170.910	-86.573	-0.313	-0.095
-169.896	-200.000	-0.003	0.114
-168.881	-67.710	-0.136	-0.053
-167.866	800.000	-0.191	-0.526
-166.852	800.000	0.126	0.496
-165.837	-200.000	-0.202	0.001
-164.823	-134.308	-0.157	-0.019
-163.808	-88.419	0.113	-0.033
-162.793	151.474	-0.280	0.378
-161.779	-71.092	-0.318	-0.118
-160.764	-78.428	-0.095	-0.032
-159.750	-200.000	-0.013	0.188
-158.735	-54.554	-0.104	0.047
-157.720	-164.621	-0.184	-0.008
-156.706	100.777	0.073	0.084
-155.691	-85.242	-0.226	0.070
-154.677	-165.409	-0.183	-0.008
-153.662	465.617	0.116	-0.257
-152.647	31.698	-0.213	0.182
-151.633	192.181	-0.075	-0.113
-150.618	512.711	0.103	-0.237
-149.604	-111.873	0.501	-0.100
-148.589	800.000	0.101	0.290
-147.574	800.000	-0.111	0.361
-146.560	125.971	-0.236	-0.296
-145.545	494.736	-0.154	-0.350
-144.531	344.375	-0.059	-0.115
-143.516	159.299	-0.100	0.138
-142.502	41.002	-0.243	0.217
-141.487	216.399	0.114	0.179
-140.472	146.831	0.123	-0.164
-139.458	-3.316	0.065	0.045
-138.443	800.000	0.025	-0.087
-137.429	618.300	-0.156	-0.387
-136.414	800.000	-0.087	-0.266
-135.399	-200.000	0.054	0.274
-134.385	528.283	0.210	0.491
-133.370	16.085	0.130	0.101
-132.356	-104.205	-0.295	-0.068
-131.341	30.504	-0.192	0.162
-130.326	-89.517	-0.024	-0.007
-129.312	226.316	0.143	0.229
-128.297	166.110	0.303	0.424
-127.283	62.367	0.144	-0.142
-126.268	-200.000	-0.004	-0.052
-125.253	134.282	0.111	-0.142
-124.239	-9.722	-0.083	0.055
-123.224	800.000	0.057	0.209
-122.210	-115.293	0.294	-0.055
-121.195	444.783	0.155	0.336
