DTS Sentinel unit serial number:	SN413079Multiplexer serial number:	ORYXHardware model number:	OX4-SRSoftware version number:	ORYX F/W v4.00 Oryx Data Collector v3.7.2.0data status	okinstallation	princeton_trtdifferential loss correction	single-endedforward channel	channel 2reverse channel	N/Adate	2019/09/12time	03:37:10forward acquisition time	60.00reverse acquisition time	0.00gamma	496.2192k internal	0.2326k external	0.2326temperature offset calibration	1.0090default loss term (dB/km)	0.3790temperature slope calibration	1.0000multiplexer offset coefficient	1.0000multiplexer slope coefficient	1.0000fibre end	0.00T internal ref (°C)	32.19T ext. ref 1 (°C)	2.11T ext. ref 2 (°C)	27.11length (m)	temperature (°C)	Stokes	anti-Stokes-747.200	-39.623	0.135	0.071
-746.185	42.735	0.139	-0.128
-745.171	-200.000	-0.028	-0.141
-744.156	-200.000	0.029	0.152
-743.142	165.260	0.162	0.231
-742.127	158.333	-0.151	0.212
-741.112	-32.944	-0.249	0.140
-740.098	15.344	-0.055	0.044
-739.083	464.289	0.086	-0.193
-738.069	780.011	0.030	0.081
-737.054	-78.788	0.255	0.088
-736.039	3.730	0.045	-0.033
-735.025	-22.734	-0.200	-0.122
-734.010	243.893	0.254	-0.430
-732.996	244.048	-0.108	-0.183
-731.981	-38.311	0.251	-0.134
-730.966	-99.381	-0.325	0.083
-729.952	204.398	-0.054	0.085
-728.937	800.000	-0.070	0.231
-727.923	-200.000	0.027	0.134
-726.908	-54.161	0.211	0.096
-725.894	-103.059	0.147	0.035
-724.879	-200.000	-0.002	-0.543
-723.864	103.155	0.066	0.077
-722.850	-200.000	0.018	-0.222
-721.835	-28.944	0.093	0.054
-720.821	-33.156	-0.309	-0.172
-719.806	-22.873	0.112	-0.068
-718.791	800.000	-0.070	0.220
-717.777	58.770	-0.089	-0.088
-716.762	-52.242	-0.274	-0.128
-715.748	-200.000	0.033	-0.239
-714.733	148.191	-0.092	-0.125
-713.718	57.285	-0.190	0.187
-712.704	224.903	-0.108	0.176
-711.689	22.456	-0.224	0.185
-710.675	17.352	0.061	-0.048
-709.660	681.089	0.065	0.170
-708.645	37.113	0.267	0.238
-707.631	-31.784	0.062	-0.035
-706.616	-88.696	-0.289	0.087
-705.602	366.659	0.056	0.114
-704.587	48.056	-0.036	0.034
-703.572	50.763	-0.300	-0.286
-702.558	95.893	0.170	-0.196
-701.543	-4.219	0.355	-0.248
-700.529	3.521	-0.104	0.076
-699.514	261.782	-0.090	0.158
-698.499	19.587	-0.238	-0.193
-697.485	-170.203	-0.105	0.004
-696.470	-23.488	0.047	0.029
-695.456	-36.073	0.057	-0.031
-694.441	754.971	-0.084	0.229
-693.426	-35.044	-0.106	-0.058
-692.412	-83.667	0.248	0.080
-691.397	800.000	0.026	-0.115
-690.383	-15.807	0.273	-0.175
-689.368	-178.830	0.384	0.009
-688.354	3.414	-0.238	0.175
-687.339	-74.377	-0.172	0.062
-686.324	104.033	0.117	-0.138
-685.310	-200.000	-0.019	0.084
-684.295	764.423	-0.152	0.415
-683.281	413.234	-0.109	0.233
-682.266	-44.387	-0.205	0.103
-681.251	78.627	-0.111	0.119
-680.237	72.719	-0.041	-0.043
-679.222	-200.000	-0.062	0.322
-678.208	-82.499	0.143	-0.047
-677.193	-200.000	0.012	-0.197
-676.178	-26.784	-0.174	-0.102
-675.164	206.631	0.174	-0.273
-674.149	800.000	0.028	-0.097
-673.135	-24.252	0.140	-0.084
-672.120	800.000	0.109	0.342
-671.105	110.020	0.241	-0.291
-670.091	-80.222	-0.029	0.010
-669.076	-11.781	-0.251	0.166
-668.062	-200.000	-0.039	-0.235
-667.047	-107.204	0.081	0.018
-666.032	-74.953	-0.197	-0.071
-665.018	-37.852	0.095	0.051
-664.003	-148.077	0.129	-0.011
-662.989	-52.216	0.246	-0.115
-661.974	5.841	-0.168	0.125
-660.959	131.199	0.131	-0.169
-659.945	177.068	0.125	0.183
-658.930	364.363	0.104	-0.211
-657.916	20.154	0.235	-0.191
-656.901	281.625	-0.167	0.300
-655.886	-4.561	0.137	0.095
-654.872	-76.969	0.200	-0.070
-653.857	328.781	0.122	0.236
-652.843	-200.000	-0.046	-0.204
-651.828	800.000	0.053	-0.174
-650.814	-200.000	0.092	0.478
-649.799	-145.768	-0.288	0.026
-648.784	300.456	0.126	-0.233
-647.770	33.723	0.172	0.151
-646.755	161.321	-0.287	0.403
-645.741	800.000	0.052	0.153
-644.726	-132.892	-0.254	-0.032
-643.711	-124.093	0.088	0.014
-642.697	800.000	-0.094	0.279
-641.682	27.176	-0.177	0.149
-640.668	800.000	-0.076	0.257
-639.653	-2.466	-0.227	-0.160
-638.638	-72.757	-0.222	-0.082
-637.624	800.000	0.062	-0.190
-636.609	-200.000	-0.072	-0.388
-635.595	-162.906	0.323	-0.016
-634.580	-200.000	0.002	0.266
-633.565	85.281	0.304	0.335
-632.551	29.590	0.269	0.230
-631.536	29.559	-0.185	-0.158
-630.522	8.336	-0.404	0.305
-629.507	38.612	-0.229	0.205
-628.492	800.000	0.064	-0.266
-627.478	800.000	-0.085	0.325
-626.463	-91.307	0.114	0.033
-625.449	82.749	0.177	0.193
-624.434	-173.707	0.244	0.007
-623.419	-157.029	0.287	0.018
-622.405	-16.967	0.229	0.145
-621.390	-200.000	-0.059	-0.303
-620.376	-33.882	0.049	-0.027
-619.361	-42.187	0.129	-0.066
-618.346	-99.678	-0.185	-0.047
-617.332	484.906	0.102	0.233
-616.317	-41.995	-0.192	-0.098
-615.303	-97.116	-0.108	-0.028
-614.288	-52.862	0.172	0.080
-613.273	-142.923	0.270	-0.026
-612.259	800.000	-0.024	0.081
-611.244	273.358	-0.086	-0.153
-610.230	-171.552	-0.276	-0.009
-609.215	242.528	-0.161	0.271
-608.201	-76.061	0.111	-0.039
-607.186	111.913	0.239	0.289
-606.171	3.837	0.189	-0.138
-605.157	-200.000	0.042	-0.217
-604.142	-131.895	0.381	-0.050
-603.128	0.932	-0.140	0.101
-602.113	-1.378	-0.246	0.174
-601.098	-96.165	-0.307	-0.082
-600.084	-117.725	0.206	-0.037
-599.069	-200.000	-0.020	0.228
-598.055	-47.633	-0.286	0.139
-597.040	163.371	-0.187	-0.264
-596.025	-170.967	0.160	-0.005
-595.011	800.000	-0.117	-0.418
-593.996	271.184	-0.087	-0.154
-592.982	92.338	0.177	0.200
-591.967	800.000	-0.105	0.347
-590.952	-120.406	0.438	-0.075
-589.938	748.746	0.131	-0.354
-588.923	-4.945	-0.098	0.068
-587.909	-88.422	0.223	-0.067
-586.894	800.000	0.080	-0.283
-585.879	16.852	0.088	0.070
-584.865	-59.590	0.123	-0.053
-583.850	-151.890	-0.230	-0.017
-582.836	78.288	0.119	0.128
-581.821	-115.917	0.190	0.036
-580.806	-106.328	-0.259	-0.058
-579.792	-200.000	0.041	-0.224
-578.777	573.427	0.145	-0.354
-577.763	23.983	0.128	-0.105
-576.748	10.282	0.143	0.109
-575.733	117.152	-0.171	-0.210
-574.719	-107.782	0.183	0.040
-573.704	800.000	-0.079	-0.312
-572.690	146.591	-0.070	0.095
-571.675	-142.337	0.285	0.028
-570.661	-140.923	0.087	0.009
-569.646	-56.254	-0.241	-0.107
-568.631	-200.000	-0.016	-0.259
-567.617	129.036	-0.212	-0.271
-566.602	502.492	-0.072	0.167
-565.588	-42.845	-0.131	0.067
-564.573	508.639	-0.013	-0.030
-563.558	-127.543	0.031	-0.005
-562.544	111.027	-0.194	-0.234
-561.529	-72.699	0.215	-0.079
-560.515	-116.726	-0.122	-0.022
-559.500	-17.896	0.178	0.112
-558.485	352.399	-0.114	0.226
-557.471	800.000	0.010	-0.032
-556.456	-200.000	0.064	-0.336
-555.442	-126.960	0.215	0.032
-554.427	-170.412	-0.404	-0.014
-553.412	17.489	-0.138	0.110
-552.398	46.731	-0.275	0.255
-551.383	-200.000	0.016	-0.155
-550.369	-4.777	0.289	-0.200
-549.354	-74.291	0.159	-0.058
-548.339	-60.989	-0.238	-0.101
-547.325	-200.000	0.015	0.154
-546.310	602.193	-0.123	-0.305
-545.296	-200.000	-0.019	-0.124
-544.281	-166.761	0.339	-0.014
-543.266	-46.982	0.331	-0.162
-542.252	444.748	0.201	-0.441
-541.237	-200.000	-0.064	-0.516
-540.223	302.032	0.027	-0.049
-539.208	-67.779	-0.098	0.038
-538.193	-162.025	-0.278	-0.014
-537.179	629.394	-0.170	-0.430
-536.164	22.158	-0.117	-0.095
-535.150	27.149	0.060	0.050
-534.135	-200.000	-0.002	0.107
-533.121	-86.568	0.059	0.018
-532.106	-143.331	-0.248	-0.024
-531.091	-85.642	0.279	-0.087
-530.077	97.681	0.137	-0.158
-529.062	-200.000	0.008	0.119
-528.048	10.592	0.233	-0.177
-527.033	-163.442	-0.250	0.012
-526.018	-200.000	-0.225	0.000
-525.004	48.506	0.022	-0.020
-523.989	188.801	-0.106	0.159
-522.975	-200.000	-0.018	-0.249
-521.960	-2.090	-0.354	-0.249
-520.945	-45.852	-0.363	-0.179
-519.931	-200.000	-0.003	0.057
-518.916	-200.000	-0.034	0.298
-517.902	-19.882	-0.069	0.043
-516.887	311.732	0.091	-0.170
-515.872	-31.040	0.217	-0.123
-514.858	16.255	-0.062	-0.049
-513.843	534.065	0.049	-0.116
-512.829	-131.109	-0.207	0.028
-511.814	800.000	0.013	-0.042
-510.799	-38.287	-0.319	0.169
-509.785	-55.434	-0.259	0.116
-508.770	404.571	0.219	-0.461
-507.756	-0.278	0.183	0.130
-506.741	800.000	0.025	0.079
-505.726	-47.015	0.191	-0.093
-504.712	49.176	-0.058	0.054
-503.697	169.165	0.222	-0.317
-502.683	7.056	0.027	0.020
-501.668	127.521	0.183	0.233
-500.653	57.779	-0.234	-0.228
-499.639	308.033	-0.144	-0.267
-498.624	800.000	0.146	-0.416
-497.610	-59.381	0.357	0.153
-496.595	-200.000	0.005	-0.054
-495.581	-6.474	-0.092	0.063
-494.566	800.000	0.057	-0.177
-493.551	728.739	0.104	0.277
-492.537	-54.112	0.111	0.050
-491.522	-200.000	0.020	0.125
-490.508	116.277	0.094	0.115
-489.493	-22.180	-0.220	0.133
-488.478	-200.000	-0.003	-0.168
-487.464	448.182	-0.060	0.133
-486.449	-36.899	-0.173	-0.093
-485.435	20.134	-0.140	-0.113
-484.420	684.904	0.088	-0.230
-483.405	800.000	0.038	-0.133
-482.391	19.989	-0.189	-0.152
-481.376	748.946	-0.047	-0.125
-480.362	-144.691	-0.197	0.018
-479.347	800.000	0.090	-0.278
-478.332	-200.000	0.002	0.129
-477.318	-54.291	0.193	-0.087
-476.303	-32.350	-0.028	0.016
-475.289	603.970	0.018	0.046
-474.274	-33.078	-0.205	0.113
-473.259	298.994	-0.044	0.082
-472.245	389.479	0.213	0.440
-471.230	293.145	-0.075	0.137
-470.216	-80.485	0.460	0.153
-469.201	144.999	-0.033	0.044
-468.186	800.000	-0.022	0.078
-467.172	-200.000	-0.025	-0.207
-466.157	-97.398	-0.198	-0.051
-465.143	283.771	0.201	-0.361
-464.128	37.594	0.278	-0.246
-463.113	310.297	-0.118	-0.221
-462.099	-17.445	0.251	-0.157
-461.084	800.000	0.045	0.126
-460.070	-200.000	0.053	-0.282
-459.055	-63.015	0.391	0.161
-458.040	800.000	-0.091	-0.275
-457.026	-19.862	-0.161	-0.099
-456.011	273.919	-0.089	-0.156
-454.997	-200.000	-0.007	-0.195
-453.982	185.316	0.127	0.188
-452.968	-162.400	-0.169	0.008
-451.953	-200.000	0.022	0.212
-450.938	42.322	0.341	-0.309
-449.924	-200.000	0.007	-0.129
-448.909	-200.000	0.047	0.387
-447.895	221.905	0.124	0.199
-446.880	589.945	-0.096	0.236
-445.865	-150.758	0.243	0.018
-444.851	79.972	-0.199	0.213
-443.836	-200.000	0.054	-0.319
-442.822	60.952	0.131	-0.129
-441.807	72.791	-0.086	0.089
-440.792	-29.029	0.287	-0.164
-439.778	166.234	-0.142	0.201
-438.763	-114.687	0.084	0.016
-437.749	566.884	0.073	-0.176
-436.734	-113.320	0.116	0.023
-435.719	-143.582	-0.281	-0.027
-434.705	712.331	-0.064	0.169
-433.690	800.000	0.040	-0.109
-432.676	-200.000	-0.004	0.190
-431.661	-200.000	0.023	-0.155
-430.646	-114.791	-0.188	-0.036
-429.632	-63.951	0.119	-0.048
-428.617	209.350	0.142	-0.222
-427.603	121.222	0.019	0.023
-426.588	712.490	-0.072	-0.189
-425.573	-13.765	0.079	0.051
-424.559	-54.549	0.147	-0.066
-423.544	-136.851	0.281	0.032
-422.530	-46.966	-0.316	0.154
-421.515	800.000	0.083	0.303
-420.500	-144.127	-0.182	-0.017
-419.486	160.501	-0.243	-0.338
-418.471	-27.279	0.120	-0.069
-417.457	29.115	-0.133	0.112
-416.442	-12.143	0.244	0.159
-415.428	167.333	-0.160	-0.227
-414.413	-33.596	-0.217	-0.119
-413.398	-3.063	0.099	-0.069
-412.384	-200.000	-0.001	0.003
-411.369	-35.294	0.047	-0.026
-410.355	70.387	0.398	-0.410
-409.340	99.060	-0.303	0.349
-408.325	114.233	-0.219	0.266
-407.311	800.000	-0.090	0.266
-406.296	15.995	0.345	-0.270
-405.282	800.000	0.078	-0.309
-404.267	148.450	-0.236	-0.317
-403.252	-98.974	0.308	0.078
-402.238	-51.666	-0.187	0.087
-401.223	-129.809	0.237	0.032
-400.209	-1.612	-0.042	0.029
-399.194	-200.000	0.544	0.000
-398.179	-157.805	-0.338	-0.020
-397.165	800.000	-0.088	0.288
-396.150	33.391	0.131	-0.114
-395.136	306.327	0.170	-0.315
-394.121	309.562	0.137	0.254
-393.106	427.540	0.057	0.121
-392.092	-140.289	0.227	0.024
-391.077	188.091	-0.070	-0.103
-390.063	420.476	-0.085	0.181
-389.048	617.832	0.024	-0.061
-388.033	141.226	-0.055	-0.073
-387.019	-200.000	-0.040	0.226
-386.004	-131.480	-0.100	0.013
-384.990	107.898	-0.063	-0.074
-383.975	-200.000	-0.010	0.136
-382.960	397.739	0.132	0.275
-381.946	800.000	-0.039	0.113
-380.931	33.269	0.245	0.211
-379.917	-69.171	-0.127	-0.049
-378.902	-188.845	0.157	-0.002
-377.888	800.000	-0.108	-0.349
-376.873	800.000	-0.056	-0.197
-375.858	-129.176	-0.056	0.008
-374.844	80.077	-0.286	-0.306
-373.829	-200.000	-0.014	0.318
-372.815	452.278	0.076	0.167
-371.800	-200.000	0.004	-0.370
-370.785	14.508	-0.235	0.183
-369.771	137.448	0.010	0.012
-368.756	800.000	-0.068	0.258
-367.742	208.454	-0.147	0.228
-366.727	-76.842	0.430	-0.150
-365.712	-200.000	0.024	-0.314
-364.698	-123.032	0.152	0.024
-363.683	130.463	-0.044	0.056
-362.669	-0.893	-0.122	0.086
-361.654	-142.144	0.144	-0.014
-360.639	65.482	-0.160	-0.161
-359.625	-200.000	-0.026	-0.179
-358.610	2.082	-0.089	0.063
-357.596	-132.849	0.289	0.037
-356.581	-1.449	0.163	0.114
-355.566	204.080	0.179	-0.275
-354.552	-200.000	0.008	0.077
-353.537	78.777	-0.230	-0.244
-352.523	96.634	0.103	-0.118
-351.508	-21.691	-0.167	-0.101
-350.493	-177.093	0.124	-0.003
-349.479	34.290	-0.088	-0.076
-348.464	-62.300	-0.163	-0.067
-347.450	-187.420	-0.251	0.003
-346.435	87.074	-0.126	0.138
-345.420	-50.341	-0.286	-0.134
-344.406	50.645	-0.176	0.165
-343.391	800.000	0.129	-0.530
-342.377	-137.480	-0.173	-0.019
-341.362	88.321	-0.062	-0.068
-340.348	800.000	0.083	-0.270
-339.333	-200.000	-0.060	0.295
-338.318	800.000	0.090	0.380
-337.304	-73.065	0.223	-0.081
-336.289	-104.398	0.240	-0.055
-335.275	800.000	-0.036	0.112
-334.260	-29.738	0.259	-0.147
-333.245	-5.340	0.160	-0.109
-332.231	-5.446	0.269	0.183
-331.216	540.113	0.116	-0.275
-330.202	-129.564	0.236	0.032
-329.187	-107.092	-0.317	0.069
-328.172	693.752	-0.181	0.470
-327.158	-22.216	-0.094	0.057
-326.143	770.813	-0.046	-0.125
-325.129	-200.000	0.071	0.538
-324.114	-200.000	-0.270	0.001
-323.099	-200.000	-0.005	0.130
-322.085	-200.000	-0.005	-0.026
-321.070	248.172	-0.114	-0.192
-320.056	800.000	-0.066	0.282
-319.041	-200.000	0.008	-0.094
-318.026	-200.000	-0.002	-0.331
-317.012	52.661	-0.176	0.167
-315.997	557.614	-0.093	0.222
-314.983	800.000	0.027	-0.077
-313.968	-18.696	-0.174	0.108
-312.953	-43.136	0.299	-0.150
-311.939	-200.000	0.016	-0.176
-310.924	121.440	0.085	-0.104
-309.910	-200.000	-0.000	-0.107
-308.895	800.000	0.061	-0.210
-307.880	-124.367	0.330	0.051
-306.866	-11.817	0.137	0.089
-305.851	-78.908	0.214	0.072
-304.837	-143.133	0.086	0.008
-303.822	800.000	0.062	-0.221
-302.807	125.740	-0.112	0.140
-301.793	61.528	0.253	0.250
-300.778	-107.848	0.007	0.001
-299.764	-200.000	0.004	0.204
-298.749	800.000	0.043	-0.123
-297.735	85.670	-0.291	0.317
-296.720	93.232	0.094	-0.105
-295.705	80.065	-0.229	0.244
-294.691	-26.751	-0.323	0.187
-293.676	-109.415	0.114	-0.024
-292.662	180.298	-0.056	0.081
-291.647	-59.072	-0.157	-0.067
-290.632	-200.000	0.000	-0.062
-289.618	187.253	0.124	-0.183
-288.603	27.855	-0.450	0.376
-287.589	-167.858	0.323	-0.013
-286.574	800.000	-0.072	0.241
-285.559	572.695	0.148	0.356
-284.545	191.494	0.140	0.208
-283.530	3.820	-0.241	0.174
-282.516	133.485	0.069	-0.089
-281.501	783.295	0.182	0.494
-280.486	800.000	0.110	0.353
-279.472	-182.262	-0.135	-0.002
-278.457	335.347	0.151	-0.291
-277.443	-162.628	-0.179	-0.009
-276.428	607.427	0.161	0.398
-275.413	2.142	-0.262	0.187
-274.399	265.296	0.044	0.077
-273.384	800.000	0.059	0.221
-272.370	-102.097	0.064	0.015
-271.355	357.275	-0.136	0.269
-270.340	507.290	-0.031	-0.071
-269.326	84.827	-0.114	-0.124
-268.311	-44.502	0.035	-0.018
-267.297	286.542	-0.089	-0.159
-266.282	55.763	-0.260	-0.250
-265.267	544.972	-0.067	0.159
-264.253	-67.316	0.149	-0.058
-263.238	800.000	0.158	-0.545
-262.224	-88.206	0.346	0.103
-261.209	570.946	-0.050	0.119
-260.195	-39.695	-0.077	-0.040
-259.180	98.526	0.228	-0.260
-258.165	-118.661	-0.214	-0.037
-257.151	-14.649	-0.028	-0.018
-256.136	110.222	-0.147	0.175
-255.122	-148.215	0.296	0.024
-254.107	-144.285	0.157	0.014
-253.092	800.000	-0.060	0.179
-252.078	56.270	0.079	0.076
-251.063	-96.164	-0.025	-0.006
-250.049	28.891	0.161	-0.135
-249.034	-106.133	-0.482	-0.107
-248.019	691.855	0.047	0.122
-247.005	179.217	-0.101	0.146
-245.990	18.717	0.113	0.089
-244.976	-2.127	0.233	-0.162
-243.961	-200.000	-0.026	-0.233
-242.946	-138.699	-0.185	-0.020
-241.932	11.052	0.178	0.134
-240.917	28.670	0.028	-0.024
-239.903	571.672	-0.102	-0.246
-238.888	159.134	0.097	-0.133
-237.873	-116.193	0.179	0.033
-236.859	58.602	0.057	-0.056
-235.844	396.381	-0.065	0.133
-234.830	-85.749	-0.381	0.117
-233.815	-99.888	0.494	0.122
-232.800	162.888	-0.345	0.479
-231.786	216.634	0.200	0.314
-230.771	103.265	0.118	-0.137
-229.757	-37.739	-0.202	0.106
-228.742	-48.362	-0.300	-0.143
-227.727	-24.651	0.130	0.076
-226.713	109.143	-0.078	-0.092
-225.698	34.324	-0.140	0.121
-224.684	800.000	0.069	-0.189
-223.669	-135.395	0.303	0.036
-222.655	800.000	-0.096	-0.350
-221.640	-43.873	-0.251	0.125
-220.625	-200.000	-0.007	0.100
-219.611	-98.533	-0.201	0.051
-218.596	-94.423	0.136	0.037
-217.582	25.883	0.209	0.172
-216.567	-200.000	-0.006	-0.175
-215.552	-200.000	-0.065	-0.441
-214.538	49.576	0.281	-0.261
-213.523	-110.979	-0.120	0.024
-212.509	-69.376	-0.192	-0.073
-211.494	-200.000	0.035	-0.188
-210.479	-200.000	0.021	-0.238
-209.465	800.000	0.044	0.167
-208.450	800.000	-0.003	-0.010
-207.436	329.325	-0.059	-0.111
-206.421	272.642	-0.098	0.171
-205.406	162.532	-0.155	0.215
-204.392	800.000	-0.065	-0.272
-203.377	-200.000	-0.010	-0.210
-202.363	-151.808	0.334	0.024
-201.348	46.174	0.076	0.069
-200.333	-31.868	0.164	-0.091
-199.319	251.514	0.057	0.096
-198.304	566.252	-0.130	0.312
-197.290	462.932	-0.097	0.215
-196.275	-16.435	-0.084	0.053
-195.260	-65.283	-0.333	-0.132
-194.246	72.890	-0.237	0.245
-193.231	112.357	-0.115	-0.138
-192.217	-81.099	-0.118	-0.038
-191.202	-98.277	-0.103	-0.026
-190.187	182.105	0.190	0.276
-189.173	-133.931	-0.095	-0.012
-188.158	-200.000	0.051	-0.273
-187.144	-131.012	-0.146	-0.019
-186.129	22.453	-0.316	-0.255
-185.114	-121.242	-0.083	-0.014
-184.100	348.812	-0.147	-0.286
-183.085	179.403	0.083	0.120
-182.071	142.419	0.151	-0.197
-181.056	-159.305	-0.119	-0.007
-180.042	42.707	-0.323	0.290
-179.027	-200.000	-0.004	0.155
-178.012	356.374	-0.070	0.137
-176.998	281.133	0.147	0.260
-175.983	538.857	0.047	-0.109
-174.969	231.770	0.068	0.110
-173.954	444.853	-0.078	0.168
-172.939	155.940	0.354	0.481
-171.925	-70.350	-0.295	0.110
-170.910	274.171	-0.076	0.132
-169.896	622.905	0.121	0.302
-168.881	5.087	-0.169	0.123
-167.866	-88.270	-0.142	0.042
-166.852	3.537	-0.193	0.138
-165.837	174.419	0.166	0.237
-164.823	82.178	-0.060	-0.064
-163.808	-200.000	-0.053	0.242
-162.793	-74.199	-0.112	-0.040
-161.779	800.000	-0.124	0.359
-160.764	-200.000	0.002	0.279
-159.750	303.160	0.153	0.280
-158.735	57.868	-0.160	0.154
-157.720	268.467	-0.109	-0.188
-156.706	800.000	-0.037	0.123
-155.691	-7.591	0.207	-0.138
-154.677	800.000	-0.026	-0.080
-153.662	203.466	0.064	0.097
-152.647	-97.874	0.467	0.119
-151.633	-118.537	-0.027	0.005
-150.618	-80.615	-0.302	-0.099
-149.604	137.813	-0.211	-0.272
-148.589	-32.610	-0.118	0.065
-147.574	800.000	0.062	0.195
-146.560	321.445	0.045	-0.084
-145.545	-43.148	0.219	0.109
-144.531	-200.000	-0.040	0.464
-143.516	-200.000	-0.029	0.210
-142.502	-112.360	-0.083	0.016
-141.487	-82.153	-0.469	0.151
-140.472	-27.104	0.138	0.079
-139.458	-20.958	0.079	-0.048
-138.443	-48.561	-0.247	0.117
-137.429	-200.000	0.048	0.231
-136.414	194.219	-0.127	0.190
-135.399	-6.955	-0.106	0.071
-134.385	-145.887	0.317	0.028
-133.370	325.144	-0.046	0.087
-132.356	-38.529	-0.226	0.118
-131.341	-10.448	0.148	0.097
-130.326	-101.110	0.223	-0.054
-129.312	-200.000	0.009	0.187
-128.297	-200.000	-0.001	-0.128
-127.283	-200.000	-0.022	0.235
-126.268	14.112	0.235	0.180
-125.253	-79.706	-0.191	0.063
-124.239	-200.000	0.003	0.167
-123.224	33.772	-0.045	0.039
-122.210	102.878	0.216	0.249
-121.195	16.529	0.373	-0.290
-120.180	-182.804	0.079	-0.001
