DTS Sentinel unit serial number:	SN413079Multiplexer serial number:	ORYXHardware model number:	OX4-SRSoftware version number:	ORYX F/W v4.00 Oryx Data Collector v3.7.2.0data status	okinstallation	princeton_trtdifferential loss correction	single-endedforward channel	channel 2reverse channel	N/Adate	2019/09/19time	12:27:35forward acquisition time	60.00reverse acquisition time	0.00gamma	496.2192k internal	0.2335k external	0.2335temperature offset calibration	1.0016default loss term (dB/km)	0.3790temperature slope calibration	1.0000multiplexer offset coefficient	1.0000multiplexer slope coefficient	1.0000fibre end	0.00T internal ref (°C)	26.94T ext. ref 1 (°C)	0.86T ext. ref 2 (°C)	24.35length (m)	temperature (°C)	Stokes	anti-Stokes-747.200	158.257	0.036	0.050
-746.185	800.000	0.076	0.215
-745.171	113.906	0.144	-0.176
-744.156	19.075	-0.138	0.111
-743.142	-200.000	-0.007	-0.183
-742.127	800.000	-0.163	0.508
-741.112	800.000	0.023	-0.069
-740.098	290.390	-0.022	0.040
-739.083	-200.000	0.004	0.131
-738.069	155.570	-0.156	0.216
-737.054	-200.000	-0.024	-0.224
-736.039	-200.000	-0.017	-0.271
-735.025	68.597	0.179	-0.185
-734.010	172.049	-0.186	0.269
-732.996	-129.709	-0.186	0.026
-731.981	-200.000	-0.014	0.409
-730.966	-200.000	-0.010	-0.244
-729.952	-200.000	0.038	0.305
-728.937	104.329	-0.193	-0.228
-727.923	-75.000	-0.263	-0.094
-726.908	-77.200	-0.261	-0.091
-725.894	-17.065	-0.243	0.154
-724.879	-200.000	0.015	-0.109
-723.864	93.769	0.232	0.264
-722.850	-62.794	-0.206	0.086
-721.835	-22.961	-0.260	-0.157
-720.821	415.829	-0.189	-0.404
-719.806	-145.280	0.189	-0.017
-718.791	-101.899	-0.111	-0.027
-717.777	33.769	-0.213	-0.186
-716.762	800.000	-0.039	0.158
-715.748	145.212	-0.093	-0.125
-714.733	-200.000	0.029	-0.132
-713.718	178.773	0.067	0.099
-712.704	-71.388	-0.086	0.032
-711.689	-103.423	0.339	-0.080
-710.675	800.000	-0.141	0.435
-709.660	116.304	-0.267	-0.329
-708.645	-146.443	0.256	0.022
-707.631	114.311	-0.270	0.330
-706.616	-200.000	-0.011	0.168
-705.602	-200.000	-0.056	0.298
-704.587	-200.000	0.030	-0.211
-703.572	-105.037	0.059	0.014
-702.558	-98.180	0.398	-0.102
-701.543	-85.127	-0.092	0.029
-700.529	-200.000	-0.025	-0.340
-699.514	-81.267	0.402	0.133
-698.499	32.094	0.040	-0.035
-697.485	3.362	0.147	0.107
-696.470	93.403	0.199	-0.225
-695.456	-40.724	-0.230	0.120
-694.441	-34.385	-0.046	0.025
-693.426	-60.177	0.037	-0.016
-692.412	800.000	0.009	-0.037
-691.397	105.248	0.100	-0.119
-690.383	-28.751	0.320	-0.185
-689.368	-200.000	-0.006	-0.182
-688.354	-14.596	-0.075	-0.048
-687.339	-31.533	-0.232	-0.131
-686.324	-200.000	-0.027	0.277
-685.310	-200.000	0.046	-0.288
-684.295	-64.313	0.128	0.052
-683.281	129.868	0.096	-0.124
-682.266	352.497	-0.097	0.193
-681.251	209.460	0.116	0.183
-680.237	-200.000	-0.018	0.317
-679.222	-200.000	-0.021	-0.233
-678.208	-52.197	0.066	-0.031
-677.193	-14.649	-0.128	0.082
-676.178	64.829	0.242	0.245
-675.164	-102.818	-0.321	-0.077
-674.149	-109.774	-0.255	-0.054
-673.135	68.528	-0.236	-0.243
-672.120	-75.505	-0.168	-0.060
-671.105	33.229	-0.070	-0.060
-670.091	181.482	0.067	0.099
-669.076	800.000	0.079	0.262
-668.062	697.771	0.089	0.234
-667.047	286.641	0.096	-0.174
-666.032	-200.000	0.027	0.188
-665.018	107.216	-0.141	0.168
-664.003	-200.000	0.040	-0.242
-662.989	-139.964	0.153	0.016
-661.974	800.000	-0.064	-0.207
-660.959	18.811	0.300	-0.240
-659.945	-184.999	0.141	0.002
-658.930	185.221	-0.023	0.034
-657.916	800.000	0.041	0.150
-656.901	282.168	0.036	-0.065
-655.886	758.944	0.146	-0.397
-654.872	452.246	-0.198	0.437
-653.857	365.100	0.053	0.108
-652.843	34.844	-0.209	-0.183
-651.828	-102.906	-0.074	0.018
-650.814	339.015	-0.121	0.236
-649.799	32.819	0.219	-0.190
-648.784	800.000	0.038	-0.140
-647.770	8.498	-0.073	-0.055
-646.755	346.445	-0.179	0.352
-645.741	-171.304	0.203	0.007
-644.726	14.524	-0.301	-0.235
-643.711	-88.011	0.198	-0.060
-642.697	-200.000	0.012	-0.055
-641.682	267.738	-0.032	0.056
-640.668	-200.000	-0.026	-0.219
-639.653	800.000	-0.035	-0.102
-638.638	-40.875	0.221	0.114
-637.624	24.265	-0.150	-0.124
-636.609	-109.800	0.454	-0.095
-635.595	115.944	-0.061	0.074
-634.580	0.781	0.304	-0.218
-633.565	16.280	0.311	-0.245
-632.551	257.104	-0.082	0.141
-631.536	-137.569	-0.242	0.027
-630.522	-49.319	-0.133	-0.064
-629.507	40.217	-0.275	0.247
-628.492	38.928	0.288	0.257
-627.478	-15.280	-0.446	0.285
-626.463	-38.663	-0.031	0.016
-625.449	141.025	-0.046	0.061
-624.434	-39.056	0.169	-0.089
-623.419	785.234	0.107	-0.294
-622.405	352.419	-0.048	0.095
-621.390	-30.809	0.154	-0.087
-620.376	-136.152	-0.091	0.011
-619.361	-162.417	0.254	-0.013
-618.346	-177.589	0.159	0.004
-617.332	73.570	0.194	0.203
-616.317	52.531	-0.138	-0.132
-615.303	154.990	-0.109	0.150
-614.288	128.437	0.080	-0.101
-613.273	82.410	0.062	-0.067
-612.259	800.000	-0.017	0.053
-611.244	459.474	-0.126	0.281
-610.230	-45.976	-0.110	-0.054
-609.215	-200.000	0.007	-0.056
-608.201	23.915	-0.034	0.028
-607.186	337.157	-0.032	0.063
-606.171	10.642	0.200	-0.152
-605.157	-108.706	0.294	0.063
-604.142	-200.000	0.038	0.426
-603.128	-66.949	-0.440	0.174
-602.113	188.243	-0.094	-0.140
-601.098	-0.297	0.151	-0.107
-600.084	84.335	0.118	0.129
-599.069	42.161	-0.306	-0.277
-598.055	126.547	0.100	0.127
-597.040	81.402	-0.159	0.172
-596.025	38.415	0.045	0.040
-595.011	-192.995	0.100	-0.001
-593.996	210.378	0.100	0.156
-592.982	800.000	0.055	-0.223
-591.967	-20.822	0.186	-0.114
-590.952	-122.428	-0.057	-0.009
-589.938	-134.866	0.050	-0.006
-588.923	470.856	-0.044	0.099
-587.909	-94.670	-0.343	-0.093
-586.894	-71.283	-0.132	-0.049
-585.879	-200.000	0.044	-0.208
-584.865	-110.702	-0.184	0.038
-583.850	-200.000	0.010	-0.271
-582.836	490.782	-0.064	0.147
-581.821	-65.692	0.326	0.130
-580.806	51.179	-0.189	-0.179
-579.792	-200.000	-0.030	-0.354
-578.777	800.000	-0.041	-0.158
-577.763	-36.715	0.214	-0.115
-576.748	-58.058	-0.261	0.114
-575.733	137.563	0.079	0.103
-574.719	-152.420	0.194	-0.014
-573.704	81.419	-0.084	-0.090
-572.690	227.493	-0.145	-0.235
-571.675	-20.310	0.303	0.186
-570.661	-90.414	-0.178	0.051
-569.646	225.325	-0.100	0.161
-568.631	-0.549	-0.091	-0.065
-567.617	234.998	-0.206	-0.339
-566.602	166.621	0.040	0.056
-565.588	185.370	-0.174	0.258
-564.573	-92.543	-0.286	-0.080
-563.558	-90.235	-0.195	0.057
-562.544	106.383	-0.132	-0.156
-561.529	800.000	-0.145	0.512
-560.515	-200.000	0.013	0.276
-559.500	31.713	-0.090	0.078
-558.485	800.000	0.163	0.463
-557.471	-119.616	0.151	0.026
-556.456	-163.482	0.113	-0.005
-555.442	52.353	-0.227	0.216
-554.427	-200.000	0.013	0.109
-553.412	303.520	-0.137	-0.252
-552.398	713.646	-0.050	-0.133
-551.383	33.400	-0.151	0.130
-550.369	-200.000	-0.003	-0.081
-549.354	-111.009	0.170	-0.035
-548.339	-45.069	0.123	0.061
-547.325	-49.698	0.062	-0.029
-546.310	472.930	-0.105	0.236
-545.296	-200.000	0.024	0.172
-544.281	200.448	-0.093	-0.143
-543.266	-176.056	-0.197	-0.005
-542.252	-99.363	0.304	-0.076
-541.237	574.195	-0.064	0.156
-540.223	-120.895	0.293	0.049
-539.208	92.379	-0.270	0.303
-538.193	-89.978	-0.354	0.103
-537.179	-128.020	-0.244	-0.035
-536.164	-88.681	0.214	0.063
-535.150	-200.000	-0.039	-0.397
-534.135	-53.914	0.182	-0.082
-533.121	-112.370	-0.199	0.040
-532.106	-114.065	0.161	-0.031
-531.091	-49.800	-0.043	0.020
-530.077	-85.123	0.137	0.043
-529.062	-56.843	-0.240	0.106
-528.048	800.000	0.092	0.367
-527.033	-200.000	0.007	0.361
-526.018	114.792	0.174	-0.211
-525.004	-130.550	-0.172	0.023
-523.989	-49.732	0.287	-0.136
-522.975	800.000	-0.115	0.439
-521.960	-200.000	0.013	0.070
-520.945	59.547	0.193	0.189
-519.931	-200.000	-0.007	0.191
-518.916	-60.512	0.080	0.034
-517.902	150.971	-0.253	0.343
-516.887	-12.726	0.170	0.111
-515.872	-200.000	-0.021	-0.211
-514.858	-200.000	0.010	-0.113
-513.843	-200.000	0.030	0.236
-512.829	-56.068	0.106	-0.047
-511.814	800.000	0.075	0.212
-510.799	7.537	-0.242	-0.180
-509.785	20.063	-0.119	-0.096
-508.770	36.016	-0.215	-0.188
-507.756	-200.000	-0.004	0.239
-506.741	-60.734	0.019	-0.008
-505.726	800.000	0.021	-0.075
-504.712	184.956	-0.160	-0.237
-503.697	-39.523	-0.291	-0.152
-502.683	-52.228	0.260	-0.120
-501.668	718.511	0.107	-0.284
-500.653	-107.902	-0.347	-0.075
-499.639	-156.502	-0.294	0.018
-498.624	-97.434	-0.112	0.029
-497.610	269.527	0.148	-0.258
-496.595	800.000	0.048	0.210
-495.581	800.000	0.052	0.223
-494.566	-137.106	0.187	-0.021
-493.551	40.895	0.142	-0.127
-492.537	-144.423	-0.156	0.014
-491.522	-200.000	0.055	0.247
-490.508	213.080	-0.144	0.227
-489.493	-67.228	0.134	0.053
-488.478	10.648	0.124	-0.094
-487.464	122.627	0.175	-0.217
-486.449	-155.385	0.276	0.018
-485.435	-106.565	0.215	-0.048
-484.420	-86.987	-0.081	-0.025
-483.405	322.624	0.092	0.174
-482.391	800.000	-0.036	-0.123
-481.376	-180.538	-0.448	0.009
-480.362	-200.000	0.031	0.345
-479.347	143.459	0.155	0.205
-478.332	166.725	-0.090	0.127
-477.318	-200.000	-0.009	-0.053
-476.303	-57.296	-0.329	-0.144
-475.289	-57.219	0.186	0.081
-474.274	-23.246	0.284	0.170
-473.259	594.972	-0.099	-0.244
-472.245	-150.284	0.141	-0.011
-471.230	-120.865	0.337	-0.056
-470.216	-200.000	-0.011	-0.114
-469.201	-184.541	-0.138	0.002
-468.186	-200.000	0.001	0.036
-467.172	-100.449	-0.248	-0.061
-466.157	10.099	-0.131	-0.099
-465.143	218.997	-0.147	0.234
-464.128	248.883	0.071	-0.119
-463.113	-56.428	-0.350	0.154
-462.099	-183.817	-0.140	-0.002
-461.084	800.000	-0.019	-0.066
-460.070	-200.000	0.010	0.165
-459.055	-7.263	-0.229	0.155
-458.040	-100.077	-0.055	-0.014
-457.026	-66.274	-0.326	-0.129
-456.011	-102.443	0.491	-0.117
-454.997	-194.584	0.320	0.003
-453.982	-45.242	-0.184	-0.091
-452.968	-10.314	-0.344	-0.226
-451.953	800.000	-0.026	-0.086
-450.938	-138.524	-0.211	0.023
-449.924	147.855	-0.035	-0.047
-448.909	96.421	0.074	-0.085
-447.895	-53.800	-0.257	-0.116
-446.880	-159.621	-0.261	0.014
-445.865	800.000	0.048	-0.171
-444.851	-140.752	-0.120	0.012
-443.836	-123.876	0.248	-0.039
-442.822	-75.072	0.111	-0.040
-441.807	0.337	-0.298	-0.211
-440.792	-178.143	-0.297	0.007
-439.778	340.132	0.166	0.322
-438.763	-109.539	0.222	-0.047
-437.749	-200.000	0.028	-0.259
-436.734	-200.000	-0.062	-0.318
-435.719	-200.000	0.005	-0.134
-434.705	112.691	-0.361	-0.433
-433.690	28.107	-0.356	-0.298
-432.676	-42.702	-0.087	-0.044
-431.661	-162.577	0.315	-0.015
-430.646	-73.956	0.106	0.038
-429.632	-200.000	-0.002	0.067
-428.617	-164.586	-0.132	-0.006
-427.603	17.894	-0.187	-0.148
-426.588	55.053	-0.223	0.214
-425.573	-200.000	0.017	0.161
-424.559	89.520	-0.030	-0.033
-423.544	-27.008	0.046	-0.027
-422.530	800.000	-0.030	-0.126
-421.515	-135.687	0.198	-0.023
-420.500	-34.731	-0.176	0.096
-419.486	-200.000	-0.019	-0.413
-418.471	-18.559	-0.091	0.056
-417.457	-140.823	0.207	-0.021
-416.442	-84.547	0.123	0.038
-415.428	-200.000	-0.032	-0.147
-414.413	-6.748	0.135	-0.091
-413.398	-63.848	-0.257	-0.104
-412.384	340.723	0.200	-0.388
-411.369	-121.200	-0.145	-0.024
-410.355	158.342	0.351	0.482
-409.340	-66.774	-0.271	0.106
-408.325	800.000	0.076	0.262
-407.311	-80.297	0.169	0.056
-406.296	-200.000	0.005	0.078
-405.282	108.487	0.293	-0.347
-404.267	800.000	-0.077	-0.271
-403.252	62.132	0.085	0.084
-402.238	-138.752	0.174	-0.019
-401.223	161.979	0.159	-0.221
-400.209	250.422	0.094	0.158
-399.194	-200.000	0.002	-0.069
-398.179	-200.000	-0.024	0.148
-397.165	-200.000	0.007	0.228
-396.150	-200.000	-0.046	0.253
-395.136	800.000	-0.158	-0.453
-394.121	-85.043	-0.057	-0.018
-393.106	-9.007	0.034	-0.023
-392.092	48.729	0.020	0.019
-391.077	-200.000	0.055	-0.278
-390.063	-88.677	0.209	-0.062
-389.048	800.000	0.035	-0.150
-388.033	199.874	-0.098	-0.148
-387.019	617.726	-0.120	0.299
-386.004	-200.000	-0.024	-0.127
-384.990	-22.669	0.127	-0.076
-383.975	-70.919	0.306	-0.114
-382.960	147.987	0.156	0.209
-381.946	315.424	0.102	0.191
-380.931	-128.281	-0.117	0.016
-379.917	-56.211	-0.281	0.124
-378.902	-58.934	0.174	-0.074
-377.888	62.652	-0.168	-0.167
-376.873	-200.000	-0.004	-0.174
-375.858	-151.542	-0.243	0.018
-374.844	-139.690	-0.100	-0.011
-373.829	17.230	0.211	-0.166
-372.815	-31.802	0.275	0.153
-371.800	-200.000	-0.018	-0.386
-370.785	-178.977	-0.186	0.004
-369.771	-151.205	0.188	0.014
-368.756	-29.218	-0.317	-0.180
-367.742	329.097	0.136	-0.259
-366.727	62.864	0.195	0.193
-365.712	-108.122	0.149	-0.032
-364.698	94.473	0.129	0.145
-363.683	-96.831	-0.132	0.034
-362.669	-200.000	0.024	-0.137
-361.654	-12.026	0.087	-0.057
-360.639	-95.714	-0.114	0.030
-359.625	-5.462	-0.194	-0.132
-358.610	-128.273	0.208	0.029
-357.596	85.804	-0.063	-0.069
-356.581	-200.000	0.003	0.100
-355.566	-7.685	0.312	-0.209
-354.552	-105.592	0.200	-0.045
-353.537	80.080	-0.039	0.041
-352.523	800.000	-0.136	-0.390
-351.508	800.000	-0.076	-0.274
-350.493	557.878	0.093	-0.221
-349.479	20.702	-0.276	-0.221
-348.464	36.567	0.143	0.125
-347.450	800.000	0.016	0.059
-346.435	-200.000	0.017	-0.144
-345.420	10.322	-0.343	0.258
-344.406	800.000	0.080	0.340
-343.391	92.558	0.013	-0.015
-342.377	-200.000	-0.013	-0.284
-341.362	-144.459	0.387	-0.035
-340.348	231.635	0.119	-0.194
-339.333	-144.093	-0.330	-0.031
-338.318	-93.810	-0.198	-0.054
-337.304	-200.000	0.033	-0.177
-336.289	-200.000	-0.029	-0.146
-335.275	-135.285	-0.510	-0.060
-334.260	-48.857	0.285	-0.135
-333.245	121.224	0.178	-0.219
-332.231	64.047	0.403	0.401
-331.216	-102.261	-0.319	-0.076
-330.202	-200.000	0.003	0.052
-329.187	-22.930	0.234	-0.140
-328.172	-64.518	0.377	0.151
-327.158	237.346	-0.097	-0.159
-326.143	-200.000	0.009	0.061
-325.129	-71.152	0.109	0.040
-324.114	800.000	-0.063	-0.175
-323.099	800.000	0.108	-0.419
-322.085	77.093	0.088	0.092
-321.070	-200.000	0.001	-0.046
-320.056	-77.796	-0.323	0.110
-319.041	800.000	0.028	0.099
-318.026	-34.515	-0.091	0.049
-317.012	-5.559	0.327	-0.222
-315.997	-134.450	-0.064	-0.008
-314.983	252.996	0.096	-0.162
-313.968	296.060	-0.171	-0.310
-312.953	81.270	-0.068	-0.072
-311.939	223.113	-0.164	0.261
-310.924	36.527	0.105	0.091
-309.910	238.151	0.146	0.239
-308.895	59.379	0.152	-0.148
-307.880	-168.614	0.032	0.001
-306.866	185.194	0.181	0.265
-305.851	-200.000	0.018	0.139
-304.837	4.828	0.166	0.121
-303.822	-119.718	-0.296	-0.050
-302.807	155.211	-0.129	-0.176
-301.793	286.086	-0.060	-0.106
-300.778	21.197	0.043	0.035
-299.764	-2.841	0.148	-0.102
-298.749	-90.280	0.152	-0.043
-297.735	580.460	-0.091	-0.219
-296.720	-200.000	-0.017	-0.251
-295.705	-66.858	-0.415	-0.162
-294.691	-200.000	0.040	0.385
-293.676	-93.992	-0.276	0.075
-292.662	-24.529	0.067	-0.039
-291.647	-75.428	-0.112	-0.039
-290.632	-200.000	-0.018	0.268
-289.618	-68.643	-0.321	-0.123
-288.603	358.142	0.081	-0.160
-287.589	12.376	-0.195	-0.149
-286.574	800.000	-0.061	0.198
-285.559	753.454	0.013	0.035
-284.545	-200.000	0.035	-0.399
-283.530	20.106	0.216	0.172
-282.516	79.978	-0.141	-0.150
-281.501	-103.389	-0.174	0.040
-280.486	800.000	-0.083	0.315
-279.472	-200.000	0.020	0.097
-278.457	800.000	0.061	0.258
-277.443	-110.378	0.013	-0.003
-276.428	667.531	0.041	0.104
-275.413	-179.765	0.154	0.003
-274.399	-200.000	-0.028	0.173
-273.384	-109.412	-0.311	0.065
-272.370	24.798	-0.266	-0.217
-271.355	275.176	-0.079	0.139
-270.340	-200.000	0.032	-0.181
-269.326	-63.076	-0.264	0.108
-268.311	448.983	0.159	0.345
-267.297	-95.854	0.286	0.075
-266.282	-200.000	0.042	-0.265
-265.267	-200.000	0.029	0.299
-264.253	107.005	-0.300	0.351
-263.238	-98.609	0.028	-0.007
-262.224	67.730	0.245	-0.247
-261.209	31.099	-0.309	0.262
-260.195	-200.000	-0.004	0.061
-259.180	800.000	0.009	0.036
-258.165	-114.148	0.177	-0.034
-257.151	-200.000	-0.012	-0.180
-256.136	-200.000	-0.040	-0.249
-255.122	-131.187	0.195	-0.025
-254.107	502.472	-0.097	0.221
-253.092	166.573	0.039	-0.055
-252.078	98.022	-0.262	0.297
-251.063	144.182	0.160	0.210
-250.049	-131.029	0.249	0.033
-249.034	-200.000	-0.043	-0.264
-248.019	800.000	0.044	-0.141
-247.005	-38.179	-0.114	-0.059
-245.990	-164.522	-0.123	-0.005
-244.976	515.000	-0.034	0.079
-243.961	-200.000	-0.010	0.339
-242.946	57.367	0.091	0.088
-241.932	64.466	0.113	-0.112
-240.917	-178.061	0.177	-0.004
-239.903	-200.000	0.020	0.296
-238.888	-1.387	0.273	0.190
-237.873	-90.321	-0.302	-0.086
-236.859	-49.782	-0.211	0.099
-235.844	86.927	-0.155	0.169
-234.830	161.664	-0.041	0.057
-233.815	-7.790	-0.202	0.134
-232.800	119.969	0.149	0.182
-231.786	429.566	-0.039	-0.084
-230.771	-123.475	0.077	-0.012
-229.757	800.000	-0.039	0.131
-228.742	474.945	-0.059	0.131
-227.727	133.938	0.132	-0.169
-226.713	-103.340	0.031	-0.007
-225.698	-200.000	-0.003	-0.187
-224.684	-28.017	-0.229	0.131
-223.669	205.111	0.126	-0.193
-222.655	210.946	0.199	-0.308
-221.640	263.008	0.230	-0.393
-220.625	-68.928	-0.075	-0.028
-219.611	80.081	0.225	0.238
-218.596	13.660	0.158	-0.121
-217.582	236.092	-0.267	0.434
-216.567	2.665	-0.088	-0.063
-215.552	122.583	0.257	0.316
-214.538	34.472	0.130	-0.112
-213.523	-122.547	0.248	-0.040
-212.509	-7.158	0.337	0.225
-211.494	-102.547	0.134	0.032
-210.479	448.572	0.131	0.284
-209.465	-52.158	0.222	-0.101
-208.450	-200.000	-0.013	0.072
-207.436	42.799	0.118	0.106
-206.421	397.959	-0.129	0.265
-205.406	-99.829	0.100	-0.025
-204.392	-149.386	-0.356	-0.028
-203.377	-157.490	0.158	0.009
-202.363	-144.378	-0.089	0.008
-201.348	-200.000	0.007	-0.101
-200.333	235.131	-0.072	0.117
-199.319	77.250	-0.188	-0.196
-198.304	-200.000	0.048	0.236
-197.290	800.000	0.068	0.272
-196.275	-63.632	-0.146	-0.059
-195.260	2.669	0.106	0.075
-194.246	-23.309	0.151	-0.089
-193.231	-104.009	0.346	-0.079
-192.217	800.000	-0.037	0.101
-191.202	-90.997	-0.221	0.063
-190.187	-93.141	-0.082	-0.023
-189.173	-57.388	-0.101	0.043
-188.158	800.000	0.071	-0.281
-187.144	-200.000	0.017	0.087
-186.129	99.667	0.102	0.116
-185.114	-200.000	0.009	0.358
-184.100	525.562	-0.038	0.088
-183.085	-200.000	-0.003	0.112
-182.071	-200.000	0.030	0.153
-181.056	-114.051	-0.302	-0.057
-180.042	-200.000	0.035	0.276
-179.027	14.438	0.110	0.085
-178.012	167.371	0.069	-0.097
-176.998	-10.146	0.203	-0.133
-175.983	800.000	-0.036	-0.120
-174.969	-182.133	0.450	0.008
-173.954	-142.768	0.139	-0.013
-172.939	-200.000	0.005	0.068
-171.925	-124.745	-0.184	0.028
-170.910	749.958	0.093	0.246
-169.896	47.130	0.507	-0.463
-168.881	527.380	0.057	0.132
-167.866	800.000	-0.070	0.194
-166.852	-200.000	0.036	-0.201
-165.837	483.369	-0.105	-0.234
-164.823	-200.000	0.036	0.163
-163.808	800.000	0.090	0.328
-162.793	20.886	-0.138	-0.109
-161.779	238.905	0.220	-0.359
-160.764	-49.529	-0.302	-0.141
-159.750	800.000	-0.020	0.070
-158.735	-72.460	-0.103	-0.037
-157.720	-200.000	-0.139	-0.001
-156.706	-200.000	0.134	0.000
-155.691	793.153	0.094	0.253
-154.677	-200.000	0.011	0.122
-153.662	401.093	0.103	-0.212
-152.647	127.451	-0.038	0.048
-151.633	-109.037	0.162	0.034
-150.618	-200.000	0.046	-0.486
-149.604	198.325	-0.169	0.253
-148.589	72.276	0.320	-0.327
-147.574	800.000	-0.067	0.246
-146.560	-200.000	0.016	0.269
-145.545	-111.294	-0.391	0.078
-144.531	-200.000	0.029	-0.180
-143.516	644.679	-0.067	-0.168
-142.502	800.000	0.051	-0.152
-141.487	800.000	-0.030	-0.084
-140.472	10.548	-0.081	-0.060
-139.458	35.242	0.247	-0.212
-138.443	60.770	0.068	-0.067
-137.429	-110.274	-0.284	0.058
-136.414	-200.000	-0.005	-0.376
-135.399	746.224	-0.013	0.034
-134.385	97.952	-0.137	0.154
-133.370	-71.329	-0.298	0.109
-132.356	292.292	0.212	-0.380
-131.341	139.826	0.245	0.316
-130.326	800.000	0.039	-0.143
-129.312	-71.284	0.577	-0.212
-128.297	-97.155	0.150	0.038
-127.283	0.427	0.285	-0.199
-126.268	-200.000	0.026	0.113
-125.253	42.322	0.192	-0.171
-124.239	161.498	-0.130	-0.178
-123.224	74.761	0.091	0.094
-122.210	-94.769	0.255	-0.068
