DTS Sentinel unit serial number:	SN413079Multiplexer serial number:	ORYXHardware model number:	OX4-SRSoftware version number:	ORYX F/W v4.00 Oryx Data Collector v3.7.2.0data status	okinstallation	princeton_trtdifferential loss correction	single-endedforward channel	channel 2reverse channel	N/Adate	2019/09/11time	14:29:11forward acquisition time	60.00reverse acquisition time	0.00gamma	496.2192k internal	0.2291k external	0.2291temperature offset calibration	1.0007default loss term (dB/km)	0.3790temperature slope calibration	1.0000multiplexer offset coefficient	1.0000multiplexer slope coefficient	1.0000fibre end	0.00T internal ref (°C)	42.17T ext. ref 1 (°C)	0.90T ext. ref 2 (°C)	37.91length (m)	temperature (°C)	Stokes	anti-Stokes-747.200	9.866	0.175	0.136
-746.185	800.000	0.054	0.203
-745.171	26.572	-0.034	0.029
-744.156	-200.000	-0.028	0.292
-743.142	-200.000	-0.057	0.360
-742.127	39.024	-0.221	0.202
-741.112	161.587	-0.026	0.037
-740.098	800.000	0.062	0.182
-739.083	115.053	0.088	0.110
-738.069	-200.000	0.069	0.387
-737.054	-200.000	-0.002	0.020
-736.039	-91.377	0.111	0.032
-735.025	800.000	-0.050	0.145
-734.010	-41.028	0.263	0.139
-732.996	-87.035	-0.292	-0.091
-731.981	-47.910	0.296	-0.146
-730.966	800.000	0.080	0.251
-729.952	-113.472	-0.215	-0.043
-728.937	83.827	-0.289	-0.323
-727.923	-89.297	-0.165	-0.050
-726.908	800.000	-0.048	0.154
-725.894	405.948	-0.085	-0.183
-724.879	-97.878	-0.273	0.072
-723.864	130.119	-0.129	0.169
-722.850	-71.643	0.344	-0.132
-721.835	-200.000	-0.000	-0.249
-720.821	-1.799	-0.135	0.097
-719.806	50.239	0.081	-0.078
-718.791	-129.080	-0.225	0.032
-717.777	-63.091	-0.152	-0.064
-716.762	170.690	-0.193	-0.282
-715.748	-91.428	-0.166	-0.049
-714.733	-144.863	-0.323	-0.030
-713.718	-137.736	0.271	0.031
-712.704	-200.000	0.067	0.341
-711.689	228.288	0.019	0.031
-710.675	23.883	-0.427	0.360
-709.660	-89.021	-0.366	-0.111
-708.645	389.290	-0.152	0.321
-707.631	-66.449	-0.176	-0.072
-706.616	-36.310	-0.202	0.111
-705.602	427.175	0.057	-0.126
-704.587	-131.729	-0.209	-0.028
-703.572	-200.000	0.020	-0.428
-702.558	228.563	0.065	-0.109
-701.543	-200.000	0.034	-0.290
-700.529	16.527	0.130	0.105
-699.514	58.769	0.136	0.137
-698.499	-137.308	-0.404	-0.047
-697.485	-200.000	-0.010	0.046
-696.470	58.628	0.170	0.170
-695.456	-50.464	-0.139	-0.067
-694.441	-38.017	0.201	-0.109
-693.426	-200.000	0.002	-0.036
-692.412	-31.950	0.131	-0.075
-691.397	-200.000	-0.020	0.117
-690.383	-52.946	-0.268	0.126
-689.368	-71.122	0.017	0.007
-688.354	-0.043	0.192	-0.140
-687.339	-104.246	0.138	0.033
-686.324	-200.000	0.071	-0.379
-685.310	15.644	-0.068	-0.055
-684.295	-200.000	-0.320	0.001
-683.281	-61.706	-0.156	-0.067
-682.266	120.540	-0.034	-0.043
-681.251	170.457	0.119	-0.174
-680.237	800.000	0.055	0.247
-679.222	-200.000	-0.003	-0.078
-678.208	176.977	0.156	0.232
-677.193	402.583	-0.057	-0.123
-676.178	136.246	0.103	-0.137
-675.164	-109.875	-0.179	0.038
-674.149	-68.585	-0.222	0.088
-673.135	-200.000	-0.016	-0.197
-672.120	-151.214	-0.226	0.017
-671.105	288.762	-0.113	-0.209
-670.091	510.970	-0.121	0.289
-669.076	80.507	-0.305	-0.335
-668.062	286.143	0.069	0.127
-667.047	-200.000	-0.026	-0.181
-666.032	-119.111	-0.322	-0.058
-665.018	-200.000	0.003	0.022
-664.003	679.447	-0.128	-0.341
-662.989	-24.997	-0.262	-0.158
-661.974	-200.000	-0.064	-0.316
-660.959	-135.242	-0.148	-0.018
-659.945	-122.635	-0.286	-0.047
-658.930	-200.000	0.044	0.224
-657.916	74.174	-0.234	0.251
-656.901	-70.074	0.107	-0.042
-655.886	-200.000	-0.029	-0.380
-654.872	-200.000	-0.018	0.145
-653.857	-143.553	-0.246	-0.024
-652.843	-66.971	-0.137	0.055
-651.828	-200.000	0.006	-0.277
-650.814	65.595	-0.128	-0.132
-649.799	-82.631	0.089	0.029
-648.784	626.499	0.054	0.139
-647.770	-62.984	0.144	-0.061
-646.755	-166.502	-0.237	-0.010
-645.741	-156.365	-0.344	-0.022
-644.726	219.127	-0.050	-0.082
-643.711	-200.000	-0.015	0.188
-642.697	-200.000	-0.012	0.167
-641.682	-200.000	0.028	0.173
-640.668	800.000	0.046	-0.202
-639.653	77.657	0.057	0.062
-638.638	538.379	-0.034	-0.081
-637.624	160.088	-0.167	0.237
-636.609	-164.342	-0.381	-0.018
-635.595	800.000	-0.078	-0.254
-634.580	61.091	-0.281	-0.284
-633.565	590.318	-0.042	0.105
-632.551	315.606	0.085	-0.163
-631.536	-98.098	-0.307	-0.081
-630.522	-113.433	0.329	-0.066
-629.507	68.432	0.156	0.163
-628.492	-200.000	-0.001	0.059
-627.478	-200.000	-0.047	-0.479
-626.463	327.779	-0.060	-0.118
-625.449	112.864	0.099	0.123
-624.434	127.771	-0.219	-0.284
-623.419	-150.876	-0.354	-0.027
-622.405	372.302	-0.054	0.112
-621.390	-27.168	-0.229	0.136
-620.376	-48.337	-0.136	-0.067
-619.361	83.739	-0.348	-0.387
-618.346	376.084	0.042	0.088
-617.332	171.403	-0.169	0.247
-616.317	-200.000	0.050	-0.518
-615.303	-117.136	0.188	-0.035
-614.288	-31.947	-0.051	0.029
-613.273	557.969	-0.157	-0.385
-612.259	179.890	0.086	-0.128
-611.244	144.354	0.030	-0.040
-610.230	-200.000	-0.055	-0.280
-609.215	800.000	-0.069	-0.296
-608.201	800.000	-0.037	0.160
-607.186	-85.179	0.355	0.113
-606.171	-1.757	-0.231	-0.165
-605.157	89.168	0.121	-0.137
-604.142	29.460	0.115	-0.100
-603.128	1.278	-0.194	0.142
-602.113	-91.592	0.253	0.073
-601.098	267.307	-0.076	0.135
-600.084	71.791	0.360	-0.381
-599.069	442.698	0.198	0.442
-598.055	-105.940	-0.254	0.058
-597.040	800.000	0.095	0.347
-596.025	-5.651	0.311	0.217
-595.011	-111.388	-0.406	-0.084
-593.996	84.937	-0.069	0.077
-592.982	-126.388	-0.031	0.005
-591.967	2.323	-0.081	0.060
-590.952	-200.000	-0.046	0.343
-589.938	57.720	-0.127	0.126
-588.923	359.836	-0.137	-0.279
-587.909	74.921	-0.247	0.265
-586.894	800.000	0.107	0.328
-585.879	91.995	-0.311	-0.356
-584.865	-33.221	-0.441	-0.249
-583.850	-200.000	0.058	0.268
-582.836	-187.308	0.342	0.005
-581.821	-79.797	0.216	-0.074
-580.806	512.789	0.027	0.063
-579.792	-59.149	0.541	0.237
-578.777	-200.000	0.030	-0.343
-577.763	-200.000	0.054	0.262
-576.748	518.494	0.214	0.511
-575.733	134.228	-0.130	-0.171
-574.719	597.131	-0.152	0.383
-573.704	-103.949	0.160	-0.038
-572.690	-124.528	0.153	0.024
-571.675	289.283	0.137	-0.253
-570.661	-109.738	0.290	-0.062
-569.646	-78.237	0.142	-0.050
-568.631	34.246	-0.271	-0.240
-567.617	-120.251	-0.363	0.063
-566.602	-200.000	-0.010	0.101
-565.588	117.981	-0.168	-0.211
-564.573	-200.000	-0.072	-0.335
-563.558	41.880	-0.117	-0.108
-562.544	5.430	-0.212	-0.159
-561.529	-27.520	-0.252	0.149
-560.515	-200.000	0.036	0.204
-559.500	-200.000	0.062	-0.306
-558.485	-200.000	-0.078	-0.448
-557.471	-200.000	0.009	-0.123
-556.456	157.289	0.203	-0.285
-555.442	19.892	0.465	0.381
-554.427	-200.000	0.008	-0.089
-553.412	-200.000	0.005	0.347
-552.398	4.922	0.440	-0.329
-551.383	170.436	-0.053	-0.077
-550.369	129.954	-0.081	-0.106
-549.354	541.999	-0.071	-0.173
-548.339	-111.530	0.092	0.019
-547.325	357.716	0.089	0.180
-546.310	-185.000	-0.271	-0.004
-545.296	-21.715	-0.285	-0.176
-544.281	-200.000	-0.001	0.374
-543.266	-200.000	-0.016	-0.255
-542.252	-200.000	-0.003	0.675
-541.237	-41.039	0.051	-0.027
-540.223	-200.000	-0.026	0.139
-539.208	-25.781	0.129	0.077
-538.193	38.119	-0.028	0.025
-537.179	3.153	0.137	-0.102
-536.164	-91.299	0.139	-0.040
-535.150	-190.480	-0.138	-0.002
-534.135	5.709	-0.216	-0.162
-533.121	-89.698	0.138	-0.041
-532.106	167.273	0.149	0.215
-531.091	81.372	0.102	0.112
-530.077	90.366	0.078	0.088
-529.062	800.000	0.047	0.204
-528.048	-200.000	-0.070	-0.317
-527.033	250.957	-0.064	-0.110
-526.018	-153.458	0.232	-0.016
-525.004	-200.000	0.073	-0.338
-523.989	-200.000	0.002	-0.247
-522.975	-172.256	0.354	0.012
-521.960	800.000	-0.037	0.128
-520.945	709.960	-0.081	0.219
-519.931	51.866	0.283	-0.274
-518.916	800.000	0.075	-0.265
-517.902	-180.590	-0.339	0.007
-516.887	-122.837	0.052	-0.008
-515.872	-200.000	-0.013	-0.086
-514.858	-200.000	-0.009	0.435
-513.843	-137.701	0.187	-0.021
-512.829	-123.931	0.432	0.069
-511.814	4.045	0.150	0.112
-510.799	128.512	-0.058	0.075
-509.785	56.171	-0.213	0.210
-508.770	-107.705	-0.232	-0.051
-507.756	-200.000	0.004	-0.134
-506.741	-107.229	0.213	0.048
-505.726	800.000	0.039	0.124
-504.712	-22.383	0.034	-0.021
-503.697	-38.471	0.318	0.171
-502.683	-69.944	0.211	-0.082
-501.668	222.891	-0.078	0.128
-500.653	72.247	0.104	-0.110
-499.639	800.000	-0.072	-0.296
-498.624	800.000	-0.058	-0.210
-497.610	-200.000	0.018	-0.186
-496.595	-106.887	0.200	-0.045
-495.581	-99.266	0.329	-0.084
-494.566	462.431	0.154	-0.348
-493.551	-64.423	0.355	0.146
-492.537	-200.000	-0.099	0.452
-491.522	-107.453	0.275	-0.061
-490.508	-81.180	0.209	-0.070
-489.493	-69.649	0.158	0.061
-488.478	116.271	0.160	0.198
-487.464	260.461	0.181	-0.317
-486.449	89.699	0.199	-0.225
-485.435	51.104	0.130	0.125
-484.420	800.000	-0.066	0.203
-483.405	44.623	-0.087	0.081
-482.391	-41.975	-0.173	0.090
-481.376	-200.000	-0.013	-0.208
-480.362	-91.128	-0.457	-0.133
-479.347	-200.000	-0.058	-0.337
-478.332	63.383	0.105	-0.107
-477.318	800.000	0.040	0.116
-476.303	-200.000	0.050	-0.227
-475.289	-200.000	-0.057	0.402
-474.274	-125.679	-0.052	-0.008
-473.259	-107.490	-0.061	-0.014
-472.245	270.633	0.009	-0.015
-471.230	-200.000	-0.014	0.239
-470.216	-200.000	-0.006	0.031
-469.201	-124.973	0.232	0.036
-468.186	-46.533	-0.198	-0.099
-467.172	-146.771	0.204	-0.018
-466.157	-114.826	0.166	0.032
-465.143	740.909	-0.075	-0.203
-464.128	7.929	0.172	0.131
-463.113	321.545	0.214	-0.413
-462.099	44.027	-0.246	0.229
-461.084	-133.132	-0.220	0.028
-460.070	-47.592	-0.144	-0.071
-459.055	-54.665	0.025	-0.011
-458.040	800.000	-0.030	-0.097
-457.026	92.441	0.095	-0.108
-456.011	77.220	0.182	0.196
-454.997	-130.278	0.033	-0.004
-453.982	26.854	0.148	-0.126
-452.968	-200.000	-0.093	-0.505
-451.953	-54.238	0.070	0.032
-450.938	124.608	0.070	-0.089
-449.924	347.048	-0.115	0.230
-448.909	279.451	0.027	-0.048
-447.895	-200.000	-0.004	-0.270
-446.880	-200.000	0.004	-0.285
-445.865	-76.619	0.176	0.062
-444.851	288.322	-0.127	-0.232
-443.836	682.819	-0.163	-0.431
-442.822	7.400	0.096	-0.073
-441.807	-200.000	-0.015	0.411
-440.792	-87.170	0.061	-0.019
-439.778	217.894	0.112	0.180
-438.763	-200.000	-0.020	-0.360
-437.749	-48.547	-0.202	-0.098
-436.734	423.499	0.080	0.173
-435.719	227.695	0.056	0.093
-434.705	800.000	-0.025	-0.094
-433.690	-200.000	0.006	-0.070
-432.676	193.163	0.224	0.342
-431.661	-137.699	-0.146	-0.017
-430.646	137.437	0.151	0.200
-429.632	800.000	-0.023	0.069
-428.617	-16.292	-0.115	0.074
-427.603	-200.000	-0.015	0.120
-426.588	79.936	-0.254	-0.277
-425.573	-200.000	0.001	0.067
-424.559	-5.632	-0.187	-0.130
-423.544	800.000	0.047	0.192
-422.530	-47.311	-0.295	-0.145
-421.515	-142.011	0.317	0.032
-420.500	-200.000	-0.010	-0.165
-419.486	168.501	-0.109	0.157
-418.471	-163.641	0.140	-0.007
-417.457	-77.031	0.355	-0.125
-416.442	-42.605	-0.049	-0.025
-415.428	67.233	-0.227	-0.234
-414.413	-69.720	0.104	0.040
-413.398	800.000	0.048	0.187
-412.384	41.489	0.106	0.097
-411.369	-200.000	-0.020	0.384
-410.355	800.000	-0.035	-0.117
-409.340	-51.053	0.049	0.023
-408.325	-108.946	-0.257	-0.055
-407.311	671.230	0.100	0.261
-406.296	800.000	-0.035	0.114
-405.282	121.590	-0.077	-0.097
-404.267	800.000	-0.056	0.202
-403.252	128.179	-0.224	0.289
-402.238	-200.000	0.015	0.255
-401.223	-21.544	0.099	-0.061
-400.209	-105.504	-0.038	-0.009
-399.194	-36.092	0.133	-0.072
-398.179	-167.353	0.354	-0.014
-397.165	800.000	0.047	0.195
-396.150	800.000	-0.050	0.154
-395.136	-128.048	0.345	-0.050
-394.121	-10.158	-0.330	0.222
-393.106	-147.046	-0.530	-0.046
-392.092	40.752	0.145	-0.132
-391.077	800.000	-0.054	-0.191
-390.063	-123.030	-0.193	0.031
-389.048	124.142	-0.330	-0.418
-388.033	60.643	0.077	0.077
-387.019	72.776	-0.159	0.167
-386.004	800.000	-0.073	-0.238
-384.990	800.000	0.043	-0.124
-383.975	600.050	-0.014	-0.036
-382.960	800.000	0.075	0.279
-381.946	-79.885	-0.151	0.051
-380.931	-24.259	0.324	-0.195
-379.917	177.915	-0.041	0.061
-378.902	-81.984	0.211	0.070
-377.888	586.489	-0.075	0.187
-376.873	-200.000	-0.039	-0.194
-375.858	-32.927	-0.274	0.153
-374.844	-35.475	-0.305	-0.167
-373.829	-200.000	0.014	0.348
-372.815	-55.446	0.128	-0.058
-371.800	116.571	-0.180	-0.223
-370.785	76.697	-0.300	0.321
-369.771	-200.000	-0.057	0.353
-368.756	60.198	-0.250	-0.249
-367.742	800.000	-0.034	-0.123
-366.727	-65.768	0.268	0.108
-365.712	6.312	0.224	-0.168
-364.698	800.000	-0.066	-0.193
-363.683	-72.159	-0.167	-0.063
-362.669	-49.080	-0.138	0.067
-361.654	800.000	-0.068	0.267
-360.639	544.479	-0.050	-0.121
-359.625	-28.001	-0.092	-0.054
-358.610	99.190	0.244	-0.284
-357.596	-119.200	-0.451	0.079
-356.581	-61.046	0.175	0.075
-355.566	-200.000	-0.035	-0.442
-354.552	-26.235	-0.145	-0.086
-353.537	139.840	-0.107	0.142
-352.523	75.123	-0.152	-0.162
-351.508	3.149	-0.019	0.014
-350.493	-200.000	-0.006	-0.129
-349.479	48.591	0.102	0.096
-348.464	714.792	-0.134	0.360
-347.450	-142.235	-0.125	-0.012
-346.435	-142.385	-0.114	-0.011
-345.420	40.309	0.298	0.271
-344.406	-134.833	0.277	-0.034
-343.391	393.523	0.049	-0.102
-342.377	-10.476	-0.193	0.129
-341.362	-200.000	-0.006	0.140
-340.348	800.000	-0.043	-0.130
-339.333	-200.000	-0.044	0.219
-338.318	-18.674	-0.180	-0.113
-337.304	141.733	0.085	0.113
-336.289	-39.013	-0.299	-0.159
-335.275	173.834	0.147	-0.214
-334.260	-122.981	0.138	0.022
-333.245	-97.621	-0.083	0.022
-332.231	-155.273	-0.352	0.023
-331.216	-200.000	0.051	-0.225
-330.202	-200.000	-0.018	-0.229
-329.187	512.753	-0.063	-0.149
-328.172	-133.472	0.153	0.019
-327.158	-150.922	-0.183	-0.014
-326.143	-32.937	0.140	0.078
-325.129	-16.254	0.164	-0.105
-324.114	800.000	0.137	0.393
-323.099	-7.441	0.253	-0.173
-322.085	58.696	-0.103	-0.102
-321.070	800.000	0.081	-0.277
-320.056	-200.000	0.023	0.266
-319.041	800.000	0.080	0.345
-318.026	-149.427	-0.142	0.011
-317.012	-63.819	0.303	-0.125
-315.997	-45.816	0.443	0.220
-314.983	70.501	-0.029	0.030
-313.968	-179.985	-0.247	0.005
-312.953	-89.862	0.328	-0.097
-311.939	55.900	0.103	-0.101
-310.924	-55.512	-0.453	0.205
-309.910	-200.000	0.024	0.109
-308.895	-36.116	0.136	0.074
-307.880	-43.501	0.248	-0.126
-306.866	214.314	0.174	0.278
-305.851	-200.000	0.036	-0.226
-304.837	-45.244	0.102	-0.051
-303.822	572.336	-0.046	-0.112
-302.807	-33.129	0.310	-0.173
-301.793	-200.000	-0.045	-0.268
-300.778	217.739	-0.101	0.162
-299.764	539.448	0.052	0.125
-298.749	642.853	0.048	0.124
-297.735	-151.879	-0.243	0.018
-296.720	142.649	-0.069	-0.092
-295.705	-80.525	0.311	-0.104
-294.691	81.452	0.205	-0.223
-293.676	-30.147	0.119	0.068
-292.662	8.534	-0.156	-0.118
-291.647	-200.000	0.012	0.085
-290.632	-82.322	-0.158	0.052
-289.618	-66.933	0.111	-0.044
-288.603	-53.813	0.056	-0.026
-287.589	-200.000	0.011	0.367
-286.574	-200.000	0.033	-0.190
-285.559	48.292	0.085	0.080
-284.545	-200.000	0.055	-0.321
-283.530	416.715	-0.102	0.218
-282.516	223.287	-0.176	-0.285
-281.501	-15.072	-0.149	-0.096
-280.486	-200.000	-0.003	0.195
-279.472	379.073	0.088	-0.182
-278.457	800.000	-0.039	0.148
-277.443	99.317	0.089	0.104
-276.428	-143.065	-0.196	-0.019
-275.413	503.990	-0.086	0.200
-274.399	72.980	-0.103	0.108
-273.384	199.079	-0.062	0.096
-272.370	372.053	0.057	0.116
-271.355	89.684	-0.069	0.078
-270.340	800.000	-0.043	0.180
-269.326	-102.499	0.138	-0.033
-268.311	-47.849	-0.243	0.118
-267.297	482.090	0.035	-0.080
-266.282	181.638	-0.073	-0.108
-265.267	44.366	0.167	0.154
-264.253	-42.297	0.206	-0.106
-263.238	-162.691	0.352	-0.017
-262.224	-200.000	-0.008	-0.288
-261.209	535.305	0.082	0.196
-260.195	473.168	-0.171	0.387
-259.180	-200.000	-0.014	0.127
-258.165	-200.000	-0.006	-0.161
-257.151	-100.550	0.220	-0.055
-256.136	-113.510	-0.122	-0.024
-255.122	-74.014	0.041	0.015
-254.107	-35.114	-0.157	-0.086
-253.092	-100.555	-0.010	-0.003
-252.078	-200.000	0.064	-0.508
-251.063	-200.000	-0.004	-0.280
-250.049	11.229	0.171	-0.131
-249.034	-149.316	-0.460	-0.037
-248.019	126.193	-0.267	0.339
-247.005	800.000	-0.024	-0.105
-245.990	-139.145	-0.184	0.020
-244.976	-130.047	-0.120	-0.016
-243.961	-12.009	0.186	0.123
-242.946	-163.672	-0.212	0.010
-241.932	-61.860	-0.175	-0.074
-240.917	365.681	-0.077	-0.155
-239.903	597.789	-0.119	-0.296
-238.888	233.399	0.234	-0.387
-237.873	-73.841	0.093	-0.034
-236.859	-200.000	0.002	0.117
-235.844	-114.882	-0.156	0.030
-234.830	-200.000	-0.037	-0.185
-233.815	-200.000	0.011	-0.363
-232.800	-181.966	0.313	-0.006
-231.786	-56.085	-0.073	-0.033
-230.771	360.561	0.113	0.227
-229.757	-116.672	-0.333	-0.061
-228.742	-94.104	-0.205	0.056
-227.727	75.540	0.282	-0.299
-226.713	-110.421	0.243	-0.051
-225.698	800.000	-0.033	-0.146
-224.684	-83.066	-0.177	0.057
-223.669	800.000	-0.065	0.220
-222.655	-98.066	-0.152	0.039
-221.640	16.050	-0.077	-0.061
-220.625	60.704	0.033	-0.033
-219.611	503.916	-0.012	-0.027
-218.596	113.255	-0.023	0.028
-217.582	-200.000	0.038	-0.196
-216.567	-200.000	-0.053	0.262
-215.552	-30.788	-0.053	-0.030
-214.538	-141.673	-0.313	-0.032
-213.523	800.000	-0.060	0.254
-212.509	-181.502	0.218	0.004
-211.494	178.416	0.198	0.290
-210.479	-12.469	-0.016	0.011
-209.465	800.000	0.012	0.035
-208.450	72.168	0.091	0.095
-207.436	800.000	0.030	0.123
-206.421	-95.645	0.142	0.038
-205.406	97.178	-0.102	0.118
-204.392	-167.807	-0.171	0.007
-203.377	-187.925	0.355	-0.005
-202.363	57.445	-0.081	-0.079
-201.348	128.724	0.312	0.399
-200.333	-5.802	0.087	0.060
-199.319	1.371	0.115	0.083
-198.304	-154.276	-0.295	0.020
-197.290	140.768	0.079	-0.105
-196.275	25.581	-0.178	0.148
-195.260	288.068	0.041	0.074
-194.246	-200.000	0.053	0.234
-193.231	-200.000	-0.011	0.453
-192.217	114.698	0.148	0.181
-191.202	-200.000	-0.030	-0.162
-190.187	103.653	0.059	0.069
-189.173	118.845	-0.256	0.317
-188.158	285.683	0.060	-0.108
-187.144	636.362	-0.037	0.095
-186.129	-1.577	-0.307	-0.217
-185.114	60.885	0.225	-0.224
-184.100	85.478	-0.049	0.054
-183.085	437.567	0.099	0.216
-182.071	-200.000	0.077	0.352
-181.056	155.664	0.236	-0.325
-180.042	9.956	0.085	0.064
-179.027	-89.847	-0.238	-0.070
-178.012	-200.000	0.004	0.175
-176.998	350.816	-0.108	0.214
-175.983	800.000	0.059	-0.233
-174.969	-97.332	0.171	0.045
-173.954	60.556	0.266	-0.264
-172.939	-200.000	-0.062	0.273
-171.925	-193.496	0.201	0.002
-170.910	-167.304	0.221	-0.009
-169.896	-149.093	-0.214	-0.017
-168.881	-147.507	-0.090	-0.008
-167.866	29.732	-0.310	-0.264
-166.852	16.823	0.185	-0.147
-165.837	-99.498	-0.147	0.037
-164.823	72.698	0.206	0.215
-163.808	97.068	-0.038	-0.043
-162.793	696.269	0.096	0.253
-161.779	-4.658	-0.114	0.079
-160.764	63.881	-0.171	0.172
-159.750	496.122	-0.105	0.242
-158.735	-200.000	-0.024	0.270
-157.720	-200.000	-0.036	0.323
-156.706	484.092	-0.048	-0.108
-155.691	800.000	-0.017	-0.053
-154.677	-113.180	0.234	0.046
-153.662	-88.061	-0.281	-0.085
-152.647	29.673	-0.158	0.134
-151.633	800.000	0.105	0.313
-150.618	-55.090	-0.169	0.076
-149.604	617.003	0.048	0.121
-148.589	-156.000	-0.470	-0.030
-147.574	134.097	0.193	0.250
-146.560	-157.667	-0.176	0.010
-145.545	-10.940	-0.130	0.086
-144.531	-104.842	0.289	0.066
-143.516	-46.630	-0.122	0.060
-142.502	-200.000	0.058	0.399
-141.487	124.152	-0.264	0.331
-140.472	350.077	0.333	0.658
-139.458	-149.063	0.272	0.022
-138.443	116.251	0.385	0.472
-137.429	-123.729	-0.188	-0.030
-136.414	-200.000	0.094	0.463
-135.399	143.200	0.115	-0.153
-134.385	-37.240	0.124	-0.066
-133.370	42.659	0.199	-0.181
-132.356	-28.703	0.250	-0.144
-131.341	190.004	-0.095	-0.142
-130.326	-108.889	-0.033	-0.007
-129.312	-200.000	-0.043	0.204
-128.297	-14.446	0.122	-0.078
-127.283	-122.372	0.399	-0.065
-126.268	-28.232	0.106	-0.061
-125.253	17.160	-0.098	-0.078
-124.239	-200.000	0.023	0.286
-123.224	-200.000	0.035	-0.180
