DTS Sentinel unit serial number:	SN413079Multiplexer serial number:	ORYXHardware model number:	OX4-SRSoftware version number:	ORYX F/W v4.00 Oryx Data Collector v3.7.2.0data status	okinstallation	princeton_trtdifferential loss correction	single-endedforward channel	channel 2reverse channel	N/Adate	2019/09/14time	10:03:34forward acquisition time	60.00reverse acquisition time	0.00gamma	496.2192k internal	0.2319k external	0.2319temperature offset calibration	1.0129default loss term (dB/km)	0.3790temperature slope calibration	1.0000multiplexer offset coefficient	1.0000multiplexer slope coefficient	1.0000fibre end	0.00T internal ref (°C)	33.27T ext. ref 1 (°C)	4.02T ext. ref 2 (°C)	32.21length (m)	temperature (°C)	Stokes	anti-Stokes-747.200	-74.954	-0.163	0.059
-746.185	161.534	0.108	0.153
-745.171	41.651	0.186	0.170
-744.156	97.638	0.137	0.159
-743.142	-20.482	0.316	0.197
-742.127	-60.485	-0.510	-0.219
-741.112	-41.847	-0.294	0.152
-740.098	27.728	-0.388	0.331
-739.083	-200.000	-0.007	-0.177
-738.069	-144.410	-0.312	0.029
-737.054	26.124	-0.075	-0.063
-736.039	-6.578	-0.346	-0.239
-735.025	-24.081	0.161	0.097
-734.010	800.000	-0.059	-0.176
-732.996	-16.492	-0.186	-0.119
-731.981	-200.000	0.051	-0.228
-730.966	-200.000	-0.054	-0.387
-729.952	68.119	-0.052	-0.054
-728.937	-200.000	0.038	-0.322
-727.923	-48.059	-0.166	-0.081
-726.908	94.395	0.300	-0.345
-725.894	-108.598	-0.211	-0.046
-724.879	200.156	0.157	-0.244
-723.864	63.884	0.033	0.034
-722.850	-69.546	0.537	0.208
-721.835	800.000	-0.025	-0.075
-720.821	-200.000	0.056	0.000
-719.806	-149.268	-0.256	0.021
-718.791	-13.503	-0.112	0.073
-717.777	-47.750	0.229	0.112
-716.762	800.000	0.014	-0.054
-715.748	464.505	-0.042	0.096
-714.733	92.796	-0.335	-0.383
-713.718	-2.452	-0.236	-0.167
-712.704	-21.111	-0.156	0.097
-711.689	-200.000	-0.012	-0.087
-710.675	-200.000	-0.011	-0.150
-709.660	7.466	-0.256	0.193
-708.645	800.000	-0.069	-0.282
-707.631	71.074	0.156	-0.163
-706.616	-106.928	-0.229	-0.051
-705.602	-200.000	0.001	-0.191
-704.587	-116.560	-0.216	-0.040
-703.572	33.020	0.109	-0.095
-702.558	-36.708	0.287	-0.156
-701.543	35.677	0.307	-0.272
-700.529	56.610	0.142	-0.140
-699.514	-22.015	-0.031	0.019
-698.499	-103.842	0.110	0.026
-697.485	-200.000	-0.015	0.087
-696.470	41.571	0.211	-0.193
-695.456	123.208	0.101	-0.128
-694.441	-103.434	-0.228	0.054
-693.426	21.225	-0.111	-0.091
-692.412	800.000	0.053	0.227
-691.397	148.450	0.044	-0.060
-690.383	-200.000	0.041	0.311
-689.368	45.685	0.116	0.108
-688.354	-2.400	-0.125	0.089
-687.339	207.478	-0.124	-0.196
-686.324	-200.000	-0.000	-0.377
-685.310	-200.000	-0.024	-0.234
-684.295	83.215	-0.084	0.093
-683.281	-200.000	0.025	-0.231
-682.266	-49.876	-0.252	-0.121
-681.251	41.887	-0.138	0.126
-680.237	41.901	0.127	0.116
-679.222	171.454	-0.113	0.164
-678.208	61.964	-0.184	-0.185
-677.193	-129.771	-0.109	0.015
-676.178	-200.000	-0.460	-0.002
-675.164	0.399	-0.045	-0.032
-674.149	800.000	-0.014	-0.052
-673.135	149.551	0.214	-0.293
-672.120	422.450	0.135	-0.292
-671.105	34.449	-0.170	-0.150
-670.091	-108.753	0.299	0.065
-669.076	238.786	0.069	0.116
-668.062	107.096	-0.173	0.208
-667.047	-112.686	-0.244	-0.049
-666.032	61.994	0.152	0.153
-665.018	-200.000	-0.016	0.118
-664.003	35.127	0.036	-0.032
-662.989	163.370	-0.101	0.143
-661.974	-21.996	0.120	-0.074
-660.959	-105.824	-0.273	-0.062
-659.945	70.113	-0.095	-0.099
-658.930	800.000	0.011	-0.038
-657.916	42.263	0.119	0.109
-656.901	-72.333	-0.187	0.070
-655.886	360.785	-0.155	-0.313
-654.872	107.155	-0.204	-0.244
-653.857	-174.972	0.089	-0.003
-652.843	-59.232	0.156	0.068
-651.828	-200.000	0.003	-0.169
-650.814	-200.000	0.038	0.266
-649.799	-64.213	-0.189	-0.078
-648.784	-31.591	-0.270	-0.153
-647.770	95.369	0.116	-0.133
-646.755	47.000	-0.232	0.217
-645.741	-200.000	0.008	-0.038
-644.726	-64.468	-0.072	0.029
-643.711	12.535	-0.292	-0.227
-642.697	276.199	-0.111	0.198
-641.682	-120.888	0.228	0.039
-640.668	800.000	-0.028	-0.083
-639.653	-200.000	-0.037	0.232
-638.638	20.754	-0.340	-0.277
-637.624	337.815	0.224	-0.440
-636.609	-200.000	-0.026	-0.192
-635.595	-114.981	-0.090	0.017
-634.580	-200.000	0.023	-0.511
-633.565	79.137	-0.251	-0.271
-632.551	429.669	-0.107	-0.233
-631.536	-52.176	0.223	0.104
-630.522	-89.533	0.357	-0.106
-629.507	566.735	0.111	0.271
-628.492	126.730	-0.066	0.084
-627.478	800.000	-0.066	0.256
-626.463	3.980	0.040	0.029
-625.449	266.804	-0.065	-0.115
-624.434	185.331	-0.221	-0.330
-623.419	105.607	-0.103	-0.123
-622.405	127.798	-0.136	0.174
-621.390	44.011	-0.115	0.106
-620.376	795.151	-0.049	0.136
-619.361	166.295	0.172	-0.246
-618.346	800.000	0.033	0.137
-617.332	-173.477	-0.317	-0.010
-616.317	-144.132	-0.345	-0.033
-615.303	687.531	0.041	0.107
-614.288	-200.000	-0.002	0.119
-613.273	266.660	0.114	-0.201
-612.259	101.942	-0.211	-0.248
-611.244	-106.445	-0.355	0.080
-610.230	70.657	0.142	0.148
-609.215	452.207	0.025	-0.055
-608.201	800.000	0.052	-0.189
-607.186	337.037	0.099	-0.194
-606.171	-93.674	0.070	0.019
-605.157	-21.777	-0.433	-0.265
-604.142	-9.028	-0.015	-0.010
-603.128	155.481	0.111	-0.154
-602.113	-63.120	-0.135	0.056
-601.098	-200.000	-0.015	0.252
-600.084	-124.398	-0.283	0.044
-599.069	348.273	-0.168	-0.333
-598.055	96.761	0.260	-0.300
-597.040	372.295	-0.043	-0.088
-596.025	800.000	-0.094	-0.351
-595.011	105.613	0.280	0.332
-593.996	80.648	-0.320	-0.346
-592.982	-109.628	0.250	0.053
-591.967	-108.147	-0.100	0.022
-590.952	-114.753	0.232	-0.045
-589.938	800.000	-0.045	0.190
-588.923	-129.028	0.043	0.006
-587.909	170.415	-0.105	-0.151
-586.894	-160.044	-0.265	-0.015
-585.879	386.380	0.130	0.269
-584.865	-126.842	-0.090	-0.013
-583.850	-200.000	0.003	0.207
-582.836	-84.005	-0.305	0.097
-581.821	-18.322	0.296	0.186
-580.806	194.104	0.080	0.122
-579.792	-96.462	0.245	-0.065
-578.777	-42.549	0.381	-0.195
-577.763	-132.650	0.203	-0.026
-576.748	33.045	-0.135	0.118
-575.733	-124.066	0.163	0.026
-574.719	-200.000	-0.037	0.338
-573.704	-200.000	0.014	0.164
-572.690	0.773	-0.493	0.355
-571.675	-44.743	-0.136	0.068
-570.661	246.825	-0.112	0.190
-569.646	140.568	0.196	-0.260
-568.631	281.447	-0.176	-0.317
-567.617	-109.809	-0.248	-0.052
-566.602	191.292	0.217	0.329
-565.588	800.000	-0.009	0.039
-564.573	-200.000	-0.020	0.362
-563.558	62.956	-0.137	0.138
-562.544	16.604	-0.172	-0.137
-561.529	-4.559	0.021	-0.015
-560.515	45.428	0.078	0.072
-559.500	-95.595	0.292	-0.079
-558.485	41.134	0.092	0.083
-557.471	615.536	-0.013	-0.033
-556.456	33.073	0.030	0.026
-555.442	13.698	-0.074	-0.058
-554.427	-179.244	0.126	-0.003
-553.412	744.288	-0.088	0.238
-552.398	-106.285	-0.277	0.062
-551.383	10.692	-0.142	-0.109
-550.369	-90.668	-0.114	-0.033
-549.354	49.483	0.095	-0.090
-548.339	-28.719	-0.149	0.086
-547.325	289.507	0.042	-0.076
-546.310	800.000	0.024	-0.081
-545.296	-4.762	0.250	-0.173
-544.281	-157.767	0.241	-0.014
-543.266	103.456	-0.092	0.108
-542.252	-81.943	-0.262	-0.086
-541.237	-84.285	0.302	-0.096
-540.223	-51.418	0.331	0.155
-539.208	64.645	-0.004	0.004
-538.193	98.359	0.072	0.083
-537.179	432.398	-0.098	0.214
-536.164	82.892	-0.065	-0.071
-535.150	148.485	-0.283	-0.384
-534.135	5.639	0.075	0.055
-533.121	-10.112	0.168	0.112
-532.106	-168.769	0.446	-0.017
-531.091	28.290	-0.081	0.069
-530.077	-184.192	0.205	-0.003
-529.062	-85.632	0.246	-0.077
-528.048	390.538	-0.123	0.257
-527.033	307.251	0.123	0.230
-526.018	722.826	0.057	-0.152
-525.004	800.000	-0.060	-0.201
-523.989	-40.393	0.356	-0.186
-522.975	-200.000	0.017	-0.352
-521.960	95.033	0.174	-0.199
-520.945	-18.661	0.282	0.176
-519.931	570.626	0.020	-0.049
-518.916	800.000	0.053	0.146
-517.902	653.471	-0.135	-0.347
-516.887	26.279	-0.230	-0.193
-515.872	492.233	-0.109	0.250
-514.858	73.411	-0.118	-0.123
-513.843	63.673	0.289	-0.291
-512.829	-154.594	0.092	-0.006
-511.814	800.000	-0.079	-0.295
-510.799	35.489	-0.039	0.034
-509.785	4.750	-0.063	0.047
-508.770	-124.016	0.329	-0.052
-507.756	165.691	0.168	0.238
-506.741	-27.282	0.098	0.057
-505.726	800.000	0.036	0.154
-504.712	-89.504	0.196	-0.058
-503.697	456.793	0.096	0.213
-502.683	-22.361	0.436	0.265
-501.668	-200.000	-0.059	-0.513
-500.653	-2.356	0.109	-0.077
-499.639	-138.911	-0.268	0.029
-498.624	-50.041	-0.128	-0.061
-497.610	-200.000	0.012	-0.064
-496.595	-82.081	-0.148	0.048
-495.581	800.000	0.134	0.387
-494.566	58.400	0.194	0.191
-493.551	279.361	-0.107	-0.191
-492.537	208.304	0.163	0.255
-491.522	158.229	-0.115	0.159
-490.508	272.221	-0.144	0.254
-489.493	-17.303	0.241	0.152
-488.478	-36.208	0.232	0.126
-487.464	800.000	-0.167	0.515
-486.449	-88.282	-0.251	-0.075
-485.435	-52.736	0.159	-0.073
-484.420	393.820	0.012	-0.025
-483.405	1.551	0.034	0.025
-482.391	103.612	0.014	-0.017
-481.376	-6.136	0.165	0.113
-480.362	-200.000	-0.025	-0.154
-479.347	118.775	-0.120	0.149
-478.332	11.961	-0.140	-0.107
-477.318	111.258	-0.254	0.306
-476.303	800.000	0.027	0.114
-475.289	-129.866	0.242	-0.033
-474.274	-45.397	0.253	0.126
-473.259	11.891	-0.150	-0.115
-472.245	406.360	0.133	-0.281
-471.230	-131.860	-0.060	-0.008
-470.216	101.987	-0.160	-0.186
-469.201	667.413	0.134	0.347
-468.186	-109.715	-0.378	0.080
-467.172	131.993	-0.146	-0.188
-466.157	-128.679	-0.464	0.066
-465.143	384.850	-0.117	-0.241
-464.128	-39.625	0.281	0.147
-463.113	-47.141	-0.171	0.083
-462.099	46.544	0.119	-0.111
-461.084	-103.637	0.339	0.079
-460.070	339.509	-0.078	-0.151
-459.055	-57.534	0.090	0.040
-458.040	-91.621	0.165	-0.047
-457.026	79.336	-0.137	-0.147
-456.011	404.310	0.113	0.238
-454.997	-41.181	0.199	-0.103
-453.982	113.205	-0.261	0.316
-452.968	-148.690	-0.211	-0.017
-451.953	545.994	0.080	0.192
-450.938	490.380	-0.121	0.277
-449.924	769.105	0.109	0.295
-448.909	138.451	-0.171	0.224
-447.895	18.120	-0.041	0.033
-446.880	65.817	0.094	0.095
-445.865	48.548	0.220	0.206
-444.851	-200.000	0.007	-0.142
-443.836	390.719	0.110	0.229
-442.822	800.000	-0.027	-0.085
-441.807	-22.751	-0.198	0.119
-440.792	-2.582	0.024	-0.017
-439.778	39.548	0.173	-0.155
-438.763	207.507	-0.199	0.311
-437.749	-200.000	-0.091	0.635
-436.734	130.130	0.056	-0.072
-435.719	-165.751	0.180	0.008
-434.705	39.130	-0.225	0.201
-433.690	743.234	0.048	0.129
-432.676	-13.777	-0.054	0.035
-431.661	-113.253	-0.015	0.003
-430.646	-66.883	0.158	0.063
-429.632	-200.000	-0.000	-0.050
-428.617	-11.318	-0.041	0.027
-427.603	37.060	-0.059	0.052
-426.588	-178.028	0.424	-0.010
-425.573	87.849	-0.047	-0.052
-424.559	-200.000	-0.039	0.306
-423.544	97.344	-0.147	-0.169
-422.530	239.339	-0.185	-0.308
-421.515	-128.510	0.405	-0.057
-420.500	190.294	0.115	-0.172
-419.486	800.000	0.054	-0.161
-418.471	-129.173	0.174	0.024
-417.457	48.246	-0.088	-0.082
-416.442	-168.430	-0.128	0.005
-415.428	-98.670	0.285	0.073
-414.413	56.820	-0.238	0.232
-413.398	70.543	-0.217	0.224
-412.384	-98.390	-0.141	-0.036
-411.369	-58.880	-0.084	0.036
-410.355	-200.000	0.040	0.211
-409.340	-15.987	0.160	0.102
-408.325	-38.807	-0.369	-0.195
-407.311	800.000	0.104	0.316
-406.296	-200.000	-0.025	-0.314
-405.282	-29.325	0.283	0.162
-404.267	-46.585	0.230	-0.113
-403.252	-134.232	0.124	0.015
-402.238	-200.000	0.007	-0.306
-401.223	-113.779	-0.322	-0.063
-400.209	-200.000	0.006	-0.126
-399.194	-111.108	-0.021	-0.004
-398.179	-67.189	0.073	-0.029
-397.165	-200.000	-0.042	-0.283
-396.150	-24.468	-0.153	0.091
-395.136	-68.646	-0.146	-0.056
-394.121	-169.242	0.181	0.007
-393.106	79.338	-0.143	-0.153
-392.092	-200.000	-0.046	-0.332
-391.077	-19.947	0.210	-0.130
-390.063	-135.567	-0.067	-0.008
-389.048	-181.097	0.130	-0.003
-388.033	-197.295	0.166	0.001
-387.019	-10.418	0.132	-0.087
-386.004	21.761	-0.302	-0.246
-384.990	-200.000	0.013	-0.248
-383.975	-126.105	-0.480	0.072
-382.960	4.004	-0.150	0.109
-381.946	-10.698	0.182	-0.120
-380.931	-24.286	0.110	0.065
-379.917	-200.000	-0.019	0.347
-378.902	800.000	0.026	0.076
-377.888	169.892	0.129	-0.184
-376.873	-158.765	0.407	0.023
-375.858	344.504	-0.046	-0.090
-374.844	260.828	-0.085	-0.146
-373.829	5.595	-0.087	-0.064
-372.815	16.204	-0.105	-0.083
-371.800	-113.525	-0.277	0.054
-370.785	13.336	0.304	-0.235
-369.771	-166.648	-0.305	0.013
-368.756	800.000	0.058	-0.195
-367.742	-156.459	0.336	-0.021
-366.727	38.692	-0.099	0.088
-365.712	30.117	-0.094	-0.080
-364.698	-192.348	0.213	0.002
-363.683	-49.613	0.271	0.129
-362.669	-64.110	0.355	-0.144
-361.654	236.352	-0.154	-0.254
-360.639	-200.000	-0.022	0.368
-359.625	-149.188	-0.314	0.025
-358.610	800.000	-0.070	0.300
-357.596	-129.510	-0.165	-0.023
-356.581	-120.643	-0.022	0.004
-355.566	735.144	-0.121	-0.323
-354.552	139.221	0.171	-0.224
-353.537	-50.394	-0.208	0.098
-352.523	-200.000	-0.015	-0.122
-351.508	-78.807	-0.186	-0.063
-350.493	-139.199	0.484	0.052
-349.479	291.549	0.124	-0.224
-348.464	-93.359	-0.094	-0.026
-347.450	-118.889	0.069	-0.012
-346.435	-3.349	-0.091	0.063
-345.420	-73.085	0.256	-0.094
-344.406	800.000	-0.076	-0.291
-343.391	173.061	-0.184	-0.264
-342.377	351.091	-0.045	-0.089
-341.362	-3.000	0.171	-0.119
-340.348	386.792	0.077	-0.158
-339.333	-16.191	0.103	-0.065
-338.318	800.000	-0.012	-0.032
-337.304	300.781	-0.028	0.051
-336.289	12.129	-0.219	-0.168
-335.275	-111.609	0.386	-0.078
-334.260	177.358	-0.118	-0.172
-333.245	-60.685	-0.262	0.111
-332.231	800.000	-0.162	0.487
-331.216	222.427	0.253	-0.406
-330.202	-168.649	-0.096	-0.004
-329.187	-94.406	0.135	0.037
-328.172	-38.007	0.096	0.051
-327.158	-62.629	-0.111	0.046
-326.143	-128.756	0.204	-0.029
-325.129	150.155	0.219	0.296
-324.114	-86.334	0.085	0.026
-323.099	-29.728	0.163	0.093
-322.085	-58.734	0.181	0.078
-321.070	460.752	-0.071	-0.158
-320.056	-48.697	0.178	-0.085
-319.041	800.000	-0.046	-0.192
-318.026	300.614	-0.089	0.163
-317.012	-200.000	-0.022	0.220
-315.997	-200.000	0.001	-0.124
-314.983	138.554	-0.256	0.334
-313.968	555.420	-0.090	0.217
-312.953	89.858	-0.038	0.042
-311.939	373.474	0.055	0.112
-310.924	202.765	0.123	-0.189
-309.910	-200.000	0.025	-0.251
-308.895	-1.857	-0.089	0.062
-307.880	-200.000	-0.011	-0.241
-306.866	-115.260	0.261	-0.049
-305.851	-142.607	-0.301	0.029
-304.837	79.581	-0.142	0.151
-303.822	-19.287	0.210	-0.129
-302.807	-200.000	0.006	-0.103
-301.793	269.751	-0.063	0.110
-300.778	-200.000	-0.008	-0.055
-299.764	6.083	0.257	-0.189
-298.749	-200.000	-0.036	-0.314
-297.735	-200.000	0.028	-0.173
-296.720	527.218	0.026	-0.060
-295.705	-76.679	-0.219	-0.076
-294.691	800.000	0.129	-0.403
-293.676	-54.902	-0.266	-0.119
-292.662	-108.514	-0.248	0.053
-291.647	-182.486	-0.401	-0.007
-290.632	7.862	0.378	0.281
-289.618	-52.372	-0.237	-0.109
-288.603	17.033	-0.223	0.175
-287.589	-3.078	-0.338	0.234
-286.574	358.651	-0.024	-0.047
-285.559	-200.000	-0.043	0.278
-284.545	280.590	-0.125	-0.223
-283.530	455.660	0.089	0.197
-282.516	-94.400	0.252	0.068
-281.501	-200.000	0.001	-0.288
-280.486	466.166	0.163	0.364
-279.472	119.041	0.193	-0.237
-278.457	800.000	0.031	-0.099
-277.443	-127.309	-0.341	0.049
-276.428	122.408	-0.077	-0.095
-275.413	104.351	0.068	0.080
-274.399	91.900	-0.046	0.051
-273.384	183.494	0.174	0.256
-272.370	-22.117	0.214	0.129
-271.355	-200.000	0.007	0.152
-270.340	-200.000	0.010	-0.046
-269.326	-116.707	-0.025	0.005
-268.311	800.000	0.030	-0.101
-267.297	230.569	0.130	-0.211
-266.282	-3.085	0.106	0.074
-265.267	4.490	0.032	-0.023
-264.253	-49.733	-0.227	0.107
-263.238	625.774	0.168	0.422
-262.224	-31.579	0.123	0.069
-261.209	-137.992	-0.255	0.028
-260.195	13.598	-0.148	0.114
-259.180	534.060	0.061	0.143
-258.165	187.189	0.147	-0.218
-257.151	-200.000	0.016	-0.109
-256.136	800.000	0.085	-0.249
-255.122	-200.000	-0.010	-0.071
-254.107	-100.448	-0.104	-0.026
-253.092	-111.603	-0.025	-0.005
-252.078	-200.000	0.003	-0.177
-251.063	-200.000	0.000	0.118
-250.049	38.291	0.025	0.022
-249.034	-133.318	-0.209	0.026
-248.019	-133.233	0.219	0.027
-247.005	-157.770	-0.155	-0.009
-245.990	30.272	-0.123	-0.104
-244.976	739.797	0.093	-0.247
-243.961	351.443	0.182	0.357
-242.946	95.598	-0.245	0.278
-241.932	-17.983	-0.235	-0.146
-240.917	-101.832	-0.082	-0.020
-239.903	-200.000	0.035	0.191
-238.888	41.947	0.385	0.346
-237.873	13.415	0.495	0.381
-236.859	-122.142	-0.447	0.073
-235.844	-5.416	0.022	0.015
-234.830	-200.000	-0.020	0.186
-233.815	-116.575	-0.190	-0.035
-232.800	-58.490	-0.194	-0.083
-231.786	74.094	0.173	0.180
-230.771	92.652	-0.196	-0.219
-229.757	-61.094	-0.285	0.119
-228.742	-137.902	-0.092	-0.010
-227.727	28.105	0.249	-0.209
-226.713	-200.000	-0.068	0.325
-225.698	69.955	0.211	-0.216
-224.684	16.426	-0.094	-0.074
-223.669	-28.885	-0.113	0.065
-222.655	-24.001	0.339	-0.201
-221.640	-200.000	-0.084	0.408
-220.625	-11.366	-0.203	-0.133
-219.611	800.000	0.015	-0.043
-218.596	-28.097	0.058	-0.033
-217.582	800.000	-0.052	0.176
-216.567	177.792	0.071	0.102
-215.552	-22.901	-0.288	0.172
-214.538	-0.022	-0.462	0.326
-213.523	126.408	0.105	-0.132
-212.509	-73.869	0.066	-0.024
-211.494	800.000	0.107	0.318
-210.479	-31.057	-0.257	0.144
-209.465	800.000	-0.067	-0.218
-208.450	-161.002	0.278	-0.014
-207.436	-124.316	0.257	-0.040
-206.421	800.000	-0.055	0.165
-205.406	94.778	0.150	0.170
-204.392	182.814	0.143	-0.210
-203.377	95.654	0.200	0.226
-202.363	90.434	0.212	0.235
-201.348	140.387	0.426	-0.557
-200.333	-28.321	0.358	-0.205
-199.319	-118.579	0.237	0.042
-198.304	-75.561	-0.137	-0.048
-197.290	27.203	-0.216	-0.179
-196.275	-200.000	0.061	0.281
-195.260	-147.895	-0.233	-0.019
-194.246	-40.259	0.195	0.100
-193.231	-200.000	0.013	0.261
-192.217	7.415	-0.166	-0.123
-191.202	-13.583	-0.364	0.233
-190.187	727.498	-0.107	-0.283
-189.173	129.353	-0.148	-0.187
-188.158	15.310	0.048	-0.037
-187.144	-200.000	0.014	-0.259
-186.129	-52.684	0.084	0.038
-185.114	-58.671	-0.115	0.050
-184.100	-200.000	-0.013	0.103
-183.085	-0.529	-0.203	0.143
-182.071	800.000	0.063	0.194
-181.056	-47.763	0.137	-0.066
-180.042	116.419	-0.141	-0.172
-179.027	-26.449	-0.068	-0.039
-178.012	232.975	-0.152	0.247
-176.998	-98.369	-0.188	-0.048
-175.983	-3.362	0.118	0.082
-174.969	499.263	0.083	0.190
-173.954	-138.730	-0.163	-0.018
-172.939	93.821	0.019	-0.021
-171.925	19.659	-0.119	-0.095
-170.910	-10.377	0.123	0.081
-169.896	-104.088	-0.313	-0.072
-168.881	47.647	-0.030	-0.028
-167.866	800.000	0.079	-0.244
-166.852	151.291	-0.076	-0.103
-165.837	261.096	0.124	0.213
-164.823	132.280	0.099	0.126
-163.808	53.041	-0.030	-0.028
-162.793	164.236	0.105	0.146
-161.779	-199.300	-0.156	0.001
-160.764	-113.273	0.256	-0.050
-159.750	130.357	0.289	-0.367
-158.735	-185.978	0.233	-0.003
-157.720	58.538	0.098	-0.095
-156.706	82.122	-0.196	-0.211
-155.691	-163.104	0.166	-0.008
-154.677	-200.000	-0.016	0.142
-153.662	77.528	-0.159	-0.168
-152.647	-117.761	0.150	-0.027
-151.633	20.794	-0.067	-0.053
-150.618	-116.190	0.133	0.024
-149.604	735.455	-0.092	-0.242
-148.589	-200.000	-0.044	-0.438
-147.574	-171.359	0.168	0.006
-146.560	-13.300	0.279	0.179
-145.545	800.000	-0.023	-0.100
-144.531	129.808	0.167	-0.211
-143.516	-200.000	0.019	0.145
-142.502	-125.747	0.396	-0.059
-141.487	-200.000	0.009	-0.057
-140.472	-2.409	-0.125	-0.086
-139.458	-99.143	0.227	0.057
-138.443	-138.315	0.205	0.022
-137.429	39.732	-0.197	-0.174
-136.414	527.720	0.135	0.315
-135.399	152.630	-0.018	0.024
-134.385	-43.022	0.238	-0.119
-133.370	-94.521	0.373	0.100
-132.356	-36.156	0.204	0.109
-131.341	-35.359	-0.166	-0.089
-130.326	-128.731	0.133	0.019
-129.312	-24.034	-0.253	-0.149
-128.297	-13.578	0.316	-0.202
-127.283	153.841	0.191	-0.259
-126.268	-104.471	0.326	0.074
-125.253	-200.000	-0.005	0.264
-124.239	93.366	-0.262	0.293
-123.224	800.000	0.120	0.372
-122.210	32.200	0.125	-0.106
-121.195	-89.995	-0.206	0.059
