DTS Sentinel unit serial number:	SN413079Multiplexer serial number:	ORYXHardware model number:	OX4-SRSoftware version number:	ORYX F/W v4.00 Oryx Data Collector v3.7.2.0data status	okinstallation	princeton_trtdifferential loss correction	single-endedforward channel	channel 2reverse channel	N/Adate	2019/09/10time	16:49:11forward acquisition time	60.00reverse acquisition time	0.00gamma	496.2192k internal	0.2311k external	0.2311temperature offset calibration	0.9938default loss term (dB/km)	0.3790temperature slope calibration	1.0000multiplexer offset coefficient	1.0000multiplexer slope coefficient	1.0000fibre end	0.00T internal ref (°C)	37.62T ext. ref 1 (°C)	-0.28T ext. ref 2 (°C)	31.89length (m)	temperature (°C)	Stokes	anti-Stokes-747.200	800.000	-0.085	-0.274
-746.185	176.559	-0.109	0.161
-745.171	-55.988	-0.340	0.154
-744.156	800.000	-0.099	0.427
-743.142	222.145	0.098	-0.160
-742.127	800.000	-0.016	0.049
-741.112	-89.952	0.249	-0.074
-740.098	-200.000	-0.009	0.102
-739.083	116.224	-0.081	-0.100
-738.069	337.992	-0.022	0.043
-737.054	800.000	0.049	-0.179
-736.039	33.111	0.214	-0.188
-735.025	249.789	0.008	0.014
-734.010	-175.962	-0.242	-0.007
-732.996	-46.744	-0.333	-0.165
-731.981	496.287	-0.063	-0.146
-730.966	-106.879	-0.089	0.020
-729.952	800.000	0.011	0.031
-728.937	-98.339	-0.110	-0.029
-727.923	-111.104	-0.248	-0.052
-726.908	64.472	-0.087	0.089
-725.894	-8.164	-0.317	0.216
-724.879	-150.250	0.274	0.022
-723.864	-200.000	0.112	-0.000
-722.850	-200.000	0.011	0.069
-721.835	-114.013	0.024	0.005
-720.821	77.471	-0.232	0.251
-719.806	253.448	0.169	-0.293
-718.791	-200.000	0.049	-0.301
-717.777	614.724	-0.122	-0.309
-716.762	800.000	-0.015	-0.056
-715.748	-171.064	0.225	0.008
-714.733	-200.000	-0.014	0.222
-713.718	108.061	0.027	-0.033
-712.704	800.000	-0.074	0.291
-711.689	-166.729	-0.085	0.004
-710.675	-200.000	0.015	-0.370
-709.660	-200.000	0.014	-0.093
-708.645	-200.000	-0.016	0.223
-707.631	-157.756	-0.195	-0.012
-706.616	-200.000	0.010	-0.155
-705.602	79.991	0.240	-0.261
-704.587	-49.866	-0.128	-0.062
-703.572	800.000	-0.061	-0.184
-702.558	-80.976	0.044	-0.015
-701.543	800.000	0.019	0.082
-700.529	-143.519	-0.561	-0.054
-699.514	800.000	-0.016	-0.073
-698.499	800.000	0.067	-0.264
-697.485	-200.000	-0.005	-0.251
-696.470	0.371	-0.078	-0.057
-695.456	-169.611	0.097	-0.004
-694.441	-83.065	0.182	-0.059
-693.426	800.000	-0.014	0.055
-692.412	-59.127	-0.218	-0.095
-691.397	94.706	0.036	0.042
-690.383	63.412	0.106	0.108
-689.368	800.000	0.008	0.033
-688.354	-108.380	0.118	-0.026
-687.339	358.962	-0.129	0.262
-686.324	-30.209	0.110	0.064
-685.310	-200.000	0.057	0.309
-684.295	800.000	0.068	-0.239
-683.281	736.014	0.051	-0.139
-682.266	175.256	0.270	-0.396
-681.251	28.431	0.152	-0.130
-680.237	0.603	0.191	0.138
-679.222	98.469	0.101	0.118
-678.208	177.316	-0.078	0.114
-677.193	-200.000	0.010	0.181
-676.178	85.249	0.071	-0.079
-675.164	-50.440	-0.228	0.109
-674.149	139.505	0.140	0.187
-673.135	-87.344	0.143	0.044
-672.120	-59.561	-0.120	0.052
-671.105	423.957	-0.051	-0.112
-670.091	-108.477	-0.504	0.110
-669.076	800.000	-0.048	-0.141
-668.062	-174.399	0.223	0.007
-667.047	-200.000	0.015	-0.084
-666.032	-16.540	0.254	0.163
-665.018	157.098	0.141	0.198
-664.003	43.246	0.192	-0.177
-662.989	36.961	-0.197	0.176
-661.974	49.044	-0.143	-0.136
-660.959	-80.202	-0.094	0.032
-659.945	52.334	-0.128	0.124
-658.930	800.000	0.074	0.245
-657.916	134.772	-0.209	-0.274
-656.901	-200.000	-0.017	0.181
-655.886	659.098	-0.054	-0.139
-654.872	-86.686	-0.173	0.054
-653.857	-200.000	-0.037	-0.177
-652.843	-1.425	0.082	0.059
-651.828	-10.590	-0.066	-0.044
-650.814	-56.403	-0.127	-0.057
-649.799	-120.310	0.192	-0.033
-648.784	30.815	0.105	0.091
-647.770	-114.025	0.130	-0.025
-646.755	286.012	-0.104	-0.190
-645.741	-167.010	-0.374	-0.015
-644.726	-129.928	0.183	0.025
-643.711	664.006	0.060	0.157
-642.697	800.000	0.095	-0.280
-641.682	328.669	0.271	0.525
-640.668	-84.068	-0.149	0.048
-639.653	800.000	-0.024	-0.069
-638.638	-110.763	0.185	-0.039
-637.624	-142.870	0.182	-0.018
-636.609	800.000	0.041	-0.117
-635.595	11.756	-0.029	-0.022
-634.580	-200.000	-0.002	0.090
-633.565	105.318	-0.056	-0.066
-632.551	-160.863	0.190	0.010
-631.536	393.529	-0.153	0.323
-630.522	-164.973	0.217	-0.010
-629.507	-76.975	0.109	-0.038
-628.492	381.014	0.281	0.583
-627.478	5.747	0.127	-0.095
-626.463	91.053	0.066	0.074
-625.449	800.000	0.016	0.069
-624.434	-48.501	0.184	0.089
-623.419	-200.000	0.031	-0.229
-622.405	118.792	-0.203	-0.253
-621.390	-54.708	-0.169	-0.077
-620.376	26.630	-0.176	0.149
-619.361	-65.744	-0.160	0.065
-618.346	-41.324	-0.098	0.051
-617.332	-21.218	-0.087	0.053
-616.317	155.985	0.057	-0.079
-615.303	-144.415	0.354	-0.033
-614.288	13.386	0.069	0.054
-613.273	56.912	-0.249	-0.245
-612.259	711.371	0.098	0.262
-611.244	-46.350	0.199	-0.099
-610.230	697.552	-0.130	0.344
-609.215	-132.715	-0.340	-0.044
-608.201	34.901	0.219	-0.193
-607.186	561.057	-0.054	0.132
-606.171	-200.000	0.000	0.159
-605.157	39.497	0.128	-0.116
-604.142	146.263	-0.279	-0.379
-603.128	-0.729	0.313	-0.224
-602.113	800.000	-0.135	-0.394
-601.098	196.534	0.066	0.102
-600.084	284.936	0.038	0.070
-599.069	800.000	-0.053	-0.193
-598.055	-158.600	0.113	0.007
-597.040	-95.821	-0.340	-0.092
-596.025	-98.455	-0.112	-0.029
-595.011	683.698	0.083	0.218
-593.996	72.660	-0.115	0.121
-592.982	-112.516	-0.032	0.006
-591.967	-200.000	-0.004	-0.087
-590.952	-65.701	-0.428	0.173
-589.938	71.365	-0.318	-0.333
-588.923	410.333	-0.119	0.254
-587.909	-164.014	-0.041	-0.002
-586.894	800.000	0.039	-0.164
-585.879	-123.344	0.087	0.014
-584.865	-200.000	0.046	0.290
-583.850	75.693	0.034	0.036
-582.836	-70.307	-0.070	0.027
-581.821	-120.916	-0.068	0.012
-580.806	-200.000	-0.040	0.235
-579.792	109.034	0.232	0.279
-578.777	-30.635	-0.169	0.097
-577.763	16.500	-0.132	0.105
-576.748	329.592	0.130	-0.252
-575.733	-107.924	-0.115	-0.025
-574.719	-82.758	-0.147	-0.048
-573.704	-107.232	-0.037	-0.008
-572.690	353.810	0.224	-0.448
-571.675	-111.030	0.410	-0.085
-570.661	-0.234	-0.120	0.086
-569.646	68.822	0.156	0.161
-568.631	61.138	0.106	-0.106
-567.617	-27.107	0.465	0.273
-566.602	205.472	0.183	0.287
-565.588	60.887	-0.222	-0.222
-564.573	-200.000	0.013	0.354
-563.558	-40.741	0.106	-0.055
-562.544	800.000	0.025	0.098
-561.529	-200.000	0.010	-0.217
-560.515	9.688	-0.381	-0.291
-559.500	-8.733	-0.240	-0.162
-558.485	-88.295	-0.286	0.086
-557.471	-95.389	-0.241	0.065
-556.456	4.241	-0.392	-0.289
-555.442	465.734	0.111	-0.250
-554.427	800.000	-0.133	-0.415
-553.412	-200.000	-0.015	0.269
-552.398	-58.274	0.024	-0.011
-551.383	514.582	-0.180	0.423
-550.369	179.905	-0.158	-0.233
-549.354	-70.022	-0.366	-0.140
-548.339	258.127	0.125	-0.216
-547.325	-200.000	0.003	0.070
-546.310	-200.000	0.021	0.173
-545.296	-1.451	0.250	0.178
-544.281	59.010	-0.091	-0.090
-543.266	10.254	0.123	0.094
-542.252	-57.129	0.040	-0.018
-541.237	207.326	0.060	-0.094
-540.223	126.774	-0.129	0.165
-539.208	-16.456	0.134	-0.086
-538.193	259.928	-0.105	-0.183
-537.179	-200.000	-0.002	-0.392
-536.164	-200.000	0.016	-0.253
-535.150	325.365	0.182	-0.351
-534.135	-66.020	0.101	0.041
-533.121	-41.284	-0.176	-0.091
-532.106	-86.043	0.215	-0.067
-531.091	140.644	0.092	-0.123
-530.077	202.913	-0.056	-0.088
-529.062	800.000	-0.049	0.154
-528.048	-26.760	0.056	0.033
-527.033	800.000	0.067	-0.187
-526.018	94.678	-0.104	0.119
-525.004	97.549	-0.099	0.114
-523.989	-148.542	0.116	-0.010
-522.975	800.000	0.116	-0.474
-521.960	-56.390	0.279	0.125
-520.945	-200.000	0.031	-0.172
-519.931	-75.395	0.198	0.071
-518.916	-17.405	0.281	-0.178
-517.902	-200.000	-0.048	-0.283
-516.887	135.392	-0.170	-0.223
-515.872	366.496	-0.169	-0.343
-514.858	-130.136	0.545	0.075
-513.843	301.088	-0.176	-0.327
-512.829	446.420	0.048	0.105
-511.814	-8.709	-0.184	-0.124
-510.799	-85.181	0.260	-0.082
-509.785	172.273	-0.155	-0.224
-508.770	115.536	0.037	0.045
-507.756	-69.636	-0.180	-0.069
-506.741	65.148	0.116	0.118
-505.726	-156.971	0.251	-0.015
-504.712	21.637	-0.182	0.149
-503.697	-176.506	-0.039	0.001
-502.683	62.386	-0.218	0.219
-501.668	-24.608	0.291	0.174
-500.653	595.452	0.048	0.120
-499.639	-147.767	-0.203	-0.017
-498.624	-200.000	0.039	0.179
-497.610	-115.494	-0.159	0.030
-496.595	-52.430	-0.127	0.059
-495.581	45.192	0.205	-0.190
-494.566	-117.441	-0.549	0.100
-493.551	-200.000	0.039	0.229
-492.537	-114.873	0.218	0.042
-491.522	-73.069	0.084	0.031
-490.508	115.866	-0.082	0.101
-489.493	-200.000	-0.061	-0.322
-488.478	800.000	0.027	-0.104
-487.464	630.509	0.151	0.383
-486.449	58.047	-0.368	0.362
-485.435	-200.000	0.017	-0.261
-484.420	-104.065	-0.135	-0.032
-483.405	-200.000	-0.058	0.268
-482.391	-148.145	0.141	0.012
-481.376	-200.000	-0.002	-0.165
-480.362	-200.000	0.027	0.127
-479.347	-188.896	0.205	0.003
-478.332	800.000	0.107	0.411
-477.318	-200.000	0.018	-0.179
-476.303	-200.000	0.050	0.237
-475.289	-113.570	0.244	-0.048
-474.274	-30.932	-0.080	0.045
-473.259	-132.001	-0.157	-0.021
-472.245	800.000	-0.110	0.424
-471.230	-200.000	-0.014	0.198
-470.216	68.621	0.367	0.378
-469.201	9.104	-0.205	-0.155
-468.186	800.000	-0.012	-0.048
-467.172	-6.019	-0.188	0.129
-466.157	1.925	-0.164	-0.119
-465.143	120.133	0.115	-0.144
-464.128	-200.000	0.026	-0.133
-463.113	461.958	0.062	-0.139
-462.099	-21.549	-0.124	-0.076
-461.084	800.000	0.017	-0.066
-460.070	94.510	0.192	0.219
-459.055	-80.176	0.176	-0.059
-458.040	-200.000	-0.007	0.113
-457.026	305.363	-0.102	-0.190
-456.011	71.336	0.099	-0.103
-454.997	-49.441	-0.348	-0.167
-453.982	232.632	0.054	0.089
-452.968	800.000	-0.027	0.089
-451.953	800.000	-0.032	-0.134
-450.938	250.849	-0.050	-0.086
-449.924	-68.994	0.206	0.080
-448.909	393.589	-0.059	0.123
-447.895	111.030	-0.064	0.077
-446.880	1.388	0.160	0.116
-445.865	-127.404	0.142	-0.021
-444.851	-7.737	0.177	0.120
-443.836	-200.000	-0.010	-0.052
-442.822	800.000	-0.053	-0.200
-441.807	-109.618	0.385	-0.081
-440.792	800.000	-0.082	0.279
-439.778	-200.000	-0.065	-0.413
-438.763	487.892	0.079	-0.181
-437.749	-83.552	-0.118	0.038
-436.734	-179.604	-0.359	0.008
-435.719	140.638	0.088	0.117
-434.705	-91.285	0.101	0.029
-433.690	-200.000	0.012	-0.179
-432.676	-63.226	-0.272	-0.112
-431.661	800.000	-0.077	-0.226
-430.646	-200.000	0.030	-0.221
-429.632	-30.317	0.041	0.023
-428.617	-3.706	0.201	-0.140
-427.603	-25.670	-0.307	-0.182
-426.588	-92.529	0.060	0.017
-425.573	1.464	0.148	0.107
-424.559	102.230	0.194	0.227
-423.544	137.439	0.020	-0.026
-422.530	-87.747	-0.212	0.064
-421.515	10.890	-0.113	0.087
-420.500	699.247	-0.082	0.216
-419.486	-200.000	0.023	0.311
-418.471	247.072	-0.060	0.102
-417.457	-120.692	-0.156	-0.026
-416.442	-200.000	0.032	-0.272
-415.428	800.000	-0.053	0.169
-414.413	-200.000	-0.013	0.065
-413.398	-200.000	-0.009	-0.065
-412.384	800.000	0.080	0.251
-411.369	386.607	-0.041	-0.085
-410.355	-75.077	0.343	0.123
-409.340	283.889	0.033	-0.060
-408.325	-171.404	-0.275	0.009
-407.311	231.860	-0.031	-0.051
-406.296	-200.000	0.041	-0.269
-405.282	800.000	-0.013	-0.041
-404.267	65.566	0.082	-0.083
-403.252	198.982	-0.022	-0.034
-402.238	-62.079	-0.066	-0.028
-401.223	-145.053	-0.132	0.012
-400.209	80.511	0.155	0.168
-399.194	-101.025	-0.389	0.096
-398.179	-82.652	0.297	-0.096
-397.165	280.676	0.066	-0.119
-396.150	226.465	0.084	0.136
-395.136	111.256	-0.348	0.420
-394.121	-44.110	-0.151	-0.076
-393.106	800.000	0.040	0.123
-392.092	-161.962	0.085	0.004
-391.077	372.468	0.072	-0.147
-390.063	800.000	0.061	-0.263
-389.048	800.000	0.073	0.239
-388.033	97.695	-0.032	0.036
-387.019	-46.190	0.033	-0.016
-386.004	555.118	-0.204	0.492
-384.990	510.399	-0.091	0.211
-383.975	56.807	0.018	-0.018
-382.960	-70.319	0.059	0.022
-381.946	-96.410	-0.063	-0.017
-380.931	190.027	0.148	-0.222
-379.917	107.162	-0.109	-0.130
-378.902	639.278	0.010	-0.026
-377.888	-164.326	-0.155	0.007
-376.873	35.008	-0.138	-0.121
-375.858	800.000	-0.040	0.165
-374.844	-133.096	0.207	-0.026
-373.829	-87.646	-0.184	-0.056
-372.815	71.523	-0.377	0.392
-371.800	800.000	-0.062	0.174
-370.785	-21.194	0.342	-0.209
-369.771	-200.000	-0.016	-0.290
-368.756	112.382	0.251	0.304
-367.742	-42.822	0.125	-0.064
-366.727	-200.000	0.004	-0.103
-365.712	-17.920	0.164	0.103
-364.698	-90.098	-0.250	0.073
-363.683	241.964	-0.066	0.110
-362.669	-14.862	-0.264	-0.169
-361.654	-102.915	0.059	0.014
-360.639	-200.000	-0.018	-0.130
-359.625	-200.000	0.055	0.267
-358.610	381.725	-0.158	0.325
-357.596	-26.631	0.091	-0.053
-356.581	-122.237	0.337	0.055
-355.566	-63.184	0.177	-0.073
-354.552	800.000	0.086	0.264
-353.537	-62.338	0.142	-0.059
-352.523	-92.040	0.194	-0.055
-351.508	-200.000	-0.020	-0.279
-350.493	582.466	0.048	-0.118
-349.479	-185.734	-0.365	0.005
-348.464	-79.005	-0.263	0.089
-347.450	-200.000	-0.028	-0.236
-346.435	800.000	0.021	-0.077
-345.420	-23.383	-0.218	-0.131
-344.406	-200.000	0.033	-0.404
-343.391	-13.143	0.339	-0.220
-342.377	47.989	0.111	-0.103
-341.362	504.826	-0.058	-0.134
-340.348	-105.326	0.208	-0.047
-339.333	800.000	0.075	-0.265
-338.318	-200.000	-0.024	-0.197
-337.304	-200.000	-0.008	0.243
-336.289	-26.744	0.306	0.179
-335.275	288.912	0.173	0.313
-334.260	-200.000	0.003	0.037
-333.245	-99.670	0.400	-0.100
-332.231	-80.321	0.098	0.033
-331.216	235.842	-0.125	0.206
-330.202	-200.000	-0.050	-0.375
-329.187	176.310	-0.150	-0.218
-328.172	199.193	-0.139	0.213
-327.158	-138.582	-0.195	-0.021
-326.143	-135.675	-0.188	-0.022
-325.129	-19.667	0.386	-0.238
-324.114	355.838	-0.248	-0.493
-323.099	46.165	-0.136	0.126
-322.085	35.992	-0.126	-0.111
-321.070	-131.566	0.193	0.025
-320.056	203.946	-0.132	-0.204
-319.041	800.000	-0.065	-0.195
-318.026	90.476	-0.072	-0.080
-317.012	-200.000	-0.016	-0.096
-315.997	474.866	-0.042	-0.094
-314.983	54.196	-0.075	0.072
-313.968	-127.990	0.253	-0.036
-312.953	211.993	0.229	-0.361
-311.939	-31.133	0.232	-0.131
-310.924	-160.953	0.118	0.006
-309.910	191.087	0.064	-0.096
-308.895	-8.698	0.163	0.109
-307.880	800.000	-0.068	-0.222
-306.866	82.754	-0.103	-0.111
-305.851	-152.218	-0.292	0.021
-304.837	-200.000	-0.040	-0.344
-303.822	800.000	0.027	-0.100
-302.807	85.497	0.124	-0.135
-301.793	148.091	-0.239	0.321
-300.778	-200.000	-0.004	0.033
-299.764	83.334	-0.045	0.049
-298.749	-17.164	-0.078	-0.049
-297.735	58.024	-0.271	-0.264
-296.720	-96.118	0.196	-0.052
-295.705	800.000	-0.084	0.286
-294.691	372.679	0.095	0.193
-293.676	71.457	0.117	0.121
-292.662	-193.923	-0.211	0.002
-291.647	-170.713	0.228	-0.008
-290.632	-164.683	-0.135	0.006
-289.618	9.146	0.224	0.168
-288.603	-53.210	0.393	0.180
-287.589	-30.457	0.039	-0.022
-286.574	-141.538	-0.144	0.015
-285.559	32.044	0.104	-0.089
-284.545	390.614	-0.068	0.140
-283.530	-85.943	0.098	-0.030
-282.516	-200.000	-0.030	0.167
-281.501	94.159	0.097	0.110
-280.486	28.706	0.269	-0.227
-279.472	-55.812	0.091	0.041
-278.457	-172.660	-0.157	-0.005
-277.443	-200.000	0.007	0.158
-276.428	-10.491	0.298	0.196
-275.413	220.861	-0.096	-0.153
-274.399	208.454	-0.139	-0.217
-273.384	-90.870	0.101	0.029
-272.370	800.000	0.161	0.540
-271.355	-87.801	0.339	0.102
-270.340	-200.000	-0.033	0.300
-269.326	-136.745	-0.230	-0.026
-268.311	-168.757	0.311	0.012
-267.297	-159.637	-0.178	0.010
-266.282	-153.522	0.052	-0.004
-265.267	-200.000	-0.010	-0.283
-264.253	-102.532	0.220	0.052
-263.238	-118.704	0.287	-0.050
-262.224	-132.667	0.102	0.013
-261.209	134.833	-0.140	-0.181
-260.195	-152.470	-0.264	-0.019
-259.180	-200.000	-0.031	0.140
-258.165	88.805	0.090	0.100
-257.151	-84.811	-0.333	-0.104
-256.136	-3.065	-0.285	0.198
-255.122	-55.144	0.249	-0.112
-254.107	-127.901	-0.168	-0.024
-253.092	16.524	-0.123	0.096
-252.078	800.000	-0.028	0.095
-251.063	-90.744	-0.222	-0.064
-250.049	-200.000	0.025	0.280
-249.034	-61.377	0.112	-0.047
-248.019	-82.861	0.192	0.062
-247.005	84.749	-0.178	0.194
-245.990	-14.662	-0.348	-0.223
-244.976	-48.503	-0.139	-0.066
-243.961	40.526	0.108	0.097
-242.946	650.703	-0.047	-0.121
-241.932	27.461	-0.212	-0.178
-240.917	-97.011	0.169	-0.044
-239.903	362.900	-0.197	-0.394
-238.888	-11.526	-0.079	0.052
-237.873	733.122	-0.083	-0.221
-236.859	-153.904	-0.221	0.015
-235.844	-200.000	-0.034	0.269
-234.830	98.601	0.033	0.038
-233.815	745.965	-0.083	-0.221
-232.800	-200.000	0.083	0.425
-231.786	800.000	0.090	0.313
-230.771	-78.395	0.318	0.108
-229.757	-200.000	0.074	0.343
-228.742	9.224	-0.182	-0.137
-227.727	90.737	-0.045	-0.050
-226.713	-0.713	-0.144	0.102
-225.698	-200.000	-0.004	0.054
-224.684	-114.501	0.098	0.019
-223.669	6.768	-0.034	0.025
-222.655	-49.098	0.185	-0.088
-221.640	278.087	-0.095	0.168
-220.625	-127.111	0.208	-0.030
-219.611	-200.000	-0.028	0.153
-218.596	-6.041	0.361	-0.245
-217.582	87.834	0.250	-0.275
-216.567	-200.000	-0.058	-0.328
-215.552	16.398	-0.183	0.144
-214.538	-18.861	-0.078	0.048
-213.523	-3.075	0.044	0.030
-212.509	137.143	-0.161	0.209
-211.494	166.156	-0.045	0.063
-210.479	468.174	-0.129	-0.288
-209.465	-169.082	0.209	-0.008
-208.450	138.822	-0.198	-0.259
-207.436	-200.000	-0.023	0.274
-206.421	800.000	-0.166	0.505
-205.406	-200.000	0.057	-0.266
-204.392	-39.352	-0.210	-0.110
-203.377	-200.000	0.009	0.083
-202.363	672.944	0.026	-0.067
-201.348	-100.061	-0.308	-0.076
-200.333	-9.460	-0.160	-0.106
-199.319	178.850	0.126	0.182
-198.304	-181.998	-0.261	0.005
-197.290	121.831	0.060	0.075
-196.275	65.036	0.116	0.116
-195.260	-12.021	-0.332	0.216
-194.246	-96.780	-0.202	-0.053
-193.231	8.455	0.174	-0.130
-192.217	-200.000	-0.017	0.139
-191.202	800.000	0.160	0.446
-190.187	800.000	0.038	-0.130
-189.173	-200.000	0.027	0.365
-188.158	166.777	0.182	0.256
-187.144	800.000	-0.010	-0.032
-186.129	-59.994	-0.245	-0.104
-185.114	-119.150	-0.088	0.015
-184.100	800.000	0.078	0.303
-183.085	-200.000	-0.006	-0.315
-182.071	-200.000	-0.043	0.235
-181.056	-26.979	0.349	0.202
-180.042	-118.840	-0.046	-0.008
-179.027	-176.956	0.185	-0.005
-178.012	-7.516	-0.175	0.118
-176.998	366.490	0.123	0.247
-175.983	-75.186	-0.100	0.036
-174.969	-102.036	0.216	0.052
-173.954	409.166	-0.135	-0.285
-172.939	800.000	0.130	0.488
-171.925	209.289	0.130	-0.202
-170.910	-76.067	-0.423	-0.148
-169.896	-200.000	-0.002	0.127
-168.881	134.559	-0.085	-0.110
-167.866	-140.002	0.128	-0.013
-166.852	68.688	0.206	0.209
-165.837	-9.285	0.092	-0.061
-164.823	-49.476	-0.114	-0.054
-163.808	-15.405	0.267	0.169
-162.793	321.254	-0.018	0.034
-161.779	-200.000	-0.008	-0.396
-160.764	310.017	-0.038	0.071
-159.750	495.603	0.075	-0.171
-158.735	404.056	0.112	0.234
-157.720	-109.888	0.196	0.041
-156.706	-200.000	-0.037	-0.217
-155.691	-134.921	-0.317	-0.038
-154.677	-154.370	-0.087	0.006
-153.662	-200.000	0.024	-0.137
-152.647	-200.000	-0.012	-0.058
-151.633	-200.000	-0.054	0.267
-150.618	-200.000	-0.004	0.038
-149.604	-126.991	0.295	-0.043
-148.589	256.911	0.105	-0.178
-147.574	-14.877	-0.324	-0.206
-146.560	99.501	0.166	-0.191
-145.545	230.293	0.167	-0.271
-144.531	-40.087	0.320	0.165
-143.516	152.898	-0.103	0.140
-142.502	-140.231	-0.181	0.019
-141.487	800.000	0.038	-0.144
-140.472	-6.645	-0.125	-0.084
-139.458	-96.781	0.247	-0.064
-138.443	231.681	-0.092	0.149
-137.429	-200.000	-0.030	-0.423
-136.414	-103.235	0.121	-0.028
-135.399	122.919	-0.397	0.493
-134.385	192.898	0.144	-0.215
-133.370	200.709	-0.124	-0.188
-132.356	-200.000	-0.011	0.162
-131.341	253.677	0.094	-0.158
-130.326	324.841	0.098	0.185
-129.312	-81.142	-0.223	0.073
-128.297	-89.093	0.357	-0.105
-127.283	37.325	0.027	-0.024
-126.268	737.899	0.122	0.324
-125.253	-200.000	0.029	-0.217
-124.239	127.881	-0.117	0.147
-123.224	-38.232	0.197	-0.104
-122.210	-200.000	-0.028	0.124
