DTS Sentinel unit serial number:	SN413079Multiplexer serial number:	ORYXHardware model number:	OX4-SRSoftware version number:	ORYX F/W v4.00 Oryx Data Collector v3.7.2.0data status	okinstallation	princeton_trtdifferential loss correction	single-endedforward channel	channel 2reverse channel	N/Adate	2019/09/15time	00:51:35forward acquisition time	60.00reverse acquisition time	0.00gamma	496.2192k internal	0.2324k external	0.2324temperature offset calibration	1.0042default loss term (dB/km)	0.3790temperature slope calibration	1.0000multiplexer offset coefficient	1.0000multiplexer slope coefficient	1.0000fibre end	0.00T internal ref (°C)	32.05T ext. ref 1 (°C)	4.55T ext. ref 2 (°C)	27.00length (m)	temperature (°C)	Stokes	anti-Stokes-747.200	163.776	0.005	-0.007
-746.185	11.240	-0.576	0.445
-745.171	-4.986	-0.160	0.111
-744.156	800.000	-0.083	0.275
-743.142	-185.350	0.131	-0.002
-742.127	-59.639	-0.144	0.062
-741.112	24.923	0.136	0.114
-740.098	90.645	-0.153	0.173
-739.083	-1.326	0.148	0.105
-738.069	-200.000	0.004	0.236
-737.054	-63.164	-0.395	0.164
-736.039	-63.723	-0.090	0.037
-735.025	-125.199	0.436	-0.067
-734.010	162.938	-0.076	0.108
-732.996	-73.275	-0.233	-0.086
-731.981	709.573	0.078	-0.209
-730.966	-104.141	-0.142	0.033
-729.952	-99.892	0.118	0.030
-728.937	-133.606	0.181	-0.023
-727.923	108.050	-0.313	-0.376
-726.908	800.000	-0.108	0.322
-725.894	-59.787	-0.302	0.130
-724.879	-152.550	-0.235	0.017
-723.864	56.232	0.013	-0.013
-722.850	-33.416	-0.097	-0.054
-721.835	-139.856	-0.246	-0.026
-720.821	-20.176	-0.257	-0.160
-719.806	-130.763	-0.194	0.026
-718.791	-200.000	0.020	-0.177
-717.777	161.055	-0.087	-0.122
-716.762	-200.000	-0.010	-0.051
-715.748	118.914	-0.047	0.059
-714.733	-100.229	0.500	-0.125
-713.718	-175.981	-0.266	0.007
-712.704	-200.000	-0.037	0.322
-711.689	423.895	0.186	-0.403
-710.675	-200.000	0.001	0.225
-709.660	519.141	0.088	0.209
-708.645	-151.587	-0.160	0.012
-707.631	800.000	-0.112	0.316
-706.616	534.371	0.035	0.084
-705.602	-200.000	0.023	0.108
-704.587	-135.435	0.428	0.051
-703.572	112.242	0.044	-0.053
-702.558	474.824	0.134	-0.304
-701.543	-104.617	0.370	-0.086
-700.529	544.606	-0.078	0.187
-699.514	366.015	0.196	-0.398
-698.499	800.000	0.019	0.052
-697.485	-18.727	0.253	-0.159
-696.470	208.317	0.188	-0.296
-695.456	650.847	-0.066	-0.171
-694.441	248.839	-0.019	-0.033
-693.426	107.460	-0.122	0.146
-692.412	415.191	-0.172	-0.370
-691.397	75.334	0.045	0.048
-690.383	-32.438	-0.247	0.139
-689.368	-77.939	0.117	-0.041
-688.354	-200.000	-0.015	-0.106
-687.339	-92.945	-0.218	-0.061
-686.324	109.906	0.214	0.259
-685.310	-146.931	-0.068	0.006
-684.295	71.050	-0.097	0.101
-683.281	800.000	0.051	-0.175
-682.266	793.740	-0.083	-0.229
-681.251	628.166	-0.066	0.168
-680.237	-121.799	0.275	-0.046
-679.222	89.291	-0.278	-0.312
-678.208	-139.649	-0.215	0.023
-677.193	20.960	0.195	0.159
-676.178	-176.830	0.269	0.007
-675.164	-200.000	-0.017	-0.334
-674.149	-200.000	-0.033	-0.316
-673.135	-61.138	0.097	-0.041
-672.120	-200.000	0.012	-0.292
-671.105	-107.934	-0.436	0.095
-670.091	-101.155	-0.118	-0.029
-669.076	-89.802	-0.194	-0.057
-668.062	196.079	-0.172	0.263
-667.047	124.662	-0.147	0.186
-666.032	477.260	0.112	-0.256
-665.018	800.000	-0.032	0.102
-664.003	800.000	-0.089	-0.304
-662.989	-74.870	-0.149	-0.054
-661.974	306.582	-0.101	0.189
-660.959	-127.720	-0.222	0.032
-659.945	-98.603	0.227	-0.058
-658.930	168.152	-0.108	0.155
-657.916	-4.794	0.214	0.149
-656.901	-200.000	-0.015	0.383
-655.886	800.000	0.074	0.276
-654.872	-86.515	0.353	0.109
-653.857	-200.000	-0.015	0.152
-652.843	128.143	-0.269	0.344
-651.828	-200.000	-0.052	0.237
-650.814	-72.720	0.266	0.099
-649.799	100.255	0.045	-0.052
-648.784	800.000	0.099	0.391
-647.770	-200.000	0.014	0.153
-646.755	-24.086	0.230	-0.138
-645.741	49.407	-0.096	-0.091
-644.726	767.892	0.070	0.193
-643.711	-99.051	0.138	0.035
-642.697	-68.540	0.096	-0.037
-641.682	56.527	-0.044	0.043
-640.668	-93.189	-0.150	-0.042
-639.653	800.000	-0.040	-0.174
-638.638	-200.000	-0.011	0.176
-637.624	-20.506	0.146	0.090
-636.609	124.969	0.045	-0.057
-635.595	-88.050	0.189	-0.057
-634.580	-77.011	0.165	-0.058
-633.565	-200.000	-0.099	-0.515
-632.551	2.834	0.084	0.062
-631.536	-200.000	-0.031	-0.353
-630.522	98.854	-0.109	-0.127
-629.507	-43.162	0.060	0.031
-628.492	-200.000	-0.044	0.221
-627.478	-8.416	-0.181	-0.122
-626.463	35.686	0.235	0.208
-625.449	800.000	-0.034	0.147
-624.434	-1.416	-0.400	0.283
-623.419	-80.307	0.060	-0.020
-622.405	-200.000	0.023	0.139
-621.390	12.297	-0.110	0.085
-620.376	800.000	0.083	0.233
-619.361	60.691	0.230	0.229
-618.346	170.231	-0.234	-0.336
-617.332	-20.764	0.063	-0.039
-616.317	-58.558	-0.305	0.133
-615.303	104.542	-0.214	0.253
-614.288	226.463	-0.090	0.147
-613.273	150.415	0.137	0.187
-612.259	741.520	0.036	0.096
-611.244	-24.144	-0.145	0.087
-610.230	-42.308	0.165	-0.085
-609.215	-143.103	0.189	-0.018
-608.201	-75.029	-0.318	-0.114
-607.186	-61.990	-0.239	0.100
-606.171	617.343	0.101	-0.254
-605.157	-200.000	-0.004	-0.069
-604.142	17.166	-0.071	-0.056
-603.128	64.327	-0.026	-0.027
-602.113	-200.000	0.005	0.111
-601.098	-53.238	0.071	0.033
-600.084	169.158	-0.070	-0.101
-599.069	-200.000	0.036	-0.498
-598.055	58.009	0.120	0.118
-597.040	265.092	-0.151	-0.263
-596.025	-31.779	0.049	-0.027
-595.011	66.895	0.146	-0.149
-593.996	1.798	-0.138	-0.100
-592.982	800.000	0.020	-0.066
-591.967	116.259	-0.086	0.106
-590.952	-200.000	-0.319	0.000
-589.938	66.274	-0.194	0.197
-588.923	-63.455	-0.476	0.196
-587.909	26.550	-0.129	-0.109
-586.894	-200.000	-0.012	0.081
-585.879	-103.714	-0.229	0.054
-584.865	-57.792	-0.319	-0.140
-583.850	32.764	0.186	-0.162
-582.836	218.647	-0.123	0.197
-581.821	107.154	0.148	-0.176
-580.806	37.005	0.164	0.146
-579.792	-200.000	0.008	-0.142
-578.777	-200.000	0.052	-0.286
-577.763	78.119	-0.074	0.079
-576.748	578.809	-0.106	0.260
-575.733	-97.463	-0.130	0.034
-574.719	-50.320	0.255	-0.121
-573.704	800.000	0.042	0.149
-572.690	-200.000	-0.008	0.396
-571.675	800.000	-0.065	0.181
-570.661	178.930	-0.095	0.139
-569.646	800.000	0.083	-0.321
-568.631	138.043	-0.106	0.140
-567.617	-98.035	-0.311	-0.080
-566.602	501.602	-0.162	-0.374
-565.588	-41.665	0.219	0.113
-564.573	25.964	0.090	0.076
-563.558	103.296	0.283	0.333
-562.544	-200.000	-0.020	-0.183
-561.529	92.519	0.091	-0.103
-560.515	-106.804	0.277	-0.062
-559.500	168.633	0.094	-0.135
-558.485	-87.078	-0.039	0.012
-557.471	24.524	0.120	-0.099
-556.456	277.696	-0.131	-0.233
-555.442	-113.083	-0.180	0.036
-554.427	-117.608	-0.258	-0.047
-553.412	28.895	-0.209	-0.178
-552.398	318.886	-0.104	0.198
-551.383	-81.892	0.307	0.101
-550.369	-200.000	0.004	-0.052
-549.354	-84.493	-0.171	-0.054
-548.339	15.607	-0.123	-0.097
-547.325	-200.000	-0.018	0.150
-546.310	43.372	-0.144	0.132
-545.296	14.913	-0.220	0.172
-544.281	-200.000	-0.066	-0.320
-543.266	-199.249	-0.197	-0.001
-542.252	379.526	-0.081	-0.166
-541.237	-200.000	-0.053	-0.249
-540.223	68.043	-0.072	-0.073
-539.208	45.994	0.024	-0.022
-538.193	570.347	0.184	0.449
-537.179	800.000	-0.092	-0.335
-536.164	800.000	0.064	-0.248
-535.150	-12.830	0.225	-0.147
-534.135	117.878	-0.130	-0.160
-533.121	24.973	-0.190	0.158
-532.106	359.508	0.137	0.274
-531.091	401.241	-0.101	-0.211
-530.077	270.487	-0.005	-0.009
-529.062	219.567	-0.302	0.484
-528.048	-200.000	0.016	0.070
-527.033	92.515	0.173	0.195
-526.018	-7.045	0.179	0.122
-525.004	-200.000	-0.001	0.442
-523.989	107.197	-0.167	-0.198
-522.975	-171.246	-0.291	-0.010
-521.960	141.747	0.216	-0.287
-520.945	-200.000	-0.016	0.386
-519.931	-27.014	-0.269	0.157
-518.916	800.000	-0.028	0.097
-517.902	-130.791	0.371	-0.050
-516.887	800.000	-0.127	-0.354
-515.872	-200.000	0.027	0.141
-514.858	-138.500	0.170	0.019
-513.843	151.401	-0.127	0.173
-512.829	576.955	-0.112	0.273
-511.814	-164.256	0.115	-0.005
-510.799	315.850	-0.091	-0.172
-509.785	-134.822	0.126	-0.015
-508.770	125.115	0.238	0.300
-507.756	230.668	-0.078	0.127
-506.741	-13.309	-0.273	-0.177
-505.726	-110.921	0.273	-0.056
-504.712	-86.640	-0.327	-0.100
-503.697	-100.794	-0.377	0.093
-502.683	57.395	-0.365	-0.356
-501.668	282.639	-0.107	-0.192
-500.653	-68.824	-0.290	0.112
-499.639	-84.672	0.078	-0.024
-498.624	-200.000	0.004	0.075
-497.610	-200.000	0.045	0.410
-496.595	72.868	-0.121	0.126
-495.581	-47.668	0.073	0.035
-494.566	-23.461	0.588	0.353
-493.551	11.219	-0.056	-0.043
-492.537	-110.184	0.310	-0.065
-491.522	375.453	0.033	-0.067
-490.508	454.359	0.025	-0.056
-489.493	-193.348	-0.132	-0.001
-488.478	-100.475	-0.077	0.019
-487.464	800.000	0.058	0.191
-486.449	-200.000	0.001	-0.144
-485.435	107.228	0.120	-0.143
-484.420	-200.000	0.008	-0.141
-483.405	3.272	0.399	-0.290
-482.391	-61.490	0.481	0.202
-481.376	67.801	0.188	0.192
-480.362	-200.000	-0.007	-0.249
-479.347	-134.968	-0.527	-0.064
-478.332	-141.035	0.210	-0.022
-477.318	-107.760	0.229	-0.050
-476.303	-200.000	0.013	0.335
-475.289	-200.000	-0.016	0.350
-474.274	75.466	0.120	0.127
-473.259	-161.402	0.301	-0.016
-472.245	-143.575	-0.182	0.017
-471.230	800.000	0.046	-0.180
-470.216	-80.026	0.152	-0.051
-469.201	-199.683	-0.167	-0.001
-468.186	800.000	-0.055	-0.158
-467.172	33.718	0.043	-0.038
-466.157	-101.657	0.243	-0.059
-465.143	2.570	0.275	0.199
-464.128	-93.659	0.072	-0.020
-463.113	-17.393	-0.164	-0.103
-462.099	-163.055	0.252	0.012
-461.084	1.519	-0.182	-0.130
-460.070	-157.628	0.259	-0.015
-459.055	-103.729	0.339	-0.079
-458.040	160.034	-0.088	0.122
-457.026	269.162	0.128	-0.223
-456.011	800.000	-0.110	-0.340
-454.997	-200.000	0.041	-0.291
-453.982	-108.012	-0.374	-0.081
-452.968	-117.586	-0.145	0.026
-451.953	800.000	0.031	0.095
-450.938	800.000	-0.050	0.205
-449.924	189.456	-0.143	-0.213
-448.909	60.867	0.071	0.070
-447.895	-0.150	-0.145	0.103
-446.880	-190.558	-0.155	0.002
-445.865	-175.215	-0.092	-0.003
-444.851	800.000	-0.036	0.103
-443.836	-73.229	0.604	-0.221
-442.822	-200.000	-0.184	0.000
-441.807	-172.288	0.223	-0.007
-440.792	-81.201	0.179	-0.059
-439.778	-30.676	-0.202	-0.114
-438.763	-110.231	-0.202	0.042
-437.749	362.040	-0.111	0.222
-436.734	-200.000	-0.216	0.001
-435.719	-200.000	-0.023	-0.144
-434.705	800.000	0.061	0.191
-433.690	-86.431	0.317	0.097
-432.676	-123.407	0.079	-0.013
-431.661	-129.550	0.061	-0.008
-430.646	-200.000	0.008	0.101
-429.632	261.742	-0.147	-0.254
-428.617	393.740	0.043	0.089
-427.603	13.860	-0.269	0.208
-426.588	55.831	-0.264	0.255
-425.573	5.113	0.136	0.100
-424.559	225.574	-0.134	-0.216
-423.544	-95.422	-0.109	-0.029
-422.530	179.428	0.141	-0.206
-421.515	-148.307	-0.259	-0.021
-420.500	-200.000	-0.030	-0.149
-419.486	-71.633	0.092	-0.034
-418.471	-200.000	-0.020	-0.278
-417.457	-200.000	0.032	0.341
-416.442	259.625	-0.080	0.137
-415.428	-36.496	0.182	-0.098
-414.413	-27.162	0.308	0.179
-413.398	78.208	-0.126	0.134
-412.384	27.073	-0.121	-0.101
-411.369	800.000	0.040	-0.141
-410.355	-200.000	0.004	-0.020
-409.340	-11.241	0.155	0.101
-408.325	-5.975	-0.194	-0.132
-407.311	-110.520	-0.098	0.020
-406.296	-200.000	-0.003	-0.064
-405.282	47.895	-0.143	0.133
-404.267	800.000	0.083	0.301
-403.252	-149.469	0.312	0.025
-402.238	124.070	0.143	-0.179
-401.223	-43.598	-0.124	-0.062
-400.209	800.000	0.050	-0.192
-399.194	-200.000	0.004	0.069
-398.179	-53.098	-0.074	0.034
-397.165	-123.329	0.282	0.045
-396.150	314.328	-0.103	-0.193
-395.136	199.228	0.118	-0.181
-394.121	-200.000	-0.034	0.337
-393.106	452.805	0.141	0.310
-392.092	306.769	0.049	-0.092
-391.077	-142.680	0.217	-0.021
-390.063	9.045	0.100	0.075
-389.048	-165.294	-0.308	0.013
-388.033	117.642	-0.019	0.024
-387.019	-56.078	0.262	-0.116
-386.004	-64.865	-0.201	-0.081
-384.990	449.938	0.096	0.210
-383.975	255.536	-0.015	0.025
-382.960	315.857	-0.184	0.345
-381.946	35.449	-0.238	0.208
-380.931	587.499	-0.064	-0.157
-379.917	-130.100	0.231	0.031
-378.902	-200.000	0.011	-0.164
-377.888	109.860	0.191	0.228
-376.873	-200.000	-0.004	-0.123
-375.858	-200.000	0.020	-0.153
-374.844	-179.875	0.361	0.008
-373.829	-155.970	0.213	-0.013
-372.815	529.684	-0.044	-0.104
-371.800	-200.000	-0.043	0.225
-370.785	-44.166	0.262	0.131
-369.771	800.000	0.008	0.023
-368.756	-200.000	0.034	0.188
-367.742	-31.949	-0.188	0.105
-366.727	23.645	0.132	-0.108
-365.712	-7.590	0.265	-0.178
-364.698	242.328	-0.193	0.321
-363.683	-73.192	-0.188	0.069
-362.669	-130.791	-0.139	-0.019
-361.654	487.763	0.060	0.137
-360.639	-200.000	0.029	0.402
-359.625	-110.669	0.116	-0.024
-358.610	728.308	-0.053	0.142
-357.596	71.584	-0.072	-0.075
-356.581	275.440	-0.151	-0.266
-355.566	-34.045	0.099	0.054
-354.552	-200.000	0.004	-0.142
-353.537	74.624	-0.066	0.069
-352.523	94.169	0.063	0.071
-351.508	-139.593	-0.326	0.035
-350.493	104.847	-0.088	-0.103
-349.479	-200.000	-0.017	0.130
-348.464	-200.000	0.013	0.064
-347.450	800.000	-0.040	-0.115
-346.435	-62.478	0.213	-0.088
-345.420	800.000	-0.152	0.460
-344.406	-200.000	0.156	-0.001
-343.391	2.600	0.172	0.124
-342.377	-152.470	-0.164	-0.012
-341.362	134.674	0.258	-0.333
-340.348	-84.469	0.247	-0.078
-339.333	-25.400	-0.019	0.011
-338.318	-152.396	0.222	0.016
-337.304	158.021	0.173	0.238
-336.289	800.000	-0.039	-0.152
-335.275	-86.055	0.167	0.051
-334.260	-14.021	0.325	-0.208
-333.245	-103.559	0.141	0.033
-332.231	800.000	0.058	-0.223
-331.216	-38.150	-0.126	0.067
-330.202	-200.000	-0.011	-0.296
-329.187	-172.558	-0.280	0.009
-328.172	800.000	0.076	0.248
-327.158	-141.248	0.352	0.036
-326.143	-200.000	0.008	-0.067
-325.129	-200.000	0.018	-0.351
-324.114	-176.140	0.210	0.005
-323.099	-84.186	0.349	0.110
-322.085	-93.442	-0.235	-0.065
-321.070	-200.000	0.011	-0.071
-320.056	461.924	0.149	-0.329
-319.041	-34.182	0.046	0.025
-318.026	-124.071	-0.220	-0.034
-317.012	800.000	-0.017	0.072
-315.997	-167.498	0.190	0.008
-314.983	-108.478	0.152	0.033
-313.968	-151.691	-0.256	-0.019
-312.953	-80.566	0.146	-0.048
-311.939	25.816	0.160	-0.132
-310.924	-200.000	-0.041	0.182
-309.910	-156.643	-0.120	0.007
-308.895	393.847	0.080	0.166
-307.880	-200.000	-0.378	0.000
-306.866	-200.000	0.025	0.257
-305.851	-22.534	-0.323	-0.194
-304.837	329.338	0.141	-0.269
-303.822	365.745	-0.047	-0.094
-302.807	7.539	-0.300	-0.223
-301.793	-111.929	0.101	0.020
-300.778	-48.747	-0.119	-0.057
-299.764	-200.000	-0.029	0.249
-298.749	-121.329	-0.149	-0.025
-297.735	311.374	-0.151	-0.281
-296.720	309.394	-0.095	-0.177
-295.705	-144.685	0.435	-0.040
-294.691	-111.907	-0.246	-0.049
-293.676	800.000	-0.116	-0.431
-292.662	11.258	0.303	-0.230
-291.647	-200.000	-0.037	0.207
-290.632	-200.000	-0.002	0.295
-289.618	-0.694	-0.221	-0.156
-288.603	-73.960	0.326	0.117
-287.589	207.519	0.182	-0.282
-286.574	800.000	0.035	0.135
-285.559	35.238	-0.183	0.159
-284.545	12.944	0.156	0.120
-283.530	2.715	0.106	-0.077
-282.516	-64.647	0.019	-0.008
-281.501	-81.774	-0.011	-0.004
-280.486	771.809	0.075	-0.202
-279.472	135.970	-0.148	-0.191
-278.457	310.830	0.165	0.306
-277.443	-156.354	-0.189	0.012
-276.428	-89.070	-0.185	-0.054
-275.413	-96.109	0.250	0.066
-274.399	-135.589	-0.131	-0.015
-273.384	31.515	-0.061	0.052
-272.370	106.683	0.052	-0.061
-271.355	-32.077	0.214	-0.118
-270.340	161.137	-0.109	0.151
-269.326	467.423	0.109	0.243
-268.311	48.241	-0.161	-0.149
-267.297	111.561	-0.014	0.016
-266.282	244.934	-0.290	0.483
-265.267	800.000	0.053	-0.155
-264.253	315.916	0.100	-0.186
-263.238	-49.719	-0.233	0.110
-262.224	800.000	0.134	-0.401
-261.209	194.992	-0.137	-0.206
-260.195	-100.352	-0.434	0.107
-259.180	57.118	0.051	-0.050
-258.165	-70.428	0.085	0.032
-257.151	10.470	-0.138	0.104
-256.136	-176.048	0.137	0.004
-255.122	717.544	-0.054	-0.142
-254.107	-200.000	0.021	-0.137
-253.092	-40.151	-0.135	0.070
-252.078	800.000	-0.051	0.199
-251.063	540.521	-0.046	-0.107
-250.049	100.508	0.280	-0.322
-249.034	27.022	0.139	-0.115
-248.019	92.276	-0.086	-0.096
-247.005	-179.455	-0.061	0.001
-245.990	-4.311	-0.131	0.089
-244.976	-169.042	-0.173	-0.006
-243.961	635.044	-0.134	0.335
-242.946	-81.297	-0.046	0.015
-241.932	50.456	0.159	0.149
-240.917	240.994	-0.085	-0.141
-239.903	-115.592	0.168	0.031
-238.888	-200.000	-0.026	-0.135
-237.873	-200.000	-0.024	-0.206
-236.859	800.000	0.075	0.243
-235.844	-5.799	-0.325	0.221
-234.830	-112.226	0.377	-0.075
-233.815	135.923	0.116	-0.150
-232.800	-46.511	0.060	-0.029
-231.786	-127.730	0.249	0.036
-230.771	-0.109	-0.057	0.040
-229.757	121.583	-0.051	0.062
-228.742	670.661	0.037	-0.094
-227.727	-18.628	-0.115	-0.071
-226.713	-89.792	0.073	-0.021
-225.698	2.859	-0.197	-0.142
-224.684	-48.919	0.139	-0.066
-223.669	-131.662	0.326	-0.042
-222.655	-38.114	0.204	0.107
-221.640	-156.632	0.365	-0.022
-220.625	-200.000	-0.018	0.134
-219.611	-11.939	0.115	0.074
-218.596	-52.000	0.270	-0.124
-217.582	-155.640	-0.278	0.018
-216.567	-156.261	-0.057	0.004
-215.552	-95.810	0.082	-0.022
-214.538	-200.000	0.018	0.186
-213.523	218.395	0.144	0.228
-212.509	-99.845	0.179	0.044
-211.494	-98.537	-0.258	-0.065
-210.479	147.844	-0.180	-0.240
-209.465	-116.059	-0.054	-0.010
-208.450	-136.125	0.209	-0.024
-207.436	50.236	0.065	0.060
-206.421	478.948	0.111	-0.249
-205.406	-85.126	-0.406	-0.126
-204.392	20.331	-0.036	0.029
-203.377	-171.153	-0.137	-0.005
-202.363	-85.011	-0.157	-0.049
-201.348	38.165	-0.438	-0.385
-200.333	-69.955	0.210	-0.079
-199.319	-51.819	0.007	0.003
-198.304	53.071	-0.014	-0.013
-197.290	-200.000	-0.003	-0.307
-196.275	-45.885	-0.210	-0.103
-195.260	-200.000	0.010	-0.089
-194.246	-13.645	-0.138	0.088
-193.231	-99.572	0.168	0.042
-192.217	-200.000	0.035	-0.266
-191.202	-114.245	-0.298	0.057
-190.187	-69.144	0.366	-0.139
-189.173	-200.000	-0.018	-0.189
-188.158	657.468	-0.067	-0.171
-187.144	800.000	0.062	-0.221
-186.129	-50.177	0.395	-0.185
-185.114	32.604	0.102	-0.087
-184.100	-61.205	0.010	-0.004
-183.085	-29.347	0.305	0.172
-182.071	-45.627	-0.221	-0.108
-181.056	13.515	0.316	0.242
-180.042	-5.009	-0.332	0.226
-179.027	711.233	0.095	-0.247
-178.012	-64.761	-0.174	0.070
-176.998	-200.000	-0.033	0.293
-175.983	330.479	-0.090	-0.172
-174.969	-140.577	0.172	-0.018
-173.954	367.449	0.109	0.217
-172.939	26.042	0.090	0.074
-171.925	-73.902	0.187	0.067
-170.910	-76.606	-0.274	0.095
-169.896	-143.638	-0.403	0.038
-168.881	3.088	0.079	0.057
-167.866	733.635	0.091	0.240
-166.852	800.000	0.099	-0.293
-165.837	-200.000	-0.062	0.456
-164.823	800.000	0.059	-0.192
-163.808	-98.756	-0.432	0.109
-162.793	9.201	-0.107	0.080
-161.779	-87.689	-0.205	-0.061
-160.764	17.131	0.333	0.261
-159.750	169.949	0.057	-0.080
-158.735	-82.951	0.019	-0.006
-157.720	389.556	0.118	0.241
-156.706	694.444	-0.097	-0.251
-155.691	-15.455	-0.241	0.152
-154.677	303.394	-0.058	0.106
-153.662	-129.279	0.339	0.047
-152.647	37.666	-0.268	0.234
-151.633	469.954	-0.068	0.150
-150.618	397.646	0.151	-0.311
-149.604	119.269	-0.188	0.229
-148.589	208.240	-0.181	0.279
-147.574	-200.000	-0.049	-0.224
-146.560	-29.290	-0.222	0.125
-145.545	-83.896	0.263	0.082
-144.531	-7.253	0.125	0.084
-143.516	272.002	0.041	-0.072
-142.502	367.303	0.058	-0.115
-141.487	145.347	0.178	0.235
-140.472	143.295	-0.059	0.078
-139.458	108.021	-0.170	-0.200
-138.443	-80.017	0.429	-0.142
-137.429	102.100	-0.069	-0.079
-136.414	-124.360	-0.106	0.016
-135.399	-125.595	0.109	0.016
-134.385	10.367	0.181	-0.136
-133.370	-200.000	-0.009	-0.236
-132.356	800.000	0.079	0.270
-131.341	-77.637	0.332	0.113
-130.326	-158.524	0.451	0.026
-129.312	-200.000	-0.003	0.274
-128.297	699.843	0.054	0.140
-127.283	277.566	0.152	-0.267
-126.268	-88.425	-0.068	0.020
-125.253	-200.000	-0.007	0.266
-124.239	69.988	0.117	0.119
-123.224	-118.131	-0.226	-0.040
-122.210	800.000	0.014	-0.039
