DTS Sentinel unit serial number:	SN413079Multiplexer serial number:	ORYXHardware model number:	OX4-SRSoftware version number:	ORYX F/W v4.00 Oryx Data Collector v3.7.2.0data status	okinstallation	princeton_trtdifferential loss correction	single-endedforward channel	channel 2reverse channel	N/Adate	2019/09/15time	20:31:34forward acquisition time	60.00reverse acquisition time	0.00gamma	496.2192k internal	0.2329k external	0.2329temperature offset calibration	0.9935default loss term (dB/km)	0.3790temperature slope calibration	1.0000multiplexer offset coefficient	1.0000multiplexer slope coefficient	1.0000fibre end	0.00T internal ref (°C)	33.37T ext. ref 1 (°C)	7.83T ext. ref 2 (°C)	25.13length (m)	temperature (°C)	Stokes	anti-Stokes-747.200	14.637	-0.299	0.235
-746.185	-130.983	-0.341	0.046
-745.171	-131.375	0.155	0.021
-744.156	500.365	-0.059	0.137
-743.142	800.000	-0.078	0.223
-742.127	130.560	0.235	0.304
-741.112	800.000	0.067	0.238
-740.098	-200.000	0.029	0.208
-739.083	800.000	-0.067	0.266
-738.069	325.471	0.113	0.217
-737.054	180.475	-0.200	-0.295
-736.039	-0.623	0.213	0.152
-735.025	-52.473	0.176	0.082
-734.010	247.839	-0.199	-0.339
-732.996	256.431	0.121	0.209
-731.981	60.488	-0.163	-0.162
-730.966	44.670	-0.168	-0.156
-729.952	-8.554	0.109	0.073
-728.937	37.887	0.143	0.128
-727.923	-132.366	0.264	-0.034
-726.908	64.127	-0.250	0.253
-725.894	800.000	0.081	0.279
-724.879	378.698	-0.122	-0.251
-723.864	800.000	0.048	0.153
-722.850	-113.530	0.238	0.047
-721.835	208.869	-0.053	0.083
-720.821	-81.935	0.141	-0.046
-719.806	-104.256	-0.192	-0.045
-718.791	-98.005	-0.190	-0.049
-717.777	393.133	0.112	-0.234
-716.762	-185.571	-0.213	0.003
-715.748	139.660	0.131	0.174
-714.733	-111.986	-0.276	0.056
-713.718	-10.908	-0.189	-0.126
-712.704	-83.610	-0.133	0.043
-711.689	-53.593	-0.187	-0.086
-710.675	-200.000	0.002	0.114
-709.660	-169.654	-0.213	-0.008
-708.645	-56.148	-0.148	-0.066
-707.631	257.647	0.188	-0.326
-706.616	-34.159	0.142	-0.079
-705.602	275.308	0.138	-0.246
-704.587	-156.204	-0.213	0.013
-703.572	523.432	-0.012	0.028
-702.558	-30.478	0.112	-0.064
-701.543	-130.611	-0.277	0.038
-700.529	25.633	0.113	-0.095
-699.514	-200.000	-0.085	-0.418
-698.499	109.130	0.127	0.153
-697.485	231.528	-0.183	-0.301
-696.470	134.168	-0.176	-0.229
-695.456	-98.167	0.129	0.033
-694.441	-28.473	0.226	0.131
-693.426	-52.297	0.218	0.101
-692.412	443.476	0.077	0.169
-691.397	-200.000	0.019	0.091
-690.383	-98.610	-0.187	-0.048
-689.368	800.000	0.064	0.195
-688.354	344.578	0.201	0.395
-687.339	-200.000	0.000	0.218
-686.324	800.000	0.043	-0.173
-685.310	85.131	0.139	0.153
-684.295	575.882	0.048	-0.118
-683.281	-43.380	-0.215	-0.109
-682.266	800.000	-0.037	0.142
-681.251	800.000	-0.021	0.074
-680.237	-200.000	-0.030	-0.186
-679.222	-178.716	0.210	0.005
-678.208	-200.000	0.045	0.286
-677.193	-38.678	-0.197	0.104
-676.178	650.591	-0.038	-0.099
-675.164	328.602	-0.032	0.062
-674.149	-23.316	0.241	0.145
-673.135	-74.936	-0.197	-0.071
-672.120	-169.092	-0.198	0.007
-671.105	-200.000	0.039	0.173
-670.091	800.000	0.149	0.439
-669.076	130.712	-0.158	-0.203
-668.062	-2.906	0.169	-0.118
-667.047	17.238	0.206	0.164
-666.032	-27.184	-0.154	-0.090
-665.018	266.477	-0.204	0.359
-664.003	-155.346	0.091	0.006
-662.989	800.000	-0.072	0.313
-661.974	61.740	-0.168	-0.168
-660.959	-188.852	-0.466	-0.006
-659.945	-102.227	-0.204	-0.049
-658.930	-48.988	-0.137	0.066
-657.916	-200.000	-0.032	0.346
-656.901	14.842	0.052	0.041
-655.886	800.000	-0.067	-0.194
-654.872	97.711	-0.161	0.185
-653.857	800.000	-0.071	-0.243
-652.843	481.463	0.188	0.429
-651.828	-19.762	-0.071	0.044
-650.814	800.000	-0.089	-0.249
-649.799	-76.431	-0.261	0.092
-648.784	800.000	0.045	0.169
-647.770	108.413	0.143	-0.171
-646.755	-200.000	0.038	0.349
-645.741	-162.133	-0.162	-0.008
-644.726	-200.000	0.017	-0.555
-643.711	234.561	0.123	0.203
-642.697	-179.698	-0.284	0.006
-641.682	232.997	-0.258	-0.426
-640.668	-145.121	-0.156	0.014
-639.653	175.885	-0.221	-0.322
-638.638	204.342	-0.189	-0.294
-637.624	-200.000	-0.004	0.072
-636.609	-58.111	0.139	-0.061
-635.595	435.288	-0.024	0.051
-634.580	-200.000	0.022	0.112
-633.565	-200.000	-0.011	-0.127
-632.551	-69.010	-0.208	-0.081
-631.536	-104.560	-0.064	0.015
-630.522	-160.159	0.432	0.024
-629.507	262.270	0.055	-0.096
-628.492	72.603	-0.293	0.307
-627.478	-132.257	-0.238	-0.031
-626.463	-200.000	0.014	0.308
-625.449	-107.263	0.101	-0.022
-624.434	178.648	0.095	-0.139
-623.419	-22.712	0.151	-0.091
-622.405	-200.000	-0.020	-0.192
-621.390	-38.305	0.119	0.063
-620.376	-66.518	0.217	-0.086
-619.361	54.333	-0.129	-0.125
-618.346	472.467	0.075	-0.168
-617.332	142.961	-0.120	-0.160
-616.317	-200.000	-0.005	-0.231
-615.303	-29.647	0.149	-0.085
-614.288	275.523	0.145	0.257
-613.273	185.405	-0.054	0.081
-612.259	-39.407	0.291	-0.153
-611.244	-145.351	0.118	0.011
-610.230	-104.788	0.112	-0.026
-609.215	-104.486	-0.343	-0.079
-608.201	24.929	0.044	-0.037
-607.186	-145.994	0.227	0.020
-606.171	52.495	-0.141	-0.135
-605.157	-200.000	0.044	0.218
-604.142	187.589	0.258	0.386
-603.128	-200.000	-0.021	-0.179
-602.113	276.420	-0.028	0.049
-601.098	-42.219	-0.492	0.252
-600.084	-45.984	0.256	-0.127
-599.069	291.863	-0.127	-0.231
-598.055	800.000	-0.058	-0.202
-597.040	-200.000	0.026	0.283
-596.025	-135.076	0.181	-0.022
-595.011	-200.000	0.044	0.341
-593.996	-173.777	0.456	-0.014
-592.982	712.664	-0.143	0.379
-591.967	800.000	-0.043	0.155
-590.952	800.000	-0.130	0.361
-589.938	-28.611	0.281	-0.162
-588.923	15.801	0.129	-0.101
-587.909	417.189	-0.100	-0.213
-586.894	800.000	-0.020	0.068
-585.879	-94.170	0.427	-0.117
-584.865	-153.524	-0.240	0.017
-583.850	-200.000	-0.031	0.195
-582.836	-200.000	-0.049	-0.243
-581.821	-59.663	0.363	0.156
-580.806	-40.003	-0.271	0.142
-579.792	65.261	-0.081	-0.082
-578.777	0.959	0.100	0.072
-577.763	-28.764	0.228	0.131
-576.748	43.858	-0.102	0.094
-575.733	-174.858	-0.129	-0.004
-574.719	-200.000	-0.031	-0.139
-573.704	-161.208	0.178	0.009
-572.690	174.144	-0.116	-0.168
-571.675	25.150	-0.229	0.190
-570.661	284.542	0.088	0.158
-569.646	800.000	0.067	0.216
-568.631	-134.119	0.058	-0.007
-567.617	-55.042	-0.071	-0.032
-566.602	374.198	-0.115	-0.234
-565.588	-133.022	-0.179	-0.023
-564.573	-24.448	-0.274	-0.163
-563.558	-191.466	0.300	-0.003
-562.544	-200.000	0.048	-0.354
-561.529	108.785	0.013	-0.016
-560.515	-90.516	-0.121	-0.035
-559.500	-58.337	0.144	-0.062
-558.485	-17.467	0.062	-0.039
-557.471	52.900	-0.089	0.086
-556.456	800.000	-0.089	-0.284
-555.442	281.881	0.061	-0.109
-554.427	-139.753	0.295	-0.031
-553.412	-48.627	-0.101	0.049
-552.398	227.679	-0.081	-0.132
-551.383	63.301	-0.101	-0.101
-550.369	21.981	0.047	-0.038
-549.354	-97.162	-0.182	-0.048
-548.339	219.792	-0.073	0.117
-547.325	-67.784	-0.200	-0.078
-546.310	-200.000	-0.037	0.333
-545.296	-42.010	-0.107	-0.055
-544.281	800.000	0.010	0.032
-543.266	185.048	-0.161	-0.238
-542.252	173.730	0.078	-0.113
-541.237	-10.046	0.136	0.090
-540.223	-83.700	0.370	0.118
-539.208	-110.512	0.318	-0.066
-538.193	75.358	-0.333	0.351
-537.179	450.974	0.078	0.172
-536.164	-200.000	-0.003	-0.102
-535.150	533.396	-0.061	0.145
-534.135	186.330	-0.174	0.258
-533.121	175.093	-0.092	-0.133
-532.106	-71.849	0.344	-0.128
-531.091	-82.210	-0.138	0.045
-530.077	-52.185	-0.100	-0.046
-529.062	-17.025	-0.133	0.084
-528.048	570.656	-0.016	0.039
-527.033	183.878	0.073	-0.108
-526.018	266.856	0.027	0.047
-525.004	180.216	-0.103	0.151
-523.989	377.932	0.032	0.066
-522.975	-0.541	0.135	0.096
-521.960	-200.000	-0.015	-0.156
-520.945	11.566	0.065	0.050
-519.931	-200.000	-0.058	-0.294
-518.916	96.376	-0.187	-0.214
-517.902	16.731	0.086	0.068
-516.887	-200.000	0.270	-0.001
-515.872	491.164	-0.023	-0.053
-514.858	-21.042	0.130	0.079
-513.843	-43.003	0.240	0.121
-512.829	-200.000	-0.020	0.141
-511.814	-85.488	0.182	-0.057
-510.799	800.000	0.074	-0.252
-509.785	-36.135	-0.296	0.160
-508.770	-200.000	-0.014	-0.174
-507.756	-124.661	-0.084	-0.013
-506.741	800.000	-0.108	0.368
-505.726	-107.476	-0.472	-0.103
-504.712	-149.577	-0.304	0.024
-503.697	56.702	0.064	0.062
-502.683	34.520	0.138	0.120
-501.668	520.137	-0.226	0.529
-500.653	138.116	0.181	0.237
-499.639	-200.000	-0.023	-0.283
-498.624	-56.689	-0.285	0.126
-497.610	-47.804	-0.256	0.124
-496.595	31.649	-0.104	-0.089
-495.581	142.647	-0.139	0.185
-494.566	-200.000	0.089	-0.403
-493.551	-200.000	0.029	-0.182
-492.537	160.135	0.157	-0.219
-491.522	800.000	-0.025	0.097
-490.508	-94.943	-0.296	-0.080
-489.493	-14.553	0.315	0.202
-488.478	-24.017	0.377	0.225
-487.464	-57.545	0.187	-0.082
-486.449	165.512	-0.139	-0.195
-485.435	-2.103	0.149	0.104
-484.420	800.000	0.044	-0.167
-483.405	133.559	-0.183	-0.236
-482.391	132.712	0.226	-0.291
-481.376	-86.693	0.112	-0.034
-480.362	-33.141	0.198	0.109
-479.347	-63.359	0.008	0.003
-478.332	-200.000	0.044	-0.386
-477.318	-54.184	0.171	0.077
-476.303	-36.537	-0.075	-0.040
-475.289	-18.429	-0.038	-0.024
-474.274	-2.872	0.168	0.117
-473.259	156.264	-0.033	0.045
-472.245	800.000	0.037	0.131
-471.230	-121.764	-0.136	0.022
-470.216	-147.009	-0.072	0.006
-469.201	54.712	-0.253	-0.243
-468.186	311.764	-0.044	0.083
-467.172	63.477	0.178	0.177
-466.157	269.291	-0.032	-0.055
-465.143	-200.000	0.036	0.222
-464.128	-132.314	-0.253	-0.033
-463.113	-160.380	-0.163	0.009
-462.099	41.928	-0.131	0.119
-461.084	144.468	-0.062	-0.082
-460.070	-110.894	-0.030	-0.006
-459.055	-100.501	-0.123	0.030
-458.040	-200.000	-0.039	0.222
-457.026	297.076	-0.079	0.145
-456.011	-200.000	-0.044	-0.226
-454.997	2.662	0.128	-0.092
-453.982	-12.537	0.151	0.098
-452.968	-200.000	-0.002	0.036
-451.953	-200.000	0.300	0.001
-450.938	-125.635	-0.183	0.028
-449.924	-14.719	-0.138	-0.088
-448.909	309.349	0.136	-0.253
-447.895	59.133	0.173	-0.170
-446.880	86.700	0.344	-0.378
-445.865	-91.468	0.130	0.037
-444.851	-66.483	-0.035	0.014
-443.836	114.411	-0.242	-0.294
-442.822	388.045	0.016	-0.032
-441.807	-122.115	-0.147	-0.024
-440.792	296.649	0.195	0.356
-439.778	431.041	-0.248	0.534
-438.763	-83.259	0.352	0.113
-437.749	800.000	-0.045	0.165
-436.734	244.113	-0.022	0.037
-435.719	-150.145	0.143	-0.011
-434.705	43.139	-0.216	0.196
-433.690	12.097	0.037	-0.028
-432.676	166.764	0.308	0.434
-431.661	54.413	-0.119	0.114
-430.646	37.953	-0.182	-0.161
-429.632	244.538	0.135	-0.226
-428.617	190.067	-0.050	-0.075
-427.603	128.597	0.058	0.073
-426.588	-200.000	0.057	-0.274
-425.573	175.448	-0.192	-0.278
-424.559	768.143	0.154	0.417
-423.544	-74.475	-0.126	-0.045
-422.530	529.403	-0.124	-0.291
-421.515	24.191	-0.058	0.047
-420.500	-200.000	-0.011	0.139
-419.486	279.082	-0.131	0.232
-418.471	323.154	0.145	0.275
-417.457	-29.290	-0.085	-0.049
-416.442	182.472	0.088	0.129
-415.428	-79.113	-0.299	-0.101
-414.413	-35.033	-0.138	-0.075
-413.398	-18.469	0.074	-0.046
-412.384	-114.494	-0.325	0.062
-411.369	-154.317	0.076	-0.005
-410.355	-137.022	-0.029	0.003
-409.340	800.000	-0.044	-0.181
-408.325	-200.000	-0.088	-0.391
-407.311	-194.229	0.410	-0.003
-406.296	-7.218	0.198	0.133
-405.282	-200.000	-0.052	0.253
-404.267	-180.753	0.096	-0.002
-403.252	78.490	0.114	0.121
-402.238	28.033	0.173	0.145
-401.223	28.928	0.284	0.240
-400.209	334.267	0.019	0.037
-399.194	150.945	0.105	0.141
-398.179	-61.047	0.042	0.018
-397.165	-173.438	-0.358	-0.011
-396.150	67.896	0.090	-0.091
-395.136	-128.627	-0.087	0.012
-394.121	172.749	-0.020	-0.028
-393.106	-24.783	0.174	0.103
-392.092	-14.741	-0.086	-0.055
-391.077	367.959	0.153	-0.307
-390.063	800.000	0.082	-0.265
-389.048	618.839	-0.054	0.135
-388.033	22.919	-0.170	-0.139
-387.019	-200.000	0.023	0.273
-386.004	84.706	-0.118	-0.128
-384.990	-200.000	-0.009	0.056
-383.975	-102.374	0.170	0.040
-382.960	-50.806	0.303	0.142
-381.946	-171.669	0.268	-0.009
-380.931	-189.355	-0.069	-0.001
-379.917	465.750	-0.092	0.204
-378.902	2.856	0.241	0.173
-377.888	91.353	-0.117	0.130
-376.873	-131.558	0.142	-0.019
-375.858	800.000	0.022	-0.064
-374.844	-200.000	0.079	-0.483
-373.829	4.580	0.132	0.097
-372.815	-90.731	-0.084	-0.024
-371.800	-86.093	0.141	0.043
-370.785	-200.000	0.014	-0.249
-369.771	176.191	-0.208	-0.300
-368.756	-105.185	0.242	-0.055
-367.742	-101.917	0.051	-0.012
-366.727	51.139	0.031	0.030
-365.712	-200.000	0.013	-0.135
-364.698	-115.177	-0.335	0.063
-363.683	-60.192	0.259	0.110
-362.669	-200.000	-0.018	0.099
-361.654	-64.167	-0.196	-0.079
-360.639	-200.000	0.012	0.082
-359.625	28.734	0.204	0.171
-358.610	98.501	-0.142	0.162
-357.596	-200.000	0.013	0.225
-356.581	47.085	-0.212	0.196
-355.566	-200.000	0.040	0.177
-354.552	275.522	0.110	-0.194
-353.537	108.532	-0.143	0.170
-352.523	123.041	0.146	-0.181
-351.508	49.303	-0.168	-0.157
-350.493	12.352	-0.252	0.193
-349.479	72.349	-0.104	0.107
-348.464	-99.515	0.037	0.009
-347.450	139.544	-0.157	-0.204
-346.435	800.000	0.069	0.259
-345.420	-38.561	0.280	0.147
-344.406	446.841	0.028	0.062
-343.391	-174.666	0.152	0.004
-342.377	109.160	0.055	0.065
-341.362	-200.000	0.013	-0.143
-340.348	13.799	0.348	-0.268
-339.333	333.754	-0.148	-0.283
-338.318	800.000	0.058	-0.201
-337.304	39.424	-0.321	-0.285
-336.289	-200.000	0.022	-0.160
-335.275	-200.000	-0.010	0.146
-334.260	70.278	0.153	0.156
-333.245	293.897	-0.092	0.167
-332.231	25.444	-0.271	0.223
-331.216	280.153	0.049	0.087
-330.202	22.640	0.194	-0.157
-329.187	99.529	-0.170	-0.195
-328.172	-11.912	0.082	0.053
-327.158	93.436	0.077	-0.086
-326.143	266.889	-0.145	-0.251
-325.129	-120.393	-0.165	0.028
-324.114	58.584	0.284	0.276
-323.099	-200.000	0.007	-0.213
-322.085	88.082	0.153	-0.169
-321.070	241.372	-0.349	-0.578
-320.056	168.405	0.043	-0.061
-319.041	-27.524	-0.088	-0.051
-318.026	800.000	0.033	-0.109
-317.012	-188.051	0.220	0.003
-315.997	207.801	0.126	0.195
-314.983	78.521	0.085	0.090
-313.968	-24.419	-0.395	-0.233
-312.953	157.167	0.146	-0.199
-311.939	191.403	-0.075	-0.111
-310.924	36.688	0.120	0.105
-309.910	177.009	-0.240	0.346
-308.895	410.581	0.087	-0.182
-307.880	-200.000	-0.012	0.072
-306.866	742.401	0.050	0.133
-305.851	-155.525	-0.175	-0.011
-304.837	42.075	-0.203	-0.182
-303.822	-26.464	-0.188	0.109
-302.807	-8.858	0.293	0.195
-301.793	-200.000	0.003	0.133
-300.778	323.444	0.071	0.134
-299.764	-200.000	0.057	-0.323
-298.749	-200.000	0.023	-0.257
-297.735	91.524	0.065	-0.073
-296.720	69.175	-0.062	0.063
-295.705	-200.000	0.048	-0.250
-294.691	-7.760	0.268	-0.179
-293.676	-41.858	-0.230	-0.117
-292.662	-129.414	0.153	0.021
-291.647	266.391	0.070	0.120
-290.632	24.992	-0.122	-0.100
-289.618	-97.869	0.157	-0.040
-288.603	-80.128	-0.159	0.053
-287.589	-89.474	0.209	-0.061
-286.574	-43.536	0.134	-0.067
-285.559	-37.595	-0.145	0.076
-284.545	-40.968	-0.223	0.114
-283.530	-200.000	-0.005	-0.034
-282.516	-54.430	-0.123	0.055
-281.501	-140.413	0.190	-0.020
-280.486	-16.605	0.177	-0.111
-279.472	-200.000	-0.009	0.280
-278.457	83.384	0.057	0.061
-277.443	50.201	-0.077	0.072
-276.428	-27.440	-0.270	0.155
-275.413	-131.756	-0.108	0.014
-274.399	-200.000	0.041	0.440
-273.384	800.000	-0.089	-0.306
-272.370	-200.000	-0.001	-0.062
-271.355	-74.078	-0.207	-0.074
-270.340	-90.311	-0.334	-0.096
-269.326	71.300	-0.090	0.093
-268.311	34.235	-0.044	-0.038
-267.297	732.218	-0.141	0.374
-266.282	-200.000	-0.013	-0.103
-265.267	211.897	-0.069	0.108
-264.253	-95.677	-0.187	-0.050
-263.238	-63.648	-0.215	0.087
-262.224	46.328	0.057	-0.052
-261.209	399.210	-0.114	0.235
-260.195	304.964	0.246	0.451
-259.180	-135.214	-0.298	-0.035
-258.165	127.981	0.204	0.257
-257.151	-83.271	-0.204	0.065
-256.136	102.806	-0.071	-0.082
-255.122	-9.421	0.204	0.134
-254.107	-73.366	0.096	-0.035
-253.092	244.646	-0.097	-0.161
-252.078	800.000	-0.119	-0.406
-251.063	200.689	-0.062	-0.095
-250.049	55.642	-0.112	0.108
-249.034	-56.598	-0.277	-0.121
-248.019	21.691	-0.199	0.160
-247.005	-200.000	0.056	0.450
-245.990	249.236	-0.147	-0.247
-244.976	396.648	-0.018	0.037
-243.961	64.719	0.139	0.139
-242.946	-106.802	0.025	0.005
-241.932	105.020	-0.054	0.063
-240.917	-198.803	0.228	-0.001
-239.903	35.737	-0.217	-0.188
-238.888	-78.750	0.071	-0.024
-237.873	4.494	0.314	0.227
-236.859	-200.000	0.007	0.082
-235.844	232.551	-0.219	-0.355
-234.830	-126.225	-0.264	-0.039
-233.815	-48.832	-0.139	0.066
-232.800	-136.557	-0.367	-0.042
-231.786	-200.000	-0.068	-0.398
-230.771	-67.516	0.096	-0.037
-229.757	41.721	-0.060	-0.053
-228.742	43.748	-0.302	0.273
-227.727	-200.000	0.039	-0.297
-226.713	-152.680	-0.214	0.015
-225.698	-200.000	0.078	0.350
-224.684	-200.000	0.015	0.122
-223.669	-100.423	0.161	-0.039
-222.655	297.022	-0.088	-0.160
-221.640	18.299	0.117	-0.092
-220.625	81.280	0.190	0.202
-219.611	-98.634	0.371	0.093
-218.596	-131.324	-0.266	0.035
-217.582	800.000	-0.088	0.375
-216.567	19.099	-0.324	0.256
-215.552	598.268	0.046	-0.113
-214.538	9.742	-0.122	0.091
-213.523	32.519	0.231	0.197
-212.509	52.723	-0.020	-0.018
-211.494	-129.881	-0.365	0.049
-210.479	-200.000	0.024	-0.224
-209.465	-13.037	0.274	0.176
-208.450	61.830	0.148	-0.146
-207.436	-15.810	0.173	-0.109
-206.421	-187.519	-0.277	0.004
-205.406	-200.000	-0.044	-0.298
-204.392	-200.000	-0.023	-0.116
-203.377	94.178	0.031	-0.034
-202.363	136.181	0.092	-0.118
-201.348	58.650	0.235	-0.227
-200.333	-48.774	0.175	-0.083
-199.319	-97.184	0.168	-0.043
-198.304	-200.000	0.010	-0.154
-197.290	-12.995	0.231	-0.148
-196.275	156.515	-0.129	0.175
-195.260	800.000	0.095	0.278
-194.246	691.216	-0.104	-0.270
-193.231	180.130	-0.195	0.281
-192.217	-200.000	-0.073	-0.387
-191.202	800.000	-0.045	-0.140
-190.187	-200.000	0.024	0.144
-189.173	60.376	-0.177	-0.173
-188.158	11.948	-0.181	0.137
-187.144	-56.242	0.232	0.102
-186.129	-200.000	-0.050	0.290
-185.114	-55.123	-0.242	-0.107
-184.100	39.202	-0.190	0.167
-183.085	514.981	-0.093	0.213
-182.071	-200.000	-0.002	-0.037
-181.056	-123.586	0.358	-0.056
-180.042	-200.000	-0.026	0.435
-179.027	800.000	0.147	0.442
-178.012	163.861	-0.141	-0.196
-176.998	56.895	0.230	0.221
-175.983	-29.969	-0.017	0.010
-174.969	-136.708	0.173	0.020
-173.954	-85.706	0.568	0.174
-172.939	198.706	-0.059	0.089
-171.925	-42.703	0.507	-0.254
-170.910	-140.103	0.335	-0.035
-169.896	-113.972	-0.238	-0.045
-168.881	657.466	0.056	0.142
-167.866	-200.000	0.000	-0.173
-166.852	93.343	0.161	0.179
-165.837	245.656	-0.097	-0.161
-164.823	39.631	0.178	-0.157
-163.808	17.927	-0.030	-0.023
-162.793	-142.401	0.099	0.010
-161.779	800.000	0.026	0.091
-160.764	53.724	0.188	0.178
-159.750	-56.203	0.248	-0.108
-158.735	-200.000	-0.001	-0.474
-157.720	-200.000	0.003	-0.130
-156.706	-148.530	-0.322	0.026
-155.691	-164.375	-0.282	0.013
-154.677	-200.000	0.013	-0.282
-153.662	-43.155	0.362	-0.180
-152.647	194.809	0.181	0.270
-151.633	288.173	-0.039	-0.069
-150.618	48.477	-0.260	-0.240
-149.604	193.220	0.074	-0.111
-148.589	55.554	-0.084	0.080
-147.574	320.078	0.030	0.055
-146.560	-34.634	0.197	-0.106
-145.545	-125.254	0.293	0.044
-144.531	246.515	0.015	0.024
-143.516	-180.125	0.225	0.005
-142.502	800.000	0.112	0.335
-141.487	-138.441	-0.250	-0.027
-140.472	-152.177	-0.248	-0.018
-139.458	-179.180	0.410	0.009
-138.443	-149.512	-0.183	0.014
-137.429	-75.506	0.326	0.114
-136.414	288.795	-0.169	-0.301
-135.399	218.364	-0.099	0.155
-134.385	-25.474	-0.132	-0.077
-133.370	4.681	0.170	-0.123
-132.356	-86.291	0.192	0.058
-131.341	-45.855	0.348	-0.169
-130.326	-71.576	-0.426	-0.156
-129.312	-200.000	-0.009	-0.108
-128.297	-200.000	-0.021	-0.337
-127.283	-4.235	0.186	-0.127
-126.268	-80.276	-0.338	-0.111
-125.253	156.405	-0.129	-0.176
-124.239	-78.863	-0.236	-0.079
-123.224	-6.012	0.097	0.065
-122.210	92.089	0.171	0.190
-121.195	195.672	0.169	0.253
