DTS Sentinel unit serial number:	SN413079Multiplexer serial number:	ORYXHardware model number:	OX4-SRSoftware version number:	ORYX F/W v4.00 Oryx Data Collector v3.7.2.0data status	okinstallation	princeton_trtdifferential loss correction	single-endedforward channel	channel 2reverse channel	N/Adate	2019/09/13time	23:39:35forward acquisition time	60.00reverse acquisition time	0.00gamma	496.2192k internal	0.2338k external	0.2338temperature offset calibration	1.0132default loss term (dB/km)	0.3790temperature slope calibration	1.0000multiplexer offset coefficient	1.0000multiplexer slope coefficient	1.0000fibre end	0.00T internal ref (°C)	26.72T ext. ref 1 (°C)	3.18T ext. ref 2 (°C)	20.98length (m)	temperature (°C)	Stokes	anti-Stokes-747.200	-200.000	-0.005	0.220
-746.185	800.000	-0.101	0.338
-745.171	-200.000	0.046	0.329
-744.156	34.541	-0.010	0.009
-743.142	9.741	0.244	-0.186
-742.127	243.757	-0.135	0.228
-741.112	-200.000	0.007	0.141
-740.098	-200.000	-0.027	0.353
-739.083	104.232	-0.239	0.282
-738.069	248.578	0.064	-0.109
-737.054	182.941	0.115	-0.170
-736.039	10.165	-0.229	-0.175
-735.025	-54.476	0.151	-0.068
-734.010	-22.127	-0.285	0.174
-732.996	-149.032	-0.303	-0.024
-731.981	-48.031	-0.282	0.137
-730.966	-77.741	0.238	0.083
-729.952	-200.000	-0.072	-0.555
-728.937	46.576	0.189	-0.176
-727.923	-1.876	-0.080	-0.057
-726.908	800.000	0.045	0.182
-725.894	127.220	0.154	-0.196
-724.879	207.429	-0.060	-0.094
-723.864	-200.000	0.027	0.464
-722.850	-64.766	-0.192	-0.078
-721.835	4.320	-0.369	-0.271
-720.821	-138.337	-0.191	-0.021
-719.806	291.365	-0.053	-0.096
-718.791	-158.447	-0.285	-0.017
-717.777	-200.000	-0.019	0.110
-716.762	-106.091	-0.348	-0.078
-715.748	-200.000	0.001	-0.051
-714.733	800.000	0.080	-0.268
-713.718	-136.754	-0.528	0.061
-712.704	800.000	-0.072	-0.276
-711.689	-200.000	0.009	-0.274
-710.675	451.467	-0.089	-0.197
-709.660	476.778	-0.154	0.350
-708.645	47.451	0.134	0.125
-707.631	-200.000	-0.040	-0.334
-706.616	-45.556	0.086	0.042
-705.602	-77.520	0.182	-0.063
-704.587	38.089	0.129	-0.115
-703.572	-137.217	0.102	0.012
-702.558	-61.866	0.275	0.115
-701.543	396.022	-0.110	-0.230
-700.529	-200.000	0.016	0.119
-699.514	800.000	0.045	0.134
-698.499	-200.000	0.019	-0.385
-697.485	213.199	-0.253	-0.400
-696.470	-106.327	-0.098	-0.022
-695.456	800.000	-0.104	0.337
-694.441	773.310	-0.099	-0.269
-693.426	800.000	-0.069	-0.269
-692.412	1.551	-0.141	-0.102
-691.397	-32.639	0.203	-0.113
-690.383	-152.511	-0.253	0.018
-689.368	-106.881	-0.103	-0.023
-688.354	29.894	0.173	-0.148
-687.339	22.199	-0.319	0.260
-686.324	321.235	-0.052	0.099
-685.310	8.647	0.122	0.092
-684.295	-1.604	0.174	0.123
-683.281	274.653	0.096	-0.170
-682.266	184.588	-0.174	-0.259
-681.251	-200.000	0.030	-0.353
-680.237	-25.417	0.089	0.052
-679.222	-42.814	-0.472	-0.240
-678.208	-200.000	-0.011	0.101
-677.193	-81.783	-0.148	0.049
-676.178	10.855	-0.382	0.292
-675.164	275.179	0.155	0.275
-674.149	-200.000	0.007	0.365
-673.135	-112.814	-0.066	0.013
-672.120	800.000	-0.010	-0.030
-671.105	90.498	0.112	-0.125
-670.091	-68.833	-0.608	-0.235
-669.076	-200.000	-0.027	-0.158
-668.062	-138.545	0.125	-0.014
-667.047	-4.570	0.210	0.145
-666.032	-107.369	0.063	-0.014
-665.018	-14.195	-0.154	-0.099
-664.003	-9.252	-0.155	-0.103
-662.989	800.000	0.070	-0.201
-661.974	-58.609	0.509	-0.221
-660.959	-200.000	0.004	0.068
-659.945	-140.739	0.071	0.007
-658.930	800.000	0.085	-0.287
-657.916	-200.000	0.023	-0.252
-656.901	55.011	-0.320	-0.309
-655.886	-135.092	-0.070	-0.008
-654.872	-28.016	0.267	-0.154
-653.857	12.892	-0.294	-0.227
-652.843	68.708	-0.265	-0.271
-651.828	780.845	-0.075	0.206
-650.814	144.228	-0.103	-0.137
-649.799	-12.480	0.057	-0.037
-648.784	-200.000	0.047	-0.326
-647.770	14.175	0.127	-0.099
-646.755	-158.044	0.236	-0.014
-645.741	-28.188	-0.298	-0.172
-644.726	-12.577	0.134	0.087
-643.711	800.000	0.056	0.166
-642.697	-102.054	0.296	-0.071
-641.682	-200.000	-0.025	-0.330
-640.668	237.894	0.042	0.070
-639.653	287.865	-0.120	-0.217
-638.638	184.840	-0.122	-0.180
-637.624	-32.737	0.151	0.084
-636.609	-200.000	-0.008	-0.117
-635.595	215.831	-0.195	0.309
-634.580	-142.963	0.217	0.021
-633.565	-200.000	0.045	0.223
-632.551	800.000	-0.057	0.246
-631.536	62.521	0.311	0.310
-630.522	34.357	0.040	-0.035
-629.507	-65.031	0.293	0.118
-628.492	-139.564	-0.173	0.018
-627.478	-200.000	-0.004	-0.154
-626.463	-200.000	-0.041	0.267
-625.449	71.769	0.076	-0.079
-624.434	-112.302	-0.052	-0.010
-623.419	302.820	-0.163	-0.302
-622.405	721.204	0.055	0.147
-621.390	32.931	-0.181	0.157
-620.376	363.038	0.116	-0.233
-619.361	-90.510	-0.260	0.075
-618.346	-152.719	-0.170	0.012
-617.332	-57.911	-0.242	-0.105
-616.317	-163.038	-0.217	-0.010
-615.303	-80.046	0.191	-0.064
-614.288	200.239	-0.098	-0.150
-613.273	-140.474	-0.031	-0.003
-612.259	-200.000	0.018	0.172
-611.244	800.000	-0.189	0.562
-610.230	800.000	-0.045	0.148
-609.215	50.351	-0.188	0.177
-608.201	86.511	0.098	0.108
-607.186	346.764	-0.105	-0.207
-606.171	104.103	-0.169	0.198
-605.157	800.000	0.043	0.131
-604.142	13.047	-0.333	0.257
-603.128	800.000	0.063	-0.202
-602.113	292.529	-0.072	-0.130
-601.098	-156.727	-0.141	-0.009
-600.084	131.546	0.126	-0.161
-599.069	-15.203	-0.100	-0.064
-598.055	-86.635	-0.342	-0.104
-597.040	669.966	-0.132	-0.341
-596.025	-200.000	-0.074	0.329
-595.011	-200.000	0.007	0.178
-593.996	-200.000	-0.011	-0.211
-592.982	41.283	-0.109	-0.099
-591.967	-127.051	0.333	-0.049
-590.952	-200.000	-0.009	-0.074
-589.938	63.643	-0.035	0.035
-588.923	45.817	-0.166	0.153
-587.909	-97.059	-0.079	-0.021
-586.894	114.911	0.103	-0.126
-585.879	-127.365	-0.222	0.032
-584.865	190.719	0.046	-0.068
-583.850	-115.940	-0.239	0.044
-582.836	-182.741	-0.126	0.002
-581.821	-46.108	-0.107	-0.052
-580.806	-200.000	-0.033	0.234
-579.792	389.398	-0.143	0.295
-578.777	49.593	0.053	0.049
-577.763	-68.672	-0.118	0.045
-576.748	800.000	-0.115	0.432
-575.733	800.000	-0.057	-0.192
-574.719	193.648	-0.080	0.121
-573.704	528.810	0.074	-0.175
-572.690	-1.797	-0.210	-0.147
-571.675	-200.000	0.004	-0.110
-570.661	319.607	0.120	-0.227
-569.646	398.994	-0.007	0.015
-568.631	60.907	-0.049	0.049
-567.617	-54.815	-0.149	0.067
-566.602	-99.754	0.185	0.046
-565.588	27.408	0.298	0.249
-564.573	-27.791	-0.185	0.107
-563.558	-97.870	-0.273	0.070
-562.544	116.142	-0.008	-0.010
-561.529	-200.000	-0.046	-0.210
-560.515	800.000	0.137	-0.456
-559.500	-36.585	0.419	-0.224
-558.485	-69.223	-0.350	-0.134
-557.471	-64.441	-0.267	0.108
-556.456	-45.539	-0.195	0.096
-555.442	-62.755	-0.100	0.041
-554.427	800.000	-0.112	-0.366
-553.412	490.931	-0.037	0.084
-552.398	-78.777	0.071	-0.024
-551.383	-43.741	-0.072	0.036
-550.369	-157.159	-0.232	-0.014
-549.354	-106.226	-0.346	-0.077
-548.339	-169.002	0.242	-0.009
-547.325	499.087	-0.136	-0.313
-546.310	144.690	0.323	0.430
-545.296	47.163	0.090	0.084
-544.281	68.116	-0.172	0.175
-543.266	486.424	0.055	-0.124
-542.252	467.919	-0.096	-0.214
-541.237	-138.182	0.239	-0.026
-540.223	264.891	-0.012	0.021
-539.208	-164.360	0.067	-0.003
-538.193	-200.000	-0.012	-0.060
-537.179	-138.081	0.151	0.017
-536.164	-173.198	-0.116	-0.004
-535.150	-77.566	0.200	-0.069
-534.135	-147.465	0.177	0.015
-533.121	63.065	-0.076	0.076
-532.106	38.419	0.086	-0.076
-531.091	-151.233	0.224	0.017
-530.077	202.198	-0.112	-0.173
-529.062	532.019	-0.081	0.190
-528.048	5.307	0.258	0.189
-527.033	800.000	-0.025	-0.074
-526.018	202.548	0.081	0.125
-525.004	-125.919	0.285	0.043
-523.989	800.000	-0.061	0.235
-522.975	4.557	-0.191	-0.139
-521.960	202.442	0.147	-0.226
-520.945	121.711	-0.064	-0.079
-519.931	35.581	0.034	0.029
-518.916	-200.000	0.031	-0.165
-517.902	-11.104	0.340	0.223
-516.887	-10.261	-0.155	0.102
-515.872	-135.419	-0.057	-0.007
-514.858	-110.805	0.184	-0.038
-513.843	-18.207	0.204	0.127
-512.829	5.867	0.226	0.167
-511.814	-200.000	0.017	-0.195
-510.799	92.484	-0.112	0.125
-509.785	-87.555	-0.264	-0.079
-508.770	-69.943	0.385	-0.146
-507.756	342.097	-0.072	0.140
-506.741	-62.556	-0.238	-0.098
-505.726	-168.557	-0.351	-0.013
-504.712	-140.329	0.299	-0.031
-503.697	13.289	0.302	0.233
-502.683	-1.912	-0.090	-0.063
-501.668	-54.084	0.106	0.048
-500.653	-139.052	-0.118	0.013
-499.639	-200.000	0.029	-0.182
-498.624	-109.712	0.454	0.095
-497.610	-200.000	0.064	0.473
-496.595	374.696	-0.057	0.115
-495.581	186.908	-0.126	-0.187
-494.566	-115.502	0.245	0.046
-493.551	-46.651	-0.117	-0.057
-492.537	579.037	0.131	0.318
-491.522	526.590	-0.096	-0.226
-490.508	16.833	0.250	-0.196
-489.493	-129.958	-0.244	0.033
-488.478	800.000	0.091	0.361
-487.464	354.112	-0.016	0.031
-486.449	-115.373	-0.067	0.013
-485.435	546.692	-0.059	-0.139
-484.420	600.212	0.052	-0.128
-483.405	-83.973	0.236	0.075
-482.391	-2.852	-0.245	0.170
-481.376	124.409	0.224	-0.279
-480.362	442.280	0.071	-0.154
-479.347	53.169	-0.090	0.086
-478.332	-105.340	-0.321	-0.073
-477.318	-56.530	0.226	-0.099
-476.303	9.927	0.034	-0.026
-475.289	-109.198	0.186	-0.039
-474.274	67.252	-0.086	0.087
-473.259	-158.626	-0.053	0.003
-472.245	222.626	0.117	-0.187
-471.230	425.248	-0.105	-0.225
-470.216	-48.192	-0.209	-0.100
-469.201	-200.000	-0.046	-0.227
-468.186	87.294	-0.192	-0.211
-467.172	327.096	-0.192	0.366
-466.157	-200.000	0.041	0.278
-465.143	85.194	0.124	0.135
-464.128	188.900	-0.123	0.182
-463.113	-200.000	0.087	0.469
-462.099	358.846	-0.162	-0.322
-461.084	153.183	-0.273	0.371
-460.070	41.840	0.146	0.131
-459.055	-16.550	-0.038	-0.024
-458.040	-145.154	-0.244	0.022
-457.026	132.040	0.102	-0.130
-456.011	800.000	0.120	0.459
-454.997	-25.936	-0.033	0.019
-453.982	-131.924	0.428	0.055
-452.968	-67.963	-0.117	0.045
-451.953	112.823	0.163	-0.196
-450.938	-130.447	-0.143	-0.019
-449.924	93.070	-0.213	0.239
-448.909	-200.000	-0.027	0.166
-447.895	-156.679	-0.148	0.009
-446.880	800.000	-0.091	-0.326
-445.865	144.353	0.188	-0.248
-444.851	-11.454	-0.160	-0.105
-443.836	-36.076	0.251	-0.135
-442.822	-125.826	-0.164	0.025
-441.807	800.000	0.076	0.302
-440.792	166.975	0.377	0.530
-439.778	94.638	-0.072	0.081
-438.763	266.932	0.115	0.199
-437.749	398.405	0.119	0.247
-436.734	-60.681	0.129	-0.054
-435.719	-118.276	-0.174	0.031
-434.705	693.940	-0.064	-0.167
-433.690	62.122	-0.128	0.126
-432.676	-200.000	0.020	0.293
-431.661	-52.727	0.020	-0.009
-430.646	581.792	-0.105	0.255
-429.632	13.131	0.144	-0.110
-428.617	-200.000	-0.073	-0.320
-427.603	-24.438	-0.214	-0.126
-426.588	162.761	0.078	-0.109
-425.573	800.000	-0.048	-0.140
-424.559	-108.463	0.232	-0.050
-423.544	24.177	-0.286	-0.234
-422.530	-152.287	0.332	0.024
-421.515	-60.582	-0.089	0.037
-420.500	-200.000	0.004	0.112
-419.486	800.000	0.048	-0.144
-418.471	-200.000	-0.025	0.415
-417.457	-90.338	-0.130	0.037
-416.442	1.928	-0.170	0.122
-415.428	142.004	0.045	0.059
-414.413	35.166	-0.395	-0.343
-413.398	117.666	0.200	-0.244
-412.384	-33.969	-0.313	-0.171
-411.369	360.096	0.081	0.161
-410.355	506.082	-0.047	-0.109
-409.340	-107.434	-0.241	-0.052
-408.325	-200.000	0.002	0.115
-407.311	5.738	-0.091	-0.067
-406.296	800.000	0.070	-0.209
-405.282	-200.000	0.060	0.275
-404.267	-200.000	-0.021	-0.110
-403.252	119.474	-0.061	-0.075
-402.238	302.511	-0.024	-0.044
-401.223	-200.000	-0.031	-0.278
-400.209	465.583	-0.127	-0.282
-399.194	32.387	0.233	-0.199
-398.179	24.082	0.186	-0.152
-397.165	-62.065	0.395	0.163
-396.150	593.460	-0.088	0.216
-395.136	-17.033	0.185	0.115
-394.121	-77.970	0.139	-0.047
-393.106	573.594	-0.059	-0.143
-392.092	126.509	-0.147	0.185
-391.077	-23.130	-0.379	-0.226
-390.063	263.722	-0.041	0.070
-389.048	-200.000	0.023	0.249
-388.033	48.542	0.092	-0.086
-387.019	-55.091	0.209	-0.093
-386.004	171.523	0.020	-0.028
-384.990	-200.000	0.015	-0.106
-383.975	-127.896	-0.172	-0.024
-382.960	-131.917	-0.146	0.019
-381.946	-200.000	-0.012	0.242
-380.931	-125.536	-0.310	0.047
-379.917	17.201	-0.175	0.137
-378.902	800.000	-0.009	-0.032
-377.888	-200.000	-0.008	0.269
-376.873	-103.615	-0.186	-0.043
-375.858	-28.733	-0.302	0.172
-374.844	-200.000	0.031	-0.188
-373.829	-20.429	-0.184	-0.112
-372.815	-89.962	-0.267	0.077
-371.800	-7.634	0.123	0.083
-370.785	462.077	0.120	-0.264
-369.771	-200.000	0.028	-0.226
-368.756	800.000	-0.023	-0.065
-367.742	-57.999	-0.166	-0.071
-366.727	671.763	-0.056	-0.144
-365.712	-163.085	-0.190	0.009
-364.698	319.241	0.068	0.128
-363.683	-134.637	0.246	-0.030
-362.669	418.014	-0.101	-0.213
-361.654	226.293	0.083	-0.133
-360.639	-119.859	-0.220	-0.037
-359.625	172.717	-0.165	-0.235
-358.610	135.810	0.049	-0.064
-357.596	-125.830	0.328	-0.049
-356.581	39.498	-0.112	0.100
-355.566	800.000	-0.032	0.135
-354.552	-157.579	-0.028	0.002
-353.537	-88.316	-0.281	-0.083
-352.523	62.670	-0.290	-0.286
-351.508	-200.000	-0.028	-0.490
-350.493	-61.028	-0.198	0.083
-349.479	114.690	0.143	0.172
-348.464	97.442	-0.130	0.148
-347.450	-137.217	-0.054	0.006
-346.435	509.930	0.099	0.226
-345.420	-200.000	-0.055	-0.244
-344.406	229.283	-0.164	0.264
-343.391	9.214	0.154	0.115
-342.377	234.595	0.241	0.392
-341.362	-92.292	0.175	0.049
-340.348	-98.424	0.149	-0.038
-339.333	117.962	0.082	-0.100
-338.318	-136.814	0.317	-0.036
-337.304	305.598	-0.049	0.089
-336.289	222.679	0.210	-0.335
-335.275	-200.000	-0.077	-0.373
-334.260	30.337	-0.219	0.184
-333.245	19.284	-0.217	-0.172
-332.231	-139.944	-0.150	0.016
-331.216	499.778	0.039	0.090
-330.202	626.781	-0.148	-0.368
-329.187	93.600	0.084	-0.094
-328.172	-7.632	0.181	0.121
-327.158	-200.000	-0.014	-0.136
-326.143	47.003	0.231	0.212
-325.129	66.045	0.214	0.214
-324.114	147.827	0.038	0.050
-323.099	-83.717	0.246	0.078
-322.085	151.354	0.033	0.045
-321.070	-200.000	-0.028	0.169
-320.056	-200.000	0.004	0.245
-319.041	-77.748	0.176	-0.060
-318.026	71.375	0.243	-0.248
-317.012	-122.046	0.313	0.051
-315.997	800.000	0.055	0.208
-314.983	-47.753	0.324	-0.155
-313.968	96.266	-0.155	0.175
-312.953	160.966	-0.084	0.116
-311.939	-200.000	0.069	0.354
-310.924	-95.594	0.034	-0.009
-309.910	-13.853	0.173	-0.110
-308.895	-43.645	0.246	0.122
-307.880	178.978	0.164	0.237
-306.866	800.000	0.090	-0.304
-305.851	-38.789	0.175	0.091
-304.837	123.697	-0.119	0.147
-303.822	-17.822	-0.159	0.099
-302.807	-58.659	0.076	-0.033
-301.793	161.581	-0.238	0.328
-300.778	-200.000	0.044	0.203
-299.764	-32.528	-0.298	0.164
-298.749	18.471	-0.174	-0.137
-297.735	-200.000	-0.026	-0.159
-296.720	7.042	-0.151	0.111
-295.705	-78.692	-0.088	0.030
-294.691	176.711	-0.085	-0.121
-293.676	697.480	0.107	0.278
-292.662	800.000	0.073	0.213
-291.647	207.710	0.126	0.194
-290.632	-121.222	0.315	-0.052
-289.618	11.678	0.157	-0.119
-288.603	31.368	-0.106	-0.090
-287.589	46.709	0.274	-0.251
-286.574	800.000	0.075	-0.221
-285.559	-200.000	0.073	-0.506
-284.545	158.244	0.081	0.110
-283.530	-25.759	-0.094	-0.054
-282.516	800.000	-0.036	0.132
-281.501	-133.443	0.184	-0.023
-280.486	43.945	-0.192	-0.173
-279.472	66.253	-0.074	0.075
-278.457	25.148	-0.028	0.023
-277.443	40.642	0.058	0.051
-276.428	57.884	0.167	-0.161
-275.413	-0.296	-0.149	-0.105
-274.399	-130.053	-0.271	-0.036
-273.384	-27.334	0.134	-0.077
-272.370	-51.971	0.036	-0.017
-271.355	87.950	-0.072	-0.078
-270.340	-20.716	0.326	0.197
-269.326	136.366	0.230	-0.295
-268.311	-44.317	-0.431	-0.213
-267.297	421.820	-0.127	-0.267
-266.282	11.913	-0.113	0.085
-265.267	-200.000	0.011	0.265
-264.253	-74.715	-0.201	-0.071
-263.238	72.439	-0.175	0.180
-262.224	-78.012	0.247	0.084
-261.209	15.029	0.187	-0.144
-260.195	99.325	-0.081	0.092
-259.180	-96.374	-0.274	-0.071
-258.165	-35.020	0.401	0.215
-257.151	-69.015	0.146	-0.055
-256.136	290.660	0.034	0.060
-255.122	49.854	0.127	-0.118
-254.107	-58.669	0.185	-0.079
-253.092	200.093	0.113	0.171
-252.078	29.743	-0.189	0.158
-251.063	322.764	0.084	0.158
-250.049	-200.000	0.043	-0.368
-249.034	-200.000	-0.036	-0.223
-248.019	100.751	-0.257	0.294
-247.005	-84.502	0.203	0.063
-245.990	230.684	-0.165	-0.265
-244.976	-128.830	-0.148	0.021
-243.961	-138.233	0.128	-0.014
-242.946	-130.765	0.205	-0.027
-241.932	-61.224	0.322	-0.134
-240.917	800.000	-0.032	-0.109
-239.903	28.423	0.117	-0.097
-238.888	-154.112	0.164	-0.011
-237.873	-200.000	-0.013	-0.083
-236.859	-15.561	0.083	-0.052
-235.844	800.000	0.087	-0.302
-234.830	-91.750	-0.223	0.062
-233.815	-51.978	0.122	-0.056
-232.800	352.108	0.045	-0.087
-231.786	-200.000	-0.072	0.313
-230.771	-68.309	-0.163	0.062
-229.757	460.251	0.169	0.370
-228.742	-4.297	-0.239	-0.163
-227.727	-200.000	-0.002	-0.156
-226.713	-126.855	0.226	-0.033
-225.698	758.191	-0.127	-0.339
-224.684	-200.000	-0.002	-0.082
-223.669	-94.429	0.114	-0.031
-222.655	-178.449	0.139	0.003
-221.640	-154.133	-0.346	0.023
-220.625	-68.564	-0.258	-0.098
-219.611	-23.812	-0.324	0.191
-218.596	-82.704	0.078	0.025
-217.582	-200.000	0.036	-0.452
-216.567	-200.000	-0.037	-0.255
-215.552	-159.941	0.208	0.011
-214.538	741.934	-0.079	-0.208
-213.523	-111.321	-0.296	-0.059
-212.509	800.000	-0.027	-0.111
-211.494	76.612	-0.273	-0.285
-210.479	362.753	-0.135	-0.267
-209.465	0.207	0.181	0.127
-208.450	14.480	-0.210	-0.161
-207.436	-200.000	-0.005	-0.349
-206.421	-57.354	-0.131	0.057
-205.406	69.403	-0.174	0.176
-204.392	-138.099	-0.288	-0.031
-203.377	-179.188	-0.283	-0.006
-202.363	-200.000	-0.032	0.148
-201.348	-78.879	-0.176	0.059
-200.333	8.514	0.275	0.203
-199.319	101.725	0.250	0.286
-198.304	-71.509	-0.100	0.037
-197.290	-200.000	0.043	-0.367
-196.275	-57.537	0.042	-0.018
-195.260	800.000	0.060	0.221
-194.246	-157.894	-0.305	0.018
-193.231	-200.000	0.028	-0.339
-192.217	75.102	0.159	-0.165
-191.202	-194.622	0.254	0.002
-190.187	14.145	0.222	0.170
-189.173	18.732	-0.200	0.157
-188.158	-200.000	0.008	0.045
-187.144	144.137	0.137	-0.179
-186.129	-194.474	-0.271	0.002
-185.114	393.653	-0.154	-0.315
-184.100	388.519	0.150	0.304
-183.085	571.119	0.047	0.113
-182.071	223.542	-0.084	-0.133
-181.056	676.276	0.082	0.209
-180.042	-200.000	-0.016	0.091
-179.027	800.000	0.058	0.198
-178.012	-148.868	-0.102	0.008
-176.998	-128.334	0.247	0.034
-175.983	-67.489	0.219	-0.085
-174.969	-57.241	0.206	-0.089
-173.954	351.213	0.151	0.293
-172.939	-105.474	0.285	-0.064
-171.925	133.657	-0.012	-0.016
-170.910	-200.000	0.042	0.300
-169.896	67.564	-0.047	-0.047
-168.881	-71.837	0.255	0.093
-167.866	75.387	0.203	0.211
-166.852	-200.000	0.020	0.130
-165.837	44.146	-0.035	-0.031
-164.823	-123.031	0.043	-0.007
-163.808	63.576	0.062	-0.061
-162.793	-200.000	0.039	0.200
-161.779	14.088	0.130	0.099
-160.764	-11.577	0.516	0.333
-159.750	-196.973	0.225	-0.001
-158.735	-61.782	0.301	0.123
-157.720	-171.876	-0.133	-0.004
-156.706	-32.991	-0.096	-0.052
-155.691	-111.036	-0.110	0.022
-154.677	-92.171	0.116	-0.032
-153.662	-88.193	0.255	-0.075
-152.647	-131.802	-0.323	-0.041
-151.633	101.518	0.044	-0.051
-150.618	239.417	-0.030	0.049
-149.604	-25.492	0.112	0.065
-148.589	-80.754	-0.250	0.081
-147.574	42.541	0.122	0.109
-146.560	190.274	-0.093	-0.136
-145.545	-200.000	0.027	0.175
-144.531	-200.000	-0.013	-0.136
-143.516	121.931	-0.068	-0.083
-142.502	-151.818	-0.222	-0.016
-141.487	-200.000	0.004	-0.347
-140.472	-200.000	-0.047	-0.358
-139.458	28.486	-0.174	-0.144
-138.443	8.218	-0.041	-0.030
-137.429	105.337	-0.230	0.267
-136.414	13.096	0.070	-0.053
-135.399	17.570	0.219	0.171
-134.385	207.912	-0.050	0.076
-133.370	-20.666	-0.252	0.152
-132.356	-120.472	-0.258	0.043
-131.341	293.499	0.112	0.200
-130.326	-175.315	0.200	0.005
-129.312	12.246	-0.071	0.054
-128.297	-163.377	-0.182	0.008
-127.283	-180.640	0.172	0.003
-126.268	-200.000	-0.035	0.273
-125.253	756.816	0.051	-0.135
-124.239	-87.819	-0.205	0.061
-123.224	-200.000	-0.011	-0.062
-122.210	-200.000	-0.043	-0.224
