DTS Sentinel unit serial number:	SN413079Multiplexer serial number:	ORYXHardware model number:	OX4-SRSoftware version number:	ORYX F/W v4.00 Oryx Data Collector v3.7.2.0data status	okinstallation	princeton_trtdifferential loss correction	single-endedforward channel	channel 2reverse channel	N/Adate	2019/09/11time	21:09:11forward acquisition time	60.00reverse acquisition time	0.00gamma	496.2192k internal	0.2323k external	0.2323temperature offset calibration	1.0057default loss term (dB/km)	0.3790temperature slope calibration	1.0000multiplexer offset coefficient	1.0000multiplexer slope coefficient	1.0000fibre end	0.00T internal ref (°C)	36.48T ext. ref 1 (°C)	1.60T ext. ref 2 (°C)	30.60length (m)	temperature (°C)	Stokes	anti-Stokes-747.200	-122.190	0.239	0.040
-746.185	-16.023	-0.388	-0.250
-745.171	44.659	-0.281	0.261
-744.156	22.420	0.413	0.341
-743.142	7.123	-0.100	0.075
-742.127	800.000	0.076	0.299
-741.112	-200.000	-0.037	0.229
-740.098	314.412	-0.060	0.113
-739.083	-200.000	0.009	0.268
-738.069	-200.000	0.001	0.103
-737.054	673.771	-0.077	0.202
-736.039	620.508	-0.033	0.085
-735.025	126.453	0.199	0.255
-734.010	-52.067	0.137	-0.064
-732.996	68.370	0.101	-0.105
-731.981	69.176	-0.277	0.287
-730.966	-140.575	0.216	-0.023
-729.952	-7.306	-0.256	0.175
-728.937	31.615	0.068	-0.059
-727.923	486.564	-0.086	0.199
-726.908	800.000	0.099	-0.296
-725.894	-73.683	-0.242	0.089
-724.879	-200.000	0.028	-0.226
-723.864	800.000	0.089	-0.264
-722.850	-200.000	-0.056	-0.265
-721.835	31.180	0.275	0.238
-720.821	176.929	0.174	0.256
-719.806	300.723	-0.110	-0.205
-718.791	221.784	-0.204	-0.331
-717.777	-88.513	-0.071	-0.021
-716.762	-197.386	0.267	0.002
-715.748	-15.493	-0.278	0.179
-714.733	-200.000	0.048	0.242
-713.718	58.921	0.120	-0.119
-712.704	-148.418	-0.473	-0.039
-711.689	-46.336	0.199	0.099
-710.675	800.000	0.066	0.207
-709.660	-200.000	0.036	0.265
-708.645	576.003	0.027	-0.066
-707.631	-3.950	-0.435	-0.305
-706.616	800.000	0.027	0.084
-705.602	-12.652	0.197	0.130
-704.587	-105.695	0.156	0.036
-703.572	800.000	-0.013	-0.050
-702.558	-147.945	-0.317	-0.027
-701.543	74.261	0.230	0.244
-700.529	-200.000	0.035	0.251
-699.514	157.075	-0.112	0.156
-698.499	184.720	0.105	-0.157
-697.485	179.962	0.213	0.314
-696.470	310.572	0.027	0.052
-695.456	781.608	0.056	-0.155
-694.441	-108.036	0.167	-0.036
-693.426	-200.000	-0.013	-0.145
-692.412	393.716	0.044	0.092
-691.397	517.165	0.068	0.161
-690.383	-63.842	-0.079	0.033
-689.368	800.000	-0.057	-0.166
-688.354	-113.390	0.183	0.036
-687.339	173.305	0.183	-0.265
-686.324	151.601	0.177	-0.243
-685.310	-78.028	0.206	-0.072
-684.295	-200.000	0.008	-0.180
-683.281	-165.557	-0.213	-0.009
-682.266	108.510	-0.297	-0.357
-681.251	800.000	0.046	-0.134
-680.237	88.998	0.176	-0.197
-679.222	-200.000	-0.009	-0.248
-678.208	-120.784	-0.156	-0.026
-677.193	-56.099	-0.114	0.051
-676.178	-173.960	0.122	0.004
-675.164	-122.193	-0.454	0.075
-674.149	-61.505	-0.144	0.061
-673.135	-200.000	0.037	-0.523
-672.120	19.145	-0.361	-0.292
-671.105	334.734	-0.101	0.196
-670.091	113.969	-0.094	-0.116
-669.076	225.487	0.115	0.188
-668.062	-74.767	-0.145	0.053
-667.047	-8.578	0.123	-0.083
-666.032	-93.350	-0.131	0.037
-665.018	779.195	0.038	0.104
-664.003	-6.947	0.391	0.267
-662.989	108.202	-0.057	0.069
-661.974	654.344	-0.015	0.040
-660.959	426.253	0.064	-0.138
-659.945	97.211	0.256	-0.296
-658.930	-200.000	0.025	0.257
-657.916	800.000	0.064	-0.191
-656.901	-68.942	-0.072	0.028
-655.886	-104.358	-0.107	0.025
-654.872	-134.951	-0.242	0.029
-653.857	-120.318	0.149	0.026
-652.843	-159.196	-0.099	-0.006
-651.828	-200.000	-0.045	-0.211
-650.814	-200.000	-0.026	-0.485
-649.799	-200.000	-0.013	-0.125
-648.784	-200.000	0.012	0.238
-647.770	6.719	-0.186	-0.139
-646.755	41.678	-0.188	-0.171
-645.741	409.896	-0.069	0.148
-644.726	541.440	-0.048	-0.115
-643.711	-22.610	0.213	0.130
-642.697	733.298	0.082	-0.220
-641.682	-24.003	-0.366	-0.220
-640.668	-146.177	-0.139	0.012
-639.653	-200.000	-0.011	-0.385
-638.638	6.341	0.126	0.094
-637.624	144.450	0.138	-0.185
-636.609	-16.455	-0.169	0.108
-635.595	-200.000	0.024	-0.152
-634.580	-49.074	0.113	0.054
-633.565	800.000	0.078	0.260
-632.551	503.297	-0.025	0.059
-631.536	-200.000	0.044	-0.219
-630.522	-30.027	0.096	0.055
-629.507	-200.000	-0.090	-0.458
-628.492	74.116	0.205	-0.216
-627.478	-50.990	-0.220	0.104
-626.463	85.458	-0.316	0.349
-625.449	14.205	-0.178	-0.140
-624.434	99.431	-0.068	0.079
-623.419	-44.545	-0.070	-0.035
-622.405	-140.974	0.131	0.014
-621.390	-200.000	-0.170	0.000
-620.376	146.189	-0.171	-0.231
-619.361	194.319	-0.307	0.468
-618.346	-121.947	0.112	-0.019
-617.332	-200.000	0.003	0.153
-616.317	3.265	-0.234	-0.171
-615.303	800.000	-0.061	0.176
-614.288	-97.949	-0.225	0.058
-613.273	-42.445	-0.101	0.052
-612.259	195.445	-0.147	-0.225
-611.244	467.497	0.114	-0.256
-610.230	62.343	0.169	-0.169
-609.215	81.671	0.108	-0.118
-608.201	671.679	-0.044	-0.115
-607.186	8.901	0.266	0.202
-606.171	354.046	-0.080	-0.159
-605.157	428.580	0.145	-0.315
-604.142	443.565	0.143	0.315
-603.128	800.000	-0.086	-0.286
-602.113	800.000	0.072	-0.221
-601.098	211.505	-0.064	-0.101
-600.084	-78.263	-0.140	-0.048
-599.069	800.000	-0.144	0.416
-598.055	-112.311	-0.194	-0.039
-597.040	-110.762	-0.154	-0.032
-596.025	122.595	0.166	-0.208
-595.011	800.000	0.143	0.480
-593.996	676.802	0.173	0.450
-592.982	-83.442	0.157	-0.051
-591.967	800.000	0.044	-0.147
-590.952	-5.600	0.086	-0.059
-589.938	-85.344	-0.025	0.008
-588.923	14.363	-0.049	-0.039
-587.909	371.002	0.028	-0.056
-586.894	-70.633	0.062	-0.024
-585.879	-179.671	0.116	-0.003
-584.865	-26.004	0.235	0.139
-583.850	556.296	0.103	0.248
-582.836	384.120	-0.077	0.159
-581.821	194.019	0.082	0.125
-580.806	-67.428	0.086	0.034
-579.792	-57.852	0.229	0.101
-578.777	-94.681	0.138	0.038
-577.763	79.959	0.154	0.166
-576.748	-159.943	-0.196	0.011
-575.733	2.130	0.072	-0.052
-574.719	175.876	0.097	-0.141
-573.704	-200.000	0.024	0.190
-572.690	91.653	0.154	0.173
-571.675	-130.547	0.237	-0.032
-570.661	363.455	-0.159	-0.321
-569.646	800.000	0.082	0.329
-568.631	-125.020	-0.465	0.072
-567.617	-200.000	-0.012	0.268
-566.602	-89.133	-0.163	-0.048
-565.588	-200.000	0.040	0.201
-564.573	-200.000	-0.001	0.074
-563.558	-79.642	0.229	0.077
-562.544	-183.726	-0.402	0.007
-561.529	358.946	-0.094	0.187
-560.515	219.981	-0.136	0.219
-559.500	113.164	0.054	-0.065
-558.485	212.723	-0.094	-0.148
-557.471	-66.891	0.242	0.096
-556.456	-65.784	-0.188	0.075
-555.442	800.000	0.094	-0.334
-554.427	-200.000	0.100	-0.488
-553.412	800.000	0.040	0.119
-552.398	-85.777	-0.320	0.099
-551.383	-157.360	0.042	0.003
-550.369	-150.889	0.117	-0.009
-549.354	52.411	0.213	0.204
-548.339	71.676	-0.326	-0.339
-547.325	-60.111	0.098	0.042
-546.310	66.624	-0.036	-0.037
-545.296	63.753	0.257	0.258
-544.281	-200.000	-0.010	-0.068
-543.266	530.905	-0.042	0.100
-542.252	-34.710	0.350	0.192
-541.237	-76.872	0.172	-0.060
-540.223	365.623	-0.150	-0.303
-539.208	-45.541	-0.292	0.145
-538.193	82.963	-0.076	-0.083
-537.179	-4.362	0.204	-0.141
-536.164	-20.211	-0.179	0.111
-535.150	123.528	-0.182	0.229
-534.135	-200.000	0.087	-0.391
-533.121	-200.000	0.003	0.066
-532.106	-136.288	-0.082	0.010
-531.091	-114.328	0.158	-0.031
-530.077	-41.855	0.458	-0.235
-529.062	40.447	-0.153	-0.138
-528.048	102.684	0.045	-0.052
-527.033	365.451	-0.089	-0.180
-526.018	800.000	-0.093	-0.265
-525.004	-76.233	-0.430	0.152
-523.989	125.859	-0.152	-0.193
-522.975	555.813	-0.045	0.107
-521.960	61.396	-0.142	0.141
-520.945	71.752	0.393	0.409
-519.931	390.814	0.039	-0.081
-518.916	-32.047	-0.369	0.207
-517.902	-58.647	-0.152	0.066
-516.887	35.629	-0.307	0.270
-515.872	-103.458	0.155	0.037
-514.858	660.902	0.094	-0.242
-513.843	-100.125	-0.236	-0.059
-512.829	-57.865	-0.155	-0.068
-511.814	251.598	0.200	-0.340
-510.799	53.400	-0.133	-0.127
-509.785	800.000	-0.028	-0.097
-508.770	185.725	0.259	-0.384
-507.756	253.954	-0.189	-0.324
-506.741	383.947	-0.055	-0.113
-505.726	-103.682	0.325	-0.076
-504.712	-71.781	-0.269	-0.100
-503.697	-181.254	-0.222	-0.004
-502.683	517.899	0.076	0.178
-501.668	-17.572	0.194	-0.122
-500.653	-26.590	-0.404	-0.236
-499.639	537.123	-0.064	-0.152
-498.624	61.911	0.072	0.072
-497.610	146.653	-0.114	-0.153
-496.595	18.998	-0.130	-0.105
-495.581	-4.155	-0.101	-0.070
-494.566	27.781	-0.277	0.233
-493.551	800.000	-0.051	-0.156
-492.537	55.489	0.193	-0.187
-491.522	-77.390	-0.138	-0.048
-490.508	800.000	0.014	-0.056
-489.493	295.656	-0.101	0.185
-488.478	800.000	-0.030	-0.110
-487.464	392.986	-0.051	0.107
-486.449	96.089	0.095	-0.109
-485.435	-73.974	0.369	-0.134
-484.420	-29.524	0.364	0.208
-483.405	-71.499	0.223	0.083
-482.391	12.598	0.069	-0.053
-481.376	-147.702	-0.509	-0.043
-480.362	-130.202	-0.312	-0.042
-479.347	-25.359	-0.207	0.122
-478.332	198.481	0.026	0.039
-477.318	800.000	0.042	-0.178
-476.303	-53.171	-0.096	0.044
-475.289	-124.087	0.577	-0.091
-474.274	389.357	0.137	-0.283
-473.259	-54.604	0.448	-0.203
-472.245	-44.902	-0.117	-0.058
-471.230	166.277	-0.101	-0.143
-470.216	30.039	0.053	0.045
-469.201	364.220	-0.087	0.174
-468.186	-200.000	0.003	-0.181
-467.172	-137.410	0.348	-0.039
-466.157	-67.812	-0.203	-0.079
-465.143	567.970	0.064	0.156
-464.128	197.688	0.148	0.226
-463.113	-200.000	0.012	-0.073
-462.099	686.168	0.047	-0.124
-461.084	422.571	-0.082	0.175
-460.070	174.730	0.379	0.548
-459.055	-200.000	0.019	0.333
-458.040	-200.000	0.008	0.206
-457.026	-75.115	-0.046	0.017
-456.011	-150.684	0.068	-0.005
-454.997	233.096	-0.078	-0.129
-453.982	-50.736	0.218	0.103
-452.968	-200.000	0.033	0.206
-451.953	-19.204	-0.168	0.104
-450.938	53.720	-0.238	0.228
-449.924	208.936	0.111	0.174
-448.909	101.535	-0.104	0.121
-447.895	-200.000	0.070	-0.468
-446.880	560.966	0.073	0.175
-445.865	-89.215	0.297	0.087
-444.851	-23.896	0.192	0.115
-443.836	517.310	-0.086	-0.200
-442.822	778.673	-0.070	-0.192
-441.807	-20.637	-0.054	0.033
-440.792	285.720	0.096	0.173
-439.778	800.000	-0.136	-0.375
-438.763	-200.000	-0.066	0.662
-437.749	214.426	0.070	0.111
-436.734	1.283	-0.197	0.141
-435.719	-200.000	-0.010	0.285
-434.705	800.000	-0.228	-0.754
-433.690	165.409	0.170	-0.239
-432.676	72.961	0.255	-0.266
-431.661	-128.053	0.322	-0.046
-430.646	492.179	0.163	0.372
-429.632	132.457	0.103	0.132
-428.617	-160.297	-0.131	-0.007
-427.603	60.973	-0.309	-0.305
-426.588	-8.069	0.220	-0.148
-425.573	136.446	-0.090	0.116
-424.559	-200.000	0.077	0.345
-423.544	-32.078	-0.205	-0.114
-422.530	-98.898	-0.074	-0.019
-421.515	-200.000	-0.071	0.332
-420.500	24.338	-0.237	-0.195
-419.486	800.000	0.059	-0.202
-418.471	-2.439	-0.023	-0.016
-417.457	349.825	0.090	-0.177
-416.442	-161.428	0.217	0.011
-415.428	-200.000	-0.008	-0.394
-414.413	-110.951	0.216	-0.044
-413.398	-126.391	0.114	0.017
-412.384	-116.625	-0.195	-0.036
-411.369	-37.082	0.098	0.052
-410.355	-94.924	-0.196	0.053
-409.340	-67.445	0.110	0.043
-408.325	38.255	-0.134	0.119
-407.311	38.200	0.015	-0.014
-406.296	35.774	0.125	0.110
-405.282	-75.896	0.371	0.131
-404.267	-200.000	-0.031	-0.203
-403.252	137.782	0.108	0.141
-402.238	-77.442	-0.190	0.066
-401.223	225.385	-0.132	-0.213
-400.209	-104.301	-0.293	-0.068
-399.194	800.000	0.071	-0.263
-398.179	-95.955	-0.081	0.022
-397.165	-74.561	-0.476	0.171
-396.150	341.824	0.176	0.342
-395.136	267.052	0.222	0.387
-394.121	-6.182	-0.142	-0.096
-393.106	1.131	-0.235	-0.168
-392.092	-200.000	0.072	-0.395
-391.077	-14.015	0.238	-0.153
-390.063	37.099	0.208	0.183
-389.048	724.477	-0.097	-0.258
-388.033	-51.372	0.253	-0.118
-387.019	-85.585	0.298	0.092
-386.004	421.094	0.131	-0.280
-384.990	30.414	-0.297	0.252
-383.975	327.886	0.113	0.215
-382.960	323.307	-0.086	0.163
-381.946	-200.000	-0.002	-0.024
-380.931	-200.000	0.030	0.360
-379.917	101.245	0.032	-0.037
-378.902	59.350	0.197	0.193
-377.888	227.922	-0.208	0.337
-376.873	-42.611	0.189	0.096
-375.858	409.265	-0.052	-0.110
-374.844	-200.000	-0.002	-0.186
-373.829	-71.214	-0.088	-0.033
-372.815	-43.941	-0.100	-0.050
-371.800	-45.606	0.153	0.075
-370.785	-200.000	0.020	0.124
-369.771	213.183	-0.098	0.154
-368.756	74.680	-0.182	0.191
-367.742	-113.938	-0.173	-0.033
-366.727	-200.000	0.038	-0.392
-365.712	197.123	0.198	0.301
-364.698	73.048	-0.178	-0.185
-363.683	126.325	0.076	-0.096
-362.669	-200.000	0.023	-0.440
-361.654	-113.065	0.166	-0.033
-360.639	-107.672	-0.281	-0.061
-359.625	187.560	-0.100	0.149
-358.610	-78.786	0.078	0.027
-357.596	-200.000	-0.027	0.426
-356.581	230.075	-0.063	-0.102
-355.566	111.732	0.154	-0.184
-354.552	-200.000	0.001	0.280
-353.537	-31.601	-0.346	0.193
-352.523	-98.586	-0.272	0.069
-351.508	-50.422	-0.329	0.154
-350.493	-100.996	0.460	0.112
-349.479	-165.460	-0.152	-0.007
-348.464	-73.915	-0.316	0.114
-347.450	800.000	-0.043	-0.172
-346.435	-157.732	0.183	-0.011
-345.420	-92.699	-0.275	-0.077
-344.406	411.708	-0.019	-0.040
-343.391	-200.000	-0.063	0.283
-342.377	-126.973	-0.180	0.026
-341.362	800.000	0.070	0.204
-340.348	-28.194	0.078	-0.045
-339.333	14.701	0.201	0.156
-338.318	115.689	-0.084	0.103
-337.304	358.397	-0.112	0.223
-336.289	121.121	-0.076	0.093
-335.275	-149.864	-0.226	-0.018
-334.260	-200.000	-0.013	0.082
-333.245	12.984	-0.286	0.220
-332.231	81.767	-0.048	0.052
-331.216	140.027	0.170	0.223
-330.202	-115.537	-0.302	-0.056
-329.187	-200.000	-0.031	-0.494
-328.172	346.072	-0.091	0.178
-327.158	133.841	0.085	0.110
-326.143	-68.559	0.135	-0.052
-325.129	-51.593	0.175	-0.081
-324.114	-83.471	-0.099	-0.031
-323.099	-127.764	0.149	0.021
-322.085	137.275	0.288	-0.375
-321.070	-122.701	0.134	0.022
-320.056	-21.071	0.197	-0.120
-319.041	-52.470	0.265	0.122
-318.026	67.856	-0.121	-0.123
-317.012	295.002	0.180	0.326
-315.997	-200.000	-0.009	0.123
-314.983	800.000	-0.087	0.301
-313.968	106.253	0.168	0.198
-312.953	-129.080	0.024	0.003
-311.939	115.409	-0.307	-0.372
-310.924	29.728	0.208	-0.175
-309.910	-200.000	0.037	-0.304
-308.895	1.191	-0.072	-0.051
-307.880	12.976	0.179	0.137
-306.866	45.176	-0.268	-0.245
-305.851	-3.254	0.072	-0.050
-304.837	-2.490	0.165	0.115
-303.822	-180.051	0.141	0.003
-302.807	-200.000	0.025	0.167
-301.793	800.000	0.077	-0.288
-300.778	-119.589	0.093	0.016
-299.764	-151.011	0.184	0.014
-298.749	703.208	0.088	-0.231
-297.735	-185.342	-0.194	-0.003
-296.720	-89.706	-0.276	-0.080
-295.705	381.556	-0.077	0.156
-294.691	-90.292	0.409	-0.118
-293.676	12.121	-0.160	0.122
-292.662	81.849	0.060	0.065
-291.647	-200.000	0.067	-0.456
-290.632	-148.135	0.137	-0.011
-289.618	-200.000	0.039	0.185
-288.603	-195.700	-0.261	-0.002
-287.589	-22.046	-0.060	-0.036
-286.574	-67.636	0.274	0.106
-285.559	-200.000	0.031	-0.190
-284.545	62.720	-0.150	-0.149
-283.530	-92.135	-0.255	-0.071
-282.516	-200.000	0.018	0.204
-281.501	800.000	-0.036	-0.121
-280.486	800.000	-0.032	-0.136
-279.472	-61.995	-0.215	-0.089
-278.457	-105.712	0.245	-0.055
-277.443	-48.453	0.248	-0.119
-276.428	305.061	-0.220	-0.406
-275.413	-70.627	-0.221	-0.083
-274.399	-200.000	0.012	-0.221
-273.384	5.014	0.135	-0.099
-272.370	-14.092	0.066	0.042
-271.355	308.056	-0.103	0.191
-270.340	-200.000	-0.048	0.612
-269.326	84.580	0.060	0.065
-268.311	-29.730	-0.173	0.098
-267.297	800.000	-0.056	-0.205
-266.282	-128.044	0.387	-0.055
-265.267	448.208	0.114	-0.249
-264.253	-14.926	0.348	0.221
-263.238	800.000	0.055	-0.202
-262.224	701.553	0.063	-0.165
-261.209	26.873	0.050	-0.041
-260.195	77.456	-0.062	-0.065
-259.180	-50.057	0.235	-0.111
-258.165	101.234	0.220	0.253
-257.151	-136.024	-0.250	-0.029
-256.136	-51.010	0.215	0.100
-255.122	-86.787	0.017	0.005
-254.107	-65.085	-0.110	0.044
-253.092	-0.936	-0.048	0.034
-252.078	13.717	-0.228	-0.176
-251.063	-119.458	-0.070	0.012
-250.049	800.000	0.005	-0.014
-249.034	-200.000	0.010	-0.195
-248.019	-70.198	-0.277	-0.104
-247.005	-4.491	-0.065	0.045
-245.990	-200.000	-0.011	0.127
-244.976	-152.500	0.098	-0.007
-243.961	-64.393	0.222	0.089
-242.946	800.000	0.099	0.311
-241.932	589.889	-0.061	-0.149
-240.917	800.000	-0.040	-0.155
-239.903	-81.880	0.161	-0.052
-238.888	50.833	0.011	0.010
-237.873	-36.344	0.204	0.109
-236.859	-200.000	0.028	-0.122
-235.844	-161.243	0.276	-0.014
-234.830	40.770	0.102	0.091
-233.815	-200.000	-0.021	0.171
-232.800	-200.000	-0.025	0.229
-231.786	46.536	0.154	0.142
-230.771	-200.000	-0.050	0.350
-229.757	291.987	-0.067	-0.121
-228.742	-134.332	0.229	-0.028
-227.727	-186.318	0.079	-0.001
-226.713	42.942	-0.038	-0.035
-225.698	3.716	-0.192	0.138
-224.684	-116.952	-0.261	0.047
-223.669	-200.000	-0.016	0.113
-222.655	74.980	-0.287	0.299
-221.640	530.850	0.076	-0.178
-220.625	51.936	0.078	0.074
-219.611	315.159	0.093	-0.173
-218.596	-200.000	0.055	-0.313
-217.582	166.674	-0.076	-0.106
-216.567	-180.214	-0.249	-0.005
-215.552	314.952	0.104	-0.194
-214.538	-53.532	0.195	-0.088
-213.523	-85.235	0.239	-0.074
-212.509	800.000	0.019	0.066
-211.494	69.445	-0.274	0.279
-210.479	-85.529	-0.221	0.068
-209.465	-54.382	0.256	-0.115
-208.450	40.141	-0.086	0.076
-207.436	-80.922	0.354	-0.116
-206.421	-99.393	-0.407	0.101
-205.406	22.234	0.097	-0.079
-204.392	-14.827	0.114	0.073
-203.377	131.187	0.109	0.138
-202.363	139.411	-0.066	0.086
-201.348	-126.792	0.223	0.033
-200.333	-59.294	0.089	0.038
-199.319	54.103	-0.059	0.056
-198.304	-110.387	0.146	0.030
-197.290	201.304	-0.014	0.021
-196.275	-121.267	-0.267	0.044
-195.260	768.960	-0.052	-0.140
-194.246	16.523	0.120	0.094
-193.231	69.141	-0.136	-0.138
-192.217	76.392	-0.160	-0.167
-191.202	-200.000	0.012	0.110
-190.187	19.849	-0.170	-0.135
-189.173	-200.000	0.026	0.198
-188.158	-121.412	-0.143	-0.024
-187.144	146.771	0.117	-0.156
-186.129	-53.342	-0.172	0.078
-185.114	139.213	-0.142	0.185
-184.100	19.271	0.319	-0.253
-183.085	-110.533	-0.222	-0.045
-182.071	-78.076	-0.093	0.032
-181.056	-34.962	0.151	-0.081
-180.042	-5.579	-0.217	0.147
-179.027	-54.402	0.083	0.037
-178.012	800.000	-0.025	-0.080
-176.998	57.635	0.188	0.181
-175.983	180.505	-0.075	-0.108
-174.969	79.642	0.112	0.118
-173.954	659.483	-0.066	-0.169
-172.939	144.575	-0.079	-0.104
-171.925	-200.000	-0.011	0.115
-170.910	-119.646	-0.324	-0.055
-169.896	-51.344	-0.279	0.129
-168.881	-83.229	-0.079	0.025
-167.866	-124.054	0.351	-0.054
-166.852	262.656	0.212	0.364
-165.837	-100.127	0.241	0.059
-164.823	-145.472	-0.129	0.011
-163.808	-114.408	0.049	-0.009
-162.793	800.000	0.040	0.116
-161.779	45.707	0.300	0.274
-160.764	622.406	0.028	0.071
-159.750	225.186	-0.163	0.261
-158.735	-200.000	0.130	0.000
-157.720	388.304	-0.036	0.074
-156.706	-58.843	-0.255	-0.109
-155.691	82.036	-0.076	0.082
-154.677	-112.903	-0.214	-0.042
-153.662	-200.000	0.071	-0.359
-152.647	-131.411	0.170	-0.022
-151.633	-49.276	0.277	-0.131
-150.618	-64.816	-0.278	0.111
-149.604	108.088	-0.249	-0.293
-148.589	-29.492	-0.193	-0.109
-147.574	-102.263	-0.043	0.010
-146.560	-84.128	-0.494	0.155
-145.545	-76.946	0.120	0.041
-144.531	-35.022	-0.185	-0.099
-143.516	-55.116	0.117	-0.052
-142.502	-30.898	-0.414	-0.230
-141.487	-37.488	-0.160	0.084
-140.472	-79.507	0.097	-0.032
-139.458	27.234	0.221	0.183
-138.443	-55.875	-0.139	-0.061
-137.429	-200.000	0.082	0.417
-136.414	58.155	-0.085	-0.082
-135.399	-15.036	0.243	0.154
-134.385	116.252	-0.024	0.029
-133.370	-9.039	-0.152	0.101
-132.356	800.000	0.127	-0.368
-131.341	-200.000	-0.016	0.110
-130.326	-157.110	0.128	-0.008
-129.312	-61.890	0.183	0.076
-128.297	-200.000	0.003	0.301
-127.283	-136.033	0.340	0.039
-126.268	95.471	-0.182	0.205
-125.253	-15.819	-0.112	0.070
-124.239	-200.000	-0.280	0.001
-123.224	-200.000	0.015	0.290
-122.210	144.137	-0.112	-0.147
-121.195	126.970	0.088	-0.110
-120.180	-122.136	-0.308	-0.050
