DTS Sentinel unit serial number:	SN413079Multiplexer serial number:	ORYXHardware model number:	OX4-SRSoftware version number:	ORYX F/W v4.00 Oryx Data Collector v3.7.2.0data status	okinstallation	princeton_trtdifferential loss correction	single-endedforward channel	channel 2reverse channel	N/Adate	2019/09/10time	15:45:10forward acquisition time	60.00reverse acquisition time	0.00gamma	496.2192k internal	0.2308k external	0.2308temperature offset calibration	0.9935default loss term (dB/km)	0.3790temperature slope calibration	1.0000multiplexer offset coefficient	1.0000multiplexer slope coefficient	1.0000fibre end	0.00T internal ref (°C)	38.06T ext. ref 1 (°C)	-0.31T ext. ref 2 (°C)	31.41length (m)	temperature (°C)	Stokes	anti-Stokes-747.200	-129.710	0.228	-0.032
-746.185	362.457	0.094	0.193
-745.171	644.262	0.082	0.212
-744.156	643.907	0.034	-0.089
-743.142	-97.387	0.258	0.068
-742.127	58.141	-0.257	0.256
-741.112	-110.402	-0.158	-0.033
-740.098	-200.000	0.038	0.215
-739.083	208.662	-0.337	0.536
-738.069	69.570	0.124	0.130
-737.054	-37.837	-0.366	0.198
-736.039	-138.270	-0.293	-0.033
-735.025	723.498	-0.037	0.099
-734.010	-8.498	-0.425	0.290
-732.996	-200.000	0.024	-0.178
-731.981	208.562	-0.101	0.161
-730.966	-200.000	-0.017	-0.118
-729.952	177.454	0.189	0.279
-728.937	800.000	-0.099	-0.338
-727.923	-8.728	-0.376	-0.256
-726.908	-200.000	0.005	-0.141
-725.894	45.922	-0.174	-0.164
-724.879	800.000	0.059	-0.254
-723.864	-200.000	-0.011	0.058
-722.850	21.764	-0.178	0.147
-721.835	-24.075	0.031	0.019
-720.821	-133.493	-0.297	0.038
-719.806	115.310	-0.195	-0.241
-718.791	-140.468	-0.085	0.009
-717.777	-182.336	0.191	0.004
-716.762	-32.964	-0.167	0.094
-715.748	-83.308	-0.402	0.131
-714.733	800.000	-0.105	-0.376
-713.718	800.000	0.129	-0.462
-712.704	800.000	0.096	-0.345
-711.689	-110.652	-0.219	0.046
-710.675	-88.852	0.088	0.026
-709.660	-104.686	-0.194	-0.045
-708.645	800.000	0.120	-0.388
-707.631	-126.888	-0.091	-0.014
-706.616	282.965	0.061	-0.112
-705.602	-123.282	-0.234	-0.038
-704.587	253.947	-0.148	-0.257
-703.572	548.266	-0.083	-0.201
-702.558	-27.176	0.105	0.062
-701.543	800.000	-0.036	-0.115
-700.529	49.054	-0.141	-0.135
-699.514	800.000	-0.044	0.131
-698.499	-52.848	-0.233	0.109
-697.485	225.437	-0.122	-0.200
-696.470	-200.000	-0.063	-0.289
-695.456	-22.869	-0.220	0.134
-694.441	-24.328	0.218	-0.132
-693.426	-200.000	-0.066	-0.327
-692.412	35.490	-0.303	0.270
-691.397	77.929	0.149	0.162
-690.383	156.021	0.096	-0.134
-689.368	66.842	-0.044	0.045
-688.354	-200.000	0.005	-0.168
-687.339	-0.100	-0.066	0.047
-686.324	-63.115	0.175	0.073
-685.310	371.467	-0.125	-0.257
-684.295	631.273	0.040	-0.102
-683.281	94.492	0.294	-0.339
-682.266	32.983	-0.136	0.120
-681.251	94.699	-0.203	0.234
-680.237	-126.916	-0.325	0.049
-679.222	-57.381	-0.165	-0.073
-678.208	23.476	-0.028	-0.024
-677.193	103.787	0.126	-0.150
-676.178	285.036	0.071	0.129
-675.164	800.000	-0.087	-0.324
-674.149	-156.615	-0.079	-0.005
-673.135	187.207	0.095	-0.143
-672.120	800.000	0.004	-0.018
-671.105	-89.962	0.343	-0.101
-670.091	440.525	0.046	-0.102
-669.076	-200.000	0.005	0.096
-668.062	-155.700	-0.321	0.021
-667.047	81.498	-0.160	-0.175
-666.032	206.377	-0.075	-0.118
-665.018	754.444	-0.041	0.113
-664.003	260.456	0.094	-0.165
-662.989	552.889	0.068	-0.166
-661.974	-6.043	0.174	0.120
-660.959	-94.790	-0.267	0.073
-659.945	800.000	-0.065	-0.262
-658.930	147.755	-0.050	0.068
-657.916	-200.000	-0.070	0.628
-656.901	-154.726	-0.223	0.015
-655.886	45.109	0.078	-0.073
-654.872	-200.000	0.018	0.489
-653.857	44.046	0.069	0.064
-652.843	141.459	-0.104	-0.140
-651.828	137.566	0.085	0.112
-650.814	800.000	0.063	-0.269
-649.799	65.865	0.055	0.056
-648.784	-132.465	0.281	0.037
-647.770	800.000	0.044	-0.130
-646.755	76.100	-0.231	-0.247
-645.741	-61.624	0.442	-0.188
-644.726	-48.747	-0.144	-0.070
-643.711	-200.000	-0.008	-0.135
-642.697	86.211	-0.085	0.094
-641.682	-60.140	0.197	-0.085
-640.668	-200.000	0.024	-0.204
-639.653	112.510	-0.153	-0.188
-638.638	-166.530	0.338	0.014
-637.624	-91.057	-0.089	0.026
-636.609	-200.000	-0.068	-0.343
-635.595	-55.936	-0.100	0.045
-634.580	306.523	-0.068	0.128
-633.565	-200.000	0.009	-0.178
-632.551	6.108	-0.126	0.095
-631.536	-68.081	0.167	-0.066
-630.522	252.699	0.054	0.093
-629.507	-200.000	-0.023	-0.115
-628.492	1.640	0.140	-0.102
-627.478	309.010	-0.085	0.161
-626.463	166.110	0.111	0.160
-625.449	28.161	0.037	-0.031
-624.434	800.000	0.016	-0.053
-623.419	195.124	-0.125	0.193
-622.405	215.786	0.190	-0.305
-621.390	-129.006	-0.091	-0.013
-620.376	800.000	0.098	0.307
-619.361	712.116	-0.038	0.103
-618.346	-49.454	-0.320	-0.154
-617.332	-33.439	-0.314	-0.176
-616.317	-76.309	0.226	0.080
-615.303	-200.000	0.019	-0.339
-614.288	307.251	0.181	-0.341
-613.273	110.055	0.230	-0.279
-612.259	46.547	-0.240	-0.225
-611.244	-200.000	0.052	-0.383
-610.230	-86.733	-0.186	-0.057
-609.215	-33.769	-0.138	-0.077
-608.201	-129.472	0.155	-0.022
-607.186	173.134	-0.110	0.161
-606.171	9.143	-0.044	0.033
-605.157	-200.000	-0.017	0.160
-604.142	-200.000	0.390	-0.001
-603.128	-200.000	0.046	0.258
-602.113	10.665	0.135	0.104
-601.098	32.677	0.129	0.112
-600.084	-200.000	-0.006	0.422
-599.069	499.586	0.075	-0.174
-598.055	-77.358	-0.415	-0.146
-597.040	-86.601	0.235	0.073
-596.025	253.861	0.113	0.194
-595.011	-136.768	-0.299	0.035
-593.996	-200.000	-0.087	0.559
-592.982	19.149	0.169	-0.137
-591.967	117.929	0.033	0.041
-590.952	295.739	0.039	-0.071
-589.938	-200.000	0.057	-0.296
-588.923	-149.420	-0.613	-0.049
-587.909	-42.714	0.290	0.149
-586.894	36.424	-0.319	0.285
-585.879	-61.821	0.209	-0.088
-584.865	212.635	0.045	-0.072
-583.850	-153.887	-0.203	0.014
-582.836	-33.563	-0.333	0.186
-581.821	10.956	0.199	-0.154
-580.806	25.759	0.192	0.161
-579.792	-21.065	-0.163	-0.101
-578.777	-200.000	-0.006	-0.336
-577.763	309.159	-0.169	0.319
-576.748	330.684	-0.089	-0.174
-575.733	70.921	-0.157	0.164
-574.719	67.055	0.087	-0.089
-573.704	143.138	-0.160	-0.215
-572.690	-111.126	0.358	-0.074
-571.675	302.774	-0.098	-0.183
-570.661	58.403	-0.210	-0.208
-569.646	-37.132	-0.300	-0.162
-568.631	-144.090	0.101	0.010
-567.617	42.171	0.059	0.054
-566.602	788.740	-0.091	-0.251
-565.588	800.000	-0.030	-0.094
-564.573	-200.000	-0.029	-0.320
-563.558	34.685	0.120	-0.106
-562.544	105.188	-0.140	0.166
-561.529	-86.997	-0.310	0.095
-560.515	26.184	-0.265	0.224
-559.500	-158.687	-0.212	-0.012
-558.485	-31.430	0.175	0.099
-557.471	-75.085	0.169	0.061
-556.456	82.068	-0.246	-0.269
-555.442	-183.290	0.195	0.003
-554.427	-200.000	0.006	0.089
-553.412	60.763	-0.130	-0.130
-552.398	1.068	0.183	0.132
-551.383	319.098	0.072	0.137
-550.369	71.535	-0.057	0.059
-549.354	194.701	-0.122	-0.186
-548.339	-108.119	-0.330	-0.072
-547.325	30.619	0.164	0.142
-546.310	800.000	0.055	-0.207
-545.296	-25.598	-0.274	-0.163
-544.281	-200.000	0.004	-0.135
-543.266	647.834	0.025	-0.066
-542.252	-169.340	0.310	-0.011
-541.237	-200.000	-0.006	-0.079
-540.223	-13.274	-0.237	-0.155
-539.208	-200.000	0.095	-0.430
-538.193	144.766	-0.123	-0.166
-537.179	-138.003	0.111	-0.012
-536.164	-130.170	0.125	0.017
-535.150	-11.928	0.236	-0.156
-534.135	-37.980	-0.129	0.069
-533.121	800.000	0.086	-0.246
-532.106	413.798	0.016	-0.033
-531.091	-130.566	0.147	0.020
-530.077	185.054	-0.203	0.304
-529.062	-200.000	0.040	0.347
-528.048	-151.503	0.219	0.016
-527.033	-155.104	-0.111	0.007
-526.018	-200.000	0.036	-0.230
-525.004	-141.343	0.142	0.015
-523.989	382.645	-0.109	0.227
-522.975	141.322	-0.094	0.125
-521.960	-60.567	0.215	0.092
-520.945	43.901	0.209	-0.193
-519.931	46.719	-0.083	0.077
-518.916	-43.372	0.097	0.049
-517.902	-60.939	-0.090	-0.038
-516.887	-188.933	-0.204	-0.002
-515.872	-21.850	0.064	0.039
-514.858	-29.288	-0.119	-0.069
-513.843	493.957	-0.084	0.195
-512.829	-200.000	0.004	0.091
-511.814	-200.000	-0.024	0.115
-510.799	-82.753	0.222	-0.072
-509.785	81.584	0.132	0.144
-508.770	-47.697	0.262	0.128
-507.756	-200.000	-0.025	0.174
-506.741	48.659	0.129	-0.122
-505.726	553.720	0.093	0.226
-504.712	99.179	0.283	0.329
-503.697	800.000	0.057	0.220
-502.683	800.000	0.146	0.485
-501.668	-178.198	0.078	0.002
-500.653	-129.706	-0.121	-0.017
-499.639	-18.146	0.299	0.188
-498.624	123.367	0.154	-0.194
-497.610	403.738	0.094	0.198
-496.595	-170.177	-0.103	-0.004
-495.581	-137.952	-0.287	0.032
-494.566	-200.000	-0.039	0.307
-493.551	-200.000	0.028	0.192
-492.537	662.328	-0.069	0.180
-491.522	23.799	0.157	-0.130
-490.508	303.228	-0.093	-0.174
-489.493	100.474	-0.239	-0.279
-488.478	-200.000	0.004	-0.131
-487.464	31.142	0.106	0.092
-486.449	-85.757	-0.230	0.072
-485.435	-50.193	0.179	-0.085
-484.420	-113.873	0.067	0.013
-483.405	800.000	0.056	0.240
-482.391	-200.000	0.044	-0.226
-481.376	2.505	0.121	0.088
-480.362	334.829	0.072	-0.141
-479.347	98.975	-0.172	-0.200
-478.332	-130.254	-0.085	-0.012
-477.318	-116.634	0.193	0.036
-476.303	3.748	-0.482	0.354
-475.289	140.007	0.081	-0.107
-474.274	-200.000	-0.004	-0.022
-473.259	-15.496	-0.222	0.143
-472.245	86.606	-0.222	0.246
-471.230	-30.281	-0.311	0.178
-470.216	172.782	0.136	-0.197
-469.201	-200.000	0.015	0.073
-468.186	207.058	0.134	-0.211
-467.172	-200.000	-0.014	0.339
-466.157	-30.037	-0.105	-0.060
-465.143	-200.000	0.008	0.089
-464.128	445.890	0.096	0.212
-463.113	-200.000	0.002	0.032
-462.099	36.124	0.317	0.280
-461.084	638.708	0.096	0.246
-460.070	269.492	-0.108	0.191
-459.055	67.743	-0.197	-0.203
-458.040	175.007	-0.118	0.172
-457.026	-200.000	0.038	-0.516
-456.011	-0.670	0.177	-0.126
-454.997	380.853	0.051	0.104
-453.982	48.471	-0.048	-0.045
-452.968	-8.598	0.080	0.054
-451.953	121.969	0.132	-0.165
-450.938	-107.677	0.184	0.040
-449.924	-143.792	-0.350	0.033
-448.909	-40.681	-0.224	-0.117
-447.895	-29.866	-0.159	-0.091
-446.880	-119.000	0.370	-0.065
-445.865	-200.000	0.052	-0.254
-444.851	-136.494	-0.227	-0.026
-443.836	-47.965	-0.122	-0.059
-442.822	658.001	-0.093	-0.241
-441.807	-132.039	-0.228	-0.030
-440.792	-200.000	0.004	-0.079
-439.778	-56.477	0.227	-0.101
-438.763	103.858	-0.113	-0.133
-437.749	111.673	-0.161	0.195
-436.734	-148.593	0.205	0.017
-435.719	-39.252	0.236	-0.125
-434.705	-23.831	0.468	-0.281
-433.690	-200.000	0.019	-0.105
-432.676	800.000	0.038	0.123
-431.661	5.795	-0.086	0.064
-430.646	-21.537	-0.141	-0.086
-429.632	-200.000	-0.004	-0.233
-428.617	-51.469	0.133	0.063
-427.603	-69.167	0.092	-0.036
-426.588	44.352	-0.070	-0.064
-425.573	129.041	0.275	0.352
-424.559	-20.628	0.119	-0.073
-423.544	800.000	-0.038	0.114
-422.530	222.112	0.026	-0.043
-421.515	351.762	-0.036	0.072
-420.500	-156.011	0.178	0.011
-419.486	-200.000	-0.051	0.332
-418.471	-118.860	0.133	0.024
-417.457	-64.913	-0.218	0.088
-416.442	67.221	-0.071	0.073
-415.428	264.215	0.201	0.350
-414.413	-33.709	-0.130	-0.072
-413.398	79.649	0.208	0.224
-412.384	-135.060	0.242	-0.029
-411.369	74.589	-0.143	-0.151
-410.355	800.000	0.056	0.201
-409.340	-138.174	0.454	-0.051
-408.325	-175.714	-0.365	0.010
-407.311	16.322	0.161	-0.127
-406.296	362.320	0.048	0.096
-405.282	137.581	-0.074	-0.097
-404.267	-163.324	0.314	-0.015
-403.252	-66.668	0.214	-0.085
-402.238	-73.228	-0.205	-0.075
-401.223	-7.050	0.525	-0.357
-400.209	613.303	-0.126	-0.315
-399.194	-157.538	-0.171	0.010
-398.179	-47.452	0.087	0.042
-397.165	-160.009	0.307	0.017
-396.150	-69.164	0.222	0.086
-395.136	277.014	-0.228	0.407
-394.121	-154.370	0.171	-0.011
-393.106	-139.980	0.287	-0.030
-392.092	-118.813	0.054	0.010
-391.077	-200.000	-0.011	0.173
-390.063	-200.000	-0.014	0.348
-389.048	46.893	-0.129	0.120
-388.033	-53.589	-0.127	0.058
-387.019	800.000	0.019	0.056
-386.004	-22.616	0.113	-0.068
-384.990	-200.000	-0.049	0.257
-383.975	301.949	-0.155	0.288
-382.960	-96.945	-0.094	-0.025
-381.946	3.112	-0.116	0.084
-380.931	-200.000	0.000	-0.190
-379.917	-57.042	-0.487	-0.215
-378.902	-102.907	-0.151	-0.036
-377.888	-96.834	0.340	-0.089
-376.873	14.905	-0.300	0.235
-375.858	-122.902	0.331	-0.053
-374.844	422.368	-0.069	0.148
-373.829	193.194	0.133	0.201
-372.815	-123.082	0.169	-0.027
-371.800	216.422	-0.066	0.106
-370.785	11.740	0.223	-0.172
-369.771	800.000	0.034	0.123
-368.756	91.809	0.323	-0.364
-367.742	81.071	-0.302	-0.326
-366.727	-155.927	-0.068	0.004
-365.712	117.520	0.188	-0.232
-364.698	728.793	0.105	-0.281
-363.683	217.540	0.066	-0.105
-362.669	45.455	0.138	-0.128
-361.654	-200.000	-0.032	0.253
-360.639	287.388	-0.123	-0.223
-359.625	47.861	-0.043	-0.040
-358.610	-21.810	0.031	-0.019
-357.596	266.715	0.145	-0.254
-356.581	-81.556	-0.237	-0.078
-355.566	-200.000	0.021	0.152
-354.552	-200.000	0.024	-0.240
-353.537	124.662	0.176	-0.221
-352.523	255.205	0.167	-0.286
-351.508	-115.082	0.154	0.029
-350.493	223.841	-0.059	0.095
-349.479	37.707	-0.234	-0.208
-348.464	-200.000	-0.066	0.292
-347.450	-129.787	-0.352	-0.048
-346.435	427.568	-0.094	-0.204
-345.420	-53.727	0.096	-0.044
-344.406	-110.804	0.063	-0.013
-343.391	172.206	-0.243	-0.350
-342.377	-11.760	-0.314	-0.206
-341.362	800.000	0.010	-0.032
-340.348	-42.137	-0.146	-0.075
-339.333	61.201	-0.302	0.300
-338.318	-87.029	-0.265	-0.081
-337.304	276.915	-0.124	0.221
-336.289	-200.000	-0.020	-0.193
-335.275	-135.430	-0.021	-0.002
-334.260	-200.000	0.049	-0.454
-333.245	-200.000	0.003	0.085
-332.231	-17.512	-0.201	-0.126
-331.216	50.919	0.196	0.186
-330.202	185.004	0.101	0.150
-329.187	-200.000	0.037	0.188
-328.172	-3.853	-0.091	0.063
-327.158	-21.167	0.131	0.080
-326.143	682.030	0.114	0.297
-325.129	-45.971	0.266	0.131
-324.114	55.669	0.194	0.188
-323.099	-200.000	0.036	-0.374
-322.085	300.595	-0.203	0.375
-321.070	-166.442	-0.090	-0.004
-320.056	540.915	0.061	0.144
-319.041	673.098	0.072	-0.186
-318.026	101.739	-0.102	0.119
-317.012	-171.522	0.261	0.009
-315.997	-200.000	-0.001	-0.128
-314.983	800.000	-0.024	0.076
-313.968	216.771	-0.107	0.170
-312.953	-77.645	-0.185	-0.064
-311.939	-168.138	-0.142	0.006
-310.924	136.996	-0.073	0.096
-309.910	-24.263	0.274	0.164
-308.895	25.565	0.084	-0.070
-307.880	12.448	0.120	0.093
-306.866	-200.000	-0.004	0.275
-305.851	-6.851	-0.208	0.141
-304.837	-87.341	0.319	0.097
-303.822	90.029	-0.212	0.237
-302.807	-200.000	-0.005	0.103
-301.793	800.000	-0.062	0.198
-300.778	181.562	-0.129	-0.190
-299.764	-15.840	0.224	0.142
-298.749	800.000	0.031	-0.105
-297.735	-200.000	-0.019	-0.170
-296.720	318.509	-0.018	0.034
-295.705	142.194	-0.203	-0.269
-294.691	13.510	0.187	0.145
-293.676	78.761	-0.170	-0.181
-292.662	-200.000	0.009	-0.059
-291.647	-32.337	-0.238	0.133
-290.632	800.000	0.071	-0.211
-289.618	-63.837	0.406	0.166
-288.603	256.407	0.097	0.167
-287.589	0.323	0.283	-0.202
-286.574	-148.491	0.404	0.033
-285.559	-123.915	-0.111	0.018
-284.545	-89.427	-0.218	-0.064
-283.530	432.750	-0.149	-0.323
-282.516	225.483	-0.117	-0.189
-281.501	800.000	0.056	-0.236
-280.486	-89.447	-0.230	-0.067
-279.472	-200.000	0.031	-0.226
-278.457	-95.033	-0.393	0.106
-277.443	29.590	-0.049	0.042
-276.428	800.000	0.039	-0.132
-275.413	-38.197	-0.286	-0.151
-274.399	657.048	0.127	0.325
-273.384	553.808	0.120	0.288
-272.370	543.056	0.063	0.150
-271.355	699.863	0.045	-0.118
-270.340	-200.000	-0.016	-0.096
-269.326	-14.627	0.116	-0.074
-268.311	461.260	0.050	0.112
-267.297	35.521	0.315	0.276
-266.282	-133.775	0.170	0.021
-265.267	-200.000	-0.016	-0.208
-264.253	43.307	-0.155	0.141
-263.238	-200.000	-0.008	0.111
-262.224	397.946	-0.086	-0.179
-261.209	469.648	-0.074	-0.165
-260.195	64.265	0.175	0.176
-259.180	-200.000	0.040	0.212
-258.165	327.087	-0.064	0.122
-257.151	-88.192	-0.302	0.090
-256.136	-40.066	0.249	-0.129
-255.122	302.807	-0.076	-0.140
-254.107	229.415	0.102	-0.166
-253.092	-200.000	0.020	-0.091
-252.078	-15.032	-0.271	0.173
-251.063	-77.649	-0.206	0.071
-250.049	43.719	-0.509	0.465
-249.034	31.697	-0.073	0.063
-248.019	-56.180	-0.269	-0.119
-247.005	78.482	0.023	0.024
-245.990	37.455	0.046	0.041
-244.976	131.567	-0.083	-0.107
-243.961	-73.275	-0.323	-0.118
-242.946	-61.540	-0.266	-0.111
-241.932	66.084	-0.095	-0.096
-240.917	116.800	-0.235	0.287
-239.903	800.000	0.094	0.340
-238.888	-200.000	-0.020	-0.092
-237.873	-105.768	-0.216	-0.049
-236.859	-114.977	0.078	-0.015
-235.844	-200.000	-0.035	0.345
-234.830	-125.163	0.335	0.051
-233.815	-200.000	-0.033	-0.225
-232.800	386.140	-0.045	0.092
-231.786	800.000	-0.019	0.081
-230.771	-25.937	0.262	0.154
-229.757	-155.580	0.313	-0.020
-228.742	800.000	-0.042	-0.169
-227.727	29.303	0.071	-0.060
-226.713	-106.480	-0.123	-0.027
-225.698	800.000	0.109	0.356
-224.684	31.106	-0.215	0.184
-223.669	-200.000	-0.040	-0.262
-222.655	60.998	0.311	-0.308
-221.640	597.291	-0.074	0.182
-220.625	-45.182	-0.160	-0.079
-219.611	43.816	0.069	0.063
-218.596	800.000	-0.064	-0.181
-217.582	-70.176	0.242	0.092
-216.567	453.924	-0.028	0.061
-215.552	800.000	-0.012	-0.036
-214.538	1.206	-0.163	-0.117
-213.523	-137.937	-0.214	-0.024
-212.509	207.596	-0.132	0.205
-211.494	-92.618	0.078	0.022
-210.479	-200.000	0.038	-0.194
-209.465	-53.881	-0.204	-0.092
-208.450	152.078	-0.165	0.224
-207.436	-200.000	-0.026	0.245
-206.421	288.598	0.103	0.185
-205.406	800.000	0.061	0.241
-204.392	-138.940	0.147	0.016
-203.377	800.000	-0.065	0.262
-202.363	493.954	-0.154	0.353
-201.348	-116.846	0.343	-0.063
-200.333	800.000	0.006	0.016
-199.319	125.396	-0.241	-0.303
-198.304	-32.737	0.191	0.105
-197.290	626.845	-0.093	-0.234
-196.275	-200.000	-0.011	0.085
-195.260	-75.050	-0.090	-0.032
-194.246	64.437	-0.108	0.108
-193.231	-162.169	0.216	0.011
-192.217	153.522	-0.203	0.276
-191.202	-119.288	0.152	-0.026
-190.187	-172.724	-0.273	0.008
-189.173	-19.215	0.236	-0.146
-188.158	800.000	0.032	-0.129
-187.144	-200.000	-0.001	-0.058
-186.129	-61.257	0.143	0.060
-185.114	-157.529	0.141	0.008
-184.100	-96.800	0.317	-0.083
-183.085	188.539	-0.121	0.181
-182.071	29.514	0.209	0.177
-181.056	800.000	0.099	0.350
-180.042	-130.929	0.245	-0.033
-179.027	53.457	0.067	-0.064
-178.012	-19.661	-0.282	-0.173
-176.998	-51.504	-0.231	-0.107
-175.983	800.000	0.126	-0.414
-174.969	76.105	0.180	0.189
-173.954	800.000	0.082	0.329
-172.939	-200.000	-0.091	0.452
-171.925	-38.918	-0.467	-0.244
-170.910	-2.192	-0.344	-0.240
-169.896	-200.000	0.038	0.234
-168.881	90.007	-0.037	-0.041
-167.866	135.322	0.096	-0.124
-166.852	-43.538	0.110	0.055
-165.837	92.411	0.233	0.261
-164.823	230.444	-0.105	-0.170
-163.808	313.776	0.033	-0.061
-162.793	119.047	-0.194	-0.239
-161.779	800.000	0.009	-0.032
-160.764	-200.000	-0.082	-0.404
-159.750	800.000	0.017	0.050
-158.735	-97.509	0.130	0.033
-157.720	-165.552	-0.231	0.010
-156.706	269.693	0.053	-0.093
-155.691	800.000	0.065	-0.266
-154.677	-44.089	0.152	-0.076
-153.662	36.110	-0.200	0.175
-152.647	-200.000	-0.004	-0.162
-151.633	56.219	0.136	-0.131
-150.618	-200.000	-0.042	0.203
-149.604	-64.322	0.089	0.036
-148.589	-200.000	-0.058	-0.287
-147.574	62.457	-0.106	-0.105
-146.560	94.471	0.147	0.166
-145.545	-200.000	-0.030	0.342
-144.531	77.209	0.045	0.048
-143.516	190.660	0.177	0.263
-142.502	12.830	0.218	0.167
-141.487	210.210	-0.082	-0.128
-140.472	-108.953	-0.030	0.006
-139.458	800.000	-0.052	0.167
-138.443	-200.000	0.019	-0.256
-137.429	69.894	-0.204	0.209
-136.414	-133.983	0.062	0.008
-135.399	-200.000	-0.002	-0.164
-134.385	-200.000	0.097	-0.544
-133.370	-200.000	0.001	-0.209
-132.356	-200.000	0.010	-0.136
-131.341	375.949	-0.223	-0.452
-130.326	-200.000	-0.002	-0.266
-129.312	-9.393	0.259	0.171
-128.297	-51.335	-0.212	0.098
-127.283	-200.000	0.039	-0.349
-126.268	20.053	-0.242	-0.193
-125.253	-200.000	-0.048	0.310
-124.239	-24.558	-0.443	-0.262
-123.224	343.341	-0.111	-0.217
-122.210	-200.000	-0.060	-0.283
-121.195	-200.000	0.001	-0.205
