DTS Sentinel unit serial number:	SN413079Multiplexer serial number:	ORYXHardware model number:	OX4-SRSoftware version number:	ORYX F/W v4.00 Oryx Data Collector v3.7.2.0data status	okinstallation	princeton_trtdifferential loss correction	single-endedforward channel	channel 2reverse channel	N/Adate	2019/09/17time	14:19:35forward acquisition time	60.00reverse acquisition time	0.00gamma	496.2192k internal	0.2314k external	0.2314temperature offset calibration	0.9986default loss term (dB/km)	0.3790temperature slope calibration	1.0000multiplexer offset coefficient	1.0000multiplexer slope coefficient	1.0000fibre end	0.00T internal ref (°C)	36.12T ext. ref 1 (°C)	0.41T ext. ref 2 (°C)	33.35length (m)	temperature (°C)	Stokes	anti-Stokes-747.200	-123.300	-0.187	0.030
-746.185	182.439	-0.096	0.144
-745.171	-82.319	0.268	0.088
-744.156	-33.958	-0.140	-0.078
-743.142	-73.557	0.198	0.073
-742.127	-200.000	0.012	0.410
-741.112	280.327	0.089	0.161
-740.098	55.617	-0.139	-0.136
-739.083	152.694	0.082	-0.114
-738.069	761.231	-0.035	0.096
-737.054	-109.901	-0.124	-0.026
-736.039	-200.000	0.029	0.224
-735.025	-54.832	-0.287	0.131
-734.010	140.076	-0.194	-0.259
-732.996	95.904	-0.285	0.329
-731.981	385.282	0.096	-0.201
-730.966	26.293	0.134	0.114
-729.952	-9.095	-0.327	-0.222
-728.937	-200.000	0.028	-0.197
-727.923	-91.851	0.082	-0.023
-726.908	20.516	-0.199	-0.163
-725.894	293.459	-0.068	-0.126
-724.879	-138.736	-0.338	0.037
-723.864	54.258	0.073	0.071
-722.850	-200.000	-0.017	-0.303
-721.835	-105.941	-0.165	-0.038
-720.821	-161.209	0.200	-0.011
-719.806	-92.443	-0.389	0.111
-718.791	-153.125	0.278	-0.020
-717.777	390.491	-0.109	-0.229
-716.762	131.901	-0.157	0.205
-715.748	-105.196	-0.171	0.040
-714.733	-200.000	0.004	-0.297
-713.718	-138.157	0.151	0.017
-712.704	-145.687	-0.430	-0.039
-711.689	-162.718	-0.272	0.013
-710.675	-116.984	-0.414	-0.077
-709.660	-109.349	-0.354	-0.076
-708.645	-137.332	-0.380	-0.044
-707.631	39.976	-0.206	0.187
-706.616	-27.243	0.090	-0.053
-705.602	-5.911	-0.244	0.169
-704.587	-86.307	-0.165	-0.051
-703.572	-161.886	-0.304	0.016
-702.558	-134.658	0.118	-0.015
-701.543	113.065	-0.043	-0.053
-700.529	48.188	0.030	-0.028
-699.514	800.000	0.078	-0.258
-698.499	-20.166	-0.044	-0.027
-697.485	170.884	-0.184	-0.267
-696.470	664.143	-0.035	-0.091
-695.456	-116.933	-0.215	-0.040
-694.441	-102.852	0.261	-0.063
-693.426	-54.647	-0.217	-0.099
-692.412	-200.000	-0.014	0.139
-691.397	800.000	-0.053	-0.195
-690.383	-200.000	-0.030	0.326
-689.368	-113.101	0.223	0.045
-688.354	114.933	0.201	0.248
-687.339	5.654	0.136	-0.102
-686.324	579.101	-0.146	0.362
-685.310	-61.594	0.085	-0.036
-684.295	-40.665	-0.142	0.075
-683.281	168.597	-0.073	0.105
-682.266	-200.000	-0.036	-0.251
-681.251	-130.773	0.121	-0.016
-680.237	-112.027	-0.060	-0.012
-679.222	-200.000	-0.038	-0.183
-678.208	800.000	0.083	0.298
-677.193	255.615	-0.142	0.247
-676.178	-200.000	0.023	-0.108
-675.164	800.000	-0.025	-0.094
-674.149	-101.846	0.203	0.050
-673.135	-158.870	-0.350	0.020
-672.120	-175.653	0.196	-0.005
-671.105	-113.699	0.261	0.052
-670.091	534.777	-0.045	0.108
-669.076	-141.433	-0.196	0.020
-668.062	-200.000	-0.037	-0.220
-667.047	-200.000	-0.024	0.311
-666.032	93.062	0.015	0.017
-665.018	-32.461	-0.065	0.037
-664.003	-200.000	0.014	-0.252
-662.989	-200.000	-0.051	-0.243
-661.974	-72.244	-0.181	0.068
-660.959	122.453	0.279	-0.352
-659.945	-22.388	-0.217	0.133
-658.930	42.989	0.191	-0.176
-657.916	-154.032	0.130	-0.009
-656.901	567.068	0.061	-0.150
-655.886	35.256	-0.184	0.163
-654.872	-15.419	0.296	-0.191
-653.857	-82.227	-0.182	-0.060
-652.843	519.832	-0.078	0.185
-651.828	213.583	0.141	-0.225
-650.814	-189.021	0.390	0.005
-649.799	141.627	0.066	0.088
-648.784	-200.000	-0.227	0.000
-647.770	-75.955	-0.115	0.041
-646.755	-80.265	0.125	-0.042
-645.741	-83.195	-0.278	-0.090
-644.726	-95.139	0.241	-0.066
-643.711	74.288	0.067	-0.071
-642.697	-72.082	0.371	0.139
-641.682	-47.242	-0.290	0.143
-640.668	800.000	0.086	0.341
-639.653	-20.621	-0.081	0.051
-638.638	174.563	0.152	-0.222
-637.624	-71.590	-0.304	0.115
-636.609	209.095	0.033	-0.053
-635.595	50.080	-0.194	-0.185
-634.580	-77.756	0.301	-0.105
-633.565	150.196	-0.139	0.190
-632.551	-183.529	0.272	0.005
-631.536	517.309	0.050	0.119
-630.522	-200.000	0.013	-0.326
-629.507	32.395	0.213	-0.186
-628.492	-200.000	0.048	-0.237
-627.478	-147.826	-0.329	0.028
-626.463	198.126	-0.049	0.076
-625.449	-181.611	-0.281	0.006
-624.434	474.055	-0.130	-0.295
-623.419	-145.858	0.046	0.004
-622.405	-20.196	0.116	0.072
-621.390	-115.524	-0.133	-0.025
-620.376	-120.000	-0.156	-0.027
-619.361	-187.818	-0.293	-0.004
-618.346	-65.209	-0.247	-0.100
-617.332	-87.001	0.216	-0.066
-616.317	-68.824	0.361	0.141
-615.303	-54.148	-0.306	0.140
-614.288	-200.000	-0.016	-0.136
-613.273	-200.000	0.001	-0.123
-612.259	-200.000	0.001	-0.069
-611.244	-200.000	-0.029	-0.208
-610.230	126.954	-0.169	-0.216
-609.215	-64.271	0.167	0.069
-608.201	-51.795	0.256	-0.120
-607.186	-17.951	0.145	-0.091
-606.171	84.839	-0.068	0.075
-605.157	211.541	-0.118	0.188
-604.142	-200.000	0.022	-0.278
-603.128	-42.481	-0.284	-0.146
-602.113	-94.642	-0.158	-0.043
-601.098	306.470	0.085	-0.159
-600.084	2.288	-0.084	-0.062
-599.069	703.337	-0.057	0.152
-598.055	-61.575	-0.283	-0.120
-597.040	136.877	0.154	-0.203
-596.025	-35.184	-0.107	-0.059
-595.011	800.000	0.067	-0.272
-593.996	418.039	-0.191	0.412
-592.982	75.111	0.213	-0.226
-591.967	219.774	0.075	0.122
-590.952	136.360	0.044	0.058
-589.938	-14.803	0.029	-0.019
-588.923	-200.000	0.049	0.280
-587.909	191.810	-0.163	-0.247
-586.894	-11.559	-0.207	0.137
-585.879	-200.000	0.008	0.224
-584.865	-112.624	-0.219	0.044
-583.850	-200.000	0.040	0.272
-582.836	-89.369	0.232	0.069
-581.821	800.000	-0.027	0.084
-580.806	-200.000	0.009	0.117
-579.792	-54.684	-0.376	-0.171
-578.777	11.258	-0.233	0.179
-577.763	705.621	-0.046	0.123
-576.748	-200.000	0.024	0.338
-575.733	653.700	0.080	-0.207
-574.719	-200.000	-0.005	-0.057
-573.704	345.903	-0.103	-0.203
-572.690	51.694	-0.146	0.140
-571.675	2.246	-0.153	-0.112
-570.661	-126.204	-0.238	0.036
-569.646	-63.975	0.193	0.080
-568.631	1.842	-0.371	0.270
-567.617	114.170	-0.070	-0.086
-566.602	-121.745	0.213	-0.036
-565.588	-138.696	-0.252	0.028
-564.573	800.000	-0.023	-0.072
-563.558	-143.583	0.101	0.010
-562.544	94.402	0.243	0.277
-561.529	-200.000	-0.000	0.133
-560.515	30.335	-0.042	0.036
-559.500	-200.000	-0.007	0.150
-558.485	800.000	-0.122	0.413
-557.471	-200.000	0.018	0.448
-556.456	154.692	-0.065	-0.089
-555.442	289.175	0.081	-0.148
-554.427	-59.891	-0.118	0.051
-553.412	-200.000	-0.031	-0.356
-552.398	800.000	0.114	-0.374
-551.383	722.905	0.131	-0.351
-550.369	144.427	0.073	-0.098
-549.354	-75.549	0.171	0.061
-548.339	10.464	0.108	-0.083
-547.325	-149.434	0.101	-0.008
-546.310	800.000	-0.055	0.161
-545.296	800.000	-0.022	-0.083
-544.281	-200.000	-0.040	0.319
-543.266	154.580	0.137	-0.189
-542.252	-10.828	0.194	0.129
-541.237	72.844	0.133	-0.140
-540.223	-200.000	-0.047	-0.218
-539.208	800.000	0.088	-0.314
-538.193	800.000	-0.065	-0.224
-537.179	-7.752	-0.126	-0.086
-536.164	-184.038	-0.123	-0.002
-535.150	-200.000	-0.073	-0.415
-534.135	-98.482	0.526	-0.135
-533.121	251.632	-0.171	0.293
-532.106	62.410	-0.166	0.167
-531.091	435.544	-0.048	-0.106
-530.077	-200.000	0.023	-0.248
-529.062	-155.140	0.142	0.009
-528.048	-71.307	0.384	-0.145
-527.033	275.229	0.003	0.005
-526.018	800.000	-0.052	0.152
-525.004	-200.000	0.005	-0.132
-523.989	-157.081	0.408	0.025
-522.975	-200.000	-0.033	0.360
-521.960	336.394	0.075	-0.145
-520.945	800.000	0.094	-0.326
-519.931	100.683	-0.055	-0.065
-518.916	800.000	0.044	0.183
-517.902	291.389	0.039	-0.072
-516.887	800.000	-0.069	0.210
-515.872	-90.491	-0.222	0.064
-514.858	-126.475	0.203	0.030
-513.843	18.814	0.242	-0.194
-512.829	-32.219	-0.114	-0.064
-511.814	-200.000	0.017	-0.077
-510.799	800.000	-0.053	0.213
-509.785	800.000	-0.070	0.224
-508.770	-108.404	-0.272	0.059
-507.756	188.560	-0.111	0.167
-506.741	6.908	-0.148	-0.110
-505.726	9.088	-0.222	-0.169
-504.712	7.731	-0.207	0.156
-503.697	-7.414	-0.074	-0.051
-502.683	-134.344	-0.178	0.022
-501.668	96.952	-0.237	-0.273
-500.653	-200.000	-0.009	0.347
-499.639	-200.000	0.017	-0.148
-498.624	49.716	0.161	0.152
-497.610	261.967	-0.034	-0.059
-496.595	-45.597	-0.169	-0.084
-495.581	-15.773	0.140	-0.089
-494.566	60.468	0.149	-0.148
-493.551	-200.000	-0.013	0.243
-492.537	-44.278	0.030	-0.015
-491.522	-88.326	0.316	-0.095
-490.508	74.736	0.055	0.058
-489.493	-200.000	0.007	0.116
-488.478	-164.689	0.309	-0.014
-487.464	-200.000	-0.012	-0.054
-486.449	90.213	0.084	0.094
-485.435	-85.332	0.440	0.138
-484.420	-200.000	0.056	0.339
-483.405	123.690	0.113	0.142
-482.391	-58.370	0.019	0.008
-481.376	-200.000	-0.024	-0.269
-480.362	18.056	0.102	0.082
-479.347	-9.630	-0.116	-0.078
-478.332	-200.000	0.033	0.238
-477.318	300.865	0.175	0.325
-476.303	4.444	0.353	0.260
-475.289	800.000	0.033	0.113
-474.274	22.159	-0.097	0.079
-473.259	-200.000	0.003	-0.127
-472.245	7.477	-0.215	0.161
-471.230	-86.944	0.088	0.027
-470.216	-64.644	-0.240	0.097
-469.201	211.217	0.067	-0.105
-468.186	-180.197	0.175	0.004
-467.172	-200.000	-0.006	0.230
-466.157	556.341	0.025	-0.061
-465.143	-131.853	-0.159	-0.021
-464.128	174.328	-0.144	0.209
-463.113	-63.384	0.103	0.043
-462.099	57.314	-0.119	-0.116
-461.084	-10.926	-0.265	-0.176
-460.070	262.033	-0.265	0.461
-459.055	-172.475	0.299	0.010
-458.040	156.969	-0.156	-0.216
-457.026	106.719	-0.011	0.013
-456.011	-170.552	-0.252	-0.009
-454.997	87.540	0.138	0.154
-453.982	-4.010	-0.451	0.314
-452.968	-124.843	-0.113	-0.018
-451.953	27.836	0.163	-0.138
-450.938	397.442	-0.064	-0.135
-449.924	-200.000	0.169	0.000
-448.909	-60.782	-0.321	0.136
-447.895	-112.495	-0.271	-0.054
-446.880	64.510	0.196	0.198
-445.865	-91.159	0.206	-0.059
-444.851	-65.474	-0.185	-0.074
-443.836	-117.442	-0.078	0.014
-442.822	-200.000	0.038	0.358
-441.807	-88.893	-0.219	0.065
-440.792	7.533	0.263	-0.197
-439.778	-200.000	0.031	0.243
-438.763	800.000	-0.111	-0.343
-437.749	-58.004	-0.116	0.051
-436.734	800.000	-0.158	0.469
-435.719	19.296	-0.091	-0.073
-434.705	-13.126	-0.186	-0.121
-433.690	-58.262	-0.205	0.089
-432.676	-85.919	0.163	0.050
-431.661	299.391	0.125	-0.231
-430.646	-151.955	-0.417	0.030
-429.632	800.000	0.040	-0.146
-428.617	115.367	0.073	0.090
-427.603	123.676	-0.143	-0.180
-426.588	-96.225	0.020	0.005
-425.573	800.000	0.078	-0.244
-424.559	-163.552	-0.191	0.009
-423.544	-54.297	0.248	-0.113
-422.530	-142.598	-0.053	0.005
-421.515	290.418	-0.077	-0.140
-420.500	-116.603	-0.210	0.039
-419.486	-23.901	-0.078	-0.047
-418.471	-62.635	0.301	-0.125
-417.457	-113.621	0.195	-0.038
-416.442	-13.602	-0.245	-0.159
-415.428	-152.752	0.182	-0.013
-414.413	11.187	-0.103	-0.079
-413.398	-91.172	0.309	0.089
-412.384	-200.000	-0.050	-0.234
-411.369	90.168	-0.065	-0.073
-410.355	-144.474	-0.112	0.010
-409.340	800.000	0.147	0.435
-408.325	-200.000	-0.004	-0.226
-407.311	217.224	0.243	0.387
-406.296	-167.034	-0.153	0.006
-405.282	-39.685	-0.294	0.154
-404.267	-109.747	-0.170	-0.036
-403.252	348.272	-0.077	0.152
-402.238	527.949	0.051	-0.121
-401.223	-47.105	0.141	-0.069
-400.209	-106.741	0.244	0.054
-399.194	-14.333	-0.384	-0.247
-398.179	800.000	-0.126	0.374
-397.165	439.237	-0.249	0.543
-396.150	31.046	-0.037	-0.032
-395.136	5.698	0.174	0.129
-394.121	-183.875	0.071	0.001
-393.106	20.346	-0.067	0.055
-392.092	107.576	-0.258	0.307
-391.077	-134.938	-0.289	-0.035
-390.063	504.645	-0.074	-0.172
-389.048	-77.073	0.181	0.063
-388.033	650.990	-0.128	-0.329
-387.019	391.057	0.175	0.363
-386.004	-30.841	-0.202	-0.114
-384.990	-80.915	0.421	0.140
-383.975	-124.037	0.035	0.006
-382.960	-114.305	-0.141	0.027
-381.946	96.413	0.240	-0.274
-380.931	208.587	0.202	0.315
-379.917	289.293	0.111	0.200
-378.902	-83.813	-0.345	-0.110
-377.888	144.329	0.118	-0.158
-376.873	-200.000	0.001	-0.122
-375.858	12.122	-0.179	-0.138
-374.844	-165.773	0.158	0.007
-373.829	28.792	-0.222	-0.188
-372.815	141.967	0.199	-0.263
-371.800	284.025	-0.149	-0.268
-370.785	48.363	0.203	0.190
-369.771	-149.726	-0.321	-0.025
-368.756	-200.000	0.013	0.098
-367.742	-200.000	-0.028	0.139
-366.727	-188.613	0.158	-0.002
-365.712	-200.000	-0.018	-0.464
-364.698	-16.573	-0.244	0.154
-363.683	690.617	0.114	0.298
-362.669	-97.886	0.334	-0.086
-361.654	178.226	-0.092	-0.134
-360.639	800.000	0.073	0.215
-359.625	24.035	0.154	-0.127
-358.610	187.094	-0.233	-0.346
-357.596	415.795	-0.096	-0.204
-356.581	-200.000	0.038	0.271
-355.566	-14.619	0.257	0.165
-354.552	188.099	0.050	0.075
-353.537	3.718	0.260	0.190
-352.523	193.352	-0.162	-0.244
-351.508	-87.716	0.311	-0.094
-350.493	126.260	0.056	-0.071
-349.479	-70.664	0.296	0.112
-348.464	800.000	0.146	0.428
-347.450	243.463	0.245	-0.409
-346.435	448.668	0.085	-0.187
-345.420	-42.801	0.093	-0.047
-344.406	-23.394	-0.114	0.068
-343.391	-163.212	0.161	0.008
-342.377	-200.000	0.025	-0.394
-341.362	-168.213	-0.231	0.009
-340.348	49.023	0.075	-0.071
-339.333	-56.946	0.068	-0.030
-338.318	56.949	-0.064	-0.062
-337.304	59.720	0.133	0.131
-336.289	10.509	-0.113	0.086
-335.275	97.220	0.158	0.181
-334.260	41.855	-0.254	-0.230
-333.245	-98.182	0.191	-0.049
-332.231	-200.000	-0.031	-0.161
-331.216	-24.124	0.121	-0.072
-330.202	-90.051	-0.145	0.042
-329.187	-200.000	-0.059	-0.272
-328.172	292.214	0.117	-0.213
-327.158	-144.825	-0.180	-0.016
-326.143	-128.983	-0.128	-0.018
-325.129	166.526	0.184	0.260
-324.114	135.987	-0.020	0.026
-323.099	234.695	0.095	-0.156
-322.085	-6.362	0.092	-0.063
-321.070	-200.000	0.036	0.211
-320.056	-200.000	-0.044	0.234
-319.041	800.000	0.030	-0.092
-318.026	-200.000	0.026	0.254
-317.012	-175.147	0.258	-0.007
-315.997	-84.422	-0.195	-0.061
-314.983	53.625	0.109	0.104
-313.968	498.508	-0.080	-0.184
-312.953	45.620	0.144	-0.133
-311.939	-1.865	0.039	0.028
-310.924	-31.494	0.120	-0.067
-309.910	-8.296	-0.101	-0.067
-308.895	-75.132	-0.146	0.052
-307.880	-125.971	0.245	-0.037
-306.866	-200.000	0.024	-0.143
-305.851	267.771	0.093	-0.162
-304.837	77.062	0.069	0.073
-303.822	-92.825	-0.108	-0.030
-302.807	800.000	0.017	0.049
-301.793	-106.579	0.335	0.074
-300.778	791.224	0.138	0.378
-299.764	-0.856	-0.215	0.152
-298.749	182.331	0.257	0.377
-297.735	388.718	-0.108	0.223
-296.720	-200.000	0.027	0.362
-295.705	-131.617	0.275	-0.036
-294.691	159.563	-0.043	0.059
-293.676	-200.000	-0.010	-0.250
-292.662	91.993	0.063	0.070
-291.647	-136.056	-0.120	-0.014
-290.632	-172.315	-0.215	-0.007
-289.618	-200.000	-0.005	-0.557
-288.603	-200.000	0.007	0.086
-287.589	-200.000	-0.069	0.320
-286.574	161.708	0.013	0.019
-285.559	-97.150	-0.375	-0.098
-284.545	-40.096	0.244	0.127
-283.530	64.227	0.112	0.113
-282.516	800.000	-0.078	0.293
-281.501	86.897	-0.229	0.252
-280.486	44.970	0.130	-0.119
-279.472	726.510	-0.089	-0.236
-278.457	-57.240	0.111	0.049
-277.443	-76.393	0.075	0.026
-276.428	671.862	0.027	-0.070
-275.413	141.052	0.084	-0.110
-274.399	34.288	0.172	0.150
-273.384	8.793	-0.123	0.092
-272.370	222.038	0.117	0.187
-271.355	72.180	-0.064	0.067
-270.340	-200.000	-0.003	0.074
-269.326	266.590	0.113	-0.197
-268.311	-81.096	0.103	0.034
-267.297	-92.649	0.212	-0.059
-266.282	32.753	-0.214	-0.185
-265.267	-200.000	0.071	-0.366
-264.253	-200.000	-0.012	-0.080
-263.238	-128.105	-0.213	-0.030
-262.224	260.713	-0.232	-0.399
-261.209	-200.000	0.028	-0.325
-260.195	-14.855	0.138	-0.088
-259.180	234.332	-0.164	-0.270
-258.165	75.190	-0.142	0.149
-257.151	-163.387	0.104	-0.005
-256.136	61.444	-0.169	0.167
-255.122	23.867	-0.311	-0.255
-254.107	442.969	0.057	-0.124
-253.092	-200.000	0.017	0.115
-252.078	-49.312	0.250	-0.119
-251.063	-56.966	-0.207	-0.091
-250.049	800.000	-0.039	0.167
-249.034	800.000	-0.027	-0.079
-248.019	-200.000	-0.019	-0.436
-247.005	800.000	0.023	-0.076
-245.990	-75.215	0.171	0.061
-244.976	252.121	0.050	0.085
-243.961	508.637	-0.027	0.063
-242.946	-145.986	0.110	0.010
-241.932	-18.623	-0.169	-0.105
-240.917	-124.541	-0.173	0.027
-239.903	-149.917	-0.138	0.011
-238.888	-96.969	0.396	0.103
-237.873	237.810	0.024	-0.040
-236.859	-14.954	0.060	0.038
-235.844	204.027	0.112	-0.173
-234.830	519.044	-0.078	0.181
-233.815	-2.961	0.155	-0.107
-232.800	-200.000	0.043	0.383
-231.786	-119.579	0.106	-0.018
-230.771	-200.000	-0.014	0.408
-229.757	-66.021	0.095	-0.038
-228.742	64.421	-0.147	-0.147
-227.727	135.406	0.301	0.389
-226.713	-200.000	0.029	0.176
-225.698	355.412	0.035	-0.069
-224.684	-200.000	0.055	-0.329
-223.669	-88.008	-0.277	0.083
-222.655	-200.000	0.012	0.315
-221.640	140.074	-0.051	0.067
-220.625	534.449	0.099	0.234
-219.611	-82.567	-0.234	0.075
-218.596	98.330	0.198	0.227
-217.582	159.768	0.241	0.334
-216.567	79.749	0.078	0.083
-215.552	321.357	-0.157	0.297
-214.538	-200.000	-0.014	0.223
-213.523	75.084	-0.104	-0.109
-212.509	273.947	-0.150	0.263
-211.494	800.000	-0.010	0.027
-210.479	-200.000	0.029	0.189
-209.465	-166.732	0.192	-0.008
-208.450	800.000	-0.066	-0.207
-207.436	714.194	0.032	0.084
-206.421	168.451	-0.266	0.376
-205.406	-200.000	-0.001	-0.049
-204.392	-110.697	0.221	-0.045
-203.377	-200.000	-0.007	0.081
-202.363	18.240	0.059	-0.046
-201.348	-200.000	0.009	-0.273
-200.333	-59.503	0.448	-0.191
-199.319	-63.617	0.203	0.083
-198.304	34.644	0.193	-0.167
-197.290	-58.973	-0.048	0.021
-196.275	-17.581	0.231	-0.144
-195.260	350.996	-0.170	-0.334
-194.246	-200.000	0.015	-0.104
-193.231	-200.000	-0.027	-0.171
-192.217	-115.671	-0.064	0.012
-191.202	800.000	0.035	0.121
-190.187	800.000	-0.132	-0.434
-189.173	-69.103	-0.163	0.062
-188.158	155.155	-0.273	-0.373
-187.144	800.000	-0.027	0.101
-186.129	-200.000	-0.026	-0.141
-185.114	-111.230	0.322	-0.065
-184.100	-129.716	-0.148	0.020
-183.085	-200.000	-0.004	0.258
-182.071	-200.000	0.006	0.225
-181.056	-73.383	-0.295	0.107
-180.042	-119.929	0.512	0.087
-179.027	-52.760	-0.161	-0.074
-178.012	-200.000	-0.027	-0.168
-176.998	43.052	0.199	0.180
-175.983	-59.269	0.066	-0.028
-174.969	272.756	0.255	-0.447
-173.954	-200.000	0.033	-0.282
-172.939	-200.000	0.012	-0.117
-171.925	215.666	0.077	-0.122
-170.910	-51.849	-0.143	-0.066
-169.896	-72.109	-0.210	0.077
-168.881	-140.973	0.280	0.029
-167.866	35.282	0.138	-0.120
-166.852	-200.000	-0.015	0.210
-165.837	35.707	0.202	0.176
-164.823	10.110	-0.473	-0.356
-163.808	800.000	0.040	-0.115
-162.793	31.940	0.278	-0.238
-161.779	680.080	0.012	-0.032
-160.764	32.609	-0.302	0.259
-159.750	-30.289	-0.417	-0.234
-158.735	87.827	0.102	-0.112
-157.720	-176.040	0.215	0.006
-156.706	-47.890	-0.162	0.078
-155.691	56.611	0.249	0.240
-154.677	-16.276	-0.060	-0.038
-153.662	289.239	-0.041	0.074
-152.647	218.576	-0.050	-0.080
-151.633	-87.981	-0.260	0.078
-150.618	-30.558	-0.092	-0.051
-149.604	-83.861	0.130	-0.041
-148.589	-6.022	-0.164	-0.111
-147.574	800.000	-0.030	-0.095
-146.560	-38.593	-0.174	-0.091
-145.545	-200.000	-0.001	0.158
-144.531	19.878	-0.168	0.134
-143.516	-108.107	0.064	-0.014
-142.502	-78.585	0.170	0.058
-141.487	33.074	-0.226	0.194
-140.472	-200.000	0.059	0.437
-139.458	-185.499	0.189	-0.003
-138.443	-200.000	0.000	0.159
-137.429	136.717	0.122	0.157
-136.414	-124.132	-0.109	0.017
-135.399	2.869	0.274	0.197
-134.385	-35.328	0.167	0.090
-133.370	-113.758	0.303	0.058
-132.356	125.940	0.133	0.166
-131.341	-200.000	0.031	-0.154
-130.326	-57.358	-0.205	-0.089
-129.312	-200.000	-0.062	0.307
-128.297	59.664	-0.242	-0.237
-127.283	-81.634	0.158	0.051
-126.268	-75.916	-0.194	0.068
-125.253	34.702	0.169	0.146
-124.239	-66.912	-0.438	0.171
-123.224	-126.190	-0.116	0.017
-122.210	249.915	0.101	-0.170
