DTS Sentinel unit serial number:	SN413079Multiplexer serial number:	ORYXHardware model number:	OX4-SRSoftware version number:	ORYX F/W v4.00 Oryx Data Collector v3.7.2.0data status	okinstallation	princeton_trtdifferential loss correction	single-endedforward channel	channel 2reverse channel	N/Adate	2019/09/10time	21:45:10forward acquisition time	60.00reverse acquisition time	0.00gamma	496.2192k internal	0.2330k external	0.2330temperature offset calibration	0.9948default loss term (dB/km)	0.3790temperature slope calibration	1.0000multiplexer offset coefficient	1.0000multiplexer slope coefficient	1.0000fibre end	0.00T internal ref (°C)	30.91T ext. ref 1 (°C)	-0.30T ext. ref 2 (°C)	24.26length (m)	temperature (°C)	Stokes	anti-Stokes-747.200	618.821	0.057	-0.144
-746.185	-142.272	-0.112	0.011
-745.171	-200.000	0.006	0.087
-744.156	-72.470	0.358	0.133
-743.142	800.000	0.045	0.137
-742.127	-172.324	0.300	0.010
-741.112	-60.704	-0.081	-0.035
-740.098	74.798	-0.223	0.237
-739.083	35.937	0.218	0.193
-738.069	-84.195	0.393	0.125
-737.054	-200.000	0.051	-0.424
-736.039	-168.574	-0.139	-0.005
-735.025	800.000	-0.048	0.167
-734.010	233.110	-0.115	-0.191
-732.996	248.441	-0.116	-0.198
-731.981	-200.000	0.076	-0.412
-730.966	657.253	-0.107	-0.276
-729.952	46.173	-0.236	-0.220
-728.937	538.095	-0.109	-0.261
-727.923	518.399	0.162	0.383
-726.908	72.118	-0.222	0.233
-725.894	35.239	-0.089	-0.079
-724.879	153.865	0.005	-0.007
-723.864	37.305	0.220	-0.196
-722.850	-4.760	-0.108	-0.075
-721.835	-200.000	-0.008	-0.195
-720.821	-121.300	-0.062	-0.010
-719.806	-31.888	0.091	-0.051
-718.791	800.000	0.030	0.125
-717.777	-184.363	0.153	-0.003
-716.762	-6.127	0.293	0.201
-715.748	-125.847	-0.429	-0.065
-714.733	-32.670	0.085	-0.048
-713.718	458.403	0.160	-0.357
-712.704	-48.893	-0.156	0.075
-711.689	-67.614	0.093	0.037
-710.675	-200.000	-0.003	-0.149
-709.660	-109.103	-0.287	-0.061
-708.645	-178.553	0.261	-0.006
-707.631	-189.634	0.359	-0.004
-706.616	-92.875	0.262	0.074
-705.602	-93.839	0.411	-0.114
-704.587	-62.903	-0.329	-0.137
-703.572	-42.744	-0.133	-0.068
-702.558	155.319	0.124	-0.172
-701.543	-47.815	0.047	0.023
-700.529	45.023	-0.062	0.057
-699.514	-200.000	0.082	-0.382
-698.499	-129.908	0.094	-0.013
-697.485	35.263	0.269	-0.237
-696.470	12.193	-0.097	0.075
-695.456	800.000	0.052	-0.171
-694.441	-135.515	0.051	-0.006
-693.426	-118.804	-0.393	-0.069
-692.412	-49.024	0.290	0.139
-691.397	-67.298	-0.087	0.034
-690.383	-200.000	-0.004	-0.029
-689.368	363.838	-0.017	-0.035
-688.354	88.930	-0.198	-0.222
-687.339	-200.000	-0.027	-0.353
-686.324	477.235	-0.095	0.217
-685.310	-200.000	0.009	0.109
-684.295	36.282	0.085	0.076
-683.281	44.748	-0.320	0.296
-682.266	127.185	-0.144	-0.184
-681.251	-21.644	-0.118	-0.072
-680.237	-22.033	0.149	-0.091
-679.222	67.483	0.273	-0.280
-678.208	-134.573	0.151	0.019
-677.193	800.000	0.072	-0.253
-676.178	-200.000	-0.066	-0.401
-675.164	24.456	-0.444	-0.369
-674.149	800.000	0.078	-0.242
-673.135	311.489	0.146	-0.275
-672.120	-78.488	-0.087	-0.030
-671.105	-200.000	-0.016	0.110
-670.091	-10.221	-0.064	-0.043
-669.076	-200.000	0.011	-0.096
-668.062	-107.490	-0.272	0.060
-667.047	-147.289	-0.344	0.029
-666.032	-200.000	0.011	0.439
-665.018	-200.000	0.019	-0.124
-664.003	-26.930	-0.309	-0.181
-662.989	22.658	0.172	-0.142
-661.974	175.278	-0.134	0.195
-660.959	-10.269	-0.115	-0.077
-659.945	-200.000	0.043	-0.225
-658.930	258.700	-0.012	-0.022
-657.916	93.114	0.044	-0.050
-656.901	-166.920	-0.270	0.011
-655.886	111.904	-0.203	-0.246
-654.872	574.632	0.114	0.280
-653.857	800.000	0.085	0.277
-652.843	620.173	0.063	-0.159
-651.828	54.531	0.204	-0.197
-650.814	-111.818	-0.055	-0.011
-649.799	-61.883	-0.086	-0.036
-648.784	-128.138	-0.205	-0.029
-647.770	364.994	-0.115	0.232
-646.755	3.679	0.207	-0.152
-645.741	-200.000	0.012	0.123
-644.726	800.000	-0.065	-0.277
-643.711	800.000	0.057	0.185
-642.697	-186.271	-0.204	0.003
-641.682	368.695	0.170	-0.344
-640.668	520.116	-0.081	0.191
-639.653	68.637	-0.073	0.076
-638.638	-200.000	-0.010	0.245
-637.624	566.429	0.118	-0.286
-636.609	800.000	-0.057	-0.242
-635.595	-200.000	-0.011	-0.092
-634.580	57.322	0.127	-0.124
-633.565	800.000	-0.062	-0.197
-632.551	-59.095	0.195	0.084
-631.536	-200.000	0.015	0.109
-630.522	-41.472	0.130	0.067
-629.507	15.827	-0.092	0.072
-628.492	206.187	-0.129	-0.202
-627.478	800.000	0.039	-0.121
-626.463	137.328	-0.115	0.151
-625.449	558.479	0.069	-0.167
-624.434	800.000	0.051	0.192
-623.419	-200.000	-0.019	0.086
-622.405	22.785	0.057	0.046
-621.390	-61.451	-0.159	0.067
-620.376	50.579	0.126	0.120
-619.361	-16.397	0.105	-0.067
-618.346	-200.000	0.009	-0.250
-617.332	-46.607	-0.273	0.134
-616.317	96.167	0.238	-0.273
-615.303	-13.198	0.533	0.347
-614.288	-200.000	-0.032	0.371
-613.273	38.144	0.144	-0.128
-612.259	-160.548	-0.474	0.025
-611.244	-42.452	0.228	0.116
-610.230	61.370	-0.208	0.207
-609.215	105.168	0.147	-0.174
-608.201	-200.000	-0.091	-0.469
-607.186	-68.103	0.372	0.145
-606.171	633.489	0.119	-0.302
-605.157	800.000	-0.035	0.152
-604.142	800.000	-0.080	0.227
-603.128	12.941	-0.132	0.102
-602.113	800.000	-0.078	-0.304
-601.098	60.369	0.148	0.147
-600.084	800.000	-0.110	-0.324
-599.069	800.000	-0.077	0.322
-598.055	-146.694	-0.190	0.016
-597.040	-200.000	-0.009	0.107
-596.025	25.374	0.227	0.189
-595.011	147.271	-0.223	-0.300
-593.996	269.773	-0.023	-0.040
-592.982	25.701	0.183	0.152
-591.967	-19.666	0.160	0.099
-590.952	458.860	-0.085	0.189
-589.938	630.732	-0.047	0.118
-588.923	-200.000	-0.062	0.283
-587.909	68.758	0.075	-0.077
-586.894	-136.415	0.238	0.028
-585.879	-96.963	0.193	-0.051
-584.865	-74.138	-0.351	-0.127
-583.850	180.386	0.192	-0.282
-582.836	-31.386	0.215	0.121
-581.821	24.372	-0.221	0.183
-580.806	-0.375	-0.224	0.159
-579.792	-25.502	-0.201	-0.119
-578.777	64.387	0.164	-0.166
-577.763	-95.538	0.045	-0.012
-576.748	-143.793	-0.253	0.024
-575.733	-200.000	-0.005	0.295
-574.719	55.443	-0.256	-0.248
-573.704	-44.124	0.068	-0.034
-572.690	142.407	-0.200	0.265
-571.675	662.497	-0.094	0.242
-570.661	-115.823	0.162	-0.030
-569.646	120.752	-0.185	-0.230
-568.631	-200.000	0.025	0.154
-567.617	-29.923	-0.086	-0.049
-566.602	-144.368	-0.053	0.005
-565.588	-200.000	-0.305	0.000
-564.573	133.510	-0.259	-0.335
-563.558	-200.000	-0.008	0.177
-562.544	-200.000	0.007	-0.270
-561.529	181.324	0.223	0.328
-560.515	-47.534	-0.189	0.092
-559.500	-70.983	-0.227	0.085
-558.485	308.186	-0.088	0.164
-557.471	30.653	0.144	0.123
-556.456	133.942	-0.107	0.138
-555.442	-16.910	0.273	0.172
-554.427	293.917	0.088	0.160
-553.412	-178.929	-0.217	-0.005
-552.398	-200.000	-0.039	-0.218
-551.383	-132.472	0.309	-0.040
-550.369	-122.675	-0.139	-0.023
-549.354	0.156	-0.296	0.211
-548.339	-52.081	0.356	0.165
-547.325	19.519	0.235	-0.189
-546.310	-200.000	0.064	-0.567
-545.296	-53.064	0.339	-0.156
-544.281	-200.000	0.018	-0.216
-543.266	-88.752	-0.043	-0.013
-542.252	-200.000	-0.050	-0.222
-541.237	-200.000	0.021	0.126
-540.223	-12.104	-0.159	-0.104
-539.208	48.399	0.143	0.133
-538.193	159.714	0.020	0.027
-537.179	24.442	-0.003	-0.003
-536.164	143.882	0.085	0.114
-535.150	-27.404	-0.087	0.051
-534.135	-116.675	-0.313	0.057
-533.121	150.141	-0.177	-0.240
-532.106	-200.000	-0.022	-0.284
-531.091	-71.318	-0.064	-0.024
-530.077	-92.599	-0.187	-0.052
-529.062	-85.897	-0.159	0.049
-528.048	-33.628	0.311	0.171
-527.033	469.515	0.084	-0.189
-526.018	-119.693	0.106	-0.018
-525.004	29.916	0.132	0.113
-523.989	800.000	-0.049	0.176
-522.975	800.000	0.049	-0.188
-521.960	-181.698	0.117	0.002
-520.945	-132.249	-0.186	-0.024
-519.931	-200.000	0.020	-0.165
-518.916	-137.814	-0.131	-0.015
-517.902	-82.192	0.065	0.021
-516.887	-200.000	-0.027	0.288
-515.872	-200.000	-0.033	-0.179
-514.858	-35.880	-0.161	-0.087
-513.843	-200.000	0.003	-0.045
-512.829	-16.468	-0.226	-0.143
-511.814	-200.000	-0.048	-0.302
-510.799	-200.000	-0.022	0.356
-509.785	-33.442	0.177	0.098
-508.770	25.449	0.180	0.149
-507.756	-39.953	0.296	0.154
-506.741	-200.000	0.030	0.166
-505.726	-200.000	-0.004	-0.020
-504.712	800.000	-0.025	-0.098
-503.697	-174.198	-0.275	-0.008
-502.683	-88.838	-0.321	0.095
-501.668	-3.319	0.095	0.066
-500.653	-107.975	0.053	0.011
-499.639	-200.000	-0.016	-0.149
-498.624	800.000	0.093	-0.346
-497.610	287.547	-0.178	-0.321
-496.595	-200.000	-0.013	-0.074
-495.581	-24.772	0.041	-0.024
-494.566	-160.378	0.459	0.025
-493.551	-123.257	-0.137	0.022
-492.537	-75.092	-0.140	0.050
-491.522	2.185	0.068	-0.049
-490.508	800.000	-0.038	-0.147
-489.493	-200.000	-0.013	-0.129
-488.478	32.410	0.287	-0.247
-487.464	-200.000	0.028	0.199
-486.449	800.000	-0.085	-0.292
-485.435	-37.754	-0.154	0.082
-484.420	-106.094	0.365	0.082
-483.405	-98.214	-0.174	-0.045
-482.391	32.489	0.019	0.017
-481.376	-151.165	-0.197	0.015
-480.362	108.356	-0.112	0.133
-479.347	743.840	-0.121	-0.324
-478.332	-200.000	-0.037	-0.180
-477.318	-200.000	-0.048	0.310
-476.303	326.707	0.133	0.254
-475.289	-128.373	0.231	0.033
-474.274	379.213	0.050	-0.103
-473.259	48.580	0.230	0.215
-472.245	632.582	0.081	-0.204
-471.230	15.750	0.172	-0.135
-470.216	197.284	-0.163	0.247
-469.201	80.372	0.162	0.173
-468.186	-168.459	0.237	-0.009
-467.172	-138.995	0.046	-0.005
-466.157	-200.000	-0.008	0.052
-465.143	-1.727	-0.426	-0.298
-464.128	65.320	-0.204	-0.206
-463.113	90.529	0.132	-0.148
-462.099	-42.326	-0.266	-0.135
-461.084	-21.642	0.359	-0.218
-460.070	-200.000	0.024	-0.165
-459.055	-168.964	-0.064	0.002
-458.040	-117.886	0.265	0.047
-457.026	1.693	-0.282	0.202
-456.011	286.897	0.100	-0.179
-454.997	-200.000	-0.230	0.001
-453.982	71.776	0.063	-0.065
-452.968	800.000	0.070	0.240
-451.953	435.863	-0.089	-0.192
-450.938	-72.215	0.104	0.038
-449.924	-200.000	0.033	-0.154
-448.909	661.147	0.012	0.032
-447.895	800.000	-0.079	-0.331
-446.880	-200.000	-0.032	0.235
-445.865	-22.585	0.121	-0.073
-444.851	-83.563	-0.400	0.127
-443.836	751.083	-0.111	0.298
-442.822	25.981	-0.184	0.153
-441.807	-200.000	0.024	-0.189
-440.792	-92.389	-0.297	-0.083
-439.778	-43.844	-0.203	-0.102
-438.763	132.075	0.072	0.093
-437.749	-51.099	-0.170	-0.079
-436.734	-51.911	-0.037	0.017
-435.719	-6.063	0.109	0.074
-434.705	-139.570	-0.209	-0.022
-433.690	204.100	0.031	0.048
-432.676	-80.328	-0.303	0.101
-431.661	-68.821	-0.064	0.025
-430.646	-78.887	-0.239	-0.081
-429.632	663.008	0.062	0.158
-428.617	-162.280	0.524	0.026
-427.603	744.942	-0.147	0.394
-426.588	-78.380	0.163	0.055
-425.573	-200.000	-0.025	-0.136
-424.559	549.986	0.075	0.178
-423.544	-200.000	0.006	-0.041
-422.530	-6.821	0.048	-0.033
-421.515	280.757	-0.084	0.149
-420.500	-9.389	-0.149	0.099
-419.486	-200.000	-0.488	-0.001
-418.471	282.894	-0.096	-0.172
-417.457	182.789	0.166	0.243
-416.442	175.682	-0.111	0.161
-415.428	124.952	0.123	0.154
-414.413	195.841	-0.105	-0.159
-413.398	800.000	0.017	-0.051
-412.384	-200.000	0.028	-0.171
-411.369	-100.708	-0.293	0.072
-410.355	800.000	0.074	-0.268
-409.340	73.129	0.098	-0.102
-408.325	-200.000	-0.014	0.233
-407.311	116.797	0.103	0.126
-406.296	-55.210	0.078	0.035
-405.282	313.290	0.085	-0.158
-404.267	-125.799	-0.155	-0.023
-403.252	-200.000	-0.013	-0.081
-402.238	-200.000	-0.012	0.171
-401.223	-191.672	0.166	-0.002
-400.209	-27.762	-0.054	-0.031
-399.194	26.464	-0.205	0.170
-398.179	44.086	0.164	-0.149
-397.165	800.000	-0.064	0.251
-396.150	61.649	-0.114	0.113
-395.136	-24.997	0.195	0.115
-394.121	-16.138	0.121	-0.076
-393.106	209.725	-0.157	0.244
-392.092	35.773	-0.127	0.111
-391.077	116.658	-0.144	0.175
-390.063	789.512	0.058	-0.157
-389.048	-200.000	0.015	-0.286
-388.033	800.000	-0.017	-0.070
-387.019	305.487	-0.125	0.230
-386.004	800.000	-0.045	-0.142
-384.990	115.434	-0.150	-0.182
-383.975	-48.711	-0.356	-0.170
-382.960	-92.426	-0.205	0.057
-381.946	-106.203	0.234	0.052
-380.931	79.862	0.062	0.066
-379.917	-117.640	-0.153	0.027
-378.902	-200.000	0.001	-0.152
-377.888	-149.229	0.460	-0.036
-376.873	-18.904	-0.188	-0.116
-375.858	-5.428	0.111	-0.076
-374.844	27.364	-0.043	0.036
-373.829	-15.314	-0.207	-0.132
-372.815	-37.036	0.243	0.129
-371.800	97.751	0.026	-0.030
-370.785	-36.967	0.383	-0.204
-369.771	150.982	0.170	-0.230
-368.756	-43.848	-0.095	-0.047
-367.742	527.669	0.036	-0.083
-366.727	50.712	-0.088	0.082
-365.712	-200.000	0.075	0.385
-364.698	-122.287	0.064	-0.010
-363.683	-38.834	-0.383	-0.200
-362.669	800.000	-0.056	-0.209
-361.654	157.608	0.065	-0.089
-360.639	303.536	0.162	-0.297
-359.625	-200.000	-0.088	0.395
-358.610	-200.000	-0.043	0.187
-357.596	-200.000	-0.023	-0.105
-356.581	-85.808	0.309	-0.095
-355.566	-200.000	0.076	0.421
-354.552	-46.667	0.111	-0.054
-353.537	-17.486	-0.162	-0.101
-352.523	-200.000	-0.121	0.651
-351.508	-53.491	-0.279	0.127
-350.493	35.060	-0.263	0.228
-349.479	800.000	-0.134	-0.371
-348.464	-67.154	0.257	-0.100
-347.450	-200.000	0.021	-0.488
-346.435	-139.421	-0.141	-0.015
-345.420	124.111	0.206	0.257
-344.406	8.782	-0.333	-0.249
-343.391	-122.452	-0.149	-0.024
-342.377	-15.204	-0.245	0.155
-341.362	134.449	-0.120	0.154
-340.348	-200.000	0.011	-0.207
-339.333	98.551	-0.109	0.125
-338.318	-121.365	-0.152	0.025
-337.304	44.423	0.187	-0.170
-336.289	116.013	0.111	0.135
-335.275	-152.314	-0.083	0.006
-334.260	737.518	-0.059	0.156
-333.245	182.226	-0.153	-0.223
-332.231	-196.099	0.194	-0.001
-331.216	-64.887	0.232	-0.093
-330.202	-96.589	0.270	-0.071
-329.187	151.412	0.220	-0.297
-328.172	118.770	-0.295	-0.361
-327.158	-155.564	-0.188	-0.012
-326.143	800.000	0.086	0.346
-325.129	111.733	0.130	0.156
-324.114	16.008	0.247	-0.193
-323.099	-72.372	0.081	-0.030
-322.085	43.962	-0.027	0.025
-321.070	-167.240	-0.192	-0.008
-320.056	-182.272	-0.265	0.005
-319.041	-116.076	-0.166	0.031
-318.026	-200.000	0.048	-0.281
-317.012	81.341	0.218	0.233
-315.997	-49.445	-0.380	0.179
-314.983	-200.000	-0.055	0.376
-313.968	-14.312	0.168	0.107
-312.953	-137.428	0.211	-0.024
-311.939	97.789	-0.145	-0.165
-310.924	-200.000	-0.001	-0.128
-309.910	-100.937	0.141	-0.034
-308.895	-200.000	-0.029	-0.170
-307.880	339.796	-0.138	-0.266
-306.866	-200.000	0.004	-0.045
-305.851	800.000	-0.021	-0.077
-304.837	313.413	-0.158	-0.294
-303.822	39.280	0.476	0.422
-302.807	-106.346	-0.248	0.055
-301.793	-100.411	0.241	-0.059
-300.778	96.782	0.090	-0.103
-299.764	-93.648	-0.104	-0.028
-298.749	190.870	-0.233	-0.346
-297.735	58.407	-0.283	-0.275
-296.720	-200.000	-0.020	-0.209
-295.705	-136.452	0.378	-0.043
-294.691	93.162	-0.119	-0.133
-293.676	-93.211	0.148	0.041
-292.662	-100.344	-0.013	-0.003
-291.647	-69.322	-0.135	-0.051
-290.632	-75.652	-0.350	0.123
-289.618	27.950	-0.228	-0.190
-288.603	127.857	0.072	-0.091
-287.589	2.547	0.128	-0.092
-286.574	12.821	-0.214	0.164
-285.559	-152.976	0.187	-0.013
-284.545	20.581	0.511	-0.409
-283.530	451.113	0.016	-0.035
-282.516	-200.000	-0.012	0.201
-281.501	-69.902	0.173	-0.065
-280.486	403.787	0.121	-0.251
-279.472	-200.000	0.004	-0.353
-278.457	248.651	0.195	0.327
-277.443	194.190	-0.160	0.240
-276.428	603.924	-0.063	-0.155
-275.413	-20.778	0.077	-0.047
-274.399	-73.178	-0.093	0.034
-273.384	-37.869	-0.332	0.175
-272.370	-200.000	0.011	0.184
-271.355	-87.180	-0.152	-0.046
-270.340	213.885	-0.123	0.193
-269.326	800.000	0.059	-0.217
-268.311	28.798	0.109	0.092
-267.297	118.280	-0.081	-0.099
-266.282	109.393	0.094	0.111
-265.267	797.136	-0.054	-0.147
-264.253	-1.904	0.295	-0.205
-263.238	-25.920	-0.188	0.109
-262.224	641.132	-0.060	-0.152
-261.209	800.000	0.071	0.305
-260.195	-0.845	0.298	0.209
-259.180	88.439	0.178	0.195
-258.165	9.431	-0.055	-0.041
-257.151	-4.742	-0.207	0.141
-256.136	800.000	-0.088	0.375
-255.122	173.290	0.239	0.340
-254.107	49.183	-0.066	-0.062
-253.092	670.567	0.058	-0.147
-252.078	641.522	0.166	0.419
-251.063	89.951	-0.111	-0.122
-250.049	136.442	-0.024	0.031
-249.034	-164.291	0.268	0.012
-248.019	-134.529	-0.306	0.037
-247.005	41.784	0.136	0.122
-245.990	800.000	-0.113	0.328
-244.976	-84.303	-0.188	-0.059
-243.961	-36.730	0.186	0.098
-242.946	436.804	0.067	-0.143
-241.932	-200.000	0.011	-0.337
-240.917	-62.631	0.124	0.051
-239.903	800.000	0.084	-0.259
-238.888	9.233	0.153	-0.114
-237.873	-3.887	0.124	-0.085
-236.859	173.479	-0.135	0.193
-235.844	238.855	-0.044	-0.072
-234.830	778.436	-0.012	-0.031
-233.815	-46.713	-0.210	-0.102
-232.800	-142.761	-0.259	0.025
-231.786	-181.719	0.397	-0.008
-230.771	690.717	-0.074	-0.190
-229.757	108.775	0.301	0.355
-228.742	110.256	0.141	0.168
-227.727	81.089	-0.189	0.201
-226.713	205.378	0.105	0.160
-225.698	-47.409	-0.219	-0.105
-224.684	-74.815	-0.097	0.034
-223.669	234.436	0.037	-0.060
-222.655	-129.859	-0.162	-0.022
-221.640	548.642	-0.206	-0.486
-220.625	800.000	-0.016	-0.050
-219.611	181.748	0.027	-0.040
-218.596	-25.622	-0.085	0.049
-217.582	-63.718	0.341	0.138
-216.567	-79.523	0.109	0.036
-215.552	800.000	-0.039	0.129
-214.538	-3.459	-0.171	0.117
-213.523	24.131	0.099	0.081
-212.509	-152.570	0.160	-0.011
-211.494	-200.000	0.021	-0.184
-210.479	-124.526	-0.309	0.047
-209.465	796.773	-0.044	0.120
-208.450	-98.518	-0.323	0.081
-207.436	-69.470	0.138	-0.052
-206.421	-179.340	-0.129	0.003
-205.406	800.000	0.154	0.502
-204.392	132.126	0.036	0.045
-203.377	792.688	0.097	-0.262
-202.363	-5.822	0.135	-0.091
-201.348	232.901	0.070	-0.114
-200.333	195.580	-0.081	0.122
-199.319	695.061	0.055	0.142
-198.304	-99.041	0.275	0.069
-197.290	-62.462	0.194	0.079
-196.275	82.092	-0.165	-0.177
-195.260	90.837	0.290	0.321
-194.246	-62.691	0.111	0.046
-193.231	-38.846	0.254	-0.132
-192.217	103.902	0.155	-0.179
-191.202	-73.070	-0.082	0.030
-190.187	-1.034	0.284	0.198
-189.173	223.108	-0.100	-0.159
-188.158	-160.737	-0.201	0.011
-187.144	-200.000	0.001	0.113
-186.129	-200.000	0.044	-0.299
-185.114	11.182	-0.234	-0.176
-184.100	-200.000	0.007	0.159
-183.085	13.734	-0.319	0.244
-182.071	-46.486	0.131	0.063
-181.056	-5.228	0.333	-0.226
-180.042	641.863	0.090	-0.226
-179.027	200.533	0.165	0.249
-178.012	-200.000	-0.017	0.170
-176.998	-3.363	0.186	-0.128
-175.983	11.667	0.128	-0.096
-174.969	-41.702	0.120	0.061
-173.954	-131.946	0.103	-0.013
-172.939	6.084	0.233	-0.170
-171.925	-200.000	0.043	-0.416
-170.910	13.483	-0.251	-0.192
-169.896	206.287	0.090	0.138
-168.881	-127.487	-0.168	0.024
-167.866	635.568	0.099	-0.246
-166.852	505.570	-0.123	0.281
-165.837	151.323	0.126	0.169
-164.823	-80.538	0.353	0.116
-163.808	5.271	0.024	0.017
-162.793	796.829	0.148	0.402
-161.779	299.572	0.232	0.420
-160.764	800.000	-0.057	-0.232
-159.750	95.523	0.192	0.216
-158.735	800.000	-0.037	0.145
-157.720	-98.612	0.064	-0.016
-156.706	-200.000	0.006	0.072
-155.691	-94.759	-0.131	-0.035
-154.677	196.332	0.124	-0.186
-153.662	-101.120	0.291	-0.070
-152.647	57.246	-0.044	0.042
-151.633	-200.000	0.056	0.468
-150.618	-84.670	0.223	0.069
-149.604	-103.843	0.274	-0.063
-148.589	-200.000	-0.007	-0.132
-147.574	-186.895	0.151	0.002
-146.560	33.508	-0.236	-0.201
-145.545	234.466	0.161	0.261
-144.531	60.141	-0.219	0.213
-143.516	-134.607	0.124	-0.015
-142.502	-200.000	0.051	0.257
-141.487	163.706	0.020	-0.028
-140.472	-200.000	0.075	0.354
-139.458	-6.544	-0.096	-0.064
-138.443	348.496	-0.091	-0.176
-137.429	-200.000	-0.005	0.065
-136.414	4.258	0.057	-0.041
-135.399	348.498	0.116	-0.224
-134.385	430.260	-0.122	0.260
-133.370	13.379	-0.314	-0.239
-132.356	-36.906	-0.358	-0.189
-131.341	-89.163	0.343	0.100
-130.326	140.815	0.217	0.281
-129.312	45.997	0.143	-0.130
-128.297	304.942	-0.082	0.150
-127.283	590.660	-0.051	0.123
-126.268	125.250	-0.203	0.252
-125.253	154.086	0.112	-0.151
-124.239	27.696	-0.229	0.189
-123.224	-58.444	-0.394	0.168
-122.210	-68.109	-0.211	0.081
-121.195	-111.349	0.263	0.053
