DTS Sentinel unit serial number:	SN413079Multiplexer serial number:	ORYXHardware model number:	OX4-SRSoftware version number:	ORYX F/W v4.00 Oryx Data Collector v3.7.2.0data status	okinstallation	princeton_trtdifferential loss correction	single-endedforward channel	channel 2reverse channel	N/Adate	2019/09/14time	04:43:35forward acquisition time	60.00reverse acquisition time	0.00gamma	496.2192k internal	0.2335k external	0.2335temperature offset calibration	1.0130default loss term (dB/km)	0.3790temperature slope calibration	1.0000multiplexer offset coefficient	1.0000multiplexer slope coefficient	1.0000fibre end	0.00T internal ref (°C)	26.81T ext. ref 1 (°C)	3.35T ext. ref 2 (°C)	21.98length (m)	temperature (°C)	Stokes	anti-Stokes-747.200	70.714	0.086	0.089
-746.185	53.920	-0.134	0.129
-745.171	800.000	-0.048	0.142
-744.156	-200.000	0.061	0.283
-743.142	-76.524	-0.243	0.086
-742.127	82.204	0.173	-0.189
-741.112	165.780	0.241	0.342
-740.098	-200.000	0.016	0.205
-739.083	-200.000	-0.062	-0.282
-738.069	-36.869	0.026	-0.014
-737.054	-40.545	-0.197	-0.103
-736.039	-78.091	-0.295	-0.102
-735.025	-76.368	0.388	0.137
-734.010	12.948	-0.324	-0.252
-732.996	-52.163	-0.148	0.069
-731.981	-200.000	0.008	-0.081
-730.966	377.590	-0.094	0.192
-729.952	145.775	-0.016	-0.022
-728.937	-62.160	-0.197	0.083
-727.923	-153.530	0.292	0.020
-726.908	-164.978	-0.612	0.027
-725.894	-200.000	-0.001	-0.099
-724.879	229.147	-0.132	-0.216
-723.864	-200.000	-0.018	0.177
-722.850	256.460	0.064	-0.110
-721.835	396.815	-0.052	-0.108
-720.821	-163.439	-0.223	0.011
-719.806	-200.000	0.025	-0.120
-718.791	4.376	-0.261	-0.192
-717.777	50.754	0.099	0.094
-716.762	-200.000	0.034	0.265
-715.748	-151.430	0.202	0.015
-714.733	217.232	0.060	0.096
-713.718	221.118	-0.012	0.020
-712.704	112.652	-0.109	-0.133
-711.689	242.085	-0.012	-0.020
-710.675	205.664	-0.144	0.224
-709.660	800.000	0.101	-0.325
-708.645	98.025	0.164	-0.189
-707.631	33.599	-0.058	0.051
-706.616	138.744	-0.165	0.217
-705.602	-113.318	-0.045	-0.009
-704.587	800.000	0.046	-0.162
-703.572	115.809	0.174	-0.213
-702.558	262.625	0.078	-0.136
-701.543	242.278	0.070	-0.117
-700.529	78.263	-0.067	-0.072
-699.514	800.000	0.045	0.185
-698.499	128.858	0.176	-0.225
-697.485	146.569	-0.058	-0.078
-696.470	62.591	-0.204	-0.205
-695.456	-115.177	0.220	0.042
-694.441	-21.272	-0.086	-0.053
-693.426	-200.000	0.064	-0.314
-692.412	457.094	-0.190	-0.423
-691.397	-90.094	-0.494	-0.144
-690.383	-200.000	0.056	0.257
-689.368	-200.000	0.017	0.087
-688.354	-125.731	-0.206	0.031
-687.339	144.502	0.033	-0.044
-686.324	-53.183	-0.143	-0.066
-685.310	-100.107	0.197	-0.049
-684.295	-62.530	0.062	0.026
-683.281	-116.022	-0.297	0.055
-682.266	-65.435	0.270	0.109
-681.251	317.550	-0.141	-0.267
-680.237	157.048	-0.157	-0.218
-679.222	-12.157	0.151	0.099
-678.208	67.082	-0.182	-0.186
-677.193	130.644	-0.098	0.126
-676.178	-80.301	-0.266	0.089
-675.164	-76.780	0.148	-0.052
-674.149	-3.797	-0.345	0.240
-673.135	40.104	-0.179	-0.161
-672.120	-200.000	0.017	0.214
-671.105	271.197	0.153	-0.270
-670.091	28.520	-0.161	0.136
-669.076	5.049	0.251	-0.185
-668.062	-3.159	0.210	-0.147
-667.047	526.207	-0.033	-0.077
-666.032	37.260	-0.219	-0.194
-665.018	2.750	-0.242	-0.176
-664.003	373.555	0.120	-0.245
-662.989	800.000	-0.097	0.347
-661.974	551.674	-0.101	0.243
-660.959	-63.185	-0.326	-0.134
-659.945	793.235	0.015	0.042
-658.930	128.586	0.114	-0.145
-657.916	44.062	0.353	-0.324
-656.901	-124.516	-0.056	-0.009
-655.886	-200.000	-0.024	-0.330
-654.872	800.000	0.044	-0.142
-653.857	2.747	-0.151	0.110
-652.843	124.330	-0.273	-0.344
-651.828	359.044	0.113	0.225
-650.814	-65.245	-0.321	-0.130
-649.799	358.239	-0.009	0.017
-648.784	-105.407	-0.020	-0.005
-647.770	-69.988	-0.313	-0.119
-646.755	-46.896	0.280	0.137
-645.741	-200.000	0.001	-0.362
-644.726	611.593	0.030	0.074
-643.711	232.969	0.052	0.086
-642.697	113.267	0.091	0.110
-641.682	-67.508	-0.061	-0.024
-640.668	128.195	-0.188	-0.239
-639.653	-200.000	-0.080	-0.422
-638.638	245.590	-0.030	-0.051
-637.624	-200.000	0.015	-0.069
-636.609	800.000	-0.085	-0.254
-635.595	103.998	-0.167	-0.197
-634.580	58.498	0.090	0.089
-633.565	-200.000	0.077	-0.381
-632.551	654.048	-0.085	0.218
-631.536	-99.242	-0.173	0.044
-630.522	486.898	0.073	-0.167
-629.507	-8.856	0.078	-0.052
-628.492	-200.000	0.003	-0.188
-627.478	324.738	-0.182	-0.348
-626.463	4.026	0.159	0.116
-625.449	-68.228	0.372	0.145
-624.434	800.000	-0.103	0.418
-623.419	-17.449	-0.163	-0.103
-622.405	420.162	-0.094	-0.202
-621.390	687.196	0.105	-0.274
-620.376	83.994	-0.057	0.062
-619.361	800.000	-0.044	0.164
-618.346	447.867	0.169	0.371
-617.332	-29.250	0.111	0.064
-616.317	-200.000	0.014	0.075
-615.303	164.153	-0.032	0.045
-614.288	-74.410	-0.489	0.176
-613.273	-122.179	0.441	-0.072
-612.259	79.542	-0.068	-0.073
-611.244	73.280	-0.322	0.336
-610.230	-63.391	0.160	0.066
-609.215	-99.526	-0.040	0.010
-608.201	22.491	0.099	0.081
-607.186	-200.000	-0.018	0.410
-606.171	-200.000	0.008	-0.119
-605.157	204.894	-0.098	-0.152
-604.142	-144.283	-0.057	-0.005
-603.128	-200.000	0.004	0.234
-602.113	800.000	-0.066	0.242
-601.098	672.030	0.070	-0.182
-600.084	-104.752	-0.259	0.060
-599.069	115.566	-0.064	-0.078
-598.055	10.537	0.155	-0.118
-597.040	63.319	-0.096	-0.096
-596.025	124.377	0.208	-0.262
-595.011	-1.969	0.225	0.158
-593.996	-200.000	-0.028	0.326
-592.982	-186.340	-0.261	-0.004
-591.967	22.417	0.104	0.085
-590.952	277.928	0.130	0.231
-589.938	800.000	-0.095	-0.361
-588.923	800.000	0.085	0.282
-587.909	-152.784	-0.386	0.027
-586.894	61.119	0.108	-0.107
-585.879	119.356	0.212	-0.262
-584.865	105.728	0.163	-0.192
-583.850	-163.089	-0.091	-0.004
-582.836	609.090	-0.109	-0.272
-581.821	371.589	0.123	-0.250
-580.806	-54.206	0.170	0.077
-579.792	800.000	0.096	-0.346
-578.777	-17.360	0.120	-0.075
-577.763	-34.320	0.191	-0.105
-576.748	-36.901	0.446	0.239
-575.733	-200.000	0.014	0.080
-574.719	-6.873	0.195	-0.132
-573.704	161.258	0.025	0.035
-572.690	-125.775	0.042	-0.006
-571.675	800.000	0.079	0.239
-570.661	-37.673	0.394	-0.209
-569.646	-149.713	0.334	0.026
-568.631	314.579	-0.165	-0.310
-567.617	287.234	-0.131	0.236
-566.602	-200.000	-0.025	-0.265
-565.588	384.297	-0.045	0.092
-564.573	51.667	0.173	0.164
-563.558	800.000	0.016	0.050
-562.544	-200.000	-0.022	0.462
-561.529	-78.223	0.181	-0.062
-560.515	800.000	0.038	-0.126
-559.500	-93.366	-0.223	0.062
-558.485	800.000	0.024	0.073
-557.471	122.466	-0.178	0.221
-556.456	-200.000	0.005	-0.234
-555.442	-200.000	-0.007	-0.136
-554.427	79.764	0.228	0.245
-553.412	-200.000	0.022	-0.200
-552.398	800.000	0.017	0.054
-551.383	24.048	-0.141	0.116
-550.369	169.882	-0.160	0.228
-549.354	-151.512	-0.216	0.016
-548.339	29.223	-0.042	-0.035
-547.325	-200.000	0.356	-0.002
-546.310	-159.057	0.083	0.005
-545.296	13.416	-0.208	-0.161
-544.281	51.440	0.140	0.132
-543.266	196.423	0.215	0.327
-542.252	-31.960	0.133	0.074
-541.237	-200.000	0.010	-0.356
-540.223	325.822	0.146	0.279
-539.208	-200.000	-0.041	-0.218
-538.193	73.654	0.260	0.271
-537.179	-137.762	0.146	-0.016
-536.164	72.956	0.267	-0.278
-535.150	-71.530	-0.062	0.023
-534.135	-13.184	-0.203	0.132
-533.121	-109.558	-0.190	-0.040
-532.106	-106.379	0.277	-0.062
-531.091	543.801	-0.131	-0.311
-530.077	379.738	-0.049	-0.100
-529.062	800.000	0.085	-0.314
-528.048	-39.799	0.083	-0.043
-527.033	301.399	0.180	0.331
-526.018	113.362	0.111	-0.135
-525.004	268.314	-0.053	-0.092
-523.989	-12.989	-0.290	0.188
-522.975	34.814	0.119	0.104
-521.960	-45.264	-0.351	0.174
-520.945	475.090	-0.160	-0.359
-519.931	-96.901	-0.123	0.032
-518.916	-51.814	-0.238	0.110
-517.902	-200.000	-0.009	0.211
-516.887	236.057	-0.068	0.112
-515.872	800.000	0.050	-0.142
-514.858	384.905	-0.002	0.003
-513.843	800.000	-0.004	-0.017
-512.829	181.368	-0.050	-0.073
-511.814	143.309	-0.045	-0.059
-510.799	105.628	-0.209	-0.246
-509.785	260.158	0.077	-0.132
-508.770	-76.138	0.323	0.114
-507.756	800.000	0.012	0.041
-506.741	93.022	-0.108	0.122
-505.726	10.268	0.210	-0.159
-504.712	-151.241	0.229	-0.017
-503.697	632.852	0.130	-0.327
-502.683	-93.134	0.298	0.082
-501.668	800.000	0.125	-0.490
-500.653	-129.442	0.163	-0.023
-499.639	-138.712	-0.088	-0.010
-498.624	-143.490	0.040	0.004
-497.610	224.445	0.090	-0.144
-496.595	408.163	-0.028	-0.059
-495.581	161.578	-0.049	-0.069
-494.566	800.000	0.164	0.454
-493.551	800.000	-0.076	0.276
-492.537	-126.863	-0.172	0.025
-491.522	-7.375	0.202	-0.136
-490.508	-200.000	-0.049	-0.291
-489.493	-123.912	0.289	-0.045
-488.478	800.000	-0.038	0.164
-487.464	-93.014	0.385	0.107
-486.449	34.369	-0.379	0.329
-485.435	-200.000	-0.027	0.122
-484.420	-200.000	0.055	0.300
-483.405	-200.000	0.033	-0.176
-482.391	28.217	0.149	-0.125
-481.376	210.978	-0.033	-0.052
-480.362	337.408	0.136	-0.262
-479.347	-90.360	-0.061	0.018
-478.332	27.383	0.158	-0.132
-477.318	-51.860	-0.219	0.101
-476.303	-78.594	0.110	0.037
-475.289	115.211	-0.227	-0.276
-474.274	-44.408	0.211	0.105
-473.259	-84.620	0.130	0.041
-472.245	-73.769	-0.275	0.100
-471.230	800.000	0.123	0.345
-470.216	-68.130	0.322	-0.125
-469.201	-56.347	-0.054	-0.024
-468.186	800.000	0.013	0.040
-467.172	24.586	0.204	0.168
-466.157	76.570	-0.164	-0.173
-465.143	-13.439	-0.192	-0.124
-464.128	297.877	-0.257	-0.469
-463.113	-200.000	-0.029	0.330
-462.099	9.733	-0.202	0.152
-461.084	452.063	-0.095	-0.209
-460.070	-200.000	-0.036	-0.180
-459.055	-200.000	-0.005	-0.349
-458.040	2.248	-0.197	-0.141
-457.026	-50.393	-0.349	0.164
-456.011	800.000	0.083	0.249
-454.997	238.390	0.070	0.116
-453.982	85.136	-0.158	-0.172
-452.968	-200.000	-0.030	0.286
-451.953	-66.163	-0.169	0.067
-450.938	-171.311	-0.320	0.011
-449.924	403.235	-0.244	-0.510
-448.909	-200.000	0.023	-0.231
-447.895	561.466	0.106	0.254
-446.880	800.000	-0.033	-0.096
-445.865	-37.845	0.240	-0.127
-444.851	145.271	-0.028	0.037
-443.836	27.274	-0.090	-0.075
-442.822	58.079	-0.090	0.088
-441.807	50.970	0.224	-0.211
-440.792	-160.327	-0.141	0.008
-439.778	-200.000	0.010	0.319
-438.763	-200.000	0.020	-0.185
-437.749	137.880	-0.078	-0.102
-436.734	152.154	0.170	-0.230
-435.719	-44.130	-0.066	0.033
-434.705	-57.363	0.219	-0.095
-433.690	645.537	-0.072	0.182
-432.676	-185.063	-0.054	0.001
-431.661	116.146	-0.161	-0.195
-430.646	-108.670	-0.210	0.045
-429.632	5.404	0.181	0.133
-428.617	-16.805	0.301	0.189
-427.603	-11.705	-0.179	0.117
-426.588	-200.000	-0.024	0.108
-425.573	-127.459	-0.147	0.021
-424.559	-200.000	0.001	-0.239
-423.544	796.255	-0.016	-0.044
-422.530	35.568	-0.073	-0.063
-421.515	-149.670	-0.070	-0.005
-420.500	70.221	-0.038	0.039
-419.486	-200.000	0.037	-0.205
-418.471	-132.481	0.132	-0.017
-417.457	-200.000	0.004	0.057
-416.442	-88.021	-0.228	0.068
-415.428	-200.000	-0.022	-0.133
-414.413	-9.054	-0.099	-0.065
-413.398	-125.067	-0.200	-0.030
-412.384	-200.000	0.049	0.238
-411.369	-74.540	-0.116	0.041
-410.355	276.670	-0.059	0.104
-409.340	65.329	0.199	0.200
-408.325	-131.915	0.184	-0.024
-407.311	511.328	0.034	0.079
-406.296	23.721	-0.230	0.188
-405.282	58.034	-0.244	0.237
-404.267	243.193	0.095	-0.157
-403.252	-200.000	0.006	-0.206
-402.238	-162.861	-0.035	-0.002
-401.223	-200.000	0.014	-0.184
-400.209	504.519	0.079	0.181
-399.194	102.559	-0.237	0.275
-398.179	-200.000	-0.073	0.327
-397.165	-39.271	-0.242	0.126
-396.150	-200.000	0.073	0.358
-395.136	800.000	0.052	0.174
-394.121	86.739	0.152	-0.166
-393.106	800.000	-0.030	-0.103
-392.092	-9.355	-0.279	0.184
-391.077	-200.000	-0.022	0.183
-390.063	71.474	-0.069	0.071
-389.048	-200.000	0.012	-0.112
-388.033	-57.930	0.215	-0.093
-387.019	800.000	-0.093	-0.268
-386.004	561.064	0.021	0.050
-384.990	98.033	-0.223	0.254
-383.975	165.623	-0.031	0.044
-382.960	140.296	0.161	0.210
-381.946	63.689	0.202	-0.201
-380.931	118.481	0.047	-0.058
-379.917	121.017	0.103	0.127
-378.902	-179.554	0.080	-0.002
-377.888	-200.000	0.054	0.266
-376.873	-200.000	0.003	0.169
-375.858	21.628	0.167	-0.135
-374.844	40.775	0.019	-0.017
-373.829	-83.187	-0.262	-0.083
-372.815	-200.000	0.068	-0.359
-371.800	-14.214	-0.104	0.066
-370.785	221.517	0.202	-0.321
-369.771	-182.517	0.022	0.000
-368.756	559.654	0.147	-0.352
-367.742	12.764	0.153	-0.117
-366.727	-112.879	-0.211	-0.041
-365.712	16.407	-0.107	-0.084
-364.698	105.297	-0.100	0.117
-363.683	-8.995	0.140	0.092
-362.669	7.145	-0.089	-0.066
-361.654	-60.092	0.107	-0.045
-360.639	-69.849	0.298	-0.112
-359.625	379.897	-0.037	0.074
-358.610	-131.833	-0.112	0.014
-357.596	53.217	0.153	0.145
-356.581	-200.000	-0.016	0.147
-355.566	-10.219	-0.069	-0.045
-354.552	-32.072	0.243	0.135
-353.537	-98.821	0.071	0.018
-352.523	-200.000	0.015	0.248
-351.508	545.517	0.073	-0.173
-350.493	-200.000	0.011	0.176
-349.479	-200.000	-0.030	0.187
-348.464	703.049	0.114	0.297
-347.450	-200.000	-0.016	-0.222
-346.435	-85.377	0.224	-0.069
-345.420	800.000	0.031	-0.106
-344.406	-130.594	-0.249	-0.033
-343.391	-13.192	0.206	0.133
-342.377	800.000	-0.018	-0.069
-341.362	111.236	0.149	0.177
-340.348	328.648	-0.036	0.069
-339.333	766.562	0.145	-0.390
-338.318	-25.903	-0.087	-0.051
-337.304	-103.219	-0.084	-0.020
-336.289	191.771	0.172	-0.257
-335.275	-65.011	-0.178	0.071
-334.260	-73.220	-0.127	-0.046
-333.245	37.732	-0.207	-0.182
-332.231	-200.000	-0.009	-0.175
-331.216	90.381	-0.125	-0.138
-330.202	-70.681	-0.142	0.053
-329.187	-172.687	-0.334	0.010
-328.172	349.213	0.212	0.413
-327.158	-76.207	-0.213	-0.074
-326.143	46.961	0.204	0.187
-325.129	-200.000	-0.009	-0.165
-324.114	398.296	-0.024	-0.049
-323.099	-57.186	-0.072	-0.031
-322.085	13.748	-0.402	0.308
-321.070	39.128	0.085	0.076
-320.056	111.309	0.073	0.087
-319.041	413.988	-0.119	-0.251
-318.026	-98.553	0.373	0.094
-317.012	71.839	-0.062	0.063
-315.997	194.997	-0.113	0.169
-314.983	800.000	-0.068	-0.189
-313.968	82.910	0.150	0.161
-312.953	-200.000	0.005	-0.031
-311.939	-23.358	-0.216	-0.128
-310.924	-70.721	-0.223	-0.083
-309.910	117.790	0.056	0.068
-308.895	-26.305	0.199	0.115
-307.880	-134.774	-0.130	-0.016
-306.866	-27.712	-0.187	-0.107
-305.851	-27.720	0.221	0.127
-304.837	113.583	-0.066	-0.079
-303.822	-200.000	-0.050	-0.324
-302.807	800.000	0.083	0.280
-301.793	457.063	-0.136	0.298
-300.778	-11.805	-0.202	0.131
-299.764	-85.024	-0.241	-0.075
-298.749	-78.416	0.328	-0.111
-297.735	29.335	0.040	0.033
-296.720	-179.172	0.362	0.008
-295.705	40.740	-0.194	-0.173
-294.691	179.373	0.136	0.196
-293.676	146.356	-0.144	-0.190
-292.662	-17.618	-0.143	-0.089
-291.647	75.830	-0.042	-0.044
-290.632	138.215	0.049	-0.063
-289.618	800.000	0.049	0.191
-288.603	-108.360	0.242	0.051
-287.589	-200.000	-0.036	0.155
-286.574	-44.093	-0.131	0.065
-285.559	-200.000	0.010	0.158
-284.545	-200.000	0.005	-0.307
-283.530	604.355	0.020	0.050
-282.516	18.566	-0.105	0.083
-281.501	99.406	0.167	-0.191
-280.486	-32.872	-0.229	0.125
-279.472	76.962	-0.150	0.157
-278.457	215.292	0.038	-0.059
-277.443	800.000	0.043	0.119
-276.428	115.546	0.129	0.156
-275.413	-84.551	0.209	-0.065
-274.399	-94.859	-0.194	-0.052
-273.384	-120.161	0.138	-0.023
-272.370	-200.000	0.000	-0.063
-271.355	-60.720	-0.360	0.150
-270.340	57.831	0.025	0.024
-269.326	149.208	0.040	0.054
-268.311	599.879	-0.063	0.154
-267.297	44.659	0.076	-0.069
-266.282	-94.003	0.097	0.026
-265.267	-155.193	-0.308	-0.020
-264.253	-5.260	-0.163	-0.111
-263.238	-116.605	0.329	-0.060
-262.224	-99.323	0.166	0.041
-261.209	150.814	-0.153	0.205
-260.195	-14.860	-0.225	-0.143
-259.180	-158.544	-0.239	-0.014
-258.165	7.126	-0.171	-0.126
-257.151	-89.346	0.203	-0.059
-256.136	-71.905	0.119	0.044
-255.122	800.000	0.024	0.088
-254.107	-163.094	-0.382	-0.018
-253.092	83.964	0.119	0.128
-252.078	-200.000	-0.026	0.339
-251.063	338.414	0.177	-0.339
-250.049	418.645	0.207	0.436
-249.034	-200.000	0.029	-0.192
-248.019	800.000	0.033	0.099
-247.005	-162.930	-0.126	-0.006
-245.990	103.340	-0.213	-0.246
-244.976	-61.821	0.035	0.015
-243.961	291.666	-0.054	-0.097
-242.946	-200.000	-0.058	-0.285
-241.932	-6.062	-0.180	-0.122
-240.917	-200.000	-0.018	0.155
-239.903	125.674	-0.141	0.175
-238.888	160.611	-0.137	0.189
-237.873	-0.392	0.104	-0.073
-236.859	196.630	0.142	0.213
-235.844	-172.336	-0.332	-0.010
-234.830	-51.451	0.182	0.084
-233.815	59.499	0.167	0.162
-232.800	800.000	0.171	0.607
-231.786	-146.789	0.201	-0.017
-230.771	800.000	0.039	-0.138
-229.757	304.084	-0.015	-0.027
-228.742	-77.454	-0.135	0.046
-227.727	-104.885	-0.251	0.057
-226.713	800.000	0.013	0.050
-225.698	85.118	-0.175	-0.189
-224.684	-60.747	0.045	-0.019
-223.669	118.742	-0.211	-0.257
-222.655	-200.000	-0.036	-0.272
-221.640	205.804	-0.150	0.229
-220.625	-143.718	0.109	-0.010
-219.611	800.000	0.097	-0.282
-218.596	108.587	0.266	-0.313
-217.582	-8.278	0.240	-0.159
-216.567	-200.000	-0.388	-0.000
-215.552	65.011	-0.187	0.186
-214.538	71.749	0.255	-0.260
-213.523	-99.565	0.446	-0.110
-212.509	80.225	0.041	-0.043
-211.494	179.085	0.160	0.230
-210.479	141.864	0.088	0.115
-209.465	515.364	0.029	0.067
-208.450	80.129	0.218	-0.230
-207.436	-35.394	-0.050	-0.027
-206.421	-77.761	-0.250	0.085
-205.406	160.446	-0.195	0.268
-204.392	6.468	0.221	0.162
-203.377	-45.425	-0.208	-0.102
-202.363	-150.255	-0.102	0.008
-201.348	214.391	-0.072	-0.112
-200.333	-200.000	0.014	0.254
-199.319	-105.092	0.273	-0.061
-198.304	-156.806	0.151	-0.009
-197.290	-94.376	0.294	0.079
-196.275	130.591	-0.104	-0.131
-195.260	-112.727	-0.155	0.030
-194.246	-200.000	0.113	-0.570
-193.231	50.146	-0.175	0.163
-192.217	-38.008	-0.317	0.166
-191.202	-98.012	0.317	-0.080
-190.187	-125.154	0.256	0.039
-189.173	-40.435	-0.111	0.057
-188.158	122.193	0.102	-0.125
-187.144	420.592	-0.159	0.335
-186.129	-27.120	-0.313	0.180
-185.114	49.328	0.222	0.205
-184.100	500.660	-0.096	0.217
-183.085	-79.302	-0.287	0.096
-182.071	-84.228	-0.170	0.053
-181.056	800.000	-0.056	-0.182
-180.042	-200.000	0.064	-0.284
-179.027	-200.000	0.033	-0.174
-178.012	-31.087	-0.198	-0.110
-176.998	215.854	-0.078	-0.122
-175.983	136.109	0.195	-0.250
-174.969	73.015	-0.214	0.220
-173.954	-200.000	0.130	0.626
-172.939	800.000	0.073	0.275
-171.925	-119.655	0.238	-0.040
-170.910	247.904	-0.074	-0.122
-169.896	705.352	-0.133	-0.346
-168.881	-45.722	-0.359	-0.174
-167.866	800.000	0.080	-0.237
-166.852	435.955	-0.121	0.258
-165.837	800.000	0.033	0.116
-164.823	-116.640	0.123	0.022
-163.808	380.505	0.175	-0.352
-162.793	-199.904	-0.383	0.002
-161.779	-60.340	0.187	-0.078
-160.764	174.092	-0.129	0.183
-159.750	30.377	-0.123	0.103
-158.735	584.049	0.056	-0.134
-157.720	1.814	-0.073	0.051
-156.706	-63.605	0.240	-0.097
-155.691	24.949	-0.028	0.023
-154.677	50.009	0.211	0.196
-153.662	241.014	0.111	-0.181
-152.647	118.114	0.083	0.100
-151.633	-61.543	0.211	0.087
-150.618	800.000	0.037	0.106
-149.604	-56.983	-0.539	0.233
-148.589	40.094	0.150	0.132
-147.574	13.901	-0.053	-0.041
-146.560	-6.561	0.186	-0.124
-145.545	-47.686	-0.248	-0.118
-144.531	-56.695	0.193	-0.084
-143.516	-200.000	0.002	0.099
-142.502	-71.860	-0.283	-0.104
-141.487	-43.780	0.244	-0.121
-140.472	-49.970	0.255	0.119
-139.458	-136.559	-0.429	0.049
-138.443	-4.356	-0.156	0.106
-137.429	800.000	0.036	0.100
-136.414	-110.387	-0.453	-0.092
-135.399	402.836	0.206	0.425
-134.385	185.514	0.028	0.041
-133.370	597.412	-0.017	0.042
-132.356	-75.522	0.236	0.082
-131.341	109.346	0.073	-0.086
-130.326	-102.017	-0.069	-0.016
-129.312	-64.482	-0.191	0.076
-128.297	46.320	0.124	0.113
-127.283	37.082	0.141	0.122
-126.268	-134.807	0.129	-0.015
-125.253	-126.462	-0.108	0.016
-124.239	-200.000	0.012	0.210
-123.224	800.000	-0.031	-0.084
-122.210	-92.148	-0.154	-0.043
-121.195	426.953	-0.154	0.325
-120.180	-200.000	0.021	0.134
