DTS Sentinel unit serial number:	SN413079Multiplexer serial number:	ORYXHardware model number:	OX4-SRSoftware version number:	ORYX F/W v4.00 Oryx Data Collector v3.7.2.0data status	okinstallation	princeton_trtdifferential loss correction	single-endedforward channel	channel 2reverse channel	N/Adate	2019/09/11time	00:25:11forward acquisition time	60.00reverse acquisition time	0.00gamma	496.2192k internal	0.2331k external	0.2331temperature offset calibration	0.9944default loss term (dB/km)	0.3790temperature slope calibration	1.0000multiplexer offset coefficient	1.0000multiplexer slope coefficient	1.0000fibre end	0.00T internal ref (°C)	29.25T ext. ref 1 (°C)	-0.30T ext. ref 2 (°C)	22.83length (m)	temperature (°C)	Stokes	anti-Stokes-747.200	-29.757	0.103	-0.059
-746.185	-200.000	-0.022	0.159
-745.171	46.200	-0.167	0.156
-744.156	-35.210	-0.336	0.184
-743.142	126.323	-0.154	-0.196
-742.127	204.848	0.195	0.304
-741.112	-200.000	0.011	-0.157
-740.098	-86.940	-0.348	-0.107
-739.083	-29.740	-0.098	-0.056
-738.069	-74.689	-0.156	0.056
-737.054	201.562	0.162	0.251
-736.039	-42.311	-0.290	-0.149
-735.025	64.178	0.155	0.157
-734.010	160.519	-0.155	-0.217
-732.996	-151.534	-0.133	-0.010
-731.981	-110.505	-0.327	-0.068
-730.966	248.955	-0.143	-0.243
-729.952	111.633	0.213	-0.259
-728.937	-200.000	-0.016	-0.099
-727.923	37.207	-0.059	0.053
-726.908	-200.000	0.027	0.388
-725.894	154.285	-0.157	-0.217
-724.879	-200.000	-0.071	0.322
-723.864	800.000	-0.046	-0.189
-722.850	263.665	0.135	-0.236
-721.835	-54.004	-0.171	0.078
-720.821	800.000	0.053	-0.153
-719.806	-46.076	-0.344	0.170
-718.791	-6.045	0.308	0.212
-717.777	30.621	-0.043	-0.037
-716.762	-164.764	-0.198	0.009
-715.748	98.326	0.084	-0.097
-714.733	255.578	-0.092	-0.158
-713.718	149.910	0.171	-0.233
-712.704	82.405	0.155	0.169
-711.689	-17.258	0.037	-0.023
-710.675	-200.000	-0.056	0.251
-709.660	800.000	0.076	0.222
-708.645	468.159	0.187	0.421
-707.631	49.458	-0.174	0.164
-706.616	-200.000	0.046	-0.268
-705.602	506.551	-0.108	-0.252
-704.587	800.000	0.113	-0.398
-703.572	49.591	-0.200	-0.190
-702.558	212.635	0.052	0.082
-701.543	-58.388	-0.228	-0.100
-700.529	-60.816	-0.015	-0.006
-699.514	23.353	0.065	-0.054
-698.499	-200.000	-0.058	-0.283
-697.485	328.628	-0.028	0.054
-696.470	18.601	0.232	0.187
-695.456	-174.189	0.158	0.005
-694.441	-200.000	0.005	0.362
-693.426	-172.850	-0.171	0.005
-692.412	800.000	0.067	-0.215
-691.397	-177.872	0.240	-0.006
-690.383	1.494	0.163	-0.118
-689.368	-200.000	-0.002	0.199
-688.354	-200.000	-0.028	-0.165
-687.339	-93.674	0.099	-0.027
-686.324	-35.400	-0.050	0.028
-685.310	-200.000	0.015	0.136
-684.295	-200.000	0.041	0.400
-683.281	268.486	0.023	-0.041
-682.266	-200.000	-0.005	-0.086
-681.251	697.326	0.132	-0.349
-680.237	73.860	-0.056	0.059
-679.222	108.100	-0.223	-0.267
-678.208	-84.477	-0.096	0.030
-677.193	51.095	0.276	-0.263
-676.178	800.000	0.063	-0.263
-675.164	-89.563	0.188	0.056
-674.149	-28.689	-0.143	0.083
-673.135	187.271	-0.154	-0.230
-672.120	-38.770	0.142	-0.075
-671.105	469.341	-0.066	0.149
-670.091	18.613	-0.254	0.204
-669.076	88.496	0.235	0.262
-668.062	40.073	0.133	0.120
-667.047	312.929	0.143	0.270
-666.032	-118.985	-0.197	-0.035
-665.018	302.141	0.162	0.300
-664.003	-103.079	-0.219	0.052
-662.989	-200.000	-0.012	0.105
-661.974	-37.199	-0.273	-0.147
-660.959	778.682	-0.113	-0.311
-659.945	-200.000	0.028	0.209
-658.930	-41.835	-0.266	0.137
-657.916	93.828	-0.076	0.086
-656.901	1.467	0.217	0.157
-655.886	-122.383	-0.199	0.033
-654.872	105.773	0.264	-0.314
-653.857	-16.167	0.419	-0.267
-652.843	-15.790	0.278	0.177
-651.828	-136.294	0.182	0.021
-650.814	-106.249	0.072	0.016
-649.799	-174.924	0.141	-0.004
-648.784	106.391	0.106	-0.126
-647.770	-144.413	-0.267	-0.025
-646.755	212.066	-0.040	-0.063
-645.741	128.350	0.268	-0.342
-644.726	-41.392	0.118	0.061
-643.711	-118.201	0.136	-0.024
-642.697	186.443	0.085	-0.127
-641.682	-119.780	-0.135	-0.023
-640.668	-89.614	0.131	0.039
-639.653	-90.915	-0.322	-0.093
-638.638	-142.533	0.220	0.022
-637.624	229.016	0.126	-0.207
-636.609	-55.682	0.132	0.059
-635.595	-113.435	-0.145	-0.028
-634.580	132.948	0.048	-0.062
-633.565	-200.000	-0.024	-0.444
-632.551	-200.000	-0.015	-0.086
-631.536	32.266	0.437	-0.378
-630.522	-200.000	0.007	0.097
-629.507	105.932	0.090	0.106
-628.492	44.946	-0.137	0.126
-627.478	-124.684	-0.241	-0.037
-626.463	499.052	-0.041	-0.094
-625.449	-18.287	0.077	-0.048
-624.434	-200.000	0.001	0.205
-623.419	-15.819	-0.232	0.148
-622.405	-69.018	0.188	0.072
-621.390	800.000	0.053	0.171
-620.376	-178.499	0.352	0.008
-619.361	-113.594	-0.069	0.013
-618.346	347.204	-0.165	-0.324
-617.332	-75.610	-0.398	-0.142
-616.317	-117.071	-0.213	-0.039
-615.303	67.088	0.067	-0.069
-614.288	83.161	-0.110	0.120
-613.273	319.490	0.091	-0.173
-612.259	315.095	0.134	0.252
-611.244	-15.468	-0.431	0.276
-610.230	-29.740	-0.159	0.091
-609.215	-200.000	-0.325	0.000
-608.201	-41.804	0.470	-0.241
-607.186	800.000	-0.044	-0.125
-606.171	115.813	0.073	-0.089
-605.157	-19.798	-0.140	0.087
-604.142	800.000	0.044	0.144
-603.128	-149.301	-0.275	-0.022
-602.113	-200.000	-0.030	0.376
-601.098	141.083	0.137	0.181
-600.084	-121.491	-0.141	-0.023
-599.069	-200.000	0.047	-0.212
-598.055	-58.130	0.314	-0.137
-597.040	149.547	0.094	0.127
-596.025	26.546	0.245	0.205
-595.011	275.798	0.110	0.195
-593.996	-109.539	-0.198	0.042
-592.982	-138.496	0.152	0.017
-591.967	800.000	-0.169	0.596
-590.952	113.628	-0.274	0.333
-589.938	-17.730	0.147	0.092
-588.923	-103.134	0.273	-0.065
-587.909	-92.808	0.156	-0.044
-586.894	-101.493	-0.063	0.015
-585.879	-8.716	0.096	0.065
-584.865	-96.443	0.364	-0.096
-583.850	800.000	0.075	0.230
-582.836	271.865	-0.184	-0.325
-581.821	-56.139	0.196	-0.087
-580.806	-200.000	0.037	-0.188
-579.792	-200.000	0.040	0.322
-578.777	219.784	0.181	0.289
-577.763	-200.000	-0.012	-0.377
-576.748	344.197	-0.173	-0.340
-575.733	1.921	-0.108	-0.078
-574.719	-120.331	-0.259	0.044
-573.704	-200.000	-0.045	0.252
-572.690	421.471	-0.110	0.237
-571.675	291.396	-0.041	0.075
-570.661	-148.168	0.132	-0.011
-569.646	240.030	0.070	-0.116
-568.631	-97.463	0.155	-0.040
-567.617	129.182	0.194	0.248
-566.602	800.000	0.050	-0.153
-565.588	-21.434	-0.166	-0.101
-564.573	-200.000	0.014	0.098
-563.558	91.865	0.112	-0.126
-562.544	-121.223	0.237	-0.040
-561.529	-117.590	0.151	-0.027
-560.515	85.612	-0.132	-0.145
-559.500	-200.000	0.012	-0.361
-558.485	-132.260	-0.412	-0.053
-557.471	260.157	0.092	-0.159
-556.456	-200.000	-0.055	-0.343
-555.442	308.361	0.073	0.136
-554.427	480.258	0.086	-0.195
-553.412	82.359	-0.109	-0.118
-552.398	-7.240	-0.088	-0.060
-551.383	87.497	0.182	-0.202
-550.369	100.387	-0.213	0.247
-549.354	45.232	0.248	-0.229
-548.339	-200.000	-0.033	0.163
-547.325	-80.276	0.193	-0.064
-546.310	10.140	0.197	0.150
-545.296	800.000	-0.133	-0.390
-544.281	-200.000	-0.095	0.579
-543.266	157.735	0.105	0.146
-542.252	-114.740	0.304	0.058
-541.237	-194.891	0.290	0.002
-540.223	1.493	-0.290	-0.208
-539.208	216.653	0.103	0.163
-538.193	-153.713	-0.174	0.012
-537.179	28.113	-0.072	-0.061
-536.164	-5.405	-0.382	-0.262
-535.150	289.051	-0.061	-0.110
-534.135	54.478	-0.473	-0.455
-533.121	-200.000	-0.040	-0.226
-532.106	-140.941	0.060	0.006
-531.091	-107.531	0.284	-0.062
-530.077	-23.422	-0.128	0.076
-529.062	186.899	-0.068	-0.101
-528.048	800.000	-0.073	-0.289
-527.033	-200.000	-0.008	-0.147
-526.018	-200.000	-0.069	-0.437
-525.004	-47.414	0.097	0.047
-523.989	800.000	-0.011	0.032
-522.975	-39.469	-0.112	0.058
-521.960	-153.245	-0.128	0.009
-520.945	712.417	-0.048	-0.128
-519.931	-127.260	0.158	0.023
-518.916	-93.320	-0.230	-0.064
-517.902	-97.622	0.175	0.045
-516.887	-79.728	-0.078	-0.026
-515.872	-82.285	0.400	0.130
-514.858	-125.782	-0.222	-0.033
-513.843	-200.000	-0.015	-0.149
-512.829	65.552	0.270	-0.272
-511.814	286.759	0.041	0.073
-510.799	-60.551	-0.063	0.027
-509.785	-155.803	-0.404	0.026
-508.770	277.239	-0.129	0.229
-507.756	-200.000	0.012	0.131
-506.741	138.035	0.213	-0.278
-505.726	-168.405	0.344	-0.013
-504.712	-98.413	-0.180	0.046
-503.697	-46.608	-0.307	0.150
-502.683	11.302	-0.180	0.138
-501.668	176.116	-0.095	0.137
-500.653	-84.498	0.182	-0.057
-499.639	240.453	-0.235	0.390
-498.624	-49.542	-0.280	0.133
-497.610	440.572	0.041	0.090
-496.595	-108.606	0.361	-0.077
-495.581	65.667	0.187	0.189
-494.566	-200.000	0.017	-0.082
-493.551	-200.000	0.061	-0.443
-492.537	-48.130	0.239	0.115
-491.522	573.714	0.150	0.364
-490.508	118.149	0.101	0.123
-489.493	-115.753	-0.379	-0.071
-488.478	37.699	-0.045	-0.039
-487.464	-126.655	-0.076	0.011
-486.449	214.169	-0.232	-0.366
-485.435	-114.996	0.066	0.013
-484.420	34.713	-0.194	0.169
-483.405	-93.962	0.210	-0.058
-482.391	338.784	0.110	-0.214
-481.376	-200.000	-0.002	-0.245
-480.362	-200.000	0.046	-0.228
-479.347	-64.141	0.292	-0.119
-478.332	-7.932	0.322	-0.217
-477.318	-189.295	-0.396	0.005
-476.303	31.579	0.041	-0.035
-475.289	249.316	-0.109	-0.184
-474.274	-164.831	0.170	0.008
-473.259	-83.786	-0.458	-0.145
-472.245	-63.337	-0.093	0.038
-471.230	-46.286	-0.192	0.094
-470.216	-200.000	-0.025	-0.299
-469.201	126.040	0.186	0.234
-468.186	649.887	0.057	0.146
-467.172	-61.312	-0.183	-0.077
-466.157	-200.000	0.006	0.183
-465.143	245.083	0.107	-0.179
-464.128	292.993	0.082	-0.149
-463.113	-93.483	-0.191	-0.052
-462.099	-126.812	-0.232	-0.034
-461.084	528.557	0.058	0.136
-460.070	-60.641	-0.172	-0.073
-459.055	-200.000	-0.030	-0.237
-458.040	-101.591	0.304	-0.073
-457.026	-35.933	0.217	-0.117
-456.011	-200.000	-0.026	0.513
-454.997	82.902	0.217	0.235
-453.982	-106.152	-0.326	0.073
-452.968	-184.690	-0.078	0.001
-451.953	-36.460	-0.221	0.119
-450.938	800.000	-0.076	0.218
-449.924	-136.536	0.310	-0.036
-448.909	-183.332	0.199	0.003
-447.895	157.203	-0.097	-0.133
-446.880	-76.511	0.223	0.078
-445.865	-187.322	-0.353	-0.005
-444.851	-50.240	0.253	0.119
-443.836	-154.709	-0.132	-0.009
-442.822	534.838	-0.075	-0.177
-441.807	80.431	-0.093	0.100
-440.792	-22.478	-0.163	-0.098
-439.778	-200.000	-0.016	-0.231
-438.763	-86.399	-0.396	-0.121
-437.749	15.067	-0.263	0.205
-436.734	-200.000	-0.040	0.211
-435.719	2.583	-0.352	0.253
-434.705	800.000	-0.057	-0.194
-433.690	50.974	-0.058	-0.055
-432.676	-129.420	0.185	0.026
-431.661	165.981	-0.073	-0.102
-430.646	31.990	0.244	0.209
-429.632	-20.554	-0.401	0.245
-428.617	-159.949	0.493	-0.027
-427.603	136.109	-0.169	-0.220
-426.588	800.000	0.069	-0.207
-425.573	800.000	-0.066	0.255
-424.559	-21.887	-0.278	-0.168
-423.544	230.741	0.083	0.136
-422.530	-117.397	0.037	0.007
-421.515	800.000	0.048	0.199
-420.500	-200.000	-0.008	0.173
-419.486	-6.858	0.300	-0.202
-418.471	-183.611	0.319	-0.005
-417.457	-46.055	-0.182	0.089
-416.442	-200.000	0.023	0.407
-415.428	-31.910	0.202	-0.112
-414.413	-73.276	-0.132	0.048
-413.398	-200.000	0.025	0.148
-412.384	530.624	-0.050	0.118
-411.369	800.000	0.058	-0.171
-410.355	-146.882	-0.237	0.020
-409.340	165.801	0.187	0.263
-408.325	49.860	-0.190	0.178
-407.311	-20.222	0.248	-0.152
-406.296	-52.016	-0.220	-0.101
-405.282	128.489	0.292	0.370
-404.267	138.084	0.064	-0.083
-403.252	-8.542	0.056	0.038
-402.238	-200.000	-0.018	0.188
-401.223	510.280	-0.050	0.115
-400.209	-113.185	0.283	-0.055
-399.194	-67.752	0.064	-0.025
-398.179	-200.000	-0.005	0.172
-397.165	175.119	-0.322	0.464
-396.150	-1.827	-0.274	0.192
-395.136	-200.000	0.016	0.153
-394.121	-73.530	-0.131	0.048
-393.106	148.057	-0.268	0.359
-392.092	84.988	-0.398	-0.433
-391.077	81.752	0.125	-0.134
-390.063	-200.000	-0.010	0.370
-389.048	53.541	-0.036	0.034
-388.033	-200.000	-0.029	0.168
-387.019	-157.734	-0.138	0.008
-386.004	800.000	0.013	0.045
-384.990	-69.788	0.209	0.079
-383.975	-109.756	-0.102	-0.021
-382.960	-84.092	0.034	-0.011
-381.946	-107.760	0.374	0.081
-380.931	288.336	0.201	-0.361
-379.917	-37.330	-0.133	0.071
-378.902	253.621	0.068	0.115
-377.888	-200.000	0.007	0.251
-376.873	-200.000	0.046	0.438
-375.858	-163.165	-0.318	0.015
-374.844	-112.445	0.209	-0.041
-373.829	250.259	0.041	0.068
-372.815	162.494	0.089	0.123
-371.800	800.000	-0.036	-0.136
-370.785	316.485	-0.159	-0.298
-369.771	-40.848	-0.051	0.026
-368.756	-0.650	-0.108	0.076
-367.742	-49.543	0.027	-0.013
-366.727	17.567	0.276	0.218
-365.712	-151.887	-0.116	-0.008
-364.698	760.475	-0.065	0.175
-363.683	204.075	0.273	0.419
-362.669	286.098	0.177	0.316
-361.654	69.698	-0.128	0.131
-360.639	-65.578	-0.227	0.090
-359.625	247.825	-0.016	0.026
-358.610	800.000	0.044	-0.188
-357.596	-121.143	0.047	0.008
-356.581	-123.659	-0.177	0.028
-355.566	-153.131	0.102	-0.007
-354.552	120.914	-0.139	-0.171
-353.537	-200.000	0.023	-0.287
-352.523	-200.000	-0.019	-0.129
-351.508	800.000	-0.029	-0.104
-350.493	-154.018	-0.326	-0.022
-349.479	-5.017	-0.151	-0.103
-348.464	-173.729	0.156	-0.005
-347.450	800.000	-0.026	0.086
-346.435	-85.281	-0.212	-0.066
-345.420	-46.862	0.139	-0.067
-344.406	171.530	0.097	0.138
-343.391	-200.000	-0.018	0.571
-342.377	91.806	0.128	0.143
-341.362	-200.000	-0.044	-0.331
-340.348	25.727	0.227	-0.187
-339.333	-200.000	0.002	-0.036
-338.318	25.030	0.174	0.143
-337.304	35.316	-0.197	0.171
-336.289	-200.000	0.001	-0.052
-335.275	13.233	0.285	-0.219
-334.260	37.308	-0.162	0.142
-333.245	88.091	-0.307	0.337
-332.231	-200.000	-0.008	0.155
-331.216	396.562	0.110	0.228
-330.202	-134.117	-0.253	0.031
-329.187	-200.000	-0.023	-0.152
-328.172	-55.922	-0.032	-0.014
-327.158	-129.055	-0.363	0.050
-326.143	-139.145	-0.158	-0.017
-325.129	97.799	-0.166	0.189
-324.114	-200.000	0.016	0.095
-323.099	53.617	-0.123	0.116
-322.085	86.049	0.067	0.073
-321.070	89.589	0.064	0.071
-320.056	-89.815	0.387	0.112
-319.041	123.268	0.169	-0.209
-318.026	800.000	-0.128	0.371
-317.012	-143.796	0.329	-0.031
-315.997	-200.000	0.069	0.353
-314.983	-197.769	-0.115	-0.001
-313.968	-200.000	0.001	-0.050
-312.953	-200.000	-0.007	-0.202
-311.939	-200.000	0.011	0.083
-310.924	260.082	0.137	0.234
-309.910	-92.688	0.335	-0.093
-308.895	130.228	0.101	-0.128
-307.880	-200.000	-0.011	-0.214
-306.866	-200.000	0.006	0.108
-305.851	10.208	-0.047	-0.035
-304.837	800.000	0.109	0.343
-303.822	161.466	-0.101	-0.140
-302.807	-200.000	-0.029	-0.266
-301.793	-22.659	-0.201	-0.120
-300.778	41.103	0.358	0.320
-299.764	-52.667	-0.187	0.085
-298.749	-115.657	-0.302	0.056
-297.735	800.000	-0.096	-0.273
-296.720	-200.000	0.015	0.127
-295.705	52.435	-0.363	-0.343
-294.691	-36.559	0.228	-0.121
-293.676	-200.000	0.003	0.112
-292.662	-98.509	0.138	-0.035
-291.647	-200.000	-0.032	0.161
-290.632	800.000	-0.080	0.337
-289.618	-46.427	-0.192	-0.093
-288.603	55.734	0.190	-0.182
-287.589	349.703	-0.026	-0.051
-286.574	0.647	0.185	0.131
-285.559	78.293	-0.243	0.256
-284.545	-40.908	0.101	0.052
-283.530	-113.511	0.305	0.059
-282.516	-200.000	0.014	-0.208
-281.501	113.761	0.033	0.040
-280.486	-22.093	0.176	0.106
-279.472	-140.274	0.105	0.011
-278.457	482.965	0.064	-0.145
-277.443	180.735	-0.197	-0.285
-276.428	437.358	0.085	0.183
-275.413	-66.412	0.192	0.075
-274.399	-192.609	0.363	0.003
-273.384	114.509	0.180	-0.216
-272.370	800.000	0.027	-0.102
-271.355	800.000	-0.092	-0.351
-270.340	125.713	-0.140	-0.175
-269.326	-66.192	0.055	-0.022
-268.311	-200.000	-0.005	-0.145
-267.297	208.575	0.203	0.314
-266.282	-76.609	0.343	-0.119
-265.267	800.000	0.031	-0.118
-264.253	800.000	0.051	0.177
-263.238	539.701	0.042	-0.099
-262.224	800.000	-0.085	0.344
-261.209	6.403	0.057	0.042
-260.195	29.764	0.070	-0.059
-259.180	192.315	-0.116	0.172
-258.165	-129.637	-0.052	-0.007
-257.151	110.033	0.163	-0.193
-256.136	-149.372	-0.326	-0.026
-255.122	-200.000	0.014	0.216
-254.107	-119.397	0.281	-0.048
-253.092	-7.451	0.469	-0.313
-252.078	79.042	-0.099	-0.104
-251.063	-86.799	0.135	-0.041
-250.049	-200.000	-0.010	0.082
-249.034	800.000	-0.041	-0.175
-248.019	-98.459	-0.249	-0.063
-247.005	90.085	-0.201	0.221
-245.990	-134.430	0.443	-0.054
-244.976	-76.248	-0.402	-0.140
-243.961	-29.184	0.223	-0.126
-242.946	751.939	-0.077	-0.204
-241.932	800.000	-0.089	-0.292
-240.917	8.564	-0.016	-0.012
-239.903	-131.309	0.180	-0.024
-238.888	800.000	-0.078	-0.237
-237.873	226.252	0.151	-0.241
-236.859	-70.167	-0.325	0.122
-235.844	800.000	0.101	-0.333
-234.830	800.000	-0.026	-0.109
-233.815	248.786	0.057	0.095
-232.800	260.002	0.041	0.071
-231.786	-140.724	0.162	0.017
-230.771	147.048	0.155	-0.206
-229.757	72.279	0.121	-0.124
-228.742	304.615	-0.031	-0.057
-227.727	401.521	-0.266	0.550
-226.713	76.416	0.154	-0.161
-225.698	-23.109	0.125	-0.074
-224.684	800.000	0.062	0.214
-223.669	437.681	0.047	0.102
-222.655	157.852	0.165	0.226
-221.640	-15.385	0.196	-0.124
-220.625	-79.860	-0.151	0.050
-219.611	-91.355	-0.130	-0.037
-218.596	-63.286	-0.022	-0.009
-217.582	-92.822	-0.341	0.094
-216.567	-200.000	-0.027	0.262
-215.552	65.148	-0.079	-0.078
-214.538	-53.325	0.124	-0.056
-213.523	-118.980	0.371	0.064
-212.509	-70.549	0.132	-0.049
-211.494	-83.641	0.092	-0.029
-210.479	-22.836	-0.315	-0.187
-209.465	2.842	0.217	-0.155
-208.450	-57.826	-0.351	0.151
-207.436	-126.510	-0.295	0.043
-206.421	-199.611	-0.119	0.001
-205.406	17.446	0.207	-0.162
-204.392	5.682	-0.134	-0.097
-203.377	10.354	-0.312	-0.234
-202.363	17.980	-0.137	-0.108
-201.348	-200.000	-0.009	-0.063
-200.333	-21.318	0.194	0.117
-199.319	373.103	0.049	-0.098
-198.304	345.389	-0.067	0.129
-197.290	212.737	0.040	0.063
-196.275	189.183	-0.066	0.097
-195.260	124.413	0.064	0.079
-194.246	472.677	0.160	-0.356
-193.231	-24.752	-0.210	0.123
-192.217	-200.000	0.002	0.052
-191.202	-200.000	-0.034	0.201
-190.187	3.186	0.071	-0.051
-189.173	-178.042	0.345	0.008
-188.158	-58.180	-0.231	0.099
-187.144	-153.456	0.114	0.008
-186.129	0.263	0.109	0.077
-185.114	82.253	0.101	-0.108
-184.100	299.014	0.088	-0.160
-183.085	195.476	0.085	0.127
-182.071	-135.094	-0.313	0.037
-181.056	429.098	-0.035	-0.075
-180.042	-200.000	-0.006	-0.123
-179.027	-75.222	0.113	0.040
-178.012	-200.000	-0.011	0.199
-176.998	246.959	-0.055	-0.092
-175.983	-125.966	-0.299	0.044
-174.969	-200.000	0.004	0.030
-173.954	186.136	-0.166	-0.243
-172.939	800.000	0.029	-0.098
-171.925	-200.000	0.063	-0.368
-170.910	232.464	0.090	-0.146
-169.896	-64.784	-0.143	-0.057
-168.881	-43.094	0.327	0.163
-167.866	800.000	-0.114	0.416
-166.852	-63.172	-0.401	0.163
-165.837	27.403	-0.025	-0.021
-164.823	427.747	0.068	0.144
-163.808	-200.000	0.030	-0.242
-162.793	228.901	-0.037	-0.059
-161.779	-87.793	-0.182	-0.054
-160.764	-154.491	0.244	0.016
-159.750	-200.000	0.006	0.075
-158.735	-200.000	-0.044	-0.236
-157.720	-200.000	0.005	-0.232
-156.706	-200.000	0.011	-0.114
-155.691	800.000	0.032	-0.119
-154.677	60.949	-0.037	-0.036
-153.662	-62.872	-0.316	-0.129
-152.647	27.181	0.169	0.139
-151.633	-105.890	0.183	-0.041
-150.618	-154.120	-0.239	0.016
-149.604	82.738	0.286	0.305
-148.589	101.492	0.261	0.299
-147.574	-39.610	-0.231	0.119
-146.560	-128.491	0.219	0.030
-145.545	-105.032	-0.094	-0.021
-144.531	233.101	-0.028	-0.045
-143.516	-139.687	0.055	-0.006
-142.502	267.667	0.044	0.076
-141.487	-111.227	-0.413	-0.083
-140.472	-139.924	0.154	-0.016
-139.458	-17.917	-0.347	-0.214
-138.443	-93.648	-0.269	-0.073
-137.429	40.616	-0.193	-0.171
-136.414	212.275	0.046	0.072
-135.399	131.383	0.213	-0.269
-134.385	-0.106	0.132	0.092
-133.370	-200.000	0.009	0.257
-132.356	200.572	-0.279	0.422
-131.341	-112.654	0.100	0.020
-130.326	-200.000	-0.009	-0.126
-129.312	-200.000	-0.001	-0.032
-128.297	-181.947	-0.210	0.004
-127.283	-161.478	0.507	-0.026
-126.268	592.088	-0.059	0.144
-125.253	-200.000	-0.028	-0.285
-124.239	227.651	0.021	-0.034
-123.224	800.000	0.098	0.301
-122.210	-28.533	0.308	-0.174
