DTS Sentinel unit serial number:	SN413079Multiplexer serial number:	ORYXHardware model number:	OX4-SRSoftware version number:	ORYX F/W v4.00 Oryx Data Collector v3.7.2.0data status	okinstallation	princeton_trtdifferential loss correction	single-endedforward channel	channel 2reverse channel	N/Adate	2019/09/10time	16:37:11forward acquisition time	60.00reverse acquisition time	0.00gamma	496.2192k internal	0.2310k external	0.2310temperature offset calibration	0.9937default loss term (dB/km)	0.3790temperature slope calibration	1.0000multiplexer offset coefficient	1.0000multiplexer slope coefficient	1.0000fibre end	0.00T internal ref (°C)	37.87T ext. ref 1 (°C)	-0.29T ext. ref 2 (°C)	30.32length (m)	temperature (°C)	Stokes	anti-Stokes-747.200	72.442	-0.130	0.138
-746.185	-200.000	-0.008	0.061
-745.171	-200.000	0.059	-0.000
-744.156	-9.522	-0.044	0.030
-743.142	-200.000	-0.046	0.220
-742.127	220.882	0.113	0.184
-741.112	111.885	-0.205	-0.252
-740.098	757.252	-0.064	0.176
-739.083	252.846	-0.115	0.199
-738.069	71.109	-0.197	0.208
-737.054	237.789	-0.219	0.369
-736.039	-109.435	-0.042	0.009
-735.025	-200.000	-0.017	-0.084
-734.010	271.222	-0.179	-0.320
-732.996	65.786	-0.204	-0.210
-731.981	-84.323	0.406	-0.130
-730.966	135.495	-0.043	-0.057
-729.952	-200.000	0.010	-0.061
-728.937	-158.552	0.292	0.017
-727.923	53.921	-0.243	-0.238
-726.908	-91.824	-0.341	-0.098
-725.894	-170.962	0.338	-0.012
-724.879	52.886	-0.153	0.149
-723.864	800.000	0.097	0.288
-722.850	-118.511	-0.553	0.099
-721.835	775.273	0.053	0.147
-720.821	-200.000	0.017	-0.359
-719.806	535.075	-0.042	-0.101
-718.791	-200.000	-0.033	0.326
-717.777	-122.753	0.107	-0.018
-716.762	-200.000	-0.058	0.279
-715.748	-183.052	-0.220	-0.004
-714.733	260.154	-0.106	0.185
-713.718	109.820	-0.070	0.085
-712.704	-9.975	-0.121	-0.081
-711.689	-200.000	-0.007	-0.084
-710.675	-119.252	0.277	-0.049
-709.660	144.462	0.344	-0.467
-708.645	-200.000	0.050	-0.247
-707.631	87.033	0.195	0.219
-706.616	-43.624	0.076	-0.039
-705.602	10.268	0.118	-0.091
-704.587	-200.000	-0.072	0.345
-703.572	95.871	-0.162	0.188
-702.558	413.341	-0.072	0.155
-701.543	-200.000	-0.012	0.543
-700.529	-200.000	0.095	-0.494
-699.514	-200.000	0.041	-0.263
-698.499	800.000	-0.093	0.263
-697.485	800.000	0.024	-0.092
-696.470	-8.676	-0.241	0.164
-695.456	-200.000	0.015	-0.181
-694.441	197.705	0.113	0.175
-693.426	-200.000	-0.030	0.170
-692.412	-19.004	0.223	-0.141
-691.397	-22.923	-0.121	-0.074
-690.383	-200.000	0.008	-0.075
-689.368	92.918	0.040	-0.045
-688.354	741.678	-0.081	-0.221
-687.339	-108.775	0.281	0.061
-686.324	-64.225	0.058	0.024
-685.310	-159.323	-0.246	0.014
-684.295	-200.000	-0.002	-0.296
-683.281	-133.612	0.078	-0.010
-682.266	-82.135	-0.105	-0.035
-681.251	800.000	-0.037	-0.123
-680.237	800.000	-0.068	0.284
-679.222	90.567	0.161	-0.182
-678.208	-100.564	-0.201	0.050
-677.193	7.252	0.151	-0.114
-676.178	65.454	0.078	-0.080
-675.164	-111.197	-0.102	0.021
-674.149	800.000	0.100	0.435
-673.135	303.196	-0.095	0.179
-672.120	125.352	-0.081	0.104
-671.105	204.744	-0.081	0.127
-670.091	40.653	-0.179	-0.163
-669.076	-131.681	-0.201	0.027
-668.062	71.672	0.182	-0.191
-667.047	198.225	0.298	-0.462
-666.032	29.527	0.115	0.099
-665.018	1.301	-0.281	0.204
-664.003	-39.993	-0.117	-0.062
-662.989	800.000	0.050	-0.220
-661.974	33.085	0.085	-0.074
-660.959	116.459	0.065	-0.081
-659.945	-33.602	0.031	0.017
-658.930	40.553	0.078	-0.071
-657.916	-138.183	0.125	0.014
-656.901	492.817	-0.136	-0.314
-655.886	79.667	-0.215	-0.234
-654.872	-13.854	0.087	0.057
-653.857	-200.000	-0.042	0.191
-652.843	-157.652	-0.510	-0.031
-651.828	228.527	-0.048	0.079
-650.814	163.432	0.232	-0.330
-649.799	-138.722	0.072	0.008
-648.784	-200.000	0.000	-0.119
-647.770	-8.160	0.132	-0.090
-646.755	344.443	0.125	-0.248
-645.741	512.842	0.096	-0.226
-644.726	-75.089	0.099	0.036
-643.711	-200.000	-0.014	0.263
-642.697	8.660	-0.062	0.047
-641.682	-96.084	0.258	0.069
-640.668	41.148	-0.091	0.083
-639.653	-59.512	0.303	-0.132
-638.638	800.000	0.090	0.390
-637.624	71.256	-0.319	-0.334
-636.609	331.225	0.066	-0.129
-635.595	-21.624	-0.234	-0.144
-634.580	109.942	0.157	-0.191
-633.565	-111.327	-0.566	-0.117
-632.551	800.000	0.107	-0.392
-631.536	109.004	0.159	-0.192
-630.522	800.000	-0.019	0.070
-629.507	-83.314	-0.045	-0.015
-628.492	110.464	-0.071	-0.086
-627.478	-7.037	0.117	-0.080
-626.463	-131.481	-0.102	0.014
-625.449	180.320	-0.105	-0.156
-624.434	40.947	-0.072	0.066
-623.419	-54.813	-0.389	0.178
-622.405	-200.000	0.015	-0.316
-621.390	-200.000	-0.055	0.396
-620.376	-55.855	0.148	0.067
-619.361	-67.829	-0.152	0.060
-618.346	31.926	-0.187	-0.163
-617.332	-27.308	0.117	0.069
-616.317	-64.648	-0.483	-0.198
-615.303	-200.000	-0.005	-0.166
-614.288	-1.791	-0.108	0.077
-613.273	-12.113	0.356	-0.235
-612.259	-200.000	0.068	-0.365
-611.244	-54.097	-0.414	-0.190
-610.230	-87.780	0.364	0.111
-609.215	210.950	0.213	-0.338
-608.201	800.000	-0.088	0.292
-607.186	689.916	-0.107	0.282
-606.171	194.346	0.054	0.083
-605.157	16.719	0.190	-0.151
-604.142	-186.503	0.286	-0.004
-603.128	61.170	0.190	-0.190
-602.113	132.400	-0.038	-0.050
-601.098	-80.054	-0.081	-0.028
-600.084	-200.000	-0.053	0.254
-599.069	-200.000	0.039	0.185
-598.055	237.710	0.251	-0.420
-597.040	-68.706	-0.163	0.064
-596.025	7.413	-0.207	-0.157
-595.011	173.168	0.082	0.119
-593.996	267.596	0.086	-0.153
-592.982	-20.116	-0.127	0.079
-591.967	-80.069	0.182	0.062
-590.952	418.719	-0.102	0.221
-589.938	-6.550	-0.212	0.146
-588.923	196.129	-0.200	0.308
-587.909	-200.000	0.047	-0.304
-586.894	381.204	0.051	0.105
-585.879	20.687	-0.220	0.179
-584.865	-200.000	0.002	-0.069
-583.850	713.869	0.148	0.397
-582.836	24.006	0.073	0.060
-581.821	-139.597	-0.407	0.044
-580.806	365.566	-0.204	0.415
-579.792	-46.620	-0.105	0.052
-578.777	-26.430	-0.155	-0.092
-577.763	-53.690	0.295	-0.136
-576.748	301.941	0.041	0.077
-575.733	141.967	0.056	0.075
-574.719	132.367	0.340	0.443
-573.704	345.076	0.079	0.157
-572.690	-30.394	0.129	-0.074
-571.675	-36.136	-0.198	0.108
-570.661	-126.041	0.464	-0.070
-569.646	-197.664	-0.269	0.002
-568.631	504.797	-0.061	-0.144
-567.617	42.625	0.025	0.023
-566.602	85.212	-0.055	-0.061
-565.588	-123.414	0.385	-0.062
-564.573	632.742	0.154	-0.393
-563.558	259.277	0.064	0.111
-562.544	110.668	0.196	0.238
-561.529	36.680	-0.158	-0.140
-560.515	-2.758	0.246	-0.174
-559.500	800.000	-0.026	0.112
-558.485	-200.000	-0.027	0.220
-557.471	373.794	-0.010	0.020
-556.456	112.834	-0.204	0.249
-555.442	-56.288	0.058	0.026
-554.427	-200.000	0.032	-0.247
-553.412	113.629	-0.106	0.130
-552.398	-38.759	-0.350	0.186
-551.383	-200.000	0.013	-0.068
-550.369	58.583	-0.262	0.259
-549.354	574.321	-0.051	-0.125
-548.339	9.220	0.137	-0.105
-547.325	800.000	0.113	-0.387
-546.310	-40.665	0.166	0.087
-545.296	-181.781	0.362	0.007
-544.281	-200.000	-0.028	0.134
-543.266	62.678	-0.102	0.103
-542.252	-96.172	0.262	-0.070
-541.237	334.869	0.059	0.115
-540.223	302.069	0.069	-0.128
-539.208	-70.227	0.291	0.112
-538.193	-154.960	0.140	-0.009
-537.179	5.476	0.248	0.185
-536.164	388.005	-0.238	-0.496
-535.150	313.450	-0.044	0.084
-534.135	177.442	-0.060	0.087
-533.121	63.143	0.075	-0.076
-532.106	-200.000	-0.071	0.339
-531.091	342.264	-0.071	-0.140
-530.077	5.694	-0.112	0.083
-529.062	458.450	-0.167	-0.374
-528.048	-200.000	0.008	-0.053
-527.033	-187.808	0.205	0.003
-526.018	159.870	-0.227	0.318
-525.004	-23.940	0.128	-0.077
-523.989	628.419	0.116	-0.296
-522.975	69.190	0.203	-0.211
-521.960	10.970	0.095	0.073
-520.945	47.534	0.097	0.091
-519.931	790.912	-0.057	-0.158
-518.916	-88.640	0.344	-0.103
-517.902	323.741	-0.065	0.126
-516.887	-134.231	-0.202	0.025
-515.872	375.494	0.140	-0.288
-514.858	743.233	0.036	0.099
-513.843	-135.985	-0.344	-0.041
-512.829	44.512	-0.041	0.038
-511.814	-200.000	0.041	-0.189
-510.799	-200.000	-0.039	-0.172
-509.785	-27.877	0.253	-0.147
-508.770	800.000	0.086	-0.310
-507.756	-200.000	-0.012	-0.326
-506.741	89.244	0.182	0.204
-505.726	-200.000	0.028	0.266
-504.712	27.525	0.116	0.098
-503.697	-15.658	-0.286	-0.183
-502.683	800.000	-0.046	-0.197
-501.668	800.000	0.077	0.225
-500.653	-9.439	-0.329	-0.221
-499.639	-17.610	0.452	-0.286
-498.624	-20.964	-0.145	0.089
-497.610	-177.602	-0.076	-0.002
-496.595	-89.205	-0.076	0.023
-495.581	-127.461	-0.098	0.014
-494.566	-116.896	0.244	0.045
-493.551	-200.000	0.061	-0.376
-492.537	800.000	-0.082	0.316
-491.522	138.754	-0.066	0.087
-490.508	800.000	0.048	0.199
-489.493	-76.530	0.527	-0.186
-488.478	-72.152	-0.225	-0.084
-487.464	-72.112	-0.339	0.127
-486.449	515.672	-0.048	-0.113
-485.435	-200.000	-0.050	-0.360
-484.420	-107.287	-0.158	0.035
-483.405	178.177	0.278	-0.408
-482.391	138.665	-0.069	0.091
-481.376	-200.000	-0.041	0.287
-480.362	262.086	0.192	0.334
-479.347	-138.897	-0.467	-0.051
-478.332	800.000	0.083	0.232
-477.318	-152.087	-0.135	-0.010
-476.303	117.892	-0.048	-0.059
-475.289	-162.792	-0.013	0.001
-474.274	102.374	0.089	-0.104
-473.259	282.176	-0.027	-0.048
-472.245	800.000	-0.085	0.269
-471.230	-200.000	-0.007	0.175
-470.216	31.976	0.240	0.208
-469.201	10.220	0.280	0.214
-468.186	86.322	-0.188	0.209
-467.172	-30.996	-0.114	0.065
-466.157	319.287	0.097	0.185
-465.143	-98.914	-0.438	0.112
-464.128	-35.720	0.180	0.098
-463.113	9.494	-0.052	0.039
-462.099	-200.000	-0.019	-0.116
-461.084	5.478	-0.145	-0.107
-460.070	-117.571	0.189	0.034
-459.055	-78.650	-0.230	-0.079
-458.040	95.990	-0.038	-0.044
-457.026	-200.000	-0.003	-0.027
-456.011	-129.647	-0.232	0.032
-454.997	151.585	-0.042	0.058
-453.982	-100.135	-0.353	0.088
-452.968	120.285	0.130	0.162
-451.953	-55.976	0.223	0.100
-450.938	800.000	0.076	0.259
-449.924	-87.216	0.169	0.051
-448.909	-56.729	0.213	0.095
-447.895	264.509	-0.052	0.091
-446.880	244.390	-0.241	-0.406
-445.865	220.881	-0.148	-0.238
-444.851	96.782	-0.146	0.168
-443.836	166.833	-0.091	-0.129
-442.822	8.607	-0.254	-0.192
-441.807	10.041	-0.125	-0.095
-440.792	-55.545	0.102	-0.046
-439.778	281.403	-0.083	0.149
-438.763	-200.000	0.023	0.136
-437.749	145.326	0.272	0.366
-436.734	36.601	0.156	0.138
-435.719	-26.911	-0.230	-0.135
-434.705	195.902	-0.042	0.064
-433.690	41.341	0.035	0.032
-432.676	-200.000	-0.038	0.193
-431.661	-31.660	-0.283	-0.160
-430.646	-106.286	-0.297	-0.067
-429.632	-200.000	-0.037	0.280
-428.617	-68.927	-0.122	0.047
-427.603	-153.683	-0.229	-0.016
-426.588	438.829	-0.072	-0.158
-425.573	42.086	-0.337	-0.307
-424.559	-83.310	0.212	-0.068
-423.544	-149.495	0.087	-0.007
-422.530	-136.515	-0.073	-0.009
-421.515	277.492	0.042	-0.075
-420.500	-200.000	-0.068	0.432
-419.486	800.000	-0.108	-0.407
-418.471	-25.044	-0.250	0.149
-417.457	-200.000	0.015	-0.279
-416.442	162.815	-0.270	-0.380
-415.428	-138.787	0.118	0.013
-414.413	356.750	-0.085	0.169
-413.398	200.530	-0.262	0.404
-412.384	66.628	-0.148	0.151
-411.369	140.653	-0.192	-0.255
-410.355	-181.283	0.295	0.006
-409.340	59.854	0.195	-0.193
-408.325	171.831	0.165	-0.237
-407.311	175.307	-0.018	0.026
-406.296	-133.317	0.295	0.037
-405.282	99.661	0.205	-0.238
-404.267	-10.435	0.146	-0.097
-403.252	5.055	0.183	0.135
-402.238	-9.543	0.297	-0.199
-401.223	-59.089	-0.109	0.047
-400.209	27.155	0.190	-0.160
-399.194	484.571	0.080	0.182
-398.179	301.348	0.176	0.327
-397.165	213.281	-0.190	0.300
-396.150	100.344	0.250	0.290
-395.136	-200.000	0.010	0.051
-394.121	-6.212	0.161	-0.110
-393.106	-200.000	-0.078	0.000
-392.092	-140.108	0.181	0.019
-391.077	-106.633	0.210	0.047
-390.063	-200.000	0.007	0.151
-389.048	-121.131	-0.114	0.019
-388.033	-200.000	-0.029	0.366
-387.019	199.707	0.077	0.118
-386.004	-200.000	-0.033	0.147
-384.990	80.362	-0.189	-0.204
-383.975	800.000	0.083	0.251
-382.960	-200.000	0.051	-0.281
-381.946	-66.024	-0.349	-0.139
-380.931	26.542	-0.434	-0.363
-379.917	378.841	0.101	-0.207
-378.902	800.000	-0.052	0.190
-377.888	-58.362	0.186	-0.081
-376.873	46.095	-0.274	0.254
-375.858	5.580	0.199	-0.147
-374.844	-17.078	0.087	-0.055
-373.829	-200.000	0.055	0.556
-372.815	290.890	-0.235	0.428
-371.800	28.420	0.015	0.013
-370.785	-71.014	0.249	-0.094
-369.771	99.525	0.218	-0.252
-368.756	177.804	-0.052	0.075
-367.742	-200.000	-0.032	0.185
-366.727	-123.286	0.292	-0.047
-365.712	800.000	0.030	-0.087
-364.698	36.457	0.346	-0.306
-363.683	-87.774	0.014	-0.004
-362.669	467.587	0.077	-0.173
-361.654	41.584	0.256	0.232
-360.639	159.175	0.156	-0.217
-359.625	447.137	-0.010	-0.023
-358.610	423.620	0.055	-0.118
-357.596	800.000	0.048	-0.141
-356.581	-41.776	0.153	-0.078
-355.566	-141.404	-0.188	-0.019
-354.552	-147.492	0.130	0.011
-353.537	41.149	0.264	-0.238
-352.523	-20.146	-0.126	0.077
-351.508	-86.969	0.231	-0.071
-350.493	-5.219	0.172	-0.118
-349.479	16.893	0.067	0.053
-348.464	-88.276	0.241	0.072
-347.450	-200.000	0.047	0.231
-346.435	-172.974	-0.188	0.006
-345.420	800.000	0.035	-0.118
-344.406	-22.402	0.147	-0.089
-343.391	148.992	0.243	0.329
-342.377	-200.000	0.015	0.114
-341.362	-16.323	-0.336	0.213
-340.348	224.182	0.045	0.073
-339.333	-103.969	-0.154	0.036
-338.318	-114.368	-0.184	0.035
-337.304	800.000	-0.110	0.316
-336.289	-200.000	-0.018	0.162
-335.275	-25.402	-0.208	0.123
-334.260	-115.996	0.063	-0.012
-333.245	138.077	0.232	-0.304
-332.231	-57.572	0.051	-0.022
-331.216	-67.590	-0.213	0.083
-330.202	-4.471	-0.236	0.163
-329.187	158.478	0.078	0.108
-328.172	-200.000	0.026	-0.134
-327.158	296.659	-0.087	0.159
-326.143	-200.000	-0.026	0.199
-325.129	-200.000	0.016	-0.167
-324.114	205.224	0.199	-0.308
-323.099	800.000	0.052	0.209
-322.085	48.994	-0.100	0.094
-321.070	413.483	-0.068	0.144
-320.056	47.099	-0.174	0.162
-319.041	-8.288	0.255	-0.171
-318.026	800.000	-0.040	-0.156
-317.012	-41.917	0.316	-0.162
-315.997	-187.123	0.045	0.001
-314.983	-200.000	-0.050	-0.335
-313.968	259.805	0.054	0.094
-312.953	143.725	-0.291	0.387
-311.939	56.270	0.151	-0.146
-310.924	-61.928	-0.171	-0.071
-309.910	800.000	-0.068	-0.241
-308.895	-200.000	-0.040	-0.192
-307.880	-56.336	-0.126	0.056
-306.866	-200.000	0.016	-0.213
-305.851	-93.529	-0.020	-0.006
-304.837	-200.000	0.037	-0.215
-303.822	-32.107	-0.289	-0.162
-302.807	-183.736	-0.109	-0.002
-301.793	-200.000	-0.001	-0.040
-300.778	165.690	0.124	0.175
-299.764	-200.000	-0.017	-0.340
-298.749	-200.000	-0.045	-0.323
-297.735	-200.000	-0.003	0.234
-296.720	407.183	-0.026	0.055
-295.705	0.816	0.391	0.280
-294.691	59.087	-0.366	0.359
-293.676	800.000	-0.071	0.202
-292.662	800.000	0.030	0.093
-291.647	-184.475	0.057	0.001
-290.632	83.492	0.352	-0.383
-289.618	25.920	-0.063	0.053
-288.603	-200.000	-0.070	0.326
-287.589	117.290	-0.111	0.136
-286.574	-27.649	0.257	-0.149
-285.559	116.305	-0.115	0.140
-284.545	602.015	0.119	0.295
-283.530	235.826	-0.203	0.335
-282.516	327.553	0.134	-0.256
-281.501	361.142	0.146	0.291
-280.486	84.946	-0.057	-0.062
-279.472	80.406	0.278	-0.299
-278.457	-101.402	0.279	-0.068
-277.443	-161.665	-0.187	0.010
-276.428	-200.000	0.032	0.272
-275.413	-62.466	-0.171	0.071
-274.399	-147.249	-0.104	-0.009
-273.384	-200.000	0.059	0.284
-272.370	325.829	0.184	-0.352
-271.355	355.316	0.012	-0.025
-270.340	-200.000	-0.015	0.080
-269.326	190.607	-0.119	0.178
-268.311	-94.585	-0.057	-0.015
-267.297	-87.474	0.156	0.047
-266.282	-200.000	-0.031	-0.216
-265.267	375.018	-0.129	0.262
-264.253	34.976	-0.180	-0.157
-263.238	800.000	-0.012	0.048
-262.224	-153.070	0.172	0.012
-261.209	37.387	-0.115	-0.101
-260.195	-200.000	-0.023	0.222
-259.180	-2.725	-0.274	-0.191
-258.165	141.810	0.099	0.130
-257.151	-200.000	0.037	0.307
-256.136	-87.578	0.081	-0.024
-255.122	-200.000	0.051	0.307
-254.107	-200.000	-0.006	0.142
-253.092	57.445	-0.084	-0.081
-252.078	118.039	0.281	-0.345
-251.063	-106.668	-0.468	-0.104
-250.049	-130.675	0.173	-0.023
-249.034	800.000	0.035	-0.118
-248.019	349.386	-0.031	0.061
-247.005	82.871	-0.081	0.088
-245.990	-20.773	0.162	0.099
-244.976	-48.423	0.152	0.073
-243.961	-77.888	-0.089	0.030
-242.946	800.000	-0.087	-0.247
-241.932	-118.133	-0.286	-0.051
-240.917	187.082	-0.122	0.182
-239.903	108.713	-0.072	0.086
-238.888	-127.359	0.053	-0.008
-237.873	-108.391	-0.277	-0.059
-236.859	-41.281	-0.108	0.056
-235.844	-26.986	0.250	-0.145
-234.830	96.475	0.099	0.113
-233.815	672.640	-0.110	-0.283
-232.800	81.339	0.265	-0.285
-231.786	92.278	-0.206	-0.232
-230.771	-108.604	0.370	-0.079
-229.757	0.487	-0.196	-0.139
-228.742	212.248	0.061	-0.096
-227.727	3.869	0.147	0.107
-226.713	1.441	-0.221	-0.158
-225.698	24.769	-0.113	-0.093
-224.684	305.612	0.080	0.148
-223.669	-84.402	-0.310	0.098
-222.655	-187.662	0.239	0.003
-221.640	-31.183	0.271	0.152
-220.625	-27.983	0.403	-0.232
-219.611	800.000	0.069	-0.257
-218.596	180.997	-0.108	0.158
-217.582	-126.441	-0.320	-0.047
-216.567	-200.000	-0.003	0.045
-215.552	800.000	0.030	0.128
-214.538	-83.664	0.173	0.055
-213.523	-36.838	-0.279	-0.149
-212.509	-200.000	0.038	-0.283
-211.494	-200.000	0.017	-0.175
-210.479	293.246	-0.136	0.247
-209.465	37.377	-0.118	0.104
-208.450	800.000	-0.023	-0.070
-207.436	-159.026	-0.330	-0.019
-206.421	94.586	-0.120	0.135
-205.406	-200.000	0.026	0.201
-204.392	-64.405	0.179	-0.072
-203.377	800.000	0.031	0.090
-202.363	800.000	0.084	-0.301
-201.348	-33.471	0.133	-0.073
-200.333	194.343	0.216	-0.326
-199.319	-157.233	-0.198	-0.012
-198.304	113.766	0.155	0.188
-197.290	-177.925	0.116	-0.003
-196.275	53.353	0.124	-0.118
-195.260	443.710	-0.077	0.169
-194.246	800.000	-0.017	0.049
-193.231	-200.000	0.018	0.330
-192.217	-200.000	-0.059	0.273
-191.202	-200.000	-0.061	0.297
-190.187	133.836	-0.043	0.055
-189.173	204.120	0.052	0.080
-188.158	207.595	0.180	-0.279
-187.144	800.000	-0.006	-0.019
-186.129	-143.545	-0.216	-0.020
-185.114	25.178	0.171	-0.141
-184.100	733.208	0.028	0.074
-183.085	-139.916	0.194	-0.020
-182.071	39.557	0.046	0.041
-181.056	182.638	-0.138	0.203
-180.042	-30.100	-0.493	-0.279
-179.027	624.314	-0.129	0.323
-178.012	524.317	-0.111	0.260
-176.998	-200.000	-0.002	0.234
-175.983	372.901	0.120	-0.243
-174.969	139.496	-0.137	-0.179
-173.954	800.000	-0.035	0.128
-172.939	-37.337	-0.378	-0.201
-171.925	-159.467	0.218	0.012
-170.910	800.000	-0.032	0.103
-169.896	-25.400	-0.285	-0.168
-168.881	-200.000	-0.008	-0.253
-167.866	-14.262	0.294	0.188
-166.852	-90.171	0.241	-0.070
-165.837	443.667	-0.153	-0.333
-164.823	800.000	-0.089	-0.385
-163.808	67.151	-0.168	-0.170
-162.793	-87.658	0.087	0.026
-161.779	-59.669	-0.155	0.066
-160.764	317.385	-0.055	-0.104
-159.750	-200.000	0.020	0.243
-158.735	11.294	-0.134	-0.101
-157.720	8.662	-0.131	0.098
-156.706	36.042	0.248	-0.217
-155.691	-118.101	0.290	0.051
-154.677	92.556	-0.153	0.172
-153.662	115.326	-0.147	-0.178
-152.647	-145.889	0.203	-0.018
-151.633	-82.818	-0.178	-0.057
-150.618	32.288	0.074	0.064
-149.604	28.929	-0.207	-0.174
-148.589	-29.246	0.229	-0.130
-147.574	-139.831	-0.161	0.017
-146.560	-132.502	-0.200	-0.026
-145.545	-44.368	-0.109	0.054
-144.531	176.054	-0.084	-0.122
-143.516	-59.624	-0.309	-0.131
-142.502	29.912	-0.244	-0.206
-141.487	770.700	0.050	-0.134
-140.472	67.233	-0.126	-0.127
-139.458	-41.655	0.219	0.111
-138.443	40.759	0.157	-0.141
-137.429	91.340	0.254	0.283
-136.414	-200.000	-0.011	-0.199
-135.399	-200.000	-0.027	-0.172
-134.385	80.590	-0.149	0.159
-133.370	231.038	0.204	0.332
-132.356	578.481	0.130	0.315
-131.341	-200.000	0.017	0.229
-130.326	800.000	0.048	-0.180
-129.312	-67.327	0.264	-0.103
-128.297	-43.016	0.069	-0.035
-127.283	-35.721	0.108	0.058
-126.268	4.595	-0.269	0.196
-125.253	119.651	-0.138	-0.170
-124.239	-79.912	0.205	-0.068
-123.224	64.137	0.138	-0.138
-122.210	-94.626	-0.245	-0.066
-121.195	-51.572	-0.042	-0.020
-120.180	186.662	-0.069	0.101
