DTS Sentinel unit serial number:	SN413079Multiplexer serial number:	ORYXHardware model number:	OX4-SRSoftware version number:	ORYX F/W v4.00 Oryx Data Collector v3.7.2.0data status	okinstallation	princeton_trtdifferential loss correction	single-endedforward channel	channel 2reverse channel	N/Adate	2019/09/14time	16:15:35forward acquisition time	60.00reverse acquisition time	0.00gamma	496.2192k internal	0.2307k external	0.2307temperature offset calibration	1.0133default loss term (dB/km)	0.3790temperature slope calibration	1.0000multiplexer offset coefficient	1.0000multiplexer slope coefficient	1.0000fibre end	0.00T internal ref (°C)	38.25T ext. ref 1 (°C)	5.08T ext. ref 2 (°C)	32.86length (m)	temperature (°C)	Stokes	anti-Stokes-747.200	800.000	-0.040	-0.119
-746.185	-200.000	-0.015	0.526
-745.171	800.000	-0.038	0.161
-744.156	0.709	0.153	-0.112
-743.142	-200.000	0.026	-0.213
-742.127	339.608	-0.158	0.313
-741.112	17.984	-0.322	-0.261
-740.098	62.707	-0.105	0.106
-739.083	296.068	-0.215	0.401
-738.069	-57.591	0.129	0.057
-737.054	189.927	0.111	-0.170
-736.039	199.072	-0.258	-0.401
-735.025	-80.014	0.396	-0.135
-734.010	-133.571	-0.335	0.043
-732.996	19.113	-0.261	-0.213
-731.981	-92.037	-0.179	0.051
-730.966	-200.000	-0.001	0.087
-729.952	40.276	0.127	-0.116
-728.937	-110.614	0.048	-0.010
-727.923	-14.582	-0.027	0.017
-726.908	0.247	-0.175	-0.127
-725.894	-200.000	-0.026	0.461
-724.879	-84.050	-0.141	0.045
-723.864	-200.000	0.032	0.179
-722.850	800.000	0.060	-0.205
-721.835	280.145	0.073	-0.133
-720.821	-39.644	0.207	0.110
-719.806	146.020	-0.089	-0.121
-718.791	158.320	-0.060	0.085
-717.777	-200.000	-0.041	0.300
-716.762	21.827	0.158	0.131
-715.748	-200.000	0.033	-0.203
-714.733	-72.716	-0.324	0.121
-713.718	-200.000	-0.036	0.272
-712.704	-200.000	-0.090	0.450
-711.689	-87.801	0.344	0.105
-710.675	-200.000	-0.013	-0.073
-709.660	27.676	-0.065	-0.055
-708.645	353.182	0.084	-0.169
-707.631	-39.724	-0.135	0.072
-706.616	-146.261	-0.229	0.020
-705.602	-200.000	-0.043	0.312
-704.587	34.128	0.201	-0.178
-703.572	120.283	0.045	-0.056
-702.558	-9.772	-0.279	0.189
-701.543	357.492	-0.095	0.192
-700.529	60.968	-0.201	-0.203
-699.514	-200.000	0.009	0.216
-698.499	-200.000	0.008	0.042
-697.485	23.393	0.070	0.059
-696.470	106.566	0.137	0.165
-695.456	-80.228	0.096	0.033
-694.441	29.744	0.060	0.052
-693.426	-128.900	-0.113	0.016
-692.412	800.000	0.075	-0.213
-691.397	2.094	0.265	0.194
-690.383	-200.000	0.054	-0.406
-689.368	-200.000	-0.042	-0.329
-688.354	800.000	0.006	0.017
-687.339	-200.000	0.010	0.149
-686.324	255.188	0.071	0.123
-685.310	-96.653	0.208	0.056
-684.295	-154.637	0.129	0.009
-683.281	42.775	0.033	0.030
-682.266	-58.523	-0.102	-0.045
-681.251	-102.201	0.473	0.115
-680.237	-200.000	-0.011	-0.103
-679.222	-200.000	0.072	0.335
-678.208	-9.794	0.124	0.083
-677.193	800.000	0.003	0.007
-676.178	800.000	-0.046	0.131
-675.164	-76.154	0.258	0.092
-674.149	55.258	0.071	-0.069
-673.135	560.954	0.032	0.077
-672.120	-76.712	-0.018	-0.007
-671.105	43.895	-0.180	0.167
-670.091	-6.437	-0.122	0.084
-669.076	48.534	0.206	-0.196
-668.062	800.000	0.060	0.183
-667.047	-173.677	-0.316	-0.010
-666.032	-4.273	-0.129	-0.090
-665.018	100.360	0.242	0.284
-664.003	-200.000	0.072	-0.354
-662.989	-200.000	-0.027	-0.395
-661.974	-21.362	0.310	-0.192
-660.959	371.607	-0.175	-0.360
-659.945	-43.251	-0.230	-0.118
-658.930	-92.849	-0.229	-0.065
-657.916	-92.638	-0.208	0.059
-656.901	-200.000	0.040	0.325
-655.886	624.586	-0.130	-0.331
-654.872	283.148	-0.204	-0.371
-653.857	43.388	0.209	0.194
-652.843	-200.000	0.015	0.071
-651.828	-67.478	0.173	-0.069
-650.814	-8.319	0.306	-0.208
-649.799	119.114	0.034	0.043
-648.784	23.225	-0.198	0.165
-647.770	313.325	-0.050	0.095
-646.755	800.000	-0.120	0.441
-645.741	55.421	0.140	0.137
-644.726	800.000	-0.012	-0.053
-643.711	164.545	-0.062	-0.088
-642.697	38.593	0.214	-0.193
-641.682	-68.244	-0.233	0.092
-640.668	-31.325	-0.286	-0.163
-639.653	-200.000	0.030	-0.190
-638.638	27.094	-0.179	0.152
-637.624	178.550	-0.098	0.145
-636.609	-42.807	-0.180	-0.092
-635.595	-87.479	-0.070	0.021
-634.580	58.758	-0.121	0.121
-633.565	-36.249	-0.362	-0.198
-632.551	160.041	0.168	-0.238
-631.536	62.969	0.069	0.070
-630.522	238.117	-0.016	0.027
-629.507	321.617	0.064	0.124
-628.492	22.096	0.165	0.136
-627.478	137.019	0.123	-0.162
-626.463	-120.670	-0.226	-0.039
-625.449	-62.148	0.238	-0.101
-624.434	135.166	0.181	-0.238
-623.419	353.131	-0.160	-0.321
-622.405	243.678	-0.101	-0.171
-621.390	747.618	0.051	-0.138
-620.376	-90.196	-0.250	0.074
-619.361	-20.534	-0.127	0.079
-618.346	-200.000	-0.002	-0.139
-617.332	-176.003	-0.173	-0.005
-616.317	-200.000	-0.020	0.221
-615.303	-200.000	-0.057	0.255
-614.288	-79.887	-0.116	-0.040
-613.273	-113.342	0.207	-0.041
-612.259	-104.078	-0.086	-0.020
-611.244	-127.798	-0.247	-0.036
-610.230	87.595	0.058	0.065
-609.215	800.000	-0.058	-0.166
-608.201	19.531	-0.140	-0.114
-607.186	54.825	-0.115	0.113
-606.171	102.321	0.220	0.260
-605.157	800.000	0.046	-0.143
-604.142	-21.505	0.142	0.087
-603.128	-126.227	0.162	0.024
-602.113	-200.000	-0.008	0.070
-601.098	-200.000	0.042	-0.201
-600.084	-43.094	-0.299	0.153
-599.069	-125.845	0.192	0.029
-598.055	-160.157	-0.155	0.009
-597.040	-168.583	-0.217	-0.008
-596.025	64.050	-0.166	-0.168
-595.011	-70.093	-0.193	0.074
-593.996	-90.495	-0.155	-0.045
-592.982	-57.576	-0.144	-0.064
-591.967	373.269	0.065	0.133
-590.952	-180.150	0.120	-0.003
-589.938	158.641	0.361	-0.507
-588.923	100.067	-0.351	-0.411
-587.909	-200.000	-0.038	-0.194
-586.894	800.000	-0.054	-0.175
-585.879	-200.000	0.008	0.126
-584.865	72.700	0.095	-0.100
-583.850	-9.510	-0.166	0.112
-582.836	-59.855	-0.403	0.174
-581.821	-183.741	0.263	0.005
-580.806	54.694	0.210	-0.205
-579.792	100.698	-0.147	-0.173
-578.777	2.546	0.131	0.096
-577.763	-29.993	0.196	-0.113
-576.748	359.322	0.039	-0.079
-575.733	46.300	0.304	0.285
-574.719	409.029	-0.012	-0.026
-573.704	-183.462	0.114	0.002
-572.690	-70.938	0.258	0.098
-571.675	-200.000	0.028	0.127
-570.661	-200.000	0.045	-0.232
-569.646	-156.694	-0.149	-0.009
-568.631	32.717	-0.194	0.170
-567.617	216.008	-0.124	0.199
-566.602	-62.476	-0.171	-0.072
-565.588	-200.000	-0.033	-0.258
-564.573	-88.442	0.124	0.037
-563.558	20.200	0.078	0.064
-562.544	-60.319	-0.184	0.079
-561.529	-146.365	0.043	-0.004
-560.515	300.267	-0.053	0.098
-559.500	-19.883	0.248	-0.155
-558.485	800.000	0.023	-0.099
-557.471	20.781	0.117	-0.095
-556.456	126.915	0.272	0.349
-555.442	-57.064	-0.083	-0.037
-554.427	-84.990	0.463	0.146
-553.412	336.802	0.111	-0.218
-552.398	-137.223	-0.399	0.046
-551.383	-200.000	-0.000	0.141
-550.369	168.349	-0.103	0.148
-549.354	800.000	0.088	0.376
-548.339	630.937	0.116	0.297
-547.325	-106.560	0.143	0.032
-546.310	-109.966	0.267	0.056
-545.296	-74.945	0.471	0.170
-544.281	-161.164	0.247	0.013
-543.266	-200.000	-0.012	-0.135
-542.252	35.114	0.205	0.181
-541.237	-19.623	-0.244	-0.152
-540.223	223.663	0.208	0.338
-539.208	30.016	0.169	0.146
-538.193	-85.321	0.363	0.114
-537.179	-158.818	-0.163	0.009
-536.164	-38.393	-0.013	-0.007
-535.150	-29.523	-0.205	0.118
-534.135	63.000	-0.349	-0.352
-533.121	-114.107	-0.321	-0.063
-532.106	800.000	-0.067	-0.282
-531.091	24.059	-0.145	-0.121
-530.077	222.531	-0.144	0.234
-529.062	113.965	0.091	0.112
-528.048	-200.000	-0.003	0.217
-527.033	-56.188	0.245	-0.110
-526.018	-171.510	-0.189	0.006
-525.004	-200.000	-0.039	0.196
-523.989	-200.000	-0.009	-0.046
-522.975	322.304	0.090	0.173
-521.960	800.000	0.086	0.257
-520.945	800.000	0.105	0.305
-519.931	497.576	-0.085	-0.198
-518.916	-200.000	-0.013	0.123
-517.902	-121.309	-0.395	-0.066
-516.887	-150.621	-0.128	0.010
-515.872	-50.773	-0.169	-0.080
-514.858	800.000	0.113	-0.380
-513.843	-200.000	-0.017	0.175
-512.829	41.974	-0.206	0.189
-511.814	-104.955	0.265	-0.061
-510.799	58.516	0.155	-0.153
-509.785	-2.256	0.072	0.051
-508.770	16.069	0.304	0.241
-507.756	17.648	0.247	-0.198
-506.741	-0.201	0.210	-0.151
-505.726	-5.611	-0.178	0.123
-504.712	655.405	-0.048	0.124
-503.697	282.466	-0.110	-0.198
-502.683	-106.390	0.021	0.005
-501.668	-24.150	-0.289	-0.174
-500.653	-58.925	-0.346	0.150
-499.639	-200.000	-0.034	-0.191
-498.624	-81.468	0.145	-0.048
-497.610	2.992	-0.226	-0.165
-496.595	800.000	-0.041	0.134
-495.581	-54.224	-0.212	-0.097
-494.566	14.841	0.251	-0.198
-493.551	-113.965	-0.142	-0.028
-492.537	139.282	0.114	0.151
-491.522	800.000	-0.033	-0.122
-490.508	3.248	-0.162	-0.119
-489.493	124.214	0.137	-0.173
-488.478	492.775	0.189	-0.435
-487.464	79.132	-0.086	0.093
-486.449	58.283	0.289	-0.285
-485.435	295.042	-0.111	0.204
-484.420	-89.927	0.142	0.042
-483.405	-200.000	0.034	-0.393
-482.391	86.524	0.071	0.078
-481.376	-200.000	0.051	0.291
-480.362	-200.000	-0.078	-0.394
-479.347	-38.165	-0.194	0.104
-478.332	-176.043	-0.209	0.006
-477.318	-200.000	-0.086	-0.599
-476.303	2.719	-0.147	0.107
-475.289	-200.000	-0.021	0.238
-474.274	-63.211	-0.168	-0.069
-473.259	-91.447	0.175	0.050
-472.245	51.556	-0.140	0.134
-471.230	-200.000	0.087	0.523
-470.216	-122.862	0.222	0.036
-469.201	-200.000	0.060	-0.329
-468.186	-67.689	0.287	0.113
-467.172	-119.415	-0.178	-0.031
-466.157	-111.167	0.161	0.033
-465.143	422.351	-0.128	-0.276
-464.128	-145.534	-0.298	-0.027
-463.113	90.705	-0.055	0.062
-462.099	340.169	0.128	0.251
-461.084	800.000	-0.076	-0.234
-460.070	-84.854	-0.375	0.118
-459.055	-70.381	0.346	-0.132
-458.040	-99.809	0.130	0.033
-457.026	-108.480	-0.218	0.047
-456.011	-90.992	0.077	0.022
-454.997	-113.540	0.297	-0.058
-453.982	-13.576	-0.211	0.137
-452.968	774.865	0.021	-0.058
-451.953	130.468	-0.157	-0.202
-450.938	-111.019	0.329	-0.068
-449.924	120.615	-0.112	0.140
-448.909	-118.503	0.169	0.030
-447.895	-200.000	0.038	0.242
-446.880	83.331	0.107	0.117
-445.865	-58.696	0.210	0.092
-444.851	455.458	-0.117	-0.261
-443.836	800.000	-0.114	-0.392
-442.822	-200.000	0.060	0.355
-441.807	800.000	0.018	0.050
-440.792	800.000	-0.016	0.055
-439.778	800.000	0.081	-0.239
-438.763	157.136	0.143	-0.199
-437.749	497.855	0.084	0.194
-436.734	-45.957	0.200	-0.099
-435.719	36.497	-0.194	0.172
-434.705	-141.644	-0.182	-0.018
-433.690	-61.465	0.138	0.058
-432.676	80.089	-0.306	0.331
-431.661	40.321	-0.017	0.016
-430.646	179.416	-0.173	0.254
-429.632	-200.000	0.017	0.300
-428.617	19.476	-0.298	-0.241
-427.603	167.005	-0.057	-0.081
-426.588	-144.783	0.063	-0.006
-425.573	-200.000	-0.032	0.217
-424.559	260.569	-0.145	-0.252
-423.544	477.948	0.066	0.151
-422.530	-172.643	0.245	-0.008
-421.515	-200.000	0.000	0.043
-420.500	-6.142	0.171	0.117
-419.486	-4.938	-0.204	0.141
-418.471	17.495	-0.245	0.195
-417.457	-200.000	-0.011	0.058
-416.442	-200.000	-0.015	-0.110
-415.428	-200.000	-0.018	-0.094
-414.413	-80.055	-0.197	-0.066
-413.398	-200.000	0.016	0.212
-412.384	43.906	0.177	-0.163
-411.369	-111.181	0.006	0.001
-410.355	17.969	-0.090	0.072
-409.340	539.437	-0.036	0.087
-408.325	126.376	-0.171	-0.218
-407.311	280.134	-0.210	-0.377
-406.296	-81.500	0.104	-0.034
-405.282	-85.149	0.309	-0.097
-404.267	-124.235	-0.460	0.072
-403.252	-107.180	-0.070	-0.016
-402.238	21.030	0.281	0.228
-401.223	766.877	0.083	-0.227
-400.209	-118.937	0.141	0.025
-399.194	18.030	0.082	-0.065
-398.179	-200.000	-0.001	-0.198
-397.165	-114.526	-0.213	-0.041
-396.150	-111.432	0.318	0.065
-395.136	-76.237	0.118	0.042
-394.121	5.423	0.089	-0.066
-393.106	-200.000	-0.061	-0.347
-392.092	-118.868	0.381	0.067
-391.077	-145.488	-0.313	0.028
-390.063	42.373	0.359	0.327
-389.048	-154.134	0.084	0.006
-388.033	-200.000	-0.188	-0.000
-387.019	-129.721	-0.034	0.005
-386.004	250.923	0.029	-0.049
-384.990	25.706	-0.051	-0.042
-383.975	17.427	-0.471	-0.375
-382.960	-93.102	-0.420	-0.117
-381.946	180.690	0.024	0.035
-380.931	-136.458	0.132	-0.015
-379.917	91.180	-0.069	0.078
-378.902	105.692	-0.114	-0.135
-377.888	310.434	-0.084	-0.157
-376.873	18.120	-0.039	0.031
-375.858	379.210	0.023	-0.048
-374.844	-105.157	-0.109	0.025
-373.829	-48.162	0.381	0.184
-372.815	-200.000	0.018	-0.152
-371.800	-125.941	-0.122	0.018
-370.785	144.307	-0.078	-0.104
-369.771	476.101	-0.056	0.126
-368.756	-112.559	-0.060	0.012
-367.742	528.425	-0.013	0.031
-366.727	134.164	-0.195	0.254
-365.712	-117.002	0.152	0.028
-364.698	-89.223	-0.212	-0.063
-363.683	-89.400	0.411	-0.121
-362.669	7.235	0.156	-0.116
-361.654	-200.000	-0.046	-0.379
-360.639	-200.000	-0.001	-0.014
-359.625	-63.834	0.321	0.132
-358.610	-111.321	0.174	0.036
-357.596	168.251	-0.092	-0.131
-356.581	451.953	-0.037	-0.083
-355.566	291.970	0.038	-0.070
-354.552	46.641	0.164	-0.152
-353.537	-128.417	-0.232	0.033
-352.523	800.000	-0.031	-0.090
-351.508	-8.374	-0.057	-0.038
-350.493	800.000	-0.177	0.500
-349.479	143.385	0.158	0.210
-348.464	746.965	-0.052	0.141
-347.450	-66.282	-0.299	-0.119
-346.435	690.683	-0.041	-0.108
-345.420	14.975	0.297	-0.233
-344.406	37.674	-0.035	-0.031
-343.391	-130.600	0.221	0.030
-342.377	182.514	0.122	0.180
-341.362	61.989	-0.418	0.417
-340.348	-200.000	0.117	0.000
-339.333	217.973	-0.067	0.107
-338.318	800.000	0.057	-0.218
-337.304	85.814	-0.127	-0.139
-336.289	-54.211	0.071	0.032
-335.275	-107.074	0.154	-0.034
-334.260	-58.015	0.224	0.098
-333.245	323.663	-0.129	0.246
-332.231	-116.231	0.388	0.072
-331.216	10.935	0.124	0.095
-330.202	307.300	-0.153	-0.286
-329.187	257.393	-0.088	0.151
-328.172	204.188	0.029	-0.045
-327.158	263.301	-0.183	-0.317
-326.143	800.000	-0.029	-0.087
-325.129	533.511	0.045	0.107
-324.114	-42.664	0.361	0.184
-323.099	-200.000	0.059	-0.380
-322.085	800.000	-0.079	-0.309
-321.070	246.519	0.045	-0.076
-320.056	50.455	0.062	-0.058
-319.041	-200.000	0.079	0.526
-318.026	-78.553	0.262	-0.090
-317.012	-19.134	0.160	0.100
-315.997	-50.495	0.127	0.060
-314.983	-37.923	0.220	-0.117
-313.968	-138.986	-0.277	0.030
-312.953	-200.000	0.002	-0.182
-311.939	89.248	0.101	-0.112
-310.924	-41.823	-0.187	0.096
-309.910	-89.507	-0.135	-0.040
-308.895	-142.828	0.296	-0.029
-307.880	-200.000	-0.015	0.081
-306.866	-200.000	-0.004	0.106
-305.851	-139.771	-0.157	-0.017
-304.837	657.253	0.091	-0.234
-303.822	-5.999	-0.132	0.090
-302.807	6.559	0.071	-0.052
-301.793	-85.758	-0.271	-0.084
-300.778	-200.000	-0.026	-0.177
-299.764	124.513	-0.090	-0.113
-298.749	24.618	-0.263	0.218
-297.735	-200.000	0.037	-0.254
-296.720	-84.523	-0.043	-0.014
-295.705	-120.421	0.115	-0.020
-294.691	-156.755	-0.251	-0.015
-293.676	-200.000	0.055	0.327
-292.662	141.924	0.108	0.142
-291.647	33.247	-0.235	0.204
-290.632	-139.749	0.602	0.064
-289.618	-141.052	0.099	-0.010
-288.603	28.782	-0.010	0.009
-287.589	-91.080	0.295	0.084
-286.574	43.967	-0.162	0.148
-285.559	-200.000	-0.063	-0.349
-284.545	53.095	0.242	0.231
-283.530	-200.000	-0.029	0.281
-282.516	8.518	-0.172	0.129
-281.501	182.139	0.071	-0.104
-280.486	-148.089	-0.038	-0.003
-279.472	45.185	0.078	0.072
-278.457	201.442	-0.192	0.294
-277.443	185.808	0.271	-0.403
-276.428	800.000	-0.022	-0.096
-275.413	800.000	-0.064	-0.217
-274.399	-21.054	-0.164	-0.100
-273.384	-129.891	0.306	-0.042
-272.370	-200.000	0.057	-0.435
-271.355	-29.810	0.206	0.117
-270.340	4.231	0.250	-0.183
-269.326	-75.236	-0.021	0.007
-268.311	67.589	0.117	0.120
-267.297	-200.000	0.010	-0.154
-266.282	453.427	0.207	0.458
-265.267	32.882	-0.179	-0.155
-264.253	24.255	0.208	-0.171
-263.238	-103.445	0.077	0.018
-262.224	259.801	0.112	0.193
-261.209	-103.017	-0.165	-0.039
-260.195	-54.640	-0.298	0.134
-259.180	-166.143	-0.205	-0.009
-258.165	800.000	-0.110	-0.395
-257.151	159.400	-0.238	0.330
-256.136	-19.315	0.290	-0.179
-255.122	800.000	-0.043	-0.165
-254.107	19.805	0.438	-0.352
-253.092	683.534	0.033	0.085
-252.078	-200.000	0.013	0.206
-251.063	-158.449	-0.073	0.004
-250.049	-19.101	-0.277	-0.172
-249.034	-99.239	-0.103	-0.026
-248.019	-138.323	0.061	-0.007
-247.005	227.514	0.178	-0.289
-245.990	-49.674	-0.141	-0.067
-244.976	364.975	0.082	-0.166
-243.961	46.639	-0.018	-0.017
-242.946	-118.251	0.103	-0.018
-241.932	100.842	0.232	0.268
-240.917	800.000	0.023	0.066
-239.903	72.831	0.193	0.201
-238.888	60.896	0.208	-0.205
-237.873	-8.580	-0.133	0.089
-236.859	451.958	0.070	0.155
-235.844	-200.000	0.075	-0.408
-234.830	-200.000	-0.006	-0.370
-233.815	-97.153	-0.083	-0.022
-232.800	-25.390	-0.244	0.144
-231.786	-136.199	0.074	-0.009
-230.771	-200.000	0.057	0.326
-229.757	-82.697	-0.572	0.185
-228.742	132.623	0.159	0.204
-227.727	-81.988	0.008	0.002
-226.713	297.463	0.115	-0.210
-225.698	361.967	0.129	0.259
-224.684	-200.000	-0.026	0.116
-223.669	702.122	0.082	0.214
-222.655	307.837	0.113	0.209
-221.640	800.000	0.075	0.259
-220.625	419.553	0.048	-0.103
-219.611	423.897	-0.106	0.226
-218.596	-3.149	0.055	-0.038
-217.582	-46.398	0.213	-0.104
-216.567	-200.000	-0.005	0.252
-215.552	122.776	0.149	-0.186
-214.538	-98.287	-0.289	0.074
-213.523	800.000	0.061	-0.246
-212.509	499.219	0.030	0.068
-211.494	-197.300	-0.160	0.001
-210.479	41.076	0.225	-0.202
-209.465	-37.829	-0.360	-0.191
-208.450	467.660	0.171	0.383
-207.436	60.868	-0.210	0.207
-206.421	-200.000	-0.015	0.148
-205.406	-48.109	-0.260	-0.125
-204.392	776.347	-0.086	0.233
-203.377	133.615	-0.133	0.171
-202.363	-56.559	-0.257	-0.113
-201.348	747.685	0.086	0.230
-200.333	-200.000	-0.017	0.096
-199.319	287.857	0.092	0.167
-198.304	-87.412	0.256	0.077
-197.290	66.332	-0.072	0.072
-196.275	-30.785	-0.098	0.055
-195.260	-200.000	0.007	-0.090
-194.246	-200.000	0.060	-0.347
-193.231	-149.709	-0.181	0.014
-192.217	-200.000	-0.024	0.135
-191.202	800.000	-0.014	0.040
-190.187	292.936	0.057	0.103
-189.173	502.119	-0.036	-0.084
-188.158	-24.697	-0.157	-0.093
-187.144	29.469	0.304	-0.257
-186.129	-142.983	0.246	-0.024
-185.114	592.669	-0.090	0.221
-184.100	800.000	0.073	-0.278
-183.085	59.786	-0.287	-0.282
-182.071	-169.069	0.210	0.008
-181.056	376.895	-0.023	0.047
-180.042	-99.756	-0.165	0.041
-179.027	800.000	0.065	0.194
-178.012	-200.000	-0.006	0.073
-176.998	-200.000	-0.021	0.195
-175.983	-121.232	-0.347	-0.058
-174.969	-4.189	0.144	-0.099
-173.954	-200.000	-0.008	-0.269
-172.939	-200.000	0.062	0.420
-171.925	800.000	0.093	0.288
-170.910	184.199	-0.190	-0.280
-169.896	50.123	-0.257	0.241
-168.881	-107.715	0.135	0.029
-167.866	492.560	-0.083	-0.188
-166.852	440.743	0.094	0.204
-165.837	133.913	0.204	-0.263
-164.823	-17.914	-0.144	-0.090
-163.808	-63.810	-0.133	-0.054
-162.793	-60.229	0.303	-0.128
-161.779	800.000	0.004	-0.012
-160.764	93.023	-0.029	0.033
-159.750	800.000	0.037	0.139
-158.735	-200.000	0.089	0.455
-157.720	79.202	0.184	0.196
-156.706	-200.000	-0.033	-0.146
-155.691	-95.446	-0.089	-0.024
-154.677	-131.942	0.211	0.027
-153.662	-153.472	-0.188	0.013
-152.647	-200.000	-0.009	-0.128
-151.633	-9.637	-0.087	-0.058
-150.618	52.131	-0.017	-0.016
-149.604	615.722	-0.132	-0.330
-148.589	-200.000	-0.010	0.136
-147.574	103.410	-0.176	-0.205
-146.560	-200.000	-0.003	0.090
-145.545	-59.033	0.021	-0.009
-144.531	-200.000	-0.022	0.127
-143.516	-112.946	0.167	-0.033
-142.502	-32.621	0.221	0.122
-141.487	-200.000	-0.015	0.343
-140.472	-51.152	-0.272	0.127
-139.458	153.401	-0.006	0.008
-138.443	-200.000	-0.095	-0.421
-137.429	436.867	-0.074	0.159
-136.414	32.935	0.264	0.227
-135.399	175.942	0.219	0.316
-134.385	800.000	0.107	0.310
-133.370	-127.214	0.173	-0.025
-132.356	-91.316	0.381	-0.108
-131.341	-47.545	-0.386	0.186
-130.326	-141.202	-0.115	0.012
-129.312	99.194	0.122	0.140
-128.297	-200.000	-0.023	-0.140
-127.283	131.053	-0.138	0.176
-126.268	-94.116	-0.019	-0.005
-125.253	800.000	0.069	-0.202
-124.239	-88.782	-0.220	-0.065
-123.224	692.600	0.110	0.286
-122.210	-86.817	0.264	-0.080
-121.195	554.595	-0.057	0.135
