DTS Sentinel unit serial number:	SN413079Multiplexer serial number:	ORYXHardware model number:	OX4-SRSoftware version number:	ORYX F/W v4.00 Oryx Data Collector v3.7.2.0data status	okinstallation	princeton_trtdifferential loss correction	single-endedforward channel	channel 2reverse channel	N/Adate	2019/09/13time	10:39:35forward acquisition time	60.00reverse acquisition time	0.00gamma	496.2192k internal	0.2323k external	0.2323temperature offset calibration	1.0197default loss term (dB/km)	0.3790temperature slope calibration	1.0000multiplexer offset coefficient	1.0000multiplexer slope coefficient	1.0000fibre end	0.00T internal ref (°C)	31.41T ext. ref 1 (°C)	4.58T ext. ref 2 (°C)	28.21length (m)	temperature (°C)	Stokes	anti-Stokes-747.200	-11.070	-0.165	0.110
-746.185	-90.005	-0.156	0.046
-745.171	-164.905	-0.055	-0.002
-744.156	800.000	-0.064	0.246
-743.142	-57.913	-0.203	0.090
-742.127	-200.000	-0.037	0.332
-741.112	-116.957	-0.077	0.014
-740.098	-10.803	-0.513	0.342
-739.083	360.906	0.041	-0.084
-738.069	-157.419	-0.091	0.006
-737.054	132.250	-0.191	-0.248
-736.039	-53.466	-0.470	-0.217
-735.025	2.524	-0.119	0.087
-734.010	800.000	0.073	0.211
-732.996	-200.000	-0.023	-0.225
-731.981	702.729	-0.062	0.164
-730.966	-111.968	0.153	0.031
-729.952	212.652	-0.130	0.207
-728.937	111.184	0.077	0.094
-727.923	11.025	-0.342	0.264
-726.908	-52.828	0.215	0.100
-725.894	-138.390	-0.361	0.040
-724.879	-80.443	-0.231	-0.078
-723.864	-170.130	0.155	0.006
-722.850	-60.859	-0.075	-0.032
-721.835	-44.232	0.263	0.133
-720.821	-81.256	-0.116	0.038
-719.806	-200.000	-0.215	0.000
-718.791	-37.425	0.253	0.136
-717.777	800.000	-0.091	0.291
-716.762	4.413	-0.169	-0.125
-715.748	601.257	-0.176	-0.441
-714.733	311.695	-0.112	0.212
-713.718	-39.178	0.331	-0.175
-712.704	-200.000	-0.015	0.186
-711.689	-1.034	0.194	-0.138
-710.675	13.620	-0.320	-0.250
-709.660	-200.000	-0.046	-0.351
-708.645	326.168	0.073	0.142
-707.631	-146.686	0.204	0.018
-706.616	137.976	-0.217	-0.286
-705.602	18.456	0.310	-0.250
-704.587	800.000	0.088	-0.255
-703.572	504.547	0.064	-0.149
-702.558	-186.165	-0.200	-0.003
-701.543	-73.383	-0.048	0.018
-700.529	-5.221	0.168	0.117
-699.514	38.271	-0.257	-0.231
-698.499	-93.606	-0.243	-0.068
-697.485	136.723	0.205	0.269
-696.470	312.952	0.089	0.168
-695.456	-147.499	-0.353	0.030
-694.441	76.753	0.094	-0.101
-693.426	412.726	-0.050	-0.108
-692.412	423.250	-0.137	0.296
-691.397	-0.085	0.129	0.092
-690.383	324.304	0.057	0.111
-689.368	-2.872	-0.024	0.017
-688.354	103.028	0.321	-0.379
-687.339	-38.209	-0.197	-0.105
-686.324	-78.604	-0.244	0.084
-685.310	113.533	-0.062	-0.076
-684.295	-200.000	0.035	0.288
-683.281	800.000	-0.073	-0.268
-682.266	-123.080	0.222	-0.036
-681.251	56.190	0.045	-0.044
-680.237	19.143	0.205	0.166
-679.222	-107.499	-0.199	0.044
-678.208	80.852	-0.301	-0.327
-677.193	87.602	0.039	0.043
-676.178	800.000	0.087	-0.246
-675.164	337.429	0.075	0.147
-674.149	-110.929	0.304	-0.063
-673.135	-25.962	0.241	0.143
-672.120	-103.260	-0.224	0.053
-671.105	72.858	-0.250	-0.263
-670.091	-138.618	0.475	-0.052
-669.076	339.051	0.067	0.131
-668.062	-200.000	-0.037	-0.541
-667.047	-67.848	-0.078	-0.031
-666.032	-12.583	0.127	0.083
-665.018	163.007	-0.111	-0.158
-664.003	-174.835	0.182	-0.005
-662.989	-200.000	0.056	-0.274
-661.974	166.989	-0.086	-0.122
-660.959	60.940	0.071	-0.071
-659.945	-0.141	0.251	-0.180
-658.930	800.000	-0.057	0.240
-657.916	-97.208	-0.124	-0.033
-656.901	-39.380	-0.106	0.056
-655.886	-73.302	0.273	-0.101
-654.872	267.818	0.021	-0.037
-653.857	18.108	0.149	-0.119
-652.843	258.140	-0.209	-0.363
-651.828	-200.000	0.002	-0.119
-650.814	-200.000	0.045	-0.215
-649.799	800.000	0.029	-0.113
-648.784	-142.814	0.245	0.024
-647.770	45.661	-0.248	-0.231
-646.755	122.331	-0.042	-0.053
-645.741	180.432	0.202	0.298
-644.726	-17.313	0.363	0.230
-643.711	-200.000	0.036	0.298
-642.697	-200.000	-0.022	-0.169
-641.682	687.987	-0.127	-0.333
-640.668	207.145	0.275	-0.431
-639.653	5.853	0.054	0.040
-638.638	508.401	-0.139	0.324
-637.624	232.023	-0.126	0.208
-636.609	-168.503	-0.142	-0.005
-635.595	-200.000	-0.006	-0.134
-634.580	171.613	-0.099	0.143
-633.565	-52.460	0.254	0.118
-632.551	-189.327	0.360	-0.004
-631.536	-140.602	0.175	0.018
-630.522	-56.333	-0.219	0.098
-629.507	-175.863	0.145	0.004
-628.492	800.000	0.029	-0.083
-627.478	72.976	-0.129	0.136
-626.463	-200.000	-0.012	-0.221
-625.449	-200.000	0.028	0.176
-624.434	-200.000	-0.016	0.203
-623.419	800.000	-0.107	-0.408
-622.405	-200.000	-0.059	-0.263
-621.390	4.397	0.071	0.053
-620.376	66.796	-0.197	0.201
-619.361	800.000	0.082	0.243
-618.346	-60.015	-0.212	-0.091
-617.332	-200.000	-0.025	-0.214
-616.317	-200.000	-0.032	-0.141
-615.303	-154.269	-0.388	0.026
-614.288	12.669	0.119	0.092
-613.273	38.726	-0.098	0.088
-612.259	504.018	-0.155	-0.359
-611.244	35.750	-0.189	-0.167
-610.230	-200.000	0.021	-0.231
-609.215	-66.797	-0.303	-0.120
-608.201	-144.378	-0.160	-0.015
-607.186	349.594	-0.079	0.156
-606.171	-154.781	0.194	-0.013
-605.157	19.553	-0.233	-0.188
-604.142	78.349	0.134	-0.143
-603.128	653.065	0.021	0.053
-602.113	222.968	-0.179	-0.290
-601.098	-160.954	0.179	-0.009
-600.084	-91.775	-0.074	0.021
-599.069	-200.000	-0.001	-0.152
-598.055	-148.335	-0.150	0.012
-597.040	176.972	0.225	0.328
-596.025	27.537	-0.230	0.194
-595.011	-18.628	0.228	-0.143
-593.996	151.622	-0.062	-0.084
-592.982	106.082	0.219	-0.260
-591.967	24.145	0.202	0.168
-590.952	-64.294	0.167	-0.068
-589.938	-55.235	0.185	-0.084
-588.923	-74.783	-0.159	0.057
-587.909	800.000	0.080	-0.227
-586.894	219.383	0.151	-0.242
-585.879	-171.991	0.381	-0.012
-584.865	502.045	-0.131	-0.305
-583.850	800.000	-0.027	0.102
-582.836	-79.438	-0.367	-0.125
-581.821	-73.625	-0.137	-0.050
-580.806	101.811	-0.065	-0.076
-579.792	520.892	0.029	0.069
-578.777	149.265	-0.090	0.123
-577.763	57.382	-0.187	0.183
-576.748	-133.035	0.495	0.063
-575.733	635.656	0.047	0.119
-574.719	-66.255	0.069	0.028
-573.704	-100.589	-0.424	0.105
-572.690	-200.000	0.016	-0.440
-571.675	800.000	0.101	0.293
-570.661	302.616	0.055	0.102
-569.646	17.780	0.125	-0.100
-568.631	-33.415	0.159	-0.088
-567.617	-115.149	-0.265	0.050
-566.602	671.349	-0.076	-0.197
-565.588	111.074	0.214	0.258
-564.573	-102.496	-0.115	-0.028
-563.558	106.867	-0.149	-0.178
-562.544	18.817	-0.064	-0.052
-561.529	8.929	-0.268	-0.203
-560.515	-48.587	-0.261	-0.126
-559.500	-124.834	-0.171	0.026
-558.485	210.653	-0.220	0.347
-557.471	463.579	-0.065	0.147
-556.456	93.245	0.107	0.121
-555.442	-200.000	-0.012	-0.257
-554.427	45.358	0.229	-0.212
-553.412	-200.000	-0.038	0.193
-552.398	492.598	0.083	0.191
-551.383	-96.055	-0.224	-0.060
-550.369	433.499	-0.201	0.438
-549.354	200.358	-0.166	-0.255
-548.339	80.411	0.178	-0.192
-547.325	-194.946	-0.102	0.001
-546.310	-199.888	0.200	-0.001
-545.296	-107.413	-0.049	0.011
-544.281	-56.735	0.104	0.046
-543.266	-161.858	0.274	-0.014
-542.252	738.087	0.087	0.233
-541.237	421.026	0.052	-0.112
-540.223	598.193	-0.140	0.349
-539.208	-200.000	-0.043	0.243
-538.193	189.743	-0.040	0.061
-537.179	318.908	-0.287	-0.545
-536.164	198.963	0.190	0.292
-535.150	715.984	0.085	0.227
-534.135	-113.400	0.245	-0.048
-533.121	-130.131	-0.138	0.019
-532.106	91.935	-0.172	0.194
-531.091	51.210	0.274	-0.261
-530.077	605.630	-0.092	0.230
-529.062	-200.000	-0.050	0.252
-528.048	-96.088	-0.091	-0.024
-527.033	-97.007	-0.350	-0.092
-526.018	51.510	-0.266	-0.253
-525.004	457.696	0.090	-0.201
-523.989	-128.854	-0.219	-0.031
-522.975	800.000	0.048	0.149
-521.960	-200.000	0.117	-0.001
-520.945	-132.546	0.083	-0.011
-519.931	-200.000	-0.012	0.192
-518.916	507.087	-0.055	0.128
-517.902	20.087	-0.186	-0.151
-516.887	36.729	-0.072	-0.064
-515.872	10.817	-0.276	0.211
-514.858	-85.662	0.049	0.015
-513.843	800.000	0.120	-0.361
-512.829	260.485	-0.133	0.231
-511.814	800.000	0.081	0.315
-510.799	-28.622	0.202	-0.117
-509.785	-15.881	0.100	0.064
-508.770	688.068	-0.163	-0.427
-507.756	1.158	0.154	0.110
-506.741	-97.666	-0.485	-0.126
-505.726	800.000	0.079	-0.299
-504.712	-200.000	0.059	-0.309
-503.697	-200.000	-0.030	-0.230
-502.683	-200.000	0.037	-0.218
-501.668	229.036	-0.119	-0.193
-500.653	-169.746	-0.207	0.007
-499.639	800.000	-0.049	-0.162
-498.624	2.860	0.234	-0.170
-497.610	182.974	0.081	-0.120
-496.595	355.920	0.066	-0.132
-495.581	-181.526	0.326	-0.006
-494.566	-31.078	-0.097	0.055
-493.551	-192.313	-0.176	0.002
-492.537	-99.006	-0.262	0.066
-491.522	150.305	0.317	-0.430
-490.508	800.000	0.024	-0.075
-489.493	-30.029	-0.219	0.125
-488.478	-92.145	0.042	0.012
-487.464	32.088	-0.088	-0.076
-486.449	163.463	-0.155	0.217
-485.435	-40.844	0.092	0.048
-484.420	156.421	-0.077	-0.106
-483.405	800.000	0.035	0.112
-482.391	-88.306	-0.220	-0.066
-481.376	-124.337	-0.275	-0.043
-480.362	-185.844	0.186	-0.003
-479.347	800.000	0.051	0.165
-478.332	40.894	0.204	0.184
-477.318	-42.802	0.286	0.145
-476.303	-118.074	0.271	-0.048
-475.289	800.000	0.044	-0.181
-474.274	-68.275	0.200	0.078
-473.259	-25.582	0.137	0.081
-472.245	-114.249	0.115	-0.022
-471.230	173.206	-0.067	-0.096
-470.216	-67.559	0.265	-0.104
-469.201	-200.000	-0.002	-0.088
-468.186	46.027	-0.115	0.107
-467.172	163.361	-0.173	-0.243
-466.157	112.793	-0.211	-0.255
-465.143	-200.000	0.044	-0.252
-464.128	76.649	0.126	-0.133
-463.113	80.077	-0.117	-0.126
-462.099	800.000	-0.058	-0.212
-461.084	-114.334	0.319	-0.061
-460.070	620.390	-0.064	0.160
-459.055	-174.227	0.211	0.006
-458.040	250.997	0.115	0.195
-457.026	514.684	-0.115	0.267
-456.011	-186.575	0.300	-0.004
-454.997	28.714	-0.101	0.085
-453.982	198.695	-0.120	0.184
-452.968	800.000	-0.087	-0.328
-451.953	-200.000	0.009	0.044
-450.938	1.199	-0.178	-0.128
-449.924	7.251	-0.165	-0.123
-448.909	-42.806	0.179	-0.091
-447.895	-200.000	-0.006	0.070
-446.880	-100.588	-0.203	0.050
-445.865	-200.000	0.003	-0.181
-444.851	137.585	0.114	-0.149
-443.836	-25.961	0.327	0.192
-442.822	84.037	-0.021	-0.022
-441.807	-112.348	0.284	-0.057
-440.792	270.177	-0.104	0.183
-439.778	118.417	-0.119	0.147
-438.763	-62.824	0.117	0.048
-437.749	800.000	0.070	-0.210
-436.734	-90.324	-0.248	0.072
-435.719	58.930	-0.221	-0.217
-434.705	763.413	-0.112	0.302
-433.690	-200.000	-0.002	0.367
-432.676	-126.329	0.136	-0.020
-431.661	303.423	0.074	-0.138
-430.646	800.000	0.105	0.397
-429.632	8.717	-0.013	-0.009
-428.617	-115.237	0.471	0.089
-427.603	24.220	0.126	-0.104
-426.588	-154.829	-0.132	-0.009
-425.573	-94.078	0.347	-0.095
-424.559	-200.000	-0.131	-0.703
-423.544	-90.639	-0.317	-0.091
-422.530	-127.971	-0.231	0.033
-421.515	46.914	0.159	0.147
-420.500	-107.193	0.194	-0.043
-419.486	420.342	-0.132	0.281
-418.471	-200.000	0.039	-0.347
-417.457	-29.441	0.348	0.198
-416.442	-117.561	-0.090	-0.016
-415.428	444.765	-0.015	0.032
-414.413	162.642	-0.129	0.181
-413.398	-100.180	-0.304	0.075
-412.384	-101.702	0.182	-0.044
-411.369	248.514	0.181	0.306
-410.355	123.026	-0.036	0.045
-409.340	-16.162	-0.313	-0.198
-408.325	-86.777	-0.175	-0.053
-407.311	62.927	-0.092	0.092
-406.296	800.000	-0.075	0.317
-405.282	28.337	-0.083	-0.070
-404.267	-82.256	-0.324	0.105
-403.252	466.444	-0.085	0.191
-402.238	-170.225	0.328	-0.012
-401.223	-179.238	0.172	-0.004
-400.209	-100.841	-0.292	-0.072
-399.194	33.032	0.062	-0.053
-398.179	-200.000	0.017	-0.172
-397.165	-200.000	-0.039	-0.264
-396.150	-127.212	-0.175	-0.026
-395.136	463.173	-0.144	0.320
-394.121	-22.032	0.098	-0.059
-393.106	206.075	-0.052	-0.081
-392.092	-48.764	0.079	0.038
-391.077	-119.496	0.166	-0.029
-390.063	28.365	0.100	-0.084
-389.048	800.000	-0.140	-0.404
-388.033	-200.000	-0.018	-0.140
-387.019	-33.285	-0.167	-0.092
-386.004	-200.000	-0.033	0.329
-384.990	-148.098	0.161	0.013
-383.975	193.131	-0.064	-0.096
-382.960	-72.937	0.112	0.041
-381.946	-41.329	-0.126	0.064
-380.931	-94.362	0.116	-0.032
-379.917	-69.877	-0.290	-0.110
-378.902	-200.000	-0.012	-0.089
-377.888	-200.000	0.012	0.061
-376.873	800.000	-0.109	-0.346
-375.858	-134.916	0.288	0.035
-374.844	-200.000	0.027	-0.258
-373.829	800.000	-0.011	0.042
-372.815	-20.656	-0.163	-0.100
-371.800	-37.491	0.267	0.142
-370.785	-131.595	-0.294	0.039
-369.771	276.155	-0.032	-0.057
-368.756	-167.018	0.167	-0.007
-367.742	-200.000	-0.000	-0.138
-366.727	-200.000	0.000	0.073
-365.712	-49.701	0.267	-0.126
-364.698	194.806	0.169	0.255
-363.683	139.877	-0.081	-0.106
-362.669	-68.474	0.081	0.031
-361.654	-200.000	0.014	-0.160
-360.639	175.159	0.049	0.071
-359.625	42.210	0.298	-0.269
-358.610	326.782	0.076	-0.144
-357.596	303.396	0.103	0.191
-356.581	-200.000	-0.022	-0.239
-355.566	-69.566	-0.320	-0.122
-354.552	-200.000	-0.040	0.212
-353.537	296.448	-0.114	0.208
-352.523	-114.165	0.094	0.018
-351.508	-103.031	0.101	-0.024
-350.493	-107.039	-0.240	-0.053
-349.479	289.491	-0.213	0.384
-348.464	96.448	0.123	0.140
-347.450	461.911	0.098	-0.216
-346.435	246.446	0.137	0.230
-345.420	-180.232	0.165	0.003
-344.406	252.515	0.059	-0.100
-343.391	1.676	0.242	0.174
-342.377	-200.000	0.003	0.109
-341.362	-88.328	0.214	0.064
-340.348	800.000	-0.050	0.167
-339.333	142.593	0.066	0.087
-338.318	-36.676	-0.117	0.062
-337.304	-114.852	0.172	-0.033
-336.289	800.000	0.070	0.194
-335.275	151.318	0.113	0.153
-334.260	71.035	0.101	-0.104
-333.245	-200.000	0.027	0.183
-332.231	126.039	-0.153	-0.193
-331.216	-70.682	-0.244	0.091
-330.202	-105.066	0.487	-0.111
-329.187	64.995	0.044	-0.044
-328.172	-87.955	0.145	0.043
-327.158	800.000	0.054	0.154
-326.143	-188.460	-0.212	-0.003
-325.129	40.679	-0.196	0.176
-324.114	-200.000	-0.004	0.048
-323.099	582.367	0.088	0.213
-322.085	-33.206	0.198	0.109
-321.070	61.479	0.117	0.116
-320.056	800.000	-0.096	0.351
-319.041	-70.997	-0.114	0.043
-318.026	-200.000	-0.025	0.444
-317.012	-200.000	-0.004	-0.026
-315.997	-36.853	0.282	-0.150
-314.983	196.219	0.084	-0.127
-313.968	57.102	0.102	-0.098
-312.953	-52.882	0.087	-0.040
-311.939	132.523	-0.116	0.149
-310.924	-200.000	-0.151	0.000
-309.910	-66.859	0.044	0.017
-308.895	-200.000	-0.045	0.317
-307.880	800.000	0.034	0.132
-306.866	-163.400	-0.581	0.028
-305.851	-41.144	0.258	-0.132
-304.837	164.787	0.078	0.109
-303.822	-104.006	-0.247	-0.057
-302.807	453.764	0.131	-0.288
-301.793	800.000	0.065	-0.191
-300.778	-73.922	0.022	0.008
-299.764	800.000	0.019	-0.061
-298.749	-111.692	-0.413	0.083
-297.735	347.945	0.197	0.385
-296.720	-17.837	-0.151	0.094
-295.705	-109.150	0.087	-0.018
-294.691	-74.202	-0.203	0.073
-293.676	-96.786	0.301	0.079
-292.662	-63.052	0.217	-0.089
-291.647	-200.000	-0.005	-0.070
-290.632	119.307	0.185	-0.227
-289.618	-75.026	0.243	0.086
-288.603	-29.333	-0.133	0.076
-287.589	-82.080	0.147	-0.047
-286.574	131.343	-0.091	0.116
-285.559	800.000	-0.066	-0.201
-284.545	-131.934	-0.117	-0.015
-283.530	-200.000	0.032	-0.181
-282.516	152.146	-0.090	0.122
-281.501	172.896	0.043	-0.062
-280.486	-121.142	0.577	0.096
-279.472	-37.589	0.304	0.161
-278.457	-200.000	-0.033	-0.189
-277.443	800.000	-0.070	0.301
-276.428	579.159	-0.092	0.224
-275.413	146.847	-0.226	-0.301
-274.399	800.000	-0.007	-0.026
-273.384	-200.000	-0.021	0.150
-272.370	800.000	-0.043	0.143
-271.355	-200.000	-0.005	-0.060
-270.340	260.719	0.006	-0.010
-269.326	264.949	-0.140	0.241
-268.311	78.054	-0.049	0.052
-267.297	493.046	0.197	0.449
-266.282	-70.336	0.134	0.051
-265.267	430.271	-0.076	0.162
-264.253	-120.723	-0.122	0.020
-263.238	-125.818	-0.004	0.001
-262.224	-199.522	-0.369	-0.002
-261.209	-49.273	-0.421	-0.199
-260.195	237.747	-0.188	0.309
-259.180	163.471	0.210	0.293
-258.165	800.000	0.039	0.162
-257.151	-117.823	-0.273	-0.049
-256.136	-124.742	0.089	-0.014
-255.122	-1.274	-0.259	-0.181
-254.107	-5.187	-0.199	0.135
-253.092	-200.000	0.034	0.215
-252.078	18.949	0.162	-0.129
-251.063	-200.000	-0.028	-0.121
-250.049	777.161	-0.150	-0.405
-249.034	744.617	0.055	0.147
-248.019	-62.057	0.254	-0.105
-247.005	84.756	0.042	0.046
-245.990	-100.085	-0.154	0.038
-244.976	-147.919	0.291	-0.024
-243.961	-200.000	0.011	0.088
-242.946	-51.869	-0.198	-0.091
-241.932	-154.294	0.378	-0.025
-240.917	800.000	0.031	0.123
-239.903	22.895	-0.123	-0.100
-238.888	-49.733	-0.069	0.032
-237.873	518.467	0.163	-0.378
-236.859	-200.000	0.015	0.113
-235.844	-200.000	0.021	0.297
-234.830	-200.000	-0.001	-0.219
-233.815	-32.802	-0.109	-0.060
-232.800	-98.546	-0.152	-0.039
-231.786	376.131	0.063	-0.126
-230.771	-200.000	-0.025	0.419
-229.757	-200.000	0.003	0.084
-228.742	615.075	0.091	0.226
-227.727	-40.704	0.091	-0.047
-226.713	800.000	-0.069	-0.213
-225.698	-155.555	0.257	0.016
-224.684	-100.465	-0.170	-0.042
-223.669	-144.028	-0.251	-0.023
-222.655	-200.000	-0.062	-0.320
-221.640	789.404	0.053	0.144
-220.625	-80.108	-0.054	0.018
-219.611	261.369	0.143	-0.245
-218.596	-59.380	-0.217	-0.092
-217.582	-200.000	-0.075	-0.464
-216.567	-92.968	-0.312	0.086
-215.552	30.433	-0.088	-0.074
-214.538	-109.446	-0.045	-0.009
-213.523	-200.000	-0.263	0.000
-212.509	-50.552	-0.109	0.051
-211.494	-200.000	0.002	0.078
-210.479	-200.000	0.028	0.148
-209.465	-59.791	0.268	-0.113
-208.450	-200.000	-0.043	0.234
-207.436	220.797	-0.017	0.026
-206.421	255.564	0.136	0.231
-205.406	791.507	-0.073	0.199
-204.392	-21.241	-0.084	-0.051
-203.377	-100.646	0.097	-0.024
-202.363	-118.020	-0.217	0.038
-201.348	-23.715	-0.128	0.076
-200.333	129.066	-0.087	-0.110
-199.319	27.128	-0.142	-0.118
-198.304	108.125	-0.222	-0.261
-197.290	-200.000	-0.008	0.057
-196.275	-138.714	0.127	0.014
-195.260	-43.523	-0.057	-0.028
-194.246	110.808	0.115	0.137
-193.231	-45.922	-0.205	0.100
-192.217	-200.000	0.030	-0.168
-191.202	-125.199	0.174	-0.026
-190.187	-200.000	-0.005	0.205
-189.173	-13.615	0.304	0.194
-188.158	230.812	0.139	0.224
-187.144	-133.067	0.334	0.042
-186.129	-169.085	0.195	0.007
-185.114	-41.965	0.083	-0.042
-184.100	-83.966	-0.202	-0.063
-183.085	274.681	0.190	0.333
-182.071	134.581	0.235	0.301
-181.056	-72.007	0.081	-0.030
-180.042	-97.936	-0.264	-0.067
-179.027	-200.000	-0.023	-0.258
-178.012	-0.444	-0.269	-0.189
-176.998	-24.185	0.154	0.091
-175.983	-24.861	-0.221	-0.130
-174.969	-200.000	-0.047	0.237
-173.954	102.801	0.348	0.402
-172.939	-80.911	0.136	0.045
-171.925	800.000	0.072	-0.244
-170.910	800.000	0.030	0.097
-169.896	526.303	0.067	-0.155
-168.881	-200.000	0.003	-0.031
-167.866	-34.176	0.270	-0.146
-166.852	-38.487	-0.202	0.105
-165.837	-200.000	-0.028	0.320
-164.823	-77.431	-0.288	-0.099
-163.808	458.820	0.058	-0.127
-162.793	-200.000	0.036	-0.201
-161.779	-200.000	0.029	-0.214
-160.764	800.000	-0.063	-0.228
-159.750	-59.658	0.147	-0.062
-158.735	-73.959	0.211	0.076
-157.720	96.710	0.110	-0.124
-156.706	208.590	-0.015	-0.023
-155.691	39.077	0.140	-0.123
-154.677	73.944	-0.179	-0.185
-153.662	170.805	0.241	0.340
-152.647	294.747	-0.164	0.296
-151.633	215.133	0.053	-0.083
-150.618	-87.516	-0.265	0.079
-149.604	-200.000	-0.042	0.215
-148.589	444.486	0.198	-0.428
-147.574	74.581	-0.113	0.117
-146.560	-15.263	-0.204	-0.129
-145.545	800.000	0.030	-0.116
-144.531	-110.776	0.214	-0.044
-143.516	-76.672	-0.155	0.053
-142.502	87.880	-0.082	0.090
-141.487	-6.313	0.149	0.100
-140.472	-51.364	0.294	0.136
-139.458	-13.476	-0.112	0.071
-138.443	-52.403	-0.133	0.061
-137.429	-110.631	0.284	-0.058
-136.414	3.024	-0.044	-0.032
-135.399	-130.813	0.240	-0.032
-134.385	432.469	0.105	0.224
-133.370	32.742	0.177	-0.151
-132.356	490.066	-0.002	-0.005
-131.341	122.636	0.028	-0.034
-130.326	-114.694	-0.151	0.029
-129.312	-200.000	-0.195	0.001
-128.297	94.188	-0.203	0.228
-127.283	174.666	0.181	-0.258
-126.268	-200.000	0.002	0.037
-125.253	-200.000	-0.017	0.175
-124.239	9.890	-0.312	0.233
-123.224	72.317	-0.121	-0.124
-122.210	106.632	0.268	-0.313
