DTS Sentinel unit serial number:	SN413079Multiplexer serial number:	ORYXHardware model number:	OX4-SRSoftware version number:	ORYX F/W v4.00 Oryx Data Collector v3.7.2.0data status	okinstallation	princeton_trtdifferential loss correction	single-endedforward channel	channel 2reverse channel	N/Adate	2019/09/17time	02:59:35forward acquisition time	60.00reverse acquisition time	0.00gamma	496.2192k internal	0.2327k external	0.2327temperature offset calibration	0.9969default loss term (dB/km)	0.3790temperature slope calibration	1.0000multiplexer offset coefficient	1.0000multiplexer slope coefficient	1.0000fibre end	0.00T internal ref (°C)	29.94T ext. ref 1 (°C)	0.12T ext. ref 2 (°C)	24.82length (m)	temperature (°C)	Stokes	anti-Stokes-747.200	-111.686	0.403	0.082
-746.185	275.066	-0.232	-0.414
-745.171	-109.536	0.334	-0.071
-744.156	-53.212	-0.208	0.096
-743.142	-111.964	-0.493	-0.100
-742.127	-200.000	-0.049	0.220
-741.112	-61.089	0.135	-0.057
-740.098	64.455	0.183	0.186
-739.083	345.244	-0.108	0.214
-738.069	165.860	-0.380	0.541
-737.054	241.994	0.109	0.183
-736.039	-200.000	0.003	-0.083
-735.025	523.420	0.114	0.270
-734.010	-4.148	-0.464	-0.324
-732.996	-51.036	-0.062	-0.029
-731.981	232.235	0.117	-0.193
-730.966	348.033	-0.065	-0.129
-729.952	96.982	-0.175	-0.202
-728.937	35.144	-0.134	-0.118
-727.923	191.349	0.101	0.153
-726.908	-84.127	-0.190	0.061
-725.894	-200.000	0.029	-0.374
-724.879	245.713	-0.118	0.200
-723.864	-8.835	-0.282	0.191
-722.850	11.091	-0.135	0.104
-721.835	-200.000	-0.070	0.359
-720.821	93.822	0.129	-0.147
-719.806	97.136	-0.138	-0.159
-718.791	-200.000	-0.008	0.090
-717.777	-200.000	-0.063	-0.289
-716.762	-200.000	0.034	-0.279
-715.748	800.000	-0.033	-0.143
-714.733	-77.068	0.146	-0.051
-713.718	109.241	-0.083	-0.100
-712.704	129.280	0.271	-0.349
-711.689	800.000	-0.027	-0.082
-710.675	-200.000	-0.036	0.200
-709.660	-200.000	-0.057	-0.299
-708.645	517.299	0.009	-0.021
-707.631	-26.576	0.245	-0.145
-706.616	-200.000	0.003	-0.146
-705.602	2.954	0.168	-0.123
-704.587	-143.993	0.042	0.004
-703.572	800.000	0.010	0.041
-702.558	76.750	-0.196	-0.210
-701.543	-66.431	0.307	-0.123
-700.529	330.650	0.175	0.340
-699.514	-148.540	0.093	-0.008
-698.499	58.486	-0.179	-0.177
-697.485	-76.331	0.235	0.083
-696.470	-84.893	-0.265	0.084
-695.456	517.921	0.224	-0.528
-694.441	125.123	-0.061	-0.078
-693.426	-200.000	0.036	0.184
-692.412	122.942	-0.198	0.250
-691.397	-200.000	-0.001	0.029
-690.383	-116.585	-0.225	0.042
-689.368	-101.881	0.172	0.042
-688.354	-81.418	-0.278	0.092
-687.339	-118.139	0.125	-0.022
-686.324	146.429	0.232	-0.314
-685.310	-154.391	-0.217	-0.015
-684.295	6.184	0.333	-0.248
-683.281	-200.000	0.030	-0.233
-682.266	-25.856	0.350	-0.207
-681.251	81.049	0.152	-0.165
-680.237	-4.884	-0.048	0.033
-679.222	147.459	0.079	-0.106
-678.208	-175.966	0.196	-0.005
-677.193	350.428	-0.102	0.202
-676.178	521.253	0.057	0.134
-675.164	29.312	0.133	-0.114
-674.149	101.125	0.056	0.066
-673.135	254.627	-0.101	-0.173
-672.120	-134.304	0.171	-0.021
-671.105	614.939	0.082	0.206
-670.091	22.438	-0.179	-0.147
-669.076	-111.419	-0.128	-0.026
-668.062	-200.000	-0.035	0.367
-667.047	-119.695	-0.173	-0.030
-666.032	-84.884	-0.328	-0.103
-665.018	-143.804	-0.068	-0.006
-664.003	-95.704	-0.528	0.142
-662.989	-126.527	0.360	-0.054
-661.974	-52.743	-0.318	-0.147
-660.959	-23.708	-0.220	-0.133
-659.945	618.275	-0.044	-0.110
-658.930	565.659	0.108	-0.264
-657.916	39.799	-0.184	-0.166
-656.901	216.202	-0.203	-0.325
-655.886	257.139	0.144	0.248
-654.872	-135.273	0.117	-0.014
-653.857	644.363	0.072	-0.184
-652.843	683.480	0.057	-0.148
-651.828	114.169	0.298	-0.365
-650.814	348.241	-0.061	0.122
-649.799	-200.000	0.042	0.382
-648.784	-24.630	-0.059	0.035
-647.770	-200.000	-0.022	0.195
-646.755	61.128	0.185	-0.185
-645.741	23.236	0.087	-0.072
-644.726	-174.371	-0.053	0.002
-643.711	-200.000	0.008	0.036
-642.697	-69.806	-0.146	0.056
-641.682	-59.990	0.311	-0.133
-640.668	83.931	0.156	0.171
-639.653	604.814	-0.156	0.391
-638.638	-74.058	-0.206	-0.075
-637.624	-200.000	0.045	-0.237
-636.609	-23.159	-0.104	-0.063
-635.595	-61.840	-0.323	0.136
-634.580	800.000	0.080	0.251
-633.565	-200.000	-0.012	-0.100
-632.551	-200.000	0.035	-0.378
-631.536	244.272	0.182	0.307
-630.522	40.458	0.266	-0.240
-629.507	-200.000	0.020	-0.351
-628.492	-5.047	0.053	-0.037
-627.478	-28.990	-0.113	-0.065
-626.463	-192.552	-0.010	0.000
-625.449	-75.954	0.223	-0.079
-624.434	144.471	-0.175	-0.234
-623.419	657.162	-0.113	-0.291
-622.405	9.398	-0.278	-0.211
-621.390	-21.311	-0.074	-0.045
-620.376	-51.258	-0.162	-0.076
-619.361	49.705	-0.172	0.163
-618.346	-154.756	0.211	-0.014
-617.332	660.907	-0.091	-0.236
-616.317	-39.859	-0.095	0.050
-615.303	-46.374	-0.349	-0.172
-614.288	-197.329	0.079	0.001
-613.273	-200.000	0.014	0.251
-612.259	-28.856	-0.058	0.033
-611.244	-186.942	0.199	0.003
-610.230	-161.814	0.196	0.010
-609.215	-58.290	0.209	-0.091
-608.201	58.749	0.266	-0.262
-607.186	67.130	-0.121	-0.124
-606.171	-200.000	0.000	-0.332
-605.157	212.318	-0.103	-0.162
-604.142	-200.000	-0.000	0.607
-603.128	-152.677	0.257	0.018
-602.113	31.272	-0.102	0.088
-601.098	-200.000	-0.030	-0.356
-600.084	762.553	0.092	-0.251
-599.069	-200.000	0.018	0.141
-598.055	-48.294	-0.118	0.057
-597.040	-200.000	0.007	0.183
-596.025	190.143	-0.165	0.248
-595.011	800.000	-0.014	-0.062
-593.996	-200.000	-0.014	-0.266
-592.982	23.001	-0.219	0.180
-591.967	168.416	0.082	-0.117
-590.952	-200.000	-0.010	-0.064
-589.938	-126.718	0.224	0.033
-588.923	-200.000	0.038	0.303
-587.909	-54.685	-0.044	-0.020
-586.894	-11.320	0.196	-0.129
-585.879	16.016	0.243	-0.192
-584.865	8.338	-0.228	-0.172
-583.850	354.340	0.054	0.107
-582.836	-83.552	-0.101	0.032
-581.821	203.178	0.080	-0.124
-580.806	-138.173	-0.643	0.071
-579.792	154.342	-0.037	0.051
-578.777	-200.000	0.011	0.276
-577.763	-132.681	-0.106	-0.014
-576.748	800.000	0.039	0.134
-575.733	197.737	0.162	-0.248
-574.719	-200.000	-0.003	-0.075
-573.704	115.242	-0.180	-0.220
-572.690	465.775	-0.055	0.123
-571.675	-200.000	-0.006	0.053
-570.661	-200.000	-0.026	-0.161
-569.646	37.531	-0.193	-0.172
-568.631	217.056	-0.127	-0.202
-567.617	170.419	0.044	-0.063
-566.602	-200.000	0.001	-0.130
-565.588	-100.339	-0.085	-0.021
-564.573	287.749	0.111	-0.201
-563.558	-74.945	0.250	-0.090
-562.544	-151.738	-0.236	-0.017
-561.529	-8.442	0.215	0.145
-560.515	258.216	-0.095	-0.164
-559.500	-200.000	-0.017	0.142
-558.485	61.120	0.160	-0.159
-557.471	-30.174	0.183	-0.104
-556.456	-62.981	0.318	0.132
-555.442	317.974	-0.023	-0.044
-554.427	34.993	0.151	0.133
-553.412	25.184	0.194	0.161
-552.398	245.577	0.238	-0.400
-551.383	296.610	-0.159	-0.292
-550.369	-42.749	-0.206	-0.105
-549.354	15.395	0.353	0.277
-548.339	-50.664	-0.180	0.085
-547.325	248.306	-0.025	0.042
-546.310	-70.920	0.470	-0.177
-545.296	-5.175	-0.250	-0.172
-544.281	-163.568	-0.152	0.007
-543.266	289.032	0.110	-0.200
-542.252	134.576	0.167	0.216
-541.237	-200.000	0.028	0.183
-540.223	-200.000	-0.037	0.220
-539.208	3.092	-0.024	0.018
-538.193	-200.000	-0.016	0.190
-537.179	-29.453	0.077	-0.044
-536.164	-200.000	0.039	0.172
-535.150	-200.000	0.004	0.166
-534.135	226.624	0.160	0.259
-533.121	800.000	0.102	-0.318
-532.106	-63.565	-0.184	-0.075
-531.091	-127.381	-0.272	0.040
-530.077	-103.228	-0.279	0.066
-529.062	-200.000	0.039	0.294
-528.048	-1.426	0.289	0.204
-527.033	-42.835	-0.368	0.187
-526.018	800.000	-0.038	-0.143
-525.004	-200.000	0.004	-0.176
-523.989	-4.051	-0.330	-0.228
-522.975	800.000	0.051	0.177
-521.960	-82.235	-0.052	0.017
-520.945	-200.000	-0.009	0.054
-519.931	448.470	0.036	-0.079
-518.916	-26.851	0.085	0.049
-517.902	-28.629	0.110	0.064
-516.887	367.190	0.133	0.268
-515.872	-160.027	0.069	-0.004
-514.858	201.667	0.045	0.070
-513.843	-200.000	0.001	0.046
-512.829	311.715	-0.138	0.259
-511.814	-200.000	0.001	-0.070
-510.799	-200.000	-0.226	-0.001
-509.785	-53.854	0.298	0.136
-508.770	-88.104	-0.403	-0.121
-507.756	-154.440	-0.061	-0.004
-506.741	-200.000	0.024	0.196
-505.726	-79.561	0.090	0.030
-504.712	272.203	0.188	0.332
-503.697	355.871	0.148	-0.294
-502.683	39.041	-0.012	0.011
-501.668	-172.296	-0.259	0.008
-500.653	-41.499	0.188	0.096
-499.639	-81.083	-0.289	-0.096
-498.624	291.411	0.101	0.183
-497.610	285.806	0.029	-0.053
-496.595	322.194	-0.108	-0.205
-495.581	-30.334	-0.120	0.068
-494.566	-92.379	0.212	-0.060
-493.551	342.558	0.150	-0.293
-492.537	161.404	-0.120	0.168
-491.522	9.958	-0.230	0.174
-490.508	-122.906	-0.152	-0.024
-489.493	-200.000	0.018	-0.179
-488.478	-175.559	-0.228	-0.006
-487.464	-200.000	-0.008	-0.168
-486.449	90.479	0.361	0.403
-485.435	6.993	0.369	0.275
-484.420	-33.067	-0.105	0.058
-483.405	376.096	-0.022	0.045
-482.391	-87.897	0.226	-0.068
-481.376	-114.037	0.121	-0.023
-480.362	-18.165	-0.335	-0.209
-479.347	-200.000	0.019	0.153
-478.332	800.000	0.097	-0.280
-477.318	-81.901	0.064	0.021
-476.303	14.153	-0.162	0.126
-475.289	459.778	0.004	0.009
-474.274	37.282	-0.167	0.148
-473.259	-100.097	-0.069	-0.017
-472.245	61.551	-0.149	-0.148
-471.230	24.955	-0.036	0.029
-470.216	175.098	-0.219	-0.317
-469.201	393.107	-0.093	-0.192
-468.186	-74.486	-0.105	-0.038
-467.172	-102.271	-0.356	0.085
-466.157	-39.099	-0.239	-0.126
-465.143	11.680	-0.101	-0.077
-464.128	-79.681	-0.238	-0.080
-463.113	478.307	-0.034	-0.077
-462.099	146.899	-0.047	-0.063
-461.084	-108.868	-0.127	0.027
-460.070	-200.000	-0.025	-0.218
-459.055	-112.604	0.467	0.093
-458.040	156.814	-0.049	-0.068
-457.026	-181.284	-0.284	0.006
-456.011	208.245	0.075	0.117
-454.997	-200.000	-0.037	-0.188
-453.982	23.425	-0.166	0.136
-452.968	-60.324	-0.230	-0.097
-451.953	329.822	-0.059	-0.114
-450.938	-36.181	-0.130	-0.070
-449.924	353.312	-0.040	0.080
-448.909	116.357	-0.123	-0.151
-447.895	-158.145	0.369	0.022
-446.880	-200.000	-0.031	-0.158
-445.865	-158.906	0.231	0.013
-444.851	-51.583	0.208	-0.097
-443.836	-200.000	-0.004	0.073
-442.822	-126.548	0.174	0.026
-441.807	800.000	0.092	0.257
-440.792	-200.000	-0.001	-0.267
-439.778	800.000	-0.148	-0.441
-438.763	-42.644	-0.241	0.122
-437.749	-48.177	-0.066	-0.032
-436.734	-55.851	0.237	-0.105
-435.719	-54.712	-0.286	-0.129
-434.705	28.034	-0.412	0.346
-433.690	-200.000	0.014	-0.246
-432.676	-86.006	0.312	0.096
-431.661	-184.945	0.070	0.001
-430.646	144.609	-0.063	0.084
-429.632	-172.172	0.230	-0.007
-428.617	-100.976	-0.132	-0.032
-427.603	-73.717	-0.330	-0.120
-426.588	-200.000	-0.015	-0.118
-425.573	219.041	0.082	0.130
-424.559	-200.000	0.009	-0.165
-423.544	-100.648	-0.154	0.038
-422.530	82.710	-0.167	-0.181
-421.515	-200.000	0.011	0.197
-420.500	236.779	0.105	0.173
-419.486	136.129	-0.073	0.095
-418.471	731.213	-0.116	-0.308
-417.457	763.229	-0.116	0.314
-416.442	-148.552	0.333	-0.027
-415.428	35.834	0.227	0.198
-414.413	-58.461	0.338	0.146
-413.398	-17.713	-0.273	-0.170
-412.384	-80.995	0.214	0.070
-411.369	800.000	-0.008	0.025
-410.355	309.396	-0.063	0.118
-409.340	-200.000	-0.015	0.339
-408.325	66.552	-0.240	-0.243
-407.311	-118.489	0.231	0.041
-406.296	-200.000	-0.053	0.246
-405.282	130.917	0.054	0.069
-404.267	395.416	-0.104	-0.216
-403.252	-173.012	0.249	-0.008
-402.238	-67.935	0.282	0.110
-401.223	800.000	0.030	-0.107
-400.209	240.274	-0.022	-0.036
-399.194	800.000	0.024	0.084
-398.179	-200.000	0.050	-0.322
-397.165	202.450	-0.101	0.155
-396.150	276.829	-0.264	0.466
-395.136	-200.000	0.073	0.382
-394.121	-166.518	0.160	0.007
-393.106	-119.379	0.271	0.047
-392.092	642.599	-0.029	0.074
-391.077	357.768	0.194	0.385
-390.063	26.576	0.048	0.040
-389.048	-173.990	0.308	-0.009
-388.033	-89.527	0.303	-0.089
-387.019	681.598	0.094	0.242
-386.004	416.250	0.056	-0.119
-384.990	-51.738	-0.201	0.093
-383.975	-200.000	-0.004	-0.140
-382.960	-93.348	-0.149	-0.041
-381.946	124.145	0.192	-0.240
-380.931	-22.909	0.251	-0.151
-379.917	800.000	-0.076	0.258
-378.902	20.925	-0.011	0.009
-377.888	-200.000	0.043	0.217
-376.873	-109.326	-0.167	-0.035
-375.858	334.436	0.116	-0.224
-374.844	365.356	0.235	-0.470
-373.829	800.000	0.047	0.186
-372.815	800.000	0.098	-0.279
-371.800	-200.000	0.047	0.218
-370.785	-200.000	-0.004	0.119
-369.771	-9.920	-0.279	-0.185
-368.756	-131.763	-0.313	-0.041
-367.742	800.000	-0.063	-0.176
-366.727	-118.389	0.110	-0.019
-365.712	-184.962	0.211	-0.003
-364.698	291.589	-0.095	0.172
-363.683	-176.257	0.270	-0.007
-362.669	246.166	0.099	-0.165
-361.654	-200.000	0.118	0.000
-360.639	69.863	-0.204	-0.209
-359.625	-200.000	0.012	0.202
-358.610	-109.536	-0.349	0.073
-357.596	44.839	0.178	0.163
-356.581	371.253	-0.023	-0.046
-355.566	-200.000	0.047	0.261
-354.552	800.000	0.102	-0.381
-353.537	-127.623	-0.322	-0.046
-352.523	-15.224	0.107	0.068
-351.508	-128.711	-0.346	0.048
-350.493	-15.390	-0.344	0.218
-349.479	-200.000	-0.020	0.149
-348.464	-30.278	0.462	0.260
-347.450	535.358	0.069	-0.163
-346.435	-150.989	0.227	-0.017
-345.420	-127.892	0.198	0.028
-344.406	201.020	0.021	-0.032
-343.391	-101.129	0.167	-0.041
-342.377	-16.874	-0.281	-0.176
-341.362	16.831	0.317	-0.249
-340.348	58.169	-0.079	-0.076
-339.333	741.464	-0.044	-0.117
-338.318	-160.094	-0.057	-0.003
-337.304	677.213	-0.018	-0.046
-336.289	132.866	-0.146	-0.187
-335.275	-44.364	-0.207	-0.103
-334.260	326.932	-0.075	0.143
-333.245	-148.786	-0.209	-0.017
-332.231	-53.313	0.172	-0.078
-331.216	-69.381	0.156	-0.059
-330.202	-114.348	-0.331	-0.063
-329.187	88.797	0.205	0.226
-328.172	106.931	0.078	-0.092
-327.158	-81.402	0.398	-0.130
-326.143	-94.767	-0.252	-0.068
-325.129	-101.789	-0.073	0.018
-324.114	-55.519	0.413	0.183
-323.099	112.217	0.027	0.032
-322.085	-163.321	0.496	-0.024
-321.070	-200.000	-0.020	-0.248
-320.056	-0.027	0.166	-0.117
-319.041	52.429	-0.060	-0.057
-318.026	-200.000	0.022	-0.165
-317.012	-129.421	0.223	-0.031
-315.997	324.081	-0.091	-0.172
-314.983	-49.918	0.026	-0.012
-313.968	-161.854	0.237	0.012
-312.953	173.869	0.072	0.103
-311.939	48.460	-0.142	-0.132
-310.924	-200.000	0.002	0.179
-309.910	171.847	0.086	-0.123
-308.895	722.238	-0.058	0.152
-307.880	320.913	-0.080	0.151
-306.866	331.280	0.160	0.306
-305.851	32.452	-0.174	0.149
-304.837	668.467	0.111	0.286
-303.822	-53.616	-0.146	0.066
-302.807	-200.000	0.091	-0.424
-301.793	190.805	-0.264	-0.393
-300.778	628.889	-0.045	-0.113
-299.764	-67.997	-0.182	0.070
-298.749	-75.117	0.188	-0.067
-297.735	531.882	-0.059	-0.139
-296.720	-200.000	-0.015	0.069
-295.705	-200.000	0.011	-0.177
-294.691	-59.629	0.115	0.049
-293.676	-119.518	0.356	-0.061
-292.662	-200.000	-0.001	0.224
-291.647	-127.273	0.262	0.038
-290.632	44.894	-0.122	0.111
-289.618	-175.686	0.263	0.007
-288.603	152.512	-0.170	-0.229
-287.589	-133.762	-0.401	-0.049
-286.574	287.537	-0.098	0.176
-285.559	289.722	-0.210	0.377
-284.545	-200.000	-0.062	0.470
-283.530	800.000	0.007	0.028
-282.516	41.847	-0.056	-0.051
-281.501	134.595	-0.184	0.236
-280.486	163.409	-0.123	-0.171
-279.472	-24.084	-0.076	-0.045
-278.457	18.377	0.091	0.072
-277.443	-6.132	-0.140	-0.094
-276.428	-20.017	-0.411	-0.251
-275.413	-200.000	-0.000	-0.164
-274.399	165.854	0.109	-0.153
-273.384	800.000	0.077	0.260
-272.370	68.585	-0.451	0.458
-271.355	43.170	0.089	-0.081
-270.340	74.825	0.239	0.250
-269.326	-124.352	0.332	0.051
-268.311	800.000	-0.026	0.073
-267.297	474.662	0.031	0.069
-266.282	298.319	-0.177	-0.322
-265.267	800.000	0.097	-0.305
-264.253	299.568	-0.044	-0.081
-263.238	147.997	0.072	0.096
-262.224	-9.409	-0.076	-0.050
-261.209	-34.549	0.355	0.192
-260.195	220.812	-0.054	0.086
-259.180	-9.360	-0.096	-0.063
-258.165	-33.433	0.225	-0.123
-257.151	341.756	-0.094	-0.182
-256.136	-95.729	0.230	-0.061
-255.122	304.203	0.094	-0.173
-254.107	-146.324	-0.213	-0.018
-253.092	800.000	-0.028	-0.120
-252.078	425.757	-0.047	-0.099
-251.063	27.957	0.106	-0.088
-250.049	800.000	0.038	0.137
-249.034	24.749	0.176	-0.144
-248.019	448.822	-0.055	-0.121
-247.005	-200.000	0.012	0.078
-245.990	-15.954	0.177	0.111
-244.976	-200.000	-0.063	0.328
-243.961	128.073	-0.062	0.078
-242.946	311.969	0.105	-0.194
-241.932	-51.834	-0.095	0.044
-240.917	-68.754	-0.335	0.128
-239.903	-200.000	0.005	0.153
-238.888	102.645	-0.135	0.156
-237.873	-60.677	-0.142	-0.059
-236.859	800.000	-0.054	-0.231
-235.844	148.080	0.223	0.298
-234.830	-4.138	0.268	0.183
-233.815	-41.909	0.358	0.181
-232.800	800.000	0.037	-0.102
-231.786	78.300	-0.197	-0.208
-230.771	-11.510	0.328	0.213
-229.757	514.438	0.109	0.250
-228.742	11.570	0.213	0.162
-227.727	-53.818	-0.419	0.189
-226.713	-23.091	-0.136	-0.081
-225.698	684.755	-0.026	0.067
-224.684	-63.229	0.228	0.093
-223.669	1.943	-0.211	-0.150
-222.655	-59.062	-0.254	0.108
-221.640	119.818	-0.114	-0.139
-220.625	5.942	0.194	0.142
-219.611	-28.469	-0.094	-0.054
-218.596	-200.000	0.042	0.361
-217.582	-157.336	-0.048	-0.003
-216.567	-31.186	-0.124	0.069
-215.552	-98.619	0.378	0.095
-214.538	-200.000	-0.012	-0.073
-213.523	-29.022	0.165	0.093
-212.509	69.226	-0.165	-0.168
-211.494	194.650	0.033	-0.050
-210.479	352.626	-0.151	0.296
-209.465	-58.923	0.027	-0.011
-208.450	800.000	-0.073	-0.288
-207.436	-48.619	-0.215	0.102
-206.421	93.423	0.232	0.259
-205.406	-50.165	0.212	0.099
-204.392	-81.982	0.318	0.103
-203.377	800.000	0.033	0.104
-202.363	-16.043	-0.265	-0.166
-201.348	-119.816	0.097	0.016
-200.333	800.000	-0.089	0.257
-199.319	-128.798	0.128	0.018
-198.304	63.750	-0.096	-0.096
-197.290	-61.757	0.122	0.051
-196.275	-32.603	0.233	0.128
-195.260	85.549	0.084	-0.091
-194.246	59.072	-0.100	-0.097
-193.231	683.848	0.080	0.205
-192.217	-200.000	0.028	-0.299
-191.202	177.412	-0.066	-0.095
-190.187	-200.000	-0.017	0.190
-189.173	105.554	0.261	0.305
-188.158	-84.871	0.082	0.025
-187.144	-34.295	-0.184	-0.099
-186.129	-4.489	-0.265	0.181
-185.114	-200.000	-0.055	-0.278
-184.100	6.795	0.121	-0.089
-183.085	-140.660	-0.158	0.016
-182.071	445.490	-0.034	0.073
-181.056	-126.594	-0.465	-0.068
-180.042	59.737	-0.121	0.118
-179.027	136.686	0.095	-0.122
-178.012	-90.287	0.102	-0.029
-176.998	34.519	0.252	-0.217
-175.983	-13.714	0.202	0.129
-174.969	73.028	-0.186	-0.192
-173.954	800.000	-0.019	-0.060
-172.939	-200.000	0.035	0.222
-171.925	-200.000	-0.011	0.242
-170.910	-103.158	0.155	0.036
-169.896	800.000	-0.054	-0.163
-168.881	800.000	-0.164	-0.465
-167.866	800.000	-0.087	-0.249
-166.852	-23.503	0.159	-0.094
-165.837	-200.000	0.027	-0.145
-164.823	14.016	-0.061	0.047
-163.808	25.765	0.044	0.036
-162.793	520.061	0.133	0.307
-161.779	-200.000	-0.008	0.264
-160.764	78.804	-0.124	0.131
-159.750	-28.043	-0.307	0.175
-158.735	85.085	0.128	-0.138
-157.720	98.976	-0.187	-0.213
-156.706	-138.172	-0.175	0.019
-155.691	195.417	-0.143	-0.215
-154.677	-200.000	0.011	0.051
-153.662	-200.000	-0.007	-0.061
-152.647	-120.672	-0.254	0.042
-151.633	71.699	0.140	0.144
-150.618	-200.000	0.046	0.198
-149.604	145.821	-0.234	0.309
-148.589	-200.000	0.011	-0.315
-147.574	-19.892	-0.278	0.169
-146.560	800.000	-0.134	-0.552
-145.545	-38.359	-0.133	0.070
-144.531	360.678	-0.097	-0.191
-143.516	-105.256	0.323	-0.073
-142.502	-163.142	-0.117	-0.006
-141.487	-200.000	0.012	-0.308
-140.472	193.207	0.195	0.291
-139.458	800.000	0.111	-0.383
-138.443	336.932	0.016	-0.031
-137.429	15.742	-0.072	0.055
-136.414	174.061	-0.045	-0.064
-135.399	29.663	0.243	0.204
-134.385	-200.000	0.011	-0.162
-133.370	-87.048	-0.180	-0.054
-132.356	713.185	-0.049	0.128
-131.341	8.024	-0.132	-0.098
-130.326	306.430	0.137	0.251
-129.312	-200.000	-0.048	0.301
-128.297	542.944	-0.098	-0.230
-127.283	-200.000	0.014	0.065
-126.268	-78.166	-0.154	-0.052
-125.253	-190.233	-0.186	-0.002
-124.239	-77.373	-0.068	-0.023
-123.224	7.221	0.098	-0.072
-122.210	-52.611	0.367	-0.167
