DTS Sentinel unit serial number:	SN413079Multiplexer serial number:	ORYXHardware model number:	OX4-SRSoftware version number:	ORYX F/W v4.00 Oryx Data Collector v3.7.2.0data status	okinstallation	princeton_trtdifferential loss correction	single-endedforward channel	channel 2reverse channel	N/Adate	2019/09/12time	03:01:11forward acquisition time	60.00reverse acquisition time	0.00gamma	496.2192k internal	0.2326k external	0.2326temperature offset calibration	1.0091default loss term (dB/km)	0.3790temperature slope calibration	1.0000multiplexer offset coefficient	1.0000multiplexer slope coefficient	1.0000fibre end	0.00T internal ref (°C)	32.31T ext. ref 1 (°C)	2.10T ext. ref 2 (°C)	27.12length (m)	temperature (°C)	Stokes	anti-Stokes-747.200	4.473	-0.119	-0.088
-746.185	-200.000	0.092	0.410
-745.171	-51.824	-0.213	-0.100
-744.156	-87.779	-0.211	0.064
-743.142	-200.000	0.018	0.374
-742.127	752.484	-0.124	0.339
-741.112	-12.212	-0.209	0.138
-740.098	-85.988	-0.320	0.100
-739.083	-200.000	-0.015	0.353
-738.069	733.376	0.103	0.279
-737.054	-101.259	0.242	0.059
-736.039	800.000	0.021	0.087
-735.025	37.540	0.339	0.303
-734.010	-200.000	0.042	0.219
-732.996	172.845	-0.179	-0.260
-731.981	-166.386	-0.326	0.014
-730.966	-48.301	-0.094	-0.046
-729.952	-4.558	0.138	-0.096
-728.937	-21.382	0.274	0.169
-727.923	-200.000	0.002	0.034
-726.908	724.819	0.092	0.248
-725.894	361.658	0.091	-0.183
-724.879	-92.321	-0.043	0.012
-723.864	129.858	-0.177	0.228
-722.850	-53.187	0.197	0.091
-721.835	210.003	0.200	0.316
-720.821	-57.313	-0.203	0.090
-719.806	-78.429	0.123	-0.042
-718.791	-182.258	0.030	-0.001
-717.777	800.000	0.047	-0.148
-716.762	28.012	-0.071	0.061
-715.748	-27.168	0.057	-0.033
-714.733	13.340	-0.116	0.090
-713.718	673.208	0.124	0.324
-712.704	-200.000	-0.045	0.247
-711.689	-200.000	0.022	-0.128
-710.675	800.000	-0.086	0.286
-709.660	168.690	-0.139	0.199
-708.645	-63.844	-0.323	0.133
-707.631	-14.803	0.339	-0.219
-706.616	-0.751	0.101	-0.072
-705.602	36.041	-0.198	0.176
-704.587	800.000	-0.099	-0.311
-703.572	30.043	0.054	0.046
-702.558	211.525	0.025	0.039
-701.543	-107.521	0.252	-0.056
-700.529	94.740	0.135	0.155
-699.514	800.000	-0.060	0.197
-698.499	-69.045	-0.336	-0.130
-697.485	-200.000	0.019	0.298
-696.470	448.529	0.040	-0.088
-695.456	173.048	-0.154	0.223
-694.441	-141.544	-0.340	-0.035
-693.426	137.307	0.118	0.155
-692.412	701.016	0.085	-0.226
-691.397	-145.330	-0.268	-0.024
-690.383	137.298	-0.124	-0.164
-689.368	-200.000	0.000	0.073
-688.354	-96.989	-0.163	-0.043
-687.339	-156.582	0.216	0.014
-686.324	392.415	-0.086	-0.179
-685.310	-102.906	0.397	-0.095
-684.295	-200.000	-0.030	-0.287
-683.281	85.152	0.157	0.174
-682.266	-19.535	-0.217	0.135
-681.251	207.978	0.177	-0.278
-680.237	-50.048	0.193	0.092
-679.222	-48.017	-0.359	0.174
-678.208	37.128	-0.167	0.149
-677.193	-200.000	0.022	0.248
-676.178	-200.000	0.037	-0.329
-675.164	-46.502	0.221	-0.109
-674.149	-58.383	0.176	-0.077
-673.135	-55.948	-0.302	-0.136
-672.120	-61.593	-0.076	-0.032
-671.105	2.196	-0.132	0.096
-670.091	-153.527	-0.204	-0.014
-669.076	-3.960	-0.136	0.095
-668.062	-169.550	-0.238	-0.009
-667.047	800.000	-0.032	0.107
-666.032	800.000	-0.028	0.082
-665.018	-27.729	-0.087	-0.051
-664.003	274.396	0.062	-0.110
-662.989	-110.926	0.208	-0.043
-661.974	684.068	-0.066	-0.172
-660.959	174.562	-0.204	0.297
-659.945	-77.431	-0.127	-0.044
-658.930	-101.323	0.019	-0.005
-657.916	-200.000	-0.014	0.160
-656.901	-103.014	0.152	0.036
-655.886	-200.000	0.052	-0.349
-654.872	186.100	-0.065	0.097
-653.857	3.636	-0.169	-0.124
-652.843	232.469	-0.234	0.385
-651.828	-17.192	-0.085	0.054
-650.814	-68.800	0.095	-0.037
-649.799	-92.477	0.139	-0.039
-648.784	-13.169	-0.070	0.046
-647.770	198.499	-0.140	-0.216
-646.755	-200.000	0.020	0.190
-645.741	168.396	-0.157	0.225
-644.726	212.260	-0.118	-0.187
-643.711	81.472	0.047	0.051
-642.697	-0.522	0.261	0.186
-641.682	800.000	-0.054	-0.161
-640.668	38.826	-0.191	0.172
-639.653	726.432	0.045	-0.120
-638.638	800.000	-0.083	-0.295
-637.624	-17.597	0.282	0.178
-636.609	-12.392	0.057	0.037
-635.595	-164.465	0.103	-0.005
-634.580	800.000	0.059	0.231
-633.565	-81.847	0.285	-0.094
-632.551	-200.000	0.043	-0.369
-631.536	477.911	-0.117	-0.265
-630.522	-200.000	0.039	-0.515
-629.507	-109.160	0.138	-0.029
-628.492	453.477	-0.035	-0.079
-627.478	4.317	0.384	-0.282
-626.463	-55.169	0.086	-0.039
-625.449	150.343	0.063	-0.086
-624.434	30.878	0.084	0.072
-623.419	-79.667	0.339	-0.115
-622.405	-40.248	-0.056	-0.029
-621.390	382.286	0.042	0.087
-620.376	-32.112	-0.208	0.117
-619.361	-200.000	-0.028	-0.166
-618.346	-200.000	0.023	-0.190
-617.332	-119.119	0.261	0.046
-616.317	9.563	-0.128	-0.097
-615.303	-33.120	-0.306	-0.170
-614.288	-140.858	-0.276	-0.028
-613.273	208.390	-0.103	-0.162
-612.259	120.211	-0.076	-0.095
-611.244	-38.755	-0.358	-0.190
-610.230	-121.649	-0.223	-0.037
-609.215	328.792	0.045	0.088
-608.201	67.216	0.103	0.106
-607.186	102.821	-0.134	-0.157
-606.171	368.492	-0.158	-0.320
-605.157	-59.515	0.233	-0.101
-604.142	-21.022	-0.088	-0.054
-603.128	-112.356	-0.230	-0.046
-602.113	39.304	-0.155	0.139
-601.098	-138.323	0.067	0.007
-600.084	-98.686	-0.235	-0.060
-599.069	593.977	0.053	-0.131
-598.055	-107.684	-0.135	-0.030
-597.040	20.688	-0.045	-0.037
-596.025	-55.331	0.248	-0.112
-595.011	468.077	-0.088	-0.198
-593.996	560.853	0.066	-0.160
-592.982	312.747	-0.108	-0.203
-591.967	-70.966	-0.421	-0.159
-590.952	-200.000	-0.032	0.143
-589.938	-118.525	-0.222	-0.039
-588.923	-185.058	-0.046	-0.001
-587.909	-25.307	0.108	0.064
-586.894	292.108	0.120	0.219
-585.879	10.399	-0.382	0.291
-584.865	-55.941	0.218	-0.097
-583.850	-35.737	0.306	-0.166
-582.836	-85.542	0.322	0.100
-581.821	-138.779	-0.355	0.039
-580.806	688.773	-0.038	0.100
-579.792	424.587	0.039	-0.083
-578.777	-102.319	-0.414	0.100
-577.763	104.847	0.153	0.181
-576.748	-200.000	-0.021	-0.185
-575.733	800.000	0.034	0.103
-574.719	-153.628	-0.078	0.005
-573.704	46.678	0.271	-0.252
-572.690	-200.000	0.014	0.096
-571.675	-116.930	-0.249	-0.046
-570.661	323.795	0.080	-0.152
-569.646	-200.000	0.047	-0.213
-568.631	-200.000	-0.011	-0.391
-567.617	137.707	-0.173	-0.227
-566.602	66.250	0.221	0.225
-565.588	-39.715	0.388	0.203
-564.573	-154.737	0.245	-0.016
-563.558	800.000	0.074	0.275
-562.544	-40.458	-0.141	-0.074
-561.529	-73.276	0.064	0.024
-560.515	-36.071	-0.209	-0.113
-559.500	101.014	-0.088	-0.103
-558.485	124.469	-0.046	-0.058
-557.471	93.692	-0.081	-0.091
-556.456	725.212	0.078	0.209
-555.442	90.795	-0.159	-0.179
-554.427	51.762	-0.094	0.090
-553.412	-200.000	0.000	-0.026
-552.398	-146.987	0.059	0.005
-551.383	-42.452	0.449	0.229
-550.369	144.334	0.067	0.090
-549.354	239.133	-0.149	-0.248
-548.339	-47.436	0.200	-0.097
-547.325	-16.592	0.159	-0.101
-546.310	-105.871	0.215	-0.048
-545.296	-14.741	-0.070	-0.045
-544.281	146.065	-0.149	-0.200
-543.266	312.718	0.017	0.033
-542.252	-200.000	-0.001	-0.129
-541.237	-150.145	-0.019	-0.001
-540.223	26.598	-0.175	-0.146
-539.208	786.116	-0.166	-0.456
-538.193	98.106	-0.108	-0.124
-537.179	-107.335	-0.238	0.052
-536.164	346.172	-0.080	-0.158
-535.150	-88.337	0.198	-0.059
-534.135	-200.000	-0.032	-0.145
-533.121	310.068	-0.114	-0.214
-532.106	-134.842	0.117	-0.014
-531.091	-16.742	-0.277	-0.175
-530.077	207.046	-0.098	0.153
-529.062	14.349	-0.215	-0.168
-528.048	303.742	0.105	-0.195
-527.033	261.758	-0.117	0.203
-526.018	662.494	0.083	0.213
-525.004	34.868	-0.153	0.134
-523.989	800.000	-0.048	-0.150
-522.975	800.000	0.079	0.278
-521.960	293.299	0.144	-0.263
-520.945	18.823	0.246	-0.197
-519.931	-116.268	0.153	0.028
-518.916	-92.925	-0.299	0.083
-517.902	800.000	0.073	-0.202
-516.887	64.197	0.287	-0.289
-515.872	-42.452	0.245	-0.125
-514.858	-45.861	-0.305	0.151
-513.843	-124.335	-0.275	-0.043
-512.829	-33.165	-0.129	-0.072
-511.814	-80.696	0.210	-0.070
-510.799	371.741	-0.063	-0.127
-509.785	58.733	0.159	0.156
-508.770	31.653	0.146	-0.125
-507.756	-78.499	-0.277	-0.095
-506.741	-200.000	0.019	-0.086
-505.726	557.856	0.172	0.413
-504.712	-109.502	-0.372	-0.079
-503.697	-200.000	-0.052	-0.316
-502.683	573.608	-0.124	0.302
-501.668	-28.370	-0.165	-0.095
-500.653	-116.989	0.481	-0.088
-499.639	-99.706	-0.182	-0.046
-498.624	-188.325	0.189	0.002
-497.610	349.131	-0.104	-0.204
-496.595	-200.000	0.028	0.155
-495.581	-65.105	-0.438	-0.177
-494.566	-72.782	0.275	-0.101
-493.551	-200.000	0.011	-0.056
-492.537	800.000	0.085	0.244
-491.522	-200.000	0.024	-0.157
-490.508	-20.661	-0.349	0.214
-489.493	-95.059	0.432	0.117
-488.478	321.367	0.124	-0.235
-487.464	-86.346	0.157	-0.048
-486.449	-39.135	-0.062	-0.033
-485.435	-200.000	-0.018	-0.294
-484.420	-200.000	0.259	-0.000
-483.405	-171.857	-0.278	0.009
-482.391	246.058	-0.107	-0.180
-481.376	356.196	0.069	-0.136
-480.362	6.921	-0.102	0.076
-479.347	222.626	-0.137	-0.220
-478.332	461.230	-0.162	-0.361
-477.318	160.536	0.043	-0.060
-476.303	345.792	-0.161	0.316
-475.289	-7.778	-0.207	0.140
-474.274	-154.241	-0.374	0.025
-473.259	21.775	-0.237	-0.193
-472.245	-200.000	-0.002	0.445
-471.230	287.991	0.076	0.138
-470.216	-58.051	0.098	0.043
-469.201	-16.544	-0.374	0.237
-468.186	800.000	0.031	0.135
-467.172	103.386	0.200	0.234
-466.157	308.499	-0.026	-0.048
-465.143	614.115	-0.051	-0.127
-464.128	-200.000	-0.033	0.332
-463.113	-65.414	-0.281	-0.113
-462.099	-43.953	-0.060	0.030
-461.084	-200.000	-0.046	0.233
-460.070	-111.667	0.085	-0.017
-459.055	3.983	-0.152	0.111
-458.040	14.097	0.120	-0.093
-457.026	-164.561	0.197	0.009
-456.011	-5.418	-0.070	0.048
-454.997	-200.000	-0.025	-0.166
-453.982	-39.714	0.082	-0.043
-452.968	-200.000	0.220	-0.001
-451.953	747.713	-0.024	0.065
-450.938	-164.358	-0.214	-0.010
-449.924	47.733	0.194	0.181
-448.909	-200.000	-0.018	-0.336
-447.895	539.949	-0.074	0.175
-446.880	-200.000	0.000	-0.296
-445.865	-200.000	-0.040	0.323
-444.851	-139.758	0.144	-0.015
-443.836	0.836	-0.328	-0.234
-442.822	-200.000	-0.013	0.294
-441.807	32.682	-0.133	-0.115
-440.792	8.086	-0.099	0.074
-439.778	-101.293	-0.126	0.031
-438.763	-200.000	0.020	-0.118
-437.749	7.757	-0.102	-0.076
-436.734	104.012	0.198	0.232
-435.719	140.511	-0.167	-0.219
-434.705	253.312	0.069	0.117
-433.690	49.786	-0.270	0.254
-432.676	-27.361	-0.274	-0.159
-431.661	-85.716	-0.145	0.045
-430.646	80.802	-0.149	0.160
-429.632	-147.286	0.265	0.022
-428.617	-200.000	0.060	0.280
-427.603	186.526	0.106	-0.157
-426.588	800.000	-0.050	-0.207
-425.573	-200.000	-0.065	-0.448
-424.559	579.689	-0.168	-0.409
-423.544	19.220	0.104	0.083
-422.530	29.544	-0.044	0.037
-421.515	-46.031	0.417	-0.205
-420.500	206.670	-0.120	0.187
-419.486	-105.170	-0.261	0.059
-418.471	105.656	-0.051	-0.060
-417.457	-58.782	0.413	0.178
-416.442	-75.574	-0.314	-0.111
-415.428	521.700	0.110	0.256
-414.413	-103.955	-0.174	-0.040
-413.398	-18.907	0.034	-0.021
-412.384	-19.676	-0.175	0.108
-411.369	422.837	-0.046	-0.099
-410.355	-200.000	0.039	-0.262
-409.340	230.990	0.115	0.187
-408.325	-175.998	-0.426	-0.011
-407.311	60.829	0.105	-0.103
-406.296	237.090	0.047	0.078
-405.282	204.283	-0.212	-0.327
-404.267	800.000	-0.035	0.120
-403.252	283.432	0.106	0.190
-402.238	-38.780	0.302	-0.158
-401.223	-17.221	0.173	0.109
-400.209	-154.879	-0.208	0.014
-399.194	116.509	0.162	-0.198
-398.179	800.000	0.013	0.039
-397.165	-30.114	0.315	0.178
-396.150	-200.000	-0.026	0.133
-395.136	-89.217	0.194	-0.057
-394.121	-160.856	-0.214	-0.011
-393.106	-44.839	-0.369	-0.183
-392.092	7.445	0.084	-0.063
-391.077	-200.000	0.028	0.160
-390.063	13.150	0.293	-0.226
-389.048	-90.767	0.335	-0.096
-388.033	-71.158	-0.348	0.130
-387.019	198.947	0.079	0.121
-386.004	-64.852	-0.156	-0.063
-384.990	335.765	0.088	-0.170
-383.975	328.506	-0.091	0.175
-382.960	-117.370	-0.101	0.018
-381.946	800.000	-0.050	-0.147
-380.931	114.789	-0.127	-0.154
-379.917	-107.919	-0.203	-0.044
-378.902	-175.470	0.154	0.004
-377.888	232.010	0.134	0.218
-376.873	-158.762	0.063	0.004
-375.858	700.614	0.026	-0.067
-374.844	-74.927	-0.154	-0.055
-373.829	-138.287	-0.314	-0.035
-372.815	-1.344	0.258	-0.181
-371.800	-37.207	0.388	0.206
-370.785	20.175	-0.090	0.072
-369.771	-200.000	0.026	0.167
-368.756	-102.426	0.119	-0.028
-367.742	254.404	0.297	-0.505
-366.727	89.960	0.199	-0.221
-365.712	-77.106	0.078	0.027
-364.698	3.071	0.067	0.048
-363.683	800.000	0.060	-0.168
-362.669	800.000	0.031	0.090
-361.654	5.224	-0.325	-0.238
-360.639	-33.838	-0.109	-0.060
-359.625	123.898	-0.135	-0.169
-358.610	326.445	0.060	-0.114
-357.596	-200.000	-0.027	0.172
-356.581	-115.704	-0.321	-0.060
-355.566	134.093	0.303	0.389
-354.552	720.604	-0.156	-0.413
-353.537	-124.613	-0.101	0.016
-352.523	-137.239	0.189	0.021
-351.508	-75.877	0.357	-0.125
-350.493	-105.741	-0.215	-0.048
-349.479	-181.465	0.253	0.005
-348.464	362.851	-0.223	0.445
-347.450	-107.897	-0.080	0.017
-346.435	155.972	0.086	0.118
-345.420	-6.187	-0.207	-0.140
-344.406	563.243	-0.118	-0.283
-343.391	682.641	0.131	0.340
-342.377	800.000	0.073	-0.223
-341.362	800.000	0.085	0.352
-340.348	-200.000	0.040	0.214
-339.333	112.388	-0.190	-0.228
-338.318	-85.149	0.274	-0.085
-337.304	38.624	-0.073	-0.065
-336.289	-25.942	0.130	0.076
-335.275	35.678	0.211	-0.184
-334.260	247.510	0.145	-0.242
-333.245	499.083	0.145	0.331
-332.231	-134.321	0.266	0.032
-331.216	-200.000	0.043	-0.307
-330.202	-67.634	-0.119	-0.046
-329.187	-200.000	0.035	-0.291
-328.172	768.832	0.080	0.215
-327.158	800.000	-0.132	0.427
-326.143	39.666	0.222	-0.198
-325.129	-19.767	0.192	-0.118
-324.114	-166.129	0.240	0.010
-323.099	-47.871	-0.166	0.080
-322.085	-30.039	-0.075	-0.042
-321.070	800.000	0.011	-0.031
-320.056	-9.947	-0.075	0.050
-319.041	-110.772	0.370	-0.076
-318.026	645.646	0.134	-0.338
-317.012	800.000	-0.023	0.087
-315.997	-130.099	0.288	-0.039
-314.983	-200.000	0.015	0.069
-313.968	-124.140	-0.309	-0.048
-312.953	-13.286	-0.145	-0.093
-311.939	-200.000	-0.012	0.071
-310.924	158.143	0.179	0.246
-309.910	-89.386	0.101	-0.029
-308.895	680.136	-0.188	0.486
-307.880	-58.363	0.472	0.204
-306.866	-25.514	-0.142	-0.083
-305.851	-154.498	0.089	-0.006
-304.837	208.909	-0.232	-0.360
-303.822	147.827	0.339	0.452
-302.807	-200.000	0.037	0.198
-301.793	585.832	0.142	-0.345
-300.778	-177.842	0.113	0.003
-299.764	-105.913	-0.174	0.039
-298.749	162.028	0.286	0.398
-297.735	405.849	-0.207	0.433
-296.720	-36.180	-0.127	0.068
-295.705	-89.460	0.213	0.062
-294.691	-23.586	0.115	0.068
-293.676	-152.614	-0.109	0.008
-292.662	800.000	-0.080	0.277
-291.647	-104.987	0.301	-0.068
-290.632	-67.471	-0.203	0.079
-289.618	183.788	-0.184	-0.270
-288.603	-8.923	0.099	0.065
-287.589	800.000	-0.100	0.346
-286.574	-200.000	0.374	0.002
-285.559	54.710	-0.123	0.117
-284.545	800.000	0.091	0.271
-283.530	-3.408	0.040	-0.028
-282.516	-29.658	0.231	0.130
-281.501	-40.206	0.345	-0.178
-280.486	-200.000	0.020	-0.096
-279.472	-200.000	0.002	-0.284
-278.457	-200.000	-0.017	-0.164
-277.443	-200.000	-0.026	0.193
-276.428	-103.464	0.061	0.014
-275.413	-167.303	0.297	0.012
-274.399	-177.332	0.292	0.007
-273.384	309.913	0.100	0.184
-272.370	497.131	0.122	0.277
-271.355	-98.261	0.059	-0.015
-270.340	359.819	-0.096	0.190
-269.326	-54.001	0.272	0.123
-268.311	110.667	-0.237	0.282
-267.297	800.000	-0.058	0.245
-266.282	-120.257	-0.446	-0.075
-265.267	-200.000	-0.036	0.169
-264.253	-200.000	0.017	0.281
-263.238	443.688	-0.159	0.344
-262.224	184.167	0.038	0.055
-261.209	-14.008	0.245	0.156
-260.195	169.216	0.156	0.221
-259.180	-200.000	0.046	0.261
-258.165	-24.682	-0.180	-0.106
-257.151	-78.842	-0.275	-0.093
-256.136	800.000	0.056	-0.163
-255.122	800.000	0.106	0.388
-254.107	418.385	-0.052	0.110
-253.092	53.028	-0.033	0.031
-252.078	-4.913	0.179	0.122
-251.063	-26.914	0.121	-0.070
-250.049	-44.742	0.070	-0.035
-249.034	-141.223	-0.280	0.028
-248.019	-106.290	0.181	0.040
-247.005	150.236	0.120	0.160
-245.990	-96.583	0.188	0.049
-244.976	71.463	0.110	-0.113
-243.961	-200.000	-0.053	0.372
-242.946	-103.995	-0.214	-0.049
-241.932	14.442	0.218	0.168
-240.917	-125.186	-0.262	-0.040
-239.903	-24.642	-0.175	0.103
-238.888	-114.770	0.102	-0.019
-237.873	-34.146	-0.096	0.052
-236.859	800.000	-0.053	0.182
-235.844	-200.000	0.026	-0.227
-234.830	30.233	0.063	0.053
-233.815	32.097	0.099	-0.085
-232.800	-200.000	0.019	0.202
-231.786	-110.416	0.192	0.039
-230.771	800.000	0.058	-0.220
-229.757	-69.515	-0.194	-0.074
-228.742	-42.490	-0.043	0.022
-227.727	135.306	-0.174	0.224
-226.713	-89.443	-0.152	0.044
-225.698	296.064	-0.253	0.458
-224.684	-92.150	-0.208	-0.058
-223.669	800.000	-0.129	0.363
-222.655	261.739	-0.173	0.296
-221.640	155.526	-0.171	-0.233
-220.625	-184.102	0.208	0.003
-219.611	40.054	-0.262	0.233
-218.596	-4.003	0.082	-0.056
-217.582	625.423	0.066	0.164
-216.567	-93.932	0.106	-0.029
-215.552	-141.135	-0.166	-0.017
-214.538	800.000	0.055	0.177
-213.523	-200.000	0.024	-0.220
-212.509	-200.000	-0.011	0.080
-211.494	-5.195	0.315	0.214
-210.479	-200.000	0.006	0.178
-209.465	70.594	0.161	0.164
-208.450	50.949	0.253	0.237
-207.436	-8.734	0.342	-0.226
-206.421	-74.274	0.117	-0.042
-205.406	-200.000	0.040	-0.188
-204.392	-116.491	-0.289	0.053
-203.377	800.000	0.021	0.085
-202.363	179.209	0.154	0.222
-201.348	800.000	-0.101	0.334
-200.333	-119.394	-0.184	-0.032
-199.319	-25.757	-0.159	0.093
-198.304	58.946	-0.106	0.103
-197.290	-125.785	0.237	0.035
-196.275	798.116	-0.085	0.232
-195.260	-150.734	-0.120	-0.009
-194.246	-42.263	-0.105	-0.053
-193.231	275.557	0.046	0.080
-192.217	721.243	0.173	-0.455
-191.202	-200.000	0.010	-0.202
-190.187	69.460	0.037	0.038
-189.173	-100.594	0.400	0.097
-188.158	800.000	-0.034	0.116
-187.144	-185.022	-0.126	0.002
-186.129	549.238	0.042	0.099
-185.114	779.542	-0.050	0.134
-184.100	50.559	0.089	-0.083
-183.085	-200.000	0.017	-0.093
-182.071	-200.000	-0.007	-0.067
-181.056	29.437	0.115	0.097
-180.042	-200.000	0.001	-0.075
-179.027	-50.724	0.232	0.108
-178.012	-28.551	-0.372	-0.211
-176.998	-103.438	-0.287	0.067
-175.983	535.499	0.055	-0.129
-174.969	-200.000	-0.038	0.224
-173.954	117.618	-0.167	0.203
-172.939	242.371	-0.003	-0.005
-171.925	441.064	0.055	-0.120
-170.910	-74.758	-0.095	-0.034
-169.896	-200.000	0.050	0.336
-168.881	86.044	0.055	0.059
-167.866	-87.827	-0.141	0.042
-166.852	-170.142	0.131	-0.005
-165.837	51.882	0.005	-0.005
-164.823	800.000	0.068	-0.249
-163.808	431.975	-0.128	0.273
-162.793	800.000	-0.062	0.210
-161.779	328.640	-0.060	-0.113
-160.764	45.519	-0.143	-0.130
-159.750	800.000	0.085	-0.340
-158.735	-200.000	-0.006	-0.264
-157.720	-126.421	-0.122	0.018
-156.706	-200.000	0.001	-0.075
-155.691	760.212	0.051	-0.136
-154.677	-200.000	0.013	-0.159
-153.662	-200.000	0.018	0.121
-152.647	-200.000	-0.021	0.382
-151.633	136.294	0.040	-0.052
-150.618	-200.000	-0.013	0.205
-149.604	-20.196	-0.141	-0.086
-148.589	-146.473	0.127	-0.011
-147.574	800.000	0.055	-0.161
-146.560	81.724	0.173	0.185
-145.545	334.691	0.173	0.330
-144.531	-200.000	-0.005	-0.106
-143.516	-122.351	-0.155	-0.025
-142.502	241.613	-0.113	0.187
-141.487	-31.801	-0.202	0.111
-140.472	-116.505	-0.136	-0.025
-139.458	800.000	-0.136	-0.495
-138.443	-16.934	0.405	0.252
-137.429	660.476	0.071	0.180
-136.414	-143.150	0.169	0.016
-135.399	204.433	-0.129	0.197
-134.385	-110.731	0.253	0.051
-133.370	800.000	0.020	0.072
-132.356	91.618	0.036	-0.040
-131.341	800.000	0.111	-0.412
-130.326	320.908	-0.109	-0.204
-129.312	51.547	0.206	-0.193
-128.297	800.000	-0.062	0.241
-127.283	678.301	0.067	-0.171
-126.268	125.668	0.168	0.209
-125.253	18.435	-0.049	0.039
-124.239	-134.702	-0.092	0.011
-123.224	-0.764	0.184	0.128
-122.210	-92.113	-0.177	0.049
-121.195	-122.153	0.277	-0.045
