DTS Sentinel unit serial number:	SN413079Multiplexer serial number:	ORYXHardware model number:	OX4-SRSoftware version number:	ORYX F/W v4.00 Oryx Data Collector v3.7.2.0data status	okinstallation	princeton_trtdifferential loss correction	single-endedforward channel	channel 2reverse channel	N/Adate	2019/09/11time	04:09:11forward acquisition time	60.00reverse acquisition time	0.00gamma	496.2192k internal	0.2328k external	0.2328temperature offset calibration	0.9941default loss term (dB/km)	0.3790temperature slope calibration	1.0000multiplexer offset coefficient	1.0000multiplexer slope coefficient	1.0000fibre end	0.00T internal ref (°C)	29.56T ext. ref 1 (°C)	-0.28T ext. ref 2 (°C)	23.51length (m)	temperature (°C)	Stokes	anti-Stokes-747.200	800.000	-0.062	-0.271
-746.185	-155.047	0.349	0.023
-745.171	-200.000	0.060	0.386
-744.156	139.373	0.136	0.180
-743.142	-200.000	-0.002	0.068
-742.127	800.000	0.093	0.288
-741.112	-109.125	0.285	-0.061
-740.098	-166.523	-0.207	0.009
-739.083	-74.736	-0.304	0.110
-738.069	306.387	0.150	0.282
-737.054	-51.204	-0.066	0.031
-736.039	570.861	-0.129	0.316
-735.025	353.069	0.109	0.217
-734.010	-65.912	0.146	-0.059
-732.996	-188.270	-0.292	-0.004
-731.981	-82.315	-0.212	-0.069
-730.966	333.340	-0.033	0.064
-729.952	-3.053	0.166	-0.116
-728.937	278.006	-0.066	-0.118
-727.923	800.000	-0.019	-0.056
-726.908	300.894	-0.171	-0.317
-725.894	800.000	-0.109	0.350
-724.879	452.348	-0.036	-0.080
-723.864	-200.000	0.072	0.350
-722.850	65.604	0.167	-0.171
-721.835	-200.000	-0.014	-0.140
-720.821	128.439	-0.100	-0.128
-719.806	-200.000	0.025	-0.170
-718.791	31.019	-0.324	0.280
-717.777	-169.203	-0.081	-0.003
-716.762	-36.472	-0.050	0.027
-715.748	-200.000	-0.008	-0.046
-714.733	-96.278	-0.237	0.063
-713.718	179.943	0.251	-0.370
-712.704	100.009	0.047	-0.055
-711.689	-18.444	0.097	-0.061
-710.675	-81.369	-0.301	-0.100
-709.660	-90.617	-0.254	0.074
-708.645	-33.227	0.049	-0.027
-707.631	-200.000	-0.009	0.060
-706.616	243.145	-0.036	-0.061
-705.602	199.390	-0.091	-0.140
-704.587	56.696	-0.470	0.461
-703.572	-200.000	0.012	-0.166
-702.558	43.264	-0.183	-0.168
-701.543	-135.096	0.275	-0.033
-700.529	27.871	-0.424	0.359
-699.514	-200.000	-0.058	-0.282
-698.499	-56.238	-0.078	-0.035
-697.485	-1.132	-0.074	0.053
-696.470	-200.000	0.014	0.168
-695.456	-200.000	-0.012	0.238
-694.441	-200.000	-0.039	0.258
-693.426	-200.000	-0.004	-0.231
-692.412	102.621	-0.130	0.152
-691.397	-200.000	0.022	-0.294
-690.383	292.000	-0.190	0.348
-689.368	-47.595	0.332	0.162
-688.354	800.000	0.054	-0.238
-687.339	375.953	-0.027	0.055
-686.324	-54.837	0.187	-0.085
-685.310	552.067	-0.058	0.140
-684.295	8.686	0.221	0.167
-683.281	-200.000	0.006	-0.183
-682.266	-153.551	-0.177	0.012
-681.251	-12.225	0.280	0.184
-680.237	-48.750	-0.178	0.086
-679.222	132.130	-0.169	-0.219
-678.208	800.000	-0.088	-0.310
-677.193	-115.928	-0.396	-0.074
-676.178	-200.000	0.001	-0.318
-675.164	-200.000	-0.023	0.154
-674.149	116.697	-0.127	0.156
-673.135	520.216	-0.130	0.306
-672.120	493.815	-0.060	-0.139
-671.105	66.808	-0.248	0.253
-670.091	-200.000	0.016	-0.136
-669.076	410.486	0.173	0.369
-668.062	247.220	-0.113	0.192
-667.047	-9.365	-0.343	-0.230
-666.032	-163.193	-0.325	0.016
-665.018	-41.757	-0.188	-0.097
-664.003	58.138	-0.202	-0.199
-662.989	639.926	-0.048	0.122
-661.974	-169.513	-0.199	-0.007
-660.959	241.578	0.135	0.227
-659.945	560.276	-0.066	0.159
-658.930	58.222	0.102	-0.101
-657.916	-163.031	-0.077	-0.004
-656.901	-200.000	-0.014	0.106
-655.886	800.000	0.024	0.096
-654.872	-14.098	-0.163	-0.106
-653.857	-120.362	-0.137	-0.023
-652.843	-69.421	0.204	-0.078
-651.828	-5.530	-0.090	0.062
-650.814	10.499	0.305	-0.233
-649.799	-116.168	-0.320	0.060
-648.784	-52.954	0.229	-0.106
-647.770	-200.000	-0.438	-0.000
-646.755	85.642	-0.028	-0.031
-645.741	800.000	-0.049	-0.187
-644.726	800.000	-0.058	-0.185
-643.711	139.864	0.217	-0.286
-642.697	51.658	0.282	-0.269
-641.682	122.023	-0.032	-0.040
-640.668	-30.532	-0.239	-0.136
-639.653	800.000	0.124	0.370
-638.638	-47.855	0.392	-0.190
-637.624	-106.272	-0.211	-0.047
-636.609	39.805	0.155	-0.139
-635.595	352.975	0.063	-0.125
-634.580	208.558	0.060	0.095
-633.565	134.924	0.208	0.271
-632.551	128.211	0.037	0.047
-631.536	104.697	-0.295	0.349
-630.522	-64.135	0.222	-0.091
-629.507	71.221	0.084	0.087
-628.492	112.234	0.244	0.295
-627.478	-57.690	-0.201	-0.088
-626.463	106.818	-0.129	0.154
-625.449	-159.834	-0.407	-0.022
-624.434	436.272	0.176	0.383
-623.419	-132.802	-0.366	-0.047
-622.405	-145.511	0.034	0.003
-621.390	35.357	-0.387	0.340
-620.376	-70.598	-0.130	0.049
-619.361	159.559	0.051	0.071
-618.346	-69.658	-0.146	-0.056
-617.332	10.437	0.190	0.145
-616.317	-200.000	0.034	-0.212
-615.303	-128.105	0.448	0.064
-614.288	443.512	-0.050	0.111
-613.273	315.667	-0.111	0.210
-612.259	367.217	0.081	-0.163
-611.244	156.634	-0.114	-0.157
-610.230	756.774	-0.048	-0.131
-609.215	81.014	0.121	-0.131
-608.201	24.378	-0.122	0.101
-607.186	800.000	0.074	-0.296
-606.171	168.645	0.091	-0.130
-605.157	-41.885	0.264	0.136
-604.142	-49.719	-0.055	0.026
-603.128	-200.000	0.033	-0.152
-602.113	-200.000	0.006	0.045
-601.098	-157.816	-0.239	0.014
-600.084	-123.499	0.237	0.038
-599.069	-200.000	-0.009	-0.359
-598.055	696.539	0.032	0.084
-597.040	-14.553	0.366	-0.236
-596.025	-92.413	0.234	0.066
-595.011	800.000	-0.065	-0.264
-593.996	800.000	0.076	-0.227
-592.982	-200.000	-0.014	0.109
-591.967	-200.000	0.037	0.202
-590.952	800.000	0.102	0.389
-589.938	442.313	-0.098	0.216
-588.923	228.201	-0.105	-0.171
-587.909	-123.169	-0.196	0.032
-586.894	-59.319	0.020	-0.009
-585.879	40.446	0.337	0.304
-584.865	525.051	-0.075	0.178
-583.850	73.251	-0.184	-0.193
-582.836	-100.746	-0.218	-0.054
-581.821	61.698	-0.095	0.094
-580.806	62.653	0.168	-0.169
-579.792	-115.186	0.265	-0.050
-578.777	235.349	-0.163	-0.269
-577.763	-64.903	0.218	0.088
-576.748	52.101	0.029	-0.028
-575.733	273.586	0.068	0.121
-574.719	-45.134	0.198	0.098
-573.704	-31.335	0.287	-0.162
-572.690	360.950	-0.124	0.249
-571.675	-1.563	0.104	-0.073
-570.661	-100.158	0.133	0.033
-569.646	-82.659	-0.220	-0.071
-568.631	800.000	-0.055	-0.226
-567.617	800.000	-0.059	-0.220
-566.602	-88.702	0.271	0.081
-565.588	-200.000	-0.081	0.453
-564.573	-200.000	-0.033	0.259
-563.558	-50.076	-0.059	-0.028
-562.544	-200.000	-0.034	-0.311
-561.529	-78.814	0.378	0.129
-560.515	800.000	-0.041	0.150
-559.500	227.533	-0.088	-0.143
-558.485	-200.000	-0.028	0.205
-557.471	657.707	-0.050	0.130
-556.456	800.000	0.051	-0.169
-555.442	92.535	0.092	0.103
-554.427	58.713	-0.160	0.157
-553.412	800.000	-0.067	-0.205
-552.398	56.879	0.150	-0.146
-551.383	-116.726	0.423	0.078
-550.369	550.584	0.081	-0.194
-549.354	-200.000	0.031	-0.185
-548.339	-200.000	0.040	0.238
-547.325	145.895	-0.219	0.294
-546.310	396.630	-0.187	-0.391
-545.296	800.000	-0.050	-0.146
-544.281	22.567	-0.368	-0.301
-543.266	55.892	0.330	-0.320
-542.252	-106.171	-0.145	0.032
-541.237	359.963	-0.076	-0.152
-540.223	-29.859	0.249	0.142
-539.208	50.747	0.135	-0.128
-538.193	57.053	0.047	-0.046
-537.179	-89.975	-0.263	-0.077
-536.164	645.758	-0.014	-0.037
-535.150	141.483	-0.123	-0.163
-534.135	-18.122	-0.212	0.133
-533.121	-160.270	0.059	-0.003
-532.106	800.000	-0.052	-0.175
-531.091	193.380	-0.046	0.070
-530.077	-170.140	-0.138	0.005
-529.062	266.117	0.320	-0.559
-528.048	8.308	0.136	0.102
-527.033	-97.537	-0.622	0.161
-526.018	-200.000	0.046	-0.216
-525.004	183.740	-0.260	-0.384
-523.989	41.960	-0.091	-0.083
-522.975	-85.712	0.059	0.018
-521.960	102.556	0.148	0.173
-520.945	96.451	0.133	-0.152
-519.931	-56.659	0.205	0.090
-518.916	-148.929	0.249	0.020
-517.902	-200.000	-0.010	-0.174
-516.887	710.063	0.089	-0.234
-515.872	-200.000	0.009	-0.154
-514.858	-200.000	-0.011	0.183
-513.843	-200.000	-0.000	-0.069
-512.829	-200.000	-0.031	0.239
-511.814	-67.218	-0.278	-0.109
-510.799	-80.885	0.114	-0.038
-509.785	84.727	0.176	-0.193
-508.770	122.876	0.165	0.207
-507.756	-70.523	-0.067	-0.025
-506.741	72.381	-0.150	-0.156
-505.726	271.263	-0.121	0.212
-504.712	-100.278	-0.068	-0.017
-503.697	-136.129	0.070	-0.008
-502.683	-155.360	0.519	-0.034
-501.668	-126.027	-0.074	-0.011
-500.653	112.970	-0.044	-0.053
-499.639	568.664	0.056	-0.136
-498.624	800.000	0.022	0.086
-497.610	800.000	-0.063	0.212
-496.595	-64.657	0.177	-0.072
-495.581	-20.521	0.141	0.087
-494.566	-200.000	-0.027	0.253
-493.551	381.417	-0.060	-0.122
-492.537	569.601	0.053	-0.128
-491.522	-154.664	-0.346	0.023
-490.508	800.000	0.087	0.340
-489.493	-200.000	-0.041	-0.218
-488.478	312.881	-0.066	0.123
-487.464	56.798	-0.138	-0.135
-486.449	31.974	-0.071	0.061
-485.435	367.165	-0.102	0.205
-484.420	-57.414	-0.385	0.169
-483.405	-72.602	0.440	-0.162
-482.391	800.000	-0.067	0.266
-481.376	26.944	0.143	0.120
-480.362	-132.321	0.399	-0.051
-479.347	211.749	-0.070	0.110
-478.332	-200.000	0.019	0.274
-477.318	-8.009	-0.140	0.094
-476.303	1.851	-0.098	0.070
-475.289	-130.252	0.215	0.029
-474.274	-200.000	-0.002	-0.071
-473.259	743.352	0.017	-0.047
-472.245	-67.935	0.084	0.033
-471.230	87.657	0.189	0.209
-470.216	-31.896	-0.089	-0.050
-469.201	-70.944	-0.339	0.127
-468.186	800.000	0.083	0.261
-467.172	586.992	0.121	0.296
-466.157	-152.711	-0.373	-0.026
-465.143	18.815	-0.304	0.243
-464.128	-30.665	-0.105	0.059
-463.113	357.990	0.047	0.093
-462.099	-41.489	0.208	-0.107
-461.084	-63.394	-0.056	-0.023
-460.070	-200.000	-0.003	0.032
-459.055	735.851	-0.155	-0.413
-458.040	-52.086	-0.310	0.143
-457.026	-22.770	0.149	0.089
-456.011	-167.447	0.106	0.004
-454.997	-3.460	0.154	-0.107
-453.982	-200.000	-0.024	-0.109
-452.968	-73.290	0.153	-0.056
-451.953	300.373	-0.201	-0.370
-450.938	-139.246	0.099	0.011
-449.924	-29.536	-0.112	-0.064
-448.909	800.000	0.142	-0.474
-447.895	232.251	-0.030	-0.048
-446.880	800.000	0.038	0.145
-445.865	-45.135	0.158	-0.078
-444.851	-88.936	-0.204	-0.060
-443.836	-22.851	-0.090	0.054
-442.822	-50.960	0.413	0.193
-441.807	-191.283	0.358	0.004
-440.792	49.191	-0.124	-0.116
-439.778	-111.710	-0.322	0.065
-438.763	-62.715	0.124	0.051
-437.749	277.023	0.098	0.174
-436.734	800.000	-0.059	-0.235
-435.719	-22.569	0.316	0.190
-434.705	129.906	-0.023	0.029
-433.690	9.776	-0.155	-0.117
-432.676	98.019	0.205	-0.235
-431.661	-98.668	-0.265	-0.067
-430.646	800.000	0.086	-0.280
-429.632	-101.948	0.193	-0.046
-428.617	-57.443	0.160	0.070
-427.603	26.147	0.066	-0.055
-426.588	800.000	-0.035	0.129
-425.573	618.701	-0.178	0.445
-424.559	-57.683	0.259	-0.113
-423.544	800.000	-0.068	-0.274
-422.530	-200.000	0.032	0.297
-421.515	-200.000	-0.021	0.210
-420.500	267.545	0.078	-0.136
-419.486	383.345	-0.168	-0.343
-418.471	519.028	0.166	-0.386
-417.457	45.206	-0.177	0.163
-416.442	194.048	-0.156	0.235
-415.428	-80.395	-0.283	0.094
-414.413	-101.629	0.412	-0.099
-413.398	-200.000	0.019	-0.141
-412.384	83.604	0.147	0.160
-411.369	-200.000	-0.044	-0.192
-410.355	-200.000	-0.192	-0.000
-409.340	800.000	0.079	-0.323
-408.325	-200.000	0.032	-0.166
-407.311	-19.340	-0.219	0.135
-406.296	-200.000	-0.013	-0.336
-405.282	-0.902	-0.059	0.041
-404.267	9.902	0.199	0.150
-403.252	485.101	0.104	0.235
-402.238	-134.586	-0.130	-0.016
-401.223	-129.058	0.349	-0.049
-400.209	-75.398	-0.278	-0.098
-399.194	-83.653	0.290	0.092
-398.179	-44.157	-0.161	-0.080
-397.165	-106.471	-0.149	0.033
-396.150	99.633	0.122	0.140
-395.136	-126.199	-0.422	-0.063
-394.121	-93.277	0.289	0.080
-393.106	128.881	-0.154	0.195
-392.092	174.681	-0.079	-0.114
-391.077	89.879	-0.077	0.085
-390.063	800.000	-0.072	-0.310
-389.048	-42.919	0.047	0.024
-388.033	-101.310	-0.189	0.046
-387.019	-200.000	0.026	-0.229
-386.004	-175.881	-0.257	0.007
-384.990	236.829	-0.195	0.321
-383.975	5.242	0.031	0.023
-382.960	-0.306	0.145	-0.102
-381.946	-48.875	-0.296	-0.141
-380.931	-118.423	-0.158	0.028
-379.917	-76.097	-0.065	0.023
-378.902	-130.043	0.210	0.029
-377.888	227.934	0.079	0.128
-376.873	-15.253	0.341	0.217
-375.858	800.000	0.027	0.091
-374.844	230.065	-0.257	-0.417
-373.829	240.872	-0.142	0.236
-372.815	-200.000	-0.014	-0.091
-371.800	16.387	-0.208	0.163
-370.785	517.901	0.084	-0.195
-369.771	-76.568	-0.211	0.073
-368.756	800.000	-0.150	-0.477
-367.742	23.181	0.109	-0.089
-366.727	148.068	0.129	0.173
-365.712	-59.137	-0.051	0.022
-364.698	39.677	0.131	-0.117
-363.683	-39.294	0.101	0.052
-362.669	-39.266	-0.309	0.161
-361.654	-200.000	0.009	0.058
-360.639	410.999	-0.045	0.095
-359.625	-107.853	-0.283	0.061
-358.610	-191.434	-0.154	-0.002
-357.596	112.991	0.108	-0.130
-356.581	-85.881	0.028	0.009
-355.566	-73.418	-0.210	0.076
-354.552	800.000	0.036	0.130
-353.537	-25.423	-0.133	0.078
-352.523	-15.559	-0.490	0.310
-351.508	800.000	-0.058	0.163
-350.493	-200.000	-0.014	-0.271
-349.479	-44.177	-0.415	-0.207
-348.464	64.171	0.172	-0.172
-347.450	210.515	-0.133	0.207
-346.435	149.311	-0.099	0.132
-345.420	800.000	0.091	-0.257
-344.406	-46.129	-0.294	-0.144
-343.391	800.000	0.083	-0.323
-342.377	-181.172	-0.237	0.005
-341.362	99.647	-0.097	-0.112
-340.348	370.303	-0.140	-0.281
-339.333	177.538	0.096	-0.139
-338.318	-200.000	-0.044	0.274
-337.304	-115.160	0.279	-0.052
-336.289	292.152	-0.107	-0.193
-335.275	145.029	0.069	0.091
-334.260	279.439	0.210	-0.372
-333.245	-200.000	0.027	-0.146
-332.231	800.000	0.056	-0.226
-331.216	-83.462	0.275	-0.087
-330.202	612.901	0.069	-0.172
-329.187	-200.000	0.020	-0.186
-328.172	-64.982	-0.052	-0.021
-327.158	344.140	-0.113	0.220
-326.143	-29.593	0.248	0.141
-325.129	-200.000	-0.012	-0.061
-324.114	-36.276	0.175	-0.094
-323.099	-74.459	0.174	0.062
-322.085	-116.937	0.302	-0.055
-321.070	461.022	0.226	0.500
-320.056	-200.000	-0.024	-0.335
-319.041	800.000	-0.018	0.070
-318.026	2.255	-0.155	0.111
-317.012	-179.423	0.231	0.005
-315.997	800.000	-0.083	-0.290
-314.983	-114.402	0.244	-0.047
-313.968	36.533	0.139	0.122
-312.953	-85.700	0.225	0.069
-311.939	-174.213	0.229	-0.007
-310.924	-98.202	0.472	0.120
-309.910	-22.157	-0.248	0.149
-308.895	-125.674	0.248	0.037
-307.880	-200.000	-0.033	-0.317
-306.866	-74.357	-0.217	-0.078
-305.851	-200.000	-0.022	0.252
-304.837	168.143	-0.098	0.138
-303.822	-100.226	0.139	-0.034
-302.807	251.425	-0.136	-0.229
-301.793	-87.001	-0.037	-0.011
-300.778	-95.270	-0.341	-0.091
-299.764	-159.484	-0.090	0.005
-298.749	-122.238	-0.334	-0.054
-297.735	-200.000	-0.013	0.190
-296.720	650.842	-0.077	-0.196
-295.705	-171.817	-0.286	0.009
-294.691	291.739	-0.087	0.158
-293.676	300.549	-0.197	0.360
-292.662	-158.385	0.279	-0.016
-291.647	-70.850	-0.088	0.033
-290.632	-19.764	0.055	0.033
-289.618	-126.265	0.100	-0.015
-288.603	-94.724	-0.177	-0.048
-287.589	45.807	-0.098	-0.090
-286.574	800.000	-0.064	0.249
-285.559	-200.000	0.036	-0.279
-284.545	-127.264	-0.166	-0.024
-283.530	102.816	-0.052	0.061
-282.516	75.920	-0.209	-0.218
-281.501	-47.146	0.048	-0.023
-280.486	-176.940	-0.120	-0.003
-279.472	-149.880	0.129	-0.010
-278.457	-200.000	0.006	0.255
-277.443	800.000	0.044	0.131
-276.428	800.000	-0.041	0.171
-275.413	800.000	-0.100	-0.343
-274.399	266.756	-0.076	0.131
-273.384	796.512	-0.069	-0.188
-272.370	800.000	-0.078	0.223
-271.355	800.000	0.105	0.330
-270.340	20.064	0.148	0.118
-269.326	115.156	-0.053	-0.064
-268.311	-113.309	-0.159	-0.031
-267.297	-200.000	-0.015	0.172
-266.282	214.090	0.081	-0.127
-265.267	195.365	-0.064	0.096
-264.253	-81.335	0.114	-0.037
-263.238	62.330	0.170	-0.168
-262.224	-91.396	0.063	-0.018
-261.209	800.000	-0.172	-0.597
-260.195	599.356	0.091	-0.222
-259.180	274.641	0.134	0.235
-258.165	-105.629	-0.220	0.049
-257.151	-106.123	0.126	0.028
-256.136	-200.000	-0.005	-0.089
-255.122	-3.417	-0.141	-0.097
-254.107	453.296	0.050	-0.109
-253.092	0.381	0.026	-0.018
-252.078	-42.597	-0.112	0.056
-251.063	-200.000	0.027	0.282
-250.049	-84.201	-0.363	0.114
-249.034	-99.847	0.300	0.074
-248.019	42.269	0.166	-0.149
-247.005	-200.000	0.009	0.042
-245.990	193.563	0.096	-0.143
-244.976	-96.024	-0.162	-0.042
-243.961	12.278	0.368	-0.280
-242.946	112.520	0.127	-0.151
-241.932	-200.000	0.037	-0.312
-240.917	-104.951	0.197	0.045
-239.903	-112.877	-0.240	0.047
-238.888	800.000	0.010	0.037
-237.873	-38.569	0.288	-0.150
-236.859	316.874	-0.050	0.093
-235.844	800.000	-0.064	-0.178
-234.830	13.277	-0.302	-0.231
-233.815	181.305	0.072	0.105
-232.800	800.000	-0.119	0.488
-231.786	-188.013	0.386	-0.005
-230.771	374.472	0.080	0.161
-229.757	229.576	-0.066	-0.107
-228.742	800.000	0.022	0.069
-227.727	800.000	0.031	0.091
-226.713	-200.000	0.037	-0.429
-225.698	-92.585	0.114	-0.032
-224.684	107.435	-0.107	0.126
-223.669	-200.000	0.004	-0.185
-222.655	437.155	0.181	0.389
-221.640	134.260	-0.159	0.203
-220.625	-200.000	0.034	0.243
-219.611	412.436	-0.078	0.164
-218.596	72.413	-0.205	-0.211
-217.582	-75.999	0.282	0.098
-216.567	101.694	0.204	-0.234
-215.552	96.937	-0.109	-0.123
-214.538	251.274	-0.156	-0.263
-213.523	18.620	-0.208	0.164
-212.509	463.082	-0.058	0.129
-211.494	-200.000	-0.062	0.283
-210.479	-12.209	0.218	0.141
-209.465	528.295	-0.054	0.125
-208.450	-128.275	-0.250	-0.035
-207.436	-11.915	0.079	0.051
-206.421	-74.397	0.229	-0.081
-205.406	-61.779	0.160	-0.066
-204.392	800.000	-0.036	0.149
-203.377	21.996	0.215	-0.173
-202.363	-20.680	-0.096	0.058
-201.348	392.317	-0.140	-0.286
-200.333	149.937	0.124	0.166
-199.319	-39.245	0.258	0.134
-198.304	536.864	-0.043	-0.102
-197.290	-146.055	-0.366	-0.032
-196.275	-59.772	-0.139	0.059
-195.260	-61.855	-0.207	0.086
-194.246	192.853	-0.123	-0.184
-193.231	-130.309	0.222	0.030
-192.217	209.903	-0.040	0.062
-191.202	-58.228	0.417	0.179
-190.187	-200.000	0.039	0.237
-189.173	-55.918	0.333	-0.147
-188.158	326.278	0.127	0.239
-187.144	-200.000	-0.039	0.312
-186.129	84.362	-0.281	0.303
-185.114	530.040	0.070	-0.164
-184.100	-110.520	0.124	-0.025
-183.085	-200.000	-0.012	0.133
-182.071	-3.534	-0.102	-0.070
-181.056	-151.650	-0.112	-0.008
-180.042	800.000	-0.022	0.079
-179.027	37.823	0.230	0.202
-178.012	800.000	-0.037	0.133
-176.998	800.000	-0.113	0.309
-175.983	12.206	-0.199	0.151
-174.969	309.281	-0.042	0.077
-173.954	-42.587	-0.175	-0.088
-172.939	-98.508	0.067	0.017
-171.925	-18.245	-0.126	-0.078
-170.910	-200.000	0.037	0.169
-169.896	-29.630	0.572	-0.322
-168.881	348.682	-0.056	-0.110
-167.866	13.925	0.078	0.060
-166.852	800.000	0.064	0.200
-165.837	190.085	0.138	0.204
-164.823	-200.000	-0.044	0.446
-163.808	-41.782	-0.252	-0.127
-162.793	4.159	0.177	0.128
-161.779	800.000	-0.015	0.045
-160.764	190.346	0.042	0.062
-159.750	372.807	-0.122	0.244
-158.735	-128.648	-0.240	0.033
-157.720	-200.000	0.013	0.165
-156.706	-59.609	-0.136	-0.058
-155.691	-200.000	-0.032	0.148
-154.677	-11.373	0.253	-0.164
-153.662	-200.000	-0.006	-0.156
-152.647	800.000	-0.068	0.282
-151.633	200.565	0.012	0.018
-150.618	800.000	0.084	0.299
-149.604	-127.209	-0.461	0.066
-148.589	800.000	-0.046	-0.137
-147.574	9.389	-0.232	0.173
-146.560	-152.358	-0.067	-0.005
-145.545	40.574	-0.042	0.037
-144.531	28.549	-0.272	0.226
-143.516	-45.798	0.350	0.170
-142.502	-139.763	-0.176	0.018
-141.487	48.548	0.161	0.149
-140.472	-200.000	0.016	0.562
-139.458	-200.000	-0.022	0.203
-138.443	800.000	0.069	-0.192
-137.429	216.605	-0.056	-0.087
-136.414	382.345	0.111	0.225
-135.399	-2.230	0.181	0.125
-134.385	-87.395	-0.246	-0.073
-133.370	-60.009	0.290	0.122
-132.356	310.381	0.053	0.097
-131.341	-200.000	-0.017	0.092
-130.326	-143.561	-0.307	-0.029
-129.312	-13.420	-0.130	0.083
-128.297	36.886	-0.089	0.077
-127.283	800.000	-0.102	0.308
-126.268	-200.000	0.478	0.002
-125.253	-200.000	0.000	-0.134
-124.239	-200.000	0.008	-0.337
-123.224	-200.000	0.046	-0.204
-122.210	449.547	0.169	-0.366
