DTS Sentinel unit serial number:	SN413079Multiplexer serial number:	ORYXHardware model number:	OX4-SRSoftware version number:	ORYX F/W v4.00 Oryx Data Collector v3.7.2.0data status	okinstallation	princeton_trtdifferential loss correction	single-endedforward channel	channel 2reverse channel	N/Adate	2019/09/11time	20:37:11forward acquisition time	60.00reverse acquisition time	0.00gamma	496.2192k internal	0.2320k external	0.2320temperature offset calibration	1.0059default loss term (dB/km)	0.3790temperature slope calibration	1.0000multiplexer offset coefficient	1.0000multiplexer slope coefficient	1.0000fibre end	0.00T internal ref (°C)	37.37T ext. ref 1 (°C)	1.54T ext. ref 2 (°C)	30.86length (m)	temperature (°C)	Stokes	anti-Stokes-747.200	41.149	0.053	0.049
-746.185	-200.000	-0.043	0.306
-745.171	268.350	-0.128	0.227
-744.156	-200.000	-0.007	0.357
-743.142	-200.000	-0.038	0.258
-742.127	-200.000	-0.063	0.326
-741.112	-200.000	0.051	-0.446
-740.098	800.000	0.034	0.138
-739.083	114.599	-0.038	-0.047
-738.069	-113.817	-0.240	-0.047
-737.054	-20.353	-0.330	-0.205
-736.039	78.413	-0.225	-0.243
-735.025	-118.373	0.197	0.035
-734.010	354.039	-0.182	-0.366
-732.996	-200.000	-0.000	-0.105
-731.981	-62.329	-0.162	0.068
-730.966	72.186	-0.107	0.113
-729.952	155.505	0.026	-0.037
-728.937	573.800	0.125	-0.307
-727.923	398.618	0.112	0.238
-726.908	38.012	0.095	-0.085
-725.894	-200.000	-0.022	-0.275
-724.879	-29.261	0.241	-0.140
-723.864	193.429	-0.140	-0.214
-722.850	-26.913	-0.278	-0.164
-721.835	-144.661	-0.126	-0.012
-720.821	-2.992	0.135	-0.095
-719.806	741.202	-0.044	-0.120
-718.791	-60.302	0.397	-0.171
-717.777	-106.357	-0.162	0.037
-716.762	-200.000	0.070	-0.510
-715.748	216.839	0.109	-0.176
-714.733	-200.000	-0.016	0.295
-713.718	-9.593	0.254	-0.171
-712.704	-104.142	0.267	-0.063
-711.689	74.425	-0.025	0.027
-710.675	-200.000	0.043	-0.255
-709.660	-108.068	0.282	0.062
-708.645	637.432	-0.093	0.238
-707.631	58.494	-0.188	0.186
-706.616	-132.853	0.188	-0.024
-705.602	-70.328	-0.416	0.159
-704.587	85.847	0.080	0.089
-703.572	-200.000	-0.050	0.309
-702.558	6.264	0.157	-0.117
-701.543	-127.787	-0.322	-0.047
-700.529	169.998	0.103	0.149
-699.514	-200.000	-0.045	-0.432
-698.499	-90.631	0.144	0.042
-697.485	-26.354	0.118	-0.070
-696.470	368.117	-0.143	-0.292
-695.456	97.813	-0.084	0.098
-694.441	-200.000	0.012	0.221
-693.426	522.728	-0.115	-0.274
-692.412	180.812	-0.172	-0.255
-691.397	-26.735	-0.386	0.228
-690.383	-200.000	0.006	0.099
-689.368	800.000	-0.013	0.045
-688.354	-110.659	-0.375	0.078
-687.339	-200.000	0.035	0.244
-686.324	-164.735	-0.191	-0.009
-685.310	-118.872	-0.223	0.039
-684.295	-200.000	-0.040	0.294
-683.281	-200.000	0.028	0.421
-682.266	19.756	0.129	0.105
-681.251	-124.019	-0.170	0.027
-680.237	62.750	0.270	-0.273
-679.222	-27.420	0.331	-0.194
-678.208	-38.559	0.262	-0.140
-677.193	-150.930	-0.084	0.006
-676.178	19.701	0.325	-0.263
-675.164	123.710	-0.174	-0.220
-674.149	-101.737	-0.177	0.043
-673.135	49.781	-0.188	-0.179
-672.120	-30.781	-0.038	-0.021
-671.105	-200.000	-0.024	0.130
-670.091	-173.509	-0.275	0.008
-669.076	65.747	0.060	0.062
-668.062	-200.000	0.003	-0.259
-667.047	-2.361	-0.204	-0.144
-666.032	-19.164	0.055	-0.034
-665.018	-31.607	0.182	0.103
-664.003	-116.329	-0.052	0.010
-662.989	-112.159	-0.402	0.081
-661.974	-32.620	-0.328	-0.184
-660.959	-99.268	-0.309	-0.079
-659.945	-124.489	-0.251	-0.039
-658.930	150.364	-0.171	0.234
-657.916	-78.737	0.299	-0.103
-656.901	271.718	0.156	0.277
-655.886	-200.000	0.016	-0.180
-654.872	139.975	0.070	-0.093
-653.857	55.206	-0.258	-0.251
-652.843	175.616	-0.062	0.091
-651.828	8.147	-0.303	0.229
-650.814	33.390	0.146	-0.128
-649.799	39.278	0.170	-0.154
-648.784	-34.217	0.408	0.226
-647.770	59.019	0.116	0.115
-646.755	800.000	-0.138	0.397
-645.741	730.236	-0.064	-0.172
-644.726	27.253	-0.244	-0.206
-643.711	-41.628	-0.094	0.049
-642.697	-200.000	-0.017	-0.126
-641.682	10.648	-0.314	-0.241
-640.668	-20.421	-0.113	0.070
-639.653	515.700	0.068	-0.161
-638.638	800.000	-0.048	-0.139
-637.624	134.140	-0.214	-0.279
-636.609	-111.483	-0.116	-0.024
-635.595	-82.724	0.175	-0.057
-634.580	-171.115	-0.195	-0.007
-633.565	23.665	-0.092	-0.076
-632.551	460.223	0.040	-0.089
-631.536	-13.332	-0.160	-0.105
-630.522	-200.000	0.025	0.418
-629.507	-35.079	-0.210	-0.115
-628.492	-83.826	-0.238	-0.076
-627.478	-24.517	0.284	0.170
-626.463	-200.000	-0.066	-0.300
-625.449	198.131	0.058	0.089
-624.434	191.697	0.096	0.145
-623.419	-200.000	0.070	-0.342
-622.405	28.632	-0.191	0.162
-621.390	-200.000	0.022	0.329
-620.376	155.538	0.226	0.313
-619.361	33.315	-0.187	-0.164
-618.346	200.845	-0.085	0.131
-617.332	-95.590	0.389	0.105
-616.317	-87.768	-0.083	-0.025
-615.303	228.088	0.144	0.236
-614.288	-3.346	0.388	0.272
-613.273	-71.892	-0.205	0.077
-612.259	357.052	-0.039	-0.079
-611.244	-132.299	-0.037	-0.005
-610.230	667.848	0.074	-0.194
-609.215	-112.056	-0.231	0.047
-608.201	-10.283	-0.094	0.063
-607.186	-200.000	0.018	-0.104
-606.171	-37.141	0.275	-0.148
-605.157	-118.347	-0.058	-0.010
-604.142	102.468	0.125	0.147
-603.128	-79.106	-0.136	0.046
-602.113	443.891	-0.021	-0.047
-601.098	531.107	0.057	0.136
-600.084	-200.000	0.009	0.100
-599.069	-200.000	-0.024	0.206
-598.055	6.549	-0.155	0.116
-597.040	-200.000	-0.014	-0.123
-596.025	-200.000	0.032	-0.368
-595.011	38.645	0.085	-0.076
-593.996	-28.791	0.419	-0.242
-592.982	-5.404	-0.138	0.096
-591.967	-142.909	0.117	-0.011
-590.952	22.171	-0.146	-0.120
-589.938	250.032	-0.081	-0.138
-588.923	57.385	-0.352	0.346
-587.909	166.454	0.040	-0.056
-586.894	-200.000	-0.060	0.281
-585.879	-200.000	0.000	-0.134
-584.865	-32.935	-0.114	0.064
-583.850	455.623	-0.044	-0.099
-582.836	433.507	-0.022	-0.049
-581.821	208.998	-0.234	-0.368
-580.806	152.019	-0.065	-0.089
-579.792	800.000	0.008	0.032
-578.777	88.188	-0.082	0.092
-577.763	421.602	0.111	-0.239
-576.748	-74.642	-0.285	0.103
-575.733	-63.735	-0.197	0.081
-574.719	226.505	0.079	0.129
-573.704	-200.000	-0.020	0.331
-572.690	125.628	-0.211	0.267
-571.675	-200.000	0.031	0.253
-570.661	470.917	0.064	0.144
-569.646	800.000	-0.067	0.265
-568.631	18.540	-0.330	0.265
-567.617	-131.228	0.180	-0.024
-566.602	36.333	-0.130	0.115
-565.588	-120.413	0.081	-0.014
-564.573	78.280	0.099	0.106
-563.558	-26.863	-0.147	0.086
-562.544	-112.677	-0.407	-0.081
-561.529	139.852	-0.135	-0.179
-560.515	-200.000	-0.039	-0.340
-559.500	90.145	-0.045	-0.051
-558.485	136.095	-0.085	0.111
-557.471	-200.000	0.011	0.083
-556.456	-200.000	-0.071	-0.315
-555.442	-119.767	-0.336	-0.058
-554.427	-71.699	0.269	-0.101
-553.412	-200.000	-0.042	-0.196
-552.398	-66.610	0.303	-0.121
-551.383	800.000	0.027	-0.119
-550.369	-15.401	-0.319	-0.204
-549.354	85.518	-0.200	-0.221
-548.339	-200.000	-0.004	-0.125
-547.325	800.000	0.004	-0.013
-546.310	115.078	-0.150	-0.184
-545.296	-107.699	0.125	0.027
-544.281	-40.327	0.219	0.114
-543.266	427.099	-0.078	-0.169
-542.252	-142.389	0.185	0.018
-541.237	-200.000	0.001	0.405
-540.223	28.089	-0.257	-0.217
-539.208	-200.000	-0.049	-0.284
-538.193	-39.385	0.064	-0.034
-537.179	96.290	-0.167	0.191
-536.164	53.619	0.282	0.271
-535.150	-25.241	0.178	0.106
-534.135	800.000	0.083	0.344
-533.121	-23.351	-0.233	-0.140
-532.106	-31.070	-0.252	-0.143
-531.091	691.844	0.058	0.154
-530.077	-55.069	0.123	0.056
-529.062	94.142	-0.219	-0.249
-528.048	281.355	0.295	-0.529
-527.033	800.000	-0.104	0.355
-526.018	-200.000	0.033	0.242
-525.004	8.961	-0.168	0.127
-523.989	180.133	0.171	-0.251
-522.975	-200.000	-0.010	-0.124
-521.960	347.527	-0.186	0.366
-520.945	-200.000	-0.027	0.229
-519.931	36.506	-0.158	0.140
-518.916	-89.555	-0.291	-0.086
-517.902	-137.251	0.463	-0.053
-516.887	288.859	0.091	0.165
-515.872	-89.056	-0.057	0.017
-514.858	-51.795	0.271	0.127
-513.843	-200.000	-0.026	-0.157
-512.829	-163.683	0.172	-0.008
-511.814	249.305	0.058	-0.099
-510.799	-200.000	-0.074	-0.360
-509.785	-133.045	0.088	-0.011
-508.770	349.584	0.196	-0.388
-507.756	-39.565	0.077	-0.041
-506.741	800.000	0.086	-0.338
-505.726	-42.795	0.183	-0.093
-504.712	-8.930	-0.180	-0.121
-503.697	-138.915	-0.076	-0.008
-502.683	22.444	-0.406	-0.333
-501.668	-95.776	0.387	0.104
-500.653	233.218	0.072	-0.119
-499.639	-95.493	0.228	0.061
-498.624	-108.935	-0.289	-0.062
-497.610	-25.830	-0.110	-0.065
-496.595	-41.988	-0.265	-0.136
-495.581	71.286	-0.179	-0.186
-494.566	243.991	0.072	-0.121
-493.551	459.350	0.042	0.095
-492.537	-31.110	0.203	0.115
-491.522	177.131	0.121	-0.176
-490.508	-60.064	0.175	0.075
-489.493	-200.000	0.006	0.027
-488.478	-200.000	0.050	0.277
-487.464	-165.614	-0.343	-0.015
-486.449	-178.409	-0.152	-0.004
-485.435	109.628	0.099	-0.119
-484.420	-164.129	0.475	0.022
-483.405	-58.373	0.275	-0.120
-482.391	-79.769	-0.172	-0.058
-481.376	339.409	-0.038	-0.073
-480.362	-99.705	-0.211	0.053
-479.347	-41.038	-0.245	0.127
-478.332	-41.065	0.119	0.061
-477.318	395.137	-0.120	-0.251
-476.303	49.799	-0.121	0.115
-475.289	278.450	0.057	0.102
-474.274	346.587	-0.054	-0.107
-473.259	179.867	-0.053	-0.078
-472.245	-200.000	-0.022	0.263
-471.230	-200.000	0.016	-0.461
-470.216	-128.913	0.332	-0.047
-469.201	612.413	0.012	0.030
-468.186	-83.547	0.078	-0.025
-467.172	140.367	-0.219	-0.289
-466.157	-200.000	0.015	-0.222
-465.143	54.424	0.211	-0.203
-464.128	-3.651	0.182	-0.126
-463.113	-55.308	-0.033	0.015
-462.099	-48.192	-0.142	-0.068
-461.084	-31.251	0.217	-0.122
-460.070	178.732	0.083	-0.122
-459.055	68.910	0.235	0.241
-458.040	-17.291	-0.253	0.159
-457.026	161.502	-0.189	-0.264
-456.011	-94.279	-0.167	0.046
-454.997	-200.000	0.026	-0.121
-453.982	800.000	-0.134	-0.469
-452.968	-151.180	0.154	-0.012
-451.953	-87.789	0.203	0.061
-450.938	-200.000	0.053	0.306
-449.924	33.565	-0.061	0.053
-448.909	-131.910	-0.231	0.030
-447.895	122.608	-0.093	-0.117
-446.880	800.000	0.071	-0.226
-445.865	-142.341	0.272	0.027
-444.851	-130.954	0.138	-0.018
-443.836	-71.274	-0.196	-0.074
-442.822	-15.737	0.123	0.078
-441.807	97.707	0.013	-0.015
-440.792	42.622	-0.333	0.303
-439.778	800.000	-0.044	-0.128
-438.763	2.148	-0.098	0.071
-437.749	24.923	0.061	-0.051
-436.734	261.588	0.067	0.116
-435.719	-45.739	-0.338	-0.167
-434.705	263.792	-0.073	0.127
-433.690	-200.000	-0.023	0.117
-432.676	-132.900	0.068	-0.009
-431.661	48.240	0.175	0.164
-430.646	74.981	0.239	-0.251
-429.632	276.341	-0.028	0.050
-428.617	800.000	-0.103	-0.287
-427.603	800.000	0.089	-0.298
-426.588	101.834	-0.036	-0.042
-425.573	-200.000	0.034	0.319
-424.559	-56.266	-0.098	0.043
-423.544	-49.457	0.217	0.103
-422.530	63.656	-0.277	-0.278
-421.515	-200.000	0.029	0.000
-420.500	-13.112	0.202	-0.131
-419.486	-119.215	0.361	0.063
-418.471	489.259	0.073	-0.168
-417.457	30.272	0.163	0.139
-416.442	27.990	0.273	-0.230
-415.428	145.525	0.156	-0.209
-414.413	-128.379	-0.183	-0.026
-413.398	800.000	0.038	0.128
-412.384	-2.386	0.122	0.085
-411.369	-113.783	0.191	0.037
-410.355	507.587	0.020	0.047
-409.340	-200.000	0.041	0.530
-408.325	-193.972	0.222	0.002
-407.311	-147.478	-0.196	0.016
-406.296	382.333	0.129	0.265
-405.282	1.055	-0.224	0.160
-404.267	101.843	0.027	-0.032
-403.252	437.244	0.088	0.191
-402.238	-133.374	-0.219	0.027
-401.223	-200.000	-0.015	-0.273
-400.209	-40.875	0.111	0.057
-399.194	38.573	0.170	-0.152
-398.179	-39.105	0.158	0.083
-397.165	38.752	-0.186	0.166
-396.150	554.711	-0.064	-0.153
-395.136	-140.858	-0.322	-0.033
-394.121	63.444	-0.237	-0.238
-393.106	800.000	-0.042	-0.118
-392.092	-93.138	-0.109	-0.030
-391.077	480.275	0.143	0.323
-390.063	-200.000	0.007	-0.277
-389.048	-3.292	-0.022	0.015
-388.033	-200.000	0.009	0.297
-387.019	53.546	-0.225	-0.216
-386.004	330.212	-0.106	-0.204
-384.990	-26.077	0.161	-0.094
-383.975	183.109	-0.136	-0.200
-382.960	-200.000	-0.040	-0.288
-381.946	800.000	0.064	0.265
-380.931	-200.000	-0.011	0.382
-379.917	31.836	0.186	0.160
-378.902	-34.628	-0.041	-0.022
-377.888	-120.966	-0.083	-0.014
-376.873	-118.710	0.299	-0.052
-375.858	-46.025	0.306	0.150
-374.844	-46.598	-0.165	0.080
-373.829	-98.553	-0.226	0.057
-372.815	-22.703	-0.195	0.117
-371.800	35.756	0.215	0.189
-370.785	153.538	0.141	-0.193
-369.771	-163.981	0.274	-0.013
-368.756	633.636	-0.081	-0.204
-367.742	526.879	-0.040	-0.095
-366.727	297.781	0.184	0.338
-365.712	800.000	-0.081	-0.341
-364.698	12.326	-0.175	-0.135
-363.683	764.118	-0.071	-0.191
-362.669	278.193	-0.054	-0.095
-361.654	-200.000	-0.020	-0.157
-360.639	-132.947	0.312	-0.040
-359.625	18.445	-0.265	0.211
-358.610	-200.000	0.008	-0.301
-357.596	94.158	0.270	-0.305
-356.581	-200.000	0.010	0.096
-355.566	44.415	0.311	0.285
-354.552	132.588	-0.160	0.205
-353.537	-9.531	0.128	-0.085
-352.523	-54.735	0.172	0.077
-351.508	-64.347	-0.243	0.099
-350.493	-89.598	-0.235	0.069
-349.479	57.782	-0.246	0.240
-348.464	1.785	0.223	0.160
-347.450	191.725	-0.159	-0.238
-346.435	-107.856	-0.300	0.065
-345.420	17.226	-0.176	0.139
-344.406	800.000	-0.083	-0.238
-343.391	-90.250	0.391	0.113
-342.377	-46.661	0.084	0.041
-341.362	-200.000	0.044	0.214
-340.348	-14.576	0.264	-0.169
-339.333	-200.000	0.021	-0.181
-338.318	-69.427	0.365	0.139
-337.304	577.700	0.100	0.244
-336.289	-139.669	0.204	-0.022
-335.275	-158.175	-0.067	0.004
-334.260	7.320	-0.122	0.091
-333.245	-4.196	0.276	-0.190
-332.231	98.350	-0.277	0.317
-331.216	-86.779	-0.214	0.065
-330.202	-200.000	-0.406	0.002
-329.187	63.380	0.278	0.278
-328.172	800.000	-0.138	0.417
-327.158	-74.758	0.361	0.129
-326.143	-116.443	0.022	-0.004
-325.129	-117.176	0.140	0.025
-324.114	285.560	0.036	0.065
-323.099	-35.638	0.358	-0.193
-322.085	-100.689	0.191	-0.047
-321.070	-75.327	0.195	-0.069
-320.056	402.051	0.055	-0.114
-319.041	-87.540	-0.348	0.105
-318.026	197.644	0.088	0.134
-317.012	69.722	-0.143	-0.147
-315.997	-200.000	0.035	0.186
-314.983	179.935	-0.248	0.361
-313.968	-128.695	0.160	-0.023
-312.953	54.027	-0.125	0.120
-311.939	2.787	-0.130	-0.094
-310.924	252.485	0.121	0.205
-309.910	196.515	0.264	-0.400
-308.895	-12.493	-0.278	0.181
-307.880	26.162	-0.096	0.080
-306.866	-200.000	0.019	0.086
-305.851	-52.271	-0.068	0.031
-304.837	-200.000	0.039	0.249
-303.822	-200.000	0.055	-0.385
-302.807	-200.000	0.000	-0.148
-301.793	467.991	0.051	0.115
-300.778	-200.000	-0.008	-0.074
-299.764	38.871	0.200	-0.178
-298.749	-145.525	0.330	-0.029
-297.735	-167.516	0.090	0.004
-296.720	-147.283	0.222	0.019
-295.705	-200.000	0.079	0.357
-294.691	105.971	-0.206	-0.242
-293.676	203.785	0.110	-0.169
-292.662	-110.059	-0.164	0.034
-291.647	-17.562	0.167	-0.105
-290.632	-200.000	-0.005	0.031
-289.618	-3.094	-0.212	0.147
-288.603	800.000	0.043	-0.131
-287.589	-148.759	-0.233	-0.019
-286.574	28.257	-0.216	0.182
-285.559	-104.128	0.276	-0.064
-284.545	130.658	-0.214	-0.273
-283.530	800.000	-0.100	-0.297
-282.516	-33.162	-0.138	-0.076
-281.501	49.865	0.287	0.269
-280.486	-101.477	0.057	0.014
-279.472	120.616	0.207	-0.255
-278.457	15.052	0.219	-0.171
-277.443	278.798	0.113	-0.200
-276.428	800.000	-0.089	0.305
-275.413	-10.430	-0.091	-0.060
-274.399	-72.397	0.153	-0.056
-273.384	-23.245	-0.128	0.076
-272.370	-200.000	0.005	0.043
-271.355	-200.000	-0.044	0.000
-270.340	150.731	-0.063	0.085
-269.326	-200.000	-0.010	-0.057
-268.311	-200.000	0.038	0.367
-267.297	800.000	-0.035	0.104
-266.282	-124.619	-0.140	-0.022
-265.267	-109.991	-0.331	-0.069
-264.253	71.972	0.141	0.146
-263.238	44.587	0.095	0.086
-262.224	-200.000	0.094	-0.415
-261.209	-41.256	0.257	-0.131
-260.195	-72.363	0.189	0.069
-259.180	800.000	-0.053	-0.190
-258.165	-100.787	0.365	-0.089
-257.151	800.000	-0.012	-0.051
-256.136	63.476	-0.165	0.165
-255.122	-114.993	0.108	0.020
-254.107	-123.576	-0.243	-0.038
-253.092	-128.239	0.309	-0.044
-252.078	-200.000	-0.017	-0.080
-251.063	373.880	0.084	0.169
-250.049	243.842	-0.147	-0.245
-249.034	-119.906	-0.305	0.052
-248.019	-200.000	0.007	0.164
-247.005	30.737	-0.363	0.308
-245.990	53.097	0.100	0.095
-244.976	121.636	-0.085	0.105
-243.961	-57.547	0.188	-0.082
-242.946	-137.881	-0.200	0.022
-241.932	-200.000	0.007	0.109
-240.917	-166.765	-0.217	-0.009
-239.903	-29.562	0.322	-0.182
-238.888	800.000	0.071	-0.198
-237.873	42.678	-0.107	0.096
-236.859	183.099	0.178	0.261
-235.844	3.496	-0.153	-0.110
-234.830	-19.460	0.216	-0.133
-233.815	612.643	0.069	-0.170
-232.800	63.567	-0.100	0.100
-231.786	516.961	-0.095	0.221
-230.771	-37.810	0.232	-0.122
-229.757	558.335	0.054	0.129
-228.742	13.851	-0.402	0.310
-227.727	-57.454	0.196	0.085
-226.713	556.084	0.055	0.130
-225.698	-200.000	-0.048	0.329
-224.684	-61.629	0.229	-0.095
-223.669	-200.000	0.013	-0.346
-222.655	800.000	-0.062	0.249
-221.640	93.818	0.200	-0.225
-220.625	17.269	-0.091	-0.072
-219.611	800.000	-0.096	0.319
-218.596	773.828	-0.105	0.284
-217.582	218.017	0.106	-0.167
-216.567	-0.024	-0.042	-0.030
-215.552	-200.000	0.044	0.258
-214.538	183.556	0.300	0.440
-213.523	-99.307	0.056	-0.014
-212.509	225.123	-0.106	-0.170
-211.494	-200.000	0.047	-0.333
-210.479	513.631	0.114	-0.263
-209.465	800.000	-0.105	0.299
-208.450	72.127	-0.175	0.181
-207.436	180.168	-0.176	0.255
-206.421	353.943	0.100	0.196
-205.406	-26.654	-0.041	0.024
-204.392	-200.000	-0.015	0.177
-203.377	-194.715	-0.084	0.001
-202.363	-200.000	-0.020	-0.246
-201.348	-200.000	0.033	0.243
-200.333	800.000	0.074	0.257
-199.319	160.406	0.135	0.187
-198.304	800.000	0.096	0.292
-197.290	-139.974	0.254	-0.026
-196.275	52.109	-0.304	0.287
-195.260	-126.395	-0.346	0.051
-194.246	114.669	-0.076	0.092
-193.231	527.419	0.109	-0.255
-192.217	800.000	-0.071	-0.210
-191.202	10.805	0.279	0.211
-190.187	-129.931	0.140	-0.019
-189.173	-46.838	-0.040	0.019
-188.158	512.111	0.172	-0.397
-187.144	100.481	-0.118	-0.135
-186.129	27.521	-0.214	-0.178
-185.114	-15.135	0.375	0.238
-184.100	800.000	0.062	-0.250
-183.085	-81.178	-0.079	0.026
-182.071	-87.170	-0.348	-0.105
-181.056	-131.653	-0.442	0.057
-180.042	-86.683	0.243	-0.074
-179.027	31.605	-0.167	0.142
-178.012	118.093	0.102	0.124
-176.998	223.936	0.127	-0.204
-175.983	23.171	0.184	-0.150
-174.969	-124.767	-0.070	0.011
-173.954	93.541	0.072	-0.081
-172.939	237.504	-0.125	0.206
-171.925	434.768	0.073	0.157
-170.910	800.000	-0.057	-0.243
-169.896	4.502	-0.334	-0.242
-168.881	-170.956	-0.340	0.011
-167.866	-116.763	0.160	-0.029
-166.852	-200.000	-0.091	0.400
-165.837	-15.354	-0.149	-0.094
-164.823	-60.256	0.304	-0.128
-163.808	800.000	-0.103	0.365
-162.793	-110.616	-0.432	0.088
-161.779	150.502	0.158	0.211
-160.764	521.421	0.063	0.147
-159.750	101.227	-0.133	-0.153
-158.735	-5.513	0.290	0.197
-157.720	-200.000	0.057	-0.322
-156.706	800.000	-0.136	-0.417
-155.691	-21.046	0.109	0.066
-154.677	45.918	-0.156	0.142
-153.662	524.120	0.111	-0.259
-152.647	542.503	-0.076	-0.178
-151.633	365.630	0.155	0.309
-150.618	-166.828	-0.238	0.010
-149.604	-156.697	-0.121	-0.007
-148.589	-143.641	-0.360	-0.034
-147.574	-125.040	-0.128	-0.019
-146.560	-127.572	0.157	-0.022
-145.545	-79.590	0.245	0.082
-144.531	125.858	-0.132	-0.164
-143.516	-54.666	-0.151	-0.068
-142.502	-112.046	-0.224	0.045
-141.487	203.027	-0.072	-0.110
-140.472	-96.418	-0.009	-0.002
-139.458	-84.196	-0.059	0.018
-138.443	166.308	0.205	0.287
-137.429	-132.041	-0.300	0.039
-136.414	-95.878	-0.217	-0.057
-135.399	233.221	0.169	-0.275
-134.385	-63.541	0.032	-0.013
-133.370	35.202	0.247	0.214
-132.356	-200.000	-0.028	-0.269
-131.341	-103.925	-0.379	0.087
-130.326	-118.902	-0.111	0.019
-129.312	4.665	0.134	0.097
-128.297	-173.592	-0.123	-0.004
-127.283	-144.520	-0.111	0.010
-126.268	-200.000	0.018	-0.117
-125.253	262.429	-0.025	0.043
-124.239	-132.444	0.187	0.024
-123.224	-174.410	0.229	-0.006
-122.210	800.000	0.075	0.225
