DTS Sentinel unit serial number:	SN413079Multiplexer serial number:	ORYXHardware model number:	OX4-SRSoftware version number:	ORYX F/W v4.00 Oryx Data Collector v3.7.2.0data status	okinstallation	princeton_trtdifferential loss correction	single-endedforward channel	channel 2reverse channel	N/Adate	2019/09/16time	05:59:35forward acquisition time	60.00reverse acquisition time	0.00gamma	496.2192k internal	0.2334k external	0.2334temperature offset calibration	0.9976default loss term (dB/km)	0.3790temperature slope calibration	1.0000multiplexer offset coefficient	1.0000multiplexer slope coefficient	1.0000fibre end	0.00T internal ref (°C)	27.44T ext. ref 1 (°C)	11.25T ext. ref 2 (°C)	22.13length (m)	temperature (°C)	Stokes	anti-Stokes-747.200	-48.620	-0.172	0.083
-746.185	153.594	-0.187	0.258
-745.171	-200.000	0.039	0.190
-744.156	77.117	-0.122	-0.131
-743.142	-97.595	0.276	-0.072
-742.127	800.000	-0.174	0.672
-741.112	-91.655	0.053	0.015
-740.098	-4.075	0.193	0.134
-739.083	-30.306	-0.309	-0.176
-738.069	160.521	-0.045	-0.063
-737.054	-200.000	0.040	0.444
-736.039	28.230	-0.278	-0.236
-735.025	-100.783	0.071	-0.018
-734.010	-33.366	-0.094	0.052
-732.996	-147.939	-0.143	-0.012
-731.981	-200.000	-0.039	-0.213
-730.966	92.477	-0.099	0.112
-729.952	-200.000	-0.005	-0.154
-728.937	-47.767	-0.119	-0.058
-727.923	-20.551	-0.341	-0.210
-726.908	66.440	0.147	0.150
-725.894	16.253	-0.086	0.068
-724.879	66.275	-0.240	0.245
-723.864	161.161	-0.081	-0.114
-722.850	-131.411	-0.213	0.028
-721.835	124.193	0.091	0.115
-720.821	108.664	0.060	0.072
-719.806	-41.887	0.031	-0.016
-718.791	-27.582	0.393	-0.229
-717.777	37.696	0.201	-0.179
-716.762	-75.319	-0.222	0.080
-715.748	49.872	0.136	-0.129
-714.733	-81.676	0.275	0.091
-713.718	208.547	0.125	-0.196
-712.704	-94.428	0.190	-0.052
-711.689	478.120	-0.063	0.144
-710.675	358.261	-0.113	-0.227
-709.660	-32.583	0.192	-0.108
-708.645	-84.618	-0.177	-0.056
-707.631	-36.446	0.050	-0.027
-706.616	54.612	-0.062	-0.060
-705.602	115.777	-0.186	-0.228
-704.587	113.164	0.089	-0.108
-703.572	-115.158	0.143	0.027
-702.558	-200.000	0.003	0.317
-701.543	-172.320	0.407	0.013
-700.529	-52.124	0.036	0.017
-699.514	-200.000	0.020	-0.142
-698.499	29.343	0.173	0.148
-697.485	126.910	0.310	0.394
-696.470	800.000	-0.018	-0.057
-695.456	-200.000	0.050	0.243
-694.441	433.680	0.062	-0.135
-693.426	-113.640	-0.077	-0.015
-692.412	264.185	0.092	0.160
-691.397	-110.432	-0.085	0.018
-690.383	-158.051	0.087	-0.005
-689.368	-139.031	0.401	0.044
-688.354	-200.000	0.044	-0.343
-687.339	-142.882	-0.145	-0.014
-686.324	-200.000	-0.020	-0.101
-685.310	28.905	-0.119	0.101
-684.295	800.000	0.119	-0.409
-683.281	-16.981	-0.211	-0.134
-682.266	-18.325	-0.145	0.091
-681.251	-33.211	0.371	-0.206
-680.237	800.000	-0.075	0.238
-679.222	-145.923	-0.125	0.011
-678.208	800.000	-0.044	-0.131
-677.193	66.704	-0.259	0.265
-676.178	-67.186	0.292	0.115
-675.164	149.942	0.147	-0.200
-674.149	-40.401	0.054	0.028
-673.135	287.322	0.046	-0.083
-672.120	93.838	-0.054	-0.061
-671.105	17.011	-0.224	0.178
-670.091	-200.000	-0.057	0.417
-669.076	-110.817	0.382	-0.079
-668.062	-41.074	-0.291	-0.151
-667.047	320.361	-0.058	-0.110
-666.032	-138.156	0.089	-0.010
-665.018	-200.000	0.015	0.135
-664.003	311.263	-0.117	0.219
-662.989	31.445	-0.274	0.236
-661.974	-135.401	-0.097	0.012
-660.959	-200.000	-0.027	-0.130
-659.945	203.762	0.169	-0.261
-658.930	-67.316	-0.243	-0.096
-657.916	800.000	-0.017	0.051
-656.901	-8.489	-0.078	-0.053
-655.886	-200.000	-0.001	-0.093
-654.872	800.000	-0.072	-0.283
-653.857	64.359	0.146	0.147
-652.843	-116.111	0.100	-0.019
-651.828	61.037	0.235	-0.234
-650.814	-200.000	0.087	-0.453
-649.799	-81.881	-0.067	0.022
-648.784	98.350	-0.261	-0.301
-647.770	-146.728	0.158	-0.014
-646.755	15.403	-0.011	0.009
-645.741	36.440	0.087	-0.077
-644.726	27.678	-0.011	-0.010
-643.711	800.000	-0.047	-0.189
-642.697	-200.000	0.052	-0.243
-641.682	496.740	0.110	-0.254
-640.668	-153.216	0.360	0.025
-639.653	-133.218	0.216	0.027
-638.638	-200.000	0.037	0.191
-637.624	-200.000	-0.007	-0.206
-636.609	259.639	0.153	-0.264
-635.595	-3.478	0.071	0.049
-634.580	-200.000	-0.006	-0.042
-633.565	537.954	0.199	-0.474
-632.551	7.675	-0.219	0.164
-631.536	2.032	0.164	-0.118
-630.522	559.813	-0.024	-0.058
-629.507	-6.699	0.048	0.032
-628.492	800.000	-0.048	0.179
-627.478	115.074	-0.039	-0.048
-626.463	3.116	-0.165	-0.120
-625.449	-33.205	-0.309	-0.171
-624.434	420.926	0.072	-0.154
-623.419	800.000	-0.030	-0.124
-622.405	-105.573	-0.144	-0.033
-621.390	-48.302	-0.147	0.071
-620.376	-60.782	-0.199	-0.084
-619.361	332.235	0.039	-0.076
-618.346	-200.000	0.046	-0.588
-617.332	192.704	0.152	-0.229
-616.317	162.060	0.017	0.024
-615.303	-91.994	-0.205	0.058
-614.288	-37.967	-0.028	0.015
-613.273	25.167	0.124	0.103
-612.259	367.383	0.085	0.172
-611.244	-200.000	-0.000	0.113
-610.230	47.328	0.175	0.163
-609.215	688.275	-0.021	0.055
-608.201	-200.000	-0.019	-0.177
-607.186	-200.000	0.003	-0.068
-606.171	111.576	0.041	-0.050
-605.157	47.942	-0.120	0.112
-604.142	-171.253	-0.296	-0.010
-603.128	160.043	-0.103	0.143
-602.113	-81.576	0.294	-0.096
-601.098	800.000	-0.097	-0.328
-600.084	35.632	0.229	-0.201
-599.069	587.311	-0.162	-0.399
-598.055	-200.000	-0.016	-0.166
-597.040	-200.000	-0.035	-0.191
-596.025	-200.000	0.044	0.249
-595.011	636.643	-0.011	-0.028
-593.996	-200.000	0.027	-0.161
-592.982	-200.000	-0.012	0.093
-591.967	-61.985	-0.201	0.084
-590.952	800.000	-0.085	-0.288
-589.938	-200.000	-0.026	0.280
-588.923	-200.000	-0.006	0.031
-587.909	800.000	0.025	-0.082
-586.894	-200.000	-0.036	0.161
-585.879	693.151	0.032	0.085
-584.865	58.962	-0.156	-0.153
-583.850	135.952	-0.265	0.345
-582.836	-200.000	-0.018	-0.129
-581.821	-86.766	-0.208	-0.064
-580.806	184.909	-0.139	0.205
-579.792	-109.224	-0.099	-0.021
-578.777	164.589	0.174	-0.245
-577.763	-78.275	0.161	-0.055
-576.748	-200.000	0.000	-0.051
-575.733	-73.472	0.188	0.069
-574.719	-29.372	0.172	-0.098
-573.704	-46.506	-0.412	0.202
-572.690	432.572	-0.046	0.100
-571.675	-200.000	0.024	0.256
-570.661	21.610	0.162	0.132
-569.646	-45.002	-0.389	0.193
-568.631	800.000	-0.019	-0.066
-567.617	-9.034	-0.267	-0.178
-566.602	800.000	0.055	0.166
-565.588	-178.670	0.130	-0.003
-564.573	144.188	0.186	0.248
-563.558	98.171	0.172	0.198
-562.544	-149.999	0.127	-0.010
-561.529	-200.000	0.023	0.111
-560.515	274.058	-0.081	-0.144
-559.500	-152.164	0.308	-0.022
-558.485	-72.442	-0.240	0.088
-557.471	-111.931	0.169	0.034
-556.456	-200.000	0.021	-0.129
-555.442	-130.494	0.230	0.031
-554.427	-29.504	0.077	0.044
-553.412	-93.099	-0.228	0.063
-552.398	6.434	-0.316	0.234
-551.383	-111.613	-0.239	-0.048
-550.369	-200.000	-0.019	0.259
-549.354	36.641	0.091	-0.080
-548.339	-200.000	-0.061	0.385
-547.325	72.785	-0.087	-0.090
-546.310	-184.379	-0.486	0.008
-545.296	-57.277	0.062	-0.027
-544.281	-72.147	-0.167	-0.062
-543.266	-200.000	-0.013	0.292
-542.252	-36.926	-0.104	-0.056
-541.237	-156.766	0.526	0.032
-540.223	234.885	0.057	-0.094
-539.208	374.697	0.038	0.077
-538.193	571.968	-0.088	-0.213
-537.179	36.474	0.058	0.051
-536.164	6.398	-0.253	-0.188
-535.150	-127.057	0.301	0.044
-534.135	245.879	0.128	0.215
-533.121	800.000	-0.066	-0.210
-532.106	-58.442	-0.234	0.101
-531.091	-34.963	-0.195	0.106
-530.077	-89.935	0.515	-0.150
-529.062	525.388	0.158	-0.370
-528.048	-132.976	-0.372	0.047
-527.033	-96.768	-0.243	0.064
-526.018	137.749	0.211	0.275
-525.004	-200.000	0.047	-0.317
-523.989	-200.000	-0.032	0.195
-522.975	80.773	-0.127	0.137
-521.960	-119.897	0.123	0.021
-520.945	-160.643	0.409	-0.022
-519.931	-38.662	-0.291	-0.153
-518.916	-200.000	0.060	-0.320
-517.902	-200.000	-0.030	-0.409
-516.887	-200.000	0.002	-0.043
-515.872	35.885	0.269	0.236
-514.858	-200.000	-0.006	0.229
-513.843	243.037	-0.133	0.223
-512.829	-26.452	0.079	-0.046
-511.814	-200.000	0.043	0.389
-510.799	354.139	0.110	-0.217
-509.785	152.524	-0.057	0.078
-508.770	-126.518	0.077	0.011
-507.756	-38.856	-0.098	-0.052
-506.741	-1.343	-0.241	-0.170
-505.726	-23.300	-0.140	-0.084
-504.712	42.641	-0.070	0.063
-503.697	42.789	-0.110	0.099
-502.683	10.953	0.138	0.105
-501.668	800.000	-0.068	-0.210
-500.653	259.007	-0.159	-0.273
-499.639	75.243	0.055	-0.058
-498.624	-200.000	0.022	0.097
-497.610	318.527	-0.005	0.009
-496.595	-200.000	0.029	0.350
-495.581	100.295	0.127	-0.147
-494.566	-200.000	0.006	0.097
-493.551	-120.332	-0.253	-0.043
-492.537	660.018	0.043	0.110
-491.522	-196.206	-0.097	0.001
-490.508	108.316	-0.165	0.196
-489.493	-200.000	0.006	0.051
-488.478	-111.804	0.191	-0.038
-487.464	-106.341	0.244	0.054
-486.449	-200.000	0.024	-0.163
-485.435	125.318	-0.088	0.110
-484.420	-55.247	-0.077	-0.034
-483.405	-147.504	0.149	-0.013
-482.391	130.760	-0.254	0.324
-481.376	271.002	-0.070	-0.123
-480.362	-56.463	0.105	0.046
-479.347	90.813	-0.211	-0.235
-478.332	-47.906	0.193	0.093
-477.318	-200.000	-0.055	0.252
-476.303	800.000	-0.017	-0.066
-475.289	206.975	0.073	0.113
-474.274	-200.000	-0.026	-0.236
-473.259	58.750	-0.224	-0.219
-472.245	800.000	0.029	-0.081
-471.230	-200.000	0.002	-0.210
-470.216	-90.147	0.066	0.019
-469.201	114.214	0.091	-0.110
-468.186	613.158	-0.093	-0.230
-467.172	-159.532	-0.189	0.010
-466.157	-61.167	0.131	-0.055
-465.143	-72.005	0.231	0.086
-464.128	-32.062	0.152	-0.085
-463.113	-156.821	0.147	-0.009
-462.099	1.963	0.290	0.208
-461.084	800.000	0.018	0.063
-460.070	800.000	-0.092	-0.308
-459.055	-41.423	-0.183	-0.094
-458.040	-200.000	-0.025	-0.364
-457.026	-124.350	0.392	0.061
-456.011	800.000	0.093	-0.361
-454.997	-164.587	-0.380	0.017
-453.982	269.106	0.094	-0.164
-452.968	-105.688	-0.296	-0.067
-451.953	19.191	-0.288	-0.230
-450.938	-200.000	-0.026	-0.314
-449.924	800.000	-0.046	-0.165
-448.909	800.000	0.072	-0.281
-447.895	36.726	0.168	0.147
-446.880	-52.424	0.318	-0.146
-445.865	576.295	-0.019	0.047
-444.851	-117.624	0.161	-0.029
-443.836	434.157	0.053	0.113
-442.822	-26.425	-0.067	-0.039
-441.807	-24.545	0.081	-0.048
-440.792	800.000	0.026	0.114
-439.778	-200.000	0.011	-0.175
-438.763	138.995	0.288	-0.376
-437.749	-79.846	0.368	-0.123
-436.734	-139.433	-0.209	0.022
-435.719	160.770	0.087	0.121
-434.705	351.886	-0.115	0.227
-433.690	-142.887	-0.285	0.027
-432.676	440.363	0.117	-0.255
-431.661	129.381	-0.246	-0.312
-430.646	-86.726	0.484	0.147
-429.632	-200.000	-0.024	-0.126
-428.617	800.000	-0.052	0.163
-427.603	-88.385	0.230	0.068
-426.588	-126.300	0.157	0.023
-425.573	800.000	0.101	0.285
-424.559	50.054	0.290	-0.271
-423.544	-154.822	-0.145	-0.010
-422.530	698.965	0.140	-0.366
-421.515	-200.000	0.003	0.226
-420.500	-80.331	-0.400	0.133
-419.486	800.000	-0.115	0.406
-418.471	-200.000	0.003	-0.079
-417.457	-132.334	0.275	0.035
-416.442	35.158	-0.154	0.134
-415.428	-200.000	0.022	0.162
-414.413	-136.060	0.198	-0.023
-413.398	-200.000	-0.003	0.113
-412.384	90.900	0.206	-0.229
-411.369	-200.000	-0.010	-0.195
-410.355	134.967	0.054	0.070
-409.340	-72.278	-0.285	0.105
-408.325	-152.968	0.198	-0.014
-407.311	8.123	0.112	0.084
-406.296	69.965	0.048	-0.049
-405.282	-77.070	-0.074	0.026
-404.267	-161.777	0.404	-0.020
-403.252	-200.000	0.026	0.118
-402.238	128.538	0.035	0.044
-401.223	1.649	0.064	0.046
-400.209	404.569	-0.108	0.227
-399.194	155.724	0.156	-0.213
-398.179	-138.454	0.255	0.028
-397.165	800.000	0.170	-0.496
-396.150	-118.821	0.164	0.029
-395.136	-171.736	-0.328	-0.011
-394.121	-90.237	-0.054	0.016
-393.106	800.000	0.080	0.228
-392.092	68.156	0.155	-0.157
-391.077	-200.000	-0.003	-0.246
-390.063	449.386	-0.034	0.074
-389.048	94.661	0.275	0.310
-388.033	-120.096	-0.168	-0.029
-387.019	-131.853	-0.050	-0.007
-386.004	-152.093	-0.100	-0.007
-384.990	589.611	0.083	-0.204
-383.975	305.264	-0.064	-0.118
-382.960	-41.752	0.378	0.192
-381.946	347.298	-0.103	0.201
-380.931	-68.071	-0.309	0.119
-379.917	65.162	0.057	-0.057
-378.902	-200.000	0.007	-0.037
-377.888	-2.657	-0.081	0.056
-376.873	-200.000	-0.038	0.392
-375.858	-200.000	-0.084	-0.390
-374.844	259.359	-0.077	0.132
-373.829	-92.750	0.109	0.030
-372.815	-61.179	-0.268	0.112
-371.800	-73.857	0.361	-0.130
-370.785	72.344	-0.166	-0.172
-369.771	800.000	0.045	0.148
-368.756	602.054	0.111	0.272
-367.742	377.051	-0.215	-0.434
-366.727	-111.986	0.274	0.055
-365.712	289.852	-0.105	-0.189
-364.698	196.950	0.306	-0.462
-363.683	655.815	-0.068	0.173
-362.669	-141.870	-0.163	0.016
-361.654	-140.995	0.289	-0.029
-360.639	-115.602	-0.079	0.015
-359.625	-200.000	-0.029	0.280
-358.610	-72.389	0.249	0.091
-357.596	-182.703	0.293	0.005
-356.581	56.687	0.110	0.106
-355.566	270.105	0.057	0.099
-354.552	-106.901	-0.230	-0.050
-353.537	-191.280	-0.374	-0.004
-352.523	538.931	0.072	-0.170
-351.508	-200.000	0.026	-0.416
-350.493	-44.632	-0.374	0.185
-349.479	-2.961	-0.227	-0.157
-348.464	-170.803	-0.379	0.013
-347.450	-118.850	0.088	-0.015
-346.435	800.000	-0.079	0.266
-345.420	-162.011	0.144	-0.007
-344.406	565.565	0.064	0.154
-343.391	-75.727	-0.071	0.025
-342.377	-200.000	0.004	-0.038
-341.362	-146.608	-0.303	-0.026
-340.348	-122.745	-0.332	0.053
-339.333	-132.465	0.110	0.014
-338.318	152.666	-0.103	-0.140
-337.304	-33.137	-0.276	-0.151
-336.289	117.775	0.072	0.088
-335.275	60.431	-0.125	0.123
-334.260	213.495	0.071	0.112
-333.245	-113.633	0.344	-0.066
-332.231	135.791	0.096	0.123
-331.216	119.450	-0.167	0.204
-330.202	-69.829	-0.206	-0.078
-329.187	-30.336	0.243	-0.136
-328.172	41.464	-0.244	-0.219
-327.158	151.871	-0.024	0.032
-326.143	800.000	0.089	0.281
-325.129	79.883	-0.196	0.208
-324.114	800.000	-0.051	-0.164
-323.099	-105.118	0.099	0.022
-322.085	-192.622	0.294	-0.003
-321.070	800.000	0.042	0.175
-320.056	-23.443	0.472	0.280
-319.041	138.677	-0.138	0.179
-318.026	-170.672	-0.226	0.008
-317.012	800.000	0.072	0.214
-315.997	-70.100	-0.297	-0.112
-314.983	186.998	-0.075	-0.111
-313.968	-135.410	-0.023	0.003
-312.953	166.717	-0.100	0.140
-311.939	395.361	0.112	-0.230
-310.924	-51.085	-0.349	0.162
-309.910	-11.886	-0.212	-0.137
-308.895	145.023	-0.062	0.083
-307.880	800.000	-0.024	0.085
-306.866	-161.568	0.157	-0.008
-305.851	-200.000	-0.008	-0.215
-304.837	-94.318	0.054	0.015
-303.822	-78.804	0.276	0.093
-302.807	-135.448	-0.109	0.013
-301.793	224.419	0.059	-0.095
-300.778	-135.116	-0.137	-0.016
-299.764	-101.951	0.117	0.028
-298.749	-16.958	0.040	0.025
-297.735	-28.813	-0.183	-0.104
-296.720	-160.967	-0.224	-0.012
-295.705	769.843	-0.066	0.177
-294.691	800.000	-0.027	0.111
-293.676	374.095	-0.058	0.116
-292.662	-75.569	-0.176	0.062
-291.647	-200.000	-0.019	0.086
-290.632	59.754	0.090	0.087
-289.618	-125.400	0.315	-0.047
-288.603	65.869	0.088	-0.088
-287.589	-14.570	-0.227	0.144
-286.574	800.000	0.085	0.311
-285.559	-73.818	0.049	-0.018
-284.545	-147.118	0.464	0.039
-283.530	-200.000	0.028	0.161
-282.516	-200.000	-0.070	0.370
-281.501	800.000	0.032	0.128
-280.486	82.777	0.111	0.120
-279.472	-57.411	-0.190	-0.082
-278.457	-200.000	-0.092	0.517
-277.443	295.288	0.097	0.176
-276.428	-200.000	0.066	0.422
-275.413	-200.000	0.000	0.052
-274.399	70.010	0.110	-0.112
-273.384	87.374	-0.042	0.046
-272.370	406.266	-0.051	-0.106
-271.355	-77.542	-0.245	-0.084
-270.340	-99.711	-0.292	-0.072
-269.326	-200.000	0.037	0.159
-268.311	800.000	-0.034	0.103
-267.297	-153.843	-0.105	0.007
-266.282	-7.383	-0.355	-0.237
-265.267	71.584	0.247	0.253
-264.253	800.000	-0.101	0.397
-263.238	168.353	-0.118	-0.166
-262.224	-150.738	-0.268	-0.020
-261.209	-193.169	-0.171	-0.001
-260.195	-10.800	0.363	0.236
-259.180	-178.766	0.449	-0.010
-258.165	70.695	0.127	0.130
-257.151	-188.462	0.096	0.001
-256.136	328.916	0.225	0.427
-255.122	473.271	0.057	0.126
-254.107	-114.143	-0.132	-0.025
-253.092	89.642	0.231	0.254
-252.078	400.878	0.191	-0.395
-251.063	800.000	-0.053	0.184
-250.049	142.501	0.116	0.152
-249.034	126.606	0.140	0.175
-248.019	-178.108	0.143	0.003
-247.005	546.198	-0.171	-0.404
-245.990	-200.000	-0.029	-0.156
-244.976	800.000	0.061	0.248
-243.961	-200.000	0.031	-0.201
-242.946	-200.000	0.054	0.428
-241.932	-124.204	0.092	0.014
-240.917	4.841	-0.053	0.038
-239.903	-200.000	-0.043	-0.244
-238.888	463.706	0.149	-0.327
-237.873	33.869	0.215	0.185
-236.859	-25.863	-0.148	0.086
-235.844	92.158	0.210	-0.233
-234.830	100.848	0.120	0.138
-233.815	18.169	0.153	-0.120
-232.800	671.068	-0.067	0.170
-231.786	-200.000	-0.019	0.096
-230.771	-73.363	0.179	0.064
-229.757	-62.060	0.159	-0.065
-228.742	-72.364	-0.077	0.028
-227.727	-40.557	-0.166	0.085
-226.713	-91.052	0.131	-0.037
-225.698	-46.680	0.257	0.124
-224.684	368.822	0.263	-0.525
-223.669	115.873	-0.336	0.405
-222.655	800.000	0.038	0.136
-221.640	-47.456	0.269	-0.129
-220.625	-200.000	-0.003	-0.182
-219.611	255.342	0.034	0.057
-218.596	117.353	-0.125	-0.152
-217.582	-57.595	0.357	-0.154
-216.567	-53.457	-0.101	-0.045
-215.552	-46.417	-0.274	0.133
-214.538	800.000	-0.021	-0.075
-213.523	-200.000	-0.007	0.061
-212.509	557.881	0.085	0.202
-211.494	212.111	0.135	0.209
-210.479	241.924	-0.173	-0.284
-209.465	113.541	0.161	0.192
-208.450	-48.390	0.137	-0.065
-207.436	-200.000	0.112	0.000
-206.421	-139.057	-0.150	0.016
-205.406	-59.394	-0.093	0.039
-204.392	151.670	0.045	0.060
-203.377	800.000	0.063	0.223
-202.363	-200.000	0.026	-0.174
-201.348	-200.000	0.008	0.159
-200.333	800.000	-0.025	0.095
-199.319	272.938	-0.121	0.211
-198.304	266.225	0.169	0.291
-197.290	-130.052	0.318	0.043
-196.275	136.247	0.238	-0.306
-195.260	42.102	-0.274	-0.245
-194.246	-4.504	0.309	-0.210
-193.231	-121.947	-0.456	-0.074
-192.217	-85.130	-0.119	0.036
-191.202	151.635	0.154	0.207
-190.187	-157.575	-0.254	0.015
-189.173	27.518	-0.223	-0.185
-188.158	323.816	0.116	0.217
-187.144	50.088	-0.103	0.095
-186.129	537.542	0.053	-0.124
-185.114	-26.709	0.132	0.076
-184.100	119.855	-0.231	-0.282
-183.085	-200.000	0.048	-0.000
-182.071	155.488	0.093	-0.126
-181.056	128.654	0.108	0.135
-180.042	-103.051	0.309	-0.072
-179.027	108.705	0.134	0.157
-178.012	331.240	-0.054	-0.102
-176.998	80.475	-0.036	-0.039
-175.983	-200.000	-0.146	0.000
-174.969	100.002	-0.085	0.096
-173.954	-62.874	-0.304	0.124
-172.939	-40.658	-0.333	-0.170
-171.925	11.111	-0.248	0.186
-170.910	-43.670	0.211	-0.104
-169.896	-43.210	-0.340	0.169
-168.881	10.642	0.102	-0.076
-167.866	37.003	0.302	0.263
-166.852	577.091	0.159	-0.383
-165.837	-99.976	-0.406	0.100
-164.823	-84.065	-0.162	0.051
-163.808	-200.000	0.017	0.098
-162.793	-135.617	-0.199	-0.023
-161.779	73.891	-0.191	-0.197
-160.764	-195.674	0.261	0.002
-159.750	105.923	-0.189	-0.220
-158.735	75.963	0.116	-0.121
-157.720	-0.905	-0.218	-0.152
-156.706	-66.885	-0.155	-0.060
-155.691	800.000	-0.090	-0.324
-154.677	-88.801	-0.457	0.133
-153.662	130.002	-0.092	0.115
-152.647	85.613	-0.091	-0.098
-151.633	-5.433	0.041	-0.027
-150.618	1.027	0.303	-0.214
-149.604	101.280	0.145	-0.166
-148.589	-56.484	-0.095	0.041
-147.574	800.000	-0.028	-0.112
-146.560	602.009	-0.045	0.110
-145.545	800.000	-0.127	-0.395
-144.531	-200.000	0.064	0.350
-143.516	800.000	-0.044	-0.168
-142.502	494.391	0.117	-0.263
-141.487	-77.612	0.053	-0.018
-140.472	800.000	0.058	0.248
-139.458	165.643	0.111	0.154
-138.443	-136.858	0.065	0.007
-137.429	385.643	0.078	-0.157
-136.414	-1.931	0.172	-0.119
-135.399	800.000	-0.084	0.336
-134.385	421.991	-0.010	0.022
-133.370	800.000	-0.047	0.130
-132.356	-45.563	-0.164	-0.079
-131.341	160.752	0.184	-0.253
-130.326	175.045	0.060	0.085
-129.312	-156.634	-0.346	0.021
-128.297	4.630	0.107	-0.077
-127.283	-200.000	0.053	0.230
-126.268	466.024	0.078	0.172
-125.253	-43.221	-0.330	-0.164
-124.239	112.720	-0.101	0.120
-123.224	-196.398	0.334	-0.002
-122.210	289.034	-0.145	0.258
-121.195	800.000	-0.085	-0.263
