DTS Sentinel unit serial number:	SN413079Multiplexer serial number:	ORYXHardware model number:	OX4-SRSoftware version number:	ORYX F/W v4.00 Oryx Data Collector v3.7.2.0data status	okinstallation	princeton_trtdifferential loss correction	single-endedforward channel	channel 2reverse channel	N/Adate	2019/09/15time	02:27:35forward acquisition time	60.00reverse acquisition time	0.00gamma	496.2192k internal	0.2326k external	0.2326temperature offset calibration	1.0031default loss term (dB/km)	0.3790temperature slope calibration	1.0000multiplexer offset coefficient	1.0000multiplexer slope coefficient	1.0000fibre end	0.00T internal ref (°C)	31.56T ext. ref 1 (°C)	4.55T ext. ref 2 (°C)	25.94length (m)	temperature (°C)	Stokes	anti-Stokes-747.200	481.541	0.099	0.227
-746.185	267.020	-0.141	0.248
-745.171	75.983	0.221	0.235
-744.156	-61.370	-0.421	-0.179
-743.142	-38.146	-0.047	0.025
-742.127	424.065	-0.026	0.057
-741.112	800.000	0.032	0.112
-740.098	-43.272	0.254	0.130
-739.083	800.000	-0.130	-0.398
-738.069	467.920	0.074	0.167
-737.054	183.552	0.118	-0.176
-736.039	406.631	-0.159	0.339
-735.025	269.284	0.285	0.505
-734.010	-73.860	0.112	0.041
-732.996	31.958	0.071	0.062
-731.981	302.755	-0.143	-0.267
-730.966	19.624	-0.236	-0.191
-729.952	-14.190	-0.170	0.111
-728.937	-37.915	0.154	-0.083
-727.923	-109.151	0.103	0.022
-726.908	-56.538	0.205	0.092
-725.894	-200.000	-0.024	-0.154
-724.879	-137.979	-0.292	-0.033
-723.864	23.438	-0.201	0.167
-722.850	74.375	0.268	-0.284
-721.835	109.496	-0.246	-0.297
-720.821	90.586	-0.181	0.204
-719.806	80.645	0.074	-0.081
-718.791	273.045	0.087	-0.154
-717.777	800.000	-0.052	-0.204
-716.762	-48.655	-0.304	0.147
-715.748	-200.000	0.007	0.258
-714.733	35.554	0.012	0.010
-713.718	234.150	-0.071	-0.119
-712.704	683.623	-0.109	-0.287
-711.689	-116.269	0.310	-0.058
-710.675	-62.406	0.039	-0.016
-709.660	-63.406	0.168	0.070
-708.645	-70.247	0.208	-0.080
-707.631	-89.141	0.274	-0.082
-706.616	330.553	0.146	0.282
-705.602	451.832	-0.004	0.009
-704.587	-107.482	-0.449	-0.099
-703.572	-108.396	0.196	0.042
-702.558	-90.748	-0.095	0.028
-701.543	102.555	0.119	-0.141
-700.529	-200.000	-0.019	-0.194
-699.514	615.982	-0.044	0.110
-698.499	-99.967	0.164	0.041
-697.485	100.482	0.074	-0.086
-696.470	-200.000	0.024	-0.130
-695.456	189.663	-0.134	0.202
-694.441	28.082	-0.228	-0.193
-693.426	395.931	0.074	0.156
-692.412	14.726	-0.079	0.063
-691.397	-111.570	0.189	0.039
-690.383	800.000	0.154	0.544
-689.368	152.951	0.085	0.117
-688.354	-200.000	0.005	-0.365
-687.339	53.768	-0.196	-0.190
-686.324	-128.102	-0.089	0.013
-685.310	-142.610	-0.368	-0.036
-684.295	800.000	0.085	-0.279
-683.281	-29.948	-0.218	-0.125
-682.266	359.436	-0.056	-0.113
-681.251	-200.000	-0.020	0.126
-680.237	480.898	0.085	-0.194
-679.222	-158.469	-0.185	0.011
-678.208	-116.269	0.214	0.040
-677.193	-136.982	-0.464	0.053
-676.178	-200.000	0.022	0.142
-675.164	-67.435	-0.246	0.097
-674.149	-127.066	-0.198	0.029
-673.135	682.092	-0.030	-0.080
-672.120	158.725	-0.144	-0.202
-671.105	-78.945	-0.076	-0.026
-670.091	11.847	0.093	-0.072
-669.076	-78.740	-0.188	0.064
-668.062	-94.680	0.156	0.043
-667.047	-174.124	-0.240	0.007
-666.032	72.893	-0.026	0.028
-665.018	-200.000	0.019	0.141
-664.003	800.000	-0.083	-0.325
-662.989	-200.000	-0.002	-0.350
-661.974	-18.555	-0.104	0.065
-660.959	485.399	-0.052	-0.118
-659.945	127.174	-0.141	-0.180
-658.930	57.668	-0.167	0.165
-657.916	180.531	0.231	0.340
-656.901	-84.423	0.266	0.085
-655.886	-70.796	0.075	-0.028
-654.872	179.288	-0.217	-0.319
-653.857	498.703	-0.097	-0.225
-652.843	14.879	0.356	-0.280
-651.828	-17.489	-0.105	-0.067
-650.814	-200.000	0.022	-0.099
-649.799	-200.000	-0.067	-0.451
-648.784	-3.354	0.113	-0.079
-647.770	-47.482	-0.391	0.191
-646.755	-200.000	-0.017	0.244
-645.741	718.745	-0.068	0.181
-644.726	49.358	0.227	0.215
-643.711	384.313	0.054	-0.112
-642.697	-43.347	-0.151	-0.076
-641.682	-200.000	-0.013	-0.229
-640.668	-155.403	0.332	0.022
-639.653	-200.000	0.033	-0.270
-638.638	800.000	0.025	-0.071
-637.624	-124.353	-0.105	-0.016
-636.609	-200.000	-0.041	-0.303
-635.595	-99.252	0.199	-0.050
-634.580	-200.000	0.005	-0.272
-633.565	-81.534	-0.037	0.012
-632.551	-200.000	-0.003	-0.071
-631.536	-67.925	-0.162	-0.063
-630.522	-145.168	-0.253	-0.023
-629.507	-200.000	0.002	0.103
-628.492	-125.465	-0.303	-0.046
-627.478	335.176	-0.219	-0.426
-626.463	-93.264	-0.319	-0.089
-625.449	-55.573	-0.164	-0.074
-624.434	-200.000	0.015	0.147
-623.419	-200.000	-0.032	-0.363
-622.405	-184.670	-0.060	0.001
-621.390	52.710	0.092	0.088
-620.376	35.607	0.025	0.022
-619.361	60.143	0.296	-0.294
-618.346	-104.741	-0.238	0.055
-617.332	132.287	-0.061	-0.079
-616.317	-107.081	0.228	0.051
-615.303	214.720	0.182	-0.290
-614.288	-104.305	-0.074	-0.017
-613.273	-81.714	-0.092	-0.030
-612.259	-200.000	-0.040	-0.213
-611.244	-57.070	0.556	0.246
-610.230	-80.500	-0.268	-0.090
-609.215	-141.578	0.043	-0.004
-608.201	-39.651	-0.291	0.153
-607.186	-109.968	0.250	0.053
-606.171	95.706	-0.044	-0.050
-605.157	-40.574	-0.158	-0.082
-604.142	-122.695	-0.190	-0.031
-603.128	331.907	-0.096	0.186
-602.113	800.000	0.080	-0.286
-601.098	-98.326	-0.400	-0.103
-600.084	62.639	-0.259	-0.260
-599.069	-91.129	-0.097	-0.028
-598.055	-200.000	0.005	-0.199
-597.040	-16.343	-0.071	-0.045
-596.025	69.787	0.101	-0.104
-595.011	64.472	0.376	-0.380
-593.996	-43.718	-0.337	0.170
-592.982	-200.000	-0.020	-0.186
-591.967	-200.000	-0.020	-0.090
-590.952	-153.854	0.083	0.006
-589.938	-200.000	-0.011	0.236
-588.923	-1.297	0.250	0.177
-587.909	201.897	-0.075	0.115
-586.894	-29.851	-0.138	-0.079
-585.879	460.506	0.014	-0.032
-584.865	-35.627	-0.098	-0.053
-583.850	800.000	0.115	-0.343
-582.836	800.000	-0.009	-0.036
-581.821	-200.000	0.039	0.234
-580.806	-200.000	-0.026	0.139
-579.792	-200.000	0.014	0.072
-578.777	-200.000	0.044	-0.204
-577.763	479.045	0.157	-0.356
-576.748	800.000	-0.038	0.149
-575.733	-61.550	-0.152	0.064
-574.719	75.990	-0.274	0.291
-573.704	315.556	-0.078	0.147
-572.690	-44.269	0.246	-0.123
-571.675	-200.000	-0.007	-0.199
-570.661	800.000	0.033	0.102
-569.646	-6.904	-0.126	0.086
-568.631	626.003	-0.070	0.177
-567.617	320.504	0.069	-0.132
-566.602	40.276	-0.258	-0.233
-565.588	-1.865	-0.186	0.131
-564.573	141.769	-0.089	0.118
-563.558	32.581	0.375	0.325
-562.544	-116.570	-0.089	-0.016
-561.529	-122.614	0.184	-0.030
-560.515	334.643	-0.080	-0.154
-559.500	-97.672	-0.111	-0.029
-558.485	-18.229	-0.095	-0.059
-557.471	800.000	-0.080	0.266
-556.456	141.757	-0.085	-0.113
-555.442	-11.203	-0.221	0.146
-554.427	10.354	-0.240	-0.183
-553.412	-33.932	-0.394	-0.217
-552.398	109.640	-0.148	-0.178
-551.383	-124.975	-0.164	-0.025
-550.369	43.877	0.340	-0.311
-549.354	800.000	-0.032	0.114
-548.339	329.098	-0.017	0.032
-547.325	373.349	0.090	-0.183
-546.310	534.604	0.068	0.161
-545.296	-23.047	-0.100	0.060
-544.281	800.000	0.051	0.187
-543.266	206.421	-0.047	-0.074
-542.252	290.719	0.061	-0.111
-541.237	-137.505	-0.372	0.042
-540.223	30.312	-0.180	-0.153
-539.208	-200.000	0.165	-0.000
-538.193	-105.421	-0.255	-0.058
-537.179	48.651	0.148	-0.139
-536.164	508.057	0.056	0.130
-535.150	-85.778	-0.127	0.039
-534.135	800.000	0.106	0.428
-533.121	-75.526	0.046	0.016
-532.106	-200.000	0.024	-0.109
-531.091	-75.115	0.140	-0.050
-530.077	800.000	-0.070	-0.224
-529.062	-2.173	0.020	0.014
-528.048	-79.160	0.018	-0.006
-527.033	-10.149	-0.141	0.094
-526.018	-148.938	-0.139	0.011
-525.004	-200.000	-0.030	0.341
-523.989	733.627	-0.130	-0.348
-522.975	-78.150	0.289	-0.099
-521.960	206.586	0.247	-0.384
-520.945	171.980	0.139	-0.200
-519.931	272.390	0.145	-0.256
-518.916	47.810	-0.036	-0.034
-517.902	-122.610	0.326	-0.053
-516.887	-76.854	0.227	-0.079
-515.872	-7.231	-0.180	-0.122
-514.858	593.493	0.066	-0.164
-513.843	-96.126	0.224	-0.059
-512.829	-49.059	0.063	0.030
-511.814	-107.539	0.052	0.011
-510.799	-200.000	-0.001	-0.299
-509.785	224.155	-0.189	-0.306
-508.770	285.206	0.105	-0.190
-507.756	81.076	0.225	0.243
-506.741	-38.146	0.238	0.126
-505.726	-95.084	-0.078	-0.021
-504.712	176.740	-0.157	-0.228
-503.697	413.660	-0.058	0.124
-502.683	-53.060	-0.180	-0.083
-501.668	594.485	0.136	-0.337
-500.653	-26.431	0.197	0.116
-499.639	22.752	0.181	-0.148
-498.624	-126.366	-0.277	-0.041
-497.610	172.421	-0.214	-0.307
-496.595	216.080	0.049	-0.078
-495.581	800.000	-0.091	0.294
-494.566	264.392	-0.190	0.331
-493.551	-72.215	-0.150	0.056
-492.537	144.292	0.093	0.124
-491.522	598.720	-0.175	0.433
-490.508	-134.720	0.152	-0.018
-489.493	63.351	0.263	0.264
-488.478	680.529	-0.018	-0.046
-487.464	-14.279	-0.426	0.274
-486.449	800.000	-0.134	0.426
-485.435	187.108	0.151	0.225
-484.420	-117.367	0.172	0.031
-483.405	800.000	-0.111	-0.334
-482.391	-5.822	-0.196	-0.134
-481.376	159.710	-0.130	0.180
-480.362	-111.804	-0.252	0.051
-479.347	74.291	0.218	0.229
-478.332	5.391	0.214	0.158
-477.318	326.696	-0.052	0.099
-476.303	14.045	0.192	-0.149
-475.289	-131.912	0.416	0.054
-474.274	-169.785	-0.245	-0.009
-473.259	-90.512	-0.112	-0.032
-472.245	-177.291	0.237	0.006
-471.230	-88.435	-0.462	-0.138
-470.216	800.000	0.021	-0.081
-469.201	66.765	-0.188	0.191
-468.186	-200.000	-0.020	0.125
-467.172	-84.910	0.006	0.002
-466.157	431.292	0.155	-0.335
-465.143	54.056	-0.231	0.222
-464.128	204.212	-0.138	0.214
-463.113	105.063	-0.332	-0.391
-462.099	82.068	0.077	0.083
-461.084	-200.000	0.033	0.282
-460.070	-200.000	0.010	-0.153
-459.055	-200.000	0.016	-0.276
-458.040	246.750	0.172	-0.289
-457.026	-48.294	0.265	0.127
-456.011	800.000	-0.016	-0.057
-454.997	63.156	0.230	-0.230
-453.982	59.079	0.007	-0.007
-452.968	-124.649	-0.102	-0.016
-451.953	-60.174	0.131	0.056
-450.938	-152.321	-0.465	0.033
-449.924	-200.000	0.020	-0.338
-448.909	-1.482	0.152	-0.107
-447.895	138.294	-0.192	0.251
-446.880	304.238	0.156	-0.288
-445.865	140.210	0.291	0.383
-444.851	524.477	0.041	-0.097
-443.836	201.943	0.101	-0.156
-442.822	530.162	0.178	0.419
-441.807	-200.000	0.005	0.110
-440.792	34.121	0.054	-0.047
-439.778	790.268	-0.092	0.253
-438.763	118.061	0.030	0.037
-437.749	800.000	0.083	0.236
-436.734	-82.200	0.089	0.029
-435.719	-200.000	0.007	0.157
-434.705	-94.200	0.118	-0.032
-433.690	428.560	-0.120	0.259
-432.676	-113.979	-0.015	-0.003
-431.661	-118.317	0.089	-0.016
-430.646	-173.045	0.389	-0.012
-429.632	671.861	-0.033	-0.086
-428.617	476.801	0.058	-0.132
-427.603	396.944	-0.015	0.031
-426.588	256.359	-0.183	0.312
-425.573	-162.396	0.229	0.011
-424.559	-200.000	-0.035	0.171
-423.544	69.629	-0.286	-0.294
-422.530	617.886	0.032	-0.079
-421.515	800.000	0.129	0.508
-420.500	-51.058	0.141	-0.066
-419.486	-97.396	-0.225	0.058
-418.471	-200.000	-0.032	0.149
-417.457	-200.000	0.022	0.150
-416.442	95.060	-0.132	-0.150
-415.428	196.672	-0.152	-0.231
-414.413	-164.321	0.407	0.019
-413.398	-77.891	0.402	0.138
-412.384	-39.583	0.098	0.051
-411.369	295.593	-0.064	0.118
-410.355	-89.914	0.244	-0.071
-409.340	85.034	-0.126	-0.138
-408.325	5.782	-0.205	-0.151
-407.311	246.174	0.077	0.130
-406.296	-91.103	-0.361	0.103
-405.282	-115.951	-0.195	0.036
-404.267	-47.388	0.474	-0.229
-403.252	-131.555	-0.152	0.020
-402.238	146.700	-0.312	0.418
-401.223	18.447	-0.160	-0.127
-400.209	800.000	0.113	0.404
-399.194	112.492	0.137	-0.165
-398.179	-138.395	0.156	-0.017
-397.165	-95.820	-0.079	0.021
-396.150	98.394	0.216	-0.248
-395.136	800.000	-0.067	-0.248
-394.121	-200.000	0.033	0.234
-393.106	800.000	-0.032	-0.111
-392.092	-200.000	0.019	0.171
-391.077	800.000	-0.040	0.142
-390.063	-13.547	0.148	0.095
-389.048	-27.497	-0.093	-0.054
-388.033	78.823	0.071	0.076
-387.019	-19.176	-0.289	0.179
-386.004	33.286	-0.116	0.100
-384.990	113.267	0.035	0.042
-383.975	-65.426	0.180	-0.072
-382.960	-7.396	0.156	-0.105
-381.946	173.143	-0.290	0.415
-380.931	-126.014	0.227	0.034
-379.917	-64.374	-0.226	0.091
-378.902	800.000	-0.057	-0.217
-377.888	-22.185	0.184	-0.111
-376.873	-159.233	0.190	-0.011
-375.858	800.000	-0.105	0.371
-374.844	-5.095	0.379	-0.259
-373.829	83.449	0.174	-0.189
-372.815	-15.396	-0.099	0.063
-371.800	-114.920	-0.231	0.044
-370.785	-115.559	0.115	0.022
-369.771	-104.679	0.267	0.061
-368.756	341.800	-0.055	0.106
-367.742	800.000	0.073	0.230
-366.727	77.589	0.143	0.151
-365.712	-36.039	0.262	-0.141
-364.698	-200.000	-0.019	0.214
-363.683	-161.383	-0.374	-0.019
-362.669	-121.202	0.304	0.051
-361.654	465.612	0.060	0.134
-360.639	-70.530	0.312	-0.117
-359.625	-166.000	-0.261	-0.011
-358.610	-47.246	0.133	0.064
-357.596	-103.865	-0.069	-0.016
-356.581	176.418	-0.084	-0.122
-355.566	-100.427	0.277	0.068
-354.552	8.991	0.094	0.071
-353.537	35.968	-0.110	-0.096
-352.523	154.973	0.059	-0.081
-351.508	219.468	0.168	0.267
-350.493	-101.708	-0.233	-0.056
-349.479	-43.482	0.030	-0.015
-348.464	-174.874	0.204	0.006
-347.450	800.000	-0.077	0.251
-346.435	395.046	0.087	-0.181
-345.420	197.994	0.062	0.095
-344.406	-37.931	0.396	0.209
-343.391	58.436	-0.144	-0.140
-342.377	-16.535	0.267	-0.168
-341.362	-200.000	-0.008	0.407
-340.348	-28.674	0.105	0.060
-339.333	-200.000	-0.041	0.403
-338.318	800.000	0.046	0.145
-337.304	-22.777	-0.267	0.160
-336.289	-34.838	-0.299	0.162
-335.275	-200.000	-0.016	0.240
-334.260	-42.721	-0.081	-0.041
-333.245	800.000	-0.017	-0.058
-332.231	-200.000	0.023	0.177
-331.216	-51.113	-0.215	-0.100
-330.202	-30.861	0.331	0.186
-329.187	565.006	0.097	-0.234
-328.172	-32.224	-0.167	0.092
-327.158	-61.239	0.055	0.023
-326.143	-31.962	-0.283	0.157
-325.129	12.870	-0.290	-0.223
-324.114	-200.000	0.032	0.314
-323.099	800.000	-0.033	-0.133
-322.085	1.686	0.261	-0.187
-321.070	150.444	-0.145	0.196
-320.056	-64.875	0.254	0.102
-319.041	-200.000	0.020	0.093
-318.026	800.000	0.044	-0.153
-317.012	-200.000	-0.035	-0.227
-315.997	800.000	-0.033	0.096
-314.983	800.000	-0.089	-0.269
-313.968	-104.250	-0.080	0.018
-312.953	139.729	-0.130	-0.169
-311.939	800.000	-0.042	0.177
-310.924	42.470	-0.143	0.129
-309.910	721.077	0.045	0.118
-308.895	800.000	-0.082	0.246
-307.880	169.429	0.064	0.090
-306.866	591.358	-0.129	0.317
-305.851	-127.990	0.117	-0.017
-304.837	294.140	0.041	-0.074
-303.822	23.131	-0.010	0.009
-302.807	187.391	-0.144	0.213
-301.793	105.617	0.301	0.353
-300.778	-60.967	-0.151	-0.063
-299.764	-200.000	0.034	-0.549
-298.749	118.643	0.149	0.183
-297.735	217.216	0.079	0.124
-296.720	-200.000	-0.028	-0.157
-295.705	-166.587	-0.304	-0.013
-294.691	800.000	0.054	0.171
-293.676	600.328	0.076	0.186
-292.662	-111.696	0.208	0.042
-291.647	-200.000	0.020	0.095
-290.632	-142.457	0.142	-0.014
-289.618	18.610	-0.117	-0.092
-288.603	-89.932	-0.221	-0.064
-287.589	82.787	0.137	-0.148
-286.574	-200.000	0.038	-0.263
-285.559	238.269	-0.090	0.148
-284.545	7.857	-0.029	0.021
-283.530	229.734	-0.096	0.155
-282.516	-117.710	0.321	-0.057
-281.501	-90.495	0.242	0.069
-280.486	68.717	-0.159	0.162
-279.472	134.573	-0.058	0.074
-278.457	-163.478	-0.144	-0.007
-277.443	-120.562	-0.048	-0.008
-276.428	-151.375	-0.127	0.009
-275.413	-200.000	-0.031	-0.135
-274.399	-91.277	0.142	-0.040
-273.384	180.586	-0.147	0.214
-272.370	297.756	0.017	-0.031
-271.355	-200.000	0.014	0.123
-270.340	18.260	0.187	-0.148
-269.326	800.000	0.166	-0.529
-268.311	800.000	-0.040	0.139
-267.297	-16.289	-0.401	-0.252
-266.282	-200.000	-0.002	0.080
-265.267	-200.000	0.029	-0.155
-264.253	-30.408	0.077	0.043
-263.238	94.948	-0.039	-0.043
-262.224	-54.710	0.102	-0.046
-261.209	24.000	0.154	0.125
-260.195	556.219	-0.046	0.111
-259.180	-54.104	-0.181	0.082
-258.165	-158.874	-0.130	-0.007
-257.151	28.945	-0.103	-0.087
-256.136	-95.846	0.214	0.056
-255.122	-147.673	-0.021	-0.002
-254.107	-77.125	0.419	-0.144
-253.092	-166.767	0.045	-0.002
-252.078	536.206	0.195	0.457
-251.063	-123.377	0.269	-0.043
-250.049	-155.600	-0.185	0.012
-249.034	772.229	0.090	-0.244
-248.019	-169.214	-0.447	0.016
-247.005	-126.007	-0.288	0.043
-245.990	-43.653	-0.204	-0.102
-244.976	547.372	-0.136	-0.321
-243.961	135.365	-0.019	0.024
-242.946	-3.169	0.136	0.094
-241.932	-55.135	-0.203	0.091
-240.917	-200.000	-0.014	0.141
-239.903	-7.361	-0.103	-0.069
-238.888	94.385	0.264	0.296
-237.873	-28.269	0.403	-0.230
-236.859	245.234	0.077	0.129
-235.844	-200.000	-0.007	-0.209
-234.830	159.939	-0.081	-0.112
-233.815	-200.000	-0.006	-0.174
-232.800	341.519	0.078	-0.150
-231.786	439.289	-0.050	0.108
-230.771	-67.970	0.181	0.070
-229.757	800.000	0.058	-0.223
-228.742	-183.649	-0.416	-0.007
-227.727	28.842	-0.092	0.077
-226.713	800.000	0.040	0.118
-225.698	-153.059	-0.227	-0.016
-224.684	800.000	0.088	-0.296
-223.669	800.000	0.046	-0.185
-222.655	-11.530	-0.135	-0.088
-221.640	133.140	0.116	0.148
-220.625	233.046	0.113	-0.183
-219.611	206.649	-0.123	0.189
-218.596	-149.798	0.386	-0.030
-217.582	-89.169	0.323	0.094
-216.567	-135.106	-0.450	0.053
-215.552	150.169	0.109	-0.147
-214.538	120.707	0.162	0.199
-213.523	39.995	0.197	-0.175
-212.509	257.681	-0.099	-0.168
-211.494	-127.364	0.200	0.029
-210.479	800.000	0.072	-0.202
-209.465	452.271	-0.129	0.282
-208.450	-85.641	-0.386	-0.118
-207.436	-200.000	-0.172	-0.000
-206.421	32.948	0.095	0.082
-205.406	286.889	-0.270	0.482
-204.392	-200.000	0.038	-0.170
-203.377	-200.000	-0.062	0.383
-202.363	-111.676	-0.191	0.038
-201.348	800.000	0.051	0.189
-200.333	-128.986	0.168	-0.023
-199.319	-200.000	-0.018	-0.313
-198.304	-137.164	-0.171	-0.019
-197.290	-200.000	-0.040	0.268
-196.275	-143.875	-0.162	0.015
-195.260	-146.713	0.098	-0.008
-194.246	-200.000	-0.004	0.293
-193.231	162.990	0.117	-0.163
-192.217	-1.303	0.150	0.105
-191.202	-119.020	-0.135	-0.023
-190.187	-14.498	-0.125	-0.079
-189.173	-100.649	-0.238	-0.058
-188.158	-171.599	-0.175	0.006
-187.144	-76.006	0.345	-0.120
-186.129	190.516	-0.171	-0.253
-185.114	250.595	0.098	-0.164
-184.100	-100.065	-0.023	-0.006
-183.085	800.000	-0.020	0.071
-182.071	-178.981	0.230	0.005
-181.056	-60.578	0.171	-0.072
-180.042	-66.485	0.219	0.086
-179.027	37.125	-0.331	0.289
-178.012	-101.815	-0.151	0.036
-176.998	281.412	0.023	-0.041
-175.983	282.941	0.109	0.193
-174.969	-200.000	0.015	-0.255
-173.954	-200.000	0.005	-0.034
-172.939	-200.000	0.011	-0.086
-171.925	629.834	0.072	-0.179
-170.910	800.000	0.123	-0.525
-169.896	676.577	-0.074	0.189
-168.881	225.927	0.047	0.074
-167.866	-200.000	0.019	-0.145
-166.852	-138.486	0.169	-0.018
-165.837	-16.719	0.177	0.110
-164.823	-93.238	0.295	-0.081
-163.808	-66.745	0.137	0.053
-162.793	-186.319	0.308	-0.004
-161.779	167.293	0.203	-0.285
-160.764	800.000	0.025	-0.088
-159.750	-28.455	-0.269	-0.153
-158.735	-114.517	-0.230	0.044
-157.720	-0.449	-0.288	-0.202
-156.706	23.507	0.256	-0.207
-155.691	-200.000	-0.044	0.246
-154.677	-88.218	0.249	0.074
-153.662	-200.000	-0.024	-0.115
-152.647	800.000	-0.104	0.390
-151.633	-200.000	0.059	0.292
-150.618	-100.897	0.316	-0.077
-149.604	-200.000	0.042	0.481
-148.589	-79.185	-0.585	0.196
-147.574	-200.000	-0.031	0.226
-146.560	-111.655	0.221	0.044
-145.545	-200.000	0.028	0.220
-144.531	800.000	-0.081	0.329
-143.516	-165.769	-0.148	-0.006
-142.502	383.963	0.135	0.273
-141.487	40.441	0.307	0.273
-140.472	-146.073	-0.149	-0.013
-139.458	-38.632	-0.122	-0.064
-138.443	-200.000	0.065	-0.370
-137.429	433.225	-0.082	0.175
-136.414	469.538	0.145	0.321
-135.399	-82.293	-0.497	-0.159
-134.385	-200.000	0.013	-0.271
-133.370	38.987	0.271	0.239
-132.356	62.986	-0.204	0.201
-131.341	777.810	-0.081	0.218
-130.326	222.423	0.146	0.231
-129.312	432.259	-0.097	-0.206
-128.297	-200.000	0.057	0.311
-127.283	-25.934	0.036	-0.021
-126.268	-130.421	-0.265	0.035
-125.253	-112.828	0.316	0.062
-124.239	17.187	-0.089	-0.069
-123.224	43.730	0.168	0.151
-122.210	-18.036	0.101	-0.063
