DTS Sentinel unit serial number:	SN413079Multiplexer serial number:	ORYXHardware model number:	OX4-SRSoftware version number:	ORYX F/W v4.00 Oryx Data Collector v3.7.2.0data status	okinstallation	princeton_trtdifferential loss correction	single-endedforward channel	channel 2reverse channel	N/Adate	2019/09/19time	05:47:35forward acquisition time	60.00reverse acquisition time	0.00gamma	496.2192k internal	0.2351k external	0.2351temperature offset calibration	1.0013default loss term (dB/km)	0.3790temperature slope calibration	1.0000multiplexer offset coefficient	1.0000multiplexer slope coefficient	1.0000fibre end	0.00T internal ref (°C)	19.25T ext. ref 1 (°C)	0.59T ext. ref 2 (°C)	12.90length (m)	temperature (°C)	Stokes	anti-Stokes-747.200	-48.270	-0.092	-0.044
-746.185	-51.203	-0.145	0.068
-745.171	-114.255	-0.126	-0.024
-744.156	-11.528	-0.280	0.184
-743.142	218.546	0.185	-0.294
-742.127	-68.556	-0.302	-0.117
-741.112	215.299	0.119	0.188
-740.098	13.103	0.124	0.096
-739.083	-17.729	0.029	-0.018
-738.069	-30.802	-0.134	-0.075
-737.054	-74.628	0.169	0.061
-736.039	3.603	-0.281	-0.204
-735.025	-200.000	-0.009	0.370
-734.010	-146.584	-0.289	-0.025
-732.996	-200.000	0.053	0.341
-731.981	152.130	0.032	-0.044
-730.966	-70.850	-0.368	0.138
-729.952	-200.000	-0.034	0.200
-728.937	85.199	0.087	-0.096
-727.923	526.255	0.032	0.076
-726.908	-200.000	-0.011	0.105
-725.894	-20.176	-0.238	-0.146
-724.879	558.498	0.136	-0.326
-723.864	-200.000	-0.040	-0.305
-722.850	-10.939	0.149	-0.098
-721.835	-82.360	0.317	0.103
-720.821	-61.373	0.117	0.049
-719.806	38.525	-0.185	0.165
-718.791	-138.118	-0.325	0.036
-717.777	-35.333	-0.103	0.056
-716.762	58.366	0.310	-0.303
-715.748	-200.000	-0.008	0.131
-714.733	-22.764	-0.217	-0.131
-713.718	231.607	0.162	-0.264
-712.704	447.725	0.179	-0.392
-711.689	95.911	0.146	0.166
-710.675	-200.000	-0.031	0.149
-709.660	-200.000	0.007	0.194
-708.645	378.145	0.066	-0.134
-707.631	-114.727	0.099	0.019
-706.616	70.808	-0.111	-0.114
-705.602	76.905	-0.109	-0.116
-704.587	64.286	-0.107	0.107
-703.572	800.000	0.028	0.110
-702.558	-111.968	-0.268	-0.054
-701.543	800.000	0.045	-0.126
-700.529	-200.000	-0.024	-0.280
-699.514	-200.000	0.049	-0.229
-698.499	91.995	-0.249	-0.279
-697.485	-55.979	0.194	0.086
-696.470	-107.670	0.013	0.003
-695.456	530.369	0.013	0.031
-694.441	-78.278	-0.262	0.090
-693.426	-200.000	-0.002	-0.317
-692.412	-143.372	-0.159	-0.015
-691.397	800.000	0.120	-0.450
-690.383	-109.532	-0.131	-0.028
-689.368	279.662	-0.049	-0.087
-688.354	50.327	0.060	0.056
-687.339	177.650	-0.093	0.136
-686.324	19.432	0.451	0.361
-685.310	278.792	-0.139	0.246
-684.295	101.220	-0.023	0.026
-683.281	309.062	0.136	-0.254
-682.266	-106.725	-0.023	-0.005
-681.251	104.179	-0.101	0.118
-680.237	800.000	-0.071	0.257
-679.222	196.193	0.200	-0.303
-678.208	-200.000	-0.013	-0.070
-677.193	-98.484	-0.478	-0.122
-676.178	800.000	-0.098	-0.357
-675.164	642.450	-0.101	-0.257
-674.149	0.706	0.191	0.136
-673.135	462.071	0.109	-0.242
-672.120	-200.000	-0.016	0.177
-671.105	-63.317	0.241	0.099
-670.091	-110.174	0.073	0.015
-669.076	-24.239	0.162	-0.096
-668.062	-66.102	-0.445	-0.176
-667.047	3.592	-0.227	0.165
-666.032	-200.000	0.003	-0.130
-665.018	15.436	0.048	-0.037
-664.003	-200.000	-0.009	-0.330
-662.989	259.026	0.238	0.409
-661.974	-200.000	0.057	-0.263
-660.959	9.157	-0.258	-0.194
-659.945	-1.844	0.276	-0.193
-658.930	-110.714	0.369	0.076
-657.916	176.438	0.093	-0.134
-656.901	-68.996	0.121	-0.046
-655.886	-200.000	0.026	0.311
-654.872	-13.121	-0.181	0.117
-653.857	-77.894	-0.071	-0.024
-652.843	-86.043	-0.328	0.101
-651.828	425.711	0.236	-0.506
-650.814	-48.916	0.280	0.134
-649.799	-200.000	-0.018	0.139
-648.784	558.745	0.068	0.164
-647.770	300.396	0.179	-0.328
-646.755	99.369	-0.160	0.184
-645.741	592.042	0.070	-0.171
-644.726	-101.576	0.269	0.065
-643.711	207.446	-0.115	-0.178
-642.697	-84.762	-0.361	-0.113
-641.682	38.723	-0.237	-0.210
-640.668	-200.000	-0.118	-0.609
-639.653	15.097	-0.119	0.093
-638.638	785.920	-0.094	-0.257
-637.624	87.933	-0.062	-0.069
-636.609	-98.387	0.081	0.021
-635.595	-200.000	-0.314	0.001
-634.580	41.508	0.098	-0.088
-633.565	800.000	0.028	-0.105
-632.551	-200.000	-0.002	-0.163
-631.536	-200.000	-0.043	-0.193
-630.522	119.048	0.107	0.132
-629.507	76.147	-0.267	-0.280
-628.492	-102.163	-0.243	-0.058
-627.478	120.313	0.276	-0.341
-626.463	-156.777	-0.239	-0.015
-625.449	43.354	-0.340	0.308
-624.434	-74.514	0.056	0.020
-623.419	-67.726	-0.049	0.019
-622.405	-2.900	0.568	0.394
-621.390	-185.759	-0.228	0.003
-620.376	-133.067	-0.193	-0.024
-619.361	102.837	-0.176	0.205
-618.346	231.338	0.198	0.322
-617.332	-87.489	-0.464	-0.139
-616.317	-48.423	0.067	-0.032
-615.303	800.000	-0.122	0.412
-614.288	284.479	0.135	-0.242
-613.273	-82.403	-0.148	-0.048
-612.259	800.000	-0.088	-0.261
-611.244	505.588	-0.144	-0.332
-610.230	-114.238	0.165	0.032
-609.215	421.638	0.042	-0.090
-608.201	274.417	-0.111	0.194
-607.186	-109.169	-0.124	0.026
-606.171	-200.000	-0.024	0.138
-605.157	800.000	-0.074	0.294
-604.142	800.000	-0.079	0.266
-603.128	493.435	0.069	0.157
-602.113	149.789	-0.132	0.178
-601.098	-200.000	-0.010	0.196
-600.084	800.000	0.023	0.087
-599.069	336.978	-0.092	-0.177
-598.055	-176.009	0.230	-0.006
-597.040	-28.609	0.504	0.288
-596.025	-48.440	-0.519	-0.248
-595.011	64.753	-0.101	-0.101
-593.996	-43.092	0.293	0.147
-592.982	154.940	-0.077	0.105
-591.967	-34.285	-0.380	-0.207
-590.952	171.516	-0.279	0.397
-589.938	-200.000	0.025	0.187
-588.923	103.987	-0.158	0.184
-587.909	-67.240	-0.172	0.067
-586.894	-200.000	0.001	-0.224
-585.879	133.779	0.052	0.067
-584.865	176.656	-0.034	-0.050
-583.850	-23.290	0.169	-0.101
-582.836	-61.653	0.217	-0.090
-581.821	661.301	0.092	0.235
-580.806	-200.000	-0.045	-0.230
-579.792	407.723	0.105	0.220
-578.777	473.552	0.210	0.470
-577.763	-200.000	0.016	-0.091
-576.748	-21.970	-0.248	0.149
-575.733	-71.639	-0.271	-0.100
-574.719	173.939	0.069	-0.099
-573.704	20.243	-0.060	-0.048
-572.690	10.458	0.129	0.097
-571.675	229.252	-0.145	0.235
-570.661	89.497	0.208	-0.229
-569.646	-115.744	-0.105	0.019
-568.631	-149.959	-0.094	0.007
-567.617	178.820	0.124	0.179
-566.602	1.671	-0.059	0.042
-565.588	-48.747	-0.170	0.081
-564.573	800.000	0.011	-0.030
-563.558	-34.067	0.199	-0.108
-562.544	800.000	0.042	0.138
-561.529	111.001	0.106	-0.126
-560.515	800.000	0.026	-0.075
-559.500	48.708	0.190	0.177
-558.485	-200.000	-0.032	0.383
-557.471	800.000	-0.079	0.260
-556.456	763.814	0.087	0.233
-555.442	-179.615	0.184	-0.004
-554.427	270.006	-0.089	0.155
-553.412	174.327	-0.192	-0.275
-552.398	-74.950	-0.181	-0.064
-551.383	177.822	0.065	-0.093
-550.369	68.651	-0.208	-0.211
-549.354	-200.000	0.036	0.222
-548.339	-56.434	0.047	0.020
-547.325	-93.687	-0.394	0.108
-546.310	800.000	0.034	0.119
-545.296	47.495	0.103	-0.095
-544.281	6.515	0.118	-0.087
-543.266	44.860	-0.043	0.039
-542.252	-44.215	0.237	0.118
-541.237	212.242	-0.194	-0.302
-540.223	76.329	-0.077	0.081
-539.208	195.226	0.066	-0.099
-538.193	-147.986	0.299	-0.025
-537.179	-50.271	-0.294	-0.138
-536.164	50.564	-0.198	0.185
-535.150	9.771	0.136	0.102
-534.135	-152.727	-0.106	-0.007
-533.121	-200.000	-0.053	-0.280
-532.106	291.568	-0.084	0.151
-531.091	-200.000	-0.091	-0.447
-530.077	-105.280	-0.226	-0.051
-529.062	-200.000	-0.044	-0.356
-528.048	195.034	-0.152	-0.228
-527.033	-55.467	0.187	-0.083
-526.018	-200.000	-0.013	-0.315
-525.004	800.000	0.066	0.210
-523.989	136.349	0.145	-0.188
-522.975	77.708	-0.121	-0.127
-521.960	-96.477	-0.416	-0.109
-520.945	562.743	0.174	-0.418
-519.931	-200.000	0.056	-0.336
-518.916	-32.711	0.213	0.117
-517.902	572.990	-0.056	0.134
-516.887	-51.601	0.392	-0.181
-515.872	-94.270	0.244	0.066
-514.858	203.688	-0.062	-0.094
-513.843	373.514	0.096	0.193
-512.829	-71.042	-0.105	0.039
-511.814	800.000	0.035	-0.147
-510.799	-66.274	-0.113	-0.044
-509.785	-112.792	-0.125	-0.025
-508.770	800.000	-0.047	-0.163
-507.756	-200.000	0.005	-0.284
-506.741	-62.182	-0.144	-0.059
-505.726	-188.757	0.231	0.003
-504.712	-44.040	0.192	0.095
-503.697	-200.000	-0.010	-0.084
-502.683	154.150	-0.189	-0.256
-501.668	143.703	-0.139	-0.183
-500.653	800.000	0.021	0.066
-499.639	-200.000	0.019	0.091
-498.624	-124.401	0.074	-0.011
-497.610	52.348	-0.353	0.333
-496.595	25.543	0.144	-0.118
-495.581	-160.057	0.160	-0.009
-494.566	266.481	0.124	-0.214
-493.551	-200.000	-0.015	-0.237
-492.537	-59.645	-0.157	-0.067
-491.522	231.472	0.132	-0.214
-490.508	800.000	0.110	-0.307
-489.493	-99.687	-0.169	0.042
-488.478	-83.353	-0.115	0.037
-487.464	-164.068	0.077	0.004
-486.449	-174.518	0.256	-0.007
-485.435	-200.000	-0.040	0.400
-484.420	-200.000	0.015	-0.104
-483.405	-171.532	-0.244	0.008
-482.391	76.683	0.343	-0.360
-481.376	-122.714	-0.307	-0.049
-480.362	800.000	0.052	-0.211
-479.347	375.899	-0.060	0.120
-478.332	-200.000	-0.016	0.140
-477.318	-73.618	0.309	-0.111
-476.303	182.836	-0.098	0.143
-475.289	-200.000	-0.045	0.295
-474.274	-106.451	-0.221	-0.049
-473.259	-68.149	-0.278	-0.107
-472.245	10.509	0.108	-0.081
-471.230	-200.000	-0.028	-0.237
-470.216	757.388	-0.107	-0.285
-469.201	798.265	0.071	-0.193
-468.186	185.345	-0.070	-0.103
-467.172	-73.989	-0.084	0.030
-466.157	5.783	0.208	0.152
-465.143	43.275	0.061	0.055
-464.128	76.792	-0.101	0.106
-463.113	-3.132	-0.274	0.188
-462.099	-84.098	-0.088	-0.028
-461.084	203.101	0.126	-0.192
-460.070	-22.929	-0.106	-0.063
-459.055	-200.000	-0.025	-0.165
-458.040	310.595	-0.152	0.281
-457.026	-93.588	-0.290	0.079
-456.011	-140.425	-0.212	-0.022
-454.997	-116.641	-0.161	0.029
-453.982	800.000	0.070	0.227
-452.968	-64.280	0.364	-0.146
-451.953	37.592	-0.143	-0.125
-450.938	800.000	0.059	0.236
-449.924	34.150	-0.045	0.039
-448.909	-79.366	-0.168	-0.056
-447.895	-172.170	0.256	-0.008
-446.880	800.000	0.095	0.268
-445.865	-156.474	0.172	0.011
-444.851	-125.963	-0.173	0.026
-443.836	296.732	-0.127	0.229
-442.822	-21.010	-0.229	0.138
-441.807	133.447	0.136	0.173
-440.792	-109.943	0.339	0.070
-439.778	-10.828	0.164	0.107
-438.763	413.226	0.068	0.143
-437.749	60.020	-0.239	-0.233
-436.734	-48.572	0.353	0.167
-435.719	154.320	-0.285	0.386
-434.705	-21.419	-0.369	0.222
-433.690	77.972	0.235	0.247
-432.676	800.000	-0.044	0.164
-431.661	800.000	-0.113	-0.340
-430.646	-200.000	-0.025	0.121
-429.632	-106.202	0.239	-0.053
-428.617	90.413	0.163	0.180
-427.603	475.939	0.059	-0.131
-426.588	-84.416	0.454	0.142
-425.573	388.369	-0.044	-0.090
-424.559	702.358	-0.086	0.222
-423.544	83.492	-0.383	0.411
-422.530	-108.505	0.383	-0.081
-421.515	-200.000	0.015	0.116
-420.500	-43.201	0.284	0.142
-419.486	58.624	-0.104	0.101
-418.471	-200.000	0.009	-0.170
-417.457	36.093	0.056	-0.049
-416.442	800.000	0.102	-0.324
-415.428	-172.155	-0.050	-0.002
-414.413	-116.949	0.148	0.027
-413.398	-200.000	-0.008	0.107
-412.384	-67.063	0.167	-0.065
-411.369	-104.641	-0.330	-0.075
-410.355	-21.457	-0.045	-0.027
-409.340	-64.471	-0.191	-0.076
-408.325	-200.000	-0.013	-0.118
-407.311	77.788	0.277	0.290
-406.296	-200.000	-0.006	0.267
-405.282	-200.000	-0.078	0.336
-404.267	-115.649	0.091	0.017
-403.252	-200.000	-0.069	-0.375
-402.238	520.039	-0.023	0.052
-401.223	-200.000	-0.026	0.145
-400.209	-200.000	0.052	-0.325
-399.194	94.464	0.016	-0.018
-398.179	70.745	0.211	0.215
-397.165	-157.115	0.278	0.017
-396.150	-74.139	-0.306	0.109
-395.136	-200.000	0.010	0.248
-394.121	-128.946	-0.124	0.017
-393.106	78.164	-0.114	-0.120
-392.092	-200.000	-0.005	0.095
-391.077	203.308	-0.089	-0.136
-390.063	-68.670	-0.224	0.085
-389.048	73.434	-0.190	-0.196
-388.033	203.701	0.209	-0.318
-387.019	-200.000	0.010	-0.144
-386.004	527.496	0.220	-0.511
-384.990	66.017	-0.240	0.240
-383.975	-33.445	-0.228	0.124
-382.960	-24.619	0.084	0.049
-381.946	-195.840	0.165	0.001
-380.931	-200.000	0.083	-0.409
-379.917	-76.741	0.131	-0.045
-378.902	1.603	0.231	0.164
-377.888	-23.633	-0.376	-0.222
-376.873	-30.766	-0.249	0.139
-375.858	-39.456	-0.379	-0.195
-374.844	86.978	0.196	0.213
-373.829	52.412	-0.084	0.079
-372.815	203.095	0.165	-0.251
-371.800	742.451	-0.072	-0.190
-370.785	39.679	0.189	0.166
-369.771	333.266	-0.170	0.323
-368.756	40.397	0.225	0.199
-367.742	73.246	-0.189	0.194
-366.727	-89.788	0.335	0.096
-365.712	800.000	-0.047	0.128
-364.698	800.000	-0.109	-0.360
-363.683	-59.751	-0.132	-0.056
-362.669	355.347	0.098	0.191
-361.654	-57.050	0.109	-0.047
-360.639	459.431	0.138	-0.301
-359.625	800.000	0.049	-0.187
-358.610	-200.000	0.005	-0.114
-357.596	46.568	-0.236	0.216
-356.581	380.647	-0.099	-0.199
-355.566	-95.915	-0.301	-0.079
-354.552	-134.798	-0.329	-0.039
-353.537	56.859	-0.225	0.216
-352.523	130.880	0.140	-0.177
-351.508	764.321	-0.040	-0.107
-350.493	511.464	0.045	-0.102
-349.479	-200.000	-0.036	-0.271
-348.464	-153.320	-0.276	0.019
-347.450	800.000	0.080	0.221
-346.435	66.311	0.062	0.062
-345.420	23.418	-0.110	-0.089
-344.406	-44.468	0.322	0.158
-343.391	43.189	0.317	-0.284
-342.377	10.813	0.092	-0.069
-341.362	-62.486	-0.069	0.028
-340.348	-168.009	0.123	-0.005
-339.333	10.125	0.216	0.161
-338.318	800.000	0.104	0.309
-337.304	-62.029	-0.268	-0.110
-336.289	-55.289	0.261	0.115
-335.275	-87.872	0.470	-0.139
-334.260	-123.793	-0.074	-0.012
-333.245	-200.000	-0.020	0.265
-332.231	2.040	0.054	0.039
-331.216	14.417	0.089	-0.068
-330.202	-33.202	0.056	-0.031
-329.187	264.132	0.195	0.332
-328.172	142.678	0.351	0.458
-327.158	74.186	-0.152	-0.157
-326.143	149.589	0.153	-0.203
-325.129	107.657	-0.105	0.123
-324.114	-200.000	0.022	0.153
-323.099	-200.000	-0.037	-0.223
-322.085	800.000	-0.067	-0.184
-321.070	297.775	-0.016	-0.030
-320.056	211.552	-0.087	0.134
-319.041	400.469	0.065	0.133
-318.026	77.570	-0.108	-0.113
-317.012	-118.365	0.018	0.003
-315.997	-70.425	-0.114	0.042
-314.983	-200.000	0.045	0.653
-313.968	800.000	0.047	0.170
-312.953	14.474	-0.080	-0.061
-311.939	-171.176	0.292	0.010
-310.924	-114.817	0.129	-0.024
-309.910	32.414	-0.059	0.050
-308.895	-63.169	0.113	-0.046
-307.880	-58.504	0.149	0.063
-306.866	-200.000	0.022	-0.132
-305.851	-142.738	-0.228	0.022
-304.837	263.344	0.159	-0.271
-303.822	155.377	-0.019	-0.026
-302.807	6.437	0.203	0.148
-301.793	-77.274	-0.262	0.089
-300.778	-18.576	0.226	-0.139
-299.764	-45.362	-0.190	-0.093
-298.749	-200.000	-0.002	0.327
-297.735	-200.000	0.030	-0.151
-296.720	-19.477	-0.103	-0.063
-295.705	183.869	0.116	0.168
-294.691	-110.688	0.128	-0.026
-293.676	-77.749	0.193	-0.065
-292.662	117.819	-0.192	0.232
-291.647	800.000	-0.082	0.308
-290.632	-88.730	-0.027	-0.008
-289.618	724.356	-0.122	0.317
-288.603	303.911	0.065	0.117
-287.589	24.937	-0.228	0.186
-286.574	532.487	0.080	0.186
-285.559	-93.635	-0.197	-0.053
-284.545	-142.840	-0.241	0.023
-283.530	94.497	-0.078	-0.087
-282.516	71.942	0.161	0.164
-281.501	-115.525	0.122	-0.023
-280.486	-180.240	-0.316	0.007
-279.472	800.000	-0.045	-0.124
-278.457	-200.000	-0.048	-0.271
-277.443	600.709	-0.042	0.101
-276.428	85.759	0.264	-0.284
-275.413	63.389	-0.135	0.133
-274.399	19.806	-0.263	-0.207
-273.384	-78.969	0.171	-0.057
-272.370	21.204	-0.318	0.253
-271.355	73.401	-0.233	-0.239
-270.340	-24.358	0.139	0.081
-269.326	363.383	0.049	-0.096
-268.311	-192.842	0.136	-0.001
-267.297	-61.457	-0.369	0.152
-266.282	-102.167	0.406	-0.096
-265.267	800.000	0.147	0.600
-264.253	-139.341	-0.120	-0.013
-263.238	106.045	-0.045	-0.053
-262.224	234.948	-0.218	0.353
-261.209	-76.395	0.111	-0.038
-260.195	-24.444	0.078	0.046
-259.180	34.995	-0.192	0.165
-258.165	-22.959	0.105	-0.062
-257.151	-106.064	-0.311	-0.068
-256.136	172.352	0.140	-0.197
-255.122	-62.160	0.142	0.058
-254.107	-115.130	-0.079	0.015
-253.092	-39.870	0.221	-0.113
-252.078	800.000	0.083	-0.273
-251.063	800.000	0.105	0.305
-250.049	113.086	0.053	0.062
-249.034	69.194	-0.097	0.097
-248.019	359.431	-0.058	-0.114
-247.005	-60.148	-0.136	-0.057
-245.990	126.188	-0.063	0.078
-244.976	153.952	-0.084	-0.112
-243.961	-78.968	0.164	0.055
-242.946	-200.000	-0.007	0.032
-241.932	3.196	-0.237	-0.169
-240.917	-44.513	-0.311	0.152
-239.903	-15.193	0.156	0.098
-238.888	141.918	-0.030	0.039
-237.873	265.515	0.094	-0.160
-236.859	15.540	0.174	-0.134
-235.844	35.107	0.106	-0.091
-234.830	424.334	-0.045	-0.095
-233.815	266.842	-0.065	-0.112
-232.800	-200.000	-0.002	-0.172
-231.786	653.806	0.137	-0.344
-230.771	-200.000	0.002	-0.254
-229.757	-180.848	0.076	-0.002
-228.742	-18.086	0.171	0.105
-227.727	278.348	-0.111	0.193
-226.713	-110.869	0.210	-0.042
-225.698	258.752	0.123	-0.208
-224.684	800.000	-0.112	-0.433
-223.669	-69.230	0.197	0.074
-222.655	-132.994	0.273	-0.034
-221.640	-39.235	0.092	-0.047
-220.625	-32.802	-0.417	0.226
-219.611	-90.967	-0.056	0.016
-218.596	-200.000	0.001	-0.317
-217.582	228.225	0.150	0.238
-216.567	91.358	-0.188	0.207
-215.552	-37.719	0.442	0.230
-214.538	-200.000	0.028	-0.239
-213.523	800.000	-0.019	0.057
-212.509	-35.705	0.098	0.052
-211.494	-200.000	0.048	0.226
-210.479	3.176	0.138	-0.098
-209.465	-8.954	0.220	-0.144
-208.450	325.115	0.172	-0.321
-207.436	-52.512	0.187	0.085
-206.421	94.455	0.147	0.163
-205.406	-65.142	0.245	0.097
-204.392	-200.000	0.019	0.221
-203.377	-200.000	-0.003	0.120
-202.363	100.692	0.205	-0.232
-201.348	-102.772	0.143	-0.033
-200.333	231.031	-0.111	0.178
-199.319	-55.861	-0.217	0.095
-198.304	29.106	0.189	0.157
-197.290	-36.349	0.405	-0.213
-196.275	208.166	0.168	-0.257
-195.260	534.152	0.044	-0.102
-194.246	-200.000	-0.098	-0.474
-193.231	800.000	-0.077	-0.259
-192.217	-7.335	0.083	0.055
-191.202	-161.410	-0.133	-0.007
-190.187	-105.015	-0.072	0.016
-189.173	2.855	0.205	-0.145
-188.158	248.320	-0.145	-0.240
-187.144	-66.666	-0.113	0.044
-186.129	-50.590	0.260	-0.120
-185.114	330.676	-0.037	-0.070
-184.100	224.665	-0.103	0.163
-183.085	366.780	0.044	-0.088
-182.071	-200.000	-0.035	0.211
-181.056	-200.000	0.015	-0.407
-180.042	-119.664	0.309	-0.052
-179.027	-200.000	0.007	-0.250
-178.012	51.025	-0.144	-0.133
-176.998	-36.642	0.309	0.162
-175.983	62.140	-0.184	0.179
-174.969	-67.999	0.197	0.075
-173.954	-200.000	-0.032	0.167
-172.939	-93.227	0.164	0.044
-171.925	528.511	-0.043	0.100
-170.910	563.005	0.044	-0.104
-169.896	236.022	0.187	0.301
-168.881	800.000	0.058	-0.160
-167.866	-83.190	-0.305	0.096
-166.852	800.000	-0.095	-0.386
-165.837	800.000	0.098	0.273
-164.823	-20.955	-0.125	0.075
-163.808	-182.610	-0.060	0.001
-162.793	-200.000	-0.008	0.256
-161.779	-105.260	0.546	0.121
-160.764	175.525	0.129	0.182
-159.750	-134.482	-0.392	0.047
-158.735	-200.000	-0.002	-0.012
-157.720	-17.938	0.364	0.223
-156.706	-200.000	0.036	-0.288
-155.691	-156.227	-0.244	-0.015
-154.677	-137.962	-0.221	-0.024
-153.662	37.130	0.130	-0.112
-152.647	265.877	0.184	0.313
-151.633	-20.074	-0.211	-0.127
-150.618	-113.766	-0.488	-0.093
-149.604	-98.638	-0.028	-0.007
-148.589	25.644	-0.188	-0.152
-147.574	-20.432	-0.088	-0.052
-146.560	-191.732	0.203	-0.002
-145.545	324.895	0.067	0.125
-144.531	-105.067	-0.147	-0.033
-143.516	23.719	-0.140	0.112
-142.502	79.055	0.255	-0.266
-141.487	33.183	-0.051	-0.043
-140.472	-113.953	0.106	-0.020
-139.458	800.000	0.097	-0.267
-138.443	22.375	-0.040	0.032
-137.429	-200.000	-0.014	-0.108
-136.414	-3.317	-0.185	0.126
-135.399	-45.396	-0.095	0.046
-134.385	-140.845	0.291	-0.029
-133.370	-68.926	0.246	-0.093
-132.356	55.092	-0.108	0.102
-131.341	-200.000	0.004	-0.095
-130.326	52.504	-0.033	0.031
-129.312	-142.183	0.020	-0.002
-128.297	800.000	-0.086	-0.279
-127.283	-200.000	-0.002	-0.044
-126.268	-73.073	0.316	0.113
-125.253	-103.032	-0.225	-0.052
-124.239	800.000	-0.095	-0.330
-123.224	-70.033	0.208	0.077
-122.210	800.000	-0.018	-0.058
-121.195	-10.115	-0.211	0.137
