DTS Sentinel unit serial number:	SN413079Multiplexer serial number:	ORYXHardware model number:	OX4-SRSoftware version number:	ORYX F/W v4.00 Oryx Data Collector v3.7.2.0data status	okinstallation	princeton_trtdifferential loss correction	single-endedforward channel	channel 2reverse channel	N/Adate	2019/09/11time	22:49:11forward acquisition time	60.00reverse acquisition time	0.00gamma	496.2192k internal	0.2325k external	0.2325temperature offset calibration	1.0071default loss term (dB/km)	0.3790temperature slope calibration	1.0000multiplexer offset coefficient	1.0000multiplexer slope coefficient	1.0000fibre end	0.00T internal ref (°C)	34.75T ext. ref 1 (°C)	1.77T ext. ref 2 (°C)	29.33length (m)	temperature (°C)	Stokes	anti-Stokes-747.200	-88.515	-0.039	-0.012
-746.185	-200.000	-0.027	0.271
-745.171	-95.514	0.340	-0.092
-744.156	800.000	-0.131	0.387
-743.142	43.530	0.094	0.087
-742.127	25.988	-0.324	0.273
-741.112	-0.979	-0.241	0.172
-740.098	-43.986	-0.106	0.054
-739.083	46.237	-0.182	0.171
-738.069	-101.772	-0.104	0.025
-737.054	55.910	0.288	-0.282
-736.039	-200.000	0.030	-0.446
-735.025	102.698	0.058	-0.068
-734.010	579.010	-0.066	-0.162
-732.996	167.011	-0.118	0.168
-731.981	-124.886	-0.360	0.056
-730.966	800.000	0.089	0.320
-729.952	174.234	-0.141	-0.206
-728.937	-16.160	-0.205	0.131
-727.923	-41.810	-0.236	0.122
-726.908	800.000	-0.036	-0.107
-725.894	-34.726	-0.200	-0.110
-724.879	742.349	-0.111	-0.302
-723.864	-50.614	-0.370	-0.176
-722.850	-200.000	-0.242	0.001
-721.835	-200.000	0.006	-0.209
-720.821	109.295	0.227	-0.274
-719.806	44.085	0.059	-0.055
-718.791	800.000	-0.007	-0.026
-717.777	800.000	-0.052	-0.189
-716.762	-200.000	-0.005	0.075
-715.748	110.505	-0.129	-0.156
-714.733	26.119	0.078	0.065
-713.718	72.926	0.140	0.148
-712.704	-100.090	0.074	-0.018
-711.689	197.194	-0.086	0.132
-710.675	-200.000	0.001	0.085
-709.660	-53.691	-0.093	-0.043
-708.645	-200.000	-0.053	0.437
-707.631	88.968	0.108	-0.122
-706.616	332.141	0.058	-0.112
-705.602	-60.692	0.331	0.141
-704.587	-149.712	-0.202	-0.016
-703.572	-151.589	0.048	-0.004
-702.558	-102.639	0.222	0.053
-701.543	-78.726	0.234	0.080
-700.529	-111.064	0.103	0.021
-699.514	159.310	-0.019	-0.026
-698.499	800.000	-0.078	-0.334
-697.485	-200.000	0.017	-0.220
-696.470	299.909	0.069	0.128
-695.456	26.170	-0.061	0.051
-694.441	-159.357	-0.161	0.009
-693.426	-101.897	0.253	0.062
-692.412	-88.662	0.362	0.108
-691.397	37.309	0.110	-0.099
-690.383	700.280	0.067	-0.179
-689.368	-102.733	0.033	0.008
-688.354	380.313	-0.031	0.064
-687.339	180.801	-0.055	-0.081
-686.324	10.240	-0.261	-0.200
-685.310	313.403	-0.111	0.209
-684.295	800.000	-0.096	0.312
-683.281	119.205	-0.074	0.093
-682.266	-200.000	-0.006	0.227
-681.251	800.000	-0.050	-0.164
-680.237	92.157	-0.203	0.230
-679.222	-122.830	-0.189	-0.031
-678.208	-200.000	-0.010	-0.063
-677.193	654.069	0.031	-0.080
-676.178	101.239	-0.124	-0.145
-675.164	-200.000	-0.004	-0.058
-674.149	-21.635	0.334	-0.205
-673.135	-96.477	-0.181	-0.048
-672.120	141.657	0.034	0.046
-671.105	138.201	0.188	0.249
-670.091	-114.758	-0.137	-0.026
-669.076	-21.362	0.043	-0.026
-668.062	380.825	0.125	0.259
-667.047	73.076	0.305	0.321
-666.032	-91.429	0.396	-0.114
-665.018	-154.023	-0.221	0.015
-664.003	-200.000	-0.035	0.170
-662.989	18.018	-0.209	0.167
-661.974	-200.000	-0.073	-0.385
-660.959	-121.412	-0.251	-0.042
-659.945	-200.000	-0.010	0.106
-658.930	282.822	-0.104	-0.188
-657.916	167.282	-0.109	-0.155
-656.901	-135.632	0.529	0.063
-655.886	-80.349	0.326	-0.110
-654.872	199.593	0.110	-0.169
-653.857	-150.142	-0.105	0.008
-652.843	686.162	-0.105	0.275
-651.828	96.044	0.228	-0.262
-650.814	800.000	-0.106	0.355
-649.799	800.000	-0.054	-0.181
-648.784	373.855	-0.014	-0.028
-647.770	277.103	-0.205	0.367
-646.755	-200.000	-0.009	-0.199
-645.741	11.621	0.233	-0.180
-644.726	-200.000	0.008	0.290
-643.711	-200.000	0.023	0.105
-642.697	86.928	0.112	0.124
-641.682	236.214	0.208	-0.346
-640.668	-55.607	-0.190	0.085
-639.653	-170.663	-0.172	0.006
-638.638	207.881	-0.132	0.207
-637.624	93.772	0.187	0.213
-636.609	-22.393	0.230	-0.140
-635.595	112.732	0.084	-0.102
-634.580	-200.000	0.053	0.264
-633.565	166.927	-0.069	-0.098
-632.551	-23.099	0.190	-0.115
-631.536	-120.138	-0.221	-0.038
-630.522	-142.398	-0.156	-0.015
-629.507	-121.156	0.056	-0.009
-628.492	-120.348	-0.168	0.029
-627.478	-79.399	0.374	0.127
-626.463	265.450	0.251	0.440
-625.449	-121.263	0.122	0.021
-624.434	178.237	0.086	-0.126
-623.419	-184.849	0.068	0.001
-622.405	-120.808	-0.082	-0.014
-621.390	-200.000	-0.029	0.357
-620.376	-13.228	0.331	-0.216
-619.361	-38.602	-0.265	-0.141
-618.346	15.808	-0.168	-0.133
-617.332	74.660	-0.223	0.236
-616.317	-200.000	-0.005	0.283
-615.303	69.904	0.113	-0.117
-614.288	23.935	-0.165	-0.137
-613.273	-200.000	-0.009	0.153
-612.259	-119.003	0.342	0.060
-611.244	253.832	-0.077	0.132
-610.230	149.741	0.127	0.172
-609.215	800.000	-0.053	-0.155
-608.201	-64.153	0.170	0.070
-607.186	770.489	-0.197	0.538
-606.171	365.956	-0.104	0.210
-605.157	-38.429	0.225	-0.119
-604.142	-200.000	0.029	-0.373
-603.128	-200.000	-0.013	-0.387
-602.113	-200.000	-0.021	-0.191
-601.098	604.206	-0.085	-0.213
-600.084	40.149	0.043	0.038
-599.069	-52.333	0.190	-0.088
-598.055	106.564	0.115	-0.136
-597.040	32.717	-0.201	0.175
-596.025	-86.952	-0.123	-0.038
-595.011	311.310	-0.115	0.216
-593.996	-111.198	0.145	-0.030
-592.982	696.822	0.075	-0.197
-591.967	493.524	-0.125	-0.288
-590.952	16.909	0.287	-0.228
-589.938	-200.000	-0.016	-0.105
-588.923	-200.000	0.002	-0.239
-587.909	-200.000	-0.032	-0.318
-586.894	157.725	-0.108	-0.151
-585.879	-200.000	-0.010	0.077
-584.865	-200.000	0.026	-0.192
-583.850	47.873	-0.341	0.320
-582.836	46.322	0.210	-0.195
-581.821	800.000	0.046	0.177
-580.806	-111.633	0.066	-0.013
-579.792	-29.367	0.084	-0.048
-578.777	800.000	0.062	0.268
-577.763	800.000	-0.004	-0.012
-576.748	-200.000	-0.066	0.514
-575.733	141.765	0.144	-0.191
-574.719	-3.410	0.270	-0.188
-573.704	125.435	-0.246	-0.311
-572.690	31.008	0.099	0.085
-571.675	166.758	-0.252	0.358
-570.661	-74.391	-0.459	-0.166
-569.646	14.812	0.311	0.244
-568.631	-35.967	-0.358	-0.194
-567.617	-4.125	-0.176	-0.122
-566.602	51.029	-0.140	0.133
-565.588	-118.653	0.208	-0.037
-564.573	-150.173	0.223	-0.017
-563.558	-108.072	0.165	-0.036
-562.544	800.000	-0.022	-0.061
-561.529	-143.374	0.073	0.007
-560.515	-20.279	-0.242	-0.149
-559.500	-50.559	0.333	0.157
-558.485	330.809	0.067	-0.129
-557.471	17.981	-0.201	0.160
-556.456	-1.670	0.208	-0.147
-555.442	484.157	-0.086	0.196
-554.427	-200.000	0.005	0.040
-553.412	454.348	0.142	-0.316
-552.398	-200.000	-0.007	0.111
-551.383	800.000	0.061	0.168
-550.369	-4.431	0.297	0.205
-549.354	-149.320	0.178	-0.014
-548.339	629.406	0.027	-0.067
-547.325	-102.253	0.012	-0.003
-546.310	-84.772	-0.243	-0.077
-545.296	541.774	-0.104	-0.248
-544.281	273.156	0.043	-0.075
-543.266	-200.000	0.000	0.214
-542.252	800.000	-0.061	0.213
-541.237	360.893	0.074	-0.149
-540.223	-152.021	-0.315	-0.023
-539.208	371.932	0.068	0.138
-538.193	-96.904	0.323	0.085
-537.179	253.129	0.143	-0.244
-536.164	-37.997	0.289	0.154
-535.150	-98.328	0.340	-0.087
-534.135	800.000	-0.030	0.097
-533.121	-29.951	-0.329	0.187
-532.106	-41.221	0.114	-0.059
-531.091	-200.000	0.006	-0.353
-530.077	7.039	0.231	0.172
-529.062	198.537	0.175	-0.268
-528.048	-200.000	-0.015	0.169
-527.033	-108.079	0.054	-0.012
-526.018	-190.960	-0.109	-0.001
-525.004	114.863	-0.057	-0.069
-523.989	-200.000	-0.010	0.047
-522.975	-112.331	0.075	-0.015
-521.960	249.702	-0.276	0.468
-520.945	8.744	0.266	0.201
-519.931	-105.964	-0.022	-0.005
-518.916	-58.502	-0.292	0.127
-517.902	68.624	0.101	0.104
-516.887	-76.301	-0.469	-0.165
-515.872	-108.950	0.392	0.084
-514.858	-200.000	0.007	0.192
-513.843	800.000	0.074	0.312
-512.829	800.000	-0.061	0.207
-511.814	8.755	-0.225	0.169
-510.799	-80.137	0.143	-0.048
-509.785	-200.000	-0.103	-0.454
-508.770	-58.878	0.161	-0.070
-507.756	242.669	-0.153	-0.257
-506.741	-100.549	-0.285	0.070
-505.726	-200.000	-0.030	0.242
-504.712	-156.575	-0.129	-0.008
-503.697	-116.408	-0.278	-0.051
-502.683	800.000	0.043	0.129
-501.668	-200.000	-0.036	-0.177
-500.653	-200.000	-0.014	-0.529
-499.639	756.975	0.010	-0.026
-498.624	-148.389	-0.125	-0.010
-497.610	158.849	-0.125	-0.174
-496.595	800.000	-0.132	-0.402
-495.581	58.432	0.219	-0.215
-494.566	-57.557	-0.444	-0.195
-493.551	800.000	0.021	-0.081
-492.537	-30.045	-0.277	-0.157
-491.522	-104.017	-0.253	-0.059
-490.508	-156.074	0.162	-0.010
-489.493	-63.602	-0.200	-0.082
-488.478	245.842	0.265	-0.445
-487.464	142.552	0.100	-0.133
-486.449	-200.000	-0.016	-0.116
-485.435	-131.985	0.154	0.020
-484.420	210.827	0.074	-0.116
-483.405	-185.601	0.043	0.001
-482.391	4.088	-0.214	-0.156
-481.376	175.211	0.116	0.168
-480.362	29.280	-0.079	0.067
-479.347	221.400	-0.089	0.143
-478.332	-122.424	-0.332	0.054
-477.318	-168.862	-0.157	-0.006
-476.303	364.933	0.083	0.166
-475.289	-200.000	0.007	-0.225
-474.274	-93.576	0.177	0.049
-473.259	800.000	-0.097	-0.375
-472.245	4.921	0.189	0.139
-471.230	67.013	-0.094	0.096
-470.216	800.000	0.024	0.106
-469.201	-5.311	0.105	-0.072
-468.186	32.487	0.276	0.238
-467.172	271.441	0.141	0.248
-466.157	-118.183	-0.082	0.015
-465.143	800.000	-0.121	-0.466
-464.128	36.848	-0.169	-0.149
-463.113	800.000	-0.100	0.326
-462.099	-81.509	0.295	0.097
-461.084	141.386	0.149	-0.197
-460.070	211.177	-0.159	-0.250
-459.055	13.300	-0.300	-0.232
-458.040	107.677	0.073	0.087
-457.026	21.639	0.055	0.044
-456.011	29.800	-0.429	-0.364
-454.997	800.000	-0.095	-0.296
-453.982	-200.000	-0.037	0.191
-452.968	-200.000	0.010	0.111
-451.953	-24.771	-0.269	-0.160
-450.938	9.839	-0.221	-0.168
-449.924	667.256	0.098	-0.254
-448.909	-79.506	0.368	-0.124
-447.895	800.000	-0.095	0.337
-446.880	-91.176	-0.180	-0.051
-445.865	-28.162	-0.167	-0.096
-444.851	150.329	-0.078	0.105
-443.836	231.820	-0.061	-0.100
-442.822	800.000	0.108	-0.315
-441.807	70.958	0.188	0.194
-440.792	19.830	-0.191	0.153
-439.778	800.000	0.054	0.148
-438.763	800.000	-0.049	-0.173
-437.749	52.347	0.043	0.041
-436.734	-38.888	0.178	-0.094
-435.719	132.911	0.107	-0.138
-434.705	-200.000	-0.022	0.491
-433.690	156.979	0.132	0.182
-432.676	-16.444	-0.342	0.216
-431.661	-200.000	0.052	0.372
-430.646	-30.552	-0.039	-0.022
-429.632	4.616	-0.119	-0.087
-428.617	-200.000	0.027	0.221
-427.603	75.096	-0.062	0.065
-426.588	-131.222	-0.172	0.023
-425.573	164.523	0.164	0.230
-424.559	-157.908	-0.258	0.015
-423.544	345.484	-0.136	-0.267
-422.530	-126.687	-0.387	-0.057
-421.515	140.317	0.071	0.093
-420.500	282.422	0.068	0.122
-419.486	-66.597	0.159	-0.063
-418.471	-30.725	-0.249	0.141
-417.457	310.476	0.061	0.113
-416.442	137.690	-0.058	0.076
-415.428	291.225	0.005	-0.009
-414.413	-18.741	0.058	-0.036
-413.398	800.000	-0.109	-0.328
-412.384	60.153	-0.109	0.107
-411.369	410.847	0.181	0.383
-410.355	-200.000	-0.057	0.304
-409.340	-112.287	0.317	0.063
-408.325	-16.583	0.260	-0.164
-407.311	-75.687	-0.108	0.038
-406.296	9.280	0.161	-0.121
-405.282	437.114	0.086	-0.187
-404.267	-119.390	-0.110	-0.019
-403.252	-26.328	0.029	0.017
-402.238	800.000	-0.044	-0.142
-401.223	49.347	-0.133	-0.124
-400.209	74.533	-0.156	-0.163
-399.194	-200.000	-0.006	0.094
-398.179	-200.000	0.045	-0.284
-397.165	106.076	-0.230	0.271
-396.150	74.595	0.233	0.244
-395.136	-182.809	-0.182	-0.003
-394.121	-100.863	0.205	-0.050
-393.106	498.231	-0.149	-0.341
-392.092	33.756	0.037	0.032
-391.077	-32.950	-0.074	0.041
-390.063	800.000	-0.052	0.179
-389.048	70.508	0.204	-0.209
-388.033	575.501	-0.071	-0.172
-387.019	800.000	-0.070	-0.243
-386.004	57.621	0.097	-0.094
-384.990	402.963	-0.154	-0.322
-383.975	-200.000	0.039	-0.190
-382.960	5.657	-0.070	-0.051
-381.946	314.036	0.073	-0.136
-380.931	-200.000	0.027	0.273
-379.917	-200.000	-0.065	0.401
-378.902	-182.284	0.256	0.005
-377.888	-200.000	-0.040	-0.188
-376.873	-63.280	-0.034	0.014
-375.858	-21.392	0.136	0.083
-374.844	-200.000	0.085	0.446
-373.829	285.059	-0.088	0.157
-372.815	210.016	-0.309	-0.482
-371.800	217.032	-0.223	0.354
-370.785	387.806	-0.063	-0.130
-369.771	333.150	-0.051	0.097
-368.756	800.000	0.036	0.116
-367.742	-155.531	-0.157	-0.010
-366.727	-165.953	0.192	0.008
-365.712	36.740	-0.165	0.145
-364.698	-200.000	-0.016	-0.091
-363.683	15.897	0.233	-0.183
-362.669	27.716	0.080	-0.067
-361.654	65.295	-0.145	-0.146
-360.639	-200.000	-0.052	0.263
-359.625	-200.000	0.009	-0.217
-358.610	-120.659	0.340	-0.057
-357.596	-40.172	0.210	-0.109
-356.581	-185.244	-0.106	-0.002
-355.566	-200.000	-0.015	-0.152
-354.552	-110.118	-0.265	0.055
-353.537	196.071	0.066	0.100
-352.523	-28.476	0.270	0.155
-351.508	481.862	0.146	0.330
-350.493	-200.000	-0.016	-0.073
-349.479	520.839	-0.052	-0.122
-348.464	68.544	-0.275	0.280
-347.450	176.092	-0.134	0.193
-346.435	89.753	-0.041	-0.045
-345.420	-34.641	0.097	0.053
-344.406	32.088	-0.010	0.009
-343.391	-16.232	0.125	-0.079
-342.377	800.000	-0.118	-0.468
-341.362	-200.000	-0.009	-0.276
-340.348	800.000	0.055	-0.180
-339.333	-100.596	0.153	0.038
-338.318	148.391	0.126	0.169
-337.304	159.356	-0.133	-0.184
-336.289	-29.119	0.174	0.099
-335.275	-200.000	0.006	0.245
-334.260	-109.000	0.380	0.080
-333.245	-71.217	0.165	-0.062
-332.231	606.138	-0.193	-0.478
-331.216	800.000	-0.022	-0.090
-330.202	151.614	-0.155	0.209
-329.187	-85.049	0.103	-0.032
-328.172	118.638	0.081	0.099
-327.158	-45.212	-0.219	-0.108
-326.143	-59.849	-0.109	-0.046
-325.129	-159.093	-0.084	-0.005
-324.114	-56.818	0.080	-0.035
-323.099	-153.323	0.152	-0.010
-322.085	124.092	0.108	0.135
-321.070	-200.000	-0.060	-0.261
-320.056	29.021	0.075	0.063
-319.041	-200.000	0.031	0.407
-318.026	-200.000	-0.049	0.562
-317.012	-93.492	-0.288	-0.079
-315.997	-200.000	-0.012	0.092
-314.983	-185.445	0.329	-0.005
-313.968	55.950	0.226	0.218
-312.953	397.235	0.114	-0.236
-311.939	113.010	-0.217	-0.261
-310.924	-97.194	0.156	-0.040
-309.910	-35.223	0.176	0.095
-308.895	-200.000	0.013	-0.106
-307.880	-200.000	0.024	0.147
-306.866	206.078	0.107	-0.166
-305.851	-61.181	-0.153	0.064
-304.837	-134.462	0.139	0.017
-303.822	-200.000	0.008	0.058
-302.807	-59.507	0.137	-0.059
-301.793	800.000	0.021	-0.090
-300.778	-117.329	-0.095	-0.017
-299.764	-157.809	-0.310	0.018
-298.749	-200.000	0.029	0.512
-297.735	-71.526	-0.276	0.102
-296.720	-76.464	0.193	0.067
-295.705	-30.231	-0.180	0.102
-294.691	606.939	-0.084	0.207
-293.676	-154.361	0.370	0.025
-292.662	23.364	-0.239	0.195
-291.647	-21.113	0.213	-0.129
-290.632	-200.000	0.014	0.204
-289.618	375.840	-0.224	0.453
-288.603	-19.489	0.307	0.188
-287.589	80.605	-0.107	-0.114
-286.574	-28.613	0.106	0.060
-285.559	-59.484	0.085	0.036
-284.545	107.023	-0.169	-0.199
-283.530	136.365	-0.298	0.385
-282.516	-200.000	-0.029	0.203
-281.501	136.906	0.263	-0.340
-280.486	118.209	0.159	0.194
-279.472	-158.514	0.140	-0.008
-278.457	-63.625	0.456	0.185
-277.443	-71.103	-0.076	0.028
-276.428	51.402	0.096	0.091
-275.413	590.242	-0.155	0.380
-274.399	-180.300	0.017	0.000
-273.384	800.000	-0.044	-0.124
-272.370	339.009	0.099	0.191
-271.355	-6.507	0.123	-0.083
-270.340	58.386	-0.166	-0.161
-269.326	800.000	0.057	-0.193
-268.311	-200.000	-0.050	-0.237
-267.297	572.038	-0.100	0.240
-266.282	213.917	0.036	0.056
-265.267	-79.121	0.281	0.094
-264.253	-200.000	-0.023	0.137
-263.238	-27.822	-0.334	0.192
-262.224	-200.000	-0.043	0.285
-261.209	41.069	0.235	-0.210
-260.195	-200.000	-0.024	-0.155
-259.180	-200.000	0.033	-0.151
-258.165	-12.685	0.218	-0.141
-257.151	-142.650	0.130	0.013
-256.136	-7.808	0.159	0.106
-255.122	-129.528	0.182	-0.025
-254.107	-200.000	-0.008	0.132
-253.092	-200.000	-0.003	0.062
-252.078	-64.283	-0.157	-0.063
-251.063	-120.270	-0.204	0.034
-250.049	48.307	-0.081	0.075
-249.034	65.113	-0.123	0.123
-248.019	800.000	0.017	0.059
-247.005	-96.780	0.277	-0.072
-245.990	-195.283	-0.154	-0.001
-244.976	-111.681	0.089	0.018
-243.961	95.541	-0.279	0.315
-242.946	95.081	0.241	0.272
-241.932	420.788	0.121	0.256
-240.917	-13.124	-0.293	-0.188
-239.903	144.051	0.318	0.420
-238.888	448.604	-0.117	0.254
-237.873	-43.936	0.448	-0.223
-236.859	-102.607	-0.126	-0.030
-235.844	-125.387	-0.353	0.053
-234.830	67.957	-0.126	-0.128
-233.815	144.909	-0.122	-0.162
-232.800	-30.740	0.149	0.084
-231.786	-200.000	-0.033	-0.204
-230.771	800.000	0.023	0.095
-229.757	800.000	0.061	-0.168
-228.742	642.534	0.082	-0.206
-227.727	-122.709	0.478	-0.077
-226.713	800.000	0.173	0.482
-225.698	41.529	-0.221	0.198
-224.684	800.000	-0.082	-0.285
-223.669	737.362	0.098	-0.261
-222.655	-200.000	0.043	0.294
-221.640	26.314	0.113	0.093
-220.625	800.000	0.051	0.210
-219.611	56.432	-0.201	-0.194
-218.596	-200.000	0.007	-0.234
-217.582	427.853	0.043	-0.091
-216.567	58.843	0.084	-0.082
-215.552	800.000	0.134	0.398
-214.538	13.228	0.122	0.094
-213.523	121.093	-0.068	-0.083
-212.509	72.407	-0.173	0.178
-211.494	167.132	-0.113	-0.159
-210.479	-3.359	-0.320	-0.220
-209.465	101.473	-0.019	0.022
-208.450	510.998	-0.049	-0.112
-207.436	41.566	-0.030	0.027
-206.421	322.663	-0.091	-0.171
-205.406	-140.899	0.242	-0.025
-204.392	270.208	0.127	-0.221
-203.377	-200.000	-0.019	-0.283
-202.363	-97.540	-0.142	0.036
-201.348	-34.648	0.084	-0.045
-200.333	3.905	0.096	-0.069
-199.319	57.528	-0.042	-0.040
-198.304	7.790	-0.242	0.179
-197.290	238.541	0.073	-0.120
-196.275	-200.000	-0.021	-0.342
-195.260	-74.849	0.224	0.079
-194.246	574.895	0.174	-0.421
-193.231	-10.577	-0.284	-0.186
-192.217	-26.234	0.153	0.089
-191.202	417.265	-0.073	0.154
-190.187	800.000	0.070	-0.279
-189.173	257.681	0.161	0.274
-188.158	166.380	0.080	0.111
-187.144	666.366	-0.015	-0.038
-186.129	800.000	-0.043	-0.147
-185.114	253.847	-0.009	0.016
-184.100	57.003	0.170	0.163
-183.085	-200.000	0.030	0.245
-182.071	-26.191	-0.158	-0.092
-181.056	-200.000	0.051	0.256
-180.042	800.000	0.099	-0.338
-179.027	112.340	0.205	-0.245
-178.012	118.820	-0.028	-0.035
-176.998	-200.000	-0.005	0.111
-175.983	-98.060	-0.197	-0.050
-174.969	-62.944	-0.198	-0.081
-173.954	-200.000	0.007	-0.266
-172.939	110.323	0.086	-0.102
-171.925	800.000	0.081	0.344
-170.910	4.550	-0.293	-0.212
-169.896	-200.000	-0.064	0.396
-168.881	211.429	-0.130	-0.201
-167.866	85.156	0.151	-0.164
-166.852	220.829	-0.142	-0.225
-165.837	-200.000	0.022	-0.115
-164.823	-138.010	0.324	-0.036
-163.808	-16.173	0.091	0.057
-162.793	-82.946	-0.354	-0.113
-161.779	21.112	-0.101	-0.081
-160.764	-200.000	-0.000	0.008
-159.750	-93.258	-0.434	-0.119
-158.735	124.929	-0.105	-0.130
-157.720	800.000	-0.057	0.158
-156.706	7.441	-0.287	-0.212
-155.691	-78.711	-0.238	0.080
-154.677	55.221	0.153	0.146
-153.662	-200.000	-0.017	0.459
-152.647	-200.000	0.002	-0.030
-151.633	-68.381	0.293	0.112
-150.618	-27.650	-0.221	0.126
-149.604	-53.871	0.255	-0.115
-148.589	-39.809	0.118	0.061
-147.574	416.551	-0.070	-0.148
-146.560	78.950	0.211	0.223
-145.545	101.437	-0.103	-0.118
-144.531	800.000	0.019	-0.054
-143.516	-54.898	0.078	0.035
-142.502	120.305	-0.015	0.019
-141.487	640.418	0.099	-0.247
-140.472	-200.000	0.009	-0.193
-139.458	-141.991	0.427	-0.042
-138.443	-0.072	-0.048	0.034
-137.429	20.632	-0.227	0.181
-136.414	575.080	0.116	0.279
-135.399	250.088	0.166	0.278
-134.385	-120.821	-0.208	-0.035
-133.370	109.976	-0.112	-0.133
-132.356	728.614	-0.192	0.506
-131.341	104.545	0.182	-0.211
-130.326	-77.750	0.023	-0.008
-129.312	43.217	-0.183	0.164
-128.297	-90.667	0.368	-0.105
-127.283	800.000	0.043	0.134
-126.268	-13.103	0.172	0.110
-125.253	-200.000	0.007	0.126
-124.239	23.423	-0.115	0.093
-123.224	193.730	0.059	0.088
-122.210	286.657	-0.077	0.138
-121.195	800.000	0.136	0.512
