DTS Sentinel unit serial number:	SN413079Multiplexer serial number:	ORYXHardware model number:	OX4-SRSoftware version number:	ORYX F/W v4.00 Oryx Data Collector v3.7.2.0data status	okinstallation	princeton_trtdifferential loss correction	single-endedforward channel	channel 2reverse channel	N/Adate	2019/09/11time	21:37:11forward acquisition time	60.00reverse acquisition time	0.00gamma	496.2192k internal	0.2325k external	0.2325temperature offset calibration	1.0061default loss term (dB/km)	0.3790temperature slope calibration	1.0000multiplexer offset coefficient	1.0000multiplexer slope coefficient	1.0000fibre end	0.00T internal ref (°C)	35.89T ext. ref 1 (°C)	1.62T ext. ref 2 (°C)	30.23length (m)	temperature (°C)	Stokes	anti-Stokes-747.200	-13.434	0.085	-0.055
-746.185	71.219	0.246	0.258
-745.171	-150.594	-0.316	-0.024
-744.156	124.564	-0.194	0.247
-743.142	312.509	-0.122	0.231
-742.127	13.081	0.357	0.279
-741.112	-18.473	-0.148	0.093
-740.098	800.000	0.065	0.229
-739.083	388.522	0.052	-0.109
-738.069	-13.177	-0.111	-0.073
-737.054	800.000	-0.118	0.459
-736.039	-200.000	-0.018	-0.153
-735.025	28.725	0.066	0.057
-734.010	216.504	0.186	-0.298
-732.996	65.071	-0.163	0.166
-731.981	-200.000	-0.003	0.070
-730.966	-93.426	0.203	-0.057
-729.952	-200.000	-0.009	-0.175
-728.937	2.672	-0.226	-0.165
-727.923	-25.257	-0.104	-0.062
-726.908	-194.097	-0.081	0.001
-725.894	-200.000	-0.017	-0.087
-724.879	214.249	-0.022	-0.035
-723.864	89.752	0.041	0.046
-722.850	79.198	-0.214	-0.231
-721.835	24.390	-0.145	0.121
-720.821	28.286	0.076	-0.065
-719.806	-1.646	-0.327	-0.232
-718.791	41.669	0.127	0.116
-717.777	-44.044	0.032	-0.016
-716.762	38.193	0.039	-0.035
-715.748	-92.671	0.356	-0.101
-714.733	-157.493	-0.148	-0.009
-713.718	3.828	-0.159	-0.117
-712.704	61.711	0.288	-0.289
-711.689	406.561	0.132	0.280
-710.675	191.311	0.026	-0.040
-709.660	-113.221	0.106	0.021
-708.645	-135.419	-0.298	0.036
-707.631	122.532	0.033	0.042
-706.616	800.000	-0.064	0.220
-705.602	800.000	-0.122	0.345
-704.587	-79.525	0.253	0.086
-703.572	-200.000	-0.032	0.160
-702.558	-53.715	-0.363	0.167
-701.543	-200.000	-0.062	0.343
-700.529	91.687	0.184	0.209
-699.514	-20.466	0.247	-0.153
-698.499	-103.035	-0.203	0.048
-697.485	-200.000	0.010	-0.234
-696.470	-76.444	-0.081	0.029
-695.456	217.737	0.237	-0.380
-694.441	-39.981	0.103	-0.054
-693.426	168.797	0.187	-0.268
-692.412	348.095	0.028	0.055
-691.397	11.301	0.201	-0.155
-690.383	800.000	-0.045	0.189
-689.368	-186.512	-0.262	-0.004
-688.354	-80.584	0.311	0.104
-687.339	800.000	-0.120	-0.455
-686.324	55.915	-0.139	0.136
-685.310	-144.910	0.222	0.020
-684.295	-45.865	-0.187	0.093
-683.281	-200.000	0.014	-0.082
-682.266	-62.511	-0.415	0.174
-681.251	91.873	0.028	0.031
-680.237	-200.000	0.005	0.293
-679.222	800.000	-0.030	-0.098
-678.208	317.156	0.107	0.203
-677.193	465.108	0.163	0.367
-676.178	34.665	0.085	0.075
-675.164	-172.199	-0.176	-0.006
-674.149	-76.244	-0.229	0.081
-673.135	53.221	0.142	0.137
-672.120	-200.000	-0.038	0.382
-671.105	-19.788	0.305	-0.189
-670.091	-200.000	-0.027	0.190
-669.076	-49.064	0.093	-0.045
-668.062	59.299	-0.165	-0.163
-667.047	-22.107	-0.225	-0.137
-666.032	169.618	-0.116	-0.167
-665.018	-200.000	0.016	0.303
-664.003	-159.958	0.196	-0.011
-662.989	800.000	-0.009	0.032
-661.974	4.617	-0.195	0.144
-660.959	800.000	0.114	-0.320
-659.945	-67.486	0.062	-0.024
-658.930	-61.280	-0.262	0.111
-657.916	372.425	-0.146	0.299
-656.901	-26.948	-0.094	-0.055
-655.886	-123.515	0.300	-0.048
-654.872	19.919	-0.261	-0.211
-653.857	-50.381	0.444	0.211
-652.843	62.188	0.154	-0.154
-651.828	-200.000	-0.002	0.056
-650.814	800.000	-0.089	0.288
-649.799	360.962	-0.059	0.119
-648.784	2.002	-0.189	0.137
-647.770	-200.000	-0.073	-0.376
-646.755	-31.367	-0.161	-0.091
-645.741	294.531	0.152	0.279
-644.726	800.000	0.046	0.131
-643.711	-200.000	0.033	-0.207
-642.697	-127.922	0.195	-0.028
-641.682	502.174	0.058	0.134
-640.668	-178.301	0.010	0.000
-639.653	78.036	0.130	-0.139
-638.638	192.602	-0.163	-0.248
-637.624	-57.167	0.192	-0.085
-636.609	435.910	-0.177	-0.387
-635.595	80.465	-0.099	-0.108
-634.580	-22.706	0.210	0.128
-633.565	-200.000	0.006	-0.164
-632.551	42.195	-0.161	-0.147
-631.536	800.000	0.081	-0.280
-630.522	16.340	-0.390	0.309
-629.507	46.757	-0.178	-0.166
-628.492	-74.605	0.271	0.098
-627.478	-5.312	0.145	-0.100
-626.463	-200.000	-0.036	-0.328
-625.449	235.093	-0.232	-0.384
-624.434	800.000	-0.007	-0.021
-623.419	-59.431	-0.102	-0.044
-622.405	800.000	0.086	-0.246
-621.390	227.510	0.083	-0.135
-620.376	21.393	0.311	-0.254
-619.361	261.848	0.120	-0.209
-618.346	-59.380	-0.430	0.186
-617.332	-200.000	-0.032	-0.363
-616.317	78.472	-0.044	0.047
-615.303	-142.886	0.250	-0.024
-614.288	202.396	-0.168	-0.260
-613.273	-200.000	0.014	-0.069
-612.259	-200.000	-0.004	0.175
-611.244	-146.950	0.166	-0.014
-610.230	248.094	-0.080	-0.137
-609.215	800.000	0.044	0.166
-608.201	-44.341	-0.083	0.042
-607.186	800.000	0.011	-0.030
-606.171	24.444	-0.125	0.104
-605.157	800.000	0.045	0.163
-604.142	510.879	-0.058	0.135
-603.128	800.000	0.049	-0.152
-602.113	358.107	-0.062	0.124
-601.098	95.979	0.130	-0.148
-600.084	515.956	0.076	0.177
-599.069	52.433	0.141	-0.135
-598.055	89.195	-0.296	-0.331
-597.040	800.000	-0.032	-0.127
-596.025	-200.000	-0.016	0.229
-595.011	-91.916	-0.124	-0.035
-593.996	219.071	-0.073	-0.117
-592.982	34.406	-0.109	-0.095
-591.967	-62.771	0.174	0.072
-590.952	8.545	-0.312	-0.236
-589.938	-139.520	-0.110	-0.012
-588.923	-200.000	-0.005	0.256
-587.909	-76.949	0.151	-0.053
-586.894	128.805	0.204	-0.261
-585.879	-128.349	0.123	-0.018
-584.865	172.149	0.198	0.286
-583.850	800.000	-0.075	0.237
-582.836	133.032	0.352	0.456
-581.821	-200.000	-0.016	0.173
-580.806	-69.667	-0.285	-0.109
-579.792	-133.881	-0.344	0.043
-578.777	152.347	0.080	0.109
-577.763	6.407	-0.100	0.075
-576.748	-66.697	-0.302	0.120
-575.733	133.692	-0.233	-0.302
-574.719	-200.000	-0.015	0.081
-573.704	-200.000	-0.001	-0.112
-572.690	194.988	-0.224	-0.340
-571.675	-200.000	-0.022	-0.220
-570.661	-200.000	-0.053	-0.413
-569.646	800.000	0.039	0.114
-568.631	-59.643	0.065	0.028
-567.617	-116.723	-0.175	0.032
-566.602	147.001	0.172	-0.232
-565.588	-3.373	-0.207	0.145
-564.573	-177.491	0.196	-0.005
-563.558	-66.420	0.177	0.070
-562.544	-22.296	-0.308	0.187
-561.529	800.000	-0.056	0.190
-560.515	800.000	-0.013	0.047
-559.500	-30.428	-0.060	-0.034
-558.485	-100.267	0.081	0.020
-557.471	-91.503	0.156	0.045
-556.456	-101.686	-0.204	-0.049
-555.442	254.088	0.064	0.109
-554.427	-200.000	-0.054	0.248
-553.412	-200.000	-0.033	-0.199
-552.398	-10.364	0.273	0.181
-551.383	75.042	-0.170	-0.179
-550.369	-32.621	-0.136	-0.076
-549.354	-73.069	0.446	-0.164
-548.339	-95.880	-0.337	0.090
-547.325	505.757	0.143	0.332
-546.310	-200.000	-0.050	0.327
-545.296	66.184	-0.166	0.169
-544.281	-200.000	0.039	-0.295
-543.266	-180.271	0.102	-0.002
-542.252	156.412	-0.099	-0.138
-541.237	-71.125	-0.211	0.079
-540.223	39.973	-0.025	0.022
-539.208	304.877	0.097	0.181
-538.193	-65.020	-0.343	-0.139
-537.179	-200.000	-0.004	-0.073
-536.164	-200.000	0.001	0.078
-535.150	51.461	-0.086	0.082
-534.135	100.834	0.102	-0.119
-533.121	-42.132	0.117	-0.060
-532.106	-89.904	0.347	0.101
-531.091	-30.872	-0.239	-0.135
-530.077	346.529	-0.106	-0.209
-529.062	-37.832	-0.380	-0.202
-528.048	-98.374	-0.068	0.017
-527.033	3.401	0.087	0.063
-526.018	-82.172	-0.319	-0.104
-525.004	-124.150	-0.126	-0.020
-523.989	408.273	-0.053	0.113
-522.975	395.153	-0.109	0.228
-521.960	199.425	0.170	-0.261
-520.945	-128.035	-0.223	0.032
-519.931	800.000	0.079	-0.223
-518.916	320.265	0.014	0.026
-517.902	800.000	-0.109	-0.315
-516.887	-66.880	0.203	0.080
-515.872	271.105	0.152	-0.268
-514.858	230.073	-0.144	0.235
-513.843	-37.652	0.206	-0.110
-512.829	-73.801	-0.363	-0.132
-511.814	-40.440	-0.212	0.110
-510.799	91.887	-0.278	0.313
-509.785	547.476	0.050	0.119
-508.770	-26.661	0.278	-0.162
-507.756	515.142	0.081	0.190
-506.741	174.922	-0.223	0.323
-505.726	-170.684	-0.239	0.008
-504.712	56.702	0.179	0.174
-503.697	243.858	-0.088	-0.147
-502.683	61.888	0.212	-0.211
-501.668	494.072	-0.158	0.362
-500.653	-200.000	0.002	-0.148
-499.639	800.000	0.030	-0.085
-498.624	-138.065	-0.305	0.034
-497.610	119.509	-0.048	-0.060
-496.595	36.450	0.031	-0.027
-495.581	-200.000	0.015	0.145
-494.566	-94.435	0.078	0.021
-493.551	639.513	0.117	0.298
-492.537	-27.801	0.105	-0.061
-491.522	-69.894	-0.164	0.062
-490.508	-79.289	0.152	-0.051
-489.493	800.000	-0.027	0.118
-488.478	-200.000	-0.015	-0.206
-487.464	-113.737	-0.219	-0.043
-486.449	-129.850	0.208	-0.029
-485.435	-3.541	-0.149	0.103
-484.420	1.427	-0.410	-0.295
-483.405	-200.000	-0.002	0.082
-482.391	-200.000	-0.013	0.083
-481.376	-200.000	0.001	-0.100
-480.362	-75.596	0.155	-0.055
-479.347	86.175	-0.183	-0.201
-478.332	-136.155	-0.166	0.019
-477.318	-163.120	0.304	-0.015
-476.303	-133.249	0.169	-0.021
-475.289	800.000	-0.130	0.388
-474.274	101.233	-0.045	0.053
-473.259	-65.151	0.328	0.132
-472.245	-73.610	0.065	0.024
-471.230	-118.126	0.093	-0.017
-470.216	-78.034	0.225	-0.077
-469.201	800.000	-0.039	0.122
-468.186	-21.477	0.142	0.087
-467.172	-200.000	0.048	0.552
-466.157	800.000	-0.181	0.517
-465.143	-139.809	-0.137	0.014
-464.128	29.590	0.142	-0.121
-463.113	-10.060	0.069	0.046
-462.099	-28.419	-0.050	0.029
-461.084	-200.000	0.030	-0.277
-460.070	179.324	-0.157	-0.229
-459.055	-109.213	-0.206	-0.044
-458.040	-72.526	-0.085	-0.032
-457.026	-120.497	0.216	-0.037
-456.011	800.000	-0.066	0.283
-454.997	-200.000	0.011	0.079
-453.982	800.000	0.055	-0.203
-452.968	14.665	0.203	0.158
-451.953	36.747	-0.241	-0.213
-450.938	-200.000	0.077	0.366
-449.924	194.784	0.123	-0.186
-448.909	-113.118	-0.117	0.023
-447.895	-200.000	-0.010	-0.147
-446.880	174.558	0.108	0.155
-445.865	-200.000	0.011	0.206
-444.851	76.881	0.068	-0.072
-443.836	-200.000	0.013	0.133
-442.822	-117.448	-0.076	-0.014
-441.807	-34.973	0.227	-0.123
-440.792	460.199	0.103	0.228
-439.778	732.856	0.045	-0.121
-438.763	-125.872	-0.243	0.037
-437.749	199.827	-0.043	-0.066
-436.734	-200.000	-0.063	-0.295
-435.719	-200.000	-0.026	0.482
-434.705	134.178	-0.036	-0.047
-433.690	-200.000	0.028	-0.154
-432.676	-116.719	0.220	-0.040
-431.661	800.000	0.005	-0.020
-430.646	-200.000	0.029	0.143
-429.632	-200.000	-0.000	-0.107
-428.617	160.401	0.117	-0.162
-427.603	800.000	-0.054	-0.230
-426.588	800.000	-0.026	-0.104
-425.573	-125.614	-0.123	0.019
-424.559	55.339	0.125	0.120
-423.544	302.798	-0.151	-0.279
-422.530	800.000	0.093	0.373
-421.515	104.480	-0.024	0.028
-420.500	-90.163	-0.389	0.113
-419.486	161.914	0.169	-0.235
-418.471	-200.000	0.008	0.166
-417.457	-200.000	0.061	0.404
-416.442	3.060	0.333	-0.241
-415.428	468.048	-0.045	0.100
-414.413	588.932	-0.066	-0.162
-413.398	-13.533	-0.049	-0.032
-412.384	800.000	-0.057	0.186
-411.369	141.763	0.055	0.073
-410.355	-62.397	0.328	-0.136
-409.340	-200.000	-0.043	0.276
-408.325	-132.630	0.150	-0.019
-407.311	-121.987	0.170	-0.028
-406.296	121.425	-0.088	0.109
-405.282	-52.517	0.118	-0.055
-404.267	13.959	0.158	0.123
-403.252	-200.000	-0.003	0.064
-402.238	-93.983	0.354	0.097
-401.223	50.748	-0.176	-0.166
-400.209	-200.000	0.000	-0.041
-399.194	229.478	-0.067	-0.108
-398.179	48.693	-0.272	-0.254
-397.165	-112.473	0.056	-0.011
-396.150	148.188	-0.058	-0.078
-395.136	-8.066	-0.296	-0.198
-394.121	-200.000	0.058	0.345
-393.106	-147.420	0.217	-0.018
-392.092	-69.631	0.276	-0.105
-391.077	-60.728	-0.096	-0.041
-390.063	-200.000	-0.003	-0.033
-389.048	49.184	-0.195	-0.182
-388.033	164.382	0.176	0.247
-387.019	800.000	-0.021	0.065
-386.004	-200.000	-0.059	-0.275
-384.990	105.288	0.193	-0.227
-383.975	60.151	0.194	-0.191
-382.960	193.066	0.091	-0.136
-381.946	116.748	-0.336	-0.411
-380.931	759.690	0.042	-0.114
-379.917	800.000	-0.076	-0.317
-378.902	-51.205	-0.076	0.035
-377.888	800.000	-0.084	-0.310
-376.873	253.601	0.031	-0.052
-375.858	426.776	-0.135	0.289
-374.844	-172.293	-0.249	-0.008
-373.829	289.928	0.165	-0.297
-372.815	55.442	0.093	0.089
-371.800	800.000	0.144	0.402
-370.785	9.678	0.138	-0.104
-369.771	-92.930	-0.491	0.136
-368.756	-14.805	0.225	0.144
-367.742	800.000	0.059	0.174
-366.727	-100.922	-0.107	0.026
-365.712	699.198	0.117	0.307
-364.698	-111.358	0.206	-0.042
-363.683	800.000	0.060	0.242
-362.669	-11.789	-0.186	0.121
-361.654	-200.000	-0.005	-0.078
-360.639	300.362	0.097	-0.178
-359.625	-130.755	-0.141	0.019
-358.610	-163.801	-0.183	-0.009
-357.596	45.769	-0.238	0.219
-356.581	-21.393	0.196	-0.119
-355.566	-56.981	0.050	0.022
-354.552	-200.000	0.001	-0.027
-353.537	19.182	-0.023	0.019
-352.523	54.484	0.148	0.142
-351.508	800.000	0.072	-0.205
-350.493	-90.537	0.040	-0.011
-349.479	-158.399	-0.266	0.015
-348.464	800.000	0.053	0.217
-347.450	800.000	-0.023	-0.065
-346.435	-146.559	0.173	0.015
-345.420	-58.632	-0.030	-0.013
-344.406	-64.335	0.253	0.102
-343.391	326.464	-0.065	-0.123
-342.377	3.552	0.235	0.170
-341.362	-99.411	-0.219	-0.055
-340.348	79.045	0.176	0.187
-339.333	-117.156	0.069	-0.012
-338.318	-149.475	-0.359	0.028
-337.304	39.912	-0.336	-0.300
-336.289	4.221	0.258	-0.188
-335.275	-200.000	0.002	0.198
-334.260	98.542	-0.111	0.127
-333.245	39.879	0.148	0.132
-332.231	-185.161	0.390	0.006
-331.216	-71.575	0.234	-0.087
-330.202	-200.000	0.017	-0.183
-329.187	-52.782	0.289	-0.132
-328.172	-27.737	-0.242	0.140
-327.158	646.699	0.067	0.169
-326.143	248.295	0.039	-0.066
-325.129	-200.000	-0.033	0.386
-324.114	-49.526	0.229	0.108
-323.099	-200.000	-0.007	0.386
-322.085	158.821	0.170	0.235
-321.070	-7.558	0.043	-0.029
-320.056	-200.000	-0.009	0.127
-319.041	-200.000	0.036	0.311
-318.026	-141.719	0.170	-0.017
-317.012	800.000	-0.054	0.166
-315.997	351.883	0.066	0.130
-314.983	434.461	-0.079	-0.171
-313.968	-200.000	0.009	-0.133
-312.953	-200.000	-0.017	0.109
-311.939	218.309	0.102	-0.162
-310.924	-102.314	0.271	-0.064
-309.910	-127.491	-0.041	-0.006
-308.895	-45.463	0.150	-0.074
-307.880	35.140	-0.106	-0.093
-306.866	-23.354	-0.213	0.127
-305.851	370.877	-0.134	0.269
-304.837	-72.053	0.310	0.114
-303.822	78.672	0.096	-0.102
-302.807	-200.000	-0.007	-0.158
-301.793	-57.925	0.369	0.160
-300.778	-22.717	0.337	0.202
-299.764	-11.371	-0.209	-0.136
-298.749	435.083	0.040	-0.086
-297.735	33.050	0.262	-0.225
-296.720	-171.791	-0.144	-0.005
-295.705	-75.454	-0.033	-0.011
-294.691	-200.000	0.012	0.316
-293.676	-155.492	0.106	0.007
-292.662	564.593	0.066	0.160
-291.647	653.250	0.093	0.236
-290.632	449.087	-0.057	-0.124
-289.618	800.000	-0.038	-0.138
-288.603	800.000	-0.069	0.294
-287.589	-93.299	-0.263	0.072
-286.574	768.548	0.083	0.223
-285.559	97.434	-0.081	0.092
-284.545	800.000	0.041	-0.131
-283.530	80.608	0.153	-0.164
-282.516	154.697	0.085	-0.116
-281.501	-200.000	0.017	0.220
-280.486	-200.000	0.017	-0.297
-279.472	-65.799	-0.247	0.098
-278.457	-200.000	-0.003	0.026
-277.443	-200.000	0.100	-0.533
-276.428	45.174	0.132	0.121
-275.413	-105.996	-0.280	-0.063
-274.399	660.962	0.044	0.112
-273.384	-200.000	-0.054	-0.373
-272.370	458.456	0.033	-0.073
-271.355	540.190	0.079	0.187
-270.340	41.472	-0.201	-0.180
-269.326	65.130	0.053	-0.053
-268.311	-63.567	-0.101	0.041
-267.297	-76.361	0.194	0.067
-266.282	-103.982	0.169	-0.039
-265.267	-63.140	0.430	-0.176
-264.253	-200.000	-0.074	-0.430
-263.238	39.804	0.319	-0.283
-262.224	276.547	0.057	-0.100
-261.209	741.645	0.129	0.344
-260.195	800.000	-0.049	0.146
-259.180	-34.749	-0.101	0.055
-258.165	800.000	-0.064	0.189
-257.151	794.383	0.131	0.357
-256.136	-55.520	-0.263	0.117
-255.122	-1.090	0.185	-0.129
-254.107	-96.271	-0.248	0.065
-253.092	318.659	-0.063	-0.118
-252.078	-69.855	0.040	-0.015
-251.063	-200.000	0.039	0.254
-250.049	-121.160	-0.134	0.022
-249.034	147.702	-0.143	-0.191
-248.019	192.601	-0.028	0.042
-247.005	-200.000	-0.016	0.180
-245.990	-200.000	0.018	0.109
-244.976	-200.000	0.034	0.258
-243.961	-200.000	-0.012	0.263
-242.946	86.060	0.184	0.200
-241.932	0.356	-0.323	-0.228
-240.917	800.000	0.113	-0.481
-239.903	-200.000	-0.011	0.180
-238.888	-43.857	-0.084	-0.042
-237.873	-200.000	-0.033	-0.195
-236.859	-200.000	-0.007	0.248
-235.844	709.068	0.109	0.285
-234.830	-200.000	0.020	-0.103
-233.815	-200.000	0.007	0.043
-232.800	63.405	-0.046	0.046
-231.786	-29.087	0.159	0.090
-230.771	-81.852	0.204	0.066
-229.757	800.000	0.063	-0.213
-228.742	800.000	-0.039	0.136
-227.727	-135.972	0.201	0.023
-226.713	661.181	-0.123	-0.314
-225.698	-200.000	-0.033	0.182
-224.684	-74.169	-0.405	-0.145
-223.669	-200.000	-0.062	-0.374
-222.655	102.771	0.406	0.470
-221.640	-200.000	0.015	0.123
-220.625	-22.585	0.296	0.177
-219.611	-32.217	-0.134	-0.074
-218.596	581.025	0.118	-0.286
-217.582	-4.603	-0.229	0.156
-216.567	18.079	-0.101	0.080
-215.552	681.471	0.032	0.083
-214.538	-139.506	0.183	0.019
-213.523	61.666	0.121	-0.119
-212.509	800.000	-0.032	-0.126
-211.494	-136.702	0.218	0.025
-210.479	-200.000	0.002	0.126
-209.465	-7.282	-0.122	0.082
-208.450	360.165	0.044	-0.087
-207.436	-200.000	0.010	-0.046
-206.421	-200.000	0.009	-0.124
-205.406	-104.878	-0.176	-0.040
-204.392	-16.038	0.242	-0.152
-203.377	-17.056	-0.069	-0.043
-202.363	-200.000	0.013	-0.194
-201.348	-3.597	-0.141	0.097
-200.333	-200.000	-0.055	-0.327
-199.319	-67.879	0.217	-0.084
-198.304	-30.734	0.118	0.066
-197.290	152.593	0.093	0.125
-196.275	-107.243	0.325	0.071
-195.260	51.818	-0.183	-0.172
-194.246	800.000	0.044	0.142
-193.231	-200.000	0.014	0.275
-192.217	-200.000	-0.017	0.155
-191.202	-78.610	0.112	-0.038
-190.187	-0.316	-0.134	0.094
-189.173	139.924	0.020	0.026
-188.158	-32.690	-0.300	0.165
-187.144	-37.022	-0.278	0.147
-186.129	-186.234	-0.242	-0.003
-185.114	391.634	0.024	0.050
-184.100	-61.337	-0.204	0.085
-183.085	-59.578	-0.255	-0.108
-182.071	-2.266	-0.097	0.067
-181.056	-22.985	-0.131	0.078
-180.042	564.764	0.117	-0.279
-179.027	-46.092	-0.094	-0.046
-178.012	-165.042	0.073	0.003
-176.998	-200.000	0.004	-0.092
-175.983	800.000	-0.079	0.313
-174.969	37.114	0.305	0.266
-173.954	-162.344	-0.050	0.002
-172.939	-17.616	-0.129	-0.080
-171.925	130.624	-0.093	0.118
-170.910	66.878	-0.372	0.374
-169.896	258.020	0.070	-0.118
-168.881	-44.278	0.283	0.140
-167.866	-194.912	-0.456	-0.003
-166.852	-87.909	0.190	-0.056
-165.837	-200.000	-0.041	-0.250
-164.823	-68.537	0.172	-0.066
-163.808	70.664	-0.154	0.157
-162.793	645.050	0.099	-0.248
-161.779	-179.613	-0.092	-0.002
-160.764	-200.000	-0.018	-0.389
-159.750	-67.544	0.127	-0.049
-158.735	291.016	0.078	-0.140
-157.720	164.009	0.106	0.147
-156.706	800.000	-0.032	-0.124
-155.691	53.693	0.054	0.051
-154.677	-200.000	-0.035	-0.436
-153.662	-84.669	-0.189	-0.059
-152.647	280.673	0.055	-0.097
-151.633	-117.356	0.118	0.021
-150.618	-200.000	-0.031	0.190
-149.604	-200.000	0.061	-0.389
-148.589	632.819	-0.035	0.088
-147.574	-200.000	0.018	0.088
-146.560	-181.020	0.139	-0.003
-145.545	-200.000	-0.023	-0.119
-144.531	236.593	-0.086	0.140
-143.516	-163.677	0.260	-0.012
-142.502	-32.944	-0.236	0.129
-141.487	150.015	0.194	0.259
-140.472	-77.604	-0.160	0.055
-139.458	-35.358	-0.185	-0.099
-138.443	56.186	0.129	-0.123
-137.429	-79.851	0.129	-0.043
-136.414	-120.997	-0.145	-0.024
-135.399	-83.164	-0.226	0.072
-134.385	800.000	-0.063	-0.236
-133.370	-200.000	-0.047	0.220
-132.356	542.954	0.119	0.279
-131.341	38.096	-0.191	0.167
-130.326	-50.965	-0.098	0.045
-129.312	328.422	0.063	-0.118
-128.297	-74.978	-0.482	-0.170
-127.283	-36.365	0.231	0.123
-126.268	-200.000	-0.034	0.326
-125.253	-200.000	0.064	-0.422
-124.239	-200.000	-0.019	-0.098
-123.224	-27.674	0.293	-0.167
-122.210	-36.057	0.307	-0.163
-121.195	800.000	0.064	0.183
