DTS Sentinel unit serial number:	SN413079Multiplexer serial number:	ORYXHardware model number:	OX4-SRSoftware version number:	ORYX F/W v4.00 Oryx Data Collector v3.7.2.0data status	okinstallation	princeton_trtdifferential loss correction	single-endedforward channel	channel 2reverse channel	N/Adate	2019/09/11time	19:13:11forward acquisition time	60.00reverse acquisition time	0.00gamma	496.2192k internal	0.2300k external	0.2300temperature offset calibration	1.0037default loss term (dB/km)	0.3790temperature slope calibration	1.0000multiplexer offset coefficient	1.0000multiplexer slope coefficient	1.0000fibre end	0.00T internal ref (°C)	41.50T ext. ref 1 (°C)	1.26T ext. ref 2 (°C)	33.70length (m)	temperature (°C)	Stokes	anti-Stokes-747.200	51.433	-0.201	0.195
-746.185	50.541	0.273	0.263
-745.171	800.000	0.050	0.185
-744.156	163.115	-0.130	0.186
-743.142	305.458	-0.100	0.189
-742.127	550.188	-0.094	0.229
-741.112	589.346	0.124	0.312
-740.098	-3.880	-0.102	0.072
-739.083	-185.310	0.224	-0.004
-738.069	-149.641	-0.195	0.016
-737.054	66.366	-0.216	-0.224
-736.039	104.205	-0.219	-0.263
-735.025	-119.613	0.273	-0.048
-734.010	-5.984	-0.088	0.062
-732.996	100.871	-0.163	-0.193
-731.981	764.249	0.065	-0.179
-730.966	518.283	-0.082	0.196
-729.952	578.159	-0.109	0.272
-728.937	800.000	0.154	0.557
-727.923	-96.826	-0.157	-0.042
-726.908	105.272	-0.142	-0.171
-725.894	-200.000	0.065	-0.296
-724.879	80.551	-0.335	-0.368
-723.864	-74.020	-0.169	-0.062
-722.850	-47.020	0.045	-0.022
-721.835	-127.527	0.240	-0.035
-720.821	-200.000	-0.067	-0.442
-719.806	-31.790	-0.241	0.138
-718.791	-200.000	-0.008	-0.059
-717.777	-20.933	-0.074	0.046
-716.762	49.866	-0.236	-0.227
-715.748	566.098	-0.113	0.279
-714.733	-180.282	-0.207	-0.004
-713.718	-24.596	-0.082	-0.050
-712.704	397.152	0.024	-0.051
-711.689	37.093	-0.315	-0.284
-710.675	-109.941	-0.042	-0.009
-709.660	103.386	0.235	0.281
-708.645	-115.530	-0.142	-0.027
-707.631	0.983	0.063	0.046
-706.616	800.000	-0.054	0.225
-705.602	-71.588	-0.181	-0.069
-704.587	-162.990	0.225	-0.011
-703.572	1.570	-0.280	-0.205
-702.558	424.933	-0.084	0.185
-701.543	37.482	0.148	-0.134
-700.529	425.301	-0.175	0.383
-699.514	327.201	-0.110	0.215
-698.499	-124.793	0.312	-0.049
-697.485	-200.000	0.000	0.075
-696.470	-94.149	0.146	-0.041
-695.456	68.711	-0.144	0.151
-694.441	-14.234	-0.214	-0.140
-693.426	-56.443	-0.207	0.094
-692.412	-51.076	-0.127	-0.061
-691.397	40.379	-0.217	0.199
-690.383	471.141	-0.093	-0.214
-689.368	-17.028	-0.191	-0.123
-688.354	-200.000	-0.033	-0.270
-687.339	-18.213	-0.316	0.201
-686.324	161.226	0.163	-0.232
-685.310	655.030	-0.163	-0.425
-684.295	-200.000	-0.024	-0.156
-683.281	-200.000	0.041	-0.296
-682.266	356.836	-0.035	-0.071
-681.251	-105.248	-0.155	-0.036
-680.237	625.557	0.056	0.144
-679.222	-138.583	0.099	-0.011
-678.208	-41.594	-0.263	0.137
-677.193	-200.000	-0.006	0.111
-676.178	620.499	0.054	0.138
-675.164	-95.353	-0.273	-0.075
-674.149	-200.000	0.034	-0.294
-673.135	-200.000	0.085	0.443
-672.120	-106.884	-0.047	0.011
-671.105	76.835	0.064	-0.069
-670.091	-17.465	0.188	0.120
-669.076	-66.195	-0.043	-0.018
-668.062	-32.589	-0.283	0.160
-667.047	20.738	-0.152	-0.125
-666.032	1.668	0.209	-0.153
-665.018	184.890	-0.202	0.304
-664.003	152.424	-0.098	0.136
-662.989	-200.000	0.019	-0.086
-661.974	540.601	0.121	0.293
-660.959	326.683	0.012	0.024
-659.945	100.824	0.163	-0.192
-658.930	-74.338	-0.085	0.031
-657.916	-200.000	-0.006	0.287
-656.901	11.959	-0.140	-0.110
-655.886	800.000	0.141	-0.439
-654.872	269.626	0.113	0.201
-653.857	-200.000	-0.020	-0.200
-652.843	387.026	-0.107	-0.224
-651.828	-13.185	-0.368	0.243
-650.814	-200.000	-0.008	0.216
-649.799	-70.235	-0.189	0.073
-648.784	-200.000	-0.001	0.298
-647.770	-147.976	0.282	-0.024
-646.755	21.636	0.291	-0.241
-645.741	-200.000	-0.031	0.176
-644.726	-200.000	0.000	0.154
-643.711	263.986	0.036	-0.064
-642.697	-76.860	-0.092	-0.033
-641.682	800.000	-0.034	0.127
-640.668	56.898	-0.152	0.150
-639.653	-58.860	0.342	-0.150
-638.638	-100.276	-0.237	0.060
-637.624	140.018	0.039	0.053
-636.609	158.993	-0.062	-0.087
-635.595	344.832	-0.169	0.337
-634.580	-86.703	-0.070	0.022
-633.565	39.297	-0.103	-0.094
-632.551	-200.000	0.018	0.334
-631.536	237.731	0.086	-0.144
-630.522	-14.447	-0.053	0.035
-629.507	46.556	0.124	-0.117
-628.492	-82.042	-0.234	-0.078
-627.478	55.350	-0.108	0.106
-626.463	-200.000	0.018	-0.123
-625.449	-88.503	-0.210	-0.064
-624.434	-200.000	0.003	0.110
-623.419	357.737	-0.024	0.048
-622.405	42.476	-0.085	-0.078
-621.390	-200.000	0.012	-0.123
-620.376	-113.086	0.136	-0.027
-619.361	-94.001	-0.148	-0.041
-618.346	-200.000	0.008	-0.038
-617.332	-163.536	-0.166	-0.008
-616.317	-189.735	-0.528	-0.006
-615.303	377.998	-0.084	-0.174
-614.288	-26.502	0.134	0.080
-613.273	-200.000	0.012	0.285
-612.259	800.000	-0.127	0.362
-611.244	285.215	0.037	0.068
-610.230	-87.046	-0.122	0.038
-609.215	5.595	0.232	0.174
-608.201	584.543	-0.008	0.019
-607.186	-187.344	-0.111	0.002
-606.171	-98.251	0.077	0.020
-605.157	20.870	-0.216	-0.178
-604.142	107.121	0.258	-0.312
-603.128	-83.580	0.098	-0.032
-602.113	-145.003	0.256	0.024
-601.098	116.826	0.303	0.377
-600.084	3.518	-0.224	-0.166
-599.069	17.578	-0.171	0.138
-598.055	182.126	0.048	0.072
-597.040	-81.714	0.290	-0.097
-596.025	-9.587	-0.232	-0.157
-595.011	-13.074	-0.236	-0.155
-593.996	-200.000	-0.011	-0.088
-592.982	-24.140	-0.299	-0.181
-591.967	231.309	0.105	0.175
-590.952	-99.740	0.045	0.011
-589.938	365.378	0.152	0.311
-588.923	-135.496	-0.173	0.021
-587.909	14.763	-0.079	-0.063
-586.894	-200.000	-0.114	0.543
-585.879	-124.734	0.487	0.076
-584.865	-162.443	0.181	0.009
-583.850	-124.010	-0.454	0.072
-582.836	585.857	-0.078	-0.193
-581.821	-17.906	-0.320	0.204
-580.806	-38.068	-0.106	-0.057
-579.792	-50.319	-0.133	0.064
-578.777	96.301	-0.175	-0.203
-577.763	118.979	-0.109	-0.136
-576.748	-144.716	-0.230	-0.021
-575.733	800.000	-0.054	0.175
-574.719	265.041	0.079	0.140
-573.704	-200.000	-0.014	-0.087
-572.690	45.287	0.022	0.021
-571.675	-116.230	0.281	-0.053
-570.661	-103.097	-0.132	-0.032
-569.646	-200.000	0.056	-0.289
-568.631	13.247	0.118	0.092
-567.617	-200.000	-0.037	-0.180
-566.602	-200.000	-0.068	0.362
-565.588	-200.000	0.009	-0.074
-564.573	346.091	0.128	-0.256
-563.558	-56.118	-0.342	0.154
-562.544	-200.000	0.006	-0.267
-561.529	-56.947	-0.209	-0.094
-560.515	-115.556	-0.226	-0.043
-559.500	8.263	0.028	-0.022
-558.485	727.038	-0.168	-0.455
-557.471	-200.000	0.003	-0.191
-556.456	-200.000	0.048	-0.266
-555.442	-200.000	0.041	-0.248
-554.427	-136.025	0.341	-0.041
-553.412	-50.424	0.228	0.109
-552.398	70.110	0.168	0.176
-551.383	163.088	0.159	-0.226
-550.369	-84.397	-0.279	-0.089
-549.354	-200.000	0.029	0.154
-548.339	185.103	0.126	0.190
-547.325	-200.000	-0.044	-0.227
-546.310	-178.686	0.324	-0.008
-545.296	800.000	-0.067	0.297
-544.281	-200.000	0.006	0.113
-543.266	-57.338	-0.098	0.044
-542.252	-72.999	-0.118	0.044
-541.237	110.570	-0.101	0.123
-540.223	-46.289	-0.204	0.101
-539.208	800.000	0.053	-0.196
-538.193	-23.872	-0.082	-0.049
-537.179	-45.570	-0.024	0.012
-536.164	-200.000	-0.031	-0.411
-535.150	48.732	-0.127	-0.120
-534.135	419.738	0.054	-0.118
-533.121	233.577	0.118	0.197
-532.106	-121.879	0.120	0.020
-531.091	-21.109	-0.117	-0.072
-530.077	132.037	-0.189	-0.246
-529.062	-200.000	-0.025	0.242
-528.048	764.561	0.116	-0.318
-527.033	-41.808	-0.229	0.119
-526.018	-75.420	0.091	0.033
-525.004	-26.515	-0.104	0.061
-523.989	-200.000	0.013	-0.097
-522.975	-200.000	0.016	-0.168
-521.960	13.856	0.063	-0.050
-520.945	409.175	-0.270	-0.578
-519.931	139.073	-0.114	-0.152
-518.916	-82.337	-0.223	0.073
-517.902	800.000	0.029	0.106
-516.887	177.418	-0.137	-0.202
-515.872	222.115	-0.055	-0.090
-514.858	161.186	-0.245	-0.346
-513.843	-185.776	0.228	0.003
-512.829	-7.115	0.256	-0.176
-511.814	470.819	0.064	-0.145
-510.799	-137.024	-0.094	-0.011
-509.785	-13.451	-0.028	0.018
-508.770	-200.000	0.019	0.253
-507.756	469.461	-0.083	0.190
-506.741	100.372	-0.070	-0.082
-505.726	-101.195	-0.430	-0.106
-504.712	-200.000	0.023	0.280
-503.697	-58.362	-0.026	0.012
-502.683	-169.521	-0.349	0.013
-501.668	295.619	0.159	-0.294
-500.653	-200.000	0.004	-0.185
-499.639	104.625	0.068	-0.080
-498.624	-114.356	-0.193	0.038
-497.610	48.377	0.047	-0.045
-496.595	-82.190	-0.207	-0.068
-495.581	800.000	-0.059	-0.182
-494.566	-126.751	-0.324	-0.048
-493.551	-114.266	-0.185	-0.036
-492.537	-16.937	-0.263	0.168
-491.522	248.642	0.182	0.312
-490.508	-161.091	0.311	0.016
-489.493	-146.878	0.349	-0.030
-488.478	132.842	0.070	0.091
-487.464	-89.998	-0.203	-0.060
-486.449	800.000	-0.034	-0.133
-485.435	225.030	-0.063	0.103
-484.420	800.000	-0.104	-0.308
-483.405	106.828	-0.098	-0.118
-482.391	-78.296	-0.219	0.076
-481.376	42.711	0.114	0.105
-480.362	385.267	-0.054	0.111
-479.347	-120.098	0.269	-0.047
-478.332	800.000	-0.105	-0.331
-477.318	354.952	0.076	-0.152
-476.303	800.000	-0.076	-0.224
-475.289	89.562	-0.246	0.277
-474.274	85.810	0.266	-0.295
-473.259	-29.157	-0.050	-0.029
-472.245	105.014	-0.151	-0.180
-471.230	-200.000	0.007	0.142
-470.216	-200.000	0.024	0.131
-469.201	-163.800	-0.150	-0.007
-468.186	116.237	0.044	0.055
-467.172	-152.595	0.263	-0.019
-466.157	-127.878	0.095	0.014
-465.143	38.633	-0.097	-0.087
-464.128	-66.032	-0.111	0.045
-463.113	-200.000	-0.095	-0.000
-462.099	-200.000	0.000	-0.160
-461.084	-200.000	-0.002	-0.173
-460.070	-40.461	0.128	0.067
-459.055	-171.852	0.069	0.002
-458.040	248.698	-0.081	0.139
-457.026	-52.979	0.224	-0.104
-456.011	-22.539	0.072	-0.044
-454.997	684.906	-0.088	-0.231
-453.982	633.501	-0.041	-0.106
-452.968	-65.943	-0.149	0.060
-451.953	-200.000	-0.018	-0.338
-450.938	54.809	0.101	-0.098
-449.924	251.616	0.213	-0.365
-448.909	-143.108	-0.185	0.018
-447.895	592.107	0.123	0.306
-446.880	61.777	0.116	0.117
-445.865	179.998	-0.211	0.311
-444.851	-12.078	-0.112	0.074
-443.836	638.733	0.041	0.106
-442.822	317.228	-0.131	0.249
-441.807	-172.661	-0.204	0.006
-440.792	-124.663	0.400	0.062
-439.778	-200.000	0.035	-0.194
-438.763	-81.433	0.232	-0.077
-437.749	-116.348	0.050	0.009
-436.734	-176.936	0.054	0.001
-435.719	71.156	-0.050	-0.053
-434.705	-54.817	0.177	0.081
-433.690	-43.924	0.072	-0.037
-432.676	-53.670	0.136	0.062
-431.661	292.716	-0.032	-0.058
-430.646	124.865	-0.151	-0.191
-429.632	424.916	0.024	0.053
-428.617	46.320	0.168	0.157
-427.603	67.297	-0.302	0.311
-426.588	66.898	-0.092	0.095
-425.573	96.384	0.215	-0.248
-424.559	-200.000	-0.003	0.070
-423.544	-200.000	0.000	0.294
-422.530	-200.000	-0.040	-0.322
-421.515	-200.000	-0.015	-0.147
-420.500	34.639	0.197	0.173
-419.486	-200.000	0.026	-0.329
-418.471	-126.622	-0.450	0.067
-417.457	9.368	-0.079	0.060
-416.442	-131.327	-0.194	-0.026
-415.428	-200.000	-0.389	0.001
-414.413	800.000	-0.051	0.223
-413.398	800.000	0.054	0.180
-412.384	-128.269	0.242	0.035
-411.369	-44.506	0.212	0.107
-410.355	8.324	-0.108	0.082
-409.340	258.249	0.101	-0.176
-408.325	-112.831	0.107	-0.021
-407.311	800.000	0.095	-0.360
-406.296	80.283	-0.159	0.172
-405.282	2.024	0.064	0.047
-404.267	-200.000	-0.058	0.356
-403.252	-125.205	0.114	0.018
-402.238	-200.000	-0.028	-0.484
-401.223	208.238	0.104	0.163
-400.209	210.278	-0.018	0.028
-399.194	-200.000	0.003	-0.047
-398.179	-50.161	-0.250	0.119
-397.165	-32.124	-0.115	0.065
-396.150	-37.970	-0.350	-0.187
-395.136	800.000	-0.044	-0.157
-394.121	-200.000	-0.059	0.360
-393.106	390.467	-0.089	0.187
-392.092	-135.536	0.501	-0.060
-391.077	11.509	-0.145	0.112
-390.063	134.539	0.176	0.230
-389.048	-0.658	0.284	-0.203
-388.033	-200.000	0.033	0.291
-387.019	-20.092	-0.192	-0.119
-386.004	542.885	0.147	0.353
-384.990	-42.116	-0.044	-0.023
-383.975	50.752	0.208	0.198
-382.960	365.803	-0.184	0.373
-381.946	48.008	-0.091	0.085
-380.931	-101.277	0.155	0.038
-379.917	-200.000	0.038	0.381
-378.902	800.000	0.059	-0.214
-377.888	167.616	-0.064	0.091
-376.873	-200.000	-0.005	0.115
-375.858	-18.822	-0.075	0.047
-374.844	312.741	-0.058	0.109
-373.829	-96.015	0.279	0.075
-372.815	800.000	0.143	0.499
-371.800	-200.000	0.058	0.281
-370.785	800.000	-0.062	0.181
-369.771	28.447	-0.102	0.086
-368.756	17.678	-0.034	-0.027
-367.742	-200.000	0.043	0.323
-366.727	800.000	0.102	-0.297
-365.712	-62.569	0.372	0.155
-364.698	-55.704	-0.110	0.049
-363.683	438.273	-0.066	0.146
-362.669	-125.200	0.188	0.029
-361.654	113.366	-0.137	-0.167
-360.639	-36.536	0.159	0.086
-359.625	800.000	0.071	-0.220
-358.610	800.000	0.065	0.195
-357.596	7.069	0.316	-0.237
-356.581	800.000	0.106	0.457
-355.566	36.228	-0.220	0.194
-354.552	-4.696	-0.171	0.118
-353.537	183.112	-0.066	0.098
-352.523	33.428	-0.235	-0.205
-351.508	-4.731	0.147	-0.102
-350.493	49.415	-0.240	-0.227
-349.479	-63.308	0.349	0.144
-348.464	42.660	0.056	0.051
-347.450	-62.813	-0.310	0.129
-346.435	7.350	0.199	0.149
-345.420	-2.043	0.196	-0.138
-344.406	50.699	0.092	-0.088
-343.391	69.856	-0.120	-0.124
-342.377	13.375	-0.095	-0.074
-341.362	290.050	0.196	0.357
-340.348	-84.382	0.335	0.106
-339.333	-122.508	0.091	0.015
-338.318	721.964	0.038	0.102
-337.304	-29.442	0.161	-0.093
-336.289	-122.966	0.180	-0.029
-335.275	-14.171	0.141	-0.091
-334.260	800.000	0.084	0.264
-333.245	-64.445	-0.074	0.030
-332.231	286.060	-0.303	-0.549
-331.216	-200.000	-0.018	0.139
-330.202	24.713	-0.352	-0.293
-329.187	507.643	0.117	-0.274
-328.172	-34.068	0.228	0.126
-327.158	-200.000	0.053	-0.435
-326.143	130.450	0.145	0.186
-325.129	64.411	-0.064	-0.065
-324.114	-44.355	-0.179	0.090
-323.099	-166.953	-0.147	-0.006
-322.085	-37.562	-0.105	-0.056
-321.070	57.268	0.112	0.110
-320.056	-182.867	0.334	0.006
-319.041	41.455	0.098	0.089
-318.026	800.000	0.046	0.194
-317.012	-130.890	0.116	-0.016
-315.997	-200.000	0.014	-0.080
-314.983	-97.024	-0.158	0.041
-313.968	41.760	0.079	0.072
-312.953	-86.690	-0.177	0.054
-311.939	-80.452	0.376	-0.126
-310.924	83.892	-0.145	-0.159
-309.910	-181.602	-0.330	-0.006
-308.895	-100.810	-0.284	0.070
-307.880	119.826	0.156	0.194
-306.866	-22.962	-0.301	0.182
-305.851	702.018	-0.093	-0.244
-304.837	-21.367	-0.167	-0.102
-303.822	800.000	-0.085	-0.239
-302.807	-200.000	-0.013	-0.142
-301.793	-34.548	0.128	-0.070
-300.778	80.620	0.086	-0.093
-299.764	-92.401	0.104	-0.029
-298.749	97.118	0.162	-0.186
-297.735	-200.000	-0.039	-0.247
-296.720	-102.346	-0.148	0.035
-295.705	-2.991	0.093	0.065
-294.691	800.000	0.065	0.284
-293.676	54.637	-0.127	-0.123
-292.662	-89.807	0.407	-0.119
-291.647	-108.646	0.331	0.071
-290.632	211.554	0.041	-0.064
-289.618	-200.000	0.047	0.294
-288.603	108.698	-0.153	-0.183
-287.589	-81.116	0.276	0.091
-286.574	-170.442	-0.338	-0.012
-285.559	-126.732	0.324	0.048
-284.545	-200.000	-0.001	0.052
-283.530	-200.000	-0.004	0.361
-282.516	211.934	-0.217	0.343
-281.501	-47.323	0.062	-0.030
-280.486	187.453	0.157	-0.235
-279.472	-102.629	0.028	0.007
-278.457	280.136	-0.157	-0.281
-277.443	-101.903	0.314	0.076
-276.428	800.000	-0.079	0.220
-275.413	800.000	-0.054	0.201
-274.399	74.344	0.335	0.353
-273.384	50.484	0.075	-0.071
-272.370	-200.000	0.015	0.105
-271.355	738.133	-0.088	-0.236
-270.340	53.502	-0.241	-0.232
-269.326	430.207	0.158	0.342
-268.311	97.474	0.142	0.164
-267.297	-9.623	0.319	0.213
-266.282	-200.000	-0.025	-0.330
-265.267	-15.638	0.034	-0.021
-264.253	-75.747	0.223	0.079
-263.238	23.813	-0.106	0.088
-262.224	280.498	-0.197	-0.353
-261.209	-63.477	-0.688	-0.283
-260.195	251.167	0.210	-0.357
-259.180	598.801	0.209	-0.520
-258.165	-15.215	0.203	-0.130
-257.151	-200.000	0.017	0.336
-256.136	676.295	-0.053	-0.137
-255.122	42.270	0.292	0.265
-254.107	-30.525	-0.223	0.127
-253.092	-200.000	0.008	-0.061
-252.078	800.000	-0.132	0.376
-251.063	800.000	0.074	0.280
-250.049	-155.984	-0.092	0.006
-249.034	-40.063	0.056	0.029
-248.019	-200.000	0.044	-0.225
-247.005	27.042	-0.184	0.154
-245.990	-9.404	0.068	0.045
-244.976	89.786	0.091	0.102
-243.961	785.998	0.032	-0.089
-242.946	-16.442	0.163	-0.104
-241.932	501.699	-0.137	0.317
-240.917	-94.006	0.136	0.037
-239.903	-167.653	-0.195	0.008
-238.888	17.808	0.193	0.154
-237.873	121.846	-0.083	0.104
-236.859	400.919	0.109	0.229
-235.844	-77.100	0.141	0.049
-234.830	309.296	-0.099	-0.186
-233.815	-200.000	0.043	-0.219
-232.800	-127.628	0.324	-0.047
-231.786	-84.775	-0.187	0.059
-230.771	-18.075	-0.225	0.141
-229.757	133.069	0.139	0.180
-228.742	-68.781	-0.176	0.068
-227.727	568.642	0.145	0.353
-226.713	-116.206	-0.067	0.012
-225.698	-17.539	0.061	0.039
-224.684	800.000	0.051	0.213
-223.669	145.546	-0.189	-0.253
-222.655	442.448	0.040	0.087
-221.640	-158.245	0.339	0.020
-220.625	80.015	0.256	-0.275
-219.611	227.280	-0.266	-0.433
-218.596	419.909	0.041	-0.087
-217.582	186.985	-0.080	-0.119
-216.567	-200.000	-0.014	-0.388
-215.552	-78.695	0.311	0.106
-214.538	372.776	0.151	-0.307
-213.523	124.638	0.192	0.242
-212.509	-200.000	-0.056	0.351
-211.494	79.499	-0.208	-0.223
-210.479	124.051	0.274	-0.344
-209.465	800.000	0.069	0.290
-208.450	-81.979	-0.268	0.088
-207.436	-104.162	-0.133	-0.031
-206.421	219.657	-0.174	0.278
-205.406	284.740	-0.177	-0.318
-204.392	-200.000	-0.049	-0.219
-203.377	233.030	0.223	-0.366
-202.363	-48.572	0.040	0.019
-201.348	-200.000	0.064	-0.461
-200.333	-29.883	0.240	-0.137
-199.319	-59.045	0.238	-0.103
-198.304	800.000	0.047	-0.170
-197.290	-64.931	-0.301	0.122
-196.275	-134.608	0.118	0.014
-195.260	162.662	-0.071	-0.099
-194.246	-51.164	0.049	-0.023
-193.231	-33.160	0.247	-0.137
-192.217	-200.000	-0.012	0.101
-191.202	-81.722	-0.170	0.056
-190.187	-46.406	0.081	0.040
-189.173	-200.000	-0.017	-0.254
-188.158	-200.000	-0.009	-0.202
-187.144	54.366	0.096	-0.093
-186.129	-84.575	0.274	-0.086
-185.114	160.631	-0.151	0.210
-184.100	-65.271	0.090	-0.036
-183.085	374.919	0.112	0.228
-182.071	15.787	0.439	0.345
-181.056	-200.000	-0.047	0.463
-180.042	-200.000	-0.011	-0.340
-179.027	397.627	0.091	-0.189
-178.012	21.059	0.216	-0.175
-176.998	800.000	0.030	0.082
-175.983	-68.284	-0.116	-0.045
-174.969	-200.000	-0.004	-0.078
-173.954	321.393	-0.139	0.264
-172.939	-14.001	0.171	-0.110
-171.925	-102.831	0.234	0.056
-170.910	92.393	-0.163	0.184
-169.896	-200.000	-0.005	-0.137
-168.881	184.427	-0.048	-0.071
-167.866	-77.721	0.068	-0.023
-166.852	62.369	-0.080	-0.080
-165.837	81.560	-0.376	0.406
-164.823	-55.831	0.069	0.031
-163.808	-1.895	-0.038	0.027
-162.793	138.779	-0.211	-0.276
-161.779	-151.278	-0.236	0.018
-160.764	-78.176	0.233	0.080
-159.750	100.945	0.149	-0.173
-158.735	411.365	-0.022	0.046
-157.720	-54.862	-0.179	-0.081
-156.706	41.827	-0.051	-0.046
-155.691	368.337	0.084	0.169
-154.677	174.514	0.184	0.265
-153.662	-91.062	0.229	0.065
-152.647	-164.498	-0.251	-0.011
-151.633	-139.134	-0.246	-0.026
-150.618	-95.316	0.204	0.055
-149.604	-102.798	-0.295	-0.070
-148.589	-33.426	0.208	-0.115
-147.574	78.481	-0.249	0.265
-146.560	27.750	0.197	-0.165
-145.545	-200.000	-0.004	0.025
-144.531	-141.075	-0.400	-0.041
-143.516	-87.966	0.045	-0.014
-142.502	10.632	-0.338	0.257
-141.487	-200.000	-0.009	-0.377
-140.472	20.366	0.220	0.177
-139.458	-115.164	-0.245	0.046
-138.443	-200.000	0.024	0.190
-137.429	-189.710	-0.100	0.001
-136.414	475.580	-0.054	0.122
-135.399	800.000	0.042	-0.173
-134.385	37.041	0.211	0.186
-133.370	-113.251	0.325	-0.064
-132.356	-41.337	0.353	-0.181
-131.341	-150.310	0.515	0.040
-130.326	227.710	-0.162	-0.262
-129.312	671.134	0.148	0.381
-128.297	-39.543	-0.043	0.022
-127.283	68.389	-0.140	-0.142
-126.268	111.093	-0.101	-0.121
-125.253	128.126	0.175	0.222
-124.239	-200.000	0.018	0.098
-123.224	800.000	0.104	-0.362
-122.210	800.000	-0.024	-0.082
-121.195	-106.763	-0.142	-0.031
