DTS Sentinel unit serial number:	SN413079Multiplexer serial number:	ORYXHardware model number:	OX4-SRSoftware version number:	ORYX F/W v4.00 Oryx Data Collector v3.7.2.0data status	okinstallation	princeton_trtdifferential loss correction	single-endedforward channel	channel 2reverse channel	N/Adate	2019/09/10time	19:09:11forward acquisition time	60.00reverse acquisition time	0.00gamma	496.2192k internal	0.2324k external	0.2324temperature offset calibration	0.9942default loss term (dB/km)	0.3790temperature slope calibration	1.0000multiplexer offset coefficient	1.0000multiplexer slope coefficient	1.0000fibre end	0.00T internal ref (°C)	34.20T ext. ref 1 (°C)	-0.34T ext. ref 2 (°C)	26.59length (m)	temperature (°C)	Stokes	anti-Stokes-747.200	190.093	0.109	0.165
-746.185	-200.000	-0.052	0.277
-745.171	407.564	-0.152	-0.324
-744.156	102.980	-0.187	0.221
-743.142	10.940	-0.080	-0.061
-742.127	-200.000	0.007	-0.051
-741.112	-139.471	0.202	0.022
-740.098	629.954	-0.143	0.365
-739.083	23.128	0.049	-0.041
-738.069	90.465	-0.293	0.331
-737.054	800.000	0.009	0.032
-736.039	27.805	-0.229	0.194
-735.025	-200.000	0.005	-0.025
-734.010	-200.000	-0.025	-0.350
-732.996	-200.000	-0.064	0.337
-731.981	800.000	-0.061	-0.247
-730.966	-96.563	0.190	0.051
-729.952	-112.906	-0.168	0.034
-728.937	233.015	-0.082	-0.136
-727.923	191.661	-0.100	-0.152
-726.908	113.201	-0.227	0.278
-725.894	43.688	-0.356	0.329
-724.879	-187.591	0.376	0.005
-723.864	-91.913	-0.092	0.026
-722.850	-49.480	-0.226	-0.109
-721.835	122.596	0.262	-0.330
-720.821	-140.850	0.240	0.025
-719.806	151.411	-0.170	-0.234
-718.791	-200.000	0.039	-0.475
-717.777	498.310	-0.109	-0.254
-716.762	36.618	-0.055	-0.049
-715.748	-118.287	-0.200	-0.036
-714.733	-200.000	-0.023	0.172
-713.718	-200.000	-0.048	0.262
-712.704	-130.343	0.293	-0.040
-711.689	800.000	-0.071	0.255
-710.675	-103.973	-0.477	0.112
-709.660	-18.007	-0.060	-0.038
-708.645	-56.144	-0.256	0.115
-707.631	73.506	-0.059	0.063
-706.616	262.266	-0.122	0.214
-705.602	-200.000	-0.015	-0.170
-704.587	800.000	-0.205	-0.606
-703.572	-83.708	-0.436	-0.140
-702.558	331.281	-0.049	-0.095
-701.543	-68.905	-0.360	-0.140
-700.529	-200.000	0.047	-0.321
-699.514	64.496	0.056	-0.057
-698.499	-47.059	-0.161	-0.079
-697.485	70.122	-0.107	0.112
-696.470	-118.324	0.097	0.017
-695.456	-178.925	0.280	-0.006
-694.441	-200.000	0.008	-0.045
-693.426	-118.164	-0.168	0.030
-692.412	800.000	0.123	-0.400
-691.397	-108.494	0.181	0.039
-690.383	-200.000	-0.001	0.506
-689.368	-90.187	0.220	-0.064
-688.354	37.175	0.078	-0.070
-687.339	-200.000	-0.089	-0.546
-686.324	-132.966	-0.221	-0.028
-685.310	800.000	-0.076	0.227
-684.295	-200.000	-0.029	-0.244
-683.281	-63.814	0.233	-0.096
-682.266	4.744	-0.401	0.297
-681.251	242.420	-0.122	0.206
-680.237	-147.851	0.414	0.035
-679.222	-29.297	-0.227	-0.131
-678.208	28.183	0.338	-0.287
-677.193	562.198	-0.098	0.238
-676.178	-43.668	0.316	-0.160
-675.164	-103.535	0.109	0.026
-674.149	664.596	0.080	-0.207
-673.135	241.158	0.143	0.241
-672.120	58.381	-0.153	0.151
-671.105	-103.277	0.114	-0.027
-670.091	-71.045	0.297	-0.113
-669.076	-5.319	0.114	0.079
-668.062	443.659	-0.067	-0.149
-667.047	-200.000	-0.040	-0.280
-666.032	218.186	0.113	0.182
-665.018	-139.679	-0.194	0.021
-664.003	6.972	0.281	0.211
-662.989	-94.227	-0.356	-0.098
-661.974	-120.517	-0.136	0.023
-660.959	-200.000	0.003	0.070
-659.945	-118.265	-0.449	-0.080
-658.930	190.838	-0.056	-0.085
-657.916	-113.996	0.483	0.094
-656.901	800.000	-0.105	0.320
-655.886	-65.262	-0.155	0.063
-654.872	-80.251	0.139	-0.047
-653.857	-56.886	-0.064	0.028
-652.843	-42.060	0.115	-0.059
-651.828	-200.000	-0.040	-0.189
-650.814	525.943	-0.138	-0.327
-649.799	59.556	-0.213	-0.211
-648.784	-117.758	0.079	-0.014
-647.770	-26.894	0.157	0.092
-646.755	12.203	0.229	-0.178
-645.741	-76.874	0.046	-0.016
-644.726	-25.669	0.261	-0.155
-643.711	800.000	-0.098	-0.361
-642.697	198.348	0.222	-0.341
-641.682	-200.000	0.038	0.309
-640.668	-3.706	0.281	-0.196
-639.653	-46.534	-0.247	-0.122
-638.638	-35.623	0.178	0.097
-637.624	211.069	-0.116	-0.183
-636.609	61.978	-0.098	-0.098
-635.595	-141.356	-0.237	0.024
-634.580	98.844	-0.138	-0.160
-633.565	-200.000	-0.016	0.432
-632.551	-84.804	-0.293	0.093
-631.536	9.713	0.217	-0.166
-630.522	-200.000	-0.043	0.302
-629.507	-21.550	-0.134	-0.082
-628.492	299.653	0.088	-0.163
-627.478	-65.578	0.049	-0.020
-626.463	222.598	0.241	-0.391
-625.449	-175.417	0.033	-0.001
-624.434	112.148	-0.131	-0.159
-623.419	-111.731	-0.360	0.073
-622.405	5.360	0.079	0.058
-621.390	-68.797	0.162	0.063
-620.376	145.993	0.114	-0.154
-619.361	-200.000	-0.005	0.051
-618.346	-101.109	0.028	-0.007
-617.332	491.699	0.094	0.216
-616.317	-75.803	0.275	0.098
-615.303	18.438	0.050	-0.040
-614.288	-127.077	0.201	-0.030
-613.273	29.099	0.230	0.196
-612.259	112.726	-0.128	0.156
-611.244	275.089	-0.227	-0.404
-610.230	40.087	-0.228	-0.206
-609.215	-43.061	0.261	-0.133
-608.201	-200.000	-0.055	-0.502
-607.186	474.115	-0.068	0.155
-606.171	170.041	-0.217	0.311
-605.157	800.000	-0.018	-0.078
-604.142	-108.145	-0.216	0.047
-603.128	800.000	-0.131	-0.507
-602.113	-146.375	0.132	-0.012
-601.098	-82.392	0.295	0.096
-600.084	-147.244	0.253	0.022
-599.069	-149.782	0.154	0.012
-598.055	266.158	-0.111	0.195
-597.040	55.713	0.114	0.111
-596.025	800.000	0.086	-0.266
-595.011	122.791	-0.057	0.072
-593.996	372.683	-0.028	0.057
-592.982	-115.267	0.180	0.034
-591.967	110.126	-0.217	0.261
-590.952	-118.178	0.127	0.023
-589.938	22.557	0.095	-0.078
-588.923	81.970	-0.055	-0.059
-587.909	-93.073	0.068	-0.019
-586.894	-95.632	0.233	0.063
-585.879	60.861	0.187	0.186
-584.865	-114.539	-0.324	-0.062
-583.850	581.165	-0.079	-0.194
-582.836	-200.000	0.030	0.359
-581.821	-92.152	-0.080	0.023
-580.806	85.858	0.093	-0.103
-579.792	-19.988	0.103	0.064
-578.777	-64.194	-0.062	-0.025
-577.763	-83.257	-0.135	-0.043
-576.748	45.161	-0.125	-0.116
-575.733	47.917	-0.180	-0.169
-574.719	-5.324	0.144	-0.100
-573.704	-109.616	-0.232	0.049
-572.690	-105.747	0.127	-0.029
-571.675	-70.679	0.355	0.135
-570.661	-200.000	-0.031	0.174
-569.646	-25.822	-0.317	0.187
-568.631	-36.945	0.204	-0.110
-567.617	-200.000	0.029	-0.259
-566.602	800.000	0.105	0.407
-565.588	800.000	-0.067	0.217
-564.573	-76.039	-0.195	0.069
-563.558	800.000	-0.006	0.023
-562.544	-76.374	-0.159	-0.056
-561.529	-82.622	-0.293	0.095
-560.515	19.260	-0.342	-0.275
-559.500	-37.774	0.167	-0.089
-558.485	371.666	-0.110	-0.223
-557.471	361.623	0.105	-0.212
-556.456	293.856	-0.069	-0.126
-555.442	-142.947	0.241	-0.023
-554.427	486.334	0.088	-0.200
-553.412	-12.776	0.401	-0.262
-552.398	-127.697	0.274	0.040
-551.383	322.729	-0.133	-0.253
-550.369	-200.000	-0.044	0.232
-549.354	498.670	-0.045	-0.104
-548.339	-9.941	0.332	-0.221
-547.325	642.319	-0.199	0.508
-546.310	-8.857	-0.213	-0.143
-545.296	-39.054	-0.102	0.054
-544.281	-200.000	0.001	0.208
-543.266	800.000	0.029	0.121
-542.252	92.030	0.080	-0.090
-541.237	152.015	0.186	-0.254
-540.223	-55.788	0.281	0.126
-539.208	-61.225	-0.175	-0.074
-538.193	-72.378	-0.239	0.089
-537.179	97.555	0.114	0.131
-536.164	401.206	-0.140	0.294
-535.150	-103.862	0.269	0.063
-534.135	-200.000	0.260	-0.000
-533.121	-114.171	0.380	-0.074
-532.106	478.319	-0.113	0.256
-531.091	800.000	-0.038	-0.150
-530.077	36.231	0.210	-0.185
-529.062	-4.118	-0.145	-0.101
-528.048	-200.000	-0.013	-0.170
-527.033	57.537	-0.221	-0.216
-526.018	227.438	-0.105	-0.172
-525.004	207.807	-0.216	-0.337
-523.989	-84.986	0.260	-0.082
-522.975	-27.361	0.209	-0.122
-521.960	130.668	0.114	0.146
-520.945	28.981	0.112	0.095
-519.931	-165.083	0.314	-0.014
-518.916	-58.948	-0.165	0.071
-517.902	-75.459	-0.154	-0.055
-516.887	800.000	0.060	-0.174
-515.872	-145.549	0.101	0.009
-514.858	-112.920	0.278	-0.055
-513.843	-89.995	0.284	0.083
-512.829	3.857	-0.070	-0.051
-511.814	711.387	0.040	0.107
-510.799	356.725	-0.128	0.255
-509.785	39.774	-0.392	-0.352
-508.770	557.821	-0.034	-0.083
-507.756	-80.761	0.303	0.101
-506.741	-161.786	0.385	0.020
-505.726	175.622	0.085	-0.123
-504.712	-71.670	-0.064	-0.024
-503.697	235.224	-0.175	-0.288
-502.683	291.673	-0.102	0.185
-501.668	35.087	0.196	-0.172
-500.653	30.655	0.169	-0.144
-499.639	1.364	-0.381	0.274
-498.624	-200.000	0.018	0.123
-497.610	-80.379	0.285	-0.095
-496.595	-99.451	-0.111	0.028
-495.581	-88.269	0.013	0.004
-494.566	-111.408	0.258	0.052
-493.551	491.552	-0.103	-0.236
-492.537	-200.000	-0.001	-0.151
-491.522	51.820	-0.215	-0.205
-490.508	-200.000	0.026	-0.160
-489.493	607.708	0.032	-0.081
-488.478	-74.648	-0.450	-0.162
-487.464	137.510	0.068	-0.089
-486.449	800.000	-0.141	0.425
-485.435	-44.953	-0.313	-0.156
-484.420	90.166	-0.206	0.231
-483.405	800.000	0.040	0.116
-482.391	61.300	-0.185	0.184
-481.376	-200.000	-0.029	0.312
-480.362	218.658	0.121	0.192
-479.347	-102.428	-0.141	-0.034
-478.332	800.000	-0.048	0.185
-477.318	-38.024	0.246	-0.131
-476.303	-113.034	-0.140	-0.028
-475.289	-200.000	-0.008	-0.074
-474.274	-200.000	0.038	-0.189
-473.259	-107.805	-0.120	-0.026
-472.245	58.971	0.169	-0.166
-471.230	216.276	-0.107	-0.170
-470.216	173.495	0.076	0.109
-469.201	800.000	0.060	0.247
-468.186	-109.949	-0.200	0.042
-467.172	696.915	-0.089	0.233
-466.157	-130.426	0.321	-0.043
-465.143	-200.000	0.004	-0.423
-464.128	14.417	-0.225	-0.175
-463.113	9.327	0.153	-0.115
-462.099	-99.713	0.082	0.021
-461.084	-141.371	0.268	0.027
-460.070	-175.503	0.241	-0.007
-459.055	-200.000	0.015	0.244
-458.040	-112.425	0.290	0.058
-457.026	529.616	-0.053	-0.124
-456.011	-54.530	0.100	-0.045
-454.997	42.883	-0.278	0.253
-453.982	502.851	-0.078	-0.180
-452.968	132.816	-0.062	0.080
-451.953	-21.379	-0.171	0.104
-450.938	-172.413	0.056	0.002
-449.924	258.415	-0.106	0.183
-448.909	-59.842	0.101	0.043
-447.895	761.477	0.082	0.222
-446.880	-101.430	-0.167	0.040
-445.865	48.828	-0.187	-0.175
-444.851	-15.825	0.199	0.126
-443.836	-145.487	0.081	-0.007
-442.822	-69.046	0.280	-0.108
-441.807	-121.501	0.272	-0.045
-440.792	800.000	0.049	0.167
-439.778	-50.369	-0.138	-0.065
-438.763	129.038	0.152	0.193
-437.749	189.187	-0.082	0.122
-436.734	-133.956	-0.258	0.032
-435.719	-200.000	0.054	0.285
-434.705	-23.636	0.286	0.171
-433.690	-153.887	-0.089	0.006
-432.676	480.799	0.069	0.157
-431.661	-200.000	0.006	0.273
-430.646	800.000	-0.076	-0.323
-429.632	228.043	0.165	-0.268
-428.617	107.049	-0.119	0.141
-427.603	800.000	-0.042	0.133
-426.588	69.519	0.072	0.074
-425.573	89.070	0.106	0.118
-424.559	-76.011	0.286	0.101
-423.544	18.831	-0.159	-0.127
-422.530	437.099	0.019	-0.041
-421.515	-59.273	-0.393	-0.169
-420.500	-61.471	0.015	-0.006
-419.486	23.778	0.121	-0.100
-418.471	800.000	-0.017	0.069
-417.457	-110.680	-0.289	0.060
-416.442	207.230	0.130	-0.202
-415.428	175.266	0.074	0.106
-414.413	309.450	0.105	0.196
-413.398	292.115	-0.145	0.263
-412.384	108.785	-0.165	0.196
-411.369	251.947	0.183	0.310
-410.355	-120.832	-0.085	-0.014
-409.340	800.000	-0.148	-0.482
-408.325	-200.000	0.050	-0.234
-407.311	-200.000	-0.005	0.128
-406.296	-176.169	0.045	0.001
-405.282	-28.420	-0.090	0.051
-404.267	738.494	0.106	0.283
-403.252	374.406	0.097	0.197
-402.238	-89.834	0.127	0.037
-401.223	-119.692	-0.046	0.008
-400.209	76.647	0.095	-0.100
-399.194	298.162	0.007	0.014
-398.179	-200.000	-0.178	-0.000
-397.165	-91.768	0.115	-0.032
-396.150	-13.657	-0.097	0.062
-395.136	124.081	-0.119	-0.149
-394.121	-196.469	0.042	0.000
-393.106	-43.120	-0.149	0.075
-392.092	72.618	-0.061	0.064
-391.077	9.445	-0.238	-0.179
-390.063	800.000	0.170	0.510
-389.048	800.000	0.022	0.065
-388.033	-69.616	-0.130	-0.050
-387.019	-200.000	-0.022	0.214
-386.004	-106.166	0.216	0.048
-384.990	-200.000	-0.028	-0.373
-383.975	-55.421	-0.294	0.131
-382.960	-8.800	-0.308	0.205
-381.946	314.666	-0.148	-0.277
-380.931	-15.009	-0.157	-0.100
-379.917	-200.000	-0.024	0.198
-378.902	-23.048	0.275	0.165
-377.888	800.000	-0.042	0.162
-376.873	-36.057	-0.238	0.128
-375.858	800.000	-0.132	0.397
-374.844	-47.181	0.432	0.210
-373.829	245.240	-0.180	0.301
-372.815	457.670	0.128	0.284
-371.800	8.197	0.194	-0.145
-370.785	86.203	0.088	-0.097
-369.771	-117.780	-0.314	0.056
-368.756	278.687	-0.027	-0.047
-367.742	60.438	0.222	-0.219
-366.727	-78.081	0.212	-0.073
-365.712	-36.828	0.145	-0.077
-364.698	308.118	0.034	0.064
-363.683	124.007	-0.145	0.181
-362.669	80.735	-0.044	-0.047
-361.654	-46.803	0.369	-0.179
-360.639	207.805	-0.093	0.145
-359.625	-200.000	0.002	0.237
-358.610	90.632	0.289	0.322
-357.596	275.797	-0.047	0.082
-356.581	-61.216	0.094	0.039
-355.566	800.000	0.036	-0.108
-354.552	-200.000	-0.016	-0.116
-353.537	-44.214	0.153	-0.076
-352.523	1.164	0.107	0.076
-351.508	271.587	0.058	0.102
-350.493	-5.856	0.107	-0.073
-349.479	50.092	0.055	0.052
-348.464	-80.634	-0.326	-0.108
-347.450	800.000	-0.032	-0.135
-346.435	-200.000	-0.037	-0.322
-345.420	-59.214	-0.125	-0.053
-344.406	80.003	0.143	0.152
-343.391	95.911	0.222	-0.252
-342.377	509.435	0.068	0.157
-341.362	-113.684	-0.263	-0.051
-340.348	-20.884	-0.250	0.152
-339.333	36.023	0.164	-0.144
-338.318	-68.588	-0.361	0.139
-337.304	-200.000	-0.004	-0.031
-336.289	30.285	0.093	0.079
-335.275	-101.194	0.038	0.009
-334.260	-169.439	-0.069	0.003
-333.245	281.452	-0.116	-0.206
-332.231	-183.058	-0.025	0.000
-331.216	800.000	0.090	0.252
-330.202	167.187	-0.192	-0.270
-329.187	82.770	0.090	-0.097
-328.172	-38.740	0.398	0.209
-327.158	-78.615	-0.130	-0.044
-326.143	477.606	-0.142	0.319
-325.129	-133.064	0.359	-0.045
-324.114	78.408	-0.057	0.060
-323.099	-7.411	-0.072	-0.048
-322.085	48.431	0.062	0.058
-321.070	-40.420	0.173	-0.089
-320.056	-200.000	0.015	-0.260
-319.041	328.784	-0.022	-0.042
-318.026	-72.776	-0.067	-0.024
-317.012	736.749	0.081	-0.216
-315.997	14.270	-0.142	0.110
-314.983	92.254	0.287	-0.321
-313.968	800.000	-0.040	0.172
-312.953	153.632	-0.078	-0.105
-311.939	70.480	-0.205	-0.211
-310.924	-111.922	0.219	-0.044
-309.910	601.453	-0.017	0.043
-308.895	800.000	-0.052	0.204
-307.880	82.742	-0.152	0.164
-306.866	304.886	0.174	-0.320
-305.851	-82.763	-0.177	-0.057
-304.837	-9.272	0.205	-0.136
-303.822	193.273	0.046	0.068
-302.807	50.093	0.073	0.068
-301.793	-146.278	0.135	0.012
-300.778	180.364	-0.057	0.082
-299.764	800.000	-0.011	-0.035
-298.749	-7.393	0.088	-0.059
-297.735	800.000	0.124	0.347
-296.720	-134.861	0.159	0.019
-295.705	-17.721	0.119	-0.074
-294.691	363.224	-0.098	-0.196
-293.676	256.712	0.075	0.127
-292.662	130.426	-0.111	0.141
-291.647	93.011	0.156	0.175
-290.632	67.934	-0.082	0.083
-289.618	-200.000	0.040	-0.238
-288.603	75.445	-0.160	-0.167
-287.589	381.948	-0.098	-0.200
-286.574	-200.000	0.013	0.119
-285.559	-76.052	-0.067	0.023
-284.545	70.155	0.168	0.172
-283.530	8.751	-0.120	-0.089
-282.516	-49.840	0.198	0.093
-281.501	6.303	0.175	-0.128
-280.486	438.857	-0.041	-0.089
-279.472	-60.879	-0.135	0.057
-278.457	285.898	-0.136	0.244
-277.443	-200.000	0.027	0.164
-276.428	-200.000	-0.005	-0.321
-275.413	164.456	-0.178	-0.248
-274.399	65.433	-0.057	-0.057
-273.384	144.468	0.139	0.184
-272.370	800.000	-0.088	0.302
-271.355	800.000	-0.025	0.088
-270.340	337.933	-0.074	0.142
-269.326	-200.000	0.010	-0.099
-268.311	800.000	-0.033	0.092
-267.297	-28.410	0.235	-0.134
-266.282	-26.723	-0.036	-0.021
-265.267	43.121	0.039	-0.035
-264.253	-18.569	-0.082	0.050
-263.238	-113.699	-0.203	-0.039
-262.224	56.630	-0.304	-0.293
-261.209	407.181	0.084	0.175
-260.195	-50.529	-0.454	0.212
-259.180	14.988	0.029	-0.022
-258.165	-5.530	-0.298	-0.202
-257.151	191.206	0.100	0.149
-256.136	-200.000	-0.001	-0.150
-255.122	800.000	-0.060	-0.219
-254.107	-150.328	0.101	-0.008
-253.092	-121.495	-0.049	0.008
-252.078	283.016	0.125	0.222
-251.063	-200.000	0.030	0.425
-250.049	-90.282	-0.402	-0.116
-249.034	-35.919	-0.200	0.107
-248.019	1.771	-0.121	-0.086
-247.005	-56.674	-0.242	-0.106
-245.990	149.643	0.233	0.312
-244.976	320.291	0.056	0.105
-243.961	-200.000	0.009	-0.224
-242.946	-62.513	0.174	-0.071
-241.932	-200.000	-0.026	-0.147
-240.917	-114.155	-0.312	-0.060
-239.903	439.798	0.070	-0.152
-238.888	-158.806	-0.068	-0.004
-237.873	-200.000	-0.005	0.159
-236.859	372.677	-0.005	0.010
-235.844	267.806	-0.140	-0.242
-234.830	-88.474	0.208	-0.061
-233.815	-24.360	0.339	0.200
-232.800	-155.196	0.269	0.017
-231.786	-36.993	-0.209	-0.111
-230.771	-52.658	0.242	0.110
-229.757	-52.331	-0.179	0.082
-228.742	-200.000	0.041	-0.217
-227.727	-114.583	0.192	0.036
-226.713	800.000	0.042	0.176
-225.698	50.074	0.052	0.048
-224.684	14.621	0.156	-0.121
-223.669	-50.405	-0.205	0.096
-222.655	44.963	0.148	-0.135
-221.640	100.487	0.156	-0.179
-220.625	61.847	-0.067	-0.066
-219.611	41.929	0.030	0.027
-218.596	-71.424	0.110	-0.041
-217.582	-0.297	-0.102	0.072
-216.567	156.973	-0.046	-0.063
-215.552	-200.000	-0.019	0.468
-214.538	-117.609	-0.032	0.006
-213.523	136.711	-0.019	-0.025
-212.509	-200.000	0.059	0.322
-211.494	-200.000	0.013	-0.246
-210.479	0.646	0.035	-0.025
-209.465	211.883	-0.054	-0.083
-208.450	-61.688	-0.198	-0.082
-207.436	41.344	0.334	-0.299
-206.421	402.163	-0.097	-0.202
-205.406	-115.416	-0.342	-0.064
-204.392	147.865	0.309	0.412
-203.377	89.876	0.200	-0.221
-202.363	11.603	-0.193	-0.146
-201.348	-120.711	-0.112	0.019
-200.333	-90.512	0.108	-0.031
-199.319	24.190	0.052	-0.043
-198.304	-107.163	0.082	0.018
-197.290	188.013	-0.127	-0.187
-196.275	397.235	0.159	-0.327
-195.260	35.822	-0.120	0.104
-194.246	14.843	-0.119	0.092
-193.231	-39.199	-0.277	-0.144
-192.217	11.460	-0.013	0.010
-191.202	-3.483	-0.098	0.067
-190.187	-111.663	0.173	-0.035
-189.173	-200.000	-0.016	0.075
-188.158	459.284	-0.020	-0.044
-187.144	-200.000	0.024	0.188
-186.129	-83.938	0.285	-0.090
-185.114	-46.547	-0.099	-0.048
-184.100	574.240	-0.189	-0.454
-183.085	-200.000	0.051	0.293
-182.071	23.981	0.071	0.058
-181.056	-9.537	-0.192	0.126
-180.042	-200.000	0.027	-0.160
-179.027	-42.615	0.305	-0.153
-178.012	22.653	0.039	0.031
-176.998	590.360	0.085	-0.206
-175.983	203.792	0.158	0.241
-174.969	-18.481	-0.108	-0.066
-173.954	-192.407	-0.353	-0.003
-172.939	-140.898	-0.213	-0.022
-171.925	-109.313	-0.230	-0.048
-170.910	98.771	-0.268	0.305
-169.896	96.671	-0.105	0.118
-168.881	209.247	-0.122	0.189
-167.866	-110.633	-0.342	-0.070
-166.852	5.649	0.046	0.033
-165.837	-135.391	-0.424	0.050
-164.823	27.923	0.045	0.038
-163.808	37.092	-0.269	-0.235
-162.793	176.031	-0.098	-0.141
-161.779	-13.815	-0.236	0.151
-160.764	470.921	0.075	0.167
-159.750	23.172	-0.104	-0.084
-158.735	-13.282	-0.130	0.083
-157.720	79.352	0.066	0.070
-156.706	800.000	-0.041	0.138
-155.691	-79.087	0.373	0.125
-154.677	-29.619	-0.143	0.080
-153.662	89.169	0.091	-0.100
-152.647	-54.927	-0.239	0.106
-151.633	-24.434	0.106	0.062
-150.618	170.277	-0.070	0.099
-149.604	179.500	-0.180	-0.260
-148.589	458.811	0.088	0.193
-147.574	-103.196	0.183	0.043
-146.560	-161.300	-0.345	-0.018
-145.545	-200.000	-0.036	0.171
-144.531	171.368	0.190	0.269
-143.516	-4.962	-0.263	0.179
-142.502	-162.710	0.295	-0.014
-141.487	149.003	-0.244	0.326
-140.472	30.135	0.083	0.070
-139.458	558.435	0.115	-0.273
-138.443	800.000	0.052	0.174
-137.429	800.000	0.091	0.334
-136.414	-200.000	0.085	0.433
-135.399	-70.310	-0.250	0.094
-134.385	-11.807	-0.055	0.036
-133.370	800.000	0.062	0.197
-132.356	-200.000	-0.027	-0.297
-131.341	-200.000	-0.002	-0.096
-130.326	48.323	0.294	-0.271
-129.312	-47.686	0.132	-0.063
-128.297	800.000	-0.075	0.237
-127.283	108.029	-0.057	0.067
-126.268	57.110	-0.178	-0.171
-125.253	64.080	-0.081	0.081
-124.239	-130.252	-0.152	-0.020
-123.224	392.622	-0.044	-0.090
-122.210	-81.292	-0.100	-0.032
-121.195	161.008	0.027	0.038
-120.180	-114.709	0.316	0.060
