DTS Sentinel unit serial number:	SN413079Multiplexer serial number:	ORYXHardware model number:	OX4-SRSoftware version number:	ORYX F/W v4.00 Oryx Data Collector v3.7.2.0data status	okinstallation	princeton_trtdifferential loss correction	single-endedforward channel	channel 2reverse channel	N/Adate	2019/09/13time	00:59:35forward acquisition time	60.00reverse acquisition time	0.00gamma	496.2192k internal	0.2333k external	0.2333temperature offset calibration	1.0160default loss term (dB/km)	0.3790temperature slope calibration	1.0000multiplexer offset coefficient	1.0000multiplexer slope coefficient	1.0000fibre end	0.00T internal ref (°C)	28.06T ext. ref 1 (°C)	3.66T ext. ref 2 (°C)	22.57length (m)	temperature (°C)	Stokes	anti-Stokes-747.200	-164.899	-0.304	0.014
-746.185	-22.502	-0.089	-0.054
-745.171	-200.000	0.016	-0.161
-744.156	383.657	-0.030	0.062
-743.142	-122.667	0.030	-0.005
-742.127	214.597	-0.064	-0.102
-741.112	95.926	-0.066	-0.076
-740.098	-200.000	0.018	0.423
-739.083	-35.602	0.212	0.116
-738.069	-121.092	-0.289	0.049
-737.054	50.226	0.236	-0.224
-736.039	-71.039	-0.239	-0.090
-735.025	7.976	0.147	-0.111
-734.010	370.241	-0.119	0.242
-732.996	-200.000	0.064	-0.468
-731.981	-200.000	0.033	0.147
-730.966	187.749	-0.129	0.194
-729.952	-9.584	0.078	-0.052
-728.937	392.023	-0.119	-0.248
-727.923	-200.000	0.005	0.159
-726.908	324.258	0.116	0.222
-725.894	89.104	-0.116	0.130
-724.879	56.444	-0.280	-0.274
-723.864	-126.966	-0.214	-0.032
-722.850	-94.975	0.386	0.105
-721.835	-26.493	0.221	-0.130
-720.821	800.000	0.054	-0.206
-719.806	118.374	0.271	-0.336
-718.791	474.896	-0.134	-0.304
-717.777	-64.670	0.081	-0.033
-716.762	237.707	-0.116	-0.194
-715.748	-24.681	0.189	0.113
-714.733	-200.000	-0.002	0.010
-713.718	-200.000	0.012	-0.271
-712.704	-102.787	-0.059	-0.014
-711.689	-185.145	0.206	-0.003
-710.675	-200.000	-0.013	-0.115
-709.660	93.858	0.268	-0.305
-708.645	85.042	0.111	0.123
-707.631	5.955	-0.041	-0.031
-706.616	75.420	-0.090	-0.096
-705.602	-200.000	-0.009	0.274
-704.587	-15.899	-0.170	0.109
-703.572	800.000	-0.039	-0.120
-702.558	318.615	-0.053	0.100
-701.543	797.925	0.017	0.047
-700.529	-200.000	-0.079	0.349
-699.514	-200.000	0.066	-0.334
-698.499	18.179	0.141	-0.113
-697.485	158.477	0.107	-0.150
-696.470	-156.678	0.358	-0.022
-695.456	628.245	0.068	-0.173
-694.441	800.000	0.064	-0.204
-693.426	-130.141	0.161	-0.022
-692.412	-158.077	-0.058	0.003
-691.397	307.894	0.049	-0.091
-690.383	8.195	0.064	-0.048
-689.368	347.538	-0.172	-0.339
-688.354	-41.796	-0.231	0.119
-687.339	204.514	0.088	0.137
-686.324	-156.307	0.224	-0.014
-685.310	4.255	0.247	0.181
-684.295	-118.866	0.079	0.014
-683.281	-94.064	-0.187	-0.051
-682.266	-94.145	-0.151	0.042
-681.251	800.000	-0.044	-0.170
-680.237	150.298	-0.108	-0.146
-679.222	754.500	0.132	-0.357
-678.208	52.257	0.267	-0.255
-677.193	63.201	-0.140	-0.141
-676.178	3.300	0.286	-0.209
-675.164	-200.000	-0.003	0.182
-674.149	-82.429	-0.221	0.072
-673.135	-123.549	0.068	0.011
-672.120	-77.291	0.267	-0.093
-671.105	-89.990	-0.298	0.087
-670.091	-76.555	-0.222	-0.078
-669.076	280.645	0.214	-0.383
-668.062	88.300	0.102	-0.113
-667.047	-200.000	-0.009	-0.061
-666.032	-200.000	-0.012	-0.103
-665.018	-85.252	0.119	-0.037
-664.003	-17.918	0.174	-0.109
-662.989	436.157	-0.059	0.128
-661.974	-88.591	0.557	-0.166
-660.959	-38.710	-0.273	-0.145
-659.945	241.005	-0.118	-0.198
-658.930	-200.000	0.003	-0.263
-657.916	52.579	0.171	-0.164
-656.901	800.000	0.143	-0.594
-655.886	322.480	0.087	0.166
-654.872	513.223	0.097	-0.227
-653.857	406.015	-0.125	0.264
-652.843	76.876	0.157	0.167
-651.828	128.995	-0.063	-0.080
-650.814	-200.000	-0.026	0.168
-649.799	-50.199	0.200	0.095
-648.784	-30.733	0.147	-0.083
-647.770	12.758	0.037	0.028
-646.755	-155.606	-0.206	0.013
-645.741	151.336	0.115	0.157
-644.726	-126.043	0.082	-0.012
-643.711	-40.826	0.016	0.008
-642.697	455.190	-0.102	0.228
-641.682	-48.282	-0.248	0.120
-640.668	-200.000	-0.013	0.059
-639.653	-200.000	-0.032	0.147
-638.638	-200.000	0.009	-0.109
-637.624	-122.246	0.130	-0.021
-636.609	-137.505	0.047	-0.005
-635.595	-119.173	-0.254	0.044
-634.580	70.974	0.089	0.092
-633.565	800.000	0.124	-0.359
-632.551	-61.210	-0.126	0.053
-631.536	219.621	0.179	-0.287
-630.522	-166.800	-0.087	0.004
-629.507	-200.000	0.020	0.120
-628.492	-200.000	-0.089	-0.000
-627.478	-85.332	-0.094	0.029
-626.463	192.739	-0.059	-0.090
-625.449	323.597	0.134	-0.255
-624.434	800.000	0.066	0.234
-623.419	-200.000	0.011	-0.107
-622.405	-46.361	-0.237	-0.117
-621.390	-121.826	-0.155	-0.026
-620.376	-4.376	-0.166	-0.115
-619.361	-116.490	-0.221	-0.041
-618.346	302.029	0.084	0.155
-617.332	63.592	-0.228	0.229
-616.317	800.000	0.062	0.199
-615.303	800.000	-0.069	-0.216
-614.288	91.472	0.149	-0.168
-613.273	-200.000	0.000	0.055
-612.259	-109.496	-0.339	0.072
-611.244	-143.971	0.331	0.031
-610.230	177.603	0.060	-0.087
-609.215	-136.082	-0.307	0.036
-608.201	213.145	-0.126	0.199
-607.186	-106.619	-0.042	-0.009
-606.171	-200.000	0.005	0.166
-605.157	-200.000	0.016	-0.216
-604.142	-154.212	-0.153	-0.010
-603.128	-109.955	0.052	-0.011
-602.113	40.354	0.193	-0.173
-601.098	-72.755	-0.092	-0.034
-600.084	465.431	-0.076	0.169
-599.069	168.891	-0.067	-0.095
-598.055	9.443	-0.088	0.067
-597.040	-13.172	0.219	-0.142
-596.025	-123.930	-0.201	-0.032
-595.011	-108.530	-0.078	0.017
-593.996	75.194	0.081	0.085
-592.982	-126.507	0.351	0.052
-591.967	94.342	0.294	0.333
-590.952	125.717	0.126	-0.160
-589.938	-118.398	0.330	-0.059
-588.923	198.624	-0.059	0.091
-587.909	332.509	-0.067	0.130
-586.894	-88.856	0.088	-0.026
-585.879	800.000	-0.049	-0.155
-584.865	-200.000	-0.012	-0.406
-583.850	624.138	-0.159	-0.401
-582.836	-35.160	0.086	0.047
-581.821	75.235	-0.311	0.327
-580.806	-106.513	-0.194	-0.043
-579.792	286.239	0.139	0.250
-578.777	-53.367	-0.133	-0.061
-577.763	374.798	-0.058	-0.117
-576.748	443.829	-0.065	0.143
-575.733	-2.577	-0.016	0.011
-574.719	571.478	0.099	-0.240
-573.704	800.000	-0.108	-0.372
-572.690	694.255	0.044	0.116
-571.675	-5.538	-0.173	0.119
-570.661	-156.809	-0.422	-0.026
-569.646	-1.116	-0.163	0.115
-568.631	800.000	-0.106	0.302
-567.617	-58.079	-0.152	0.066
-566.602	26.922	-0.099	0.083
-565.588	312.156	-0.130	-0.243
-564.573	800.000	0.017	0.050
-563.558	42.421	-0.073	-0.066
-562.544	-112.942	0.250	0.049
-561.529	-36.569	-0.272	0.146
-560.515	122.332	-0.271	0.339
-559.500	32.334	-0.139	0.120
-558.485	71.530	0.111	-0.115
-557.471	800.000	0.092	-0.382
-556.456	-68.114	-0.077	-0.030
-555.442	24.302	0.049	-0.041
-554.427	-141.237	0.331	-0.034
-553.412	-82.208	-0.247	-0.080
-552.398	-11.225	0.095	-0.062
-551.383	145.720	0.169	-0.226
-550.369	-17.720	0.086	-0.054
-549.354	-89.428	0.200	0.059
-548.339	-10.937	0.515	-0.339
-547.325	-200.000	-0.025	-0.115
-546.310	134.549	-0.190	0.246
-545.296	800.000	-0.065	0.233
-544.281	128.432	0.114	0.145
-543.266	-187.324	0.393	-0.005
-542.252	-90.522	-0.142	-0.041
-541.237	800.000	0.042	0.179
-540.223	-30.603	0.187	0.106
-539.208	173.249	0.148	0.213
-538.193	-200.000	-0.024	-0.205
-537.179	420.828	-0.098	0.210
-536.164	-150.546	-0.195	0.015
-535.150	-137.660	-0.148	-0.017
-534.135	-200.000	-0.036	-0.258
-533.121	-200.000	-0.017	-0.092
-532.106	-112.153	-0.197	-0.040
-531.091	186.080	-0.068	-0.101
-530.077	-83.649	-0.103	0.033
-529.062	-169.699	-0.334	0.012
-528.048	-87.890	0.083	0.025
-527.033	57.730	0.197	-0.192
-526.018	-154.382	-0.292	-0.020
-525.004	-200.000	0.028	0.136
-523.989	-61.278	-0.339	0.142
-522.975	800.000	0.054	0.207
-521.960	23.363	0.169	-0.138
-520.945	-119.054	0.274	-0.048
-519.931	-200.000	-0.014	-0.065
-518.916	-15.548	0.179	-0.114
-517.902	-75.325	0.092	-0.033
-516.887	73.129	0.219	-0.228
-515.872	67.652	-0.087	0.089
-514.858	-52.138	0.133	-0.061
-513.843	175.789	-0.108	-0.156
-512.829	800.000	0.029	-0.096
-511.814	-95.999	0.109	-0.029
-510.799	-200.000	-0.012	0.111
-509.785	-200.000	-0.087	0.421
-508.770	-96.916	-0.268	-0.070
-507.756	-107.306	0.166	0.036
-506.741	-200.000	-0.002	0.150
-505.726	307.264	-0.107	0.199
-504.712	-200.000	0.009	0.051
-503.697	800.000	0.034	0.144
-502.683	6.073	0.275	0.203
-501.668	-67.102	-0.158	0.062
-500.653	800.000	0.077	-0.333
-499.639	-200.000	0.064	0.312
-498.624	4.344	-0.056	-0.041
-497.610	45.255	-0.232	-0.213
-496.595	-16.231	-0.150	0.095
-495.581	-200.000	-0.058	0.259
-494.566	-95.884	-0.218	0.058
-493.551	-107.425	-0.247	0.054
-492.537	24.589	0.191	-0.157
-491.522	-102.173	0.118	0.028
-490.508	-200.000	-0.003	-0.159
-489.493	800.000	-0.015	-0.063
-488.478	800.000	-0.062	-0.184
-487.464	-200.000	-0.013	-0.133
-486.449	316.460	-0.131	-0.247
-485.435	-73.643	0.162	-0.059
-484.420	800.000	0.083	0.237
-483.405	-52.942	0.196	-0.090
-482.391	-200.000	0.006	0.114
-481.376	-78.726	0.319	-0.108
-480.362	-114.054	-0.198	-0.038
-479.347	18.564	-0.037	-0.029
-478.332	800.000	0.033	-0.123
-477.318	141.112	-0.063	-0.082
-476.303	-25.112	-0.176	-0.104
-475.289	-126.341	-0.300	0.045
-474.274	625.866	-0.067	0.169
-473.259	800.000	-0.098	-0.346
-472.245	-200.000	-0.011	-0.213
-471.230	-34.405	-0.072	0.039
-470.216	16.748	-0.077	0.061
-469.201	-200.000	0.027	0.257
-468.186	344.428	-0.109	0.214
-467.172	800.000	0.057	-0.180
-466.157	-4.629	-0.322	0.221
-465.143	-94.994	-0.073	0.020
-464.128	121.087	-0.190	-0.235
-463.113	-74.026	0.215	0.077
-462.099	-26.429	-0.331	0.193
-461.084	-49.253	0.160	0.076
-460.070	56.075	-0.326	0.315
-459.055	-200.000	-0.025	0.182
-458.040	-200.000	0.022	-0.138
-457.026	-200.000	-0.001	0.278
-456.011	-167.892	0.126	0.005
-454.997	-168.424	-0.044	0.002
-453.982	57.912	0.281	-0.273
-452.968	-73.977	-0.221	-0.080
-451.953	-200.000	0.048	-0.246
-450.938	-178.698	-0.142	-0.003
-449.924	-170.198	0.094	0.003
-448.909	-200.000	0.057	0.297
-447.895	514.291	0.057	0.132
-446.880	675.242	0.122	0.315
-445.865	-40.844	0.272	-0.140
-444.851	343.590	-0.134	-0.261
-443.836	-200.000	0.035	0.175
-442.822	21.635	-0.145	0.117
-441.807	-138.434	0.397	0.043
-440.792	608.337	0.092	0.229
-439.778	-57.225	-0.007	0.003
-438.763	-200.000	-0.005	0.140
-437.749	-69.140	-0.378	-0.145
-436.734	-83.986	-0.445	-0.141
-435.719	203.544	0.152	0.234
-434.705	-66.638	0.235	0.093
-433.690	-52.457	0.114	-0.052
-432.676	233.176	0.137	0.224
-431.661	-13.777	-0.104	-0.067
-430.646	-47.328	-0.144	0.070
-429.632	207.290	-0.040	-0.061
-428.617	-41.539	0.286	-0.146
-427.603	148.512	-0.273	-0.366
-426.588	54.683	0.092	0.088
-425.573	137.197	-0.093	0.120
-424.559	543.011	-0.035	-0.083
-423.544	800.000	0.068	-0.249
-422.530	14.289	-0.091	0.070
-421.515	-101.058	0.027	0.007
-420.500	20.705	0.067	-0.054
-419.486	-191.982	0.104	-0.001
-418.471	-88.944	-0.227	0.067
-417.457	-1.709	0.353	0.246
-416.442	-178.658	-0.311	-0.007
-415.428	800.000	-0.032	-0.122
-414.413	17.391	-0.157	0.124
-413.398	-92.584	-0.248	0.069
-412.384	-200.000	0.014	-0.202
-411.369	672.813	-0.090	0.232
-410.355	-200.000	-0.008	-0.186
-409.340	-200.000	0.042	-0.292
-408.325	263.820	0.046	-0.080
-407.311	5.790	0.402	-0.295
-406.296	-110.200	-0.390	-0.081
-405.282	800.000	-0.035	-0.129
-404.267	34.810	-0.131	-0.114
-403.252	-200.000	-0.044	-0.350
-402.238	-200.000	-0.034	0.225
-401.223	-70.821	-0.246	-0.092
-400.209	467.645	0.017	-0.037
-399.194	-2.653	0.229	-0.159
-398.179	-92.468	0.532	0.148
-397.165	-17.842	-0.261	0.162
-396.150	-61.396	0.333	-0.139
-395.136	171.645	-0.142	0.203
-394.121	-108.376	0.243	0.052
-393.106	800.000	-0.037	0.150
-392.092	10.112	0.066	0.050
-391.077	-82.707	0.243	0.078
-390.063	800.000	0.051	0.215
-389.048	800.000	0.098	-0.277
-388.033	-100.150	0.246	0.061
-387.019	-34.921	-0.248	0.134
-386.004	73.914	0.122	0.127
-384.990	-200.000	0.002	-0.069
-383.975	-188.325	0.204	0.003
-382.960	42.826	-0.041	0.037
-381.946	78.137	-0.155	-0.164
-380.931	19.233	-0.131	0.104
-379.917	-107.104	0.308	0.067
-378.902	-15.900	-0.110	0.069
-377.888	685.015	-0.142	0.368
-376.873	221.599	0.202	0.322
-375.858	-42.233	-0.463	0.234
-374.844	68.319	0.085	-0.087
-373.829	42.847	0.109	-0.099
-372.815	60.121	0.259	0.254
-371.800	51.558	-0.163	-0.153
-370.785	-160.301	-0.435	-0.023
-369.771	-17.003	-0.202	-0.126
-368.756	-55.681	-0.093	0.041
-367.742	-164.965	-0.043	-0.002
-366.727	-200.000	-0.016	0.124
-365.712	196.183	0.060	-0.090
-364.698	516.967	-0.066	0.152
-363.683	-121.729	0.054	0.009
-362.669	97.161	0.074	-0.084
-361.654	310.374	0.041	-0.075
-360.639	800.000	0.017	0.064
-359.625	130.579	0.184	-0.234
-358.610	-179.843	0.079	0.002
-357.596	-108.563	0.124	-0.026
-356.581	99.945	0.092	0.105
-355.566	800.000	0.061	0.222
-354.552	261.051	-0.119	0.204
-353.537	48.142	-0.123	0.114
-352.523	-120.283	-0.207	0.035
-351.508	145.552	0.090	0.120
-350.493	67.987	-0.094	0.095
-349.479	-73.543	0.077	0.028
-348.464	-200.000	-0.040	0.222
-347.450	-27.046	-0.046	-0.027
-346.435	800.000	-0.042	-0.114
-345.420	332.839	0.168	-0.321
-344.406	60.579	-0.181	0.177
-343.391	64.627	-0.061	-0.061
-342.377	-200.000	-0.067	0.352
-341.362	50.652	-0.161	-0.151
-340.348	-56.145	0.087	0.038
-339.333	-78.978	-0.394	-0.133
-338.318	-88.789	-0.132	0.039
-337.304	800.000	-0.071	-0.250
-336.289	-200.000	-0.003	0.014
-335.275	43.606	0.167	0.152
-334.260	11.988	0.111	-0.084
-333.245	88.082	-0.172	-0.189
-332.231	-23.489	0.100	-0.059
-331.216	184.276	0.167	0.245
-330.202	97.720	-0.226	-0.258
-329.187	-98.583	-0.195	-0.049
-328.172	490.635	0.093	-0.210
-327.158	-9.896	0.204	-0.134
-326.143	-110.335	-0.096	-0.020
-325.129	17.191	0.291	-0.228
-324.114	43.864	-0.219	0.198
-323.099	455.946	-0.073	0.161
-322.085	-200.000	0.042	-0.262
-321.070	-200.000	0.100	-0.575
-320.056	547.251	0.148	0.351
-319.041	-66.802	-0.162	0.063
-318.026	-198.991	-0.145	0.001
-317.012	-59.544	0.123	0.052
-315.997	-122.040	-0.218	-0.035
-314.983	127.543	-0.054	-0.068
-313.968	-88.262	-0.152	0.045
-312.953	139.128	0.172	-0.224
-311.939	512.661	0.067	-0.154
-310.924	34.713	-0.144	-0.124
-309.910	88.359	0.042	0.046
-308.895	-29.588	-0.222	0.125
-307.880	216.072	0.131	-0.206
-306.866	51.902	0.196	0.185
-305.851	41.322	0.064	0.057
-304.837	202.517	0.047	0.071
-303.822	-108.093	0.322	0.069
-302.807	-200.000	-0.012	0.238
-301.793	17.542	-0.142	-0.111
-300.778	156.311	0.154	0.210
-299.764	303.095	0.219	0.402
-298.749	19.804	-0.228	0.181
-297.735	124.087	0.165	0.205
-296.720	368.293	-0.073	-0.146
-295.705	438.868	0.108	0.232
-294.691	323.788	-0.093	0.175
-293.676	800.000	0.078	-0.282
-292.662	-126.714	0.346	0.051
-291.647	218.192	0.091	0.143
-290.632	-200.000	-0.002	-0.287
-289.618	674.086	0.029	-0.075
-288.603	800.000	0.069	0.227
-287.589	-109.837	0.257	0.053
-286.574	-200.000	-0.057	-0.280
-285.559	-136.111	0.327	0.038
-284.545	800.000	0.091	-0.330
-283.530	-50.710	-0.223	0.104
-282.516	67.669	0.174	-0.176
-281.501	-200.000	-0.023	-0.110
-280.486	-170.732	-0.461	-0.016
-279.472	-47.159	0.352	-0.170
-278.457	-156.568	0.043	-0.003
-277.443	-44.533	-0.299	-0.147
-276.428	341.455	-0.118	-0.228
-275.413	-106.726	0.230	-0.050
-274.399	8.973	0.066	-0.049
-273.384	-33.300	-0.156	0.085
-272.370	-200.000	-0.050	-0.256
-271.355	313.917	-0.040	-0.074
-270.340	-129.696	0.333	0.045
-269.326	-26.399	0.064	0.037
-268.311	-139.111	0.101	-0.011
-267.297	-28.666	0.251	-0.143
-266.282	-56.352	-0.075	0.033
-265.267	-55.385	-0.018	-0.008
-264.253	-45.927	-0.316	-0.154
-263.238	800.000	-0.017	0.069
-262.224	306.951	0.041	-0.076
-261.209	12.389	0.328	-0.250
-260.195	-87.999	-0.252	-0.075
-259.180	168.751	-0.137	0.192
-258.165	-200.000	0.029	-0.212
-257.151	-30.666	-0.173	-0.097
-256.136	177.033	0.149	0.214
-255.122	-200.000	0.043	-0.218
-254.107	-8.554	0.183	-0.121
-253.092	58.709	0.151	0.146
-252.078	104.579	-0.096	-0.112
-251.063	-96.920	-0.039	0.010
-250.049	-44.517	-0.207	-0.102
-249.034	12.327	0.259	-0.197
-248.019	-200.000	-0.084	-0.409
-247.005	-25.844	-0.253	0.147
-245.990	-200.000	-0.006	0.182
-244.976	-200.000	-0.005	-0.325
-243.961	797.758	0.012	-0.032
-242.946	91.759	0.170	-0.188
-241.932	-125.467	0.169	-0.025
-240.917	-117.279	0.100	0.018
-239.903	-16.144	0.363	0.227
-238.888	-82.415	0.197	0.063
-237.873	-50.107	0.277	0.129
-236.859	264.751	-0.035	-0.061
-235.844	-92.638	-0.260	0.072
-234.830	-200.000	0.046	0.214
-233.815	-87.244	-0.288	-0.086
-232.800	-109.653	-0.114	0.024
-231.786	-70.477	-0.264	-0.098
-230.771	636.349	-0.041	0.102
-229.757	238.267	-0.102	0.166
-228.742	386.973	-0.147	-0.299
-227.727	-172.455	0.132	-0.004
-226.713	-53.008	-0.082	0.037
-225.698	800.000	-0.028	0.087
-224.684	-137.828	0.131	-0.014
-223.669	-125.389	0.063	0.010
-222.655	-200.000	0.040	-0.196
-221.640	-90.200	-0.318	0.091
-220.625	439.088	-0.087	-0.188
-219.611	482.762	0.087	0.195
-218.596	-200.000	0.005	0.070
-217.582	-102.731	0.103	0.024
-216.567	7.749	0.215	-0.158
-215.552	-200.000	-0.049	0.376
-214.538	218.166	-0.121	-0.191
-213.523	-200.000	-0.029	-0.193
-212.509	-72.524	0.172	0.063
-211.494	-200.000	0.001	0.146
-210.479	800.000	0.028	0.085
-209.465	572.240	-0.121	-0.290
-208.450	-57.186	-0.033	0.014
-207.436	168.362	0.207	0.291
-206.421	-200.000	-0.017	0.165
-205.406	116.710	-0.136	-0.164
-204.392	-200.000	-0.002	0.194
-203.377	-40.571	0.221	0.113
-202.363	120.901	0.131	-0.160
-201.348	100.973	-0.093	0.106
-200.333	-8.098	0.232	0.154
-199.319	-105.054	-0.469	0.106
-198.304	-36.956	-0.216	0.114
-197.290	358.263	0.088	0.172
-196.275	-17.526	0.205	0.127
-195.260	-172.765	0.322	-0.010
-194.246	758.214	-0.022	0.059
-193.231	3.358	0.194	-0.139
-192.217	-40.633	0.468	-0.239
-191.202	13.273	-0.228	-0.174
-190.187	-119.620	0.054	0.009
-189.173	70.499	0.158	-0.161
-188.158	800.000	-0.069	-0.237
-187.144	-18.581	-0.303	0.186
-186.129	604.243	-0.037	-0.091
-185.114	-54.801	0.278	-0.124
-184.100	-88.875	-0.257	-0.075
-183.085	125.630	-0.159	0.197
-182.071	-22.700	0.229	0.136
-181.056	-200.000	-0.019	-0.250
-180.042	-127.626	0.140	0.020
-179.027	-164.579	0.262	-0.012
-178.012	-146.485	-0.243	-0.021
-176.998	-56.449	0.289	-0.126
-175.983	-99.440	-0.110	-0.027
-174.969	40.536	0.162	-0.143
-173.954	478.399	0.148	0.329
-172.939	-200.000	0.016	-0.093
-171.925	244.986	0.121	0.200
-170.910	23.905	0.212	0.172
-169.896	277.374	-0.153	0.267
-168.881	296.157	-0.100	0.180
-167.866	72.019	0.138	0.141
-166.852	-37.222	-0.035	-0.018
-165.837	-200.000	0.024	-0.207
-164.823	-79.896	0.317	-0.105
-163.808	1.949	0.131	-0.093
-162.793	22.088	-0.084	-0.067
-161.779	186.214	0.118	-0.172
-160.764	53.396	-0.099	-0.094
-159.750	800.000	-0.055	-0.216
-158.735	-200.000	-0.026	0.398
-157.720	69.311	0.153	0.155
-156.706	-25.285	-0.017	-0.010
-155.691	406.234	-0.061	-0.127
-154.677	-200.000	0.028	0.354
-153.662	316.672	0.036	-0.067
-152.647	221.004	0.202	0.319
-151.633	327.049	-0.089	-0.168
-150.618	-62.711	0.075	-0.031
-149.604	206.191	0.189	0.288
-148.589	384.828	0.177	0.359
-147.574	800.000	-0.036	-0.098
-146.560	-113.326	-0.053	-0.010
-145.545	-200.000	-0.058	-0.402
-144.531	-200.000	-0.036	-0.155
-143.516	-62.466	0.197	0.080
-142.502	29.839	0.137	-0.114
-141.487	800.000	0.050	0.146
-140.472	-54.724	0.198	0.088
-139.458	-145.795	-0.466	-0.041
-138.443	-165.891	0.398	0.017
-137.429	-8.500	0.048	-0.031
-136.414	800.000	0.026	0.103
-135.399	-200.000	-0.020	-0.095
-134.385	-200.000	-0.003	-0.160
-133.370	800.000	0.037	-0.157
-132.356	800.000	-0.035	-0.120
-131.341	-200.000	0.033	0.235
-130.326	-200.000	-0.006	0.081
-129.312	127.395	0.145	-0.180
-128.297	-200.000	0.010	-0.246
-127.283	800.000	0.029	0.093
-126.268	7.181	-0.130	0.096
-125.253	-200.000	-0.015	-0.214
-124.239	800.000	0.151	-0.415
-123.224	-87.149	-0.358	0.107
-122.210	440.501	-0.022	0.048
-121.195	-113.573	-0.112	0.021
