DTS Sentinel unit serial number:	SN413079Multiplexer serial number:	ORYXHardware model number:	OX4-SRSoftware version number:	ORYX F/W v4.00 Oryx Data Collector v3.7.2.0data status	okinstallation	princeton_trtdifferential loss correction	single-endedforward channel	channel 2reverse channel	N/Adate	2019/09/13time	20:27:34forward acquisition time	60.00reverse acquisition time	0.00gamma	496.2192k internal	0.2334k external	0.2334temperature offset calibration	1.0136default loss term (dB/km)	0.3790temperature slope calibration	1.0000multiplexer offset coefficient	1.0000multiplexer slope coefficient	1.0000fibre end	0.00T internal ref (°C)	29.16T ext. ref 1 (°C)	3.26T ext. ref 2 (°C)	23.65length (m)	temperature (°C)	Stokes	anti-Stokes-747.200	65.609	-0.104	0.106
-746.185	-200.000	-0.028	0.155
-745.171	-200.000	0.007	0.348
-744.156	-19.394	-0.294	-0.183
-743.142	-33.191	-0.036	-0.020
-742.127	-94.688	0.326	0.089
-741.112	-200.000	0.005	-0.261
-740.098	317.642	-0.244	0.463
-739.083	255.834	0.180	0.311
-738.069	28.922	-0.215	0.183
-737.054	-103.627	0.458	0.108
-736.039	72.506	-0.332	-0.348
-735.025	14.044	0.254	0.199
-734.010	-118.246	0.153	-0.027
-732.996	-70.286	-0.077	0.029
-731.981	196.211	-0.154	0.235
-730.966	-29.972	0.051	0.029
-729.952	-200.000	-0.022	-0.409
-728.937	114.602	-0.189	-0.232
-727.923	164.826	-0.073	0.103
-726.908	241.355	0.117	-0.197
-725.894	188.019	-0.135	-0.203
-724.879	84.637	-0.099	-0.109
-723.864	515.361	-0.018	0.043
-722.850	209.957	-0.217	0.342
-721.835	-6.817	-0.140	-0.096
-720.821	-150.871	0.144	0.011
-719.806	38.196	0.116	-0.104
-718.791	-142.814	0.248	0.024
-717.777	-143.642	-0.198	-0.019
-716.762	-102.118	-0.086	0.021
-715.748	269.523	0.179	-0.316
-714.733	147.339	0.069	-0.093
-713.718	-111.958	0.550	0.111
-712.704	604.828	-0.063	-0.157
-711.689	-50.606	-0.122	0.058
-710.675	-200.000	-0.014	0.106
-709.660	333.488	0.033	0.064
-708.645	-200.000	-0.005	0.061
-707.631	-129.455	-0.164	-0.023
-706.616	-15.328	0.195	-0.125
-705.602	-98.837	-0.209	0.053
-704.587	-200.000	-0.052	-0.233
-703.572	30.786	-0.222	-0.191
-702.558	-140.683	-0.105	-0.011
-701.543	66.366	-0.326	0.333
-700.529	-200.000	-0.006	-0.155
-699.514	17.437	-0.401	0.320
-698.499	273.379	-0.028	-0.049
-697.485	176.859	-0.209	0.305
-696.470	800.000	-0.027	-0.098
-695.456	1.957	-0.107	0.077
-694.441	800.000	0.112	0.370
-693.426	-57.126	0.156	0.069
-692.412	194.422	-0.129	0.196
-691.397	800.000	0.035	0.124
-690.383	26.830	-0.104	0.087
-689.368	-141.504	-0.175	0.018
-688.354	57.695	-0.183	-0.179
-687.339	-83.156	0.249	-0.080
-686.324	-85.289	0.137	0.043
-685.310	570.572	0.107	0.261
-684.295	-200.000	0.010	0.158
-683.281	46.702	0.217	0.202
-682.266	-54.274	0.120	0.055
-681.251	244.042	0.094	0.158
-680.237	-87.697	-0.159	-0.048
-679.222	-200.000	0.002	-0.124
-678.208	-18.143	-0.125	-0.079
-677.193	22.341	-0.114	0.093
-676.178	-174.134	0.255	-0.007
-675.164	-200.000	0.009	0.231
-674.149	-73.131	-0.324	-0.119
-673.135	-200.000	0.027	-0.195
-672.120	48.053	0.162	-0.152
-671.105	-57.818	-0.371	-0.163
-670.091	110.700	-0.157	-0.189
-669.076	-85.843	0.339	0.105
-668.062	-94.489	-0.113	-0.031
-667.047	13.861	0.145	0.113
-666.032	-20.602	-0.112	0.069
-665.018	-200.000	0.001	0.098
-664.003	-200.000	-0.009	-0.080
-662.989	-90.677	0.153	0.044
-661.974	-86.098	-0.115	0.036
-660.959	-109.267	0.030	0.006
-659.945	-200.000	-0.020	0.214
-658.930	-173.680	-0.285	-0.009
-657.916	-9.372	0.350	-0.234
-656.901	-200.000	-0.025	0.243
-655.886	-135.051	-0.273	-0.033
-654.872	76.187	0.228	-0.241
-653.857	800.000	0.013	0.053
-652.843	154.540	-0.084	-0.115
-651.828	-78.356	-0.286	0.098
-650.814	38.811	-0.163	0.145
-649.799	294.113	-0.074	-0.135
-648.784	-58.389	0.141	0.061
-647.770	134.419	-0.025	-0.033
-646.755	-85.240	0.107	0.034
-645.741	-10.782	0.074	0.049
-644.726	92.123	-0.062	0.070
-643.711	7.684	-0.149	-0.112
-642.697	-43.924	0.317	0.159
-641.682	-71.237	0.351	0.132
-640.668	131.241	-0.263	-0.338
-639.653	800.000	0.030	-0.111
-638.638	-200.000	0.009	-0.283
-637.624	-26.509	-0.280	0.164
-636.609	-46.353	-0.168	0.083
-635.595	9.833	0.077	0.058
-634.580	143.045	-0.132	0.176
-633.565	30.058	-0.132	0.113
-632.551	-200.000	0.011	0.202
-631.536	-100.427	-0.038	0.009
-630.522	-76.123	-0.354	0.125
-629.507	190.756	-0.122	0.184
-628.492	58.420	-0.291	0.285
-627.478	-86.929	0.109	-0.033
-626.463	33.425	0.099	0.086
-625.449	-200.000	-0.015	0.257
-624.434	-62.374	-0.215	-0.089
-623.419	-97.807	-0.154	-0.040
-622.405	37.064	0.179	0.158
-621.390	-84.253	0.129	0.041
-620.376	292.284	-0.124	0.225
-619.361	-200.000	-0.032	-0.173
-618.346	-122.812	0.094	-0.015
-617.332	-76.241	-0.320	-0.113
-616.317	-200.000	0.002	-0.171
-615.303	-109.117	-0.324	0.069
-614.288	348.678	-0.017	0.033
-613.273	-57.936	0.189	0.082
-612.259	108.535	-0.181	-0.216
-611.244	29.761	-0.154	0.131
-610.230	-200.000	0.012	0.090
-609.215	-26.690	0.226	0.132
-608.201	800.000	0.045	0.169
-607.186	129.461	0.138	-0.176
-606.171	-53.999	0.170	-0.077
-605.157	-195.532	-0.370	-0.003
-604.142	-72.788	0.351	-0.129
-603.128	-153.248	-0.256	0.018
-602.113	-57.675	-0.118	-0.052
-601.098	-27.774	0.321	0.186
-600.084	-89.248	-0.182	0.054
-599.069	800.000	-0.055	-0.234
-598.055	-200.000	-0.025	-0.204
-597.040	374.734	0.089	0.181
-596.025	-200.000	0.001	0.057
-595.011	-77.829	-0.242	-0.084
-593.996	298.318	0.110	-0.203
-592.982	84.584	-0.148	0.162
-591.967	-114.294	0.149	-0.029
-590.952	-176.466	0.343	0.009
-589.938	362.742	0.049	-0.098
-588.923	75.784	-0.234	-0.247
-587.909	133.212	-0.102	-0.132
-586.894	-136.939	-0.099	-0.011
-585.879	257.214	0.099	-0.170
-584.865	-91.599	0.185	-0.053
-583.850	-187.389	-0.060	0.001
-582.836	-24.562	-0.112	0.067
-581.821	97.239	0.090	-0.103
-580.806	-153.605	0.281	0.019
-579.792	-2.882	0.094	-0.065
-578.777	114.394	0.325	-0.396
-577.763	274.277	0.046	-0.081
-576.748	-118.248	0.149	-0.026
-575.733	56.944	0.167	0.163
-574.719	37.993	-0.096	0.085
-573.704	470.171	-0.121	0.272
-572.690	154.385	-0.081	-0.111
-571.675	374.812	0.130	0.264
-570.661	119.403	0.071	-0.088
-569.646	-200.000	-0.002	-0.387
-568.631	-0.082	0.111	0.079
-567.617	-200.000	0.030	0.207
-566.602	435.711	-0.085	-0.184
-565.588	-41.803	0.210	0.107
-564.573	-200.000	0.036	-0.236
-563.558	107.563	0.049	0.059
-562.544	93.261	-0.136	-0.154
-561.529	-59.964	-0.256	-0.109
-560.515	-25.890	-0.222	0.130
-559.500	-111.239	-0.171	-0.035
-558.485	800.000	0.076	-0.213
-557.471	-106.936	0.231	-0.051
-556.456	-21.091	-0.058	0.035
-555.442	14.649	0.026	0.020
-554.427	-126.913	-0.188	0.028
-553.412	126.228	-0.095	-0.120
-552.398	-200.000	-0.045	-0.256
-551.383	-188.168	-0.309	-0.004
-550.369	-59.159	-0.255	0.110
-549.354	-102.463	0.359	-0.086
-548.339	-119.943	0.242	0.041
-547.325	66.726	0.096	0.097
-546.310	5.006	-0.051	-0.037
-545.296	194.542	0.075	-0.114
-544.281	194.522	0.131	0.199
-543.266	-200.000	-0.022	-0.243
-542.252	25.264	0.028	-0.023
-541.237	36.394	0.210	0.184
-540.223	161.475	0.102	0.143
-539.208	800.000	-0.091	0.310
-538.193	47.139	0.139	0.129
-537.179	-86.482	0.344	-0.105
-536.164	-144.546	-0.167	0.015
-535.150	16.697	-0.206	-0.162
-534.135	-143.820	-0.092	-0.009
-533.121	-200.000	-0.011	0.126
-532.106	111.331	0.055	-0.066
-531.091	-4.690	0.025	0.017
-530.077	377.114	-0.032	0.065
-529.062	-38.157	-0.307	-0.162
-528.048	-200.000	0.018	0.154
-527.033	191.441	0.214	0.321
-526.018	-9.389	-0.119	0.079
-525.004	-65.480	0.147	0.059
-523.989	307.861	0.222	-0.412
-522.975	-47.936	-0.022	0.011
-521.960	-200.000	0.068	0.381
-520.945	-75.936	-0.445	0.157
-519.931	-60.565	0.051	0.021
-518.916	-200.000	0.025	-0.319
-517.902	-64.992	0.064	0.026
-516.887	800.000	0.025	-0.087
-515.872	14.153	-0.089	-0.069
-514.858	13.488	-0.265	-0.205
-513.843	23.009	0.278	-0.227
-512.829	322.555	0.016	0.030
-511.814	435.010	0.033	-0.072
-510.799	-200.000	0.037	-0.403
-509.785	-74.320	0.062	0.022
-508.770	800.000	-0.041	0.139
-507.756	-12.212	0.132	-0.086
-506.741	293.042	-0.093	0.169
-505.726	-200.000	0.009	0.159
-504.712	195.516	-0.149	-0.225
-503.697	256.900	0.262	-0.448
-502.683	-97.710	0.397	-0.102
-501.668	275.081	-0.061	0.107
-500.653	-47.779	-0.235	0.114
-499.639	800.000	0.035	0.112
-498.624	800.000	-0.034	-0.095
-497.610	-200.000	-0.000	0.034
-496.595	1.066	-0.100	-0.071
-495.581	800.000	0.032	-0.109
-494.566	39.213	0.144	0.128
-493.551	218.777	-0.149	-0.237
-492.537	-100.208	-0.211	0.052
-491.522	-28.053	0.113	-0.065
-490.508	34.156	-0.092	-0.079
-489.493	-200.000	-0.012	-0.310
-488.478	-90.901	0.659	0.189
-487.464	-200.000	-0.045	0.330
-486.449	-29.062	-0.400	-0.228
-485.435	-137.323	-0.481	-0.054
-484.420	-84.607	-0.188	0.059
-483.405	-23.669	-0.133	-0.079
-482.391	26.274	-0.077	0.064
-481.376	225.263	0.082	-0.132
-480.362	322.869	0.097	-0.184
-479.347	-200.000	-0.021	-0.181
-478.332	-167.363	-0.098	-0.004
-477.318	131.215	0.104	-0.133
-476.303	366.619	0.132	-0.264
-475.289	-200.000	-0.044	-0.195
-474.274	-81.513	0.163	0.053
-473.259	-114.298	-0.267	0.051
-472.245	-125.687	-0.065	0.010
-471.230	17.362	-0.162	-0.128
-470.216	234.852	0.058	0.095
-469.201	87.007	-0.263	0.289
-468.186	32.508	-0.190	0.163
-467.172	313.040	0.082	0.153
-466.157	384.227	0.117	0.240
-465.143	-200.000	-0.014	0.060
-464.128	739.559	0.162	-0.431
-463.113	-75.977	-0.248	-0.087
-462.099	-174.491	-0.185	-0.005
-461.084	-75.350	0.271	-0.096
-460.070	800.000	-0.010	0.042
-459.055	132.041	0.176	0.226
-458.040	211.005	-0.091	0.142
-457.026	6.154	0.323	0.238
-456.011	-78.658	0.163	0.055
-454.997	52.728	-0.183	-0.173
-453.982	-46.503	0.173	-0.084
-452.968	-181.529	0.189	0.004
-451.953	-124.483	0.162	0.025
-450.938	-24.965	-0.084	-0.050
-449.924	420.220	-0.032	0.069
-448.909	-200.000	-0.006	-0.219
-447.895	398.258	0.024	0.050
-446.880	101.945	-0.226	0.263
-445.865	-11.817	0.386	0.252
-444.851	171.743	-0.153	-0.218
-443.836	-200.000	0.099	0.530
-442.822	-199.453	0.449	0.002
-441.807	69.509	-0.176	-0.180
-440.792	15.899	0.212	0.166
-439.778	-117.467	-0.355	-0.064
-438.763	514.104	0.100	-0.232
-437.749	33.416	-0.109	-0.094
-436.734	-200.000	-0.036	-0.277
-435.719	100.725	0.266	-0.307
-434.705	56.658	0.077	0.074
-433.690	47.303	0.162	-0.150
-432.676	231.454	0.194	0.315
-431.661	73.243	-0.281	0.292
-430.646	147.587	-0.125	-0.167
-429.632	41.018	-0.122	0.109
-428.617	-183.637	0.508	-0.009
-427.603	-94.324	0.105	-0.029
-426.588	-6.020	-0.188	0.127
-425.573	64.255	-0.235	0.235
-424.559	-37.870	-0.132	-0.070
-423.544	-113.499	-0.113	-0.022
-422.530	-35.737	0.181	-0.097
-421.515	-98.382	0.320	0.081
-420.500	800.000	-0.030	-0.097
-419.486	-176.714	-0.237	-0.006
-418.471	-118.746	0.179	0.031
-417.457	360.984	0.026	0.052
-416.442	-127.315	-0.114	-0.017
-415.428	-100.173	-0.194	0.048
-414.413	-200.000	-0.005	0.185
-413.398	-114.441	-0.175	-0.033
-412.384	800.000	0.077	0.237
-411.369	-128.331	-0.055	0.008
-410.355	225.774	-0.166	-0.267
-409.340	-163.660	0.211	-0.010
-408.325	-200.000	0.017	0.221
-407.311	-15.932	-0.132	-0.083
-406.296	800.000	-0.044	-0.190
-405.282	184.807	0.179	-0.263
-404.267	115.751	-0.055	-0.067
-403.252	-200.000	0.032	0.161
-402.238	-24.717	-0.364	-0.215
-401.223	-200.000	-0.029	0.195
-400.209	-5.275	-0.156	0.106
-399.194	-200.000	-0.044	0.255
-398.179	36.935	0.295	0.259
-397.165	445.817	-0.035	0.076
-396.150	800.000	0.078	0.281
-395.136	45.722	0.141	0.129
-394.121	800.000	-0.088	-0.260
-393.106	105.954	0.103	0.121
-392.092	-200.000	-0.013	0.116
-391.077	570.441	-0.046	0.111
-390.063	97.946	-0.123	0.140
-389.048	-200.000	0.032	-0.320
-388.033	-200.000	-0.024	-0.204
-387.019	181.020	-0.131	-0.191
-386.004	137.499	0.287	-0.372
-384.990	449.312	0.066	0.145
-383.975	745.566	0.042	-0.111
-382.960	128.044	0.385	0.485
-381.946	60.236	0.231	-0.226
-380.931	-48.188	0.393	-0.188
-379.917	-186.134	-0.238	-0.003
-378.902	-200.000	-0.013	0.077
-377.888	-200.000	0.004	0.257
-376.873	32.495	0.153	-0.131
-375.858	7.564	0.065	0.048
-374.844	781.943	-0.082	0.223
-373.829	-92.252	-0.152	0.043
-372.815	-90.799	-0.155	-0.044
-371.800	-102.651	-0.212	-0.050
-370.785	-43.539	0.414	0.207
-369.771	82.458	-0.007	0.008
-368.756	-103.082	0.079	0.019
-367.742	235.789	0.122	0.200
-366.727	308.405	-0.052	0.096
-365.712	-159.022	0.137	0.008
-364.698	103.345	0.257	0.298
-363.683	800.000	-0.018	-0.076
-362.669	-110.690	-0.110	0.022
-361.654	487.205	-0.105	0.236
-360.639	-200.000	-0.016	0.204
-359.625	-49.511	0.172	-0.081
-358.610	-99.927	0.271	-0.067
-357.596	-136.076	-0.173	0.020
-356.581	-103.862	-0.420	-0.097
-355.566	63.012	-0.107	0.106
-354.552	-200.000	0.038	-0.317
-353.537	-159.216	-0.343	0.019
-352.523	440.334	0.110	0.237
-351.508	800.000	0.034	-0.128
-350.493	16.938	-0.115	0.090
-349.479	-36.681	-0.254	0.135
-348.464	-200.000	0.002	0.264
-347.450	-200.000	0.002	-0.360
-346.435	3.865	-0.146	-0.105
-345.420	-8.326	0.072	-0.048
-344.406	-30.670	0.082	-0.046
-343.391	800.000	-0.046	0.169
-342.377	12.744	-0.036	0.028
-341.362	24.410	0.066	-0.054
-340.348	-175.021	-0.201	0.006
-339.333	-200.000	-0.041	0.348
-338.318	-142.893	0.087	0.008
-337.304	-200.000	-0.002	-0.191
-336.289	-67.946	-0.211	0.081
-335.275	800.000	0.046	0.126
-334.260	173.815	-0.045	-0.064
-333.245	-194.515	-0.100	-0.001
-332.231	800.000	0.056	-0.208
-331.216	-38.150	-0.330	-0.173
-330.202	800.000	-0.123	-0.347
-329.187	-61.170	0.238	0.099
-328.172	-53.527	-0.275	-0.124
-327.158	-127.392	0.185	0.027
-326.143	-200.000	0.003	0.175
-325.129	-200.000	-0.009	-0.303
-324.114	-200.000	-0.067	-0.299
-323.099	-200.000	0.018	-0.181
-322.085	25.129	-0.281	0.231
-321.070	-200.000	-0.052	0.264
-320.056	800.000	0.095	-0.379
-319.041	494.527	0.074	0.168
-318.026	-126.611	-0.280	0.041
-317.012	54.900	0.160	0.153
-315.997	800.000	0.013	0.050
-314.983	800.000	-0.139	-0.559
-313.968	203.794	0.063	-0.097
-312.953	5.597	0.259	-0.189
-311.939	141.005	-0.096	0.126
-310.924	-78.369	0.220	0.075
-309.910	104.099	0.193	-0.224
-308.895	-152.307	-0.284	0.020
-307.880	-99.138	0.256	-0.064
-306.866	-134.544	-0.229	0.028
-305.851	-55.967	0.299	-0.132
-304.837	82.593	-0.094	-0.101
-303.822	800.000	0.026	0.091
-302.807	-48.083	-0.146	0.070
-301.793	-28.612	-0.199	0.114
-300.778	-200.000	0.021	0.161
-299.764	328.654	0.210	-0.399
-298.749	119.698	-0.208	0.254
-297.735	-74.326	-0.394	0.141
-296.720	65.443	0.140	0.140
-295.705	-90.500	0.088	-0.025
-294.691	-200.000	-0.011	-0.206
-293.676	-69.038	0.135	0.051
-292.662	-93.038	-0.291	-0.080
-291.647	-78.942	-0.229	0.077
-290.632	800.000	0.045	0.146
-289.618	-50.976	0.379	-0.176
-288.603	800.000	-0.073	-0.246
-287.589	132.636	0.227	-0.290
-286.574	800.000	-0.093	-0.277
-285.559	-200.000	0.020	0.118
-284.545	-16.744	-0.062	-0.039
-283.530	-120.442	0.171	0.029
-282.516	-39.274	-0.124	-0.064
-281.501	20.575	-0.103	0.082
-280.486	-139.817	0.430	0.045
-279.472	80.143	-0.197	0.210
-278.457	800.000	0.027	-0.100
-277.443	-90.927	0.145	-0.041
-276.428	70.359	-0.247	-0.252
-275.413	314.058	0.056	-0.104
-274.399	-200.000	0.004	0.168
-273.384	-200.000	-0.017	0.176
-272.370	-44.423	0.104	-0.051
-271.355	190.783	0.070	0.104
-270.340	66.759	0.078	-0.078
-269.326	-39.458	0.221	-0.114
-268.311	-20.535	0.291	0.176
-267.297	-53.724	0.142	-0.064
-266.282	91.555	0.117	-0.130
-265.267	-56.881	-0.105	-0.046
-264.253	241.232	0.167	0.275
-263.238	-25.064	-0.238	0.139
-262.224	-101.592	0.112	0.027
-261.209	-9.057	-0.078	0.051
-260.195	290.925	0.005	0.008
-259.180	-200.000	0.019	-0.108
-258.165	-200.000	0.018	-0.400
-257.151	-115.956	0.111	-0.020
-256.136	-200.000	0.014	-0.209
-255.122	110.471	-0.149	-0.177
-254.107	800.000	0.048	-0.158
-253.092	-113.962	0.086	-0.016
-252.078	-135.761	0.215	-0.025
-251.063	-200.000	-0.014	-0.091
-250.049	509.355	-0.011	-0.026
-249.034	-153.595	-0.075	0.005
-248.019	800.000	0.049	0.198
-247.005	-106.707	0.200	-0.044
-245.990	724.696	0.128	0.336
-244.976	-24.348	-0.060	0.035
-243.961	129.118	-0.329	0.414
-242.946	-200.000	-0.060	0.313
-241.932	85.104	0.075	-0.082
-240.917	800.000	-0.038	-0.154
-239.903	800.000	0.038	-0.119
-238.888	-200.000	0.025	-0.124
-237.873	-200.000	-0.048	-0.217
-236.859	800.000	0.076	-0.295
-235.844	-193.750	-0.226	0.002
-234.830	313.179	-0.087	0.162
-233.815	-200.000	0.008	-0.150
-232.800	-61.384	-0.126	0.052
-231.786	-26.892	-0.315	0.181
-230.771	-183.546	-0.257	0.004
-229.757	-124.408	-0.208	-0.032
-228.742	43.981	-0.100	-0.091
-227.727	-54.785	-0.333	0.148
-226.713	-167.844	-0.048	0.002
-225.698	-78.229	-0.231	-0.078
-224.684	284.604	0.003	0.005
-223.669	227.759	-0.079	-0.126
-222.655	79.414	-0.156	0.165
-221.640	-200.000	-0.106	-0.464
-220.625	-92.077	0.067	-0.019
-219.611	103.918	-0.150	0.173
-218.596	243.293	0.059	-0.098
-217.582	260.560	0.031	0.053
-216.567	31.881	-0.113	0.096
-215.552	-68.016	0.183	-0.070
-214.538	376.224	0.145	-0.290
-213.523	-47.338	0.313	0.150
-212.509	53.202	-0.155	-0.147
-211.494	800.000	-0.089	0.277
-210.479	48.534	0.262	0.242
-209.465	-74.558	-0.089	0.032
-208.450	13.226	-0.165	0.126
-207.436	231.556	0.148	0.239
-206.421	683.492	0.075	0.193
-205.406	440.077	0.107	0.230
-204.392	800.000	0.128	0.446
-203.377	-82.365	0.115	0.037
-202.363	-200.000	-0.015	-0.256
-201.348	-39.790	0.226	-0.116
-200.333	-30.284	-0.304	-0.170
-199.319	11.640	0.168	0.127
-198.304	-64.463	0.381	0.152
-197.290	128.471	-0.151	0.189
-196.275	-170.708	0.146	-0.005
-195.260	800.000	0.068	0.197
-194.246	-89.670	0.331	-0.096
-193.231	800.000	0.036	0.109
-192.217	151.015	0.155	-0.207
-191.202	-5.953	0.069	-0.047
-190.187	-200.000	-0.006	0.065
-189.173	27.010	0.349	0.288
-188.158	-156.032	-0.242	-0.015
-187.144	636.185	0.124	-0.309
-186.129	115.019	-0.211	-0.253
-185.114	-30.010	0.125	-0.070
-184.100	-143.299	0.208	-0.020
-183.085	392.442	0.185	0.378
-182.071	96.399	-0.211	0.238
-181.056	-118.334	-0.242	-0.042
-180.042	229.510	0.119	-0.191
-179.027	279.612	-0.096	-0.169
-178.012	-77.343	-0.261	-0.089
-176.998	-29.850	0.308	0.173
-175.983	800.000	0.037	0.120
-174.969	-31.174	-0.251	0.139
-173.954	-200.000	0.013	0.178
-172.939	-200.000	-0.037	0.338
-171.925	431.673	0.063	-0.134
-170.910	50.104	-0.237	0.220
-169.896	15.000	-0.239	-0.184
-168.881	-95.066	-0.149	-0.040
-167.866	508.751	0.016	-0.037
-166.852	-81.206	0.267	-0.087
-165.837	441.012	0.036	0.077
-164.823	-200.000	0.035	0.176
-163.808	800.000	-0.116	0.315
-162.793	287.679	0.082	-0.147
-161.779	-200.000	0.007	-0.517
-160.764	-52.846	0.241	0.109
-159.750	800.000	-0.052	-0.217
-158.735	3.957	0.149	-0.107
-157.720	-96.661	-0.195	-0.050
-156.706	-200.000	0.049	0.225
-155.691	194.015	0.082	0.122
-154.677	-44.386	-0.133	0.065
-153.662	-200.000	0.030	-0.184
-152.647	-145.215	0.038	0.003
-151.633	-200.000	-0.073	0.472
-150.618	90.375	0.085	0.093
-149.604	584.515	-0.068	-0.165
-148.589	693.998	0.050	-0.129
-147.574	28.695	-0.275	0.229
-146.560	-200.000	-0.009	-0.253
-145.545	-200.000	0.069	0.464
-144.531	-35.672	-0.043	-0.023
-143.516	-65.126	0.133	-0.053
-142.502	-200.000	-0.020	-0.109
-141.487	1.208	-0.299	-0.211
-140.472	180.892	-0.057	0.082
-139.458	547.556	-0.056	0.130
-138.443	-200.000	-0.102	-0.000
-137.429	-5.997	-0.203	-0.137
-136.414	-200.000	-0.039	-0.167
-135.399	-200.000	0.015	0.144
-134.385	472.302	-0.041	0.090
-133.370	-109.023	-0.363	0.076
-132.356	800.000	-0.067	0.269
-131.341	-200.000	-0.004	0.086
-130.326	-156.555	0.315	0.019
-129.312	-116.965	-0.209	-0.037
-128.297	322.819	0.131	0.244
-127.283	-174.089	-0.246	-0.007
-126.268	59.954	-0.119	-0.115
-125.253	62.317	-0.041	-0.040
-124.239	417.066	-0.076	0.160
-123.224	-66.311	0.428	0.167
-122.210	-124.847	0.061	0.009
-121.195	0.282	-0.203	-0.142
