DTS Sentinel unit serial number:	SN413079Multiplexer serial number:	ORYXHardware model number:	OX4-SRSoftware version number:	ORYX F/W v4.00 Oryx Data Collector v3.7.2.0data status	okinstallation	princeton_trtdifferential loss correction	single-endedforward channel	channel 2reverse channel	N/Adate	2019/09/14time	07:19:34forward acquisition time	60.00reverse acquisition time	0.00gamma	496.2192k internal	0.2338k external	0.2338temperature offset calibration	1.0137default loss term (dB/km)	0.3790temperature slope calibration	1.0000multiplexer offset coefficient	1.0000multiplexer slope coefficient	1.0000fibre end	0.00T internal ref (°C)	26.19T ext. ref 1 (°C)	3.46T ext. ref 2 (°C)	20.95length (m)	temperature (°C)	Stokes	anti-Stokes-747.200	241.883	0.166	0.278
-746.185	130.132	-0.156	0.200
-745.171	-13.117	0.065	-0.043
-744.156	-200.000	-0.017	0.375
-743.142	-126.844	0.223	0.033
-742.127	195.491	0.084	-0.128
-741.112	-112.675	0.168	-0.034
-740.098	0.127	-0.287	0.205
-739.083	-22.268	-0.423	0.258
-738.069	-200.000	-0.005	0.428
-737.054	-190.501	-0.075	-0.001
-736.039	-50.391	-0.217	-0.103
-735.025	-200.000	-0.015	0.374
-734.010	-200.000	0.036	-0.422
-732.996	6.672	-0.108	-0.081
-731.981	7.997	-0.044	-0.033
-730.966	-200.000	0.227	0.001
-729.952	800.000	0.076	0.300
-728.937	-200.000	0.020	0.355
-727.923	160.746	-0.123	0.173
-726.908	-200.000	0.065	-0.343
-725.894	-104.279	0.116	-0.027
-724.879	21.085	-0.191	-0.155
-723.864	171.269	-0.082	-0.117
-722.850	-3.445	-0.315	0.220
-721.835	12.841	0.238	0.184
-720.821	800.000	-0.074	0.225
-719.806	3.456	-0.191	0.140
-718.791	202.264	-0.122	-0.188
-717.777	355.615	-0.052	0.104
-716.762	-117.068	-0.086	0.016
-715.748	-200.000	-0.026	-0.261
-714.733	105.158	0.032	0.038
-713.718	165.157	-0.098	-0.139
-712.704	15.829	-0.172	-0.135
-711.689	-1.172	0.191	0.135
-710.675	-58.583	-0.076	-0.033
-709.660	796.298	-0.098	0.271
-708.645	113.362	0.119	0.145
-707.631	107.995	0.205	0.245
-706.616	22.528	-0.274	0.225
-705.602	-195.329	-0.143	0.001
-704.587	-200.000	0.067	-0.453
-703.572	-200.000	0.012	0.065
-702.558	-200.000	0.005	-0.073
-701.543	-200.000	-0.023	0.376
-700.529	217.171	-0.127	0.203
-699.514	95.362	-0.157	-0.180
-698.499	-161.025	-0.394	-0.021
-697.485	28.086	0.077	0.065
-696.470	-200.000	0.033	-0.261
-695.456	72.732	-0.184	-0.193
-694.441	108.715	0.320	-0.383
-693.426	-103.707	-0.100	-0.023
-692.412	-200.000	0.010	0.293
-691.397	-31.880	0.118	0.066
-690.383	226.853	-0.026	-0.042
-689.368	-73.165	0.196	-0.072
-688.354	-191.361	-0.241	0.002
-687.339	-200.000	0.010	0.082
-686.324	-58.373	0.371	-0.161
-685.310	-200.000	0.038	-0.378
-684.295	218.071	0.156	0.249
-683.281	18.983	-0.223	-0.179
-682.266	-200.000	-0.060	0.312
-681.251	800.000	0.034	-0.136
-680.237	-200.000	-0.038	-0.341
-679.222	312.148	0.027	0.050
-678.208	-86.239	0.076	-0.023
-677.193	800.000	-0.076	0.263
-676.178	14.272	0.284	-0.221
-675.164	-48.541	-0.291	0.140
-674.149	-116.569	-0.247	-0.046
-673.135	528.165	-0.139	-0.328
-672.120	800.000	0.061	0.248
-671.105	-130.115	0.081	0.011
-670.091	131.182	0.206	-0.265
-669.076	-200.000	0.008	-0.166
-668.062	-59.983	-0.314	0.134
-667.047	-59.065	-0.224	0.097
-666.032	-34.998	-0.037	0.020
-665.018	171.372	0.116	0.167
-664.003	162.332	0.081	-0.114
-662.989	-200.000	-0.011	-0.120
-661.974	-8.727	-0.036	0.024
-660.959	-200.000	-0.055	0.331
-659.945	-200.000	0.002	0.051
-658.930	193.917	0.103	-0.156
-657.916	31.801	-0.070	-0.060
-656.901	-200.000	0.080	0.465
-655.886	-200.000	-0.012	0.061
-654.872	140.604	0.138	-0.182
-653.857	6.904	-0.170	0.126
-652.843	-3.187	-0.252	-0.176
-651.828	6.064	-0.419	-0.310
-650.814	800.000	-0.038	-0.149
-649.799	550.263	0.121	-0.290
-648.784	16.721	0.360	0.284
-647.770	-40.234	-0.179	0.093
-646.755	-66.234	0.123	-0.049
-645.741	-83.955	0.242	-0.077
-644.726	-103.579	-0.234	-0.055
-643.711	-39.451	0.363	-0.190
-642.697	-136.884	-0.169	-0.019
-641.682	-200.000	0.005	0.217
-640.668	800.000	0.060	0.196
-639.653	-67.432	0.165	0.065
-638.638	-200.000	0.002	-0.041
-637.624	-158.272	-0.241	-0.014
-636.609	-82.529	0.059	0.019
-635.595	272.202	-0.116	-0.204
-634.580	-200.000	-0.041	0.188
-633.565	-81.777	-0.182	-0.060
-632.551	97.371	0.078	-0.089
-631.536	-110.148	-0.312	-0.065
-630.522	65.881	-0.165	-0.167
-629.507	-200.000	0.010	-0.178
-628.492	-75.848	0.130	0.046
-627.478	-59.898	0.207	0.089
-626.463	295.493	-0.046	-0.084
-625.449	359.022	-0.111	-0.221
-624.434	-66.062	0.299	-0.119
-623.419	800.000	0.068	-0.236
-622.405	83.930	-0.211	-0.230
-621.390	-200.000	-0.022	0.101
-620.376	-121.891	-0.143	0.023
-619.361	-200.000	0.003	0.076
-618.346	294.102	0.132	-0.240
-617.332	-13.213	0.291	-0.189
-616.317	-11.691	-0.150	0.099
-615.303	-119.490	0.305	-0.053
-614.288	-200.000	-0.021	-0.193
-613.273	800.000	-0.018	-0.051
-612.259	40.951	0.060	0.054
-611.244	-200.000	0.031	-0.155
-610.230	233.624	-0.104	-0.171
-609.215	126.326	-0.093	-0.117
-608.201	-12.733	0.133	0.086
-607.186	-156.669	-0.150	-0.009
-606.171	206.344	0.231	-0.359
-605.157	800.000	-0.044	-0.185
-604.142	-140.231	0.044	-0.005
-603.128	-200.000	0.019	0.138
-602.113	226.640	-0.111	-0.180
-601.098	529.965	-0.086	-0.204
-600.084	-3.118	0.227	0.158
-599.069	27.807	0.159	0.134
-598.055	15.857	-0.160	-0.126
-597.040	-23.161	-0.264	-0.158
-596.025	-110.037	0.108	0.023
-595.011	219.413	-0.083	-0.132
-593.996	-148.358	0.144	-0.012
-592.982	167.930	0.114	-0.162
-591.967	59.236	0.205	-0.202
-590.952	800.000	0.053	-0.194
-589.938	63.771	-0.097	-0.097
-588.923	35.140	0.096	0.084
-587.909	-178.575	0.188	0.004
-586.894	331.056	-0.101	0.193
-585.879	674.169	0.106	0.275
-584.865	6.790	0.350	0.259
-583.850	-200.000	0.005	0.030
-582.836	-200.000	-0.041	-0.351
-581.821	-200.000	-0.020	0.202
-580.806	-19.363	0.141	0.087
-579.792	-139.629	0.184	-0.020
-578.777	665.454	-0.117	-0.302
-577.763	-130.853	0.329	-0.044
-576.748	-200.000	-0.033	-0.212
-575.733	-54.857	-0.449	-0.202
-574.719	-194.344	-0.175	-0.001
-573.704	-200.000	0.017	-0.115
-572.690	551.972	-0.111	0.266
-571.675	-125.309	-0.165	0.025
-570.661	-85.457	0.253	-0.079
-569.646	140.680	-0.133	-0.175
-568.631	73.481	-0.203	0.212
-567.617	494.931	-0.167	-0.383
-566.602	-109.515	-0.092	-0.019
-565.588	105.623	-0.163	-0.192
-564.573	318.414	0.049	0.092
-563.558	-200.000	-0.001	-0.112
-562.544	-160.118	0.103	-0.006
-561.529	800.000	0.017	0.056
-560.515	84.747	-0.290	-0.317
-559.500	-76.779	0.118	-0.041
-558.485	181.470	-0.046	0.067
-557.471	800.000	0.086	0.295
-556.456	58.118	-0.182	-0.178
-555.442	-104.824	-0.175	0.040
-554.427	-172.871	-0.017	-0.001
-553.412	-200.000	-0.032	-0.222
-552.398	800.000	0.104	0.450
-551.383	172.425	-0.123	0.176
-550.369	4.813	-0.191	-0.140
-549.354	-200.000	0.017	0.162
-548.339	179.374	0.175	0.255
-547.325	-200.000	0.006	-0.300
-546.310	-37.203	-0.077	-0.041
-545.296	388.418	0.094	0.193
-544.281	490.747	-0.015	0.034
-543.266	47.035	0.037	0.034
-542.252	800.000	0.120	-0.492
-541.237	19.088	0.133	0.106
-540.223	27.397	0.099	0.083
-539.208	-200.000	-0.244	-0.001
-538.193	-200.000	0.042	-0.284
-537.179	520.162	0.044	-0.103
-536.164	-48.196	0.177	0.085
-535.150	-91.779	-0.088	-0.025
-534.135	-200.000	0.009	0.211
-533.121	800.000	-0.029	0.089
-532.106	31.450	0.036	0.031
-531.091	-200.000	-0.013	-0.141
-530.077	800.000	-0.041	-0.134
-529.062	326.754	-0.027	0.051
-528.048	800.000	-0.015	-0.044
-527.033	-200.000	-0.032	0.511
-526.018	197.447	0.323	0.491
-525.004	67.923	0.141	0.144
-523.989	117.468	0.038	-0.047
-522.975	500.072	-0.157	0.360
-521.960	31.877	-0.072	-0.062
-520.945	141.257	0.185	-0.244
-519.931	-119.448	-0.152	0.026
-518.916	167.444	-0.110	0.156
-517.902	-111.510	-0.209	-0.042
-516.887	800.000	-0.067	0.196
-515.872	13.803	0.471	0.364
-514.858	-200.000	0.068	-0.379
-513.843	-200.000	-0.024	-0.193
-512.829	-68.024	0.170	0.066
-511.814	-53.839	-0.273	-0.124
-510.799	800.000	0.028	0.086
-509.785	27.264	-0.096	0.080
-508.770	-159.541	0.236	-0.013
-507.756	-86.193	0.223	-0.068
-506.741	-78.838	0.198	0.067
-505.726	-200.000	-0.001	0.095
-504.712	21.534	-0.055	0.045
-503.697	-87.732	0.388	-0.116
-502.683	-121.536	0.469	-0.077
-501.668	377.665	0.051	-0.103
-500.653	345.450	-0.077	0.151
-499.639	800.000	0.052	-0.167
-498.624	-200.000	-0.017	0.242
-497.610	-11.605	-0.130	-0.085
-496.595	-200.000	0.048	0.285
-495.581	118.398	-0.024	-0.030
-494.566	384.305	0.009	-0.018
-493.551	88.749	0.067	0.074
-492.537	319.862	-0.037	0.070
-491.522	57.761	-0.067	-0.065
-490.508	-92.569	0.119	-0.033
-489.493	96.526	-0.201	0.229
-488.478	-64.863	-0.218	-0.088
-487.464	471.763	-0.057	0.127
-486.449	-58.928	-0.239	-0.103
-485.435	44.907	0.250	0.229
-484.420	800.000	-0.067	0.261
-483.405	134.807	-0.122	-0.157
-482.391	51.023	-0.182	-0.172
-481.376	112.790	-0.263	0.316
-480.362	-50.633	0.303	0.142
-479.347	-200.000	-0.042	-0.197
-478.332	106.598	-0.047	-0.055
-477.318	-62.405	-0.085	-0.035
-476.303	379.860	0.107	0.218
-475.289	-200.000	0.013	-0.161
-474.274	347.453	-0.039	0.077
-473.259	-200.000	-0.019	0.106
-472.245	143.310	-0.209	-0.276
-471.230	52.641	0.050	-0.047
-470.216	108.265	0.128	-0.152
-469.201	-93.067	-0.223	-0.062
-468.186	45.675	0.168	-0.154
-467.172	800.000	0.104	0.295
-466.157	550.451	0.127	0.302
-465.143	39.410	-0.197	0.175
-464.128	648.157	0.130	-0.329
-463.113	198.020	0.165	-0.250
-462.099	376.254	-0.131	0.264
-461.084	201.209	0.128	0.195
-460.070	-45.477	0.100	0.049
-459.055	-84.117	-0.171	0.054
-458.040	-84.537	0.137	0.043
-457.026	-124.867	0.503	-0.077
-456.011	-189.252	-0.237	-0.003
-454.997	-106.465	-0.083	-0.018
-453.982	168.542	-0.076	-0.108
-452.968	-172.119	0.114	-0.004
-451.953	-99.100	-0.180	-0.045
-450.938	-62.910	0.043	-0.018
-449.924	-136.861	0.374	0.043
-448.909	62.726	0.153	0.152
-447.895	228.705	-0.120	0.194
-446.880	-112.507	-0.168	-0.033
-445.865	-200.000	-0.013	-0.108
-444.851	800.000	-0.009	0.034
-443.836	-130.006	-0.157	0.021
-442.822	-22.897	-0.182	0.109
-441.807	-188.610	-0.239	-0.003
-440.792	95.230	-0.168	-0.190
-439.778	-70.860	-0.154	-0.058
-438.763	177.910	0.139	0.201
-437.749	-58.661	0.204	0.088
-436.734	800.000	0.013	-0.037
-435.719	-96.991	0.315	-0.082
-434.705	534.114	-0.108	0.253
-433.690	-81.989	0.115	0.037
-432.676	248.230	0.118	0.199
-431.661	800.000	-0.111	-0.328
-430.646	800.000	0.043	0.140
-429.632	800.000	-0.092	0.279
-428.617	-129.316	-0.088	-0.012
-427.603	288.128	0.137	0.246
-426.588	-46.565	0.258	0.126
-425.573	66.004	-0.065	-0.065
-424.559	-163.237	0.183	-0.009
-423.544	-103.272	0.322	0.075
-422.530	47.446	-0.038	-0.035
-421.515	-42.579	0.226	-0.114
-420.500	168.857	-0.322	0.455
-419.486	-11.957	-0.245	0.159
-418.471	-200.000	-0.055	0.273
-417.457	-200.000	-0.059	-0.288
-416.442	-200.000	-0.021	0.221
-415.428	-25.882	0.121	0.070
-414.413	79.262	0.230	-0.244
-413.398	-200.000	-0.016	0.128
-412.384	124.177	-0.169	-0.211
-411.369	-83.595	0.192	0.061
-410.355	800.000	0.045	-0.142
-409.340	127.156	-0.079	0.099
-408.325	646.418	0.075	0.189
-407.311	793.626	-0.114	0.311
-406.296	-71.300	-0.158	0.059
-405.282	-80.236	-0.052	-0.017
-404.267	150.398	0.193	-0.259
-403.252	-156.881	0.253	-0.015
-402.238	-62.683	-0.163	0.067
-401.223	29.988	0.087	0.073
-400.209	10.022	-0.137	-0.103
-399.194	383.822	0.071	0.144
-398.179	36.203	0.268	0.234
-397.165	-200.000	0.075	-0.565
-396.150	-188.171	-0.076	-0.001
-395.136	-110.264	0.094	0.019
-394.121	-200.000	0.010	-0.073
-393.106	-200.000	-0.035	0.221
-392.092	653.430	0.089	-0.225
-391.077	-56.793	-0.096	0.042
-390.063	139.245	-0.158	0.206
-389.048	301.366	-0.108	0.197
-388.033	-42.125	0.342	-0.173
-387.019	-200.000	0.060	0.363
-386.004	-137.228	-0.093	-0.010
-384.990	366.698	0.087	-0.173
-383.975	106.135	-0.113	-0.132
-382.960	-17.579	0.049	-0.031
-381.946	156.405	-0.120	0.164
-380.931	-24.829	0.233	0.137
-379.917	-83.498	-0.278	0.088
-378.902	-200.000	-0.027	0.231
-377.888	800.000	0.064	-0.277
-376.873	-73.790	0.060	0.022
-375.858	-64.951	-0.203	0.081
-374.844	105.708	-0.166	-0.195
-373.829	-27.408	0.222	0.128
-372.815	71.439	-0.141	-0.145
-371.800	-13.224	0.227	0.146
-370.785	-36.535	-0.264	-0.140
-369.771	-7.064	-0.056	0.038
-368.756	219.918	0.031	0.049
-367.742	-1.956	0.097	0.067
-366.727	-79.099	0.391	-0.131
-365.712	19.557	0.188	0.149
-364.698	19.902	-0.394	-0.314
-363.683	-200.000	-0.009	-0.043
-362.669	-200.000	0.038	-0.366
-361.654	-1.422	-0.323	-0.225
-360.639	800.000	0.017	0.064
-359.625	-185.122	0.139	-0.002
-358.610	-19.886	0.254	-0.155
-357.596	-200.000	-0.079	-0.410
-356.581	62.794	0.017	0.017
-355.566	800.000	-0.109	-0.339
-354.552	-29.827	-0.223	0.126
-353.537	-30.034	-0.155	0.087
-352.523	-16.264	-0.225	0.141
-351.508	-46.107	-0.068	-0.033
-350.493	-17.244	0.148	-0.092
-349.479	-58.588	-0.074	0.032
-348.464	-62.421	-0.139	-0.057
-347.450	-97.106	-0.066	0.017
-346.435	-120.692	0.151	-0.025
-345.420	5.130	0.140	-0.102
-344.406	-200.000	-0.017	0.169
-343.391	133.317	0.133	0.169
-342.377	154.490	-0.105	0.142
-341.362	-71.756	0.090	0.033
-340.348	-36.435	0.176	0.094
-339.333	-154.869	0.131	0.009
-338.318	-20.774	0.315	-0.191
-337.304	-31.603	-0.332	0.184
-336.289	20.055	-0.102	0.081
-335.275	80.034	0.146	-0.155
-334.260	-131.127	-0.383	0.050
-333.245	800.000	-0.087	-0.294
-332.231	-20.855	-0.257	0.156
-331.216	-45.499	-0.295	0.145
-330.202	-64.103	0.318	-0.128
-329.187	214.673	-0.151	-0.236
-328.172	-31.556	-0.179	0.099
-327.158	-129.820	-0.361	-0.049
-326.143	-150.584	0.085	0.006
-325.129	-108.263	0.113	-0.024
-324.114	-52.955	0.267	0.121
-323.099	-59.825	-0.076	-0.032
-322.085	478.386	-0.040	0.089
-321.070	-132.386	0.144	0.018
-320.056	-200.000	0.030	0.245
-319.041	-79.195	-0.146	-0.049
-318.026	-200.000	0.026	0.124
-317.012	-49.621	-0.245	0.115
-315.997	800.000	0.028	0.102
-314.983	-156.898	0.369	0.022
-313.968	-200.000	0.002	-0.062
-312.953	352.587	0.115	0.226
-311.939	-63.535	-0.234	-0.095
-310.924	77.556	-0.054	0.057
-309.910	800.000	-0.079	0.271
-308.895	-181.627	0.508	0.010
-307.880	-4.134	-0.245	-0.167
-306.866	27.977	0.197	0.164
-305.851	800.000	0.031	-0.098
-304.837	-116.106	0.426	0.078
-303.822	3.583	-0.174	0.125
-302.807	473.420	-0.192	0.427
-301.793	-96.138	0.096	-0.025
-300.778	-7.849	0.109	-0.073
-299.764	-81.191	0.052	0.017
-298.749	-31.894	-0.128	-0.071
-297.735	-32.036	-0.040	-0.022
-296.720	350.015	-0.051	0.100
-295.705	401.239	0.119	0.247
-294.691	800.000	-0.043	-0.166
-293.676	-93.765	0.288	-0.078
-292.662	800.000	-0.058	0.213
-291.647	260.082	0.116	0.198
-290.632	-139.878	0.340	-0.036
-289.618	116.390	0.158	0.191
-288.603	-200.000	0.024	-0.172
-287.589	94.504	0.217	-0.243
-286.574	-171.870	0.200	0.006
-285.559	118.449	-0.269	0.328
-284.545	-81.687	0.206	0.067
-283.530	-57.167	0.070	0.030
-282.516	-152.573	-0.157	0.011
-281.501	-200.000	-0.375	0.000
-280.486	-69.140	0.196	-0.074
-279.472	614.776	-0.007	0.018
-278.457	353.303	-0.099	-0.193
-277.443	-200.000	0.036	0.185
-276.428	-125.023	0.231	0.035
-275.413	8.292	0.022	0.016
-274.399	-7.589	-0.097	0.064
-273.384	-44.310	0.312	-0.154
-272.370	-1.871	-0.290	-0.201
-271.355	-104.508	-0.199	-0.045
-270.340	-200.000	0.001	-0.091
-269.326	404.369	-0.046	0.096
-268.311	141.536	-0.172	0.224
-267.297	93.873	-0.087	-0.097
-266.282	-100.235	-0.472	-0.116
-265.267	-200.000	0.023	-0.198
-264.253	-84.494	0.252	-0.078
-263.238	-22.412	-0.164	-0.098
-262.224	87.028	-0.061	0.067
-261.209	-32.872	0.204	-0.111
-260.195	-36.622	0.356	0.189
-259.180	42.744	0.107	-0.096
-258.165	-60.728	0.205	0.085
-257.151	-200.000	-0.067	-0.411
-256.136	17.684	-0.081	-0.064
-255.122	-134.918	-0.187	0.022
-254.107	-120.722	-0.088	0.015
-253.092	-50.625	-0.139	-0.064
-252.078	-200.000	0.039	0.214
-251.063	-200.000	0.014	0.116
-250.049	748.159	-0.146	0.388
-249.034	62.675	-0.219	-0.216
-248.019	160.007	-0.066	-0.091
-247.005	-20.759	0.076	0.046
-245.990	-150.980	-0.161	0.012
-244.976	-200.000	-0.011	-0.144
-243.961	-47.299	0.081	-0.039
-242.946	-76.851	-0.046	0.016
-241.932	-2.945	0.094	-0.065
-240.917	-29.740	-0.294	-0.165
-239.903	26.241	0.068	-0.056
-238.888	-62.911	0.043	-0.017
-237.873	-43.181	0.199	-0.099
-236.859	11.894	0.181	-0.137
-235.844	-200.000	0.039	0.296
-234.830	61.348	-0.188	0.184
-233.815	-200.000	-0.010	0.186
-232.800	-32.978	-0.052	-0.028
-231.786	107.960	-0.179	-0.209
-230.771	216.382	-0.171	0.267
-229.757	-8.046	0.068	0.045
-228.742	800.000	-0.026	0.071
-227.727	-131.961	0.035	0.005
-226.713	-200.000	0.026	-0.235
-225.698	-200.000	0.001	-0.112
-224.684	33.097	-0.198	-0.169
-223.669	800.000	0.013	-0.049
-222.655	-200.000	-0.010	0.121
-221.640	-1.848	-0.196	-0.136
-220.625	800.000	-0.029	-0.121
-219.611	28.272	-0.269	0.223
-218.596	-30.489	0.223	-0.124
-217.582	-200.000	-0.002	-0.214
-216.567	-200.000	-0.007	-0.117
-215.552	378.117	-0.046	-0.093
-214.538	164.413	-0.075	0.103
-213.523	-200.000	0.032	0.177
-212.509	-200.000	-0.009	-0.045
-211.494	-28.843	0.080	-0.045
-210.479	168.876	-0.110	0.155
-209.465	171.882	0.090	-0.126
-208.450	800.000	0.074	-0.224
-207.436	-93.506	-0.112	0.030
-206.421	-114.267	0.182	-0.035
-205.406	-42.290	-0.164	-0.083
-204.392	-74.002	0.381	0.136
-203.377	-12.606	-0.197	-0.126
-202.363	67.445	-0.039	0.039
-201.348	-83.875	-0.175	-0.055
-200.333	307.375	0.027	-0.050
-199.319	-178.174	-0.144	0.003
-198.304	482.358	-0.131	0.293
-197.290	800.000	0.062	0.226
-196.275	173.807	0.039	0.055
-195.260	511.198	0.120	-0.274
-194.246	382.504	-0.081	0.163
-193.231	-108.241	-0.312	0.066
-192.217	49.742	-0.038	0.035
-191.202	114.425	0.018	0.021
-190.187	153.984	0.097	0.131
-189.173	112.816	-0.052	0.062
-188.158	4.602	-0.082	0.059
-187.144	-164.852	-0.214	0.009
-186.129	-65.032	-0.330	-0.131
-185.114	800.000	0.222	0.612
-184.100	561.140	-0.206	0.489
-183.085	800.000	-0.031	-0.114
-182.071	-32.498	-0.126	0.069
-181.056	-99.764	-0.170	0.042
-180.042	623.392	0.062	-0.153
-179.027	800.000	0.046	-0.142
-178.012	-110.272	-0.276	0.056
-176.998	800.000	-0.040	0.118
-175.983	-200.000	0.001	-0.057
-174.969	-114.221	-0.089	-0.017
-173.954	800.000	0.057	-0.186
-172.939	121.818	0.124	-0.152
-171.925	336.106	0.186	-0.354
-170.910	-19.493	-0.117	-0.071
-169.896	170.817	0.078	-0.110
-168.881	100.979	0.073	-0.084
-167.866	-101.748	0.180	0.043
-166.852	74.932	0.200	-0.206
-165.837	-200.000	-0.013	-0.124
-164.823	-200.000	0.019	0.372
-163.808	-9.648	-0.162	0.106
-162.793	-63.692	0.151	-0.061
-161.779	-179.090	0.201	-0.004
-160.764	-1.451	-0.259	-0.179
-159.750	530.389	-0.030	0.071
-158.735	191.483	0.098	0.145
-157.720	-85.377	-0.131	-0.040
-156.706	138.907	0.102	-0.131
-155.691	-200.000	-0.003	-0.050
-154.677	149.133	0.155	0.205
-153.662	247.518	-0.257	-0.426
-152.647	800.000	-0.035	0.113
-151.633	90.012	-0.255	-0.279
-150.618	403.281	-0.109	-0.225
-149.604	369.256	0.026	0.052
-148.589	800.000	-0.071	0.248
-147.574	182.001	0.187	0.271
-146.560	-105.166	0.243	0.054
-145.545	-91.026	0.101	0.029
-144.531	-200.000	-0.064	-0.598
-143.516	-200.000	0.011	-0.141
-142.502	-37.157	-0.181	0.095
-141.487	193.899	0.098	0.146
-140.472	-120.690	0.175	-0.029
-139.458	-118.695	0.248	0.043
-138.443	467.103	-0.132	-0.291
-137.429	-17.761	0.216	-0.133
-136.414	-82.595	-0.172	0.054
-135.399	-127.593	0.363	0.051
-134.385	28.381	-0.153	-0.127
-133.370	-200.000	-0.005	0.322
-132.356	-72.547	0.057	0.021
-131.341	-122.480	-0.055	0.009
-130.326	15.896	0.013	0.010
-129.312	-13.874	0.016	-0.010
-128.297	-200.000	-0.032	0.181
-127.283	-88.216	0.258	-0.076
-126.268	115.535	-0.324	-0.387
-125.253	89.284	-0.113	0.123
-124.239	154.270	-0.116	-0.155
-123.224	-74.065	0.186	0.066
-122.210	800.000	-0.061	0.212
-121.195	-51.190	0.155	0.071
