DTS Sentinel unit serial number:	SN413079Multiplexer serial number:	ORYXHardware model number:	OX4-SRSoftware version number:	ORYX F/W v4.00 Oryx Data Collector v3.7.2.0data status	okinstallation	princeton_trtdifferential loss correction	single-endedforward channel	channel 2reverse channel	N/Adate	2019/09/19time	03:47:35forward acquisition time	60.00reverse acquisition time	0.00gamma	496.2192k internal	0.2352k external	0.2352temperature offset calibration	1.0013default loss term (dB/km)	0.3790temperature slope calibration	1.0000multiplexer offset coefficient	1.0000multiplexer slope coefficient	1.0000fibre end	0.00T internal ref (°C)	20.50T ext. ref 1 (°C)	0.64T ext. ref 2 (°C)	14.31length (m)	temperature (°C)	Stokes	anti-Stokes-747.200	6.722	0.214	0.159
-746.185	-200.000	-0.030	0.270
-745.171	-129.600	-0.140	0.019
-744.156	129.354	-0.312	0.398
-743.142	-27.924	-0.074	-0.043
-742.127	-96.113	-0.136	0.036
-741.112	43.873	0.124	0.113
-740.098	102.932	-0.273	0.319
-739.083	-200.000	0.012	0.110
-738.069	257.225	0.173	0.296
-737.054	-200.000	0.006	0.122
-736.039	-65.770	-0.323	0.129
-735.025	-156.850	-0.143	-0.009
-734.010	800.000	0.082	0.331
-732.996	-78.272	-0.037	-0.013
-731.981	800.000	-0.097	-0.283
-730.966	253.937	-0.118	0.201
-729.952	37.217	-0.108	-0.096
-728.937	140.264	-0.128	0.169
-727.923	-152.043	0.158	-0.011
-726.908	-42.478	-0.052	0.027
-725.894	800.000	-0.178	-0.530
-724.879	800.000	-0.123	-0.469
-723.864	200.800	0.153	-0.235
-722.850	-131.059	0.052	0.007
-721.835	261.961	0.148	0.257
-720.821	-54.797	-0.365	0.164
-719.806	-55.327	0.121	0.054
-718.791	-21.576	-0.190	0.115
-717.777	-35.064	0.081	0.044
-716.762	147.322	-0.013	0.017
-715.748	-200.000	0.011	0.317
-714.733	-66.029	-0.191	-0.076
-713.718	-66.123	-0.153	-0.061
-712.704	75.592	-0.140	-0.148
-711.689	146.029	-0.297	-0.397
-710.675	99.355	0.277	-0.319
-709.660	26.430	-0.266	-0.221
-708.645	115.619	0.190	-0.231
-707.631	-124.411	-0.535	0.083
-706.616	-200.000	0.005	0.195
-705.602	109.855	-0.112	-0.134
-704.587	-200.000	-0.031	-0.194
-703.572	-67.826	-0.272	0.106
-702.558	-200.000	0.173	0.000
-701.543	74.044	-0.110	-0.115
-700.529	252.406	-0.067	-0.113
-699.514	-164.428	-0.076	-0.003
-698.499	-88.441	-0.273	0.081
-697.485	123.733	0.112	0.140
-696.470	-57.201	0.562	0.246
-695.456	156.213	-0.077	0.106
-694.441	-86.870	0.148	0.045
-693.426	6.471	-0.200	-0.148
-692.412	-200.000	-0.075	-0.386
-691.397	-112.780	-0.179	-0.035
-690.383	800.000	0.063	-0.239
-689.368	800.000	-0.068	-0.274
-688.354	601.463	-0.034	0.085
-687.339	-183.226	0.311	0.005
-686.324	-79.121	-0.155	0.052
-685.310	20.712	-0.074	-0.059
-684.295	800.000	-0.062	0.250
-683.281	465.159	0.118	-0.262
-682.266	-200.000	0.007	0.189
-681.251	-56.925	-0.221	0.097
-680.237	800.000	0.080	0.316
-679.222	-55.397	-0.201	-0.090
-678.208	-42.099	-0.212	0.108
-677.193	-200.000	0.000	-0.266
-676.178	800.000	0.095	-0.371
-675.164	86.138	0.339	-0.371
-674.149	133.155	-0.286	-0.368
-673.135	-54.801	0.081	-0.036
-672.120	800.000	0.041	0.112
-671.105	85.722	-0.077	-0.084
-670.091	713.493	-0.105	0.277
-669.076	-137.972	0.126	-0.014
-668.062	180.208	0.098	0.143
-667.047	120.883	0.200	-0.247
-666.032	23.051	-0.226	-0.185
-665.018	-192.620	-0.124	0.001
-664.003	-200.000	-0.027	-0.242
-662.989	-123.946	-0.415	-0.065
-661.974	378.417	0.025	-0.051
-660.959	356.066	-0.113	-0.224
-659.945	-74.868	0.206	-0.074
-658.930	547.316	-0.056	-0.134
-657.916	-16.064	0.107	0.068
-656.901	536.728	-0.081	0.191
-655.886	21.450	-0.143	-0.115
-654.872	800.000	0.139	-0.428
-653.857	590.459	0.157	0.386
-652.843	-68.962	0.258	-0.099
-651.828	176.905	0.203	-0.294
-650.814	-200.000	0.057	-0.378
-649.799	193.692	0.088	0.132
-648.784	800.000	-0.070	0.271
-647.770	540.894	0.108	-0.255
-646.755	184.614	0.152	-0.224
-645.741	-107.783	-0.222	0.048
-644.726	-200.000	0.065	-0.438
-643.711	-142.652	0.183	0.018
-642.697	800.000	-0.073	0.276
-641.682	-23.310	0.017	0.010
-640.668	-90.342	-0.193	0.056
-639.653	-200.000	-0.014	0.276
-638.638	26.966	-0.202	0.168
-637.624	81.037	0.122	0.131
-636.609	-200.000	0.004	0.104
-635.595	-200.000	-0.003	0.028
-634.580	76.661	-0.096	-0.101
-633.565	41.965	-0.192	0.173
-632.551	25.825	0.104	0.086
-631.536	800.000	0.162	0.535
-630.522	356.782	-0.067	-0.132
-629.507	-200.000	0.063	-0.276
-628.492	-200.000	0.014	-0.422
-627.478	-93.006	0.222	0.062
-626.463	-88.139	-0.392	0.117
-625.449	40.328	0.140	0.125
-624.434	800.000	0.098	0.276
-623.419	800.000	0.097	0.375
-622.405	-112.071	0.095	-0.019
-621.390	-0.416	-0.032	-0.023
-620.376	-83.541	-0.483	-0.154
-619.361	135.210	0.168	-0.217
-618.346	-200.000	-0.029	0.257
-617.332	-14.806	0.028	0.018
-616.317	800.000	-0.054	0.156
-615.303	-200.000	0.018	-0.097
-614.288	-134.578	0.103	-0.013
-613.273	375.495	0.220	-0.445
-612.259	130.338	0.107	-0.136
-611.244	-137.272	0.309	-0.035
-610.230	-200.000	-0.008	-0.124
-609.215	10.516	-0.210	-0.159
-608.201	-200.000	-0.036	-0.275
-607.186	-62.515	0.128	0.053
-606.171	-21.060	-0.259	0.157
-605.157	-64.036	-0.306	-0.124
-604.142	113.195	-0.069	-0.083
-603.128	-166.526	-0.497	0.021
-602.113	302.896	-0.097	0.178
-601.098	-200.000	-0.016	-0.334
-600.084	43.872	-0.154	0.140
-599.069	34.143	-0.181	-0.157
-598.055	501.753	0.109	0.250
-597.040	-41.028	-0.112	0.057
-596.025	800.000	0.070	-0.257
-595.011	-10.541	0.189	0.124
-593.996	-107.360	-0.202	-0.044
-592.982	-148.963	-0.113	0.009
-591.967	-177.189	-0.026	-0.001
-590.952	-42.049	-0.205	0.104
-589.938	421.389	0.120	-0.254
-588.923	190.324	0.220	-0.328
-587.909	18.178	-0.173	-0.137
-586.894	-99.420	0.120	0.030
-585.879	-42.851	0.188	0.095
-584.865	-89.305	0.357	-0.104
-583.850	-49.189	-0.329	-0.156
-582.836	152.023	-0.057	-0.077
-581.821	92.848	-0.105	0.118
-580.806	-99.458	-0.335	0.084
-579.792	800.000	0.077	0.274
-578.777	-36.913	-0.328	-0.175
-577.763	73.814	-0.097	-0.101
-576.748	-122.364	-0.387	0.063
-575.733	-24.535	-0.166	-0.098
-574.719	-200.000	-0.033	0.413
-573.704	300.964	-0.099	-0.182
-572.690	-22.896	0.125	-0.074
-571.675	89.484	-0.218	-0.241
-570.661	-151.430	-0.043	-0.003
-569.646	800.000	0.084	0.312
-568.631	-17.185	0.182	-0.114
-567.617	-148.227	-0.412	-0.034
-566.602	-180.402	-0.193	0.004
-565.588	-64.760	-0.169	-0.068
-564.573	-38.746	0.011	-0.006
-563.558	416.028	0.056	0.118
-562.544	-128.508	0.482	0.068
-561.529	-200.000	-0.025	-0.141
-560.515	253.453	-0.091	0.154
-559.500	-200.000	-0.008	0.140
-558.485	75.966	-0.067	-0.070
-557.471	-167.545	0.271	-0.011
-556.456	-49.369	0.201	-0.095
-555.442	-200.000	0.007	-0.072
-554.427	-35.816	-0.296	-0.159
-553.412	502.925	-0.028	-0.063
-552.398	-200.000	-0.013	0.337
-551.383	91.215	0.260	-0.289
-550.369	-146.891	-0.136	-0.012
-549.354	800.000	-0.129	0.381
-548.339	-40.758	0.234	-0.120
-547.325	-148.026	-0.197	-0.016
-546.310	-54.425	0.176	-0.079
-545.296	229.185	-0.150	-0.243
-544.281	6.715	-0.061	0.045
-543.266	800.000	0.050	0.171
-542.252	754.226	0.057	0.154
-541.237	800.000	0.156	0.460
-540.223	-31.380	0.255	-0.142
-539.208	-200.000	-0.058	-0.282
-538.193	800.000	-0.081	-0.292
-537.179	-200.000	0.037	0.213
-536.164	9.244	-0.434	-0.325
-535.150	-200.000	0.004	0.282
-534.135	-25.172	-0.148	-0.087
-533.121	224.540	0.054	0.087
-532.106	-167.866	-0.054	-0.002
-531.091	-175.960	0.030	-0.001
-530.077	1.522	0.046	-0.033
-529.062	415.295	0.084	-0.176
-528.048	102.147	0.207	-0.240
-527.033	-200.000	0.018	-0.166
-526.018	-79.159	0.071	-0.024
-525.004	38.776	-0.072	-0.063
-523.989	219.956	-0.098	0.155
-522.975	-200.000	-0.009	-0.158
-521.960	275.186	0.120	-0.211
-520.945	-110.514	0.271	-0.056
-519.931	800.000	-0.026	-0.076
-518.916	-139.682	0.068	-0.007
-517.902	800.000	-0.140	0.389
-516.887	83.007	-0.261	0.281
-515.872	-160.190	-0.216	-0.012
-514.858	-1.862	0.030	-0.021
-513.843	-200.000	-0.015	-0.100
-512.829	-137.319	0.188	-0.021
-511.814	465.624	-0.106	-0.234
-510.799	-95.221	-0.074	-0.020
-509.785	-95.015	-0.094	0.025
-508.770	132.375	0.068	0.087
-507.756	595.475	-0.019	-0.046
-506.741	389.102	0.082	-0.168
-505.726	245.879	-0.040	0.066
-504.712	7.378	0.449	0.332
-503.697	-17.275	0.232	0.145
-502.683	-105.450	0.511	-0.115
-501.668	614.373	0.124	-0.308
-500.653	-132.214	-0.194	-0.025
-499.639	1.114	0.354	0.251
-498.624	-143.992	0.181	-0.017
-497.610	-111.998	0.105	0.021
-496.595	64.183	0.013	0.013
-495.581	-86.751	0.269	0.081
-494.566	800.000	-0.054	-0.178
-493.551	-109.504	0.168	0.035
-492.537	608.877	0.092	-0.226
-491.522	-51.539	-0.206	0.095
-490.508	114.939	-0.083	-0.100
-489.493	-100.683	0.217	-0.053
-488.478	115.230	0.156	0.188
-487.464	176.228	-0.175	-0.251
-486.449	-102.284	0.145	0.034
-485.435	-149.633	0.493	0.038
-484.420	-200.000	0.039	-0.215
-483.405	33.812	0.098	-0.084
-482.391	-107.141	-0.193	0.042
-481.376	-197.128	0.066	0.000
-480.362	-41.765	-0.129	0.065
-479.347	-125.567	0.116	0.017
-478.332	529.413	0.068	-0.159
-477.318	-164.633	0.082	0.004
-476.303	-142.847	0.225	-0.022
-475.289	-85.309	0.183	-0.057
-474.274	65.418	-0.059	-0.059
-473.259	202.480	0.018	-0.028
-472.245	800.000	-0.041	0.131
-471.230	436.346	-0.163	-0.350
-470.216	28.717	-0.260	-0.217
-469.201	797.145	0.059	0.159
-468.186	-51.550	0.182	0.084
-467.172	-82.391	0.121	0.039
-466.157	-200.000	-0.019	-0.131
-465.143	-58.974	0.124	0.053
-464.128	800.000	-0.118	0.348
-463.113	-31.463	-0.081	0.045
-462.099	-51.889	0.258	0.118
-461.084	-74.637	-0.146	-0.052
-460.070	119.306	-0.121	-0.148
-459.055	-187.600	0.077	0.001
-458.040	551.226	0.076	-0.181
-457.026	-73.327	-0.165	0.060
-456.011	-200.000	0.044	0.234
-454.997	-90.751	-0.163	0.046
-453.982	142.055	-0.264	-0.345
-452.968	-41.824	-0.214	0.108
-451.953	-55.121	-0.011	-0.005
-450.938	-200.000	0.028	0.187
-449.924	-62.813	0.246	0.101
-448.909	211.743	0.246	-0.382
-447.895	-100.863	-0.146	-0.035
-446.880	-95.889	0.117	-0.031
-445.865	800.000	0.031	0.105
-444.851	586.796	0.124	-0.300
-443.836	770.090	0.010	0.026
-442.822	-200.000	0.074	0.000
-441.807	-134.427	0.160	0.019
-440.792	800.000	-0.018	0.075
-439.778	266.648	-0.166	0.285
-438.763	69.914	-0.128	-0.130
-437.749	-200.000	0.008	0.198
-436.734	800.000	0.022	0.066
-435.719	-43.815	-0.144	0.071
-434.705	-50.657	0.049	0.023
-433.690	800.000	-0.024	0.081
-432.676	117.803	0.090	0.109
-431.661	-200.000	0.005	0.387
-430.646	-200.000	-0.020	0.160
-429.632	-67.895	0.264	-0.101
-428.617	-109.805	-0.333	-0.069
-427.603	800.000	0.025	0.100
-426.588	-44.724	0.211	0.104
-425.573	-30.322	0.276	0.155
-424.559	330.503	0.018	0.034
-423.544	43.262	-0.338	0.304
-422.530	-28.412	0.202	-0.115
-421.515	-119.237	0.207	-0.036
-420.500	-53.944	-0.058	0.026
-419.486	-25.455	0.151	0.088
-418.471	508.208	-0.150	-0.342
-417.457	-196.568	-0.083	0.001
-416.442	-134.050	-0.084	0.010
-415.428	662.041	-0.099	0.253
-414.413	176.293	-0.200	0.286
-413.398	-45.927	-0.216	-0.105
-412.384	33.576	-0.093	0.079
-411.369	-24.252	0.096	0.056
-410.355	250.695	-0.057	0.095
-409.340	-127.011	0.092	0.013
-408.325	-200.000	-0.002	-0.408
-407.311	-57.922	-0.249	-0.107
-406.296	-94.076	0.108	0.029
-405.282	303.592	0.160	-0.291
-404.267	13.868	0.160	0.122
-403.252	728.989	-0.173	0.455
-402.238	-31.654	-0.040	-0.022
-401.223	-65.107	0.262	0.104
-400.209	-200.000	0.048	0.341
-399.194	-148.688	-0.155	0.012
-398.179	236.048	0.174	0.283
-397.165	34.231	-0.231	0.198
-396.150	-60.962	0.558	-0.232
-395.136	53.890	0.208	0.197
-394.121	-92.163	-0.226	-0.063
-393.106	-14.233	-0.129	-0.082
-392.092	-200.000	-0.018	0.254
-391.077	-200.000	0.018	-0.086
-390.063	800.000	-0.061	0.216
-389.048	24.540	0.189	0.153
-388.033	-92.136	-0.214	-0.059
-387.019	-46.118	0.190	0.092
-386.004	424.597	-0.066	0.141
-384.990	-87.933	-0.281	0.083
-383.975	207.450	0.198	-0.304
-382.960	-200.000	0.067	0.423
-381.946	-122.509	-0.126	-0.020
-380.931	-200.000	-0.044	0.262
-379.917	196.381	-0.149	0.223
-378.902	480.531	0.084	0.187
-377.888	-121.531	0.105	0.017
-376.873	-70.007	0.229	0.086
-375.858	20.464	0.062	0.050
-374.844	134.895	-0.200	0.255
-373.829	-18.495	-0.064	-0.039
-372.815	800.000	0.057	-0.190
-371.800	-142.945	0.190	-0.018
-370.785	-167.623	0.191	-0.007
-369.771	-59.473	-0.512	-0.216
-368.756	-157.632	-0.104	-0.006
-367.742	-178.460	-0.434	0.010
-366.727	-119.141	-0.426	0.073
-365.712	-200.000	0.014	0.195
-364.698	745.590	-0.051	0.135
-363.683	305.471	0.110	-0.200
-362.669	-200.000	-0.019	-0.347
-361.654	174.007	-0.187	0.265
-360.639	241.829	0.081	-0.132
-359.625	33.159	0.111	-0.095
-358.610	102.939	0.114	-0.131
-357.596	800.000	-0.112	0.330
-356.581	-26.961	-0.064	0.037
-355.566	573.975	-0.065	-0.156
-354.552	-6.761	-0.075	0.050
-353.537	-29.479	0.137	0.077
-352.523	-21.408	-0.346	-0.208
-351.508	-200.000	0.016	-0.366
-350.493	15.986	0.218	0.169
-349.479	800.000	-0.065	-0.200
-348.464	-200.000	0.011	-0.100
-347.450	13.411	0.161	0.122
-346.435	-93.934	0.059	0.016
-345.420	97.140	-0.135	0.152
-344.406	-200.000	0.004	0.119
-343.391	16.944	0.372	-0.290
-342.377	-200.000	0.010	-0.188
-341.362	7.105	-0.064	0.047
-340.348	-35.898	-0.078	-0.041
-339.333	43.380	-0.299	-0.268
-338.318	114.934	-0.147	-0.177
-337.304	231.076	0.070	-0.113
-336.289	3.174	0.100	0.071
-335.275	104.913	0.128	0.148
-334.260	43.680	-0.257	-0.231
-333.245	-101.459	0.325	-0.078
-332.231	-120.518	-0.201	0.033
-331.216	-188.427	0.533	-0.007
-330.202	-200.000	-0.020	-0.397
-329.187	-101.019	-0.206	0.050
-328.172	-104.454	-0.385	0.087
-327.158	-1.174	-0.099	-0.069
-326.143	-76.193	0.300	-0.104
-325.129	490.861	-0.028	0.063
-324.114	-99.382	0.040	-0.010
-323.099	800.000	-0.037	-0.150
-322.085	-7.528	-0.047	-0.031
-321.070	81.495	-0.182	0.193
-320.056	0.293	0.106	0.074
-319.041	-128.949	0.068	0.009
-318.026	-140.016	0.086	-0.009
-317.012	-19.158	-0.452	0.275
-315.997	800.000	0.046	-0.148
-314.983	105.502	-0.065	0.076
-313.968	4.403	0.096	0.069
-312.953	-192.812	0.063	0.001
-311.939	643.910	-0.072	-0.181
-310.924	-42.870	-0.097	-0.048
-309.910	512.126	-0.105	0.241
-308.895	-112.190	-0.172	-0.034
-307.880	-200.000	0.061	-0.327
-306.866	-28.968	0.117	0.066
-305.851	800.000	-0.048	-0.162
-304.837	800.000	0.091	-0.277
-303.822	324.564	-0.133	0.249
-302.807	85.482	0.264	0.284
-301.793	19.813	0.181	-0.143
-300.778	-10.882	0.272	0.176
-299.764	-200.000	0.006	0.070
-298.749	-87.793	-0.209	0.062
-297.735	0.434	0.102	-0.072
-296.720	272.841	-0.143	-0.247
-295.705	800.000	-0.077	-0.218
-294.691	-200.000	-0.012	0.073
-293.676	-8.546	0.121	-0.080
-292.662	-38.510	0.165	0.086
-291.647	800.000	0.127	0.422
-290.632	-200.000	-0.024	-0.159
-289.618	-49.930	-0.189	-0.088
-288.603	-90.027	-0.438	-0.125
-287.589	178.578	0.147	0.210
-286.574	-124.794	-0.029	-0.004
-285.559	173.443	0.168	0.238
-284.545	6.099	-0.052	-0.038
-283.530	800.000	0.119	0.330
-282.516	-200.000	0.028	0.157
-281.501	-136.416	0.240	0.027
-280.486	-108.335	-0.177	0.037
-279.472	-200.000	-0.039	-0.293
-278.457	-76.117	0.029	-0.010
-277.443	158.736	-0.133	-0.181
-276.428	-135.834	-0.193	0.022
-275.413	147.404	0.257	-0.339
-274.399	-200.000	-0.001	-0.207
-273.384	723.304	-0.094	0.244
-272.370	57.451	0.335	0.321
-271.355	-78.465	-0.359	-0.120
-270.340	-200.000	-0.025	0.145
-269.326	75.397	0.096	0.099
-268.311	-33.291	0.146	0.079
-267.297	437.835	0.096	-0.204
-266.282	-53.628	0.135	0.060
-265.267	-113.424	0.294	0.056
-264.253	-200.000	0.006	-0.306
-263.238	35.238	-0.130	-0.112
-262.224	208.161	-0.135	0.206
-261.209	-35.851	-0.078	0.041
-260.195	-62.667	0.133	0.054
-259.180	291.629	0.088	-0.156
-258.165	-50.685	-0.387	0.178
-257.151	-179.049	0.268	0.006
-256.136	-57.990	-0.096	-0.041
-255.122	289.479	0.066	0.117
-254.107	-140.103	-0.220	0.023
-253.092	800.000	0.083	0.304
-252.078	-16.901	0.239	0.148
-251.063	3.852	0.092	-0.066
-250.049	65.582	0.421	0.417
-249.034	-126.953	0.506	-0.073
-248.019	-7.988	-0.418	0.276
-247.005	-200.000	-0.029	0.385
-245.990	800.000	0.032	-0.106
-244.976	-135.875	0.245	-0.028
-243.961	-2.318	-0.234	0.161
-242.946	-98.112	0.376	-0.095
-241.932	-62.250	0.340	-0.139
-240.917	408.758	-0.099	-0.205
-239.903	487.332	-0.067	0.149
-238.888	165.741	0.078	-0.108
-237.873	800.000	-0.110	-0.394
-236.859	-144.973	0.356	-0.032
-235.844	-9.711	0.107	0.070
-234.830	800.000	-0.075	0.291
-233.815	-14.494	0.206	0.130
-232.800	-60.636	-0.070	0.029
-231.786	240.266	0.088	0.143
-230.771	9.454	0.147	-0.108
-229.757	-200.000	-0.000	0.010
-228.742	-72.961	-0.117	-0.042
-227.727	4.550	-0.182	0.131
-226.713	36.865	-0.205	-0.177
-225.698	800.000	0.052	0.204
-224.684	-123.864	0.348	0.054
-223.669	-6.890	0.101	0.067
-222.655	800.000	0.052	0.160
-221.640	260.858	0.173	-0.292
-220.625	-172.531	0.171	0.005
-219.611	451.267	-0.162	-0.350
-218.596	256.417	-0.063	0.106
-217.582	-200.000	-0.035	-0.237
-216.567	21.294	-0.246	-0.195
-215.552	197.970	0.154	0.230
-214.538	132.786	-0.186	0.235
-213.523	25.175	0.085	0.069
-212.509	-79.372	-0.293	0.097
-211.494	55.559	-0.287	-0.272
-210.479	214.109	-0.165	-0.255
-209.465	-29.633	0.289	-0.161
-208.450	-200.000	0.039	-0.230
-207.436	-91.913	-0.160	-0.044
-206.421	668.523	0.104	0.262
-205.406	-200.000	0.015	-0.142
-204.392	-200.000	0.052	-0.258
-203.377	-117.525	-0.322	-0.057
-202.363	800.000	-0.074	-0.280
-201.348	-88.715	0.355	-0.103
-200.333	28.619	-0.209	0.173
-199.319	-145.253	0.292	-0.026
-198.304	129.657	-0.128	0.160
-197.290	-200.000	0.048	0.225
-196.275	800.000	-0.127	-0.490
-195.260	396.913	-0.065	-0.133
-194.246	-99.029	0.271	0.067
-193.231	445.340	-0.071	0.153
-192.217	225.353	-0.164	-0.259
-191.202	-50.991	0.280	-0.128
-190.187	114.113	-0.068	0.081
-189.173	-147.493	-0.240	-0.020
-188.158	75.385	0.161	0.166
-187.144	-146.097	-0.170	0.015
-186.129	-130.413	-0.141	-0.019
-185.114	138.293	0.151	-0.193
-184.100	-83.911	0.148	0.046
-183.085	-94.926	-0.092	-0.024
-182.071	66.545	0.036	-0.035
-181.056	-200.000	0.017	-0.112
-180.042	11.326	0.102	0.076
-179.027	-200.000	0.033	0.391
-178.012	177.643	-0.081	0.115
-176.998	-200.000	-0.027	-0.195
-175.983	472.773	0.115	-0.254
-174.969	-81.915	0.180	0.058
-173.954	247.220	0.162	0.266
-172.939	-149.018	-0.460	-0.036
-171.925	-200.000	0.042	-0.350
-170.910	-200.000	-0.018	0.185
-169.896	-200.000	-0.024	0.104
-168.881	-38.943	-0.179	0.092
-167.866	-200.000	-0.013	0.130
-166.852	-200.000	0.032	0.154
-165.837	-73.168	0.119	-0.042
-164.823	51.661	-0.165	0.153
-163.808	33.573	0.265	-0.225
-162.793	-62.093	-0.162	-0.066
-161.779	-97.115	-0.382	0.097
-160.764	74.799	-0.191	0.196
-159.750	-170.971	-0.260	-0.009
-158.735	145.760	0.050	-0.066
-157.720	656.597	-0.128	-0.320
-156.706	-129.250	-0.077	-0.010
-155.691	-200.000	-0.001	-0.404
-154.677	-105.143	-0.065	-0.015
-153.662	800.000	0.049	-0.151
-152.647	800.000	-0.046	-0.180
-151.633	-2.737	-0.077	-0.053
-150.618	-200.000	0.019	-0.090
-149.604	-145.504	0.242	0.021
-148.589	-200.000	0.000	0.222
-147.574	800.000	-0.031	0.103
-146.560	211.411	0.100	-0.153
-145.545	315.011	-0.095	-0.174
-144.531	20.043	-0.252	0.198
-143.516	-98.106	0.208	-0.052
-142.502	-61.769	-0.209	-0.085
-141.487	-200.000	0.008	0.063
-140.472	-3.769	-0.270	-0.183
-139.458	-20.006	-0.240	-0.144
-138.443	-200.000	0.026	-0.309
-137.429	-23.267	0.202	0.118
-136.414	-7.933	-0.453	0.298
-135.399	-18.980	-0.087	-0.053
-134.385	800.000	-0.048	0.198
-133.370	13.130	-0.131	0.099
-132.356	800.000	0.036	0.120
-131.341	172.002	-0.103	-0.144
-130.326	-200.000	0.033	-0.331
-129.312	73.214	-0.080	0.081
-128.297	-6.662	-0.248	0.164
-127.283	261.428	-0.158	-0.267
-126.268	-30.272	-0.458	0.253
-125.253	-200.000	0.008	0.076
-124.239	129.636	-0.089	-0.111
-123.224	-67.842	0.345	-0.131
-122.210	-12.629	-0.225	-0.143
-121.195	-116.215	-0.259	0.047
