DTS Sentinel unit serial number:	SN413079Multiplexer serial number:	ORYXHardware model number:	OX4-SRSoftware version number:	ORYX F/W v4.00 Oryx Data Collector v3.7.2.0data status	okinstallation	princeton_trtdifferential loss correction	single-endedforward channel	channel 2reverse channel	N/Adate	2019/09/16time	08:19:35forward acquisition time	60.00reverse acquisition time	0.00gamma	496.2192k internal	0.2329k external	0.2329temperature offset calibration	0.9973default loss term (dB/km)	0.3790temperature slope calibration	1.0000multiplexer offset coefficient	1.0000multiplexer slope coefficient	1.0000fibre end	0.00T internal ref (°C)	28.98T ext. ref 1 (°C)	11.84T ext. ref 2 (°C)	25.40length (m)	temperature (°C)	Stokes	anti-Stokes-747.200	-119.504	0.215	-0.038
-746.185	-41.545	-0.262	0.136
-745.171	348.771	-0.123	0.245
-744.156	-200.000	0.022	0.258
-743.142	-147.379	0.275	0.023
-742.127	221.683	0.117	0.189
-741.112	-200.000	-0.004	-0.026
-740.098	-200.000	0.032	0.276
-739.083	73.446	0.192	0.202
-738.069	-74.400	0.228	0.083
-737.054	130.390	0.076	-0.098
-736.039	-108.482	-0.534	-0.116
-735.025	140.941	0.183	0.244
-734.010	756.223	0.020	0.054
-732.996	272.758	-0.102	0.181
-731.981	474.797	0.136	0.309
-730.966	53.005	0.187	-0.180
-729.952	42.680	-0.268	0.245
-728.937	212.163	-0.173	0.275
-727.923	-153.634	-0.132	-0.009
-726.908	602.292	-0.181	0.454
-725.894	-200.000	0.005	0.268
-724.879	-200.000	0.060	0.279
-723.864	-200.000	0.019	0.120
-722.850	477.266	-0.084	-0.191
-721.835	-106.535	-0.139	0.031
-720.821	-123.419	0.075	-0.012
-719.806	98.028	-0.212	-0.246
-718.791	-139.126	0.207	-0.023
-717.777	-12.870	-0.084	0.055
-716.762	42.717	-0.299	-0.274
-715.748	-60.685	-0.145	0.062
-714.733	34.527	-0.144	-0.126
-713.718	-200.000	-0.041	0.203
-712.704	542.064	-0.118	0.284
-711.689	-200.000	-0.055	0.363
-710.675	721.710	-0.085	0.228
-709.660	-200.000	-0.058	-0.276
-708.645	800.000	0.012	0.052
-707.631	59.157	-0.215	0.213
-706.616	-200.000	0.005	0.290
-705.602	-200.000	0.013	-0.081
-704.587	53.155	-0.190	0.183
-703.572	-116.032	0.327	0.061
-702.558	-200.000	-0.061	-0.322
-701.543	-37.081	-0.127	0.068
-700.529	59.987	-0.116	0.115
-699.514	-127.280	-0.073	0.011
-698.499	224.296	0.089	-0.144
-697.485	107.350	0.140	-0.168
-696.470	-15.085	0.324	0.209
-695.456	-42.706	-0.096	0.049
-694.441	104.193	-0.166	0.196
-693.426	-148.349	-0.285	-0.024
-692.412	-20.688	0.206	-0.127
-691.397	615.082	-0.109	-0.276
-690.383	-98.368	-0.315	0.081
-689.368	-22.009	0.052	0.032
-688.354	23.148	0.074	-0.061
-687.339	41.234	0.220	0.200
-686.324	-200.000	-0.048	-0.513
-685.310	-94.625	-0.051	0.014
-684.295	142.794	-0.200	0.267
-683.281	-101.873	0.334	0.081
-682.266	13.815	0.059	-0.046
-681.251	30.013	0.165	0.142
-680.237	-76.741	-0.388	0.136
-679.222	-138.662	0.407	-0.045
-678.208	175.367	-0.162	0.235
-677.193	52.507	0.078	0.075
-676.178	-84.904	0.045	0.014
-675.164	169.043	-0.259	0.371
-674.149	-200.000	-0.026	-0.201
-673.135	82.433	-0.050	0.055
-672.120	11.781	0.117	-0.091
-671.105	-159.271	-0.355	0.020
-670.091	590.601	-0.130	0.322
-669.076	-70.751	-0.214	0.081
-668.062	35.085	-0.192	-0.169
-667.047	800.000	0.075	-0.248
-666.032	-200.000	-0.001	0.136
-665.018	-157.322	-0.042	0.003
-664.003	800.000	-0.050	-0.186
-662.989	134.112	0.132	0.172
-661.974	-107.498	0.252	-0.055
-660.959	258.196	0.113	-0.195
-659.945	189.898	-0.111	-0.168
-658.930	-95.530	0.067	0.018
-657.916	-132.070	0.285	0.037
-656.901	-62.606	0.183	-0.076
-655.886	-200.000	0.064	-0.328
-654.872	500.763	-0.038	-0.089
-653.857	-4.473	-0.037	0.026
-652.843	200.054	-0.008	-0.013
-651.828	523.485	-0.034	-0.081
-650.814	591.081	0.082	-0.202
-649.799	-137.910	0.080	0.009
-648.784	-200.000	-0.012	0.076
-647.770	800.000	0.165	0.633
-646.755	-79.777	-0.404	0.136
-645.741	800.000	0.097	0.397
-644.726	501.779	0.069	-0.161
-643.711	800.000	0.057	0.228
-642.697	347.665	0.003	-0.005
-641.682	-73.215	0.202	-0.074
-640.668	110.903	-0.190	0.230
-639.653	139.687	-0.085	-0.113
-638.638	800.000	-0.055	0.221
-637.624	-21.223	-0.232	0.142
-636.609	800.000	-0.034	0.148
-635.595	26.331	0.446	0.374
-634.580	-90.568	0.193	0.056
-633.565	-2.196	0.067	-0.047
-632.551	-16.820	0.223	-0.142
-631.536	10.771	-0.230	-0.176
-630.522	281.534	0.028	-0.050
-629.507	159.384	-0.091	-0.126
-628.492	800.000	-0.062	-0.243
-627.478	-116.374	-0.394	0.073
-626.463	639.709	-0.076	0.193
-625.449	74.881	-0.421	-0.444
-624.434	106.767	0.057	0.068
-623.419	-62.718	-0.548	0.228
-622.405	-200.000	0.004	-0.203
-621.390	686.106	0.140	-0.365
-620.376	132.911	-0.044	-0.057
-619.361	800.000	-0.025	-0.094
-618.346	-200.000	-0.044	-0.304
-617.332	-99.325	-0.123	0.031
-616.317	216.517	0.070	0.112
-615.303	-200.000	-0.035	0.284
-614.288	119.255	0.239	-0.296
-613.273	279.028	-0.098	-0.175
-612.259	-99.790	-0.171	0.043
-611.244	800.000	0.020	0.075
-610.230	-51.363	-0.274	-0.128
-609.215	147.266	-0.053	-0.071
-608.201	-119.902	-0.539	-0.093
-607.186	87.563	-0.065	-0.072
-606.171	-88.815	0.312	0.093
-605.157	-91.255	-0.167	-0.048
-604.142	33.028	-0.241	-0.210
-603.128	-120.830	0.365	-0.062
-602.113	-200.000	-0.039	-0.176
-601.098	-194.859	-0.329	0.003
-600.084	64.381	0.248	-0.251
-599.069	-41.133	0.082	-0.042
-598.055	-200.000	-0.000	-0.003
-597.040	800.000	0.067	-0.258
-596.025	38.824	-0.019	0.017
-595.011	518.369	0.044	0.104
-593.996	-21.199	-0.264	-0.161
-592.982	-86.752	-0.360	-0.110
-591.967	634.567	0.067	0.169
-590.952	-168.129	0.075	-0.003
-589.938	-200.000	0.035	-0.215
-588.923	-54.386	-0.309	-0.140
-587.909	-108.066	-0.159	-0.035
-586.894	291.863	0.142	-0.259
-585.879	-42.137	0.315	-0.161
-584.865	-64.788	0.041	-0.017
-583.850	800.000	0.071	0.248
-582.836	470.875	-0.011	-0.024
-581.821	15.252	0.418	0.328
-580.806	800.000	-0.090	0.349
-579.792	5.930	0.176	-0.131
-578.777	51.469	-0.177	-0.168
-577.763	151.404	-0.091	-0.124
-576.748	371.753	0.085	-0.173
-575.733	-67.430	0.195	-0.077
-574.719	327.929	0.054	-0.103
-573.704	62.046	-0.100	-0.099
-572.690	-47.759	-0.380	-0.184
-571.675	-200.000	-0.034	0.354
-570.661	-200.000	0.038	0.473
-569.646	-178.177	-0.290	0.007
-568.631	654.590	0.048	0.124
-567.617	5.609	-0.249	0.184
-566.602	-15.378	-0.151	-0.096
-565.588	242.527	0.182	0.305
-564.573	139.001	-0.022	0.029
-563.558	-200.000	0.011	0.122
-562.544	-200.000	0.036	-0.282
-561.529	-90.879	-0.224	-0.065
-560.515	800.000	0.111	0.438
-559.500	800.000	-0.051	0.148
-558.485	178.997	0.120	-0.175
-557.471	-200.000	-0.085	0.448
-556.456	45.498	-0.193	0.179
-555.442	800.000	-0.068	-0.269
-554.427	-143.375	0.138	0.013
-553.412	-115.338	-0.198	0.037
-552.398	50.926	0.169	0.160
-551.383	-92.225	-0.153	0.043
-550.369	-60.435	-0.164	0.070
-549.354	-87.431	-0.006	0.002
-548.339	-17.584	0.185	0.116
-547.325	-200.000	0.031	-0.238
-546.310	-10.747	0.254	0.168
-545.296	-43.591	-0.274	0.138
-544.281	-200.000	-0.058	0.280
-543.266	-31.434	0.081	-0.046
-542.252	-200.000	0.024	-0.230
-541.237	-124.182	0.414	0.065
-540.223	293.661	-0.179	0.327
-539.208	800.000	0.122	0.352
-538.193	137.043	0.101	0.132
-537.179	297.778	-0.049	-0.089
-536.164	625.351	-0.125	0.315
-535.150	147.449	-0.065	-0.087
-534.135	-35.398	-0.206	-0.112
-533.121	20.571	0.137	0.110
-532.106	-178.237	-0.203	0.005
-531.091	4.986	0.332	-0.244
-530.077	667.627	0.027	0.070
-529.062	-85.473	0.176	-0.055
-528.048	-200.000	0.022	0.178
-527.033	171.042	0.149	0.214
-526.018	433.899	0.137	-0.297
-525.004	-72.317	-0.207	-0.077
-523.989	62.136	0.221	0.220
-522.975	714.423	0.195	0.517
-521.960	207.305	-0.078	0.121
-520.945	-133.432	0.090	0.011
-519.931	-34.664	0.055	0.030
-518.916	-65.185	-0.343	0.138
-517.902	-65.358	-0.345	0.138
-516.887	327.430	-0.138	-0.263
-515.872	38.867	-0.291	0.259
-514.858	-200.000	-0.050	0.401
-513.843	-2.231	0.057	0.040
-512.829	8.792	0.080	0.060
-511.814	-76.607	0.343	0.120
-510.799	493.704	-0.150	-0.343
-509.785	-125.827	0.062	-0.009
-508.770	-44.907	-0.269	-0.134
-507.756	-200.000	-0.051	0.415
-506.741	-200.000	-0.005	0.225
-505.726	800.000	0.097	-0.267
-504.712	241.351	-0.143	-0.238
-503.697	58.976	-0.136	0.134
-502.683	-108.211	-0.294	0.063
-501.668	800.000	0.051	-0.163
-500.653	-200.000	-0.046	-0.355
-499.639	4.029	0.271	0.198
-498.624	-30.521	0.344	-0.195
-497.610	412.066	-0.098	-0.207
-496.595	800.000	-0.070	-0.206
-495.581	-122.009	-0.303	0.050
-494.566	166.889	0.175	-0.248
-493.551	142.043	-0.278	-0.368
-492.537	181.855	0.267	0.392
-491.522	-101.325	-0.163	-0.040
-490.508	47.602	0.104	-0.097
-489.493	-89.350	0.097	0.028
-488.478	87.643	-0.208	0.230
-487.464	-124.985	-0.262	0.040
-486.449	-200.000	0.030	-0.333
-485.435	286.559	0.036	0.065
-484.420	-10.832	0.271	0.178
-483.405	106.289	0.072	0.085
-482.391	-126.697	-0.325	-0.048
-481.376	-200.000	0.035	0.389
-480.362	-65.437	0.136	0.055
-479.347	-200.000	-0.005	-0.267
-478.332	800.000	-0.066	-0.186
-477.318	800.000	0.113	0.418
-476.303	-91.578	0.030	0.009
-475.289	800.000	0.041	-0.163
-474.274	-200.000	0.017	-0.390
-473.259	309.069	-0.094	-0.176
-472.245	800.000	0.044	0.135
-471.230	162.707	0.119	-0.167
-470.216	-7.103	-0.132	-0.089
-469.201	800.000	-0.064	-0.212
-468.186	-3.937	0.259	0.179
-467.172	-75.456	0.075	0.027
-466.157	235.383	0.049	0.081
-465.143	-158.137	0.327	-0.019
-464.128	-54.768	0.248	0.112
-463.113	-104.067	0.138	0.032
-462.099	161.530	-0.041	-0.057
-461.084	-112.531	-0.219	-0.044
-460.070	15.282	0.281	-0.219
-459.055	219.171	-0.116	-0.185
-458.040	-0.300	0.147	-0.104
-457.026	213.504	-0.113	-0.179
-456.011	-86.128	-0.110	-0.034
-454.997	-22.926	0.025	-0.015
-453.982	173.648	0.085	0.122
-452.968	-162.582	-0.418	0.020
-451.953	35.657	-0.259	-0.227
-450.938	-115.617	0.100	0.019
-449.924	-68.215	-0.231	-0.090
-448.909	-89.780	0.284	-0.083
-447.895	244.402	-0.086	0.144
-446.880	-8.690	-0.198	0.133
-445.865	-128.469	0.206	0.029
-444.851	130.678	-0.244	-0.312
-443.836	59.583	0.211	-0.207
-442.822	233.202	0.039	0.065
-441.807	209.495	-0.126	0.196
-440.792	-50.849	-0.164	0.077
-439.778	-146.202	-0.222	-0.019
-438.763	442.841	-0.091	-0.199
-437.749	40.093	0.165	0.148
-436.734	800.000	0.095	-0.287
-435.719	11.111	-0.360	0.274
-434.705	-80.658	-0.382	-0.126
-433.690	800.000	-0.061	0.185
-432.676	25.050	0.060	-0.049
-431.661	214.073	-0.138	-0.218
-430.646	34.659	0.050	0.043
-429.632	800.000	0.105	-0.347
-428.617	705.333	-0.059	-0.156
-427.603	-72.736	0.233	-0.086
-426.588	112.203	-0.102	-0.123
-425.573	-200.000	0.041	-0.225
-424.559	-97.467	-0.137	-0.035
-423.544	70.538	-0.143	0.147
-422.530	-200.000	-0.038	0.330
-421.515	-85.665	0.221	-0.068
-420.500	444.710	-0.011	0.024
-419.486	-15.639	-0.222	0.141
-418.471	-116.277	-0.154	-0.028
-417.457	800.000	0.036	0.135
-416.442	349.973	0.083	0.163
-415.428	-44.295	-0.334	0.166
-414.413	-148.214	0.055	0.004
-413.398	-200.000	0.001	0.313
-412.384	274.875	0.113	0.199
-411.369	-7.617	-0.275	0.185
-410.355	-200.000	-0.034	-0.357
-409.340	-193.946	0.284	-0.002
-408.325	-25.389	-0.245	-0.144
-407.311	86.690	0.245	-0.269
-406.296	8.813	-0.117	-0.088
-405.282	-200.000	0.008	0.057
-404.267	201.582	-0.134	-0.205
-403.252	135.708	0.142	-0.184
-402.238	-139.096	0.423	-0.045
-401.223	-0.647	-0.075	-0.053
-400.209	93.601	-0.076	-0.086
-399.194	-113.549	-0.221	0.043
-398.179	130.675	-0.098	0.125
-397.165	40.202	0.199	-0.178
-396.150	800.000	-0.074	0.290
-395.136	-44.808	0.158	0.078
-394.121	687.373	0.131	-0.339
-393.106	11.267	-0.106	0.081
-392.092	520.968	0.038	0.089
-391.077	-200.000	0.018	-0.364
-390.063	180.455	-0.083	0.121
-389.048	-195.835	-0.123	-0.001
-388.033	-27.332	0.206	-0.119
-387.019	-74.239	0.250	-0.090
-386.004	370.514	0.090	-0.181
-384.990	-79.612	-0.300	0.100
-383.975	186.097	-0.118	-0.174
-382.960	-65.153	-0.169	0.068
-381.946	-119.005	0.181	-0.032
-380.931	441.442	-0.138	-0.300
-379.917	-31.842	-0.063	-0.035
-378.902	276.707	-0.219	0.387
-377.888	-200.000	-0.033	-0.216
-376.873	-112.647	-0.051	-0.010
-375.858	381.363	0.025	0.052
-374.844	426.391	-0.049	0.105
-373.829	46.399	-0.104	-0.095
-372.815	14.855	-0.148	0.115
-371.800	134.473	-0.120	0.154
-370.785	6.882	-0.122	0.090
-369.771	1.924	-0.106	-0.076
-368.756	-5.231	0.104	-0.071
-367.742	-71.535	-0.179	-0.067
-366.727	166.276	0.103	0.145
-365.712	49.572	0.081	0.076
-364.698	800.000	0.065	-0.200
-363.683	-79.581	-0.271	-0.091
-362.669	189.917	-0.127	-0.189
-361.654	-97.343	-0.369	-0.095
-360.639	597.326	0.067	0.164
-359.625	-17.323	-0.367	-0.230
-358.610	-200.000	0.306	-0.001
-357.596	101.768	0.211	0.245
-356.581	39.319	0.069	-0.061
-355.566	322.881	-0.095	-0.179
-354.552	-200.000	0.011	0.097
-353.537	-92.626	-0.286	-0.080
-352.523	-200.000	0.012	-0.317
-351.508	323.867	0.053	0.101
-350.493	53.784	0.222	-0.212
-349.479	-149.942	0.036	-0.003
-348.464	-102.152	0.194	0.046
-347.450	-54.924	0.183	0.082
-346.435	-123.859	-0.264	0.041
-345.420	-89.936	-0.278	-0.080
-344.406	-200.000	0.011	0.210
-343.391	-200.000	-0.004	-0.142
-342.377	-200.000	-0.002	0.150
-341.362	-57.862	-0.489	-0.212
-340.348	-200.000	0.023	-0.237
-339.333	-200.000	0.039	-0.297
-338.318	-73.852	0.108	-0.039
-337.304	67.936	0.025	0.025
-336.289	36.205	0.121	0.106
-335.275	800.000	-0.148	-0.428
-334.260	-77.870	-0.168	-0.058
-333.245	-57.069	0.135	0.059
-332.231	-136.817	-0.204	-0.023
-331.216	-200.000	-0.070	-0.348
-330.202	800.000	0.043	-0.153
-329.187	94.082	0.214	0.240
-328.172	800.000	0.065	0.221
-327.158	-10.997	0.449	-0.293
-326.143	-146.622	0.097	0.008
-325.129	63.354	-0.057	-0.057
-324.114	-141.411	0.174	-0.017
-323.099	-200.000	0.048	0.216
-322.085	-141.856	0.145	0.014
-321.070	800.000	0.096	-0.310
-320.056	-200.000	0.163	0.000
-319.041	800.000	0.063	0.257
-318.026	-117.414	-0.152	0.027
-317.012	-55.263	0.069	-0.031
-315.997	122.260	0.118	-0.146
-314.983	-104.387	0.240	-0.055
-313.968	800.000	0.045	-0.130
-312.953	-110.268	0.152	-0.031
-311.939	800.000	0.061	-0.203
-310.924	407.572	-0.057	0.119
-309.910	-115.976	-0.299	-0.055
-308.895	615.880	-0.088	0.218
-307.880	7.890	0.187	-0.139
-306.866	39.558	0.339	0.301
-305.851	-9.343	-0.210	-0.139
-304.837	-200.000	-0.053	0.289
-303.822	-34.588	0.359	0.195
-302.807	-40.532	0.434	0.223
-301.793	-109.164	-0.222	0.047
-300.778	-200.000	-0.051	0.224
-299.764	800.000	-0.030	-0.092
-298.749	38.506	0.101	-0.089
-297.735	-169.600	-0.025	0.001
-296.720	-71.106	0.158	-0.059
-295.705	-127.051	0.328	0.048
-294.691	-34.617	-0.170	-0.092
-293.676	-125.186	0.219	-0.033
-292.662	800.000	-0.119	0.440
-291.647	-200.000	-0.037	0.203
-290.632	48.328	-0.204	-0.189
-289.618	-65.067	0.300	0.120
-288.603	-131.474	-0.103	-0.013
-287.589	-36.591	-0.373	0.198
-286.574	-108.029	0.292	-0.063
-285.559	-89.921	-0.452	0.131
-284.545	-21.202	0.409	-0.247
-283.530	47.929	-0.057	0.053
-282.516	270.807	0.106	-0.184
-281.501	-112.015	0.088	0.018
-280.486	-83.988	0.628	-0.198
-279.472	-144.047	-0.106	0.010
-278.457	443.549	-0.090	-0.195
-277.443	800.000	-0.069	0.210
-276.428	204.499	-0.108	0.165
-275.413	31.313	0.016	-0.013
-274.399	-1.523	0.084	0.058
-273.384	37.051	0.046	0.040
-272.370	110.903	-0.112	0.133
-271.355	800.000	0.012	0.045
-270.340	-102.521	0.288	0.068
-269.326	-139.170	0.171	0.018
-268.311	169.747	-0.175	0.248
-267.297	-200.000	0.008	0.050
-266.282	-7.905	0.184	0.123
-265.267	-98.401	-0.117	0.030
-264.253	-33.868	0.134	0.073
-263.238	-92.248	0.205	0.057
-262.224	43.092	-0.150	-0.136
-261.209	-200.000	-0.025	-0.118
-260.195	-82.803	0.119	-0.038
-259.180	-200.000	0.038	-0.240
-258.165	14.313	0.259	-0.199
-257.151	-145.370	0.275	0.024
-256.136	-200.000	0.019	0.149
-255.122	-26.544	0.153	0.088
-254.107	-142.092	0.132	0.013
-253.092	-99.644	0.317	-0.079
-252.078	-5.982	-0.081	-0.055
-251.063	-47.646	-0.270	-0.130
-250.049	-200.000	0.020	-0.114
-249.034	-133.247	0.274	-0.034
-248.019	-29.037	0.110	0.062
-247.005	-200.000	-0.005	0.188
-245.990	58.877	0.230	0.223
-244.976	800.000	0.083	-0.319
-243.961	21.636	-0.213	-0.171
-242.946	-163.513	-0.162	0.008
-241.932	11.751	-0.129	0.098
-240.917	43.823	0.068	0.061
-239.903	64.305	0.193	-0.192
-238.888	-200.000	-0.054	0.297
-237.873	360.003	-0.035	-0.070
-236.859	-117.878	-0.179	-0.032
-235.844	-126.228	0.283	-0.042
-234.830	-114.991	-0.240	-0.045
-233.815	12.247	0.248	-0.188
-232.800	-75.460	0.162	-0.057
-231.786	39.571	0.349	-0.309
-230.771	-60.451	0.038	-0.016
-229.757	-52.305	-0.170	-0.078
-228.742	-133.323	0.113	0.014
-227.727	-3.227	0.306	0.211
-226.713	-52.167	0.209	0.096
-225.698	800.000	0.094	0.294
-224.684	-16.629	0.300	0.188
-223.669	-200.000	-0.015	0.079
-222.655	12.493	-0.136	-0.104
-221.640	120.621	-0.137	-0.168
-220.625	-133.775	-0.166	-0.020
-219.611	374.271	-0.060	0.120
-218.596	-81.716	0.428	0.139
-217.582	184.523	-0.150	0.219
-216.567	391.913	0.091	0.186
-215.552	300.529	0.129	0.235
-214.538	75.270	-0.200	0.208
-213.523	-200.000	-0.177	0.001
-212.509	-200.000	0.007	0.122
-211.494	-168.659	-0.096	0.004
-210.479	502.399	-0.260	0.592
-209.465	97.519	0.149	-0.169
-208.450	345.676	-0.111	-0.215
-207.436	-90.531	-0.004	0.001
-206.421	-129.410	-0.169	0.023
-205.406	-200.000	-0.024	-0.201
-204.392	-19.183	-0.413	-0.253
-203.377	533.212	0.082	-0.191
-202.363	-115.338	0.138	0.026
-201.348	-200.000	0.011	-0.150
-200.333	213.256	-0.033	-0.051
-199.319	800.000	-0.051	-0.183
-198.304	61.644	-0.108	-0.106
-197.290	-75.872	-0.066	0.023
-196.275	800.000	0.044	0.155
-195.260	-109.922	0.375	-0.078
-194.246	-200.000	0.041	0.229
-193.231	800.000	-0.005	-0.019
-192.217	132.430	0.190	-0.242
-191.202	-200.000	-0.024	0.261
-190.187	800.000	0.077	-0.281
-189.173	-139.305	0.092	-0.010
-188.158	-11.941	-0.227	-0.147
-187.144	-200.000	0.025	0.200
-186.129	-13.160	0.160	-0.102
-185.114	-200.000	0.008	0.150
-184.100	13.377	0.077	-0.059
-183.085	-83.947	0.383	0.120
-182.071	-200.000	-0.006	-0.266
-181.056	-9.868	0.096	-0.063
-180.042	800.000	-0.082	0.275
-179.027	620.842	-0.171	0.424
-178.012	-41.176	0.164	0.083
-176.998	-20.930	0.151	0.091
-175.983	-81.189	0.259	-0.084
-174.969	-8.239	0.261	0.173
-173.954	22.637	-0.074	0.060
-172.939	-18.123	-0.091	0.056
-171.925	24.978	-0.326	-0.267
-170.910	-116.846	0.106	-0.019
-169.896	-200.000	-0.023	-0.129
-168.881	181.036	0.206	-0.297
-167.866	-200.000	-0.014	-0.069
-166.852	-25.184	0.220	0.128
-165.837	-200.000	-0.027	-0.198
-164.823	-75.907	0.008	-0.003
-163.808	33.746	0.387	0.332
-162.793	-4.113	-0.197	-0.134
-161.779	-5.620	0.159	-0.107
-160.764	48.228	-0.204	-0.188
-159.750	-200.000	0.070	0.312
-158.735	709.118	0.117	0.304
-157.720	25.403	0.100	-0.082
-156.706	-124.285	0.247	0.038
-155.691	-14.237	-0.191	-0.121
-154.677	800.000	-0.067	0.260
-153.662	-99.474	-0.356	0.088
-152.647	-12.107	-0.326	-0.210
-151.633	-8.225	-0.317	0.210
-150.618	244.479	-0.036	0.059
-149.604	313.209	-0.048	0.089
-148.589	-200.000	-0.002	0.207
-147.574	-200.000	-0.016	-0.124
-146.560	-37.393	0.161	0.085
-145.545	-40.178	0.296	0.151
-144.531	32.141	-0.099	-0.084
-143.516	-114.469	-0.199	0.038
-142.502	-126.920	0.488	0.071
-141.487	-200.000	-0.028	-0.288
-140.472	677.692	0.093	0.239
-139.458	-149.975	-0.282	0.022
-138.443	29.606	0.228	0.191
-137.429	100.196	-0.202	0.230
-136.414	-2.636	-0.270	-0.186
-135.399	-78.233	-0.160	0.054
-134.385	-45.312	-0.268	-0.131
-133.370	800.000	-0.149	-0.574
-132.356	133.126	0.230	0.292
-131.341	49.368	-0.112	-0.104
-130.326	207.013	0.201	0.308
-129.312	-56.862	0.551	0.239
-128.297	-200.000	0.016	0.195
-127.283	-107.113	-0.203	0.044
-126.268	-72.486	0.308	-0.112
-125.253	242.173	0.029	-0.047
-124.239	361.299	-0.145	-0.286
-123.224	32.970	0.110	0.093
-122.210	-200.000	-0.042	0.282
-121.195	-176.790	-0.248	-0.006
-120.180	-109.335	0.176	-0.037
