DTS Sentinel unit serial number:	SN413079Multiplexer serial number:	ORYXHardware model number:	OX4-SRSoftware version number:	ORYX F/W v4.00 Oryx Data Collector v3.7.2.0data status	okinstallation	princeton_trtdifferential loss correction	single-endedforward channel	channel 2reverse channel	N/Adate	2019/09/12time	20:23:35forward acquisition time	60.00reverse acquisition time	0.00gamma	496.2192k internal	0.2326k external	0.2326temperature offset calibration	1.0160default loss term (dB/km)	0.3790temperature slope calibration	1.0000multiplexer offset coefficient	1.0000multiplexer slope coefficient	1.0000fibre end	0.00T internal ref (°C)	31.41T ext. ref 1 (°C)	3.49T ext. ref 2 (°C)	26.00length (m)	temperature (°C)	Stokes	anti-Stokes-747.200	239.141	0.047	-0.078
-746.185	800.000	-0.110	0.354
-745.171	268.273	0.257	0.454
-744.156	327.903	0.060	-0.116
-743.142	-148.604	-0.108	0.009
-742.127	-129.562	0.110	0.015
-741.112	-98.281	0.162	-0.042
-740.098	44.843	-0.193	0.179
-739.083	800.000	0.088	0.292
-738.069	-110.859	0.288	-0.060
-737.054	133.317	-0.150	0.196
-736.039	-27.300	-0.365	0.215
-735.025	90.514	0.196	0.221
-734.010	56.489	-0.212	-0.207
-732.996	44.142	-0.098	-0.091
-731.981	-200.000	-0.025	-0.112
-730.966	323.984	-0.099	0.190
-729.952	1.151	0.185	0.134
-728.937	206.959	-0.211	-0.331
-727.923	-5.730	-0.272	-0.188
-726.908	-99.314	-0.414	-0.105
-725.894	-200.000	-0.030	0.368
-724.879	-147.714	-0.056	0.005
-723.864	119.028	-0.173	-0.216
-722.850	46.255	0.095	-0.089
-721.835	-200.000	-0.012	-0.201
-720.821	16.977	-0.262	-0.209
-719.806	-21.105	-0.261	0.161
-718.791	19.749	0.176	-0.143
-717.777	151.672	-0.061	-0.084
-716.762	-140.615	-0.186	-0.019
-715.748	-120.953	0.107	-0.018
-714.733	-200.000	-0.429	0.001
-713.718	-200.000	0.005	0.116
-712.704	-72.938	0.156	-0.058
-711.689	47.360	-0.272	0.255
-710.675	-200.000	0.005	0.053
-709.660	-200.000	0.022	-0.454
-708.645	-137.011	0.173	-0.020
-707.631	212.361	0.073	0.116
-706.616	-93.586	0.080	0.022
-705.602	-69.504	-0.169	-0.065
-704.587	800.000	-0.051	-0.173
-703.572	-100.358	0.137	-0.034
-702.558	-32.904	-0.119	-0.067
-701.543	-200.000	-0.034	0.320
-700.529	87.343	-0.184	0.205
-699.514	178.054	0.171	0.251
-698.499	-107.261	0.158	0.035
-697.485	4.141	0.239	0.176
-696.470	585.724	-0.195	-0.483
-695.456	-93.134	0.116	-0.032
-694.441	248.252	0.118	0.201
-693.426	-148.342	-0.390	-0.032
-692.412	800.000	-0.070	-0.273
-691.397	236.846	0.085	0.142
-690.383	-1.345	0.238	-0.169
-689.368	-10.723	-0.042	0.028
-688.354	-200.000	0.005	-0.040
-687.339	34.987	-0.142	0.125
-686.324	800.000	0.060	0.236
-685.310	-151.175	0.308	-0.023
-684.295	-200.000	-0.050	-0.252
-683.281	-103.714	0.127	-0.030
-682.266	136.576	-0.080	-0.105
-681.251	385.967	0.074	0.154
-680.237	114.729	0.204	-0.250
-679.222	448.975	-0.050	0.112
-678.208	-50.189	0.336	-0.160
-677.193	-200.000	0.016	-0.132
-676.178	150.185	-0.239	-0.327
-675.164	-183.660	-0.100	0.002
-674.149	-200.000	-0.003	0.094
-673.135	20.583	0.087	0.071
-672.120	206.396	0.108	0.169
-671.105	-200.000	0.045	-0.280
-670.091	-200.000	0.026	0.227
-669.076	23.471	-0.044	-0.036
-668.062	-165.091	0.152	0.007
-667.047	-137.906	0.405	0.045
-666.032	-200.000	-0.007	-0.226
-665.018	-18.375	-0.044	-0.028
-664.003	-200.000	-0.048	-0.271
-662.989	-157.998	-0.194	-0.011
-661.974	-17.773	0.175	0.110
-660.959	748.277	-0.082	0.224
-659.945	167.949	-0.234	0.335
-658.930	4.819	-0.256	-0.189
-657.916	-13.993	0.137	0.089
-656.901	247.277	0.149	-0.254
-655.886	-135.996	-0.171	-0.020
-654.872	35.501	0.294	0.259
-653.857	263.990	0.114	0.200
-652.843	-109.180	-0.131	-0.028
-651.828	-85.287	-0.256	0.080
-650.814	-144.105	0.209	-0.020
-649.799	-99.172	0.224	0.057
-648.784	-94.942	0.079	0.021
-647.770	144.380	-0.258	-0.346
-646.755	-26.358	-0.011	0.007
-645.741	73.733	0.091	-0.096
-644.726	-66.224	-0.280	0.112
-643.711	74.029	-0.070	0.074
-642.697	55.628	-0.165	-0.160
-641.682	-103.725	0.405	-0.095
-640.668	-72.572	-0.113	0.042
-639.653	-200.000	0.442	-0.001
-638.638	11.192	0.053	-0.041
-637.624	646.361	0.089	-0.227
-636.609	210.281	0.143	-0.225
-635.595	-40.126	0.385	0.201
-634.580	469.664	-0.039	0.087
-633.565	271.626	-0.113	0.200
-632.551	122.428	0.046	-0.057
-631.536	309.225	0.028	0.052
-630.522	-42.286	-0.223	-0.114
-629.507	-200.000	0.047	-0.299
-628.492	60.631	-0.221	0.220
-627.478	248.758	0.051	-0.087
-626.463	99.005	0.105	0.122
-625.449	800.000	-0.074	-0.233
-624.434	-86.730	-0.154	0.047
-623.419	76.400	0.141	-0.150
-622.405	-200.000	-0.014	-0.106
-621.390	254.633	-0.059	0.101
-620.376	3.005	0.056	-0.041
-619.361	110.971	-0.229	-0.277
-618.346	-200.000	-0.055	-0.349
-617.332	294.018	-0.092	0.169
-616.317	66.091	0.064	0.065
-615.303	15.870	-0.288	0.228
-614.288	-30.722	-0.095	0.054
-613.273	54.705	0.028	0.028
-612.259	-95.771	-0.105	0.028
-611.244	-65.951	0.092	-0.037
-610.230	-200.000	-0.010	0.146
-609.215	800.000	-0.136	-0.437
-608.201	6.826	-0.127	-0.095
-607.186	18.677	0.175	-0.140
-606.171	223.612	-0.160	-0.260
-605.157	-200.000	0.030	-0.171
-604.142	87.619	-0.067	-0.075
-603.128	-200.000	-0.002	0.052
-602.113	-200.000	0.002	-0.170
-601.098	-145.028	0.038	-0.003
-600.084	-95.542	-0.081	-0.022
-599.069	119.402	-0.055	0.068
-598.055	-139.991	-0.079	-0.008
-597.040	-58.918	0.377	0.163
-596.025	-10.081	-0.229	0.152
-595.011	15.160	-0.262	0.206
-593.996	-92.906	-0.154	0.043
-592.982	-200.000	-0.014	-0.093
-591.967	-200.000	-0.031	-0.157
-590.952	-90.614	-0.277	-0.080
-589.938	-46.907	-0.389	-0.191
-588.923	21.604	-0.146	-0.119
-587.909	-15.633	-0.148	-0.095
-586.894	800.000	-0.047	0.141
-585.879	-200.000	0.028	0.445
-584.865	-200.000	-0.014	0.134
-583.850	-200.000	-0.005	-0.033
-582.836	800.000	-0.094	0.299
-581.821	-54.295	-0.122	-0.056
-580.806	-200.000	-0.003	0.196
-579.792	-45.640	0.329	0.163
-578.777	-108.917	-0.451	0.096
-577.763	728.189	0.044	0.116
-576.748	-19.110	-0.268	0.167
-575.733	470.039	0.088	0.199
-574.719	800.000	0.025	0.104
-573.704	121.306	-0.178	-0.223
-572.690	-117.673	-0.280	0.051
-571.675	75.147	-0.244	-0.257
-570.661	-90.898	0.073	0.021
-569.646	32.227	0.150	0.130
-568.631	536.595	0.016	-0.039
-567.617	800.000	-0.052	-0.195
-566.602	-92.444	-0.369	0.104
-565.588	-1.678	0.150	-0.106
-564.573	225.328	-0.132	-0.214
-563.558	800.000	-0.017	0.058
-562.544	326.887	0.120	-0.230
-561.529	-162.136	-0.323	0.016
-560.515	92.137	-0.167	-0.189
-559.500	60.428	0.222	0.220
-558.485	-15.055	0.421	-0.270
-557.471	-86.169	-0.193	-0.060
-556.456	20.105	-0.263	-0.212
-555.442	715.379	0.063	-0.166
-554.427	120.402	-0.084	-0.105
-553.412	800.000	-0.078	-0.255
-552.398	344.594	-0.102	0.201
-551.383	-47.568	0.197	-0.096
-550.369	-119.247	0.184	0.032
-549.354	351.380	-0.050	-0.098
-548.339	-83.340	-0.098	-0.031
-547.325	-77.496	0.027	-0.009
-546.310	-200.000	-0.009	-0.231
-545.296	-18.894	-0.053	-0.033
-544.281	76.717	-0.210	-0.222
-543.266	22.331	-0.101	0.083
-542.252	757.375	-0.097	0.263
-541.237	-70.492	-0.456	0.173
-540.223	67.701	0.161	-0.165
-539.208	-95.180	-0.228	-0.061
-538.193	9.523	-0.128	0.097
-537.179	362.613	-0.122	0.244
-536.164	-200.000	-0.037	-0.253
-535.150	-117.549	-0.278	0.050
-534.135	-65.073	-0.288	-0.116
-533.121	-62.311	0.199	-0.083
-532.106	-98.071	0.164	-0.042
-531.091	800.000	0.030	0.083
-530.077	-177.107	0.144	-0.004
-529.062	-200.000	-0.001	0.013
-528.048	350.603	-0.164	0.324
-527.033	142.805	-0.141	-0.188
-526.018	-26.202	-0.059	-0.035
-525.004	74.123	-0.177	0.186
-523.989	-200.000	0.006	0.189
-522.975	-102.798	0.137	0.033
-521.960	-200.000	-0.015	0.129
-520.945	-48.839	-0.156	0.075
-519.931	-200.000	-0.047	0.214
-518.916	-54.476	-0.190	-0.086
-517.902	-200.000	0.061	-0.294
-516.887	-88.983	-0.243	0.072
-515.872	-80.948	-0.201	-0.067
-514.858	144.612	0.218	0.292
-513.843	-104.130	0.070	0.016
-512.829	-0.250	0.299	-0.213
-511.814	-61.150	-0.382	-0.161
-510.799	-83.922	-0.117	-0.037
-509.785	-94.019	0.432	0.119
-508.770	-52.997	0.065	0.030
-507.756	261.337	-0.242	0.418
-506.741	-47.019	-0.205	-0.100
-505.726	-11.946	-0.272	0.178
-504.712	380.006	0.253	-0.519
-503.697	610.550	0.138	-0.345
-502.683	-47.295	0.317	-0.154
-501.668	800.000	0.107	-0.453
-500.653	-142.361	0.204	-0.020
-499.639	710.713	-0.111	-0.292
-498.624	31.565	-0.206	0.177
-497.610	-102.294	-0.127	-0.030
-496.595	35.957	0.266	-0.234
-495.581	-80.358	-0.146	0.049
-494.566	104.356	0.230	0.270
-493.551	48.532	-0.179	0.167
-492.537	-44.882	0.213	0.106
-491.522	-200.000	-0.110	-0.000
-490.508	46.918	-0.124	0.115
-489.493	-95.813	0.195	-0.052
-488.478	800.000	0.151	0.491
-487.464	421.226	0.038	0.081
-486.449	10.272	0.189	0.144
-485.435	-100.105	0.129	-0.032
-484.420	-89.822	0.230	-0.067
-483.405	-95.171	0.141	0.038
-482.391	24.819	0.090	-0.074
-481.376	16.306	-0.167	0.131
-480.362	395.247	-0.032	-0.067
-479.347	117.011	-0.169	-0.208
-478.332	229.729	-0.118	-0.192
-477.318	-1.772	-0.126	-0.089
-476.303	-166.038	-0.180	0.008
-475.289	211.715	0.096	-0.151
-474.274	-79.295	0.469	-0.159
-473.259	72.743	-0.173	0.180
-472.245	800.000	0.020	0.056
-471.230	-124.974	-0.316	-0.049
-470.216	800.000	0.087	-0.330
-469.201	482.940	0.068	-0.155
-468.186	-200.000	0.061	-0.306
-467.172	-200.000	-0.077	-0.431
-466.157	800.000	0.115	-0.333
-465.143	-200.000	0.041	-0.187
-464.128	451.544	-0.049	-0.107
-463.113	641.879	-0.068	0.172
-462.099	39.287	-0.245	0.219
-461.084	127.364	0.178	0.226
-460.070	404.724	0.147	-0.309
-459.055	-69.517	-0.338	-0.129
-458.040	-200.000	-0.017	0.346
-457.026	236.755	-0.109	-0.180
-456.011	-200.000	-0.014	0.149
-454.997	-80.111	-0.205	-0.068
-453.982	84.255	0.204	0.222
-452.968	-115.866	0.296	-0.055
-451.953	-200.000	0.032	-0.159
-450.938	79.696	-0.082	-0.088
-449.924	28.424	-0.197	-0.166
-448.909	211.418	0.082	0.128
-447.895	-79.672	-0.321	-0.108
-446.880	-42.903	0.460	0.233
-445.865	73.017	-0.057	-0.060
-444.851	44.676	0.175	0.160
-443.836	-200.000	0.075	0.372
-442.822	54.979	0.282	0.272
-441.807	800.000	-0.027	0.097
-440.792	3.860	0.208	0.152
-439.778	-146.878	0.246	0.021
-438.763	-200.000	-0.028	0.302
-437.749	800.000	0.029	-0.092
-436.734	68.217	-0.167	-0.171
-435.719	-132.535	-0.402	-0.052
-434.705	-6.316	0.087	0.059
-433.690	-113.171	-0.163	-0.032
-432.676	-37.070	-0.242	-0.129
-431.661	703.301	0.117	-0.306
-430.646	-200.000	-0.036	-0.173
-429.632	-147.048	-0.235	-0.020
-428.617	-84.972	0.270	-0.084
-427.603	-75.104	-0.220	0.079
-426.588	800.000	-0.036	0.103
-425.573	401.411	0.063	-0.132
-424.559	-92.813	-0.166	-0.046
-423.544	27.412	-0.247	-0.207
-422.530	216.950	0.243	-0.385
-421.515	114.527	0.051	0.061
-420.500	379.731	0.109	0.223
-419.486	483.344	-0.069	-0.156
-418.471	-52.340	0.178	0.082
-417.457	800.000	0.037	-0.144
-416.442	415.801	-0.099	-0.210
-415.428	800.000	-0.024	-0.068
-414.413	275.388	0.029	-0.051
-413.398	-200.000	-0.053	-0.237
-412.384	234.978	-0.107	0.176
-411.369	187.407	0.149	0.222
-410.355	425.767	0.147	0.314
-409.340	703.532	0.099	0.259
-408.325	-108.731	-0.131	0.028
-407.311	-200.000	-0.008	-0.130
-406.296	-200.000	-0.011	-0.193
-405.282	644.004	0.036	0.091
-404.267	800.000	0.060	-0.249
-403.252	47.336	-0.087	0.081
-402.238	-200.000	-0.038	0.229
-401.223	800.000	-0.048	0.193
-400.209	200.884	0.111	0.169
-399.194	-200.000	-0.052	-0.433
-398.179	108.266	0.194	-0.230
-397.165	588.765	-0.106	0.260
-396.150	195.166	-0.049	-0.073
-395.136	736.226	0.119	0.317
-394.121	-49.816	0.093	-0.044
-393.106	800.000	0.114	-0.346
-392.092	288.029	0.056	-0.101
-391.077	656.068	0.080	0.205
-390.063	-71.867	0.183	-0.068
-389.048	-200.000	-0.019	-0.189
-388.033	274.065	-0.128	0.224
-387.019	181.879	0.057	-0.083
-386.004	328.948	0.195	-0.372
-384.990	353.137	-0.045	-0.089
-383.975	-200.000	-0.031	0.427
-382.960	-125.445	-0.170	0.026
-381.946	-43.560	0.070	-0.035
-380.931	-26.440	-0.115	-0.067
-379.917	-113.089	0.081	0.016
-378.902	-200.000	-0.006	0.180
-377.888	-149.445	0.179	-0.014
-376.873	22.068	-0.134	0.109
-375.858	100.277	-0.214	0.247
-374.844	-5.767	0.147	0.100
-373.829	-172.853	0.414	-0.013
-372.815	493.911	0.138	0.316
-371.800	-200.000	-0.004	-0.070
-370.785	800.000	-0.044	0.164
-369.771	11.084	-0.204	-0.155
-368.756	800.000	-0.104	0.377
-367.742	-50.480	0.251	-0.118
-366.727	13.055	-0.118	-0.091
-365.712	36.176	-0.280	0.245
-364.698	401.795	0.156	0.326
-363.683	74.445	-0.099	0.103
-362.669	-153.817	0.141	0.010
-361.654	74.869	0.022	0.023
-360.639	-80.361	-0.105	-0.035
-359.625	-119.797	0.097	-0.017
-358.610	-200.000	-0.020	-0.379
-357.596	145.739	0.145	-0.193
-356.581	-108.478	0.353	-0.075
-355.566	195.876	-0.034	0.051
-354.552	-155.873	0.201	0.013
-353.537	800.000	0.071	0.226
-352.523	-91.469	0.194	-0.055
-351.508	125.820	0.218	0.274
-350.493	23.327	-0.064	0.052
-349.479	800.000	0.034	-0.122
-348.464	133.588	0.144	0.185
-347.450	-125.604	-0.176	0.027
-346.435	-111.318	0.232	-0.047
-345.420	113.537	0.228	0.274
-344.406	-136.185	0.265	0.031
-343.391	123.334	-0.202	0.251
-342.377	-200.000	0.010	0.055
-341.362	3.156	-0.302	0.218
-340.348	202.192	0.311	0.476
-339.333	-49.296	-0.364	0.173
-338.318	-200.000	0.028	0.244
-337.304	-108.964	0.344	0.073
-336.289	659.770	0.040	-0.101
-335.275	800.000	-0.075	-0.254
-334.260	-134.227	-0.133	-0.016
-333.245	256.882	-0.128	0.218
-332.231	-191.268	0.284	-0.003
-331.216	-200.000	0.194	-0.001
-330.202	-200.000	0.003	0.033
-329.187	-34.640	0.081	-0.044
-328.172	64.467	0.244	0.244
-327.158	-94.185	0.234	0.064
-326.143	-60.747	-0.204	-0.086
-325.129	-200.000	-0.015	-0.230
-324.114	-200.000	0.057	0.375
-323.099	-200.000	-0.036	0.449
-322.085	-150.591	-0.402	0.030
-321.070	800.000	-0.034	-0.135
-320.056	93.635	-0.054	0.061
-319.041	20.346	0.189	0.152
-318.026	179.670	-0.116	-0.169
-317.012	164.355	0.099	0.138
-315.997	22.849	0.215	0.175
-314.983	-76.756	0.287	0.100
-313.968	322.830	0.194	-0.366
-312.953	169.149	-0.044	-0.063
-311.939	-127.212	-0.236	-0.034
-310.924	-142.260	0.068	0.007
-309.910	296.065	-0.085	0.155
-308.895	413.558	-0.096	-0.203
-307.880	-200.000	-0.045	0.315
-306.866	-200.000	0.071	0.371
-305.851	-69.197	0.158	0.060
-304.837	800.000	-0.051	-0.154
-303.822	-75.971	0.221	-0.077
-302.807	22.675	0.087	0.070
-301.793	-69.004	-0.069	-0.026
-300.778	-27.239	-0.208	-0.120
-299.764	-153.463	-0.100	-0.007
-298.749	29.837	0.181	-0.152
-297.735	46.431	-0.272	-0.250
-296.720	-200.000	0.032	0.167
-295.705	9.024	0.217	0.163
-294.691	124.733	0.102	0.128
-293.676	150.599	0.057	0.077
-292.662	-200.000	0.019	-0.105
-291.647	84.185	-0.211	-0.229
-290.632	-200.000	0.020	0.221
-289.618	-155.245	0.137	-0.009
-288.603	-103.758	0.079	-0.018
-287.589	-200.000	0.035	0.303
-286.574	-178.218	0.186	-0.004
-285.559	52.080	-0.217	-0.204
-284.545	-108.180	-0.244	0.052
-283.530	82.988	0.226	0.243
-282.516	800.000	-0.066	0.205
-281.501	133.826	-0.193	0.247
-280.486	-200.000	0.012	-0.152
-279.472	64.142	0.318	-0.317
-278.457	800.000	-0.029	0.113
-277.443	261.863	0.128	-0.220
-276.428	47.007	-0.167	-0.154
-275.413	-200.000	-0.006	0.055
-274.399	-74.752	0.201	0.072
-273.384	800.000	0.052	-0.218
-272.370	-67.247	-0.114	0.044
-271.355	-112.675	0.074	-0.015
-270.340	-63.865	-0.233	0.095
-269.326	-20.737	-0.103	0.063
-268.311	-53.417	-0.270	-0.122
-267.297	-144.476	-0.151	0.014
-266.282	-43.719	-0.353	0.176
-265.267	125.469	0.068	-0.085
-264.253	-200.000	0.018	0.171
-263.238	-42.284	0.205	-0.103
-262.224	19.177	0.082	0.065
-261.209	-63.554	-0.229	-0.093
-260.195	-27.328	-0.172	0.099
-259.180	104.673	-0.111	-0.129
-258.165	135.909	-0.044	-0.057
-257.151	-93.005	0.107	0.029
-256.136	-90.446	-0.215	0.062
-255.122	66.708	-0.155	-0.156
-254.107	254.345	-0.089	-0.151
-253.092	-132.091	-0.192	0.025
-252.078	242.563	0.087	-0.145
-251.063	271.578	0.094	-0.163
-250.049	-130.417	0.217	-0.029
-249.034	-152.514	0.166	0.012
-248.019	275.822	-0.071	-0.126
-247.005	326.504	-0.223	-0.422
-245.990	64.980	0.164	0.164
-244.976	-1.685	-0.249	0.174
-243.961	-6.544	-0.138	0.093
-242.946	-133.076	-0.230	-0.029
-241.932	-136.793	0.087	0.010
-240.917	-125.761	-0.232	-0.035
-239.903	-120.987	-0.257	-0.043
-238.888	100.874	0.082	-0.094
-237.873	5.433	0.285	-0.208
-236.859	105.269	0.086	-0.100
-235.844	315.661	0.190	-0.354
-234.830	800.000	0.095	-0.265
-233.815	-18.641	0.172	-0.106
-232.800	-4.176	0.172	0.118
-231.786	-13.544	-0.252	-0.161
-230.771	173.578	-0.086	0.123
-229.757	-200.000	-0.007	0.228
-228.742	1.009	0.083	-0.059
-227.727	-200.000	-0.016	-0.080
-226.713	172.443	0.263	0.375
-225.698	-129.572	-0.246	-0.034
-224.684	181.153	0.061	0.088
-223.669	-200.000	-0.040	-0.285
-222.655	338.440	0.091	-0.175
-221.640	186.915	0.098	0.144
-220.625	800.000	-0.075	0.229
-219.611	-143.917	-0.243	-0.023
-218.596	-200.000	-0.023	-0.282
-217.582	7.273	-0.206	-0.152
-216.567	-31.448	0.537	0.298
-215.552	-185.256	0.245	-0.004
-214.538	-112.164	0.186	-0.037
-213.523	-200.000	0.003	0.045
-212.509	-123.516	-0.304	0.048
-211.494	-76.038	0.442	0.154
-210.479	10.225	0.244	0.183
-209.465	320.153	0.067	0.125
-208.450	-200.000	0.023	0.263
-207.436	11.269	0.090	-0.068
-206.421	63.556	0.072	-0.071
-205.406	280.150	-0.142	0.251
-204.392	-6.673	0.328	0.221
-203.377	148.853	-0.047	0.063
-202.363	221.607	-0.177	0.280
-201.348	133.466	0.150	0.191
-200.333	-30.953	-0.147	-0.082
-199.319	800.000	0.022	0.077
-198.304	458.210	0.049	-0.107
-197.290	421.515	0.113	-0.239
-196.275	541.571	-0.017	0.040
-195.260	-44.291	0.272	-0.134
-194.246	-200.000	0.017	-0.152
-193.231	-18.043	-0.084	-0.052
-192.217	-68.698	-0.274	-0.105
-191.202	-167.387	0.270	-0.011
-190.187	-134.247	-0.119	0.014
-189.173	-82.438	-0.233	-0.075
-188.158	-76.273	-0.128	0.045
-187.144	429.255	0.074	0.159
-186.129	116.595	-0.148	0.179
-185.114	302.620	-0.093	-0.170
-184.100	-200.000	0.027	-0.174
-183.085	-200.000	-0.018	0.188
-182.071	-52.998	0.130	-0.059
-181.056	-200.000	0.006	-0.180
-180.042	103.663	0.064	0.074
-179.027	-129.582	0.068	0.009
-178.012	396.877	0.119	0.246
-176.998	230.451	-0.049	-0.079
-175.983	-52.668	0.110	0.050
-174.969	-132.879	0.206	0.026
-173.954	-93.512	-0.216	-0.059
-172.939	800.000	0.042	0.138
-171.925	167.966	0.215	-0.302
-170.910	248.195	-0.105	-0.175
-169.896	-158.985	0.094	0.005
-168.881	-43.564	-0.267	-0.133
-167.866	-189.439	0.239	0.003
-166.852	465.664	-0.021	0.047
-165.837	-74.669	0.429	-0.152
-164.823	49.505	0.478	-0.443
-163.808	-36.680	-0.250	-0.132
-162.793	-93.346	0.166	0.045
-161.779	-200.000	-0.004	0.167
-160.764	-200.000	0.034	0.319
-159.750	800.000	0.086	0.362
-158.735	505.248	-0.119	0.272
-157.720	-200.000	-0.035	-0.154
-156.706	-57.968	-0.204	0.088
-155.691	344.021	0.035	0.067
-154.677	-14.012	0.158	-0.101
-153.662	-69.969	0.147	-0.055
-152.647	182.624	0.080	0.117
-151.633	178.619	0.106	0.152
-150.618	-18.233	0.175	-0.108
-149.604	-77.600	-0.187	0.064
-148.589	-51.999	0.064	-0.029
-147.574	-0.933	-0.157	0.110
-146.560	-180.262	0.213	0.004
-145.545	800.000	0.023	0.084
-144.531	86.471	0.165	0.179
-143.516	-33.826	-0.053	-0.029
-142.502	-200.000	0.027	-0.261
-141.487	88.133	0.068	-0.075
-140.472	-98.324	-0.354	0.090
-139.458	-74.545	0.047	-0.017
-138.443	29.528	-0.210	0.176
-137.429	373.838	-0.097	-0.195
-136.414	400.356	-0.078	0.161
-135.399	-72.983	-0.098	0.036
-134.385	48.197	-0.218	-0.201
-133.370	800.000	-0.176	-0.509
-132.356	-112.289	-0.333	-0.066
-131.341	2.114	0.255	0.182
-130.326	34.497	-0.267	0.230
-129.312	447.399	0.123	-0.266
-128.297	-58.607	-0.243	-0.104
-127.283	488.449	0.063	-0.142
-126.268	137.391	-0.284	-0.366
-125.253	86.066	-0.204	0.221
-124.239	76.004	-0.081	0.084
-123.224	196.987	0.275	0.413
-122.210	-98.669	-0.101	0.025
-121.195	578.222	0.045	-0.108
