DTS Sentinel unit serial number:	SN413079Multiplexer serial number:	ORYXHardware model number:	OX4-SRSoftware version number:	ORYX F/W v4.00 Oryx Data Collector v3.7.2.0data status	okinstallation	princeton_trtdifferential loss correction	single-endedforward channel	channel 2reverse channel	N/Adate	2019/09/10time	22:53:10forward acquisition time	60.00reverse acquisition time	0.00gamma	496.2192k internal	0.2330k external	0.2330temperature offset calibration	0.9946default loss term (dB/km)	0.3790temperature slope calibration	1.0000multiplexer offset coefficient	1.0000multiplexer slope coefficient	1.0000fibre end	0.00T internal ref (°C)	30.12T ext. ref 1 (°C)	-0.31T ext. ref 2 (°C)	23.42length (m)	temperature (°C)	Stokes	anti-Stokes-747.200	-1.343	-0.091	-0.065
-746.185	121.962	0.144	0.182
-745.171	-17.041	-0.252	0.160
-744.156	180.325	0.052	0.077
-743.142	508.627	0.082	0.192
-742.127	-82.015	-0.155	0.051
-741.112	252.624	0.045	0.076
-740.098	-32.160	-0.093	-0.052
-739.083	-54.797	0.159	0.072
-738.069	-200.000	-0.031	0.359
-737.054	251.184	0.118	0.202
-736.039	93.453	-0.090	0.103
-735.025	554.559	0.031	0.074
-734.010	50.338	-0.129	0.123
-732.996	-200.000	-0.006	0.077
-731.981	-181.892	-0.253	-0.005
-730.966	-200.000	-0.053	-0.306
-729.952	62.584	-0.282	-0.284
-728.937	-34.767	0.319	-0.176
-727.923	278.564	0.133	0.239
-726.908	-200.000	-0.046	0.241
-725.894	-8.458	-0.095	-0.064
-724.879	-21.850	0.029	-0.017
-723.864	44.764	-0.446	-0.413
-722.850	-200.000	-0.020	-0.230
-721.835	-200.000	-0.001	0.168
-720.821	-25.071	0.080	0.048
-719.806	-45.595	0.172	-0.086
-718.791	-200.000	-0.023	0.241
-717.777	-159.661	-0.305	0.017
-716.762	156.128	0.117	-0.162
-715.748	-16.429	-0.064	0.041
-714.733	356.008	-0.061	-0.122
-713.718	-119.853	-0.420	-0.073
-712.704	-200.000	-0.019	0.380
-711.689	-121.928	-0.170	-0.028
-710.675	-61.554	-0.141	-0.059
-709.660	800.000	0.149	-0.514
-708.645	29.702	-0.226	0.193
-707.631	-200.000	-0.002	0.075
-706.616	7.829	-0.245	-0.184
-705.602	437.873	-0.068	-0.149
-704.587	-82.293	0.107	-0.035
-703.572	63.320	-0.140	0.141
-702.558	-200.000	-0.025	-0.265
-701.543	54.946	0.109	-0.106
-700.529	81.537	0.213	-0.232
-699.514	-43.093	-0.163	0.083
-698.499	88.586	0.054	-0.060
-697.485	-38.080	0.234	0.125
-696.470	95.750	-0.237	-0.271
-695.456	-21.173	-0.268	0.165
-694.441	-47.302	0.073	0.035
-693.426	595.229	0.026	-0.065
-692.412	4.919	-0.047	-0.035
-691.397	159.436	-0.124	-0.174
-690.383	-85.891	-0.215	0.067
-689.368	97.758	0.113	-0.131
-688.354	111.202	-0.207	-0.251
-687.339	-200.000	0.003	0.157
-686.324	-200.000	-0.022	0.263
-685.310	-81.834	0.175	0.057
-684.295	-100.418	-0.634	-0.158
-683.281	-200.000	-0.117	-0.556
-682.266	410.051	-0.184	-0.392
-681.251	-46.619	0.150	0.074
-680.237	800.000	0.016	0.050
-679.222	-173.920	0.094	-0.003
-678.208	-200.000	0.021	0.240
-677.193	-48.385	-0.202	0.098
-676.178	-64.862	0.079	-0.032
-675.164	95.654	0.223	-0.256
-674.149	-105.087	0.379	0.087
-673.135	86.066	-0.029	-0.033
-672.120	800.000	0.056	-0.218
-671.105	800.000	0.065	0.236
-670.091	800.000	0.038	-0.129
-669.076	-153.536	-0.244	0.017
-668.062	-62.014	-0.129	0.054
-667.047	-191.852	-0.056	-0.001
-666.032	-116.506	0.346	-0.064
-665.018	63.441	-0.169	-0.170
-664.003	441.273	-0.083	-0.181
-662.989	-45.743	-0.140	-0.070
-661.974	71.689	0.232	0.242
-660.959	138.712	-0.127	-0.167
-659.945	264.916	0.051	0.089
-658.930	43.829	0.199	0.183
-657.916	-200.000	-0.051	-0.369
-656.901	253.776	-0.210	-0.360
-655.886	193.191	0.059	-0.090
-654.872	197.594	0.184	0.282
-653.857	-80.795	-0.300	0.100
-652.843	247.889	0.057	-0.097
-651.828	800.000	0.088	0.267
-650.814	-84.178	-0.169	0.054
-649.799	56.439	-0.061	-0.060
-648.784	794.395	-0.112	-0.308
-647.770	3.781	-0.207	0.152
-646.755	-200.000	0.050	0.281
-645.741	747.519	0.096	0.261
-644.726	573.601	-0.053	-0.129
-643.711	11.754	-0.058	0.044
-642.697	-70.612	-0.137	0.052
-641.682	-22.606	0.090	0.054
-640.668	253.440	-0.130	-0.222
-639.653	800.000	0.070	0.224
-638.638	-84.612	0.109	-0.035
-637.624	800.000	0.007	0.025
-636.609	294.777	0.211	0.386
-635.595	-89.884	0.073	-0.021
-634.580	-102.097	0.193	-0.047
-633.565	-50.007	-0.270	0.128
-632.551	-200.000	-0.020	0.384
-631.536	181.957	0.205	-0.302
-630.522	-61.137	-0.437	-0.185
-629.507	-25.035	-0.285	0.169
-628.492	-160.304	-0.156	-0.008
-627.478	35.504	-0.078	-0.069
-626.463	273.390	0.221	0.392
-625.449	-200.000	0.033	0.261
-624.434	359.420	0.120	-0.240
-623.419	8.827	-0.305	-0.230
-622.405	-200.000	0.034	0.175
-621.390	-58.341	0.135	0.059
-620.376	222.904	-0.144	0.233
-619.361	-0.603	0.240	-0.170
-618.346	800.000	-0.083	-0.289
-617.332	-200.000	0.003	-0.231
-616.317	-200.000	0.009	-0.084
-615.303	304.641	-0.166	-0.309
-614.288	480.057	0.045	0.103
-613.273	117.679	-0.117	-0.144
-612.259	112.710	-0.202	0.245
-611.244	-54.991	-0.559	-0.252
-610.230	-112.920	-0.270	0.054
-609.215	800.000	0.069	-0.198
-608.201	-73.769	-0.160	-0.058
-607.186	597.233	0.023	-0.057
-606.171	800.000	-0.040	-0.165
-605.157	-60.482	-0.194	-0.082
-604.142	-200.000	0.026	0.223
-603.128	-98.112	-0.531	0.137
-602.113	-18.348	0.199	-0.124
-601.098	186.348	-0.131	0.195
-600.084	35.742	-0.081	0.071
-599.069	-52.468	-0.054	0.025
-598.055	-53.823	-0.359	0.164
-597.040	231.809	0.052	0.085
-596.025	-96.470	0.248	-0.066
-595.011	349.665	0.044	-0.088
-593.996	-66.606	0.267	-0.106
-592.982	-108.836	0.242	0.052
-591.967	-36.689	0.032	0.017
-590.952	-200.000	-0.007	0.264
-589.938	-152.039	0.292	0.021
-588.923	511.751	-0.010	-0.023
-587.909	-105.033	-0.064	-0.015
-586.894	56.675	0.193	0.188
-585.879	486.027	0.057	0.130
-584.865	-200.000	0.007	-0.188
-583.850	791.618	0.082	-0.224
-582.836	23.063	-0.066	-0.055
-581.821	-36.474	0.092	-0.050
-580.806	-2.012	0.206	0.145
-579.792	198.289	0.099	0.151
-578.777	-200.000	-0.078	-0.351
-577.763	-42.962	0.069	-0.035
-576.748	-19.508	-0.110	-0.068
-575.733	-200.000	0.004	-0.206
-574.719	-70.263	0.094	-0.036
-573.704	239.588	-0.053	-0.088
-572.690	111.248	-0.086	0.103
-571.675	353.816	0.107	0.212
-570.661	800.000	0.064	0.220
-569.646	340.039	0.168	-0.328
-568.631	133.304	0.196	0.253
-567.617	154.966	-0.079	-0.108
-566.602	715.769	0.084	-0.223
-565.588	-73.972	-0.234	-0.085
-564.573	-200.000	0.018	-0.123
-563.558	800.000	-0.039	-0.138
-562.544	105.287	0.183	0.216
-561.529	-133.549	-0.334	0.042
-560.515	-147.145	0.136	0.012
-559.500	214.559	0.022	0.035
-558.485	800.000	0.014	0.055
-557.471	430.459	0.194	-0.420
-556.456	-152.334	0.077	-0.006
-555.442	800.000	-0.045	0.155
-554.427	800.000	0.071	0.246
-553.412	65.450	-0.220	-0.223
-552.398	-125.166	-0.109	0.017
-551.383	-91.777	0.132	0.038
-550.369	800.000	-0.076	0.305
-549.354	-136.106	-0.207	0.024
-548.339	-51.739	-0.283	-0.132
-547.325	43.749	0.263	-0.241
-546.310	-62.752	-0.389	0.161
-545.296	-130.069	0.286	0.039
-544.281	57.485	0.127	-0.124
-543.266	-149.559	-0.540	-0.043
-542.252	-26.986	0.205	0.119
-541.237	141.164	-0.140	-0.185
-540.223	539.321	-0.210	0.499
-539.208	-50.527	0.174	-0.082
-538.193	-76.487	0.075	-0.026
-537.179	15.936	-0.149	-0.117
-536.164	528.137	-0.122	0.288
-535.150	-127.161	-0.243	-0.036
-534.135	-3.260	0.050	0.035
-533.121	-106.380	-0.433	0.097
-532.106	-14.402	0.257	-0.165
-531.091	2.908	0.081	0.059
-530.077	642.200	-0.188	0.478
-529.062	-157.028	-0.318	-0.019
-528.048	-108.211	0.263	0.057
-527.033	44.643	0.359	-0.329
-526.018	9.215	0.096	-0.073
-525.004	800.000	0.049	-0.197
-523.989	-200.000	-0.020	-0.175
-522.975	-75.597	0.223	-0.079
-521.960	800.000	0.035	0.107
-520.945	-25.987	-0.389	0.229
-519.931	-74.759	-0.475	-0.170
-518.916	17.223	0.201	0.159
-517.902	-200.000	-0.039	0.174
-516.887	138.409	-0.212	0.278
-515.872	-105.276	-0.193	-0.044
-514.858	-200.000	0.013	-0.119
-513.843	357.861	0.053	0.106
-512.829	346.785	0.072	-0.142
-511.814	88.730	0.137	0.152
-510.799	800.000	-0.075	-0.208
-509.785	800.000	-0.080	0.314
-508.770	-124.347	0.059	-0.009
-507.756	22.336	-0.051	-0.041
-506.741	-200.000	0.002	0.112
-505.726	57.181	-0.122	-0.119
-504.712	-18.054	0.247	-0.154
-503.697	-12.704	0.046	0.030
-502.683	270.587	-0.192	0.337
-501.668	144.798	-0.058	-0.078
-500.653	-200.000	0.034	0.196
-499.639	800.000	0.080	-0.252
-498.624	74.960	-0.097	-0.102
-497.610	432.298	-0.029	0.063
-496.595	192.026	-0.088	0.132
-495.581	-200.000	-0.028	0.307
-494.566	-149.163	-0.189	-0.015
-493.551	568.859	0.061	0.148
-492.537	47.693	-0.095	0.088
-491.522	800.000	-0.023	0.075
-490.508	-32.013	0.052	0.029
-489.493	-200.000	0.028	-0.247
-488.478	11.950	-0.134	0.103
-487.464	4.673	0.054	0.040
-486.449	752.005	0.038	0.101
-485.435	-200.000	0.000	0.080
-484.420	-53.773	-0.088	-0.040
-483.405	51.034	-0.122	-0.115
-482.391	-200.000	0.003	-0.225
-481.376	612.755	0.066	0.164
-480.362	-118.811	-0.184	-0.032
-479.347	349.433	0.115	0.227
-478.332	-160.962	-0.315	0.017
-477.318	311.866	-0.059	-0.110
-476.303	-200.000	-0.007	-0.118
-475.289	80.980	-0.201	-0.216
-474.274	-15.370	-0.294	-0.187
-473.259	57.525	-0.119	0.116
-472.245	-70.696	-0.333	-0.125
-471.230	-90.747	0.075	-0.021
-470.216	-42.165	0.041	-0.021
-469.201	800.000	-0.114	-0.351
-468.186	139.765	0.093	-0.122
-467.172	-91.364	0.535	-0.152
-466.157	-41.783	0.332	0.170
-465.143	-200.000	0.002	0.284
-464.128	-102.815	0.158	-0.037
-463.113	62.513	0.224	-0.223
-462.099	800.000	0.068	0.230
-461.084	-200.000	-0.018	0.179
-460.070	800.000	-0.071	0.212
-459.055	-200.000	-0.002	-0.105
-458.040	-200.000	-0.006	0.052
-457.026	-200.000	0.040	0.265
-456.011	112.522	-0.163	0.197
-454.997	-200.000	0.024	-0.192
-453.982	56.429	0.090	-0.087
-452.968	-31.637	0.262	-0.146
-451.953	-95.437	0.259	0.069
-450.938	800.000	-0.044	-0.168
-449.924	82.865	0.267	0.289
-448.909	-85.379	-0.310	-0.096
-447.895	-164.147	-0.191	0.009
-446.880	251.408	0.104	0.176
-445.865	55.612	-0.097	0.093
-444.851	277.868	-0.073	0.129
-443.836	197.305	-0.133	0.202
-442.822	-51.308	0.283	-0.132
-441.807	-90.654	-0.125	-0.036
-440.792	154.505	0.035	0.048
-439.778	-7.344	0.197	0.133
-438.763	-28.648	0.057	0.032
-437.749	391.810	0.133	0.274
-436.734	94.095	-0.200	0.226
-435.719	414.718	0.022	0.047
-434.705	-161.003	0.243	-0.013
-433.690	-90.064	0.108	-0.031
-432.676	17.710	0.189	-0.149
-431.661	324.517	0.043	-0.081
-430.646	-200.000	0.015	0.188
-429.632	-200.000	-0.008	0.263
-428.617	-133.839	0.087	-0.011
-427.603	-62.037	-0.270	-0.112
-426.588	-200.000	-0.026	-0.136
-425.573	261.410	0.050	0.086
-424.559	-19.350	0.152	-0.094
-423.544	-50.300	0.091	0.043
-422.530	800.000	-0.067	-0.201
-421.515	-122.148	-0.145	0.024
-420.500	-200.000	0.018	-0.195
-419.486	-0.925	-0.169	0.119
-418.471	418.440	0.143	-0.304
-417.457	-80.568	-0.402	-0.133
-416.442	577.026	-0.089	-0.217
-415.428	485.498	-0.066	-0.150
-414.413	-39.459	0.364	-0.190
-413.398	1.314	-0.166	0.118
-412.384	-26.738	-0.067	0.039
-411.369	-18.164	0.121	-0.075
-410.355	5.708	0.093	0.068
-409.340	-200.000	0.007	0.055
-408.325	-83.196	0.300	-0.096
-407.311	28.998	0.096	-0.081
-406.296	-116.677	0.206	0.038
-405.282	-200.000	-0.011	0.209
-404.267	-34.922	-0.168	0.091
-403.252	7.926	-0.120	-0.090
-402.238	-200.000	-0.043	0.225
-401.223	-67.496	0.058	0.023
-400.209	-200.000	0.042	0.299
-399.194	86.316	-0.208	-0.228
-398.179	-35.508	-0.146	-0.079
-397.165	-15.904	-0.072	0.045
-396.150	-200.000	-0.019	0.170
-395.136	-200.000	-0.008	-0.120
-394.121	-200.000	-0.005	-0.378
-393.106	24.614	0.228	-0.187
-392.092	800.000	-0.098	-0.331
-391.077	800.000	-0.046	-0.171
-390.063	-130.953	-0.450	-0.060
-389.048	-200.000	0.018	-0.396
-388.033	-19.797	-0.088	-0.054
-387.019	-36.176	0.201	0.108
-386.004	-93.245	0.088	-0.024
-384.990	90.012	-0.171	-0.189
-383.975	-200.000	-0.006	-0.046
-382.960	144.266	-0.047	-0.062
-381.946	88.670	0.092	-0.102
-380.931	-182.518	-0.315	-0.006
-379.917	82.800	0.284	0.306
-378.902	257.281	0.079	-0.135
-377.888	336.424	0.190	-0.367
-376.873	416.706	-0.070	-0.149
-375.858	-200.000	-0.008	-0.273
-374.844	-34.345	-0.252	-0.137
-373.829	-200.000	0.152	0.000
-372.815	-35.832	0.106	0.057
-371.800	455.151	0.090	0.197
-370.785	-129.314	0.212	-0.029
-369.771	800.000	-0.061	0.189
-368.756	-67.320	0.111	-0.043
-367.742	-134.639	0.082	-0.010
-366.727	218.084	0.085	0.134
-365.712	-135.690	-0.368	-0.043
-364.698	35.083	0.182	0.158
-363.683	-136.639	0.067	-0.008
-362.669	74.556	-0.103	-0.107
-361.654	800.000	0.128	0.407
-360.639	-200.000	0.030	0.138
-359.625	209.511	0.057	0.089
-358.610	151.583	-0.092	-0.124
-357.596	800.000	0.088	-0.318
-356.581	-120.705	-0.164	-0.028
-355.566	800.000	-0.104	-0.370
-354.552	-140.691	0.189	-0.019
-353.537	-97.080	0.430	-0.112
-352.523	-55.441	-0.035	0.016
-351.508	108.382	-0.106	0.126
-350.493	8.867	0.208	0.156
-349.479	-121.251	0.180	-0.030
-348.464	-8.815	-0.411	-0.273
-347.450	-48.036	-0.359	-0.172
-346.435	46.594	0.190	-0.175
-345.420	151.241	0.233	0.314
-344.406	131.866	0.069	0.089
-343.391	-78.586	0.417	-0.141
-342.377	-98.442	0.410	-0.104
-341.362	-7.000	-0.413	0.278
-340.348	-100.930	0.229	-0.056
-339.333	-200.000	-0.063	-0.316
-338.318	-200.000	0.004	-0.110
-337.304	-82.626	0.247	-0.079
-336.289	-13.654	-0.117	0.075
-335.275	-200.000	-0.003	0.149
-334.260	-200.000	-0.032	0.255
-333.245	-200.000	0.003	0.169
-332.231	-112.204	-0.222	-0.044
-331.216	159.881	0.045	-0.063
-330.202	-200.000	-0.008	0.299
-329.187	-72.571	0.247	0.090
-328.172	101.102	0.016	0.018
-327.158	15.032	0.275	-0.213
-326.143	255.379	-0.012	-0.020
-325.129	-19.047	-0.062	-0.038
-324.114	114.665	0.194	-0.234
-323.099	15.988	0.110	-0.086
-322.085	155.390	-0.184	-0.250
-321.070	800.000	-0.056	0.185
-320.056	570.053	0.032	-0.078
-319.041	-60.612	0.033	-0.014
-318.026	-200.000	0.045	-0.277
-317.012	64.991	0.291	0.291
-315.997	-121.249	-0.200	0.033
-314.983	-200.000	0.017	0.086
-313.968	-200.000	0.004	-0.252
-312.953	800.000	0.054	0.181
-311.939	-200.000	0.116	0.000
-310.924	-44.183	-0.255	-0.127
-309.910	242.015	0.124	0.206
-308.895	27.408	-0.120	0.100
-307.880	-200.000	0.070	-0.311
-306.866	-57.450	0.267	0.116
-305.851	271.411	-0.053	0.092
-304.837	800.000	-0.031	-0.089
-303.822	-39.880	-0.074	0.038
-302.807	-121.935	0.204	0.033
-301.793	346.411	-0.123	0.239
-300.778	-85.867	0.109	-0.033
-299.764	-200.000	-0.013	-0.306
-298.749	-7.767	-0.371	0.248
-297.735	-31.726	-0.351	0.195
-296.720	103.817	-0.138	0.161
-295.705	52.742	0.061	-0.058
-294.691	63.532	-0.128	-0.127
-293.676	-79.681	-0.120	-0.040
-292.662	800.000	0.047	0.164
-291.647	622.366	0.082	0.204
-290.632	-200.000	0.023	-0.254
-289.618	800.000	-0.064	0.220
-288.603	-166.412	-0.298	0.012
-287.589	28.902	0.200	-0.168
-286.574	-3.725	-0.108	-0.074
-285.559	-35.834	0.170	0.091
-284.545	721.111	0.088	-0.230
-283.530	62.048	0.063	0.062
-282.516	-101.745	-0.333	0.080
-281.501	-102.885	-0.148	-0.035
-280.486	800.000	-0.072	-0.239
-279.472	725.780	0.036	0.094
-278.457	-134.659	-0.285	0.034
-277.443	235.843	0.114	0.187
-276.428	-200.000	-0.064	-0.333
-275.413	-4.136	-0.156	0.107
-274.399	58.223	-0.346	0.335
-273.384	-140.064	0.469	0.049
-272.370	69.962	-0.162	0.165
-271.355	-90.285	-0.142	0.041
-270.340	-9.622	0.345	-0.228
-269.326	-70.103	0.166	-0.062
-268.311	-64.396	-0.170	0.068
-267.297	-148.054	0.063	-0.005
-266.282	41.726	-0.104	0.093
-265.267	-104.817	-0.058	0.013
-264.253	10.276	0.223	0.167
-263.238	581.342	0.054	0.131
-262.224	271.319	-0.130	-0.226
-261.209	800.000	-0.065	-0.224
-260.195	-131.853	0.279	-0.036
-259.180	657.546	0.049	0.125
-258.165	611.703	0.221	0.545
-257.151	-200.000	0.046	0.336
-256.136	-138.371	0.221	-0.024
-255.122	-123.662	0.213	-0.033
-254.107	472.352	0.090	0.201
-253.092	-200.000	0.026	-0.175
-252.078	-200.000	0.002	0.179
-251.063	113.787	-0.190	0.228
-250.049	800.000	-0.032	0.113
-249.034	-200.000	-0.011	0.226
-248.019	281.929	-0.119	0.211
-247.005	-115.386	-0.096	0.018
-245.990	-80.613	-0.074	-0.024
-244.976	94.686	-0.187	-0.210
-243.961	-129.087	0.512	-0.071
-242.946	-200.000	-0.064	-0.281
-241.932	-81.468	-0.316	0.103
-240.917	-44.331	0.327	-0.162
-239.903	35.419	-0.211	-0.183
-238.888	662.695	0.108	-0.276
-237.873	800.000	-0.105	-0.299
-236.859	800.000	-0.066	-0.218
-235.844	23.011	0.200	-0.162
-234.830	195.283	0.148	-0.222
-233.815	493.084	-0.050	-0.112
-232.800	-59.411	-0.230	-0.097
-231.786	-200.000	-0.018	-0.164
-230.771	76.309	0.374	0.391
-229.757	-30.091	-0.121	-0.068
-228.742	526.888	-0.076	-0.177
-227.727	93.112	-0.056	-0.063
-226.713	276.073	-0.063	0.111
-225.698	21.109	-0.078	0.063
-224.684	385.883	0.119	0.242
-223.669	-178.695	-0.194	-0.004
-222.655	-200.000	-0.007	-0.056
-221.640	18.404	-0.185	0.146
-220.625	163.628	0.194	-0.270
-219.611	-119.047	0.154	-0.027
-218.596	800.000	0.065	0.198
-217.582	800.000	-0.094	-0.343
-216.567	-87.253	0.224	0.067
-215.552	-200.000	-0.017	0.100
-214.538	15.398	0.133	-0.103
-213.523	-33.160	-0.326	-0.178
-212.509	44.964	0.110	0.100
-211.494	13.351	0.058	0.045
-210.479	241.042	-0.064	-0.105
-209.465	-200.000	0.005	-0.040
-208.450	-116.942	0.249	-0.045
-207.436	-105.232	0.242	-0.055
-206.421	-7.650	0.088	-0.059
-205.406	44.553	-0.114	-0.103
-204.392	160.853	0.187	0.258
-203.377	-200.000	-0.020	-0.287
-202.363	75.899	0.098	0.103
-201.348	416.251	-0.074	-0.155
-200.333	-200.000	-0.049	0.298
-199.319	33.593	0.164	-0.141
-198.304	97.294	-0.177	0.200
-197.290	800.000	0.107	0.332
-196.275	220.390	-0.226	-0.357
-195.260	-53.278	0.283	-0.128
-194.246	-85.776	-0.023	0.007
-193.231	227.011	-0.079	0.126
-192.217	457.958	-0.069	0.152
-191.202	600.636	0.086	-0.211
-190.187	-200.000	0.071	-0.356
-189.173	-95.540	0.360	0.095
-188.158	283.424	0.116	0.206
-187.144	-143.159	-0.146	0.014
-186.129	375.687	-0.045	0.091
-185.114	800.000	0.041	-0.127
-184.100	90.597	0.124	-0.137
-183.085	205.358	-0.175	-0.267
-182.071	121.405	0.052	0.063
-181.056	27.745	-0.187	0.155
-180.042	-144.848	0.337	0.030
-179.027	-94.618	0.326	-0.087
-178.012	251.461	-0.149	-0.249
-176.998	-65.931	-0.192	0.075
-175.983	-200.000	-0.030	0.689
-174.969	252.504	-0.120	0.202
-173.954	-123.703	-0.415	-0.065
-172.939	-200.000	-0.036	0.340
-171.925	800.000	0.063	0.191
-170.910	134.447	-0.210	-0.269
-169.896	-74.928	0.128	-0.045
-168.881	-102.441	0.127	0.030
-167.866	800.000	0.099	0.328
-166.852	131.259	-0.106	0.134
-165.837	-138.828	0.294	-0.032
-164.823	800.000	-0.115	-0.362
-163.808	-97.307	-0.166	0.043
-162.793	-34.702	-0.213	0.115
-161.779	12.255	-0.110	-0.083
-160.764	-11.677	0.162	0.105
-159.750	12.267	0.361	-0.273
-158.735	-34.250	0.138	-0.075
-157.720	-76.814	0.076	-0.026
-156.706	-23.386	-0.065	-0.039
-155.691	6.508	-0.009	-0.006
-154.677	-69.577	-0.106	-0.040
-153.662	750.717	0.125	0.332
-152.647	-85.448	0.125	0.038
-151.633	-51.597	0.271	0.124
-150.618	2.886	0.114	0.081
-149.604	-138.858	-0.174	-0.019
-148.589	772.379	-0.123	0.330
-147.574	280.319	-0.092	0.162
-146.560	800.000	-0.048	0.195
-145.545	108.154	-0.094	-0.111
-144.531	95.865	-0.099	0.112
-143.516	-15.856	0.170	-0.106
-142.502	800.000	0.072	0.215
-141.487	-86.492	-0.306	-0.092
-140.472	64.259	-0.092	-0.091
-139.458	-200.000	0.094	0.429
-138.443	55.602	0.127	0.121
-137.429	-200.000	-0.044	-0.231
-136.414	-178.717	0.088	0.002
-135.399	32.501	-0.159	-0.135
-134.385	-133.434	-0.162	-0.020
-133.370	-75.146	-0.137	0.048
-132.356	-200.000	0.018	-0.174
-131.341	-130.056	0.169	0.023
-130.326	190.902	-0.155	-0.229
-129.312	-200.000	-0.017	-0.358
-128.297	-137.322	0.449	-0.050
-127.283	-20.213	-0.136	0.082
-126.268	-31.764	-0.071	0.039
-125.253	-176.084	-0.436	0.011
-124.239	-200.000	0.035	0.270
-123.224	207.345	0.134	0.206
-122.210	46.684	-0.012	-0.011
-121.195	301.091	0.280	-0.509
