DTS Sentinel unit serial number:	SN413079Multiplexer serial number:	ORYXHardware model number:	OX4-SRSoftware version number:	ORYX F/W v4.00 Oryx Data Collector v3.7.2.0data status	okinstallation	princeton_trtdifferential loss correction	single-endedforward channel	channel 2reverse channel	N/Adate	2019/09/11time	09:57:11forward acquisition time	60.00reverse acquisition time	0.00gamma	496.2192k internal	0.2315k external	0.2315temperature offset calibration	0.9966default loss term (dB/km)	0.3790temperature slope calibration	1.0000multiplexer offset coefficient	1.0000multiplexer slope coefficient	1.0000fibre end	0.00T internal ref (°C)	35.27T ext. ref 1 (°C)	0.12T ext. ref 2 (°C)	32.90length (m)	temperature (°C)	Stokes	anti-Stokes-747.200	-200.000	0.021	0.146
-746.185	189.135	0.153	0.232
-745.171	359.107	0.123	-0.248
-744.156	313.947	-0.120	-0.230
-743.142	178.581	0.181	0.267
-742.127	800.000	-0.166	0.532
-741.112	-96.017	0.118	-0.032
-740.098	-200.000	0.008	0.116
-739.083	33.592	-0.247	-0.218
-738.069	-26.374	0.051	0.030
-737.054	107.987	0.085	0.102
-736.039	39.584	-0.153	-0.139
-735.025	30.169	0.299	0.258
-734.010	32.781	-0.061	-0.054
-732.996	-67.364	0.213	-0.085
-731.981	236.760	-0.065	0.109
-730.966	-200.000	-0.052	-0.428
-729.952	69.796	-0.275	-0.287
-728.937	-200.000	-0.012	0.250
-727.923	-63.243	-0.051	-0.021
-726.908	800.000	-0.057	-0.248
-725.894	-41.244	-0.396	0.207
-724.879	170.845	-0.149	-0.217
-723.864	-200.000	-0.005	0.030
-722.850	-154.098	0.031	-0.002
-721.835	293.573	0.234	0.433
-720.821	-200.000	-0.060	0.312
-719.806	-200.000	-0.005	-0.054
-718.791	-45.634	-0.156	0.078
-717.777	-200.000	-0.024	-0.110
-716.762	800.000	0.073	0.266
-715.748	17.505	0.096	-0.077
-714.733	255.543	-0.226	0.393
-713.718	-200.000	0.001	0.088
-712.704	-84.408	0.237	-0.076
-711.689	-63.208	-0.139	0.058
-710.675	155.899	0.115	-0.160
-709.660	-22.544	-0.303	0.185
-708.645	606.304	-0.121	-0.306
-707.631	108.916	-0.138	-0.167
-706.616	-50.442	-0.433	0.207
-705.602	-31.111	0.188	-0.107
-704.587	-45.048	-0.303	-0.152
-703.572	-200.000	-0.082	-0.594
-702.558	800.000	-0.106	-0.297
-701.543	-36.760	-0.202	0.110
-700.529	177.568	0.103	0.151
-699.514	-102.498	0.151	-0.037
-698.499	-89.040	0.285	-0.085
-697.485	-132.168	0.090	0.012
-696.470	22.464	-0.192	-0.159
-695.456	-191.927	0.109	0.001
-694.441	-63.436	-0.259	0.108
-693.426	800.000	0.030	0.130
-692.412	-103.391	0.224	-0.053
-691.397	-152.061	-0.183	-0.013
-690.383	-89.861	-0.292	-0.086
-689.368	-200.000	-0.025	0.149
-688.354	-14.365	0.283	-0.184
-687.339	800.000	-0.085	0.266
-686.324	26.566	0.392	-0.332
-685.310	-54.014	-0.124	0.057
-684.295	114.293	0.299	-0.368
-683.281	47.513	-0.168	-0.158
-682.266	-200.000	0.000	0.058
-681.251	-38.078	0.255	0.137
-680.237	-27.156	0.249	0.147
-679.222	574.416	-0.053	0.132
-678.208	47.254	0.259	0.244
-677.193	-200.000	-0.010	0.052
-676.178	-107.288	-0.198	0.044
-675.164	-110.800	-0.114	-0.024
-674.149	-13.816	-0.157	0.102
-673.135	-9.448	0.140	0.095
-672.120	-41.812	-0.246	0.127
-671.105	126.218	-0.091	-0.117
-670.091	-33.002	0.191	0.107
-669.076	-4.289	0.080	0.056
-668.062	-77.485	0.109	-0.038
-667.047	-200.000	0.010	-0.198
-666.032	-200.000	0.017	-0.203
-665.018	131.773	0.179	0.233
-664.003	-84.010	-0.179	-0.058
-662.989	-145.376	-0.206	0.019
-661.974	-116.076	-0.119	-0.022
-660.959	-114.876	-0.236	0.045
-659.945	-128.267	0.027	-0.004
-658.930	396.915	-0.040	-0.084
-657.916	800.000	0.107	-0.318
-656.901	-200.000	0.029	0.259
-655.886	87.096	0.090	-0.100
-654.872	-200.000	0.047	0.339
-653.857	-200.000	-0.044	0.252
-652.843	9.738	0.036	0.027
-651.828	-125.384	-0.311	0.048
-650.814	800.000	-0.047	0.166
-649.799	-130.355	-0.259	-0.036
-648.784	-82.633	-0.150	0.049
-647.770	-15.460	-0.049	0.031
-646.755	-108.197	0.080	0.017
-645.741	-200.000	-0.006	0.039
-644.726	29.469	-0.114	-0.098
-643.711	-85.344	0.105	-0.033
-642.697	40.961	-0.276	-0.251
-641.682	456.820	0.098	-0.220
-640.668	-200.000	0.016	-0.174
-639.653	28.318	-0.165	-0.141
-638.638	-104.170	0.312	-0.073
-637.624	-30.241	0.083	-0.047
-636.609	152.815	0.058	-0.080
-635.595	-73.571	0.434	0.160
-634.580	23.236	0.087	0.072
-633.565	800.000	-0.072	-0.306
-632.551	143.213	0.086	0.115
-631.536	-54.192	-0.258	-0.118
-630.522	-10.778	-0.078	0.052
-629.507	-112.907	-0.457	-0.091
-628.492	-200.000	-0.010	0.093
-627.478	-86.195	0.266	0.083
-626.463	333.686	-0.209	-0.407
-625.449	-93.271	-0.079	0.022
-624.434	-110.157	0.081	0.017
-623.419	100.955	-0.076	-0.089
-622.405	161.444	0.059	-0.084
-621.390	5.367	0.184	0.137
-620.376	-90.303	-0.388	-0.114
-619.361	-112.216	-0.190	-0.038
-618.346	-200.000	0.014	-0.116
-617.332	-138.434	-0.172	0.019
-616.317	-13.362	-0.270	0.176
-615.303	107.347	0.043	0.052
-614.288	-40.962	0.292	-0.152
-613.273	-17.620	-0.190	0.120
-612.259	800.000	0.052	0.155
-611.244	2.713	-0.031	0.023
-610.230	-200.000	0.013	0.060
-609.215	-75.974	0.511	0.182
-608.201	-37.132	0.165	0.089
-607.186	-10.522	0.153	-0.102
-606.171	-103.990	0.334	-0.078
-605.157	-17.986	-0.266	-0.168
-604.142	128.777	-0.026	-0.034
-603.128	15.223	0.050	0.039
-602.113	-196.181	0.080	-0.001
-601.098	253.066	-0.022	-0.037
-600.084	-200.000	-0.033	0.383
-599.069	24.711	-0.188	-0.157
-598.055	-200.000	-0.017	0.110
-597.040	-46.089	-0.283	-0.140
-596.025	-102.676	-0.233	0.056
-595.011	-27.430	0.255	-0.149
-593.996	-21.823	0.224	-0.137
-592.982	526.902	0.089	0.211
-591.967	-200.000	-0.021	0.267
-590.952	19.960	-0.161	-0.131
-589.938	-200.000	-0.002	0.057
-588.923	346.946	-0.128	0.254
-587.909	-55.009	0.066	0.030
-586.894	-10.427	-0.331	0.221
-585.879	-200.000	0.044	0.204
-584.865	281.823	0.056	0.100
-583.850	245.242	-0.105	-0.177
-582.836	-43.860	-0.179	-0.091
-581.821	-64.428	-0.084	-0.035
-580.806	-200.000	0.063	0.329
-579.792	-20.933	0.391	0.241
-578.777	216.011	0.148	0.237
-577.763	-141.976	0.337	-0.034
-576.748	115.555	0.277	-0.341
-575.733	197.503	-0.120	-0.184
-574.719	-94.755	-0.214	0.059
-573.704	58.180	-0.130	-0.129
-572.690	-135.890	-0.015	0.002
-571.675	96.817	-0.135	0.156
-570.661	112.034	-0.120	0.146
-569.646	-153.757	0.131	-0.009
-568.631	-40.804	-0.163	-0.085
-567.617	-5.945	0.226	-0.156
-566.602	-127.604	0.076	-0.011
-565.588	58.592	-0.109	-0.108
-564.573	320.066	-0.039	0.075
-563.558	153.815	0.307	-0.424
-562.544	800.000	0.048	-0.156
-561.529	-101.472	-0.394	-0.096
-560.515	-200.000	0.003	-0.120
-559.500	-98.427	-0.085	0.022
-558.485	800.000	0.034	0.107
-557.471	-150.648	0.164	-0.013
-556.456	-118.743	-0.282	0.050
-555.442	24.847	-0.126	0.105
-554.427	800.000	-0.034	0.107
-553.412	-200.000	0.008	0.104
-552.398	-90.863	-0.069	-0.020
-551.383	173.268	-0.088	0.128
-550.369	196.488	-0.096	0.148
-549.354	-200.000	-0.172	0.001
-548.339	-200.000	-0.063	0.283
-547.325	-110.680	0.320	0.067
-546.310	-1.735	-0.139	0.098
-545.296	349.015	0.058	0.114
-544.281	-200.000	-0.001	0.083
-543.266	-38.492	-0.091	0.048
-542.252	-164.449	0.143	-0.007
-541.237	150.190	-0.277	0.378
-540.223	-150.847	-0.233	0.018
-539.208	-18.760	0.239	-0.150
-538.193	-69.034	-0.201	0.078
-537.179	-200.000	0.016	0.297
-536.164	-10.281	-0.105	-0.070
-535.150	-39.100	-0.197	0.104
-534.135	-200.000	0.074	-0.554
-533.121	800.000	-0.154	-0.454
-532.106	-153.198	-0.307	0.022
-531.091	-200.000	-0.017	0.084
-530.077	6.434	0.194	0.145
-529.062	405.204	-0.109	0.230
-528.048	-200.000	0.083	0.000
-527.033	41.089	-0.047	0.043
-526.018	-36.774	0.112	-0.060
-525.004	-112.622	0.358	0.072
-523.989	40.829	-0.125	-0.113
-522.975	120.499	0.053	-0.066
-521.960	-200.000	-0.018	-0.151
-520.945	-55.910	-0.311	-0.139
-519.931	123.201	0.122	-0.153
-518.916	-200.000	0.059	0.301
-517.902	98.469	-0.087	0.101
-516.887	-139.638	-0.115	0.012
-515.872	192.661	-0.154	-0.234
-514.858	800.000	0.031	-0.121
-513.843	-72.728	-0.145	0.054
-512.829	-40.591	0.221	0.115
-511.814	168.597	-0.057	-0.081
-510.799	153.985	0.303	-0.418
-509.785	398.943	-0.167	-0.351
-508.770	-25.461	-0.125	0.074
-507.756	-148.974	-0.224	-0.018
-506.741	-10.401	0.087	-0.058
-505.726	249.838	0.192	-0.327
-504.712	105.322	-0.002	-0.002
-503.697	-102.981	0.222	0.053
-502.683	-105.635	-0.255	0.058
-501.668	341.980	0.103	-0.203
-500.653	-37.645	0.087	0.046
-499.639	180.125	-0.262	-0.385
-498.624	800.000	0.054	0.152
-497.610	-113.454	-0.166	-0.033
-496.595	800.000	-0.042	-0.156
-495.581	800.000	-0.097	0.411
-494.566	-200.000	-0.002	0.115
-493.551	800.000	0.046	0.127
-492.537	542.221	0.119	0.284
-491.522	-200.000	0.027	0.194
-490.508	232.544	0.136	-0.223
-489.493	72.338	-0.281	0.294
-488.478	-54.586	-0.121	0.055
-487.464	50.037	-0.167	-0.158
-486.449	84.435	0.151	-0.166
-485.435	-200.000	0.043	-0.288
-484.420	-145.495	0.160	0.014
-483.405	-200.000	-0.008	0.181
-482.391	394.696	-0.124	0.260
-481.376	-130.563	0.141	-0.019
-480.362	800.000	-0.026	-0.104
-479.347	-200.000	0.006	0.132
-478.332	-144.908	0.406	0.037
-477.318	242.041	0.112	-0.189
-476.303	-200.000	-0.024	0.226
-475.289	-85.831	-0.077	0.024
-474.274	-25.430	0.032	-0.019
-473.259	752.761	-0.021	-0.057
-472.245	-131.510	-0.398	0.053
-471.230	86.818	0.027	-0.030
-470.216	-14.687	0.297	-0.192
-469.201	-108.189	0.308	0.067
-468.186	-88.039	0.218	-0.066
-467.172	-200.000	0.016	0.295
-466.157	-19.940	0.204	0.126
-465.143	-200.000	-0.007	-0.063
-464.128	411.613	0.088	0.187
-463.113	-181.354	-0.366	0.007
-462.099	233.652	-0.128	-0.211
-461.084	-200.000	-0.032	-0.333
-460.070	-196.415	-0.321	-0.002
-459.055	-200.000	0.019	0.410
-458.040	-9.724	-0.184	0.123
-457.026	81.967	0.115	0.125
-456.011	53.142	-0.270	0.259
-454.997	-200.000	0.016	-0.227
-453.982	-200.000	0.020	-0.145
-452.968	-190.177	-0.076	0.001
-451.953	-96.300	-0.235	-0.062
-450.938	592.026	-0.139	0.344
-449.924	800.000	0.055	0.208
-448.909	414.254	0.203	-0.432
-447.895	800.000	0.025	-0.104
-446.880	-103.406	-0.121	-0.029
-445.865	-200.000	-0.010	-0.400
-444.851	-4.060	-0.270	0.187
-443.836	800.000	0.061	0.240
-442.822	-166.747	-0.087	-0.004
-441.807	218.604	-0.141	-0.226
-440.792	49.033	-0.191	0.180
-439.778	-98.189	-0.354	-0.091
-438.763	-71.616	0.182	-0.068
-437.749	39.513	-0.157	-0.141
-436.734	29.910	0.326	0.279
-435.719	-64.140	-0.392	0.160
-434.705	106.560	-0.216	0.256
-433.690	166.221	0.020	0.029
-432.676	86.709	0.161	0.178
-431.661	-200.000	0.022	-0.266
-430.646	-78.319	-0.187	0.064
-429.632	-66.605	-0.127	0.050
-428.617	166.765	0.049	0.070
-427.603	-50.218	0.132	-0.063
-426.588	-84.042	0.142	-0.045
-425.573	-120.563	0.171	-0.029
-424.559	-65.907	0.327	0.131
-423.544	-44.237	0.157	-0.079
-422.530	-149.692	-0.076	-0.006
-421.515	-173.810	0.049	-0.001
-420.500	-200.000	0.014	0.208
-419.486	-52.951	0.143	-0.066
-418.471	249.159	0.054	-0.091
-417.457	800.000	-0.051	0.190
-416.442	7.873	-0.261	0.196
-415.428	800.000	-0.079	0.326
-414.413	-29.382	-0.165	0.094
-413.398	392.134	-0.043	-0.089
-412.384	800.000	0.042	-0.118
-411.369	174.689	0.095	0.138
-410.355	-200.000	-0.109	-0.527
-409.340	-200.000	0.019	0.177
-408.325	62.765	0.122	-0.122
-407.311	-194.810	-0.405	0.003
-406.296	-29.468	-0.109	-0.062
-405.282	-200.000	-0.007	-0.226
-404.267	86.389	-0.162	0.178
-403.252	800.000	-0.030	0.097
-402.238	-155.341	0.083	-0.005
-401.223	-200.000	-0.020	0.206
-400.209	768.676	-0.053	0.145
-399.194	126.442	-0.058	0.073
-398.179	-108.470	-0.264	0.057
-397.165	769.896	0.102	0.277
-396.150	401.438	0.131	-0.274
-395.136	-200.000	-0.024	0.253
-394.121	41.762	-0.147	-0.133
-393.106	-169.451	-0.131	0.005
-392.092	756.049	0.183	-0.495
-391.077	36.301	0.311	-0.274
-390.063	-63.226	0.356	-0.147
-389.048	92.865	0.079	0.089
-388.033	466.904	0.142	0.318
-387.019	236.443	-0.207	-0.343
-386.004	-200.000	-0.007	0.218
-384.990	-152.460	-0.084	-0.006
-383.975	484.976	0.073	0.166
-382.960	-9.855	0.241	-0.160
-381.946	-28.614	0.181	0.104
-380.931	-200.000	0.011	0.069
-379.917	-200.000	-0.003	0.022
-378.902	-200.000	0.051	-0.287
-377.888	154.988	0.162	0.222
-376.873	-69.039	0.036	0.014
-375.858	123.000	-0.029	-0.036
-374.844	-200.000	-0.029	0.340
-373.829	-137.122	-0.142	-0.016
-372.815	2.706	-0.212	0.154
-371.800	142.262	-0.182	-0.241
-370.785	-200.000	0.002	0.109
-369.771	800.000	-0.166	-0.525
-368.756	-35.994	-0.145	-0.078
-367.742	127.127	0.163	-0.207
-366.727	187.151	-0.237	0.353
-365.712	-150.288	0.110	-0.009
-364.698	800.000	-0.050	0.184
-363.683	129.442	0.185	-0.236
-362.669	112.282	-0.210	0.254
-361.654	-200.000	0.009	-0.129
-360.639	253.625	0.039	-0.066
-359.625	-105.625	0.252	-0.057
-358.610	37.206	0.072	0.064
-357.596	222.965	-0.252	0.405
-356.581	-75.208	0.272	-0.097
-355.566	-19.458	0.182	-0.113
-354.552	800.000	0.063	-0.253
-353.537	-84.060	0.182	0.058
-352.523	214.810	-0.169	0.268
-351.508	-18.330	-0.109	0.068
-350.493	43.237	-0.307	0.279
-349.479	-19.209	0.188	0.117
-348.464	217.456	-0.030	-0.048
-347.450	38.928	-0.269	0.240
-346.435	800.000	0.046	-0.168
-345.420	-200.000	0.000	-0.090
-344.406	437.145	-0.200	0.434
-343.391	-32.133	0.133	-0.074
-342.377	-129.580	0.172	-0.024
-341.362	-42.646	-0.314	0.159
-340.348	42.580	-0.188	0.170
-339.333	-34.373	0.118	-0.064
-338.318	800.000	0.127	-0.448
-337.304	-200.000	-0.007	0.167
-336.289	-119.381	0.287	-0.050
-335.275	-5.119	0.157	-0.108
-334.260	-136.592	-0.173	0.020
-333.245	87.908	0.150	0.166
-332.231	-1.283	-0.070	0.050
-331.216	29.474	0.230	-0.195
-330.202	-82.949	-0.200	-0.064
-329.187	800.000	-0.054	-0.173
-328.172	-159.611	-0.044	0.002
-327.158	-200.000	0.010	0.129
-326.143	-98.268	-0.253	0.065
-325.129	-178.964	0.202	0.005
-324.114	-144.957	0.402	-0.037
-323.099	82.216	-0.235	0.254
-322.085	-84.847	0.200	-0.063
-321.070	-200.000	-0.010	0.054
-320.056	450.104	0.116	0.255
-319.041	-179.278	-0.184	-0.004
-318.026	-200.000	0.024	0.146
-317.012	96.281	0.085	-0.097
-315.997	-200.000	0.002	-0.032
-314.983	52.174	-0.272	0.259
-313.968	-154.694	0.233	-0.015
-312.953	-111.424	-0.253	0.051
-311.939	194.227	0.092	0.140
-310.924	182.063	0.138	0.202
-309.910	-20.131	0.235	-0.144
-308.895	492.756	-0.037	-0.085
-307.880	212.013	-0.084	0.132
-306.866	144.171	0.083	0.111
-305.851	-200.000	0.036	-0.195
-304.837	65.392	0.157	-0.158
-303.822	41.704	-0.047	-0.042
-302.807	-110.132	-0.218	-0.045
-301.793	-200.000	-0.102	0.491
-300.778	-200.000	0.033	-0.394
-299.764	-84.370	-0.360	-0.114
-298.749	-116.838	0.028	0.005
-297.735	-200.000	0.071	-0.423
-296.720	-78.442	0.119	0.041
-295.705	-67.864	0.276	-0.108
-294.691	2.703	-0.196	-0.141
-293.676	-91.449	-0.143	-0.041
-292.662	17.162	0.040	-0.032
-291.647	-200.000	0.010	0.217
-290.632	-200.000	0.042	0.211
-289.618	57.820	-0.148	-0.144
-288.603	-200.000	-0.009	0.093
-287.589	-162.009	-0.301	-0.015
-286.574	-200.000	-0.018	0.386
-285.559	284.203	-0.046	-0.083
-284.545	-137.522	-0.129	-0.014
-283.530	104.760	0.128	0.150
-282.516	-21.177	0.084	0.051
-281.501	724.167	0.083	-0.221
-280.486	300.297	-0.027	-0.050
-279.472	369.101	0.139	0.281
-278.457	169.534	0.298	0.424
-277.443	-129.289	0.368	-0.051
-276.428	285.983	-0.012	0.022
-275.413	-48.085	0.209	-0.101
-274.399	58.004	-0.072	0.071
-273.384	185.592	0.099	-0.146
-272.370	-200.000	-0.021	-0.264
-271.355	-60.959	-0.196	-0.082
-270.340	32.582	-0.309	0.266
-269.326	144.005	-0.117	0.155
-268.311	157.117	0.061	0.084
-267.297	31.804	0.119	0.102
-266.282	-56.542	0.221	0.097
-265.267	-200.000	0.073	-0.412
-264.253	-69.133	0.246	-0.094
-263.238	-86.575	-0.314	-0.096
-262.224	-54.558	-0.090	-0.041
-261.209	49.931	-0.138	-0.130
-260.195	-33.804	0.018	-0.010
-259.180	-182.950	-0.311	0.006
-258.165	-81.322	0.091	0.030
-257.151	3.598	0.142	-0.103
-256.136	480.363	-0.135	0.305
-255.122	-183.568	0.297	0.005
-254.107	39.626	0.147	-0.131
-253.092	-117.401	-0.034	-0.006
-252.078	22.331	0.215	-0.175
-251.063	-200.000	-0.033	-0.149
-250.049	-200.000	0.059	-0.448
-249.034	-200.000	0.067	-0.298
-248.019	-200.000	0.054	0.249
-247.005	383.754	-0.016	-0.032
-245.990	-104.630	-0.212	0.048
-244.976	89.695	-0.074	-0.082
-243.961	61.203	-0.185	-0.182
-242.946	61.317	0.167	-0.165
-241.932	800.000	-0.038	-0.139
-240.917	-126.618	0.085	-0.013
-239.903	12.276	0.190	0.145
-238.888	-64.395	0.155	-0.063
-237.873	5.158	-0.132	0.097
-236.859	12.571	0.129	0.099
-235.844	-72.736	-0.174	-0.064
-234.830	40.522	-0.104	0.093
-233.815	-81.539	-0.194	-0.063
-232.800	-142.341	0.140	-0.014
-231.786	800.000	-0.065	0.195
-230.771	-200.000	0.006	0.233
-229.757	-83.740	0.238	-0.075
-228.742	-200.000	-0.003	-0.203
-227.727	-28.881	0.238	-0.136
-226.713	-76.479	0.354	-0.124
-225.698	-56.561	0.100	-0.044
-224.684	-15.838	-0.137	0.087
-223.669	-40.601	-0.064	0.033
-222.655	360.442	0.042	-0.084
-221.640	710.810	0.077	0.201
-220.625	-127.633	-0.188	0.027
-219.611	328.946	0.180	-0.344
-218.596	-200.000	-0.031	-0.438
-217.582	-120.106	0.195	-0.033
-216.567	4.467	0.033	-0.024
-215.552	-200.000	0.013	0.067
-214.538	-142.935	0.228	0.022
-213.523	-73.785	0.168	-0.061
-212.509	63.640	0.126	-0.126
-211.494	-200.000	-0.023	0.149
-210.479	76.104	-0.180	-0.189
-209.465	77.498	-0.120	0.127
-208.450	-200.000	0.003	-0.150
-207.436	-164.908	0.085	-0.004
-206.421	175.275	-0.187	-0.269
-205.406	-33.036	0.178	0.098
-204.392	-36.327	-0.265	0.142
-203.377	477.232	0.199	-0.446
-202.363	800.000	0.063	0.193
-201.348	262.219	-0.174	-0.299
-200.333	69.726	-0.113	-0.116
-199.319	-177.187	0.118	0.003
-198.304	-126.942	0.258	0.038
-197.290	-40.715	0.250	0.128
-196.275	-127.328	-0.249	0.036
-195.260	595.700	0.107	0.262
-194.246	3.109	0.427	0.308
-193.231	370.706	-0.206	0.414
-192.217	800.000	-0.026	0.098
-191.202	-40.005	-0.163	0.085
-190.187	-4.704	-0.258	-0.177
-189.173	-200.000	-0.004	-0.485
-188.158	-39.866	-0.136	0.071
-187.144	31.427	-0.245	-0.208
-186.129	-89.694	-0.136	0.040
-185.114	-200.000	0.009	-0.117
-184.100	-96.988	-0.169	-0.044
-183.085	-7.083	-0.146	0.098
-182.071	800.000	0.106	0.426
-181.056	247.397	0.041	-0.069
-180.042	123.316	0.190	-0.236
-179.027	-39.388	0.143	0.074
-178.012	82.418	0.276	-0.297
-176.998	-105.746	0.130	0.029
-175.983	800.000	0.095	-0.267
-174.969	-108.614	-0.053	0.011
-173.954	-102.781	-0.056	-0.013
-172.939	89.503	0.219	0.242
-171.925	691.945	0.099	0.258
-170.910	-99.102	0.464	0.116
-169.896	800.000	0.012	-0.043
-168.881	90.205	0.106	-0.118
-167.866	37.462	0.163	-0.143
-166.852	-106.874	0.037	0.008
-165.837	-3.243	-0.192	0.132
-164.823	46.258	0.080	0.074
-163.808	-70.099	0.326	-0.123
-162.793	85.431	0.119	-0.129
-161.779	8.064	-0.179	0.133
-160.764	-15.404	0.219	0.139
-159.750	-31.988	-0.326	0.181
-158.735	-60.143	0.252	-0.106
-157.720	-50.449	0.011	-0.005
-156.706	-200.000	0.103	-0.463
-155.691	329.903	0.085	0.162
-154.677	125.527	0.124	0.155
-153.662	616.392	0.081	-0.201
-152.647	-152.649	-0.205	-0.014
-151.633	-40.760	-0.103	0.053
-150.618	800.000	-0.033	0.109
-149.604	-106.952	-0.069	-0.015
-148.589	-20.834	0.259	-0.157
-147.574	200.619	0.223	-0.340
-146.560	-118.011	-0.132	0.023
-145.545	-163.248	0.194	0.009
-144.531	-200.000	-0.040	0.407
-143.516	800.000	0.081	-0.238
-142.502	678.705	0.086	-0.221
-141.487	39.261	0.187	0.165
-140.472	-200.000	-0.005	0.032
-139.458	800.000	-0.040	0.144
-138.443	561.982	-0.071	-0.170
-137.429	-137.941	0.096	0.011
-136.414	-92.831	0.078	-0.022
-135.399	22.739	0.047	0.038
-134.385	800.000	-0.063	0.220
-133.370	123.179	-0.121	-0.151
-132.356	65.691	0.104	0.104
-131.341	-139.538	0.357	0.038
-130.326	77.843	-0.147	-0.155
-129.312	800.000	-0.086	-0.314
-128.297	-96.151	0.244	-0.064
-127.283	3.025	-0.305	-0.219
-126.268	6.753	0.136	0.100
-125.253	-12.869	0.287	0.185
-124.239	-200.000	0.003	0.137
-123.224	800.000	-0.023	0.073
-122.210	138.918	0.121	-0.157
-121.195	426.659	0.086	0.184
