DTS Sentinel unit serial number:	SN413079Multiplexer serial number:	ORYXHardware model number:	OX4-SRSoftware version number:	ORYX F/W v4.00 Oryx Data Collector v3.7.2.0data status	okinstallation	princeton_trtdifferential loss correction	single-endedforward channel	channel 2reverse channel	N/Adate	2019/09/15time	10:19:35forward acquisition time	60.00reverse acquisition time	0.00gamma	496.2192k internal	0.2315k external	0.2315temperature offset calibration	1.0018default loss term (dB/km)	0.3790temperature slope calibration	1.0000multiplexer offset coefficient	1.0000multiplexer slope coefficient	1.0000fibre end	0.00T internal ref (°C)	34.25T ext. ref 1 (°C)	5.04T ext. ref 2 (°C)	29.34length (m)	temperature (°C)	Stokes	anti-Stokes-747.200	15.852	-0.154	-0.123
-746.185	27.665	0.064	0.054
-745.171	-200.000	0.001	-0.143
-744.156	118.371	-0.069	-0.087
-743.142	-200.000	0.001	-0.040
-742.127	-94.832	-0.222	0.061
-741.112	152.596	-0.175	-0.242
-740.098	188.337	0.030	0.046
-739.083	-200.000	0.016	-0.197
-738.069	-105.920	0.348	0.080
-737.054	-85.000	-0.147	-0.047
-736.039	510.113	0.049	0.115
-735.025	-31.782	-0.160	0.091
-734.010	393.023	-0.149	-0.314
-732.996	-98.296	-0.112	-0.029
-731.981	-106.188	0.223	0.051
-730.966	-2.941	0.155	0.110
-729.952	-71.794	-0.136	0.051
-728.937	319.991	0.184	0.355
-727.923	-90.192	-0.073	-0.022
-726.908	-6.735	-0.137	-0.095
-725.894	77.370	0.189	-0.203
-724.879	-101.075	-0.282	-0.070
-723.864	-81.587	-0.117	-0.039
-722.850	-38.327	0.161	0.086
-721.835	602.602	0.062	-0.157
-720.821	-129.347	-0.261	0.037
-719.806	-102.038	0.432	-0.106
-718.791	-92.619	0.120	0.034
-717.777	70.927	-0.100	0.105
-716.762	153.851	-0.087	-0.121
-715.748	81.229	-0.043	0.047
-714.733	-126.986	0.272	0.041
-713.718	-69.365	-0.318	0.123
-712.704	-200.000	0.052	-0.353
-711.689	778.303	-0.157	0.435
-710.675	340.105	-0.118	-0.233
-709.660	-68.229	-0.036	-0.014
-708.645	-200.000	0.035	0.167
-707.631	-93.979	-0.118	-0.033
-706.616	22.135	0.037	0.031
-705.602	65.934	-0.075	-0.077
-704.587	-200.000	-0.009	-0.205
-703.572	349.195	-0.142	0.284
-702.558	-200.000	-0.017	-0.204
-701.543	800.000	0.055	0.187
-700.529	15.189	-0.138	-0.109
-699.514	800.000	-0.085	-0.341
-698.499	-200.000	0.038	-0.227
-697.485	729.490	-0.100	-0.270
-696.470	-44.893	0.376	-0.189
-695.456	-126.391	-0.137	0.021
-694.441	-72.756	-0.262	0.098
-693.426	-130.581	0.505	-0.069
-692.412	-200.000	-0.015	0.115
-691.397	-118.153	0.246	-0.044
-690.383	-200.000	0.014	0.131
-689.368	-125.065	-0.517	0.080
-688.354	-200.000	-0.016	-0.420
-687.339	-98.941	0.104	0.027
-686.324	-42.297	-0.097	-0.050
-685.310	-133.627	-0.493	-0.062
-684.295	-77.866	-0.119	0.042
-683.281	800.000	-0.010	0.041
-682.266	-55.587	0.123	0.056
-681.251	-163.547	-0.178	0.009
-680.237	-106.202	0.285	0.065
-679.222	-67.765	-0.098	0.039
-678.208	-200.000	0.003	0.153
-677.193	92.673	0.165	-0.188
-676.178	300.214	0.034	-0.063
-675.164	75.053	-0.054	0.058
-674.149	800.000	-0.128	-0.377
-673.135	58.995	0.153	0.152
-672.120	97.439	-0.092	0.106
-671.105	352.392	-0.140	-0.281
-670.091	-173.368	0.355	0.011
-669.076	-200.000	-0.044	-0.268
-668.062	-7.483	-0.055	-0.038
-667.047	-164.440	0.361	0.017
-666.032	473.216	0.049	-0.111
-665.018	36.262	-0.037	0.033
-664.003	43.512	0.044	0.041
-662.989	-124.711	0.153	0.024
-661.974	-46.763	-0.432	-0.213
-660.959	93.969	-0.054	0.062
-659.945	-35.933	0.047	0.026
-658.930	69.030	0.042	0.044
-657.916	408.874	-0.070	0.150
-656.901	-61.581	-0.132	-0.056
-655.886	-200.000	-0.032	-0.276
-654.872	-49.842	-0.156	-0.075
-653.857	376.137	0.036	-0.075
-652.843	-8.712	-0.037	0.025
-651.828	-110.962	-0.552	0.115
-650.814	-7.127	0.177	0.121
-649.799	800.000	-0.072	-0.248
-648.784	-71.544	0.091	0.034
-647.770	-172.706	-0.306	0.010
-646.755	-200.000	-0.053	-0.262
-645.741	-71.032	0.235	0.089
-644.726	-138.272	-0.367	0.041
-643.711	396.578	0.085	-0.178
-642.697	-57.628	0.175	0.077
-641.682	-200.000	0.054	-0.272
-640.668	-19.654	-0.069	-0.043
-639.653	46.561	-0.067	0.063
-638.638	-47.728	-0.147	-0.072
-637.624	517.873	0.028	0.067
-636.609	-43.935	0.127	-0.065
-635.595	-197.399	0.252	-0.002
-634.580	42.479	-0.115	-0.106
-633.565	410.106	0.046	0.099
-632.551	203.464	-0.123	0.193
-631.536	-97.157	0.016	-0.004
-630.522	212.104	-0.130	-0.207
-629.507	224.906	0.091	-0.149
-628.492	-87.921	-0.118	0.036
-627.478	-69.857	-0.479	0.184
-626.463	-29.705	0.080	0.046
-625.449	-53.226	0.125	0.058
-624.434	188.055	-0.120	0.180
-623.419	65.155	-0.132	0.134
-622.405	45.606	0.169	-0.157
-621.390	480.111	-0.065	-0.149
-620.376	-200.000	0.022	0.404
-619.361	382.019	0.109	-0.226
-618.346	187.017	-0.024	-0.036
-617.332	-200.000	-0.002	0.047
-616.317	265.947	0.176	-0.309
-615.303	-200.000	0.037	0.298
-614.288	348.158	0.017	-0.034
-613.273	-119.931	-0.134	0.023
-612.259	-76.191	0.143	-0.051
-611.244	177.265	0.031	-0.045
-610.230	-200.000	-0.028	-0.359
-609.215	-200.000	0.011	0.341
-608.201	-200.000	0.022	0.205
-607.186	158.280	-0.061	-0.085
-606.171	44.031	0.121	0.112
-605.157	-200.000	-0.013	-0.104
-604.142	-200.000	0.005	0.053
-603.128	800.000	0.038	0.116
-602.113	595.391	-0.060	-0.150
-601.098	800.000	0.082	-0.249
-600.084	-200.000	-0.002	-0.123
-599.069	-124.139	0.212	0.034
-598.055	45.484	0.177	0.164
-597.040	135.358	-0.074	0.097
-596.025	489.360	-0.056	0.128
-595.011	169.324	0.106	0.152
-593.996	-200.000	-0.012	0.076
-592.982	-0.082	-0.071	-0.051
-591.967	234.324	0.151	0.250
-590.952	-200.000	0.008	-0.049
-589.938	-129.262	-0.131	-0.018
-588.923	-54.787	0.102	0.047
-587.909	-98.341	-0.186	-0.048
-586.894	438.492	0.116	0.255
-585.879	109.406	0.288	0.347
-584.865	-155.075	-0.136	-0.009
-583.850	-119.867	0.263	-0.046
-582.836	800.000	0.052	-0.179
-581.821	-163.302	-0.187	-0.009
-580.806	93.536	0.148	-0.169
-579.792	-144.984	-0.199	0.018
-578.777	17.195	-0.234	-0.187
-577.763	133.597	-0.136	0.177
-576.748	800.000	-0.044	0.134
-575.733	491.950	0.054	-0.125
-574.719	117.318	-0.115	0.142
-573.704	44.870	-0.076	-0.071
-572.690	-200.000	-0.013	0.226
-571.675	256.430	0.076	-0.131
-570.661	126.762	-0.138	0.176
-569.646	304.645	-0.012	0.022
-568.631	483.451	-0.129	-0.295
-567.617	231.030	-0.171	0.282
-566.602	-163.471	-0.080	-0.004
-565.588	523.243	-0.056	-0.133
-564.573	-59.801	-0.211	-0.091
-563.558	-58.156	-0.182	-0.080
-562.544	800.000	-0.090	-0.278
-561.529	-100.110	0.321	0.080
-560.515	129.888	-0.268	-0.345
-559.500	-87.807	-0.331	-0.100
-558.485	172.713	0.098	0.142
-557.471	-181.733	-0.240	0.005
-556.456	372.830	0.185	-0.379
-555.442	-101.145	0.341	-0.084
-554.427	222.871	0.077	-0.125
-553.412	648.474	0.087	-0.223
-552.398	800.000	-0.042	-0.158
-551.383	87.594	0.115	-0.128
-550.369	-1.039	0.214	-0.153
-549.354	39.030	0.264	-0.237
-548.339	-79.806	-0.318	0.108
-547.325	189.034	0.123	-0.185
-546.310	-48.791	0.155	-0.075
-545.296	456.712	-0.187	0.417
-544.281	800.000	0.074	0.282
-543.266	621.055	-0.084	-0.212
-542.252	-200.000	0.035	-0.224
-541.237	-1.491	-0.194	0.137
-540.223	249.674	-0.108	0.183
-539.208	-200.000	-0.054	0.410
-538.193	-97.547	0.286	-0.075
-537.179	-200.000	-0.001	0.227
-536.164	7.390	0.245	0.184
-535.150	-34.900	-0.212	0.116
-534.135	71.826	0.139	0.145
-533.121	800.000	0.047	-0.189
-532.106	474.754	0.154	-0.350
-531.091	-125.283	0.689	-0.106
-530.077	-200.000	-0.066	-0.373
-529.062	-63.000	-0.327	0.136
-528.048	44.077	0.308	-0.283
-527.033	-68.278	0.065	0.025
-526.018	43.223	0.040	-0.037
-525.004	39.034	-0.139	0.124
-523.989	-200.000	0.028	-0.184
-522.975	-64.489	-0.114	-0.047
-521.960	-40.499	0.095	0.049
-520.945	67.480	-0.202	0.208
-519.931	135.591	-0.160	0.209
-518.916	-131.138	-0.143	0.019
-517.902	288.270	-0.051	0.093
-516.887	108.770	-0.065	-0.077
-515.872	800.000	-0.116	-0.371
-514.858	-15.023	0.159	-0.102
-513.843	800.000	-0.043	0.173
-512.829	800.000	0.055	0.161
-511.814	115.533	0.235	-0.289
-510.799	800.000	0.018	0.075
-509.785	-159.428	-0.416	0.023
-508.770	800.000	0.087	-0.331
-507.756	143.307	-0.158	0.211
-506.741	26.918	0.089	-0.075
-505.726	800.000	0.022	0.070
-504.712	385.083	-0.101	-0.210
-503.697	351.647	-0.103	-0.205
-502.683	800.000	0.081	0.253
-501.668	-11.905	-0.251	-0.165
-500.653	145.004	-0.191	-0.256
-499.639	-159.048	0.370	-0.021
-498.624	-21.197	0.026	0.016
-497.610	32.975	0.303	-0.264
-496.595	-200.000	-0.001	0.105
-495.581	-74.719	0.224	0.081
-494.566	83.659	-0.084	-0.091
-493.551	-143.787	-0.476	-0.045
-492.537	87.796	-0.328	0.365
-491.522	47.204	0.294	0.275
-490.508	-99.419	-0.352	0.089
-489.493	800.000	0.076	-0.217
-488.478	-200.000	0.001	-0.212
-487.464	-101.908	-0.279	-0.068
-486.449	555.670	-0.126	-0.303
-485.435	-58.414	0.127	0.055
-484.420	800.000	0.042	0.126
-483.405	66.546	0.233	0.238
-482.391	24.970	-0.162	-0.135
-481.376	-92.662	-0.070	0.020
-480.362	-133.087	0.329	0.042
-479.347	43.528	-0.201	-0.184
-478.332	575.461	0.111	0.273
-477.318	-200.000	0.008	-0.107
-476.303	-152.864	-0.150	-0.011
-475.289	-200.000	-0.028	-0.242
-474.274	381.157	0.085	0.175
-473.259	47.651	0.137	0.128
-472.245	-200.000	-0.063	-0.455
-471.230	510.189	-0.033	-0.078
-470.216	109.963	-0.080	0.096
-469.201	800.000	0.074	0.250
-468.186	-200.000	0.008	0.177
-467.172	-200.000	-0.041	-0.215
-466.157	-20.018	-0.011	-0.007
-465.143	207.378	0.060	-0.094
-464.128	-200.000	0.007	0.144
-463.113	27.699	0.195	0.165
-462.099	21.246	-0.076	-0.061
-461.084	7.257	-0.065	0.048
-460.070	-1.091	0.223	-0.158
-459.055	-10.706	-0.466	-0.309
-458.040	-63.026	-0.278	0.115
-457.026	168.280	0.143	0.204
-456.011	91.313	0.053	-0.060
-454.997	-9.972	-0.391	0.260
-453.982	-42.941	-0.310	-0.158
-452.968	-127.130	-0.157	0.023
-451.953	350.987	0.148	0.294
-450.938	27.920	0.257	0.217
-449.924	800.000	0.035	-0.133
-448.909	-200.000	0.001	-0.104
-447.895	800.000	0.076	-0.290
-446.880	-101.535	0.179	-0.044
-445.865	-25.795	0.240	-0.142
-444.851	-120.651	0.224	0.038
-443.836	103.926	-0.114	0.134
-442.822	-200.000	-0.009	0.044
-441.807	94.175	-0.182	0.207
-440.792	642.219	-0.138	0.353
-439.778	-200.000	-0.026	-0.192
-438.763	-200.000	-0.047	-0.317
-437.749	4.721	-0.052	0.038
-436.734	115.427	-0.256	0.313
-435.719	-125.851	-0.072	0.011
-434.705	72.755	-0.113	0.118
-433.690	197.538	-0.047	-0.071
-432.676	-31.078	-0.140	-0.079
-431.661	196.307	0.028	0.042
-430.646	164.232	0.056	0.079
-429.632	-151.887	-0.582	-0.043
-428.617	119.147	-0.019	0.023
-427.603	-33.156	-0.202	-0.112
-426.588	-128.551	0.199	0.028
-425.573	-66.704	-0.265	0.105
-424.559	-200.000	0.002	-0.227
-423.544	18.341	0.163	0.130
-422.530	116.743	0.079	-0.097
-421.515	372.954	0.128	-0.261
-420.500	-89.487	-0.058	-0.017
-419.486	-21.036	0.180	-0.110
-418.471	-200.000	0.038	0.283
-417.457	800.000	-0.071	0.253
-416.442	370.555	-0.128	0.260
-415.428	161.015	-0.204	-0.285
-414.413	-100.458	0.141	0.035
-413.398	119.333	0.115	0.143
-412.384	-200.000	-0.006	0.462
-411.369	-200.000	0.005	-0.310
-410.355	-94.534	0.162	-0.044
-409.340	800.000	0.066	0.194
-408.325	114.179	-0.173	-0.210
-407.311	-121.999	-0.114	-0.019
-406.296	335.141	-0.087	-0.169
-405.282	-131.340	-0.217	-0.029
-404.267	10.431	-0.340	-0.259
-403.252	-164.609	-0.145	0.007
-402.238	-200.000	-0.020	0.134
-401.223	492.251	0.155	0.355
-400.209	-45.369	0.118	0.058
-399.194	187.580	0.228	-0.340
-398.179	-200.000	0.007	-0.189
-397.165	159.068	-0.123	-0.171
-396.150	521.025	0.102	0.240
-395.136	302.583	-0.140	-0.258
-394.121	-200.000	-0.001	-0.106
-393.106	-200.000	0.024	-0.192
-392.092	112.363	0.102	-0.123
-391.077	-200.000	-0.029	-0.168
-390.063	800.000	-0.061	0.260
-389.048	-200.000	-0.021	-0.108
-388.033	-21.215	-0.053	-0.032
-387.019	-123.444	-0.327	0.052
-386.004	800.000	0.053	-0.166
-384.990	150.178	-0.029	-0.039
-383.975	-200.000	0.038	0.188
-382.960	-200.000	-0.009	0.048
-381.946	476.858	-0.093	0.211
-380.931	800.000	0.026	-0.081
-379.917	800.000	0.095	0.317
-378.902	123.023	0.064	0.080
-377.888	-200.000	-0.020	0.119
-376.873	710.548	0.057	0.151
-375.858	303.347	0.185	0.343
-374.844	34.152	0.109	-0.095
-373.829	-200.000	-0.062	-0.533
-372.815	114.831	0.152	-0.185
-371.800	-200.000	-0.005	0.034
-370.785	-92.148	0.268	-0.076
-369.771	-104.339	0.060	-0.014
-368.756	-171.444	-0.135	0.004
-367.742	-158.845	-0.093	-0.005
-366.727	-25.514	0.184	0.109
-365.712	800.000	-0.070	0.211
-364.698	-200.000	0.011	0.178
-363.683	-200.000	-0.012	0.058
-362.669	-145.081	0.344	-0.031
-361.654	-106.843	-0.220	0.049
-360.639	-72.551	-0.116	0.043
-359.625	800.000	-0.117	0.443
-358.610	-41.877	0.115	0.059
-357.596	-200.000	0.025	0.165
-356.581	-200.000	-0.025	-0.142
-355.566	-89.230	-0.258	-0.076
-354.552	160.892	-0.224	-0.312
-353.537	-200.000	-0.007	0.135
-352.523	184.323	0.025	-0.036
-351.508	-175.347	0.202	0.006
-350.493	800.000	0.150	-0.471
-349.479	800.000	-0.098	0.293
-348.464	-200.000	0.005	-0.075
-347.450	800.000	-0.071	-0.252
-346.435	-153.429	-0.123	-0.009
-345.420	-37.460	0.209	-0.111
-344.406	369.155	0.026	0.052
-343.391	-7.352	-0.022	-0.015
-342.377	800.000	-0.021	0.068
-341.362	800.000	0.076	-0.294
-340.348	70.070	-0.115	0.118
-339.333	-200.000	-0.052	0.424
-338.318	-64.951	0.082	0.033
-337.304	-200.000	-0.008	0.215
-336.289	95.657	0.274	-0.312
-335.275	800.000	0.125	0.380
-334.260	-21.565	-0.262	-0.159
-333.245	-200.000	0.055	-0.258
-332.231	800.000	-0.059	0.181
-331.216	-112.168	0.136	0.027
-330.202	800.000	-0.092	0.255
-329.187	800.000	-0.078	0.288
-328.172	79.746	-0.137	-0.146
-327.158	262.343	-0.151	0.261
-326.143	800.000	0.052	-0.195
-325.129	-165.735	0.247	-0.011
-324.114	-11.480	0.293	0.192
-323.099	174.406	0.108	-0.155
-322.085	385.111	-0.088	-0.181
-321.070	-200.000	-0.016	0.097
-320.056	-35.700	0.312	-0.169
-319.041	-77.269	0.498	-0.173
-318.026	231.405	0.277	-0.453
-317.012	-80.073	0.224	0.075
-315.997	48.177	0.101	0.094
-314.983	-96.617	0.537	-0.141
-313.968	-72.206	-0.043	0.016
-312.953	-200.000	0.023	-0.298
-311.939	-102.245	0.111	-0.027
-310.924	-200.000	-0.058	-0.288
-309.910	27.055	-0.168	0.141
-308.895	800.000	-0.083	0.286
-307.880	-116.031	-0.206	0.038
-306.866	800.000	0.092	-0.292
-305.851	800.000	0.039	0.152
-304.837	26.245	0.040	0.034
-303.822	342.934	0.076	-0.148
-302.807	-31.021	0.224	-0.126
-301.793	-66.631	0.139	0.055
-300.778	800.000	-0.147	-0.451
-299.764	-200.000	0.027	-0.231
-298.749	278.946	0.073	0.129
-297.735	-28.004	-0.106	-0.061
-296.720	113.281	-0.216	-0.260
-295.705	176.663	0.210	0.304
-294.691	-21.335	0.039	-0.024
-293.676	79.953	0.161	-0.172
-292.662	800.000	0.043	-0.121
-291.647	-157.574	0.114	-0.007
-290.632	-141.346	0.149	0.015
-289.618	8.333	0.335	0.250
-288.603	-145.020	-0.305	-0.028
-287.589	800.000	-0.020	-0.067
-286.574	17.563	-0.200	0.158
-285.559	-200.000	0.001	0.046
-284.545	206.824	0.075	0.117
-283.530	-200.000	-0.039	-0.194
-282.516	800.000	-0.021	-0.089
-281.501	-200.000	-0.071	-0.348
-280.486	135.678	0.290	-0.376
-279.472	-68.299	-0.176	0.068
-278.457	-129.555	-0.207	-0.028
-277.443	-82.644	-0.248	-0.080
-276.428	-39.342	-0.169	-0.088
-275.413	-200.000	-0.027	0.188
-274.399	231.381	0.048	0.078
-273.384	-111.025	0.299	-0.061
-272.370	800.000	-0.116	-0.358
-271.355	-101.313	-0.148	-0.036
-270.340	-200.000	-0.021	-0.285
-269.326	800.000	0.065	0.205
-268.311	-137.222	-0.082	-0.009
-267.297	-200.000	0.007	-0.163
-266.282	84.262	0.105	-0.114
-265.267	-200.000	0.001	0.046
-264.253	800.000	0.040	0.118
-263.238	71.036	0.117	-0.120
-262.224	295.533	-0.129	-0.234
-261.209	800.000	0.041	-0.116
-260.195	-50.505	0.226	0.106
-259.180	-162.312	-0.095	-0.005
-258.165	-101.724	-0.384	-0.092
-257.151	-114.819	0.684	-0.130
-256.136	92.801	0.238	-0.267
-255.122	16.349	0.136	0.107
-254.107	651.055	0.072	0.183
-253.092	-115.770	-0.245	0.046
-252.078	73.551	0.158	-0.165
-251.063	-200.000	0.037	0.210
-250.049	-45.374	0.303	0.149
-249.034	311.305	-0.135	-0.251
-248.019	185.860	0.096	-0.142
-247.005	128.450	-0.200	0.253
-245.990	-158.393	0.249	-0.014
-244.976	-200.000	0.017	-0.136
-243.961	-91.030	0.274	-0.078
-242.946	800.000	0.011	-0.043
-241.932	32.294	-0.266	-0.228
-240.917	-200.000	-0.064	0.395
-239.903	-2.605	-0.264	0.183
-238.888	213.924	-0.121	-0.190
-237.873	-47.648	0.018	0.009
-236.859	450.109	-0.126	0.277
-235.844	-137.355	0.165	0.019
-234.830	161.035	-0.155	0.216
-233.815	-200.000	-0.007	-0.067
-232.800	-99.027	0.106	-0.027
-231.786	-112.823	-0.144	-0.028
-230.771	-159.213	0.193	-0.011
-229.757	-200.000	0.012	-0.190
-228.742	381.557	0.065	0.133
-227.727	800.000	-0.040	0.115
-226.713	-21.888	-0.116	-0.070
-225.698	-50.769	0.369	0.173
-224.684	373.200	0.183	-0.369
-223.669	-126.639	-0.348	-0.051
-222.655	361.126	0.111	0.221
-221.640	-200.000	-0.037	0.209
-220.625	385.461	-0.091	0.187
-219.611	-200.000	0.012	0.058
-218.596	800.000	-0.104	-0.306
-217.582	-54.822	-0.208	0.093
-216.567	75.404	0.065	0.068
-215.552	-57.795	-0.104	-0.045
-214.538	474.165	-0.046	0.103
-213.523	-97.936	-0.235	-0.060
-212.509	800.000	0.030	-0.099
-211.494	-146.860	-0.130	-0.011
-210.479	-96.340	0.486	0.128
-209.465	85.077	-0.110	0.119
-208.450	-200.000	-0.026	0.365
-207.436	-45.557	-0.245	0.120
-206.421	-102.121	-0.154	0.037
-205.406	800.000	-0.097	0.283
-204.392	-92.099	0.194	0.054
-203.377	-53.305	0.076	0.035
-202.363	263.759	-0.132	0.229
-201.348	800.000	0.066	0.191
-200.333	-200.000	0.019	0.225
-199.319	-1.268	-0.055	0.038
-198.304	-44.463	-0.144	-0.071
-197.290	-49.904	0.110	0.052
-196.275	800.000	-0.066	0.201
-195.260	-200.000	0.017	0.174
-194.246	800.000	0.063	0.183
-193.231	128.485	-0.094	-0.119
-192.217	82.148	0.100	0.108
-191.202	481.374	-0.091	0.205
-190.187	-107.876	0.103	-0.022
-189.173	-128.051	-0.303	0.043
-188.158	250.032	0.044	-0.073
-187.144	800.000	0.055	0.185
-186.129	-115.937	-0.373	0.069
-185.114	58.869	0.185	0.180
-184.100	356.164	-0.071	-0.140
-183.085	-200.000	-0.050	0.236
-182.071	800.000	-0.046	-0.153
-181.056	-200.000	0.013	-0.124
-180.042	330.212	0.064	0.123
-179.027	671.298	-0.089	-0.230
-178.012	141.436	0.182	0.239
-176.998	-133.951	0.267	-0.033
-175.983	-200.000	0.032	0.191
-174.969	267.263	-0.055	-0.096
-173.954	70.721	-0.120	0.124
-172.939	-19.678	0.254	-0.156
-171.925	11.280	-0.108	0.082
-170.910	361.568	-0.165	0.329
-169.896	-129.290	0.334	-0.046
-168.881	-200.000	-0.016	0.368
-167.866	779.822	-0.103	0.280
-166.852	169.911	0.050	0.071
-165.837	-148.416	0.140	-0.011
-164.823	-200.000	0.005	0.291
-163.808	-90.196	-0.093	-0.027
-162.793	-28.860	-0.182	-0.104
-161.779	-48.595	0.293	0.139
-160.764	95.045	0.194	-0.218
-159.750	-56.561	0.125	0.055
-158.735	-141.097	-0.188	-0.019
-157.720	800.000	-0.030	-0.115
-156.706	56.180	-0.154	0.148
-155.691	451.307	0.112	0.244
-154.677	-151.531	0.049	0.004
-153.662	-10.791	0.221	0.145
-152.647	625.148	-0.047	-0.117
-151.633	800.000	-0.046	-0.154
-150.618	38.615	0.117	-0.103
-149.604	-200.000	-0.013	0.279
-148.589	800.000	-0.088	0.254
-147.574	69.176	0.122	0.124
-146.560	155.304	-0.086	0.118
-145.545	-163.638	-0.212	-0.010
-144.531	44.628	0.079	0.072
-143.516	50.039	0.095	0.089
-142.502	800.000	-0.097	-0.332
-141.487	-200.000	0.001	-0.122
-140.472	498.451	-0.079	0.179
-139.458	-118.171	0.057	-0.010
-138.443	27.706	0.146	0.121
-137.429	-54.279	-0.162	-0.073
-136.414	-200.000	0.004	0.353
-135.399	-200.000	-0.002	-0.100
-134.385	31.723	-0.203	0.173
-133.370	-47.267	-0.103	-0.050
-132.356	45.511	0.198	0.181
-131.341	-200.000	0.011	0.343
-130.326	70.500	0.234	0.240
-129.312	-152.982	-0.178	-0.012
-128.297	-126.854	0.036	-0.005
-127.283	-172.372	0.105	0.003
-126.268	-0.682	0.227	-0.159
-125.253	342.027	-0.170	-0.330
-124.239	-87.844	0.339	-0.101
-123.224	-200.000	-0.025	-0.277
-122.210	495.587	0.049	0.111
