DTS Sentinel unit serial number:	SN413079Multiplexer serial number:	ORYXHardware model number:	OX4-SRSoftware version number:	ORYX F/W v4.00 Oryx Data Collector v3.7.2.0data status	okinstallation	princeton_trtdifferential loss correction	single-endedforward channel	channel 2reverse channel	N/Adate	2019/09/12time	21:07:34forward acquisition time	60.00reverse acquisition time	0.00gamma	496.2192k internal	0.2328k external	0.2328temperature offset calibration	1.0169default loss term (dB/km)	0.3790temperature slope calibration	1.0000multiplexer offset coefficient	1.0000multiplexer slope coefficient	1.0000fibre end	0.00T internal ref (°C)	30.75T ext. ref 1 (°C)	3.60T ext. ref 2 (°C)	25.24length (m)	temperature (°C)	Stokes	anti-Stokes-747.200	3.429	0.072	0.053
-746.185	669.032	-0.074	0.193
-745.171	29.833	-0.175	-0.150
-744.156	-200.000	-0.007	0.430
-743.142	-200.000	0.031	0.204
-742.127	344.873	-0.057	0.113
-741.112	800.000	0.067	0.196
-740.098	-200.000	0.016	0.279
-739.083	800.000	0.065	0.250
-738.069	-155.864	0.145	-0.009
-737.054	-189.008	-0.242	0.003
-736.039	127.907	-0.114	0.145
-735.025	31.975	0.159	0.138
-734.010	-200.000	0.025	-0.159
-732.996	-104.346	-0.187	0.044
-731.981	-55.692	0.116	-0.052
-730.966	306.083	0.064	0.120
-729.952	231.466	-0.183	0.302
-728.937	800.000	0.054	0.167
-727.923	194.125	-0.111	0.169
-726.908	-200.000	0.002	-0.182
-725.894	800.000	0.042	-0.145
-724.879	-200.000	-0.036	-0.228
-723.864	42.618	-0.240	-0.220
-722.850	135.942	-0.180	0.236
-721.835	-200.000	-0.046	0.359
-720.821	-200.000	-0.026	0.220
-719.806	-155.740	0.386	-0.025
-718.791	-137.011	-0.233	-0.027
-717.777	-3.581	-0.125	0.088
-716.762	-106.510	0.453	-0.102
-715.748	-79.663	0.517	0.176
-714.733	-181.426	-0.137	-0.003
-713.718	373.808	0.010	-0.021
-712.704	556.112	-0.111	-0.269
-711.689	800.000	-0.045	0.188
-710.675	-101.085	-0.225	0.055
-709.660	-71.914	-0.207	0.078
-708.645	-135.504	-0.361	0.043
-707.631	-200.000	-0.023	-0.202
-706.616	724.762	-0.073	0.196
-705.602	-118.786	0.361	0.064
-704.587	-2.332	-0.198	-0.140
-703.572	545.091	-0.041	-0.098
-702.558	800.000	0.126	-0.446
-701.543	741.976	-0.077	-0.208
-700.529	29.205	-0.110	-0.094
-699.514	-60.892	0.399	0.170
-698.499	-82.615	-0.365	0.119
-697.485	-42.394	0.189	-0.097
-696.470	800.000	-0.099	-0.282
-695.456	128.150	0.191	-0.244
-694.441	11.394	0.158	0.122
-693.426	-140.958	0.199	-0.021
-692.412	231.898	0.094	-0.156
-691.397	348.699	-0.208	0.412
-690.383	-122.895	-0.224	-0.036
-689.368	164.595	0.126	0.179
-688.354	-85.684	-0.231	0.072
-687.339	86.227	0.165	0.183
-686.324	131.752	0.083	-0.108
-685.310	-28.769	0.343	0.198
-684.295	613.236	0.037	0.093
-683.281	-200.000	0.068	0.367
-682.266	800.000	-0.020	-0.073
-681.251	-74.382	-0.398	0.144
-680.237	800.000	-0.062	-0.261
-679.222	190.853	0.213	-0.322
-678.208	-200.000	0.104	-0.501
-677.193	-200.000	0.035	0.322
-676.178	-200.000	0.029	0.278
-675.164	-200.000	-0.013	-0.215
-674.149	91.273	-0.150	0.169
-673.135	-120.714	-0.221	-0.037
-672.120	-22.792	-0.108	0.066
-671.105	102.564	0.112	-0.132
-670.091	-68.769	-0.354	-0.138
-669.076	800.000	0.081	-0.326
-668.062	58.576	0.207	-0.204
-667.047	-88.810	0.177	-0.053
-666.032	49.519	-0.066	0.062
-665.018	141.112	0.070	-0.094
-664.003	60.582	0.122	-0.121
-662.989	0.406	0.162	0.116
-661.974	800.000	0.055	-0.158
-660.959	-200.000	-0.005	-0.100
-659.945	-15.237	0.037	-0.023
-658.930	800.000	0.056	-0.159
-657.916	-151.879	-0.376	-0.028
-656.901	-200.000	0.011	-0.280
-655.886	-117.323	0.411	-0.075
-654.872	-200.000	-0.046	0.252
-653.857	-55.301	0.198	-0.089
-652.843	-51.070	-0.307	-0.145
-651.828	-35.460	0.286	0.156
-650.814	-97.101	-0.177	0.046
-649.799	800.000	0.017	-0.071
-648.784	116.022	-0.168	0.207
-647.770	-158.090	-0.179	-0.011
-646.755	-54.635	0.172	-0.078
-645.741	188.109	-0.186	-0.280
-644.726	-158.967	0.077	-0.004
-643.711	-65.803	0.030	-0.012
-642.697	16.003	0.093	-0.073
-641.682	-141.109	0.167	-0.017
-640.668	800.000	-0.018	-0.064
-639.653	-153.680	-0.367	0.025
-638.638	-200.000	0.039	-0.271
-637.624	-142.208	0.089	0.009
-636.609	-72.480	0.179	-0.067
-635.595	223.526	0.158	0.255
-634.580	-200.000	0.024	0.231
-633.565	-64.028	-0.337	-0.138
-632.551	136.377	-0.257	-0.336
-631.536	-31.571	-0.257	-0.145
-630.522	-200.000	0.030	-0.171
-629.507	-200.000	0.011	-0.177
-628.492	-192.892	-0.496	0.005
-627.478	387.148	0.073	-0.150
-626.463	-109.534	-0.405	-0.086
-625.449	67.614	-0.208	-0.213
-624.434	-90.360	0.073	0.021
-623.419	-35.907	-0.236	-0.128
-622.405	-190.822	-0.079	-0.001
-621.390	337.922	0.131	-0.255
-620.376	-115.709	-0.232	-0.044
-619.361	279.721	0.203	0.364
-618.346	302.202	0.095	-0.175
-617.332	207.460	0.072	-0.113
-616.317	-104.917	0.409	-0.094
-615.303	121.631	-0.172	-0.215
-614.288	70.323	-0.079	-0.082
-613.273	46.419	-0.153	-0.143
-612.259	-200.000	-0.026	-0.314
-611.244	112.144	0.184	-0.223
-610.230	-200.000	0.027	-0.124
-609.215	6.577	0.292	0.218
-608.201	800.000	0.106	-0.461
-607.186	-29.588	0.266	-0.152
-606.171	41.888	0.276	0.251
-605.157	79.416	-0.044	-0.048
-604.142	-133.893	-0.118	0.015
-603.128	800.000	-0.111	-0.379
-602.113	66.151	-0.139	-0.142
-601.098	90.187	0.125	-0.141
-600.084	138.602	-0.136	0.179
-599.069	-59.755	-0.210	0.090
-598.055	-199.177	0.315	0.002
-597.040	-59.035	0.269	-0.116
-596.025	-85.027	0.273	-0.086
-595.011	-200.000	-0.010	-0.270
-593.996	-147.803	0.243	0.020
-592.982	-151.238	0.267	0.020
-591.967	15.875	-0.214	-0.169
-590.952	-200.000	-0.015	-0.227
-589.938	-114.267	-0.089	0.017
-588.923	-200.000	0.005	0.111
-587.909	-108.495	0.093	-0.020
-586.894	-144.788	0.178	-0.016
-585.879	-69.094	-0.099	0.038
-584.865	-35.825	-0.217	-0.118
-583.850	216.328	0.133	0.211
-582.836	-77.181	-0.130	0.045
-581.821	49.905	0.073	0.069
-580.806	-51.794	0.356	-0.166
-579.792	108.712	-0.181	0.216
-578.777	-5.584	-0.004	0.003
-577.763	-200.000	-0.025	-0.401
-576.748	800.000	0.051	0.165
-575.733	-141.942	-0.113	0.011
-574.719	20.262	-0.071	-0.057
-573.704	800.000	-0.095	0.353
-572.690	-111.076	0.188	0.039
-571.675	-161.900	-0.344	-0.017
-570.661	-22.031	-0.175	-0.106
-569.646	-30.004	-0.268	0.153
-568.631	18.260	-0.088	0.070
-567.617	0.123	0.169	0.120
-566.602	-32.525	-0.238	-0.132
-565.588	-41.119	0.219	0.113
-564.573	800.000	0.057	0.172
-563.558	193.378	-0.099	-0.150
-562.544	-90.716	0.033	0.010
-561.529	195.637	-0.205	0.312
-560.515	-200.000	0.013	-0.197
-559.500	-200.000	0.013	0.174
-558.485	103.693	0.300	-0.353
-557.471	800.000	-0.133	0.508
-556.456	39.887	0.085	0.076
-555.442	-200.000	0.036	-0.182
-554.427	129.061	0.136	-0.174
-553.412	-90.659	-0.134	-0.039
-552.398	56.367	0.112	-0.109
-551.383	52.877	-0.021	0.020
-550.369	-26.651	0.355	0.208
-549.354	-61.152	-0.087	-0.037
-548.339	-124.258	0.159	-0.025
-547.325	-28.610	0.118	0.068
-546.310	-68.612	0.167	0.065
-545.296	422.650	-0.189	-0.406
-544.281	-200.000	0.044	0.303
-543.266	-93.440	-0.150	0.042
-542.252	-52.765	-0.139	-0.064
-541.237	800.000	-0.055	-0.226
-540.223	-56.474	-0.162	-0.072
-539.208	-41.611	-0.126	0.065
-538.193	8.153	-0.169	-0.127
-537.179	172.124	0.071	0.102
-536.164	-133.855	-0.047	-0.006
-535.150	0.267	-0.301	-0.215
-534.135	174.768	-0.164	0.238
-533.121	27.989	0.332	0.279
-532.106	-200.000	-0.011	-0.197
-531.091	-81.539	0.674	0.221
-530.077	-200.000	-0.110	0.567
-529.062	-200.000	-0.004	-0.150
-528.048	11.391	0.267	0.204
-527.033	58.058	0.078	0.076
-526.018	31.432	-0.141	-0.121
-525.004	-35.271	-0.121	0.066
-523.989	123.253	0.091	-0.113
-522.975	-185.422	0.110	0.002
-521.960	25.746	-0.156	0.129
-520.945	92.031	0.042	-0.047
-519.931	-77.958	0.096	-0.033
-518.916	10.578	0.165	-0.125
-517.902	29.204	0.147	-0.125
-516.887	200.858	0.055	0.084
-515.872	-112.238	-0.161	0.032
-514.858	-52.651	0.270	0.124
-513.843	88.875	-0.209	-0.232
-512.829	5.941	-0.090	0.066
-511.814	128.029	0.187	-0.238
-510.799	-87.131	-0.418	0.127
-509.785	800.000	0.032	0.130
-508.770	65.426	-0.157	0.159
-507.756	-65.436	0.269	-0.108
-506.741	165.908	0.148	0.209
-505.726	68.340	0.287	0.294
-504.712	-200.000	-0.005	0.213
-503.697	-28.889	-0.227	-0.130
-502.683	-28.418	-0.149	0.086
-501.668	-103.702	0.070	0.016
-500.653	338.553	-0.116	-0.225
-499.639	-25.008	0.011	0.006
-498.624	800.000	-0.115	-0.340
-497.610	-32.430	0.189	-0.105
-496.595	125.423	-0.204	-0.257
-495.581	-200.000	-0.025	0.136
-494.566	-200.000	-0.027	0.131
-493.551	-200.000	0.006	0.297
-492.537	137.192	0.126	-0.164
-491.522	-20.159	0.285	0.175
-490.508	-11.908	0.088	0.058
-489.493	26.905	-0.116	0.097
-488.478	203.339	0.080	-0.123
-487.464	-119.275	-0.182	-0.032
-486.449	800.000	-0.095	-0.264
-485.435	64.835	-0.064	0.065
-484.420	-139.020	-0.263	-0.028
-483.405	113.662	0.039	0.047
-482.391	800.000	0.023	-0.078
-481.376	732.063	0.044	-0.118
-480.362	219.488	0.097	-0.154
-479.347	9.406	-0.053	0.040
-478.332	800.000	-0.108	0.336
-477.318	-72.712	-0.226	0.083
-476.303	-200.000	-0.030	-0.298
-475.289	800.000	0.095	0.296
-474.274	-200.000	0.013	0.317
-473.259	29.262	-0.172	0.146
-472.245	126.505	-0.087	0.109
-471.230	58.918	0.045	-0.044
-470.216	-200.000	-0.050	-0.309
-469.201	800.000	0.073	-0.212
-468.186	362.347	-0.122	0.243
-467.172	16.945	-0.245	-0.193
-466.157	16.791	-0.284	0.224
-465.143	-200.000	-0.017	0.180
-464.128	54.726	-0.134	-0.129
-463.113	69.474	0.218	0.224
-462.099	-62.888	-0.344	-0.142
-461.084	-103.463	-0.270	0.063
-460.070	557.399	0.130	0.312
-459.055	306.827	0.065	0.120
-458.040	-41.467	-0.219	-0.112
-457.026	60.486	0.183	0.181
-456.011	24.366	-0.213	-0.175
-454.997	-29.792	-0.125	0.071
-453.982	342.776	-0.124	-0.241
-452.968	198.566	-0.126	-0.193
-451.953	-84.594	-0.040	-0.013
-450.938	-182.489	0.184	0.003
-449.924	-200.000	0.034	0.192
-448.909	-77.102	0.232	-0.080
-447.895	800.000	0.036	0.107
-446.880	-111.986	-0.090	-0.018
-445.865	-200.000	-0.035	0.197
-444.851	-200.000	-0.010	-0.144
-443.836	-14.029	-0.212	0.136
-442.822	-95.746	0.195	0.052
-441.807	-84.850	-0.221	-0.069
-440.792	243.809	-0.016	0.027
-439.778	38.422	0.086	0.076
-438.763	-200.000	-0.094	0.467
-437.749	156.057	0.224	0.307
-436.734	-182.566	0.059	-0.001
-435.719	-124.348	0.349	-0.054
-434.705	3.344	-0.086	0.063
-433.690	-200.000	0.018	-0.378
-432.676	-84.087	-0.241	-0.076
-431.661	153.223	-0.176	0.239
-430.646	-46.485	0.289	0.141
-429.632	357.858	0.043	0.085
-428.617	108.134	0.144	0.171
-427.603	-85.589	0.144	0.045
-426.588	-200.000	0.015	0.117
-425.573	-134.703	0.200	-0.024
-424.559	-200.000	-0.010	0.185
-423.544	266.114	-0.169	0.294
-422.530	-40.096	-0.278	-0.144
-421.515	308.893	0.119	0.220
-420.500	800.000	0.130	-0.424
-419.486	-54.503	0.136	-0.061
-418.471	-5.008	-0.169	-0.116
-417.457	-1.332	0.413	-0.290
-416.442	5.211	-0.252	0.185
-415.428	-200.000	0.002	0.050
-414.413	225.604	-0.206	0.332
-413.398	-110.231	-0.238	0.049
-412.384	-200.000	0.042	-0.255
-411.369	43.404	0.333	0.302
-410.355	-14.403	-0.211	0.135
-409.340	159.399	-0.073	0.101
-408.325	-200.000	0.040	0.237
-407.311	-120.344	0.109	-0.018
-406.296	363.678	0.119	0.239
-405.282	-200.000	-0.031	0.139
-404.267	-59.212	-0.103	-0.044
-403.252	51.156	-0.073	-0.069
-402.238	247.551	0.138	0.232
-401.223	310.114	-0.209	-0.389
-400.209	800.000	-0.056	0.211
-399.194	-141.620	0.206	0.021
-398.179	-35.216	-0.233	0.126
-397.165	35.092	-0.129	0.112
-396.150	464.708	0.122	0.272
-395.136	-30.667	-0.132	0.074
-394.121	-200.000	-0.117	0.000
-393.106	323.404	0.121	0.229
-392.092	-13.578	-0.126	0.081
-391.077	-200.000	0.005	0.106
-390.063	-15.067	-0.413	0.263
-389.048	35.863	0.067	-0.059
-388.033	386.008	0.075	-0.153
-387.019	-39.154	-0.225	-0.118
-386.004	800.000	0.159	-0.496
-384.990	-77.002	0.198	-0.069
-383.975	235.225	0.038	-0.063
-382.960	266.646	-0.206	-0.357
-381.946	-34.466	0.079	0.043
-380.931	-116.516	0.231	0.042
-379.917	-50.752	-0.247	-0.116
-378.902	-200.000	0.022	-0.261
-377.888	-66.476	0.133	0.052
-376.873	198.464	-0.116	-0.177
-375.858	432.407	0.019	0.040
-374.844	33.444	-0.031	-0.027
-373.829	301.303	0.114	-0.209
-372.815	-15.124	0.044	0.028
-371.800	800.000	0.040	0.118
-370.785	800.000	0.064	0.190
-369.771	-34.251	0.260	0.142
-368.756	-132.700	-0.171	-0.022
-367.742	800.000	-0.032	0.097
-366.727	-132.091	-0.253	-0.033
-365.712	67.700	-0.091	0.093
-364.698	-200.000	-0.020	0.423
-363.683	-25.722	0.252	0.147
-362.669	-166.138	0.227	-0.010
-361.654	-200.000	-0.036	-0.357
-360.639	800.000	-0.037	0.159
-359.625	-42.255	0.107	0.054
-358.610	25.478	0.041	0.034
-357.596	-174.386	0.191	0.005
-356.581	-139.658	-0.483	0.051
-355.566	142.994	-0.142	0.188
-354.552	-200.000	0.022	0.212
-353.537	141.147	0.156	-0.205
-352.523	167.670	0.134	-0.189
-351.508	-200.000	-0.005	-0.159
-350.493	58.476	0.141	-0.138
-349.479	-200.000	-0.068	0.469
-348.464	-200.000	0.003	0.019
-347.450	49.201	-0.090	0.084
-346.435	-77.046	-0.303	0.105
-345.420	-91.271	-0.048	-0.014
-344.406	153.914	0.088	0.120
-343.391	800.000	0.096	-0.267
-342.377	29.957	0.210	0.177
-341.362	-63.784	-0.258	-0.105
-340.348	-200.000	0.026	0.122
-339.333	-19.834	-0.425	0.260
-338.318	612.780	0.085	0.210
-337.304	32.239	-0.345	-0.295
-336.289	-51.002	0.263	-0.123
-335.275	-0.492	-0.241	0.170
-334.260	-109.100	-0.230	-0.049
-333.245	-121.680	0.273	-0.045
-332.231	-72.555	0.115	-0.042
-331.216	-43.717	0.604	-0.302
-330.202	65.227	-0.313	-0.313
-329.187	104.518	0.295	-0.345
-328.172	124.398	-0.018	-0.022
-327.158	800.000	0.118	-0.430
-326.143	-8.244	0.045	-0.030
-325.129	114.673	-0.180	-0.217
-324.114	800.000	0.066	-0.184
-323.099	17.498	0.275	-0.216
-322.085	-200.000	-0.026	-0.240
-321.070	-200.000	0.025	0.473
-320.056	-129.319	-0.285	-0.039
-319.041	-200.000	0.012	-0.111
-318.026	-46.717	0.158	-0.077
-317.012	-54.144	-0.159	0.072
-315.997	-41.892	-0.208	0.106
-314.983	289.540	0.136	-0.245
-313.968	-200.000	-0.043	-0.393
-312.953	-26.760	0.125	0.073
-311.939	-95.225	0.254	0.068
-310.924	-65.148	0.105	0.042
-309.910	800.000	-0.013	-0.047
-308.895	-200.000	-0.015	0.134
-307.880	-82.909	0.223	0.071
-306.866	-160.441	-0.130	0.007
-305.851	-118.413	-0.172	0.030
-304.837	10.825	-0.112	0.085
-303.822	-17.982	0.106	-0.066
-302.807	-35.312	0.259	-0.139
-301.793	-158.057	0.103	0.006
-300.778	39.316	-0.166	0.147
-299.764	36.309	0.137	-0.119
-298.749	-73.162	0.087	0.032
-297.735	23.074	-0.130	-0.106
-296.720	-80.338	0.100	0.033
-295.705	171.882	-0.124	0.177
-294.691	-76.605	0.189	0.066
-293.676	-12.592	0.135	-0.087
-292.662	165.025	0.034	-0.048
-291.647	-200.000	0.008	-0.055
-290.632	115.560	-0.062	-0.076
-289.618	-200.000	-0.019	-0.098
-288.603	800.000	-0.017	-0.050
-287.589	22.338	0.517	-0.418
-286.574	-20.846	-0.277	-0.168
-285.559	273.671	-0.136	0.238
-284.545	333.493	0.156	0.299
-283.530	800.000	-0.083	0.316
-282.516	-200.000	0.047	-0.227
-281.501	241.481	0.216	-0.358
-280.486	-139.171	0.293	0.031
-279.472	-114.102	-0.277	0.053
-278.457	40.544	0.326	0.290
-277.443	-200.000	0.003	0.054
-276.428	69.657	-0.228	0.232
-275.413	-80.998	-0.073	0.024
-274.399	69.229	0.198	0.202
-273.384	-18.004	-0.165	-0.102
-272.370	21.463	-0.092	0.074
-271.355	-1.429	0.180	0.126
-270.340	-68.494	-0.443	-0.170
-269.326	-128.576	0.355	0.050
-268.311	-23.575	0.189	-0.112
-267.297	-113.453	0.214	-0.041
-266.282	204.306	0.189	0.290
-265.267	33.159	-0.146	0.125
-264.253	-136.704	-0.267	0.031
-263.238	-91.125	0.377	0.107
-262.224	27.440	0.222	0.185
-261.209	800.000	0.048	0.148
-260.195	-200.000	-0.026	-0.157
-259.180	-36.507	-0.473	0.252
-258.165	-200.000	-0.002	0.026
-257.151	800.000	-0.055	0.173
-256.136	-61.467	-0.334	0.139
-255.122	-63.069	0.300	0.122
-254.107	-97.776	-0.014	-0.004
-253.092	104.028	-0.022	-0.026
-252.078	800.000	-0.092	0.254
-251.063	-16.958	0.057	0.036
-250.049	-200.000	-0.043	-0.375
-249.034	13.511	-0.025	-0.019
-248.019	50.761	0.366	-0.342
-247.005	-200.000	0.024	0.122
-245.990	581.300	-0.072	0.175
-244.976	570.952	-0.019	-0.045
-243.961	-172.711	-0.293	-0.009
-242.946	45.297	-0.165	-0.151
-241.932	-144.762	0.054	-0.005
-240.917	64.056	0.170	-0.169
-239.903	39.465	0.233	-0.206
-238.888	20.135	0.069	-0.055
-237.873	18.291	0.062	-0.049
-236.859	466.306	0.087	0.192
-235.844	800.000	-0.034	-0.140
-234.830	-200.000	-0.037	0.254
-233.815	38.831	-0.027	-0.024
-232.800	-94.561	0.094	0.025
-231.786	-200.000	0.086	-0.383
-230.771	-12.023	0.137	0.088
-229.757	-97.130	0.108	-0.028
-228.742	185.975	-0.222	0.325
-227.727	-49.330	0.126	-0.060
-226.713	159.622	0.056	0.077
-225.698	-114.911	0.259	0.049
-224.684	-56.070	0.176	-0.077
-223.669	-200.000	-0.005	-0.025
-222.655	-123.235	-0.089	0.014
-221.640	42.944	-0.048	0.043
-220.625	345.322	0.166	0.321
-219.611	57.557	-0.265	0.256
-218.596	301.167	0.100	0.183
-217.582	800.000	-0.044	-0.125
-216.567	-200.000	0.013	0.123
-215.552	327.596	0.030	-0.056
-214.538	-92.092	-0.144	0.040
-213.523	96.312	-0.099	0.112
-212.509	-55.825	-0.116	-0.051
-211.494	-200.000	-0.066	-0.337
-210.479	40.742	0.183	-0.163
-209.465	53.531	-0.102	-0.096
-208.450	-166.073	0.432	0.018
-207.436	-200.000	0.002	-0.031
-206.421	113.731	0.135	-0.162
-205.406	-185.249	-0.070	-0.001
-204.392	45.097	-0.036	0.033
-203.377	-77.591	-0.114	0.039
-202.363	-25.035	0.336	0.196
-201.348	-21.938	0.300	-0.180
-200.333	45.057	-0.063	-0.057
-199.319	800.000	-0.140	0.410
-198.304	-59.419	-0.111	-0.047
-197.290	203.670	-0.154	-0.234
-196.275	192.120	-0.131	-0.196
-195.260	-200.000	0.026	0.298
-194.246	-38.740	0.301	-0.157
-193.231	-19.090	-0.106	-0.065
-192.217	0.557	0.209	-0.147
-191.202	-187.034	0.445	0.006
-190.187	-74.050	0.257	-0.092
-189.173	-151.983	-0.142	0.010
-188.158	123.516	-0.226	-0.280
-187.144	110.305	0.338	-0.400
-186.129	800.000	0.073	-0.251
-185.114	-142.798	-0.163	0.016
-184.100	-128.809	-0.187	0.026
-183.085	-141.938	0.155	0.015
-182.071	-200.000	0.009	0.271
-181.056	-200.000	-0.018	-0.373
-180.042	800.000	0.051	-0.169
-179.027	-107.274	-0.518	-0.112
-178.012	418.590	0.045	-0.094
-176.998	474.102	-0.219	0.487
-175.983	-49.093	0.099	0.046
-174.969	800.000	-0.091	-0.263
-173.954	-55.586	0.333	0.147
-172.939	-40.330	-0.112	0.057
-171.925	466.928	0.104	-0.230
-170.910	-4.009	-0.284	0.194
-169.896	83.897	-0.099	-0.106
-168.881	-200.000	0.100	0.479
-167.866	564.555	0.053	-0.126
-166.852	-73.076	0.164	0.059
-165.837	227.543	-0.100	0.160
-164.823	-117.283	-0.316	0.056
-163.808	46.644	-0.029	-0.027
-162.793	-168.902	0.059	0.002
-161.779	800.000	-0.010	-0.038
-160.764	346.092	-0.182	0.353
-159.750	-45.992	-0.216	0.105
-158.735	227.815	0.131	0.209
-157.720	-9.593	-0.143	-0.094
-156.706	-200.000	0.014	0.312
-155.691	-53.199	-0.104	-0.047
-154.677	17.596	-0.145	-0.113
-153.662	800.000	-0.035	-0.110
-152.647	30.992	-0.073	-0.061
-151.633	25.741	-0.091	-0.074
-150.618	-33.445	0.119	0.065
-149.604	-78.150	0.266	0.090
-148.589	-51.949	-0.050	-0.023
-147.574	-105.278	0.196	-0.044
-146.560	63.413	-0.113	-0.111
-145.545	800.000	-0.073	0.209
-144.531	18.405	-0.216	-0.170
-143.516	32.605	-0.127	0.108
-142.502	-65.922	-0.481	-0.189
-141.487	-111.368	0.215	-0.043
-140.472	572.924	-0.042	0.101
-139.458	25.441	0.217	0.177
-138.443	800.000	-0.082	0.262
-137.429	-200.000	-0.010	0.157
-136.414	469.604	-0.059	0.131
-135.399	-19.611	0.184	0.112
-134.385	57.444	-0.141	0.136
-133.370	238.984	0.110	-0.180
-132.356	136.279	-0.124	0.159
-131.341	800.000	0.165	0.686
-130.326	-76.519	0.218	0.075
-129.312	-200.000	0.021	0.113
-128.297	133.199	-0.276	0.351
-127.283	-200.000	-0.022	0.103
-126.268	126.691	-0.072	0.090
-125.253	-200.000	0.008	0.360
-124.239	5.828	-0.092	0.067
-123.224	800.000	0.071	0.253
-122.210	-84.363	-0.231	-0.072
-121.195	80.907	0.065	0.069
-120.180	-200.000	0.013	0.102
