DTS Sentinel unit serial number:	SN413079Multiplexer serial number:	ORYXHardware model number:	OX4-SRSoftware version number:	ORYX F/W v4.00 Oryx Data Collector v3.7.2.0data status	okinstallation	princeton_trtdifferential loss correction	single-endedforward channel	channel 2reverse channel	N/Adate	2019/09/13time	12:39:35forward acquisition time	60.00reverse acquisition time	0.00gamma	496.2192k internal	0.2314k external	0.2314temperature offset calibration	1.0210default loss term (dB/km)	0.3790temperature slope calibration	1.0000multiplexer offset coefficient	1.0000multiplexer slope coefficient	1.0000fibre end	0.00T internal ref (°C)	34.62T ext. ref 1 (°C)	4.61T ext. ref 2 (°C)	31.54length (m)	temperature (°C)	Stokes	anti-Stokes-747.200	-46.895	-0.406	0.201
-746.185	-59.540	-0.352	0.153
-745.171	-43.578	0.098	0.050
-744.156	364.314	0.091	0.186
-743.142	-6.058	0.125	0.087
-742.127	391.777	-0.072	0.152
-741.112	41.366	0.189	0.173
-740.098	32.695	-0.349	0.306
-739.083	-200.000	-0.001	0.070
-738.069	-200.000	-0.060	0.314
-737.054	263.168	-0.150	0.264
-736.039	80.820	-0.421	-0.460
-735.025	-200.000	0.011	0.427
-734.010	-137.249	-0.162	-0.019
-732.996	789.850	-0.113	0.315
-731.981	-200.000	-0.019	-0.259
-730.966	-200.000	0.018	-0.122
-729.952	205.556	0.038	0.060
-728.937	-115.742	0.193	-0.037
-727.923	-127.735	-0.103	-0.015
-726.908	279.261	0.193	-0.348
-725.894	29.260	-0.200	0.172
-724.879	448.740	-0.121	-0.269
-723.864	53.479	0.044	-0.042
-722.850	507.219	-0.066	0.155
-721.835	728.308	-0.058	-0.156
-720.821	442.406	-0.084	0.187
-719.806	-13.675	-0.201	-0.132
-718.791	-9.585	0.277	-0.187
-717.777	-200.000	-0.036	0.214
-716.762	-174.052	-0.370	0.011
-715.748	16.979	-0.191	0.153
-714.733	618.701	0.085	0.215
-713.718	72.272	-0.128	0.135
-712.704	-155.351	-0.133	-0.009
-711.689	-200.000	0.017	0.084
-710.675	8.214	0.162	0.123
-709.660	800.000	0.031	0.093
-708.645	-76.462	0.170	-0.060
-707.631	78.587	-0.080	-0.086
-706.616	-119.141	0.155	0.027
-705.602	-110.451	-0.159	-0.033
-704.587	102.463	-0.177	-0.210
-703.572	-114.761	-0.062	-0.012
-702.558	-63.688	-0.181	0.075
-701.543	-200.000	-0.023	-0.196
-700.529	-59.720	-0.343	-0.149
-699.514	105.781	0.053	-0.064
-698.499	278.986	0.065	0.117
-697.485	800.000	-0.042	0.125
-696.470	800.000	0.028	0.110
-695.456	-200.000	0.000	0.192
-694.441	19.863	-0.286	-0.233
-693.426	33.489	0.141	-0.124
-692.412	-200.000	-0.289	0.000
-691.397	743.333	0.106	-0.288
-690.383	39.189	0.151	0.137
-689.368	-98.593	-0.444	0.115
-688.354	14.038	-0.150	-0.118
-687.339	51.916	-0.112	-0.108
-686.324	-200.000	0.032	0.270
-685.310	137.527	-0.170	-0.225
-684.295	3.392	0.212	-0.156
-683.281	-106.667	-0.323	-0.073
-682.266	-73.916	-0.394	-0.145
-681.251	436.942	-0.052	-0.115
-680.237	254.071	-0.053	-0.092
-679.222	-153.268	-0.132	0.009
-678.208	-90.586	0.123	-0.036
-677.193	-200.000	-0.029	0.182
-676.178	-132.777	-0.159	-0.020
-675.164	-200.000	-0.015	0.094
-674.149	243.319	0.033	0.056
-673.135	-200.000	-0.006	-0.169
-672.120	9.899	-0.058	0.045
-671.105	-21.344	-0.134	-0.083
-670.091	-114.126	0.191	0.037
-669.076	-169.333	-0.506	-0.019
-668.062	-99.916	-0.253	0.064
-667.047	-83.061	0.288	0.094
-666.032	-63.333	0.075	0.031
-665.018	800.000	0.061	0.184
-664.003	-47.732	-0.393	0.193
-662.989	-71.552	0.301	-0.114
-661.974	800.000	-0.014	0.047
-660.959	218.281	-0.040	-0.065
-659.945	-34.880	0.263	0.145
-658.930	-200.000	-0.006	-0.096
-657.916	-13.320	-0.286	-0.188
-656.901	-200.000	-0.016	0.201
-655.886	-200.000	0.017	-0.090
-654.872	-200.000	-0.053	-0.370
-653.857	-101.122	0.162	-0.040
-652.843	800.000	-0.083	-0.267
-651.828	-150.592	-0.590	0.046
-650.814	314.623	-0.112	-0.214
-649.799	39.166	0.274	-0.247
-648.784	-200.000	0.032	0.303
-647.770	191.195	0.148	-0.225
-646.755	420.676	0.038	-0.083
-645.741	369.665	0.170	0.348
-644.726	145.935	-0.183	-0.249
-643.711	57.634	-0.238	-0.235
-642.697	96.164	0.154	0.178
-641.682	127.527	0.267	0.342
-640.668	-54.307	-0.323	0.148
-639.653	160.888	0.338	-0.476
-638.638	399.953	-0.054	0.115
-637.624	-86.930	-0.339	-0.104
-636.609	27.397	0.085	0.072
-635.595	800.000	-0.063	0.190
-634.580	800.000	0.117	-0.333
-633.565	-200.000	0.050	-0.340
-632.551	-200.000	-0.048	-0.355
-631.536	-133.703	-0.263	-0.033
-630.522	-16.993	0.199	-0.127
-629.507	167.297	0.200	0.286
-628.492	115.422	-0.125	0.155
-627.478	-160.509	-0.310	0.017
-626.463	800.000	0.084	-0.286
-625.449	-0.907	0.259	-0.185
-624.434	183.376	-0.019	-0.028
-623.419	5.495	0.214	-0.160
-622.405	84.317	0.033	-0.036
-621.390	-48.511	0.198	0.096
-620.376	-200.000	-0.012	0.137
-619.361	51.241	-0.106	-0.102
-618.346	13.726	0.291	0.228
-617.332	780.623	-0.096	-0.266
-616.317	-30.959	-0.176	-0.100
-615.303	-200.000	-0.003	-0.109
-614.288	-65.955	0.355	-0.143
-613.273	186.225	0.042	-0.063
-612.259	-99.636	-0.052	0.013
-611.244	-200.000	-0.009	-0.092
-610.230	800.000	0.059	-0.234
-609.215	-61.416	-0.053	-0.023
-608.201	-200.000	-0.008	-0.260
-607.186	-6.565	0.197	-0.136
-606.171	13.963	-0.089	-0.070
-605.157	-37.416	0.244	-0.132
-604.142	-200.000	0.003	-0.030
-603.128	-200.000	0.003	0.108
-602.113	223.916	-0.197	0.321
-601.098	800.000	-0.060	-0.183
-600.084	-200.000	-0.001	-0.041
-599.069	500.457	0.114	-0.265
-598.055	-200.000	0.005	-0.312
-597.040	195.288	-0.240	-0.368
-596.025	-57.742	-0.162	0.072
-595.011	-80.968	-0.269	-0.090
-593.996	-15.661	0.168	0.108
-592.982	68.206	-0.131	0.136
-591.967	-60.228	0.067	-0.029
-590.952	460.816	0.107	0.241
-589.938	800.000	-0.071	0.247
-588.923	76.000	0.077	0.082
-587.909	-200.000	-0.016	-0.135
-586.894	-34.881	-0.448	0.247
-585.879	-64.550	-0.269	0.110
-584.865	-128.926	-0.156	-0.022
-583.850	-75.128	-0.182	-0.066
-582.836	800.000	0.022	-0.096
-581.821	-200.000	0.009	0.046
-580.806	-200.000	0.046	0.216
-579.792	117.362	-0.247	0.306
-578.777	124.526	0.047	0.059
-577.763	118.068	0.117	-0.145
-576.748	26.172	0.219	-0.184
-575.733	156.933	-0.064	0.089
-574.719	33.154	-0.236	0.206
-573.704	-44.581	-0.485	-0.244
-572.690	-12.998	0.096	0.063
-571.675	-148.689	0.152	0.012
-570.661	214.241	-0.099	-0.158
-569.646	16.331	-0.153	-0.122
-568.631	-84.883	-0.279	0.088
-567.617	161.182	-0.144	-0.203
-566.602	800.000	0.190	0.548
-565.588	143.561	0.146	0.196
-564.573	-200.000	0.050	-0.410
-563.558	683.716	-0.062	-0.164
-562.544	-200.000	0.062	-0.277
-561.529	-92.515	0.368	0.104
-560.515	77.165	-0.094	0.101
-559.500	60.178	0.040	0.040
-558.485	364.891	-0.147	-0.297
-557.471	698.923	0.009	-0.023
-556.456	800.000	0.068	-0.196
-555.442	44.327	-0.079	-0.073
-554.427	141.527	0.087	-0.116
-553.412	-129.643	-0.289	-0.040
-552.398	-50.445	-0.150	-0.071
-551.383	800.000	0.059	0.235
-550.369	90.297	-0.237	0.266
-549.354	-121.371	-0.257	0.043
-548.339	-53.583	-0.086	-0.040
-547.325	-200.000	0.020	0.237
-546.310	185.847	0.094	0.141
-545.296	-98.836	0.069	0.018
-544.281	296.892	0.086	0.158
-543.266	165.910	0.128	0.182
-542.252	-200.000	0.033	0.221
-541.237	-133.851	0.395	-0.049
-540.223	-131.200	0.167	-0.022
-539.208	-46.616	-0.051	-0.025
-538.193	289.653	-0.124	0.226
-537.179	-2.350	-0.135	-0.095
-536.164	361.441	-0.148	-0.299
-535.150	341.826	0.087	-0.170
-534.135	-159.179	-0.063	-0.004
-533.121	168.503	-0.197	0.282
-532.106	-72.619	0.066	-0.025
-531.091	-130.104	-0.213	0.029
-530.077	-141.461	-0.085	-0.009
-529.062	-200.000	-0.006	-0.342
-528.048	-200.000	-0.001	-0.124
-527.033	-200.000	-0.021	-0.300
-526.018	365.813	0.056	-0.114
-525.004	-75.603	0.078	0.028
-523.989	219.300	-0.091	-0.147
-522.975	-33.027	0.344	-0.192
-521.960	-148.225	0.129	-0.011
-520.945	-0.011	-0.106	-0.076
-519.931	-200.000	-0.041	-0.208
-518.916	-133.186	-0.334	0.042
-517.902	-175.574	-0.267	-0.007
-516.887	-69.687	0.152	-0.058
-515.872	-105.953	0.180	0.041
-514.858	800.000	-0.020	0.084
-513.843	263.189	0.167	0.292
-512.829	800.000	-0.117	0.470
-511.814	214.118	0.065	0.104
-510.799	-106.637	0.228	-0.051
-509.785	123.824	-0.338	0.427
-508.770	158.367	0.092	0.129
-507.756	292.275	-0.151	0.277
-506.741	234.174	-0.016	-0.026
-505.726	74.264	-0.236	0.249
-504.712	-155.071	0.286	-0.019
-503.697	-115.856	0.134	-0.025
-502.683	3.727	0.238	-0.175
-501.668	35.815	-0.158	-0.139
-500.653	207.396	-0.128	-0.201
-499.639	-92.120	-0.283	0.080
-498.624	-147.530	0.289	-0.024
-497.610	800.000	-0.059	-0.199
-496.595	65.814	-0.119	-0.121
-495.581	-76.753	-0.261	-0.092
-494.566	800.000	0.071	0.203
-493.551	116.643	-0.200	0.246
-492.537	223.080	-0.231	0.374
-491.522	-11.970	-0.142	-0.093
-490.508	325.691	-0.016	-0.030
-489.493	800.000	-0.097	0.270
-488.478	-14.548	0.421	0.272
-487.464	-80.884	0.097	0.032
-486.449	100.471	-0.120	-0.140
-485.435	269.795	-0.203	-0.358
-484.420	397.516	-0.082	-0.172
-483.405	-24.798	0.225	0.134
-482.391	-63.460	0.186	0.077
-481.376	-59.282	-0.110	-0.047
-480.362	553.877	0.075	-0.181
-479.347	-113.217	0.295	-0.058
-478.332	-109.057	0.101	-0.022
-477.318	-88.954	0.169	-0.050
-476.303	-200.000	0.011	0.118
-475.289	-77.882	-0.074	0.026
-474.274	259.854	0.036	0.063
-473.259	187.960	-0.120	-0.180
-472.245	-69.185	-0.324	0.125
-471.230	-75.214	0.154	-0.055
-470.216	-192.571	0.207	-0.002
-469.201	-53.689	-0.132	0.061
-468.186	-200.000	0.039	0.231
-467.172	-200.000	-0.055	-0.375
-466.157	-114.129	0.125	-0.024
-465.143	129.715	-0.146	-0.187
-464.128	800.000	-0.050	0.179
-463.113	-200.000	0.018	0.089
-462.099	-199.678	-0.204	0.001
-461.084	273.456	-0.064	-0.114
-460.070	141.131	0.269	-0.356
-459.055	-68.783	0.065	0.025
-458.040	36.073	0.170	-0.150
-457.026	105.784	0.135	-0.160
-456.011	-186.043	0.100	-0.001
-454.997	-200.000	0.030	-0.395
-453.982	-200.000	-0.015	-0.093
-452.968	-200.000	-0.005	-0.247
-451.953	622.295	-0.045	-0.114
-450.938	-200.000	0.049	0.420
-449.924	95.765	0.191	0.219
-448.909	339.173	-0.122	-0.239
-447.895	800.000	0.080	-0.242
-446.880	258.607	0.129	-0.224
-445.865	338.855	0.199	-0.389
-444.851	800.000	0.060	0.170
-443.836	-173.139	-0.150	0.005
-442.822	-76.121	-0.057	0.020
-441.807	15.842	-0.296	0.233
-440.792	182.729	-0.152	0.225
-439.778	-186.104	0.294	0.004
-438.763	-95.867	-0.100	0.027
-437.749	-39.181	-0.281	-0.148
-436.734	-200.000	-0.037	0.224
-435.719	-9.951	0.191	-0.127
-434.705	197.847	-0.099	0.151
-433.690	131.611	0.271	0.349
-432.676	212.963	-0.019	0.030
-431.661	-200.000	-0.013	0.171
-430.646	800.000	-0.108	-0.311
-429.632	223.772	0.090	-0.145
-428.617	-130.854	0.294	0.039
-427.603	50.331	-0.071	0.067
-426.588	-151.921	-0.304	-0.022
-425.573	757.527	-0.233	-0.631
-424.559	281.360	-0.092	-0.166
-423.544	174.210	0.042	0.060
-422.530	18.657	0.210	0.168
-421.515	-42.654	0.160	-0.081
-420.500	182.323	-0.059	-0.087
-419.486	136.418	-0.136	-0.177
-418.471	-100.749	-0.203	-0.050
-417.457	222.486	-0.036	-0.058
-416.442	800.000	0.060	0.227
-415.428	-200.000	-0.047	-0.395
-414.413	290.536	-0.118	-0.215
-413.398	-37.658	0.241	0.128
-412.384	-120.853	0.102	0.017
-411.369	5.101	-0.106	0.078
-410.355	323.198	0.100	0.192
-409.340	-89.753	-0.184	-0.054
-408.325	-66.168	-0.192	-0.076
-407.311	-111.608	-0.141	-0.029
-406.296	49.295	0.160	-0.150
-405.282	-200.000	-0.019	-0.105
-404.267	-22.290	0.124	0.075
-403.252	152.272	0.080	0.109
-402.238	-71.794	0.202	0.075
-401.223	125.296	-0.072	0.090
-400.209	-116.043	0.144	0.027
-399.194	-73.023	0.233	0.086
-398.179	0.334	0.198	-0.141
-397.165	800.000	-0.087	0.334
-396.150	24.792	-0.127	0.105
-395.136	-41.791	-0.200	0.102
-394.121	382.826	-0.089	0.183
-393.106	-43.682	-0.133	0.067
-392.092	-43.178	-0.053	-0.027
-391.077	-33.226	-0.320	0.177
-390.063	-134.365	0.128	0.016
-389.048	468.828	-0.044	0.099
-388.033	-108.737	0.156	-0.033
-387.019	-0.710	0.185	0.131
-386.004	-200.000	0.004	-0.031
-384.990	4.805	-0.290	0.213
-383.975	-200.000	-0.001	0.032
-382.960	800.000	-0.060	-0.234
-381.946	-200.000	0.001	-0.189
-380.931	-117.101	0.076	-0.014
-379.917	-200.000	-0.026	0.269
-378.902	235.060	0.104	-0.171
-377.888	-200.000	0.020	-0.250
-376.873	-200.000	-0.074	0.325
-375.858	-72.142	0.204	0.076
-374.844	485.429	-0.093	0.212
-373.829	-34.561	0.342	-0.187
-372.815	800.000	-0.083	-0.325
-371.800	-52.970	0.169	0.078
-370.785	-90.362	0.094	0.027
-369.771	-56.131	-0.137	0.061
-368.756	107.140	-0.059	0.070
-367.742	426.925	-0.089	-0.192
-366.727	31.155	0.186	-0.160
-365.712	800.000	-0.043	0.166
-364.698	68.833	0.131	-0.134
-363.683	800.000	0.061	0.174
-362.669	23.813	0.187	0.154
-361.654	-143.307	0.479	-0.046
-360.639	-200.000	0.023	0.191
-359.625	772.091	0.066	0.180
-358.610	118.523	0.215	-0.265
-357.596	-167.223	0.356	0.014
-356.581	-79.906	-0.202	0.068
-355.566	-140.865	-0.335	-0.034
-354.552	30.814	-0.096	0.082
-353.537	-200.000	0.000	0.160
-352.523	-132.558	0.206	-0.026
-351.508	-73.416	-0.187	-0.068
-350.493	-193.201	-0.100	-0.001
-349.479	32.218	-0.247	0.213
-348.464	-200.000	-0.001	-0.106
-347.450	519.228	0.012	-0.028
-346.435	-200.000	-0.021	0.107
-345.420	-200.000	0.004	-0.237
-344.406	-138.310	0.226	0.025
-343.391	318.713	0.153	0.289
-342.377	28.320	-0.200	0.169
-341.362	134.299	-0.185	-0.239
-340.348	9.763	-0.204	0.154
-339.333	-101.264	0.295	-0.072
-338.318	57.597	-0.035	-0.034
-337.304	16.717	0.036	-0.029
-336.289	-100.948	0.188	0.046
-335.275	-96.576	0.098	-0.026
-334.260	85.977	-0.256	0.281
-333.245	-200.000	0.016	-0.267
-332.231	-72.949	-0.189	-0.069
-331.216	-72.572	-0.354	0.130
-330.202	-95.410	-0.190	0.051
-329.187	800.000	0.037	-0.121
-328.172	4.328	0.126	0.092
-327.158	-19.867	0.379	0.234
-326.143	256.393	0.181	-0.311
-325.129	-59.443	0.146	-0.063
-324.114	-82.090	-0.284	-0.092
-323.099	268.013	0.153	-0.267
-322.085	-138.960	-0.041	-0.004
-321.070	-123.758	0.087	-0.014
-320.056	92.010	-0.219	-0.246
-319.041	75.556	0.063	-0.066
-318.026	-38.299	-0.143	-0.075
-317.012	-61.226	-0.080	0.034
-315.997	-93.821	-0.274	0.075
-314.983	13.349	0.187	-0.144
-313.968	76.063	-0.136	-0.143
-312.953	-70.362	0.165	-0.062
-311.939	-135.449	0.171	0.020
-310.924	170.098	0.175	0.250
-309.910	265.912	0.132	-0.229
-308.895	-8.655	-0.087	-0.058
-307.880	-52.638	0.318	-0.146
-306.866	105.476	0.035	0.042
-305.851	-95.025	0.158	-0.043
-304.837	-91.098	-0.157	-0.045
-303.822	-107.928	-0.279	-0.061
-302.807	-85.341	0.335	-0.104
-301.793	-31.669	-0.294	-0.164
-300.778	61.960	0.187	0.186
-299.764	-200.000	0.028	0.145
-298.749	-40.847	0.239	-0.123
-297.735	293.694	0.073	0.134
-296.720	466.747	-0.065	-0.146
-295.705	-150.923	-0.171	0.013
-294.691	15.034	0.207	-0.161
-293.676	-200.000	0.025	-0.166
-292.662	-200.000	-0.009	0.102
-291.647	800.000	0.194	0.621
-290.632	-200.000	-0.032	0.329
-289.618	47.231	0.197	-0.183
-288.603	194.043	-0.156	0.236
-287.589	-52.314	0.137	0.063
-286.574	-82.091	-0.115	-0.037
-285.559	-3.691	0.210	-0.145
-284.545	800.000	-0.108	-0.307
-283.530	436.853	0.102	0.222
-282.516	90.707	-0.287	-0.320
-281.501	-200.000	-0.004	-0.029
-280.486	34.006	0.082	0.071
-279.472	-48.047	0.100	0.048
-278.457	-83.825	-0.251	-0.080
-277.443	-40.936	-0.211	-0.109
-276.428	-49.959	0.063	0.030
-275.413	-66.589	0.339	0.134
-274.399	800.000	0.070	-0.243
-273.384	398.026	-0.096	-0.201
-272.370	-200.000	-0.045	0.226
-271.355	385.458	0.032	-0.065
-270.340	-92.289	-0.279	-0.078
-269.326	-110.470	-0.121	0.025
-268.311	679.542	0.059	-0.152
-267.297	44.264	0.208	-0.190
-266.282	-136.167	-0.236	-0.027
-265.267	284.136	-0.115	-0.207
-264.253	47.929	0.263	0.244
-263.238	46.351	0.142	0.131
-262.224	-200.000	0.014	-0.147
-261.209	679.346	-0.059	0.152
-260.195	25.138	0.216	-0.179
-259.180	-59.988	-0.071	0.030
-258.165	-200.000	-0.072	0.420
-257.151	-200.000	0.015	0.251
-256.136	-200.000	-0.016	0.260
-255.122	-200.000	-0.054	-0.316
-254.107	-137.862	-0.117	0.013
-253.092	800.000	0.017	0.058
-252.078	800.000	-0.067	0.289
-251.063	-89.717	0.181	-0.053
-250.049	89.764	0.100	0.111
-249.034	100.594	-0.098	0.113
-248.019	61.971	0.061	0.060
-247.005	18.865	0.283	0.226
-245.990	29.356	0.148	0.125
-244.976	-120.268	-0.212	0.036
-243.961	36.797	0.048	0.043
-242.946	-200.000	-0.010	-0.109
-241.932	-200.000	0.018	-0.138
-240.917	-145.016	-0.152	0.014
-239.903	112.035	-0.143	-0.172
-238.888	-133.406	0.239	0.030
-237.873	-200.000	0.003	-0.238
-236.859	138.823	-0.272	0.356
-235.844	-24.078	0.417	-0.248
-234.830	-200.000	0.013	0.282
-233.815	-118.750	0.115	0.020
-232.800	-175.540	-0.214	-0.006
-231.786	-22.986	-0.116	0.069
-230.771	800.000	0.145	0.431
-229.757	-177.757	0.260	-0.006
-228.742	-200.000	0.012	0.101
-227.727	57.837	0.297	0.289
-226.713	800.000	-0.057	0.200
-225.698	61.669	0.129	0.128
-224.684	110.679	0.242	-0.290
-223.669	-200.000	0.034	0.225
-222.655	-200.000	0.008	-0.305
-221.640	-125.592	0.306	0.046
-220.625	800.000	-0.043	-0.131
-219.611	683.967	-0.231	0.599
-218.596	-73.109	-0.250	0.091
-217.582	-88.821	-0.123	0.036
-216.567	-200.000	-0.014	0.437
-215.552	-49.604	-0.085	-0.040
-214.538	-43.478	0.509	0.255
-213.523	108.455	0.104	0.123
-212.509	800.000	0.122	-0.338
-211.494	5.333	0.153	-0.112
-210.479	159.020	-0.065	-0.089
-209.465	19.519	0.130	-0.104
-208.450	-93.425	0.181	-0.050
-207.436	-8.772	-0.047	-0.031
-206.421	-46.772	0.243	0.118
-205.406	227.595	-0.018	0.030
-204.392	336.496	0.024	-0.046
-203.377	800.000	0.058	0.235
-202.363	-101.629	-0.201	-0.049
-201.348	-139.220	0.136	0.015
-200.333	226.455	-0.163	0.262
-199.319	-200.000	-0.009	-0.056
-198.304	278.460	-0.055	-0.097
-197.290	154.682	0.068	0.093
-196.275	800.000	0.064	-0.254
-195.260	-200.000	0.013	0.137
-194.246	-184.354	0.210	0.003
-193.231	-8.955	0.121	-0.081
-192.217	750.897	0.093	-0.249
-191.202	800.000	0.042	-0.126
-190.187	-40.215	-0.065	0.033
-189.173	648.567	-0.075	-0.190
-188.158	12.791	0.150	-0.115
-187.144	-12.040	-0.209	-0.136
-186.129	-65.941	0.204	-0.081
-185.114	96.847	0.113	-0.129
-184.100	93.228	-0.104	-0.116
-183.085	315.362	-0.133	0.248
-182.071	-200.000	-0.034	0.351
-181.056	800.000	0.060	0.223
-180.042	13.178	0.135	-0.104
-179.027	10.898	0.202	-0.153
-178.012	-103.584	0.286	0.067
-176.998	-35.912	-0.106	0.057
-175.983	359.192	0.038	0.076
-174.969	-52.120	-0.316	0.146
-173.954	-62.313	-0.225	0.093
-172.939	-0.370	-0.275	0.194
-171.925	311.630	-0.075	-0.140
-170.910	-95.323	-0.150	0.040
-169.896	-40.819	-0.271	0.139
-168.881	-30.960	-0.109	-0.061
-167.866	60.736	-0.134	0.132
-166.852	-200.000	-0.026	-0.168
-165.837	39.700	0.079	-0.071
-164.823	-138.935	-0.462	-0.050
-163.808	540.281	-0.133	-0.314
-162.793	366.842	-0.185	0.371
-161.779	-132.168	-0.389	-0.050
-160.764	-63.046	-0.407	-0.166
-159.750	-56.410	-0.141	-0.062
-158.735	-200.000	-0.033	0.272
-157.720	-156.083	-0.317	-0.020
-156.706	-104.115	0.013	0.003
-155.691	-41.437	0.168	0.086
-154.677	35.922	-0.290	0.253
-153.662	23.592	0.216	0.176
-152.647	560.454	0.128	0.306
-151.633	-14.663	-0.144	0.091
-150.618	25.905	0.110	0.091
-149.604	134.635	0.090	-0.116
-148.589	406.497	0.092	0.193
-147.574	142.263	-0.304	-0.399
-146.560	-200.000	-0.030	0.158
-145.545	-200.000	-0.011	-0.201
-144.531	601.492	-0.129	0.318
-143.516	-200.000	-0.001	-0.129
-142.502	-200.000	0.040	-0.387
-141.487	-117.230	-0.133	0.024
-140.472	422.079	-0.055	-0.116
-139.458	-110.964	0.109	0.022
-138.443	-102.412	0.161	-0.038
-137.429	219.538	0.083	0.132
-136.414	-200.000	0.039	-0.174
-135.399	-63.067	0.151	0.062
-134.385	91.736	-0.099	0.110
-133.370	-164.227	0.260	-0.012
-132.356	-53.220	0.209	0.095
-131.341	-140.524	0.172	-0.018
-130.326	-200.000	-0.022	-0.115
-129.312	-126.461	0.087	0.013
-128.297	697.712	-0.092	-0.239
-127.283	20.588	-0.077	-0.061
-126.268	-42.445	0.337	0.170
-125.253	-200.000	0.010	0.164
-124.239	74.185	-0.112	0.116
-123.224	-200.000	-0.001	0.081
-122.210	800.000	0.085	0.247
