DTS Sentinel unit serial number:	SN413079Multiplexer serial number:	ORYXHardware model number:	OX4-SRSoftware version number:	ORYX F/W v4.00 Oryx Data Collector v3.7.2.0data status	okinstallation	princeton_trtdifferential loss correction	single-endedforward channel	channel 2reverse channel	N/Adate	2019/09/19time	03:59:35forward acquisition time	60.00reverse acquisition time	0.00gamma	496.2192k internal	0.2352k external	0.2352temperature offset calibration	1.0015default loss term (dB/km)	0.3790temperature slope calibration	1.0000multiplexer offset coefficient	1.0000multiplexer slope coefficient	1.0000fibre end	0.00T internal ref (°C)	20.42T ext. ref 1 (°C)	0.64T ext. ref 2 (°C)	14.13length (m)	temperature (°C)	Stokes	anti-Stokes-747.200	76.605	0.051	-0.053
-746.185	-200.000	-0.023	0.237
-745.171	-103.894	-0.259	0.060
-744.156	-154.659	-0.008	-0.001
-743.142	800.000	-0.044	0.128
-742.127	800.000	-0.118	0.330
-741.112	-8.869	-0.068	-0.045
-740.098	-200.000	0.012	0.252
-739.083	-69.545	0.167	0.064
-738.069	269.793	-0.062	-0.109
-737.054	-23.357	0.249	-0.149
-736.039	-9.407	0.308	0.205
-735.025	-130.839	0.184	-0.025
-734.010	31.962	-0.352	-0.302
-732.996	529.840	-0.078	0.183
-731.981	-133.710	0.345	0.043
-730.966	800.000	-0.151	-0.525
-729.952	282.804	0.071	-0.127
-728.937	-200.000	0.043	0.272
-727.923	4.189	-0.186	0.136
-726.908	-200.000	0.038	-0.329
-725.894	-138.726	-0.257	-0.028
-724.879	315.207	-0.182	0.341
-723.864	186.644	0.040	-0.059
-722.850	124.492	0.074	0.092
-721.835	-20.777	-0.291	0.178
-720.821	-37.220	0.192	0.102
-719.806	0.360	0.091	-0.064
-718.791	318.399	-0.207	-0.390
-717.777	-200.000	-0.089	-0.490
-716.762	-43.888	0.058	0.029
-715.748	-28.568	0.122	-0.070
-714.733	-7.572	0.085	-0.057
-713.718	-200.000	-0.051	-0.286
-712.704	-66.319	-0.095	-0.038
-711.689	68.163	0.053	-0.054
-710.675	800.000	-0.073	0.313
-709.660	-180.685	-0.257	0.005
-708.645	33.365	-0.129	-0.112
-707.631	7.951	-0.242	-0.181
-706.616	226.792	0.208	-0.336
-705.602	800.000	-0.059	-0.241
-704.587	-129.881	-0.230	-0.031
-703.572	-200.000	-0.026	-0.118
-702.558	-200.000	0.032	0.193
-701.543	-50.476	0.170	0.080
-700.529	-154.498	0.237	0.016
-699.514	220.088	0.174	-0.277
-698.499	14.495	0.191	-0.149
-697.485	366.236	-0.103	-0.207
-696.470	-110.962	-0.231	0.047
-695.456	-0.985	0.391	0.276
-694.441	33.955	-0.152	-0.132
-693.426	800.000	-0.021	0.061
-692.412	800.000	0.052	-0.199
-691.397	93.369	0.231	0.261
-690.383	800.000	-0.051	-0.148
-689.368	-87.458	0.200	-0.060
-688.354	-43.572	-0.247	-0.124
-687.339	-108.022	0.139	-0.030
-686.324	13.578	-0.205	0.159
-685.310	-200.000	-0.029	-0.355
-684.295	185.738	0.171	0.253
-683.281	-200.000	0.009	-0.061
-682.266	800.000	-0.038	0.147
-681.251	-62.396	0.296	0.122
-680.237	-200.000	-0.008	-0.040
-679.222	-200.000	-0.010	-0.202
-678.208	50.185	0.111	-0.104
-677.193	-200.000	-0.006	0.089
-676.178	-200.000	0.006	-0.035
-675.164	-184.408	0.217	-0.004
-674.149	25.620	0.063	-0.052
-673.135	162.642	-0.290	-0.404
-672.120	17.581	-0.027	0.021
-671.105	-198.320	-0.122	-0.001
-670.091	-50.937	-0.082	0.038
-669.076	-136.746	-0.217	-0.025
-668.062	-94.661	0.304	0.082
-667.047	-43.462	-0.139	-0.070
-666.032	-19.235	0.029	-0.018
-665.018	-103.414	-0.172	-0.040
-664.003	-46.394	0.198	0.097
-662.989	218.633	-0.220	0.349
-661.974	-200.000	-0.004	-0.135
-660.959	1.812	0.217	-0.155
-659.945	5.092	-0.350	0.256
-658.930	475.856	-0.103	0.232
-657.916	302.061	0.077	-0.141
-656.901	34.325	-0.039	-0.034
-655.886	406.289	-0.072	-0.151
-654.872	-200.000	-0.059	-0.328
-653.857	-93.935	0.093	-0.026
-652.843	-10.129	-0.178	0.117
-651.828	203.431	-0.049	-0.076
-650.814	-200.000	-0.056	-0.251
-649.799	570.619	-0.039	0.095
-648.784	-43.543	-0.157	-0.079
-647.770	-200.000	0.013	-0.085
-646.755	69.799	-0.214	0.219
-645.741	-200.000	-0.028	0.231
-644.726	-146.192	0.360	-0.031
-643.711	-132.352	0.031	0.004
-642.697	-200.000	-0.032	-0.240
-641.682	27.255	-0.118	-0.099
-640.668	-176.792	0.087	-0.002
-639.653	-31.324	0.233	-0.130
-638.638	-200.000	-0.091	-0.434
-637.624	573.329	-0.015	-0.036
-636.609	528.997	-0.189	-0.442
-635.595	-141.444	-0.171	0.017
-634.580	93.168	0.203	-0.228
-633.565	38.303	-0.190	-0.168
-632.551	-63.367	0.188	-0.077
-631.536	800.000	0.008	-0.032
-630.522	-116.237	0.278	0.051
-629.507	-110.384	-0.353	-0.073
-628.492	-159.881	-0.211	0.011
-627.478	-91.519	0.244	0.069
-626.463	176.475	-0.081	0.117
-625.449	-115.851	-0.050	0.009
-624.434	387.762	-0.058	0.119
-623.419	119.474	0.155	0.190
-622.405	-75.611	0.273	0.096
-621.390	16.203	-0.117	-0.092
-620.376	-102.934	-0.291	-0.069
-619.361	249.850	0.137	-0.231
-618.346	702.379	0.056	0.146
-617.332	800.000	0.010	-0.035
-616.317	-48.028	0.155	-0.074
-615.303	10.904	0.320	-0.242
-614.288	483.827	0.035	-0.080
-613.273	27.091	-0.118	-0.098
-612.259	-146.744	0.199	-0.017
-611.244	282.803	-0.107	-0.191
-610.230	-44.224	0.216	-0.107
-609.215	-126.936	0.368	-0.054
-608.201	75.137	0.135	0.141
-607.186	202.356	-0.130	0.199
-606.171	-146.342	-0.077	0.007
-605.157	-200.000	0.016	-0.268
-604.142	258.342	-0.139	0.237
-603.128	-67.669	-0.310	0.120
-602.113	-85.856	0.354	0.109
-601.098	27.972	0.203	0.170
-600.084	-200.000	0.032	-0.279
-599.069	-78.080	0.169	-0.058
-598.055	-200.000	0.013	-0.384
-597.040	-200.000	0.037	-0.309
-596.025	800.000	0.066	0.276
-595.011	800.000	-0.076	0.210
-593.996	610.863	-0.133	0.329
-592.982	-200.000	0.021	0.109
-591.967	324.003	0.068	-0.129
-590.952	-70.860	-0.306	0.114
-589.938	-200.000	-0.036	0.166
-588.923	-200.000	0.018	0.285
-587.909	-112.615	-0.207	0.041
-586.894	-200.000	0.006	-0.111
-585.879	-200.000	0.067	-0.332
-584.865	276.357	-0.154	-0.271
-583.850	395.335	0.022	0.045
-582.836	-112.994	0.203	0.040
-581.821	-200.000	0.013	-0.350
-580.806	-200.000	0.017	0.091
-579.792	-43.092	-0.301	-0.151
-578.777	-89.778	0.132	-0.038
-577.763	800.000	-0.070	-0.225
-576.748	-200.000	-0.086	-0.529
-575.733	-45.081	0.188	-0.093
-574.719	800.000	0.038	-0.151
-573.704	43.237	0.159	0.144
-572.690	-66.165	0.235	-0.093
-571.675	-95.700	-0.213	-0.057
-570.661	92.564	0.076	0.084
-569.646	-200.000	0.012	-0.107
-568.631	800.000	0.044	0.137
-567.617	-65.389	-0.246	0.098
-566.602	7.007	-0.087	-0.064
-565.588	-133.674	0.389	0.048
-564.573	79.727	0.185	0.196
-563.558	181.375	-0.159	-0.231
-562.544	77.663	0.100	-0.105
-561.529	134.352	-0.034	0.044
-560.515	-9.886	-0.190	0.125
-559.500	-38.189	-0.203	0.106
-558.485	92.776	-0.071	-0.079
-557.471	313.261	0.116	0.215
-556.456	11.633	0.154	0.117
-555.442	-35.429	0.086	-0.046
-554.427	-57.421	-0.224	0.097
-553.412	-114.388	0.076	0.014
-552.398	-93.570	-0.162	-0.044
-551.383	-1.561	0.125	0.087
-550.369	-176.319	0.091	-0.002
-549.354	42.914	-0.065	0.059
-548.339	-87.515	0.260	-0.078
-547.325	-15.091	-0.078	0.050
-546.310	-77.649	-0.273	-0.093
-545.296	-69.643	0.147	0.056
-544.281	228.166	-0.141	0.227
-543.266	-60.635	-0.424	-0.178
-542.252	244.414	-0.150	-0.249
-541.237	22.534	0.213	0.172
-540.223	-116.286	0.295	-0.054
-539.208	-98.155	-0.098	-0.025
-538.193	-200.000	-0.003	-0.383
-537.179	-164.883	-0.153	-0.007
-536.164	223.373	-0.095	-0.151
-535.150	-60.476	0.146	-0.062
-534.135	-200.000	0.020	-0.091
-533.121	-129.110	0.266	-0.037
-532.106	-200.000	-0.015	0.095
-531.091	-11.949	-0.125	-0.081
-530.077	-91.459	-0.197	0.056
-529.062	105.036	-0.081	-0.095
-528.048	-41.776	-0.321	-0.163
-527.033	800.000	-0.093	0.272
-526.018	800.000	-0.093	0.264
-525.004	-32.073	0.113	-0.062
-523.989	70.271	0.247	-0.252
-522.975	185.217	0.042	0.062
-521.960	800.000	0.082	-0.309
-520.945	-89.000	-0.159	0.047
-519.931	-114.734	-0.435	0.082
-518.916	71.953	-0.232	-0.239
-517.902	-200.000	0.061	-0.330
-516.887	245.589	0.209	-0.347
-515.872	-200.000	0.063	-0.275
-514.858	-28.925	-0.139	-0.079
-513.843	200.161	0.216	-0.328
-512.829	800.000	-0.063	-0.216
-511.814	31.664	0.190	-0.161
-510.799	800.000	-0.134	0.443
-509.785	-184.005	0.117	0.002
-508.770	-157.115	-0.225	0.014
-507.756	-7.044	-0.058	0.039
-506.741	217.192	-0.164	-0.258
-505.726	-200.000	0.004	-0.196
-504.712	23.599	0.370	-0.301
-503.697	226.415	0.105	-0.168
-502.683	-160.638	-0.298	-0.016
-501.668	-99.808	0.170	-0.042
-500.653	-200.000	-0.003	0.070
-499.639	-200.000	-0.045	0.272
-498.624	-14.671	-0.152	-0.097
-497.610	-200.000	0.193	-0.000
-496.595	166.719	0.074	0.104
-495.581	73.027	-0.252	0.260
-494.566	-10.537	0.173	-0.113
-493.551	-200.000	0.032	-0.329
-492.537	492.563	0.109	0.246
-491.522	-200.000	-0.056	-0.289
-490.508	-124.121	-0.278	-0.043
-489.493	-33.301	-0.380	0.208
-488.478	9.385	0.254	-0.190
-487.464	-103.652	-0.421	0.098
-486.449	-188.593	-0.458	-0.006
-485.435	10.509	-0.376	0.283
-484.420	-22.287	0.210	-0.126
-483.405	-200.000	0.050	-0.351
-482.391	-200.000	-0.044	-0.216
-481.376	3.305	0.146	0.105
-480.362	-89.811	0.117	-0.034
-479.347	314.184	-0.073	-0.135
-478.332	79.916	-0.154	0.163
-477.318	-200.000	0.025	-0.262
-476.303	753.539	0.081	0.215
-475.289	-23.691	-0.111	0.066
-474.274	-200.000	-0.018	-0.116
-473.259	-135.382	-0.262	0.031
-472.245	-200.000	-0.032	0.346
-471.230	-56.832	0.241	-0.105
-470.216	-1.100	0.020	0.014
-469.201	137.254	0.169	0.218
-468.186	-200.000	-0.027	-0.199
-467.172	-145.900	-0.135	-0.012
-466.157	239.600	-0.030	0.049
-465.143	330.883	-0.167	0.317
-464.128	8.895	0.201	-0.150
-463.113	-106.240	0.193	-0.043
-462.099	355.073	0.093	0.183
-461.084	19.734	0.053	0.042
-460.070	-200.000	-0.009	-0.251
-459.055	294.765	-0.081	-0.147
-458.040	366.458	0.029	0.057
-457.026	203.507	0.134	0.205
-456.011	232.237	-0.090	0.146
-454.997	-119.631	-0.051	0.009
-453.982	39.572	0.115	-0.102
-452.968	-200.000	-0.025	-0.149
-451.953	297.827	-0.063	0.113
-450.938	383.405	-0.034	0.069
-449.924	-200.000	0.048	0.292
-448.909	-115.318	-0.367	0.068
-447.895	420.749	0.143	0.303
-446.880	234.169	0.015	0.025
-445.865	-39.804	0.123	0.063
-444.851	-200.000	0.028	-0.276
-443.836	185.514	-0.149	0.218
-442.822	-103.734	-0.095	-0.022
-441.807	53.074	-0.171	0.161
-440.792	-170.408	0.327	-0.011
-439.778	175.503	-0.131	-0.187
-438.763	43.760	-0.259	-0.234
-437.749	-91.747	-0.103	-0.029
-436.734	-94.988	0.219	0.058
-435.719	254.792	0.133	-0.225
-434.705	34.589	-0.103	-0.089
-433.690	415.797	-0.094	0.197
-432.676	-128.781	-0.215	0.030
-431.661	-200.000	-0.022	0.101
-430.646	-71.383	-0.211	-0.078
-429.632	312.392	0.248	-0.459
-428.617	-67.819	0.181	-0.070
-427.603	-96.754	-0.060	-0.016
-426.588	-96.540	0.225	0.059
-425.573	-135.084	-0.385	0.046
-424.559	64.512	-0.077	-0.077
-423.544	-153.612	-0.345	-0.023
-422.530	317.044	-0.060	0.112
-421.515	129.224	0.184	-0.232
-420.500	-200.000	0.039	0.170
-419.486	-93.903	0.134	0.036
-418.471	-145.157	-0.216	0.019
-417.457	433.861	-0.038	0.082
-416.442	-200.000	-0.017	0.119
-415.428	294.755	0.012	0.022
-414.413	-86.650	-0.144	0.043
-413.398	205.673	-0.104	0.160
-412.384	546.492	-0.097	-0.229
-411.369	-20.333	0.160	-0.097
-410.355	43.420	-0.124	-0.111
-409.340	116.087	-0.058	0.070
-408.325	-17.838	0.172	-0.106
-407.311	-83.589	0.127	0.040
-406.296	-143.983	0.180	-0.017
-405.282	-200.000	0.074	0.352
-404.267	25.227	0.043	-0.035
-403.252	65.200	-0.116	0.115
-402.238	-200.000	0.026	0.273
-401.223	10.693	0.254	-0.191
-400.209	160.139	-0.259	-0.356
-399.194	241.691	0.150	0.247
-398.179	-200.000	-0.016	0.271
-397.165	175.729	-0.134	-0.191
-396.150	-115.368	-0.230	-0.043
-395.136	290.120	0.050	-0.090
-394.121	782.565	0.013	0.035
-393.106	515.296	0.099	0.228
-392.092	800.000	0.059	-0.223
-391.077	-141.705	-0.372	-0.037
-390.063	-124.566	-0.278	0.042
-389.048	-200.000	-0.002	0.238
-388.033	461.367	-0.127	0.278
-387.019	800.000	0.109	0.435
-386.004	-55.589	-0.182	0.080
-384.990	40.878	-0.256	-0.228
-383.975	-35.928	-0.270	0.144
-382.960	215.098	-0.157	0.245
-381.946	201.660	0.133	-0.202
-380.931	-14.721	0.261	-0.165
-379.917	254.755	0.147	0.247
-378.902	26.238	-0.267	0.219
-377.888	800.000	0.024	-0.089
-376.873	35.336	0.163	-0.140
-375.858	-44.689	-0.032	-0.016
-374.844	-200.000	0.024	0.230
-373.829	106.306	0.133	0.155
-372.815	-200.000	-0.001	0.209
-371.800	124.473	-0.069	0.085
-370.785	-101.248	-0.363	-0.087
-369.771	210.078	-0.160	0.247
-368.756	170.145	-0.134	-0.189
-367.742	-102.950	0.259	-0.060
-366.727	-161.675	-0.033	0.002
-365.712	-103.545	-0.049	-0.011
-364.698	-200.000	-0.007	-0.174
-363.683	-44.555	-0.139	0.068
-362.669	-200.000	-0.002	0.081
-361.654	800.000	-0.029	-0.091
-360.639	535.901	0.136	0.318
-359.625	-200.000	0.018	0.338
-358.610	-200.000	0.023	-0.162
-357.596	-64.770	0.356	0.142
-356.581	-200.000	0.036	-0.201
-355.566	-133.582	-0.205	-0.025
-354.552	2.861	-0.012	0.009
-353.537	800.000	0.139	0.460
-352.523	404.520	0.206	0.426
-351.508	-200.000	-0.021	0.160
-350.493	-12.740	0.078	-0.050
-349.479	-200.000	0.017	-0.076
-348.464	367.535	0.116	0.230
-347.450	-78.156	0.571	-0.193
-346.435	301.934	-0.112	-0.203
-345.420	-40.605	-0.057	-0.029
-344.406	210.662	-0.099	-0.152
-343.391	21.091	-0.039	-0.031
-342.377	-50.193	-0.134	0.062
-341.362	382.299	-0.124	0.250
-340.348	93.080	-0.073	0.081
-339.333	800.000	-0.107	0.321
-338.318	-200.000	-0.001	0.187
-337.304	302.296	0.040	0.072
-336.289	-41.679	0.161	0.081
-335.275	800.000	0.009	0.034
-334.260	-145.752	-0.288	-0.025
-333.245	-185.884	-0.487	-0.007
-332.231	357.525	0.078	0.152
-331.216	800.000	-0.054	-0.155
-330.202	62.301	-0.033	-0.032
-329.187	65.691	0.178	0.177
-328.172	7.759	0.138	-0.101
-327.158	-127.903	0.081	0.011
-326.143	-21.245	0.412	0.247
-325.129	800.000	0.030	0.129
-324.114	800.000	0.067	0.213
-323.099	101.174	0.117	-0.133
-322.085	174.224	0.213	-0.302
-321.070	-138.598	-0.286	-0.031
-320.056	-16.326	-0.107	0.067
-319.041	-117.859	0.380	0.067
-318.026	-70.982	-0.201	-0.074
-317.012	-16.272	0.392	-0.244
-315.997	-93.744	0.172	-0.046
-314.983	-200.000	0.004	0.112
-313.968	-102.478	-0.236	-0.055
-312.953	-130.155	-0.233	0.031
-311.939	-200.000	0.076	-0.000
-310.924	-200.000	-0.022	-0.189
-309.910	123.849	-0.266	-0.328
-308.895	81.633	0.209	-0.222
-307.880	63.524	-0.171	-0.168
-306.866	-200.000	-0.062	0.352
-305.851	-37.636	-0.074	-0.038
-304.837	16.508	0.198	0.154
-303.822	77.310	-0.129	0.135
-302.807	19.256	0.090	-0.071
-301.793	-114.820	-0.142	0.026
-300.778	-168.293	-0.240	0.009
-299.764	4.697	0.179	0.129
-298.749	-200.000	-0.007	-0.316
-297.735	-176.205	0.201	-0.005
-296.720	-200.000	0.011	0.212
-295.705	-200.000	-0.060	0.325
-294.691	78.204	0.044	-0.046
-293.676	79.975	-0.164	0.173
-292.662	-200.000	0.018	0.231
-291.647	-200.000	-0.037	0.236
-290.632	800.000	-0.063	0.215
-289.618	128.859	0.018	0.022
-288.603	-107.739	-0.203	-0.043
-287.589	64.641	0.030	0.029
-286.574	-200.000	0.001	-0.118
-285.559	-99.644	0.112	0.028
-284.545	-20.141	-0.175	-0.106
-283.530	-200.000	-0.040	0.319
-282.516	482.032	0.053	0.117
-281.501	209.859	0.069	0.106
-280.486	215.858	-0.096	-0.149
-279.472	-25.223	0.350	-0.203
-278.457	-105.460	0.281	0.063
-277.443	800.000	0.022	0.061
-276.428	-200.000	0.001	-0.202
-275.413	118.027	0.162	0.196
-274.399	-115.939	0.258	-0.047
-273.384	-180.229	-0.125	0.003
-272.370	-120.738	-0.045	-0.007
-271.355	276.661	0.024	0.042
-270.340	-45.842	0.139	0.067
-269.326	-113.803	0.508	-0.097
-268.311	50.501	-0.145	0.135
-267.297	800.000	-0.055	0.166
-266.282	673.602	-0.065	-0.164
-265.267	-178.245	-0.195	0.004
-264.253	800.000	-0.013	0.042
-263.238	-90.003	0.344	0.098
-262.224	434.064	-0.070	0.149
-261.209	85.954	0.094	0.101
-260.195	-144.731	-0.210	0.019
-259.180	-3.828	-0.309	-0.210
-258.165	-11.684	-0.476	-0.306
-257.151	-200.000	0.016	-0.125
-256.136	25.840	-0.051	0.042
-255.122	800.000	0.042	0.124
-254.107	204.051	-0.053	0.080
-253.092	800.000	-0.093	-0.292
-252.078	-35.284	0.410	0.218
-251.063	800.000	0.155	0.428
-250.049	-82.269	0.308	-0.098
-249.034	-106.192	0.110	-0.024
-248.019	-121.053	-0.187	-0.031
-247.005	11.521	0.284	-0.213
-245.990	-178.792	0.406	-0.009
-244.976	-52.765	-0.324	-0.146
-243.961	-200.000	-0.003	-0.174
-242.946	30.954	-0.047	0.039
-241.932	-10.030	0.475	0.308
-240.917	341.089	-0.015	0.030
-239.903	-200.000	-0.016	-0.132
-238.888	-200.000	0.005	-0.391
-237.873	-200.000	0.015	0.152
-236.859	-13.763	-0.176	-0.111
-235.844	150.003	0.113	0.150
-234.830	358.463	-0.206	-0.403
-233.815	177.440	0.155	-0.221
-232.800	800.000	-0.109	0.296
-231.786	-200.000	-0.037	0.262
-230.771	86.586	-0.067	-0.073
-229.757	-55.373	0.255	-0.112
-228.742	-85.823	0.171	-0.052
-227.727	-19.389	0.128	0.078
-226.713	-98.846	0.259	0.064
-225.698	202.760	-0.185	-0.280
-224.684	101.859	0.201	0.229
-223.669	41.832	-0.091	0.080
-222.655	280.541	0.052	0.090
-221.640	145.967	-0.133	0.174
-220.625	109.950	0.298	-0.350
-219.611	28.093	-0.092	0.076
-218.596	-200.000	-0.039	0.237
-217.582	283.132	0.159	0.279
-216.567	294.716	0.067	0.121
-215.552	-200.000	-0.052	0.334
-214.538	-32.657	0.246	-0.134
-213.523	800.000	0.089	-0.310
-212.509	800.000	-0.105	-0.356
-211.494	-139.634	0.232	-0.024
-210.479	-1.804	-0.273	0.188
-209.465	-96.384	0.144	-0.037
-208.450	-78.529	0.194	-0.065
-207.436	71.764	0.204	0.207
-206.421	127.049	0.103	0.127
-205.406	-141.995	-0.230	0.022
-204.392	-68.215	0.187	-0.071
-203.377	92.809	-0.035	0.039
-202.363	800.000	-0.062	-0.243
-201.348	-111.614	0.229	-0.045
-200.333	-88.724	-0.083	-0.024
-199.319	-200.000	0.007	0.050
-198.304	-157.134	0.186	0.011
-197.290	-25.522	-0.251	-0.145
-196.275	-195.710	0.205	-0.001
-195.260	-54.873	-0.304	-0.134
-194.246	-82.598	0.182	-0.058
-193.231	-79.681	0.201	-0.066
-192.217	79.764	-0.081	-0.085
-191.202	81.444	-0.157	0.166
-190.187	206.639	-0.021	0.031
-189.173	-56.037	0.516	0.224
-188.158	84.248	-0.141	-0.151
-187.144	-200.000	-0.014	-0.075
-186.129	-200.000	0.020	0.169
-185.114	-200.000	0.014	0.084
-184.100	-100.483	-0.158	0.038
-183.085	161.957	-0.092	-0.126
-182.071	-139.338	-0.235	-0.025
-181.056	-25.085	0.416	0.241
-180.042	-200.000	-0.039	-0.273
-179.027	800.000	0.067	0.224
-178.012	-200.000	0.089	0.398
-176.998	329.934	-0.101	-0.189
-175.983	-6.314	-0.168	0.112
-174.969	637.771	-0.074	0.184
-173.954	396.061	0.097	-0.197
-172.939	-71.455	-0.112	0.041
-171.925	800.000	-0.009	-0.038
-170.910	255.851	-0.113	-0.189
-169.896	-200.000	0.023	0.152
-168.881	-200.000	-0.006	0.327
-167.866	800.000	0.083	0.292
-166.852	589.253	-0.096	0.231
-165.837	800.000	0.064	-0.210
-164.823	-82.070	-0.097	0.031
-163.808	-101.893	-0.138	-0.032
-162.793	427.248	0.066	0.138
-161.779	-77.728	-0.032	0.011
-160.764	-200.000	0.026	-0.192
-159.750	-172.643	-0.396	-0.012
-158.735	98.106	0.203	0.228
-157.720	-24.199	-0.317	0.185
-156.706	-200.000	0.008	-0.271
-155.691	-200.000	-0.005	0.060
-154.677	119.226	0.258	0.311
-153.662	-200.000	-0.008	-0.403
-152.647	-200.000	-0.027	-0.288
-151.633	123.918	0.131	-0.161
-150.618	-125.376	-0.022	0.003
-149.604	-96.579	-0.158	-0.041
-148.589	2.851	-0.153	-0.108
-147.574	-127.670	0.162	0.023
-146.560	-5.300	-0.216	-0.145
-145.545	180.751	-0.319	0.456
-144.531	703.105	0.078	0.200
-143.516	-69.702	0.143	-0.053
-142.502	-200.000	0.007	-0.064
-141.487	98.386	0.193	-0.216
-140.472	-25.141	0.017	0.010
-139.458	29.151	0.139	0.115
-138.443	61.921	0.258	0.250
-137.429	614.484	-0.080	-0.196
-136.414	-70.554	0.139	0.051
-135.399	-200.000	-0.052	-0.251
-134.385	-31.018	0.215	-0.118
-133.370	-110.043	-0.279	0.057
-132.356	-79.928	0.196	-0.064
-131.341	229.925	0.086	0.137
-130.326	-2.125	0.121	0.083
-129.312	14.343	-0.148	-0.112
-128.297	-152.279	-0.135	-0.009
-127.283	-0.935	0.301	0.207
-126.268	-73.308	-0.084	0.030
-125.253	390.062	-0.151	0.304
-124.239	-74.039	-0.237	0.084
-123.224	-91.434	0.042	-0.012
-122.210	653.240	0.136	0.339
