DTS Sentinel unit serial number:	SN413079Multiplexer serial number:	ORYXHardware model number:	OX4-SRSoftware version number:	ORYX F/W v4.00 Oryx Data Collector v3.7.2.0data status	okinstallation	princeton_trtdifferential loss correction	single-endedforward channel	channel 2reverse channel	N/Adate	2019/09/11time	02:29:10forward acquisition time	60.00reverse acquisition time	0.00gamma	496.2192k internal	0.2331k external	0.2331temperature offset calibration	0.9941default loss term (dB/km)	0.3790temperature slope calibration	1.0000multiplexer offset coefficient	1.0000multiplexer slope coefficient	1.0000fibre end	0.00T internal ref (°C)	29.25T ext. ref 1 (°C)	-0.31T ext. ref 2 (°C)	23.39length (m)	temperature (°C)	Stokes	anti-Stokes-747.200	800.000	0.034	0.103
-746.185	800.000	-0.093	0.307
-745.171	-14.589	-0.157	0.101
-744.156	-27.137	-0.132	0.077
-743.142	-200.000	0.008	-0.063
-742.127	-200.000	-0.019	0.151
-741.112	-45.315	-0.069	0.034
-740.098	-73.547	-0.227	-0.083
-739.083	-200.000	-0.013	0.591
-738.069	-95.428	-0.225	0.061
-737.054	158.492	0.247	-0.345
-736.039	-142.296	-0.229	0.023
-735.025	8.418	-0.243	0.184
-734.010	-1.140	-0.069	-0.049
-732.996	-78.350	-0.213	-0.074
-731.981	-9.396	-0.419	-0.281
-730.966	-111.679	-0.377	0.077
-729.952	130.818	-0.182	-0.235
-728.937	-166.363	-0.262	-0.011
-727.923	-200.000	0.013	-0.288
-726.908	-200.000	-0.022	-0.334
-725.894	-110.284	0.265	-0.055
-724.879	-64.827	0.114	0.047
-723.864	6.160	-0.230	-0.171
-722.850	-95.193	0.331	0.090
-721.835	800.000	-0.089	-0.284
-720.821	-200.000	0.043	-0.264
-719.806	-100.116	-0.386	-0.097
-718.791	-37.136	0.073	-0.039
-717.777	-200.000	-0.036	-0.181
-716.762	-200.000	-0.019	-0.175
-715.748	63.681	0.078	-0.079
-714.733	-140.352	-0.117	-0.012
-713.718	55.060	-0.068	-0.066
-712.704	729.510	0.105	0.283
-711.689	22.831	-0.019	-0.015
-710.675	800.000	-0.079	-0.255
-709.660	60.234	-0.201	-0.200
-708.645	17.545	-0.183	-0.146
-707.631	-200.000	0.002	-0.267
-706.616	539.152	0.088	0.211
-705.602	-200.000	0.010	-0.072
-704.587	-200.000	-0.015	-0.093
-703.572	494.564	-0.055	-0.128
-702.558	132.306	0.062	0.080
-701.543	325.517	-0.085	0.164
-700.529	-51.983	0.088	-0.041
-699.514	-200.000	-0.022	-0.309
-698.499	800.000	-0.092	-0.293
-697.485	-200.000	0.019	0.323
-696.470	48.990	-0.079	-0.074
-695.456	-70.081	-0.271	0.103
-694.441	479.475	-0.124	-0.281
-693.426	13.831	-0.058	0.045
-692.412	-59.503	-0.182	0.078
-691.397	-200.000	-0.019	-0.214
-690.383	365.856	-0.217	-0.438
-689.368	676.161	-0.157	0.409
-688.354	588.861	0.113	-0.279
-687.339	256.981	0.069	-0.119
-686.324	-40.875	0.123	0.064
-685.310	182.239	-0.114	-0.169
-684.295	16.948	-0.171	-0.136
-683.281	531.199	-0.094	0.224
-682.266	90.299	0.079	-0.089
-681.251	99.444	-0.021	0.025
-680.237	7.080	-0.238	0.178
-679.222	-96.099	-0.242	-0.065
-678.208	280.072	-0.129	-0.232
-677.193	-145.692	-0.245	0.022
-676.178	151.920	0.126	-0.172
-675.164	58.855	0.052	0.051
-674.149	800.000	0.084	-0.277
-673.135	1.430	0.196	0.141
-672.120	521.542	0.030	-0.072
-671.105	-110.807	0.194	0.040
-670.091	3.039	0.150	0.109
-669.076	800.000	-0.045	0.178
-668.062	-200.000	0.005	0.095
-667.047	403.030	0.111	0.234
-666.032	198.064	0.138	-0.212
-665.018	316.876	-0.055	0.105
-664.003	-200.000	0.065	-0.290
-662.989	7.656	-0.250	0.188
-661.974	452.376	-0.144	0.319
-660.959	-140.030	-0.196	-0.021
-659.945	-120.754	-0.256	-0.043
-658.930	-16.492	-0.079	0.050
-657.916	-93.269	-0.065	-0.018
-656.901	102.555	-0.085	-0.099
-655.886	12.584	-0.201	-0.156
-654.872	-35.326	0.158	-0.086
-653.857	-128.041	-0.293	-0.042
-652.843	-200.000	-0.051	0.437
-651.828	-3.803	0.210	-0.146
-650.814	800.000	-0.140	-0.389
-649.799	-154.015	0.091	-0.006
-648.784	320.358	-0.034	0.065
-647.770	-200.000	0.024	-0.115
-646.755	121.418	0.128	0.160
-645.741	-9.033	0.061	-0.041
-644.726	1.133	-0.322	-0.232
-643.711	-134.784	-0.175	0.021
-642.697	-47.163	-0.162	0.079
-641.682	-86.220	0.160	0.050
-640.668	-200.000	0.007	0.253
-639.653	0.223	0.318	-0.227
-638.638	-128.481	-0.163	0.023
-637.624	130.979	0.256	0.329
-636.609	306.912	0.135	-0.253
-635.595	34.073	0.246	0.215
-634.580	-200.000	0.041	0.211
-633.565	-143.449	0.107	-0.010
-632.551	-200.000	-0.013	-0.138
-631.536	-114.766	-0.109	-0.021
-630.522	-101.685	-0.140	0.034
-629.507	83.856	0.313	0.342
-628.492	362.992	0.066	0.133
-627.478	-200.000	-0.021	-0.181
-626.463	-108.226	-0.245	-0.053
-625.449	-119.408	-0.232	-0.040
-624.434	-168.659	0.113	-0.004
-623.419	-200.000	-0.023	0.253
-622.405	594.590	0.022	-0.055
-621.390	-128.819	-0.288	0.041
-620.376	-200.000	0.034	-0.220
-619.361	-200.000	-0.036	0.192
-618.346	26.165	-0.189	-0.158
-617.332	-70.253	-0.087	0.033
-616.317	-80.561	-0.077	0.026
-615.303	-200.000	0.026	-0.283
-614.288	282.451	0.046	0.082
-613.273	-134.689	0.120	0.015
-612.259	-0.903	-0.299	0.212
-611.244	287.750	0.218	-0.395
-610.230	-144.726	-0.161	0.015
-609.215	-200.000	0.002	0.098
-608.201	-3.255	0.257	-0.180
-607.186	141.199	-0.072	-0.095
-606.171	-200.000	-0.014	-0.197
-605.157	-126.678	0.113	0.017
-604.142	467.146	0.112	0.251
-603.128	787.792	-0.074	-0.203
-602.113	-16.712	0.323	-0.204
-601.098	136.770	0.221	-0.289
-600.084	192.691	-0.284	-0.429
-599.069	-124.347	0.148	0.023
-598.055	120.070	-0.121	0.150
-597.040	-143.972	-0.229	0.022
-596.025	800.000	0.014	0.038
-595.011	-200.000	0.043	-0.372
-593.996	207.192	0.032	0.049
-592.982	-200.000	0.033	0.194
-591.967	-54.307	0.305	-0.138
-590.952	21.948	-0.215	0.176
-589.938	-24.295	0.286	0.170
-588.923	800.000	-0.085	0.244
-587.909	27.797	0.076	-0.064
-586.894	800.000	0.067	0.219
-585.879	-39.453	-0.319	0.167
-584.865	-115.628	-0.005	-0.001
-583.850	135.590	0.142	-0.185
-582.836	-135.417	0.249	-0.030
-581.821	724.966	0.078	0.208
-580.806	-44.313	-0.198	-0.099
-579.792	-200.000	0.023	0.234
-578.777	-116.026	0.172	-0.032
-577.763	11.850	-0.065	0.050
-576.748	-200.000	-0.062	-0.617
-575.733	800.000	-0.061	0.171
-574.719	383.490	-0.073	0.151
-573.704	-17.979	-0.173	0.108
-572.690	-82.448	-0.343	0.111
-571.675	-122.347	-0.344	-0.056
-570.661	173.880	-0.186	-0.268
-569.646	15.298	0.377	-0.295
-568.631	800.000	0.092	-0.383
-567.617	-200.000	-0.036	-0.182
-566.602	-17.848	0.070	-0.044
-565.588	-200.000	-0.037	0.191
-564.573	93.480	-0.182	-0.206
-563.558	65.724	-0.073	0.074
-562.544	-69.051	0.124	-0.048
-561.529	-200.000	-0.029	-0.273
-560.515	-200.000	0.025	-0.423
-559.500	-193.981	0.128	0.001
-558.485	-30.843	-0.112	0.063
-557.471	-200.000	0.007	0.185
-556.456	112.484	-0.102	0.124
-555.442	533.664	-0.021	-0.050
-554.427	-64.848	0.143	-0.058
-553.412	-30.460	0.184	0.104
-552.398	183.593	-0.124	-0.184
-551.383	-20.928	0.269	-0.165
-550.369	281.389	-0.015	0.026
-549.354	-200.000	0.011	-0.340
-548.339	-83.596	-0.047	0.015
-547.325	645.230	0.035	-0.090
-546.310	-200.000	0.032	-0.149
-545.296	-200.000	0.021	-0.325
-544.281	-144.784	0.181	-0.017
-543.266	220.780	-0.158	0.253
-542.252	17.899	-0.315	0.250
-541.237	50.302	-0.108	-0.102
-540.223	231.559	0.084	0.138
-539.208	-200.000	-0.017	-0.119
-538.193	474.002	-0.155	0.350
-537.179	-45.531	0.385	-0.190
-536.164	-8.747	-0.098	0.066
-535.150	-147.026	-0.062	-0.005
-534.135	328.230	0.136	0.261
-533.121	78.969	-0.069	-0.074
-532.106	-200.000	-0.088	-0.548
-531.091	511.001	-0.156	-0.363
-530.077	24.110	0.312	-0.257
-529.062	-52.698	-0.016	-0.007
-528.048	120.487	-0.170	-0.210
-527.033	-200.000	0.008	0.052
-526.018	-152.741	-0.287	0.020
-525.004	-200.000	-0.014	0.259
-523.989	-72.469	-0.203	-0.075
-522.975	142.179	-0.070	0.092
-521.960	-162.022	0.101	0.005
-520.945	186.772	-0.105	0.156
-519.931	-200.000	-0.015	0.198
-518.916	-82.489	0.131	-0.042
-517.902	43.604	-0.068	-0.062
-516.887	-154.212	-0.187	-0.013
-515.872	-38.268	-0.111	-0.059
-514.858	-58.425	0.438	0.190
-513.843	118.218	0.126	-0.155
-512.829	800.000	-0.016	0.066
-511.814	-132.188	0.157	0.020
-510.799	157.419	-0.029	-0.040
-509.785	3.404	-0.150	-0.109
-508.770	-117.173	-0.169	-0.031
-507.756	37.955	0.209	0.185
-506.741	800.000	0.099	0.333
-505.726	64.657	0.103	-0.104
-504.712	60.309	-0.068	-0.067
-503.697	-38.534	-0.026	0.014
-502.683	-112.721	-0.274	0.054
-501.668	800.000	-0.099	-0.383
-500.653	68.463	0.376	0.384
-499.639	-25.952	-0.443	-0.260
-498.624	-200.000	-0.039	-0.351
-497.610	657.312	0.063	0.160
-496.595	469.621	-0.163	-0.365
-495.581	95.626	-0.065	-0.074
-494.566	183.374	0.068	0.101
-493.551	-52.258	-0.145	0.067
-492.537	327.781	-0.118	-0.226
-491.522	2.619	-0.069	0.050
-490.508	800.000	0.123	0.401
-489.493	533.536	0.025	-0.058
-488.478	31.086	0.197	-0.168
-487.464	-2.328	0.511	0.357
-486.449	382.582	-0.065	0.133
-485.435	-46.241	0.332	0.163
-484.420	191.293	-0.078	-0.117
-483.405	-200.000	-0.015	0.230
-482.391	-126.633	-0.287	0.042
-481.376	34.838	-0.141	0.123
-480.362	-200.000	0.001	-0.057
-479.347	-200.000	0.035	-0.375
-478.332	0.703	-0.166	-0.118
-477.318	-37.653	0.286	-0.152
-476.303	673.229	0.128	-0.331
-475.289	-113.633	0.155	-0.030
-474.274	90.864	-0.163	0.182
-473.259	280.880	0.048	-0.086
-472.245	-65.176	0.264	0.106
-471.230	800.000	0.055	-0.233
-470.216	-20.782	0.340	-0.207
-469.201	270.355	-0.106	-0.186
-468.186	-87.823	0.382	-0.115
-467.172	-200.000	-0.009	-0.041
-466.157	451.174	0.159	-0.350
-465.143	618.208	-0.056	0.140
-464.128	-176.403	-0.305	0.008
-463.113	248.081	-0.053	0.090
-462.099	177.028	0.185	-0.268
-461.084	-45.016	0.408	0.202
-460.070	353.903	-0.088	0.173
-459.055	194.679	-0.035	0.052
-458.040	48.146	-0.090	0.083
-457.026	154.591	0.106	0.145
-456.011	189.130	0.084	-0.126
-454.997	-169.029	-0.247	-0.009
-453.982	211.143	0.139	-0.217
-452.968	-60.913	0.239	-0.101
-451.953	-86.036	-0.151	-0.047
-450.938	-38.434	-0.221	0.116
-449.924	242.308	0.066	-0.110
-448.909	-15.407	0.062	-0.039
-447.895	62.497	-0.053	-0.053
-446.880	723.677	-0.153	0.405
-445.865	800.000	0.066	-0.206
-444.851	-20.484	-0.216	-0.132
-443.836	-99.679	-0.288	0.072
-442.822	-200.000	-0.066	-0.406
-441.807	-110.506	-0.415	-0.086
-440.792	-37.727	-0.153	-0.081
-439.778	-200.000	0.005	-0.110
-438.763	300.086	0.123	-0.225
-437.749	-200.000	0.003	0.038
-436.734	-24.307	-0.303	0.180
-435.719	-200.000	0.005	0.065
-434.705	-63.314	-0.089	-0.037
-433.690	65.107	0.204	0.205
-432.676	132.075	-0.094	-0.121
-431.661	800.000	0.048	-0.149
-430.646	800.000	0.017	0.049
-429.632	36.018	-0.261	0.228
-428.617	59.500	0.325	-0.318
-427.603	800.000	0.168	-0.504
-426.588	107.951	-0.024	0.029
-425.573	-30.960	0.190	-0.107
-424.559	-75.859	-0.152	0.054
-423.544	261.799	0.071	0.123
-422.530	290.716	-0.062	0.111
-421.515	187.157	-0.168	0.249
-420.500	139.418	0.034	-0.045
-419.486	-11.047	0.327	0.214
-418.471	-50.281	0.166	0.078
-417.457	-56.235	0.039	-0.017
-416.442	3.298	0.532	-0.384
-415.428	-18.026	-0.238	-0.148
-414.413	122.949	-0.087	0.108
-413.398	167.424	-0.114	0.161
-412.384	128.406	0.151	0.191
-411.369	13.626	-0.122	-0.094
-410.355	135.154	0.035	-0.045
-409.340	-100.722	0.081	0.020
-408.325	327.962	-0.063	0.120
-407.311	-94.268	-0.300	0.081
-406.296	41.479	-0.129	-0.116
-405.282	-200.000	-0.003	-0.185
-404.267	335.845	-0.016	-0.031
-403.252	-72.111	0.134	-0.049
-402.238	64.501	-0.049	0.049
-401.223	80.361	0.060	-0.064
-400.209	-50.540	-0.120	-0.056
-399.194	578.847	-0.164	0.397
-398.179	682.814	0.009	-0.023
-397.165	-200.000	-0.082	0.535
-396.150	-100.781	0.095	0.023
-395.136	800.000	-0.032	-0.101
-394.121	-200.000	-0.060	-0.313
-393.106	-68.424	-0.302	0.116
-392.092	-165.013	-0.281	-0.012
-391.077	-44.744	-0.090	0.045
-390.063	-138.473	0.237	-0.026
-389.048	-200.000	0.009	-0.083
-388.033	38.047	0.177	-0.156
-387.019	566.680	-0.079	0.191
-386.004	-200.000	-0.048	0.491
-384.990	-200.000	-0.048	0.410
-383.975	41.009	-0.245	0.219
-382.960	-39.728	-0.357	0.185
-381.946	-39.617	-0.209	0.109
-380.931	800.000	-0.132	0.368
-379.917	-119.398	0.186	0.032
-378.902	-132.142	-0.158	0.020
-377.888	-178.103	-0.453	-0.011
-376.873	-50.398	0.238	-0.111
-375.858	23.210	-0.088	-0.072
-374.844	-200.000	0.050	-0.254
-373.829	-36.780	0.254	-0.136
-372.815	161.427	0.073	0.102
-371.800	-22.566	0.332	0.199
-370.785	-24.004	0.403	-0.239
-369.771	-160.413	0.031	0.002
-368.756	-155.895	-0.113	0.007
-367.742	230.141	0.041	-0.066
-366.727	800.000	-0.055	-0.173
-365.712	-2.657	0.136	-0.094
-364.698	41.173	0.197	-0.176
-363.683	133.689	0.097	0.124
-362.669	178.005	0.167	0.241
-361.654	800.000	-0.066	-0.220
-360.639	-136.163	-0.108	-0.013
-359.625	800.000	-0.072	0.236
-358.610	7.156	-0.663	0.491
-357.596	39.797	0.081	-0.072
-356.581	-98.279	-0.174	-0.044
-355.566	112.451	-0.063	0.075
-354.552	800.000	0.051	0.220
-353.537	647.239	-0.141	-0.356
-352.523	-200.000	-0.001	-0.307
-351.508	198.737	0.049	0.074
-350.493	22.353	0.252	0.204
-349.479	403.390	-0.069	0.143
-348.464	265.094	-0.154	-0.266
-347.450	-99.807	-0.131	0.033
-346.435	-62.223	-0.585	-0.241
-345.420	-192.216	0.317	0.003
-344.406	-6.368	-0.149	0.101
-343.391	-36.936	0.241	0.128
-342.377	273.471	0.050	0.087
-341.362	40.566	0.278	0.248
-340.348	123.080	-0.081	0.101
-339.333	-159.986	0.206	0.011
-338.318	11.527	0.238	0.181
-337.304	22.095	0.152	-0.123
-336.289	-200.000	0.013	-0.093
-335.275	72.792	-0.105	-0.108
-334.260	-15.017	-0.283	-0.180
-333.245	636.506	0.088	0.220
-332.231	-200.000	-0.065	-0.412
-331.216	42.385	0.188	-0.169
-330.202	-180.957	0.185	-0.004
-329.187	-28.505	0.432	0.247
-328.172	800.000	0.149	-0.488
-327.158	194.653	-0.150	0.226
-326.143	-32.094	0.106	0.058
-325.129	-78.105	0.159	0.054
-324.114	-200.000	0.042	0.248
-323.099	-161.876	-0.033	0.002
-322.085	-38.427	0.227	0.119
-321.070	-200.000	0.019	0.130
-320.056	-58.178	0.229	-0.099
-319.041	12.616	-0.175	-0.134
-318.026	157.473	0.120	0.165
-317.012	70.105	-0.242	0.248
-315.997	-200.000	0.028	0.151
-314.983	83.067	0.128	0.138
-313.968	-27.970	-0.300	0.172
-312.953	291.049	-0.057	0.103
-311.939	257.856	-0.079	0.135
-310.924	244.605	-0.145	0.241
-309.910	-103.233	0.265	-0.062
-308.895	-3.860	0.133	-0.091
-307.880	99.120	-0.054	0.062
-306.866	233.323	0.150	-0.243
-305.851	-9.309	-0.252	-0.167
-304.837	227.391	0.061	-0.098
-303.822	508.743	-0.144	0.330
-302.807	-200.000	-0.023	0.184
-301.793	800.000	0.070	-0.214
-300.778	-200.000	0.004	-0.083
-299.764	-29.195	-0.203	-0.115
-298.749	-72.589	0.179	-0.065
-297.735	473.450	-0.122	0.273
-296.720	-119.440	-0.233	0.040
-295.705	27.888	-0.160	0.133
-294.691	6.208	-0.117	-0.086
-293.676	-200.000	-0.028	0.142
-292.662	-200.000	0.029	0.226
-291.647	-28.069	-0.116	0.066
-290.632	-124.520	-0.208	0.032
-289.618	-132.209	0.297	-0.038
-288.603	-123.174	-0.271	-0.043
-287.589	136.965	-0.073	0.095
-286.574	136.484	-0.107	-0.138
-285.559	-200.000	-0.024	0.131
-284.545	-200.000	0.016	-0.215
-283.530	-158.527	-0.376	-0.021
-282.516	400.116	-0.056	0.116
-281.501	87.810	0.056	-0.061
-280.486	-61.267	-0.328	0.137
-279.472	-148.034	0.141	-0.012
-278.457	26.275	-0.377	-0.312
-277.443	-84.449	-0.296	0.092
-276.428	17.479	0.266	-0.209
-275.413	-155.240	0.311	-0.020
-274.399	233.722	-0.100	0.162
-273.384	175.635	0.143	-0.205
-272.370	79.259	-0.156	-0.165
-271.355	155.859	0.074	-0.101
-270.340	-16.190	-0.381	0.239
-269.326	-68.335	-0.403	0.155
-268.311	800.000	0.023	0.082
-267.297	47.209	0.070	0.064
-266.282	-171.461	0.139	-0.005
-265.267	-54.940	0.367	-0.164
-264.253	-200.000	-0.022	0.176
-263.238	-200.000	-0.015	0.126
-262.224	106.689	0.147	-0.172
-261.209	309.263	0.087	0.161
-260.195	131.708	-0.064	-0.081
-259.180	132.791	-0.124	0.159
-258.165	561.691	0.118	0.281
-257.151	-200.000	0.117	-0.597
-256.136	90.223	-0.133	0.147
-255.122	-200.000	-0.015	0.252
-254.107	-200.000	0.010	0.316
-253.092	-200.000	0.011	0.099
-252.078	800.000	-0.106	-0.301
-251.063	462.241	-0.173	0.381
-250.049	0.026	0.195	-0.137
-249.034	-121.418	-0.198	-0.033
-248.019	286.166	-0.094	0.167
-247.005	223.538	0.048	0.076
-245.990	-17.174	-0.343	0.214
-244.976	-136.269	0.022	0.003
-243.961	800.000	-0.035	0.127
-242.946	-72.874	-0.196	0.071
-241.932	-117.765	-0.291	0.052
-240.917	-38.858	0.151	-0.079
-239.903	89.569	0.058	0.063
-238.888	-200.000	-0.044	0.341
-237.873	-200.000	-0.031	-0.284
-236.859	566.344	-0.038	0.090
-235.844	-61.180	0.307	0.128
-234.830	-144.046	-0.127	0.012
-233.815	170.897	-0.102	-0.145
-232.800	73.090	0.293	0.302
-231.786	466.547	-0.023	0.050
-230.771	-141.050	0.129	-0.013
-229.757	-126.003	0.128	-0.019
-228.742	-190.925	0.270	-0.003
-227.727	235.165	0.091	-0.149
-226.713	-188.427	0.590	0.007
-225.698	800.000	0.021	-0.077
-224.684	-116.009	0.362	-0.066
-223.669	-132.873	-0.098	0.012
-222.655	800.000	0.026	-0.073
-221.640	85.096	0.013	0.014
-220.625	182.452	-0.087	-0.127
-219.611	-29.650	-0.238	-0.134
-218.596	11.074	0.247	-0.187
-217.582	-200.000	-0.040	0.264
-216.567	-200.000	-0.041	0.291
-215.552	49.704	-0.106	0.098
-214.538	-200.000	-0.001	-0.046
-213.523	-95.099	-0.212	0.056
-212.509	16.045	0.173	-0.134
-211.494	170.564	-0.077	-0.109
-210.479	-3.561	-0.117	0.080
-209.465	800.000	0.044	-0.129
-208.450	800.000	-0.016	-0.054
-207.436	-147.701	0.174	-0.014
-206.421	-27.917	-0.228	-0.130
-205.406	433.052	-0.048	-0.103
-204.392	355.079	-0.096	-0.189
-203.377	130.856	0.073	0.092
-202.363	-94.569	-0.146	0.039
-201.348	-89.720	-0.299	0.086
-200.333	-96.773	0.259	0.067
-199.319	-19.150	0.222	0.136
-198.304	2.709	0.410	0.293
-197.290	-200.000	-0.047	0.269
-196.275	-60.972	0.220	-0.091
-195.260	-129.115	0.030	-0.004
-194.246	-52.337	0.059	-0.027
-193.231	99.372	0.155	0.177
-192.217	-137.261	0.203	0.023
-191.202	-200.000	0.001	0.106
-190.187	-200.000	0.022	0.195
-189.173	70.088	-0.138	0.140
-188.158	1.973	-0.053	0.038
-187.144	197.489	-0.108	0.162
-186.129	83.826	-0.133	-0.143
-185.114	-189.410	0.311	0.004
-184.100	80.717	0.076	0.080
-183.085	224.892	0.105	-0.168
-182.071	800.000	-0.068	-0.200
-181.056	-200.000	-0.016	-0.136
-180.042	-52.095	0.195	-0.089
-179.027	371.257	-0.125	0.249
-178.012	33.325	-0.213	-0.182
-176.998	282.166	-0.041	0.072
-175.983	27.002	0.295	0.243
-174.969	-118.781	-0.072	0.012
-173.954	-153.931	-0.033	-0.002
-172.939	175.949	-0.123	0.176
-171.925	-31.687	-0.228	-0.126
-170.910	630.697	0.055	-0.138
-169.896	-200.000	-0.006	-0.266
-168.881	-43.851	0.067	-0.033
-167.866	-91.891	-0.209	0.058
-166.852	189.647	-0.070	-0.103
-165.837	420.565	0.146	-0.307
-164.823	-200.000	-0.123	-0.596
-163.808	-179.957	-0.164	0.003
-162.793	130.813	0.250	0.315
-161.779	-1.327	0.261	0.181
-160.764	-200.000	0.022	0.127
-159.750	-103.527	0.182	0.042
-158.735	13.225	0.213	-0.162
-157.720	529.825	-0.015	-0.034
-156.706	646.335	0.120	0.302
-155.691	800.000	-0.067	-0.280
-154.677	2.750	-0.071	0.050
-153.662	5.926	0.100	-0.073
-152.647	-70.489	0.295	0.110
-151.633	-112.808	0.116	0.023
-150.618	274.026	0.156	0.272
-149.604	-22.213	0.047	0.028
-148.589	-44.532	0.410	0.202
-147.574	74.596	-0.169	-0.175
-146.560	94.582	0.103	0.115
-145.545	-33.275	0.334	0.182
-144.531	-200.000	0.041	-0.287
-143.516	-200.000	0.020	-0.233
-142.502	-8.791	-0.133	-0.088
-141.487	-5.283	0.241	-0.163
-140.472	95.103	0.148	-0.165
-139.458	-127.273	-0.138	0.020
-138.443	-120.906	0.271	0.045
-137.429	136.450	0.157	-0.202
-136.414	-70.396	-0.367	-0.137
-135.399	-123.360	0.047	0.007
-134.385	23.254	0.025	-0.020
-133.370	186.143	0.015	-0.023
-132.356	42.551	-0.184	0.165
-131.341	256.480	0.150	0.254
-130.326	-164.896	-0.219	-0.010
-129.312	-200.000	-0.019	-0.244
-128.297	800.000	0.101	-0.375
-127.283	800.000	-0.037	0.103
-126.268	-148.164	0.124	-0.010
-125.253	-50.303	0.073	-0.034
-124.239	-166.430	-0.188	0.008
-123.224	-62.517	-0.102	0.042
-122.210	288.213	0.069	0.122
-121.195	-200.000	0.355	-0.001
