DTS Sentinel unit serial number:	SN413079Multiplexer serial number:	ORYXHardware model number:	OX4-SRSoftware version number:	ORYX F/W v4.00 Oryx Data Collector v3.7.2.0data status	okinstallation	princeton_trtdifferential loss correction	single-endedforward channel	channel 2reverse channel	N/Adate	2019/09/18time	03:07:35forward acquisition time	60.00reverse acquisition time	0.00gamma	496.2192k internal	0.2349k external	0.2349temperature offset calibration	0.9979default loss term (dB/km)	0.3790temperature slope calibration	1.0000multiplexer offset coefficient	1.0000multiplexer slope coefficient	1.0000fibre end	0.00T internal ref (°C)	22.75T ext. ref 1 (°C)	0.16T ext. ref 2 (°C)	16.89length (m)	temperature (°C)	Stokes	anti-Stokes-747.200	-7.320	0.160	-0.109
-746.185	-71.265	0.208	0.078
-745.171	-200.000	0.027	0.139
-744.156	422.554	-0.177	0.381
-743.142	-106.601	0.232	0.052
-742.127	125.492	0.179	0.225
-741.112	-95.589	-0.175	0.047
-740.098	350.815	0.141	0.278
-739.083	2.917	-0.256	-0.185
-738.069	-200.000	0.016	0.100
-737.054	-118.234	0.109	0.019
-736.039	-4.470	-0.256	-0.177
-735.025	-83.850	0.377	0.120
-734.010	-18.660	-0.345	-0.215
-732.996	387.459	0.071	-0.147
-731.981	35.430	-0.069	-0.060
-730.966	-171.088	0.070	0.002
-729.952	67.673	-0.199	-0.203
-728.937	-115.905	-0.311	0.058
-727.923	-41.605	-0.104	-0.053
-726.908	-107.122	-0.079	0.017
-725.894	-109.144	0.032	-0.007
-724.879	-200.000	-0.040	0.277
-723.864	171.148	-0.138	-0.198
-722.850	116.166	-0.081	-0.099
-721.835	-92.785	-0.295	-0.082
-720.821	218.185	-0.070	0.112
-719.806	-176.678	-0.270	-0.007
-718.791	-10.805	-0.324	0.214
-717.777	167.047	-0.173	-0.246
-716.762	800.000	0.077	-0.226
-715.748	-200.000	-0.038	0.221
-714.733	-138.079	-0.055	0.006
-713.718	-163.600	-0.190	0.009
-712.704	800.000	0.146	-0.461
-711.689	188.141	-0.037	-0.056
-710.675	-9.381	-0.253	0.168
-709.660	152.387	-0.150	-0.205
-708.645	138.498	0.217	-0.284
-707.631	-119.975	-0.213	-0.036
-706.616	-0.107	-0.212	-0.150
-705.602	199.718	0.144	0.220
-704.587	252.111	-0.184	-0.313
-703.572	-200.000	-0.038	-0.426
-702.558	800.000	-0.116	-0.324
-701.543	800.000	-0.089	0.365
-700.529	80.283	0.212	0.227
-699.514	-20.483	-0.292	0.179
-698.499	254.040	0.111	-0.190
-697.485	261.754	0.056	-0.097
-696.470	56.376	-0.339	0.328
-695.456	169.862	-0.174	-0.248
-694.441	-22.626	0.140	-0.084
-693.426	-138.757	0.119	-0.013
-692.412	-200.000	-0.002	0.046
-691.397	-121.092	0.114	-0.019
-690.383	496.387	0.164	-0.375
-689.368	-60.597	0.182	-0.077
-688.354	56.675	-0.095	0.092
-687.339	-79.592	0.362	0.122
-686.324	-112.210	-0.195	-0.039
-685.310	-12.730	-0.190	-0.123
-684.295	765.207	0.122	-0.329
-683.281	375.065	-0.155	-0.315
-682.266	-50.346	-0.135	-0.063
-681.251	-200.000	-0.015	-0.309
-680.237	-200.000	-0.009	-0.339
-679.222	-58.480	-0.317	-0.137
-678.208	-200.000	0.005	-0.161
-677.193	-65.453	-0.094	0.038
-676.178	-53.468	-0.423	0.193
-675.164	13.444	-0.219	0.169
-674.149	481.898	0.140	0.316
-673.135	266.886	-0.108	-0.189
-672.120	-200.000	0.036	-0.347
-671.105	-73.453	-0.202	-0.073
-670.091	39.371	-0.238	-0.213
-669.076	447.590	-0.028	-0.060
-668.062	481.867	0.135	-0.305
-667.047	141.579	-0.118	-0.156
-666.032	113.869	-0.125	0.152
-665.018	-200.000	-0.022	0.218
-664.003	-98.262	-0.608	0.155
-662.989	156.684	-0.063	0.086
-661.974	13.580	-0.181	0.140
-660.959	237.591	0.229	0.378
-659.945	193.964	0.246	-0.370
-658.930	27.022	-0.189	-0.158
-657.916	800.000	0.028	0.076
-656.901	-141.356	0.118	0.012
-655.886	48.552	-0.044	-0.041
-654.872	-197.722	0.208	-0.001
-653.857	315.355	-0.078	-0.147
-652.843	800.000	0.117	-0.420
-651.828	2.561	0.209	-0.150
-650.814	-84.616	0.074	0.023
-649.799	106.592	-0.150	-0.177
-648.784	21.652	0.145	0.118
-647.770	-82.289	-0.509	-0.165
-646.755	75.323	0.280	0.294
-645.741	-200.000	-0.045	-0.406
-644.726	124.100	-0.145	0.181
-643.711	97.230	0.155	-0.177
-642.697	-34.473	0.033	-0.018
-641.682	55.233	0.111	-0.107
-640.668	800.000	0.034	-0.122
-639.653	-200.000	0.053	0.399
-638.638	6.340	-0.166	-0.123
-637.624	139.058	-0.210	0.275
-636.609	315.971	0.062	-0.117
-635.595	-53.462	0.346	-0.157
-634.580	-12.073	0.069	0.045
-633.565	-56.917	0.154	0.068
-632.551	187.827	0.089	-0.131
-631.536	-99.171	0.395	-0.099
-630.522	-111.460	0.043	0.009
-629.507	-200.000	0.006	0.090
-628.492	-200.000	-0.014	0.145
-627.478	-200.000	-0.048	-0.253
-626.463	-192.972	-0.356	-0.003
-625.449	-30.976	0.031	-0.017
-624.434	98.051	-0.217	0.248
-623.419	-105.390	-0.114	0.026
-622.405	-200.000	0.015	0.156
-621.390	179.155	0.236	-0.343
-620.376	231.589	-0.163	-0.265
-619.361	-200.000	-0.040	-0.367
-618.346	4.151	-0.136	-0.099
-617.332	-63.477	0.066	-0.027
-616.317	363.492	0.030	0.060
-615.303	-27.681	0.114	-0.066
-614.288	-200.000	-0.034	0.167
-613.273	-70.290	-0.197	-0.074
-612.259	118.726	-0.143	-0.176
-611.244	800.000	-0.059	-0.202
-610.230	116.609	-0.161	-0.196
-609.215	-200.000	-0.012	0.156
-608.201	443.418	-0.074	-0.161
-607.186	-126.152	-0.270	-0.040
-606.171	-200.000	-0.087	0.479
-605.157	-200.000	0.029	0.134
-604.142	92.737	0.206	-0.231
-603.128	800.000	0.091	0.340
-602.113	800.000	0.042	-0.120
-601.098	-74.936	0.169	-0.060
-600.084	-86.151	-0.156	0.048
-599.069	-200.000	0.014	0.146
-598.055	23.538	0.356	0.291
-597.040	800.000	-0.081	0.229
-596.025	-110.084	-0.094	0.020
-595.011	69.045	-0.093	0.095
-593.996	-72.855	-0.435	0.159
-592.982	-62.404	-0.148	-0.061
-591.967	-132.549	0.131	0.017
-590.952	-200.000	-0.015	-0.152
-589.938	-102.566	0.312	0.074
-588.923	48.155	0.130	0.121
-587.909	108.833	-0.016	-0.018
-586.894	21.801	-0.039	-0.031
-585.879	-112.047	0.293	-0.059
-584.865	181.340	-0.142	0.207
-583.850	-87.380	-0.286	-0.086
-582.836	84.672	0.241	-0.261
-581.821	-64.603	-0.062	-0.025
-580.806	361.603	-0.035	-0.069
-579.792	-200.000	-0.003	-0.306
-578.777	228.980	0.133	-0.216
-577.763	249.126	0.145	0.244
-576.748	-126.800	-0.216	0.032
-575.733	800.000	-0.082	-0.341
-574.719	800.000	-0.131	0.368
-573.704	-6.660	0.221	0.149
-572.690	266.699	0.095	-0.164
-571.675	179.542	-0.133	0.194
-570.661	387.798	-0.163	0.335
-569.646	800.000	0.153	0.584
-568.631	237.367	-0.138	-0.227
-567.617	800.000	-0.035	0.105
-566.602	-200.000	0.076	-0.366
-565.588	398.144	0.116	-0.240
-564.573	800.000	-0.021	0.066
-563.558	406.830	0.032	0.067
-562.544	-200.000	-0.031	0.326
-561.529	-200.000	-0.005	-0.142
-560.515	-176.132	0.040	-0.001
-559.500	53.255	0.203	-0.193
-558.485	174.351	0.058	-0.083
-557.471	180.385	-0.083	-0.120
-556.456	428.346	-0.133	0.285
-555.442	800.000	-0.022	0.085
-554.427	47.781	-0.058	-0.054
-553.412	113.121	-0.119	-0.143
-552.398	381.884	-0.146	-0.298
-551.383	-31.700	0.079	-0.044
-550.369	-200.000	-0.001	-0.143
-549.354	800.000	-0.053	0.223
-548.339	267.530	0.086	0.150
-547.325	-72.493	-0.201	0.074
-546.310	-200.000	0.006	0.025
-545.296	-200.000	-0.038	0.599
-544.281	-79.321	0.052	-0.017
-543.266	-200.000	0.001	-0.154
-542.252	-126.461	-0.276	-0.041
-541.237	-200.000	-0.014	-0.206
-540.223	-200.000	-0.002	-0.035
-539.208	-200.000	-0.008	-0.106
-538.193	100.651	0.235	0.271
-537.179	11.928	-0.217	-0.165
-536.164	-200.000	0.014	0.201
-535.150	57.660	0.153	0.148
-534.135	-200.000	-0.009	-0.326
-533.121	70.044	-0.151	0.155
-532.106	149.212	0.219	0.294
-531.091	-104.100	-0.155	0.036
-530.077	800.000	-0.051	-0.170
-529.062	83.953	0.050	0.054
-528.048	-83.985	0.133	-0.042
-527.033	-200.000	-0.059	-0.284
-526.018	84.604	0.070	-0.075
-525.004	176.932	0.097	-0.140
-523.989	88.488	-0.147	-0.161
-522.975	800.000	-0.010	-0.039
-521.960	15.853	0.382	-0.298
-520.945	78.969	-0.103	-0.109
-519.931	-62.299	-0.066	0.027
-518.916	-153.711	0.221	-0.015
-517.902	-158.424	-0.181	0.010
-516.887	-200.000	0.010	-0.163
-515.872	-200.000	0.000	0.076
-514.858	-90.126	-0.433	-0.125
-513.843	76.018	0.155	0.163
-512.829	-29.846	0.173	-0.098
-511.814	-5.384	-0.372	0.253
-510.799	135.150	-0.122	-0.156
-509.785	490.689	-0.101	0.228
-508.770	800.000	-0.070	-0.226
-507.756	233.616	-0.057	0.093
-506.741	-29.941	0.114	0.064
-505.726	165.412	0.096	0.134
-504.712	-13.217	-0.019	-0.012
-503.697	-200.000	0.031	-0.330
-502.683	354.307	0.097	0.191
-501.668	466.857	-0.081	-0.180
-500.653	-200.000	-0.041	0.354
-499.639	-48.561	-0.165	-0.079
-498.624	800.000	-0.042	-0.138
-497.610	-11.103	-0.295	0.192
-496.595	-18.474	0.182	-0.112
-495.581	130.711	-0.126	-0.160
-494.566	-200.000	0.008	-0.055
-493.551	-200.000	-0.023	0.103
-492.537	800.000	0.031	0.106
-491.522	533.277	0.077	-0.179
-490.508	368.646	-0.141	-0.282
-489.493	-119.444	-0.283	-0.048
-488.478	-200.000	-0.009	-0.329
-487.464	-102.951	-0.323	0.076
-486.449	-117.190	0.182	-0.033
-485.435	-200.000	-0.048	-0.323
-484.420	787.824	0.043	-0.118
-483.405	116.193	0.085	0.103
-482.391	702.159	-0.034	0.088
-481.376	113.383	-0.125	0.149
-480.362	606.724	-0.160	-0.394
-479.347	5.116	0.197	-0.143
-478.332	800.000	-0.025	-0.069
-477.318	51.400	-0.320	0.300
-476.303	28.424	-0.196	-0.164
-475.289	-107.987	0.265	-0.057
-474.274	559.078	0.176	-0.419
-473.259	-146.487	-0.246	-0.021
-472.245	-54.056	-0.098	-0.044
-471.230	-64.158	-0.078	-0.031
-470.216	269.736	0.101	0.175
-469.201	12.112	0.214	0.163
-468.186	-76.896	-0.027	-0.009
-467.172	-12.717	-0.238	0.153
-466.157	-200.000	-0.012	0.201
-465.143	-115.347	0.060	-0.011
-464.128	-130.899	-0.282	-0.037
-463.113	24.442	0.222	0.182
-462.099	-200.000	-0.005	-0.330
-461.084	-80.667	-0.159	0.052
-460.070	-154.502	-0.147	0.010
-459.055	-39.561	-0.146	0.075
-458.040	16.322	0.195	-0.152
-457.026	148.374	0.083	0.110
-456.011	-111.396	0.305	-0.061
-454.997	-149.481	-0.447	-0.035
-453.982	-113.895	-0.132	0.025
-452.968	800.000	-0.056	0.192
-451.953	-150.138	0.218	0.017
-450.938	361.879	0.064	0.126
-449.924	-101.615	0.390	-0.093
-448.909	800.000	0.033	0.131
-447.895	-143.424	-0.166	-0.016
-446.880	800.000	0.074	-0.296
-445.865	517.291	0.093	0.216
-444.851	155.830	-0.035	-0.048
-443.836	-140.343	0.262	-0.027
-442.822	403.802	-0.190	-0.395
-441.807	800.000	0.077	-0.227
-440.792	701.693	-0.061	-0.157
-439.778	-200.000	0.118	0.000
-438.763	-25.840	-0.033	-0.019
-437.749	200.688	-0.230	-0.349
-436.734	104.549	-0.105	-0.122
-435.719	800.000	-0.071	0.271
-434.705	-21.430	-0.273	0.164
-433.690	92.795	-0.140	-0.156
-432.676	9.397	-0.048	-0.036
-431.661	20.420	0.052	0.042
-430.646	-156.926	-0.380	-0.023
-429.632	698.333	0.109	-0.283
-428.617	-50.374	0.049	-0.023
-427.603	-70.561	-0.300	0.112
-426.588	-47.613	0.202	0.097
-425.573	-90.668	-0.189	-0.054
-424.559	242.734	0.062	0.102
-423.544	-200.000	0.040	0.363
-422.530	-158.167	0.175	-0.010
-421.515	-68.084	0.499	0.192
-420.500	12.009	-0.146	-0.111
-419.486	-200.000	-0.048	-0.238
-418.471	495.997	-0.047	0.107
-417.457	46.623	-0.120	-0.110
-416.442	-200.000	-0.040	0.267
-415.428	44.228	-0.155	-0.140
-414.413	-129.380	-0.077	0.011
-413.398	35.900	0.136	0.118
-412.384	-200.000	-0.040	0.336
-411.369	-200.000	0.006	-0.350
-410.355	-200.000	0.002	-0.058
-409.340	-200.000	0.008	0.344
-408.325	-132.408	-0.331	0.042
-407.311	131.962	-0.042	-0.054
-406.296	-156.996	-0.039	-0.002
-405.282	183.698	0.012	0.018
-404.267	-122.983	-0.228	-0.036
-403.252	-200.000	0.026	-0.167
-402.238	800.000	0.040	-0.140
-401.223	-200.000	-0.016	0.085
-400.209	-78.193	0.243	-0.082
-399.194	-96.334	0.106	0.028
-398.179	18.590	0.127	-0.100
-397.165	-153.034	-0.219	-0.015
-396.150	-30.604	-0.071	0.040
-395.136	19.300	0.089	-0.071
-394.121	-200.000	-0.006	-0.152
-393.106	-134.633	0.182	0.022
-392.092	79.875	0.064	-0.068
-391.077	-137.675	0.518	-0.057
-390.063	800.000	0.063	-0.205
-389.048	-200.000	-0.032	-0.361
-388.033	300.535	-0.228	-0.414
-387.019	87.500	0.139	-0.152
-386.004	-13.024	0.248	-0.159
-384.990	148.440	-0.127	-0.169
-383.975	-2.245	-0.168	0.116
-382.960	-200.000	-0.042	-0.217
-381.946	-200.000	-0.024	-0.463
-380.931	128.055	0.265	0.332
-379.917	425.751	0.050	0.105
-378.902	15.634	-0.224	-0.173
-377.888	331.326	-0.104	0.197
-376.873	800.000	-0.081	0.262
-375.858	74.829	-0.027	0.028
-374.844	34.870	-0.316	-0.272
-373.829	-92.974	0.395	0.109
-372.815	-114.299	-0.145	0.028
-371.800	-8.852	0.400	0.264
-370.785	-200.000	-0.019	-0.114
-369.771	-21.345	-0.159	0.096
-368.756	-200.000	0.038	-0.221
-367.742	800.000	0.066	-0.196
-366.727	3.077	0.117	0.084
-365.712	-200.000	-0.016	-0.237
-364.698	-200.000	0.039	-0.214
-363.683	304.007	-0.064	-0.116
-362.669	-52.788	-0.437	-0.198
-361.654	-200.000	0.001	0.054
-360.639	344.754	0.182	0.350
-359.625	-122.543	0.216	0.035
-358.610	800.000	-0.033	0.135
-357.596	558.349	0.062	0.147
-356.581	33.893	-0.230	-0.197
-355.566	-183.351	0.208	-0.004
-354.552	211.916	0.165	-0.256
-353.537	116.747	-0.226	-0.273
-352.523	-131.399	0.217	0.028
-351.508	800.000	0.086	-0.339
-350.493	640.989	-0.124	0.311
-349.479	-32.462	-0.083	-0.045
-348.464	-200.000	-0.014	0.172
-347.450	-149.413	-0.158	-0.012
-346.435	418.315	0.081	-0.169
-345.420	235.470	0.109	-0.178
-344.406	134.071	0.088	0.111
-343.391	-169.585	0.137	0.005
-342.377	-80.805	-0.211	0.069
-341.362	800.000	0.117	0.341
-340.348	185.662	0.111	-0.162
-339.333	-77.751	0.155	-0.053
-338.318	63.483	-0.101	0.100
-337.304	800.000	-0.008	-0.034
-336.289	-90.835	0.339	0.096
-335.275	-176.302	0.318	-0.008
-334.260	121.595	-0.222	0.272
-333.245	321.532	-0.111	-0.207
-332.231	64.034	0.210	0.208
-331.216	116.122	0.177	0.213
-330.202	183.352	-0.081	0.118
-329.187	-200.000	0.026	0.150
-328.172	52.847	-0.195	0.183
-327.158	-2.412	-0.204	-0.141
-326.143	9.195	-0.146	0.108
-325.129	131.876	0.070	0.089
-324.114	2.233	0.080	0.057
-323.099	-39.868	0.333	0.171
-322.085	-38.199	-0.315	0.164
-321.070	16.104	-0.135	0.105
-320.056	-200.000	-0.029	-0.213
-319.041	300.043	-0.135	0.245
-318.026	324.217	-0.138	0.259
-317.012	-200.000	0.028	0.229
-315.997	167.622	0.156	0.218
-314.983	-107.375	0.233	0.050
-313.968	12.477	-0.134	-0.102
-312.953	71.984	0.064	-0.065
-311.939	751.245	0.083	-0.219
-310.924	-141.378	0.262	0.026
-309.910	114.541	0.107	0.128
-308.895	-86.894	-0.261	-0.078
-307.880	800.000	-0.029	0.110
-306.866	-200.000	-0.018	-0.101
-305.851	-72.267	-0.321	-0.117
-304.837	35.262	-0.245	0.211
-303.822	-100.731	-0.225	-0.054
-302.807	151.310	0.106	0.142
-301.793	-105.549	-0.265	-0.059
-300.778	501.273	-0.044	0.099
-299.764	800.000	0.019	0.066
-298.749	-151.130	0.226	-0.017
-297.735	657.533	-0.092	-0.232
-296.720	426.538	-0.051	-0.107
-295.705	-152.799	0.084	-0.006
-294.691	-84.017	-0.157	0.049
-293.676	185.955	-0.012	0.018
-292.662	-129.770	0.244	-0.033
-291.647	-113.026	-0.007	0.001
-290.632	-200.000	-0.001	0.049
-289.618	-177.158	0.167	-0.004
-288.603	-200.000	0.012	-0.111
-287.589	-11.823	0.263	0.169
-286.574	112.024	0.265	0.313
-285.559	24.014	-0.197	0.159
-284.545	186.214	0.146	0.213
-283.530	51.906	0.113	0.106
-282.516	-61.622	0.128	-0.053
-281.501	-200.000	0.034	0.251
-280.486	-200.000	0.026	0.305
-279.472	-200.000	0.093	0.470
-278.457	663.935	-0.046	0.116
-277.443	53.285	-0.158	0.149
-276.428	-42.113	-0.136	-0.068
-275.413	-110.531	-0.154	-0.031
-274.399	218.668	0.160	0.250
-273.384	327.230	0.107	0.201
-272.370	434.806	-0.101	0.216
-271.355	-146.708	0.235	-0.020
-270.340	237.632	0.100	-0.163
-269.326	27.960	0.111	-0.092
-268.311	-97.275	-0.182	0.046
-267.297	-200.000	-0.000	0.188
-266.282	78.613	0.060	0.062
-265.267	37.218	-0.254	0.221
-264.253	201.124	0.114	-0.172
-263.238	-84.532	0.219	-0.068
-262.224	-22.738	0.103	-0.061
-261.209	-200.000	0.030	0.218
-260.195	800.000	0.073	0.293
-259.180	800.000	0.076	-0.309
-258.165	432.575	-0.043	0.092
-257.151	800.000	-0.041	-0.122
-256.136	-95.781	-0.200	-0.052
-255.122	-3.149	-0.136	0.093
-254.107	25.833	-0.205	-0.167
-253.092	-34.427	0.200	-0.108
-252.078	139.016	0.105	0.136
-251.063	-138.477	0.175	-0.019
-250.049	43.423	-0.088	-0.079
-249.034	-200.000	-0.336	0.000
-248.019	-37.567	-0.100	-0.052
-247.005	-124.578	0.132	0.020
-245.990	33.218	-0.027	0.023
-244.976	-158.880	0.347	0.019
-243.961	-88.559	0.144	0.042
-242.946	-200.000	-0.003	-0.132
-241.932	-88.504	0.255	-0.075
-240.917	-200.000	0.021	-0.126
-239.903	205.113	-0.131	-0.198
-238.888	800.000	-0.084	0.343
-237.873	137.037	0.307	-0.393
-236.859	-100.823	-0.126	0.030
-235.844	214.026	-0.059	0.092
-234.830	-147.196	-0.140	0.012
-233.815	286.444	0.127	0.225
-232.800	-200.000	-0.051	0.471
-231.786	-122.102	0.119	-0.019
-230.771	235.671	-0.158	-0.256
-229.757	18.350	0.090	-0.070
-228.742	-200.000	-0.015	-0.153
-227.727	221.865	-0.120	-0.189
-226.713	-200.000	-0.083	-0.372
-225.698	-200.000	0.035	-0.399
-224.684	593.129	0.122	0.295
-223.669	-200.000	0.014	-0.375
-222.655	-92.956	0.153	0.042
-221.640	-143.959	-0.474	-0.044
-220.625	335.509	0.087	-0.166
-219.611	-200.000	-0.057	0.263
-218.596	-71.172	-0.192	-0.071
-217.582	13.057	-0.153	0.116
-216.567	48.866	0.164	0.150
-215.552	-56.926	0.102	-0.044
-214.538	218.645	0.166	-0.259
-213.523	-200.000	0.054	0.250
-212.509	397.018	0.035	0.072
-211.494	-55.096	-0.115	0.050
-210.479	-39.537	-0.158	-0.081
-209.465	-200.000	0.047	0.223
-208.450	-114.180	0.098	0.018
-207.436	-40.948	-0.117	-0.059
-206.421	-78.127	-0.217	-0.073
-205.406	57.133	0.130	-0.124
-204.392	-200.000	0.042	-0.302
-203.377	20.982	0.351	0.278
-202.363	84.694	-0.220	0.235
-201.348	-2.416	0.119	-0.082
-200.333	800.000	0.057	0.223
-199.319	-39.195	-0.315	-0.162
-198.304	-37.353	-0.010	0.005
-197.290	800.000	0.020	-0.053
-196.275	-47.803	0.306	0.145
-195.260	800.000	0.064	0.222
-194.246	226.652	0.045	-0.072
-193.231	763.529	-0.040	-0.106
-192.217	203.766	0.097	-0.147
-191.202	-76.841	-0.108	0.037
-190.187	-200.000	0.028	0.422
-189.173	182.200	0.081	0.116
-188.158	-200.000	-0.090	0.476
-187.144	800.000	0.027	-0.096
-186.129	-200.000	-0.001	-0.045
-185.114	-84.418	0.169	0.052
-184.100	-27.858	0.261	0.148
-183.085	116.634	0.121	-0.145
-182.071	409.018	0.090	-0.186
-181.056	60.866	0.127	-0.123
-180.042	-116.713	0.089	-0.016
-179.027	145.349	0.266	0.347
-178.012	-200.000	0.033	0.362
-176.998	93.994	-0.198	-0.219
-175.983	-37.437	0.184	-0.096
-174.969	-53.630	0.084	0.038
-173.954	724.390	0.081	-0.211
-172.939	471.952	-0.015	0.034
-171.925	-63.927	0.273	0.109
-170.910	-69.489	-0.194	0.073
-169.896	-44.047	0.016	0.008
-168.881	-91.083	0.200	-0.056
-167.866	-18.150	-0.085	0.052
-166.852	279.615	-0.043	0.075
-165.837	-151.620	-0.083	0.006
-164.823	-200.000	0.041	0.394
-163.808	563.040	0.028	-0.067
-162.793	-57.892	0.310	-0.132
-161.779	-86.415	-0.260	0.078
-160.764	-74.425	-0.239	-0.084
-159.750	58.402	0.106	0.102
-158.735	-200.000	0.035	-0.213
-157.720	72.747	0.091	-0.092
-156.706	-200.000	0.006	0.187
-155.691	-42.134	-0.317	0.158
-154.677	-93.766	0.284	0.076
-153.662	-105.459	0.133	-0.029
-152.647	158.277	-0.032	-0.044
-151.633	-200.000	0.043	-0.249
-150.618	-52.368	0.224	0.101
-149.604	30.870	0.150	0.126
-148.589	-200.000	-0.017	0.180
-147.574	-190.075	0.156	-0.002
-146.560	-135.194	-0.243	-0.028
-145.545	93.685	-0.073	0.080
-144.531	-200.000	0.024	0.242
-143.516	97.939	0.161	-0.180
-142.502	-115.684	0.346	-0.063
-141.487	37.003	-0.122	0.105
-140.472	484.747	0.041	0.092
-139.458	-59.109	0.123	-0.052
-138.443	-200.000	0.005	0.271
-137.429	402.211	0.133	0.273
-136.414	79.115	-0.142	-0.149
-135.399	51.581	0.192	0.178
-134.385	192.347	-0.053	-0.079
-133.370	-34.684	-0.312	-0.166
-132.356	146.426	-0.123	-0.161
-131.341	-116.953	0.040	-0.007
-130.326	337.500	0.121	0.230
-129.312	130.863	0.174	-0.217
-128.297	-98.476	-0.309	0.077
-127.283	-57.942	0.112	-0.048
-126.268	-200.000	0.013	0.407
-125.253	800.000	-0.119	0.381
-124.239	10.657	0.351	0.261
-123.224	-38.699	-0.088	-0.045
-122.210	86.494	-0.216	0.232
