DTS Sentinel unit serial number:	SN413079Multiplexer serial number:	ORYXHardware model number:	OX4-SRSoftware version number:	ORYX F/W v4.00 Oryx Data Collector v3.7.2.0data status	okinstallation	princeton_trtdifferential loss correction	single-endedforward channel	channel 2reverse channel	N/Adate	2019/09/10time	23:49:11forward acquisition time	60.00reverse acquisition time	0.00gamma	496.2192k internal	0.2331k external	0.2331temperature offset calibration	0.9947default loss term (dB/km)	0.3790temperature slope calibration	1.0000multiplexer offset coefficient	1.0000multiplexer slope coefficient	1.0000fibre end	0.00T internal ref (°C)	29.52T ext. ref 1 (°C)	-0.30T ext. ref 2 (°C)	22.99length (m)	temperature (°C)	Stokes	anti-Stokes-747.200	-200.000	-0.006	0.124
-746.185	-54.121	-0.178	-0.081
-745.171	130.759	0.065	-0.085
-744.156	-71.428	-0.042	-0.016
-743.142	-151.168	0.196	0.015
-742.127	29.711	0.087	-0.075
-741.112	-63.505	0.257	-0.106
-740.098	-200.000	-0.007	0.131
-739.083	-166.718	-0.127	0.005
-738.069	273.727	0.057	0.101
-737.054	646.391	0.019	0.049
-736.039	715.167	0.084	-0.224
-735.025	527.636	-0.087	-0.207
-734.010	-49.538	-0.216	-0.104
-732.996	-39.982	0.283	-0.148
-731.981	-200.000	-0.021	-0.133
-730.966	-137.867	-0.271	0.031
-729.952	-95.680	-0.273	-0.074
-728.937	292.465	-0.075	0.137
-727.923	49.788	-0.150	-0.143
-726.908	-40.486	0.029	-0.015
-725.894	-6.356	0.096	-0.066
-724.879	-200.000	-0.027	-0.345
-723.864	-200.000	-0.011	-0.216
-722.850	-105.966	-0.368	0.083
-721.835	-200.000	-0.010	-0.174
-720.821	-118.882	0.076	0.013
-719.806	-144.169	-0.399	0.037
-718.791	-137.681	-0.267	0.030
-717.777	-46.321	-0.313	0.154
-716.762	-200.000	-0.016	-0.254
-715.748	-41.191	-0.252	-0.131
-714.733	-157.221	-0.363	-0.022
-713.718	114.303	0.271	-0.332
-712.704	800.000	0.042	-0.124
-711.689	0.220	0.121	0.087
-710.675	237.438	-0.155	-0.259
-709.660	-137.615	-0.296	0.033
-708.645	65.133	-0.135	0.137
-707.631	121.281	0.118	-0.147
-706.616	-95.506	0.239	-0.064
-705.602	800.000	0.123	-0.344
-704.587	800.000	-0.094	0.325
-703.572	87.517	-0.252	0.280
-702.558	-200.000	-0.069	-0.340
-701.543	30.520	0.049	-0.042
-700.529	-200.000	-0.013	-0.444
-699.514	147.665	0.147	0.199
-698.499	197.103	0.033	0.050
-697.485	115.724	-0.040	0.049
-696.470	464.430	-0.095	-0.214
-695.456	-145.736	0.218	0.020
-694.441	163.383	-0.096	0.136
-693.426	-111.930	-0.067	-0.014
-692.412	-49.339	0.224	0.107
-691.397	800.000	-0.045	-0.167
-690.383	231.612	0.118	-0.195
-689.368	331.002	0.234	-0.453
-688.354	800.000	-0.054	0.238
-687.339	327.406	0.071	-0.137
-686.324	-12.998	-0.035	0.023
-685.310	-44.717	-0.264	-0.132
-684.295	-165.468	-0.254	-0.011
-683.281	-31.860	0.092	-0.052
-682.266	233.949	-0.038	-0.063
-681.251	-13.452	-0.186	-0.121
-680.237	-76.546	0.209	0.074
-679.222	153.825	0.093	0.128
-678.208	2.144	-0.343	0.249
-677.193	-200.000	0.012	-0.089
-676.178	-60.938	-0.320	-0.136
-675.164	-13.300	0.108	-0.070
-674.149	103.575	-0.160	-0.188
-673.135	342.354	-0.127	0.249
-672.120	-42.499	0.191	-0.097
-671.105	195.599	-0.058	-0.088
-670.091	-131.454	-0.093	0.012
-669.076	42.346	-0.243	-0.222
-668.062	18.428	-0.299	-0.240
-667.047	800.000	-0.004	-0.013
-666.032	109.394	-0.130	0.156
-665.018	602.536	-0.191	0.477
-664.003	127.786	-0.157	0.200
-662.989	-194.052	0.194	0.002
-661.974	-27.096	-0.396	0.231
-660.959	-91.544	-0.016	0.005
-659.945	-200.000	-0.033	0.221
-658.930	-140.092	-0.173	0.018
-657.916	-146.412	0.197	-0.017
-656.901	-200.000	-0.030	-0.256
-655.886	16.766	0.092	-0.073
-654.872	-73.681	0.185	0.067
-653.857	25.055	-0.369	-0.307
-652.843	-142.299	-0.113	-0.011
-651.828	-200.000	-0.012	0.110
-650.814	252.997	-0.058	0.100
-649.799	800.000	-0.050	0.171
-648.784	800.000	0.044	-0.125
-647.770	-200.000	-0.018	0.116
-646.755	37.734	-0.156	0.139
-645.741	333.475	-0.074	-0.143
-644.726	-11.144	-0.027	-0.018
-643.711	800.000	-0.026	0.114
-642.697	51.853	-0.162	0.155
-641.682	141.679	0.090	0.120
-640.668	-200.000	-0.109	0.000
-639.653	-141.093	0.076	-0.008
-638.638	800.000	-0.036	0.135
-637.624	-119.503	-0.205	0.036
-636.609	-25.189	-0.339	0.202
-635.595	3.402	-0.412	-0.301
-634.580	-87.315	0.278	0.085
-633.565	209.227	-0.039	-0.061
-632.551	-200.000	0.004	0.134
-631.536	-44.690	0.167	-0.083
-630.522	9.802	0.245	0.186
-629.507	583.692	-0.076	-0.186
-628.492	-200.000	-0.057	-0.291
-627.478	173.855	-0.385	-0.557
-626.463	231.210	0.183	0.301
-625.449	-89.499	0.074	-0.022
-624.434	-121.833	0.093	-0.015
-623.419	447.587	-0.093	0.204
-622.405	-41.645	-0.018	-0.009
-621.390	-200.000	0.036	0.199
-620.376	-109.461	-0.175	0.037
-619.361	-143.167	-0.256	0.025
-618.346	298.532	0.248	-0.457
-617.332	-200.000	-0.003	0.061
-616.317	-85.911	0.254	-0.079
-615.303	114.064	0.085	-0.103
-614.288	-177.821	0.069	-0.002
-613.273	381.041	-0.174	-0.357
-612.259	800.000	0.078	0.261
-611.244	-141.498	-0.400	0.040
-610.230	-62.898	0.164	0.068
-609.215	800.000	-0.025	-0.094
-608.201	727.593	0.125	-0.333
-607.186	-200.000	0.070	-0.383
-606.171	-200.000	0.011	-0.148
-605.157	144.957	0.119	-0.159
-604.142	800.000	-0.143	-0.567
-603.128	357.128	-0.073	0.145
-602.113	-86.913	-0.063	0.019
-601.098	-200.000	-0.049	-0.279
-600.084	-200.000	-0.002	0.207
-599.069	-200.000	-0.025	-0.151
-598.055	220.751	-0.169	-0.271
-597.040	-133.214	-0.249	-0.031
-596.025	124.992	0.127	-0.160
-595.011	77.724	0.170	-0.181
-593.996	-24.566	-0.132	0.078
-592.982	-6.639	0.211	-0.144
-591.967	433.078	-0.103	-0.225
-590.952	143.955	0.060	-0.080
-589.938	-141.054	0.149	-0.015
-588.923	-200.000	0.008	0.049
-587.909	203.666	0.160	-0.248
-586.894	-2.330	0.327	0.229
-585.879	-200.000	0.017	0.423
-584.865	-19.082	0.231	-0.144
-583.850	74.319	-0.336	-0.353
-582.836	-76.200	-0.323	-0.114
-581.821	800.000	0.043	-0.137
-580.806	184.516	0.043	-0.064
-579.792	-9.914	-0.291	-0.194
-578.777	36.274	0.024	0.021
-577.763	78.788	-0.121	0.130
-576.748	724.611	-0.090	0.240
-575.733	69.394	-0.031	0.032
-574.719	90.447	-0.167	-0.186
-573.704	-118.868	-0.219	0.039
-572.690	300.961	0.067	0.124
-571.675	-91.741	-0.310	-0.088
-570.661	368.495	0.127	0.256
-569.646	800.000	0.051	0.185
-568.631	80.257	0.121	-0.130
-567.617	-200.000	0.042	-0.226
-566.602	-119.972	-0.210	-0.036
-565.588	34.514	0.075	0.066
-564.573	-46.359	0.035	0.017
-563.558	-158.982	-0.162	0.009
-562.544	-200.000	0.022	0.125
-561.529	58.086	-0.134	0.131
-560.515	-200.000	-0.002	0.082
-559.500	-0.263	0.127	-0.090
-558.485	-200.000	0.000	-0.458
-557.471	-47.981	-0.272	0.131
-556.456	44.973	-0.152	0.140
-555.442	-161.731	0.356	-0.018
-554.427	-72.223	0.269	0.099
-553.412	-200.000	0.002	0.062
-552.398	-126.199	-0.111	0.017
-551.383	380.798	-0.026	-0.053
-550.369	-97.210	0.238	-0.062
-549.354	16.304	-0.197	-0.155
-548.339	-161.377	0.087	-0.004
-547.325	-200.000	0.075	-0.333
-546.310	-200.000	0.006	-0.185
-545.296	-200.000	0.022	-0.160
-544.281	-200.000	-0.027	0.168
-543.266	61.703	-0.102	0.101
-542.252	250.065	-0.117	-0.198
-541.237	-200.000	-0.022	-0.405
-540.223	-105.429	0.090	0.020
-539.208	167.901	-0.030	0.043
-538.193	206.133	0.154	0.239
-537.179	800.000	-0.056	0.241
-536.164	148.889	-0.157	0.212
-535.150	-11.781	0.057	0.037
-534.135	117.009	0.102	-0.125
-533.121	-105.083	-0.410	-0.094
-532.106	-35.770	-0.393	-0.212
-531.091	-200.000	0.038	0.402
-530.077	72.676	0.072	0.075
-529.062	2.655	-0.298	-0.216
-528.048	255.812	0.195	-0.334
-527.033	-200.000	0.049	0.301
-526.018	-200.000	-0.043	0.403
-525.004	538.465	-0.112	0.266
-523.989	465.169	0.087	0.194
-522.975	-150.841	0.106	-0.008
-521.960	-120.542	0.141	0.024
-520.945	-27.444	-0.245	-0.142
-519.931	800.000	-0.037	-0.157
-518.916	184.470	-0.129	-0.191
-517.902	-200.000	-0.002	-0.036
-516.887	-200.000	-0.012	0.160
-515.872	-144.417	-0.092	-0.008
-514.858	-167.232	0.234	0.009
-513.843	146.094	-0.149	0.199
-512.829	-142.333	0.128	-0.013
-511.814	52.930	0.142	0.136
-510.799	-146.021	-0.255	0.023
-509.785	52.998	0.115	-0.110
-508.770	-12.090	0.321	-0.210
-507.756	-138.549	0.317	0.035
-506.741	800.000	0.122	-0.463
-505.726	-81.868	-0.094	0.031
-504.712	-163.285	0.324	-0.015
-503.697	800.000	-0.103	0.410
-502.683	-97.582	-0.084	-0.022
-501.668	-23.862	-0.131	-0.078
-500.653	-65.856	-0.158	0.063
-499.639	-21.656	0.263	-0.160
-498.624	-107.043	0.253	0.056
-497.610	-126.449	-0.289	0.043
-496.595	-111.813	-0.349	-0.070
-495.581	-200.000	0.061	-0.521
-494.566	50.052	-0.290	0.273
-493.551	-200.000	0.026	-0.345
-492.537	800.000	-0.068	-0.212
-491.522	-200.000	0.006	0.055
-490.508	-200.000	0.008	0.194
-489.493	26.749	-0.286	-0.238
-488.478	28.428	-0.090	-0.076
-487.464	-12.940	0.314	0.204
-486.449	800.000	-0.025	-0.079
-485.435	800.000	0.045	-0.169
-484.420	-200.000	-0.010	0.108
-483.405	-200.000	0.010	0.079
-482.391	26.441	-0.088	-0.074
-481.376	605.656	-0.021	0.053
-480.362	-100.948	-0.232	0.057
-479.347	-38.647	0.179	0.094
-478.332	-200.000	0.016	-0.116
-477.318	770.813	0.125	0.340
-476.303	358.158	-0.062	0.123
-475.289	80.387	0.276	-0.296
-474.274	106.213	-0.299	-0.353
-473.259	-95.852	-0.304	-0.081
-472.245	321.376	-0.194	-0.367
-471.230	-45.705	-0.302	-0.149
-470.216	-142.219	-0.155	0.015
-469.201	-200.000	-0.015	0.179
-468.186	35.050	-0.152	0.132
-467.172	19.697	-0.228	0.183
-466.157	435.268	0.183	0.396
-465.143	-200.000	-0.037	0.298
-464.128	-200.000	-0.014	-0.243
-463.113	290.574	0.106	-0.193
-462.099	-101.783	-0.133	-0.032
-461.084	156.932	0.031	-0.043
-460.070	-200.000	-0.014	-0.088
-459.055	257.342	0.155	-0.266
-458.040	-200.000	-0.029	0.134
-457.026	800.000	0.062	0.196
-456.011	-119.065	-0.267	0.047
-454.997	-200.000	0.009	-0.138
-453.982	-33.643	0.243	-0.133
-452.968	114.223	0.076	0.092
-451.953	-200.000	-0.006	-0.085
-450.938	-178.986	-0.441	0.010
-449.924	-144.119	-0.251	0.023
-448.909	26.465	0.313	-0.261
-447.895	175.682	-0.079	-0.115
-446.880	800.000	0.106	-0.296
-445.865	106.629	-0.250	-0.296
-444.851	-200.000	0.012	0.215
-443.836	800.000	-0.108	-0.385
-442.822	155.186	-0.016	-0.022
-441.807	-135.513	-0.228	-0.027
-440.792	369.831	0.132	-0.265
-439.778	48.499	-0.183	0.170
-438.763	94.362	0.153	0.173
-437.749	513.505	-0.024	-0.055
-436.734	-200.000	-0.003	-0.336
-435.719	-109.014	0.244	-0.052
-434.705	-65.650	0.244	0.097
-433.690	-97.970	0.175	-0.045
-432.676	-200.000	0.054	-0.251
-431.661	0.269	0.097	0.069
-430.646	-93.836	0.157	-0.043
-429.632	-130.525	0.187	0.025
-428.617	-92.556	-0.162	0.045
-427.603	180.568	-0.054	0.079
-426.588	-140.618	-0.239	-0.025
-425.573	-126.219	-0.526	-0.078
-424.559	10.449	0.166	-0.126
-423.544	-158.093	0.317	0.019
-422.530	633.405	-0.076	-0.190
-421.515	-25.468	-0.160	0.094
-420.500	57.851	-0.084	0.082
-419.486	-200.000	-0.016	0.077
-418.471	-111.486	0.230	-0.047
-417.457	8.616	0.191	0.143
-416.442	800.000	0.050	0.139
-415.428	-138.724	-0.157	-0.017
-414.413	-66.038	0.255	-0.101
-413.398	-85.423	0.267	-0.083
-412.384	800.000	-0.020	0.055
-411.369	52.524	-0.100	-0.095
-410.355	-64.211	0.041	-0.017
-409.340	161.172	-0.196	-0.272
-408.325	75.283	-0.181	0.190
-407.311	512.431	0.147	0.341
-406.296	-99.908	-0.110	0.027
-405.282	-200.000	0.043	-0.404
-404.267	800.000	-0.086	-0.236
-403.252	4.139	0.135	-0.098
-402.238	-200.000	-0.044	-0.210
-401.223	-91.507	0.226	0.064
-400.209	306.036	-0.128	-0.236
-399.194	-200.000	0.026	0.129
-398.179	-162.053	-0.131	-0.007
-397.165	92.028	-0.206	0.230
-396.150	-200.000	0.034	0.282
-395.136	74.580	0.240	0.250
-394.121	324.096	-0.078	0.148
-393.106	800.000	-0.065	-0.211
-392.092	-131.969	0.193	0.025
-391.077	800.000	0.063	0.225
-390.063	205.358	0.047	-0.072
-389.048	164.105	0.187	0.261
-388.033	35.881	-0.053	0.047
-387.019	260.583	-0.086	-0.148
-386.004	-200.000	-0.069	-0.323
-384.990	-184.959	0.292	0.005
-383.975	-103.584	-0.069	0.016
-382.960	-200.000	0.003	0.296
-381.946	-41.901	-0.250	-0.127
-380.931	421.583	0.051	0.109
-379.917	-117.436	-0.109	-0.020
-378.902	800.000	0.028	0.080
-377.888	133.516	0.132	0.169
-376.873	436.993	-0.142	-0.307
-375.858	22.165	-0.213	-0.173
-374.844	-45.986	0.260	0.127
-373.829	-200.000	0.041	-0.222
-372.815	203.544	0.150	-0.230
-371.800	800.000	-0.101	-0.382
-370.785	50.004	0.163	0.153
-369.771	333.359	-0.025	0.048
-368.756	240.898	-0.127	-0.211
-367.742	800.000	0.036	0.113
-366.727	-23.826	0.253	-0.150
-365.712	209.598	0.112	0.174
-364.698	-200.000	-0.018	-0.181
-363.683	371.599	0.034	-0.068
-362.669	800.000	0.118	-0.498
-361.654	102.390	0.043	-0.050
-360.639	-125.050	0.009	-0.001
-359.625	-200.000	0.015	-0.162
-358.610	-52.561	-0.170	0.078
-357.596	-57.379	0.207	0.090
-356.581	297.148	0.025	0.046
-355.566	273.689	-0.032	0.057
-354.552	433.626	-0.040	0.086
-353.537	-99.712	-0.180	0.045
-352.523	-187.564	0.212	0.003
-351.508	123.272	0.107	0.132
-350.493	-136.282	-0.175	0.020
-349.479	-200.000	0.028	0.263
-348.464	-200.000	-0.025	0.181
-347.450	514.708	-0.133	0.308
-346.435	51.656	0.119	-0.112
-345.420	-200.000	0.002	-0.107
-344.406	-135.046	0.070	-0.008
-343.391	-134.713	-0.158	-0.019
-342.377	-18.583	0.244	0.151
-341.362	-200.000	0.006	0.086
-340.348	11.435	-0.114	-0.087
-339.333	353.496	-0.137	0.270
-338.318	-200.000	-0.020	0.169
-337.304	800.000	-0.059	-0.254
-336.289	186.881	0.146	0.215
-335.275	85.369	0.098	-0.106
-334.260	800.000	0.088	-0.341
-333.245	16.289	0.066	0.051
-332.231	-93.656	-0.107	-0.029
-331.216	419.987	0.069	0.146
-330.202	-95.134	-0.184	0.049
-329.187	69.387	-0.188	0.191
-328.172	-200.000	-0.046	-0.242
-327.158	349.613	-0.114	0.223
-326.143	-200.000	-0.043	0.251
-325.129	-67.235	0.289	0.113
-324.114	-145.384	0.304	0.027
-323.099	800.000	-0.122	-0.366
-322.085	-122.885	-0.109	0.017
-321.070	800.000	-0.033	-0.092
-320.056	110.443	-0.071	0.085
-319.041	-47.969	-0.179	0.086
-318.026	-142.995	-0.409	-0.039
-317.012	-105.615	0.384	0.086
-315.997	6.268	0.032	0.024
-314.983	386.557	0.060	-0.123
-313.968	-176.777	-0.278	-0.007
-312.953	-200.000	0.001	-0.398
-311.939	-123.985	-0.101	-0.016
-310.924	-104.696	-0.100	-0.023
-309.910	216.983	-0.147	0.231
-308.895	-155.287	-0.336	0.022
-307.880	-16.394	-0.157	0.099
-306.866	800.000	0.033	0.117
-305.851	117.719	0.034	0.041
-304.837	-12.942	-0.076	-0.049
-303.822	800.000	0.043	0.159
-302.807	31.616	-0.086	-0.073
-301.793	-144.445	-0.021	0.002
-300.778	-200.000	0.033	0.293
-299.764	123.259	-0.014	-0.018
-298.749	20.010	0.177	0.141
-297.735	-200.000	-0.008	0.200
-296.720	381.241	-0.022	-0.046
-295.705	76.434	-0.176	0.184
-294.691	-159.835	-0.039	-0.002
-293.676	-79.166	0.049	-0.016
-292.662	-98.786	-0.299	-0.075
-291.647	800.000	-0.074	0.239
-290.632	725.065	0.119	-0.314
-289.618	-55.515	-0.044	-0.019
-288.603	49.299	-0.166	0.154
-287.589	69.933	-0.100	-0.102
-286.574	-200.000	0.043	0.231
-285.559	-82.166	0.057	-0.018
-284.545	78.974	0.196	0.207
-283.530	800.000	0.120	0.404
-282.516	-200.000	-0.155	0.786
-281.501	-200.000	0.033	0.308
-280.486	-200.000	0.013	0.196
-279.472	40.821	0.196	0.175
-278.457	65.503	0.168	-0.168
-277.443	-200.000	0.027	-0.190
-276.428	-13.230	0.047	-0.030
-275.413	-30.205	-0.296	0.166
-274.399	50.633	-0.436	0.408
-273.384	19.923	0.227	-0.181
-272.370	-200.000	-0.081	-0.418
-271.355	53.205	0.172	-0.163
-270.340	-31.342	0.076	-0.042
-269.326	-45.837	-0.222	0.108
-268.311	5.537	-0.272	-0.198
-267.297	-120.488	0.303	0.051
-266.282	-114.196	0.201	-0.038
-265.267	270.735	0.125	0.217
-264.253	583.289	0.028	-0.067
-263.238	-200.000	0.014	0.110
-262.224	-174.269	0.035	0.001
-261.209	-172.170	0.428	0.014
-260.195	145.414	-0.202	0.267
-259.180	-52.069	0.150	-0.069
-258.165	800.000	0.078	0.246
-257.151	-200.000	0.033	0.246
-256.136	-22.881	-0.186	0.111
-255.122	-200.000	0.041	-0.368
-254.107	212.385	-0.086	0.134
-253.092	-102.839	0.136	-0.032
-252.078	38.693	-0.113	0.100
-251.063	293.052	-0.104	0.187
-250.049	-48.123	0.087	-0.042
-249.034	-200.000	0.017	-0.478
-248.019	800.000	0.010	0.031
-247.005	434.947	0.121	0.259
-245.990	-89.501	-0.208	-0.060
-244.976	800.000	0.069	-0.191
-243.961	800.000	0.049	0.144
-242.946	268.798	-0.118	0.204
-241.932	94.802	-0.179	-0.201
-240.917	800.000	-0.088	0.313
-239.903	-113.444	0.474	0.092
-238.888	-119.194	0.300	0.052
-237.873	-82.542	0.289	0.092
-236.859	-200.000	0.032	0.258
-235.844	-200.000	-0.010	0.182
-234.830	-81.154	-0.407	-0.133
-233.815	800.000	0.158	-0.472
-232.800	48.452	0.122	0.113
-231.786	4.138	0.082	-0.060
-230.771	277.009	0.063	-0.110
-229.757	-131.931	0.393	-0.051
-228.742	800.000	0.026	-0.078
-227.727	-17.400	0.080	0.050
-226.713	-117.591	-0.191	0.034
-225.698	209.889	-0.130	0.201
-224.684	62.340	-0.083	-0.082
-223.669	-91.844	0.135	0.038
-222.655	-3.238	0.141	0.097
-221.640	-159.736	0.163	0.009
-220.625	-200.000	0.023	0.134
-219.611	-135.416	0.178	-0.021
-218.596	-115.098	-0.413	0.077
-217.582	800.000	0.043	-0.155
-216.567	-15.872	-0.222	0.139
-215.552	-36.799	0.328	-0.174
-214.538	800.000	-0.016	-0.052
-213.523	32.428	-0.246	-0.209
-212.509	38.553	-0.227	-0.199
-211.494	-66.172	0.323	0.127
-210.479	53.406	0.238	-0.225
-209.465	-149.464	0.188	-0.015
-208.450	192.826	-0.013	-0.019
-207.436	-50.538	-0.054	0.025
-206.421	-55.263	0.312	0.138
-205.406	311.172	0.192	0.354
-204.392	61.728	0.209	0.205
-203.377	-63.437	-0.427	0.173
-202.363	-66.676	0.299	0.117
-201.348	-200.000	0.031	0.321
-200.333	-200.000	0.073	-0.448
-199.319	-200.000	-0.037	-0.175
-198.304	-46.685	-0.335	-0.162
-197.290	-109.457	-0.298	0.062
-196.275	-90.224	-0.063	0.018
-195.260	-177.080	0.311	0.008
-194.246	800.000	-0.044	0.176
-193.231	-116.285	-0.184	0.034
-192.217	-174.920	0.123	0.003
-191.202	-93.671	0.353	-0.096
-190.187	-200.000	0.068	0.313
-189.173	-63.148	-0.134	-0.055
-188.158	-200.000	0.007	0.186
-187.144	-130.287	0.236	0.032
-186.129	143.701	0.180	0.236
-185.114	14.598	0.046	0.036
-184.100	255.481	0.076	-0.128
-183.085	-47.895	-0.200	0.095
-182.071	-48.105	-0.119	0.057
-181.056	-162.575	-0.303	-0.015
-180.042	95.896	0.282	0.317
-179.027	87.696	-0.054	-0.059
-178.012	-150.073	0.237	-0.018
-176.998	-200.000	-0.056	0.362
-175.983	-187.627	0.582	-0.008
-174.969	-9.035	0.168	0.111
-173.954	-131.531	0.341	-0.044
-172.939	800.000	-0.062	0.237
-171.925	-70.393	0.062	0.023
-170.910	22.541	-0.118	-0.095
-169.896	102.754	-0.125	0.144
-168.881	280.178	0.035	-0.061
-167.866	88.170	0.090	-0.098
-166.852	-200.000	0.016	0.192
-165.837	162.995	0.227	-0.314
-164.823	-81.296	0.241	0.078
-163.808	34.080	-0.178	0.152
-162.793	-115.696	0.236	-0.043
-161.779	57.787	-0.141	-0.135
-160.764	249.168	0.174	0.290
-159.750	-136.411	0.245	-0.028
-158.735	60.217	-0.074	0.072
-157.720	-81.260	-0.093	0.030
-156.706	29.424	0.090	0.075
-155.691	-39.102	-0.081	0.042
-154.677	420.178	-0.140	0.295
-153.662	9.344	0.261	-0.194
-152.647	187.205	-0.088	-0.129
-151.633	39.880	0.119	-0.105
-150.618	43.277	0.189	0.170
-149.604	-200.000	-0.030	-0.193
-148.589	52.394	0.050	0.047
-147.574	18.717	0.224	0.176
-146.560	-200.000	0.000	0.188
-145.545	-30.485	-0.107	0.060
-144.531	560.644	0.042	0.101
-143.516	49.768	0.187	0.173
-142.502	-200.000	0.006	0.171
-141.487	340.490	-0.184	-0.352
-140.472	-200.000	-0.042	0.210
-139.458	-200.000	0.009	-0.287
-138.443	-200.000	-0.008	0.199
-137.429	800.000	0.031	0.108
-136.414	177.824	0.113	0.161
-135.399	-200.000	0.038	-0.190
-134.385	-200.000	0.037	0.214
-133.370	-200.000	0.006	0.168
-132.356	96.815	-0.146	-0.164
-131.341	-99.814	0.436	0.107
-130.326	292.532	0.027	0.049
-129.312	-63.389	-0.157	0.064
-128.297	-31.102	-0.104	-0.058
-127.283	-35.746	-0.221	-0.118
-126.268	-74.768	0.178	0.063
-125.253	20.328	-0.155	0.123
-124.239	346.797	-0.105	0.202
-123.224	-142.523	0.112	0.011
-122.210	-81.828	0.194	0.062
