DTS Sentinel unit serial number:	SN413079Multiplexer serial number:	ORYXHardware model number:	OX4-SRSoftware version number:	ORYX F/W v4.00 Oryx Data Collector v3.7.2.0data status	okinstallation	princeton_trtdifferential loss correction	single-endedforward channel	channel 2reverse channel	N/Adate	2019/09/10time	17:33:11forward acquisition time	60.00reverse acquisition time	0.00gamma	496.2192k internal	0.2310k external	0.2310temperature offset calibration	0.9934default loss term (dB/km)	0.3790temperature slope calibration	1.0000multiplexer offset coefficient	1.0000multiplexer slope coefficient	1.0000fibre end	0.00T internal ref (°C)	37.66T ext. ref 1 (°C)	-0.34T ext. ref 2 (°C)	31.65length (m)	temperature (°C)	Stokes	anti-Stokes-747.200	49.679	0.043	-0.041
-746.185	405.248	0.076	0.162
-745.171	800.000	-0.085	-0.265
-744.156	800.000	0.053	0.177
-743.142	-117.883	0.037	0.007
-742.127	800.000	0.077	0.216
-741.112	-137.105	-0.197	-0.023
-740.098	137.605	0.165	-0.220
-739.083	-25.231	-0.044	-0.027
-738.069	800.000	-0.029	-0.110
-737.054	-200.000	-0.022	0.408
-736.039	126.461	-0.080	-0.103
-735.025	-60.365	0.500	-0.216
-734.010	-87.319	-0.284	0.087
-732.996	-200.000	0.040	-0.322
-731.981	800.000	0.002	-0.007
-730.966	-200.000	-0.013	0.196
-729.952	-16.905	-0.178	-0.114
-728.937	418.454	0.035	0.076
-727.923	-68.280	0.297	-0.117
-726.908	-200.000	0.000	0.044
-725.894	141.318	-0.117	-0.157
-724.879	231.263	0.103	-0.172
-723.864	800.000	-0.093	-0.274
-722.850	-24.535	-0.087	0.053
-721.835	-200.000	-0.054	0.252
-720.821	-200.000	0.030	-0.216
-719.806	142.094	-0.036	-0.049
-718.791	81.814	-0.231	-0.253
-717.777	605.766	0.123	0.310
-716.762	-60.049	0.316	-0.137
-715.748	251.444	0.258	-0.445
-714.733	699.561	0.022	0.060
-713.718	-11.439	-0.300	-0.200
-712.704	800.000	-0.105	-0.344
-711.689	-103.147	0.200	-0.048
-710.675	43.298	-0.239	0.221
-709.660	-200.000	0.034	-0.258
-708.645	80.637	-0.144	0.157
-707.631	458.847	-0.207	-0.467
-706.616	704.455	-0.113	-0.301
-705.602	-200.000	0.021	-0.278
-704.587	-120.360	-0.115	-0.020
-703.572	-147.682	0.463	-0.039
-702.558	-200.000	-0.010	0.238
-701.543	175.859	-0.247	-0.364
-700.529	-200.000	0.002	0.245
-699.514	118.527	-0.121	-0.152
-698.499	96.698	-0.059	0.069
-697.485	66.662	-0.041	-0.042
-696.470	361.570	-0.058	-0.117
-695.456	-33.266	-0.280	-0.157
-694.441	563.115	0.059	0.145
-693.426	27.537	0.187	0.159
-692.412	-31.964	-0.174	-0.099
-691.397	220.640	0.153	0.249
-690.383	-55.700	-0.544	0.247
-689.368	-155.400	-0.369	-0.024
-688.354	-52.224	-0.294	0.138
-687.339	-92.110	-0.242	0.069
-686.324	-200.000	-0.034	-0.220
-685.310	-16.662	0.069	0.044
-684.295	237.069	-0.106	0.178
-683.281	-165.087	-0.246	-0.011
-682.266	-7.681	-0.269	-0.184
-681.251	15.117	-0.143	-0.114
-680.237	160.782	-0.004	0.006
-679.222	34.142	0.221	-0.196
-678.208	108.067	0.019	0.023
-677.193	73.906	0.167	-0.178
-676.178	-200.000	0.018	-0.286
-675.164	115.587	0.311	-0.385
-674.149	-3.746	0.150	-0.106
-673.135	800.000	-0.055	-0.181
-672.120	-10.708	-0.161	-0.108
-671.105	-112.238	0.108	-0.022
-670.091	-44.862	-0.158	-0.080
-669.076	193.863	-0.294	-0.450
-668.062	114.616	-0.129	-0.159
-667.047	43.544	0.256	-0.237
-666.032	-200.000	-0.015	-0.080
-665.018	-48.786	-0.299	0.145
-664.003	-9.866	0.153	-0.103
-662.989	482.558	0.051	0.117
-661.974	46.088	-0.163	-0.153
-660.959	70.027	-0.101	0.106
-659.945	-67.863	0.090	0.035
-658.930	115.291	0.030	0.037
-657.916	800.000	-0.058	0.220
-656.901	-168.090	-0.288	0.011
-655.886	283.575	-0.060	-0.109
-654.872	-65.270	-0.110	-0.045
-653.857	800.000	0.110	0.322
-652.843	-20.049	0.211	0.132
-651.828	204.649	-0.165	-0.259
-650.814	800.000	-0.087	-0.304
-649.799	56.453	0.243	0.239
-648.784	-200.000	-0.039	-0.205
-647.770	102.430	0.358	-0.423
-646.755	-200.000	-0.036	0.250
-645.741	800.000	0.079	-0.270
-644.726	158.914	-0.162	-0.227
-643.711	-200.000	0.070	-0.400
-642.697	800.000	-0.043	-0.191
-641.682	-200.000	-0.077	-0.423
-640.668	-61.364	0.280	0.119
-639.653	336.709	-0.051	0.100
-638.638	-51.858	0.115	0.054
-637.624	-93.480	-0.310	0.087
-636.609	-200.000	-0.056	0.292
-635.595	-38.594	-0.137	-0.073
-634.580	212.628	-0.134	-0.214
-633.565	65.856	0.198	0.203
-632.551	230.166	-0.080	-0.132
-631.536	-200.000	-0.005	-0.241
-630.522	-102.809	-0.119	0.029
-629.507	64.119	0.168	0.171
-628.492	-25.215	0.158	-0.094
-627.478	177.629	-0.226	0.332
-626.463	37.191	0.094	0.085
-625.449	136.099	-0.190	0.250
-624.434	-53.201	0.227	0.106
-623.419	-167.246	0.116	0.005
-622.405	-200.000	-0.004	-0.255
-621.390	-200.000	-0.011	-0.176
-620.376	254.610	0.110	0.190
-619.361	-99.915	0.361	-0.091
-618.346	399.476	-0.010	0.021
-617.332	-168.682	0.116	-0.004
-616.317	100.521	-0.240	0.281
-615.303	556.889	0.114	0.276
-614.288	34.627	-0.061	0.054
-613.273	-51.857	0.186	-0.087
-612.259	-74.611	-0.239	-0.087
-611.244	-38.727	0.053	-0.028
-610.230	250.516	0.037	0.063
-609.215	388.854	-0.122	-0.255
-608.201	-200.000	-0.000	0.126
-607.186	85.234	0.245	-0.272
-606.171	-200.000	0.027	-0.135
-605.157	158.660	0.143	-0.200
-604.142	193.030	0.057	0.087
-603.128	42.911	0.186	-0.171
-602.113	-200.000	0.025	0.252
-601.098	-200.000	0.015	-0.069
-600.084	-114.096	-0.092	-0.018
-599.069	410.006	-0.073	0.156
-598.055	-97.590	0.489	-0.128
-597.040	-200.000	0.013	-0.096
-596.025	-199.639	0.330	-0.002
-595.011	-19.290	0.403	-0.252
-593.996	-55.304	-0.317	0.144
-592.982	-19.211	-0.291	0.182
-591.967	383.024	0.064	-0.133
-590.952	800.000	-0.081	-0.301
-589.938	-70.175	0.102	0.039
-588.923	91.592	-0.153	-0.174
-587.909	296.834	0.142	-0.263
-586.894	-159.171	0.222	0.013
-585.879	800.000	-0.034	0.137
-584.865	268.131	-0.131	-0.231
-583.850	9.231	0.054	-0.041
-582.836	-86.745	-0.105	0.032
-581.821	-160.800	-0.138	-0.007
-580.806	800.000	-0.062	-0.178
-579.792	207.491	-0.139	-0.219
-578.777	800.000	-0.045	-0.156
-577.763	-200.000	-0.016	0.070
-576.748	-200.000	-0.010	-0.319
-575.733	800.000	0.002	0.006
-574.719	800.000	0.026	0.101
-573.704	-200.000	-0.012	-0.499
-572.690	308.121	-0.137	-0.257
-571.675	39.919	-0.157	0.142
-570.661	-49.346	0.153	0.074
-569.646	16.847	0.170	0.136
-568.631	432.954	-0.019	-0.041
-567.617	527.102	-0.070	-0.167
-566.602	502.065	0.071	0.166
-565.588	0.035	-0.073	0.052
-564.573	-200.000	0.024	-0.125
-563.558	-29.033	-0.394	-0.228
-562.544	-159.963	-0.296	0.016
-561.529	-200.000	0.004	-0.072
-560.515	-83.011	-0.157	0.051
-559.500	708.680	0.152	0.405
-558.485	-199.755	-0.118	0.001
-557.471	17.167	-0.252	-0.201
-556.456	-200.000	-0.006	-0.055
-555.442	151.882	-0.084	-0.116
-554.427	-48.238	-0.035	0.017
-553.412	56.887	0.297	0.291
-552.398	620.011	0.011	0.028
-551.383	-22.939	0.110	-0.067
-550.369	-30.933	-0.297	0.169
-549.354	-200.000	-0.028	0.272
-548.339	-149.930	-0.115	0.009
-547.325	-200.000	0.021	0.192
-546.310	-34.309	0.132	0.073
-545.296	-92.949	-0.513	-0.144
-544.281	360.344	0.035	-0.071
-543.266	-148.568	0.087	0.007
-542.252	-111.825	-0.321	0.065
-541.237	40.152	0.315	-0.285
-540.223	64.152	0.080	-0.081
-539.208	-147.618	-0.144	-0.012
-538.193	258.199	-0.057	0.099
-537.179	800.000	-0.155	-0.480
-536.164	-158.051	0.231	0.014
-535.150	41.879	-0.028	-0.026
-534.135	-170.798	-0.137	-0.005
-533.121	114.683	-0.218	-0.267
-532.106	52.821	-0.055	-0.053
-531.091	800.000	0.053	0.186
-530.077	84.234	0.054	0.059
-529.062	-200.000	0.043	0.381
-528.048	2.042	-0.324	0.235
-527.033	21.980	0.180	-0.148
-526.018	4.154	0.285	0.210
-525.004	-200.000	-0.015	-0.175
-523.989	10.618	0.100	0.077
-522.975	229.049	-0.104	-0.170
-521.960	499.570	0.086	-0.199
-520.945	62.933	0.082	0.083
-519.931	-86.138	-0.340	0.106
-518.916	94.195	-0.214	-0.244
-517.902	97.604	-0.221	-0.256
-516.887	-60.746	-0.354	0.151
-515.872	-159.071	0.104	-0.006
-514.858	148.060	0.177	0.240
-513.843	84.293	-0.188	0.207
-512.829	101.083	0.087	0.102
-511.814	-119.157	0.246	0.043
-510.799	52.811	-0.115	-0.111
-509.785	7.508	-0.192	0.145
-508.770	-57.844	0.286	-0.126
-507.756	732.355	-0.084	-0.227
-506.741	-86.826	-0.235	-0.072
-505.726	-71.091	-0.196	0.074
-504.712	-64.392	0.256	0.105
-503.697	-200.000	-0.056	0.474
-502.683	33.010	0.101	-0.088
-501.668	29.334	0.138	-0.118
-500.653	-50.531	-0.310	-0.147
-499.639	77.945	-0.052	0.056
-498.624	-200.000	0.018	-0.108
-497.610	8.700	0.196	-0.148
-496.595	-200.000	-0.065	-0.347
-495.581	215.824	-0.193	-0.309
-494.566	800.000	0.048	0.194
-493.551	4.016	0.231	0.170
-492.537	130.284	0.053	0.068
-491.522	-200.000	-0.098	0.475
-490.508	-200.000	0.014	0.261
-489.493	-134.561	-0.291	-0.036
-488.478	-37.577	-0.255	-0.137
-487.464	435.152	-0.081	0.177
-486.449	-69.968	-0.204	-0.078
-485.435	-156.642	0.462	-0.029
-484.420	-200.000	-0.010	0.354
-483.405	24.151	0.124	0.103
-482.391	800.000	-0.038	0.110
-481.376	-3.120	0.302	0.212
-480.362	527.484	-0.135	0.321
-479.347	-200.000	-0.012	-0.301
-478.332	55.229	0.246	0.239
-477.318	357.343	-0.210	-0.421
-476.303	9.818	-0.101	0.077
-475.289	-139.212	0.465	-0.050
-474.274	-128.956	-0.249	0.035
-473.259	-56.388	0.262	-0.117
-472.245	-137.424	-0.332	0.038
-471.230	91.035	0.207	0.233
-470.216	-200.000	-0.021	-0.188
-469.201	-200.000	-0.005	-0.127
-468.186	-200.000	-0.035	0.210
-467.172	68.819	0.186	-0.192
-466.157	177.318	-0.168	-0.245
-465.143	-150.739	-0.196	0.015
-464.128	-93.806	0.314	-0.087
-463.113	-6.059	-0.192	0.132
-462.099	728.980	0.038	0.102
-461.084	-200.000	0.015	-0.195
-460.070	-112.897	-0.033	-0.007
-459.055	213.591	0.202	0.320
-458.040	-125.127	-0.073	0.011
-457.026	-56.074	-0.170	0.076
-456.011	29.850	0.213	0.182
-454.997	80.123	0.066	0.071
-453.982	800.000	-0.142	0.402
-452.968	-157.862	0.591	0.035
-451.953	-46.987	-0.139	0.068
-450.938	99.818	-0.027	0.031
-449.924	156.074	-0.119	0.164
-448.909	47.766	0.100	-0.094
-447.895	800.000	-0.049	0.152
-446.880	-120.709	-0.096	0.016
-445.865	-29.233	0.181	-0.104
-444.851	-7.085	0.072	0.049
-443.836	186.941	-0.135	-0.202
-442.822	-200.000	0.017	0.087
-441.807	566.776	-0.158	0.385
-440.792	-200.000	0.005	-0.118
-439.778	286.086	-0.057	0.103
-438.763	800.000	0.016	0.051
-437.749	11.246	0.148	0.114
-436.734	-63.982	-0.116	-0.048
-435.719	-89.912	-0.110	0.032
-434.705	-58.579	-0.283	-0.123
-433.690	25.709	0.207	-0.173
-432.676	-62.266	-0.217	0.091
-431.661	-185.060	-0.175	-0.003
-430.646	-100.026	-0.123	0.031
-429.632	-50.289	0.168	0.080
-428.617	-200.000	-0.028	0.493
-427.603	800.000	0.114	-0.367
-426.588	800.000	0.037	0.127
-425.573	-200.000	-0.012	0.111
-424.559	-74.776	0.282	0.102
-423.544	-18.168	0.337	-0.212
-422.530	110.339	-0.165	0.199
-421.515	536.021	0.086	-0.205
-420.500	-118.651	-0.176	0.031
-419.486	285.775	-0.065	0.118
-418.471	38.240	-0.172	0.154
-417.457	-46.395	0.220	-0.108
-416.442	81.880	0.367	0.398
-415.428	800.000	-0.058	0.198
-414.413	34.081	-0.095	-0.083
-413.398	148.655	0.131	0.177
-412.384	344.104	-0.049	-0.097
-411.369	-59.939	0.123	0.053
-410.355	-124.703	-0.407	0.063
-409.340	31.961	0.339	-0.293
-408.325	-200.000	-0.014	-0.140
-407.311	105.815	-0.129	0.153
-406.296	-102.454	0.146	-0.035
-405.282	-109.516	0.440	0.093
-404.267	288.433	0.136	0.247
-403.252	-84.002	0.156	-0.050
-402.238	-10.742	-0.093	-0.061
-401.223	-110.360	-0.284	-0.059
-400.209	136.487	-0.054	0.071
-399.194	17.882	0.082	0.065
-398.179	101.033	-0.225	0.262
-397.165	-136.965	0.384	-0.044
-396.150	-54.995	0.422	0.191
-395.136	161.777	-0.106	-0.149
-394.121	-200.000	0.061	0.310
-393.106	800.000	0.046	-0.163
-392.092	454.376	0.073	0.161
-391.077	30.672	-0.227	-0.194
-390.063	-103.172	0.194	-0.046
-389.048	155.390	-0.106	0.146
-388.033	-122.511	0.140	-0.023
-387.019	159.413	-0.098	-0.136
-386.004	178.577	-0.138	-0.202
-384.990	242.232	0.100	-0.168
-383.975	-48.815	-0.138	0.066
-382.960	-200.000	0.336	-0.001
-381.946	42.779	0.192	0.175
-380.931	-45.342	0.383	0.190
-379.917	-200.000	0.018	0.084
-378.902	-45.120	-0.102	0.051
-377.888	-36.421	0.116	-0.063
-376.873	74.021	0.168	0.177
-375.858	113.060	0.177	-0.215
-374.844	35.978	-0.098	0.086
-373.829	211.809	-0.289	0.455
-372.815	-138.034	0.034	-0.004
-371.800	464.600	-0.086	-0.193
-370.785	194.157	-0.055	0.083
-369.771	-174.707	0.204	-0.006
-368.756	-161.057	0.160	0.008
-367.742	-94.122	0.112	-0.031
-366.727	-200.000	-0.018	0.152
-365.712	-122.888	0.013	-0.002
-364.698	129.018	-0.011	0.013
-363.683	-200.000	-0.006	-0.029
-362.669	159.553	0.120	-0.167
-361.654	17.884	-0.190	-0.152
-360.639	94.059	-0.033	-0.037
-359.625	-200.000	0.025	0.180
-358.610	800.000	-0.045	0.174
-357.596	800.000	0.037	-0.114
-356.581	94.372	-0.040	0.045
-355.566	245.923	-0.075	-0.126
-354.552	-191.669	-0.142	-0.001
-353.537	-22.177	0.196	0.119
-352.523	520.597	0.099	0.232
-351.508	800.000	0.057	0.198
-350.493	99.363	0.049	-0.056
-349.479	345.343	0.066	-0.130
-348.464	198.995	0.066	0.101
-347.450	-200.000	-0.031	0.148
-346.435	-200.000	-0.057	0.502
-345.420	800.000	-0.091	0.383
-344.406	251.151	0.090	-0.154
-343.391	-100.076	-0.398	0.099
-342.377	4.070	-0.181	-0.132
-341.362	-81.668	0.337	0.110
-340.348	626.144	0.085	0.214
-339.333	62.405	-0.150	-0.150
-338.318	-69.304	-0.076	-0.029
-337.304	158.594	-0.072	-0.100
-336.289	58.792	0.022	-0.021
-335.275	318.055	-0.069	0.130
-334.260	-154.790	-0.039	0.003
-333.245	800.000	-0.041	0.171
-332.231	309.993	-0.134	0.250
-331.216	-200.000	-0.002	-0.170
-330.202	-166.331	-0.097	0.004
-329.187	-200.000	-0.139	-0.625
-328.172	-21.060	-0.374	-0.229
-327.158	800.000	0.048	-0.181
-326.143	291.771	0.073	-0.132
-325.129	68.914	0.167	0.172
-324.114	-57.434	-0.134	0.059
-323.099	8.023	-0.086	-0.064
-322.085	98.356	-0.289	0.333
-321.070	147.579	0.092	-0.124
-320.056	-92.697	-0.105	-0.029
-319.041	-33.516	-0.169	0.093
-318.026	-126.274	-0.252	-0.038
-317.012	24.639	0.128	-0.106
-315.997	-99.369	-0.318	-0.080
-314.983	175.775	-0.053	0.077
-313.968	-94.756	0.125	-0.034
-312.953	-197.632	-0.098	0.001
-311.939	23.600	0.154	0.126
-310.924	-107.162	0.329	-0.072
-309.910	800.000	-0.084	0.258
-308.895	-200.000	-0.012	0.271
-307.880	-200.000	0.085	-0.397
-306.866	-200.000	-0.006	0.125
-305.851	-131.156	0.179	0.024
-304.837	-147.966	-0.200	-0.017
-303.822	480.651	-0.119	-0.270
-302.807	62.044	-0.081	0.081
-301.793	-35.597	-0.250	0.135
-300.778	-80.844	-0.108	0.036
-299.764	165.066	0.152	-0.214
-298.749	287.541	0.023	0.041
-297.735	114.083	0.112	0.136
-296.720	-73.341	-0.268	0.098
-295.705	800.000	-0.067	-0.224
-294.691	-192.609	-0.419	0.004
-293.676	640.100	0.102	-0.258
-292.662	-200.000	-0.031	-0.213
-291.647	227.028	0.117	-0.189
-290.632	162.417	-0.114	-0.160
-289.618	-33.104	-0.095	-0.053
-288.603	283.393	-0.163	-0.292
-287.589	800.000	0.096	0.332
-286.574	669.295	-0.154	-0.397
-285.559	-119.908	0.059	0.010
-284.545	177.601	-0.139	-0.203
-283.530	-122.546	0.299	-0.048
-282.516	74.274	-0.175	-0.183
-281.501	214.587	0.116	0.184
-280.486	60.802	0.235	-0.233
-279.472	-42.986	0.083	0.042
-278.457	55.260	0.127	-0.122
-277.443	100.186	0.039	-0.045
-276.428	-74.792	0.290	-0.104
-275.413	98.920	-0.353	0.407
-274.399	-89.207	0.250	-0.074
-273.384	87.127	0.194	-0.213
-272.370	411.447	0.264	-0.559
-271.355	-29.019	-0.255	-0.146
-270.340	-139.694	-0.137	0.015
-269.326	203.909	0.158	0.244
-268.311	-48.648	0.196	0.094
-267.297	320.659	-0.137	-0.260
-266.282	199.255	-0.176	-0.268
-265.267	-106.521	-0.246	-0.055
-264.253	88.421	0.031	-0.035
-263.238	-80.256	-0.273	0.091
-262.224	-49.942	0.290	0.137
-261.209	462.650	0.068	-0.151
-260.195	-172.652	0.175	0.005
-259.180	-200.000	-0.005	-0.436
-258.165	-200.000	0.005	-0.110
-257.151	192.972	0.057	0.085
-256.136	-163.795	-0.181	0.008
-255.122	-200.000	0.002	-0.349
-254.107	-200.000	0.019	0.211
-253.092	-200.000	-0.033	-0.217
-252.078	-32.902	-0.073	-0.040
-251.063	-200.000	0.038	-0.304
-250.049	147.699	0.084	0.113
-249.034	-108.556	-0.266	-0.057
-248.019	639.633	-0.045	0.115
-247.005	190.893	0.215	0.323
-245.990	46.835	-0.131	0.121
-244.976	71.511	0.200	0.207
-243.961	-18.085	0.239	-0.149
-242.946	-102.425	0.432	0.103
-241.932	-69.082	-0.290	0.111
-240.917	-20.656	-0.103	0.063
-239.903	89.030	-0.174	-0.193
-238.888	-41.553	0.104	-0.053
-237.873	-83.123	-0.166	0.053
-236.859	800.000	0.071	0.205
-235.844	143.153	0.021	-0.028
-234.830	-200.000	0.010	0.101
-233.815	58.813	-0.197	-0.193
-232.800	-148.865	-0.058	-0.005
-231.786	-152.116	-0.185	0.013
-230.771	-39.107	-0.395	0.207
-229.757	-70.266	-0.204	0.077
-228.742	266.047	-0.098	-0.171
-227.727	-103.528	0.508	0.119
-226.713	112.101	0.129	0.155
-225.698	-200.000	0.025	0.346
-224.684	795.994	-0.099	0.272
-223.669	-146.311	0.097	0.008
-222.655	-79.624	0.109	0.037
-221.640	248.606	0.130	-0.218
-220.625	424.689	0.075	-0.160
-219.611	188.225	0.198	0.295
-218.596	0.987	0.170	-0.121
-217.582	-200.000	-0.046	-0.256
-216.567	-200.000	-0.011	-0.133
-215.552	185.878	-0.101	0.149
-214.538	-161.728	0.071	0.004
-213.523	177.630	-0.054	0.079
-212.509	-59.768	0.178	-0.076
-211.494	541.898	-0.061	-0.145
-210.479	186.396	-0.183	-0.271
-209.465	800.000	-0.090	0.389
-208.450	-103.014	-0.028	-0.007
-207.436	66.072	0.122	-0.123
-206.421	460.894	-0.052	0.115
-205.406	800.000	-0.101	0.279
-204.392	118.530	0.099	0.121
-203.377	800.000	-0.084	0.337
-202.363	54.112	-0.253	-0.242
-201.348	59.726	0.208	0.204
-200.333	-18.617	0.185	-0.114
-199.319	800.000	-0.066	0.199
-198.304	490.375	0.115	0.261
-197.290	800.000	0.055	-0.154
-196.275	31.429	-0.229	-0.196
-195.260	42.964	-0.034	-0.031
-194.246	-200.000	0.030	-0.171
-193.231	-124.965	0.255	-0.039
-192.217	-200.000	0.094	0.000
-191.202	-43.657	-0.426	0.214
-190.187	87.123	0.121	0.133
-189.173	-120.128	0.188	0.032
-188.158	-142.219	0.239	-0.024
-187.144	-159.498	0.140	0.008
-186.129	-200.000	-0.005	-0.102
-185.114	-93.780	-0.282	-0.077
-184.100	40.474	0.077	-0.069
-183.085	491.473	-0.019	0.043
-182.071	-85.139	0.066	0.020
-181.056	4.706	-0.191	-0.140
-180.042	-200.000	-0.001	-0.030
-179.027	55.732	-0.006	0.006
-178.012	800.000	0.052	0.145
-176.998	-168.596	-0.157	0.006
-175.983	-78.895	0.240	0.081
-174.969	82.566	0.090	-0.097
-173.954	428.474	0.077	0.164
-172.939	45.109	0.396	0.363
-171.925	800.000	0.013	0.055
-170.910	339.178	0.059	-0.114
-169.896	-106.876	0.016	0.004
-168.881	165.749	-0.114	-0.161
-167.866	800.000	-0.076	-0.306
-166.852	-200.000	0.017	-0.231
-165.837	-99.230	-0.295	0.074
-164.823	61.846	0.306	-0.302
-163.808	125.420	0.043	0.054
-162.793	-104.964	0.223	-0.051
-161.779	-72.695	-0.196	0.072
-160.764	468.491	0.063	0.140
-159.750	-200.000	0.010	-0.061
-158.735	-100.335	-0.197	-0.049
-157.720	69.359	0.065	-0.066
-156.706	-26.993	0.096	0.056
-155.691	-118.575	-0.153	-0.027
-154.677	199.695	-0.187	0.285
-153.662	158.476	0.127	-0.174
-152.647	-148.449	-0.538	0.044
-151.633	59.627	0.053	-0.052
-150.618	-200.000	-0.021	0.157
-149.604	-76.392	-0.237	-0.083
-148.589	-36.481	0.103	-0.055
-147.574	-74.141	0.213	-0.076
-146.560	-97.885	-0.411	-0.105
-145.545	53.450	-0.215	-0.204
-144.531	115.213	0.076	-0.092
-143.516	-200.000	0.031	0.280
-142.502	34.216	-0.176	0.153
-141.487	-186.245	0.438	-0.006
-140.472	-127.637	0.178	-0.025
-139.458	84.824	0.149	0.162
-138.443	800.000	-0.024	-0.083
-137.429	-72.222	0.271	-0.100
-136.414	-63.612	0.267	-0.109
-135.399	-68.658	-0.112	-0.043
-134.385	-132.370	0.321	0.041
-133.370	15.628	0.042	0.033
-132.356	-87.036	-0.243	-0.073
-131.341	182.855	0.107	0.156
-130.326	-96.439	0.128	0.034
-129.312	87.464	0.078	0.086
-128.297	-5.493	-0.158	0.108
-127.283	72.012	-0.190	0.196
-126.268	800.000	0.084	0.274
-125.253	168.538	0.175	0.247
-124.239	9.657	0.471	0.354
-123.224	800.000	-0.019	-0.081
-122.210	-134.449	0.193	0.023
-121.195	-200.000	0.008	-0.463
