DTS Sentinel unit serial number:	SN413079Multiplexer serial number:	ORYXHardware model number:	OX4-SRSoftware version number:	ORYX F/W v4.00 Oryx Data Collector v3.7.2.0data status	okinstallation	princeton_trtdifferential loss correction	single-endedforward channel	channel 2reverse channel	N/Adate	2019/09/13time	06:19:35forward acquisition time	60.00reverse acquisition time	0.00gamma	496.2192k internal	0.2338k external	0.2338temperature offset calibration	1.0193default loss term (dB/km)	0.3790temperature slope calibration	1.0000multiplexer offset coefficient	1.0000multiplexer slope coefficient	1.0000fibre end	0.00T internal ref (°C)	26.12T ext. ref 1 (°C)	4.08T ext. ref 2 (°C)	20.84length (m)	temperature (°C)	Stokes	anti-Stokes-747.200	-34.429	-0.183	0.101
-746.185	-92.931	-0.517	0.145
-745.171	8.228	-0.264	-0.199
-744.156	-127.070	-0.353	0.052
-743.142	-39.321	-0.072	0.038
-742.127	37.022	0.292	0.259
-741.112	-200.000	0.014	0.143
-740.098	29.231	-0.126	-0.108
-739.083	-109.275	-0.204	0.043
-738.069	32.470	-0.236	-0.205
-737.054	-1.692	0.159	-0.112
-736.039	-89.013	-0.460	-0.137
-735.025	-89.379	0.203	0.060
-734.010	-72.107	-0.261	0.097
-732.996	-41.619	0.097	-0.050
-731.981	800.000	-0.049	-0.149
-730.966	5.487	0.126	-0.093
-729.952	83.272	0.164	0.179
-728.937	800.000	-0.019	0.076
-727.923	8.602	-0.209	0.158
-726.908	800.000	0.087	-0.331
-725.894	-2.530	0.277	-0.194
-724.879	800.000	0.073	-0.311
-723.864	30.239	-0.097	-0.083
-722.850	800.000	0.109	-0.338
-721.835	-61.742	-0.100	-0.042
-720.821	800.000	-0.086	-0.243
-719.806	-106.882	-0.095	-0.021
-718.791	-157.478	-0.172	-0.010
-717.777	299.779	-0.111	-0.205
-716.762	271.826	0.067	-0.118
-715.748	-85.403	-0.244	-0.076
-714.733	-134.372	-0.311	0.038
-713.718	-200.000	-0.024	-0.195
-712.704	800.000	0.038	-0.136
-711.689	-200.000	-0.007	-0.317
-710.675	-41.045	0.121	0.062
-709.660	11.167	0.047	-0.036
-708.645	16.467	-0.379	-0.300
-707.631	518.572	-0.045	-0.105
-706.616	230.026	-0.147	0.241
-705.602	-200.000	0.001	0.077
-704.587	295.060	0.116	0.213
-703.572	-3.567	-0.300	0.209
-702.558	226.435	-0.071	-0.115
-701.543	-200.000	-0.070	0.380
-700.529	276.473	-0.079	0.140
-699.514	-200.000	-0.014	-0.109
-698.499	800.000	-0.020	-0.068
-697.485	570.151	-0.018	0.044
-696.470	-90.985	-0.363	-0.105
-695.456	800.000	-0.106	-0.299
-694.441	800.000	0.036	-0.109
-693.426	-41.371	0.080	-0.041
-692.412	331.191	0.090	-0.174
-691.397	571.339	-0.116	-0.283
-690.383	-200.000	-0.003	0.079
-689.368	-81.300	0.350	0.116
-688.354	-200.000	0.036	0.175
-687.339	202.278	0.158	0.244
-686.324	-184.876	0.297	-0.005
-685.310	724.492	-0.071	0.189
-684.295	202.055	-0.097	0.150
-683.281	-181.300	-0.273	0.005
-682.266	800.000	-0.137	-0.390
-681.251	-119.381	0.244	0.042
-680.237	800.000	-0.015	-0.051
-679.222	-126.568	-0.152	-0.023
-678.208	119.092	-0.133	0.165
-677.193	-153.105	0.182	0.013
-676.178	-159.958	-0.067	-0.004
-675.164	-200.000	0.030	-0.157
-674.149	91.788	-0.061	0.069
-673.135	-74.440	0.304	-0.110
-672.120	-200.000	-0.005	0.180
-671.105	109.930	0.111	-0.133
-670.091	800.000	0.022	-0.061
-669.076	-86.223	-0.262	-0.081
-668.062	75.510	0.193	-0.204
-667.047	-16.679	0.066	0.042
-666.032	-42.742	0.151	0.077
-665.018	-171.313	0.189	-0.006
-664.003	800.000	0.036	0.145
-662.989	167.528	-0.253	0.360
-661.974	-157.683	0.169	-0.010
-660.959	-200.000	0.002	0.275
-659.945	-156.781	0.070	0.004
-658.930	-81.915	-0.103	-0.034
-657.916	-84.359	0.338	0.107
-656.901	800.000	-0.048	0.191
-655.886	-63.520	0.050	-0.020
-654.872	19.837	0.104	0.084
-653.857	-7.780	-0.229	0.155
-652.843	19.347	0.233	-0.187
-651.828	169.429	-0.060	0.085
-650.814	66.214	0.199	-0.202
-649.799	-5.618	-0.171	-0.117
-648.784	-43.012	-0.151	-0.077
-647.770	112.700	0.101	-0.122
-646.755	-73.416	-0.172	-0.063
-645.741	-71.342	-0.492	-0.184
-644.726	-200.000	-0.003	-0.266
-643.711	71.190	-0.066	-0.068
-642.697	-200.000	-0.006	-0.404
-641.682	-98.580	-0.313	0.080
-640.668	-42.222	-0.344	0.176
-639.653	800.000	-0.151	0.418
-638.638	800.000	-0.076	0.222
-637.624	-200.000	-0.072	0.542
-636.609	800.000	0.113	-0.331
-635.595	-139.110	-0.187	0.020
-634.580	53.520	-0.080	0.077
-633.565	403.670	-0.077	-0.162
-632.551	376.742	0.110	0.225
-631.536	-75.093	0.244	0.087
-630.522	72.064	-0.011	-0.011
-629.507	149.091	-0.041	-0.056
-628.492	-10.754	-0.159	0.105
-627.478	69.811	-0.270	0.278
-626.463	-6.227	-0.101	0.069
-625.449	800.000	0.091	0.357
-624.434	168.176	-0.236	0.335
-623.419	264.979	0.091	0.159
-622.405	15.392	-0.034	-0.027
-621.390	33.058	0.135	-0.117
-620.376	360.966	0.143	0.287
-619.361	-19.934	-0.192	0.118
-618.346	-15.176	0.154	0.099
-617.332	-43.131	-0.188	-0.095
-616.317	542.697	-0.082	0.194
-615.303	291.987	-0.200	0.363
-614.288	-163.018	0.100	-0.005
-613.273	590.221	-0.062	0.152
-612.259	-48.510	0.108	0.052
-611.244	-200.000	-0.021	-0.102
-610.230	761.398	0.074	0.200
-609.215	-200.000	0.016	-0.221
-608.201	-10.550	-0.224	0.148
-607.186	-200.000	0.010	-0.077
-606.171	104.423	-0.184	-0.216
-605.157	-92.056	-0.213	0.060
-604.142	163.882	0.177	0.248
-603.128	-200.000	-0.014	0.136
-602.113	-103.818	0.305	-0.071
-601.098	800.000	-0.028	0.113
-600.084	-81.247	-0.225	0.074
-599.069	20.536	-0.108	0.087
-598.055	-200.000	-0.048	-0.292
-597.040	-131.894	0.136	0.018
-596.025	-200.000	0.049	-0.227
-595.011	-111.424	0.213	-0.043
-593.996	128.516	-0.184	0.233
-592.982	297.023	-0.096	0.176
-591.967	-100.906	-0.172	0.042
-590.952	-200.000	0.066	-0.343
-589.938	85.631	-0.092	0.101
-588.923	-200.000	0.007	0.283
-587.909	-110.020	0.223	-0.047
-586.894	387.065	0.120	0.246
-585.879	138.883	-0.311	-0.407
-584.865	578.678	-0.056	-0.137
-583.850	-60.257	-0.175	0.074
-582.836	-200.000	-0.016	-0.376
-581.821	-200.000	0.053	-0.247
-580.806	-73.393	-0.123	0.045
-579.792	-18.344	-0.168	0.105
-578.777	-65.986	0.414	0.165
-577.763	-29.437	0.021	-0.012
-576.748	-200.000	-0.081	-0.413
-575.733	-23.721	0.083	0.050
-574.719	-200.000	-0.010	0.058
-573.704	800.000	0.082	-0.338
-572.690	388.489	-0.127	0.262
-571.675	29.920	0.143	-0.122
-570.661	-200.000	0.011	-0.077
-569.646	-86.812	0.141	0.043
-568.631	-200.000	0.110	0.581
-567.617	-200.000	-0.006	0.205
-566.602	35.256	-0.064	0.056
-565.588	800.000	0.075	-0.318
-564.573	233.962	0.046	0.076
-563.558	385.439	0.241	0.495
-562.544	-144.145	-0.292	-0.027
-561.529	-200.000	-0.017	-0.195
-560.515	-200.000	0.009	0.286
-559.500	5.285	-0.188	0.138
-558.485	-73.084	0.052	-0.019
-557.471	215.655	-0.121	0.191
-556.456	140.941	-0.180	0.236
-555.442	507.471	0.031	0.071
-554.427	-29.235	-0.147	0.084
-553.412	16.464	-0.125	-0.098
-552.398	-130.499	0.356	-0.048
-551.383	800.000	0.035	-0.129
-550.369	-45.144	-0.135	-0.067
-549.354	-200.000	0.029	0.176
-548.339	-107.346	-0.201	0.044
-547.325	-200.000	-0.051	0.313
-546.310	634.677	0.121	-0.305
-545.296	21.731	0.146	0.118
-544.281	614.612	0.124	-0.309
-543.266	-42.934	0.224	0.113
-542.252	-60.220	0.282	0.120
-541.237	-87.749	0.495	0.149
-540.223	-200.000	0.006	0.355
-539.208	-53.977	0.391	-0.177
-538.193	260.275	-0.105	-0.181
-537.179	198.340	0.026	0.040
-536.164	520.748	0.092	-0.215
-535.150	-79.801	-0.037	-0.013
-534.135	234.113	0.038	-0.063
-533.121	-200.000	-0.030	0.413
-532.106	-200.000	-0.022	0.166
-531.091	-100.090	-0.346	0.086
-530.077	800.000	-0.084	-0.313
-529.062	39.068	-0.071	-0.064
-528.048	-21.523	0.211	0.128
-527.033	800.000	-0.018	-0.077
-526.018	-101.894	-0.163	0.039
-525.004	-62.295	-0.264	-0.109
-523.989	-27.374	0.106	0.061
-522.975	-200.000	-0.050	0.349
-521.960	-20.629	-0.115	0.070
-520.945	-37.748	-0.276	0.146
-519.931	-91.341	0.164	0.047
-518.916	-200.000	-0.015	-0.156
-517.902	229.267	-0.136	0.220
-516.887	43.311	-0.053	0.048
-515.872	160.323	-0.118	0.163
-514.858	275.396	-0.100	0.176
-513.843	47.989	-0.175	0.163
-512.829	70.379	-0.207	-0.213
-511.814	-54.862	-0.032	-0.014
-510.799	432.283	-0.029	0.063
-509.785	-200.000	0.052	-0.311
-508.770	502.420	0.111	-0.254
-507.756	-8.782	0.202	-0.135
-506.741	-111.160	0.355	-0.072
-505.726	26.548	0.290	0.242
-504.712	131.511	-0.067	-0.086
-503.697	-48.370	0.043	0.020
-502.683	253.103	0.162	0.275
-501.668	-112.300	-0.096	0.019
-500.653	-29.767	-0.124	0.070
-499.639	-200.000	-0.007	-0.267
-498.624	82.496	-0.129	0.139
-497.610	-11.777	0.292	-0.190
-496.595	105.679	0.121	-0.142
-495.581	-122.664	-0.204	-0.033
-494.566	-80.858	0.379	0.125
-493.551	-200.000	-0.028	0.248
-492.537	-7.713	-0.169	0.114
-491.522	553.246	0.024	-0.058
-490.508	7.346	-0.221	0.164
-489.493	144.541	0.122	0.162
-488.478	166.104	-0.162	-0.228
-487.464	-82.839	0.111	0.036
-486.449	-48.682	-0.119	-0.057
-485.435	800.000	-0.080	0.258
-484.420	207.296	-0.135	0.209
-483.405	18.991	-0.250	0.199
-482.391	-95.007	0.065	-0.017
-481.376	566.610	0.089	0.215
-480.362	327.552	-0.225	-0.429
-479.347	127.698	-0.122	-0.154
-478.332	-104.945	0.410	0.093
-477.318	-19.290	-0.277	0.171
-476.303	-200.000	-0.037	-0.180
-475.289	-2.425	0.357	0.249
-474.274	-200.000	0.022	0.176
-473.259	-200.000	0.052	-0.235
-472.245	-200.000	0.035	0.161
-471.230	-27.983	0.324	-0.186
-470.216	-150.603	0.228	-0.017
-469.201	-54.757	-0.170	0.076
-468.186	11.337	0.148	-0.113
-467.172	-135.154	0.144	-0.017
-466.157	291.813	-0.163	0.295
-465.143	15.775	0.028	-0.021
-464.128	45.922	-0.046	0.042
-463.113	800.000	0.022	0.078
-462.099	800.000	-0.046	0.171
-461.084	4.052	-0.088	0.064
-460.070	800.000	-0.087	0.318
-459.055	-200.000	-0.029	0.206
-458.040	6.480	0.173	0.128
-457.026	48.445	-0.169	0.157
-456.011	-65.826	-0.062	-0.024
-454.997	-77.118	0.146	-0.050
-453.982	-93.147	0.120	-0.033
-452.968	-200.000	0.017	-0.079
-451.953	56.653	-0.112	-0.109
-450.938	-168.524	0.258	-0.010
-449.924	15.516	0.195	0.152
-448.909	73.917	-0.247	-0.257
-447.895	56.790	0.157	0.151
-446.880	800.000	-0.009	-0.027
-445.865	-145.226	0.299	0.027
-444.851	-85.446	-0.220	-0.068
-443.836	14.257	-0.183	0.141
-442.822	-12.991	-0.103	0.066
-441.807	165.781	-0.031	0.044
-440.792	-128.414	0.164	-0.023
-439.778	-121.744	-0.314	0.052
-438.763	800.000	-0.033	0.102
-437.749	88.331	-0.104	-0.115
-436.734	-95.845	0.225	0.059
-435.719	-111.833	-0.234	-0.047
-434.705	-128.179	-0.096	0.014
-433.690	-134.666	-0.199	0.024
-432.676	105.750	0.315	-0.369
-431.661	-200.000	0.010	0.097
-430.646	-200.000	-0.024	0.216
-429.632	-42.499	-0.055	0.028
-428.617	-96.346	0.198	0.052
-427.603	-91.619	0.311	-0.088
-426.588	-139.492	0.240	-0.025
-425.573	-26.705	0.143	-0.083
-424.559	-151.673	-0.207	0.015
-423.544	8.557	-0.130	0.097
-422.530	315.217	0.128	0.239
-421.515	638.948	0.086	-0.216
-420.500	507.029	-0.083	-0.190
-419.486	234.809	0.200	-0.328
-418.471	20.935	-0.146	-0.117
-417.457	-200.000	0.044	0.251
-416.442	-200.000	-0.002	-0.388
-415.428	295.743	-0.083	0.150
-414.413	-133.647	0.063	0.008
-413.398	-104.318	-0.110	-0.025
-412.384	800.000	-0.034	-0.125
-411.369	-200.000	-0.014	0.158
-410.355	-67.461	-0.231	-0.090
-409.340	-129.203	0.279	0.039
-408.325	75.903	0.070	-0.073
-407.311	-78.224	-0.270	0.092
-406.296	-97.669	-0.213	0.055
-405.282	22.460	-0.067	-0.054
-404.267	65.507	0.144	-0.144
-403.252	800.000	-0.114	0.331
-402.238	-57.031	0.050	-0.022
-401.223	-153.694	-0.068	0.005
-400.209	-36.779	0.169	0.090
-399.194	-200.000	0.018	-0.082
-398.179	-124.368	0.118	0.018
-397.165	123.324	0.150	0.186
-396.150	190.921	0.155	0.231
-395.136	148.355	0.094	0.126
-394.121	-1.769	-0.229	0.159
-393.106	800.000	-0.026	-0.096
-392.092	329.296	-0.117	-0.222
-391.077	-115.914	0.184	0.034
-390.063	800.000	0.092	-0.268
-389.048	192.742	0.218	-0.326
-388.033	800.000	-0.065	-0.191
-387.019	334.471	0.060	0.116
-386.004	-200.000	0.012	-0.265
-384.990	-101.943	0.082	-0.020
-383.975	55.912	0.153	-0.147
-382.960	125.960	0.276	-0.345
-381.946	-40.430	-0.085	-0.044
-380.931	396.081	-0.061	0.126
-379.917	-144.196	-0.244	-0.023
-378.902	-197.682	0.237	-0.001
-377.888	-146.530	0.248	-0.021
-376.873	-200.000	0.013	-0.061
-375.858	-200.000	-0.049	-0.236
-374.844	-200.000	0.039	-0.266
-373.829	207.099	0.188	-0.290
-372.815	226.212	-0.152	0.243
-371.800	453.594	0.103	-0.226
-370.785	394.665	0.174	0.359
-369.771	334.340	-0.044	-0.084
-368.756	8.003	0.206	0.152
-367.742	-200.000	0.002	-0.113
-366.727	-50.927	-0.331	-0.154
-365.712	41.930	-0.096	-0.086
-364.698	-200.000	0.014	-0.228
-363.683	280.509	0.022	0.038
-362.669	315.294	0.173	-0.323
-361.654	-200.000	-0.038	0.408
-360.639	461.341	-0.085	0.187
-359.625	89.201	-0.015	-0.017
-358.610	-200.000	0.023	0.217
-357.596	382.974	-0.084	-0.171
-356.581	69.226	-0.151	-0.153
-355.566	-139.244	-0.302	-0.032
-354.552	-200.000	-0.021	-0.132
-353.537	347.787	0.133	-0.259
-352.523	-15.029	-0.191	-0.121
-351.508	-93.094	-0.194	-0.053
-350.493	-32.860	0.242	0.133
-349.479	-23.770	-0.095	0.056
-348.464	-158.290	0.388	-0.022
-347.450	-168.681	0.189	-0.007
-346.435	-120.264	-0.156	0.026
-345.420	-200.000	0.005	0.055
-344.406	-100.220	0.314	-0.077
-343.391	-17.321	-0.096	-0.060
-342.377	-200.000	-0.009	0.207
-341.362	102.650	-0.145	-0.168
-340.348	-41.688	-0.393	-0.199
-339.333	278.340	-0.079	-0.140
-338.318	800.000	-0.058	0.175
-337.304	-124.734	0.298	-0.045
-336.289	181.680	-0.150	-0.218
-335.275	-102.266	-0.177	-0.042
-334.260	29.057	0.235	-0.197
-333.245	240.204	0.126	0.207
-332.231	-200.000	0.010	0.229
-331.216	-34.616	0.428	0.231
-330.202	45.468	-0.220	-0.200
-329.187	136.991	0.313	-0.404
-328.172	-200.000	0.053	-0.373
-327.158	-200.000	0.300	-0.001
-326.143	-200.000	-0.009	-0.416
-325.129	-100.242	0.302	-0.074
-324.114	-139.522	-0.203	0.021
-323.099	800.000	0.024	-0.073
-322.085	800.000	0.108	0.326
-321.070	126.484	0.151	-0.189
-320.056	189.785	0.070	-0.104
-319.041	92.242	-0.175	-0.195
-318.026	-52.771	-0.260	-0.118
-317.012	78.929	0.033	0.035
-315.997	-83.139	-0.208	0.066
-314.983	-200.000	0.027	0.234
-313.968	60.315	-0.229	0.223
-312.953	51.080	-0.043	-0.040
-311.939	554.125	0.100	0.237
-310.924	314.481	0.097	-0.181
-309.910	437.778	-0.080	-0.171
-308.895	-167.481	0.271	0.011
-307.880	495.090	-0.111	-0.252
-306.866	-150.451	-0.167	0.013
-305.851	22.202	0.239	-0.193
-304.837	-26.933	0.310	0.179
-303.822	264.612	-0.157	-0.270
-302.807	-200.000	0.006	0.064
-301.793	-52.093	-0.119	-0.054
-300.778	-200.000	-0.026	0.150
-299.764	-162.671	0.350	0.017
-298.749	-89.991	-0.618	0.178
-297.735	-42.123	0.344	0.173
-296.720	171.367	0.138	-0.195
-295.705	-165.510	0.116	-0.005
-294.691	9.662	-0.280	0.209
-293.676	24.772	-0.120	-0.098
-292.662	-200.000	-0.032	-0.155
-291.647	800.000	-0.050	-0.186
-290.632	-55.240	-0.108	-0.048
-289.618	-138.370	-0.188	-0.020
-288.603	-58.287	-0.107	-0.046
-287.589	78.065	0.052	0.055
-286.574	-18.334	0.223	0.138
-285.559	108.289	-0.129	-0.152
-284.545	-119.734	0.271	-0.046
-283.530	156.039	-0.088	-0.120
-282.516	-188.550	-0.301	-0.004
-281.501	-120.381	0.065	-0.011
-280.486	17.744	0.173	-0.136
-279.472	800.000	-0.035	-0.140
-278.457	-200.000	-0.029	-0.276
-277.443	-200.000	0.027	-0.131
-276.428	535.195	-0.054	0.126
-275.413	157.344	0.193	0.263
-274.399	130.180	-0.113	0.143
-273.384	-200.000	0.016	-0.133
-272.370	155.267	0.190	-0.257
-271.355	-200.000	-0.014	-0.294
-270.340	-105.962	-0.263	0.058
-269.326	-200.000	-0.275	0.000
-268.311	196.339	0.040	0.060
-267.297	-200.000	-0.014	0.301
-266.282	69.981	-0.015	0.015
-265.267	409.637	-0.135	0.282
-264.253	-196.159	0.191	-0.001
-263.238	332.358	-0.049	-0.094
-262.224	354.812	0.145	-0.284
-261.209	77.810	-0.255	-0.268
-260.195	178.782	-0.134	0.193
-259.180	-42.598	0.178	0.089
-258.165	608.359	-0.213	-0.524
-257.151	-43.491	-0.170	-0.085
-256.136	800.000	0.030	0.109
-255.122	170.772	-0.040	0.056
-254.107	800.000	-0.048	0.198
-253.092	-103.086	0.509	-0.119
-252.078	43.681	0.092	-0.083
-251.063	-200.000	0.003	-0.102
-250.049	-200.000	-0.002	0.138
-249.034	-200.000	0.077	0.411
-248.019	283.716	-0.157	0.278
-247.005	205.223	-0.219	-0.335
-245.990	800.000	-0.059	-0.161
-244.976	49.781	-0.146	0.136
-243.961	-51.808	0.113	-0.052
-242.946	-123.618	0.139	0.022
-241.932	720.686	-0.011	-0.028
-240.917	-79.119	-0.191	0.064
-239.903	-67.188	-0.086	0.033
-238.888	-121.630	0.226	-0.037
-237.873	-171.241	-0.261	0.009
-236.859	-69.866	-0.118	0.044
-235.844	-200.000	0.014	0.200
-234.830	-200.000	0.022	0.116
-233.815	800.000	0.016	0.058
-232.800	620.266	-0.110	-0.271
-231.786	-82.747	-0.166	0.053
-230.771	-200.000	-0.003	0.034
-229.757	526.509	0.042	-0.097
-228.742	-117.864	-0.370	-0.065
-227.727	593.385	-0.067	0.162
-226.713	118.652	-0.039	0.048
-225.698	-53.590	0.181	0.081
-224.684	-74.660	0.315	-0.111
-223.669	164.734	-0.009	-0.012
-222.655	-27.359	0.137	-0.078
-221.640	57.929	0.165	-0.158
-220.625	-200.000	-0.033	-0.306
-219.611	16.464	0.196	-0.152
-218.596	-130.191	0.065	-0.009
-217.582	800.000	0.019	-0.055
-216.567	614.314	0.019	-0.048
-215.552	-200.000	-0.003	0.198
-214.538	-172.822	0.289	-0.009
-213.523	-123.004	0.269	-0.043
-212.509	800.000	-0.093	-0.283
-211.494	-111.837	0.217	0.043
-210.479	28.823	0.249	-0.207
-209.465	379.979	-0.094	0.190
-208.450	800.000	0.072	0.213
-207.436	-200.000	0.031	0.212
-206.421	-52.624	-0.023	0.010
-205.406	800.000	0.094	-0.371
-204.392	57.688	0.161	-0.154
-203.377	207.510	0.145	0.222
-202.363	45.964	0.195	-0.177
-201.348	-69.884	0.214	-0.080
-200.333	-72.662	0.112	0.041
-199.319	322.960	-0.025	-0.046
-198.304	539.904	-0.122	0.285
-197.290	-59.656	-0.206	-0.087
-196.275	800.000	-0.044	-0.127
-195.260	-200.000	-0.009	-0.317
-194.246	413.766	-0.016	0.034
-193.231	129.825	-0.013	0.016
-192.217	246.513	-0.229	-0.380
-191.202	-104.959	-0.300	-0.068
-190.187	9.241	-0.090	-0.067
-189.173	-200.000	0.108	-0.483
-188.158	118.262	-0.199	0.241
-187.144	-200.000	-0.010	0.107
-186.129	800.000	-0.046	-0.147
-185.114	800.000	0.052	0.173
-184.100	368.173	-0.084	-0.167
-183.085	-57.193	-0.116	-0.050
-182.071	-63.965	-0.187	-0.075
-181.056	-35.610	-0.148	0.079
-180.042	-200.000	0.005	0.247
-179.027	800.000	-0.082	0.344
-178.012	244.328	-0.057	-0.094
-176.998	38.331	0.074	-0.065
-175.983	-84.882	-0.177	0.054
-174.969	-99.731	0.308	0.076
-173.954	800.000	0.052	-0.155
-172.939	-110.388	-0.307	0.063
-171.925	-6.737	0.026	0.018
-170.910	-200.000	-0.051	0.225
-169.896	800.000	0.088	-0.262
-168.881	-93.487	0.134	0.037
-167.866	-17.804	0.031	-0.019
-166.852	-18.077	0.075	-0.046
-165.837	-4.871	0.288	0.195
-164.823	326.611	0.023	0.043
-163.808	411.580	0.145	0.303
-162.793	36.007	0.158	-0.137
-161.779	31.400	0.359	0.303
-160.764	21.941	-0.154	0.123
-159.750	12.770	-0.328	-0.248
-158.735	449.250	-0.056	-0.122
-157.720	54.334	0.290	0.274
-156.706	717.766	0.053	-0.139
-155.691	55.242	-0.182	0.173
-154.677	-122.758	-0.279	-0.044
-153.662	-4.807	0.362	-0.245
-152.647	102.393	0.053	0.061
-151.633	-47.154	0.037	-0.018
-150.618	-42.504	0.028	0.014
-149.604	-135.571	0.321	-0.037
-148.589	-200.000	0.026	-0.226
-147.574	-110.160	-0.161	0.033
-146.560	150.299	0.140	0.186
-145.545	-82.704	-0.408	-0.130
-144.531	-84.507	0.211	0.065
-143.516	-49.180	-0.132	0.062
-142.502	-135.597	-0.128	-0.015
-141.487	-36.997	0.119	0.062
-140.472	800.000	0.046	0.160
-139.458	120.574	0.307	0.373
-138.443	0.649	-0.270	-0.189
-137.429	800.000	-0.045	-0.163
-136.414	-61.215	0.539	-0.223
-135.399	-155.103	-0.207	-0.013
-134.385	-114.777	0.100	-0.019
-133.370	800.000	-0.063	-0.173
-132.356	-82.318	-0.116	-0.037
-131.341	800.000	0.066	0.226
-130.326	-135.767	-0.226	-0.026
-129.312	474.623	0.061	-0.134
-128.297	239.713	0.022	0.036
-127.283	73.880	-0.079	0.081
-126.268	360.165	-0.031	-0.061
-125.253	-95.777	-0.290	-0.076
-124.239	195.779	0.120	-0.178
-123.224	494.615	-0.123	-0.278
-122.210	27.469	0.259	-0.213
