DTS Sentinel unit serial number:	SN413079Multiplexer serial number:	ORYXHardware model number:	OX4-SRSoftware version number:	ORYX F/W v4.00 Oryx Data Collector v3.7.2.0data status	okinstallation	princeton_trtdifferential loss correction	single-endedforward channel	channel 2reverse channel	N/Adate	2019/09/11time	03:41:11forward acquisition time	60.00reverse acquisition time	0.00gamma	496.2192k internal	0.2329k external	0.2329temperature offset calibration	0.9938default loss term (dB/km)	0.3790temperature slope calibration	1.0000multiplexer offset coefficient	1.0000multiplexer slope coefficient	1.0000fibre end	0.00T internal ref (°C)	29.52T ext. ref 1 (°C)	-0.30T ext. ref 2 (°C)	24.01length (m)	temperature (°C)	Stokes	anti-Stokes-747.200	276.776	0.150	-0.269
-746.185	196.828	-0.192	-0.295
-745.171	-122.656	0.203	-0.033
-744.156	501.453	-0.172	0.399
-743.142	193.343	-0.130	0.199
-742.127	-14.174	-0.172	0.112
-741.112	242.318	0.153	0.258
-740.098	-132.041	-0.110	-0.014
-739.083	-91.277	0.263	0.076
-738.069	772.576	0.089	0.245
-737.054	524.701	0.202	-0.479
-736.039	462.844	0.098	0.220
-735.025	38.778	-0.034	0.030
-734.010	-135.543	0.212	0.025
-732.996	-54.699	-0.181	0.083
-731.981	184.343	0.051	0.075
-730.966	-58.800	-0.181	0.079
-729.952	-93.574	-0.246	0.069
-728.937	-200.000	-0.003	0.051
-727.923	-200.000	-0.023	0.148
-726.908	763.791	0.119	0.326
-725.894	620.684	-0.129	-0.326
-724.879	56.794	-0.159	-0.156
-723.864	187.403	0.050	0.074
-722.850	-64.268	-0.185	-0.076
-721.835	-126.891	-0.393	0.058
-720.821	-74.013	0.334	-0.122
-719.806	800.000	0.069	-0.300
-718.791	127.532	-0.068	0.087
-717.777	-40.931	-0.428	0.223
-716.762	157.244	0.167	0.232
-715.748	-86.966	-0.172	0.053
-714.733	509.684	0.146	-0.341
-713.718	425.257	0.074	-0.161
-712.704	-64.902	-0.187	-0.076
-711.689	-190.308	-0.082	0.001
-710.675	403.642	-0.071	0.150
-709.660	-200.000	0.007	-0.073
-708.645	800.000	0.124	-0.357
-707.631	-50.339	-0.236	-0.112
-706.616	122.159	-0.213	-0.268
-705.602	-200.000	0.009	-0.220
-704.587	-151.530	-0.185	-0.014
-703.572	-200.000	-0.021	0.344
-702.558	234.820	0.031	-0.051
-701.543	-200.000	0.014	-0.119
-700.529	-177.496	0.158	0.004
-699.514	-81.104	0.201	-0.067
-698.499	-47.824	0.172	0.084
-697.485	160.424	-0.137	0.193
-696.470	-154.284	-0.022	0.002
-695.456	800.000	-0.117	-0.380
-694.441	-149.362	0.063	0.005
-693.426	137.763	-0.087	0.115
-692.412	-200.000	0.043	0.306
-691.397	-44.322	-0.077	0.039
-690.383	-70.966	-0.401	0.152
-689.368	-159.559	-0.037	-0.002
-688.354	-200.000	-0.023	-0.139
-687.339	-33.962	-0.087	-0.048
-686.324	107.955	0.069	-0.082
-685.310	-45.189	-0.200	-0.100
-684.295	67.152	-0.224	0.230
-683.281	81.253	0.087	-0.094
-682.266	-83.518	-0.129	0.041
-681.251	87.951	-0.245	0.273
-680.237	-200.000	-0.049	0.452
-679.222	800.000	-0.087	-0.322
-678.208	6.203	-0.281	0.210
-677.193	-63.533	0.206	-0.085
-676.178	129.164	-0.087	0.111
-675.164	-113.701	-0.058	0.011
-674.149	396.473	0.112	0.235
-673.135	-49.390	-0.098	-0.047
-672.120	3.154	0.320	0.234
-671.105	-120.868	-0.264	-0.045
-670.091	216.448	0.203	0.324
-669.076	800.000	-0.104	0.304
-668.062	168.685	0.096	-0.137
-667.047	-169.914	-0.042	0.001
-666.032	-68.613	-0.288	0.112
-665.018	800.000	-0.038	0.121
-664.003	-200.000	-0.040	0.465
-662.989	25.636	0.066	-0.055
-661.974	-200.000	-0.021	-0.156
-660.959	-200.000	-0.003	-0.061
-659.945	-68.031	-0.243	0.095
-658.930	-200.000	-0.063	-0.388
-657.916	-188.496	-0.263	0.003
-656.901	-82.195	-0.161	0.053
-655.886	196.436	-0.239	-0.366
-654.872	-137.242	-0.400	-0.046
-653.857	-25.151	0.104	0.062
-652.843	27.804	0.140	0.118
-651.828	800.000	0.050	-0.177
-650.814	-200.000	0.005	0.231
-649.799	-200.000	-0.052	-0.295
-648.784	503.226	-0.087	0.202
-647.770	144.109	-0.105	-0.140
-646.755	-200.000	-0.014	-0.215
-645.741	-15.144	0.057	-0.036
-644.726	39.364	-0.179	-0.161
-643.711	-192.647	0.094	-0.001
-642.697	143.599	-0.149	0.200
-641.682	-67.957	-0.013	-0.005
-640.668	-70.495	-0.188	0.071
-639.653	61.468	0.126	0.126
-638.638	143.791	0.142	-0.190
-637.624	-127.814	0.130	-0.019
-636.609	20.460	0.209	-0.170
-635.595	132.271	-0.163	0.211
-634.580	-200.000	-0.020	0.122
-633.565	130.847	0.087	0.112
-632.551	289.926	-0.152	-0.277
-631.536	-126.579	-0.181	-0.027
-630.522	-88.369	0.220	-0.066
-629.507	-35.960	0.245	0.133
-628.492	42.852	-0.025	-0.023
-627.478	24.577	0.377	-0.313
-626.463	-200.000	0.019	0.085
-625.449	-149.128	0.076	0.006
-624.434	-87.234	0.359	-0.109
-623.419	-54.594	-0.119	-0.054
-622.405	66.535	0.079	0.081
-621.390	26.456	-0.171	-0.143
-620.376	-25.811	-0.089	0.053
-619.361	16.714	-0.184	-0.146
-618.346	215.333	-0.103	-0.164
-617.332	-200.000	0.060	-0.466
-616.317	-86.156	0.217	-0.067
-615.303	11.585	-0.440	-0.338
-614.288	-29.343	-0.038	-0.022
-613.273	-134.786	-0.566	-0.069
-612.259	-200.000	-0.008	-0.067
-611.244	800.000	0.022	0.070
-610.230	115.920	-0.049	-0.060
-609.215	-7.186	-0.250	-0.170
-608.201	-126.338	0.686	0.103
-607.186	105.663	-0.151	-0.179
-606.171	208.843	0.071	0.111
-605.157	-85.744	0.116	0.036
-604.142	-27.805	0.318	0.185
-603.128	-200.000	-0.012	0.086
-602.113	800.000	0.067	0.189
-601.098	-70.079	0.105	0.040
-600.084	123.410	0.014	-0.018
-599.069	57.110	-0.251	-0.246
-598.055	-83.139	-0.152	0.049
-597.040	-200.000	-0.003	-0.358
-596.025	800.000	-0.011	-0.034
-595.011	-175.187	-0.042	-0.001
-593.996	-123.156	-0.257	-0.041
-592.982	800.000	-0.023	0.062
-591.967	-53.787	-0.319	0.146
-590.952	800.000	0.039	-0.115
-589.938	212.366	-0.039	-0.062
-588.923	-15.200	-0.185	-0.118
-587.909	106.521	0.041	0.049
-586.894	-74.766	0.272	0.098
-585.879	11.635	0.275	0.211
-584.865	-60.338	-0.346	0.147
-583.850	-12.542	0.045	0.030
-582.836	182.021	-0.114	-0.168
-581.821	146.453	-0.126	0.170
-580.806	251.401	-0.175	0.298
-579.792	-200.000	0.011	0.070
-578.777	-7.344	-0.263	0.178
-577.763	717.518	0.034	0.090
-576.748	-4.692	-0.174	0.120
-575.733	-168.841	0.323	-0.012
-574.719	-170.350	0.185	-0.007
-573.704	-118.566	0.173	-0.031
-572.690	-95.057	-0.251	0.068
-571.675	800.000	-0.101	-0.283
-570.661	254.013	-0.113	-0.193
-569.646	273.450	-0.159	-0.281
-568.631	-99.498	-0.163	-0.041
-567.617	-84.245	0.133	-0.042
-566.602	-26.576	0.215	-0.126
-565.588	191.263	0.040	0.060
-564.573	-20.986	-0.331	-0.202
-563.558	87.372	-0.253	-0.279
-562.544	-105.991	-0.098	0.022
-561.529	-137.452	-0.186	-0.021
-560.515	359.492	-0.143	0.285
-559.500	-51.340	-0.139	0.065
-558.485	-62.465	-0.036	-0.015
-557.471	94.918	-0.174	-0.198
-556.456	666.157	0.072	0.186
-555.442	-200.000	0.059	-0.378
-554.427	800.000	0.041	-0.158
-553.412	-108.260	0.251	-0.054
-552.398	-163.267	-0.335	0.016
-551.383	-157.508	-0.198	-0.012
-550.369	-67.166	-0.155	0.061
-549.354	-118.556	-0.361	0.064
-548.339	592.662	0.041	0.102
-547.325	-49.430	-0.067	0.032
-546.310	-11.755	0.211	0.138
-545.296	556.858	-0.079	-0.190
-544.281	382.681	-0.105	0.217
-543.266	215.774	0.047	0.074
-542.252	-26.480	-0.151	0.088
-541.237	-200.000	-0.005	-0.170
-540.223	-82.633	-0.266	0.086
-539.208	-179.124	-0.259	0.006
-538.193	800.000	0.089	0.346
-537.179	118.602	0.281	0.346
-536.164	-114.938	0.235	-0.045
-535.150	-59.385	0.120	-0.052
-534.135	-90.138	0.232	-0.068
-533.121	-200.000	0.029	-0.315
-532.106	175.600	0.121	-0.175
-531.091	21.278	0.103	-0.084
-530.077	800.000	0.088	0.260
-529.062	800.000	-0.036	0.105
-528.048	-112.444	0.170	0.034
-527.033	-181.285	0.090	-0.002
-526.018	-178.907	0.222	-0.005
-525.004	-200.000	0.009	-0.256
-523.989	800.000	-0.094	-0.360
-522.975	-131.663	0.184	-0.024
-521.960	52.957	-0.157	-0.150
-520.945	-200.000	0.025	-0.234
-519.931	-74.285	0.119	0.043
-518.916	45.445	-0.165	0.152
-517.902	127.172	0.201	0.254
-516.887	-99.043	-0.195	0.049
-515.872	-200.000	-0.028	-0.428
-514.858	-200.000	-0.035	-0.220
-513.843	48.615	0.061	-0.057
-512.829	33.006	-0.158	0.137
-511.814	-45.348	-0.210	-0.104
-510.799	-98.377	-0.161	0.041
-509.785	-44.873	-0.229	0.114
-508.770	180.474	0.070	-0.103
-507.756	67.443	-0.243	-0.248
-506.741	-2.320	-0.120	-0.084
-505.726	800.000	-0.073	0.290
-504.712	800.000	0.067	0.290
-503.697	-85.493	-0.084	0.026
-502.683	-100.945	0.477	0.117
-501.668	6.111	-0.049	-0.036
-500.653	63.721	0.277	-0.277
-499.639	-90.325	-0.127	-0.037
-498.624	251.879	-0.041	0.069
-497.610	98.653	0.168	0.194
-496.595	3.205	-0.228	0.165
-495.581	-36.035	-0.112	0.061
-494.566	-48.747	0.281	-0.135
-493.551	800.000	-0.030	-0.116
-492.537	800.000	0.045	-0.185
-491.522	-79.728	0.191	0.064
-490.508	23.012	-0.054	-0.044
-489.493	36.779	0.298	0.262
-488.478	110.793	-0.200	0.240
-487.464	119.939	-0.071	-0.088
-486.449	-147.624	-0.196	-0.016
-485.435	158.550	-0.099	0.136
-484.420	-200.000	-0.009	0.161
-483.405	796.002	-0.060	0.164
-482.391	-149.273	0.294	-0.023
-481.376	800.000	-0.138	0.480
-480.362	800.000	0.192	-0.656
-479.347	-200.000	-0.018	0.143
-478.332	-74.688	-0.380	0.136
-477.318	555.711	-0.089	-0.213
-476.303	-200.000	-0.012	0.087
-475.289	70.193	-0.075	-0.077
-474.274	-200.000	-0.002	-0.105
-473.259	-192.281	-0.395	0.004
-472.245	-200.000	0.060	-0.360
-471.230	268.130	-0.086	0.151
-470.216	332.501	0.125	0.240
-469.201	-79.246	0.201	-0.068
-468.186	-137.158	0.165	0.019
-467.172	14.801	0.254	-0.198
-466.157	-200.000	0.026	-0.421
-465.143	263.428	-0.132	0.229
-464.128	800.000	0.121	-0.358
-463.113	171.497	0.095	-0.136
-462.099	-128.466	0.181	0.026
-461.084	-200.000	-0.016	0.138
-460.070	-96.546	-0.087	-0.023
-459.055	-46.694	0.187	-0.091
-458.040	34.093	0.065	0.056
-457.026	60.118	0.067	0.066
-456.011	-92.886	-0.100	-0.028
-454.997	-160.363	0.224	-0.012
-453.982	-11.079	-0.252	-0.165
-452.968	800.000	0.071	0.228
-451.953	28.867	-0.118	-0.100
-450.938	-132.309	-0.182	-0.023
-449.924	-145.604	-0.042	0.004
-448.909	-200.000	-0.003	-0.091
-447.895	-76.513	-0.156	0.054
-446.880	-3.193	0.223	-0.155
-445.865	-25.587	-0.245	-0.144
-444.851	800.000	0.053	-0.146
-443.836	485.150	-0.069	-0.158
-442.822	-85.042	-0.070	0.022
-441.807	800.000	-0.103	-0.392
-440.792	23.840	0.168	0.138
-439.778	356.801	-0.118	0.233
-438.763	-179.687	0.164	-0.004
-437.749	-57.447	0.267	-0.117
-436.734	-137.323	-0.252	-0.028
-435.719	-4.363	0.074	-0.051
-434.705	147.698	0.276	-0.371
-433.690	-125.759	0.058	0.009
-432.676	110.991	0.035	-0.042
-431.661	-8.323	-0.097	0.065
-430.646	-160.888	-0.373	-0.020
-429.632	-200.000	-0.007	0.121
-428.617	-57.897	0.135	-0.059
-427.603	-182.661	-0.188	-0.003
-426.588	110.055	-0.018	-0.022
-425.573	183.749	-0.081	-0.119
-424.559	-4.849	0.037	0.026
-423.544	73.437	0.087	-0.090
-422.530	306.519	0.216	-0.399
-421.515	82.993	0.097	0.104
-420.500	-109.209	0.360	0.076
-419.486	20.027	0.284	0.228
-418.471	302.675	-0.214	-0.394
-417.457	-114.363	0.195	-0.037
-416.442	106.199	-0.024	0.029
-415.428	247.698	0.154	0.259
-414.413	800.000	0.041	0.116
-413.398	-13.503	-0.258	0.166
-412.384	182.375	0.047	0.070
-411.369	301.220	-0.149	-0.273
-410.355	91.805	0.277	-0.310
-409.340	-53.875	-0.121	-0.055
-408.325	52.825	-0.160	-0.152
-407.311	-200.000	-0.003	-0.145
-406.296	-77.984	-0.294	-0.101
-405.282	61.101	0.087	0.086
-404.267	-29.761	-0.251	0.143
-403.252	521.389	0.090	0.211
-402.238	-200.000	-0.025	0.312
-401.223	369.841	-0.119	0.239
-400.209	173.308	-0.038	-0.054
-399.194	-139.469	-0.201	0.021
-398.179	201.155	-0.171	0.261
-397.165	-200.000	-0.014	0.286
-396.150	-200.000	-0.028	-0.165
-395.136	800.000	-0.050	-0.155
-394.121	-17.679	0.093	0.058
-393.106	34.528	0.113	-0.098
-392.092	-7.873	0.192	0.129
-391.077	-200.000	-0.102	0.480
-390.063	-200.000	-0.001	-0.056
-389.048	-107.394	0.371	0.081
-388.033	800.000	0.074	-0.303
-387.019	429.197	-0.089	-0.191
-386.004	632.435	-0.138	0.346
-384.990	684.391	0.074	-0.193
-383.975	-200.000	0.023	-0.141
-382.960	-88.259	-0.156	-0.046
-381.946	14.219	0.096	0.075
-380.931	800.000	0.100	0.298
-379.917	204.117	0.213	-0.327
-378.902	-87.356	-0.226	0.068
-377.888	800.000	0.091	-0.392
-376.873	-84.193	-0.213	-0.067
-375.858	-160.579	0.520	-0.028
-374.844	-108.378	0.256	0.055
-373.829	337.351	0.153	-0.296
-372.815	800.000	-0.062	0.239
-371.800	800.000	-0.021	0.061
-370.785	800.000	-0.102	0.322
-369.771	533.199	-0.084	-0.198
-368.756	-29.035	-0.183	0.104
-367.742	-2.811	-0.292	-0.202
-366.727	-84.590	0.155	-0.049
-365.712	-6.009	-0.195	0.132
-364.698	676.626	0.098	0.253
-363.683	-200.000	-0.006	-0.202
-362.669	800.000	0.049	0.176
-361.654	102.036	0.198	0.230
-360.639	668.558	0.050	0.129
-359.625	-200.000	0.036	0.328
-358.610	489.563	0.135	-0.306
-357.596	-67.024	-0.113	0.044
-356.581	44.289	0.094	-0.086
-355.566	21.862	-0.108	-0.087
-354.552	-17.534	-0.103	0.065
-353.537	-133.957	-0.156	0.019
-352.523	253.746	-0.080	0.135
-351.508	-38.685	0.080	-0.042
-350.493	-110.603	0.275	-0.056
-349.479	800.000	-0.056	0.176
-348.464	-39.259	-0.170	0.089
-347.450	800.000	0.081	-0.268
-346.435	53.258	0.214	-0.204
-345.420	-129.734	0.190	-0.026
-344.406	-200.000	-0.010	-0.227
-343.391	458.655	-0.159	-0.350
-342.377	-95.392	0.398	0.106
-341.362	-0.346	0.374	-0.264
-340.348	-11.793	-0.045	0.029
-339.333	-168.136	-0.105	0.004
-338.318	-97.976	-0.300	0.077
-337.304	-159.887	0.185	-0.010
-336.289	-168.227	-0.441	0.017
-335.275	-195.332	-0.345	0.003
-334.260	-200.000	0.006	-0.035
-333.245	-58.602	-0.159	0.069
-332.231	-86.094	-0.145	0.044
-331.216	800.000	0.049	-0.161
-330.202	-200.000	0.033	0.296
-329.187	367.321	-0.027	0.055
-328.172	-110.287	0.318	-0.066
-327.158	306.633	-0.090	0.166
-326.143	29.913	-0.283	0.239
-325.129	-133.035	0.318	-0.040
-324.114	144.006	0.091	0.120
-323.099	-200.000	0.028	0.180
-322.085	34.190	-0.139	-0.120
-321.070	800.000	0.056	0.162
-320.056	251.541	0.065	0.110
-319.041	-2.977	-0.076	0.053
-318.026	140.373	-0.216	-0.282
-317.012	-191.131	-0.201	-0.002
-315.997	62.056	0.056	0.055
-314.983	-200.000	0.033	0.310
-313.968	-65.090	0.413	0.165
-312.953	-131.345	0.416	0.055
-311.939	-200.000	0.002	-0.067
-310.924	-149.386	0.237	-0.019
-309.910	-200.000	-0.015	0.235
-308.895	104.322	0.141	0.164
-307.880	9.821	0.125	-0.094
-306.866	-200.000	-0.038	0.236
-305.851	-110.070	0.267	0.055
-304.837	-127.083	0.269	-0.039
-303.822	83.850	0.174	0.188
-302.807	-85.093	0.366	-0.113
-301.793	-0.079	0.224	0.158
-300.778	800.000	-0.044	0.181
-299.764	-200.000	0.039	0.193
-298.749	262.408	-0.091	0.157
-297.735	-110.567	0.053	-0.011
-296.720	-53.183	0.253	-0.115
-295.705	-200.000	-0.004	0.092
-294.691	800.000	0.031	0.131
-293.676	88.040	-0.354	0.389
-292.662	83.365	0.148	0.160
-291.647	190.424	0.124	0.184
-290.632	16.251	-0.152	-0.118
-289.618	120.227	0.140	0.172
-288.603	-200.000	0.007	0.292
-287.589	-77.059	0.492	-0.170
-286.574	-32.946	-0.154	0.084
-285.559	-76.272	0.414	0.144
-284.545	73.041	0.213	-0.220
-283.530	-120.151	-0.137	-0.023
-282.516	-103.454	0.154	0.036
-281.501	580.546	-0.033	-0.080
-280.486	5.190	-0.352	-0.257
-279.472	-146.210	-0.461	0.040
-278.457	800.000	0.001	0.006
-277.443	-70.464	-0.369	0.138
-276.428	76.670	-0.154	0.162
-275.413	-1.005	0.163	-0.114
-274.399	-67.908	-0.058	0.023
-273.384	-155.693	0.206	-0.013
-272.370	-95.612	0.382	0.101
-271.355	235.551	0.200	0.326
-270.340	128.102	0.227	0.285
-269.326	36.446	-0.265	-0.232
-268.311	280.429	0.104	0.184
-267.297	-179.994	0.309	-0.007
-266.282	-137.279	0.072	-0.008
-265.267	-200.000	0.051	0.247
-264.253	-95.133	0.047	-0.013
-263.238	-200.000	-0.060	0.288
-262.224	-26.695	0.064	0.037
-261.209	-127.637	-0.286	0.041
-260.195	-200.000	-0.060	-0.410
-259.180	156.374	-0.129	-0.176
-258.165	-101.265	0.328	-0.079
-257.151	66.088	-0.177	-0.177
-256.136	-30.307	-0.218	-0.122
-255.122	7.247	-0.147	-0.109
-254.107	70.541	-0.134	-0.136
-253.092	-90.408	0.076	-0.022
-252.078	51.017	-0.072	0.068
-251.063	72.618	0.256	-0.264
-250.049	7.031	-0.226	0.167
-249.034	303.443	-0.135	-0.247
-248.019	-99.092	0.057	-0.014
-247.005	-11.540	0.152	-0.099
-245.990	166.171	0.099	-0.138
-244.976	-31.339	-0.171	-0.095
-243.961	-22.893	0.193	0.115
-242.946	-125.062	-0.046	0.007
-241.932	111.063	0.038	0.046
-240.917	-200.000	0.028	0.144
-239.903	54.289	0.161	-0.153
-238.888	-194.001	-0.270	-0.002
-237.873	-200.000	-0.027	0.275
-236.859	-200.000	-0.025	0.550
-235.844	-200.000	0.017	-0.112
-234.830	-182.470	0.099	0.002
-233.815	-76.964	-0.045	-0.016
-232.800	252.241	0.111	0.187
-231.786	77.005	0.155	0.163
-230.771	-25.846	-0.252	0.147
-229.757	-162.920	-0.146	0.007
-228.742	-200.000	0.064	0.314
-227.727	7.609	-0.271	0.200
-226.713	-37.633	-0.081	-0.043
-225.698	620.526	0.046	0.115
-224.684	-66.782	-0.231	-0.090
-223.669	-200.000	-0.012	0.105
-222.655	800.000	-0.072	0.200
-221.640	-136.124	-0.204	0.024
-220.625	429.748	-0.103	0.220
-219.611	-200.000	0.055	-0.303
-218.596	-200.000	0.000	0.007
-217.582	248.737	-0.123	0.206
-216.567	800.000	-0.067	-0.239
-215.552	172.573	0.159	-0.227
-214.538	510.719	0.166	0.382
-213.523	800.000	0.056	0.191
-212.509	-106.702	0.166	-0.036
-211.494	-200.000	-0.006	-0.146
-210.479	-54.648	-0.442	-0.197
-209.465	180.544	0.173	-0.251
-208.450	78.112	-0.237	0.249
-207.436	-200.000	0.012	0.173
-206.421	-6.370	-0.402	-0.270
-205.406	353.722	-0.096	0.187
-204.392	279.310	0.089	-0.157
-203.377	20.044	-0.072	0.058
-202.363	-13.549	-0.214	-0.137
-201.348	-200.000	0.006	0.053
-200.333	-183.486	0.243	-0.004
-199.319	259.059	-0.055	-0.093
-198.304	-200.000	-0.012	-0.193
-197.290	625.167	0.105	-0.260
-196.275	-200.000	-0.001	0.134
-195.260	800.000	0.031	0.095
-194.246	197.663	-0.177	-0.267
-193.231	-138.674	0.141	0.015
-192.217	17.649	0.105	-0.082
-191.202	-40.080	0.120	0.061
-190.187	-200.000	-0.040	-0.235
-189.173	-200.000	-0.007	-0.079
-188.158	725.231	0.007	-0.019
-187.144	-36.939	-0.084	0.045
-186.129	-69.176	0.108	-0.041
-185.114	-95.078	-0.374	0.099
-184.100	-77.557	0.255	0.087
-183.085	-70.907	0.294	-0.109
-182.071	161.264	0.175	0.241
-181.056	-200.000	-0.006	0.181
-180.042	-23.124	0.033	-0.020
-179.027	-79.387	-0.225	0.075
-178.012	800.000	0.018	-0.056
-176.998	-57.065	-0.252	0.109
-175.983	117.742	0.140	0.169
-174.969	-19.774	-0.256	0.156
-173.954	27.010	0.064	-0.053
-172.939	-73.627	-0.208	0.075
-171.925	-76.819	0.239	-0.082
-170.910	-168.102	-0.235	-0.009
-169.896	-84.006	-0.100	0.031
-168.881	-192.879	0.180	-0.002
-167.866	-200.000	0.007	-0.195
-166.852	411.824	0.130	0.272
-165.837	-107.438	0.379	-0.082
-164.823	800.000	0.106	-0.366
-163.808	800.000	0.035	-0.141
-162.793	-200.000	-0.031	0.397
-161.779	-84.910	-0.241	0.074
-160.764	509.778	-0.054	0.124
-159.750	570.666	-0.064	-0.154
-158.735	50.508	0.151	0.140
-157.720	584.984	0.055	-0.133
-156.706	-160.954	0.427	-0.022
-155.691	-71.350	-0.397	0.147
-154.677	67.104	0.035	-0.035
-153.662	-172.648	-0.173	0.005
-152.647	-163.944	0.327	0.015
-151.633	800.000	0.079	-0.318
-150.618	-200.000	-0.003	0.255
-149.604	-200.000	0.009	-0.180
-148.589	-200.000	0.014	-0.200
-147.574	212.306	-0.183	0.284
-146.560	125.808	0.113	-0.140
-145.545	-200.000	-0.068	-0.342
-144.531	-200.000	0.020	0.118
-143.516	-23.432	-0.121	-0.071
-142.502	-45.778	0.192	0.093
-141.487	-200.000	-0.042	-0.228
-140.472	800.000	-0.054	-0.221
-139.458	-34.992	0.406	0.218
-138.443	-115.795	0.302	0.056
-137.429	150.114	0.145	-0.193
-136.414	800.000	-0.103	0.382
-135.399	-0.170	0.166	0.116
-134.385	-156.726	0.355	0.022
-133.370	159.875	0.116	0.159
-132.356	-19.496	-0.205	-0.125
-131.341	197.508	0.146	0.219
-130.326	-14.171	-0.181	0.115
-129.312	800.000	0.084	0.285
-128.297	-13.712	-0.053	0.034
-127.283	-200.000	-0.028	0.209
-126.268	-200.000	0.010	-0.044
-125.253	9.183	-0.199	-0.148
-124.239	139.895	0.118	0.153
-123.224	41.119	0.216	0.192
-122.210	109.521	0.234	0.276
