DTS Sentinel unit serial number:	SN413079Multiplexer serial number:	ORYXHardware model number:	OX4-SRSoftware version number:	ORYX F/W v4.00 Oryx Data Collector v3.7.2.0data status	okinstallation	princeton_trtdifferential loss correction	single-endedforward channel	channel 2reverse channel	N/Adate	2019/09/11time	02:45:10forward acquisition time	60.00reverse acquisition time	0.00gamma	496.2192k internal	0.2331k external	0.2331temperature offset calibration	0.9939default loss term (dB/km)	0.3790temperature slope calibration	1.0000multiplexer offset coefficient	1.0000multiplexer slope coefficient	1.0000fibre end	0.00T internal ref (°C)	29.25T ext. ref 1 (°C)	-0.31T ext. ref 2 (°C)	23.19length (m)	temperature (°C)	Stokes	anti-Stokes-747.200	-10.344	0.082	-0.055
-746.185	800.000	-0.062	0.272
-745.171	-173.181	0.280	-0.009
-744.156	-143.202	-0.075	0.007
-743.142	21.706	-0.143	-0.117
-742.127	-182.575	-0.185	-0.003
-741.112	-90.060	-0.193	0.056
-740.098	-74.554	0.106	0.039
-739.083	-109.173	0.219	-0.047
-738.069	-32.977	-0.140	0.078
-737.054	478.098	-0.131	0.299
-736.039	8.057	-0.214	0.161
-735.025	-98.715	0.211	0.054
-734.010	-200.000	0.036	-0.363
-732.996	-200.000	0.019	-0.225
-731.981	203.258	-0.093	0.145
-730.966	-168.647	-0.132	0.005
-729.952	157.526	-0.180	0.250
-728.937	-73.579	-0.225	0.083
-727.923	367.199	0.065	0.132
-726.908	-200.000	-0.020	-0.132
-725.894	-44.564	-0.332	-0.167
-724.879	451.047	-0.034	-0.076
-723.864	-115.371	-0.414	0.079
-722.850	527.591	0.056	0.133
-721.835	156.232	-0.041	-0.058
-720.821	82.349	-0.105	0.114
-719.806	-102.115	-0.286	0.069
-718.791	-117.655	0.164	0.030
-717.777	117.011	0.237	-0.293
-716.762	660.972	0.044	-0.113
-715.748	-77.535	-0.348	0.121
-714.733	45.927	0.054	-0.050
-713.718	257.459	-0.076	0.131
-712.704	67.419	-0.099	0.102
-711.689	-153.370	-0.144	-0.010
-710.675	47.865	0.069	-0.064
-709.660	-174.767	0.083	0.002
-708.645	-125.085	-0.140	0.022
-707.631	49.285	-0.172	0.163
-706.616	-92.282	-0.422	-0.120
-705.602	-143.320	-0.240	0.023
-704.587	800.000	-0.131	0.481
-703.572	186.602	0.078	0.117
-702.558	-120.626	0.343	-0.058
-701.543	800.000	0.086	-0.297
-700.529	-187.507	0.156	-0.002
-699.514	-200.000	0.004	0.102
-698.499	38.194	-0.196	0.175
-697.485	-111.660	-0.482	-0.098
-696.470	-26.080	0.137	0.081
-695.456	-66.644	-0.036	-0.014
-694.441	15.299	-0.139	-0.110
-693.426	-71.374	0.311	0.117
-692.412	-34.859	-0.240	0.132
-691.397	-62.394	-0.187	-0.078
-690.383	800.000	-0.058	-0.204
-689.368	233.131	-0.060	0.099
-688.354	-15.998	-0.158	-0.101
-687.339	-130.291	-0.127	-0.017
-686.324	-200.000	-0.014	0.062
-685.310	-200.000	0.043	-0.447
-684.295	59.071	-0.252	-0.249
-683.281	-67.035	0.149	-0.059
-682.266	800.000	0.085	0.281
-681.251	4.644	-0.116	-0.086
-680.237	31.040	0.268	-0.230
-679.222	-20.993	0.066	0.041
-678.208	40.874	-0.281	0.255
-677.193	219.871	-0.047	0.076
-676.178	250.361	-0.122	0.208
-675.164	3.584	-0.182	0.133
-674.149	39.650	-0.108	0.097
-673.135	182.767	0.226	0.335
-672.120	225.487	-0.105	0.171
-671.105	-156.590	0.321	0.020
-670.091	-120.724	0.289	0.049
-669.076	-77.595	0.027	-0.009
-668.062	-200.000	-0.020	0.182
-667.047	800.000	0.049	0.209
-666.032	-200.000	0.027	0.183
-665.018	-73.991	-0.114	-0.041
-664.003	596.434	-0.044	0.109
-662.989	-200.000	0.010	-0.132
-661.974	-63.859	0.230	-0.094
-660.959	-24.980	0.146	-0.087
-659.945	63.337	0.017	-0.017
-658.930	26.503	-0.282	-0.236
-657.916	-81.840	-0.090	0.030
-656.901	161.602	0.187	-0.262
-655.886	360.915	0.096	0.192
-654.872	508.380	0.094	0.219
-653.857	54.679	-0.147	-0.142
-652.843	-127.389	0.291	0.043
-651.828	5.237	-0.176	-0.130
-650.814	261.586	-0.268	-0.466
-649.799	-27.709	-0.107	-0.062
-648.784	161.742	-0.143	0.200
-647.770	800.000	-0.058	-0.240
-646.755	411.639	0.184	-0.392
-645.741	319.201	0.033	-0.062
-644.726	800.000	0.059	0.224
-643.711	-200.000	-0.057	0.321
-642.697	-200.000	0.008	-0.215
-641.682	133.053	0.185	0.240
-640.668	-181.306	0.270	-0.005
-639.653	-200.000	0.010	-0.167
-638.638	-181.301	-0.210	0.004
-637.624	40.390	-0.154	0.139
-636.609	-51.486	0.129	0.060
-635.595	-47.433	0.154	-0.075
-634.580	800.000	0.087	0.244
-633.565	-57.715	0.223	-0.098
-632.551	434.218	-0.071	-0.154
-631.536	-19.947	0.308	-0.191
-630.522	693.863	0.035	-0.092
-629.507	-200.000	-0.284	-0.001
-628.492	-60.758	-0.027	0.012
-627.478	-94.827	-0.080	-0.022
-626.463	-19.328	-0.205	-0.127
-625.449	-200.000	-0.001	0.230
-624.434	-200.000	0.041	0.279
-623.419	691.994	0.011	-0.028
-622.405	93.090	0.208	-0.236
-621.390	-130.970	0.315	-0.042
-620.376	69.283	-0.211	0.218
-619.361	45.888	0.177	0.164
-618.346	-200.000	0.038	-0.263
-617.332	-84.348	-0.343	-0.109
-616.317	-134.497	-0.047	-0.006
-615.303	-65.984	-0.350	-0.140
-614.288	333.020	-0.163	-0.316
-613.273	-80.556	0.149	-0.050
-612.259	-59.170	0.199	-0.086
-611.244	98.305	-0.177	-0.205
-610.230	-21.816	0.292	0.178
-609.215	7.396	0.273	0.204
-608.201	47.842	0.251	0.235
-607.186	-34.513	0.021	0.011
-606.171	89.204	-0.057	-0.064
-605.157	2.582	0.172	0.125
-604.142	-200.000	-0.035	-0.198
-603.128	336.731	0.121	-0.235
-602.113	800.000	0.119	-0.411
-601.098	-137.210	0.114	0.013
-600.084	212.939	0.089	-0.141
-599.069	-106.821	0.119	0.026
-598.055	-200.000	-0.003	0.231
-597.040	-200.000	-0.001	-0.086
-596.025	71.020	0.191	-0.199
-595.011	35.872	-0.117	0.103
-593.996	-27.881	0.158	-0.092
-592.982	800.000	0.118	-0.367
-591.967	-115.605	0.236	-0.044
-590.952	-112.660	-0.392	-0.078
-589.938	553.329	-0.053	0.126
-588.923	-65.470	0.291	0.117
-587.909	-200.000	0.036	-0.176
-586.894	315.290	-0.164	-0.309
-585.879	-200.000	-0.047	0.219
-584.865	25.876	-0.318	0.265
-583.850	-180.839	0.366	-0.007
-582.836	567.630	0.015	0.036
-581.821	-200.000	0.021	0.282
-580.806	87.342	-0.118	0.130
-579.792	-28.828	0.412	0.237
-578.777	-16.515	-0.194	0.123
-577.763	-138.548	-0.186	0.020
-576.748	-126.549	0.035	-0.005
-575.733	-200.000	0.041	0.354
-574.719	104.681	-0.148	0.174
-573.704	8.316	-0.336	-0.252
-572.690	-61.252	-0.156	-0.066
-571.675	494.232	0.103	-0.236
-570.661	-131.785	-0.307	-0.040
-569.646	5.447	0.076	0.056
-568.631	-42.920	0.176	-0.089
-567.617	-85.845	-0.183	-0.057
-566.602	-20.838	-0.074	0.045
-565.588	800.000	0.054	0.235
-564.573	-16.688	0.106	0.067
-563.558	-200.000	-0.039	-0.468
-562.544	-103.541	0.208	-0.049
-561.529	800.000	-0.139	-0.425
-560.515	76.835	-0.180	-0.191
-559.500	-200.000	-0.009	-0.123
-558.485	35.552	0.135	0.118
-557.471	-200.000	-0.001	-0.007
-556.456	-117.999	-0.383	-0.068
-555.442	-11.724	0.090	-0.059
-554.427	-61.379	0.348	-0.146
-553.412	174.537	0.116	0.167
-552.398	-87.257	-0.297	-0.090
-551.383	-200.000	-0.001	-0.269
-550.369	-200.000	0.012	-0.141
-549.354	261.433	-0.160	0.277
-548.339	-144.079	0.087	-0.008
-547.325	-126.352	0.399	-0.059
-546.310	-200.000	0.009	0.066
-545.296	135.280	-0.089	0.116
-544.281	414.831	-0.098	0.208
-543.266	525.392	0.072	0.168
-542.252	-74.043	0.285	-0.103
-541.237	-97.050	0.199	-0.052
-540.223	-43.281	0.125	-0.063
-539.208	51.309	-0.116	0.110
-538.193	-134.908	-0.253	0.031
-537.179	800.000	-0.052	0.178
-536.164	800.000	0.074	0.234
-535.150	37.158	-0.158	0.140
-534.135	-128.535	-0.341	0.048
-533.121	-60.881	0.279	-0.118
-532.106	-184.995	-0.112	0.002
-531.091	93.345	-0.179	0.202
-530.077	-200.000	-0.087	0.422
-529.062	800.000	0.027	-0.103
-528.048	-141.733	-0.383	0.038
-527.033	-200.000	0.052	-0.508
-526.018	609.087	0.060	-0.151
-525.004	-15.785	0.253	0.161
-523.989	408.897	-0.045	-0.095
-522.975	-90.886	0.130	-0.037
-521.960	389.387	-0.231	-0.478
-520.945	62.468	0.319	-0.318
-519.931	-38.363	0.272	0.144
-518.916	-200.000	0.001	0.225
-517.902	800.000	-0.029	-0.110
-516.887	537.075	0.033	-0.078
-515.872	-147.291	0.366	-0.031
-514.858	-2.695	0.190	0.132
-513.843	-96.266	-0.093	0.025
-512.829	69.050	-0.091	-0.093
-511.814	-72.503	-0.204	0.075
-510.799	-200.000	0.011	-0.250
-509.785	5.848	0.258	-0.191
-508.770	-14.699	-0.141	0.091
-507.756	62.984	0.048	0.047
-506.741	273.477	-0.133	-0.234
-505.726	40.200	0.044	0.039
-504.712	-21.447	0.081	0.049
-503.697	-72.010	-0.190	-0.071
-502.683	-200.000	0.039	0.515
-501.668	265.046	-0.096	-0.167
-500.653	206.153	0.306	-0.474
-499.639	800.000	-0.033	0.134
-498.624	-106.118	0.305	0.068
-497.610	-16.347	-0.252	-0.159
-496.595	210.712	0.083	0.130
-495.581	-185.892	-0.131	-0.002
-494.566	-75.437	-0.334	-0.119
-493.551	129.011	0.075	-0.095
-492.537	-78.589	0.196	0.067
-491.522	98.456	0.250	-0.287
-490.508	9.520	0.048	0.036
-489.493	17.132	-0.120	0.095
-488.478	-200.000	0.259	-0.001
-487.464	-97.902	-0.122	-0.031
-486.449	-99.183	-0.195	0.049
-485.435	240.316	-0.112	0.187
-484.420	158.675	0.109	-0.151
-483.405	18.019	-0.165	0.131
-482.391	800.000	-0.039	-0.134
-481.376	486.221	-0.074	0.168
-480.362	-56.363	-0.158	0.070
-479.347	203.274	0.027	0.041
-478.332	800.000	0.086	0.270
-477.318	-200.000	-0.030	0.275
-476.303	-200.000	0.036	0.421
-475.289	321.040	0.162	0.307
-474.274	-43.200	-0.039	0.020
-473.259	-153.054	-0.161	0.011
-472.245	12.371	-0.168	0.129
-471.230	33.729	-0.166	0.144
-470.216	-200.000	0.001	0.319
-469.201	-118.176	0.080	-0.014
-468.186	-7.355	0.015	0.010
-467.172	-48.608	-0.082	0.039
-466.157	-56.618	-0.128	-0.056
-465.143	217.170	0.189	0.299
-464.128	-200.000	-0.015	-0.270
-463.113	230.323	-0.079	-0.128
-462.099	-116.767	-0.262	-0.048
-461.084	-41.838	0.303	-0.155
-460.070	56.521	-0.124	0.120
-459.055	25.809	0.339	-0.281
-458.040	685.888	0.094	0.245
-457.026	517.181	0.031	-0.072
-456.011	800.000	0.068	0.196
-454.997	122.477	0.140	-0.174
-453.982	800.000	-0.129	0.400
-452.968	7.108	0.038	-0.028
-451.953	-200.000	-0.041	0.188
-450.938	-124.559	0.227	-0.035
-449.924	-73.705	0.124	0.045
-448.909	-153.249	0.393	-0.027
-447.895	-163.842	0.175	-0.008
-446.880	-16.696	0.130	0.082
-445.865	-146.437	0.237	-0.021
-444.851	478.155	-0.052	0.118
-443.836	-4.874	0.318	-0.218
-442.822	106.896	0.116	0.137
-441.807	15.319	-0.258	0.202
-440.792	4.304	-0.107	-0.078
-439.778	-69.250	-0.405	0.155
-438.763	-88.631	-0.118	-0.035
-437.749	-200.000	-0.003	0.133
-436.734	275.392	0.240	0.423
-435.719	-56.037	0.132	-0.059
-434.705	800.000	0.076	0.218
-433.690	0.637	-0.508	-0.362
-432.676	132.039	0.056	0.071
-431.661	135.923	0.102	-0.133
-430.646	486.590	-0.079	-0.179
-429.632	-2.049	-0.274	-0.192
-428.617	8.288	0.222	0.166
-427.603	10.810	-0.155	0.117
-426.588	-99.691	0.040	0.010
-425.573	201.427	-0.081	0.125
-424.559	-200.000	-0.040	0.295
-423.544	-106.849	0.096	0.021
-422.530	170.829	-0.119	0.170
-421.515	145.025	0.161	0.214
-420.500	-116.234	-0.356	-0.066
-419.486	-200.000	0.073	-0.373
-418.471	399.618	-0.095	0.198
-417.457	219.942	-0.074	0.117
-416.442	3.423	-0.169	-0.123
-415.428	238.771	0.047	0.078
-414.413	21.338	0.109	-0.088
-413.398	-200.000	0.024	-0.384
-412.384	800.000	0.060	-0.174
-411.369	97.472	0.133	-0.152
-410.355	-118.183	-0.221	-0.039
-409.340	-51.665	0.192	-0.089
-408.325	-200.000	-0.063	0.320
-407.311	59.604	0.243	0.238
-406.296	625.765	0.072	0.180
-405.282	800.000	-0.094	-0.260
-404.267	749.649	-0.029	0.077
-403.252	275.926	-0.053	0.093
-402.238	-57.707	-0.320	-0.139
-401.223	-200.000	-0.040	0.312
-400.209	-78.797	0.259	-0.088
-399.194	-200.000	-0.022	0.379
-398.179	-147.652	-0.149	0.012
-397.165	-38.448	0.102	-0.054
-396.150	371.916	0.040	-0.081
-395.136	25.722	0.024	-0.020
-394.121	438.201	0.116	-0.251
-393.106	340.369	0.129	-0.250
-392.092	-200.000	-0.082	-0.467
-391.077	21.120	0.121	0.097
-390.063	-180.136	0.404	-0.008
-389.048	169.582	-0.088	0.124
-388.033	-72.251	-0.309	-0.114
-387.019	399.940	0.091	0.189
-386.004	-200.000	-0.048	-0.324
-384.990	16.476	-0.333	-0.261
-383.975	-55.086	-0.207	0.093
-382.960	-134.413	-0.071	0.009
-381.946	-101.278	0.203	-0.049
-380.931	47.354	0.169	0.157
-379.917	-47.883	-0.150	0.072
-378.902	75.549	0.096	-0.100
-377.888	688.299	-0.099	0.256
-376.873	-44.330	0.406	-0.202
-375.858	-2.964	0.283	-0.196
-374.844	-95.599	0.111	-0.029
-373.829	-200.000	-0.001	0.276
-372.815	-19.539	0.176	0.108
-371.800	-17.301	-0.260	0.162
-370.785	531.306	-0.050	-0.117
-369.771	-10.716	0.487	0.319
-368.756	-10.354	-0.062	-0.041
-367.742	649.379	0.055	-0.140
-366.727	88.284	-0.091	0.101
-365.712	-200.000	-0.010	-0.057
-364.698	800.000	-0.073	0.202
-363.683	291.945	0.004	0.007
-362.669	210.524	-0.259	0.404
-361.654	407.238	0.114	-0.239
-360.639	-91.563	0.347	-0.098
-359.625	101.762	-0.164	0.190
-358.610	410.746	0.146	0.308
-357.596	7.466	0.040	0.030
-356.581	-41.999	-0.226	0.115
-355.566	800.000	0.077	-0.307
-354.552	-157.704	-0.241	0.014
-353.537	-28.813	-0.055	0.032
-352.523	800.000	-0.095	-0.326
-351.508	196.466	0.076	-0.115
-350.493	-57.281	-0.146	0.063
-349.479	44.557	0.275	0.251
-348.464	66.250	0.062	0.063
-347.450	-103.066	0.419	-0.098
-346.435	-56.404	-0.173	0.076
-345.420	205.441	0.093	0.143
-344.406	173.018	-0.197	0.281
-343.391	-194.100	-0.402	-0.003
-342.377	70.738	0.109	-0.112
-341.362	800.000	-0.031	-0.088
-340.348	18.039	-0.112	-0.088
-339.333	-190.466	-0.098	-0.001
-338.318	-47.049	-0.102	-0.049
-337.304	3.442	-0.150	-0.108
-336.289	-43.963	-0.284	0.141
-335.275	-200.000	0.016	-0.114
-334.260	160.877	-0.012	-0.017
-333.245	-164.540	0.168	-0.008
-332.231	-52.119	-0.356	0.164
-331.216	800.000	-0.015	-0.055
-330.202	800.000	-0.036	-0.147
-329.187	518.820	-0.235	-0.545
-328.172	800.000	0.081	-0.236
-327.158	-200.000	0.017	-0.074
-326.143	-107.434	0.212	-0.046
-325.129	18.272	-0.196	-0.155
-324.114	-67.295	-0.209	0.081
-323.099	-172.431	0.387	-0.012
-322.085	57.408	-0.177	0.171
-321.070	665.146	0.037	-0.095
-320.056	800.000	0.043	0.141
-319.041	-200.000	0.006	0.089
-318.026	-200.000	0.011	-0.278
-317.012	110.914	0.207	-0.247
-315.997	-71.733	0.267	0.099
-314.983	-200.000	0.074	0.337
-313.968	372.606	-0.117	-0.235
-312.953	326.205	-0.118	-0.224
-311.939	-148.889	-0.191	-0.015
-310.924	-200.000	0.005	0.145
-309.910	-200.000	0.029	-0.282
-308.895	-114.699	-0.182	0.034
-307.880	-200.000	-0.000	0.182
-306.866	135.511	-0.200	-0.257
-305.851	-113.385	-0.225	-0.044
-304.837	57.324	0.244	-0.236
-303.822	-152.873	0.313	0.022
-302.807	-57.592	0.473	-0.205
-301.793	-102.671	-0.036	-0.008
-300.778	85.570	0.105	0.114
-299.764	-200.000	-0.016	0.132
-298.749	-141.668	-0.403	-0.040
-297.735	265.615	0.134	0.231
-296.720	-61.284	0.028	0.012
-295.705	-200.000	0.018	0.260
-294.691	16.021	-0.280	0.218
-293.676	178.676	0.142	-0.206
-292.662	-42.093	-0.284	-0.144
-291.647	-200.000	-0.052	-0.231
-290.632	-200.000	0.027	0.132
-289.618	341.315	-0.106	0.204
-288.603	59.135	-0.026	0.025
-287.589	-138.527	0.030	0.003
-286.574	-2.404	-0.137	0.095
-285.559	-45.238	-0.277	-0.136
-284.545	256.302	0.236	-0.400
-283.530	-178.111	-0.089	-0.002
-282.516	-91.923	0.235	-0.066
-281.501	449.374	-0.045	-0.098
-280.486	800.000	0.038	-0.165
-279.472	-52.282	-0.234	0.107
-278.457	82.551	0.173	0.186
-277.443	203.721	0.100	-0.154
-276.428	-200.000	-0.051	-0.280
-275.413	13.759	0.132	-0.102
-274.399	-184.527	-0.240	0.004
-273.384	-67.223	0.039	-0.015
-272.370	385.752	-0.160	0.326
-271.355	195.230	-0.203	-0.305
-270.340	91.258	-0.179	-0.198
-269.326	-49.854	-0.059	-0.028
-268.311	-200.000	-0.014	-0.222
-267.297	-62.123	0.127	0.052
-266.282	-200.000	-0.002	0.260
-265.267	306.061	-0.089	0.163
-264.253	-200.000	-0.044	0.341
-263.238	161.829	0.078	-0.109
-262.224	411.682	-0.104	-0.218
-261.209	324.180	-0.056	0.106
-260.195	-65.827	0.179	-0.071
-259.180	-42.861	-0.332	-0.167
-258.165	-185.188	0.368	-0.006
-257.151	-99.745	-0.153	0.038
-256.136	33.658	-0.082	-0.071
-255.122	-153.369	-0.140	0.010
-254.107	-43.956	-0.202	0.100
-253.092	159.455	0.177	-0.243
-252.078	-62.342	-0.069	-0.028
-251.063	-29.143	-0.253	0.143
-250.049	800.000	-0.020	0.079
-249.034	-200.000	0.062	-0.276
-248.019	-39.379	-0.330	0.171
-247.005	229.181	0.078	-0.125
-245.990	800.000	0.108	0.362
-244.976	-200.000	-0.007	0.084
-243.961	-44.234	-0.273	0.135
-242.946	98.123	0.161	-0.183
-241.932	800.000	0.122	-0.335
-240.917	7.242	-0.145	-0.107
-239.903	-15.004	-0.122	0.077
-238.888	245.083	0.101	-0.167
-237.873	-71.981	-0.150	0.055
-236.859	242.969	0.017	0.027
-235.844	-125.963	-0.154	0.023
-234.830	-128.241	-0.345	-0.049
-233.815	-200.000	0.011	-0.203
-232.800	86.550	-0.194	-0.211
-231.786	-200.000	-0.029	-0.209
-230.771	-200.000	0.063	-0.273
-229.757	-200.000	-0.028	0.300
-228.742	-200.000	-0.014	0.099
-227.727	-20.007	0.056	-0.034
-226.713	-200.000	-0.015	0.187
-225.698	-36.008	0.368	-0.196
-224.684	800.000	0.025	-0.091
-223.669	800.000	0.028	-0.117
-222.655	-200.000	0.251	0.001
-221.640	-193.690	-0.126	-0.001
-220.625	365.167	0.120	-0.239
-219.611	-200.000	0.000	-0.170
-218.596	45.776	-0.276	0.252
-217.582	-71.952	-0.189	-0.069
-216.567	659.196	0.115	0.292
-215.552	-24.266	0.040	0.023
-214.538	-200.000	0.062	0.552
-213.523	221.613	0.157	0.249
-212.509	-31.413	0.251	0.139
-211.494	210.960	0.183	0.284
-210.479	69.929	-0.047	-0.048
-209.465	143.336	-0.129	0.169
-208.450	540.527	-0.125	-0.294
-207.436	404.891	-0.044	0.091
-206.421	-6.603	-0.152	-0.102
-205.406	-200.000	-0.014	-0.415
-204.392	-44.218	0.222	0.110
-203.377	182.910	-0.080	0.116
-202.363	349.646	-0.216	-0.421
-201.348	-200.000	0.026	0.122
-200.333	-165.673	-0.167	-0.007
-199.319	35.347	0.205	-0.177
-198.304	-200.000	-0.032	0.168
-197.290	220.710	0.039	0.062
-196.275	-188.120	0.247	0.003
-195.260	369.509	0.101	0.202
-194.246	157.477	0.150	0.205
-193.231	557.427	-0.144	-0.341
-192.217	332.630	-0.136	0.259
-191.202	95.421	0.075	0.085
-190.187	-105.812	-0.069	-0.015
-189.173	-40.026	0.059	-0.030
-188.158	800.000	0.026	-0.079
-187.144	800.000	0.106	0.408
-186.129	-112.458	-0.125	0.025
-185.114	800.000	-0.101	-0.316
-184.100	-80.629	-0.182	-0.060
-183.085	-8.316	0.249	0.165
-182.071	-134.973	0.075	0.009
-181.056	-200.000	-0.003	0.104
-180.042	-200.000	-0.025	0.156
-179.027	261.750	-0.061	-0.104
-178.012	697.896	-0.055	0.143
-176.998	718.215	0.107	0.280
-175.983	446.754	0.119	-0.258
-174.969	-33.922	0.307	0.166
-173.954	-132.445	-0.077	-0.010
-172.939	74.186	0.043	-0.044
-171.925	800.000	0.104	-0.284
-170.910	-88.457	0.127	-0.037
-169.896	-155.761	-0.427	-0.027
-168.881	-175.812	0.123	0.003
-167.866	17.439	0.144	-0.113
-166.852	257.402	0.110	0.186
-165.837	-200.000	-0.025	-0.186
-164.823	-109.392	-0.488	0.102
-163.808	167.152	0.094	0.131
-162.793	5.503	0.084	0.061
-161.779	-200.000	-0.025	-0.205
-160.764	800.000	-0.055	-0.151
-159.750	621.830	-0.109	0.270
-158.735	-200.000	-0.273	-0.001
-157.720	-200.000	0.021	0.278
-156.706	217.833	0.102	0.160
-155.691	20.379	-0.123	-0.098
-154.677	-60.401	0.274	0.114
-153.662	82.511	-0.147	0.157
-152.647	169.883	0.149	0.209
-151.633	136.936	0.022	0.028
-150.618	-6.764	-0.279	0.187
-149.604	-200.000	0.006	0.228
-148.589	71.100	0.173	0.176
-147.574	80.393	0.080	-0.085
-146.560	-40.989	-0.232	-0.118
-145.545	179.858	0.065	0.093
-144.531	-108.496	0.557	-0.118
-143.516	-153.514	-0.161	-0.011
-142.502	800.000	0.107	0.351
-141.487	-85.563	-0.172	0.052
-140.472	0.682	-0.075	0.053
-139.458	-59.158	0.432	-0.183
-138.443	591.135	0.226	0.549
-137.429	78.171	0.154	0.161
-136.414	269.622	-0.102	-0.176
-135.399	-97.751	0.288	-0.073
-134.385	-90.205	-0.031	0.009
-133.370	459.456	-0.109	0.238
-132.356	33.842	0.120	0.103
-131.341	148.555	0.026	-0.034
-130.326	-94.774	-0.120	-0.032
-129.312	-200.000	0.064	0.315
-128.297	-200.000	0.001	0.198
-127.283	-11.892	0.339	0.219
-126.268	-118.245	-0.214	-0.037
-125.253	800.000	0.010	-0.040
-124.239	-200.000	0.061	-0.415
-123.224	564.731	-0.015	0.035
-122.210	-87.094	0.285	-0.085
-121.195	800.000	-0.040	-0.159
