DTS Sentinel unit serial number:	SN413079Multiplexer serial number:	ORYXHardware model number:	OX4-SRSoftware version number:	ORYX F/W v4.00 Oryx Data Collector v3.7.2.0data status	okinstallation	princeton_trtdifferential loss correction	single-endedforward channel	channel 2reverse channel	N/Adate	2019/09/17time	12:51:35forward acquisition time	60.00reverse acquisition time	0.00gamma	496.2192k internal	0.2319k external	0.2319temperature offset calibration	0.9988default loss term (dB/km)	0.3790temperature slope calibration	1.0000multiplexer offset coefficient	1.0000multiplexer slope coefficient	1.0000fibre end	0.00T internal ref (°C)	32.89T ext. ref 1 (°C)	0.42T ext. ref 2 (°C)	31.16length (m)	temperature (°C)	Stokes	anti-Stokes-747.200	-166.719	-0.172	0.007
-746.185	37.639	-0.290	0.261
-745.171	197.597	0.043	0.066
-744.156	800.000	-0.086	0.325
-743.142	100.207	0.276	0.324
-742.127	47.719	-0.129	0.122
-741.112	116.053	0.150	0.186
-740.098	-200.000	0.018	0.459
-739.083	-200.000	-0.085	0.514
-738.069	116.980	0.275	0.341
-737.054	16.265	0.098	0.078
-736.039	589.589	-0.029	0.072
-735.025	-130.362	0.379	-0.052
-734.010	112.426	-0.260	0.318
-732.996	800.000	0.047	-0.179
-731.981	800.000	-0.004	0.016
-730.966	126.197	0.061	0.078
-729.952	-85.226	0.478	0.151
-728.937	118.410	0.194	-0.242
-727.923	-7.609	-0.169	0.116
-726.908	800.000	-0.044	-0.143
-725.894	428.971	0.128	-0.279
-724.879	-177.749	0.095	-0.002
-723.864	143.921	-0.070	0.094
-722.850	-118.275	0.152	-0.027
-721.835	-123.367	-0.193	0.031
-720.821	8.052	-0.128	0.097
-719.806	-106.896	0.258	0.058
-718.791	-137.241	0.156	-0.018
-717.777	181.755	0.122	-0.181
-716.762	-200.000	0.013	0.123
-715.748	-30.004	0.094	-0.054
-714.733	-97.639	0.168	-0.044
-713.718	-200.000	0.034	-0.158
-712.704	88.855	-0.196	0.220
-711.689	-200.000	0.007	-0.044
-710.675	-200.000	-0.007	-0.074
-709.660	-23.904	0.237	0.143
-708.645	381.034	-0.109	-0.225
-707.631	169.512	0.161	-0.233
-706.616	-108.647	0.049	0.011
-705.602	38.255	-0.190	-0.171
-704.587	-200.000	0.001	-0.013
-703.572	66.553	0.214	-0.220
-702.558	-200.000	-0.005	0.021
-701.543	800.000	-0.079	0.269
-700.529	-32.772	-0.126	0.071
-699.514	-70.639	0.259	-0.099
-698.499	-53.389	-0.043	0.020
-697.485	-115.960	-0.282	0.053
-696.470	217.479	0.041	-0.066
-695.456	-97.223	-0.122	0.032
-694.441	-46.562	0.303	-0.150
-693.426	84.934	0.037	-0.041
-692.412	-75.211	-0.059	0.021
-691.397	-152.289	-0.234	-0.017
-690.383	-97.495	0.073	-0.019
-689.368	-200.000	-0.017	-0.310
-688.354	-200.000	0.004	0.051
-687.339	-95.011	-0.072	0.020
-686.324	26.654	-0.129	0.109
-685.310	-200.000	0.017	-0.100
-684.295	131.830	-0.241	-0.313
-683.281	185.137	0.217	-0.325
-682.266	-19.625	0.026	-0.016
-681.251	-40.198	-0.068	-0.035
-680.237	-22.948	0.053	-0.032
-679.222	-10.347	0.193	-0.129
-678.208	-200.000	0.052	-0.379
-677.193	-200.000	0.024	-0.386
-676.178	33.539	-0.237	-0.208
-675.164	-200.000	-0.008	0.125
-674.149	163.228	-0.174	0.247
-673.135	800.000	-0.096	0.413
-672.120	338.831	-0.062	0.122
-671.105	-200.000	-0.030	-0.167
-670.091	10.541	-0.153	0.118
-669.076	800.000	0.022	0.067
-668.062	280.880	-0.205	-0.369
-667.047	800.000	0.117	0.448
-666.032	51.143	0.143	-0.137
-665.018	343.442	-0.175	0.346
-664.003	368.180	0.101	-0.207
-662.989	176.988	-0.077	0.113
-661.974	10.086	-0.153	0.117
-660.959	22.234	-0.168	-0.138
-659.945	800.000	-0.072	0.276
-658.930	-200.000	-0.020	-0.328
-657.916	-165.796	-0.224	0.010
-656.901	161.784	0.202	0.285
-655.886	81.960	0.046	-0.050
-654.872	-78.056	-0.154	-0.054
-653.857	165.948	0.110	0.157
-652.843	-23.822	-0.338	-0.204
-651.828	-60.637	-0.273	-0.117
-650.814	461.289	0.113	0.254
-649.799	-176.469	0.167	0.004
-648.784	-200.000	-0.022	0.218
-647.770	-180.865	-0.170	0.003
-646.755	154.960	-0.055	-0.076
-645.741	457.675	-0.042	-0.094
-644.726	-138.314	-0.290	0.032
-643.711	-2.463	-0.176	0.125
-642.697	800.000	-0.029	-0.115
-641.682	-16.047	0.257	-0.165
-640.668	379.178	-0.018	0.036
-639.653	-121.030	-0.255	-0.043
-638.638	-200.000	-0.002	-0.043
-637.624	398.827	0.071	-0.149
-636.609	245.550	-0.054	-0.092
-635.595	-145.277	0.063	0.006
-634.580	48.536	-0.168	-0.159
-633.565	-200.000	0.043	0.356
-632.551	34.706	-0.137	0.121
-631.536	-200.000	0.005	-0.122
-630.522	-1.034	-0.249	0.177
-629.507	-200.000	-0.039	0.293
-628.492	-121.142	0.207	-0.035
-627.478	32.624	-0.160	-0.139
-626.463	-36.878	-0.278	-0.150
-625.449	114.887	0.081	0.100
-624.434	-135.592	-0.244	-0.029
-623.419	-29.932	-0.369	0.212
-622.405	-41.462	0.105	-0.055
-621.390	-108.964	-0.075	0.016
-620.376	-97.375	-0.173	0.045
-619.361	63.131	-0.172	0.174
-618.346	-49.596	0.154	-0.074
-617.332	-95.409	-0.484	-0.131
-616.317	-200.000	-0.006	-0.208
-615.303	800.000	0.089	-0.380
-614.288	-101.277	0.145	-0.036
-613.273	-130.429	0.051	0.007
-612.259	-122.401	0.255	0.042
-611.244	800.000	0.035	-0.145
-610.230	-56.857	-0.056	0.025
-609.215	45.663	0.266	-0.247
-608.201	-51.274	-0.072	-0.034
-607.186	81.233	-0.234	-0.255
-606.171	-2.389	0.266	0.187
-605.157	-94.376	-0.346	0.095
-604.142	527.745	-0.148	-0.352
-603.128	800.000	-0.103	0.289
-602.113	-111.335	-0.284	0.058
-601.098	-115.111	-0.237	-0.045
-600.084	407.539	-0.092	-0.196
-599.069	714.176	0.139	-0.370
-598.055	-48.845	0.244	0.118
-597.040	134.337	-0.108	0.141
-596.025	-59.886	-0.224	0.096
-595.011	39.595	0.093	0.084
-593.996	-200.000	0.046	0.291
-592.982	-200.000	0.005	0.059
-591.967	-16.866	0.358	0.227
-590.952	800.000	-0.041	-0.170
-589.938	134.999	0.336	-0.439
-588.923	188.722	-0.047	0.070
-587.909	277.841	0.159	0.285
-586.894	-144.870	0.225	0.021
-585.879	-2.955	0.071	0.050
-584.865	-109.588	-0.316	-0.067
-583.850	228.199	0.115	-0.188
-582.836	15.789	-0.060	0.047
-581.821	-90.872	0.109	0.032
-580.806	-200.000	0.021	0.396
-579.792	-200.000	-0.055	0.337
-578.777	800.000	-0.067	-0.227
-577.763	19.620	0.055	-0.045
-576.748	-200.000	-0.037	-0.352
-575.733	800.000	0.024	-0.101
-574.719	-151.797	0.088	-0.006
-573.704	-41.682	0.069	0.036
-572.690	-200.000	0.026	-0.315
-571.675	504.647	0.051	-0.118
-570.661	124.375	0.072	0.090
-569.646	800.000	-0.107	-0.361
-568.631	82.030	-0.202	0.220
-567.617	259.565	-0.084	-0.145
-566.602	349.264	0.038	0.075
-565.588	146.664	-0.342	0.462
-564.573	-39.139	0.310	-0.164
-563.558	-112.359	0.128	-0.026
-562.544	317.060	-0.124	0.236
-561.529	-49.496	0.305	0.146
-560.515	67.367	-0.100	0.103
-559.500	-200.000	0.001	0.252
-558.485	60.544	-0.089	0.089
-557.471	84.135	-0.159	0.175
-556.456	800.000	-0.072	-0.255
-555.442	-200.000	0.007	-0.136
-554.427	-175.939	-0.326	-0.009
-553.412	26.615	0.225	-0.189
-552.398	-28.907	0.179	-0.103
-551.383	-200.000	0.005	0.074
-550.369	-200.000	-0.056	0.263
-549.354	-200.000	-0.038	-0.274
-548.339	523.919	-0.023	-0.054
-547.325	1.949	0.327	0.237
-546.310	-117.815	-0.323	-0.058
-545.296	95.658	0.124	-0.143
-544.281	-200.000	0.033	0.288
-543.266	-200.000	-0.006	-0.184
-542.252	418.081	0.038	0.081
-541.237	-200.000	-0.006	-0.198
-540.223	310.107	-0.154	0.290
-539.208	-73.537	-0.231	0.085
-538.193	-200.000	0.045	-0.355
-537.179	82.425	0.111	-0.121
-536.164	73.666	-0.354	-0.372
-535.150	-16.592	-0.165	-0.105
-534.135	-45.213	0.165	0.082
-533.121	-83.873	0.109	-0.035
-532.106	-91.343	-0.025	0.007
-531.091	-50.782	-0.047	0.022
-530.077	-41.402	-0.192	-0.099
-529.062	222.287	0.167	0.269
-528.048	-137.165	0.088	0.010
-527.033	140.338	-0.198	-0.263
-526.018	39.329	-0.022	0.020
-525.004	-73.743	0.222	-0.081
-523.989	-200.000	0.026	-0.207
-522.975	-109.076	-0.114	-0.024
-521.960	800.000	-0.052	-0.159
-520.945	154.186	-0.305	-0.419
-519.931	649.251	-0.113	0.290
-518.916	-14.820	0.018	-0.012
-517.902	38.123	-0.156	-0.139
-516.887	46.657	-0.133	-0.124
-515.872	42.582	-0.125	-0.114
-514.858	-103.522	-0.292	-0.069
-513.843	800.000	0.112	0.354
-512.829	790.374	0.038	-0.104
-511.814	-156.423	0.205	0.013
-510.799	-200.000	-0.110	0.000
-509.785	173.590	-0.087	-0.125
-508.770	13.935	0.046	0.036
-507.756	135.467	0.066	0.085
-506.741	92.308	0.148	-0.167
-505.726	-31.740	-0.103	0.058
-504.712	-48.568	-0.127	-0.061
-503.697	48.001	0.035	0.033
-502.683	-187.059	-0.227	0.003
-501.668	-200.000	-0.031	-0.403
-500.653	-68.838	-0.005	0.002
-499.639	241.866	0.175	-0.292
-498.624	-2.194	0.074	-0.052
-497.610	39.429	0.033	-0.029
-496.595	608.705	-0.024	0.061
-495.581	-170.485	-0.219	-0.008
-494.566	-83.270	-0.316	0.102
-493.551	-170.413	0.295	-0.010
-492.537	800.000	-0.079	-0.259
-491.522	92.082	0.292	-0.329
-490.508	-145.046	-0.334	-0.030
-489.493	-113.201	0.314	0.062
-488.478	-55.207	-0.076	0.034
-487.464	800.000	-0.084	0.332
-486.449	-107.816	0.349	-0.076
-485.435	83.826	-0.067	-0.073
-484.420	-103.144	0.354	0.084
-483.405	-200.000	0.006	-0.087
-482.391	34.879	0.095	0.083
-481.376	-50.805	-0.485	-0.228
-480.362	403.100	0.020	-0.043
-479.347	30.995	0.302	0.259
-478.332	800.000	-0.036	0.108
-477.318	-200.000	-0.015	0.298
-476.303	34.566	0.031	-0.027
-475.289	565.227	0.063	0.152
-474.274	-200.000	-0.040	0.284
-473.259	513.723	-0.100	0.232
-472.245	764.584	-0.100	0.273
-471.230	1.418	0.173	0.124
-470.216	13.057	0.219	0.169
-469.201	118.315	-0.132	-0.163
-468.186	-25.477	-0.255	-0.151
-467.172	-8.770	0.217	-0.145
-466.157	20.245	-0.205	-0.165
-465.143	-200.000	-0.033	0.191
-464.128	-22.237	-0.090	-0.054
-463.113	-200.000	-0.039	0.195
-462.099	-200.000	0.010	0.251
-461.084	-60.056	0.255	0.109
-460.070	-127.462	0.405	0.059
-459.055	-200.000	0.011	0.146
-458.040	800.000	0.159	-0.566
-457.026	-200.000	-0.011	0.156
-456.011	12.547	0.237	-0.183
-454.997	193.536	-0.027	0.041
-453.982	-200.000	-0.017	0.171
-452.968	253.454	-0.098	0.167
-451.953	-28.421	0.176	-0.101
-450.938	-61.025	-0.183	-0.077
-449.924	-33.379	-0.260	-0.144
-448.909	228.859	-0.070	-0.114
-447.895	0.305	0.116	-0.083
-446.880	204.880	-0.138	-0.213
-445.865	-125.928	-0.382	-0.057
-444.851	-29.621	0.386	-0.220
-443.836	468.452	-0.076	-0.170
-442.822	307.315	-0.025	-0.046
-441.807	-39.348	0.221	0.116
-440.792	-200.000	-0.017	0.221
-439.778	52.994	0.090	-0.086
-438.763	69.237	0.055	-0.056
-437.749	27.621	0.163	-0.137
-436.734	159.473	0.078	0.109
-435.719	703.296	0.135	-0.357
-434.705	304.442	0.041	-0.076
-433.690	800.000	-0.060	-0.192
-432.676	628.981	0.050	-0.127
-431.661	800.000	0.049	-0.212
-430.646	-200.000	-0.023	0.158
-429.632	15.291	0.179	0.140
-428.617	800.000	0.067	0.188
-427.603	351.185	-0.167	-0.330
-426.588	304.065	-0.155	-0.287
-425.573	-200.000	-0.000	0.093
-424.559	-200.000	-0.029	-0.274
-423.544	-200.000	-0.008	-0.194
-422.530	-154.000	0.187	-0.013
-421.515	65.041	-0.120	0.121
-420.500	-111.990	-0.213	-0.043
-419.486	-45.073	-0.436	0.216
-418.471	-159.798	0.234	0.013
-417.457	57.302	-0.170	-0.166
-416.442	-200.000	-0.038	-0.288
-415.428	-112.078	0.322	0.065
-414.413	165.314	0.217	0.306
-413.398	121.049	-0.036	-0.045
-412.384	-22.810	-0.298	-0.179
-411.369	281.207	0.097	0.173
-410.355	-114.740	-0.060	-0.011
-409.340	134.109	-0.053	-0.068
-408.325	-104.185	-0.266	-0.062
-407.311	-110.300	0.232	-0.048
-406.296	-200.000	0.026	-0.379
-405.282	-43.943	0.194	0.098
-404.267	800.000	-0.038	-0.145
-403.252	-200.000	-0.012	-0.062
-402.238	-53.842	-0.114	0.052
-401.223	-19.890	-0.296	0.182
-400.209	-200.000	-0.051	0.359
-399.194	-129.013	-0.338	0.047
-398.179	-121.548	-0.107	0.018
-397.165	-160.374	0.122	-0.007
-396.150	-70.947	-0.199	-0.075
-395.136	-156.983	-0.161	0.010
-394.121	-85.222	-0.237	-0.074
-393.106	126.409	0.120	-0.151
-392.092	800.000	0.043	-0.136
-391.077	1.674	0.058	0.042
-390.063	-181.128	0.316	0.006
-389.048	4.133	-0.186	0.136
-388.033	78.978	-0.157	-0.168
-387.019	191.372	-0.116	0.175
-386.004	-31.854	-0.103	-0.057
-384.990	86.517	0.142	-0.157
-383.975	800.000	0.064	0.193
-382.960	256.529	0.077	-0.131
-381.946	-102.189	0.255	0.061
-380.931	-200.000	0.023	-0.224
-379.917	-9.726	-0.272	-0.181
-378.902	-200.000	0.048	-0.236
-377.888	800.000	0.016	-0.054
-376.873	-47.634	0.166	0.080
-375.858	107.766	-0.228	0.271
-374.844	672.508	-0.033	0.086
-373.829	-84.749	0.254	0.080
-372.815	14.097	-0.158	0.123
-371.800	-183.255	0.156	0.003
-370.785	-152.752	-0.253	-0.018
-369.771	-200.000	0.026	-0.263
-368.756	25.581	0.235	0.195
-367.742	80.771	-0.208	0.224
-366.727	-116.670	-0.156	0.029
-365.712	-200.000	-0.007	-0.184
-364.698	-46.189	0.245	-0.120
-363.683	-159.464	0.477	0.026
-362.669	800.000	-0.084	0.333
-361.654	-198.084	0.117	-0.001
-360.639	37.338	0.348	0.307
-359.625	-200.000	0.011	0.297
-358.610	307.036	0.122	0.227
-357.596	-114.885	-0.300	0.057
-356.581	-32.356	0.243	0.135
-355.566	-129.245	-0.107	-0.015
-354.552	-150.262	0.226	0.017
-353.537	103.187	0.195	0.228
-352.523	-200.000	-0.031	0.263
-351.508	-61.914	-0.132	0.055
-350.493	-58.654	0.282	-0.122
-349.479	-27.117	0.094	0.055
-348.464	-98.280	-0.184	0.047
-347.450	32.804	-0.064	-0.055
-346.435	40.771	-0.131	0.117
-345.420	-53.301	-0.199	0.091
-344.406	-39.086	0.391	0.205
-343.391	228.921	0.156	0.253
-342.377	-200.000	0.074	0.344
-341.362	-85.458	-0.226	-0.070
-340.348	-152.243	-0.173	0.012
-339.333	-138.926	0.314	-0.034
-338.318	247.728	-0.141	0.237
-337.304	-143.073	-0.231	0.022
-336.289	339.248	0.211	-0.409
-335.275	-15.279	-0.141	0.090
-334.260	-200.000	0.046	0.365
-333.245	-200.000	-0.009	0.085
-332.231	74.268	-0.135	0.141
-331.216	-200.000	0.059	0.272
-330.202	119.030	-0.164	-0.202
-329.187	559.185	-0.142	0.341
-328.172	-7.256	0.124	0.084
-327.158	-200.000	-0.076	0.387
-326.143	-98.645	0.205	0.052
-325.129	-168.717	0.325	0.012
-324.114	33.775	-0.122	0.106
-323.099	-200.000	0.011	0.102
-322.085	693.455	0.069	0.180
-321.070	164.097	0.174	-0.243
-320.056	190.219	0.202	-0.302
-319.041	-200.000	0.037	-0.179
-318.026	18.990	0.187	0.149
-317.012	-30.524	-0.181	0.102
-315.997	-200.000	-0.013	-0.071
-314.983	200.500	0.169	-0.258
-313.968	-92.134	0.050	-0.014
-312.953	211.103	0.138	0.215
-311.939	2.917	-0.104	0.075
-310.924	28.454	0.010	-0.008
-309.910	549.083	0.014	0.033
-308.895	-58.264	0.136	-0.059
-307.880	-73.716	0.085	0.031
-306.866	-69.166	0.152	-0.058
-305.851	-117.908	-0.216	-0.038
-304.837	-8.208	-0.187	-0.125
-303.822	770.456	-0.058	-0.158
-302.807	666.366	0.114	0.292
-301.793	-200.000	-0.032	0.147
-300.778	4.395	0.181	-0.132
-299.764	666.734	-0.025	0.064
-298.749	-200.000	-0.010	0.117
-297.735	-34.143	0.180	0.098
-296.720	-152.411	-0.179	0.013
-295.705	-51.082	-0.285	-0.133
-294.691	800.000	-0.084	-0.295
-293.676	-79.227	-0.288	0.097
-292.662	193.250	0.104	0.156
-291.647	800.000	0.087	-0.310
-290.632	-200.000	-0.001	0.272
-289.618	-27.046	0.263	-0.153
-288.603	222.994	-0.035	0.056
-287.589	-9.266	-0.378	0.251
-286.574	202.939	-0.088	0.135
-285.559	-148.375	-0.091	0.007
-284.545	800.000	0.064	-0.193
-283.530	116.601	0.172	0.209
-282.516	-85.889	-0.061	0.019
-281.501	-7.213	-0.346	-0.233
-280.486	152.355	0.172	0.234
-279.472	212.880	0.298	0.468
-278.457	269.513	-0.156	-0.273
-277.443	794.627	-0.095	-0.259
-276.428	64.744	-0.129	0.129
-275.413	-200.000	0.014	0.072
-274.399	-145.382	0.186	0.017
-273.384	-8.574	-0.446	-0.297
-272.370	-37.348	0.170	-0.090
-271.355	-75.765	-0.348	0.123
-270.340	800.000	-0.107	0.331
-269.326	108.321	-0.163	0.194
-268.311	-200.000	0.021	0.201
-267.297	266.242	0.102	0.177
-266.282	169.756	0.147	-0.208
-265.267	107.966	0.126	0.149
-264.253	-77.693	0.292	0.100
-263.238	-165.222	-0.345	-0.015
-262.224	800.000	0.082	0.231
-261.209	-115.183	0.089	0.017
-260.195	-70.101	-0.294	0.111
-259.180	-95.353	0.296	0.079
-258.165	-13.178	0.148	0.095
-257.151	774.009	-0.089	0.241
-256.136	267.549	0.263	-0.457
-255.122	132.686	0.227	-0.291
-254.107	-14.449	0.214	0.137
-253.092	-107.553	0.446	0.097
-252.078	800.000	0.097	0.367
-251.063	81.480	-0.123	0.132
-250.049	707.387	0.057	0.148
-249.034	116.904	0.107	-0.131
-248.019	-200.000	0.000	0.132
-247.005	212.362	-0.228	0.356
-245.990	-200.000	0.015	-0.118
-244.976	-200.000	-0.006	0.129
-243.961	-68.444	0.221	-0.085
-242.946	445.416	-0.208	0.454
-241.932	-34.040	0.056	0.031
-240.917	69.673	-0.097	0.099
-239.903	-75.463	0.358	0.126
-238.888	-200.000	-0.015	-0.225
-237.873	-95.527	-0.198	-0.053
-236.859	51.243	-0.171	-0.161
-235.844	800.000	-0.052	-0.200
-234.830	-124.373	-0.075	0.012
-233.815	-200.000	-0.006	-0.229
-232.800	39.253	0.139	-0.123
-231.786	671.016	-0.084	-0.215
-230.771	166.499	0.083	-0.117
-229.757	-78.824	-0.109	-0.037
-228.742	-22.969	-0.101	0.060
-227.727	-146.750	0.096	0.008
-226.713	429.676	0.201	-0.431
-225.698	210.597	0.063	0.099
-224.684	-200.000	-0.025	0.187
-223.669	-200.000	0.004	-0.122
-222.655	-15.056	0.283	0.180
-221.640	800.000	-0.029	-0.123
-220.625	-200.000	-0.008	-0.279
-219.611	-47.662	-0.133	-0.064
-218.596	303.179	-0.031	0.057
-217.582	122.233	0.061	0.075
-216.567	185.967	-0.111	0.164
-215.552	174.933	-0.102	-0.146
-214.538	91.159	-0.081	0.090
-213.523	95.152	0.193	0.218
-212.509	-18.176	-0.352	-0.218
-211.494	-200.000	0.062	0.286
-210.479	161.259	0.116	0.161
-209.465	-40.185	-0.215	-0.111
-208.450	-90.131	0.294	0.085
-207.436	-165.006	0.288	-0.013
-206.421	528.988	0.049	-0.116
-205.406	-88.533	-0.322	-0.095
-204.392	-113.962	0.112	-0.022
-203.377	-42.578	-0.138	0.069
-202.363	-200.000	0.023	0.361
-201.348	501.395	0.077	0.176
-200.333	164.427	0.159	0.222
-199.319	258.944	-0.045	-0.076
-198.304	-124.160	0.174	-0.027
-197.290	-161.237	-0.209	-0.011
-196.275	115.718	0.067	-0.081
-195.260	187.221	-0.109	-0.160
-194.246	-82.966	0.144	0.046
-193.231	8.085	-0.202	-0.150
-192.217	-51.676	-0.198	0.091
-191.202	462.734	-0.087	0.193
-190.187	96.669	0.144	-0.163
-189.173	-108.590	-0.036	0.008
-188.158	-200.000	0.009	-0.112
-187.144	-100.185	0.191	-0.047
-186.129	520.383	-0.032	0.074
-185.114	-62.290	0.377	0.155
-184.100	-160.240	0.261	-0.014
-183.085	800.000	-0.114	-0.332
-182.071	299.065	-0.101	0.184
-181.056	-200.000	0.021	-0.137
-180.042	45.869	-0.087	-0.080
-179.027	-79.471	0.081	0.027
-178.012	22.071	-0.120	0.097
-176.998	-19.391	0.111	0.068
-175.983	132.834	-0.059	0.075
-174.969	800.000	-0.048	0.145
-173.954	363.855	-0.087	0.172
-172.939	120.550	0.248	-0.305
-171.925	-57.917	-0.257	-0.111
-170.910	800.000	0.084	-0.240
-169.896	312.617	0.163	-0.303
-168.881	-140.511	0.300	-0.031
-167.866	93.039	-0.203	-0.227
-166.852	54.708	-0.190	-0.181
-165.837	-19.667	0.128	0.078
-164.823	-136.838	0.344	0.039
-163.808	311.712	-0.094	-0.174
-162.793	757.265	-0.075	0.200
-161.779	191.245	0.130	-0.193
-160.764	-51.825	0.568	-0.261
-159.750	-144.803	0.208	0.019
-158.735	46.284	0.034	0.031
-157.720	529.471	0.085	-0.199
-156.706	-22.622	0.162	0.097
-155.691	10.562	-0.076	0.057
-154.677	-34.319	-0.159	-0.086
-153.662	16.254	-0.119	-0.093
-152.647	-200.000	-0.033	-0.353
-151.633	-70.545	-0.220	-0.082
-150.618	800.000	-0.073	-0.269
-149.604	-192.825	0.183	0.002
-148.589	-200.000	0.034	0.221
-147.574	-31.701	0.098	0.054
-146.560	800.000	-0.040	-0.162
-145.545	-166.138	0.248	0.010
-144.531	-128.173	0.026	-0.004
-143.516	120.059	-0.084	0.104
-142.502	8.510	0.054	0.040
-141.487	-167.719	0.497	-0.019
-140.472	-97.320	0.155	0.040
-139.458	-116.887	-0.166	-0.030
-138.443	27.121	-0.076	0.063
-137.429	167.948	-0.028	0.039
-136.414	-127.829	0.230	0.033
-135.399	85.097	0.183	-0.199
-134.385	-138.843	0.296	-0.032
-133.370	126.464	0.213	0.266
-132.356	21.517	-0.350	0.281
-131.341	98.415	0.107	0.122
-130.326	245.988	-0.087	-0.144
-129.312	-200.000	-0.062	-0.275
-128.297	12.798	0.053	-0.040
-127.283	12.152	0.322	0.244
-126.268	3.305	-0.207	0.149
-125.253	-69.257	0.055	0.021
-124.239	65.094	0.179	0.178
-123.224	7.405	-0.464	0.342
-122.210	-200.000	0.015	-0.225
-121.195	-23.214	0.395	0.235
