DTS Sentinel unit serial number:	SN413079Multiplexer serial number:	ORYXHardware model number:	OX4-SRSoftware version number:	ORYX F/W v4.00 Oryx Data Collector v3.7.2.0data status	okinstallation	princeton_trtdifferential loss correction	single-endedforward channel	channel 2reverse channel	N/Adate	2019/09/12time	04:17:11forward acquisition time	60.00reverse acquisition time	0.00gamma	496.2192k internal	0.2328k external	0.2328temperature offset calibration	1.0096default loss term (dB/km)	0.3790temperature slope calibration	1.0000multiplexer offset coefficient	1.0000multiplexer slope coefficient	1.0000fibre end	0.00T internal ref (°C)	31.81T ext. ref 1 (°C)	2.24T ext. ref 2 (°C)	25.58length (m)	temperature (°C)	Stokes	anti-Stokes-747.200	-154.275	-0.165	-0.011
-746.185	-135.258	-0.154	0.019
-745.171	-200.000	0.023	-0.392
-744.156	483.948	0.050	0.114
-743.142	-52.044	0.245	-0.115
-742.127	296.292	-0.277	0.512
-741.112	367.078	-0.117	0.238
-740.098	800.000	0.077	0.217
-739.083	-95.727	0.356	0.096
-738.069	284.144	-0.228	0.413
-737.054	-200.000	-0.047	-0.211
-736.039	-110.848	-0.198	0.041
-735.025	-62.537	0.192	-0.080
-734.010	116.146	-0.299	-0.370
-732.996	466.323	-0.101	-0.229
-731.981	242.854	-0.162	0.274
-730.966	84.278	-0.304	0.335
-729.952	367.537	0.252	-0.513
-728.937	420.685	-0.051	-0.110
-727.923	-125.302	-0.271	0.042
-726.908	-61.851	0.121	0.051
-725.894	-131.743	0.296	-0.039
-724.879	-107.837	0.221	-0.048
-723.864	82.295	-0.122	-0.133
-722.850	-72.743	0.286	-0.106
-721.835	111.820	0.136	-0.165
-720.821	800.000	0.093	-0.380
-719.806	18.631	-0.175	-0.141
-718.791	224.011	-0.207	-0.336
-717.777	800.000	0.009	-0.031
-716.762	421.686	0.129	0.280
-715.748	99.052	-0.015	0.017
-714.733	-200.000	0.062	-0.394
-713.718	-200.000	-0.006	-0.132
-712.704	324.551	0.046	-0.089
-711.689	800.000	-0.099	0.348
-710.675	-113.316	-0.162	0.032
-709.660	-148.931	-0.220	-0.018
-708.645	-116.322	0.169	0.032
-707.631	72.779	0.263	0.277
-706.616	-25.058	0.088	-0.053
-705.602	-200.000	-0.057	0.279
-704.587	-182.041	-0.120	0.002
-703.572	-200.000	-0.000	-0.097
-702.558	-139.185	0.209	-0.023
-701.543	9.220	-0.222	0.169
-700.529	-14.219	-0.163	-0.106
-699.514	-89.749	0.279	0.082
-698.499	-136.551	0.571	0.067
-697.485	-40.368	-0.211	-0.110
-696.470	-175.700	0.150	0.004
-695.456	-92.344	-0.238	0.067
-694.441	-168.411	0.151	0.006
-693.426	-27.277	-0.459	0.269
-692.412	-64.413	-0.099	-0.040
-691.397	-126.392	0.191	0.029
-690.383	106.869	-0.119	-0.142
-689.368	693.474	0.046	0.122
-688.354	-143.617	-0.288	0.028
-687.339	297.182	0.161	-0.298
-686.324	25.360	0.280	0.234
-685.310	800.000	-0.104	0.371
-684.295	-119.229	-0.265	0.047
-683.281	2.101	-0.074	-0.054
-682.266	191.696	0.056	-0.084
-681.251	-122.256	0.458	0.075
-680.237	68.268	-0.073	0.075
-679.222	-200.000	0.015	-0.319
-678.208	-169.724	0.108	0.004
-677.193	212.005	-0.052	0.082
-676.178	76.770	0.083	-0.089
-675.164	-84.290	-0.145	0.046
-674.149	-200.000	-0.034	0.235
-673.135	-1.725	-0.082	0.058
-672.120	475.096	0.071	-0.161
-671.105	-25.133	0.092	0.055
-670.091	-110.430	-0.106	0.022
-669.076	56.164	0.093	0.091
-668.062	-33.441	0.174	-0.096
-667.047	-66.466	-0.029	0.011
-666.032	800.000	-0.030	-0.116
-665.018	408.850	0.009	-0.019
-664.003	-44.739	-0.245	-0.123
-662.989	-114.520	0.084	-0.016
-661.974	466.309	-0.127	-0.286
-660.959	-200.000	-0.006	-0.454
-659.945	61.692	-0.081	-0.081
-658.930	800.000	0.051	-0.156
-657.916	-7.024	0.072	-0.049
-656.901	523.300	-0.088	-0.208
-655.886	-86.327	0.164	0.051
-654.872	800.000	-0.065	0.207
-653.857	122.910	0.133	-0.167
-652.843	-46.513	-0.160	-0.079
-651.828	-27.752	0.242	0.141
-650.814	-155.309	-0.226	-0.015
-649.799	-70.747	0.224	0.085
-648.784	-37.621	-0.224	0.120
-647.770	-110.086	0.115	-0.024
-646.755	37.141	-0.128	0.114
-645.741	-191.722	0.379	0.004
-644.726	432.048	0.135	-0.294
-643.711	-97.161	0.147	0.039
-642.697	-200.000	0.027	0.416
-641.682	-200.000	-0.016	-0.146
-640.668	558.133	-0.123	0.299
-639.653	-200.000	-0.014	0.307
-638.638	-25.572	0.247	-0.147
-637.624	93.806	0.093	-0.106
-636.609	-200.000	0.015	-0.255
-635.595	-200.000	-0.001	0.254
-634.580	210.471	-0.115	-0.181
-633.565	-200.000	0.047	-0.232
-632.551	178.953	-0.113	-0.166
-631.536	-6.222	-0.344	-0.236
-630.522	-200.000	0.037	-0.186
-629.507	211.893	-0.028	0.045
-628.492	-200.000	-0.020	0.122
-627.478	-195.547	0.236	-0.002
-626.463	-85.326	-0.142	0.044
-625.449	90.948	0.079	-0.089
-624.434	-64.577	0.194	0.079
-623.419	-63.579	-0.164	0.068
-622.405	-139.005	-0.145	-0.016
-621.390	-185.733	0.082	0.001
-620.376	-84.633	0.046	-0.014
-619.361	-4.582	-0.099	-0.068
-618.346	-78.121	-0.099	-0.034
-617.332	-42.225	0.196	-0.100
-616.317	112.906	-0.100	0.121
-615.303	115.930	0.253	0.310
-614.288	108.245	-0.101	-0.121
-613.273	800.000	-0.037	0.105
-612.259	359.453	0.089	0.178
-611.244	-200.000	-0.004	-0.086
-610.230	-156.448	-0.260	0.016
-609.215	-88.519	0.265	-0.079
-608.201	800.000	0.035	0.124
-607.186	-73.741	0.522	-0.190
-606.171	800.000	0.107	-0.381
-605.157	117.188	0.074	-0.092
-604.142	-200.000	-0.001	0.239
-603.128	559.376	-0.062	-0.150
-602.113	-121.579	-0.253	0.042
-601.098	-200.000	0.014	-0.225
-600.084	-88.230	-0.296	0.089
-599.069	800.000	0.127	-0.363
-598.055	89.123	-0.191	0.213
-597.040	143.475	-0.018	0.024
-596.025	104.812	0.176	-0.207
-595.011	-124.442	-0.228	-0.036
-593.996	-40.421	0.208	-0.108
-592.982	-113.836	-0.286	-0.056
-591.967	17.029	0.122	0.097
-590.952	800.000	0.072	0.299
-589.938	533.932	0.019	0.045
-588.923	-153.676	0.103	-0.007
-587.909	61.647	0.228	-0.228
-586.894	-168.801	-0.202	0.008
-585.879	35.044	-0.247	0.217
-584.865	51.090	-0.267	-0.254
-583.850	-19.759	-0.264	-0.163
-582.836	-95.514	0.436	0.117
-581.821	500.964	-0.179	-0.415
-580.806	-51.395	-0.118	-0.055
-579.792	-95.076	-0.269	-0.073
-578.777	-85.631	0.260	-0.081
-577.763	800.000	-0.036	-0.149
-576.748	125.462	-0.056	-0.071
-575.733	-72.691	0.194	0.072
-574.719	-12.652	0.249	0.163
-573.704	76.449	-0.278	0.295
-572.690	-115.605	0.184	-0.035
-571.675	-200.000	0.018	0.265
-570.661	-108.022	-0.225	-0.049
-569.646	127.013	0.129	-0.164
-568.631	84.521	-0.150	0.165
-567.617	-91.200	0.288	-0.083
-566.602	-200.000	-0.025	-0.130
-565.588	-51.295	0.502	0.235
-564.573	-137.582	0.218	0.025
-563.558	-200.000	0.055	-0.248
-562.544	-8.260	-0.162	-0.109
-561.529	-50.729	0.393	-0.185
-560.515	22.482	0.115	0.094
-559.500	-200.000	-0.023	-0.139
-558.485	-200.000	0.007	0.056
-557.471	236.244	0.055	0.091
-556.456	-200.000	0.023	-0.140
-555.442	10.295	-0.215	-0.164
-554.427	-189.197	-0.154	0.002
-553.412	-36.381	0.186	0.100
-552.398	-122.704	0.249	0.040
-551.383	-32.611	-0.060	0.034
-550.369	251.753	-0.036	0.062
-549.354	-109.119	-0.189	-0.040
-548.339	800.000	0.024	0.100
-547.325	-200.000	-0.067	0.367
-546.310	-63.494	-0.119	-0.049
-545.296	-44.758	0.103	0.052
-544.281	-200.000	0.061	-0.413
-543.266	-25.428	-0.441	0.260
-542.252	-101.378	0.354	0.086
-541.237	-77.134	-0.277	0.097
-540.223	-16.986	0.077	-0.048
-539.208	425.625	0.065	0.140
-538.193	511.678	-0.079	0.183
-537.179	800.000	0.080	0.246
-536.164	695.224	0.094	0.247
-535.150	70.224	-0.303	0.313
-534.135	-116.044	-0.475	0.088
-533.121	-22.772	-0.319	0.192
-532.106	266.576	0.030	-0.053
-531.091	-143.827	0.254	0.024
-530.077	-94.610	0.107	0.029
-529.062	16.895	-0.209	-0.166
-528.048	177.045	0.068	-0.099
-527.033	800.000	-0.069	0.207
-526.018	-179.392	-0.022	0.000
-525.004	-88.995	-0.085	0.025
-523.989	90.314	-0.147	-0.165
-522.975	286.786	-0.047	0.085
-521.960	-61.311	0.067	0.028
-520.945	-39.407	-0.305	-0.160
-519.931	-141.799	-0.355	-0.036
-518.916	-42.279	-0.277	-0.142
-517.902	-141.608	0.303	0.030
-516.887	-200.000	0.018	-0.204
-515.872	-26.306	0.212	-0.124
-514.858	34.935	0.089	-0.078
-513.843	-55.715	-0.155	0.069
-512.829	-73.811	0.163	0.059
-511.814	800.000	0.078	0.255
-510.799	-200.000	-0.007	-0.112
-509.785	-142.195	-0.282	-0.028
-508.770	-76.037	-0.141	0.050
-507.756	199.926	-0.065	0.099
-506.741	19.447	0.310	0.249
-505.726	242.871	0.127	-0.212
-504.712	-115.048	-0.082	-0.016
-503.697	548.758	0.150	0.359
-502.683	-49.452	-0.345	-0.164
-501.668	2.059	-0.190	-0.137
-500.653	226.169	-0.096	-0.156
-499.639	-20.805	-0.278	-0.170
-498.624	179.132	-0.213	0.311
-497.610	96.795	-0.061	-0.070
-496.595	137.385	-0.101	0.131
-495.581	-82.732	-0.164	-0.053
-494.566	2.781	-0.243	-0.176
-493.551	110.944	-0.073	0.087
-492.537	546.679	0.068	0.163
-491.522	66.913	0.229	-0.233
-490.508	103.827	-0.159	-0.187
-489.493	-81.967	-0.207	0.067
-488.478	-200.000	0.018	-0.088
-487.464	-119.799	0.144	-0.025
-486.449	-200.000	-0.047	0.210
-485.435	-200.000	0.044	-0.257
-484.420	-187.723	0.207	-0.003
-483.405	-200.000	-0.090	-0.403
-482.391	-125.100	-0.304	-0.047
-481.376	-97.909	0.073	0.019
-480.362	-200.000	-0.000	0.045
-479.347	-200.000	-0.003	-0.074
-478.332	621.843	-0.011	-0.027
-477.318	800.000	-0.115	-0.323
-476.303	800.000	0.039	0.160
-475.289	131.189	-0.044	-0.056
-474.274	50.667	-0.191	-0.180
-473.259	-81.645	0.305	-0.100
-472.245	260.924	-0.168	-0.289
-471.230	692.768	-0.085	0.222
-470.216	4.410	-0.040	-0.029
-469.201	-200.000	-0.012	0.115
-468.186	35.105	-0.272	0.237
-467.172	44.260	0.038	0.035
-466.157	800.000	0.093	0.290
-465.143	193.889	-0.120	0.181
-464.128	800.000	-0.128	-0.478
-463.113	-123.926	-0.172	-0.027
-462.099	800.000	0.083	-0.305
-461.084	-67.462	0.158	-0.062
-460.070	350.758	0.159	-0.313
-459.055	-36.615	-0.226	-0.121
-458.040	68.068	-0.070	0.072
-457.026	800.000	-0.044	-0.159
-456.011	-68.857	-0.374	-0.144
-454.997	119.894	-0.105	0.130
-453.982	695.911	0.095	-0.247
-452.968	27.196	-0.186	0.155
-451.953	800.000	-0.070	0.193
-450.938	-55.468	0.146	-0.065
-449.924	-28.664	0.057	-0.033
-448.909	-143.715	-0.379	0.036
-447.895	-29.713	0.068	0.039
-446.880	539.522	-0.043	0.103
-445.865	-56.115	-0.173	-0.077
-444.851	-9.057	0.123	0.082
-443.836	-128.929	0.105	0.015
-442.822	-176.245	-0.150	0.004
-441.807	342.882	-0.105	-0.205
-440.792	37.394	0.204	0.180
-439.778	6.294	-0.057	0.042
-438.763	800.000	-0.053	-0.185
-437.749	-97.009	-0.157	-0.041
-436.734	-13.302	-0.086	0.056
-435.719	774.615	0.055	-0.150
-434.705	-200.000	0.005	-0.219
-433.690	190.033	-0.017	0.025
-432.676	-59.752	-0.292	0.124
-431.661	193.621	-0.095	0.144
-430.646	-102.325	0.267	0.064
-429.632	-154.658	0.136	0.009
-428.617	800.000	-0.121	0.421
-427.603	-74.780	-0.218	-0.078
-426.588	396.449	-0.161	-0.334
-425.573	68.894	0.129	-0.132
-424.559	-200.000	-0.038	-0.211
-423.544	-84.151	0.126	0.040
-422.530	-98.602	-0.470	0.120
-421.515	-102.163	0.317	0.076
-420.500	-200.000	-0.003	0.022
-419.486	-126.108	-0.155	0.023
-418.471	-200.000	0.017	-0.361
-417.457	197.186	-0.191	0.290
-416.442	-185.961	0.441	-0.006
-415.428	-125.345	0.177	-0.027
-414.413	-110.773	-0.294	0.060
-413.398	-100.356	0.110	-0.027
-412.384	84.018	0.093	-0.101
-411.369	275.664	-0.023	0.041
-410.355	233.287	0.028	0.045
-409.340	-69.137	0.168	0.064
-408.325	-200.000	0.048	-0.249
-407.311	-200.000	0.014	0.361
-406.296	252.979	-0.183	-0.311
-405.282	112.328	-0.142	-0.171
-404.267	800.000	-0.050	-0.186
-403.252	-200.000	0.051	-0.319
-402.238	260.600	-0.142	0.244
-401.223	773.576	0.137	-0.371
-400.209	-200.000	0.057	0.324
-399.194	-92.064	0.103	0.029
-398.179	288.026	0.060	-0.108
-397.165	800.000	-0.069	0.215
-396.150	-131.351	0.224	-0.029
-395.136	-200.000	-0.002	0.038
-394.121	800.000	0.093	0.406
-393.106	800.000	0.035	-0.140
-392.092	-200.000	0.030	-0.169
-391.077	50.430	0.152	-0.143
-390.063	127.788	-0.138	0.175
-389.048	-200.000	0.000	0.102
-388.033	-169.302	-0.378	0.014
-387.019	-55.105	-0.163	-0.073
-386.004	-129.480	0.244	0.034
-384.990	800.000	0.080	0.339
-383.975	-51.847	0.430	-0.199
-382.960	-79.506	0.103	-0.035
-381.946	-61.851	-0.181	-0.075
-380.931	800.000	0.029	0.124
-379.917	-200.000	0.022	-0.153
-378.902	531.799	0.033	-0.077
-377.888	-200.000	-0.001	-0.138
-376.873	239.867	-0.100	0.166
-375.858	-115.607	-0.193	0.036
-374.844	-155.146	-0.040	-0.003
-373.829	-200.000	0.002	0.067
-372.815	800.000	-0.049	0.146
-371.800	-91.371	-0.428	0.122
-370.785	-53.460	-0.331	-0.150
-369.771	-53.571	0.136	-0.062
-368.756	-75.864	0.078	-0.027
-367.742	-200.000	0.030	-0.190
-366.727	-116.494	-0.341	-0.063
-365.712	-200.000	0.000	-0.165
-364.698	168.184	-0.024	0.034
-363.683	384.791	-0.061	0.124
-362.669	-56.542	0.014	-0.006
-361.654	7.965	0.163	-0.121
-360.639	-75.897	0.204	-0.072
-359.625	-200.000	0.029	-0.338
-358.610	82.549	-0.140	0.151
-357.596	-200.000	0.012	0.275
-356.581	-42.321	0.278	0.141
-355.566	130.535	-0.056	-0.071
-354.552	-182.438	-0.452	0.008
-353.537	-69.158	0.418	-0.160
-352.523	96.980	0.046	-0.052
-351.508	-88.109	-0.172	0.051
-350.493	153.419	-0.049	0.067
-349.479	-191.517	-0.079	0.001
-348.464	6.682	-0.236	-0.174
-347.450	-200.000	0.047	0.275
-346.435	-200.000	-0.039	-0.173
-345.420	-200.000	-0.014	0.093
-344.406	150.912	0.212	0.286
-343.391	111.407	-0.140	0.168
-342.377	228.725	0.063	0.102
-341.362	-200.000	-0.010	0.126
-340.348	115.118	0.166	0.201
-339.333	3.795	-0.232	-0.168
-338.318	-200.000	0.025	-0.127
-337.304	-64.484	-0.224	-0.090
-336.289	746.025	0.040	-0.106
-335.275	800.000	0.089	-0.300
-334.260	100.317	0.153	0.176
-333.245	282.862	-0.175	-0.312
-332.231	-200.000	-0.000	-0.058
-331.216	313.206	-0.089	0.165
-330.202	-105.850	0.392	-0.088
-329.187	130.463	-0.150	0.191
-328.172	800.000	0.015	-0.058
-327.158	-48.987	-0.187	-0.089
-326.143	-200.000	-0.009	0.310
-325.129	185.237	-0.077	0.113
-324.114	-200.000	0.015	0.121
-323.099	524.679	0.137	0.319
-322.085	-106.374	-0.296	-0.066
-321.070	800.000	-0.097	-0.321
-320.056	-200.000	-0.003	-0.127
-319.041	-200.000	0.035	0.152
-318.026	26.101	-0.335	-0.277
-317.012	-144.798	0.381	-0.035
-315.997	191.502	0.142	-0.212
-314.983	65.502	-0.184	-0.185
-313.968	-200.000	-0.009	0.083
-312.953	109.794	-0.078	0.092
-311.939	77.167	0.195	0.205
-310.924	8.888	-0.195	-0.146
-309.910	-4.706	0.251	0.171
-308.895	-4.833	-0.096	-0.065
-307.880	-200.000	-0.006	0.225
-306.866	41.819	0.080	0.072
-305.851	-116.301	0.242	0.044
-304.837	487.196	-0.156	0.353
-303.822	-200.000	0.026	-0.139
-302.807	50.104	-0.098	-0.092
-301.793	-113.719	0.304	-0.059
-300.778	64.827	0.033	0.033
-299.764	800.000	-0.021	0.073
-298.749	384.639	-0.034	-0.069
-297.735	-200.000	-0.012	0.205
-296.720	-200.000	-0.009	0.148
-295.705	293.050	0.130	-0.235
-294.691	179.311	0.067	-0.097
-293.676	83.355	-0.093	-0.100
-292.662	232.078	0.187	0.304
-291.647	-50.497	-0.235	0.110
-290.632	-200.000	-0.032	-0.187
-289.618	-56.079	-0.195	-0.086
-288.603	-76.098	-0.162	-0.057
-287.589	-84.475	0.476	0.149
-286.574	800.000	0.008	0.031
-285.559	-200.000	-0.050	0.223
-284.545	-67.360	-0.133	0.052
-283.530	-27.010	0.358	-0.207
-282.516	800.000	-0.054	-0.219
-281.501	-200.000	0.019	0.131
-280.486	309.736	0.065	-0.120
-279.472	-83.294	-0.213	0.068
-278.457	-172.305	-0.006	0.000
-277.443	-2.375	-0.167	0.116
-276.428	-200.000	-0.016	-0.236
-275.413	800.000	0.130	-0.529
-274.399	-200.000	-0.025	0.376
-273.384	-52.631	0.439	-0.201
-272.370	276.305	0.067	-0.118
-271.355	800.000	0.028	-0.082
-270.340	800.000	-0.056	0.153
-269.326	-135.059	0.229	0.027
-268.311	-75.507	-0.218	-0.077
-267.297	-33.123	-0.117	-0.064
-266.282	-200.000	0.020	0.332
-265.267	-93.420	-0.311	0.085
-264.253	-153.789	0.165	0.011
-263.238	-81.517	0.160	-0.052
-262.224	148.119	0.190	0.254
-261.209	-93.564	-0.125	-0.034
-260.195	-200.000	-0.011	0.307
-259.180	8.600	0.161	-0.120
-258.165	-141.063	0.119	0.012
-257.151	-55.430	0.238	-0.106
-256.136	-64.992	0.241	-0.096
-255.122	-64.710	0.199	0.080
-254.107	-200.000	-0.037	-0.202
-253.092	-103.078	-0.270	-0.063
-252.078	-73.637	0.275	0.099
-251.063	-32.687	0.202	-0.111
-250.049	-200.000	-0.031	0.134
-249.034	29.949	-0.129	-0.109
-248.019	-86.441	-0.448	-0.136
-247.005	-135.584	0.156	0.018
-245.990	42.858	0.213	0.192
-244.976	63.848	0.324	-0.321
-243.961	138.691	0.061	-0.079
-242.946	-94.105	-0.165	-0.045
-241.932	-200.000	-0.005	0.377
-240.917	11.676	-0.323	0.245
-239.903	-94.680	-0.470	0.126
-238.888	800.000	-0.057	0.158
-237.873	800.000	-0.156	0.428
-236.859	-77.167	0.114	-0.039
-235.844	-200.000	0.006	-0.192
-234.830	800.000	-0.129	0.421
-233.815	800.000	0.062	-0.226
-232.800	-62.693	0.265	-0.108
-231.786	800.000	0.056	-0.189
-230.771	-64.632	-0.374	-0.150
-229.757	-71.937	0.146	0.053
-228.742	-140.676	0.562	-0.057
-227.727	77.855	-0.022	0.023
-226.713	-153.591	-0.126	0.009
-225.698	494.400	-0.059	0.135
-224.684	-200.000	-0.008	0.276
-223.669	181.373	-0.067	0.098
-222.655	-200.000	0.025	0.234
-221.640	-8.914	0.095	-0.063
-220.625	800.000	0.009	-0.029
-219.611	111.006	-0.068	-0.081
-218.596	388.999	-0.074	0.151
-217.582	149.156	-0.154	0.206
-216.567	119.333	0.233	-0.285
-215.552	-16.371	0.391	0.245
-214.538	436.391	0.115	-0.247
-213.523	800.000	0.117	-0.334
-212.509	426.935	0.182	-0.388
-211.494	-158.840	-0.273	-0.015
-210.479	800.000	0.084	-0.266
-209.465	-200.000	-0.039	-0.432
-208.450	-200.000	0.048	0.310
-207.436	800.000	-0.079	-0.296
-206.421	-200.000	0.004	0.244
-205.406	-200.000	0.017	-0.250
-204.392	583.886	0.186	-0.450
-203.377	261.185	0.089	0.152
-202.363	-54.124	-0.147	-0.066
-201.348	-51.222	0.092	0.042
-200.333	-62.290	0.276	0.114
-199.319	-37.581	0.188	-0.099
-198.304	-20.388	0.208	-0.126
-197.290	-105.696	-0.472	-0.105
-196.275	-200.000	-0.017	-0.331
-195.260	251.305	0.113	-0.190
-194.246	598.476	0.071	-0.173
-193.231	-107.543	0.210	-0.045
-192.217	92.914	-0.038	0.043
-191.202	43.424	-0.098	0.089
-190.187	149.356	-0.056	0.075
-189.173	800.000	-0.110	0.323
-188.158	-60.651	0.127	0.053
-187.144	-200.000	-0.086	0.481
-186.129	239.252	0.195	0.320
-185.114	-200.000	0.014	-0.132
-184.100	-200.000	-0.015	-0.206
-183.085	-200.000	-0.011	0.200
-182.071	32.620	0.267	0.228
-181.056	-18.993	-0.232	0.142
-180.042	-90.656	0.230	-0.066
-179.027	635.629	-0.115	0.287
-178.012	-179.073	0.150	-0.003
-176.998	423.422	-0.050	0.106
-175.983	-59.357	-0.143	-0.061
-174.969	4.645	0.419	0.303
-173.954	27.823	-0.254	0.211
-172.939	-200.000	0.011	-0.053
-171.925	-76.476	0.205	-0.071
-170.910	-2.686	0.224	0.154
-169.896	98.160	0.069	0.079
-168.881	800.000	0.089	-0.243
-167.866	70.808	-0.172	0.175
-166.852	-200.000	-0.025	-0.162
-165.837	-173.944	0.140	-0.004
-164.823	-121.458	0.207	-0.034
-163.808	-138.036	-0.253	-0.028
-162.793	101.984	0.041	-0.047
-161.779	800.000	0.057	0.210
-160.764	64.738	0.246	0.244
-159.750	-44.463	0.067	0.033
-158.735	-8.844	0.287	0.190
-157.720	-200.000	0.001	0.362
-156.706	800.000	0.071	0.221
-155.691	-200.000	-0.016	0.072
-154.677	-40.004	0.202	0.104
-153.662	-110.915	0.381	-0.077
-152.647	800.000	0.077	0.263
-151.633	383.148	-0.051	-0.103
-150.618	-14.892	0.198	0.125
-149.604	-185.315	-0.120	-0.002
-148.589	34.653	0.165	0.142
-147.574	-157.297	-0.281	0.017
-146.560	76.426	0.209	0.218
-145.545	-124.234	0.133	0.020
-144.531	-27.108	0.208	-0.120
-143.516	-96.222	0.017	0.004
-142.502	-73.806	0.339	0.121
-141.487	227.476	-0.200	0.320
-140.472	527.017	0.069	-0.159
-139.458	411.286	0.099	0.206
-138.443	800.000	-0.083	0.332
-137.429	-149.954	0.392	0.030
-136.414	-60.458	0.112	0.047
-135.399	-183.393	-0.136	0.002
-134.385	402.157	0.052	-0.108
-133.370	-79.207	0.110	-0.037
-132.356	36.636	-0.049	0.043
-131.341	800.000	0.111	-0.307
-130.326	-200.000	-0.038	0.245
-129.312	610.435	0.019	-0.046
-128.297	343.827	0.080	0.155
-127.283	-56.585	-0.475	0.207
-126.268	174.416	0.200	-0.285
-125.253	14.406	0.179	-0.137
-124.239	332.935	-0.114	0.216
-123.224	-113.721	0.250	0.048
-122.210	66.130	0.099	0.099
