DTS Sentinel unit serial number:	SN413079Multiplexer serial number:	ORYXHardware model number:	OX4-SRSoftware version number:	ORYX F/W v4.00 Oryx Data Collector v3.7.2.0data status	okinstallation	princeton_trtdifferential loss correction	single-endedforward channel	channel 2reverse channel	N/Adate	2019/09/10time	18:21:11forward acquisition time	60.00reverse acquisition time	0.00gamma	496.2192k internal	0.2318k external	0.2318temperature offset calibration	0.9941default loss term (dB/km)	0.3790temperature slope calibration	1.0000multiplexer offset coefficient	1.0000multiplexer slope coefficient	1.0000fibre end	0.00T internal ref (°C)	36.27T ext. ref 1 (°C)	-0.32T ext. ref 2 (°C)	28.33length (m)	temperature (°C)	Stokes	anti-Stokes-747.200	-42.439	-0.238	-0.123
-746.185	-200.000	-0.027	0.436
-745.171	-53.226	-0.189	0.088
-744.156	-200.000	0.050	0.338
-743.142	-50.939	-0.221	0.105
-742.127	29.094	-0.138	0.118
-741.112	126.982	0.068	-0.087
-740.098	-200.000	-0.032	0.323
-739.083	27.091	0.050	0.043
-738.069	-15.413	0.117	0.075
-737.054	-200.000	-0.009	-0.211
-736.039	-171.979	-0.137	0.004
-735.025	166.684	0.320	0.459
-734.010	-73.270	0.071	0.026
-732.996	800.000	-0.104	-0.430
-731.981	-25.788	-0.134	-0.080
-730.966	238.755	0.037	0.063
-729.952	-200.000	-0.003	-0.147
-728.937	-139.099	0.323	0.035
-727.923	800.000	-0.123	-0.348
-726.908	-19.452	0.184	-0.115
-725.894	256.832	-0.135	-0.234
-724.879	-50.462	-0.432	0.206
-723.864	-111.673	0.206	-0.042
-722.850	-200.000	-0.003	0.155
-721.835	-200.000	-0.032	0.292
-720.821	3.828	-0.287	0.212
-719.806	62.222	-0.182	-0.183
-718.791	-16.230	0.025	-0.016
-717.777	800.000	-0.063	0.210
-716.762	-78.725	-0.081	-0.028
-715.748	86.629	-0.140	0.156
-714.733	-74.195	-0.111	0.041
-713.718	245.396	0.129	0.220
-712.704	439.946	0.118	0.261
-711.689	47.893	0.131	-0.124
-710.675	-67.847	-0.283	-0.112
-709.660	209.444	0.138	-0.218
-708.645	-153.798	-0.284	0.020
-707.631	324.891	0.086	-0.166
-706.616	676.270	-0.075	0.197
-705.602	-200.000	0.014	0.309
-704.587	-146.377	-0.152	0.013
-703.572	85.385	0.088	0.098
-702.558	-74.830	0.246	0.089
-701.543	699.012	0.088	0.235
-700.529	362.969	-0.080	0.162
-699.514	-130.134	0.111	-0.015
-698.499	79.332	-0.188	0.203
-697.485	124.098	-0.111	-0.141
-696.470	-200.000	0.024	-0.251
-695.456	800.000	-0.052	-0.163
-694.441	-21.143	-0.155	0.096
-693.426	90.781	-0.068	0.077
-692.412	-141.482	0.374	-0.038
-691.397	113.399	0.017	-0.021
-690.383	800.000	-0.017	-0.051
-689.368	-92.563	-0.333	-0.094
-688.354	4.812	0.187	-0.138
-687.339	-145.754	0.174	-0.016
-686.324	-200.000	-0.061	0.312
-685.310	443.851	0.143	-0.317
-684.295	800.000	-0.073	-0.299
-683.281	567.741	0.055	0.134
-682.266	-85.860	0.238	0.075
-681.251	800.000	0.115	-0.375
-680.237	-120.867	0.094	0.016
-679.222	492.745	0.101	0.234
-678.208	-200.000	0.038	-0.384
-677.193	-43.713	-0.042	0.021
-676.178	-200.000	-0.024	-0.153
-675.164	260.248	-0.088	0.153
-674.149	12.788	-0.184	0.143
-673.135	-200.000	-0.022	0.151
-672.120	140.761	0.075	-0.100
-671.105	-51.546	0.012	0.006
-670.091	-26.512	0.180	0.107
-669.076	118.339	-0.207	-0.258
-668.062	570.441	-0.111	0.272
-667.047	-102.092	0.229	0.056
-666.032	69.229	0.220	-0.228
-665.018	-153.622	-0.186	0.013
-664.003	-97.303	-0.281	0.074
-662.989	800.000	0.033	-0.101
-661.974	66.754	-0.213	-0.218
-660.959	81.168	-0.055	-0.059
-659.945	800.000	-0.049	0.210
-658.930	-200.000	0.014	0.175
-657.916	530.203	0.048	0.115
-656.901	156.481	-0.128	0.178
-655.886	111.797	-0.167	-0.203
-654.872	-53.692	0.125	0.058
-653.857	192.955	-0.248	0.378
-652.843	446.193	-0.018	0.039
-651.828	313.568	-0.050	-0.095
-650.814	-200.000	-0.029	0.306
-649.799	-200.000	-0.025	0.229
-648.784	176.766	0.216	-0.317
-647.770	-29.518	-0.159	0.092
-646.755	533.436	-0.044	-0.105
-645.741	176.668	-0.174	0.255
-644.726	-94.621	-0.456	0.125
-643.711	-24.115	0.158	-0.095
-642.697	-92.237	-0.156	-0.044
-641.682	-200.000	-0.032	0.244
-640.668	-124.328	-0.402	-0.063
-639.653	-92.438	0.221	-0.063
-638.638	617.815	0.063	0.158
-637.624	800.000	-0.077	-0.307
-636.609	-20.209	-0.404	0.251
-635.595	-200.000	-0.006	-0.146
-634.580	219.792	-0.118	0.191
-633.565	-200.000	-0.014	0.182
-632.551	800.000	0.058	0.177
-631.536	800.000	-0.048	-0.170
-630.522	218.313	-0.025	0.041
-629.507	-145.032	0.411	0.038
-628.492	-23.263	-0.085	0.052
-627.478	-84.350	-0.080	-0.025
-626.463	-200.000	0.020	-0.107
-625.449	10.919	0.140	0.108
-624.434	770.352	-0.050	-0.137
-623.419	171.934	0.150	0.217
-622.405	-51.967	-0.094	-0.044
-621.390	-200.000	0.003	-0.036
-620.376	-126.511	0.260	-0.039
-619.361	19.516	-0.202	-0.163
-618.346	71.589	-0.122	-0.128
-617.332	-170.955	-0.239	0.008
-616.317	203.561	-0.110	-0.171
-615.303	-105.618	0.099	-0.023
-614.288	13.846	-0.189	0.148
-613.273	44.210	0.160	-0.148
-612.259	160.194	0.198	0.278
-611.244	800.000	-0.096	-0.381
-610.230	19.724	0.237	-0.192
-609.215	98.963	-0.071	-0.083
-608.201	22.821	-0.161	0.133
-607.186	-61.156	-0.169	-0.072
-606.171	9.337	0.149	0.113
-605.157	61.262	-0.102	0.102
-604.142	9.048	0.017	0.013
-603.128	203.242	0.134	0.209
-602.113	44.201	-0.125	0.115
-601.098	-113.682	0.112	-0.022
-600.084	461.239	-0.066	-0.148
-599.069	-200.000	0.008	-0.065
-598.055	166.597	-0.318	-0.454
-597.040	800.000	0.033	-0.133
-596.025	59.923	-0.203	0.202
-595.011	800.000	-0.064	0.209
-593.996	172.536	-0.084	-0.122
-592.982	-117.339	-0.418	-0.076
-591.967	113.860	0.103	0.125
-590.952	-49.053	0.408	0.196
-589.938	-152.459	-0.319	0.023
-588.923	-200.000	0.025	0.212
-587.909	-200.000	0.028	0.246
-586.894	800.000	0.043	0.180
-585.879	29.295	-0.093	0.080
-584.865	-39.243	-0.217	0.115
-583.850	30.701	-0.053	-0.046
-582.836	95.589	0.099	0.114
-581.821	-37.166	0.075	0.040
-580.806	-200.000	0.008	-0.088
-579.792	-157.851	-0.185	0.011
-578.777	-71.049	0.247	0.093
-577.763	-87.457	0.118	-0.036
-576.748	-200.000	0.182	-0.001
-575.733	555.579	0.014	0.035
-574.719	-200.000	0.005	-0.165
-573.704	-75.197	0.166	-0.060
-572.690	68.310	0.098	0.101
-571.675	-200.000	-0.013	0.154
-570.661	-24.695	0.395	-0.236
-569.646	651.607	0.038	-0.097
-568.631	-106.177	0.182	0.041
-567.617	800.000	0.139	-0.413
-566.602	-200.000	-0.053	-0.308
-565.588	-200.000	-0.077	0.388
-564.573	92.553	-0.201	0.228
-563.558	-63.944	-0.104	0.043
-562.544	14.636	0.103	-0.081
-561.529	-200.000	-0.050	-0.294
-560.515	459.115	-0.121	0.270
-559.500	-128.180	-0.085	-0.012
-558.485	-200.000	0.009	0.275
-557.471	-143.728	-0.227	0.022
-556.456	800.000	-0.040	-0.113
-555.442	575.799	0.041	-0.101
-554.427	21.903	-0.221	0.181
-553.412	-200.000	0.002	-0.030
-552.398	30.986	-0.094	-0.081
-551.383	292.603	0.093	0.170
-550.369	53.198	-0.120	-0.116
-549.354	1.306	0.261	-0.189
-548.339	-200.000	-0.013	-0.191
-547.325	800.000	-0.080	0.295
-546.310	192.238	0.153	0.231
-545.296	-28.632	0.194	0.112
-544.281	59.362	0.170	0.168
-543.266	123.123	-0.030	0.038
-542.252	-33.964	-0.299	-0.165
-541.237	-49.563	0.213	-0.102
-540.223	-200.000	0.030	0.150
-539.208	19.964	-0.297	0.240
-538.193	-200.000	0.019	-0.150
-537.179	-200.000	0.010	-0.078
-536.164	13.298	0.013	0.010
-535.150	112.141	-0.051	-0.062
-534.135	-77.440	0.138	-0.048
-533.121	-200.000	-0.020	-0.089
-532.106	-200.000	-0.026	0.228
-531.091	161.826	-0.150	-0.210
-530.077	172.342	0.129	-0.186
-529.062	249.661	-0.288	-0.490
-528.048	-82.724	0.214	0.069
-527.033	-13.588	0.265	0.172
-526.018	-42.800	-0.140	-0.071
-525.004	-104.976	0.197	-0.045
-523.989	-88.612	0.237	-0.071
-522.975	81.332	-0.118	-0.128
-521.960	454.020	-0.061	-0.137
-520.945	238.698	0.070	0.116
-519.931	-151.733	-0.154	0.011
-518.916	-200.000	0.000	0.042
-517.902	-29.212	0.461	-0.265
-516.887	-200.000	-0.001	0.160
-515.872	800.000	-0.050	-0.219
-514.858	169.730	-0.263	-0.376
-513.843	76.054	0.276	-0.293
-512.829	-85.060	0.179	0.056
-511.814	-200.000	-0.189	-0.000
-510.799	126.093	0.097	-0.122
-509.785	-149.610	-0.099	-0.008
-508.770	800.000	-0.031	-0.102
-507.756	-200.000	0.004	-0.093
-506.741	251.473	0.124	0.211
-505.726	3.166	0.140	0.102
-504.712	-200.000	0.028	-0.396
-503.697	-138.092	0.123	-0.014
-502.683	-200.000	0.039	-0.328
-501.668	57.417	-0.176	0.173
-500.653	113.655	0.278	-0.338
-499.639	-83.830	0.133	0.042
-498.624	-6.101	-0.128	-0.088
-497.610	800.000	0.045	0.152
-496.595	296.549	0.156	-0.287
-495.581	52.638	-0.136	0.130
-494.566	-75.519	0.312	0.111
-493.551	-88.217	-0.416	-0.125
-492.537	-122.751	-0.236	0.038
-491.522	80.184	0.241	0.260
-490.508	-29.212	-0.110	-0.063
-489.493	-38.692	-0.176	0.093
-488.478	630.071	-0.105	0.265
-487.464	-13.512	-0.259	-0.168
-486.449	98.168	-0.128	-0.148
-485.435	800.000	0.027	0.118
-484.420	295.250	0.108	-0.199
-483.405	-17.829	-0.197	-0.124
-482.391	-62.426	-0.175	0.073
-481.376	210.501	-0.212	0.334
-480.362	26.062	0.147	0.123
-479.347	-11.839	-0.155	-0.102
-478.332	69.313	-0.379	-0.391
-477.318	-145.984	0.138	-0.012
-476.303	-200.000	-0.001	-0.126
-475.289	-80.237	0.242	0.081
-474.274	800.000	-0.048	0.159
-473.259	73.050	-0.170	-0.178
-472.245	18.810	0.138	-0.111
-471.230	800.000	-0.072	0.286
-470.216	72.112	0.337	0.351
-469.201	35.981	0.355	-0.312
-468.186	-106.686	-0.066	-0.015
-467.172	-200.000	0.008	0.102
-466.157	125.853	-0.074	0.093
-465.143	-44.142	-0.148	-0.074
-464.128	-200.000	-0.026	0.187
-463.113	-123.797	0.140	-0.022
-462.099	-1.967	0.177	0.125
-461.084	301.609	-0.097	-0.179
-460.070	71.854	0.056	-0.059
-459.055	-200.000	0.022	-0.120
-458.040	-12.817	-0.327	0.213
-457.026	-173.069	0.233	0.007
-456.011	352.857	0.075	-0.149
-454.997	-200.000	-0.028	0.161
-453.982	800.000	-0.085	-0.360
-452.968	800.000	0.022	-0.097
-451.953	170.867	-0.039	-0.056
-450.938	124.211	-0.180	-0.227
-449.924	-124.234	0.191	-0.030
-448.909	-55.823	-0.302	-0.135
-447.895	58.692	-0.158	0.155
-446.880	-89.438	-0.194	-0.057
-445.865	-6.439	-0.150	-0.102
-444.851	484.389	0.156	-0.354
-443.836	-28.797	0.263	0.151
-442.822	-20.745	-0.211	0.130
-441.807	25.955	0.135	-0.113
-440.792	800.000	-0.092	-0.275
-439.778	201.375	0.050	-0.076
-438.763	224.870	-0.082	-0.133
-437.749	560.670	-0.119	0.288
-436.734	305.281	0.233	-0.432
-435.719	-200.000	-0.023	-0.203
-434.705	-200.000	-0.014	-0.176
-433.690	128.247	-0.043	0.055
-432.676	800.000	-0.022	-0.075
-431.661	-1.847	-0.077	0.054
-430.646	-100.366	-0.152	0.038
-429.632	119.627	-0.029	-0.036
-428.617	150.875	0.031	-0.042
-427.603	-200.000	-0.059	0.300
-426.588	800.000	0.033	0.103
-425.573	-25.128	0.192	0.114
-424.559	800.000	0.038	-0.165
-423.544	-86.805	0.502	0.153
-422.530	33.253	0.182	0.158
-421.515	-200.000	-0.043	-0.201
-420.500	323.079	0.057	-0.109
-419.486	55.518	-0.092	-0.089
-418.471	-126.416	0.396	0.059
-417.457	-72.259	0.115	-0.043
-416.442	93.988	-0.233	0.264
-415.428	-34.253	0.214	-0.118
-414.413	397.856	-0.119	0.248
-413.398	-128.139	0.200	-0.029
-412.384	-111.245	0.395	0.081
-411.369	-200.000	0.004	0.304
-410.355	-63.838	-0.085	0.035
-409.340	-97.120	0.078	-0.020
-408.325	-200.000	-0.004	0.114
-407.311	80.652	-0.226	0.243
-406.296	120.513	-0.068	0.084
-405.282	-109.008	-0.250	0.053
-404.267	-23.085	-0.174	0.105
-403.252	220.147	-0.149	-0.238
-402.238	480.725	0.109	-0.246
-401.223	87.822	0.159	0.176
-400.209	800.000	-0.048	0.171
-399.194	305.203	-0.229	-0.425
-398.179	-121.309	-0.316	-0.053
-397.165	800.000	-0.088	-0.355
-396.150	-69.246	-0.235	-0.090
-395.136	69.009	-0.045	-0.047
-394.121	792.567	-0.031	-0.084
-393.106	479.778	0.098	-0.221
-392.092	69.845	-0.315	-0.324
-391.077	-31.179	-0.228	0.129
-390.063	-127.889	-0.102	-0.015
-389.048	-101.830	0.174	0.042
-388.033	-142.385	-0.094	-0.009
-387.019	92.890	-0.078	0.087
-386.004	251.815	0.062	-0.105
-384.990	166.410	-0.059	0.084
-383.975	-80.453	0.361	-0.120
-382.960	-65.556	0.121	-0.048
-381.946	294.699	-0.194	-0.354
-380.931	134.469	-0.081	0.105
-379.917	-111.178	0.191	-0.039
-378.902	25.042	0.144	0.119
-377.888	1.357	-0.187	-0.134
-376.873	-110.281	-0.061	0.013
-375.858	211.372	-0.117	0.184
-374.844	179.371	0.093	-0.136
-373.829	-79.663	-0.048	0.016
-372.815	142.414	0.124	0.164
-371.800	252.423	-0.212	0.361
-370.785	-200.000	0.038	-0.301
-369.771	136.634	0.072	-0.094
-368.756	-17.857	0.072	-0.045
-367.742	-119.032	-0.199	0.035
-366.727	-125.329	-0.446	0.068
-365.712	493.143	0.062	0.141
-364.698	414.088	-0.034	0.071
-363.683	-40.914	0.336	0.173
-362.669	-44.277	-0.364	0.182
-361.654	121.513	0.062	0.077
-360.639	-154.490	0.253	-0.017
-359.625	-200.000	0.004	0.021
-358.610	-69.858	-0.073	-0.028
-357.596	-16.595	-0.145	0.091
-356.581	-54.530	0.065	-0.029
-355.566	-100.593	-0.262	0.065
-354.552	763.707	0.062	-0.167
-353.537	-200.000	-0.030	0.367
-352.523	-200.000	0.060	0.319
-351.508	-200.000	0.000	-0.064
-350.493	-200.000	-0.004	0.087
-349.479	74.377	-0.215	-0.225
-348.464	-85.763	-0.130	-0.040
-347.450	-5.395	-0.270	-0.184
-346.435	-64.904	-0.201	-0.081
-345.420	111.649	-0.255	-0.306
-344.406	-78.552	0.294	-0.100
-343.391	-200.000	0.026	0.258
-342.377	800.000	-0.036	0.151
-341.362	38.836	0.101	-0.090
-340.348	-168.205	0.224	0.009
-339.333	400.731	0.045	-0.094
-338.318	38.635	0.222	0.198
-337.304	-53.156	-0.163	0.075
-336.289	193.898	-0.244	0.367
-335.275	371.509	-0.027	-0.055
-334.260	-200.000	0.050	-0.219
-333.245	178.550	-0.118	-0.171
-332.231	-104.583	0.201	-0.046
-331.216	10.366	0.316	0.240
-330.202	-114.074	0.216	0.042
-329.187	166.289	0.153	-0.216
-328.172	800.000	0.132	-0.372
-327.158	155.100	-0.025	0.034
-326.143	800.000	0.043	0.160
-325.129	-50.659	0.355	0.167
-324.114	36.569	0.097	-0.086
-323.099	-156.918	0.218	-0.013
-322.085	39.128	0.163	-0.145
-321.070	102.588	-0.151	0.176
-320.056	614.954	-0.098	0.244
-319.041	-200.000	-0.023	0.133
-318.026	-200.000	-0.048	0.231
-317.012	-66.279	-0.536	-0.212
-315.997	-92.489	0.185	-0.052
-314.983	-94.343	0.066	0.018
-313.968	789.045	-0.129	-0.352
-312.953	-97.433	0.577	0.149
-311.939	-130.886	-0.337	0.045
-310.924	800.000	0.084	0.321
-309.910	-26.230	0.200	-0.117
-308.895	773.758	-0.023	-0.063
-307.880	398.616	0.122	0.254
-306.866	-200.000	0.022	0.136
-305.851	-85.851	-0.141	0.044
-304.837	12.545	-0.167	0.128
-303.822	168.508	-0.116	0.165
-302.807	122.928	0.121	0.150
-301.793	-174.778	0.303	0.009
-300.778	134.712	0.124	0.160
-299.764	414.411	-0.045	0.095
-298.749	-11.090	-0.176	-0.116
-297.735	-34.827	-0.239	-0.130
-296.720	116.501	0.217	0.264
-295.705	-92.932	0.337	0.094
-294.691	189.967	0.085	-0.127
-293.676	-53.184	-0.154	0.070
-292.662	-109.826	-0.260	0.054
-291.647	-6.552	-0.187	0.127
-290.632	-200.000	-0.002	-0.302
-289.618	420.322	0.064	-0.137
-288.603	-40.560	-0.223	-0.115
-287.589	-48.029	-0.276	0.133
-286.574	800.000	-0.061	0.172
-285.559	2.694	0.104	-0.075
-284.545	120.290	-0.189	0.233
-283.530	-112.999	-0.190	-0.037
-282.516	172.368	-0.112	0.160
-281.501	-149.437	-0.285	-0.023
-280.486	-31.029	0.114	-0.064
-279.472	-162.147	-0.108	0.005
-278.457	800.000	-0.056	0.164
-277.443	-85.261	-0.243	-0.075
-276.428	-156.906	0.128	-0.008
-275.413	-200.000	-0.020	-0.129
-274.399	800.000	-0.085	-0.267
-273.384	5.524	0.367	0.269
-272.370	564.070	-0.156	0.375
-271.355	-138.833	0.401	-0.043
-270.340	70.075	-0.141	-0.145
-269.326	-91.023	-0.360	-0.103
-268.311	201.947	-0.099	-0.151
-267.297	67.490	-0.048	0.048
-266.282	16.075	0.089	-0.070
-265.267	477.273	0.034	-0.077
-264.253	-127.787	0.176	-0.025
-263.238	429.338	0.051	-0.109
-262.224	93.272	-0.140	-0.157
-261.209	329.453	0.069	-0.131
-260.195	111.713	-0.102	0.123
-259.180	71.105	0.172	0.177
-258.165	800.000	-0.103	0.430
-257.151	-163.220	0.021	-0.001
-256.136	-7.117	0.217	0.146
-255.122	-200.000	0.003	0.019
-254.107	45.718	0.189	-0.174
-253.092	-53.199	0.199	-0.091
-252.078	-200.000	-0.020	0.121
-251.063	-122.372	-0.319	0.052
-250.049	-54.286	0.270	-0.121
-249.034	800.000	0.063	-0.241
-248.019	-111.108	0.268	-0.055
-247.005	-115.571	-0.353	0.066
-245.990	176.518	0.122	-0.176
-244.976	68.776	-0.312	0.318
-243.961	-200.000	0.015	-0.216
-242.946	-21.289	-0.435	-0.264
-241.932	-44.903	0.221	-0.109
-240.917	800.000	0.075	0.234
-239.903	155.615	0.079	-0.108
-238.888	800.000	0.023	-0.092
-237.873	-171.446	0.056	0.002
-236.859	98.211	-0.143	-0.164
-235.844	-88.289	0.137	0.041
-234.830	-43.584	-0.219	-0.110
-233.815	-23.917	-0.283	0.168
-232.800	-1.203	-0.174	-0.122
-231.786	369.600	0.250	0.501
-230.771	189.699	-0.257	0.383
-229.757	-200.000	-0.040	-0.181
-228.742	424.529	0.091	0.193
-227.727	-200.000	0.006	-0.039
-226.713	-145.873	0.175	-0.015
-225.698	-155.919	0.211	-0.013
-224.684	-200.000	-0.007	0.111
-223.669	590.011	0.035	-0.087
-222.655	226.264	0.202	0.325
-221.640	-200.000	-0.021	0.233
-220.625	540.620	0.124	0.292
-219.611	117.713	0.081	-0.098
-218.596	239.235	-0.085	-0.141
-217.582	800.000	0.027	0.116
-216.567	-171.194	0.265	-0.009
-215.552	19.704	0.240	0.191
-214.538	-110.306	-0.476	0.098
-213.523	21.990	0.142	-0.115
-212.509	185.256	0.163	-0.240
-211.494	88.004	-0.220	-0.242
-210.479	284.125	0.050	-0.090
-209.465	150.913	-0.027	0.037
-208.450	-119.431	0.318	-0.055
-207.436	-200.000	0.028	-0.180
-206.421	800.000	0.070	-0.229
-205.406	29.940	-0.017	0.014
-204.392	145.899	0.114	0.151
-203.377	135.085	0.164	0.212
-202.363	-132.478	0.060	-0.008
-201.348	-200.000	-0.011	-0.480
-200.333	-13.310	0.377	0.243
-199.319	-200.000	-0.024	0.175
-198.304	-61.556	-0.329	0.137
-197.290	94.620	-0.057	0.064
-196.275	201.581	0.232	-0.355
-195.260	426.055	0.200	-0.427
-194.246	283.834	-0.053	0.094
-193.231	800.000	0.043	0.156
-192.217	4.380	0.336	0.244
-191.202	800.000	-0.082	-0.238
-190.187	-27.360	-0.293	0.169
-189.173	-115.921	-0.098	0.018
-188.158	-15.070	0.301	0.191
-187.144	606.390	0.082	-0.201
-186.129	800.000	0.007	-0.026
-185.114	-21.782	-0.091	-0.055
-184.100	-0.921	0.275	0.193
-183.085	-200.000	0.039	-0.283
-182.071	89.223	-0.012	0.014
-181.056	473.489	-0.043	0.097
-180.042	484.596	-0.055	0.125
-179.027	-78.559	-0.050	-0.017
-178.012	68.813	-0.172	-0.175
-176.998	-148.257	0.197	-0.016
-175.983	11.439	-0.081	-0.061
-174.969	216.367	0.118	0.185
-173.954	-200.000	0.022	-0.252
-172.939	340.460	0.097	0.188
-171.925	800.000	0.087	0.280
-170.910	600.649	0.062	0.152
-169.896	-80.445	0.287	0.095
-168.881	-200.000	-0.025	-0.144
-167.866	-200.000	0.075	-0.411
-166.852	69.088	-0.279	0.284
-165.837	-200.000	-0.022	0.103
-164.823	-101.269	0.175	-0.042
-163.808	219.277	0.176	0.279
-162.793	-169.411	-0.199	-0.007
-161.779	-200.000	-0.006	0.094
-160.764	-200.000	0.010	-0.049
-159.750	47.761	0.309	-0.285
-158.735	140.814	-0.211	0.276
-157.720	-137.578	0.379	-0.042
-156.706	-200.000	-0.005	0.253
-155.691	13.168	0.222	-0.170
-154.677	-81.003	-0.039	-0.013
-153.662	72.283	0.108	0.112
-152.647	-67.005	-0.219	-0.086
-151.633	29.023	0.157	0.132
-150.618	154.298	-0.138	0.187
-149.604	-104.882	-0.454	0.103
-148.589	-94.958	-0.159	-0.043
-147.574	137.377	0.106	-0.138
-146.560	-132.877	-0.155	-0.020
-145.545	47.422	-0.219	-0.202
-144.531	-200.000	-0.016	-0.117
-143.516	-136.183	-0.177	0.021
-142.502	250.862	0.064	-0.107
-141.487	-45.170	0.285	0.140
-140.472	170.053	0.058	0.082
-139.458	-21.568	0.212	0.128
-138.443	39.420	0.119	-0.105
-137.429	-55.792	0.226	-0.100
-136.414	229.587	-0.140	-0.226
-135.399	233.604	0.090	0.146
-134.385	453.361	-0.084	-0.184
-133.370	-95.045	0.207	-0.055
-132.356	170.386	-0.198	0.280
-131.341	90.696	-0.090	-0.100
-130.326	-200.000	-0.006	-0.313
-129.312	-200.000	0.000	-0.076
-128.297	288.240	-0.153	-0.274
-127.283	573.853	-0.038	0.091
-126.268	800.000	-0.025	0.081
-125.253	-178.535	-0.381	-0.009
-124.239	12.934	0.117	0.089
-123.224	-200.000	-0.043	-0.275
-122.210	800.000	-0.008	0.029
-121.195	39.946	-0.399	0.354
