DTS Sentinel unit serial number:	SN413079Multiplexer serial number:	ORYXHardware model number:	OX4-SRSoftware version number:	ORYX F/W v4.00 Oryx Data Collector v3.7.2.0data status	okinstallation	princeton_trtdifferential loss correction	single-endedforward channel	channel 2reverse channel	N/Adate	2019/09/11time	09:09:10forward acquisition time	60.00reverse acquisition time	0.00gamma	496.2192k internal	0.2318k external	0.2318temperature offset calibration	0.9967default loss term (dB/km)	0.3790temperature slope calibration	1.0000multiplexer offset coefficient	1.0000multiplexer slope coefficient	1.0000fibre end	0.00T internal ref (°C)	34.27T ext. ref 1 (°C)	0.09T ext. ref 2 (°C)	29.94length (m)	temperature (°C)	Stokes	anti-Stokes-747.200	63.684	0.195	-0.198
-746.185	-127.998	0.134	0.019
-745.171	-69.966	-0.169	0.065
-744.156	-200.000	0.061	0.378
-743.142	24.028	0.215	0.179
-742.127	50.539	-0.125	0.120
-741.112	4.947	-0.300	0.224
-740.098	174.241	0.062	0.091
-739.083	-10.092	-0.312	-0.210
-738.069	-128.721	0.370	0.053
-737.054	800.000	-0.048	-0.209
-736.039	21.193	-0.113	0.093
-735.025	-82.925	0.135	-0.044
-734.010	74.288	0.083	-0.089
-732.996	-76.481	-0.123	0.044
-731.981	-27.029	-0.050	0.030
-730.966	-81.242	-0.083	0.028
-729.952	198.305	-0.083	0.128
-728.937	213.519	-0.106	0.169
-727.923	165.116	0.014	0.020
-726.908	-16.160	-0.218	-0.140
-725.894	800.000	-0.048	-0.147
-724.879	144.600	-0.192	-0.260
-723.864	-200.000	-0.014	-0.074
-722.850	-33.313	-0.364	-0.204
-721.835	800.000	-0.011	-0.032
-720.821	-200.000	0.005	-0.029
-719.806	-142.359	0.141	-0.014
-718.791	-147.867	-0.500	-0.042
-717.777	800.000	0.006	0.021
-716.762	-200.000	0.013	-0.303
-715.748	800.000	0.017	-0.059
-714.733	408.933	0.055	-0.118
-713.718	112.170	-0.163	0.199
-712.704	117.235	0.122	0.151
-711.689	-124.587	0.202	0.032
-710.675	5.609	0.238	-0.178
-709.660	22.545	-0.262	-0.217
-708.645	-97.230	-0.387	-0.102
-707.631	800.000	0.041	-0.121
-706.616	-34.565	0.051	-0.028
-705.602	-62.075	-0.362	0.153
-704.587	23.879	-0.149	-0.124
-703.572	-180.614	-0.186	-0.004
-702.558	-200.000	0.011	0.197
-701.543	112.273	-0.207	-0.252
-700.529	-20.360	-0.073	-0.045
-699.514	568.944	0.095	-0.234
-698.499	-200.000	0.035	-0.275
-697.485	-34.299	-0.267	-0.148
-696.470	-200.000	0.005	0.158
-695.456	-32.757	0.158	0.089
-694.441	707.390	0.093	-0.248
-693.426	98.066	0.107	-0.124
-692.412	144.332	-0.120	0.162
-691.397	800.000	0.080	0.291
-690.383	101.624	-0.051	-0.060
-689.368	-200.000	0.000	0.281
-688.354	219.682	-0.084	0.136
-687.339	114.031	0.061	0.075
-686.324	-143.139	0.321	0.031
-685.310	603.261	-0.195	-0.491
-684.295	22.368	-0.356	-0.294
-683.281	-28.670	0.050	0.029
-682.266	-49.547	-0.293	-0.141
-681.251	-200.000	0.075	-0.364
-680.237	800.000	-0.078	-0.228
-679.222	171.115	-0.094	-0.136
-678.208	286.080	0.169	-0.308
-677.193	-114.966	0.229	-0.044
-676.178	-97.335	-0.150	-0.039
-675.164	-84.700	-0.064	0.020
-674.149	16.545	0.126	0.100
-673.135	-149.648	0.196	-0.016
-672.120	646.094	0.076	0.196
-671.105	741.757	0.085	0.231
-670.091	87.298	0.102	0.114
-669.076	-149.064	0.243	0.020
-668.062	800.000	0.141	-0.521
-667.047	469.365	0.031	-0.071
-666.032	-100.029	-0.201	-0.051
-665.018	800.000	-0.117	0.488
-664.003	40.954	-0.342	-0.312
-662.989	-200.000	0.018	-0.152
-661.974	90.325	0.073	-0.083
-660.959	800.000	-0.085	-0.362
-659.945	-71.147	0.241	-0.091
-658.930	186.597	-0.222	0.334
-657.916	114.833	0.032	0.039
-656.901	209.028	-0.064	0.101
-655.886	-74.497	-0.254	0.092
-654.872	-55.462	0.121	0.055
-653.857	8.684	-0.405	-0.308
-652.843	-20.808	-0.167	0.103
-651.828	-200.000	0.030	-0.214
-650.814	277.467	-0.108	-0.194
-649.799	455.427	0.054	0.120
-648.784	-195.348	0.316	0.002
-647.770	1.370	-0.158	0.115
-646.755	-91.415	-0.346	0.100
-645.741	800.000	-0.082	-0.333
-644.726	-200.000	-0.029	-0.282
-643.711	314.421	-0.110	-0.209
-642.697	-52.534	0.045	0.021
-641.682	10.088	0.110	0.084
-640.668	800.000	0.093	-0.266
-639.653	-87.973	0.108	0.033
-638.638	-1.183	-0.258	0.184
-637.624	800.000	-0.031	-0.134
-636.609	536.397	0.030	-0.071
-635.595	258.331	0.061	0.106
-634.580	274.246	0.101	-0.180
-633.565	-200.000	0.037	-0.287
-632.551	256.085	-0.072	-0.124
-631.536	209.040	-0.041	-0.064
-630.522	-7.856	0.237	0.161
-629.507	-120.577	-0.326	-0.056
-628.492	497.242	0.077	-0.178
-627.478	-200.000	-0.030	-0.398
-626.463	74.528	-0.092	0.098
-625.449	41.392	-0.281	-0.256
-624.434	156.707	-0.142	-0.197
-623.419	-200.000	0.049	0.229
-622.405	622.716	0.118	0.300
-621.390	429.505	-0.048	-0.104
-620.376	800.000	-0.050	-0.210
-619.361	-129.425	-0.283	-0.039
-618.346	181.696	0.097	-0.144
-617.332	193.684	-0.026	-0.039
-616.317	100.662	0.234	0.274
-615.303	800.000	0.080	-0.257
-614.288	-25.143	-0.238	0.142
-613.273	-136.164	0.020	-0.002
-612.259	500.809	0.124	-0.287
-611.244	564.131	0.157	0.383
-610.230	-116.208	0.112	0.021
-609.215	507.440	-0.095	0.223
-608.201	-85.232	0.379	0.119
-607.186	-52.045	0.055	-0.026
-606.171	137.711	0.241	-0.318
-605.157	-200.000	-0.031	-0.203
-604.142	-60.340	0.206	0.088
-603.128	186.117	-0.248	0.372
-602.113	-128.689	-0.173	0.025
-601.098	800.000	-0.127	-0.412
-600.084	35.367	0.034	-0.030
-599.069	177.706	0.133	-0.195
-598.055	800.000	-0.069	-0.294
-597.040	62.510	-0.109	-0.109
-596.025	210.192	-0.117	-0.186
-595.011	-200.000	-0.008	0.042
-593.996	-15.634	-0.227	-0.146
-592.982	8.471	0.205	-0.155
-591.967	9.615	-0.192	0.147
-590.952	-200.000	-0.033	-0.260
-589.938	198.671	-0.122	0.188
-588.923	800.000	-0.015	-0.051
-587.909	179.419	0.087	-0.128
-586.894	358.874	0.029	-0.059
-585.879	800.000	0.067	-0.221
-584.865	-67.502	-0.126	0.050
-583.850	-0.873	-0.059	0.042
-582.836	-29.190	0.068	0.039
-581.821	-144.757	-0.273	-0.025
-580.806	573.040	0.168	-0.412
-579.792	237.470	0.089	-0.149
-578.777	-90.074	-0.246	0.072
-577.763	657.938	0.109	-0.282
-576.748	-200.000	0.072	-0.392
-575.733	-11.553	-0.227	-0.150
-574.719	800.000	0.035	0.119
-573.704	-126.247	0.037	-0.006
-572.690	40.118	-0.140	-0.127
-571.675	-200.000	-0.068	-0.609
-570.661	239.124	0.088	0.147
-569.646	101.024	0.128	0.150
-568.631	567.926	0.031	-0.076
-567.617	-200.000	0.033	-0.217
-566.602	284.839	-0.191	0.345
-565.588	3.756	-0.133	-0.098
-564.573	-169.466	-0.201	0.007
-563.558	457.341	-0.103	0.230
-562.544	101.554	0.118	0.138
-561.529	-48.398	-0.084	0.041
-560.515	71.044	-0.177	0.185
-559.500	8.968	-0.228	-0.173
-558.485	-31.500	0.098	-0.055
-557.471	-40.396	-0.342	-0.178
-556.456	274.853	0.243	-0.433
-555.442	-26.187	-0.180	-0.106
-554.427	415.871	0.030	0.064
-553.412	-200.000	-0.066	0.293
-552.398	-123.014	0.087	-0.014
-551.383	-30.924	0.100	-0.057
-550.369	-5.478	-0.127	-0.087
-549.354	-136.067	-0.175	-0.021
-548.339	107.082	-0.196	-0.234
-547.325	-113.178	0.108	-0.021
-546.310	114.922	0.101	-0.124
-545.296	395.544	0.116	0.243
-544.281	-200.000	0.008	-0.175
-543.266	34.818	0.125	-0.110
-542.252	131.287	0.133	-0.171
-541.237	-41.861	0.242	0.125
-540.223	-143.449	-0.300	-0.029
-539.208	-8.451	-0.186	0.126
-538.193	-200.000	0.000	0.167
-537.179	35.020	-0.161	-0.141
-536.164	286.491	-0.204	0.369
-535.150	800.000	-0.153	0.430
-534.135	98.288	0.102	0.118
-533.121	278.676	-0.135	0.242
-532.106	-22.400	-0.132	0.080
-531.091	-41.737	0.490	-0.253
-530.077	-67.483	-0.186	-0.073
-529.062	-7.129	-0.291	-0.198
-528.048	-146.088	0.233	-0.021
-527.033	-160.965	0.377	0.020
-526.018	426.037	-0.208	0.449
-525.004	137.451	0.085	0.112
-523.989	427.942	-0.095	0.205
-522.975	-155.272	0.409	-0.027
-521.960	211.972	-0.180	0.284
-520.945	-200.000	0.028	-0.309
-519.931	-200.000	0.005	0.248
-518.916	97.931	0.180	0.208
-517.902	183.222	-0.047	-0.070
-516.887	291.881	0.094	0.171
-515.872	-200.000	-0.018	-0.102
-514.858	124.112	0.221	0.279
-513.843	-90.890	0.177	0.051
-512.829	-31.411	0.254	0.144
-511.814	-91.078	0.215	0.062
-510.799	-47.107	-0.159	-0.078
-509.785	-200.000	-0.004	-0.390
-508.770	-92.004	-0.270	-0.077
-507.756	68.886	-0.298	-0.307
-506.741	776.881	-0.049	-0.135
-505.726	-100.979	0.196	-0.048
-504.712	-50.685	0.233	-0.110
-503.697	-200.000	0.021	0.266
-502.683	185.588	-0.085	0.127
-501.668	82.726	0.173	0.188
-500.653	-77.033	0.424	0.148
-499.639	267.188	-0.028	-0.049
-498.624	800.000	0.068	-0.231
-497.610	710.922	0.071	-0.187
-496.595	-200.000	-0.222	0.001
-495.581	-167.510	-0.271	-0.011
-494.566	148.471	0.142	-0.192
-493.551	-63.887	-0.037	-0.015
-492.537	-51.250	-0.046	0.022
-491.522	33.043	0.171	0.149
-490.508	-149.150	-0.296	-0.024
-489.493	-86.146	0.070	0.022
-488.478	-200.000	-0.046	-0.219
-487.464	-168.909	-0.394	0.015
-486.449	-200.000	0.068	-0.300
-485.435	800.000	0.084	-0.278
-484.420	440.702	-0.104	0.228
-483.405	-102.518	-0.300	-0.072
-482.391	-134.952	0.116	0.014
-481.376	-110.023	0.141	0.029
-480.362	675.154	0.109	-0.283
-479.347	91.224	0.180	-0.202
-478.332	238.137	-0.048	-0.080
-477.318	-124.035	-0.282	0.044
-476.303	800.000	0.099	0.310
-475.289	610.634	-0.074	-0.186
-474.274	-200.000	0.008	0.341
-473.259	-87.843	0.381	0.115
-472.245	-33.447	-0.300	0.166
-471.230	88.828	-0.190	-0.212
-470.216	-104.889	0.220	0.051
-469.201	-153.998	0.357	-0.024
-468.186	4.606	-0.323	0.238
-467.172	89.644	0.134	-0.149
-466.157	-62.853	-0.010	0.004
-465.143	-200.000	0.023	-0.121
-464.128	300.987	-0.116	0.215
-463.113	-6.632	0.222	-0.151
-462.099	182.140	0.098	-0.144
-461.084	-145.975	-0.087	0.008
-460.070	-102.720	0.170	0.041
-459.055	-200.000	-0.061	-0.455
-458.040	-139.082	0.045	0.005
-457.026	-200.000	-0.058	0.412
-456.011	-20.370	0.052	0.032
-454.997	368.620	-0.076	0.154
-453.982	725.655	0.076	-0.202
-452.968	472.657	0.111	0.251
-451.953	-99.965	0.114	0.028
-450.938	-69.565	0.239	-0.091
-449.924	-130.444	-0.169	-0.023
-448.909	-36.242	0.071	0.038
-447.895	800.000	0.093	0.401
-446.880	-56.234	0.195	-0.087
-445.865	-200.000	0.034	-0.234
-444.851	-200.000	0.029	-0.226
-443.836	287.612	-0.135	-0.245
-442.822	-200.000	-0.018	-0.078
-441.807	800.000	-0.029	0.110
-440.792	-200.000	-0.048	-0.220
-439.778	537.550	0.031	-0.073
-438.763	296.981	-0.066	-0.121
-437.749	-200.000	-0.002	-0.193
-436.734	36.704	0.190	0.168
-435.719	-78.860	-0.146	-0.050
-434.705	55.802	0.233	-0.226
-433.690	-200.000	0.032	-0.308
-432.676	-29.591	0.258	0.147
-431.661	100.785	0.083	-0.096
-430.646	73.537	-0.028	-0.029
-429.632	-89.534	-0.050	0.015
-428.617	-44.402	0.157	0.078
-427.603	800.000	-0.029	-0.121
-426.588	-23.139	0.300	0.181
-425.573	80.600	-0.196	0.211
-424.559	-59.920	-0.109	0.047
-423.544	-117.983	-0.079	0.014
-422.530	73.522	0.099	0.104
-421.515	-102.591	0.183	0.044
-420.500	55.338	0.186	0.180
-419.486	785.651	0.037	0.102
-418.471	-36.109	0.241	0.130
-417.457	-176.416	-0.166	-0.004
-416.442	-200.000	0.079	-0.427
-415.428	589.885	0.069	0.170
-414.413	93.693	-0.184	0.208
-413.398	233.762	-0.042	0.070
-412.384	-12.482	-0.107	-0.070
-411.369	31.512	0.030	0.026
-410.355	-98.174	-0.163	0.042
-409.340	556.048	0.038	0.091
-408.325	-147.797	0.275	0.023
-407.311	-3.717	0.308	0.214
-406.296	352.591	-0.037	0.073
-405.282	405.567	0.086	0.180
-404.267	54.583	0.268	-0.258
-403.252	536.202	-0.102	-0.242
-402.238	-28.843	-0.200	0.115
-401.223	-200.000	0.265	-0.001
-400.209	164.298	0.153	-0.215
-399.194	800.000	-0.102	-0.375
-398.179	-44.205	-0.298	-0.149
-397.165	-200.000	-0.062	-0.390
-396.150	-6.077	0.060	0.041
-395.136	-105.800	0.284	0.064
-394.121	379.501	-0.071	-0.145
-393.106	-7.801	-0.125	-0.084
-392.092	-46.731	0.119	0.058
-391.077	800.000	0.080	-0.277
-390.063	-84.998	-0.268	-0.084
-389.048	800.000	-0.085	0.243
-388.033	-6.842	0.048	-0.032
-387.019	-67.988	-0.213	-0.083
-386.004	-146.976	0.116	0.010
-384.990	418.793	0.137	0.293
-383.975	100.914	-0.135	0.157
-382.960	800.000	0.021	-0.092
-381.946	179.068	0.132	-0.192
-380.931	-154.270	-0.421	0.028
-379.917	-200.000	0.009	-0.393
-378.902	412.738	-0.179	0.381
-377.888	-134.091	-0.199	-0.025
-376.873	169.049	0.400	0.570
-375.858	800.000	-0.063	0.263
-374.844	800.000	0.025	0.080
-373.829	-79.041	-0.287	-0.097
-372.815	230.007	0.068	0.110
-371.800	-200.000	-0.034	0.219
-370.785	-11.583	-0.156	0.102
-369.771	19.532	0.051	0.041
-368.756	-10.141	-0.061	-0.040
-367.742	-50.839	-0.169	0.079
-366.727	179.468	-0.178	0.259
-365.712	678.779	0.053	0.138
-364.698	50.223	-0.156	0.147
-363.683	236.205	-0.113	-0.186
-362.669	419.640	-0.101	-0.216
-361.654	-200.000	0.021	-0.186
-360.639	-173.978	-0.217	-0.006
-359.625	800.000	0.117	-0.374
-358.610	447.121	0.129	0.284
-357.596	-98.270	-0.239	-0.061
-356.581	-115.540	0.297	-0.056
-355.566	114.619	-0.059	-0.071
-354.552	-200.000	-0.014	0.145
-353.537	-200.000	-0.009	0.219
-352.523	-113.275	-0.126	0.025
-351.508	271.805	-0.059	0.104
-350.493	-200.000	-0.003	-0.211
-349.479	131.214	0.120	0.154
-348.464	-40.161	0.020	0.011
-347.450	-200.000	0.036	-0.282
-346.435	-6.477	-0.484	-0.329
-345.420	-149.670	-0.114	-0.009
-344.406	613.186	0.074	-0.185
-343.391	-151.714	0.040	0.003
-342.377	-200.000	-0.012	-0.112
-341.362	588.977	-0.153	-0.375
-340.348	105.830	0.282	-0.332
-339.333	-170.050	0.131	-0.005
-338.318	-123.569	0.116	-0.018
-337.304	795.640	0.104	0.285
-336.289	160.853	-0.083	-0.116
-335.275	489.467	0.097	0.220
-334.260	134.798	-0.276	-0.357
-333.245	283.679	0.204	0.364
-332.231	800.000	-0.014	0.059
-331.216	-200.000	0.006	-0.269
-330.202	222.782	-0.178	0.285
-329.187	-184.447	-0.231	-0.004
-328.172	800.000	0.121	-0.421
-327.158	121.583	0.216	-0.268
-326.143	-200.000	-0.031	0.184
-325.129	-81.849	0.076	0.025
-324.114	-79.202	-0.111	-0.038
-323.099	-200.000	0.029	0.279
-322.085	-176.962	0.018	0.000
-321.070	51.465	-0.133	0.125
-320.056	-57.923	-0.371	0.161
-319.041	-200.000	-0.019	0.098
-318.026	60.700	-0.351	0.346
-317.012	225.191	-0.046	-0.075
-315.997	89.074	-0.153	-0.170
-314.983	800.000	0.086	0.273
-313.968	-42.118	-0.230	0.117
-312.953	800.000	-0.064	-0.185
-311.939	119.410	-0.065	-0.079
-310.924	52.906	-0.072	0.069
-309.910	115.369	0.054	0.065
-308.895	-70.785	0.061	0.023
-307.880	-146.189	-0.439	0.038
-306.866	-10.858	-0.190	-0.125
-305.851	-111.140	-0.171	-0.035
-304.837	-22.248	0.254	0.153
-303.822	-21.614	-0.075	-0.045
-302.807	558.506	-0.084	0.201
-301.793	-144.806	0.293	-0.027
-300.778	-139.082	0.106	-0.011
-299.764	-146.434	0.338	-0.029
-298.749	-200.000	-0.023	0.121
-297.735	609.943	0.062	-0.153
-296.720	104.799	-0.214	0.251
-295.705	-13.415	-0.128	0.082
-294.691	-184.613	0.381	-0.006
-293.676	471.644	-0.026	0.058
-292.662	55.435	-0.146	-0.140
-291.647	58.279	0.210	-0.205
-290.632	64.650	0.146	-0.146
-289.618	82.703	0.111	0.120
-288.603	-144.147	0.314	0.029
-287.589	336.869	0.105	-0.202
-286.574	-10.254	0.145	-0.096
-285.559	-29.012	-0.189	-0.108
-284.545	-200.000	0.013	0.144
-283.530	-168.568	0.505	-0.019
-282.516	-200.000	-0.042	-0.452
-281.501	-147.369	-0.266	0.022
-280.486	-87.780	0.402	0.120
-279.472	-158.560	-0.168	0.010
-278.457	800.000	0.086	0.243
-277.443	242.455	0.126	0.209
-276.428	318.305	-0.103	0.193
-275.413	-106.553	-0.050	0.011
-274.399	-200.000	-0.023	0.237
-273.384	-200.000	0.037	0.168
-272.370	800.000	0.050	-0.141
-271.355	-104.656	-0.073	0.017
-270.340	150.479	-0.085	-0.115
-269.326	305.980	0.145	-0.267
-268.311	-67.073	0.162	-0.063
-267.297	100.149	-0.330	0.380
-266.282	41.572	0.144	0.130
-265.267	-200.000	0.006	0.137
-264.253	56.481	-0.241	0.233
-263.238	-200.000	-0.041	0.223
-262.224	116.717	-0.108	-0.132
-261.209	800.000	-0.038	0.133
-260.195	-19.255	0.211	0.130
-259.180	32.497	0.198	0.170
-258.165	-105.847	0.349	-0.078
-257.151	-112.589	0.190	0.038
-256.136	-200.000	-0.034	-0.210
-255.122	-200.000	0.005	-0.120
-254.107	800.000	0.066	0.274
-253.092	-200.000	-0.046	0.282
-252.078	-155.563	0.142	-0.009
-251.063	-93.015	-0.166	0.046
-250.049	-36.052	-0.096	0.052
-249.034	221.438	-0.114	-0.182
-248.019	697.186	0.085	0.221
-247.005	-45.909	0.362	-0.177
-245.990	23.411	-0.295	0.240
-244.976	139.607	0.196	0.257
-243.961	280.395	0.070	-0.124
-242.946	476.418	-0.060	0.134
-241.932	160.345	-0.103	0.143
-240.917	31.834	0.214	0.183
-239.903	-76.355	-0.133	0.047
-238.888	-104.428	-0.149	0.034
-237.873	-37.373	0.091	-0.048
-236.859	452.644	0.112	0.245
-235.844	-58.130	-0.326	0.141
-234.830	-159.842	-0.131	0.007
-233.815	-39.671	-0.231	-0.120
-232.800	-148.546	0.245	-0.020
-231.786	750.623	-0.115	0.309
-230.771	-100.971	0.198	-0.048
-229.757	183.246	-0.184	0.270
-228.742	80.434	0.232	0.247
-227.727	10.072	0.250	0.189
-226.713	-200.000	0.008	-0.101
-225.698	90.710	-0.125	0.139
-224.684	-172.784	-0.053	-0.002
-223.669	542.236	-0.119	0.280
-222.655	-83.580	-0.116	-0.037
-221.640	-22.846	0.123	-0.073
-220.625	194.137	-0.116	0.175
-219.611	61.900	0.157	0.155
-218.596	7.215	-0.158	-0.117
-217.582	-118.749	-0.094	0.016
-216.567	800.000	0.037	0.116
-215.552	800.000	0.023	0.095
-214.538	800.000	0.066	-0.241
-213.523	406.118	0.108	-0.226
-212.509	-5.340	0.369	0.252
-211.494	-58.673	0.352	0.151
-210.479	-71.343	-0.091	0.034
-209.465	-84.580	-0.233	0.073
-208.450	284.176	-0.143	0.256
-207.436	-25.657	0.403	0.236
-206.421	-157.410	0.169	0.010
-205.406	144.025	-0.058	-0.076
-204.392	-69.254	-0.113	0.043
-203.377	-200.000	-0.000	0.232
-202.363	-200.000	0.010	-0.128
-201.348	570.432	0.197	-0.475
-200.333	49.963	-0.182	-0.170
-199.319	-102.027	-0.088	-0.021
-198.304	-97.107	0.148	-0.038
-197.290	-29.561	-0.120	-0.068
-196.275	-160.583	0.045	0.002
-195.260	218.314	-0.218	0.344
-194.246	-200.000	0.025	0.238
-193.231	-28.876	-0.176	0.100
-192.217	-26.871	-0.375	-0.217
-191.202	-78.627	0.297	-0.101
-190.187	34.348	0.253	-0.219
-189.173	-128.317	0.251	0.035
-188.158	-200.000	-0.030	0.130
-187.144	-30.355	-0.126	-0.071
-186.129	73.271	-0.116	0.120
-185.114	22.457	-0.152	0.123
-184.100	178.588	-0.154	-0.222
-183.085	744.847	-0.032	0.085
-182.071	12.820	0.241	0.184
-181.056	-136.452	-0.349	0.040
-180.042	93.363	-0.212	-0.238
-179.027	324.168	-0.140	0.264
-178.012	800.000	0.040	-0.141
-176.998	-19.700	-0.153	-0.094
-175.983	800.000	0.081	-0.270
-174.969	98.072	-0.113	0.129
-173.954	-200.000	0.037	0.339
-172.939	142.639	-0.131	-0.173
-171.925	-84.939	0.145	-0.045
-170.910	-97.144	0.182	-0.047
-169.896	426.725	0.075	0.159
-168.881	-200.000	0.004	0.229
-167.866	-18.327	0.239	-0.148
-166.852	142.444	-0.087	-0.114
-165.837	37.259	0.377	0.330
-164.823	457.696	0.250	-0.551
-163.808	107.741	0.288	-0.339
-162.793	-91.109	0.078	0.022
-161.779	-95.904	-0.184	-0.048
-160.764	-200.000	-0.023	0.131
-159.750	42.340	-0.074	0.066
-158.735	-12.372	0.085	0.055
-157.720	-86.029	0.187	0.057
-156.706	-200.000	-0.074	0.384
-155.691	-44.378	-0.376	0.186
-154.677	28.332	0.124	-0.104
-153.662	-58.122	0.072	-0.031
-152.647	-62.090	-0.251	0.104
-151.633	91.014	-0.160	0.178
-150.618	-143.099	0.272	0.026
-149.604	30.814	-0.235	0.199
-148.589	58.921	-0.096	-0.094
-147.574	156.449	0.138	0.189
-146.560	71.454	-0.196	-0.202
-145.545	290.513	-0.131	-0.235
-144.531	-200.000	-0.043	0.288
-143.516	-18.388	-0.112	0.069
-142.502	12.671	0.203	-0.155
-141.487	59.378	-0.086	0.084
-140.472	-61.884	0.203	0.084
-139.458	-19.697	-0.166	-0.102
-138.443	800.000	0.052	-0.225
-137.429	-41.868	-0.109	0.055
-136.414	242.897	0.107	-0.177
-135.399	-129.005	0.208	-0.029
-134.385	71.329	0.106	0.109
-133.370	-70.278	0.246	-0.092
-132.356	800.000	-0.086	-0.285
-131.341	26.271	-0.162	-0.133
-130.326	-129.721	0.204	-0.028
-129.312	-60.656	-0.134	-0.056
-128.297	130.402	-0.175	-0.222
-127.283	-122.841	-0.124	-0.020
-126.268	800.000	0.053	-0.145
-125.253	-200.000	-0.031	-0.148
-124.239	-72.088	0.144	0.053
-123.224	157.255	-0.137	0.187
-122.210	132.553	0.254	0.323
-121.195	-84.782	-0.120	-0.037
