DTS Sentinel unit serial number:	SN413079Multiplexer serial number:	ORYXHardware model number:	OX4-SRSoftware version number:	ORYX F/W v4.00 Oryx Data Collector v3.7.2.0data status	okinstallation	princeton_trtdifferential loss correction	single-endedforward channel	channel 2reverse channel	N/Adate	2019/09/15time	21:23:34forward acquisition time	60.00reverse acquisition time	0.00gamma	496.2192k internal	0.2333k external	0.2333temperature offset calibration	0.9939default loss term (dB/km)	0.3790temperature slope calibration	1.0000multiplexer offset coefficient	1.0000multiplexer slope coefficient	1.0000fibre end	0.00T internal ref (°C)	30.94T ext. ref 1 (°C)	8.24T ext. ref 2 (°C)	23.99length (m)	temperature (°C)	Stokes	anti-Stokes-747.200	-200.000	-0.025	0.180
-746.185	800.000	0.108	0.421
-745.171	-13.914	0.269	-0.175
-744.156	388.069	-0.082	0.170
-743.142	-200.000	-0.060	-0.269
-742.127	-200.000	-0.013	0.232
-741.112	24.460	-0.199	0.166
-740.098	39.049	-0.287	0.258
-739.083	46.253	-0.193	-0.180
-738.069	79.694	0.090	-0.097
-737.054	-200.000	-0.035	-0.162
-736.039	-51.032	-0.154	0.073
-735.025	540.224	0.050	0.119
-734.010	-28.470	0.073	-0.042
-732.996	596.679	0.055	0.138
-731.981	73.524	-0.213	-0.225
-730.966	-173.864	0.183	-0.005
-729.952	232.529	-0.075	-0.124
-728.937	-91.501	-0.268	-0.077
-727.923	800.000	-0.053	0.163
-726.908	-48.259	-0.430	-0.208
-725.894	-200.000	-0.306	-0.000
-724.879	-200.000	-0.073	-0.352
-723.864	-36.802	-0.313	-0.169
-722.850	-130.799	0.182	-0.025
-721.835	-4.858	-0.194	-0.134
-720.821	-74.466	0.347	0.126
-719.806	-110.936	0.174	0.036
-718.791	118.925	0.031	0.039
-717.777	-200.000	0.032	-0.213
-716.762	-200.000	-0.001	-0.411
-715.748	546.613	0.098	-0.235
-714.733	-200.000	-0.033	-0.317
-713.718	-39.857	0.052	-0.027
-712.704	11.418	0.177	-0.136
-711.689	-200.000	-0.036	0.201
-710.675	260.156	0.060	0.104
-709.660	800.000	-0.042	0.159
-708.645	-104.691	0.081	-0.019
-707.631	-31.452	0.210	0.118
-706.616	-200.000	0.024	0.435
-705.602	334.560	0.117	-0.227
-704.587	-63.673	0.083	-0.034
-703.572	39.071	0.029	-0.026
-702.558	71.373	-0.068	-0.071
-701.543	99.710	0.072	0.084
-700.529	648.806	-0.046	0.119
-699.514	11.344	0.097	0.074
-698.499	800.000	0.091	0.276
-697.485	106.992	0.090	0.108
-696.470	-74.329	-0.053	0.019
-695.456	-200.000	0.038	-0.256
-694.441	749.833	-0.127	0.343
-693.426	152.857	-0.186	0.255
-692.412	-119.745	-0.321	0.056
-691.397	-200.000	-0.025	-0.156
-690.383	-99.364	-0.157	0.040
-689.368	670.020	-0.054	-0.141
-688.354	92.324	-0.042	-0.048
-687.339	156.197	-0.176	0.244
-686.324	-61.430	-0.290	-0.122
-685.310	-200.000	0.028	-0.258
-684.295	-111.937	-0.134	0.027
-683.281	280.777	-0.076	-0.136
-682.266	-55.386	0.273	0.123
-681.251	-117.523	-0.082	0.015
-680.237	-200.000	-0.004	-0.024
-679.222	-200.000	0.034	0.270
-678.208	-82.309	-0.124	-0.040
-677.193	503.932	0.149	-0.346
-676.178	-85.812	-0.296	-0.092
-675.164	-153.708	0.103	0.007
-674.149	-67.448	0.119	-0.047
-673.135	125.132	-0.169	-0.213
-672.120	34.275	0.089	0.078
-671.105	31.027	-0.244	0.210
-670.091	-93.301	-0.340	0.095
-669.076	-64.480	0.269	-0.110
-668.062	-125.037	-0.264	-0.041
-667.047	-123.671	0.087	-0.014
-666.032	210.787	-0.155	0.244
-665.018	106.008	0.059	0.070
-664.003	297.949	-0.139	-0.255
-662.989	333.341	0.169	-0.328
-661.974	84.591	-0.147	-0.161
-660.959	456.196	-0.080	0.177
-659.945	68.852	0.046	-0.047
-658.930	215.018	0.013	-0.021
-657.916	311.041	0.127	-0.239
-656.901	-200.000	-0.004	-0.219
-655.886	800.000	-0.011	0.035
-654.872	-101.075	-0.615	-0.151
-653.857	-200.000	0.024	-0.207
-652.843	33.926	-0.069	-0.060
-651.828	-124.516	0.056	-0.009
-650.814	-156.352	0.102	-0.006
-649.799	318.787	0.080	0.153
-648.784	-67.374	0.277	-0.109
-647.770	-170.656	-0.187	-0.006
-646.755	-47.372	-0.186	0.091
-645.741	-97.238	0.123	-0.032
-644.726	-200.000	-0.003	-0.155
-643.711	-132.165	0.264	0.034
-642.697	218.920	-0.063	0.101
-641.682	-164.209	0.160	-0.007
-640.668	-100.934	-0.571	-0.141
-639.653	-92.942	-0.103	-0.029
-638.638	557.330	0.118	-0.285
-637.624	-53.495	-0.290	0.133
-636.609	-77.245	0.122	-0.042
-635.595	800.000	0.044	-0.177
-634.580	-200.000	0.070	-0.410
-633.565	-4.403	0.226	0.156
-632.551	173.140	-0.190	0.274
-631.536	413.795	-0.033	-0.070
-630.522	800.000	0.053	-0.178
-629.507	73.484	-0.135	0.141
-628.492	85.901	-0.178	0.196
-627.478	-76.922	0.160	-0.056
-626.463	594.231	0.090	-0.223
-625.449	800.000	-0.041	0.170
-624.434	84.081	-0.169	0.185
-623.419	-200.000	-0.277	-0.001
-622.405	-30.996	0.166	-0.094
-621.390	150.940	0.198	0.270
-620.376	188.227	0.178	0.266
-619.361	-200.000	-0.036	0.321
-618.346	61.691	-0.370	-0.368
-617.332	342.449	0.114	0.223
-616.317	-200.000	-0.035	0.212
-615.303	-200.000	0.057	-0.493
-614.288	-200.000	-0.014	-0.373
-613.273	800.000	-0.017	-0.072
-612.259	249.651	-0.081	-0.138
-611.244	-154.646	0.476	-0.032
-610.230	699.313	0.042	-0.112
-609.215	-149.110	0.234	-0.019
-608.201	-77.951	-0.172	0.059
-607.186	94.489	-0.175	-0.199
-606.171	-19.408	0.069	-0.043
-605.157	-24.731	0.164	-0.097
-604.142	225.811	-0.122	-0.198
-603.128	-145.860	0.192	0.017
-602.113	418.024	-0.029	-0.061
-601.098	-200.000	0.015	-0.571
-600.084	800.000	-0.013	0.044
-599.069	41.910	-0.261	-0.237
-598.055	-117.062	0.221	-0.040
-597.040	41.281	-0.221	-0.200
-596.025	-105.087	-0.060	0.014
-595.011	81.660	-0.049	0.053
-593.996	582.069	0.037	-0.090
-592.982	800.000	-0.074	0.302
-591.967	800.000	0.066	-0.228
-590.952	-200.000	0.037	-0.176
-589.938	122.756	-0.161	0.202
-588.923	-54.205	0.168	0.076
-587.909	141.184	-0.168	0.222
-586.894	526.742	0.098	-0.231
-585.879	38.223	0.183	0.163
-584.865	171.708	0.043	0.061
-583.850	-165.298	-0.334	0.015
-582.836	-48.646	0.174	-0.083
-581.821	550.457	0.097	-0.231
-580.806	193.060	0.074	-0.112
-579.792	59.502	0.038	0.038
-578.777	-15.680	0.168	-0.107
-577.763	-121.533	0.179	-0.030
-576.748	-134.148	-0.020	-0.002
-575.733	390.115	-0.026	-0.054
-574.719	267.702	-0.037	-0.064
-573.704	-31.270	-0.176	-0.099
-572.690	380.930	0.101	0.207
-571.675	-51.292	-0.016	-0.008
-570.661	-15.659	-0.231	0.147
-569.646	-15.719	-0.360	-0.229
-568.631	-99.990	-0.371	-0.092
-567.617	-200.000	0.007	0.470
-566.602	157.420	-0.180	-0.249
-565.588	140.659	-0.085	0.112
-564.573	111.832	0.034	-0.041
-563.558	25.317	0.097	-0.080
-562.544	-68.493	0.051	0.020
-561.529	640.459	-0.097	0.246
-560.515	16.239	0.317	-0.250
-559.500	-161.181	-0.088	0.005
-558.485	-121.670	-0.248	0.041
-557.471	-69.052	0.302	-0.116
-556.456	-200.000	0.017	-0.272
-555.442	-200.000	0.018	0.467
-554.427	27.468	0.167	-0.140
-553.412	-200.000	-0.041	-0.237
-552.398	182.285	0.164	-0.241
-551.383	-174.244	0.281	0.008
-550.369	-53.411	0.271	-0.124
-549.354	-113.030	0.132	-0.026
-548.339	-153.983	-0.113	-0.008
-547.325	141.542	0.109	-0.145
-546.310	-32.809	0.166	-0.092
-545.296	800.000	-0.062	-0.182
-544.281	251.820	-0.079	0.134
-543.266	-122.929	0.143	0.023
-542.252	127.541	0.045	0.057
-541.237	-74.927	0.215	0.077
-540.223	-90.155	-0.209	0.061
-539.208	20.257	-0.128	0.103
-538.193	-130.173	-0.151	0.021
-537.179	-9.850	0.252	0.167
-536.164	-39.395	0.099	0.052
-535.150	-200.000	-0.020	-0.323
-534.135	-200.000	0.032	0.182
-533.121	225.327	-0.070	0.112
-532.106	-200.000	0.035	0.215
-531.091	94.103	0.272	-0.308
-530.077	-100.053	-0.137	0.034
-529.062	53.340	-0.209	-0.200
-528.048	99.556	-0.253	-0.292
-527.033	-39.307	0.191	-0.100
-526.018	-129.951	0.169	-0.023
-525.004	-57.463	0.079	0.034
-523.989	626.043	-0.126	-0.317
-522.975	-200.000	-0.069	-0.424
-521.960	800.000	-0.038	-0.106
-520.945	-200.000	0.041	-0.515
-519.931	-200.000	-0.010	-0.160
-518.916	-116.294	-0.228	-0.042
-517.902	-200.000	0.091	0.428
-516.887	232.297	0.144	0.236
-515.872	20.374	0.226	-0.182
-514.858	-150.839	0.090	0.007
-513.843	448.879	-0.068	0.148
-512.829	18.432	-0.218	-0.174
-511.814	-38.404	0.324	-0.171
-510.799	125.005	0.063	0.079
-509.785	136.409	0.352	0.457
-508.770	378.827	0.084	-0.171
-507.756	-122.160	-0.204	-0.033
-506.741	-149.593	-0.102	0.008
-505.726	239.377	0.023	-0.039
-504.712	800.000	-0.031	0.132
-503.697	213.001	-0.107	-0.168
-502.683	62.308	-0.086	-0.085
-501.668	-75.238	0.184	-0.066
-500.653	-200.000	-0.016	-0.100
-499.639	45.051	-0.081	-0.074
-498.624	89.991	-0.066	0.074
-497.610	-200.000	0.034	-0.254
-496.595	31.091	0.304	0.260
-495.581	-18.965	0.074	0.046
-494.566	-64.717	-0.165	0.067
-493.551	-200.000	0.008	-0.190
-492.537	154.158	0.055	0.075
-491.522	-200.000	0.003	0.167
-490.508	-38.893	-0.306	-0.161
-489.493	-132.407	0.216	0.028
-488.478	-104.448	-0.205	0.047
-487.464	165.055	0.218	0.306
-486.449	-200.000	0.002	-0.017
-485.435	-179.558	-0.111	0.002
-484.420	800.000	0.035	-0.114
-483.405	-3.015	-0.146	-0.101
-482.391	-134.016	0.224	-0.028
-481.376	-200.000	-0.039	0.265
-480.362	-200.000	-0.015	-0.170
-479.347	417.701	-0.044	0.093
-478.332	30.729	-0.190	0.162
-477.318	213.127	-0.082	0.129
-476.303	-200.000	0.038	0.242
-475.289	-74.336	-0.636	0.228
-474.274	280.660	0.229	0.408
-473.259	-69.393	0.338	-0.129
-472.245	535.233	-0.086	-0.203
-471.230	104.214	0.216	-0.253
-470.216	103.579	-0.125	-0.146
-469.201	-200.000	-0.025	-0.316
-468.186	-200.000	-0.007	-0.032
-467.172	-82.429	-0.105	0.034
-466.157	201.212	-0.073	0.112
-465.143	357.492	0.063	-0.125
-464.128	-200.000	-0.020	-0.177
-463.113	148.018	-0.015	-0.020
-462.099	-38.233	-0.132	0.070
-461.084	-142.232	-0.158	-0.016
-460.070	800.000	0.028	0.086
-459.055	597.050	0.065	0.160
-458.040	66.444	-0.146	0.148
-457.026	-27.808	-0.157	-0.090
-456.011	-200.000	-0.031	-0.200
-454.997	41.377	-0.059	-0.053
-453.982	306.293	0.148	-0.274
-452.968	-78.022	0.055	0.019
-451.953	25.853	0.191	-0.158
-450.938	800.000	0.065	-0.223
-449.924	-200.000	-0.016	0.180
-448.909	93.551	0.073	0.082
-447.895	-200.000	0.041	-0.258
-446.880	800.000	-0.080	-0.300
-445.865	-102.430	0.278	-0.066
-444.851	-40.784	-0.172	0.088
-443.836	-200.000	0.001	0.217
-442.822	-191.122	-0.019	0.000
-441.807	514.345	-0.077	0.178
-440.792	800.000	-0.060	0.209
-439.778	143.787	0.251	0.333
-438.763	800.000	0.022	0.078
-437.749	-200.000	-0.045	-0.540
-436.734	-200.000	-0.018	-0.112
-435.719	428.464	-0.090	0.194
-434.705	-19.914	-0.147	-0.090
-433.690	2.265	0.105	0.076
-432.676	391.855	0.033	-0.069
-431.661	174.421	-0.069	0.099
-430.646	-33.188	-0.315	0.173
-429.632	-12.606	0.219	-0.142
-428.617	800.000	-0.086	0.350
-427.603	-100.119	-0.133	0.033
-426.588	-58.568	-0.395	-0.170
-425.573	-73.636	0.493	0.179
-424.559	-16.305	-0.453	-0.286
-423.544	208.117	0.108	-0.168
-422.530	304.135	0.143	0.263
-421.515	-54.476	0.274	0.123
-420.500	70.335	-0.058	-0.060
-419.486	-200.000	-0.021	-0.151
-418.471	47.528	-0.093	-0.087
-417.457	800.000	0.019	-0.080
-416.442	104.041	-0.167	0.195
-415.428	-74.104	0.048	-0.017
-414.413	-50.996	0.166	0.077
-413.398	157.473	0.126	0.174
-412.384	145.867	0.141	0.188
-411.369	-200.000	-0.003	0.211
-410.355	302.258	-0.072	0.132
-409.340	-22.387	0.287	-0.173
-408.325	-84.025	-0.250	0.079
-407.311	123.870	0.190	0.237
-406.296	44.117	-0.213	-0.193
-405.282	-41.629	0.208	0.106
-404.267	-77.317	-0.235	-0.081
-403.252	-141.805	0.283	0.028
-402.238	800.000	0.158	0.565
-401.223	72.491	-0.123	0.127
-400.209	-200.000	0.024	0.269
-399.194	296.286	-0.057	0.104
-398.179	-200.000	-0.042	0.224
-397.165	278.196	-0.127	0.224
-396.150	401.047	0.025	0.053
-395.136	33.243	0.053	0.046
-394.121	-104.052	-0.143	0.033
-393.106	-109.122	0.176	-0.037
-392.092	800.000	0.113	-0.344
-391.077	800.000	0.010	0.043
-390.063	-100.034	-0.293	0.072
-389.048	-200.000	0.023	-0.197
-388.033	316.640	-0.089	0.166
-387.019	13.828	0.117	0.090
-386.004	-200.000	0.015	0.231
-384.990	-200.000	0.057	-0.250
-383.975	-167.737	0.180	-0.007
-382.960	-30.349	0.093	0.052
-381.946	-151.518	0.407	-0.030
-380.931	-45.667	0.132	0.065
-379.917	-47.341	-0.196	-0.095
-378.902	126.134	0.094	-0.118
-377.888	-200.000	-0.063	0.359
-376.873	800.000	0.085	-0.258
-375.858	-200.000	-0.027	0.146
-374.844	-107.398	-0.214	-0.047
-373.829	-200.000	-0.064	-0.362
-372.815	-127.645	0.062	-0.009
-371.800	-200.000	-0.031	-0.195
-370.785	800.000	0.079	-0.300
-369.771	-48.051	-0.085	-0.041
-368.756	-155.012	-0.114	-0.007
-367.742	800.000	-0.055	0.235
-366.727	129.462	-0.125	-0.158
-365.712	53.439	0.236	0.225
-364.698	-173.164	0.351	0.011
-363.683	-35.367	0.289	-0.156
-362.669	462.565	-0.128	-0.283
-361.654	170.554	0.057	0.081
-360.639	567.793	0.179	-0.430
-359.625	800.000	0.029	-0.086
-358.610	-27.395	-0.300	-0.173
-357.596	272.721	-0.105	-0.183
-356.581	152.762	0.046	-0.063
-355.566	729.200	0.035	0.094
-354.552	-130.516	0.203	-0.027
-353.537	-57.291	0.118	0.051
-352.523	-149.243	0.184	-0.015
-351.508	-17.392	0.020	-0.012
-350.493	800.000	0.062	0.201
-349.479	393.298	0.256	-0.529
-348.464	642.629	-0.054	0.137
-347.450	140.834	-0.131	-0.172
-346.435	-162.859	0.089	-0.004
-345.420	-157.612	0.177	-0.010
-344.406	-31.939	0.263	0.146
-343.391	-200.000	-0.048	0.327
-342.377	-61.272	-0.182	-0.076
-341.362	557.197	-0.062	0.147
-340.348	-95.236	0.086	-0.023
-339.333	-200.000	0.011	0.051
-338.318	131.287	0.105	-0.133
-337.304	739.835	0.082	0.217
-336.289	-41.305	-0.233	-0.119
-335.275	-116.429	0.171	0.031
-334.260	-13.152	-0.029	0.019
-333.245	-155.453	-0.084	0.005
-332.231	-170.642	-0.277	-0.010
-331.216	-200.000	-0.033	-0.204
-330.202	-200.000	-0.023	-0.214
-329.187	90.826	-0.103	0.114
-328.172	-73.514	0.314	0.113
-327.158	-5.196	-0.216	0.147
-326.143	-106.822	-0.462	0.101
-325.129	470.890	0.078	0.174
-324.114	-19.433	0.200	-0.123
-323.099	207.067	-0.100	0.155
-322.085	-141.737	-0.142	-0.014
-321.070	58.248	-0.079	0.076
-320.056	504.134	0.057	-0.131
-319.041	110.895	0.102	-0.121
-318.026	-150.028	-0.096	0.007
-317.012	-97.115	-0.356	0.092
-315.997	201.943	-0.165	-0.251
-314.983	72.133	0.075	-0.078
-313.968	-200.000	-0.007	0.529
-312.953	215.010	-0.040	-0.062
-311.939	-57.412	-0.156	-0.068
-310.924	25.730	0.087	-0.071
-309.910	45.587	-0.305	-0.279
-308.895	800.000	0.066	0.198
-307.880	49.279	-0.250	0.232
-306.866	653.119	0.065	-0.166
-305.851	-200.000	0.021	0.200
-304.837	352.679	0.095	-0.187
-303.822	800.000	-0.028	0.084
-302.807	17.187	0.090	0.070
-301.793	-98.888	-0.130	-0.033
-300.778	-200.000	-0.010	0.058
-299.764	-200.000	-0.031	0.142
-298.749	-84.714	0.188	0.059
-297.735	-131.229	0.148	-0.019
-296.720	-45.689	0.343	0.168
-295.705	-131.763	0.237	0.031
-294.691	610.955	-0.039	-0.096
-293.676	21.867	0.235	0.189
-292.662	5.827	-0.194	0.142
-291.647	-6.691	-0.173	0.116
-290.632	-200.000	0.012	-0.246
-289.618	110.596	0.022	0.026
-288.603	800.000	0.078	0.284
-287.589	-168.804	-0.231	-0.009
-286.574	-112.296	-0.115	0.023
-285.559	26.465	0.091	-0.075
-284.545	-24.870	-0.165	-0.097
-283.530	800.000	-0.043	0.179
-282.516	95.786	-0.127	-0.143
-281.501	-200.000	0.001	-0.333
-280.486	-106.276	0.033	-0.007
-279.472	800.000	-0.080	0.313
-278.457	-115.499	0.442	-0.082
-277.443	-85.610	0.678	-0.208
-276.428	60.187	0.090	0.088
-275.413	-116.966	-0.312	-0.056
-274.399	-200.000	0.012	-0.078
-273.384	81.024	-0.135	0.143
-272.370	56.969	-0.189	0.182
-271.355	-115.499	0.323	-0.060
-270.340	80.342	-0.284	-0.302
-269.326	226.886	-0.128	-0.205
-268.311	800.000	0.062	0.215
-267.297	800.000	0.108	0.313
-266.282	6.788	0.217	0.159
-265.267	28.025	0.083	-0.069
-264.253	-125.980	-0.337	-0.050
-263.238	71.562	0.083	0.086
-262.224	-51.389	0.164	-0.076
-261.209	-51.388	-0.266	0.123
-260.195	-181.076	-0.273	0.005
-259.180	-82.509	-0.202	0.065
-258.165	-150.955	-0.258	-0.019
-257.151	246.050	-0.049	-0.081
-256.136	16.864	-0.164	0.128
-255.122	1.465	-0.059	0.042
-254.107	-61.250	-0.120	0.050
-253.092	549.569	-0.072	0.169
-252.078	-120.903	0.278	0.046
-251.063	328.177	0.041	-0.078
-250.049	260.876	0.070	-0.120
-249.034	26.305	-0.376	-0.310
-248.019	-200.000	0.039	0.175
-247.005	193.846	0.097	0.145
-245.990	-200.000	0.003	0.120
-244.976	56.212	-0.110	-0.105
-243.961	-19.637	0.332	-0.203
-242.946	-155.954	-0.142	-0.009
-241.932	-7.874	0.109	0.072
-240.917	86.564	0.132	0.144
-239.903	187.084	-0.210	-0.308
-238.888	800.000	-0.051	0.171
-237.873	504.396	0.069	-0.158
-236.859	-200.000	-0.018	-0.109
-235.844	-102.150	0.321	0.076
-234.830	35.523	-0.328	0.284
-233.815	9.463	0.177	0.132
-232.800	480.994	-0.049	-0.109
-231.786	-200.000	-0.211	0.000
-230.771	-70.041	-0.054	-0.020
-229.757	105.848	0.305	0.356
-228.742	-200.000	-0.030	0.284
-227.727	148.217	-0.071	-0.094
-226.713	48.297	-0.274	-0.252
-225.698	71.835	-0.175	-0.179
-224.684	800.000	0.057	0.237
-223.669	-200.000	0.062	0.474
-222.655	-116.163	0.071	-0.013
-221.640	405.246	-0.078	-0.162
-220.625	-67.103	-0.329	-0.128
-219.611	-200.000	0.030	-0.413
-218.596	-200.000	-0.009	0.308
-217.582	46.603	-0.156	0.143
-216.567	22.068	0.142	0.114
-215.552	110.145	-0.145	-0.171
-214.538	-103.368	-0.204	-0.047
-213.523	-152.924	0.232	-0.016
-212.509	265.103	0.095	-0.163
-211.494	-200.000	0.002	-0.068
-210.479	-173.433	0.508	0.015
-209.465	-110.079	0.249	0.051
-208.450	-40.291	0.235	0.120
-207.436	-167.189	-0.202	0.008
-206.421	-156.216	-0.227	0.014
-205.406	87.779	-0.133	0.145
-204.392	17.556	-0.366	0.287
-203.377	-195.333	-0.026	0.000
-202.363	-200.000	-0.032	-0.385
-201.348	393.072	0.038	-0.078
-200.333	-81.019	0.236	0.077
-199.319	-135.313	0.078	0.009
-198.304	57.455	-0.055	-0.053
-197.290	-63.137	0.213	0.087
-196.275	800.000	0.042	-0.119
-195.260	-200.000	-0.008	-0.342
-194.246	586.205	-0.124	0.301
-193.231	226.606	-0.093	0.149
-192.217	-200.000	-0.081	0.369
-191.202	267.417	0.125	0.216
-190.187	800.000	-0.109	0.315
-189.173	62.420	0.133	0.130
-188.158	52.623	-0.026	0.024
-187.144	-105.880	-0.304	-0.067
-186.129	57.469	0.175	0.169
-185.114	251.470	-0.251	-0.419
-184.100	-129.772	0.199	0.027
-183.085	314.879	-0.053	0.099
-182.071	-200.000	-0.014	-0.173
-181.056	199.604	-0.036	0.055
-180.042	48.499	0.166	-0.153
-179.027	800.000	-0.049	0.135
-178.012	-126.504	-0.268	-0.039
-176.998	-200.000	0.053	-0.247
-175.983	-107.752	0.144	0.031
-174.969	800.000	0.048	0.186
-173.954	159.386	0.112	0.154
-172.939	467.228	0.073	-0.160
-171.925	-16.551	-0.018	0.011
-170.910	800.000	-0.039	0.131
-169.896	-200.000	-0.018	-0.096
-168.881	-37.060	-0.126	0.066
-167.866	216.732	-0.095	0.149
-166.852	-119.756	0.156	-0.026
-165.837	20.235	0.124	0.098
-164.823	-92.750	-0.341	-0.094
-163.808	42.160	-0.182	0.162
-162.793	-200.000	-0.007	-0.031
-161.779	800.000	-0.035	-0.142
-160.764	324.002	0.041	0.076
-159.750	-200.000	-0.064	0.441
-158.735	-200.000	0.010	0.178
-157.720	-200.000	0.013	0.262
-156.706	800.000	0.065	-0.198
-155.691	114.854	-0.183	0.219
-154.677	-126.365	0.358	-0.052
-153.662	682.012	0.039	0.099
-152.647	800.000	-0.044	0.150
-151.633	220.585	-0.049	-0.077
-150.618	84.722	0.097	0.104
-149.604	800.000	0.014	0.039
-148.589	352.521	-0.035	0.069
-147.574	296.125	-0.061	0.111
-146.560	-76.819	0.082	0.028
-145.545	-34.931	0.318	0.170
-144.531	104.290	0.209	0.241
-143.516	5.791	-0.257	-0.187
-142.502	-200.000	0.047	0.380
-141.487	-15.617	-0.132	-0.082
-140.472	-42.641	0.180	0.090
-139.458	496.615	0.041	0.092
-138.443	-82.454	0.102	-0.032
-137.429	800.000	-0.180	0.553
-136.414	273.723	-0.228	0.397
-135.399	27.660	-0.146	-0.120
-134.385	162.990	-0.178	0.245
-133.370	43.259	0.236	-0.212
-132.356	-34.791	-0.161	0.086
-131.341	-128.715	0.169	-0.023
-130.326	28.266	-0.067	-0.055
-129.312	598.544	0.036	-0.088
-128.297	-200.000	0.012	-0.142
-127.283	388.970	-0.073	0.149
-126.268	-20.839	0.372	0.224
-125.253	-200.000	-0.054	0.344
-124.239	-187.750	-0.280	0.004
-123.224	-80.162	0.119	0.039
-122.210	-1.406	0.077	0.054
