DTS Sentinel unit serial number:	SN413079Multiplexer serial number:	ORYXHardware model number:	OX4-SRSoftware version number:	ORYX F/W v4.00 Oryx Data Collector v3.7.2.0data status	okinstallation	princeton_trtdifferential loss correction	single-endedforward channel	channel 2reverse channel	N/Adate	2019/09/11time	15:37:11forward acquisition time	60.00reverse acquisition time	0.00gamma	496.2192k internal	0.2289k external	0.2289temperature offset calibration	1.0013default loss term (dB/km)	0.3790temperature slope calibration	1.0000multiplexer offset coefficient	1.0000multiplexer slope coefficient	1.0000fibre end	0.00T internal ref (°C)	42.81T ext. ref 1 (°C)	0.98T ext. ref 2 (°C)	36.90length (m)	temperature (°C)	Stokes	anti-Stokes-747.200	262.280	0.093	-0.165
-746.185	-111.897	-0.181	0.038
-745.171	-15.974	0.190	-0.124
-744.156	459.047	-0.186	0.424
-743.142	-198.026	-0.127	0.001
-742.127	-126.501	-0.102	0.016
-741.112	-94.220	0.157	0.044
-740.098	633.955	-0.149	0.386
-739.083	47.756	-0.238	0.228
-738.069	127.952	-0.273	0.356
-737.054	-144.212	-0.110	0.011
-736.039	-200.000	-0.062	0.333
-735.025	-200.000	0.016	0.222
-734.010	2.205	0.089	-0.066
-732.996	-200.000	-0.019	-0.323
-731.981	-6.406	0.114	0.080
-730.966	-200.000	-0.027	0.162
-729.952	-200.000	0.014	-0.134
-728.937	258.015	-0.038	-0.066
-727.923	14.710	-0.209	-0.168
-726.908	784.835	-0.076	-0.214
-725.894	-200.000	0.016	-0.160
-724.879	-200.000	-0.003	-0.082
-723.864	-107.229	0.246	0.055
-722.850	285.810	-0.065	-0.120
-721.835	358.483	0.062	0.126
-720.821	-21.026	-0.086	0.054
-719.806	800.000	-0.025	0.087
-718.791	800.000	0.038	-0.166
-717.777	12.832	0.338	-0.267
-716.762	-155.931	0.324	0.021
-715.748	-98.260	-0.277	0.073
-714.733	749.260	-0.064	-0.176
-713.718	181.213	0.079	0.120
-712.704	93.831	-0.061	-0.071
-711.689	694.437	-0.027	-0.074
-710.675	-185.031	-0.146	-0.002
-709.660	249.119	-0.061	-0.106
-708.645	-50.835	-0.077	0.037
-707.631	110.567	-0.071	0.087
-706.616	203.313	0.179	-0.283
-705.602	-14.605	-0.061	-0.040
-704.587	-88.703	0.117	0.035
-703.572	-200.000	-0.007	0.308
-702.558	-142.206	-0.349	0.035
-701.543	-185.440	-0.218	0.003
-700.529	35.180	-0.290	-0.260
-699.514	800.000	0.184	-0.624
-698.499	-100.277	0.157	-0.040
-697.485	-60.475	0.419	-0.182
-696.470	737.176	0.042	0.114
-695.456	48.533	0.091	0.088
-694.441	129.663	0.140	0.183
-693.426	584.298	-0.023	-0.057
-692.412	-88.804	-0.181	0.055
-691.397	27.066	0.201	-0.173
-690.383	141.721	-0.070	0.095
-689.368	218.714	-0.212	0.347
-688.354	-113.326	-0.396	-0.079
-687.339	800.000	0.054	-0.187
-686.324	-78.317	0.287	-0.101
-685.310	-164.678	0.180	0.008
-684.295	92.108	-0.122	0.141
-683.281	-7.358	-0.052	0.036
-682.266	386.576	0.048	0.101
-681.251	-200.000	0.016	0.172
-680.237	166.881	0.220	0.319
-679.222	205.935	0.008	0.012
-678.208	-56.324	0.346	0.157
-677.193	17.178	0.037	-0.030
-676.178	177.875	-0.065	-0.097
-675.164	-56.403	0.096	-0.043
-674.149	-89.761	-0.372	0.111
-673.135	97.273	-0.291	0.341
-672.120	-24.504	-0.079	0.048
-671.105	764.565	-0.088	0.243
-670.091	-59.109	0.179	0.079
-669.076	800.000	0.067	0.292
-668.062	-34.909	-0.169	0.094
-667.047	-39.413	-0.146	0.078
-666.032	-181.745	0.119	-0.002
-665.018	-30.283	-0.125	0.073
-664.003	196.362	0.082	-0.127
-662.989	-52.843	0.148	-0.070
-661.974	-61.657	-0.227	0.097
-660.959	-30.671	-0.201	0.116
-659.945	24.902	-0.260	-0.220
-658.930	113.222	0.212	-0.262
-657.916	-98.120	-0.114	-0.030
-656.901	484.866	0.065	-0.152
-655.886	6.271	0.128	-0.097
-654.872	568.102	0.023	0.057
-653.857	800.000	0.080	0.283
-652.843	800.000	-0.089	-0.307
-651.828	-10.898	-0.141	-0.095
-650.814	-17.073	-0.100	-0.064
-649.799	62.442	-0.173	0.176
-648.784	174.488	-0.118	0.175
-647.770	-155.380	0.246	-0.016
-646.755	380.700	-0.038	-0.079
-645.741	6.524	0.055	-0.042
-644.726	-37.011	-0.070	-0.038
-643.711	72.886	-0.309	-0.329
-642.697	-92.999	-0.122	-0.035
-641.682	-200.000	0.009	-0.054
-640.668	-200.000	0.000	-0.071
-639.653	219.177	0.109	-0.179
-638.638	-48.340	-0.290	-0.143
-637.624	-116.911	0.192	-0.036
-636.609	-145.765	0.111	-0.010
-635.595	1.747	-0.225	-0.166
-634.580	800.000	-0.082	0.277
-633.565	-72.519	-0.455	0.171
-632.551	417.531	-0.042	-0.092
-631.536	-200.000	-0.080	0.500
-630.522	-200.000	-0.052	0.307
-629.507	35.128	-0.223	0.200
-628.492	36.987	-0.150	0.135
-627.478	-4.119	0.125	0.088
-626.463	255.508	-0.026	-0.046
-625.449	403.738	0.065	0.140
-624.434	13.385	0.160	-0.127
-623.419	-200.000	0.010	-0.066
-622.405	800.000	0.031	0.137
-621.390	-90.632	-0.108	0.032
-620.376	29.926	-0.095	-0.082
-619.361	-38.995	-0.271	-0.145
-618.346	-41.538	-0.141	0.074
-617.332	-156.230	-0.269	0.017
-616.317	5.388	-0.163	-0.123
-615.303	76.100	-0.379	0.409
-614.288	13.369	0.153	-0.121
-613.273	452.463	0.125	0.281
-612.259	140.923	0.081	0.109
-611.244	221.801	-0.058	-0.096
-610.230	-200.000	0.046	0.451
-609.215	165.882	-0.180	-0.260
-608.201	116.526	0.329	-0.411
-607.186	-200.000	0.018	-0.405
-606.171	-32.256	0.117	-0.067
-605.157	323.541	-0.083	-0.161
-604.142	-105.165	-0.137	0.032
-603.128	800.000	-0.057	-0.228
-602.113	-73.402	0.136	-0.051
-601.098	294.341	-0.151	0.281
-600.084	-12.654	0.030	-0.020
-599.069	28.294	0.154	-0.132
-598.055	-142.128	-0.284	-0.029
-597.040	800.000	0.082	-0.262
-596.025	8.362	-0.359	0.275
-595.011	386.266	0.110	0.232
-593.996	-200.000	0.007	0.201
-592.982	800.000	-0.128	-0.530
-591.967	-176.390	-0.303	-0.008
-590.952	-49.579	0.123	0.060
-589.938	-73.133	-0.251	-0.094
-588.923	800.000	-0.116	0.436
-587.909	-180.164	0.249	0.005
-586.894	10.075	0.180	0.139
-585.879	-115.682	0.220	0.042
-584.865	800.000	0.024	0.076
-583.850	800.000	-0.052	-0.147
-582.836	-54.444	0.153	-0.071
-581.821	14.342	0.183	0.145
-580.806	44.421	-0.132	0.124
-579.792	290.244	0.064	0.119
-578.777	-147.379	0.237	0.020
-577.763	-200.000	0.007	0.054
-576.748	77.866	-0.233	0.253
-575.733	-114.309	-0.396	-0.078
-574.719	-70.121	0.191	-0.074
-573.704	-113.707	-0.313	-0.062
-572.690	-200.000	0.015	0.146
-571.675	62.374	0.103	0.104
-570.661	-97.084	0.110	-0.029
-569.646	239.870	0.191	0.323
-568.631	-143.947	0.407	0.039
-567.617	-25.828	0.211	0.126
-566.602	-82.922	0.177	-0.058
-565.588	141.190	0.270	-0.364
-564.573	-37.251	-0.144	-0.078
-563.558	8.360	0.189	-0.145
-562.544	30.662	-0.115	-0.100
-561.529	800.000	0.044	-0.150
-560.515	274.852	0.079	-0.143
-559.500	-137.593	0.270	-0.031
-558.485	213.605	-0.071	-0.114
-557.471	800.000	-0.022	-0.079
-556.456	-101.745	-0.109	0.027
-555.442	-156.351	-0.163	0.010
-554.427	271.681	-0.162	0.291
-553.412	-127.769	0.077	-0.011
-552.398	-76.841	0.198	-0.071
-551.383	-56.864	-0.278	-0.125
-550.369	57.429	0.209	-0.207
-549.354	287.792	0.156	0.287
-548.339	-74.156	-0.063	-0.023
-547.325	65.180	-0.082	-0.085
-546.310	-200.000	-0.008	0.238
-545.296	173.166	0.065	-0.095
-544.281	-32.516	-0.324	-0.184
-543.266	187.828	-0.091	-0.138
-542.252	-16.131	-0.071	0.046
-541.237	14.638	0.166	0.132
-540.223	194.797	-0.027	0.041
-539.208	-200.000	0.028	0.276
-538.193	226.672	0.030	0.050
-537.179	202.936	-0.065	0.101
-536.164	-117.617	0.269	0.049
-535.150	34.987	0.264	-0.235
-534.135	-104.568	-0.145	0.034
-533.121	-78.460	-0.141	-0.049
-532.106	141.146	0.152	0.204
-531.091	262.161	0.021	0.036
-530.077	132.552	0.032	0.042
-529.062	-130.990	0.148	0.020
-528.048	55.989	0.084	0.083
-527.033	272.579	0.053	0.094
-526.018	800.000	0.066	-0.287
-525.004	-200.000	-0.000	0.272
-523.989	-104.919	0.235	-0.055
-522.975	-69.476	0.176	-0.068
-521.960	105.830	0.126	0.151
-520.945	266.783	0.193	-0.343
-519.931	422.851	0.171	-0.373
-518.916	66.434	-0.135	0.139
-517.902	217.681	0.123	0.199
-516.887	12.680	-0.229	0.179
-515.872	-71.409	-0.047	0.018
-514.858	-101.018	0.115	-0.029
-513.843	30.252	-0.143	-0.124
-512.829	-21.696	0.031	0.019
-511.814	468.103	-0.063	-0.144
-510.799	-35.610	-0.138	-0.076
-509.785	-94.660	0.195	0.054
-508.770	-111.921	0.420	-0.086
-507.756	-103.126	-0.174	0.042
-506.741	-200.000	0.039	0.309
-505.726	-40.386	0.233	0.123
-504.712	13.809	0.215	0.170
-503.697	-6.637	0.132	0.091
-502.683	-89.915	-0.104	0.031
-501.668	-200.000	-0.019	-0.100
-500.653	282.556	0.151	0.275
-499.639	-200.000	-0.032	-0.369
-498.624	-122.368	0.099	0.016
-497.610	219.047	0.128	-0.207
-496.595	42.807	0.169	-0.156
-495.581	-200.000	-0.016	-0.268
-494.566	-136.054	-0.383	-0.046
-493.551	27.973	-0.040	0.034
-492.537	-200.000	-0.013	-0.201
-491.522	209.926	0.167	-0.266
-490.508	124.260	0.134	-0.171
-489.493	13.188	0.192	-0.151
-488.478	45.058	0.056	-0.052
-487.464	-180.664	-0.151	0.003
-486.449	-200.000	-0.063	-0.298
-485.435	31.906	-0.127	-0.111
-484.420	47.648	0.093	-0.088
-483.405	800.000	-0.019	-0.068
-482.391	20.378	0.157	-0.129
-481.376	128.599	-0.179	0.231
-480.362	56.975	0.374	0.370
-479.347	-117.365	-0.285	0.052
-478.332	200.544	-0.183	0.285
-477.318	61.990	-0.124	0.125
-476.303	-3.272	0.295	-0.208
-475.289	41.868	-0.211	-0.194
-474.274	134.802	0.066	0.087
-473.259	-159.661	-0.318	0.018
-472.245	-84.366	-0.308	-0.099
-471.230	-121.644	0.296	-0.050
-470.216	130.422	-0.185	-0.241
-469.201	164.877	-0.161	-0.230
-468.186	-200.000	-0.041	0.206
-467.172	292.412	-0.040	0.073
-466.157	202.360	-0.182	-0.285
-465.143	88.406	-0.163	0.183
-464.128	168.750	0.158	-0.228
-463.113	-103.957	-0.051	-0.012
-462.099	228.500	-0.057	0.093
-461.084	583.126	-0.076	0.190
-460.070	800.000	0.044	-0.155
-459.055	588.417	-0.024	-0.061
-458.040	53.423	0.077	-0.075
-457.026	-77.000	0.028	0.010
-456.011	238.418	-0.088	-0.149
-454.997	6.325	0.249	0.188
-453.982	-200.000	-0.079	0.367
-452.968	17.530	-0.166	0.134
-451.953	-20.072	-0.061	-0.038
-450.938	-92.347	-0.199	-0.057
-449.924	-181.932	-0.193	0.004
-448.909	-84.720	0.228	0.073
-447.895	26.497	0.097	0.082
-446.880	-127.793	-0.304	-0.044
-445.865	800.000	-0.021	0.081
-444.851	307.352	0.088	-0.166
-443.836	-200.000	0.014	0.148
-442.822	-200.000	0.062	-0.506
-441.807	-149.002	-0.297	0.024
-440.792	87.675	0.082	0.092
-439.778	-67.316	0.087	0.035
-438.763	-89.245	-0.179	0.054
-437.749	-63.363	0.198	0.083
-436.734	-101.037	0.139	0.034
-435.719	-200.000	0.257	-0.001
-434.705	560.253	-0.117	-0.287
-433.690	-200.000	-0.028	0.135
-432.676	-124.199	-0.366	-0.058
-431.661	39.426	-0.165	-0.149
-430.646	-200.000	0.023	-0.156
-429.632	-120.824	0.156	0.027
-428.617	-200.000	-0.164	0.001
-427.603	-124.857	-0.077	-0.012
-426.588	-200.000	-0.023	0.220
-425.573	531.827	0.181	0.434
-424.559	-94.781	-0.281	0.077
-423.544	-89.660	0.247	-0.073
-422.530	-200.000	-0.007	0.240
-421.515	800.000	-0.064	0.179
-420.500	306.451	0.186	0.351
-419.486	-142.779	-0.236	-0.023
-418.471	180.035	-0.257	0.381
-417.457	800.000	-0.042	0.172
-416.442	-105.534	-0.319	0.073
-415.428	800.000	-0.002	-0.005
-414.413	231.044	-0.134	-0.221
-413.398	-75.218	-0.174	0.063
-412.384	80.738	0.063	-0.069
-411.369	-178.491	0.196	-0.005
-410.355	67.711	-0.294	-0.304
-409.340	-53.247	0.038	0.018
-408.325	-200.000	0.027	0.157
-407.311	300.680	0.106	-0.198
-406.296	-111.720	-0.168	0.034
-405.282	200.545	-0.127	-0.198
-404.267	-21.268	0.290	-0.179
-403.252	72.430	0.086	0.091
-402.238	131.004	0.130	0.169
-401.223	207.167	0.101	0.160
-400.209	28.182	-0.312	0.266
-399.194	800.000	0.066	-0.195
-398.179	54.502	0.306	0.298
-397.165	129.302	0.069	-0.090
-396.150	289.084	-0.025	-0.046
-395.136	518.491	-0.149	-0.352
-394.121	-200.000	-0.011	0.060
-393.106	562.854	-0.078	0.191
-392.092	34.633	-0.138	0.122
-391.077	129.221	0.008	0.011
-390.063	34.774	0.060	0.053
-389.048	-134.849	-0.159	-0.019
-388.033	-200.000	0.012	0.196
-387.019	0.360	-0.117	-0.084
-386.004	142.338	-0.316	0.424
-384.990	-74.105	-0.176	0.065
-383.975	-69.661	0.315	-0.122
-382.960	-83.796	0.180	0.058
-381.946	-104.242	0.237	0.055
-380.931	-158.694	0.159	0.009
-379.917	308.172	-0.062	-0.117
-378.902	69.190	-0.063	0.066
-377.888	-54.186	0.218	-0.100
-376.873	-47.007	-0.161	-0.079
-375.858	0.542	0.467	0.337
-374.844	800.000	0.030	-0.113
-373.829	-200.000	-0.056	-0.266
-372.815	64.620	-0.100	0.102
-371.800	-0.704	0.136	0.098
-370.785	420.822	-0.241	-0.522
-369.771	87.508	-0.098	-0.109
-368.756	-140.797	0.041	0.004
-367.742	-28.591	-0.214	0.125
-366.727	-200.000	0.006	-0.172
-365.712	84.836	-0.073	0.081
-364.698	514.556	-0.093	-0.220
-363.683	-145.101	0.404	-0.037
-362.669	-81.598	-0.167	0.055
-361.654	-110.614	-0.203	0.042
-360.639	-16.014	-0.028	0.018
-359.625	109.055	-0.144	0.174
-358.610	-172.727	-0.272	-0.009
-357.596	104.097	-0.247	0.293
-356.581	-5.432	-0.126	0.087
-355.566	21.216	0.279	-0.229
-354.552	-200.000	0.012	-0.084
-353.537	99.359	0.273	0.319
-352.523	330.728	-0.189	0.368
-351.508	170.935	0.239	0.346
-350.493	-115.531	-0.034	-0.006
-349.479	180.620	0.132	0.195
-348.464	-200.000	-0.010	0.101
-347.450	160.191	0.135	-0.190
-346.435	800.000	-0.029	0.084
-345.420	215.163	0.118	-0.188
-344.406	81.370	0.135	-0.147
-343.391	-11.707	-0.137	0.091
-342.377	-75.217	-0.349	-0.126
-341.362	149.286	-0.065	0.089
-340.348	-35.211	-0.109	0.060
-339.333	436.242	-0.066	0.145
-338.318	-39.249	0.293	0.155
-337.304	-200.000	-0.028	-0.396
-336.289	92.972	-0.069	0.078
-335.275	113.461	-0.021	-0.026
-334.260	-97.341	0.274	0.072
-333.245	18.735	0.048	0.038
-332.231	-11.240	0.049	0.032
-331.216	53.704	-0.116	0.112
-330.202	-200.000	-0.028	0.222
-329.187	-186.289	0.090	-0.001
-328.172	-66.924	0.092	0.036
-327.158	22.774	0.428	0.353
-326.143	800.000	-0.059	0.192
-325.129	36.847	0.224	-0.200
-324.114	7.543	-0.132	-0.100
-323.099	571.178	-0.124	0.305
-322.085	-200.000	0.034	-0.178
-321.070	276.945	0.036	0.065
-320.056	-9.344	0.207	0.140
-319.041	-138.991	-0.179	0.020
-318.026	-115.717	0.116	0.022
-317.012	-177.111	0.193	-0.005
-315.997	-52.942	-0.134	0.062
-314.983	32.639	0.225	0.196
-313.968	-146.249	-0.079	0.007
-312.953	-200.000	0.022	0.414
-311.939	58.870	0.342	0.339
-310.924	-14.329	-0.243	0.158
-309.910	185.297	0.084	0.125
-308.895	-49.934	-0.052	-0.025
-307.880	-200.000	-0.043	0.219
-306.866	800.000	0.123	0.348
-305.851	-37.374	0.184	0.099
-304.837	-69.345	-0.179	-0.069
-303.822	-76.430	-0.228	-0.081
-302.807	116.886	-0.121	0.150
-301.793	-75.111	0.098	-0.035
-300.778	337.564	0.108	-0.212
-299.764	-200.000	-0.030	-0.134
-298.749	57.252	-0.157	-0.155
-297.735	-114.793	0.129	-0.025
-296.720	-95.125	0.030	0.008
-295.705	221.083	-0.177	-0.286
-294.691	-56.464	0.153	-0.068
-293.676	800.000	0.082	-0.228
-292.662	783.119	-0.031	-0.085
-291.647	214.723	0.058	0.092
-290.632	180.610	0.137	-0.203
-289.618	-200.000	0.017	0.202
-288.603	-45.093	-0.261	-0.131
-287.589	788.512	-0.076	0.211
-286.574	-67.488	-0.097	0.038
-285.559	-78.793	0.412	0.141
-284.545	-154.773	-0.166	-0.011
-283.530	203.786	-0.115	0.180
-282.516	800.000	0.088	0.332
-281.501	-200.000	0.003	0.231
-280.486	800.000	0.045	0.135
-279.472	53.896	0.170	0.164
-278.457	-80.717	-0.176	-0.059
-277.443	-200.000	-0.001	0.185
-276.428	168.690	-0.101	-0.144
-275.413	-23.533	-0.311	0.188
-274.399	295.479	0.106	-0.195
-273.384	184.278	-0.129	0.192
-272.370	-200.000	0.015	-0.280
-271.355	800.000	0.051	-0.200
-270.340	-1.011	-0.317	0.226
-269.326	-67.898	-0.066	0.026
-268.311	-82.005	0.326	0.107
-267.297	-146.358	-0.034	0.003
-266.282	187.480	-0.062	-0.093
-265.267	52.938	-0.045	-0.043
-264.253	62.546	0.283	-0.285
-263.238	362.248	-0.139	-0.280
-262.224	-176.836	0.313	-0.008
-261.209	162.612	-0.122	-0.172
-260.195	-78.646	0.538	0.185
-259.180	800.000	-0.108	-0.325
-258.165	-144.779	0.114	-0.011
-257.151	345.055	0.193	0.381
-256.136	739.408	-0.130	-0.350
-255.122	-53.677	-0.094	0.043
-254.107	65.501	-0.266	-0.271
-253.092	-200.000	0.040	-0.262
-252.078	-32.261	-0.199	-0.112
-251.063	-200.000	-0.081	-0.451
-250.049	-200.000	0.036	-0.403
-249.034	-6.358	0.122	0.083
-248.019	-156.164	0.618	0.039
-247.005	8.980	-0.068	0.051
-245.990	800.000	0.051	-0.204
-244.976	150.781	-0.104	-0.143
-243.961	-30.819	-0.296	0.168
-242.946	209.090	-0.103	-0.163
-241.932	156.554	0.193	0.268
-240.917	800.000	0.070	0.215
-239.903	37.432	0.148	0.132
-238.888	-171.155	-0.201	0.007
-237.873	192.419	-0.224	-0.339
-236.859	54.946	0.157	-0.153
-235.844	-45.290	0.270	-0.135
-234.830	-75.812	0.170	-0.061
-233.815	-96.019	-0.321	0.086
-232.800	800.000	-0.099	-0.323
-231.786	447.746	0.042	0.093
-230.771	150.599	0.188	-0.257
-229.757	-95.353	-0.214	0.058
-228.742	73.765	-0.066	0.070
-227.727	-200.000	-0.011	0.108
-226.713	800.000	-0.036	-0.099
-225.698	163.030	0.123	-0.174
-224.684	-200.000	0.071	-0.327
-223.669	800.000	0.016	-0.065
-222.655	216.224	0.044	0.070
-221.640	-200.000	-0.031	-0.208
-220.625	-80.115	-0.149	0.050
-219.611	-200.000	0.011	-0.170
-218.596	188.157	0.041	0.062
-217.582	95.667	0.073	0.084
-216.567	679.628	-0.008	-0.020
-215.552	-200.000	-0.000	0.095
-214.538	-49.816	-0.069	-0.033
-213.523	132.433	0.220	-0.285
-212.509	4.003	0.039	0.028
-211.494	-55.050	0.185	-0.083
-210.479	-169.378	0.217	-0.008
-209.465	456.679	-0.004	-0.009
-208.450	39.442	-0.228	0.205
-207.436	800.000	-0.033	-0.131
-206.421	29.467	0.090	-0.076
-205.406	50.709	0.298	-0.283
-204.392	154.742	0.176	-0.242
-203.377	12.947	-0.057	0.044
-202.363	76.750	-0.295	-0.314
-201.348	-200.000	0.043	-0.193
-200.333	53.577	0.154	-0.148
-199.319	-94.820	0.311	0.085
-198.304	-113.238	-0.271	-0.054
-197.290	800.000	0.049	-0.182
-196.275	242.382	-0.114	-0.191
-195.260	795.607	-0.084	0.233
-194.246	132.963	-0.190	-0.246
-193.231	121.134	0.101	-0.126
-192.217	192.626	0.068	0.103
-191.202	800.000	0.070	-0.258
-190.187	-18.408	-0.326	0.204
-189.173	-188.466	-0.353	-0.004
-188.158	352.649	0.130	0.259
-187.144	-138.662	0.375	-0.041
-186.129	162.767	-0.047	-0.066
-185.114	231.026	0.050	0.082
-184.100	142.858	-0.076	-0.101
-183.085	-76.436	-0.166	0.058
-182.071	79.634	0.209	-0.225
-181.056	343.980	0.023	-0.045
-180.042	-12.975	-0.120	0.078
-179.027	-60.867	-0.252	-0.107
-178.012	26.343	-0.204	0.171
-176.998	128.632	0.062	0.079
-175.983	10.450	0.227	0.173
-174.969	381.294	-0.081	0.166
-173.954	-18.762	0.192	0.120
-172.939	-81.966	0.371	-0.121
-171.925	-167.856	0.380	-0.015
-170.910	208.409	0.054	0.085
-169.896	-200.000	0.016	0.270
-168.881	5.790	-0.244	-0.181
-167.866	-34.679	0.084	-0.046
-166.852	-131.125	-0.054	-0.007
-165.837	47.490	0.078	0.073
-164.823	110.084	0.051	0.061
-163.808	323.526	0.246	-0.470
-162.793	152.471	0.049	0.067
-161.779	800.000	-0.007	0.025
-160.764	800.000	-0.058	0.179
-159.750	-28.120	0.088	0.051
-158.735	-200.000	-0.040	0.287
-157.720	-18.374	-0.201	-0.126
-156.706	-200.000	-0.064	-0.286
-155.691	-4.878	0.351	-0.242
-154.677	-77.115	-0.277	-0.097
-153.662	-31.155	-0.307	0.173
-152.647	-76.154	-0.124	-0.044
-151.633	-200.000	-0.002	0.024
-150.618	-141.922	0.225	-0.023
-149.604	-133.271	0.378	0.048
-148.589	196.139	0.045	-0.068
-147.574	-134.293	0.111	0.014
-146.560	-200.000	-0.009	0.082
-145.545	800.000	-0.126	-0.386
-144.531	249.107	-0.322	0.546
-143.516	-110.263	-0.128	0.027
-142.502	407.667	-0.095	0.201
-141.487	442.487	0.133	0.292
-140.472	687.733	0.149	0.390
-139.458	329.716	0.092	-0.178
-138.443	467.200	0.063	0.141
-137.429	-89.536	0.219	-0.065
-136.414	-51.507	-0.188	0.088
-135.399	172.597	0.165	0.238
-134.385	-40.237	-0.106	-0.055
-133.370	112.304	0.124	0.150
-132.356	-104.902	0.130	0.030
-131.341	-60.059	0.073	-0.031
-130.326	-6.172	-0.170	-0.116
-129.312	-141.240	-0.457	-0.047
-128.297	17.042	0.290	-0.230
-127.283	800.000	0.051	0.206
-126.268	14.012	-0.288	0.224
-125.253	133.066	-0.136	-0.176
-124.239	-90.932	-0.034	0.010
-123.224	-200.000	0.055	-0.324
-122.210	70.525	-0.122	0.126
-121.195	-130.768	-0.188	-0.025
-120.180	-33.664	0.292	0.161
