DTS Sentinel unit serial number:	SN413079Multiplexer serial number:	ORYXHardware model number:	OX4-SRSoftware version number:	ORYX F/W v4.00 Oryx Data Collector v3.7.2.0data status	okinstallation	princeton_trtdifferential loss correction	single-endedforward channel	channel 2reverse channel	N/Adate	2019/09/15time	16:15:34forward acquisition time	60.00reverse acquisition time	0.00gamma	496.2192k internal	0.2287k external	0.2287temperature offset calibration	0.9940default loss term (dB/km)	0.3790temperature slope calibration	1.0000multiplexer offset coefficient	1.0000multiplexer slope coefficient	1.0000fibre end	0.00T internal ref (°C)	43.44T ext. ref 1 (°C)	5.43T ext. ref 2 (°C)	40.40length (m)	temperature (°C)	Stokes	anti-Stokes-747.200	-141.885	-0.251	-0.026
-746.185	-200.000	-0.069	0.557
-745.171	-200.000	-0.116	-0.563
-744.156	200.307	-0.073	0.115
-743.142	168.642	0.128	-0.187
-742.127	-141.771	-0.381	0.039
-741.112	93.532	-0.221	0.257
-740.098	-200.000	0.054	0.336
-739.083	-83.006	0.231	-0.076
-738.069	-200.000	0.022	0.387
-737.054	-67.434	-0.108	0.044
-736.039	-200.000	-0.021	-0.109
-735.025	12.242	-0.350	0.276
-734.010	-100.676	0.187	-0.047
-732.996	521.091	-0.181	-0.435
-731.981	-18.395	-0.168	-0.107
-730.966	-132.808	-0.146	-0.019
-729.952	800.000	-0.096	0.317
-728.937	323.788	-0.046	0.090
-727.923	-45.947	-0.247	-0.125
-726.908	-110.814	-0.174	-0.037
-725.894	38.709	-0.228	0.208
-724.879	-60.279	0.147	-0.064
-723.864	-161.562	0.110	-0.006
-722.850	-200.000	-0.030	-0.148
-721.835	41.818	-0.066	0.061
-720.821	282.848	-0.023	-0.043
-719.806	242.671	0.101	-0.173
-718.791	2.886	-0.211	0.157
-717.777	159.589	-0.161	-0.230
-716.762	-114.223	0.172	-0.034
-715.748	-31.886	-0.187	-0.107
-714.733	28.686	-0.411	-0.356
-713.718	86.525	-0.073	-0.083
-712.704	-57.159	-0.131	-0.059
-711.689	800.000	0.044	0.155
-710.675	470.239	0.022	-0.050
-709.660	-1.154	0.244	-0.177
-708.645	-20.650	-0.147	0.092
-707.631	-166.841	0.165	-0.007
-706.616	42.160	0.138	-0.129
-705.602	-118.674	-0.335	-0.061
-704.587	-200.000	0.008	-0.069
-703.572	-153.507	0.328	0.023
-702.558	-200.000	0.001	0.136
-701.543	-200.000	-0.022	0.205
-700.529	387.160	-0.163	0.346
-699.514	800.000	-0.039	0.161
-698.499	-51.199	-0.112	0.054
-697.485	267.290	0.196	-0.352
-696.470	-0.205	-0.174	-0.126
-695.456	35.494	-0.238	0.214
-694.441	-104.490	-0.306	0.072
-693.426	-48.916	-0.309	-0.152
-692.412	-121.409	0.160	0.027
-691.397	426.189	-0.077	-0.171
-690.383	16.171	-0.145	-0.117
-689.368	-200.000	0.015	-0.289
-688.354	-58.393	-0.179	0.080
-687.339	449.433	-0.156	-0.353
-686.324	-164.435	0.100	-0.005
-685.310	-98.329	0.357	0.094
-684.295	-200.000	0.038	-0.247
-683.281	-200.000	-0.011	-0.133
-682.266	5.916	-0.078	-0.059
-681.251	-200.000	0.206	-0.001
-680.237	-200.000	0.037	-0.264
-679.222	-17.850	0.044	0.028
-678.208	-200.000	-0.038	-0.190
-677.193	97.231	0.232	0.272
-676.178	-6.812	-0.201	0.140
-675.164	136.117	-0.128	-0.171
-674.149	98.577	-0.145	-0.171
-673.135	18.106	-0.325	-0.265
-672.120	-46.222	-0.140	0.070
-671.105	-135.574	0.352	0.043
-670.091	-200.000	-0.021	-0.397
-669.076	-200.000	0.033	-0.149
-668.062	-200.000	-0.058	0.268
-667.047	-2.808	-0.270	0.193
-666.032	-180.582	0.432	0.009
-665.018	6.691	0.244	0.186
-664.003	-68.691	-0.110	0.044
-662.989	77.523	0.230	0.251
-661.974	682.793	-0.035	0.093
-660.959	-75.582	-0.345	0.125
-659.945	-67.640	-0.253	0.101
-658.930	159.740	-0.057	-0.081
-657.916	693.695	-0.064	-0.172
-656.901	61.675	0.105	0.107
-655.886	-79.574	-0.240	-0.083
-654.872	181.868	0.184	-0.277
-653.857	-200.000	0.026	-0.388
-652.843	-200.000	0.042	0.352
-651.828	800.000	-0.079	0.350
-650.814	-114.130	0.206	0.041
-649.799	-57.349	-0.220	-0.099
-648.784	174.258	0.130	-0.192
-647.770	800.000	-0.037	-0.106
-646.755	-140.938	-0.213	-0.022
-645.741	-97.635	0.150	-0.040
-644.726	19.758	-0.236	0.195
-643.711	269.370	0.062	0.111
-642.697	268.178	0.050	-0.089
-641.682	-176.936	-0.268	-0.007
-640.668	158.163	0.045	-0.064
-639.653	213.890	0.057	-0.092
-638.638	264.689	0.048	-0.085
-637.624	-154.089	0.198	0.014
-636.609	96.807	0.073	0.086
-635.595	-166.079	-0.404	0.018
-634.580	427.911	0.021	-0.046
-633.565	60.028	-0.110	0.111
-632.551	41.760	0.193	0.179
-631.536	492.344	0.241	-0.564
-630.522	429.241	-0.157	-0.348
-629.507	88.742	-0.040	-0.045
-628.492	-60.263	-0.167	-0.073
-627.478	561.545	-0.093	0.230
-626.463	-200.000	0.008	0.210
-625.449	-124.001	-0.333	0.053
-624.434	-45.824	0.113	0.057
-623.419	800.000	-0.108	-0.337
-622.405	-164.098	-0.602	-0.028
-621.390	-137.260	-0.417	0.048
-620.376	434.610	0.110	0.243
-619.361	-53.433	0.132	0.062
-618.346	14.131	0.399	-0.318
-617.332	800.000	-0.008	-0.026
-616.317	97.442	-0.009	0.011
-615.303	29.701	-0.119	0.103
-614.288	-23.136	-0.260	0.160
-613.273	40.815	-0.198	-0.182
-612.259	-200.000	0.007	-0.433
-611.244	252.402	-0.241	0.420
-610.230	-66.109	0.099	-0.040
-609.215	800.000	0.110	0.356
-608.201	-165.801	-0.034	0.001
-607.186	-9.165	-0.103	-0.070
-606.171	198.120	-0.259	0.404
-605.157	-47.382	0.142	0.070
-604.142	-148.365	-0.089	0.007
-603.128	-51.146	-0.256	-0.123
-602.113	288.443	-0.283	0.523
-601.098	-72.466	0.079	-0.030
-600.084	617.879	-0.137	-0.351
-599.069	-192.661	0.432	0.004
-598.055	-191.989	-0.271	0.003
-597.040	-50.261	0.168	0.081
-596.025	-10.827	-0.131	-0.089
-595.011	-7.895	0.093	-0.064
-593.996	-43.609	0.232	-0.119
-592.982	-85.150	0.197	-0.063
-591.967	-48.276	-0.115	-0.057
-590.952	-110.587	-0.282	-0.060
-589.938	296.787	-0.093	-0.174
-588.923	399.724	-0.133	-0.283
-587.909	800.000	-0.058	0.197
-586.894	44.546	-0.176	-0.165
-585.879	-40.498	0.181	0.096
-584.865	77.753	0.328	0.356
-583.850	-165.262	0.366	-0.016
-582.836	-93.015	-0.280	-0.080
-581.821	-200.000	0.020	-0.301
-580.806	-200.000	0.026	0.250
-579.792	293.650	-0.129	-0.240
-578.777	81.048	0.192	-0.211
-577.763	-109.436	-0.044	-0.009
-576.748	800.000	0.093	0.328
-575.733	800.000	0.126	0.376
-574.719	544.066	-0.051	-0.124
-573.704	-8.066	-0.176	0.121
-572.690	-150.844	-0.168	0.013
-571.675	4.585	0.184	-0.138
-570.661	183.063	-0.126	-0.190
-569.646	702.514	-0.155	0.417
-568.631	-34.445	0.168	-0.094
-567.617	800.000	0.097	0.358
-566.602	169.361	0.202	-0.294
-565.588	91.115	0.137	-0.157
-564.573	800.000	0.047	-0.155
-563.558	-200.000	-0.089	-0.441
-562.544	254.738	0.026	0.046
-561.529	122.458	0.136	0.174
-560.515	2.081	0.295	0.217
-559.500	173.844	-0.146	-0.214
-558.485	45.152	-0.111	-0.104
-557.471	-161.630	-0.287	-0.015
-556.456	-125.496	-0.284	0.044
-555.442	-56.143	-0.053	0.024
-554.427	-11.443	-0.088	-0.059
-553.412	31.356	0.249	-0.218
-552.398	392.468	0.118	-0.250
-551.383	-200.000	-0.036	0.163
-550.369	-175.593	-0.089	-0.002
-549.354	-129.235	0.356	0.051
-548.339	125.417	0.100	0.129
-547.325	-200.000	0.018	0.323
-546.310	242.527	0.118	0.201
-545.296	22.892	-0.085	0.071
-544.281	-154.350	-0.380	0.026
-543.266	-200.000	0.002	0.126
-542.252	-16.077	0.295	-0.191
-541.237	24.195	0.133	0.112
-540.223	-84.518	-0.109	-0.035
-539.208	800.000	-0.041	-0.132
-538.193	-28.901	-0.136	-0.080
-537.179	-29.327	0.419	0.244
-536.164	-68.755	0.363	0.143
-535.150	-200.000	0.024	0.185
-534.135	-200.000	0.021	-0.114
-533.121	11.121	-0.150	-0.117
-532.106	800.000	0.042	0.186
-531.091	-200.000	-0.009	-0.182
-530.077	-200.000	-0.008	-0.098
-529.062	-13.170	-0.058	0.039
-528.048	800.000	-0.080	0.232
-527.033	435.468	0.068	0.151
-526.018	-16.899	0.137	-0.088
-525.004	348.266	0.054	0.108
-523.989	132.881	0.077	-0.101
-522.975	619.520	0.143	0.366
-521.960	800.000	-0.083	-0.315
-520.945	277.471	0.083	-0.150
-519.931	-9.088	0.253	0.172
-518.916	311.922	-0.242	0.462
-517.902	178.921	-0.053	0.078
-516.887	-8.852	0.108	-0.074
-515.872	-109.377	-0.120	-0.026
-514.858	228.821	-0.077	-0.128
-513.843	-63.717	0.375	-0.156
-512.829	800.000	-0.004	0.017
-511.814	71.824	-0.163	0.173
-510.799	112.027	0.244	-0.300
-509.785	252.456	0.205	0.356
-508.770	-129.080	-0.495	-0.070
-507.756	800.000	0.129	0.503
-506.741	-129.214	-0.135	-0.019
-505.726	409.354	-0.162	0.348
-504.712	-43.409	0.096	0.049
-503.697	-27.877	0.163	0.096
-502.683	-27.895	0.143	-0.084
-501.668	8.886	-0.155	-0.119
-500.653	-122.981	0.094	-0.015
-499.639	206.552	0.110	0.175
-498.624	-53.019	0.167	-0.078
-497.610	62.009	0.124	0.125
-496.595	294.701	-0.049	-0.091
-495.581	43.317	0.151	0.140
-494.566	-200.000	0.015	-0.100
-493.551	-34.196	-0.230	0.129
-492.537	-7.719	0.207	-0.142
-491.522	250.380	0.085	0.146
-490.508	-43.647	-0.318	-0.163
-489.493	-200.000	-0.060	-0.389
-488.478	-200.000	0.024	-0.332
-487.464	-200.000	-0.018	-0.263
-486.449	144.800	-0.108	-0.146
-485.435	47.915	0.194	0.185
-484.420	350.346	0.093	-0.186
-483.405	139.421	0.195	0.260
-482.391	415.150	0.063	0.137
-481.376	207.073	-0.213	-0.337
-480.362	-118.050	-0.280	0.051
-479.347	283.138	0.095	0.173
-478.332	678.389	0.066	-0.175
-477.318	108.488	0.047	0.057
-476.303	-18.824	0.112	-0.071
-475.289	91.160	0.103	0.117
-474.274	-200.000	0.051	0.234
-473.259	340.679	-0.043	-0.085
-472.245	203.433	-0.102	0.160
-471.230	235.251	-0.090	-0.150
-470.216	-200.000	-0.036	-0.213
-469.201	-20.688	0.325	-0.203
-468.186	29.632	0.219	-0.189
-467.172	15.939	-0.056	0.045
-466.157	757.646	-0.084	0.230
-465.143	-35.454	-0.254	-0.140
-464.128	-122.351	-0.132	-0.022
-463.113	224.867	0.112	0.184
-462.099	74.911	0.111	0.119
-461.084	85.761	-0.089	-0.099
-460.070	-150.626	0.115	-0.009
-459.055	-53.680	-0.146	-0.068
-458.040	85.509	0.152	0.170
-457.026	-113.293	-0.283	0.056
-456.011	576.303	0.087	0.217
-454.997	-100.264	0.186	-0.047
-453.982	800.000	0.067	-0.187
-452.968	26.065	-0.099	-0.084
-451.953	-60.983	-0.061	0.026
-450.938	-65.450	-0.314	-0.128
-449.924	44.844	0.186	-0.174
-448.909	-107.631	0.494	-0.110
-447.895	-34.878	0.147	-0.081
-446.880	147.864	0.121	0.165
-445.865	800.000	-0.070	0.262
-444.851	150.515	0.144	0.198
-443.836	17.333	-0.193	0.156
-442.822	258.740	-0.157	-0.275
-441.807	-100.399	-0.238	-0.060
-440.792	12.540	0.300	0.234
-439.778	90.171	-0.126	0.143
-438.763	-40.354	0.184	0.097
-437.749	-63.943	0.176	-0.073
-436.734	-183.573	-0.386	0.007
-435.719	-133.114	-0.126	0.016
-434.705	275.119	-0.128	-0.229
-433.690	84.990	0.070	-0.078
-432.676	800.000	0.078	0.343
-431.661	-200.000	0.017	0.180
-430.646	-200.000	0.037	-0.194
-429.632	-73.153	-0.259	0.096
-428.617	93.357	-0.226	-0.259
-427.603	-200.000	-0.034	0.196
-426.588	-200.000	-0.022	-0.168
-425.573	-0.685	0.071	0.051
-424.559	50.711	0.091	-0.087
-423.544	-51.552	-0.201	0.095
-422.530	149.409	-0.108	0.149
-421.515	538.485	-0.068	-0.163
-420.500	778.594	-0.040	0.112
-419.486	-200.000	0.038	0.336
-418.471	800.000	0.078	0.319
-417.457	-18.875	-0.119	0.075
-416.442	-153.179	0.241	0.017
-415.428	800.000	0.037	-0.129
-414.413	-58.646	-0.128	0.056
-413.398	136.656	0.198	0.262
-412.384	-66.322	-0.424	-0.171
-411.369	284.947	-0.246	-0.448
-410.355	800.000	-0.050	-0.174
-409.340	-115.105	0.210	-0.040
-408.325	-72.418	0.149	-0.056
-407.311	-102.167	-0.155	-0.038
-406.296	128.943	-0.119	0.153
-405.282	-87.071	-0.169	-0.052
-404.267	750.246	0.042	0.115
-403.252	-175.935	0.506	-0.014
-402.238	-200.000	-0.032	-0.198
-401.223	-53.394	-0.216	-0.100
-400.209	-99.130	0.318	0.081
-399.194	-76.437	-0.165	-0.059
-398.179	-77.409	-0.168	0.059
-397.165	40.425	0.176	-0.161
-396.150	660.114	-0.008	0.021
-395.136	117.659	0.154	-0.192
-394.121	-200.000	-0.007	0.169
-393.106	-30.490	-0.087	-0.050
-392.092	-200.000	-0.071	0.368
-391.077	-78.764	-0.142	-0.049
-390.063	32.884	0.029	-0.025
-389.048	-177.608	0.278	0.007
-388.033	-106.920	0.067	0.015
-387.019	94.788	0.108	-0.124
-386.004	-200.000	0.017	-0.294
-384.990	800.000	-0.037	-0.141
-383.975	-200.000	-0.002	0.034
-382.960	264.196	0.158	0.278
-381.946	-8.280	-0.182	-0.124
-380.931	37.992	0.129	0.116
-379.917	-68.418	-0.100	0.039
-378.902	498.743	-0.179	-0.416
-377.888	-92.330	0.105	-0.030
-376.873	52.490	0.136	-0.131
-375.858	800.000	-0.012	0.044
-374.844	800.000	-0.063	0.192
-373.829	-179.614	-0.105	-0.002
-372.815	503.544	0.105	0.245
-371.800	796.631	0.039	0.109
-370.785	800.000	0.100	0.320
-369.771	202.571	0.143	-0.223
-368.756	800.000	-0.038	0.161
-367.742	-157.947	0.197	0.012
-366.727	497.272	0.037	0.086
-365.712	169.348	-0.103	-0.149
-364.698	350.786	0.038	-0.076
-363.683	32.158	0.177	0.155
-362.669	-101.734	-0.185	0.045
-361.654	-157.993	-0.267	0.016
-360.639	-200.000	-0.032	-0.348
-359.625	800.000	0.065	-0.183
-358.610	-110.821	-0.387	-0.081
-357.596	-75.150	-0.118	-0.042
-356.581	-8.875	-0.238	-0.161
-355.566	-38.973	0.153	0.082
-354.552	-129.191	-0.261	-0.037
-353.537	34.492	-0.188	0.166
-352.523	35.315	0.144	0.127
-351.508	-34.651	0.154	-0.085
-350.493	-200.000	-0.054	-0.254
-349.479	36.890	0.146	0.131
-348.464	283.725	-0.104	-0.189
-347.450	101.365	-0.137	-0.161
-346.435	695.929	0.048	0.127
-345.420	184.160	-0.072	0.107
-344.406	500.469	0.088	0.204
-343.391	800.000	-0.057	0.191
-342.377	-82.239	-0.374	0.123
-341.362	-22.598	-0.121	0.074
-340.348	-140.563	0.320	0.034
-339.333	-188.459	0.265	-0.003
-338.318	59.606	-0.351	-0.350
-337.304	174.718	0.055	0.081
-336.289	112.774	0.065	0.079
-335.275	800.000	0.051	-0.212
-334.260	-200.000	0.001	0.139
-333.245	-22.968	0.335	-0.204
-332.231	173.732	-0.057	-0.082
-331.216	800.000	0.045	-0.180
-330.202	-200.000	0.030	0.333
-329.187	-81.044	-0.397	-0.133
-328.172	10.873	0.231	0.178
-327.158	9.635	-0.327	0.250
-326.143	-154.926	-0.223	-0.015
-325.129	718.169	-0.017	0.046
-324.114	74.709	-0.046	-0.049
-323.099	-200.000	0.056	0.254
-322.085	-73.143	0.270	0.100
-321.070	800.000	-0.080	0.231
-320.056	-200.000	0.047	0.317
-319.041	64.912	-0.245	0.249
-318.026	-64.385	0.237	-0.097
-317.012	-134.278	0.235	-0.029
-315.997	-82.437	-0.310	0.102
-314.983	211.423	-0.197	-0.313
-313.968	-95.999	0.232	0.062
-312.953	-200.000	0.022	-0.112
-311.939	-200.000	0.033	-0.214
-310.924	-69.155	-0.097	0.038
-309.910	-109.332	0.103	0.022
-308.895	135.334	0.012	0.015
-307.880	18.028	-0.183	0.147
-306.866	-200.000	-0.041	-0.280
-305.851	186.866	-0.151	-0.228
-304.837	-38.063	0.221	0.118
-303.822	235.692	0.053	0.089
-302.807	-200.000	0.009	-0.078
-301.793	800.000	-0.013	-0.052
-300.778	800.000	-0.057	0.170
-299.764	-101.333	-0.147	-0.036
-298.749	-139.015	0.190	0.021
-297.735	778.021	0.042	-0.115
-296.720	-146.335	-0.261	0.023
-295.705	-176.723	-0.237	0.006
-294.691	-146.807	0.240	-0.021
-293.676	143.054	0.156	0.209
-292.662	-125.002	0.170	-0.026
-291.647	223.222	-0.028	0.045
-290.632	-200.000	0.013	0.124
-289.618	660.631	0.072	0.186
-288.603	-200.000	0.046	0.285
-287.589	219.355	-0.149	-0.240
-286.574	57.359	0.212	-0.208
-285.559	37.187	0.141	-0.126
-284.545	58.261	0.098	-0.096
-283.530	-200.000	0.035	-0.371
-282.516	-200.000	0.000	0.285
-281.501	-77.806	0.304	0.106
-280.486	800.000	0.129	0.375
-279.472	-200.000	-0.026	0.170
-278.457	-200.000	-0.042	0.216
-277.443	601.860	-0.092	-0.231
-276.428	800.000	0.043	0.150
-275.413	14.154	0.207	0.162
-274.399	-143.860	0.241	-0.023
-273.384	339.699	-0.127	0.249
-272.370	-200.000	0.025	0.390
-271.355	-101.393	0.204	-0.050
-270.340	-152.248	-0.229	0.017
-269.326	575.066	0.119	-0.292
-268.311	-200.000	-0.049	-0.286
-267.297	180.808	0.160	0.236
-266.282	26.447	-0.279	0.235
-265.267	79.525	-0.156	0.169
-264.253	-45.969	0.367	0.182
-263.238	-18.385	0.273	0.172
-262.224	67.909	0.165	-0.170
-261.209	30.665	0.104	-0.090
-260.195	151.541	-0.085	0.117
-259.180	-8.620	-0.122	-0.083
-258.165	-116.127	0.337	0.063
-257.151	148.976	0.075	-0.102
-256.136	-46.992	0.165	0.081
-255.122	-55.308	-0.126	-0.057
-254.107	-43.500	0.219	0.111
-253.092	-26.513	-0.156	-0.092
-252.078	142.597	-0.166	0.222
-251.063	800.000	-0.095	0.272
-250.049	-200.000	-0.009	-0.368
-249.034	-44.447	-0.159	0.080
-248.019	67.217	-0.263	-0.269
-247.005	107.323	0.064	-0.076
-245.990	-15.260	-0.233	0.150
-244.976	599.232	0.109	-0.272
-243.961	-190.245	0.195	-0.002
-242.946	5.059	-0.291	0.216
-241.932	-153.639	-0.101	0.007
-240.917	-76.995	-0.219	-0.077
-239.903	-70.177	-0.176	0.067
-238.888	665.232	0.114	-0.295
-237.873	-19.329	-0.545	0.340
-236.859	-54.182	-0.470	0.215
-235.844	-48.277	-0.358	-0.174
-234.830	184.251	-0.050	0.075
-233.815	18.648	0.186	0.150
-232.800	201.223	0.229	-0.354
-231.786	-37.084	-0.046	-0.025
-230.771	22.271	0.164	-0.135
-229.757	296.398	-0.038	0.071
-228.742	-186.500	0.299	-0.004
-227.727	-66.538	0.121	-0.048
-226.713	-200.000	-0.086	-0.445
-225.698	-50.850	0.357	0.169
-224.684	800.000	0.093	0.278
-223.669	2.666	0.144	-0.105
-222.655	-200.000	0.015	0.255
-221.640	776.128	0.100	-0.275
-220.625	64.404	0.206	0.209
-219.611	-114.856	0.059	-0.011
-218.596	-200.000	-0.008	-0.180
-217.582	-200.000	-0.021	-0.115
-216.567	575.501	0.141	0.345
-215.552	800.000	0.109	-0.347
-214.538	4.028	0.108	-0.080
-213.523	153.842	-0.081	-0.112
-212.509	312.578	0.101	-0.191
-211.494	107.526	0.154	-0.184
-210.479	-129.951	-0.044	0.006
-209.465	-98.407	-0.087	0.022
-208.450	-200.000	0.032	-0.250
-207.436	800.000	0.040	0.154
-206.421	-38.755	0.113	0.060
-205.406	800.000	-0.043	-0.143
-204.392	-200.000	0.016	-0.243
-203.377	-200.000	-0.077	-0.340
-202.363	60.329	-0.179	0.178
-201.348	34.814	0.208	0.183
-200.333	77.054	0.243	0.259
-199.319	-200.000	0.068	-0.306
-198.304	-200.000	0.012	-0.151
-197.290	635.405	0.014	-0.036
-196.275	-73.742	-0.164	-0.060
-195.260	132.328	-0.091	0.118
-194.246	19.315	-0.131	0.106
-193.231	128.890	0.098	-0.125
-192.217	-51.932	0.264	-0.123
-191.202	-20.492	-0.155	-0.096
-190.187	-40.213	-0.356	0.186
-189.173	592.013	-0.138	0.341
-188.158	166.346	0.166	0.237
-187.144	-161.063	-0.089	-0.005
-186.129	-200.000	-0.056	0.429
-185.114	498.156	0.079	0.182
-184.100	-64.536	-0.119	0.048
-183.085	152.283	-0.143	0.195
-182.071	166.239	0.044	0.062
-181.056	-200.000	0.061	-0.336
-180.042	259.954	0.097	-0.168
-179.027	520.433	-0.076	-0.178
-178.012	-28.986	0.047	0.027
-176.998	60.989	0.113	0.113
-175.983	-80.145	-0.224	0.075
-174.969	324.476	0.072	-0.138
-173.954	-67.931	0.456	-0.179
-172.939	-82.907	-0.369	0.120
-171.925	44.723	-0.178	-0.164
-170.910	-185.191	-0.108	0.002
-169.896	-200.000	-0.002	0.067
-168.881	70.991	0.195	0.203
-167.866	37.683	0.148	-0.132
-166.852	-200.000	0.041	-0.429
-165.837	-200.000	-0.032	-0.195
-164.823	-200.000	-0.015	-0.359
-163.808	32.401	0.111	0.096
-162.793	-200.000	0.027	-0.231
-161.779	-18.927	0.188	-0.117
-160.764	-200.000	-0.056	-0.451
-159.750	-200.000	-0.004	-0.186
-158.735	-153.094	-0.127	0.009
-157.720	-200.000	0.010	0.074
-156.706	-133.554	0.169	0.021
-155.691	-76.293	-0.206	0.073
-154.677	-147.558	-0.031	-0.003
-153.662	146.129	0.209	-0.281
-152.647	800.000	-0.034	-0.115
-151.633	-30.716	-0.195	0.110
-150.618	65.478	0.082	-0.083
-149.604	738.160	-0.103	0.277
-148.589	62.343	-0.043	-0.043
-147.574	-26.759	-0.105	0.061
-146.560	800.000	0.050	0.203
-145.545	218.111	0.110	0.176
-144.531	-161.585	-0.316	0.016
-143.516	91.972	0.203	-0.229
-142.502	525.989	0.032	0.075
-141.487	-73.975	-0.238	-0.086
-140.472	33.420	0.091	-0.079
-139.458	-92.273	0.436	-0.123
-138.443	-30.487	-0.251	0.143
-137.429	513.812	-0.084	0.197
-136.414	-133.819	0.148	-0.018
-135.399	-150.336	0.564	-0.044
-134.385	-200.000	-0.025	-0.155
-133.370	18.210	-0.017	-0.013
-132.356	39.710	-0.058	-0.052
-131.341	-200.000	-0.046	0.226
-130.326	136.652	0.009	-0.011
-129.312	-200.000	0.015	-0.211
-128.297	-200.000	0.044	0.233
-127.283	123.352	0.088	0.110
-126.268	-182.786	-0.085	0.002
-125.253	-200.000	0.010	-0.203
-124.239	800.000	0.051	-0.161
-123.224	550.768	-0.031	0.075
-122.210	-200.000	-0.030	0.188
-121.195	124.977	0.193	0.243
