DTS Sentinel unit serial number:	SN413079Multiplexer serial number:	ORYXHardware model number:	OX4-SRSoftware version number:	ORYX F/W v4.00 Oryx Data Collector v3.7.2.0data status	okinstallation	princeton_trtdifferential loss correction	single-endedforward channel	channel 2reverse channel	N/Adate	2019/09/17time	00:27:35forward acquisition time	60.00reverse acquisition time	0.00gamma	496.2192k internal	0.2329k external	0.2329temperature offset calibration	0.9973default loss term (dB/km)	0.3790temperature slope calibration	1.0000multiplexer offset coefficient	1.0000multiplexer slope coefficient	1.0000fibre end	0.00T internal ref (°C)	29.50T ext. ref 1 (°C)	0.10T ext. ref 2 (°C)	23.70length (m)	temperature (°C)	Stokes	anti-Stokes-747.200	800.000	0.020	-0.070
-746.185	-57.850	-0.423	0.186
-745.171	-200.000	0.006	0.225
-744.156	-50.518	-0.215	0.102
-743.142	-17.201	-0.232	-0.147
-742.127	800.000	-0.054	0.229
-741.112	73.590	-0.094	-0.100
-740.098	98.880	-0.038	-0.044
-739.083	697.111	-0.087	0.231
-738.069	381.349	0.050	-0.104
-737.054	7.254	0.272	-0.205
-736.039	-50.550	-0.301	0.143
-735.025	9.902	0.194	0.148
-734.010	157.582	-0.105	0.147
-732.996	103.398	-0.152	-0.180
-731.981	373.701	0.104	-0.214
-730.966	219.415	-0.112	-0.181
-729.952	-74.702	-0.303	-0.110
-728.937	-112.205	-0.158	-0.032
-727.923	-97.566	0.271	-0.071
-726.908	-136.877	-0.297	0.034
-725.894	46.621	-0.154	0.143
-724.879	23.650	0.084	0.069
-723.864	416.225	0.134	0.287
-722.850	8.740	-0.105	0.080
-721.835	40.717	-0.227	0.206
-720.821	9.198	0.250	0.190
-719.806	134.890	-0.213	0.278
-718.791	-143.602	-0.404	0.039
-717.777	322.834	0.115	-0.220
-716.762	-40.821	-0.129	-0.067
-715.748	-92.685	0.192	-0.054
-714.733	-99.778	-0.309	-0.078
-713.718	-72.257	-0.200	-0.075
-712.704	-49.589	-0.424	-0.203
-711.689	8.733	-0.090	0.068
-710.675	178.169	-0.174	0.256
-709.660	59.936	-0.182	0.181
-708.645	705.291	0.066	0.175
-707.631	-59.068	0.218	0.095
-706.616	-200.000	0.005	0.209
-705.602	-54.835	-0.101	-0.046
-704.587	15.683	0.108	0.086
-703.572	78.081	-0.302	-0.323
-702.558	-200.000	0.026	-0.121
-701.543	138.435	0.186	0.246
-700.529	-26.551	0.252	0.148
-699.514	178.701	-0.192	-0.282
-698.499	72.401	-0.150	0.157
-697.485	-41.552	-0.176	-0.091
-696.470	141.319	-0.177	-0.236
-695.456	356.820	-0.084	-0.169
-694.441	-65.639	0.445	0.179
-693.426	-62.569	0.139	-0.058
-692.412	800.000	0.043	-0.158
-691.397	-64.397	0.120	-0.049
-690.383	-87.092	0.434	0.133
-689.368	449.195	-0.101	-0.224
-688.354	-18.111	-0.390	-0.246
-687.339	-101.084	-0.256	0.063
-686.324	-23.521	0.019	0.011
-685.310	-46.909	0.059	0.029
-684.295	-149.332	-0.140	0.011
-683.281	219.655	0.016	-0.026
-682.266	-18.500	0.233	0.146
-681.251	465.120	0.114	-0.255
-680.237	-4.687	-0.275	-0.191
-679.222	65.978	0.363	0.370
-678.208	100.333	-0.140	0.163
-677.193	-180.612	0.276	-0.006
-676.178	-175.506	-0.539	-0.015
-675.164	-42.589	0.219	0.112
-674.149	800.000	0.048	0.205
-673.135	-46.444	0.022	0.011
-672.120	309.671	0.098	0.184
-671.105	5.957	0.148	0.110
-670.091	123.001	-0.135	0.170
-669.076	-123.169	-0.035	0.006
-668.062	-79.228	0.101	0.034
-667.047	-6.475	0.520	0.356
-666.032	800.000	0.051	0.201
-665.018	469.723	0.019	-0.043
-664.003	800.000	-0.059	0.210
-662.989	-29.450	0.152	-0.088
-661.974	47.232	-0.227	-0.213
-660.959	-106.741	0.192	0.043
-659.945	-200.000	0.025	-0.325
-658.930	4.146	0.315	-0.232
-657.916	-50.390	-0.266	0.126
-656.901	115.681	-0.123	0.151
-655.886	-79.496	-0.219	0.074
-654.872	143.156	0.244	-0.326
-653.857	-52.903	-0.342	-0.158
-652.843	-102.166	-0.204	-0.049
-651.828	-17.294	-0.291	-0.184
-650.814	109.485	-0.130	-0.156
-649.799	-51.171	-0.045	0.021
-648.784	254.242	-0.133	-0.227
-647.770	-200.000	-0.028	0.235
-646.755	495.701	-0.209	-0.481
-645.741	317.573	0.066	0.125
-644.726	-3.552	-0.038	-0.026
-643.711	-33.093	-0.193	-0.107
-642.697	125.324	0.005	0.006
-641.682	-102.703	-0.056	0.013
-640.668	-200.000	-0.025	0.220
-639.653	-200.000	-0.014	0.227
-638.638	-177.189	-0.472	-0.012
-637.624	2.834	-0.108	0.078
-636.609	220.077	0.033	-0.053
-635.595	473.535	0.148	0.335
-634.580	143.131	0.223	-0.298
-633.565	-67.423	-0.212	0.084
-632.551	-200.000	-0.008	0.365
-631.536	-18.234	-0.285	0.179
-630.522	90.814	-0.141	0.159
-629.507	-117.748	-0.310	-0.056
-628.492	-12.261	0.134	0.088
-627.478	-149.354	-0.399	0.032
-626.463	-76.494	0.249	0.088
-625.449	-43.756	-0.137	-0.069
-624.434	-200.000	0.110	0.000
-623.419	92.728	-0.195	-0.221
-622.405	-76.411	-0.262	0.092
-621.390	-114.633	0.232	-0.045
-620.376	-62.483	0.108	0.045
-619.361	26.639	0.140	-0.118
-618.346	-153.814	-0.299	-0.021
-617.332	-41.142	-0.146	0.076
-616.317	54.155	0.160	0.154
-615.303	800.000	-0.117	-0.368
-614.288	-200.000	-0.015	-0.118
-613.273	-200.000	-0.009	0.153
-612.259	494.969	0.144	0.331
-611.244	-154.047	0.087	0.006
-610.230	-42.756	0.146	-0.074
-609.215	-150.601	-0.237	-0.018
-608.201	-124.483	0.227	-0.035
-607.186	622.106	0.068	-0.171
-606.171	30.659	0.326	-0.279
-605.157	-200.000	0.057	-0.308
-604.142	-109.003	0.188	0.040
-603.128	-67.845	-0.118	0.046
-602.113	-200.000	-0.032	-0.346
-601.098	-39.891	-0.166	-0.087
-600.084	-87.918	-0.225	-0.068
-599.069	482.231	-0.115	-0.262
-598.055	649.246	0.057	0.146
-597.040	-121.697	-0.052	0.009
-596.025	53.646	0.182	0.174
-595.011	-129.750	0.208	0.029
-593.996	-200.000	0.031	-0.341
-592.982	-149.909	0.128	0.010
-591.967	-158.150	0.373	0.022
-590.952	20.533	-0.310	0.251
-589.938	-18.034	0.256	0.161
-588.923	41.883	0.027	0.025
-587.909	-200.000	0.027	0.298
-586.894	-23.779	-0.045	0.027
-585.879	112.924	0.028	0.034
-584.865	127.085	0.366	0.464
-583.850	-200.000	-0.030	0.195
-582.836	-74.317	0.084	0.030
-581.821	157.456	-0.061	-0.085
-580.806	-114.721	-0.190	0.036
-579.792	-200.000	-0.002	-0.235
-578.777	416.211	0.082	-0.175
-577.763	21.398	-0.199	0.162
-576.748	24.286	0.064	-0.053
-575.733	-84.215	-0.231	0.073
-574.719	-61.465	0.107	-0.045
-573.704	85.228	-0.305	0.335
-572.690	-22.999	0.176	-0.106
-571.675	-16.062	-0.164	0.104
-570.661	-18.143	0.149	0.093
-569.646	692.667	-0.041	0.106
-568.631	-156.322	0.199	-0.012
-567.617	177.338	0.160	0.233
-566.602	23.538	-0.214	-0.176
-565.588	-60.076	0.143	0.061
-564.573	-200.000	0.005	-0.192
-563.558	-200.000	-0.019	-0.117
-562.544	-22.991	0.243	-0.147
-561.529	71.614	-0.152	-0.158
-560.515	-69.550	0.198	-0.076
-559.500	-140.998	-0.425	0.044
-558.485	-22.729	-0.222	0.134
-557.471	-28.252	-0.136	-0.079
-556.456	116.158	-0.136	0.166
-555.442	-17.190	0.406	0.256
-554.427	198.271	0.043	0.066
-553.412	405.572	0.176	-0.372
-552.398	85.122	0.088	0.096
-551.383	759.771	0.179	0.486
-550.369	800.000	-0.130	0.376
-549.354	-114.703	-0.142	0.027
-548.339	442.245	0.092	-0.202
-547.325	-92.225	0.053	0.015
-546.310	-117.084	-0.272	0.050
-545.296	-194.188	-0.429	0.003
-544.281	256.183	0.218	-0.374
-543.266	-23.839	-0.240	0.144
-542.252	54.152	0.066	-0.064
-541.237	357.118	0.023	-0.046
-540.223	-200.000	0.009	0.098
-539.208	128.509	0.154	0.196
-538.193	-55.654	0.417	-0.187
-537.179	225.747	-0.140	-0.227
-536.164	-64.633	0.361	-0.146
-535.150	-46.918	-0.166	0.081
-534.135	-80.267	0.306	0.102
-533.121	-104.801	0.140	0.032
-532.106	-200.000	0.017	-0.243
-531.091	-39.571	-0.036	-0.019
-530.077	800.000	0.111	0.379
-529.062	14.021	-0.162	-0.126
-528.048	218.836	0.182	-0.290
-527.033	-71.053	-0.158	0.059
-526.018	800.000	-0.046	-0.198
-525.004	473.036	0.105	-0.236
-523.989	-200.000	0.031	-0.405
-522.975	782.188	-0.161	-0.441
-521.960	-182.201	-0.288	-0.005
-520.945	41.781	0.064	-0.058
-519.931	-53.988	0.352	-0.160
-518.916	178.211	-0.251	0.365
-517.902	-200.000	0.032	-0.172
-516.887	-12.798	-0.182	-0.118
-515.872	-46.662	-0.270	0.132
-514.858	98.340	0.156	0.180
-513.843	-175.042	0.239	0.007
-512.829	-49.728	0.118	-0.056
-511.814	-74.425	-0.345	-0.124
-510.799	-45.583	0.063	0.031
-509.785	-108.945	0.188	0.040
-508.770	-116.396	-0.123	0.023
-507.756	517.222	-0.022	0.052
-506.741	-92.525	-0.115	-0.032
-505.726	800.000	-0.049	0.181
-504.712	-137.927	0.179	-0.020
-503.697	-50.588	-0.259	0.122
-502.683	54.382	-0.126	-0.121
-501.668	175.777	-0.216	-0.313
-500.653	-10.510	0.095	-0.063
-499.639	169.971	0.176	-0.251
-498.624	-142.138	0.372	0.037
-497.610	304.412	-0.081	-0.150
-496.595	273.918	-0.069	-0.122
-495.581	128.357	0.208	0.264
-494.566	-60.181	0.135	0.057
-493.551	-70.221	-0.344	0.130
-492.537	157.631	0.180	0.249
-491.522	800.000	-0.026	-0.095
-490.508	800.000	-0.048	-0.207
-489.493	61.820	-0.189	0.188
-488.478	-200.000	0.009	0.224
-487.464	-200.000	0.017	-0.357
-486.449	-18.015	0.134	-0.083
-485.435	33.830	-0.317	0.275
-484.420	60.743	-0.105	-0.103
-483.405	61.395	0.071	-0.071
-482.391	-60.594	-0.180	0.076
-481.376	-71.725	0.225	-0.084
-480.362	-19.677	-0.191	-0.118
-479.347	127.264	-0.120	0.152
-478.332	-91.857	0.250	0.071
-477.318	-200.000	-0.026	0.132
-476.303	-16.320	0.152	-0.096
-475.289	-80.119	0.049	0.016
-474.274	545.788	0.062	0.149
-473.259	800.000	0.025	-0.088
-472.245	-42.765	-0.051	0.026
-471.230	133.019	-0.123	-0.158
-470.216	307.661	0.177	-0.328
-469.201	-107.779	-0.083	0.018
-468.186	-88.200	0.503	-0.150
-467.172	-52.753	-0.193	-0.089
-466.157	-200.000	-0.006	-0.127
-465.143	14.794	-0.058	-0.046
-464.128	800.000	0.042	0.138
-463.113	95.545	0.140	-0.159
-462.099	116.473	0.164	-0.200
-461.084	-12.733	-0.027	0.018
-460.070	-123.015	0.128	-0.021
-459.055	-66.270	0.115	-0.045
-458.040	-37.682	-0.107	-0.057
-457.026	-200.000	0.023	0.157
-456.011	800.000	0.031	0.130
-454.997	112.471	-0.077	-0.093
-453.982	46.739	-0.160	0.148
-452.968	-200.000	-0.082	0.398
-451.953	-43.043	-0.023	0.012
-450.938	372.277	-0.099	0.200
-449.924	65.102	-0.067	-0.067
-448.909	315.469	-0.017	0.032
-447.895	-187.388	0.095	0.001
-446.880	-124.852	0.188	0.029
-445.865	-42.050	0.062	0.032
-444.851	-200.000	-0.029	-0.242
-443.836	335.780	0.101	-0.195
-442.822	628.407	-0.124	0.313
-441.807	280.382	0.084	0.149
-440.792	10.642	0.340	-0.258
-439.778	-200.000	-0.005	-0.170
-438.763	-34.295	-0.196	0.107
-437.749	301.489	0.210	0.387
-436.734	131.919	-0.141	-0.181
-435.719	46.511	0.139	-0.128
-434.705	302.305	-0.078	-0.143
-433.690	-57.256	-0.235	-0.103
-432.676	393.443	0.075	0.155
-431.661	-47.625	-0.281	-0.136
-430.646	446.711	-0.222	0.485
-429.632	-16.149	0.187	0.118
-428.617	-1.496	0.174	-0.122
-427.603	-55.084	-0.289	0.129
-426.588	5.843	0.018	0.013
-425.573	-33.074	0.456	-0.252
-424.559	-97.002	-0.421	0.110
-423.544	-200.000	-0.014	-0.369
-422.530	-200.000	-0.001	0.150
-421.515	229.285	0.105	-0.171
-420.500	153.149	0.129	-0.175
-419.486	109.174	0.202	0.241
-418.471	-139.829	0.282	-0.030
-417.457	-200.000	0.002	-0.184
-416.442	47.478	-0.162	0.150
-415.428	141.072	0.180	0.236
-414.413	372.538	0.161	0.324
-413.398	78.629	0.274	-0.291
-412.384	-118.913	-0.133	-0.023
-411.369	-200.000	-0.005	0.120
-410.355	63.473	-0.095	0.094
-409.340	37.155	-0.266	0.234
-408.325	-8.929	0.357	0.238
-407.311	-148.560	0.173	-0.014
-406.296	-133.800	-0.281	-0.035
-405.282	56.485	-0.142	0.137
-404.267	45.836	0.125	-0.115
-403.252	-200.000	-0.035	0.306
-402.238	47.566	0.197	-0.182
-401.223	-200.000	-0.006	-0.389
-400.209	119.753	-0.179	0.220
-399.194	189.292	0.031	0.046
-398.179	58.645	-0.187	0.183
-397.165	800.000	-0.034	-0.120
-396.150	-61.473	0.195	0.082
-395.136	-160.044	-0.202	0.011
-394.121	-114.796	0.183	-0.035
-393.106	332.311	-0.034	0.065
-392.092	-114.527	-0.091	0.017
-391.077	-176.455	-0.233	-0.006
-390.063	-87.165	0.125	0.038
-389.048	-200.000	0.007	-0.172
-388.033	-44.898	0.233	0.115
-387.019	-48.049	0.089	0.043
-386.004	-155.852	-0.371	-0.023
-384.990	-89.159	0.261	0.077
-383.975	-200.000	-0.025	-0.287
-382.960	-69.838	-0.309	-0.117
-381.946	52.263	0.082	-0.077
-380.931	-88.694	-0.166	0.049
-379.917	-150.929	0.061	0.005
-378.902	104.242	-0.134	-0.156
-377.888	195.899	-0.132	0.199
-376.873	800.000	0.051	0.152
-375.858	-200.000	-0.013	-0.392
-374.844	-141.609	-0.150	-0.015
-373.829	-116.461	0.149	-0.027
-372.815	84.753	-0.289	-0.314
-371.800	-136.964	0.030	-0.003
-370.785	-200.000	-0.212	-0.000
-369.771	-200.000	-0.005	-0.100
-368.756	135.624	0.085	0.109
-367.742	41.218	0.122	0.110
-366.727	175.377	-0.126	0.181
-365.712	800.000	-0.032	-0.107
-364.698	207.179	-0.061	0.095
-363.683	-119.781	0.259	0.044
-362.669	-200.000	-0.038	-0.229
-361.654	800.000	0.026	0.101
-360.639	46.071	0.265	0.244
-359.625	-64.693	0.170	-0.069
-358.610	-166.190	-0.140	0.006
-357.596	-132.355	0.524	0.067
-356.581	-200.000	-0.022	-0.290
-355.566	-97.112	-0.169	-0.044
-354.552	54.031	0.045	-0.042
-353.537	-12.203	-0.059	-0.038
-352.523	-51.800	-0.201	0.093
-351.508	68.292	0.090	-0.092
-350.493	14.287	-0.404	-0.313
-349.479	-73.088	-0.372	0.135
-348.464	-72.208	-0.191	-0.070
-347.450	21.178	0.260	0.209
-346.435	-38.921	-0.441	0.231
-345.420	38.475	0.111	0.098
-344.406	257.803	0.069	0.118
-343.391	117.560	0.103	0.126
-342.377	466.235	-0.090	-0.199
-341.362	-113.540	0.197	-0.038
-340.348	241.458	-0.178	-0.295
-339.333	-200.000	0.017	-0.168
-338.318	-200.000	-0.070	0.379
-337.304	-200.000	0.011	-0.099
-336.289	-77.878	0.183	0.063
-335.275	-27.039	-0.156	0.090
-334.260	-86.530	-0.332	-0.101
-333.245	-91.503	0.253	0.072
-332.231	67.973	-0.192	0.195
-331.216	210.084	-0.159	0.248
-330.202	-200.000	0.003	-0.130
-329.187	-38.981	-0.062	-0.032
-328.172	30.484	0.223	0.189
-327.158	-200.000	-0.058	0.371
-326.143	-129.347	-0.173	-0.024
-325.129	-200.000	0.002	-0.100
-324.114	-65.717	-0.213	-0.084
-323.099	-200.000	0.008	0.132
-322.085	6.236	0.184	-0.135
-321.070	-136.115	-0.185	0.021
-320.056	-59.360	0.170	-0.072
-319.041	37.410	-0.291	-0.256
-318.026	60.780	0.162	0.159
-317.012	27.762	-0.068	-0.057
-315.997	-120.337	0.328	0.055
-314.983	-39.076	0.120	0.063
-313.968	-200.000	-0.005	-0.106
-312.953	-35.262	0.046	-0.025
-311.939	-89.170	0.430	-0.126
-310.924	-126.370	0.087	0.013
-309.910	39.374	0.238	0.211
-308.895	-200.000	0.021	-0.203
-307.880	105.292	0.201	0.235
-306.866	800.000	0.046	-0.156
-305.851	468.259	-0.055	-0.122
-304.837	-41.418	-0.216	0.110
-303.822	180.694	0.213	-0.310
-302.807	-123.884	0.183	0.029
-301.793	-200.000	0.000	-0.031
-300.778	800.000	0.039	-0.127
-299.764	185.104	-0.153	0.224
-298.749	800.000	0.095	-0.272
-297.735	-23.186	-0.102	-0.061
-296.720	800.000	-0.114	-0.364
-295.705	29.727	0.183	-0.155
-294.691	206.536	-0.035	0.053
-293.676	570.621	0.013	-0.030
-292.662	257.955	0.061	-0.104
-291.647	-78.817	0.117	0.040
-290.632	466.751	0.125	-0.278
-289.618	216.017	0.261	0.411
-288.603	377.964	0.049	0.099
-287.589	23.731	-0.505	-0.412
-286.574	800.000	0.081	0.300
-285.559	185.533	0.127	0.186
-284.545	88.802	-0.213	-0.234
-283.530	-200.000	-0.006	-0.163
-282.516	20.920	-0.251	-0.201
-281.501	29.557	-0.079	0.066
-280.486	187.723	0.082	-0.122
-279.472	-140.286	0.157	-0.016
-278.457	371.491	-0.075	-0.150
-277.443	-200.000	0.027	0.214
-276.428	469.399	0.036	-0.079
-275.413	36.833	-0.127	-0.111
-274.399	-31.705	-0.421	0.233
-273.384	116.833	0.117	0.143
-272.370	-200.000	0.013	0.118
-271.355	-102.090	0.150	0.036
-270.340	-51.046	0.293	-0.136
-269.326	-200.000	0.011	-0.139
-268.311	437.305	0.091	0.196
-267.297	-200.000	-0.047	0.306
-266.282	-82.873	0.118	-0.038
-265.267	31.718	0.195	-0.166
-264.253	-200.000	-0.001	-0.268
-263.238	-73.821	-0.344	-0.124
-262.224	432.158	0.052	0.110
-261.209	-152.198	0.165	-0.012
-260.195	388.672	0.060	0.123
-259.180	-31.592	-0.123	-0.068
-258.165	-200.000	0.333	0.001
-257.151	-200.000	-0.245	-0.001
-256.136	-200.000	0.027	-0.267
-255.122	64.916	0.163	0.162
-254.107	130.236	0.159	0.202
-253.092	527.095	-0.088	-0.204
-252.078	15.559	0.130	-0.101
-251.063	9.502	-0.302	-0.226
-250.049	-3.474	0.158	0.109
-249.034	-39.764	-0.437	-0.226
-248.019	800.000	0.095	0.396
-247.005	-90.969	0.322	-0.091
-245.990	-133.973	-0.109	-0.013
-244.976	272.289	0.047	0.081
-243.961	-200.000	-0.001	-0.157
-242.946	-200.000	0.009	0.373
-241.932	-200.000	-0.043	0.221
-240.917	-125.258	-0.259	0.039
-239.903	-200.000	-0.018	0.222
-238.888	-132.203	-0.268	0.034
-237.873	258.442	-0.101	0.171
-236.859	601.217	0.132	-0.325
-235.844	-200.000	0.001	-0.427
-234.830	-89.312	0.224	-0.065
-233.815	-200.000	0.002	-0.221
-232.800	-80.674	-0.408	0.134
-231.786	60.512	-0.173	-0.169
-230.771	-200.000	0.009	0.212
-229.757	800.000	0.102	0.310
-228.742	-200.000	0.119	-0.001
-227.727	800.000	0.022	-0.074
-226.713	-112.626	-0.049	-0.010
-225.698	-90.598	0.131	-0.037
-224.684	116.628	0.152	-0.184
-223.669	-34.371	-0.150	0.081
-222.655	800.000	0.137	0.396
-221.640	-86.932	0.279	0.084
-220.625	-200.000	-0.015	0.260
-219.611	114.687	-0.113	0.136
-218.596	742.075	0.033	-0.089
-217.582	302.128	-0.052	0.094
-216.567	-14.505	0.076	-0.048
-215.552	73.196	0.071	0.074
-214.538	462.632	0.070	0.155
-213.523	-200.000	0.001	-0.169
-212.509	226.636	-0.122	0.196
-211.494	-200.000	0.042	-0.217
-210.479	310.270	0.078	0.144
-209.465	-200.000	-0.015	0.089
-208.450	-200.000	-0.010	0.054
-207.436	43.249	0.104	0.094
-206.421	-2.289	-0.319	-0.221
-205.406	-112.172	-0.089	0.018
-204.392	-57.419	-0.286	0.124
-203.377	800.000	-0.046	-0.133
-202.363	88.657	-0.068	0.074
-201.348	-200.000	0.004	0.036
-200.333	30.399	-0.200	0.168
-199.319	302.284	0.014	-0.026
-198.304	62.902	0.141	0.139
-197.290	134.228	-0.112	0.144
-196.275	-40.978	0.416	-0.212
-195.260	800.000	0.069	-0.207
-194.246	-112.137	0.257	-0.051
-193.231	763.911	-0.096	0.256
-192.217	255.778	-0.120	-0.203
-191.202	-29.380	0.379	-0.214
-190.187	-63.736	-0.244	-0.099
-189.173	23.179	-0.149	0.121
-188.158	-42.312	-0.145	-0.073
-187.144	242.997	-0.163	0.269
-186.129	-117.562	0.349	0.062
-185.114	29.918	-0.192	-0.161
-184.100	366.547	-0.178	-0.353
-183.085	800.000	0.016	-0.058
-182.071	-178.792	0.412	-0.009
-181.056	-51.788	0.201	-0.092
-180.042	-163.406	0.119	0.006
-179.027	-31.317	-0.147	0.081
-178.012	343.131	0.227	-0.438
-176.998	11.229	-0.163	-0.123
-175.983	428.552	-0.081	-0.173
-174.969	564.847	-0.037	-0.087
-173.954	-200.000	-0.006	-0.243
-172.939	128.528	-0.096	0.120
-171.925	-73.670	0.064	0.023
-170.910	27.003	-0.231	-0.191
-169.896	800.000	0.044	-0.167
-168.881	-200.000	0.030	0.137
-167.866	388.504	0.129	0.262
-166.852	-200.000	-0.032	0.308
-165.837	394.656	0.063	0.129
-164.823	-149.080	0.354	0.028
-163.808	-81.498	-0.135	0.044
-162.793	-200.000	0.008	-0.101
-161.779	-61.279	0.153	0.063
-160.764	-137.314	-0.487	0.054
-159.750	398.525	0.148	0.304
-158.735	19.439	0.400	0.317
-157.720	31.991	0.250	0.212
-156.706	-33.951	-0.292	-0.158
-155.691	45.399	0.113	0.102
-154.677	-107.886	-0.107	-0.023
-153.662	-100.242	-0.462	0.113
-152.647	-24.672	0.127	0.074
-151.633	36.159	-0.086	0.074
-150.618	-200.000	0.234	0.000
-149.604	-200.000	0.011	0.287
-148.589	-168.608	-0.267	-0.010
-147.574	-91.513	-0.225	0.063
-146.560	109.784	0.130	-0.154
-145.545	800.000	0.048	0.149
-144.531	-12.945	0.241	0.154
-143.516	-200.000	0.023	-0.114
-142.502	800.000	0.045	-0.189
-141.487	-200.000	-0.008	-0.256
-140.472	-18.317	-0.174	-0.107
-139.458	412.743	0.178	-0.373
-138.443	-200.000	-0.013	-0.103
-137.429	124.826	-0.116	0.144
-136.414	-128.815	0.079	0.011
-135.399	263.939	0.088	-0.150
-134.385	230.688	0.176	-0.284
-133.370	-32.997	-0.341	0.186
-132.356	-21.206	0.190	0.114
-131.341	115.267	0.237	0.285
-130.326	800.000	-0.055	0.165
-129.312	256.970	0.090	0.152
-128.297	-84.912	0.181	0.056
-127.283	-98.793	0.066	-0.017
-126.268	-30.176	0.115	-0.064
-125.253	-128.422	0.435	0.061
-124.239	364.331	0.101	0.200
-123.224	115.203	-0.380	-0.456
-122.210	48.613	0.181	-0.167
-121.195	-101.006	-0.360	0.087
-120.180	86.450	0.050	0.054
