DTS Sentinel unit serial number:	SN413079Multiplexer serial number:	ORYXHardware model number:	OX4-SRSoftware version number:	ORYX F/W v4.00 Oryx Data Collector v3.7.2.0data status	okinstallation	princeton_trtdifferential loss correction	single-endedforward channel	channel 2reverse channel	N/Adate	2019/09/11time	04:13:11forward acquisition time	60.00reverse acquisition time	0.00gamma	496.2192k internal	0.2328k external	0.2328temperature offset calibration	0.9940default loss term (dB/km)	0.3790temperature slope calibration	1.0000multiplexer offset coefficient	1.0000multiplexer slope coefficient	1.0000fibre end	0.00T internal ref (°C)	29.56T ext. ref 1 (°C)	-0.30T ext. ref 2 (°C)	23.40length (m)	temperature (°C)	Stokes	anti-Stokes-747.200	-35.216	0.322	-0.177
-746.185	204.584	0.151	0.235
-745.171	800.000	-0.072	0.226
-744.156	-200.000	0.006	0.466
-743.142	-88.949	0.293	0.087
-742.127	-99.797	-0.340	-0.086
-741.112	195.211	-0.060	-0.091
-740.098	800.000	-0.028	0.086
-739.083	667.307	-0.114	-0.298
-738.069	-66.375	-0.108	-0.043
-737.054	-131.674	-0.086	-0.011
-736.039	11.251	-0.162	0.125
-735.025	28.600	-0.122	0.104
-734.010	58.965	-0.143	-0.142
-732.996	-69.633	-0.204	-0.079
-731.981	130.878	-0.120	-0.155
-730.966	254.440	0.166	-0.285
-729.952	800.000	0.031	0.116
-728.937	800.000	-0.067	-0.194
-727.923	-13.869	-0.299	-0.195
-726.908	395.768	-0.050	-0.106
-725.894	-18.547	0.079	-0.050
-724.879	-58.711	-0.294	-0.128
-723.864	682.280	-0.083	0.217
-722.850	-63.097	0.252	0.105
-721.835	-200.000	-0.024	-0.493
-720.821	800.000	-0.043	-0.164
-719.806	198.596	-0.168	-0.259
-718.791	239.034	-0.127	-0.213
-717.777	50.249	-0.196	-0.187
-716.762	-49.875	-0.151	-0.072
-715.748	152.978	0.114	0.157
-714.733	101.467	0.190	-0.223
-713.718	-153.106	-0.196	-0.014
-712.704	-96.977	-0.152	-0.040
-711.689	-116.485	0.485	0.090
-710.675	72.757	-0.093	0.098
-709.660	-200.000	-0.047	0.331
-708.645	-142.072	-0.392	-0.039
-707.631	-73.104	0.195	0.072
-706.616	-200.000	0.107	0.579
-705.602	-200.000	0.014	-0.112
-704.587	-200.000	0.039	-0.267
-703.572	124.615	-0.176	-0.222
-702.558	100.028	0.218	-0.255
-701.543	82.330	0.215	0.234
-700.529	31.303	0.355	-0.307
-699.514	-58.892	0.166	0.072
-698.499	-11.074	0.226	0.150
-697.485	-46.020	0.257	-0.127
-696.470	-151.050	-0.119	-0.009
-695.456	619.036	0.054	0.136
-694.441	-78.270	-0.372	0.128
-693.426	-200.000	0.040	0.319
-692.412	-142.577	-0.208	0.021
-691.397	-144.475	0.179	-0.017
-690.383	-18.618	-0.152	-0.095
-689.368	-104.668	0.327	0.076
-688.354	-119.680	-0.054	-0.009
-687.339	-102.694	-0.360	-0.086
-686.324	110.233	0.192	0.232
-685.310	800.000	-0.068	-0.240
-684.295	292.697	-0.142	0.260
-683.281	800.000	-0.129	0.462
-682.266	12.578	-0.192	-0.149
-681.251	-125.979	0.213	0.032
-680.237	510.355	0.071	0.166
-679.222	800.000	-0.064	-0.235
-678.208	101.592	0.185	-0.216
-677.193	68.356	-0.160	0.165
-676.178	-33.597	0.249	0.138
-675.164	800.000	-0.044	0.154
-674.149	218.442	-0.038	0.061
-673.135	148.227	0.120	0.163
-672.120	-66.259	0.124	-0.049
-671.105	160.133	-0.227	-0.318
-670.091	-14.516	0.125	0.081
-669.076	-26.506	-0.251	-0.148
-668.062	-99.057	-0.315	0.080
-667.047	-29.824	-0.139	-0.080
-666.032	-117.640	0.072	0.013
-665.018	-200.000	0.023	-0.179
-664.003	-119.665	0.292	0.051
-662.989	263.942	-0.177	0.310
-661.974	346.115	-0.042	0.083
-660.959	800.000	0.014	-0.041
-659.945	202.945	-0.131	0.203
-658.930	-10.948	0.228	-0.151
-657.916	800.000	-0.067	0.263
-656.901	-37.101	-0.145	0.078
-655.886	-98.413	-0.144	0.037
-654.872	-147.635	0.162	-0.014
-653.857	-85.051	0.240	0.076
-652.843	65.110	-0.072	0.073
-651.828	-200.000	-0.040	0.311
-650.814	800.000	-0.057	0.168
-649.799	-200.000	0.043	-0.233
-648.784	150.482	0.127	-0.173
-647.770	-71.044	-0.090	0.034
-646.755	102.355	-0.079	0.092
-645.741	800.000	-0.092	-0.304
-644.726	197.110	0.161	0.246
-643.711	800.000	0.055	0.185
-642.697	-140.661	-0.279	-0.029
-641.682	-149.567	0.400	-0.032
-640.668	397.857	0.028	0.059
-639.653	-77.900	-0.212	-0.073
-638.638	-42.467	0.182	-0.093
-637.624	-200.000	-0.019	-0.195
-636.609	272.999	0.156	-0.276
-635.595	23.122	-0.142	-0.117
-634.580	117.906	0.103	-0.127
-633.565	256.375	0.037	-0.064
-632.551	15.767	0.226	-0.179
-631.536	124.845	0.037	-0.047
-630.522	-56.559	0.180	-0.080
-629.507	85.617	-0.126	-0.139
-628.492	103.474	-0.142	0.167
-627.478	800.000	-0.036	0.125
-626.463	128.529	0.087	0.111
-625.449	-199.345	-0.261	0.001
-624.434	-30.250	-0.242	-0.138
-623.419	-96.515	0.373	0.099
-622.405	-200.000	0.002	-0.281
-621.390	91.727	-0.096	-0.109
-620.376	-102.608	0.171	0.041
-619.361	-66.485	-0.173	-0.069
-618.346	-178.673	-0.460	-0.011
-617.332	358.569	0.043	0.087
-616.317	-39.580	0.160	0.084
-615.303	336.780	-0.050	-0.097
-614.288	800.000	-0.094	-0.312
-613.273	131.937	-0.132	-0.170
-612.259	800.000	-0.056	0.193
-611.244	-200.000	-0.053	-0.248
-610.230	-74.371	0.124	0.045
-609.215	-200.000	-0.027	-0.318
-608.201	45.370	-0.201	-0.186
-607.186	-72.507	0.388	0.144
-606.171	274.598	0.121	-0.215
-605.157	-169.616	-0.129	-0.005
-604.142	75.978	-0.366	-0.388
-603.128	800.000	0.044	-0.160
-602.113	-45.548	-0.511	0.253
-601.098	48.815	-0.275	0.259
-600.084	108.730	0.145	0.174
-599.069	-27.053	-0.219	0.128
-598.055	-39.282	0.201	-0.106
-597.040	-200.000	0.079	-0.391
-596.025	-149.465	0.235	0.019
-595.011	-50.794	-0.271	-0.128
-593.996	-200.000	-0.005	0.215
-592.982	800.000	0.044	0.137
-591.967	-77.320	0.228	-0.080
-590.952	800.000	0.017	-0.061
-589.938	214.033	-0.297	0.470
-588.923	-136.072	-0.154	0.018
-587.909	601.368	-0.135	-0.336
-586.894	33.139	-0.146	-0.127
-585.879	-200.000	0.028	0.146
-584.865	-117.934	-0.077	-0.014
-583.850	88.015	-0.174	-0.194
-582.836	-200.000	0.008	0.051
-581.821	114.862	0.209	-0.256
-580.806	31.206	0.067	-0.057
-579.792	-123.553	-0.030	-0.005
-578.777	-4.117	0.139	0.096
-577.763	-139.301	-0.072	-0.008
-576.748	-200.000	-0.016	-0.388
-575.733	800.000	0.050	-0.169
-574.719	-115.117	-0.059	0.011
-573.704	-97.148	-0.195	0.051
-572.690	211.312	0.152	0.239
-571.675	-105.403	-0.098	-0.022
-570.661	-124.633	-0.374	-0.058
-569.646	-200.000	0.004	0.054
-568.631	224.234	-0.099	-0.159
-567.617	-200.000	0.118	-0.000
-566.602	108.372	0.081	-0.096
-565.588	-79.792	0.068	-0.023
-564.573	-79.627	0.210	0.071
-563.558	-200.000	-0.023	-0.377
-562.544	-56.560	-0.141	-0.062
-561.529	-200.000	-0.025	0.311
-560.515	-143.279	-0.108	-0.010
-559.500	800.000	-0.033	-0.096
-558.485	-145.024	0.175	0.016
-557.471	800.000	-0.042	0.116
-556.456	-24.516	0.251	-0.150
-555.442	55.149	-0.250	-0.241
-554.427	-200.000	-0.080	0.397
-553.412	293.531	-0.134	0.244
-552.398	-60.433	-0.113	-0.048
-551.383	193.800	0.035	-0.053
-550.369	-200.000	-0.036	0.506
-549.354	800.000	0.042	0.171
-548.339	-76.896	-0.316	-0.110
-547.325	75.477	0.155	-0.164
-546.310	96.995	-0.129	0.148
-545.296	-16.901	-0.122	-0.077
-544.281	376.430	-0.051	0.103
-543.266	-200.000	0.031	-0.229
-542.252	228.968	-0.136	0.221
-541.237	-38.608	0.250	-0.132
-540.223	-35.808	-0.301	-0.163
-539.208	800.000	0.035	0.106
-538.193	-30.151	-0.205	0.117
-537.179	118.739	-0.192	0.237
-536.164	56.765	0.253	0.246
-535.150	-26.825	-0.340	0.199
-534.135	-200.000	-0.016	-0.286
-533.121	-3.986	0.202	-0.140
-532.106	800.000	-0.095	-0.304
-531.091	-200.000	0.039	-0.187
-530.077	7.911	-0.037	0.028
-529.062	-142.182	-0.281	0.028
-528.048	-183.005	0.261	0.005
-527.033	-71.101	0.101	0.038
-526.018	800.000	0.080	0.300
-525.004	-19.003	0.218	-0.135
-523.989	378.982	-0.070	-0.143
-522.975	-200.000	-0.008	0.056
-521.960	84.985	0.379	-0.415
-520.945	-200.000	0.003	-0.378
-519.931	-66.813	0.294	0.116
-518.916	190.704	0.114	0.172
-517.902	-200.000	0.019	0.107
-516.887	101.617	-0.144	-0.168
-515.872	800.000	0.041	0.172
-514.858	447.338	0.070	0.153
-513.843	-152.368	-0.111	-0.008
-512.829	-200.000	-0.039	-0.249
-511.814	-200.000	-0.026	-0.252
-510.799	-94.383	0.309	0.084
-509.785	800.000	-0.056	-0.227
-508.770	458.994	-0.115	-0.255
-507.756	49.025	0.182	-0.170
-506.741	-126.726	-0.179	-0.026
-505.726	-200.000	0.037	-0.237
-504.712	180.273	-0.072	-0.106
-503.697	-4.235	-0.152	0.105
-502.683	-116.208	0.444	-0.082
-501.668	-7.558	-0.197	-0.133
-500.653	-160.153	-0.114	0.006
-499.639	-200.000	0.047	-0.257
-498.624	-44.429	0.301	0.150
-497.610	800.000	-0.031	0.119
-496.595	-200.000	0.007	-0.279
-495.581	-66.402	-0.207	-0.082
-494.566	285.733	0.056	-0.101
-493.551	-200.000	-0.008	0.226
-492.537	563.515	0.040	-0.096
-491.522	-44.566	0.149	0.074
-490.508	-43.799	-0.103	-0.052
-489.493	-166.308	-0.341	-0.014
-488.478	-200.000	0.014	-0.206
-487.464	95.801	-0.197	-0.224
-486.449	-42.920	0.068	0.034
-485.435	342.846	0.153	-0.300
-484.420	-108.607	-0.581	0.124
-483.405	611.890	-0.004	-0.009
-482.391	-20.246	0.316	-0.194
-481.376	220.679	-0.124	0.198
-480.362	-200.000	0.013	0.341
-479.347	-38.599	-0.143	-0.075
-478.332	-137.331	-0.394	-0.045
-477.318	129.710	0.151	0.193
-476.303	199.518	0.087	0.133
-475.289	-21.510	0.124	-0.076
-474.274	-200.000	0.007	0.037
-473.259	275.414	-0.104	0.184
-472.245	-119.719	0.192	-0.033
-471.230	-11.849	-0.390	0.255
-470.216	-71.636	0.283	0.105
-469.201	-130.736	-0.159	0.021
-468.186	-78.608	0.362	0.123
-467.172	272.505	-0.030	0.052
-466.157	1.989	-0.284	0.204
-465.143	-200.000	0.004	0.078
-464.128	521.419	0.150	-0.351
-463.113	-17.247	0.159	0.100
-462.099	183.915	-0.138	0.203
-461.084	-19.011	-0.182	0.113
-460.070	-200.000	-0.057	0.332
-459.055	-72.145	0.376	-0.139
-458.040	110.111	-0.221	-0.265
-457.026	-170.308	0.312	-0.011
-456.011	-92.282	0.197	-0.055
-454.997	15.006	0.131	0.103
-453.982	366.408	-0.137	0.275
-452.968	35.551	0.132	-0.115
-451.953	154.146	-0.161	-0.220
-450.938	-200.000	-0.037	0.227
-449.924	-81.413	0.376	-0.123
-448.909	800.000	0.036	0.117
-447.895	44.787	-0.174	0.159
-446.880	138.905	0.095	0.124
-445.865	800.000	0.088	-0.347
-444.851	-187.818	0.197	0.003
-443.836	-85.208	0.461	0.143
-442.822	-129.807	0.381	-0.052
-441.807	-113.346	-0.144	-0.028
-440.792	800.000	0.064	-0.270
-439.778	-128.881	0.238	-0.033
-438.763	-14.395	-0.147	-0.094
-437.749	541.766	0.085	0.203
-436.734	800.000	-0.017	0.068
-435.719	-132.804	-0.048	-0.006
-434.705	800.000	0.096	-0.359
-433.690	470.768	-0.051	-0.113
-432.676	-134.892	-0.283	0.034
-431.661	102.931	0.131	-0.152
-430.646	167.959	-0.077	-0.110
-429.632	384.771	0.115	0.237
-428.617	-19.747	-0.119	0.073
-427.603	574.382	0.111	-0.271
-426.588	-14.226	0.101	0.065
-425.573	-200.000	0.012	-0.247
-424.559	86.016	0.033	0.036
-423.544	163.946	-0.030	0.041
-422.530	-181.477	-0.127	-0.002
-421.515	85.701	-0.162	0.177
-420.500	9.385	-0.266	-0.200
-419.486	360.234	0.024	-0.048
-418.471	44.413	-0.133	0.121
-417.457	33.505	-0.057	0.049
-416.442	-2.882	0.059	-0.041
-415.428	-49.678	0.039	0.018
-414.413	-29.046	-0.224	-0.128
-413.398	48.120	0.173	0.161
-412.384	-62.548	0.155	0.064
-411.369	-18.135	-0.249	-0.155
-410.355	-124.330	0.241	-0.037
-409.340	105.808	-0.147	0.173
-408.325	-200.000	-0.017	0.242
-407.311	-200.000	-0.078	0.368
-406.296	305.295	-0.069	0.128
-405.282	-15.895	-0.244	0.155
-404.267	800.000	0.144	0.441
-403.252	18.531	0.164	-0.130
-402.238	-116.163	-0.224	0.041
-401.223	382.932	0.108	-0.222
-400.209	-200.000	0.013	-0.064
-399.194	-152.776	0.089	-0.006
-398.179	-61.467	-0.144	0.060
-397.165	132.097	-0.234	0.300
-396.150	-197.588	-0.104	0.001
-395.136	277.508	0.097	0.172
-394.121	800.000	-0.068	-0.262
-393.106	-133.409	-0.222	-0.028
-392.092	88.089	0.180	0.198
-391.077	165.646	-0.044	0.062
-390.063	122.318	0.257	0.319
-389.048	-200.000	0.019	0.374
-388.033	-54.935	-0.218	0.098
-387.019	-37.863	0.274	0.145
-386.004	110.072	0.048	-0.057
-384.990	-200.000	0.003	0.026
-383.975	-114.875	0.022	-0.004
-382.960	800.000	0.094	0.288
-381.946	800.000	0.026	-0.113
-380.931	-111.141	0.107	-0.022
-379.917	-103.897	0.325	0.075
-378.902	-118.558	0.350	0.061
-377.888	198.399	-0.077	-0.118
-376.873	105.005	-0.093	0.109
-375.858	-7.036	0.252	-0.170
-374.844	800.000	-0.036	-0.157
-373.829	493.412	0.133	0.303
-372.815	-84.285	-0.172	0.054
-371.800	114.324	0.226	0.274
-370.785	414.571	-0.105	-0.222
-369.771	734.397	0.152	-0.405
-368.756	178.862	-0.094	0.136
-367.742	-106.532	-0.100	-0.022
-366.727	-118.970	-0.259	-0.045
-365.712	-137.694	-0.091	-0.010
-364.698	-7.848	0.130	0.087
-363.683	-18.235	-0.064	0.040
-362.669	-200.000	0.013	-0.480
-361.654	-55.570	-0.396	0.176
-360.639	-30.648	-0.248	0.140
-359.625	-200.000	0.005	0.103
-358.610	800.000	-0.030	0.091
-357.596	40.093	0.089	0.080
-356.581	98.277	-0.140	-0.160
-355.566	0.974	0.293	-0.209
-354.552	-45.398	-0.107	0.052
-353.537	-186.429	-0.091	-0.001
-352.523	-26.239	-0.164	-0.096
-351.508	-28.488	0.078	0.044
-350.493	649.145	-0.131	-0.333
-349.479	800.000	0.068	0.242
-348.464	-81.633	-0.201	0.065
-347.450	-19.712	-0.091	0.056
-346.435	28.368	0.302	0.253
-345.420	-43.838	-0.213	0.106
-344.406	104.578	-0.125	0.146
-343.391	-128.033	0.258	-0.037
-342.377	193.192	-0.157	-0.235
-341.362	139.785	0.217	0.284
-340.348	-158.641	0.261	-0.015
-339.333	617.904	-0.140	-0.348
-338.318	-200.000	0.009	0.381
-337.304	-147.614	0.399	-0.033
-336.289	89.483	-0.170	0.188
-335.275	-44.953	0.116	0.057
-334.260	-1.829	-0.295	-0.206
-333.245	146.254	0.115	0.153
-332.231	501.545	-0.053	-0.121
-331.216	-127.658	0.106	0.015
-330.202	-161.950	-0.126	0.006
-329.187	-160.614	-0.327	0.017
-328.172	-200.000	-0.006	-0.056
-327.158	-69.221	-0.126	-0.048
-326.143	31.255	-0.255	0.217
-325.129	444.452	0.004	0.009
-324.114	-12.464	0.093	-0.060
-323.099	-110.031	0.416	0.086
-322.085	-122.752	-0.279	-0.045
-321.070	-113.421	-0.032	0.006
-320.056	-109.729	-0.230	0.048
-319.041	128.779	-0.042	-0.053
-318.026	800.000	-0.049	0.194
-317.012	392.011	-0.139	-0.286
-315.997	-164.554	0.248	-0.011
-314.983	131.259	-0.176	0.224
-313.968	800.000	-0.112	-0.312
-312.953	-200.000	-0.021	-0.429
-311.939	800.000	0.026	-0.108
-310.924	800.000	-0.047	0.130
-309.910	75.935	0.182	0.190
-308.895	42.643	0.178	0.160
-307.880	469.609	0.101	-0.225
-306.866	-200.000	-0.018	0.096
-305.851	28.278	-0.166	0.139
-304.837	-46.313	-0.243	0.118
-303.822	92.831	0.202	0.226
-302.807	-200.000	-0.024	-0.192
-301.793	166.671	0.104	0.145
-300.778	246.138	0.069	-0.115
-299.764	800.000	-0.036	-0.138
-298.749	-56.376	0.134	0.059
-297.735	-200.000	-0.073	-0.323
-296.720	-175.677	-0.218	0.006
-295.705	48.911	-0.281	0.261
-294.691	-86.948	-0.393	-0.119
-293.676	329.092	0.045	0.085
-292.662	-200.000	0.009	0.153
-291.647	-16.037	0.154	0.097
-290.632	244.366	-0.044	0.074
-289.618	-104.331	-0.234	0.054
-288.603	19.184	0.127	0.101
-287.589	-170.787	0.129	0.004
-286.574	-163.367	0.189	0.009
-285.559	68.921	-0.034	-0.035
-284.545	-186.637	0.226	0.003
-283.530	-59.451	0.132	0.056
-282.516	-68.727	0.291	0.111
-281.501	405.819	-0.040	0.083
-280.486	-200.000	-0.016	-0.130
-279.472	-200.000	0.040	-0.237
-278.457	175.431	-0.142	0.204
-277.443	380.201	0.129	-0.262
-276.428	-10.314	-0.102	0.067
-275.413	800.000	-0.054	-0.151
-274.399	314.399	-0.106	-0.197
-273.384	-200.000	0.006	0.130
-272.370	271.555	0.062	-0.108
-271.355	-8.929	-0.097	-0.064
-270.340	275.053	-0.081	0.142
-269.326	800.000	-0.107	-0.456
-268.311	-200.000	0.064	0.298
-267.297	54.998	0.211	0.201
-266.282	100.689	0.267	0.307
-265.267	-44.419	0.231	-0.114
-264.253	-148.783	0.239	0.019
-263.238	230.120	0.111	0.179
-262.224	-21.779	0.133	-0.080
-261.209	-200.000	-0.001	-0.320
-260.195	-117.294	-0.239	-0.043
-259.180	140.934	0.102	0.133
-258.165	206.129	0.081	-0.124
-257.151	711.808	-0.051	0.133
-256.136	-32.450	0.263	-0.145
-255.122	-189.305	0.301	0.004
-254.107	44.013	0.210	0.190
-253.092	120.964	-0.126	-0.155
-252.078	93.082	0.223	0.249
-251.063	-123.556	-0.238	0.037
-250.049	-105.027	-0.329	0.074
-249.034	249.922	-0.025	-0.042
-248.019	-101.755	-0.283	-0.068
-247.005	-31.573	0.161	0.090
-245.990	154.238	-0.190	-0.257
-244.976	-59.574	-0.112	-0.048
-243.961	-130.450	0.105	0.014
-242.946	7.703	-0.217	0.161
-241.932	462.508	-0.196	-0.433
-240.917	-200.000	-0.049	0.269
-239.903	-122.722	-0.383	-0.061
-238.888	-3.288	0.323	0.223
-237.873	-131.245	0.510	0.067
-236.859	240.104	0.145	-0.238
-235.844	78.716	0.016	0.017
-234.830	471.415	0.113	0.250
-233.815	800.000	-0.088	0.279
-232.800	189.088	-0.243	0.359
-231.786	-200.000	-0.053	0.391
-230.771	-59.517	0.376	-0.160
-229.757	-200.000	0.015	0.125
-228.742	-18.441	0.247	-0.152
-227.727	173.038	0.136	0.194
-226.713	-116.017	0.189	-0.035
-225.698	128.536	-0.137	0.173
-224.684	155.939	0.070	0.096
-223.669	45.133	-0.308	0.280
-222.655	660.413	-0.126	-0.321
-221.640	8.282	0.225	-0.167
-220.625	387.962	-0.051	0.104
-219.611	800.000	-0.049	-0.163
-218.596	116.041	0.139	0.168
-217.582	150.735	0.067	0.090
-216.567	-8.121	0.143	0.095
-215.552	-116.274	-0.368	-0.067
-214.538	-200.000	0.004	0.118
-213.523	20.342	0.244	0.194
-212.509	198.551	-0.169	-0.256
-211.494	777.984	0.062	0.168
-210.479	-131.068	-0.248	0.033
-209.465	-141.789	0.073	-0.007
-208.450	-111.173	-0.276	0.056
-207.436	-121.713	-0.125	-0.020
-206.421	-104.853	-0.125	-0.028
-205.406	178.248	-0.028	0.040
-204.392	545.033	0.088	0.208
-203.377	797.135	0.020	0.054
-202.363	-27.825	0.274	0.156
-201.348	139.899	0.182	-0.237
-200.333	-168.226	-0.033	-0.001
-199.319	73.119	-0.234	-0.241
-198.304	202.448	-0.051	0.078
-197.290	-34.723	0.112	-0.060
-196.275	282.416	0.116	0.204
-195.260	-78.380	0.029	-0.010
-194.246	-200.000	-0.006	0.311
-193.231	-56.681	0.249	-0.109
-192.217	-200.000	0.010	-0.349
-191.202	-200.000	0.061	-0.478
-190.187	-102.130	0.260	0.062
-189.173	-5.367	0.040	-0.027
-188.158	800.000	0.035	-0.120
-187.144	98.727	-0.213	0.243
-186.129	-36.639	0.344	0.182
-185.114	-111.884	0.286	0.057
-184.100	316.316	0.111	0.207
-183.085	568.350	0.038	0.091
-182.071	-200.000	-0.001	-0.113
-181.056	800.000	0.122	-0.366
-180.042	800.000	-0.059	0.186
-179.027	-200.000	0.010	-0.157
-178.012	0.231	0.222	0.156
-176.998	676.007	-0.035	0.089
-175.983	104.600	0.084	0.098
-174.969	57.971	-0.170	0.164
-173.954	-40.691	-0.282	0.144
-172.939	229.817	-0.064	0.103
-171.925	105.033	-0.136	-0.158
-170.910	800.000	0.075	-0.231
-169.896	-200.000	-0.045	-0.308
-168.881	-54.755	-0.116	0.052
-167.866	-102.257	0.124	0.029
-166.852	-61.405	-0.259	-0.107
-165.837	-200.000	-0.005	0.039
-164.823	64.213	-0.035	-0.035
-163.808	21.199	-0.268	0.214
-162.793	604.701	0.026	0.063
-161.779	800.000	-0.125	-0.356
-160.764	-130.957	0.146	0.019
-159.750	800.000	-0.037	-0.115
-158.735	103.775	0.142	-0.165
-157.720	-51.395	0.131	0.060
-156.706	-35.385	0.190	-0.102
-155.691	-200.000	-0.007	0.409
-154.677	95.382	0.158	0.177
-153.662	-18.404	0.041	-0.025
-152.647	460.062	-0.068	0.150
-151.633	-200.000	-0.048	-0.231
-150.618	3.441	0.269	-0.193
-149.604	345.752	0.068	0.132
-148.589	205.776	0.166	0.253
-147.574	133.443	-0.149	-0.190
-146.560	167.007	-0.116	0.162
-145.545	-151.859	0.171	-0.012
-144.531	-79.693	-0.381	-0.126
-143.516	-200.000	-0.002	-0.186
-142.502	-50.355	-0.187	-0.087
-141.487	-51.096	-0.104	-0.048
-140.472	-200.000	-0.035	0.401
-139.458	-107.974	0.057	-0.012
-138.443	-175.108	-0.295	0.008
-137.429	800.000	0.122	-0.345
-136.414	307.735	0.003	-0.006
-135.399	672.253	0.103	0.264
-134.385	800.000	-0.031	-0.113
-133.370	122.418	0.423	-0.520
-132.356	585.804	0.043	-0.104
-131.341	537.979	0.026	-0.061
-130.326	400.758	-0.313	0.646
-129.312	-77.815	-0.066	-0.022
-128.297	-139.306	0.373	-0.039
-127.283	-18.358	0.462	-0.284
-126.268	-200.000	-0.012	0.218
-125.253	404.730	-0.091	-0.188
-124.239	-138.286	0.091	-0.010
-123.224	95.479	-0.102	-0.115
-122.210	800.000	-0.063	-0.219
