DTS Sentinel unit serial number:	SN413079Multiplexer serial number:	ORYXHardware model number:	OX4-SRSoftware version number:	ORYX F/W v4.00 Oryx Data Collector v3.7.2.0data status	okinstallation	princeton_trtdifferential loss correction	single-endedforward channel	channel 2reverse channel	N/Adate	2019/09/11time	07:57:10forward acquisition time	60.00reverse acquisition time	0.00gamma	496.2192k internal	0.2325k external	0.2325temperature offset calibration	1.1122default loss term (dB/km)	0.3790temperature slope calibration	1.0000multiplexer offset coefficient	1.0000multiplexer slope coefficient	1.0000fibre end	0.00T internal ref (°C)	32.00T ext. ref 1 (°C)	17.60T ext. ref 2 (°C)	27.82length (m)	temperature (°C)	Stokes	anti-Stokes-747.200	69.897	0.220	0.229
-746.185	240.628	-0.032	-0.054
-745.171	59.649	-0.134	0.134
-744.156	-64.159	-0.190	-0.078
-743.142	-94.024	0.239	-0.066
-742.127	340.054	-0.112	0.221
-741.112	800.000	-0.072	-0.212
-740.098	16.890	-0.206	0.165
-739.083	-110.330	-0.231	-0.049
-738.069	-200.000	0.005	0.162
-737.054	197.225	0.066	-0.101
-736.039	-200.000	-0.111	0.000
-735.025	-90.215	0.248	0.073
-734.010	14.050	0.287	-0.226
-732.996	159.112	-0.115	-0.161
-731.981	-124.776	-0.258	0.040
-730.966	-174.694	0.277	-0.008
-729.952	81.541	-0.183	-0.199
-728.937	46.189	0.143	0.134
-727.923	529.210	-0.042	-0.101
-726.908	313.126	-0.180	-0.340
-725.894	14.230	-0.207	-0.163
-724.879	-116.818	0.394	0.073
-723.864	-60.215	0.163	0.070
-722.850	800.000	-0.038	-0.162
-721.835	380.739	-0.148	0.306
-720.821	-88.848	0.227	0.068
-719.806	-125.099	-0.291	-0.045
-718.791	64.271	0.144	0.146
-717.777	-122.761	-0.082	0.013
-716.762	-200.000	-0.008	-0.077
-715.748	-200.000	0.069	-0.377
-714.733	800.000	-0.027	-0.097
-713.718	-91.528	0.247	-0.071
-712.704	-200.000	0.021	-0.142
-711.689	-85.808	-0.296	0.093
-710.675	-35.455	0.127	0.069
-709.660	-16.522	0.157	-0.100
-708.645	322.679	0.097	0.187
-707.631	285.559	0.134	0.243
-706.616	800.000	-0.120	0.385
-705.602	392.700	-0.023	-0.049
-704.587	386.222	-0.108	-0.224
-703.572	356.099	-0.024	-0.048
-702.558	583.676	0.069	0.170
-701.543	9.309	-0.145	0.110
-700.529	226.348	-0.089	-0.146
-699.514	-200.000	0.047	0.300
-698.499	377.152	-0.134	0.276
-697.485	-1.301	0.026	0.019
-696.470	-30.579	-0.226	-0.129
-695.456	-109.314	-0.327	-0.070
-694.441	800.000	-0.079	-0.254
-693.426	-200.000	-0.028	0.171
-692.412	-47.011	0.206	-0.101
-691.397	444.767	-0.142	0.313
-690.383	-6.192	-0.082	-0.057
-689.368	-186.614	0.446	0.006
-688.354	-172.454	-0.170	0.005
-687.339	-106.023	0.055	-0.012
-686.324	-38.056	-0.240	0.128
-685.310	-165.028	0.208	0.009
-684.295	-200.000	0.006	-0.163
-683.281	800.000	0.076	-0.249
-682.266	-30.814	-0.350	0.199
-681.251	127.269	0.124	0.158
-680.237	-92.155	-0.232	0.066
-679.222	39.126	0.326	0.293
-678.208	-200.000	-0.000	-0.241
-677.193	-60.636	-0.121	-0.052
-676.178	-27.725	0.325	0.190
-675.164	413.435	-0.080	0.172
-674.149	-200.000	-0.040	0.311
-673.135	-161.667	0.089	0.005
-672.120	-200.000	-0.078	-0.376
-671.105	29.745	-0.236	-0.202
-670.091	-200.000	0.020	0.236
-669.076	4.988	-0.104	0.077
-668.062	228.387	-0.100	0.163
-667.047	-22.738	-0.035	-0.021
-666.032	670.533	-0.071	-0.186
-665.018	-105.567	-0.346	-0.079
-664.003	37.770	-0.152	-0.136
-662.989	-70.449	-0.121	-0.046
-661.974	-110.783	0.319	0.066
-660.959	-73.216	0.183	0.067
-659.945	171.521	0.190	-0.274
-658.930	-200.000	0.042	-0.206
-657.916	-116.868	0.033	0.006
-656.901	95.453	-0.085	-0.097
-655.886	165.812	-0.057	0.081
-654.872	800.000	0.054	-0.159
-653.857	800.000	-0.090	-0.255
-652.843	73.669	-0.165	0.174
-651.828	-96.601	0.350	-0.093
-650.814	54.501	-0.263	0.255
-649.799	68.521	-0.216	-0.222
-648.784	47.013	0.183	0.171
-647.770	13.551	-0.143	-0.112
-646.755	-76.883	-0.320	-0.112
-645.741	800.000	0.067	0.196
-644.726	43.645	-0.246	-0.226
-643.711	-200.000	0.037	-0.385
-642.697	-139.479	-0.104	-0.011
-641.682	-200.000	0.008	-0.037
-640.668	-97.857	0.116	-0.030
-639.653	800.000	0.050	0.174
-638.638	-63.104	0.250	0.104
-637.624	-200.000	-0.016	-0.113
-636.609	56.035	0.233	-0.227
-635.595	-105.818	0.427	-0.097
-634.580	800.000	0.053	-0.148
-633.565	58.962	-0.065	0.064
-632.551	149.084	-0.032	0.043
-631.536	-124.084	0.268	0.042
-630.522	774.354	0.078	-0.213
-629.507	-117.698	0.273	0.049
-628.492	-63.439	-0.170	0.070
-627.478	-200.000	0.023	-0.301
-626.463	800.000	0.091	-0.327
-625.449	-32.796	0.226	-0.126
-624.434	80.031	0.208	-0.225
-623.419	87.043	0.112	0.124
-622.405	-96.668	0.131	-0.035
-621.390	-200.000	-0.025	0.138
-620.376	-200.000	0.050	0.378
-619.361	373.457	-0.028	0.057
-618.346	613.023	-0.019	-0.049
-617.332	121.651	-0.203	-0.254
-616.317	381.840	-0.129	0.265
-615.303	172.997	-0.148	-0.215
-614.288	-19.794	0.089	0.055
-613.273	23.826	-0.168	0.139
-612.259	109.621	0.052	-0.063
-611.244	21.036	0.064	-0.052
-610.230	158.746	0.021	-0.029
-609.215	-79.062	0.278	0.095
-608.201	-43.977	0.290	0.146
-607.186	203.133	-0.170	0.264
-606.171	28.437	-0.037	0.031
-605.157	-73.300	-0.298	0.110
-604.142	396.419	-0.137	0.286
-603.128	280.849	0.098	-0.177
-602.113	-200.000	0.003	-0.186
-601.098	18.225	0.233	0.187
-600.084	52.163	0.157	-0.150
-599.069	-7.655	0.040	0.027
-598.055	-200.000	0.011	-0.330
-597.040	-200.000	0.004	-0.148
-596.025	-200.000	0.002	0.092
-595.011	194.136	0.111	0.169
-593.996	-86.520	-0.191	0.059
-592.982	32.927	-0.165	-0.143
-591.967	-200.000	0.073	0.363
-590.952	71.569	-0.085	0.088
-589.938	-120.719	0.114	0.019
-588.923	224.496	-0.123	0.199
-587.909	800.000	-0.116	0.441
-586.894	800.000	0.063	0.184
-585.879	-131.726	0.027	-0.004
-584.865	-167.015	-0.179	-0.007
-583.850	-73.118	0.061	0.022
-582.836	-110.627	-0.225	0.047
-581.821	80.197	-0.126	-0.136
-580.806	-27.689	-0.197	-0.115
-579.792	800.000	0.071	-0.257
-578.777	-108.122	-0.224	0.049
-577.763	95.217	-0.207	0.237
-576.748	-200.000	0.173	-0.001
-575.733	-161.172	-0.250	-0.013
-574.719	-113.316	0.043	0.009
-573.704	-200.000	-0.029	-0.186
-572.690	-109.743	-0.146	0.031
-571.675	-68.643	-0.194	0.075
-570.661	-94.166	-0.314	0.086
-569.646	-77.427	0.261	-0.091
-568.631	-200.000	-0.059	-0.428
-567.617	260.844	0.202	-0.351
-566.602	50.116	0.117	0.110
-565.588	-200.000	-0.036	0.359
-564.573	24.618	0.083	0.069
-563.558	126.678	-0.113	0.144
-562.544	-83.575	0.528	-0.169
-561.529	-118.084	0.150	-0.027
-560.515	133.429	-0.062	0.080
-559.500	148.780	0.153	-0.207
-558.485	320.311	-0.107	0.204
-557.471	-0.519	0.101	0.072
-556.456	80.525	0.318	-0.344
-555.442	270.568	0.104	-0.183
-554.427	800.000	0.117	-0.342
-553.412	-200.000	0.001	0.061
-552.398	104.184	-0.074	0.087
-551.383	72.320	0.122	0.127
-550.369	-200.000	-0.002	0.062
-549.354	15.659	0.046	0.036
-548.339	-119.814	0.147	-0.025
-547.325	-31.173	0.169	0.095
-546.310	-59.390	0.063	-0.027
-545.296	10.250	0.317	-0.241
-544.281	-71.410	0.148	0.056
-543.266	-26.089	0.214	-0.126
-542.252	291.266	-0.025	0.045
-541.237	194.981	-0.103	0.157
-540.223	182.266	-0.165	-0.243
-539.208	501.195	-0.047	-0.108
-538.193	130.486	0.102	-0.131
-537.179	39.459	-0.108	-0.097
-536.164	800.000	0.050	-0.144
-535.150	-200.000	-0.001	0.038
-534.135	-85.266	-0.355	-0.111
-533.121	109.245	0.215	0.257
-532.106	136.300	-0.185	-0.242
-531.091	-125.971	-0.278	0.042
-530.077	-51.245	-0.122	-0.057
-529.062	-153.488	-0.291	-0.020
-528.048	800.000	0.054	-0.158
-527.033	-85.604	0.188	-0.058
-526.018	-124.276	-0.203	0.032
-525.004	660.086	-0.035	-0.090
-523.989	81.343	0.176	-0.191
-522.975	73.096	0.220	0.230
-521.960	-136.413	-0.174	0.020
-520.945	677.085	-0.010	0.027
-519.931	-59.886	0.280	-0.120
-518.916	-80.023	0.160	0.054
-517.902	110.449	0.069	-0.083
-516.887	230.246	-0.069	-0.114
-515.872	212.757	0.174	-0.274
-514.858	-33.929	-0.216	0.119
-513.843	-45.013	0.067	0.033
-512.829	87.883	-0.205	-0.227
-511.814	-200.000	0.027	-0.166
-510.799	-132.586	-0.052	-0.007
-509.785	-43.113	-0.349	-0.177
-508.770	-184.416	-0.417	0.007
-507.756	-4.996	-0.308	0.212
-506.741	132.080	-0.086	0.111
-505.726	-43.858	0.370	0.186
-504.712	219.105	-0.132	0.211
-503.697	277.520	0.146	0.259
-502.683	-200.000	-0.019	0.186
-501.668	-152.424	0.115	-0.008
-500.653	-200.000	0.036	-0.197
-499.639	-107.584	0.124	-0.027
-498.624	800.000	0.024	0.082
-497.610	-200.000	0.253	-0.001
-496.595	800.000	-0.073	-0.271
-495.581	36.201	-0.408	-0.359
-494.566	-20.340	-0.121	0.074
-493.551	-200.000	-0.012	-0.362
-492.537	-130.256	-0.071	0.010
-491.522	4.795	-0.142	-0.105
-490.508	523.568	-0.049	-0.114
-489.493	2.225	-0.313	0.226
-488.478	-200.000	-0.039	0.294
-487.464	290.606	-0.119	-0.217
-486.449	204.442	0.082	0.127
-485.435	299.393	0.121	-0.222
-484.420	-125.102	-0.320	-0.049
-483.405	492.797	-0.058	0.134
-482.391	800.000	-0.059	-0.191
-481.376	492.030	-0.077	0.176
-480.362	-8.163	-0.331	0.223
-479.347	114.896	0.200	0.243
-478.332	-178.493	0.390	0.009
-477.318	-108.859	-0.096	-0.021
-476.303	-167.732	0.267	-0.011
-475.289	124.150	0.065	-0.081
-474.274	-60.891	0.274	-0.116
-473.259	128.301	-0.057	-0.072
-472.245	69.205	-0.221	-0.227
-471.230	-9.348	0.084	-0.056
-470.216	-141.991	-0.039	-0.004
-469.201	154.752	-0.079	-0.109
-468.186	800.000	0.089	-0.275
-467.172	352.755	-0.121	0.240
-466.157	118.289	-0.038	-0.046
-465.143	-200.000	-0.039	-0.296
-464.128	-44.300	-0.187	0.094
-463.113	3.942	0.093	-0.068
-462.099	-99.351	0.048	-0.012
-461.084	-200.000	-0.024	0.225
-460.070	-87.574	-0.357	-0.108
-459.055	-106.952	-0.142	-0.031
-458.040	-19.448	0.152	-0.094
-457.026	-200.000	0.045	0.229
-456.011	-92.934	0.134	-0.037
-454.997	-126.438	-0.288	-0.043
-453.982	331.023	-0.127	0.244
-452.968	-121.071	0.182	-0.030
-451.953	800.000	-0.016	0.047
-450.938	-200.000	0.035	0.157
-449.924	780.936	-0.059	0.160
-448.909	800.000	-0.097	-0.363
-447.895	493.357	-0.173	-0.396
-446.880	-98.195	-0.275	0.071
-445.865	538.452	0.073	-0.174
-444.851	3.878	0.336	0.245
-443.836	-176.576	-0.294	0.008
-442.822	-173.159	-0.167	-0.005
-441.807	800.000	-0.030	-0.088
-440.792	-115.518	-0.373	0.070
-439.778	-89.334	-0.316	0.093
-438.763	-119.105	-0.215	0.037
-437.749	418.332	0.048	-0.102
-436.734	163.946	0.389	-0.546
-435.719	-0.479	0.130	0.092
-434.705	31.480	0.194	-0.166
-433.690	454.028	0.078	-0.173
-432.676	744.982	-0.025	-0.066
-431.661	102.480	0.179	0.208
-430.646	-121.547	0.149	-0.025
-429.632	74.831	0.062	0.065
-428.617	26.938	0.226	0.189
-427.603	-145.750	-0.144	-0.013
-426.588	148.883	-0.165	0.222
-425.573	77.649	0.154	0.164
-424.559	-21.653	0.144	-0.087
-423.544	604.798	0.038	-0.094
-422.530	-173.816	-0.063	-0.002
-421.515	17.095	-0.069	-0.054
-420.500	-32.970	-0.441	-0.244
-419.486	-67.540	-0.550	-0.215
-418.471	133.619	0.086	0.111
-417.457	25.627	-0.119	-0.099
-416.442	-200.000	0.133	0.001
-415.428	-89.313	0.332	-0.097
-414.413	508.438	-0.036	0.084
-413.398	260.543	-0.181	-0.312
-412.384	-200.000	0.008	-0.103
-411.369	196.271	-0.092	0.140
-410.355	-200.000	0.011	0.050
-409.340	-44.887	-0.429	0.213
-408.325	189.820	-0.052	0.078
-407.311	-35.622	-0.297	-0.160
-406.296	112.694	0.043	-0.052
-405.282	219.702	0.233	0.371
-404.267	305.980	0.197	-0.365
-403.252	-136.952	-0.352	-0.040
-402.238	-200.000	-0.010	0.240
-401.223	-200.000	-0.001	0.091
-400.209	525.448	0.068	0.159
-399.194	-36.496	-0.061	-0.033
-398.179	22.131	0.158	0.128
-397.165	-74.638	0.070	0.025
-396.150	60.942	0.162	-0.160
-395.136	0.855	-0.355	0.253
-394.121	101.873	-0.025	0.029
-393.106	53.745	0.366	0.349
-392.092	100.746	0.280	0.324
-391.077	-32.617	0.142	0.079
-390.063	132.589	0.181	0.232
-389.048	55.802	0.089	-0.086
-388.033	800.000	0.140	0.410
-387.019	355.152	-0.135	0.268
-386.004	800.000	-0.030	0.098
-384.990	27.538	-0.044	0.037
-383.975	-22.192	0.206	-0.124
-382.960	800.000	0.100	-0.376
-381.946	241.496	0.064	0.106
-380.931	427.324	0.084	0.181
-379.917	-18.989	0.146	0.090
-378.902	-3.362	0.115	-0.080
-377.888	142.689	-0.064	0.085
-376.873	169.766	0.184	-0.261
-375.858	-48.985	0.538	-0.256
-374.844	-142.116	-0.242	-0.024
-373.829	-200.000	0.017	0.101
-372.815	-40.628	0.310	0.160
-371.800	18.718	-0.315	-0.250
-370.785	-80.017	-0.277	-0.092
-369.771	-112.350	0.137	0.027
-368.756	-200.000	-0.040	-0.209
-367.742	301.070	-0.117	-0.216
-366.727	-200.000	-0.014	0.239
-365.712	-0.222	-0.448	0.317
-364.698	800.000	0.029	0.106
-363.683	437.966	-0.034	-0.075
-362.669	606.548	-0.108	-0.267
-361.654	88.415	-0.067	-0.073
-360.639	-48.141	-0.116	-0.056
-359.625	190.693	-0.215	-0.321
-358.610	-53.619	0.112	-0.051
-357.596	-93.245	0.268	-0.074
-356.581	-200.000	0.031	-0.143
-355.566	224.807	0.207	-0.333
-354.552	-85.037	-0.288	-0.090
-353.537	-144.560	-0.241	-0.022
-352.523	211.459	0.039	0.061
-351.508	800.000	-0.093	-0.309
-350.493	-90.764	0.287	0.082
-349.479	89.938	0.210	0.233
-348.464	-154.701	-0.281	-0.019
-347.450	-88.113	-0.147	-0.044
-346.435	-114.727	0.351	0.067
-345.420	-66.926	0.055	-0.021
-344.406	35.046	0.179	-0.156
-343.391	-200.000	-0.041	0.230
-342.377	654.705	-0.042	0.107
-341.362	80.534	0.247	0.264
-340.348	-6.345	-0.157	-0.106
-339.333	800.000	-0.067	-0.203
-338.318	78.001	-0.036	0.038
-337.304	54.092	0.170	0.163
-336.289	-85.836	0.241	-0.074
-335.275	131.283	0.135	-0.173
-334.260	-200.000	0.014	-0.133
-333.245	-86.039	-0.168	0.051
-332.231	800.000	0.044	0.123
-331.216	-200.000	0.010	-0.238
-330.202	351.939	-0.106	-0.209
-329.187	-110.232	-0.137	-0.028
-328.172	5.154	-0.133	0.097
-327.158	-104.732	0.244	0.056
-326.143	-123.559	-0.451	0.071
-325.129	271.029	-0.086	0.151
-324.114	229.393	0.109	-0.176
-323.099	459.520	0.022	0.049
-322.085	-143.677	-0.036	-0.003
-321.070	-70.361	0.113	-0.042
-320.056	-84.275	0.295	-0.093
-319.041	66.270	0.063	-0.064
-318.026	-106.813	0.140	0.031
-317.012	173.904	-0.146	0.209
-315.997	242.534	-0.019	0.031
-314.983	-87.441	-0.344	0.103
-313.968	41.052	-0.073	-0.066
-312.953	14.270	-0.382	-0.296
-311.939	-200.000	0.015	-0.075
-310.924	-200.000	-0.001	-0.150
-309.910	252.881	0.266	0.450
-308.895	335.077	0.040	0.076
-307.880	-200.000	0.088	0.423
-306.866	800.000	0.036	0.099
-305.851	-95.241	0.230	0.061
-304.837	-72.529	0.312	-0.114
-303.822	83.868	-0.077	-0.083
-302.807	-117.230	-0.284	-0.051
-301.793	800.000	0.007	0.028
-300.778	-29.592	-0.217	0.123
-299.764	-200.000	0.324	0.001
-298.749	-116.128	0.272	0.050
-297.735	120.574	-0.325	-0.400
-296.720	-82.819	0.139	0.045
-295.705	339.913	0.085	0.164
-294.691	170.018	-0.141	-0.200
-293.676	561.084	-0.019	0.046
-292.662	199.538	-0.130	-0.198
-291.647	-200.000	-0.004	0.032
-290.632	800.000	0.053	0.184
-289.618	-200.000	-0.013	0.172
-288.603	492.343	0.126	-0.286
-287.589	54.907	-0.092	0.088
-286.574	60.149	-0.222	0.217
-285.559	294.009	-0.144	0.261
-284.545	-65.641	-0.169	-0.067
-283.530	-11.070	0.264	-0.173
-282.516	-26.168	-0.300	0.174
-281.501	82.069	-0.220	0.236
-280.486	40.241	0.238	0.212
-279.472	89.313	0.031	-0.034
-278.457	-200.000	-0.030	0.189
-277.443	700.016	-0.013	-0.035
-276.428	202.845	0.177	0.271
-275.413	-81.095	-0.254	-0.083
-274.399	-200.000	0.035	0.262
-273.384	-92.524	-0.139	-0.039
-272.370	800.000	0.042	0.167
-271.355	-200.000	0.018	0.284
-270.340	-104.995	-0.234	-0.053
-269.326	460.670	0.085	-0.187
-268.311	68.115	0.079	-0.080
-267.297	2.784	-0.087	-0.063
-266.282	-96.141	0.215	0.056
-265.267	-200.000	0.011	-0.100
-264.253	-130.143	0.410	-0.055
-263.238	-200.000	0.045	0.216
-262.224	800.000	-0.060	0.199
-261.209	-20.674	0.317	-0.192
-260.195	-200.000	-0.051	0.290
-259.180	-59.915	0.219	0.093
-258.165	179.127	-0.060	-0.088
-257.151	177.496	0.129	0.185
-256.136	-73.710	0.104	0.037
-255.122	-58.075	0.515	-0.222
-254.107	166.919	-0.119	0.167
-253.092	85.433	0.262	0.285
-252.078	161.429	-0.187	0.258
-251.063	189.621	0.046	-0.069
-250.049	368.585	0.162	0.324
-249.034	30.597	-0.192	0.162
-248.019	60.436	0.107	-0.104
-247.005	-107.562	-0.317	-0.069
-245.990	262.057	-0.079	0.135
-244.976	800.000	0.124	-0.361
-243.961	-120.652	0.100	0.017
-242.946	-3.307	-0.075	-0.052
-241.932	-126.489	-0.208	-0.031
-240.917	-200.000	-0.021	-0.154
-239.903	598.870	0.022	-0.055
-238.888	-155.436	-0.077	-0.005
-237.873	78.560	0.201	-0.212
-236.859	-113.005	0.137	-0.027
-235.844	-95.332	-0.035	-0.009
-234.830	24.983	0.216	0.177
-233.815	-28.647	-0.383	-0.218
-232.800	-200.000	0.024	0.246
-231.786	17.826	0.050	-0.039
-230.771	10.272	-0.191	-0.143
-229.757	6.676	-0.122	-0.090
-228.742	-80.625	0.162	0.053
-227.727	74.063	-0.153	0.158
-226.713	800.000	0.093	0.399
-225.698	-33.454	0.153	0.084
-224.684	737.737	0.113	-0.299
-223.669	129.133	-0.284	0.359
-222.655	-81.019	0.277	0.091
-221.640	-29.003	-0.143	-0.081
-220.625	11.218	-0.167	0.126
-219.611	-53.909	-0.154	0.069
-218.596	-35.763	0.282	-0.151
-217.582	-59.698	0.071	0.030
-216.567	-200.000	-0.014	-0.159
-215.552	-30.529	0.212	-0.119
-214.538	-192.250	-0.172	0.002
-213.523	-200.000	0.082	-0.467
-212.509	53.132	-0.216	-0.204
-211.494	800.000	0.112	0.380
-210.479	361.909	0.153	-0.302
-209.465	-83.005	-0.121	-0.038
-208.450	-200.000	-0.020	-0.226
-207.436	137.417	0.238	0.307
-206.421	3.955	0.086	0.062
-205.406	-47.268	0.154	0.074
-204.392	120.133	-0.087	-0.107
-203.377	-37.514	0.195	0.103
-202.363	204.163	0.040	0.062
-201.348	358.569	-0.066	0.131
-200.333	-81.089	-0.246	0.080
-199.319	-132.222	-0.091	0.012
-198.304	-200.000	-0.008	0.322
-197.290	397.644	-0.235	0.485
-196.275	39.154	0.116	-0.102
-195.260	60.704	-0.336	-0.329
-194.246	-200.000	-0.020	0.272
-193.231	-63.718	-0.152	0.062
-192.217	-200.000	0.071	0.442
-191.202	-74.279	0.171	-0.061
-190.187	-4.489	0.059	-0.040
-189.173	5.639	-0.122	0.089
-188.158	-144.921	-0.166	-0.015
-187.144	-154.288	0.547	-0.036
-186.129	26.011	-0.185	-0.152
-185.114	-28.353	0.328	0.187
-184.100	292.662	0.118	-0.212
-183.085	-125.064	-0.074	-0.011
-182.071	263.968	-0.217	-0.372
-181.056	57.626	0.154	0.149
-180.042	23.069	0.117	0.095
-179.027	185.181	-0.076	-0.112
-178.012	-107.399	-0.100	-0.022
-176.998	157.434	-0.259	-0.353
-175.983	-117.664	-0.261	-0.046
-174.969	56.176	-0.171	0.164
-173.954	-200.000	0.022	0.189
-172.939	-85.821	0.408	-0.125
-171.925	463.180	-0.047	-0.103
-170.910	641.704	0.064	0.161
-169.896	-86.560	0.265	-0.080
-168.881	-37.101	-0.130	0.069
-167.866	625.376	-0.019	0.048
-166.852	18.279	0.155	0.122
-165.837	-76.207	0.202	0.070
-164.823	102.915	-0.147	0.170
-163.808	-200.000	-0.022	0.286
-162.793	123.501	-0.129	-0.160
-161.779	-88.672	0.162	0.047
-160.764	-65.426	-0.223	-0.088
-159.750	-39.191	0.096	0.050
-158.735	356.692	-0.086	-0.168
-157.720	-200.000	0.058	0.259
-156.706	192.679	-0.136	0.203
-155.691	-55.359	0.224	-0.099
-154.677	-41.157	0.160	0.081
-153.662	-33.386	-0.165	-0.090
-152.647	174.064	-0.128	-0.182
-151.633	-9.631	-0.225	-0.148
-150.618	0.462	-0.055	-0.039
-149.604	221.185	-0.148	-0.235
-148.589	-200.000	-0.002	-0.045
-147.574	54.127	-0.136	-0.129
-146.560	-56.538	-0.189	-0.083
-145.545	-149.069	0.174	-0.014
-144.531	173.964	0.087	-0.123
-143.516	458.589	0.021	-0.046
-142.502	5.141	0.052	-0.038
-141.487	-179.646	0.297	0.006
-140.472	-200.000	0.033	-0.228
-139.458	-200.000	0.000	0.089
-138.443	-70.508	0.336	0.125
-137.429	34.853	0.285	0.246
-136.414	-152.576	0.233	-0.016
-135.399	623.694	-0.059	0.146
-134.385	800.000	0.086	0.262
-133.370	-188.900	0.126	-0.002
-132.356	-10.880	0.251	-0.163
-131.341	-57.610	0.245	-0.106
-130.326	-3.894	0.130	-0.089
-129.312	54.450	-0.152	-0.144
-128.297	-31.089	0.120	0.067
-127.283	-37.608	0.052	0.027
-126.268	-34.411	-0.172	0.093
-125.253	-200.000	-0.274	0.001
-124.239	-44.785	0.043	0.021
-123.224	800.000	0.085	0.266
-122.210	-200.000	0.001	0.202
-121.195	618.747	0.051	0.126
-120.180	253.821	0.030	-0.050
