DTS Sentinel unit serial number:	SN413079Multiplexer serial number:	ORYXHardware model number:	OX4-SRSoftware version number:	ORYX F/W v4.00 Oryx Data Collector v3.7.2.0data status	okinstallation	princeton_trtdifferential loss correction	single-endedforward channel	channel 2reverse channel	N/Adate	2019/09/11time	18:01:11forward acquisition time	60.00reverse acquisition time	0.00gamma	496.2192k internal	0.2284k external	0.2284temperature offset calibration	1.0023default loss term (dB/km)	0.3790temperature slope calibration	1.0000multiplexer offset coefficient	1.0000multiplexer slope coefficient	1.0000fibre end	0.00T internal ref (°C)	44.02T ext. ref 1 (°C)	1.13T ext. ref 2 (°C)	38.87length (m)	temperature (°C)	Stokes	anti-Stokes-747.200	-108.997	0.251	0.055
-746.185	-95.812	0.263	0.072
-745.171	24.937	0.129	0.110
-744.156	380.731	0.099	0.209
-743.142	166.157	-0.303	0.441
-742.127	9.501	-0.170	0.133
-741.112	587.898	-0.060	0.152
-740.098	800.000	-0.075	0.277
-739.083	13.059	-0.308	0.245
-738.069	86.822	-0.306	0.346
-737.054	-6.864	0.128	0.090
-736.039	-83.691	0.377	0.124
-735.025	-200.000	-0.028	0.280
-734.010	-200.000	0.027	-0.627
-732.996	-51.430	-0.207	0.099
-731.981	-141.243	-0.268	-0.028
-730.966	800.000	0.023	0.080
-729.952	746.636	-0.105	-0.290
-728.937	-200.000	-0.028	0.200
-727.923	800.000	0.079	-0.296
-726.908	34.071	0.128	-0.114
-725.894	50.621	-0.050	-0.049
-724.879	-200.000	-0.007	-0.198
-723.864	-200.000	-0.021	-0.237
-722.850	316.213	-0.058	-0.113
-721.835	800.000	-0.137	-0.411
-720.821	-138.905	-0.483	0.054
-719.806	-74.462	-0.273	0.101
-718.791	424.695	0.144	-0.318
-717.777	378.551	0.056	-0.117
-716.762	-122.573	-0.396	-0.066
-715.748	-181.777	0.113	0.002
-714.733	72.326	0.118	-0.127
-713.718	-85.162	-0.304	0.098
-712.704	-18.720	0.066	-0.042
-711.689	448.844	0.125	-0.284
-710.675	-200.000	-0.032	-0.229
-709.660	-151.132	0.212	-0.016
-708.645	194.445	0.137	-0.214
-707.631	-76.099	-0.257	-0.093
-706.616	176.077	0.132	0.197
-705.602	-132.249	-0.211	0.028
-704.587	613.473	-0.059	0.150
-703.572	465.715	-0.149	0.342
-702.558	58.858	-0.130	0.131
-701.543	800.000	0.077	0.292
-700.529	-12.133	-0.160	0.107
-699.514	21.543	0.225	-0.187
-698.499	-66.401	0.015	0.006
-697.485	1.679	-0.295	-0.218
-696.470	-123.946	-0.128	0.021
-695.456	800.000	0.049	0.216
-694.441	-22.516	-0.294	-0.182
-693.426	210.214	-0.184	-0.296
-692.412	-88.407	0.099	-0.030
-691.397	-42.262	-0.098	-0.051
-690.383	-142.281	-0.344	-0.035
-689.368	57.527	-0.250	0.251
-688.354	800.000	-0.113	-0.407
-687.339	426.788	0.078	0.172
-686.324	800.000	-0.078	-0.276
-685.310	87.771	0.145	-0.165
-684.295	75.208	-0.289	0.313
-683.281	-128.131	-0.323	-0.047
-682.266	29.742	0.157	0.137
-681.251	-85.471	-0.287	-0.092
-680.237	-200.000	-0.003	-0.189
-679.222	-165.634	0.501	0.022
-678.208	597.455	0.031	0.078
-677.193	140.010	0.149	-0.201
-676.178	206.529	0.136	-0.216
-675.164	800.000	0.052	0.169
-674.149	-56.280	0.365	-0.166
-673.135	-104.975	0.088	-0.021
-672.120	800.000	0.048	0.174
-671.105	-37.485	-0.055	0.030
-670.091	-200.000	0.084	-0.414
-669.076	23.789	-0.274	-0.231
-668.062	755.851	0.070	-0.195
-667.047	148.995	0.140	-0.193
-666.032	-65.644	-0.276	-0.113
-665.018	-105.834	0.239	-0.055
-664.003	-200.000	0.008	-0.148
-662.989	407.620	0.097	-0.210
-661.974	-164.136	-0.270	-0.013
-660.959	-200.000	0.001	0.013
-659.945	-150.011	-0.156	0.012
-658.930	-19.845	-0.109	0.069
-657.916	-200.000	0.009	-0.054
-656.901	16.571	0.268	-0.217
-655.886	-56.459	-0.193	0.088
-654.872	62.439	0.118	-0.121
-653.857	77.246	-0.180	0.196
-652.843	-59.301	-0.234	-0.103
-651.828	331.681	0.071	0.141
-650.814	-69.901	0.324	0.126
-649.799	800.000	0.028	-0.102
-648.784	109.228	-0.130	0.159
-647.770	-137.867	0.171	-0.020
-646.755	-143.244	-0.194	-0.019
-645.741	-169.796	-0.301	0.011
-644.726	788.199	0.055	-0.154
-643.711	12.946	-0.320	0.253
-642.697	-2.169	-0.061	-0.044
-641.682	97.655	-0.036	-0.042
-640.668	-188.189	-0.136	-0.002
-639.653	-61.742	-0.311	-0.133
-638.638	800.000	-0.042	0.150
-637.624	125.616	0.129	0.167
-636.609	-177.946	0.285	-0.007
-635.595	-200.000	-0.007	-0.169
-634.580	-93.464	-0.135	0.038
-633.565	699.809	0.069	-0.186
-632.551	-88.192	-0.129	0.040
-631.536	-200.000	0.003	-0.114
-630.522	83.602	-0.271	0.303
-629.507	-43.512	0.272	0.140
-628.492	201.689	0.040	-0.064
-627.478	108.754	-0.072	0.088
-626.463	8.127	-0.129	0.099
-625.449	343.038	0.111	0.222
-624.434	-70.894	0.043	-0.017
-623.419	-68.361	-0.219	0.087
-622.405	-143.920	-0.149	0.014
-621.390	800.000	0.069	0.250
-620.376	800.000	0.055	0.170
-619.361	183.141	0.120	0.180
-618.346	-67.294	0.108	-0.044
-617.332	21.309	0.215	0.179
-616.317	-45.279	-0.163	-0.083
-615.303	579.289	-0.099	0.247
-614.288	-35.050	0.182	0.101
-613.273	-70.816	-0.192	-0.074
-612.259	701.131	-0.145	-0.389
-611.244	-88.297	0.065	-0.020
-610.230	104.709	-0.182	-0.219
-609.215	-57.209	-0.163	-0.073
-608.201	-200.000	-0.017	-0.075
-607.186	-90.404	-0.227	0.067
-606.171	-200.000	0.020	0.111
-605.157	-200.000	0.023	0.155
-604.142	-200.000	-0.050	-0.288
-603.128	-200.000	-0.050	-0.000
-602.113	-105.314	-0.375	-0.087
-601.098	-200.000	0.055	0.313
-600.084	-172.217	0.217	-0.007
-599.069	21.096	-0.101	-0.084
-598.055	7.183	-0.156	0.119
-597.040	-132.409	-0.201	0.027
-596.025	-160.022	0.202	0.011
-595.011	2.079	-0.086	0.064
-593.996	132.051	-0.114	-0.150
-592.982	-151.688	-0.501	-0.038
-591.967	-69.891	0.074	0.029
-590.952	7.051	-0.199	-0.151
-589.938	800.000	0.032	-0.095
-588.923	-200.000	-0.001	-0.270
-587.909	36.931	-0.122	0.110
-586.894	95.814	-0.096	-0.112
-585.879	588.791	0.053	0.134
-584.865	-161.278	0.146	-0.008
-583.850	-200.000	-0.044	0.216
-582.836	191.991	0.069	-0.106
-581.821	800.000	-0.049	0.186
-580.806	800.000	-0.017	0.072
-579.792	-200.000	-0.074	-0.347
-578.777	-200.000	-0.025	-0.174
-577.763	800.000	-0.045	0.174
-576.748	120.073	0.131	0.166
-575.733	-42.023	0.032	-0.017
-574.719	-200.000	0.017	0.216
-573.704	-200.000	-0.004	0.192
-572.690	-59.573	-0.208	-0.091
-571.675	684.314	0.100	-0.267
-570.661	-56.837	-0.037	-0.017
-569.646	144.835	-0.060	-0.082
-568.631	-200.000	-0.011	0.295
-567.617	150.561	0.193	-0.267
-566.602	24.620	0.236	-0.199
-565.588	-200.000	-0.019	0.212
-564.573	-130.818	-0.078	0.011
-563.558	-200.000	-0.004	-0.222
-562.544	-200.000	0.039	0.214
-561.529	-163.743	0.102	-0.005
-560.515	-76.431	0.277	-0.099
-559.500	-200.000	0.018	-0.094
-558.485	800.000	-0.082	0.366
-557.471	47.271	0.230	0.218
-556.456	-200.000	-0.034	-0.168
-555.442	-200.000	-0.036	0.300
-554.427	-1.093	0.070	0.051
-553.412	217.663	-0.151	0.245
-552.398	-60.205	-0.165	0.072
-551.383	-57.381	0.141	-0.063
-550.369	54.604	-0.086	0.085
-549.354	-185.615	-0.461	-0.007
-548.339	-82.007	0.231	-0.077
-547.325	-200.000	-0.002	-0.096
-546.310	-19.525	0.224	-0.141
-545.296	-45.846	-0.467	0.235
-544.281	118.832	0.123	-0.155
-543.266	-200.000	0.044	0.215
-542.252	-119.677	0.061	-0.011
-541.237	145.540	-0.148	-0.201
-540.223	-22.235	-0.080	0.050
-539.208	-172.525	0.248	-0.008
-538.193	-200.000	0.027	0.198
-537.179	-200.000	0.017	0.167
-536.164	-200.000	-0.016	-0.151
-535.150	-118.392	-0.335	-0.060
-534.135	71.919	0.163	0.173
-533.121	-200.000	-0.045	0.211
-532.106	-84.156	-0.379	0.123
-531.091	55.477	-0.282	-0.278
-530.077	-12.539	0.231	0.153
-529.062	320.254	0.095	0.184
-528.048	-200.000	-0.040	0.253
-527.033	2.105	0.154	-0.113
-526.018	69.183	0.030	0.032
-525.004	-146.958	-0.195	-0.017
-523.989	-200.000	-0.023	-0.334
-522.975	-117.066	0.257	0.048
-521.960	800.000	-0.038	0.130
-520.945	-200.000	0.003	0.048
-519.931	-200.000	-0.050	-0.260
-518.916	-125.018	0.161	0.025
-517.902	-47.995	-0.282	0.139
-516.887	21.770	0.140	-0.116
-515.872	-94.628	0.028	0.008
-514.858	-167.431	0.058	-0.002
-513.843	494.905	0.045	-0.105
-512.829	-200.000	0.018	0.102
-511.814	-200.000	-0.020	-0.251
-510.799	-127.962	-0.089	-0.013
-509.785	-200.000	0.001	-0.031
-508.770	-65.441	0.339	0.139
-507.756	-144.592	-0.205	-0.019
-506.741	33.065	-0.206	-0.181
-505.726	-200.000	0.006	0.065
-504.712	-200.000	-0.033	0.181
-503.697	123.436	0.061	-0.078
-502.683	800.000	0.068	0.254
-501.668	343.887	0.029	-0.058
-500.653	-86.511	-0.464	0.145
-499.639	-47.071	0.176	0.088
-498.624	-75.518	-0.033	-0.012
-497.610	57.188	0.192	-0.191
-496.595	800.000	0.050	-0.177
-495.581	-87.952	0.187	-0.057
-494.566	-200.000	0.015	0.135
-493.551	630.385	0.066	0.169
-492.537	-26.120	-0.055	0.033
-491.522	-200.000	-0.001	-0.211
-490.508	-170.671	-0.185	-0.007
-489.493	-171.414	0.254	-0.009
-488.478	-200.000	0.074	-0.347
-487.464	-24.031	0.025	-0.015
-486.449	-105.695	-0.432	-0.099
-485.435	800.000	0.083	0.306
-484.420	378.277	-0.083	-0.172
-483.405	40.959	-0.186	0.170
-482.391	800.000	0.097	0.285
-481.376	217.658	-0.185	-0.301
-480.362	-80.032	-0.302	-0.103
-479.347	-200.000	-0.009	-0.120
-478.332	-49.532	0.194	-0.094
-477.318	129.144	0.120	-0.156
-476.303	-142.982	0.146	-0.014
-475.289	-5.631	-0.272	0.189
-474.274	-82.465	0.182	-0.060
-473.259	410.954	-0.123	-0.266
-472.245	56.241	0.221	0.218
-471.230	-71.536	0.275	0.105
-470.216	9.131	-0.214	-0.164
-469.201	-77.605	0.198	-0.070
-468.186	-200.000	-0.002	-0.106
-467.172	55.669	-0.171	0.168
-466.157	-200.000	-0.004	0.039
-465.143	-85.819	-0.049	0.016
-464.128	141.224	-0.070	0.095
-463.113	-200.000	0.003	0.172
-462.099	-58.008	0.224	0.099
-461.084	-104.302	-0.038	0.009
-460.070	133.630	-0.313	0.411
-459.055	-200.000	-0.009	-0.061
-458.040	30.160	-0.119	-0.103
-457.026	-82.017	0.396	-0.132
-456.011	270.923	0.058	-0.104
-454.997	-200.000	0.035	0.434
-453.982	19.237	-0.160	-0.131
-452.968	-102.759	0.201	-0.049
-451.953	-145.801	0.115	-0.010
-450.938	-126.155	-0.166	-0.025
-449.924	74.430	0.412	-0.440
-448.909	800.000	0.060	0.224
-447.895	-103.231	0.341	-0.082
-446.880	800.000	0.045	-0.129
-445.865	14.994	-0.074	-0.059
-444.851	135.770	0.145	0.192
-443.836	588.051	-0.146	0.366
-442.822	800.000	-0.149	-0.419
-441.807	234.394	0.247	-0.413
-440.792	37.089	0.267	0.240
-439.778	-110.687	0.358	0.075
-438.763	-185.578	-0.152	0.002
-437.749	-91.861	-0.093	0.027
-436.734	800.000	0.003	-0.010
-435.719	79.182	0.200	0.218
-434.705	800.000	-0.038	0.126
-433.690	800.000	0.019	0.064
-432.676	-200.000	-0.023	0.121
-431.661	437.805	0.125	-0.276
-430.646	291.583	0.127	-0.235
-429.632	-61.139	0.245	-0.105
-428.617	-200.000	0.016	-0.285
-427.603	-135.664	-0.383	0.046
-426.588	-109.730	-0.085	0.018
-425.573	-81.875	0.199	-0.066
-424.559	154.027	0.085	-0.118
-423.544	-200.000	-0.018	-0.421
-422.530	-150.783	-0.396	0.031
-421.515	72.209	0.041	-0.044
-420.500	-163.943	0.227	-0.011
-419.486	-79.904	0.646	0.220
-418.471	-200.000	0.014	0.431
-417.457	52.334	-0.148	0.144
-416.442	406.804	-0.055	0.117
-415.428	-41.125	-0.378	0.198
-414.413	247.353	0.200	-0.343
-413.398	-68.934	0.072	0.028
-412.384	486.454	-0.089	-0.206
-411.369	-200.000	-0.027	-0.234
-410.355	-51.405	0.394	-0.187
-409.340	800.000	-0.049	0.158
-408.325	-167.159	-0.125	0.005
-407.311	-200.000	0.012	-0.191
-406.296	318.521	-0.088	-0.169
-405.282	169.569	-0.141	-0.204
-404.267	800.000	0.058	0.166
-403.252	200.184	-0.055	0.086
-402.238	11.835	0.157	0.123
-401.223	-104.813	0.344	-0.080
-400.209	86.703	-0.093	-0.104
-399.194	68.738	-0.153	0.159
-398.179	-129.710	-0.134	-0.019
-397.165	-200.000	0.008	0.253
-396.150	-200.000	0.007	-0.155
-395.136	800.000	-0.056	0.165
-394.121	7.952	-0.146	-0.111
-393.106	-200.000	-0.076	-0.340
-392.092	-66.717	0.148	-0.059
-391.077	-77.211	-0.254	0.090
-390.063	148.883	-0.180	-0.247
-389.048	30.167	-0.017	0.015
-388.033	-89.292	-0.131	-0.039
-387.019	-200.000	0.016	-0.276
-386.004	310.318	-0.175	0.332
-384.990	-190.524	0.149	0.002
-383.975	73.233	0.196	-0.207
-382.960	162.159	-0.218	0.310
-381.946	800.000	-0.040	-0.166
-380.931	800.000	-0.044	0.193
-379.917	107.840	0.059	-0.071
-378.902	713.493	0.021	0.056
-377.888	747.501	-0.033	-0.091
-376.873	-200.000	-0.016	0.290
-375.858	-65.394	-0.085	-0.035
-374.844	109.102	-0.135	-0.164
-373.829	-47.500	-0.124	-0.061
-372.815	-50.278	0.213	-0.102
-371.800	-200.000	0.016	-0.112
-370.785	135.867	0.030	-0.040
-369.771	-200.000	-0.005	-0.078
-368.756	-97.438	0.083	-0.022
-367.742	-60.411	-0.142	0.061
-366.727	252.318	-0.181	0.312
-365.712	12.650	-0.010	0.008
-364.698	-160.219	-0.054	0.003
-363.683	-72.691	-0.372	0.139
-362.669	162.332	-0.148	0.210
-361.654	225.423	0.191	0.313
-360.639	323.533	0.118	-0.227
-359.625	220.495	-0.206	-0.334
-358.610	9.557	0.503	-0.386
-357.596	394.031	0.144	0.302
-356.581	-27.746	-0.263	-0.154
-355.566	259.459	-0.092	-0.160
-354.552	-12.863	0.220	-0.145
-353.537	-200.000	-0.018	-0.101
-352.523	17.557	0.168	-0.135
-351.508	134.371	0.124	-0.162
-350.493	-106.467	0.190	0.043
-349.479	381.128	-0.096	0.200
-348.464	800.000	0.026	0.075
-347.450	53.129	0.081	0.078
-346.435	-200.000	-0.057	0.272
-345.420	490.219	0.211	0.488
-344.406	130.708	-0.054	0.070
-343.391	-93.165	0.236	-0.066
-342.377	-55.134	-0.101	0.046
-341.362	-89.709	-0.143	0.042
-340.348	-200.000	0.019	0.327
-339.333	-83.744	-0.193	-0.062
-338.318	800.000	-0.109	-0.403
-337.304	134.081	-0.085	-0.111
-336.289	116.463	-0.081	0.101
-335.275	-200.000	-0.016	-0.116
-334.260	-38.158	-0.138	-0.074
-333.245	-200.000	-0.065	0.343
-332.231	192.843	0.189	-0.288
-331.216	-58.274	-0.194	0.085
-330.202	213.451	0.104	-0.166
-329.187	487.440	0.060	0.139
-328.172	-200.000	-0.029	-0.222
-327.158	-41.341	-0.215	0.112
-326.143	84.608	-0.122	0.135
-325.129	-98.411	0.213	0.055
-324.114	-62.403	-0.121	-0.051
-323.099	-139.431	-0.214	-0.023
-322.085	-200.000	-0.019	0.135
-321.070	264.276	0.074	0.131
-320.056	160.598	-0.198	-0.279
-319.041	-154.516	0.241	0.016
-318.026	-200.000	0.064	0.428
-317.012	-200.000	-0.001	-0.029
-315.997	-58.799	-0.104	0.046
-314.983	19.781	0.059	0.048
-313.968	-48.654	-0.205	-0.099
-312.953	-15.906	0.103	-0.066
-311.939	-104.687	-0.112	0.026
-310.924	-120.737	-0.487	0.083
-309.910	-63.832	0.137	0.057
-308.895	415.498	0.110	0.236
-307.880	-103.577	-0.200	0.047
-306.866	384.677	-0.172	-0.358
-305.851	87.240	-0.083	-0.093
-304.837	-3.099	-0.180	0.126
-303.822	-143.356	-0.190	0.018
-302.807	-200.000	-0.045	-0.278
-301.793	111.056	-0.024	0.030
-300.778	70.081	-0.217	-0.226
-299.764	481.502	-0.032	0.073
-298.749	800.000	-0.041	0.144
-297.735	82.684	-0.133	-0.145
-296.720	9.385	0.040	0.031
-295.705	-77.519	0.071	0.025
-294.691	-68.684	-0.090	0.035
-293.676	-200.000	-0.042	-0.259
-292.662	800.000	-0.077	-0.272
-291.647	-194.409	0.257	0.002
-290.632	800.000	-0.067	-0.252
-289.618	493.041	-0.052	0.120
-288.603	-200.000	0.007	0.258
-287.589	-4.005	-0.094	-0.066
-286.574	88.546	0.013	0.015
-285.559	800.000	0.041	0.131
-284.545	-47.003	0.207	-0.102
-283.530	38.795	-0.118	-0.106
-282.516	-122.960	0.281	-0.046
-281.501	57.246	0.172	-0.170
-280.486	-87.265	-0.168	0.052
-279.472	1.063	-0.105	0.076
-278.457	-134.544	-0.165	-0.020
-277.443	-151.027	-0.279	0.021
-276.428	-139.386	0.228	-0.025
-275.413	46.245	-0.124	-0.116
-274.399	406.585	0.095	0.202
-273.384	-169.986	-0.132	0.005
-272.370	-200.000	0.024	-0.199
-271.355	-94.415	-0.203	-0.056
-270.340	-77.053	0.125	-0.044
-269.326	-200.000	0.005	-0.098
-268.311	36.382	-0.029	0.026
-267.297	-15.127	0.247	-0.159
-266.282	147.910	-0.105	0.142
-265.267	-91.140	0.151	-0.044
-264.253	70.183	-0.106	-0.111
-263.238	506.600	-0.079	0.184
-262.224	-200.000	0.006	0.322
-261.209	-94.742	0.023	0.006
-260.195	109.546	-0.245	-0.295
-259.180	-70.163	-0.252	0.096
-258.165	-150.014	0.076	-0.006
-257.151	231.205	-0.070	-0.116
-256.136	-5.968	0.183	-0.126
-255.122	-200.000	-0.002	-0.027
-254.107	-11.118	0.399	0.265
-253.092	-41.443	-0.113	-0.058
-252.078	-41.309	-0.253	-0.131
-251.063	-15.114	0.238	-0.154
-250.049	-66.282	0.274	-0.110
-249.034	270.743	0.140	-0.248
-248.019	800.000	0.043	0.131
-247.005	-200.000	0.025	-0.448
-245.990	242.029	0.072	0.121
-244.976	-146.385	-0.120	0.011
-243.961	-106.625	-0.315	0.071
-242.946	-200.000	-0.017	0.155
-241.932	-200.000	0.015	0.067
-240.917	-200.000	0.035	0.172
-239.903	-96.038	0.238	-0.064
-238.888	146.328	-0.207	0.280
-237.873	138.381	-0.117	-0.155
-236.859	-64.741	0.107	0.044
-235.844	60.285	0.087	0.087
-234.830	-200.000	0.020	-0.315
-233.815	-36.451	0.522	0.283
-232.800	-111.747	0.283	0.058
-231.786	335.977	-0.043	-0.084
-230.771	591.695	0.145	0.360
-229.757	544.448	-0.074	0.177
-228.742	178.780	-0.110	0.162
-227.727	800.000	0.071	0.256
-226.713	159.026	0.290	0.406
-225.698	-200.000	-0.003	-0.128
-224.684	168.645	-0.102	0.146
-223.669	-200.000	0.026	-0.163
-222.655	-172.249	0.133	-0.004
-221.640	-200.000	0.030	-0.149
-220.625	-80.754	0.134	0.045
-219.611	-66.492	0.189	-0.076
-218.596	-58.113	0.382	-0.168
-217.582	-95.863	-0.319	-0.086
-216.567	-36.163	-0.140	0.076
-215.552	-90.816	0.256	-0.074
-214.538	-9.935	0.113	0.075
-213.523	59.504	-0.066	-0.065
-212.509	-200.000	-0.101	-0.000
-211.494	60.535	0.208	0.207
-210.479	-46.642	-0.133	-0.066
-209.465	-25.936	-0.281	0.166
-208.450	66.497	0.177	0.181
-207.436	299.405	0.071	0.131
-206.421	-200.000	0.256	-0.001
-205.406	225.727	-0.025	-0.041
-204.392	-200.000	0.008	0.134
-203.377	800.000	0.087	-0.255
-202.363	248.847	0.042	-0.071
-201.348	-75.140	0.199	0.072
-200.333	-23.481	-0.152	0.092
-199.319	4.261	-0.037	0.027
-198.304	-200.000	0.034	-0.248
-197.290	789.521	0.072	-0.199
-196.275	52.759	-0.211	-0.203
-195.260	16.847	-0.038	-0.030
-194.246	-52.912	0.126	0.058
-193.231	-44.338	0.241	0.121
-192.217	-96.036	0.307	-0.082
-191.202	-58.231	-0.124	0.054
-190.187	74.138	-0.055	-0.058
-189.173	347.283	-0.025	-0.050
-188.158	132.417	-0.229	-0.297
-187.144	519.661	-0.101	-0.237
-186.129	54.036	0.269	0.260
-185.114	456.340	-0.041	-0.091
-184.100	424.640	0.064	-0.137
-183.085	800.000	0.034	-0.104
-182.071	13.786	0.152	0.119
-181.056	55.324	-0.205	0.200
-180.042	-40.633	0.247	0.129
-179.027	53.004	-0.194	-0.187
-178.012	111.623	-0.081	0.098
-176.998	-104.169	0.097	-0.023
-175.983	800.000	0.097	-0.279
-174.969	-75.988	0.208	0.074
-173.954	-200.000	-0.001	0.192
-172.939	197.231	-0.160	-0.245
-171.925	-26.282	-0.092	-0.054
-170.910	-131.675	0.324	-0.043
-169.896	-49.938	0.287	-0.137
-168.881	-0.017	0.220	-0.157
-167.866	-86.944	0.211	-0.064
-166.852	385.283	-0.110	-0.228
-165.837	399.314	0.135	0.285
-164.823	800.000	-0.021	0.094
-163.808	-69.383	0.367	0.141
-162.793	409.783	-0.051	-0.108
-161.779	232.770	0.045	-0.074
-160.764	-36.353	0.246	-0.133
-159.750	772.725	-0.071	-0.193
-158.735	-200.000	0.008	0.063
-157.720	-27.556	-0.162	-0.095
-156.706	-107.639	-0.397	0.087
-155.691	464.585	0.056	0.126
-154.677	103.573	0.289	0.340
-153.662	-53.819	0.209	0.096
-152.647	-1.778	0.202	-0.143
-151.633	-200.000	-0.014	0.221
-150.618	800.000	-0.028	-0.088
-149.604	-131.310	-0.468	0.062
-148.589	800.000	0.044	0.151
-147.574	-148.580	-0.270	-0.022
-146.560	21.132	0.242	0.197
-145.545	-116.321	0.524	0.097
-144.531	20.378	0.079	-0.064
-143.516	-134.857	-0.240	-0.029
-142.502	214.803	0.044	0.070
-141.487	77.161	-0.090	-0.096
-140.472	-40.685	-0.148	0.077
-139.458	337.330	-0.104	0.203
-138.443	92.843	-0.168	0.190
-137.429	-200.000	-0.040	0.195
-136.414	-125.660	-0.160	0.024
-135.399	800.000	-0.089	0.285
-134.385	49.895	0.208	0.197
-133.370	331.600	-0.075	0.146
-132.356	-94.114	0.191	0.052
-131.341	200.816	0.043	0.066
-130.326	-106.526	-0.303	-0.068
-129.312	-79.749	0.315	-0.106
-128.297	-93.773	0.051	0.014
-127.283	207.335	0.085	0.133
-126.268	124.983	-0.101	0.128
-125.253	-200.000	-0.001	-0.071
-124.239	-200.000	0.086	-0.450
-123.224	57.666	-0.072	0.071
-122.210	23.222	-0.164	-0.135
