DTS Sentinel unit serial number:	SN413079Multiplexer serial number:	ORYXHardware model number:	OX4-SRSoftware version number:	ORYX F/W v4.00 Oryx Data Collector v3.7.2.0data status	okinstallation	princeton_trtdifferential loss correction	single-endedforward channel	channel 2reverse channel	N/Adate	2019/09/17time	02:07:35forward acquisition time	60.00reverse acquisition time	0.00gamma	496.2192k internal	0.2328k external	0.2328temperature offset calibration	0.9977default loss term (dB/km)	0.3790temperature slope calibration	1.0000multiplexer offset coefficient	1.0000multiplexer slope coefficient	1.0000fibre end	0.00T internal ref (°C)	29.69T ext. ref 1 (°C)	0.12T ext. ref 2 (°C)	24.59length (m)	temperature (°C)	Stokes	anti-Stokes-747.200	10.040	0.100	-0.077
-746.185	70.018	0.261	0.271
-745.171	206.121	0.075	-0.118
-744.156	-95.855	-0.056	-0.015
-743.142	-110.679	0.255	0.053
-742.127	178.701	-0.069	-0.101
-741.112	206.714	0.113	0.177
-740.098	87.863	-0.224	0.250
-739.083	-142.617	-0.135	-0.013
-738.069	282.106	-0.034	0.062
-737.054	-200.000	-0.020	0.138
-736.039	79.590	-0.287	-0.311
-735.025	-200.000	0.022	0.140
-734.010	-48.620	-0.190	-0.092
-732.996	185.001	-0.132	0.197
-731.981	-200.000	-0.056	0.360
-730.966	-18.509	-0.353	0.222
-729.952	-73.617	-0.178	-0.065
-728.937	175.802	-0.192	0.280
-727.923	-82.174	-0.253	0.083
-726.908	234.154	-0.083	-0.138
-725.894	-174.311	-0.412	0.012
-724.879	-9.244	0.032	0.021
-723.864	-47.139	0.095	-0.047
-722.850	-94.107	-0.077	0.021
-721.835	-200.000	-0.007	-0.216
-720.821	-200.000	-0.035	-0.176
-719.806	-77.851	0.174	-0.061
-718.791	432.789	-0.083	0.182
-717.777	-85.603	-0.215	-0.067
-716.762	71.368	-0.198	0.206
-715.748	-160.850	0.254	-0.014
-714.733	-68.066	-0.348	-0.137
-713.718	-3.904	0.265	-0.185
-712.704	77.801	-0.077	-0.082
-711.689	-131.937	0.042	0.005
-710.675	800.000	-0.093	0.353
-709.660	800.000	0.139	-0.471
-708.645	-200.000	-0.002	0.234
-707.631	138.069	0.130	-0.172
-706.616	247.838	-0.053	-0.089
-705.602	800.000	-0.070	-0.258
-704.587	-129.313	0.269	-0.038
-703.572	28.745	-0.119	0.101
-702.558	61.754	-0.114	-0.114
-701.543	-200.000	0.011	-0.089
-700.529	800.000	-0.042	-0.166
-699.514	-39.559	0.233	0.123
-698.499	222.677	0.184	-0.298
-697.485	143.079	-0.230	-0.308
-696.470	-11.010	-0.207	0.138
-695.456	-200.000	-0.008	0.063
-694.441	-200.000	0.004	0.185
-693.426	-200.000	-0.034	-0.394
-692.412	37.088	0.148	0.132
-691.397	-29.297	0.196	0.113
-690.383	151.139	-0.165	-0.226
-689.368	800.000	0.025	-0.106
-688.354	-200.000	-0.045	-0.253
-687.339	-92.432	0.125	-0.035
-686.324	-83.494	-0.099	-0.032
-685.310	-200.000	-0.046	-0.365
-684.295	-200.000	0.001	-0.097
-683.281	20.325	-0.097	0.079
-682.266	-200.000	0.000	0.089
-681.251	-119.312	-0.363	-0.063
-680.237	-200.000	0.063	0.291
-679.222	59.984	0.142	0.141
-678.208	86.700	-0.196	0.218
-677.193	85.436	-0.236	0.261
-676.178	168.992	-0.131	0.188
-675.164	110.906	-0.124	-0.150
-674.149	142.563	-0.066	-0.088
-673.135	116.945	0.144	-0.178
-672.120	-200.000	-0.036	-0.192
-671.105	3.776	0.262	-0.192
-670.091	-200.000	-0.009	0.290
-669.076	-22.357	-0.258	0.157
-668.062	-109.616	-0.144	0.030
-667.047	-30.845	0.302	0.171
-666.032	375.461	0.137	0.281
-665.018	-81.832	0.178	-0.059
-664.003	800.000	-0.032	0.134
-662.989	-64.954	-0.129	-0.052
-661.974	86.424	-0.204	-0.226
-660.959	-100.361	-0.277	0.069
-659.945	28.629	-0.201	0.171
-658.930	60.876	0.182	-0.181
-657.916	800.000	-0.117	-0.385
-656.901	127.030	-0.106	0.135
-655.886	293.504	0.102	-0.186
-654.872	800.000	0.103	-0.316
-653.857	82.455	-0.188	-0.205
-652.843	188.073	-0.070	0.105
-651.828	413.377	0.129	-0.275
-650.814	-200.000	-0.029	-0.162
-649.799	-83.246	-0.138	0.045
-648.784	-200.000	-0.011	0.107
-647.770	-81.505	-0.293	0.097
-646.755	96.409	0.122	-0.140
-645.741	-81.560	-0.403	0.133
-644.726	-172.254	0.392	0.013
-643.711	180.023	-0.038	-0.055
-642.697	-111.245	0.366	-0.075
-641.682	758.504	-0.033	0.090
-640.668	-38.779	0.314	0.166
-639.653	800.000	0.072	0.248
-638.638	-126.871	-0.517	0.077
-637.624	47.317	-0.108	-0.101
-636.609	-23.850	-0.153	0.092
-635.595	800.000	0.052	-0.198
-634.580	95.625	-0.150	0.172
-633.565	181.498	0.192	0.283
-632.551	70.883	0.138	0.143
-631.536	578.238	-0.100	-0.246
-630.522	-66.992	0.240	-0.095
-629.507	309.136	-0.236	0.442
-628.492	144.446	-0.172	-0.230
-627.478	-56.716	0.149	0.066
-626.463	-81.191	0.273	0.090
-625.449	-106.136	0.336	0.076
-624.434	146.500	-0.035	0.047
-623.419	-32.761	0.167	-0.093
-622.405	-156.453	-0.178	0.011
-621.390	-200.000	0.000	0.120
-620.376	24.105	-0.250	0.207
-619.361	-114.460	-0.349	0.067
-618.346	142.187	-0.192	-0.256
-617.332	183.823	-0.121	0.180
-616.317	-64.449	0.234	-0.095
-615.303	-76.265	0.274	-0.097
-614.288	-52.859	0.166	-0.077
-613.273	98.342	0.189	-0.219
-612.259	-24.440	-0.155	-0.093
-611.244	729.242	0.083	-0.223
-610.230	342.914	-0.092	-0.181
-609.215	147.217	-0.150	-0.202
-608.201	-196.525	-0.220	-0.001
-607.186	100.756	-0.068	-0.079
-606.171	-200.000	-0.070	-0.363
-605.157	-108.716	-0.224	0.048
-604.142	-15.399	-0.106	-0.068
-603.128	215.840	-0.171	0.272
-602.113	-105.852	0.130	-0.029
-601.098	-69.122	0.189	0.073
-600.084	800.000	0.142	0.434
-599.069	-143.912	0.246	-0.023
-598.055	-136.137	-0.229	0.027
-597.040	-200.000	-0.044	0.238
-596.025	141.573	-0.211	-0.280
-595.011	-200.000	-0.031	-0.265
-593.996	-103.756	0.223	0.052
-592.982	36.999	-0.139	-0.123
-591.967	-64.980	0.055	0.022
-590.952	-200.000	-0.022	-0.248
-589.938	0.892	0.244	-0.175
-588.923	48.597	-0.137	0.128
-587.909	-200.000	-0.051	0.296
-586.894	-73.143	-0.275	-0.101
-585.879	27.167	-0.152	-0.128
-584.865	-54.004	-0.121	-0.055
-583.850	800.000	0.042	-0.174
-582.836	-49.130	-0.083	-0.040
-581.821	-97.303	-0.156	-0.041
-580.806	29.727	0.146	-0.124
-579.792	192.609	0.058	0.088
-578.777	-143.169	0.189	0.018
-577.763	-108.457	-0.206	-0.044
-576.748	-151.785	-0.182	0.013
-575.733	273.698	-0.159	-0.281
-574.719	-16.409	0.123	-0.078
-573.704	-200.000	0.032	0.365
-572.690	-71.245	-0.139	0.052
-571.675	-11.312	0.253	-0.167
-570.661	-170.059	0.204	-0.007
-569.646	79.468	0.194	-0.208
-568.631	65.503	0.116	-0.117
-567.617	512.972	-0.041	-0.095
-566.602	-122.269	-0.173	0.028
-565.588	-124.558	0.323	-0.050
-564.573	153.936	0.062	0.086
-563.558	103.048	0.092	-0.107
-562.544	1.985	0.149	0.107
-561.529	-105.948	0.403	0.091
-560.515	-175.389	-0.412	0.011
-559.500	149.207	-0.062	0.084
-558.485	-192.684	0.163	0.002
-557.471	-143.425	0.060	0.006
-556.456	-32.593	-0.154	-0.086
-555.442	-57.747	-0.101	0.044
-554.427	377.959	0.048	-0.098
-553.412	-33.510	0.057	0.031
-552.398	54.832	-0.109	-0.106
-551.383	-107.790	-0.060	0.013
-550.369	-34.515	0.385	0.211
-549.354	-200.000	-0.004	0.133
-548.339	226.904	0.087	0.141
-547.325	388.070	0.103	-0.213
-546.310	25.824	0.232	0.193
-545.296	624.941	0.149	-0.375
-544.281	-80.266	0.176	-0.059
-543.266	800.000	0.048	-0.203
-542.252	-99.253	-0.075	-0.019
-541.237	149.752	0.135	0.184
-540.223	-16.944	0.397	0.251
-539.208	327.946	0.068	-0.130
-538.193	800.000	-0.081	0.339
-537.179	-104.992	-0.320	0.073
-536.164	599.944	0.060	-0.150
-535.150	98.937	0.169	0.195
-534.135	84.032	-0.058	0.063
-533.121	1.384	-0.128	-0.092
-532.106	154.341	0.134	-0.183
-531.091	800.000	0.083	-0.309
-530.077	-200.000	0.005	-0.186
-529.062	-200.000	-0.031	-0.223
-528.048	-146.270	0.031	0.003
-527.033	-200.000	0.007	0.091
-526.018	-176.323	-0.172	0.004
-525.004	311.718	0.250	-0.469
-523.989	90.761	-0.075	-0.084
-522.975	617.454	0.108	0.271
-521.960	-74.898	-0.145	0.052
-520.945	-121.350	-0.075	-0.012
-519.931	346.309	-0.070	0.138
-518.916	-200.000	0.178	0.000
-517.902	1.578	-0.119	0.086
-516.887	-69.966	-0.178	0.068
-515.872	-70.666	-0.112	0.042
-514.858	-49.642	0.236	0.112
-513.843	-200.000	0.006	0.111
-512.829	-27.974	0.148	0.086
-511.814	800.000	0.063	-0.228
-510.799	304.674	-0.042	-0.077
-509.785	63.196	-0.142	0.143
-508.770	-68.185	0.129	0.050
-507.756	-89.339	-0.198	0.058
-506.741	5.008	0.055	-0.040
-505.726	-99.404	-0.432	-0.109
-504.712	-45.652	-0.116	-0.057
-503.697	4.920	0.255	0.188
-502.683	-38.123	-0.111	-0.059
-501.668	-12.546	-0.092	-0.060
-500.653	66.933	-0.181	0.184
-499.639	43.433	0.092	0.084
-498.624	-112.273	-0.328	0.066
-497.610	142.994	-0.109	0.145
-496.595	-5.607	0.172	0.118
-495.581	-12.188	-0.045	0.030
-494.566	-200.000	-0.053	0.311
-493.551	139.876	-0.098	-0.129
-492.537	-66.283	-0.212	0.084
-491.522	-200.000	0.083	0.370
-490.508	94.818	-0.179	0.204
-489.493	-137.916	-0.121	-0.013
-488.478	-126.231	0.192	-0.029
-487.464	103.679	-0.170	0.199
-486.449	-63.936	-0.157	0.064
-485.435	-59.347	-0.397	-0.170
-484.420	166.341	0.119	-0.168
-483.405	800.000	-0.046	-0.133
-482.391	762.603	0.061	-0.165
-481.376	-149.540	-0.276	-0.022
-480.362	-55.598	-0.265	-0.118
-479.347	-168.185	0.306	-0.012
-478.332	395.731	0.084	0.175
-477.318	172.409	0.174	-0.250
-476.303	4.611	-0.034	-0.025
-475.289	-186.374	-0.050	-0.001
-474.274	9.673	-0.304	0.230
-473.259	-50.373	0.174	-0.082
-472.245	-57.884	-0.230	-0.100
-471.230	499.832	0.081	0.187
-470.216	58.434	-0.317	-0.310
-469.201	-175.753	0.060	-0.002
-468.186	131.364	0.108	-0.138
-467.172	-143.707	0.152	0.014
-466.157	126.609	-0.105	0.133
-465.143	-109.730	0.330	-0.069
-464.128	-200.000	0.053	-0.403
-463.113	-200.000	0.020	-0.343
-462.099	-48.644	0.235	0.113
-461.084	-146.181	-0.176	0.015
-460.070	800.000	0.022	0.060
-459.055	234.543	-0.118	0.193
-458.040	-53.683	-0.264	0.120
-457.026	-200.000	-0.001	-0.226
-456.011	-200.000	-0.056	0.313
-454.997	-96.066	0.119	0.031
-453.982	-179.482	0.217	0.005
-452.968	-30.391	0.325	0.184
-451.953	-50.752	0.156	-0.073
-450.938	-200.000	-0.060	-0.332
-449.924	-200.000	-0.054	0.337
-448.909	-31.121	-0.060	-0.034
-447.895	205.485	0.097	-0.150
-446.880	800.000	-0.029	-0.080
-445.865	430.656	-0.104	0.225
-444.851	-119.294	0.209	-0.036
-443.836	663.802	0.084	-0.217
-442.822	-200.000	0.022	-0.405
-441.807	-200.000	-0.023	-0.190
-440.792	24.296	0.036	0.030
-439.778	800.000	0.046	0.171
-438.763	76.068	-0.220	0.232
-437.749	800.000	0.015	-0.053
-436.734	104.918	0.143	0.168
-435.719	800.000	-0.038	0.133
-434.705	-87.059	-0.139	0.042
-433.690	637.721	-0.087	0.220
-432.676	-132.216	0.196	-0.025
-431.661	-140.986	0.138	-0.014
-430.646	368.863	0.138	0.278
-429.632	-200.000	0.001	0.194
-428.617	-60.101	-0.308	0.131
-427.603	157.088	-0.101	-0.139
-426.588	-200.000	0.075	-0.334
-425.573	800.000	0.078	-0.292
-424.559	366.404	0.033	-0.067
-423.544	-53.503	-0.422	0.192
-422.530	800.000	-0.029	-0.114
-421.515	800.000	0.039	0.125
-420.500	-129.037	-0.167	0.023
-419.486	-48.775	0.078	0.037
-418.471	-200.000	-0.065	-0.512
-417.457	-175.835	-0.262	0.007
-416.442	800.000	-0.075	0.246
-415.428	-200.000	-0.069	0.323
-414.413	194.027	-0.105	0.159
-413.398	114.869	-0.073	-0.089
-412.384	-200.000	-0.021	0.093
-411.369	-38.013	-0.177	0.093
-410.355	301.845	-0.134	0.247
-409.340	-108.859	-0.095	0.020
-408.325	367.264	0.210	-0.422
-407.311	-112.776	0.185	0.036
-406.296	800.000	0.009	0.029
-405.282	800.000	-0.060	0.241
-404.267	-76.424	-0.172	-0.060
-403.252	-116.782	-0.107	0.020
-402.238	-200.000	0.045	-0.262
-401.223	-102.628	-0.260	0.062
-400.209	210.747	-0.062	-0.097
-399.194	181.301	-0.114	-0.167
-398.179	329.534	0.131	-0.250
-397.165	-26.642	0.090	0.052
-396.150	125.918	-0.109	0.136
-395.136	-47.544	-0.288	-0.139
-394.121	-78.131	0.126	-0.043
-393.106	191.761	0.170	-0.254
-392.092	50.947	-0.145	-0.136
-391.077	5.597	0.144	0.106
-390.063	-150.181	-0.455	0.035
-389.048	297.197	0.086	0.157
-388.033	-101.084	-0.239	-0.058
-387.019	-107.826	-0.240	-0.052
-386.004	217.925	-0.046	-0.073
-384.990	-200.000	0.032	-0.226
-383.975	34.304	0.177	-0.153
-382.960	-200.000	0.083	-0.391
-381.946	25.625	-0.129	0.107
-380.931	268.948	-0.200	-0.349
-379.917	-81.294	0.465	0.152
-378.902	-137.774	0.262	-0.029
-377.888	297.741	0.021	0.039
-376.873	650.615	0.060	-0.153
-375.858	-118.953	0.133	-0.023
-374.844	557.150	-0.118	0.282
-373.829	10.388	-0.203	-0.153
-372.815	-161.857	0.188	0.009
-371.800	23.120	-0.097	-0.079
-370.785	-66.416	0.331	0.131
-369.771	-200.000	-0.010	-0.211
-368.756	125.164	0.047	-0.059
-367.742	77.364	0.099	0.104
-366.727	-200.000	0.009	0.218
-365.712	-200.000	-0.004	-0.047
-364.698	37.939	0.020	0.017
-363.683	128.125	-0.160	-0.202
-362.669	800.000	-0.130	0.473
-361.654	-200.000	0.069	0.350
-360.639	-37.991	0.535	0.282
-359.625	-72.290	-0.108	-0.040
-358.610	21.774	-0.106	0.086
-357.596	-158.184	0.296	-0.017
-356.581	-36.557	0.158	-0.084
-355.566	483.818	-0.032	-0.073
-354.552	84.245	-0.240	-0.260
-353.537	5.404	0.222	-0.162
-352.523	-114.178	0.233	0.045
-351.508	48.883	0.124	0.116
-350.493	-200.000	0.024	0.243
-349.479	144.985	-0.168	-0.223
-348.464	800.000	0.120	-0.364
-347.450	-200.000	0.014	-0.132
-346.435	-200.000	0.034	0.245
-345.420	-200.000	0.018	-0.101
-344.406	79.924	0.144	-0.154
-343.391	8.435	0.251	-0.187
-342.377	-28.138	-0.267	0.153
-341.362	203.450	0.161	0.248
-340.348	-104.259	-0.209	0.048
-339.333	-58.450	-0.270	-0.116
-338.318	22.121	0.135	0.109
-337.304	-67.532	-0.234	0.091
-336.289	184.046	0.117	-0.172
-335.275	-45.572	-0.101	0.050
-334.260	-58.494	0.110	-0.047
-333.245	-200.000	0.007	-0.293
-332.231	192.399	0.191	0.286
-331.216	-96.758	0.089	-0.023
-330.202	-182.489	-0.293	0.005
-329.187	-200.000	0.010	0.202
-328.172	800.000	0.059	-0.232
-327.158	-200.000	0.039	-0.284
-326.143	-45.399	0.112	0.055
-325.129	470.866	0.035	-0.077
-324.114	-159.417	-0.115	-0.006
-323.099	59.924	0.075	0.073
-322.085	-107.493	0.039	-0.008
-321.070	-200.000	-0.005	0.226
-320.056	-200.000	0.010	-0.257
-319.041	-81.884	-0.194	0.063
-318.026	229.537	0.042	0.067
-317.012	-94.753	0.187	0.050
-315.997	-26.521	-0.090	-0.052
-314.983	290.892	-0.089	-0.160
-313.968	800.000	0.067	-0.256
-312.953	64.456	-0.052	-0.052
-311.939	-107.458	0.215	0.047
-310.924	29.949	0.039	0.033
-309.910	265.560	-0.053	-0.092
-308.895	116.303	-0.122	-0.148
-307.880	800.000	0.073	-0.256
-306.866	381.045	-0.090	-0.183
-305.851	-200.000	-0.011	-0.183
-304.837	38.600	-0.061	-0.054
-303.822	-25.551	-0.207	0.121
-302.807	193.129	-0.099	-0.148
-301.793	376.498	0.060	0.122
-300.778	11.782	-0.092	0.070
-299.764	800.000	-0.064	0.182
-298.749	-23.774	0.268	-0.159
-297.735	-146.278	-0.304	-0.026
-296.720	23.482	0.051	-0.042
-295.705	-93.641	0.126	-0.034
-294.691	800.000	-0.042	0.127
-293.676	95.137	0.108	0.122
-292.662	-67.244	0.149	0.058
-291.647	-123.692	-0.307	-0.048
-290.632	-109.835	0.332	-0.069
-289.618	252.611	0.024	-0.041
-288.603	89.522	-0.142	0.157
-287.589	-90.571	0.199	-0.057
-286.574	31.293	-0.052	0.044
-285.559	64.829	-0.076	-0.076
-284.545	-200.000	0.004	-0.227
-283.530	56.454	0.219	0.211
-282.516	800.000	-0.178	0.534
-281.501	-157.922	-0.195	0.011
-280.486	-200.000	0.039	-0.348
-279.472	154.049	0.068	0.092
-278.457	-177.313	0.158	0.004
-277.443	-200.000	-0.044	0.311
-276.428	-52.024	-0.226	-0.104
-275.413	-194.055	0.109	-0.001
-274.399	-114.378	0.245	-0.047
-273.384	300.751	0.020	0.036
-272.370	-57.712	0.100	0.043
-271.355	247.400	0.162	-0.271
-270.340	-200.000	-0.024	0.128
-269.326	-200.000	0.049	-0.213
-268.311	-44.196	0.244	0.121
-267.297	35.719	0.322	0.280
-266.282	89.782	-0.093	-0.103
-265.267	-200.000	-0.025	0.117
-264.253	-183.349	-0.128	-0.002
-263.238	800.000	0.121	0.419
-262.224	800.000	0.055	-0.193
-261.209	-95.481	0.165	0.044
-260.195	-13.868	0.177	-0.113
-259.180	-1.052	0.138	0.097
-258.165	-128.403	-0.309	-0.043
-257.151	-60.665	-0.393	0.165
-256.136	180.209	0.021	-0.030
-255.122	95.752	0.063	0.071
-254.107	-22.361	0.375	0.225
-253.092	-100.529	0.159	0.039
-252.078	800.000	0.066	-0.191
-251.063	0.736	-0.307	-0.217
-250.049	-191.240	0.159	-0.002
-249.034	-161.080	-0.077	0.004
-248.019	-93.361	-0.291	0.080
-247.005	281.434	0.090	-0.159
-245.990	-92.666	-0.055	-0.015
-244.976	55.671	0.047	-0.045
-243.961	-159.245	0.209	0.012
-242.946	136.972	-0.052	-0.067
-241.932	-43.623	-0.287	0.143
-240.917	181.329	-0.127	-0.185
-239.903	-200.000	-0.006	-0.033
-238.888	-78.282	-0.287	0.097
-237.873	-188.417	0.130	-0.002
-236.859	-101.270	0.122	0.030
-235.844	472.411	0.040	0.089
-234.830	-200.000	-0.003	-0.036
-233.815	43.020	-0.260	-0.234
-232.800	-200.000	0.061	0.311
-231.786	-200.000	-0.018	-0.097
-230.771	192.026	-0.059	-0.088
-229.757	-38.429	0.253	-0.132
-228.742	276.365	-0.116	0.204
-227.727	-200.000	-0.131	0.591
-226.713	-148.704	-0.164	0.013
-225.698	-9.709	-0.150	0.098
-224.684	-200.000	-0.016	-0.321
-223.669	-200.000	0.025	0.217
-222.655	-80.480	-0.290	-0.096
-221.640	727.819	0.078	0.207
-220.625	-101.466	-0.195	0.047
-219.611	120.899	-0.293	0.360
-218.596	-123.370	0.219	-0.035
-217.582	800.000	0.026	-0.107
-216.567	188.779	-0.018	-0.026
-215.552	-200.000	0.022	-0.353
-214.538	-105.905	0.201	-0.045
-213.523	-130.200	0.105	0.014
-212.509	800.000	-0.045	-0.164
-211.494	-0.285	0.319	0.224
-210.479	19.772	-0.206	0.163
-209.465	110.972	0.200	0.237
-208.450	-128.370	0.276	0.039
-207.436	-41.715	-0.248	-0.126
-206.421	-123.549	0.130	0.020
-205.406	800.000	-0.128	-0.479
-204.392	11.328	-0.149	-0.113
-203.377	-200.000	-0.124	0.554
-202.363	25.642	-0.163	0.134
-201.348	800.000	-0.110	0.329
-200.333	-200.000	0.026	0.136
-199.319	-139.373	0.270	-0.029
-198.304	-34.450	-0.136	0.073
-197.290	-88.051	0.209	0.062
-196.275	85.537	-0.210	-0.228
-195.260	168.576	-0.112	0.158
-194.246	322.748	0.030	0.056
-193.231	800.000	0.036	-0.108
-192.217	358.037	-0.067	0.132
-191.202	381.856	-0.075	-0.152
-190.187	-200.000	0.029	-0.321
-189.173	-81.251	0.287	0.093
-188.158	800.000	0.025	-0.070
-187.144	235.262	0.173	0.281
-186.129	119.855	-0.238	-0.291
-185.114	261.143	0.128	-0.218
-184.100	51.917	-0.059	-0.056
-183.085	-166.714	0.237	0.010
-182.071	-178.033	-0.329	-0.008
-181.056	47.193	0.124	-0.114
-180.042	-101.975	0.368	0.088
-179.027	254.147	-0.124	0.210
-178.012	48.770	-0.034	0.032
-176.998	-162.895	0.102	0.005
-175.983	-53.535	0.333	0.150
-174.969	37.626	0.033	0.028
-173.954	63.178	0.138	0.136
-172.939	77.971	-0.331	0.348
-171.925	-64.980	-0.229	0.091
-170.910	-200.000	-0.011	0.182
-169.896	800.000	0.064	0.209
-168.881	-36.132	-0.184	0.098
-167.866	189.063	-0.105	-0.155
-166.852	86.002	0.044	-0.048
-165.837	-138.046	0.049	-0.005
-164.823	-77.430	0.091	-0.031
-163.808	-200.000	0.030	-0.271
-162.793	52.402	0.277	-0.260
-161.779	-134.110	-0.394	0.048
-160.764	84.823	0.085	0.092
-159.750	-177.991	0.689	-0.016
-158.735	-135.519	0.252	0.030
-157.720	800.000	0.023	-0.083
-156.706	-100.751	0.092	0.022
-155.691	100.214	-0.007	0.008
-154.677	-132.871	-0.157	0.020
-153.662	-30.566	-0.158	0.088
-152.647	800.000	-0.010	-0.044
-151.633	56.589	0.080	0.076
-150.618	-4.358	-0.236	-0.161
-149.604	50.524	-0.167	-0.156
-148.589	135.482	0.037	-0.047
-147.574	298.793	0.064	0.116
-146.560	255.250	-0.106	-0.178
-145.545	-75.887	0.257	-0.090
-144.531	705.544	0.110	0.285
-143.516	76.330	0.057	-0.060
-142.502	-53.656	0.175	-0.079
-141.487	173.952	0.202	0.287
-140.472	-69.049	-0.060	0.023
-139.458	-200.000	-0.008	0.132
-138.443	93.361	0.208	0.232
-137.429	-10.986	0.137	-0.089
-136.414	287.753	-0.149	0.265
-135.399	-104.284	-0.378	-0.086
-134.385	173.416	0.028	0.040
-133.370	-200.000	-0.049	0.222
-132.356	-133.614	-0.244	-0.030
-131.341	-37.351	-0.062	0.033
-130.326	-200.000	-0.018	-0.270
-129.312	-200.000	0.042	0.190
-128.297	-110.536	0.123	0.025
-127.283	-21.733	0.047	0.028
-126.268	266.216	0.030	-0.051
-125.253	71.445	-0.150	0.153
-124.239	346.713	-0.076	-0.147
-123.224	800.000	-0.060	0.171
-122.210	-200.000	0.006	-0.165
-121.195	-200.000	-0.014	0.125
