DTS Sentinel unit serial number:	SN413079Multiplexer serial number:	ORYXHardware model number:	OX4-SRSoftware version number:	ORYX F/W v4.00 Oryx Data Collector v3.7.2.0data status	okinstallation	princeton_trtdifferential loss correction	single-endedforward channel	channel 2reverse channel	N/Adate	2019/09/11time	20:41:11forward acquisition time	60.00reverse acquisition time	0.00gamma	496.2192k internal	0.2321k external	0.2321temperature offset calibration	1.0060default loss term (dB/km)	0.3790temperature slope calibration	1.0000multiplexer offset coefficient	1.0000multiplexer slope coefficient	1.0000fibre end	0.00T internal ref (°C)	37.25T ext. ref 1 (°C)	1.55T ext. ref 2 (°C)	30.80length (m)	temperature (°C)	Stokes	anti-Stokes-747.200	-109.751	0.262	-0.056
-746.185	-200.000	0.072	0.454
-745.171	9.453	0.220	-0.168
-744.156	10.541	-0.236	0.182
-743.142	-119.170	0.402	0.071
-742.127	-97.666	-0.216	-0.057
-741.112	16.443	0.119	0.095
-740.098	212.003	-0.194	0.309
-739.083	51.060	-0.117	0.112
-738.069	-200.000	0.019	-0.182
-737.054	344.640	-0.228	-0.453
-736.039	328.428	-0.127	-0.246
-735.025	4.183	-0.082	-0.061
-734.010	-78.017	-0.285	-0.099
-732.996	-200.000	0.021	-0.113
-731.981	-117.330	0.141	-0.026
-730.966	-11.673	-0.119	0.079
-729.952	-38.753	-0.317	-0.169
-728.937	800.000	-0.095	-0.306
-727.923	-99.411	-0.279	-0.071
-726.908	-132.602	0.264	0.034
-725.894	-37.924	-0.054	-0.029
-724.879	-34.596	0.250	0.139
-723.864	574.791	0.035	0.085
-722.850	240.025	-0.159	-0.267
-721.835	139.206	-0.139	-0.184
-720.821	800.000	0.039	-0.120
-719.806	316.677	-0.131	0.251
-718.791	324.396	-0.126	-0.243
-717.777	245.007	-0.023	-0.039
-716.762	307.734	-0.034	-0.063
-715.748	-77.531	-0.178	0.062
-714.733	-89.825	-0.207	-0.061
-713.718	627.185	0.083	-0.212
-712.704	124.663	-0.011	-0.014
-711.689	800.000	-0.033	0.113
-710.675	-35.453	-0.114	0.062
-709.660	752.992	-0.056	-0.152
-708.645	-200.000	-0.041	0.353
-707.631	-200.000	-0.106	0.474
-706.616	26.431	-0.064	0.054
-705.602	-85.736	-0.185	0.058
-704.587	248.426	-0.072	-0.123
-703.572	-58.686	-0.247	-0.108
-702.558	800.000	0.033	-0.093
-701.543	3.748	-0.087	0.064
-700.529	241.605	0.078	-0.131
-699.514	800.000	0.036	0.152
-698.499	776.890	-0.068	-0.188
-697.485	-103.845	0.210	-0.050
-696.470	32.106	-0.322	-0.280
-695.456	-34.169	-0.101	-0.056
-694.441	46.939	-0.272	0.256
-693.426	-200.000	-0.000	0.072
-692.412	-17.996	0.288	-0.182
-691.397	-200.000	0.055	-0.381
-690.383	800.000	-0.071	-0.199
-689.368	-200.000	0.035	-0.189
-688.354	-87.537	-0.168	-0.051
-687.339	-200.000	0.012	-0.055
-686.324	-66.265	-0.173	0.069
-685.310	-200.000	-0.004	0.157
-684.295	-200.000	-0.011	0.311
-683.281	800.000	0.063	-0.261
-682.266	-200.000	0.002	-0.131
-681.251	217.849	-0.200	-0.321
-680.237	-200.000	-0.013	-0.086
-679.222	-16.071	-0.465	-0.298
-678.208	-200.000	-0.012	-0.262
-677.193	-69.585	-0.145	-0.056
-676.178	-118.739	-0.445	0.079
-675.164	-71.303	-0.110	-0.042
-674.149	115.470	-0.153	-0.188
-673.135	-85.855	0.271	-0.085
-672.120	62.443	-0.137	0.138
-671.105	-153.634	-0.016	0.001
-670.091	-17.244	0.194	-0.123
-669.076	95.293	0.026	-0.030
-668.062	-117.387	-0.260	0.047
-667.047	-200.000	0.040	0.223
-666.032	-70.735	-0.149	-0.057
-665.018	800.000	-0.042	0.129
-664.003	-127.542	-0.201	0.029
-662.989	-52.608	-0.161	-0.075
-661.974	800.000	-0.028	0.087
-660.959	-57.761	-0.131	-0.058
-659.945	-200.000	0.035	-0.376
-658.930	-67.433	-0.203	-0.080
-657.916	40.333	0.120	0.108
-656.901	-67.303	0.179	0.071
-655.886	-65.292	-0.367	-0.149
-654.872	81.553	-0.112	-0.122
-653.857	-200.000	0.046	-0.448
-652.843	39.750	0.084	0.076
-651.828	800.000	-0.091	0.347
-650.814	800.000	-0.037	-0.138
-649.799	17.360	0.107	0.085
-648.784	-200.000	0.029	0.268
-647.770	637.078	-0.123	0.314
-646.755	471.228	-0.083	-0.188
-645.741	-33.967	-0.203	-0.112
-644.726	188.528	0.105	-0.159
-643.711	-163.233	-0.181	-0.009
-642.697	-107.151	0.228	-0.051
-641.682	47.492	-0.118	-0.111
-640.668	-200.000	-0.013	0.190
-639.653	-172.309	-0.401	-0.013
-638.638	-160.934	-0.413	0.022
-637.624	634.914	-0.088	-0.225
-636.609	-74.038	-0.120	-0.044
-635.595	166.433	0.090	-0.128
-634.580	-200.000	-0.011	0.055
-633.565	-102.945	0.330	0.079
-632.551	-200.000	-0.003	0.121
-631.536	-200.000	0.021	-0.092
-630.522	-70.295	-0.177	0.068
-629.507	-27.913	0.260	-0.152
-628.492	95.583	-0.288	0.331
-627.478	4.097	-0.103	0.076
-626.463	-200.000	-0.043	0.449
-625.449	7.034	0.117	-0.087
-624.434	800.000	0.105	-0.441
-623.419	-200.000	0.064	0.289
-622.405	-22.123	0.121	0.074
-621.390	324.248	-0.083	0.160
-620.376	-7.548	-0.169	0.115
-619.361	-200.000	-0.005	-0.351
-618.346	-135.554	0.251	0.030
-617.332	56.823	-0.158	0.155
-616.317	-130.384	0.021	0.003
-615.303	93.439	0.169	0.192
-614.288	6.695	-0.218	-0.163
-613.273	249.609	0.067	-0.115
-612.259	-200.000	-0.011	0.142
-611.244	800.000	0.087	-0.250
-610.230	-200.000	0.003	0.072
-609.215	576.940	-0.061	-0.150
-608.201	-136.543	-0.044	-0.005
-607.186	10.469	0.102	-0.078
-606.171	-44.492	-0.075	-0.038
-605.157	382.524	-0.134	-0.277
-604.142	404.393	-0.060	0.127
-603.128	-78.882	0.407	-0.139
-602.113	-94.281	0.046	-0.013
-601.098	-200.000	0.049	0.296
-600.084	82.822	0.038	0.041
-599.069	-83.532	0.404	-0.130
-598.055	-26.425	-0.094	0.055
-597.040	800.000	0.094	0.343
-596.025	-10.964	-0.411	-0.272
-595.011	800.000	0.043	0.156
-593.996	-23.402	0.288	0.174
-592.982	200.736	0.229	0.354
-591.967	800.000	0.112	0.352
-590.952	114.149	0.058	-0.071
-589.938	-2.956	-0.329	0.231
-588.923	-156.698	0.074	0.005
-587.909	-21.429	-0.303	0.186
-586.894	800.000	0.054	-0.165
-585.879	-108.271	-0.325	0.071
-584.865	173.352	0.054	-0.078
-583.850	-112.519	0.093	-0.019
-582.836	-200.000	0.047	0.351
-581.821	-200.000	0.022	0.167
-580.806	94.384	-0.119	0.136
-579.792	-30.177	0.180	-0.103
-578.777	-14.546	-0.158	0.102
-577.763	-200.000	0.019	0.089
-576.748	-141.574	0.192	-0.019
-575.733	800.000	0.031	-0.097
-574.719	-200.000	0.008	0.200
-573.704	435.807	0.096	-0.211
-572.690	-123.362	0.156	-0.025
-571.675	774.214	0.130	-0.355
-570.661	-34.513	0.136	0.075
-569.646	592.286	0.128	-0.318
-568.631	36.173	-0.278	-0.246
-567.617	139.992	-0.169	0.224
-566.602	800.000	0.110	0.426
-565.588	800.000	0.127	0.472
-564.573	34.700	-0.118	-0.104
-563.558	126.607	0.133	0.169
-562.544	-24.612	-0.217	0.130
-561.529	-79.202	0.127	0.043
-560.515	6.902	-0.110	0.082
-559.500	-47.291	-0.243	0.119
-558.485	49.946	-0.121	0.115
-557.471	-119.725	-0.106	-0.018
-556.456	174.086	-0.086	-0.125
-555.442	297.483	0.015	0.027
-554.427	19.333	-0.137	-0.111
-553.412	-200.000	0.016	-0.092
-552.398	555.941	0.093	0.224
-551.383	-116.743	0.316	0.058
-550.369	128.037	0.181	0.231
-549.354	587.305	0.071	0.175
-548.339	800.000	0.041	0.136
-547.325	-10.138	-0.059	-0.039
-546.310	428.257	-0.095	-0.206
-545.296	274.487	0.051	-0.090
-544.281	465.987	0.117	0.263
-543.266	-14.997	-0.155	-0.100
-542.252	170.381	-0.067	-0.096
-541.237	-51.268	-0.119	-0.056
-540.223	61.984	0.118	0.118
-539.208	677.912	-0.026	-0.067
-538.193	-159.139	0.099	-0.006
-537.179	-110.117	0.153	-0.032
-536.164	81.499	-0.118	-0.128
-535.150	452.820	-0.095	0.210
-534.135	-5.483	-0.160	-0.110
-533.121	614.084	0.038	-0.096
-532.106	-36.075	-0.230	-0.124
-531.091	157.925	0.052	0.073
-530.077	-150.263	0.228	0.018
-529.062	11.674	0.198	0.152
-528.048	399.822	-0.056	-0.119
-527.033	-200.000	0.069	-0.306
-526.018	-200.000	0.024	-0.226
-525.004	-158.450	-0.331	0.019
-523.989	-58.039	0.231	-0.101
-522.975	115.818	0.058	-0.071
-521.960	-200.000	-0.056	-0.311
-520.945	-21.215	-0.260	0.159
-519.931	151.473	-0.170	-0.232
-518.916	-164.153	-0.261	-0.012
-517.902	-116.243	0.231	-0.043
-516.887	-200.000	-0.012	0.110
-515.872	-200.000	0.008	-0.093
-514.858	-21.654	-0.262	-0.160
-513.843	-200.000	0.033	-0.338
-512.829	558.536	0.143	0.345
-511.814	-200.000	-0.016	0.154
-510.799	43.365	0.346	-0.316
-509.785	800.000	0.008	-0.024
-508.770	193.842	-0.227	-0.344
-507.756	800.000	-0.027	-0.084
-506.741	-118.532	0.164	-0.029
-505.726	-70.560	0.232	-0.088
-504.712	-27.747	-0.170	-0.099
-503.697	139.470	-0.164	-0.216
-502.683	-88.107	0.196	-0.059
-501.668	9.093	-0.317	0.240
-500.653	150.636	-0.123	0.167
-499.639	69.078	-0.346	-0.356
-498.624	-27.886	0.059	-0.034
-497.610	61.911	-0.105	0.105
-496.595	36.816	-0.030	0.027
-495.581	-111.881	0.097	-0.020
-494.566	800.000	0.028	0.079
-493.551	56.402	-0.093	-0.090
-492.537	-73.110	-0.197	0.072
-491.522	-53.390	-0.223	0.102
-490.508	-200.000	0.000	0.041
-489.493	-200.000	0.040	0.422
-488.478	-200.000	0.015	-0.148
-487.464	-200.000	-0.004	0.206
-486.449	-78.137	-0.192	-0.066
-485.435	-152.180	0.382	0.028
-484.420	-109.743	0.067	-0.014
-483.405	-15.302	0.279	0.178
-482.391	-92.212	-0.189	0.053
-481.376	384.964	-0.141	0.291
-480.362	800.000	0.042	-0.139
-479.347	-200.000	0.013	0.113
-478.332	800.000	-0.039	0.140
-477.318	61.189	-0.065	-0.065
-476.303	-114.572	-0.153	0.029
-475.289	-200.000	0.030	-0.179
-474.274	-200.000	0.002	-0.114
-473.259	-54.839	0.100	0.045
-472.245	504.219	-0.038	-0.089
-471.230	800.000	-0.099	-0.347
-470.216	-18.142	0.392	-0.245
-469.201	29.801	-0.210	-0.179
-468.186	20.152	-0.290	-0.234
-467.172	162.760	0.075	-0.105
-466.157	-115.030	-0.369	0.070
-465.143	800.000	-0.079	-0.325
-464.128	444.598	-0.101	0.222
-463.113	-200.000	-0.046	0.349
-462.099	140.543	-0.224	-0.296
-461.084	81.669	0.070	-0.076
-460.070	-68.987	0.164	0.063
-459.055	-200.000	0.039	-0.190
-458.040	-200.000	-0.052	-0.384
-457.026	242.497	0.199	0.334
-456.011	-198.865	0.283	-0.002
-454.997	377.336	0.182	-0.373
-453.982	59.109	-0.186	0.183
-452.968	-200.000	-0.024	0.177
-451.953	-41.062	0.237	0.122
-450.938	245.268	-0.111	-0.187
-449.924	-200.000	-0.008	-0.117
-448.909	120.130	-0.157	-0.195
-447.895	-200.000	0.035	-0.156
-446.880	800.000	0.107	0.321
-445.865	222.196	0.050	0.081
-444.851	-200.000	-0.058	-0.374
-443.836	-128.632	-0.073	0.010
-442.822	578.355	-0.160	0.392
-441.807	-164.297	-0.480	0.022
-440.792	-200.000	-0.015	-0.210
-439.778	-159.720	-0.114	-0.006
-438.763	800.000	0.053	-0.172
-437.749	2.674	-0.281	0.204
-436.734	-154.333	-0.155	0.010
-435.719	-200.000	0.009	0.143
-434.705	228.281	-0.067	0.109
-433.690	-49.301	0.131	-0.063
-432.676	13.708	-0.237	-0.184
-431.661	144.179	-0.147	-0.196
-430.646	-32.946	0.164	0.091
-429.632	800.000	0.024	0.095
-428.617	-200.000	0.042	0.231
-427.603	-200.000	0.018	0.138
-426.588	800.000	0.036	0.109
-425.573	532.151	0.125	-0.294
-424.559	-200.000	0.014	0.277
-423.544	341.477	0.123	0.240
-422.530	632.052	0.124	0.315
-421.515	-17.311	0.177	-0.111
-420.500	50.814	-0.105	0.099
-419.486	-94.646	-0.075	-0.020
-418.471	102.131	-0.320	-0.373
-417.457	330.092	-0.123	-0.237
-416.442	-200.000	0.045	0.300
-415.428	90.721	-0.046	0.051
-414.413	-43.029	0.094	0.048
-413.398	340.639	0.022	0.042
-412.384	644.994	0.064	0.163
-411.369	122.808	-0.110	0.137
-410.355	800.000	0.178	0.540
-409.340	-200.000	-0.003	0.095
-408.325	-183.281	-0.289	0.005
-407.311	-83.268	-0.155	0.050
-406.296	-36.931	-0.166	-0.089
-405.282	7.439	0.078	0.058
-404.267	800.000	0.138	-0.572
-403.252	100.172	-0.150	0.173
-402.238	-38.593	0.192	0.101
-401.223	-69.216	0.369	-0.141
-400.209	-200.000	0.017	-0.177
-399.194	162.205	-0.137	0.192
-398.179	208.735	0.080	0.125
-397.165	401.014	0.098	0.205
-396.150	800.000	-0.036	0.131
-395.136	-45.306	-0.266	0.132
-394.121	-101.254	-0.052	-0.013
-393.106	241.214	-0.231	-0.385
-392.092	-126.689	0.518	-0.077
-391.077	800.000	-0.078	-0.230
-390.063	86.756	-0.241	-0.265
-389.048	-200.000	-0.023	0.181
-388.033	655.745	-0.118	-0.302
-387.019	-92.081	0.087	-0.025
-386.004	11.865	0.206	0.158
-384.990	270.044	0.162	0.284
-383.975	118.861	-0.119	-0.147
-382.960	-200.000	-0.010	0.216
-381.946	141.268	-0.198	-0.261
-380.931	-83.658	-0.229	0.073
-379.917	-11.715	0.293	0.192
-378.902	-200.000	0.030	0.231
-377.888	125.061	-0.226	-0.284
-376.873	78.022	0.070	-0.074
-375.858	-113.406	-0.231	0.045
-374.844	800.000	0.114	-0.477
-373.829	24.173	0.229	-0.188
-372.815	-58.432	0.085	0.037
-371.800	176.740	0.195	0.283
-370.785	192.087	0.175	-0.262
-369.771	-200.000	0.006	0.160
-368.756	-200.000	-0.013	-0.057
-367.742	-65.650	-0.184	-0.074
-366.727	-23.054	0.420	-0.252
-365.712	0.223	-0.328	-0.233
-364.698	119.671	-0.292	0.360
-363.683	-93.660	-0.138	0.038
-362.669	-9.034	0.383	0.255
-361.654	-70.384	-0.421	0.159
-360.639	-20.979	-0.148	-0.091
-359.625	-72.558	-0.027	0.010
-358.610	-200.000	-0.065	-0.482
-357.596	51.817	0.188	0.178
-356.581	-8.083	0.128	-0.086
-355.566	14.024	-0.149	-0.115
-354.552	-200.000	-0.003	-0.109
-353.537	-200.000	-0.064	-0.405
-352.523	-200.000	-0.020	0.161
-351.508	-187.871	0.217	-0.003
-350.493	39.931	0.177	-0.158
-349.479	-0.907	0.202	0.142
-348.464	-102.964	0.297	-0.070
-347.450	-200.000	-0.033	0.312
-346.435	800.000	-0.093	0.270
-345.420	-4.164	0.156	0.108
-344.406	301.855	0.123	-0.226
-343.391	-200.000	0.029	-0.246
-342.377	-38.687	0.053	-0.028
-341.362	-68.377	-0.162	0.063
-340.348	186.265	-0.087	-0.130
-339.333	-186.924	0.354	-0.005
-338.318	-70.907	0.190	-0.071
-337.304	-97.494	0.099	0.026
-336.289	-166.636	-0.325	-0.013
-335.275	282.799	-0.045	-0.080
-334.260	83.824	-0.247	-0.268
-333.245	-125.860	-0.173	0.026
-332.231	200.972	0.131	0.200
-331.216	9.347	0.012	-0.009
-330.202	53.801	-0.274	0.262
-329.187	-200.000	0.002	0.252
-328.172	-200.000	-0.014	-0.362
-327.158	8.471	-0.124	0.093
-326.143	521.278	0.100	-0.234
-325.129	-200.000	0.002	-0.091
-324.114	54.786	0.090	-0.086
-323.099	800.000	0.073	-0.200
-322.085	60.776	0.069	0.068
-321.070	800.000	0.058	-0.176
-320.056	-83.281	-0.251	0.080
-319.041	85.029	-0.055	-0.060
-318.026	-128.176	0.726	-0.103
-317.012	-200.000	0.015	-0.096
-315.997	290.920	0.057	0.104
-314.983	117.437	0.061	-0.075
-313.968	-141.275	0.092	0.009
-312.953	-185.392	-0.252	-0.004
-311.939	-45.454	0.152	-0.075
-310.924	331.495	-0.106	0.203
-309.910	-88.183	-0.080	-0.024
-308.895	-200.000	0.006	0.207
-307.880	-85.590	0.324	-0.100
-306.866	-138.232	0.078	-0.009
-305.851	563.651	-0.094	-0.227
-304.837	-30.876	0.165	0.093
-303.822	-200.000	0.042	0.368
-302.807	463.461	0.160	0.356
-301.793	-56.581	0.370	-0.163
-300.778	669.583	0.146	0.376
-299.764	-200.000	0.015	0.098
-298.749	120.704	-0.099	0.122
-297.735	-200.000	0.049	-0.245
-296.720	35.165	-0.244	-0.212
-295.705	64.081	0.120	-0.119
-294.691	76.211	-0.282	0.297
-293.676	-99.669	0.178	0.044
-292.662	-200.000	-0.047	-0.332
-291.647	33.950	-0.290	0.251
-290.632	-200.000	0.075	0.369
-289.618	4.609	0.091	-0.066
-288.603	720.494	-0.041	0.108
-287.589	516.027	-0.126	0.293
-286.574	132.671	0.047	-0.060
-285.559	-46.503	0.175	-0.085
-284.545	-88.143	0.276	-0.082
-283.530	800.000	0.027	0.086
-282.516	88.001	-0.190	-0.209
-281.501	49.874	-0.217	-0.203
-280.486	-200.000	-0.025	-0.264
-279.472	-200.000	-0.005	0.055
-278.457	54.290	0.202	-0.193
-277.443	600.868	-0.130	0.321
-276.428	470.847	-0.113	-0.251
-275.413	-114.265	0.265	0.051
-274.399	-9.471	0.383	0.254
-273.384	14.144	-0.157	0.122
-272.370	152.614	0.063	-0.085
-271.355	-200.000	-0.008	0.180
-270.340	-200.000	-0.027	-0.212
-269.326	-131.607	0.317	0.041
-268.311	11.065	-0.142	0.108
-267.297	-8.124	0.143	-0.096
-266.282	221.405	-0.069	-0.110
-265.267	800.000	-0.085	-0.241
-264.253	429.892	0.092	0.197
-263.238	-141.825	0.277	0.028
-262.224	-20.875	-0.293	-0.178
-261.209	69.157	-0.219	0.223
-260.195	-116.116	-0.139	-0.026
-259.180	-57.355	-0.190	-0.083
-258.165	-28.903	0.245	0.140
-257.151	-130.158	-0.563	-0.076
-256.136	-200.000	-0.002	0.069
-255.122	1.308	0.200	-0.143
-254.107	8.642	0.305	-0.228
-253.092	-84.917	0.266	0.083
-252.078	592.440	-0.059	0.144
-251.063	380.743	-0.179	0.365
-250.049	-80.385	0.034	-0.011
-249.034	22.638	-0.233	-0.189
-248.019	-200.000	-0.012	-0.298
-247.005	85.923	0.138	0.150
-245.990	-66.347	-0.217	-0.086
-244.976	32.870	-0.080	-0.069
-243.961	-32.806	-0.128	0.071
-242.946	179.240	0.169	0.245
-241.932	235.223	-0.096	0.156
-240.917	800.000	-0.022	-0.085
-239.903	5.934	-0.061	-0.044
-238.888	-80.002	0.118	-0.039
-237.873	395.499	-0.025	-0.052
-236.859	-45.107	-0.208	0.102
-235.844	-191.502	-0.090	0.001
-234.830	-200.000	0.048	-0.301
-233.815	37.078	0.216	-0.190
-232.800	-38.610	-0.130	-0.068
-231.786	3.791	0.182	-0.131
-230.771	-74.518	0.199	0.071
-229.757	47.912	-0.237	-0.219
-228.742	142.819	0.137	-0.180
-227.727	-200.000	0.034	0.235
-226.713	176.147	0.098	0.141
-225.698	-200.000	-0.002	-0.060
-224.684	-37.856	0.052	0.028
-223.669	-111.799	-0.197	0.039
-222.655	-21.446	0.171	0.103
-221.640	-76.277	0.119	0.042
-220.625	-200.000	-0.018	0.245
-219.611	487.316	0.096	0.217
-218.596	-144.642	0.329	0.030
-217.582	-198.768	-0.434	0.002
-216.567	393.032	-0.058	-0.119
-215.552	-200.000	0.033	-0.319
-214.538	-128.840	-0.237	-0.033
-213.523	397.307	0.124	-0.256
-212.509	123.157	-0.065	-0.081
-211.494	-4.421	-0.138	0.094
-210.479	-22.895	-0.200	-0.119
-209.465	71.682	-0.213	0.219
-208.450	-82.682	0.256	0.082
-207.436	800.000	-0.026	0.107
-206.421	122.039	-0.148	-0.182
-205.406	-20.103	0.062	-0.038
-204.392	-39.741	0.182	0.094
-203.377	15.596	-0.256	-0.199
-202.363	32.618	-0.210	-0.180
-201.348	-51.059	0.227	0.105
-200.333	-140.641	0.271	0.028
-199.319	469.348	-0.252	0.561
-198.304	201.698	-0.161	-0.245
-197.290	-127.651	0.260	0.037
-196.275	5.887	-0.139	0.102
-195.260	429.778	-0.072	-0.155
-194.246	103.379	0.172	-0.200
-193.231	-81.354	0.134	-0.044
-192.217	-20.817	0.180	0.109
-191.202	-126.803	0.450	-0.066
-190.187	800.000	-0.033	-0.099
-189.173	800.000	0.085	0.256
-188.158	-200.000	-0.059	0.286
-187.144	7.128	-0.093	-0.069
-186.129	-200.000	0.020	0.296
-185.114	800.000	-0.102	0.280
-184.100	306.369	0.059	0.109
-183.085	-131.990	0.197	-0.025
-182.071	-93.077	0.036	-0.010
-181.056	217.957	0.045	0.071
-180.042	-36.196	0.242	0.129
-179.027	156.007	0.143	0.195
-178.012	-120.561	0.174	0.029
-176.998	105.375	-0.054	-0.063
-175.983	298.357	-0.044	-0.079
-174.969	-31.071	0.138	-0.077
-173.954	-8.261	0.227	-0.151
-172.939	-67.405	0.209	-0.081
-171.925	164.906	0.056	-0.078
-170.910	800.000	-0.064	0.249
-169.896	96.589	-0.140	-0.159
-168.881	-65.593	0.097	0.038
-167.866	-185.684	0.174	0.003
-166.852	-25.090	0.253	-0.148
-165.837	38.886	0.211	-0.186
-164.823	-31.277	-0.082	0.046
-163.808	69.227	0.140	0.142
-162.793	161.631	-0.147	-0.204
-161.779	-200.000	-0.046	-0.378
-160.764	-200.000	-0.001	-0.185
-159.750	-38.076	-0.373	0.196
-158.735	-95.198	-0.469	0.125
-157.720	-148.092	0.213	-0.017
-156.706	-41.907	0.127	0.064
-155.691	81.700	-0.222	0.237
-154.677	95.443	0.168	-0.190
-153.662	800.000	-0.083	-0.357
-152.647	1.121	-0.141	0.100
-151.633	-200.000	-0.015	-0.083
-150.618	64.255	-0.043	0.043
-149.604	-200.000	-0.001	0.049
-148.589	53.881	0.117	-0.111
-147.574	-200.000	0.004	-0.030
-146.560	-129.262	-0.257	0.035
-145.545	-123.072	-0.202	0.032
-144.531	800.000	0.043	-0.162
-143.516	284.123	-0.191	0.339
-142.502	534.844	0.126	0.296
-141.487	800.000	0.044	-0.186
-140.472	231.485	-0.157	-0.254
-139.458	212.306	0.048	-0.075
-138.443	25.763	0.198	0.163
-137.429	-146.201	0.146	-0.013
-136.414	800.000	0.054	-0.153
-135.399	138.010	-0.069	-0.090
-134.385	258.884	0.093	0.159
-133.370	-200.000	0.031	0.158
-132.356	92.919	0.119	-0.133
-131.341	251.291	0.162	0.273
-130.326	-200.000	-0.033	-0.295
-129.312	-41.717	0.132	-0.067
-128.297	-157.479	-0.197	-0.012
-127.283	45.472	-0.264	-0.241
-126.268	-35.141	-0.174	-0.094
-125.253	251.092	0.089	-0.150
-124.239	376.894	0.082	0.166
-123.224	-200.000	0.034	-0.193
-122.210	-54.687	0.106	-0.047
-121.195	-118.293	0.236	-0.041
