DTS Sentinel unit serial number:	SN413079Multiplexer serial number:	ORYXHardware model number:	OX4-SRSoftware version number:	ORYX F/W v4.00 Oryx Data Collector v3.7.2.0data status	okinstallation	princeton_trtdifferential loss correction	single-endedforward channel	channel 2reverse channel	N/Adate	2019/09/13time	08:35:34forward acquisition time	60.00reverse acquisition time	0.00gamma	496.2192k internal	0.2332k external	0.2332temperature offset calibration	1.0195default loss term (dB/km)	0.3790temperature slope calibration	1.0000multiplexer offset coefficient	1.0000multiplexer slope coefficient	1.0000fibre end	0.00T internal ref (°C)	27.64T ext. ref 1 (°C)	4.29T ext. ref 2 (°C)	24.56length (m)	temperature (°C)	Stokes	anti-Stokes-747.200	-110.916	-0.237	-0.049
-746.185	181.233	-0.116	0.172
-745.171	-200.000	-0.043	0.235
-744.156	476.233	0.144	0.328
-743.142	800.000	-0.097	0.299
-742.127	800.000	0.121	0.364
-741.112	-200.000	0.030	0.140
-740.098	-147.688	-0.310	-0.026
-739.083	-119.481	0.162	-0.028
-738.069	8.806	-0.233	0.176
-737.054	2.886	0.133	0.097
-736.039	-71.983	-0.176	-0.066
-735.025	4.888	0.244	0.180
-734.010	-146.788	0.105	0.009
-732.996	800.000	0.156	-0.546
-731.981	41.954	-0.087	0.079
-730.966	-200.000	0.037	-0.174
-729.952	-43.068	-0.483	0.246
-728.937	-110.604	0.213	-0.044
-727.923	800.000	0.007	0.029
-726.908	-159.659	-0.254	-0.014
-725.894	-200.000	0.167	0.001
-724.879	-111.956	0.110	0.022
-723.864	555.130	-0.090	0.218
-722.850	-169.947	-0.405	-0.015
-721.835	-200.000	0.033	-0.290
-720.821	-9.245	0.128	0.086
-719.806	-129.428	-0.241	0.034
-718.791	-200.000	0.003	0.164
-717.777	-200.000	-0.004	0.105
-716.762	-22.241	-0.298	-0.181
-715.748	69.355	-0.118	-0.123
-714.733	-200.000	-0.036	0.349
-713.718	800.000	0.076	-0.264
-712.704	-200.000	0.054	-0.281
-711.689	10.695	-0.392	-0.300
-710.675	-52.211	-0.178	-0.083
-709.660	98.205	0.193	-0.223
-708.645	800.000	-0.059	-0.252
-707.631	21.672	0.278	-0.227
-706.616	265.429	-0.077	-0.136
-705.602	-139.673	-0.253	0.027
-704.587	697.717	-0.139	-0.367
-703.572	118.204	0.165	-0.204
-702.558	-89.295	0.140	0.041
-701.543	-51.954	0.095	0.044
-700.529	191.307	-0.264	-0.399
-699.514	335.127	0.084	-0.164
-698.499	666.264	0.052	0.134
-697.485	365.883	-0.084	0.170
-696.470	-73.451	0.370	0.136
-695.456	84.512	-0.242	-0.266
-694.441	389.449	-0.131	-0.273
-693.426	-200.000	-0.036	-0.272
-692.412	-65.662	-0.262	0.106
-691.397	278.104	-0.107	0.192
-690.383	-10.272	-0.235	0.157
-689.368	22.508	0.178	0.146
-688.354	313.120	-0.067	0.127
-687.339	40.387	-0.153	-0.139
-686.324	800.000	0.061	-0.232
-685.310	-114.541	-0.249	-0.048
-684.295	-200.000	0.006	0.165
-683.281	-28.529	0.177	-0.103
-682.266	-10.026	-0.375	-0.250
-681.251	800.000	-0.130	-0.383
-680.237	38.273	0.125	0.112
-679.222	55.491	-0.206	-0.200
-678.208	800.000	-0.068	-0.195
-677.193	70.465	-0.160	-0.166
-676.178	470.755	-0.098	0.220
-675.164	800.000	0.048	-0.134
-674.149	95.507	-0.182	-0.208
-673.135	77.404	0.058	-0.062
-672.120	37.776	-0.187	-0.166
-671.105	-24.017	-0.093	-0.056
-670.091	-125.541	0.343	0.052
-669.076	-8.616	0.024	0.016
-668.062	-157.500	-0.332	0.020
-667.047	3.020	-0.196	-0.143
-666.032	-113.707	0.181	-0.035
-665.018	753.607	-0.043	0.116
-664.003	-113.833	-0.332	-0.065
-662.989	-19.496	0.227	-0.141
-661.974	-200.000	-0.016	0.094
-660.959	222.290	-0.203	0.327
-659.945	-50.265	-0.077	-0.037
-658.930	-174.627	0.391	-0.011
-657.916	81.802	0.089	0.097
-656.901	310.846	-0.039	0.074
-655.886	-1.314	-0.120	0.085
-654.872	-43.009	0.457	0.232
-653.857	169.159	-0.138	0.197
-652.843	-200.000	0.051	-0.336
-651.828	-42.484	0.196	0.100
-650.814	-141.548	-0.072	-0.007
-649.799	44.969	0.140	0.129
-648.784	68.194	0.217	-0.222
-647.770	-200.000	-0.041	-0.376
-646.755	-200.000	0.040	-0.255
-645.741	800.000	0.034	-0.138
-644.726	-11.460	-0.073	0.048
-643.711	-144.205	-0.143	-0.013
-642.697	-15.498	0.114	-0.073
-641.682	-200.000	-0.007	-0.259
-640.668	800.000	-0.057	0.168
-639.653	-117.336	-0.125	-0.023
-638.638	-88.942	0.310	-0.092
-637.624	-200.000	0.017	-0.109
-636.609	-47.243	0.065	0.032
-635.595	28.364	-0.245	0.208
-634.580	367.670	0.056	0.114
-633.565	-50.991	-0.060	-0.028
-632.551	-65.217	-0.210	-0.085
-631.536	-200.000	0.056	-0.326
-630.522	-200.000	-0.009	0.176
-629.507	-86.318	0.223	0.069
-628.492	24.430	0.396	0.328
-627.478	-200.000	-0.220	-0.001
-626.463	-200.000	-0.017	0.328
-625.449	13.249	0.123	0.095
-624.434	-143.385	-0.203	-0.019
-623.419	800.000	0.059	-0.231
-622.405	13.203	-0.151	0.117
-621.390	668.774	0.094	0.243
-620.376	800.000	0.065	-0.275
-619.361	127.484	-0.155	-0.197
-618.346	-81.419	-0.314	-0.104
-617.332	-94.384	0.093	0.025
-616.317	-176.546	0.307	-0.008
-615.303	-113.519	0.287	0.056
-614.288	-142.213	0.153	-0.015
-613.273	800.000	0.084	0.248
-612.259	800.000	-0.024	-0.073
-611.244	454.482	-0.138	0.307
-610.230	358.641	0.101	-0.202
-609.215	193.025	-0.108	-0.164
-608.201	16.216	0.405	0.320
-607.186	-146.832	0.085	0.007
-606.171	800.000	-0.132	-0.371
-605.157	-80.389	0.111	0.037
-604.142	339.950	-0.136	0.265
-603.128	-93.433	-0.313	0.087
-602.113	-49.641	-0.187	0.089
-601.098	15.467	-0.034	-0.027
-600.084	533.692	-0.106	0.251
-599.069	-8.229	-0.057	-0.038
-598.055	508.836	0.034	-0.078
-597.040	340.901	-0.103	0.200
-596.025	-200.000	-0.024	-0.121
-595.011	-200.000	0.002	-0.348
-593.996	800.000	0.011	-0.039
-592.982	-92.330	0.118	-0.033
-591.967	256.399	0.233	0.400
-590.952	-200.000	0.012	-0.406
-589.938	91.926	0.328	-0.369
-588.923	-175.975	0.110	0.003
-587.909	91.528	0.062	0.070
-586.894	388.087	-0.124	-0.257
-585.879	-186.533	0.201	-0.003
-584.865	380.078	0.180	0.368
-583.850	800.000	0.067	-0.256
-582.836	-18.331	0.147	-0.092
-581.821	118.395	-0.047	-0.058
-580.806	-200.000	-0.057	-0.335
-579.792	800.000	-0.016	-0.068
-578.777	800.000	-0.011	0.045
-577.763	800.000	-0.031	-0.092
-576.748	93.514	0.065	0.073
-575.733	-71.048	-0.128	-0.048
-574.719	141.743	0.220	-0.292
-573.704	765.585	0.122	-0.331
-572.690	54.403	0.066	0.064
-571.675	-14.387	-0.351	-0.226
-570.661	-200.000	-0.004	-0.362
-569.646	-200.000	-0.002	0.099
-568.631	81.877	-0.214	0.231
-567.617	-150.855	0.142	-0.011
-566.602	-7.744	0.146	0.098
-565.588	-138.801	0.131	-0.014
-564.573	-200.000	-0.061	0.298
-563.558	-200.000	0.028	0.181
-562.544	-76.587	0.288	-0.101
-561.529	131.787	-0.023	-0.030
-560.515	-9.655	0.133	0.088
-559.500	-200.000	-0.003	0.328
-558.485	-152.514	0.185	-0.013
-557.471	-117.373	-0.277	0.050
-556.456	24.974	0.141	0.117
-555.442	-200.000	0.030	0.205
-554.427	800.000	0.119	0.479
-553.412	800.000	0.052	0.154
-552.398	-112.866	-0.238	0.047
-551.383	800.000	0.034	-0.110
-550.369	76.091	-0.145	0.153
-549.354	-148.595	0.285	0.023
-548.339	-200.000	0.106	-0.471
-547.325	-65.093	0.263	0.106
-546.310	-200.000	0.024	0.391
-545.296	180.697	0.050	0.074
-544.281	-129.618	0.362	-0.050
-543.266	445.305	-0.109	0.240
-542.252	-122.552	-0.222	-0.036
-541.237	-126.207	-0.199	-0.030
-540.223	-35.341	-0.083	-0.045
-539.208	-86.028	-0.381	-0.117
-538.193	-200.000	-0.007	0.147
-537.179	348.403	0.042	0.083
-536.164	248.100	-0.140	-0.237
-535.150	-54.288	-0.109	-0.050
-534.135	-48.916	-0.105	-0.050
-533.121	-122.126	-0.356	0.058
-532.106	-11.322	-0.172	0.113
-531.091	352.775	0.114	-0.225
-530.077	55.579	0.104	0.100
-529.062	331.809	-0.104	-0.200
-528.048	240.767	-0.097	-0.161
-527.033	-114.288	0.249	-0.048
-526.018	-200.000	0.003	-0.311
-525.004	577.632	-0.141	-0.343
-523.989	-50.249	0.044	-0.021
-522.975	-43.712	-0.216	-0.109
-521.960	800.000	-0.013	-0.042
-520.945	69.793	-0.172	0.177
-519.931	156.062	-0.175	-0.241
-518.916	490.177	0.131	-0.299
-517.902	-152.997	0.089	-0.006
-516.887	179.852	0.063	0.092
-515.872	-95.069	-0.315	-0.085
-514.858	-71.283	-0.246	0.092
-513.843	-200.000	0.009	-0.205
-512.829	220.428	-0.199	0.318
-511.814	-31.474	0.238	0.133
-510.799	359.859	0.121	-0.242
-509.785	-3.497	-0.180	-0.125
-508.770	118.014	0.134	0.165
-507.756	-186.738	0.198	0.003
-506.741	-118.523	0.062	0.011
-505.726	-145.505	0.091	0.008
-504.712	-99.436	0.320	-0.080
-503.697	-157.240	-0.235	0.014
-502.683	418.361	0.005	-0.011
-501.668	271.536	-0.075	-0.131
-500.653	-86.527	-0.277	0.085
-499.639	211.392	-0.123	-0.194
-498.624	532.189	-0.073	0.172
-497.610	-156.273	0.267	0.017
-496.595	402.757	-0.091	-0.190
-495.581	67.808	0.155	0.157
-494.566	-137.641	0.108	0.012
-493.551	360.647	-0.052	-0.104
-492.537	-22.490	-0.159	-0.096
-491.522	-10.314	0.010	-0.006
-490.508	-103.361	-0.171	0.040
-489.493	-50.182	-0.171	-0.081
-488.478	-102.525	0.207	0.049
-487.464	-200.000	-0.003	0.109
-486.449	-200.000	-0.053	0.248
-485.435	-106.473	-0.544	0.121
-484.420	258.926	0.145	0.249
-483.405	447.235	0.125	-0.274
-482.391	-99.680	0.374	-0.093
-481.376	105.158	-0.200	-0.236
-480.362	165.041	-0.082	0.115
-479.347	-128.306	0.158	0.022
-478.332	800.000	0.061	-0.219
-477.318	87.701	-0.155	0.171
-476.303	64.233	0.165	-0.165
-475.289	233.457	-0.072	-0.117
-474.274	800.000	-0.065	0.238
-473.259	800.000	-0.120	0.386
-472.245	-200.000	0.032	0.249
-471.230	204.164	-0.148	0.228
-470.216	-140.807	0.107	-0.011
-469.201	80.228	-0.277	0.297
-468.186	9.172	-0.130	-0.097
-467.172	159.750	0.113	-0.156
-466.157	95.257	-0.181	0.206
-465.143	233.303	-0.031	-0.051
-464.128	-41.601	0.212	0.108
-463.113	-111.173	-0.047	-0.010
-462.099	-200.000	-0.024	-0.130
-461.084	638.441	0.058	-0.148
-460.070	90.516	-0.121	-0.135
-459.055	71.177	-0.257	-0.265
-458.040	-183.487	0.110	0.002
-457.026	-143.931	0.174	0.016
-456.011	15.914	-0.087	0.068
-454.997	-91.154	-0.257	0.073
-453.982	-47.503	-0.305	0.148
-452.968	54.097	-0.180	0.173
-451.953	-43.056	-0.147	-0.074
-450.938	800.000	0.133	-0.401
-449.924	47.961	-0.089	0.082
-448.909	474.372	0.093	0.209
-447.895	28.697	-0.046	0.039
-446.880	159.382	0.065	0.091
-445.865	800.000	0.074	0.249
-444.851	-200.000	-0.030	0.230
-443.836	-15.618	0.229	0.145
-442.822	-56.248	0.187	0.083
-441.807	554.969	-0.045	-0.109
-440.792	-200.000	0.019	-0.168
-439.778	275.465	-0.078	0.138
-438.763	800.000	-0.065	-0.204
-437.749	89.838	-0.033	0.037
-436.734	-200.000	0.006	-0.104
-435.719	-127.884	0.350	-0.050
-434.705	-200.000	-0.007	-0.232
-433.690	200.370	-0.130	-0.199
-432.676	-77.101	-0.245	-0.085
-431.661	-43.293	0.233	-0.117
-430.646	-193.619	-0.127	-0.001
-429.632	388.083	0.084	-0.172
-428.617	-43.931	0.219	-0.109
-427.603	-82.182	-0.142	-0.046
-426.588	-133.010	0.145	0.018
-425.573	97.729	0.012	0.014
-424.559	-126.307	-0.354	-0.053
-423.544	-200.000	0.013	0.166
-422.530	716.265	0.082	0.216
-421.515	-62.829	-0.112	-0.046
-420.500	-89.308	-0.103	0.030
-419.486	-146.271	0.453	-0.039
-418.471	636.307	0.058	0.145
-417.457	800.000	0.027	0.100
-416.442	-116.226	-0.420	-0.077
-415.428	-200.000	0.001	0.019
-414.413	800.000	-0.050	0.157
-413.398	140.951	-0.140	0.183
-412.384	-68.124	-0.194	0.075
-411.369	64.682	-0.160	0.160
-410.355	-82.788	0.069	0.022
-409.340	-119.599	0.160	0.028
-408.325	-126.185	0.159	-0.024
-407.311	497.519	0.074	-0.169
-406.296	-17.749	-0.214	0.133
-405.282	788.822	-0.046	-0.125
-404.267	-200.000	0.034	0.350
-403.252	-200.000	-0.029	0.344
-402.238	-200.000	0.038	0.417
-401.223	86.064	-0.256	0.279
-400.209	-105.435	0.243	-0.055
-399.194	-200.000	0.031	-0.151
-398.179	800.000	0.087	-0.275
-397.165	71.365	-0.115	-0.119
-396.150	191.631	0.073	-0.109
-395.136	502.489	-0.132	-0.302
-394.121	-200.000	0.006	0.460
-393.106	268.019	-0.051	0.089
-392.092	-200.000	-0.020	0.107
-391.077	-160.490	0.085	-0.004
-390.063	501.514	-0.015	-0.034
-389.048	-200.000	-0.016	-0.098
-388.033	41.897	-0.083	0.074
-387.019	-99.913	0.048	-0.012
-386.004	-141.809	-0.287	-0.029
-384.990	-152.107	-0.081	-0.006
-383.975	-50.701	0.431	0.201
-382.960	211.825	-0.221	0.345
-381.946	290.890	0.277	-0.499
-380.931	201.069	0.013	0.020
-379.917	8.340	-0.169	-0.126
-378.902	-200.000	0.009	-0.115
-377.888	-200.000	-0.001	-0.042
-376.873	55.627	0.464	-0.446
-375.858	-200.000	-0.038	-0.180
-374.844	369.158	-0.118	-0.236
-373.829	-29.846	-0.142	0.080
-372.815	-200.000	0.026	-0.262
-371.800	-170.958	-0.181	-0.006
-370.785	174.422	0.077	0.111
-369.771	-29.133	-0.135	0.077
-368.756	93.934	-0.167	0.188
-367.742	-200.000	-0.015	-0.360
-366.727	26.897	-0.063	0.052
-365.712	168.680	0.134	0.189
-364.698	4.312	-0.175	-0.127
-363.683	-22.246	0.223	0.134
-362.669	-200.000	0.011	-0.086
-361.654	-180.405	0.394	0.008
-360.639	71.333	0.039	-0.040
-359.625	-152.411	0.346	-0.025
-358.610	-152.298	0.126	0.009
-357.596	97.723	0.164	0.187
-356.581	-200.000	0.009	0.172
-355.566	-200.000	-0.001	-0.024
-354.552	-200.000	-0.007	-0.158
-353.537	-112.439	-0.322	0.064
-352.523	694.764	-0.033	0.085
-351.508	-47.218	0.159	-0.077
-350.493	328.063	0.105	-0.199
-349.479	380.338	0.056	0.114
-348.464	45.434	-0.321	-0.294
-347.450	8.931	-0.048	-0.036
-346.435	95.172	0.182	-0.205
-345.420	-62.275	0.067	-0.028
-344.406	-106.756	-0.277	-0.061
-343.391	579.377	-0.092	0.224
-342.377	-6.578	0.329	-0.222
-341.362	-147.485	0.185	-0.015
-340.348	-68.542	0.279	-0.107
-339.333	-168.958	-0.219	0.008
-338.318	5.910	0.191	0.140
-337.304	800.000	0.015	-0.043
-336.289	312.401	0.084	-0.155
-335.275	413.830	-0.128	0.269
-334.260	800.000	0.016	0.047
-333.245	-48.268	0.125	0.060
-332.231	158.182	0.145	0.199
-331.216	-115.500	0.114	0.021
-330.202	-89.151	0.375	0.110
-329.187	-79.500	0.077	0.026
-328.172	-3.297	0.097	-0.067
-327.158	114.403	0.019	-0.023
-326.143	59.102	-0.076	0.074
-325.129	791.830	0.083	-0.225
-324.114	-200.000	0.016	-0.135
-323.099	152.866	0.146	0.197
-322.085	-89.477	0.074	0.022
-321.070	800.000	0.129	0.528
-320.056	280.960	0.252	0.446
-319.041	-9.638	-0.136	0.090
-318.026	43.438	-0.173	-0.156
-317.012	-200.000	-0.020	-0.322
-315.997	363.009	0.047	0.093
-314.983	6.483	0.218	-0.160
-313.968	-200.000	0.009	-0.083
-312.953	58.334	0.149	-0.145
-311.939	706.139	0.076	-0.199
-310.924	240.830	0.076	0.126
-309.910	38.175	0.404	0.356
-308.895	-5.595	0.188	-0.127
-307.880	166.840	-0.144	-0.202
-306.866	15.496	-0.165	0.128
-305.851	-200.000	0.095	0.000
-304.837	-81.318	-0.235	0.076
-303.822	-200.000	0.023	-0.156
-302.807	13.402	-0.271	0.208
-301.793	-112.634	-0.082	-0.016
-300.778	301.279	-0.138	0.251
-299.764	-149.628	0.123	0.010
-298.749	150.605	-0.136	-0.183
-297.735	-200.000	-0.082	0.394
-296.720	-138.880	0.300	0.032
-295.705	471.469	0.185	0.412
-294.691	-72.269	-0.057	0.021
-293.676	-200.000	0.033	-0.264
-292.662	536.870	0.110	-0.259
-291.647	51.578	-0.218	-0.204
-290.632	-31.783	0.253	0.140
-289.618	291.183	-0.067	0.120
-288.603	-50.574	-0.250	-0.116
-287.589	160.068	0.169	0.233
-286.574	-39.792	-0.168	-0.087
-285.559	-155.693	-0.259	0.016
-284.545	464.995	-0.189	0.419
-283.530	-95.260	-0.150	0.040
-282.516	-152.515	0.186	0.013
-281.501	-169.059	-0.086	-0.003
-280.486	-200.000	0.068	0.407
-279.472	304.653	-0.098	-0.180
-278.457	-132.086	0.150	-0.019
-277.443	-96.991	0.241	-0.062
-276.428	800.000	-0.028	0.100
-275.413	-122.525	0.107	0.017
-274.399	101.697	0.224	-0.258
-273.384	-46.049	-0.255	0.124
-272.370	-200.000	-0.007	-0.057
-271.355	9.347	-0.213	-0.159
-270.340	-200.000	0.021	0.301
-269.326	800.000	0.108	0.299
-268.311	-55.643	-0.350	-0.155
-267.297	-60.413	-0.098	0.041
-266.282	470.836	-0.137	-0.305
-265.267	-200.000	-0.071	-0.340
-264.253	-200.000	0.007	-0.042
-263.238	191.900	0.020	-0.030
-262.224	-19.503	-0.031	0.019
-261.209	-19.582	-0.283	-0.173
-260.195	-43.430	0.174	-0.087
-259.180	-64.452	-0.283	0.113
-258.165	51.436	0.030	0.028
-257.151	800.000	-0.065	0.234
-256.136	43.697	0.205	0.185
-255.122	-4.349	0.224	0.153
-254.107	-34.355	0.239	0.129
-253.092	-3.809	-0.090	-0.062
-252.078	-48.184	0.263	0.125
-251.063	76.752	0.217	0.227
-250.049	-98.957	0.052	-0.013
-249.034	-200.000	-0.047	-0.252
-248.019	800.000	-0.134	0.375
-247.005	-51.644	0.122	0.056
-245.990	88.641	-0.099	-0.109
-244.976	232.913	-0.195	-0.316
-243.961	246.929	0.162	0.270
-242.946	-59.304	0.094	0.040
-241.932	30.811	0.100	-0.085
-240.917	46.139	0.149	-0.136
-239.903	209.173	0.169	-0.261
-238.888	7.039	-0.127	0.094
-237.873	-116.393	0.265	-0.048
-236.859	641.143	-0.060	0.150
-235.844	-28.721	-0.118	-0.067
-234.830	-200.000	0.021	0.217
-233.815	-200.000	0.011	-0.306
-232.800	223.720	0.087	-0.139
-231.786	-64.937	0.240	-0.096
-230.771	5.174	0.363	-0.264
-229.757	-200.000	-0.090	-0.534
-228.742	800.000	-0.010	-0.043
-227.727	-90.163	-0.264	-0.076
-226.713	169.031	-0.238	0.335
-225.698	-200.000	-0.093	-0.415
-224.684	481.034	0.154	-0.344
-223.669	128.299	0.121	0.151
-222.655	-67.270	0.337	-0.131
-221.640	-200.000	0.042	-0.306
-220.625	800.000	0.040	-0.165
-219.611	-12.659	0.108	-0.069
-218.596	-153.672	0.165	0.011
-217.582	-83.005	-0.089	0.028
-216.567	25.233	0.208	-0.170
-215.552	-200.000	0.007	-0.103
-214.538	-200.000	-0.032	0.212
-213.523	236.566	-0.074	0.120
-212.509	-200.000	-0.005	-0.085
-211.494	-200.000	-0.018	0.126
-210.479	800.000	0.074	0.230
-209.465	324.537	0.081	0.152
-208.450	-92.579	-0.514	0.142
-207.436	210.071	-0.182	0.281
-206.421	291.082	0.046	0.083
-205.406	800.000	-0.037	0.140
-204.392	130.288	0.027	-0.035
-203.377	-99.298	-0.192	-0.048
-202.363	63.018	0.034	0.034
-201.348	-200.000	-0.006	0.096
-200.333	-18.111	-0.045	0.028
-199.319	800.000	0.011	-0.035
-198.304	56.983	-0.043	-0.042
-197.290	-142.999	-0.167	-0.016
-196.275	-65.192	-0.336	-0.133
-195.260	-29.542	-0.382	0.215
-194.246	-139.888	0.129	0.013
-193.231	-45.334	-0.220	-0.107
-192.217	-200.000	-0.010	0.272
-191.202	20.077	0.059	-0.046
-190.187	237.077	-0.093	0.152
-189.173	-67.747	0.134	0.052
-188.158	120.743	0.188	-0.230
-187.144	49.850	0.204	-0.190
-186.129	-43.061	-0.115	-0.057
-185.114	-4.235	-0.023	-0.016
-184.100	-200.000	-0.042	0.221
-183.085	566.297	0.051	0.121
-182.071	-55.055	-0.453	-0.201
-181.056	346.960	-0.101	-0.195
-180.042	-149.470	0.101	-0.008
-179.027	117.715	-0.213	0.259
-178.012	-59.162	-0.403	-0.171
-176.998	371.502	0.098	0.195
-175.983	-200.000	0.048	0.363
-174.969	35.404	0.112	0.097
-173.954	-51.858	-0.259	-0.119
-172.939	-35.370	0.330	-0.177
-171.925	397.453	-0.152	-0.314
-170.910	-118.840	-0.252	-0.044
-169.896	263.942	-0.061	0.105
-168.881	800.000	0.096	-0.320
-167.866	800.000	-0.025	-0.089
-166.852	-200.000	-0.005	0.144
-165.837	1.874	0.066	-0.047
-164.823	-105.021	-0.195	-0.044
-163.808	214.135	-0.031	0.048
-162.793	-31.039	0.053	-0.029
-161.779	-18.593	-0.091	-0.056
-160.764	338.084	-0.041	0.079
-159.750	327.485	-0.095	-0.178
-158.735	-200.000	0.004	0.125
-157.720	-88.017	-0.160	0.047
-156.706	-147.706	-0.047	-0.004
-155.691	214.801	-0.131	0.204
-154.677	-60.939	0.311	0.129
-153.662	328.360	-0.101	0.190
-152.647	279.611	-0.090	0.158
-151.633	38.966	0.075	-0.066
-150.618	315.952	0.136	-0.252
-149.604	800.000	-0.078	-0.220
-148.589	800.000	-0.105	0.391
-147.574	-105.083	-0.097	0.022
-146.560	-110.649	-0.290	0.059
-145.545	701.443	-0.076	0.197
-144.531	-200.000	-0.026	0.206
-143.516	-97.147	-0.022	-0.006
-142.502	-52.699	0.354	0.161
-141.487	-15.175	-0.164	-0.103
-140.472	-44.295	0.098	0.048
-139.458	274.817	0.162	0.282
-138.443	-92.440	-0.387	0.107
-137.429	-54.074	0.059	-0.026
-136.414	-146.383	-0.256	-0.022
-135.399	-128.721	0.124	0.017
-134.385	-200.000	0.016	-0.380
-133.370	302.210	0.116	0.210
-132.356	800.000	-0.071	0.194
-131.341	-31.622	0.159	-0.088
-130.326	-63.743	-0.057	0.023
-129.312	-87.657	0.294	-0.087
-128.297	-108.030	0.187	-0.040
-127.283	-143.110	0.222	0.021
-126.268	-66.071	-0.347	0.136
-125.253	746.114	-0.080	-0.213
-124.239	-90.267	-0.151	0.043
-123.224	800.000	-0.038	-0.117
-122.210	157.142	-0.176	-0.238
