DTS Sentinel unit serial number:	SN413079Multiplexer serial number:	ORYXHardware model number:	OX4-SRSoftware version number:	ORYX F/W v4.00 Oryx Data Collector v3.7.2.0data status	okinstallation	princeton_trtdifferential loss correction	single-endedforward channel	channel 2reverse channel	N/Adate	2019/09/11time	19:05:11forward acquisition time	60.00reverse acquisition time	0.00gamma	496.2192k internal	0.2297k external	0.2297temperature offset calibration	1.0039default loss term (dB/km)	0.3790temperature slope calibration	1.0000multiplexer offset coefficient	1.0000multiplexer slope coefficient	1.0000fibre end	0.00T internal ref (°C)	42.00T ext. ref 1 (°C)	1.27T ext. ref 2 (°C)	34.29length (m)	temperature (°C)	Stokes	anti-Stokes-747.200	-139.362	0.055	0.006
-746.185	800.000	0.118	0.381
-745.171	-134.697	0.207	0.026
-744.156	-200.000	0.031	0.349
-743.142	402.333	0.213	0.457
-742.127	-109.756	-0.406	0.087
-741.112	-5.856	0.237	-0.166
-740.098	343.045	-0.156	0.313
-739.083	-46.308	-0.060	-0.030
-738.069	-200.000	0.022	0.194
-737.054	-108.439	-0.164	0.036
-736.039	362.373	0.085	-0.174
-735.025	800.000	-0.033	0.139
-734.010	-65.050	-0.172	-0.071
-732.996	-67.921	-0.199	-0.079
-731.981	-125.791	-0.164	-0.025
-730.966	166.321	-0.204	0.294
-729.952	-113.040	-0.658	-0.133
-728.937	-49.100	-0.129	-0.063
-727.923	800.000	-0.112	-0.347
-726.908	-122.059	0.098	0.016
-725.894	-108.003	-0.325	0.072
-724.879	-200.000	-0.011	-0.644
-723.864	-39.020	0.036	-0.019
-722.850	-200.000	0.036	-0.238
-721.835	-200.000	0.025	0.133
-720.821	-36.596	-0.074	-0.041
-719.806	800.000	0.068	-0.220
-718.791	800.000	-0.049	-0.169
-717.777	82.023	-0.174	0.193
-716.762	-148.652	-0.122	-0.010
-715.748	94.837	0.010	0.012
-714.733	-200.000	0.188	0.000
-713.718	2.620	0.209	0.154
-712.704	800.000	-0.034	-0.108
-711.689	-200.000	-0.025	-0.149
-710.675	-115.209	-0.228	-0.044
-709.660	-200.000	0.101	-0.482
-708.645	24.164	0.249	-0.210
-707.631	-108.777	-0.095	0.021
-706.616	746.214	0.038	-0.104
-705.602	155.075	-0.151	-0.212
-704.587	-200.000	0.003	-0.076
-703.572	-80.291	0.278	-0.095
-702.558	-59.983	-0.377	0.164
-701.543	-2.412	-0.337	-0.241
-700.529	800.000	0.058	-0.238
-699.514	-123.250	-0.239	-0.039
-698.499	328.876	-0.080	0.157
-697.485	-105.883	0.212	0.049
-696.470	-167.227	-0.333	-0.014
-695.456	-200.000	-0.016	0.214
-694.441	-71.979	0.280	0.106
-693.426	-56.979	0.149	-0.067
-692.412	-200.000	-0.011	0.167
-691.397	-28.031	0.041	-0.024
-690.383	-102.662	-0.066	0.016
-689.368	-39.211	0.098	-0.053
-688.354	-137.674	-0.278	0.032
-687.339	152.008	-0.167	0.232
-686.324	-16.517	-0.086	-0.055
-685.310	81.878	-0.099	-0.109
-684.295	-200.000	0.001	-0.139
-683.281	-76.359	0.099	0.035
-682.266	159.631	-0.258	-0.366
-681.251	102.325	-0.118	-0.141
-680.237	97.479	0.056	-0.065
-679.222	-13.675	0.126	0.083
-678.208	-200.000	0.051	0.332
-677.193	201.454	0.204	-0.320
-676.178	52.213	0.269	-0.261
-675.164	-149.506	-0.333	0.027
-674.149	-200.000	-0.026	0.132
-673.135	-130.070	0.092	0.013
-672.120	-155.285	-0.313	0.021
-671.105	550.593	-0.072	0.177
-670.091	233.174	-0.036	-0.060
-669.076	296.891	-0.085	0.158
-668.062	-67.931	-0.229	0.091
-667.047	-70.650	-0.248	0.095
-666.032	-70.910	-0.131	-0.050
-665.018	-200.000	0.004	-0.052
-664.003	800.000	-0.096	-0.278
-662.989	-50.397	-0.305	0.147
-661.974	128.204	0.112	-0.145
-660.959	-165.449	-0.216	-0.010
-659.945	800.000	0.108	-0.324
-658.930	-139.595	0.305	-0.033
-657.916	-47.293	0.303	-0.150
-656.901	800.000	0.141	-0.407
-655.886	-68.382	0.148	0.058
-654.872	800.000	0.135	-0.479
-653.857	-200.000	-0.002	-0.120
-652.843	-94.736	-0.181	0.050
-651.828	27.977	-0.225	0.193
-650.814	-200.000	-0.005	-0.222
-649.799	-64.145	-0.199	0.083
-648.784	-200.000	0.009	0.043
-647.770	-193.325	-0.276	0.002
-646.755	-200.000	-0.301	0.000
-645.741	229.869	-0.081	-0.135
-644.726	216.657	0.136	-0.221
-643.711	-200.000	0.024	-0.202
-642.697	244.117	0.156	-0.267
-641.682	-200.000	-0.037	0.267
-640.668	42.075	0.285	-0.263
-639.653	800.000	-0.081	-0.241
-638.638	110.300	-0.199	-0.243
-637.624	800.000	-0.041	0.145
-636.609	523.735	-0.106	0.254
-635.595	-200.000	0.025	-0.224
-634.580	453.148	0.084	0.190
-633.565	-200.000	-0.000	-0.081
-632.551	341.517	-0.052	-0.102
-631.536	126.328	-0.050	0.065
-630.522	375.390	-0.156	0.324
-629.507	8.325	0.132	-0.101
-628.492	241.899	-0.155	-0.263
-627.478	-103.522	0.231	0.055
-626.463	-16.524	-0.289	0.186
-625.449	-44.567	-0.180	0.091
-624.434	-4.776	0.067	0.047
-623.419	-122.239	-0.377	-0.063
-622.405	-25.359	-0.101	-0.061
-621.390	-18.546	0.291	0.185
-620.376	-200.000	0.008	-0.056
-619.361	669.162	-0.114	0.299
-618.346	33.784	-0.126	-0.111
-617.332	-127.318	-0.113	0.017
-616.317	190.905	-0.111	-0.169
-615.303	134.818	0.129	-0.170
-614.288	-13.066	-0.091	0.060
-613.273	112.452	-0.228	-0.281
-612.259	174.745	-0.140	0.206
-611.244	175.280	0.227	0.334
-610.230	376.942	0.161	0.334
-609.215	-200.000	-0.022	0.112
-608.201	-7.180	0.287	0.198
-607.186	-126.941	-0.147	-0.022
-606.171	-32.789	0.073	0.041
-605.157	-1.911	0.201	-0.144
-604.142	21.948	-0.262	-0.217
-603.128	-147.756	0.105	-0.009
-602.113	-27.385	-0.404	0.239
-601.098	-37.798	0.019	-0.010
-600.084	-200.000	0.032	0.491
-599.069	319.537	-0.109	-0.210
-598.055	-94.004	0.204	0.057
-597.040	-121.891	0.021	0.003
-596.025	800.000	-0.109	-0.401
-595.011	-75.420	0.139	0.050
-593.996	-147.462	0.284	0.024
-592.982	-47.495	0.074	0.037
-591.967	800.000	0.087	-0.321
-590.952	-200.000	-0.027	0.192
-589.938	230.221	-0.180	-0.299
-588.923	279.378	-0.082	0.149
-587.909	800.000	-0.200	0.594
-586.894	-46.445	-0.100	0.050
-585.879	60.280	0.217	-0.218
-584.865	-82.780	-0.254	0.083
-583.850	123.659	0.158	-0.202
-582.836	-139.329	0.157	-0.017
-581.821	-73.601	0.094	0.035
-580.806	136.282	-0.068	0.089
-579.792	-30.740	-0.112	0.064
-578.777	-68.807	0.229	-0.090
-577.763	114.585	-0.044	-0.054
-576.748	-94.309	-0.118	0.033
-575.733	800.000	-0.033	0.137
-574.719	-200.000	-0.031	-0.274
-573.704	21.574	0.097	0.080
-572.690	230.877	0.058	0.096
-571.675	177.032	0.146	-0.216
-570.661	-45.923	0.442	-0.221
-569.646	12.267	-0.433	0.339
-568.631	-13.427	0.206	-0.135
-567.617	19.886	0.046	-0.038
-566.602	699.257	-0.127	0.339
-565.588	-145.533	-0.135	0.012
-564.573	800.000	0.104	-0.299
-563.558	-74.215	-0.091	-0.033
-562.544	186.294	0.133	0.201
-561.529	94.987	-0.122	0.141
-560.515	183.843	0.022	0.033
-559.500	-56.734	-0.247	-0.111
-558.485	263.263	-0.106	0.186
-557.471	-142.745	0.326	-0.032
-556.456	-86.240	-0.167	0.052
-555.442	-200.000	-0.001	-0.077
-554.427	347.561	-0.256	0.511
-553.412	-200.000	0.009	-0.341
-552.398	14.047	-0.153	-0.121
-551.383	800.000	0.081	-0.340
-550.369	-102.607	0.156	0.038
-549.354	-200.000	-0.051	-0.304
-548.339	800.000	-0.064	0.244
-547.325	-200.000	-0.003	-0.173
-546.310	-104.679	-0.362	0.085
-545.296	90.787	-0.146	0.166
-544.281	-200.000	-0.020	-0.156
-543.266	-20.447	0.036	0.022
-542.252	-64.014	0.121	-0.050
-541.237	-5.313	-0.074	0.051
-540.223	420.485	-0.085	-0.184
-539.208	82.156	0.045	-0.050
-538.193	-200.000	-0.029	-0.138
-537.179	-7.481	-0.186	-0.128
-536.164	-73.410	-0.389	-0.144
-535.150	61.043	0.033	0.033
-534.135	410.094	-0.158	-0.340
-533.121	-200.000	0.001	-0.184
-532.106	-200.000	-0.005	-0.335
-531.091	11.785	0.124	-0.097
-530.077	742.590	0.070	0.190
-529.062	2.142	-0.089	0.065
-528.048	10.827	0.144	-0.111
-527.033	-100.730	0.496	0.124
-526.018	-24.463	0.309	-0.186
-525.004	-56.020	0.186	0.084
-523.989	104.456	-0.246	-0.293
-522.975	670.142	-0.089	0.233
-521.960	-146.308	-0.186	-0.017
-520.945	-138.267	0.258	-0.029
-519.931	800.000	0.031	0.102
-518.916	-14.341	0.156	-0.102
-517.902	-49.285	-0.314	-0.152
-516.887	327.216	-0.081	0.156
-515.872	69.849	0.226	-0.236
-514.858	-200.000	-0.004	-0.025
-513.843	-32.224	0.092	0.052
-512.829	800.000	0.087	0.335
-511.814	93.705	-0.222	0.254
-510.799	40.101	-0.281	-0.256
-509.785	50.839	0.044	-0.042
-508.770	15.583	-0.272	-0.217
-507.756	6.373	-0.111	-0.084
-506.741	110.408	0.254	0.308
-505.726	8.508	-0.183	0.139
-504.712	138.676	-0.142	0.189
-503.697	-57.470	-0.298	0.132
-502.683	400.243	0.083	0.177
-501.668	23.805	0.202	-0.168
-500.653	459.714	0.045	-0.102
-499.639	79.652	-0.182	0.197
-498.624	-140.659	-0.517	0.054
-497.610	2.493	-0.040	-0.030
-496.595	-104.041	0.236	0.056
-495.581	-50.052	0.049	-0.024
-494.566	-13.223	-0.332	0.218
-493.551	-120.450	0.166	-0.029
-492.537	-200.000	0.032	0.204
-491.522	-200.000	-0.067	-0.328
-490.508	-116.901	0.534	0.099
-489.493	209.414	-0.027	-0.043
-488.478	-200.000	0.001	0.180
-487.464	-90.606	0.280	0.082
-486.449	-200.000	0.006	0.179
-485.435	800.000	-0.030	-0.086
-484.420	38.359	-0.105	0.094
-483.405	-28.785	0.098	0.057
-482.391	-200.000	0.007	-0.331
-481.376	-68.572	0.200	-0.078
-480.362	128.492	-0.165	-0.212
-479.347	488.903	-0.030	0.070
-478.332	-60.467	-0.180	0.077
-477.318	-177.886	-0.174	-0.004
-476.303	30.776	-0.193	-0.167
-475.289	-135.747	0.087	0.010
-474.274	-87.863	-0.134	0.041
-473.259	-182.593	0.213	-0.004
-472.245	-164.431	0.189	-0.009
-471.230	55.367	0.307	-0.300
-470.216	-200.000	-0.011	-0.131
-469.201	-159.443	-0.093	-0.005
-468.186	-200.000	-0.010	-0.093
-467.172	13.014	0.052	-0.041
-466.157	75.171	0.228	-0.243
-465.143	800.000	0.086	0.260
-464.128	26.401	0.183	-0.155
-463.113	0.730	-0.126	0.091
-462.099	-23.924	0.006	0.004
-461.084	97.580	0.072	0.083
-460.070	105.734	-0.104	0.124
-459.055	800.000	-0.109	-0.397
-458.040	40.576	-0.276	-0.251
-457.026	-200.000	0.026	0.170
-456.011	-108.967	0.286	-0.062
-454.997	-47.712	-0.248	-0.122
-453.982	213.609	-0.119	-0.190
-452.968	-89.199	0.013	0.004
-451.953	-128.442	0.183	0.026
-450.938	-73.541	0.262	0.096
-449.924	131.173	0.163	-0.211
-448.909	-97.478	-0.146	0.038
-447.895	24.170	-0.309	0.258
-446.880	55.620	0.075	0.073
-445.865	-200.000	0.037	-0.167
-444.851	28.799	-0.185	0.158
-443.836	-200.000	-0.037	-0.234
-442.822	-200.000	-0.034	-0.218
-441.807	-200.000	0.016	-0.357
-440.792	80.805	-0.140	-0.152
-439.778	-18.869	0.174	0.110
-438.763	36.522	-0.240	0.214
-437.749	103.414	-0.221	0.262
-436.734	-13.685	0.022	-0.014
-435.719	-100.562	0.090	0.023
-434.705	800.000	-0.013	0.057
-433.690	800.000	-0.039	-0.144
-432.676	-200.000	0.012	0.110
-431.661	157.642	-0.014	-0.020
-430.646	-92.581	-0.184	-0.052
-429.632	-200.000	0.040	0.319
-428.617	778.152	-0.060	-0.164
-427.603	-200.000	-0.050	-0.349
-426.588	173.828	0.038	-0.055
-425.573	139.186	0.109	-0.145
-424.559	-153.442	0.054	-0.004
-423.544	309.362	-0.094	-0.177
-422.530	-108.962	0.160	-0.034
-421.515	800.000	-0.053	0.168
-420.500	0.039	0.113	-0.082
-419.486	-131.116	0.510	-0.069
-418.471	-178.636	0.157	0.004
-417.457	787.432	-0.125	0.345
-416.442	800.000	0.058	-0.201
-415.428	-200.000	0.032	-0.491
-414.413	143.807	-0.118	-0.159
-413.398	-137.125	-0.368	0.042
-412.384	-182.112	-0.325	0.006
-411.369	-119.872	0.211	0.037
-410.355	180.816	-0.068	0.101
-409.340	-78.995	-0.156	0.054
-408.325	-189.689	0.315	0.004
-407.311	-114.953	-0.244	-0.047
-406.296	-26.749	-0.213	-0.125
-405.282	-200.000	0.032	-0.457
-404.267	-25.525	-0.358	-0.213
-403.252	-76.024	0.132	0.047
-402.238	-200.000	-0.055	0.284
-401.223	-74.425	0.078	-0.028
-400.209	-200.000	0.058	-0.382
-399.194	29.949	-0.134	0.115
-398.179	24.678	0.145	0.121
-397.165	339.199	0.160	0.314
-396.150	-200.000	0.030	-0.259
-395.136	370.844	-0.051	-0.104
-394.121	-58.862	0.118	0.052
-393.106	-200.000	-0.028	0.204
-392.092	71.138	0.123	0.129
-391.077	344.368	0.074	-0.146
-390.063	-121.695	0.123	-0.021
-389.048	25.063	0.321	0.268
-388.033	-97.232	0.108	0.028
-387.019	800.000	0.071	0.209
-386.004	-200.000	0.122	-0.553
-384.990	-36.150	0.143	0.078
-383.975	427.610	0.196	-0.426
-382.960	123.380	-0.119	0.151
-381.946	-118.611	-0.359	0.064
-380.931	-200.000	-0.036	-0.352
-379.917	-41.081	0.120	0.063
-378.902	326.218	-0.084	0.163
-377.888	-200.000	0.006	0.223
-376.873	411.656	0.028	0.061
-375.858	800.000	0.005	0.023
-374.844	-82.239	0.255	-0.084
-373.829	-160.581	-0.349	-0.019
-372.815	-200.000	-0.048	-0.253
-371.800	800.000	-0.161	0.523
-370.785	177.297	-0.031	-0.046
-369.771	-200.000	0.009	-0.281
-368.756	-200.000	0.015	-0.116
-367.742	41.700	-0.111	-0.101
-366.727	-43.052	-0.120	-0.061
-365.712	800.000	0.068	0.197
-364.698	-200.000	0.026	0.137
-363.683	138.199	0.364	0.480
-362.669	165.682	-0.075	0.107
-361.654	-36.427	0.172	0.093
-360.639	398.678	0.054	0.113
-359.625	-181.351	-0.273	-0.005
-358.610	14.963	-0.183	-0.144
-357.596	116.239	-0.151	0.187
-356.581	-137.793	0.283	0.032
-355.566	-43.349	0.131	-0.067
-354.552	383.993	-0.070	-0.145
-353.537	268.411	0.056	0.098
-352.523	-165.078	0.096	-0.004
-351.508	40.374	-0.211	0.191
-350.493	285.913	-0.062	0.113
-349.479	-16.100	-0.223	-0.143
-348.464	6.334	-0.313	0.233
-347.450	-29.401	-0.319	-0.183
-346.435	433.517	-0.053	0.115
-345.420	38.982	-0.025	-0.022
-344.406	800.000	-0.016	-0.057
-343.391	-200.000	-0.003	0.241
-342.377	200.630	0.082	0.127
-341.362	100.324	0.027	-0.032
-340.348	21.511	0.072	0.059
-339.333	0.127	-0.015	-0.010
-338.318	-60.811	0.220	0.094
-337.304	-46.231	-0.154	-0.076
-336.289	142.764	0.209	-0.279
-335.275	376.489	-0.048	-0.099
-334.260	241.580	0.066	0.110
-333.245	-200.000	-0.021	0.123
-332.231	-114.110	-0.169	-0.033
-331.216	-7.372	-0.222	-0.151
-330.202	800.000	-0.107	0.455
-329.187	800.000	0.018	0.067
-328.172	295.833	0.097	-0.178
-327.158	-200.000	0.025	-0.245
-326.143	128.413	-0.107	0.137
-325.129	308.057	0.039	0.073
-324.114	-41.678	-0.242	0.125
-323.099	-11.922	0.397	-0.261
-322.085	128.174	-0.104	0.134
-321.070	8.507	0.107	0.081
-320.056	9.294	-0.058	0.044
-319.041	-200.000	0.023	0.151
-318.026	-200.000	0.005	-0.121
-317.012	7.910	0.200	0.151
-315.997	561.620	-0.056	-0.136
-314.983	-170.930	0.231	-0.008
-313.968	-57.791	-0.209	0.092
-312.953	-155.690	0.236	0.015
-311.939	263.287	0.137	-0.239
-310.924	800.000	-0.025	-0.096
-309.910	231.221	-0.146	0.241
-308.895	800.000	0.010	0.030
-307.880	221.535	-0.112	0.180
-306.866	253.388	-0.198	0.340
-305.851	62.797	-0.130	-0.131
-304.837	-157.823	0.056	0.003
-303.822	582.969	-0.075	0.184
-302.807	-22.772	0.257	-0.156
-301.793	800.000	0.042	0.147
-300.778	-74.692	-0.212	0.077
-299.764	171.059	-0.132	-0.191
-298.749	311.954	0.182	0.342
-297.735	-200.000	0.031	0.138
-296.720	144.450	-0.103	-0.138
-295.705	-60.479	0.023	-0.010
-294.691	-200.000	-0.013	-0.131
-293.676	-14.224	0.250	-0.162
-292.662	-15.018	-0.226	0.146
-291.647	-97.878	0.368	-0.095
-290.632	-200.000	-0.037	-0.324
-289.618	-45.368	-0.224	0.112
-288.603	-85.370	-0.161	0.051
-287.589	-192.742	0.402	-0.004
-286.574	-75.812	0.337	-0.120
-285.559	44.175	0.135	0.125
-284.545	78.717	0.046	-0.050
-283.530	-200.000	0.008	-0.041
-282.516	800.000	-0.101	-0.410
-281.501	-200.000	0.006	-0.192
-280.486	-169.276	-0.307	-0.011
-279.472	-200.000	0.042	-0.521
-278.457	-164.789	0.127	0.006
-277.443	-59.533	0.327	-0.141
-276.428	20.070	-0.120	-0.097
-275.413	800.000	-0.080	-0.251
-274.399	-20.147	0.190	0.117
-273.384	-56.669	0.045	-0.020
-272.370	-200.000	-0.054	-0.455
-271.355	314.222	-0.090	-0.170
-270.340	-200.000	-0.033	-0.255
-269.326	-135.738	0.150	0.018
-268.311	-200.000	-0.071	-0.340
-267.297	800.000	0.077	0.271
-266.282	-200.000	-0.049	0.255
-265.267	155.420	0.114	-0.157
-264.253	-200.000	0.027	-0.275
-263.238	-62.960	0.072	-0.030
-262.224	785.759	0.134	0.367
-261.209	-115.855	-0.181	-0.034
-260.195	-200.000	-0.044	0.352
-259.180	10.067	-0.218	-0.166
-258.165	-103.141	0.247	-0.059
-257.151	-122.107	-0.433	-0.071
-256.136	-200.000	0.014	0.221
-255.122	-32.622	0.082	0.046
-254.107	-68.969	-0.126	0.049
-253.092	0.488	-0.376	0.269
-252.078	-115.176	0.143	-0.027
-251.063	-31.421	0.542	-0.305
-250.049	-43.369	0.060	-0.030
-249.034	-152.495	-0.089	0.006
-248.019	48.041	0.331	-0.310
-247.005	-152.946	0.141	0.010
-245.990	-69.533	0.066	-0.025
-244.976	214.250	-0.142	0.225
-243.961	800.000	0.073	0.311
-242.946	-59.432	-0.162	0.070
-241.932	-200.000	-0.024	0.164
-240.917	-200.000	-0.015	0.258
-239.903	448.472	0.089	-0.196
-238.888	-200.000	-0.027	0.171
-237.873	498.628	0.087	0.201
-236.859	-45.837	0.170	0.084
-235.844	-200.000	-0.033	0.178
-234.830	795.899	-0.048	0.132
-233.815	-171.378	0.339	-0.011
-232.800	746.541	-0.057	0.154
-231.786	521.316	-0.074	-0.175
-230.771	-65.059	0.195	0.079
-229.757	-118.806	-0.077	-0.014
-228.742	-20.458	0.174	0.107
-227.727	-200.000	0.001	-0.290
-226.713	-80.450	-0.097	0.033
-225.698	-200.000	-0.023	0.279
-224.684	-22.430	-0.186	0.112
-223.669	800.000	0.055	0.202
-222.655	93.693	0.049	0.056
-221.640	-43.068	0.105	0.053
-220.625	-200.000	-0.030	-0.163
-219.611	-200.000	-0.006	0.151
-218.596	-200.000	-0.011	0.099
-217.582	-39.976	-0.087	-0.045
-216.567	-149.186	0.189	-0.015
-215.552	638.588	-0.263	0.669
-214.538	2.309	-0.029	-0.021
-213.523	254.460	-0.075	-0.129
-212.509	40.007	-0.101	-0.091
-211.494	-97.000	0.368	-0.096
-210.479	-4.763	0.176	0.121
-209.465	-200.000	0.033	-0.220
-208.450	85.754	0.264	0.290
-207.436	-200.000	-0.042	-0.312
-206.421	800.000	-0.141	-0.461
-205.406	-200.000	0.046	-0.238
-204.392	102.817	0.014	-0.016
-203.377	106.341	-0.163	0.193
-202.363	-200.000	-0.010	0.057
-201.348	-133.758	0.095	-0.012
-200.333	-63.569	-0.287	0.118
-199.319	346.208	0.082	0.162
-198.304	111.450	-0.239	0.288
-197.290	-200.000	0.032	0.321
-196.275	67.603	-0.083	-0.085
-195.260	-134.936	0.107	-0.013
-194.246	-84.963	0.199	0.062
-193.231	134.590	-0.099	0.128
-192.217	-200.000	-0.024	0.316
-191.202	-84.676	-0.226	0.071
-190.187	261.813	-0.182	0.316
-189.173	-68.138	0.379	0.147
-188.158	-6.051	0.069	-0.047
-187.144	15.053	0.206	0.161
-186.129	-14.782	0.219	0.141
-185.114	-98.777	-0.184	-0.047
-184.100	364.597	0.087	0.175
-183.085	-158.443	-0.060	-0.003
-182.071	-83.546	0.182	0.058
-181.056	165.313	0.112	0.158
-180.042	113.030	0.183	-0.221
-179.027	59.736	-0.082	-0.081
-178.012	-54.955	-0.288	0.130
-176.998	-134.833	0.144	0.017
-175.983	-127.276	-0.198	0.029
-174.969	102.163	0.025	-0.029
-173.954	0.365	0.225	0.160
-172.939	-200.000	0.024	-0.122
-171.925	740.051	-0.076	-0.203
-170.910	-200.000	0.004	-0.227
-169.896	-77.385	-0.088	0.031
-168.881	657.398	-0.077	0.197
-167.866	-109.804	-0.333	-0.070
-166.852	-200.000	0.011	0.128
-165.837	-200.000	0.084	-0.532
-164.823	-200.000	0.033	0.173
-163.808	-173.868	0.201	0.006
-162.793	-88.358	0.013	-0.004
-161.779	-124.210	0.569	0.089
-160.764	-44.317	0.158	0.079
-159.750	-11.610	-0.114	-0.074
-158.735	306.563	0.156	-0.290
-157.720	192.850	-0.145	-0.218
-156.706	-200.000	-0.009	0.361
-155.691	399.913	0.097	-0.202
-154.677	-46.696	0.302	0.148
-153.662	-85.257	0.397	-0.124
-152.647	148.869	-0.228	0.307
-151.633	-200.000	-0.038	0.235
-150.618	539.211	-0.083	0.196
-149.604	-151.187	0.284	0.021
-148.589	-46.560	0.039	0.019
-147.574	-103.702	0.166	-0.039
-146.560	-91.958	0.345	0.097
-145.545	286.318	0.071	-0.128
-144.531	-200.000	-0.023	0.416
-143.516	-200.000	-0.042	-0.249
-142.502	-200.000	-0.030	0.159
-141.487	-2.497	-0.271	-0.189
-140.472	-200.000	0.023	0.218
-139.458	-200.000	-0.004	-0.151
-138.443	41.337	0.137	0.123
-137.429	-200.000	0.062	0.328
-136.414	800.000	0.075	0.282
-135.399	77.233	-0.251	0.266
-134.385	-115.222	-0.349	0.066
-133.370	100.270	0.134	0.154
-132.356	-5.602	0.180	0.123
-131.341	-0.309	0.161	0.114
-130.326	-200.000	0.010	0.045
-129.312	119.875	0.122	0.151
-128.297	88.877	-0.046	-0.051
-127.283	-200.000	-0.071	-0.355
-126.268	94.855	-0.263	-0.299
-125.253	60.095	-0.152	0.150
-124.239	77.437	0.374	0.397
-123.224	46.407	-0.303	-0.280
-122.210	177.337	0.115	0.167
