DTS Sentinel unit serial number:	SN413079Multiplexer serial number:	ORYXHardware model number:	OX4-SRSoftware version number:	ORYX F/W v4.00 Oryx Data Collector v3.7.2.0data status	okinstallation	princeton_trtdifferential loss correction	single-endedforward channel	channel 2reverse channel	N/Adate	2019/09/18time	09:59:34forward acquisition time	60.00reverse acquisition time	0.00gamma	496.2192k internal	0.2334k external	0.2334temperature offset calibration	0.9982default loss term (dB/km)	0.3790temperature slope calibration	1.0000multiplexer offset coefficient	1.0000multiplexer slope coefficient	1.0000fibre end	0.00T internal ref (°C)	27.44T ext. ref 1 (°C)	0.32T ext. ref 2 (°C)	24.01length (m)	temperature (°C)	Stokes	anti-Stokes-747.200	351.506	0.069	0.137
-746.185	-135.098	-0.076	0.009
-745.171	-200.000	-0.008	-0.198
-744.156	800.000	-0.114	0.402
-743.142	-200.000	0.030	0.142
-742.127	-53.617	0.039	0.018
-741.112	78.851	-0.080	-0.086
-740.098	41.430	-0.333	0.303
-739.083	53.128	0.247	-0.238
-738.069	332.685	0.040	0.078
-737.054	-20.627	0.197	-0.122
-736.039	-200.000	-0.015	0.175
-735.025	-67.313	0.192	0.076
-734.010	-91.056	-0.311	0.090
-732.996	244.361	-0.181	-0.305
-731.981	-73.652	-0.278	-0.102
-730.966	-26.095	-0.207	0.122
-729.952	-100.644	-0.246	-0.061
-728.937	399.746	0.057	-0.120
-727.923	-29.264	-0.438	0.252
-726.908	-29.019	-0.272	0.157
-725.894	741.692	-0.079	0.212
-724.879	-31.918	-0.412	-0.232
-723.864	-123.012	0.142	0.023
-722.850	-101.411	0.287	-0.070
-721.835	84.085	-0.133	-0.146
-720.821	44.015	-0.148	-0.136
-719.806	-65.990	0.140	-0.056
-718.791	272.114	0.114	0.202
-717.777	133.275	0.100	0.130
-716.762	3.909	0.251	-0.184
-715.748	134.266	0.047	-0.061
-714.733	-200.000	0.018	-0.239
-713.718	-92.822	-0.214	0.060
-712.704	24.250	0.128	-0.106
-711.689	467.156	0.070	-0.156
-710.675	-91.563	-0.126	-0.036
-709.660	-23.394	0.337	-0.203
-708.645	88.269	-0.023	0.026
-707.631	-200.000	0.046	0.301
-706.616	23.005	-0.184	-0.152
-705.602	137.312	-0.125	0.164
-704.587	-109.008	0.168	-0.036
-703.572	-111.171	-0.095	-0.020
-702.558	-200.000	0.043	-0.255
-701.543	-58.498	-0.088	0.038
-700.529	-115.381	-0.298	0.056
-699.514	123.477	-0.138	0.173
-698.499	-85.211	0.316	-0.099
-697.485	59.140	0.012	0.012
-696.470	800.000	0.052	-0.200
-695.456	19.153	0.261	-0.210
-694.441	-20.437	-0.196	-0.121
-693.426	-200.000	-0.083	-0.496
-692.412	355.139	0.142	-0.283
-691.397	-111.736	-0.313	-0.064
-690.383	-113.232	0.308	-0.061
-689.368	148.635	-0.154	0.208
-688.354	-200.000	-0.008	-0.264
-687.339	-53.619	-0.167	0.076
-686.324	-200.000	0.037	-0.201
-685.310	432.780	-0.222	0.482
-684.295	800.000	-0.070	0.266
-683.281	300.427	-0.115	-0.212
-682.266	326.980	-0.014	0.027
-681.251	-200.000	-0.051	-0.230
-680.237	11.117	0.077	0.059
-679.222	224.515	-0.206	0.334
-678.208	-93.146	-0.190	-0.053
-677.193	-54.280	0.093	0.042
-676.178	-116.706	0.254	-0.047
-675.164	384.144	-0.128	0.263
-674.149	-33.694	0.199	-0.110
-673.135	-52.025	-0.517	0.241
-672.120	800.000	0.075	0.296
-671.105	-3.784	0.303	-0.211
-670.091	79.818	-0.067	0.072
-669.076	-200.000	-0.002	0.179
-668.062	-65.068	-0.109	0.044
-667.047	-200.000	0.003	-0.097
-666.032	-143.335	-0.343	-0.033
-665.018	-200.000	-0.051	0.371
-664.003	-5.999	-0.248	-0.170
-662.989	48.219	-0.144	-0.135
-661.974	800.000	-0.056	0.155
-660.959	328.370	-0.156	-0.301
-659.945	-138.211	0.290	0.032
-658.930	-64.040	0.019	-0.008
-657.916	99.486	-0.250	-0.289
-656.901	154.868	-0.124	-0.170
-655.886	16.239	0.066	-0.052
-654.872	-198.879	-0.077	0.000
-653.857	-131.325	0.266	0.035
-652.843	428.594	-0.057	0.123
-651.828	305.803	0.034	0.063
-650.814	-55.695	-0.210	0.094
-649.799	800.000	0.074	0.263
-648.784	-112.371	-0.120	-0.024
-647.770	-32.555	-0.196	-0.109
-646.755	-113.043	-0.140	-0.028
-645.741	800.000	0.051	-0.152
-644.726	-11.940	-0.346	-0.227
-643.711	-174.877	0.353	-0.010
-642.697	411.016	-0.106	0.225
-641.682	-166.280	-0.253	0.011
-640.668	297.857	0.079	-0.146
-639.653	400.446	-0.065	-0.136
-638.638	-200.000	0.028	-0.158
-637.624	-144.026	-0.221	-0.021
-636.609	-186.249	-0.236	-0.003
-635.595	-200.000	0.029	0.156
-634.580	16.079	0.064	0.050
-633.565	32.774	-0.145	0.126
-632.551	46.796	-0.174	0.162
-631.536	82.930	-0.327	-0.356
-630.522	-151.120	0.205	0.015
-629.507	91.020	0.048	0.053
-628.492	53.509	0.191	-0.183
-627.478	604.231	0.060	0.149
-626.463	-104.993	0.215	0.049
-625.449	-80.177	0.121	-0.041
-624.434	800.000	-0.031	0.115
-623.419	-26.746	0.174	0.102
-622.405	-200.000	0.030	0.228
-621.390	-200.000	-0.003	0.055
-620.376	-200.000	0.031	0.309
-619.361	-98.161	0.332	0.085
-618.346	324.668	-0.084	0.160
-617.332	-24.420	0.236	0.141
-616.317	-97.387	0.106	-0.028
-615.303	4.317	-0.034	0.025
-614.288	-200.000	-0.027	0.203
-613.273	224.685	-0.094	0.153
-612.259	-185.469	0.584	-0.009
-611.244	-200.000	0.012	0.244
-610.230	182.017	-0.135	0.199
-609.215	-90.092	-0.161	0.047
-608.201	-109.404	-0.198	0.042
-607.186	800.000	-0.067	-0.205
-606.171	227.467	-0.148	0.240
-605.157	68.875	0.107	-0.110
-604.142	122.615	0.166	0.207
-603.128	-183.138	0.487	0.009
-602.113	-107.368	-0.257	0.056
-601.098	-16.163	0.278	0.177
-600.084	-200.000	0.103	0.532
-599.069	352.701	0.070	-0.138
-598.055	40.740	-0.137	0.124
-597.040	-62.089	-0.279	0.116
-596.025	-103.503	-0.147	-0.035
-595.011	295.318	0.078	0.142
-593.996	97.834	-0.105	-0.121
-592.982	-146.307	0.147	0.013
-591.967	-18.230	0.205	-0.128
-590.952	156.294	0.066	0.090
-589.938	44.788	-0.175	0.161
-588.923	8.037	0.310	0.233
-587.909	76.252	0.179	0.190
-586.894	245.800	0.117	-0.196
-585.879	-41.650	-0.394	-0.202
-584.865	-76.239	0.195	0.069
-583.850	218.403	-0.110	0.175
-582.836	116.273	-0.202	-0.248
-581.821	-27.639	-0.389	-0.226
-580.806	97.448	-0.267	-0.306
-579.792	800.000	0.052	-0.193
-578.777	-59.110	-0.136	-0.059
-577.763	800.000	-0.055	0.175
-576.748	455.792	-0.096	0.213
-575.733	-200.000	0.030	0.291
-574.719	-200.000	-0.033	0.163
-573.704	16.700	0.394	0.311
-572.690	59.303	-0.226	-0.223
-571.675	-200.000	-0.017	0.295
-570.661	-200.000	-0.024	0.412
-569.646	-200.000	-0.010	-0.133
-568.631	284.698	0.270	0.486
-567.617	-9.113	-0.212	-0.142
-566.602	-38.449	0.136	0.072
-565.588	-81.073	-0.092	-0.030
-564.573	-65.399	-0.189	0.076
-563.558	-31.725	0.101	0.057
-562.544	-200.000	-0.027	-0.172
-561.529	-94.251	-0.152	0.042
-560.515	215.573	-0.182	0.289
-559.500	-74.200	0.124	-0.045
-558.485	-0.688	-0.118	0.083
-557.471	-200.000	-0.007	-0.240
-556.456	800.000	0.071	0.273
-555.442	-200.000	0.018	-0.128
-554.427	48.953	0.135	-0.127
-553.412	800.000	0.063	-0.188
-552.398	143.298	-0.362	-0.480
-551.383	-32.427	0.294	-0.163
-550.369	800.000	0.067	-0.203
-549.354	9.037	0.079	0.060
-548.339	-182.322	0.088	-0.002
-547.325	-140.993	0.217	0.022
-546.310	-65.690	-0.272	-0.109
-545.296	106.522	-0.239	-0.283
-544.281	-112.475	-0.188	0.037
-543.266	34.443	0.126	0.110
-542.252	800.000	0.030	-0.090
-541.237	-51.783	-0.128	0.059
-540.223	529.993	0.024	-0.056
-539.208	800.000	-0.009	-0.035
-538.193	-152.390	-0.182	-0.013
-537.179	447.904	0.115	-0.252
-536.164	-200.000	-0.014	0.097
-535.150	-94.941	0.301	-0.081
-534.135	800.000	0.047	0.190
-533.121	126.114	-0.035	-0.045
-532.106	-66.667	-0.318	-0.126
-531.091	-200.000	-0.023	0.229
-530.077	795.230	-0.036	0.099
-529.062	616.761	0.081	-0.202
-528.048	800.000	-0.027	-0.118
-527.033	-88.311	-0.175	-0.052
-526.018	51.557	-0.305	-0.289
-525.004	-200.000	-0.016	0.370
-523.989	197.168	-0.063	-0.095
-522.975	-106.688	-0.455	-0.101
-521.960	-45.319	0.133	-0.066
-520.945	113.137	0.150	-0.181
-519.931	-51.404	-0.474	-0.221
-518.916	235.940	-0.140	0.230
-517.902	-54.193	0.084	0.038
-516.887	-30.003	0.281	0.160
-515.872	102.945	0.271	-0.317
-514.858	-87.395	-0.103	-0.031
-513.843	91.428	0.253	0.283
-512.829	613.151	0.048	-0.119
-511.814	-128.850	0.221	0.031
-510.799	56.187	0.168	0.163
-509.785	-200.000	-0.123	0.001
-508.770	-55.113	-0.314	0.141
-507.756	-200.000	-0.018	-0.371
-506.741	-137.618	-0.328	0.037
-505.726	144.234	-0.102	0.136
-504.712	-42.254	-0.222	-0.113
-503.697	-200.000	0.011	-0.062
-502.683	572.851	-0.050	0.120
-501.668	94.202	0.073	-0.083
-500.653	-80.738	-0.155	0.051
-499.639	-200.000	-0.039	-0.276
-498.624	-79.146	0.199	0.067
-497.610	223.341	-0.195	0.312
-496.595	-112.760	-0.180	0.036
-495.581	-64.459	-0.293	-0.119
-494.566	124.116	-0.049	-0.061
-493.551	-87.321	0.058	-0.017
-492.537	-89.180	-0.168	-0.049
-491.522	9.457	-0.166	0.125
-490.508	51.307	0.064	-0.060
-489.493	800.000	-0.027	0.100
-488.478	156.709	-0.146	0.201
-487.464	-83.717	-0.394	-0.125
-486.449	-124.497	0.286	-0.044
-485.435	132.807	-0.234	-0.300
-484.420	68.680	0.423	0.432
-483.405	-200.000	-0.029	0.149
-482.391	-100.639	-0.173	-0.042
-481.376	-0.490	-0.309	0.218
-480.362	505.784	0.138	-0.317
-479.347	-200.000	0.034	0.261
-478.332	-152.769	0.109	0.008
-477.318	112.419	-0.081	0.098
-476.303	800.000	0.047	0.185
-475.289	162.738	0.176	0.245
-474.274	-75.363	-0.380	-0.135
-473.259	-91.189	-0.468	0.133
-472.245	266.170	0.132	0.229
-471.230	709.008	0.103	0.270
-470.216	156.582	0.124	-0.170
-469.201	133.613	0.139	-0.179
-468.186	800.000	-0.022	0.065
-467.172	-145.522	0.056	-0.005
-466.157	155.477	-0.086	-0.118
-465.143	88.703	0.079	-0.087
-464.128	800.000	-0.099	0.399
-463.113	-58.554	0.402	-0.173
-462.099	-171.985	-0.088	-0.003
-461.084	-87.010	-0.087	-0.026
-460.070	800.000	0.073	0.215
-459.055	800.000	0.071	-0.307
-458.040	170.742	-0.109	-0.156
-457.026	-135.325	0.118	0.014
-456.011	77.384	0.050	-0.053
-454.997	-200.000	-0.024	0.181
-453.982	336.426	0.123	-0.238
-452.968	-200.000	0.015	-0.098
-451.953	204.269	0.206	0.317
-450.938	157.430	-0.107	-0.147
-449.924	133.272	0.143	0.184
-448.909	-51.197	-0.213	-0.099
-447.895	116.779	-0.139	-0.169
-446.880	-27.238	0.229	0.133
-445.865	800.000	0.041	0.131
-444.851	-200.000	-0.003	0.278
-443.836	800.000	0.064	-0.214
-442.822	684.657	-0.072	-0.188
-441.807	123.994	-0.148	0.185
-440.792	-200.000	-0.019	-0.292
-439.778	-200.000	-0.090	-0.456
-438.763	45.312	-0.057	-0.052
-437.749	215.779	-0.162	0.255
-436.734	37.216	0.214	-0.188
-435.719	-31.808	-0.167	-0.093
-434.705	47.527	0.206	0.191
-433.690	-200.000	-0.023	0.135
-432.676	210.739	0.111	0.174
-431.661	40.403	-0.130	-0.116
-430.646	674.856	-0.095	0.245
-429.632	279.535	-0.104	-0.185
-428.617	20.625	-0.043	0.035
-427.603	205.781	-0.083	-0.128
-426.588	-101.216	0.349	0.085
-425.573	-111.472	0.111	-0.022
-424.559	-130.805	0.052	-0.007
-423.544	200.745	-0.149	0.228
-422.530	122.094	0.210	0.261
-421.515	-168.258	-0.468	-0.018
-420.500	-200.000	-0.008	-0.139
-419.486	-112.308	-0.098	0.020
-418.471	-200.000	-0.022	-0.136
-417.457	-124.377	0.250	-0.039
-416.442	27.098	0.141	-0.117
-415.428	31.431	0.274	0.233
-414.413	214.203	-0.059	-0.093
-413.398	519.750	-0.094	-0.219
-412.384	-7.735	-0.288	-0.193
-411.369	360.007	0.088	-0.175
-410.355	800.000	0.056	-0.191
-409.340	-41.075	0.382	0.196
-408.325	-54.325	0.153	-0.069
-407.311	-176.773	-0.024	-0.001
-406.296	-135.445	0.294	0.035
-405.282	676.573	0.106	-0.273
-404.267	-68.176	-0.232	0.090
-403.252	48.572	-0.314	0.292
-402.238	-148.888	0.231	-0.019
-401.223	-200.000	0.018	-0.196
-400.209	-41.071	-0.217	-0.111
-399.194	199.460	0.153	-0.232
-398.179	-24.824	-0.241	0.142
-397.165	429.285	-0.175	0.375
-396.150	-102.165	-0.293	-0.070
-395.136	48.199	0.212	-0.197
-394.121	-137.700	0.173	-0.019
-393.106	-53.318	-0.348	0.158
-392.092	-190.051	0.335	0.004
-391.077	-149.782	-0.167	0.013
-390.063	-200.000	-0.039	0.195
-389.048	-200.000	0.020	-0.111
-388.033	-158.374	-0.286	0.016
-387.019	65.493	0.056	-0.056
-386.004	-112.550	-0.144	-0.028
-384.990	-37.774	-0.224	-0.118
-383.975	-21.414	0.060	0.036
-382.960	-59.398	0.145	-0.062
-381.946	-0.652	-0.125	0.088
-380.931	-200.000	0.012	0.081
-379.917	-200.000	-0.029	-0.396
-378.902	-58.326	-0.014	0.006
-377.888	-50.206	0.254	0.119
-376.873	-200.000	0.005	0.081
-375.858	-54.453	0.123	-0.055
-374.844	-68.273	-0.299	0.115
-373.829	211.804	0.088	-0.138
-372.815	125.646	0.090	0.113
-371.800	-26.224	-0.281	0.163
-370.785	264.742	0.143	0.247
-369.771	75.366	-0.144	-0.150
-368.756	577.785	0.136	0.328
-367.742	800.000	0.059	-0.236
-366.727	312.403	0.045	-0.084
-365.712	91.417	0.120	0.134
-364.698	800.000	-0.107	-0.450
-363.683	439.949	0.075	-0.162
-362.669	-39.130	0.208	0.108
-361.654	-78.157	0.228	0.078
-360.639	324.947	-0.095	-0.180
-359.625	15.587	0.143	0.111
-358.610	-24.537	0.165	0.098
-357.596	-200.000	0.053	0.245
-356.581	-200.000	0.009	-0.101
-355.566	-104.250	-0.160	0.037
-354.552	82.394	0.169	0.182
-353.537	1.799	-0.198	-0.142
-352.523	800.000	-0.166	-0.594
-351.508	100.819	-0.235	-0.270
-350.493	-200.000	-0.022	-0.176
-349.479	459.282	0.088	0.194
-348.464	-12.521	-0.261	0.169
-347.450	-200.000	0.027	0.324
-346.435	29.223	0.277	0.233
-345.420	-200.000	0.010	-0.081
-344.406	204.609	0.012	-0.018
-343.391	-21.754	-0.446	0.269
-342.377	25.427	0.083	-0.069
-341.362	-30.590	-0.068	-0.038
-340.348	126.121	0.039	-0.048
-339.333	-200.000	0.098	0.430
-338.318	-8.807	0.317	0.210
-337.304	-100.758	0.033	0.008
-336.289	-200.000	-0.024	0.212
-335.275	-25.399	0.187	0.109
-334.260	800.000	-0.047	-0.129
-333.245	-200.000	-0.004	-0.084
-332.231	362.741	-0.075	-0.149
-331.216	101.756	0.231	-0.266
-330.202	-161.108	-0.161	-0.008
-329.187	-69.632	0.114	0.043
-328.172	-85.408	-0.396	-0.122
-327.158	408.767	0.116	0.242
-326.143	588.528	0.022	-0.054
-325.129	142.037	0.070	-0.091
-324.114	-113.273	-0.101	0.020
-323.099	152.236	-0.348	-0.470
-322.085	-200.000	0.014	-0.224
-321.070	-200.000	-0.002	-0.038
-320.056	-200.000	-0.034	0.196
-319.041	-82.338	-0.383	-0.123
-318.026	-147.971	0.187	0.015
-317.012	308.261	-0.056	0.103
-315.997	84.381	-0.075	-0.081
-314.983	222.060	0.068	0.108
-313.968	-0.596	0.118	-0.083
-312.953	5.922	0.189	0.138
-311.939	-98.894	-0.113	0.028
-310.924	-137.620	-0.272	0.030
-309.910	-200.000	-0.027	-0.241
-308.895	-100.497	0.227	0.056
-307.880	-14.513	0.093	-0.059
-306.866	-200.000	0.029	-0.182
-305.851	-32.895	0.259	-0.142
-304.837	-24.440	0.267	0.157
-303.822	58.341	0.233	-0.226
-302.807	-131.746	0.112	0.015
-301.793	165.549	-0.103	-0.144
-300.778	-125.601	-0.149	-0.022
-299.764	-200.000	0.033	-0.283
-298.749	93.201	0.107	-0.119
-297.735	-200.000	0.024	-0.120
-296.720	-152.150	0.116	0.008
-295.705	-28.429	0.056	0.032
-294.691	800.000	0.096	-0.304
-293.676	393.450	-0.039	0.080
-292.662	800.000	-0.076	0.248
-291.647	-200.000	0.018	-0.145
-290.632	-200.000	0.055	-0.254
-289.618	108.456	-0.084	0.099
-288.603	48.171	-0.204	-0.189
-287.589	-149.408	-0.270	0.021
-286.574	-114.422	-0.185	-0.035
-285.559	170.916	0.181	-0.256
-284.545	390.244	-0.051	-0.105
-283.530	82.350	0.057	-0.061
-282.516	-200.000	-0.012	0.324
-281.501	-200.000	0.007	0.057
-280.486	-188.824	0.370	-0.004
-279.472	-76.840	0.345	0.119
-278.457	462.882	0.092	0.203
-277.443	-183.196	-0.203	0.004
-276.428	20.600	0.227	-0.182
-275.413	669.803	-0.089	-0.227
-274.399	14.468	-0.236	-0.182
-273.384	400.852	0.072	-0.149
-272.370	-73.562	0.209	0.075
-271.355	-127.709	0.567	0.081
-270.340	189.150	0.119	-0.176
-269.326	-51.473	0.261	0.120
-268.311	166.499	-0.202	-0.283
-267.297	31.132	-0.099	-0.084
-266.282	335.514	0.064	-0.122
-265.267	157.223	-0.122	-0.166
-264.253	274.540	0.132	-0.231
-263.238	-200.000	0.014	-0.331
-262.224	-144.267	-0.135	-0.012
-261.209	-10.313	-0.063	-0.041
-260.195	-1.731	0.287	-0.199
-259.180	-31.545	-0.317	0.176
-258.165	-71.015	0.546	0.203
-257.151	-105.502	0.066	0.015
-256.136	-54.993	-0.303	-0.135
-255.122	127.623	-0.229	0.287
-254.107	173.907	0.075	0.107
-253.092	444.262	-0.158	0.341
-252.078	91.342	-0.143	-0.159
-251.063	-32.987	0.137	-0.075
-250.049	213.779	-0.202	-0.315
-249.034	168.953	-0.235	0.331
-248.019	319.009	-0.111	-0.208
-247.005	-200.000	0.009	-0.142
-245.990	-111.232	0.435	0.088
-244.976	-200.000	0.017	-0.293
-243.961	792.942	-0.134	-0.362
-242.946	15.463	0.127	-0.098
-241.932	190.158	0.093	-0.137
-240.917	-188.060	0.306	-0.004
-239.903	-175.969	0.108	0.003
-238.888	6.618	0.309	-0.226
-237.873	-200.000	0.018	-0.184
-236.859	-37.915	0.155	0.081
-235.844	0.603	-0.167	0.118
-234.830	-60.629	0.118	0.049
-233.815	-11.861	-0.130	-0.084
-232.800	-200.000	-0.008	0.085
-231.786	-102.369	-0.154	0.036
-230.771	-200.000	0.012	-0.161
-229.757	-200.000	0.023	-0.188
-228.742	293.132	0.058	0.105
-227.727	115.151	-0.120	0.144
-226.713	361.622	-0.175	0.346
-225.698	800.000	-0.154	0.501
-224.684	-123.375	0.189	-0.030
-223.669	575.853	-0.091	0.218
-222.655	107.325	0.152	-0.178
-221.640	-68.135	-0.158	-0.061
-220.625	-60.356	0.153	-0.064
-219.611	-59.930	-0.194	0.082
-218.596	-200.000	-0.279	-0.001
-217.582	-200.000	-0.037	-0.179
-216.567	126.173	-0.094	0.117
-215.552	-200.000	-0.006	-0.129
-214.538	725.683	0.111	0.292
-213.523	-98.204	0.344	0.087
-212.509	800.000	-0.066	0.214
-211.494	527.539	0.081	0.188
-210.479	69.590	0.296	0.300
-209.465	317.592	-0.054	0.101
-208.450	8.414	0.218	-0.161
-207.436	161.215	0.067	-0.092
-206.421	-200.000	-0.056	-0.265
-205.406	800.000	0.027	0.099
-204.392	-200.000	-0.020	-0.192
-203.377	-125.464	-0.158	0.024
-202.363	590.869	0.049	-0.118
-201.348	-23.970	0.073	0.043
-200.333	800.000	0.033	-0.141
-199.319	-200.000	-0.033	0.334
-198.304	5.456	-0.087	0.063
-197.290	210.703	0.059	-0.092
-196.275	212.886	0.054	-0.084
-195.260	-200.000	0.002	0.036
-194.246	50.820	0.150	0.140
-193.231	-200.000	-0.035	-0.234
-192.217	-51.355	0.186	0.086
-191.202	-200.000	-0.022	-0.186
-190.187	331.887	-0.108	-0.204
-189.173	-134.679	0.037	0.004
-188.158	800.000	0.048	0.201
-187.144	-15.121	-0.295	0.186
-186.129	95.909	-0.234	0.263
-185.114	98.938	0.116	-0.132
-184.100	-200.000	-0.025	0.114
-183.085	-200.000	0.009	0.170
-182.071	317.155	-0.042	-0.078
-181.056	-200.000	0.015	-0.106
-180.042	-89.294	0.176	-0.051
-179.027	-200.000	-0.039	-0.227
-178.012	48.832	-0.081	0.075
-176.998	800.000	0.137	0.553
-175.983	-24.455	0.189	-0.111
-174.969	-80.814	0.190	0.062
-173.954	-200.000	0.046	-0.350
-172.939	157.639	0.135	-0.183
-171.925	-23.648	0.152	0.090
-170.910	-115.410	0.145	0.027
-169.896	48.551	-0.137	-0.126
-168.881	-103.048	0.090	0.021
-167.866	800.000	0.070	-0.266
-166.852	-35.604	-0.053	0.028
-165.837	-23.334	0.237	-0.140
-164.823	800.000	0.134	0.381
-163.808	-123.432	-0.240	-0.038
-162.793	-99.724	0.293	0.072
-161.779	-4.476	0.199	-0.135
-160.764	-26.269	0.130	0.075
-159.750	-200.000	0.012	0.199
-158.735	-64.967	0.192	-0.076
-157.720	-45.045	-0.251	-0.123
-156.706	-158.475	0.167	-0.009
-155.691	-200.000	0.057	0.254
-154.677	26.833	-0.338	0.278
-153.662	-141.436	-0.215	-0.021
-152.647	77.293	-0.199	0.208
-151.633	800.000	-0.071	-0.278
-150.618	-200.000	0.014	-0.153
-149.604	-119.148	0.148	0.025
-148.589	285.938	-0.070	0.124
-147.574	-88.853	0.268	0.078
-146.560	-172.491	0.196	0.006
-145.545	11.492	-0.197	-0.148
-144.531	-11.342	-0.207	0.134
-143.516	-197.074	-0.090	0.001
-142.502	-162.252	0.296	-0.015
-141.487	-200.000	-0.012	-0.214
-140.472	22.386	0.266	0.213
-139.458	215.905	-0.078	0.121
-138.443	46.618	0.239	0.217
-137.429	-200.000	-0.041	0.257
-136.414	69.257	-0.180	0.182
-135.399	-200.000	-0.002	0.074
-134.385	-96.533	0.157	-0.041
-133.370	-43.791	-0.325	0.161
-132.356	-140.679	0.145	-0.015
-131.341	-200.000	-0.007	-0.135
-130.326	129.184	-0.265	0.331
-129.312	183.123	-0.175	0.253
-128.297	-92.233	-0.236	-0.065
-127.283	-149.483	-0.227	-0.018
-126.268	35.589	0.150	-0.129
-125.253	800.000	0.028	0.111
-124.239	15.545	0.258	0.199
-123.224	-179.272	0.212	-0.005
-122.210	783.380	-0.100	0.268
