DTS Sentinel unit serial number:	SN413079Multiplexer serial number:	ORYXHardware model number:	OX4-SRSoftware version number:	ORYX F/W v4.00 Oryx Data Collector v3.7.2.0data status	okinstallation	princeton_trtdifferential loss correction	single-endedforward channel	channel 2reverse channel	N/Adate	2019/09/12time	03:41:10forward acquisition time	60.00reverse acquisition time	0.00gamma	496.2192k internal	0.2326k external	0.2326temperature offset calibration	1.0096default loss term (dB/km)	0.3790temperature slope calibration	1.0000multiplexer offset coefficient	1.0000multiplexer slope coefficient	1.0000fibre end	0.00T internal ref (°C)	32.16T ext. ref 1 (°C)	2.15T ext. ref 2 (°C)	27.25length (m)	temperature (°C)	Stokes	anti-Stokes-747.200	-128.923	0.197	0.028
-746.185	673.464	0.092	0.240
-745.171	185.241	0.224	0.336
-744.156	-146.259	-0.204	-0.018
-743.142	-29.170	-0.155	-0.090
-742.127	102.202	-0.112	0.132
-741.112	800.000	0.055	0.184
-740.098	-200.000	0.007	0.063
-739.083	-117.247	0.244	0.045
-738.069	800.000	0.145	0.434
-737.054	-200.000	-0.048	-0.366
-736.039	362.194	-0.142	-0.287
-735.025	-200.000	-0.008	0.373
-734.010	-32.773	0.183	0.103
-732.996	-98.115	-0.318	0.083
-731.981	569.129	-0.132	0.323
-730.966	-82.643	-0.410	0.134
-729.952	-14.127	0.189	0.123
-728.937	5.842	-0.230	-0.172
-727.923	-200.000	0.010	-0.164
-726.908	412.249	-0.194	0.415
-725.894	-78.598	-0.138	-0.048
-724.879	-26.869	0.295	-0.174
-723.864	-200.000	-0.014	0.094
-722.850	-86.833	-0.282	0.087
-721.835	800.000	-0.102	0.393
-720.821	95.526	-0.158	0.181
-719.806	-42.779	0.127	0.065
-718.791	-192.781	0.194	0.002
-717.777	40.287	-0.133	0.120
-716.762	162.003	-0.092	-0.130
-715.748	-181.813	-0.194	0.004
-714.733	-42.253	-0.116	-0.060
-713.718	-140.027	-0.116	0.012
-712.704	11.203	0.111	0.086
-711.689	-64.465	0.459	-0.188
-710.675	146.790	0.265	0.359
-709.660	-181.562	0.150	-0.003
-708.645	208.207	-0.059	0.093
-707.631	36.723	-0.190	-0.169
-706.616	673.763	0.070	0.183
-705.602	-78.426	-0.179	0.062
-704.587	-200.000	0.006	-0.087
-703.572	142.359	-0.108	-0.144
-702.558	553.652	0.127	0.307
-701.543	-34.831	0.156	-0.086
-700.529	-200.000	0.050	-0.232
-699.514	-77.655	-0.200	-0.070
-698.499	-55.810	-0.358	-0.161
-697.485	-127.978	0.380	0.055
-696.470	-55.749	0.150	-0.068
-695.456	-124.481	0.130	-0.020
-694.441	-57.277	0.213	0.094
-693.426	-62.417	-0.349	-0.146
-692.412	-77.348	-0.308	-0.108
-691.397	-97.552	0.139	0.036
-690.383	204.009	0.035	-0.055
-689.368	22.271	-0.193	-0.159
-688.354	-131.398	-0.554	-0.074
-687.339	-200.000	-0.025	-0.126
-686.324	112.070	-0.178	0.216
-685.310	-200.000	0.019	-0.127
-684.295	225.942	0.164	0.267
-683.281	800.000	-0.048	0.135
-682.266	-111.961	-0.231	0.047
-681.251	-200.000	0.156	0.001
-680.237	-154.816	0.183	-0.012
-679.222	-70.040	-0.258	0.099
-678.208	-80.813	0.394	-0.132
-677.193	-200.000	-0.039	-0.287
-676.178	54.670	0.120	0.116
-675.164	-185.916	-0.161	0.002
-674.149	422.004	-0.120	0.258
-673.135	-84.837	-0.103	0.033
-672.120	-71.628	-0.057	-0.022
-671.105	-37.654	0.056	0.030
-670.091	-139.219	-0.171	-0.019
-669.076	202.606	-0.061	0.094
-668.062	163.035	-0.172	0.244
-667.047	13.027	-0.056	0.044
-666.032	126.194	0.172	0.219
-665.018	302.980	0.130	0.241
-664.003	607.725	0.164	0.410
-662.989	-200.000	-0.062	-0.439
-661.974	-21.158	0.057	0.035
-660.959	-4.622	0.116	-0.081
-659.945	-75.349	0.295	0.106
-658.930	-200.000	-0.020	-0.224
-657.916	-124.335	-0.354	-0.056
-656.901	-200.000	0.000	0.019
-655.886	104.183	0.031	-0.036
-654.872	-52.798	-0.423	-0.196
-653.857	105.410	-0.099	-0.117
-652.843	6.408	0.221	0.165
-651.828	147.832	-0.103	0.139
-650.814	30.184	0.141	-0.121
-649.799	-110.871	-0.287	-0.059
-648.784	429.974	0.053	-0.115
-647.770	-127.349	-0.159	0.023
-646.755	-126.981	-0.396	-0.059
-645.741	123.344	-0.147	-0.186
-644.726	-94.047	-0.223	-0.061
-643.711	59.040	-0.103	0.102
-642.697	-5.847	-0.143	0.099
-641.682	800.000	0.066	-0.244
-640.668	204.033	-0.133	-0.207
-639.653	-186.378	0.123	-0.002
-638.638	409.120	-0.169	0.360
-637.624	-38.743	-0.082	0.043
-636.609	49.807	0.143	0.135
-635.595	47.886	0.211	0.198
-634.580	-200.000	0.032	-0.433
-633.565	-61.402	-0.323	-0.137
-632.551	46.244	0.168	-0.156
-631.536	-79.642	-0.138	0.047
-630.522	254.063	-0.111	-0.191
-629.507	-200.000	-0.048	0.362
-628.492	-200.000	0.022	-0.218
-627.478	-39.628	0.113	-0.059
-626.463	129.065	-0.107	-0.137
-625.449	-13.769	-0.224	-0.146
-624.434	-163.903	0.146	0.007
-623.419	800.000	-0.031	-0.099
-622.405	-200.000	-0.003	-0.148
-621.390	82.633	0.177	-0.193
-620.376	-200.000	0.016	-0.091
-619.361	-175.142	-0.171	0.005
-618.346	-200.000	-0.024	-0.220
-617.332	167.375	0.260	-0.371
-616.317	-127.902	-0.108	0.016
-615.303	210.047	0.084	0.132
-614.288	84.606	-0.036	-0.040
-613.273	-94.217	-0.167	0.046
-612.259	101.631	-0.155	0.181
-611.244	-200.000	-0.004	0.378
-610.230	-35.060	-0.200	0.109
-609.215	-200.000	0.017	0.109
-608.201	141.610	-0.080	0.106
-607.186	-90.367	0.219	0.064
-606.171	99.300	-0.085	-0.099
-605.157	800.000	-0.076	0.289
-604.142	407.438	0.160	0.338
-603.128	800.000	-0.030	0.116
-602.113	-0.132	-0.180	0.129
-601.098	33.110	0.035	0.031
-600.084	-75.201	0.348	-0.125
-599.069	-81.761	-0.186	-0.061
-598.055	800.000	0.018	0.072
-597.040	192.818	-0.128	0.194
-596.025	-80.530	0.263	-0.088
-595.011	-200.000	-0.018	-0.101
-593.996	-41.803	0.339	0.174
-592.982	147.429	0.208	-0.281
-591.967	-200.000	0.022	-0.247
-590.952	38.819	0.082	-0.074
-589.938	-98.431	-0.236	-0.061
-588.923	123.026	-0.128	0.161
-587.909	-100.522	-0.416	0.103
-586.894	800.000	-0.099	-0.328
-585.879	-86.355	0.286	0.088
-584.865	269.904	0.057	-0.101
-583.850	-200.000	0.011	0.154
-582.836	-65.245	0.102	-0.041
-581.821	800.000	0.035	-0.150
-580.806	-180.463	-0.485	-0.010
-579.792	-3.616	0.315	-0.219
-578.777	-39.363	-0.147	-0.077
-577.763	-25.737	0.083	-0.049
-576.748	-53.367	-0.278	0.128
-575.733	-23.929	-0.221	-0.133
-574.719	-200.000	-0.007	-0.357
-573.704	-60.065	-0.292	0.125
-572.690	151.611	-0.162	-0.221
-571.675	-200.000	-0.066	0.358
-570.661	800.000	0.079	0.302
-569.646	195.102	-0.120	-0.183
-568.631	-200.000	0.063	0.353
-567.617	-47.870	-0.100	-0.048
-566.602	-110.641	0.311	0.064
-565.588	-200.000	-0.014	0.112
-564.573	-107.988	-0.046	-0.010
-563.558	204.038	0.120	-0.187
-562.544	135.431	0.221	0.288
-561.529	800.000	0.116	0.341
-560.515	175.565	0.050	0.072
-559.500	97.223	0.246	-0.282
-558.485	215.775	-0.166	0.264
-557.471	492.645	0.108	-0.248
-556.456	69.332	0.054	-0.055
-555.442	7.998	0.128	0.096
-554.427	-36.652	-0.440	0.237
-553.412	-59.070	-0.088	-0.038
-552.398	-146.937	0.064	-0.005
-551.383	237.225	-0.131	0.217
-550.369	100.609	-0.097	-0.113
-549.354	800.000	-0.060	-0.261
-548.339	78.428	0.190	-0.203
-547.325	-200.000	0.032	-0.464
-546.310	-97.510	0.302	-0.078
-545.296	-147.689	-0.268	-0.023
-544.281	122.585	-0.050	-0.063
-543.266	-128.268	0.160	-0.023
-542.252	427.204	0.064	0.139
-541.237	151.236	-0.060	-0.082
-540.223	367.300	-0.166	0.336
-539.208	223.466	-0.101	0.163
-538.193	468.899	-0.029	-0.065
-537.179	800.000	-0.048	0.151
-536.164	6.407	0.048	0.036
-535.150	-133.396	-0.232	-0.029
-534.135	79.755	0.054	-0.058
-533.121	800.000	-0.042	0.134
-532.106	800.000	-0.048	-0.180
-531.091	272.672	-0.103	0.181
-530.077	47.011	0.181	-0.169
-529.062	-107.043	-0.261	0.058
-528.048	247.476	-0.184	-0.312
-527.033	-129.560	0.102	0.014
-526.018	-200.000	-0.023	0.157
-525.004	-174.635	0.327	-0.009
-523.989	-200.000	0.021	-0.107
-522.975	-133.345	-0.255	0.032
-521.960	-113.715	0.224	0.044
-520.945	41.797	0.088	-0.080
-519.931	155.698	-0.142	-0.196
-518.916	353.814	-0.083	0.165
-517.902	-200.000	0.008	0.226
-516.887	135.025	-0.153	-0.199
-515.872	57.591	-0.019	-0.019
-514.858	37.318	0.189	0.167
-513.843	181.618	-0.084	-0.124
-512.829	-200.000	-0.003	0.140
-511.814	307.751	0.077	-0.143
-510.799	-13.927	-0.450	0.291
-509.785	-78.410	0.170	-0.058
-508.770	-136.434	-0.125	-0.015
-507.756	53.013	-0.089	-0.085
-506.741	-20.806	-0.083	-0.051
-505.726	-103.706	-0.319	0.075
-504.712	20.947	0.028	-0.023
-503.697	-200.000	0.014	0.210
-502.683	-62.403	-0.306	0.127
-501.668	-200.000	0.011	0.129
-500.653	83.543	0.166	0.181
-499.639	-131.347	-0.094	-0.012
-498.624	327.792	0.021	0.039
-497.610	65.276	-0.303	0.306
-496.595	-74.188	0.187	0.068
-495.581	-83.702	0.360	-0.115
-494.566	-69.599	0.135	0.052
-493.551	332.730	-0.057	-0.110
-492.537	800.000	-0.028	-0.083
-491.522	-97.987	-0.365	-0.094
-490.508	-26.488	-0.168	-0.099
-489.493	-68.334	0.306	0.119
-488.478	195.423	-0.049	-0.074
-487.464	800.000	0.129	-0.476
-486.449	114.507	-0.027	0.033
-485.435	-71.869	-0.105	-0.039
-484.420	753.434	0.038	-0.104
-483.405	336.243	-0.052	-0.102
-482.391	22.459	-0.238	0.194
-481.376	-42.532	0.169	-0.086
-480.362	-200.000	0.000	0.327
-479.347	187.536	-0.028	-0.042
-478.332	-34.249	-0.060	-0.033
-477.318	455.976	0.108	0.238
-476.303	603.305	0.031	-0.078
-475.289	-68.809	-0.130	-0.050
-474.274	-37.952	-0.105	-0.056
-473.259	-42.000	-0.100	-0.051
-472.245	-17.750	0.381	-0.239
-471.230	-200.000	0.013	-0.173
-470.216	-71.774	-0.134	0.050
-469.201	-5.066	0.398	0.274
-468.186	-117.217	0.279	-0.051
-467.172	484.841	-0.061	0.139
-466.157	-200.000	0.045	-0.383
-465.143	-104.394	0.084	0.019
-464.128	800.000	-0.021	0.082
-463.113	-200.000	-0.000	-0.009
-462.099	800.000	0.087	-0.304
-461.084	205.101	-0.109	0.170
-460.070	-106.637	0.129	-0.029
-459.055	-44.916	-0.073	0.036
-458.040	-46.754	0.176	-0.086
-457.026	-62.619	-0.428	0.177
-456.011	339.568	-0.108	-0.211
-454.997	148.846	-0.154	-0.208
-453.982	17.354	-0.036	-0.028
-452.968	-158.820	0.182	0.010
-451.953	-57.407	0.079	0.035
-450.938	-102.674	-0.024	-0.006
-449.924	127.917	0.176	0.223
-448.909	-200.000	0.026	0.151
-447.895	-92.758	0.097	-0.027
-446.880	-50.886	0.210	0.098
-445.865	4.197	-0.030	0.022
-444.851	85.586	-0.048	0.053
-443.836	-111.341	-0.268	-0.055
-442.822	-200.000	0.039	-0.222
-441.807	-200.000	-0.002	-0.327
-440.792	-14.879	-0.069	-0.044
-439.778	800.000	-0.059	0.210
-438.763	-96.600	0.107	-0.028
-437.749	-114.322	-0.304	0.058
-436.734	76.547	0.194	-0.204
-435.719	37.680	0.263	-0.233
-434.705	-157.944	-0.161	0.009
-433.690	-133.652	0.184	0.023
-432.676	800.000	-0.039	-0.133
-431.661	20.594	-0.220	-0.177
-430.646	-143.518	0.367	-0.035
-429.632	-84.276	0.135	0.043
-428.617	-134.971	-0.371	0.045
-427.603	338.630	-0.110	-0.213
-426.588	-200.000	0.009	-0.052
-425.573	800.000	0.085	0.324
-424.559	-94.693	0.072	0.019
-423.544	-200.000	0.040	0.223
-422.530	20.274	0.237	0.191
-421.515	-50.632	0.179	0.084
-420.500	99.918	-0.118	-0.137
-419.486	-200.000	-0.120	0.000
-418.471	800.000	-0.021	0.083
-417.457	-18.551	0.342	0.213
-416.442	800.000	0.075	0.248
-415.428	49.200	0.395	0.369
-414.413	-121.828	-0.105	-0.017
-413.398	-24.747	-0.399	-0.236
-412.384	5.312	-0.227	0.166
-411.369	16.508	0.140	0.111
-410.355	8.828	0.143	0.108
-409.340	-73.084	-0.158	0.058
-408.325	94.319	0.019	-0.022
-407.311	-200.000	-0.030	0.176
-406.296	141.304	0.307	0.405
-405.282	78.805	0.207	0.221
-404.267	-122.946	0.345	-0.055
-403.252	800.000	-0.053	0.191
-402.238	-200.000	-0.052	-0.247
-401.223	-40.085	0.052	0.027
-400.209	-53.376	0.268	0.122
-399.194	-139.575	-0.080	0.008
-398.179	-200.000	0.031	-0.195
-397.165	-200.000	0.024	0.222
-396.150	-15.538	-0.222	0.141
-395.136	206.145	0.143	-0.222
-394.121	-120.941	0.179	0.030
-393.106	-148.464	-0.356	-0.029
-392.092	-82.718	0.018	-0.006
-391.077	580.312	0.136	-0.332
-390.063	196.511	-0.144	-0.218
-389.048	-51.663	-0.189	0.088
-388.033	618.507	0.008	-0.021
-387.019	318.691	0.097	0.183
-386.004	-200.000	-0.020	0.166
-384.990	-200.000	-0.016	-0.108
-383.975	169.899	-0.041	0.058
-382.960	51.655	-0.364	-0.344
-381.946	-200.000	-0.008	0.074
-380.931	22.761	0.210	0.171
-379.917	-98.310	-0.147	-0.037
-378.902	-87.998	0.084	-0.025
-377.888	43.992	0.094	-0.085
-376.873	-7.153	0.037	0.025
-375.858	33.804	0.068	-0.059
-374.844	78.462	0.058	-0.062
-373.829	800.000	0.049	0.145
-372.815	-200.000	0.047	0.238
-371.800	78.442	0.193	-0.205
-370.785	-47.859	-0.204	-0.098
-369.771	298.303	0.106	-0.194
-368.756	2.944	-0.167	0.120
-367.742	-1.937	0.170	0.119
-366.727	115.161	0.343	-0.416
-365.712	800.000	0.036	0.143
-364.698	-200.000	-0.032	0.192
-363.683	-102.393	0.151	-0.036
-362.669	-200.000	0.021	0.159
-361.654	117.592	-0.287	-0.351
-360.639	93.381	0.193	0.217
-359.625	800.000	-0.080	0.245
-358.610	-200.000	-0.005	0.113
-357.596	-112.016	0.315	-0.063
-356.581	800.000	-0.043	0.129
-355.566	-101.233	-0.263	0.064
-354.552	35.605	-0.280	0.244
-353.537	800.000	0.020	0.063
-352.523	-200.000	0.025	-0.167
-351.508	619.677	0.166	-0.414
-350.493	169.625	-0.126	-0.179
-349.479	54.917	0.029	0.028
-348.464	-176.504	-0.051	-0.001
-347.450	114.169	-0.066	0.080
-346.435	-200.000	0.033	-0.362
-345.420	445.354	-0.139	-0.303
-344.406	-200.000	-0.029	-0.175
-343.391	800.000	0.046	0.173
-342.377	191.568	0.098	0.147
-341.362	72.824	0.109	-0.113
-340.348	-55.128	-0.269	-0.120
-339.333	-200.000	0.001	-0.401
-338.318	382.088	-0.148	0.302
-337.304	-124.629	-0.082	-0.013
-336.289	103.717	-0.160	-0.187
-335.275	104.136	0.212	-0.248
-334.260	-200.000	0.134	0.000
-333.245	-148.901	-0.074	-0.006
-332.231	-4.690	-0.095	0.065
-331.216	-39.298	0.233	0.121
-330.202	-200.000	0.062	-0.528
-329.187	252.682	0.061	-0.103
-328.172	705.345	0.064	-0.166
-327.158	-200.000	0.003	-0.239
-326.143	-200.000	-0.043	-0.408
-325.129	314.085	0.063	-0.117
-324.114	-61.527	-0.269	0.112
-323.099	-86.245	-0.259	0.079
-322.085	230.542	0.091	-0.147
-321.070	-89.722	0.541	-0.157
-320.056	22.486	-0.322	0.261
-319.041	-200.000	-0.032	-0.194
-318.026	24.480	0.234	-0.192
-317.012	51.009	0.032	0.031
-315.997	800.000	0.027	0.086
-314.983	800.000	0.032	0.123
-313.968	-116.823	0.145	0.026
-312.953	-90.775	0.186	0.053
-311.939	-27.973	0.376	0.216
-310.924	597.407	0.044	0.108
-309.910	-140.617	-0.188	0.019
-308.895	800.000	-0.043	0.178
-307.880	400.375	-0.170	0.355
-306.866	800.000	0.042	0.153
-305.851	83.107	0.146	0.158
-304.837	-200.000	0.008	-0.038
-303.822	-74.053	0.144	-0.052
-302.807	-200.000	-0.022	-0.292
-301.793	93.711	-0.024	0.026
-300.778	-10.026	0.116	0.077
-299.764	37.206	0.125	0.110
-298.749	484.466	-0.089	0.201
-297.735	118.125	0.197	0.241
-296.720	-200.000	-0.087	0.399
-295.705	-6.457	0.159	0.107
-294.691	-181.707	-0.132	-0.003
-293.676	800.000	0.029	0.124
-292.662	-61.919	-0.352	0.146
-291.647	450.294	0.084	-0.184
-290.632	-140.484	-0.119	-0.012
-289.618	-76.748	0.234	-0.081
-288.603	474.571	-0.052	0.117
-287.589	-6.541	0.363	-0.245
-286.574	-44.594	0.354	0.175
-285.559	274.931	-0.172	0.303
-284.545	-200.000	-0.022	-0.129
-283.530	800.000	-0.036	-0.151
-282.516	-200.000	0.048	-0.250
-281.501	-78.439	0.059	0.020
-280.486	-56.248	0.148	-0.065
-279.472	261.627	-0.041	0.071
-278.457	-18.643	-0.260	-0.161
-277.443	800.000	-0.022	0.062
-276.428	31.523	-0.107	-0.091
-275.413	-200.000	-0.011	-0.168
-274.399	-200.000	-0.004	0.060
-273.384	298.042	-0.187	0.341
-272.370	800.000	0.046	-0.176
-271.355	-200.000	-0.073	-0.419
-270.340	-116.104	-0.140	-0.026
-269.326	-200.000	-0.003	-0.150
-268.311	-116.592	0.297	-0.054
-267.297	-45.753	0.284	-0.139
-266.282	328.115	-0.066	-0.125
-265.267	-152.332	0.288	-0.021
-264.253	413.381	-0.135	0.284
-263.238	800.000	0.026	-0.087
-262.224	800.000	0.099	0.366
-261.209	113.487	0.098	0.118
-260.195	-76.311	-0.304	0.106
-259.180	-50.436	-0.238	-0.111
-258.165	-121.958	0.260	0.042
-257.151	-200.000	0.013	-0.136
-256.136	54.657	0.068	-0.065
-255.122	473.991	-0.041	-0.091
-254.107	-14.470	0.177	0.113
-253.092	668.504	0.091	-0.234
-252.078	800.000	0.050	0.147
-251.063	431.149	0.083	0.179
-250.049	103.226	-0.025	-0.029
-249.034	264.487	0.101	0.174
-248.019	180.685	0.066	-0.096
-247.005	35.041	0.161	0.140
-245.990	172.205	-0.270	-0.384
-244.976	800.000	-0.054	-0.168
-243.961	178.679	0.067	0.096
-242.946	-56.668	0.146	0.064
-241.932	29.276	-0.074	0.062
-240.917	103.223	0.101	0.117
-239.903	-200.000	0.019	-0.092
-238.888	35.447	0.056	-0.048
-237.873	98.640	0.301	-0.344
-236.859	800.000	0.075	-0.220
-235.844	-66.366	-0.083	-0.032
-234.830	269.037	-0.093	-0.161
-233.815	800.000	-0.063	-0.222
-232.800	-111.028	0.085	-0.017
-231.786	10.977	-0.142	0.107
-230.771	-87.821	-0.194	-0.058
-229.757	75.512	0.196	-0.205
-228.742	-9.543	0.095	0.063
-227.727	380.595	0.144	-0.292
-226.713	634.849	-0.069	-0.173
-225.698	-200.000	-0.028	0.161
-224.684	-196.662	-0.108	-0.001
-223.669	-200.000	-0.053	0.293
-222.655	-158.017	0.379	-0.022
-221.640	131.800	0.082	0.104
-220.625	109.279	-0.096	-0.114
-219.611	-45.957	-0.083	0.040
-218.596	-59.959	0.161	-0.068
-217.582	-79.277	0.094	-0.032
-216.567	-200.000	-0.357	0.000
-215.552	-106.629	-0.150	0.033
-214.538	23.537	0.130	-0.105
-213.523	-200.000	-0.013	0.098
-212.509	-200.000	-0.025	0.347
-211.494	229.859	-0.216	0.349
-210.479	103.362	0.125	0.145
-209.465	-200.000	-0.022	-0.229
-208.450	-103.180	0.127	-0.030
-207.436	-200.000	0.023	-0.234
-206.421	-93.060	-0.046	0.013
-205.406	133.340	-0.198	0.253
-204.392	-200.000	0.010	0.210
-203.377	103.678	0.118	-0.137
-202.363	21.607	-0.156	0.125
-201.348	155.392	-0.061	-0.083
-200.333	55.685	-0.144	-0.138
-199.319	155.218	-0.041	0.056
-198.304	535.832	0.120	0.280
-197.290	117.615	0.017	0.021
-196.275	-200.000	-0.035	0.264
-195.260	61.484	0.074	0.073
-194.246	567.781	-0.108	-0.259
-193.231	24.287	-0.161	0.131
-192.217	217.302	-0.087	0.137
-191.202	84.946	-0.107	-0.116
-190.187	-200.000	-0.024	-0.188
-189.173	296.046	-0.045	-0.081
-188.158	-28.354	0.108	-0.061
-187.144	698.668	-0.010	-0.027
-186.129	-200.000	-0.017	0.076
-185.114	-132.880	0.169	0.021
-184.100	70.437	-0.143	0.146
-183.085	17.052	0.248	0.194
-182.071	-10.741	-0.118	0.077
-181.056	-11.577	0.389	0.252
-180.042	-138.540	0.104	0.011
-179.027	-200.000	0.008	0.204
-178.012	70.447	-0.056	0.057
-176.998	18.718	-0.171	0.135
-175.983	800.000	0.053	-0.173
-174.969	96.527	0.094	-0.106
-173.954	252.107	0.098	-0.165
-172.939	-160.051	0.127	-0.007
-171.925	48.671	-0.171	-0.158
-170.910	-129.775	-0.163	0.022
-169.896	-102.374	0.333	0.079
-168.881	-133.134	0.321	-0.040
-167.866	52.457	0.146	-0.137
-166.852	-92.579	-0.216	0.060
-165.837	111.861	-0.162	-0.193
-164.823	59.749	0.172	-0.167
-163.808	368.914	0.072	0.143
-162.793	-102.677	-0.207	0.049
-161.779	-200.000	-0.022	0.194
-160.764	-50.592	-0.147	-0.068
-159.750	63.409	0.163	0.161
-158.735	-27.470	-0.194	0.111
-157.720	217.891	-0.065	0.102
-156.706	-200.000	-0.284	0.001
-155.691	-150.308	-0.207	0.016
-154.677	83.115	-0.153	-0.164
-153.662	49.535	0.208	0.193
-152.647	156.653	0.240	0.326
-151.633	229.432	-0.206	0.332
-150.618	-110.641	0.171	-0.035
-149.604	-7.812	0.139	-0.092
-148.589	-200.000	-0.025	0.382
-147.574	-5.259	0.151	-0.102
-146.560	-95.005	0.083	0.022
-145.545	-28.343	-0.346	0.197
-144.531	800.000	0.083	0.271
-143.516	33.777	-0.204	0.175
-142.502	-200.000	0.008	-0.170
-141.487	119.193	-0.290	0.353
-140.472	24.056	0.073	0.059
-139.458	116.455	0.324	-0.392
-138.443	800.000	-0.040	-0.163
-137.429	-102.235	0.211	0.050
-136.414	-85.898	0.444	-0.135
-135.399	-200.000	-0.017	-0.092
-134.385	-51.569	0.295	-0.135
-133.370	-200.000	0.017	-0.104
-132.356	-27.555	0.216	-0.123
-131.341	-200.000	-0.021	-0.112
-130.326	-19.922	0.300	0.183
-129.312	-95.262	-0.279	0.074
-128.297	264.995	-0.043	0.074
-127.283	93.631	-0.029	0.032
-126.268	790.396	0.074	-0.201
-125.253	-139.186	0.278	-0.029
-124.239	313.286	0.129	0.240
-123.224	35.883	-0.080	0.069
-122.210	-200.000	0.034	0.246
-121.195	98.498	0.140	-0.159
