DTS Sentinel unit serial number:	SN413079Multiplexer serial number:	ORYXHardware model number:	OX4-SRSoftware version number:	ORYX F/W v4.00 Oryx Data Collector v3.7.2.0data status	okinstallation	princeton_trtdifferential loss correction	single-endedforward channel	channel 2reverse channel	N/Adate	2019/09/10time	17:41:11forward acquisition time	60.00reverse acquisition time	0.00gamma	496.2192k internal	0.2311k external	0.2311temperature offset calibration	0.9939default loss term (dB/km)	0.3790temperature slope calibration	1.0000multiplexer offset coefficient	1.0000multiplexer slope coefficient	1.0000fibre end	0.00T internal ref (°C)	37.61T ext. ref 1 (°C)	-0.32T ext. ref 2 (°C)	31.14length (m)	temperature (°C)	Stokes	anti-Stokes-747.200	-160.814	-0.026	-0.001
-746.185	800.000	0.113	0.328
-745.171	135.989	-0.120	-0.159
-744.156	552.746	0.182	0.445
-743.142	386.751	-0.150	0.314
-742.127	-200.000	-0.040	0.491
-741.112	-76.596	0.133	0.048
-740.098	288.898	-0.064	-0.119
-739.083	-100.552	0.100	0.025
-738.069	800.000	-0.091	0.270
-737.054	766.384	-0.103	0.284
-736.039	30.977	-0.339	0.295
-735.025	-200.000	0.003	-0.116
-734.010	-200.000	-0.000	-0.180
-732.996	-163.427	-0.294	0.014
-731.981	-114.334	-0.241	0.047
-730.966	800.000	-0.045	-0.128
-729.952	-181.153	-0.037	0.001
-728.937	-57.322	0.356	0.159
-727.923	41.767	-0.112	-0.103
-726.908	-122.616	-0.324	0.053
-725.894	127.124	-0.205	-0.264
-724.879	17.401	-0.183	-0.147
-723.864	-117.284	0.152	0.028
-722.850	15.771	-0.386	0.308
-721.835	-31.053	-0.077	-0.044
-720.821	-200.000	-0.050	-0.280
-719.806	139.438	0.238	-0.318
-718.791	-106.338	-0.176	-0.040
-717.777	-97.262	0.160	-0.042
-716.762	-200.000	0.146	-0.001
-715.748	-200.000	-0.028	-0.205
-714.733	-200.000	0.052	0.234
-713.718	800.000	-0.024	0.074
-712.704	77.390	-0.059	-0.064
-711.689	-126.132	0.287	-0.044
-710.675	-200.000	-0.061	-0.296
-709.660	-54.757	-0.049	-0.023
-708.645	104.456	-0.142	-0.169
-707.631	-200.000	-0.008	-0.097
-706.616	-44.971	-0.185	0.094
-705.602	-169.170	-0.174	0.007
-704.587	63.359	0.176	0.179
-703.572	47.728	0.254	-0.240
-702.558	-11.076	0.074	0.049
-701.543	800.000	0.058	-0.241
-700.529	-52.293	0.242	-0.114
-699.514	4.069	0.146	-0.108
-698.499	19.995	-0.332	-0.272
-697.485	-151.990	0.255	0.019
-696.470	-200.000	0.014	0.261
-695.456	-168.527	0.192	-0.007
-694.441	142.993	0.211	-0.285
-693.426	-79.560	-0.198	-0.068
-692.412	37.273	0.070	-0.063
-691.397	212.924	-0.173	-0.277
-690.383	215.439	-0.215	-0.345
-689.368	172.505	-0.057	0.084
-688.354	202.900	0.144	0.225
-687.339	-157.422	0.285	0.017
-686.324	210.894	0.070	-0.111
-685.310	146.499	0.075	-0.102
-684.295	-53.585	-0.373	-0.173
-683.281	13.352	0.225	0.176
-682.266	-70.252	0.166	0.064
-681.251	-40.843	0.235	-0.123
-680.237	-46.914	-0.058	0.029
-679.222	176.384	-0.009	0.013
-678.208	800.000	0.111	-0.448
-677.193	782.502	-0.123	0.342
-676.178	-83.961	-0.076	0.025
-675.164	349.778	-0.110	-0.220
-674.149	-200.000	0.007	-0.189
-673.135	27.082	-0.133	0.113
-672.120	800.000	0.123	-0.394
-671.105	178.408	-0.220	0.326
-670.091	-200.000	0.047	-0.218
-669.076	6.959	0.131	0.099
-668.062	113.900	-0.196	-0.241
-667.047	-74.937	0.372	0.135
-666.032	-127.718	-0.198	-0.029
-665.018	-122.937	0.116	-0.019
-664.003	-97.096	0.395	-0.104
-662.989	48.691	0.030	-0.028
-661.974	-85.754	-0.238	0.075
-660.959	-86.562	-0.165	-0.051
-659.945	-200.000	0.000	-0.188
-658.930	-10.313	0.246	0.165
-657.916	-107.654	-0.230	-0.051
-656.901	390.669	-0.057	-0.120
-655.886	-200.000	0.026	-0.255
-654.872	178.587	-0.069	-0.102
-653.857	169.659	-0.136	-0.196
-652.843	-103.860	-0.235	-0.055
-651.828	-200.000	0.026	-0.229
-650.814	72.349	0.071	-0.075
-649.799	623.119	-0.081	-0.206
-648.784	274.202	0.149	-0.267
-647.770	-98.924	0.057	0.015
-646.755	-33.125	0.422	0.237
-645.741	-125.194	-0.257	0.040
-644.726	-200.000	-0.002	-0.114
-643.711	-171.446	0.218	0.007
-642.697	142.730	-0.107	0.144
-641.682	123.178	0.095	-0.120
-640.668	800.000	0.066	-0.188
-639.653	233.974	0.313	-0.521
-638.638	800.000	0.032	0.113
-637.624	618.716	0.024	0.061
-636.609	90.333	0.158	-0.179
-635.595	-200.000	0.044	0.236
-634.580	-200.000	0.005	0.197
-633.565	800.000	0.022	0.066
-632.551	-200.000	0.018	0.279
-631.536	-143.995	0.433	0.041
-630.522	-40.514	-0.192	-0.101
-629.507	55.331	-0.171	-0.168
-628.492	-200.000	-0.017	0.317
-627.478	262.222	0.270	0.473
-626.463	-31.833	0.256	0.145
-625.449	35.974	-0.127	-0.113
-624.434	27.852	0.238	-0.203
-623.419	282.423	0.149	0.270
-622.405	-200.000	-0.040	0.563
-621.390	-200.000	0.021	-0.130
-620.376	112.200	0.246	-0.300
-619.361	-200.000	0.001	-0.464
-618.346	-81.844	0.082	0.027
-617.332	18.886	-0.116	0.094
-616.317	52.362	0.358	0.345
-615.303	-13.797	-0.252	-0.165
-614.288	675.732	-0.026	0.069
-613.273	-34.794	0.113	-0.062
-612.259	-72.364	0.071	0.026
-611.244	-200.000	0.024	-0.166
-610.230	-146.711	0.093	-0.008
-609.215	-200.000	0.017	-0.360
-608.201	-200.000	0.013	-0.164
-607.186	-51.082	-0.256	0.121
-606.171	-41.334	-0.249	-0.129
-605.157	-56.963	0.077	0.034
-604.142	26.515	0.181	-0.153
-603.128	800.000	-0.062	-0.272
-602.113	-84.467	0.347	-0.111
-601.098	137.278	-0.130	0.171
-600.084	-56.330	-0.193	0.087
-599.069	-200.000	-0.007	-0.126
-598.055	-10.169	0.077	-0.051
-597.040	285.725	-0.096	-0.175
-596.025	-121.073	0.357	0.060
-595.011	-60.786	-0.244	-0.104
-593.996	41.647	-0.176	0.161
-592.982	205.223	-0.206	0.322
-591.967	25.697	0.308	-0.259
-590.952	-93.115	-0.548	-0.154
-589.938	-200.000	0.082	0.425
-588.923	-152.326	-0.335	-0.024
-587.909	-121.434	-0.314	-0.053
-586.894	-47.701	-0.077	0.037
-585.879	-35.834	0.401	0.219
-584.865	-108.164	0.150	0.033
-583.850	-64.896	-0.348	0.142
-582.836	664.922	-0.058	0.152
-581.821	-130.449	0.229	-0.031
-580.806	120.689	0.077	-0.097
-579.792	494.188	-0.068	-0.158
-578.777	-200.000	0.083	0.368
-577.763	273.597	0.110	0.196
-576.748	178.606	0.113	0.167
-575.733	-165.699	0.071	-0.003
-574.719	-46.096	-0.620	-0.308
-573.704	48.205	-0.244	-0.230
-572.690	102.711	0.066	0.078
-571.675	-19.498	-0.239	-0.149
-570.661	627.652	-0.181	-0.461
-569.646	-45.609	-0.231	-0.116
-568.631	-166.697	-0.456	-0.019
-567.617	-71.543	0.118	-0.044
-566.602	-200.000	0.261	0.001
-565.588	-60.089	0.244	-0.105
-564.573	-200.000	-0.022	-0.129
-563.558	229.069	-0.068	-0.112
-562.544	11.291	-0.141	-0.109
-561.529	52.258	0.131	0.126
-560.515	85.331	0.144	-0.159
-559.500	176.592	-0.144	-0.212
-558.485	22.286	-0.098	-0.081
-557.471	-63.931	-0.441	-0.182
-556.456	493.236	0.131	0.303
-555.442	800.000	-0.017	0.061
-554.427	267.798	0.253	-0.447
-553.412	149.470	-0.141	0.192
-552.398	800.000	0.105	-0.327
-551.383	800.000	0.092	-0.345
-550.369	-161.036	-0.521	0.028
-549.354	231.415	0.134	0.221
-548.339	61.124	0.211	0.211
-547.325	-200.000	-0.060	0.285
-546.310	-144.355	-0.225	-0.021
-545.296	-82.322	-0.052	0.017
-544.281	-4.823	-0.059	0.041
-543.266	-25.459	-0.138	-0.082
-542.252	-24.079	-0.100	0.060
-541.237	234.620	-0.028	0.047
-540.223	-27.875	-0.117	-0.068
-539.208	-9.678	-0.191	-0.128
-538.193	-20.908	0.307	-0.189
-537.179	-102.352	-0.472	-0.114
-536.164	-68.019	0.282	0.111
-535.150	800.000	-0.040	0.167
-534.135	-200.000	0.012	-0.074
-533.121	800.000	-0.036	-0.157
-532.106	83.085	-0.122	0.133
-531.091	-200.000	-0.034	-0.230
-530.077	68.506	0.017	0.018
-529.062	437.690	0.056	0.123
-528.048	-141.271	0.244	0.025
-527.033	-150.440	-0.058	-0.004
-526.018	-120.820	-0.082	-0.014
-525.004	54.357	-0.208	0.201
-523.989	299.580	-0.075	0.139
-522.975	-29.507	-0.285	-0.164
-521.960	532.728	0.076	0.181
-520.945	-12.426	-0.122	0.080
-519.931	213.256	-0.256	-0.407
-518.916	-94.011	0.411	-0.114
-517.902	197.907	-0.199	-0.306
-516.887	-37.738	0.230	-0.123
-515.872	-30.827	-0.195	0.111
-514.858	-39.858	-0.349	-0.183
-513.843	800.000	-0.073	-0.240
-512.829	-95.069	0.226	-0.062
-511.814	800.000	-0.121	-0.435
-510.799	-106.873	0.307	-0.069
-509.785	105.371	0.208	0.248
-508.770	109.215	-0.332	0.400
-507.756	114.127	0.169	0.207
-506.741	-55.034	-0.223	0.101
-505.726	-200.000	-0.014	0.223
-504.712	372.485	0.186	0.381
-503.697	-200.000	0.042	0.000
-502.683	644.013	0.070	-0.181
-501.668	-98.770	-0.168	0.043
-500.653	243.783	0.091	-0.154
-499.639	-84.916	0.147	-0.046
-498.624	15.085	-0.054	-0.043
-497.610	189.247	0.142	0.213
-496.595	441.877	-0.151	-0.332
-495.581	-200.000	-0.007	0.290
-494.566	-49.620	0.373	-0.179
-493.551	90.193	-0.197	-0.222
-492.537	800.000	0.098	-0.310
-491.522	271.615	0.047	0.083
-490.508	149.266	0.225	0.306
-489.493	-115.560	0.457	0.086
-488.478	-38.007	-0.163	0.087
-487.464	800.000	-0.145	0.483
-486.449	581.280	0.117	0.288
-485.435	-200.000	-0.060	0.333
-484.420	-181.197	0.193	-0.004
-483.405	-200.000	-0.003	-0.109
-482.391	-46.011	-0.128	0.063
-481.376	161.213	-0.123	-0.173
-480.362	-200.000	0.056	0.349
-479.347	-46.597	-0.029	0.014
-478.332	-77.169	-0.255	-0.089
-477.318	800.000	0.101	-0.282
-476.303	800.000	-0.025	0.106
-475.289	461.700	-0.108	0.242
-474.274	-2.442	-0.093	0.066
-473.259	800.000	-0.062	0.205
-472.245	-165.418	0.155	0.007
-471.230	-200.000	-0.020	0.241
-470.216	784.092	0.061	0.169
-469.201	-40.112	-0.174	-0.091
-468.186	44.602	0.060	-0.056
-467.172	33.104	0.100	0.087
-466.157	508.973	-0.098	-0.228
-465.143	-3.916	0.259	-0.180
-464.128	73.582	-0.226	0.238
-463.113	155.734	0.116	0.160
-462.099	-89.571	-0.210	-0.062
-461.084	-126.967	-0.080	0.012
-460.070	-200.000	0.015	0.248
-459.055	498.691	0.067	0.154
-458.040	276.915	-0.040	-0.072
-457.026	-130.948	0.319	0.043
-456.011	224.090	0.049	-0.080
-454.997	-200.000	-0.076	0.488
-453.982	-48.026	-0.383	-0.186
-452.968	182.143	0.211	-0.312
-451.953	-118.387	-0.278	0.050
-450.938	127.394	0.151	-0.192
-449.924	550.908	-0.141	0.340
-448.909	-3.176	0.091	0.064
-447.895	-200.000	-0.023	-0.152
-446.880	-41.349	-0.332	0.172
-445.865	-200.000	-0.043	0.477
-444.851	21.043	0.247	-0.201
-443.836	140.534	0.145	-0.192
-442.822	-53.113	0.382	0.176
-441.807	26.463	0.270	0.227
-440.792	38.456	-0.139	-0.124
-439.778	-19.449	-0.167	0.104
-438.763	-90.600	-0.294	-0.085
-437.749	-30.348	-0.144	-0.082
-436.734	725.015	0.008	-0.022
-435.719	-200.000	0.036	-0.223
-434.705	30.845	-0.264	-0.227
-433.690	705.208	0.074	0.197
-432.676	-39.028	-0.043	0.023
-431.661	-200.000	-0.009	-0.043
-430.646	-200.000	0.033	0.153
-429.632	-144.957	-0.062	-0.006
-428.617	153.253	-0.200	-0.274
-427.603	800.000	-0.039	-0.170
-426.588	46.338	0.022	-0.021
-425.573	-60.341	0.075	-0.032
-424.559	82.067	-0.067	0.073
-423.544	-200.000	-0.012	0.077
-422.530	102.023	-0.200	0.234
-421.515	-122.628	0.430	-0.070
-420.500	-200.000	-0.017	-0.270
-419.486	-200.000	0.010	-0.122
-418.471	-200.000	-0.031	-0.167
-417.457	285.771	0.049	-0.088
-416.442	800.000	-0.049	0.164
-415.428	273.592	-0.133	0.235
-414.413	-1.772	-0.298	-0.210
-413.398	414.333	-0.086	0.183
-412.384	-75.142	-0.247	0.088
-411.369	-198.971	-0.136	-0.001
-410.355	12.296	-0.182	0.141
-409.340	14.730	0.177	0.139
-408.325	-200.000	0.059	0.328
-407.311	62.573	-0.017	0.017
-406.296	-200.000	-0.042	-0.184
-405.282	-200.000	0.024	-0.385
-404.267	-137.441	0.181	-0.021
-403.252	-200.000	-0.008	0.152
-402.238	-164.298	-0.098	-0.005
-401.223	-121.321	-0.115	-0.019
-400.209	800.000	-0.166	-0.510
-399.194	-128.272	0.298	0.043
-398.179	800.000	-0.057	-0.174
-397.165	-102.690	0.279	-0.067
-396.150	-168.694	-0.553	0.021
-395.136	-83.663	0.295	-0.094
-394.121	-25.371	0.195	-0.116
-393.106	39.723	0.285	0.256
-392.092	-33.897	-0.388	0.214
-391.077	411.366	0.097	-0.206
-390.063	800.000	-0.021	-0.071
-389.048	-24.121	0.186	-0.112
-388.033	800.000	0.039	-0.116
-387.019	800.000	-0.149	-0.615
-386.004	-131.088	0.306	0.041
-384.990	-200.000	0.023	0.206
-383.975	-23.295	0.360	-0.217
-382.960	94.225	-0.161	-0.183
-381.946	-200.000	-0.006	0.104
-380.931	617.452	0.014	0.034
-379.917	-200.000	-0.050	0.311
-378.902	153.388	0.259	-0.355
-377.888	-87.884	-0.187	-0.056
-376.873	369.156	0.104	-0.210
-375.858	-200.000	-0.018	0.203
-374.844	-200.000	-0.004	0.054
-373.829	280.387	-0.122	-0.219
-372.815	-33.152	-0.162	-0.090
-371.800	152.329	0.157	-0.215
-370.785	-200.000	0.035	-0.189
-369.771	38.911	-0.346	0.309
-368.756	248.864	0.164	0.278
-367.742	-200.000	0.024	-0.142
-366.727	-200.000	-0.002	0.087
-365.712	12.090	0.251	0.193
-364.698	-20.649	0.252	0.155
-363.683	199.386	-0.116	-0.177
-362.669	673.227	-0.107	0.277
-361.654	-85.355	0.057	-0.018
-360.639	253.439	-0.131	-0.224
-359.625	-5.176	0.124	0.085
-358.610	-30.062	-0.040	-0.023
-357.596	22.502	-0.362	-0.296
-356.581	49.671	-0.138	-0.130
-355.566	-200.000	0.024	0.196
-354.552	-100.108	-0.068	0.017
-353.537	-200.000	0.029	-0.332
-352.523	62.389	0.108	0.108
-351.508	114.265	0.052	0.063
-350.493	-119.242	0.236	0.041
-349.479	148.693	0.280	0.378
-348.464	-146.190	-0.261	-0.023
-347.450	-200.000	0.012	0.096
-346.435	-69.165	-0.105	0.040
-345.420	-200.000	0.021	0.178
-344.406	-200.000	-0.021	-0.106
-343.391	-200.000	-0.028	-0.176
-342.377	204.209	-0.182	-0.282
-341.362	79.652	0.198	-0.213
-340.348	118.307	0.128	0.158
-339.333	-106.597	-0.263	-0.058
-338.318	800.000	0.057	-0.164
-337.304	201.718	0.155	0.239
-336.289	-200.000	0.516	-0.001
-335.275	115.791	0.070	0.085
-334.260	-31.345	0.280	0.158
-333.245	-114.411	-0.265	0.051
-332.231	-88.444	0.275	-0.082
-331.216	4.285	0.121	-0.088
-330.202	440.954	-0.265	0.579
-329.187	458.962	-0.074	0.164
-328.172	154.677	-0.147	0.201
-327.158	-27.325	0.084	0.049
-326.143	-148.563	-0.267	0.022
-325.129	-57.618	0.182	-0.080
-324.114	185.780	-0.215	0.319
-323.099	-90.479	0.030	-0.009
-322.085	-200.000	-0.084	-0.427
-321.070	800.000	-0.100	-0.352
-320.056	359.358	-0.077	-0.155
-319.041	-200.000	0.008	-0.142
-318.026	-43.565	-0.309	0.156
-317.012	-142.195	0.290	-0.029
-315.997	137.822	-0.209	-0.273
-314.983	186.259	-0.194	0.289
-313.968	-200.000	0.017	0.163
-312.953	-2.228	0.199	-0.139
-311.939	800.000	-0.041	-0.151
-310.924	-67.448	-0.027	0.010
-309.910	65.739	0.115	-0.116
-308.895	-136.880	-0.155	0.018
-307.880	360.616	0.039	0.078
-306.866	-105.089	0.062	-0.014
-305.851	-139.562	-0.238	0.025
-304.837	800.000	0.082	-0.263
-303.822	-200.000	0.030	-0.141
-302.807	800.000	0.028	0.109
-301.793	-200.000	-0.065	0.380
-300.778	-89.434	-0.194	-0.057
-299.764	-112.822	0.059	0.012
-298.749	-88.265	0.268	0.080
-297.735	800.000	0.052	0.143
-296.720	352.014	-0.246	-0.487
-295.705	118.722	-0.169	-0.209
-294.691	-115.825	0.392	-0.073
-293.676	-38.582	0.219	0.115
-292.662	-37.286	-0.066	-0.035
-291.647	-143.642	-0.304	0.029
-290.632	-105.208	-0.176	0.040
-289.618	-200.000	0.010	0.140
-288.603	-200.000	0.048	0.450
-287.589	120.692	0.189	0.234
-286.574	-69.931	-0.135	-0.051
-285.559	-137.154	-0.097	0.011
-284.545	327.387	-0.115	0.219
-283.530	-66.098	-0.139	0.055
-282.516	219.016	0.025	-0.040
-281.501	800.000	0.110	-0.338
-280.486	-94.743	0.333	-0.090
-279.472	800.000	-0.042	0.164
-278.457	55.054	0.335	0.323
-277.443	-75.118	-0.374	0.133
-276.428	-200.000	0.116	-0.512
-275.413	-18.725	-0.163	0.101
-274.399	796.358	0.166	0.456
-273.384	67.057	-0.133	0.135
-272.370	-39.642	-0.069	0.036
-271.355	70.205	-0.163	0.167
-270.340	-200.000	0.034	0.470
-269.326	218.668	-0.155	-0.246
-268.311	-15.246	0.220	-0.140
-267.297	207.302	-0.153	0.238
-266.282	-200.000	-0.018	-0.104
-265.267	-54.317	-0.253	-0.114
-264.253	800.000	-0.051	-0.149
-263.238	-36.305	0.177	0.095
-262.224	516.546	-0.074	-0.173
-261.209	800.000	0.024	0.101
-260.195	70.966	-0.228	0.235
-259.180	2.322	-0.147	-0.106
-258.165	800.000	0.072	-0.227
-257.151	45.012	-0.039	0.036
-256.136	87.490	0.156	-0.171
-255.122	149.918	-0.207	0.280
-254.107	-200.000	0.022	0.447
-253.092	88.843	0.144	-0.159
-252.078	106.077	0.203	0.240
-251.063	-200.000	0.091	-0.403
-250.049	-65.934	-0.236	-0.094
-249.034	-66.466	0.207	-0.082
-248.019	-63.592	0.351	-0.143
-247.005	-5.115	-0.244	-0.167
-245.990	21.262	0.322	0.260
-244.976	-51.415	-0.126	0.059
-243.961	160.132	0.268	-0.372
-242.946	-200.000	0.024	-0.156
-241.932	-106.170	-0.296	-0.066
-240.917	-97.355	0.303	0.078
-239.903	-18.870	-0.033	-0.020
-238.888	54.303	-0.064	-0.061
-237.873	364.765	-0.138	0.277
-236.859	658.938	0.152	-0.390
-235.844	20.405	-0.192	-0.154
-234.830	300.092	0.135	-0.248
-233.815	87.901	-0.306	-0.338
-232.800	-183.573	-0.191	0.003
-231.786	-43.289	-0.044	0.022
-230.771	-41.667	-0.207	0.106
-229.757	20.618	0.310	0.250
-228.742	200.662	0.058	-0.089
-227.727	800.000	0.059	0.246
-226.713	-2.551	0.171	0.119
-225.698	-62.448	0.226	0.094
-224.684	800.000	-0.071	-0.234
-223.669	-200.000	-0.016	0.180
-222.655	19.373	0.059	0.047
-221.640	-18.543	-0.342	0.212
-220.625	372.404	-0.152	-0.307
-219.611	71.998	0.239	-0.248
-218.596	549.500	0.135	-0.322
-217.582	230.158	0.159	0.258
-216.567	26.038	-0.246	0.205
-215.552	-73.883	0.279	-0.101
-214.538	58.319	0.055	-0.053
-213.523	116.256	-0.113	0.138
-212.509	-66.392	-0.324	0.128
-211.494	2.436	0.183	-0.132
-210.479	220.372	0.016	-0.026
-209.465	800.000	0.030	-0.113
-208.450	-200.000	0.019	0.312
-207.436	-105.043	0.217	-0.049
-206.421	-89.043	-0.219	-0.065
-205.406	180.063	-0.177	-0.258
-204.392	178.051	-0.156	-0.226
-203.377	-108.480	0.075	0.016
-202.363	-200.000	-0.012	0.137
-201.348	181.783	-0.033	-0.049
-200.333	246.430	0.201	0.337
-199.319	313.286	-0.077	0.145
-198.304	-52.624	0.087	-0.040
-197.290	288.842	0.072	-0.131
-196.275	38.261	0.217	-0.192
-195.260	279.245	-0.082	-0.146
-194.246	164.483	-0.195	0.274
-193.231	619.033	-0.178	0.444
-192.217	-141.523	0.149	-0.015
-191.202	-108.494	-0.193	-0.041
-190.187	-200.000	0.021	-0.322
-189.173	-103.161	0.125	0.029
-188.158	564.838	-0.117	-0.281
-187.144	-200.000	0.021	0.132
-186.129	-117.497	0.331	0.059
-185.114	25.536	-0.116	-0.096
-184.100	763.099	-0.051	0.136
-183.085	800.000	-0.049	0.167
-182.071	-13.889	0.114	-0.073
-181.056	-57.511	0.009	-0.004
-180.042	-103.665	0.187	-0.043
-179.027	-174.332	0.380	0.011
-178.012	27.994	-0.264	-0.221
-176.998	698.442	-0.023	-0.060
-175.983	-55.528	0.113	0.050
-174.969	800.000	-0.044	0.168
-173.954	800.000	0.047	0.140
-172.939	800.000	0.033	0.130
-171.925	-96.991	-0.246	0.064
-170.910	-93.581	0.217	-0.060
-169.896	-142.561	0.384	-0.037
-168.881	800.000	-0.042	0.143
-167.866	-14.540	0.148	-0.094
-166.852	800.000	-0.101	0.281
-165.837	181.762	0.186	-0.272
-164.823	-200.000	-0.000	-0.023
-163.808	-200.000	0.054	0.269
-162.793	-76.372	0.275	0.096
-161.779	235.574	-0.066	-0.108
-160.764	-98.614	0.121	-0.031
-159.750	53.912	0.138	0.132
-158.735	499.988	0.105	-0.240
-157.720	-200.000	0.035	0.151
-156.706	19.764	0.216	0.173
-155.691	178.884	0.096	-0.140
-154.677	389.164	-0.133	0.273
-153.662	121.644	-0.077	0.095
-152.647	-134.913	0.196	-0.023
-151.633	-164.709	-0.229	0.010
-150.618	-121.662	0.335	-0.055
-149.604	-200.000	0.010	0.059
-148.589	21.412	-0.129	-0.104
-147.574	31.916	0.218	0.186
-146.560	-20.101	0.224	-0.137
-145.545	101.630	-0.121	0.140
-144.531	500.756	-0.056	-0.128
-143.516	-200.000	-0.020	0.427
-142.502	800.000	0.071	0.304
-141.487	64.259	-0.260	-0.260
-140.472	-200.000	-0.011	-0.093
-139.458	-200.000	0.035	0.241
-138.443	800.000	0.082	-0.235
-137.429	-77.758	-0.085	0.029
-136.414	-200.000	-0.009	-0.085
-135.399	126.156	0.102	-0.128
-134.385	-59.384	0.215	-0.092
-133.370	-53.798	0.111	0.050
-132.356	363.179	-0.049	-0.098
-131.341	800.000	0.015	0.057
-130.326	-200.000	0.004	0.156
-129.312	136.311	-0.056	0.073
-128.297	360.623	0.151	-0.299
-127.283	258.516	-0.017	0.028
-126.268	-88.111	-0.072	0.021
-125.253	800.000	0.086	0.279
-124.239	150.985	-0.245	0.330
-123.224	-122.698	-0.400	-0.064
-122.210	800.000	0.061	0.176
