DTS Sentinel unit serial number:	SN413079Multiplexer serial number:	ORYXHardware model number:	OX4-SRSoftware version number:	ORYX F/W v4.00 Oryx Data Collector v3.7.2.0data status	okinstallation	princeton_trtdifferential loss correction	single-endedforward channel	channel 2reverse channel	N/Adate	2019/09/11time	08:09:11forward acquisition time	60.00reverse acquisition time	0.00gamma	496.2192k internal	0.2323k external	0.2323temperature offset calibration	1.1268default loss term (dB/km)	0.3790temperature slope calibration	1.0000multiplexer offset coefficient	1.0000multiplexer slope coefficient	1.0000fibre end	0.00T internal ref (°C)	32.39T ext. ref 1 (°C)	19.88T ext. ref 2 (°C)	28.74length (m)	temperature (°C)	Stokes	anti-Stokes-747.200	192.917	0.061	-0.094
-746.185	766.182	-0.075	0.205
-745.171	352.143	-0.063	0.125
-744.156	140.524	-0.148	0.198
-743.142	120.383	-0.094	-0.118
-742.127	0.821	-0.133	0.096
-741.112	-200.000	0.004	-0.055
-740.098	-119.118	-0.261	-0.046
-739.083	-138.239	-0.154	0.017
-738.069	57.856	0.265	0.262
-737.054	-112.949	0.229	0.046
-736.039	80.624	-0.114	-0.124
-735.025	-40.267	0.481	0.253
-734.010	83.284	-0.403	-0.443
-732.996	800.000	0.034	-0.101
-731.981	800.000	0.075	0.230
-730.966	-120.100	0.137	0.024
-729.952	-200.000	0.051	0.288
-728.937	388.474	-0.100	-0.208
-727.923	-200.000	-0.009	-0.234
-726.908	117.051	-0.243	0.301
-725.894	800.000	0.042	-0.184
-724.879	-200.000	-0.082	-0.691
-723.864	800.000	-0.075	0.223
-722.850	-39.589	-0.047	0.025
-721.835	-1.303	-0.322	-0.229
-720.821	-91.321	0.117	0.034
-719.806	-200.000	-0.010	0.200
-718.791	-139.962	-0.160	0.017
-717.777	-122.645	0.201	0.033
-716.762	67.775	0.205	-0.211
-715.748	255.837	-0.177	-0.307
-714.733	-3.127	0.107	-0.075
-713.718	-74.490	-0.283	-0.103
-712.704	119.588	0.204	-0.255
-711.689	-50.057	-0.173	-0.083
-710.675	19.281	-0.358	-0.289
-709.660	251.802	0.077	-0.132
-708.645	-8.477	-0.300	-0.203
-707.631	-42.980	-0.244	-0.125
-706.616	439.993	-0.089	-0.196
-705.602	-17.397	-0.185	0.117
-704.587	-31.282	-0.147	-0.084
-703.572	-68.665	-0.084	0.033
-702.558	39.945	0.134	-0.121
-701.543	-128.461	-0.424	-0.061
-700.529	91.273	0.253	-0.286
-699.514	-129.770	0.083	0.011
-698.499	-46.435	-0.300	-0.148
-697.485	15.209	-0.113	-0.090
-696.470	-37.962	-0.275	-0.147
-695.456	800.000	0.030	-0.116
-694.441	-200.000	0.012	0.090
-693.426	82.235	0.112	0.123
-692.412	472.073	0.174	-0.394
-691.397	3.846	0.206	-0.152
-690.383	33.086	-0.123	-0.107
-689.368	184.465	-0.111	0.166
-688.354	11.193	-0.183	0.141
-687.339	-60.895	-0.296	-0.126
-686.324	66.423	0.209	0.214
-685.310	248.518	-0.142	-0.242
-684.295	800.000	-0.084	-0.271
-683.281	-200.000	0.005	0.197
-682.266	168.510	-0.112	-0.161
-681.251	91.324	-0.188	0.213
-680.237	211.102	-0.181	0.286
-679.222	-33.014	-0.209	0.117
-678.208	800.000	-0.033	-0.093
-677.193	111.230	-0.137	0.166
-676.178	-99.175	-0.173	0.044
-675.164	26.627	0.038	-0.032
-674.149	-32.841	-0.188	0.105
-673.135	-8.131	0.251	-0.170
-672.120	-78.310	0.037	-0.013
-671.105	-103.813	0.022	-0.005
-670.091	-200.000	0.035	-0.211
-669.076	-49.283	0.159	0.077
-668.062	232.946	0.148	0.246
-667.047	-126.958	-0.509	0.075
-666.032	-58.473	0.107	0.047
-665.018	-200.000	0.064	-0.383
-664.003	-53.888	-0.210	-0.096
-662.989	-112.648	-0.260	-0.052
-661.974	-155.677	-0.133	0.009
-660.959	-200.000	0.020	0.259
-659.945	-142.562	-0.176	0.017
-658.930	-135.940	0.157	0.019
-657.916	71.104	0.047	-0.050
-656.901	-200.000	0.184	-0.001
-655.886	-125.210	-0.291	0.045
-654.872	-59.080	-0.207	-0.090
-653.857	-200.000	0.051	-0.273
-652.843	785.318	0.035	0.097
-651.828	-96.938	0.092	-0.024
-650.814	4.958	-0.072	0.053
-649.799	218.636	-0.306	-0.492
-648.784	-147.704	-0.210	0.018
-647.770	-56.403	-0.218	-0.097
-646.755	-130.935	-0.173	-0.023
-645.741	-66.291	-0.196	-0.078
-644.726	-200.000	0.003	0.349
-643.711	-166.580	0.245	-0.010
-642.697	119.636	-0.106	0.132
-641.682	303.496	-0.146	-0.273
-640.668	52.165	-0.077	0.074
-639.653	-200.000	0.025	0.284
-638.638	-127.076	0.320	-0.047
-637.624	-51.582	0.087	-0.041
-636.609	468.435	0.083	0.187
-635.595	99.945	0.205	-0.239
-634.580	291.243	-0.083	0.151
-633.565	-104.567	-0.176	0.041
-632.551	439.404	-0.227	-0.498
-631.536	-111.676	0.432	-0.088
-630.522	184.662	-0.140	0.209
-629.507	-200.000	0.004	-0.150
-628.492	-64.689	-0.108	0.044
-627.478	43.860	0.122	0.112
-626.463	299.047	0.248	-0.459
-625.449	-200.000	-0.020	0.128
-624.434	295.705	0.094	0.173
-623.419	108.458	0.222	0.266
-622.405	122.212	0.219	-0.275
-621.390	29.516	-0.255	-0.218
-620.376	50.638	-0.119	-0.113
-619.361	8.275	0.137	-0.103
-618.346	-200.000	-0.003	0.139
-617.332	786.140	0.074	0.204
-616.317	-9.697	0.154	-0.103
-615.303	138.380	0.100	0.131
-614.288	72.845	-0.138	-0.145
-613.273	-200.000	0.063	0.352
-612.259	296.161	-0.123	-0.227
-611.244	-200.000	0.030	-0.158
-610.230	800.000	0.025	-0.109
-609.215	-200.000	-0.002	-0.192
-608.201	5.712	0.224	0.166
-607.186	-33.445	-0.148	0.082
-606.171	301.879	0.075	-0.140
-605.157	-105.097	0.531	-0.122
-604.142	800.000	-0.116	-0.322
-603.128	193.593	-0.151	-0.229
-602.113	-145.803	-0.213	0.019
-601.098	60.099	-0.196	0.195
-600.084	-112.448	0.133	-0.027
-599.069	-200.000	-0.013	0.185
-598.055	35.442	-0.064	0.057
-597.040	-66.318	-0.101	-0.040
-596.025	-52.659	0.157	0.073
-595.011	341.817	0.086	0.169
-593.996	-200.000	-0.028	-0.245
-592.982	53.702	0.144	-0.139
-591.967	-138.806	-0.270	-0.030
-590.952	800.000	-0.021	-0.066
-589.938	161.765	0.236	0.331
-588.923	88.602	0.194	-0.216
-587.909	-43.055	-0.220	-0.112
-586.894	800.000	-0.037	0.152
-585.879	82.347	-0.170	-0.185
-584.865	57.189	-0.112	0.110
-583.850	-132.357	-0.097	-0.013
-582.836	56.493	0.235	0.230
-581.821	198.640	-0.231	-0.355
-580.806	-188.786	-0.386	0.005
-579.792	-88.416	-0.025	-0.008
-578.777	419.403	0.104	0.224
-577.763	800.000	0.064	-0.180
-576.748	-128.383	0.124	0.018
-575.733	-99.025	-0.153	0.039
-574.719	-65.693	-0.196	0.079
-573.704	-158.239	-0.158	0.009
-572.690	269.178	-0.127	-0.224
-571.675	55.528	-0.079	0.077
-570.661	-25.254	-0.230	-0.136
-569.646	-77.591	-0.147	-0.051
-568.631	-200.000	0.040	-0.267
-567.617	-140.708	0.209	0.022
-566.602	421.082	-0.103	-0.222
-565.588	-200.000	-0.073	0.428
-564.573	232.037	0.204	0.336
-563.558	-80.331	-0.095	0.032
-562.544	-200.000	-0.049	-0.260
-561.529	-23.315	0.165	-0.100
-560.515	-200.000	0.043	-0.222
-559.500	-26.552	0.054	-0.032
-558.485	184.447	0.055	0.081
-557.471	193.237	0.065	-0.099
-556.456	-103.946	-0.274	0.064
-555.442	-130.575	0.220	-0.030
-554.427	50.458	-0.133	0.126
-553.412	-132.117	0.413	-0.054
-552.398	-132.692	0.254	-0.033
-551.383	-127.648	-0.236	-0.034
-550.369	800.000	0.017	0.074
-549.354	13.740	-0.109	-0.085
-548.339	275.910	0.101	0.180
-547.325	-11.067	-0.066	0.044
-546.310	-108.035	-0.277	-0.060
-545.296	-99.248	0.235	0.060
-544.281	800.000	0.116	-0.377
-543.266	42.582	-0.224	-0.204
-542.252	196.853	0.080	-0.122
-541.237	-118.413	0.202	-0.036
-540.223	-200.000	0.024	-0.384
-539.208	-192.177	-0.242	-0.002
-538.193	-149.427	-0.166	0.013
-537.179	-53.047	-0.208	0.096
-536.164	283.992	0.091	0.165
-535.150	359.278	0.205	-0.411
-534.135	-179.779	-0.315	0.007
-533.121	59.340	0.151	0.149
-532.106	36.892	-0.260	0.230
-531.091	-6.346	0.381	0.260
-530.077	-108.264	-0.097	0.021
-529.062	-70.692	0.363	-0.137
-528.048	255.674	-0.271	-0.465
-527.033	-200.000	0.009	0.089
-526.018	482.264	0.114	0.260
-525.004	385.008	-0.036	0.075
-523.989	-130.403	-0.397	-0.054
-522.975	-88.916	-0.399	-0.118
-521.960	-106.553	0.194	-0.043
-520.945	800.000	0.067	0.247
-519.931	-200.000	-0.025	0.155
-518.916	800.000	0.041	0.151
-517.902	-62.387	-0.213	-0.089
-516.887	118.096	-0.169	0.209
-515.872	800.000	-0.026	-0.083
-514.858	648.943	0.167	0.427
-513.843	325.056	-0.076	-0.145
-512.829	-200.000	0.045	0.235
-511.814	-111.588	0.112	0.023
-510.799	-53.462	-0.035	-0.016
-509.785	255.707	-0.154	-0.265
-508.770	-200.000	-0.011	0.114
-507.756	472.599	0.222	0.501
-506.741	-156.733	-0.093	-0.006
-505.726	341.460	0.151	0.295
-504.712	-96.746	-0.182	-0.048
-503.697	-200.000	0.015	0.178
-502.683	-40.516	-0.146	0.076
-501.668	-121.776	0.199	-0.033
-500.653	-4.094	-0.028	-0.020
-499.639	9.331	0.141	-0.106
-498.624	-60.870	0.150	-0.063
-497.610	-116.355	0.255	-0.047
-496.595	-60.569	-0.149	-0.063
-495.581	21.556	0.080	0.065
-494.566	541.367	-0.074	-0.176
-493.551	-200.000	0.042	-0.270
-492.537	800.000	-0.084	0.323
-491.522	435.833	0.077	-0.168
-490.508	106.126	-0.013	0.016
-489.493	800.000	0.098	0.299
-488.478	-200.000	0.004	-0.285
-487.464	-200.000	0.006	0.222
-486.449	41.354	0.187	-0.169
-485.435	-87.509	-0.115	0.035
-484.420	800.000	0.059	0.212
-483.405	405.337	-0.136	-0.286
-482.391	-141.455	0.240	-0.024
-481.376	30.857	-0.343	0.294
-480.362	249.736	0.072	0.122
-479.347	117.067	-0.065	-0.080
-478.332	69.863	0.090	-0.092
-477.318	-64.780	0.223	-0.090
-476.303	-95.333	0.159	0.043
-475.289	28.185	0.005	0.004
-474.274	-108.455	-0.346	-0.075
-473.259	191.757	0.251	0.378
-472.245	-139.456	0.161	0.017
-471.230	800.000	0.007	0.025
-470.216	-63.389	-0.179	-0.073
-469.201	-200.000	0.074	-0.384
-468.186	60.152	-0.279	-0.276
-467.172	-84.230	0.264	0.083
-466.157	-65.127	-0.219	-0.088
-465.143	165.209	0.092	0.129
-464.128	-152.117	-0.185	-0.013
-463.113	-167.301	-0.390	0.016
-462.099	176.052	-0.050	0.072
-461.084	153.505	0.087	-0.119
-460.070	-80.666	0.264	0.088
-459.055	250.533	-0.055	0.093
-458.040	309.524	-0.040	-0.075
-457.026	-111.800	-0.338	0.068
-456.011	157.341	-0.076	0.104
-454.997	98.992	-0.272	0.314
-453.982	-60.400	0.173	0.074
-452.968	626.627	0.128	0.322
-451.953	-200.000	-0.018	-0.176
-450.938	800.000	-0.108	-0.321
-449.924	-200.000	0.001	0.093
-448.909	-200.000	0.037	0.164
-447.895	126.317	-0.139	-0.175
-446.880	-200.000	-0.037	0.211
-445.865	800.000	-0.027	0.084
-444.851	-5.458	0.191	0.131
-443.836	-44.893	0.091	0.045
-442.822	-159.191	-0.277	0.016
-441.807	-200.000	0.004	-0.063
-440.792	-49.695	-0.290	-0.138
-439.778	800.000	0.080	0.324
-438.763	227.197	-0.099	-0.161
-437.749	-71.984	0.042	0.016
-436.734	104.835	-0.179	0.210
-435.719	94.911	0.196	-0.222
-434.705	-155.143	0.279	0.018
-433.690	-160.761	-0.276	0.015
-432.676	468.950	0.110	-0.246
-431.661	-111.978	0.211	0.042
-430.646	-131.520	0.307	-0.040
-429.632	74.042	0.201	0.210
-428.617	-104.319	-0.281	0.065
-427.603	61.472	-0.224	-0.222
-426.588	-200.000	0.006	-0.319
-425.573	-46.357	0.156	-0.076
-424.559	-66.158	-0.281	-0.112
-423.544	-11.472	-0.332	-0.217
-422.530	-43.176	-0.252	0.127
-421.515	305.237	0.116	0.214
-420.500	-80.694	0.168	-0.056
-419.486	800.000	0.047	0.149
-418.471	100.251	0.094	0.109
-417.457	58.199	-0.171	0.167
-416.442	800.000	-0.071	0.282
-415.428	-17.093	-0.153	0.096
-414.413	-82.371	-0.050	-0.016
-413.398	191.800	0.147	0.221
-412.384	-200.000	-0.011	0.132
-411.369	233.766	0.183	0.300
-410.355	156.193	-0.115	0.158
-409.340	-24.342	0.117	-0.070
-408.325	104.011	-0.142	0.166
-407.311	-71.829	0.085	0.031
-406.296	196.297	-0.056	-0.085
-405.282	7.880	-0.171	-0.127
-404.267	697.081	0.088	0.230
-403.252	185.209	-0.160	0.237
-402.238	-65.804	-0.094	-0.038
-401.223	800.000	-0.077	0.308
-400.209	238.819	0.084	-0.139
-399.194	-128.844	-0.139	-0.020
-398.179	11.762	-0.076	0.058
-397.165	159.581	-0.204	0.283
-396.150	-107.750	0.272	-0.059
-395.136	133.494	-0.078	0.100
-394.121	118.340	0.095	0.117
-393.106	-161.710	0.410	-0.021
-392.092	539.648	-0.170	-0.403
-391.077	-89.290	-0.156	0.046
-390.063	-51.381	0.082	-0.038
-389.048	174.751	-0.180	-0.260
-388.033	545.560	-0.087	-0.207
-387.019	24.215	0.213	0.175
-386.004	227.998	-0.153	-0.248
-384.990	106.585	0.115	0.136
-383.975	-155.834	-0.107	0.007
-382.960	-159.710	-0.223	-0.012
-381.946	254.553	0.206	0.351
-380.931	-99.358	0.131	0.033
-379.917	-0.843	0.055	0.039
-378.902	186.951	0.132	0.196
-377.888	58.309	-0.190	-0.185
-376.873	-61.770	0.221	-0.092
-375.858	-88.437	-0.323	0.096
-374.844	-63.680	-0.198	-0.081
-373.829	1.517	0.224	0.161
-372.815	-46.643	-0.223	0.109
-371.800	-200.000	-0.009	0.170
-370.785	104.825	0.276	0.324
-369.771	800.000	0.062	0.172
-368.756	-200.000	0.028	0.228
-367.742	-180.092	0.142	-0.003
-366.727	-101.658	-0.165	0.040
-365.712	475.259	0.048	0.107
-364.698	455.375	0.063	0.138
-363.683	-47.660	0.216	0.104
-362.669	-77.164	0.156	-0.054
-361.654	80.210	-0.178	0.190
-360.639	-8.108	0.076	-0.051
-359.625	-200.000	0.003	-0.198
-358.610	82.157	-0.158	-0.171
-357.596	476.620	0.109	-0.245
-356.581	800.000	0.037	-0.134
-355.566	57.124	0.145	0.141
-354.552	-127.885	0.159	-0.023
-353.537	671.093	0.130	0.334
-352.523	488.593	0.037	0.085
-351.508	-43.759	-0.125	-0.063
-350.493	309.844	0.180	-0.334
-349.479	-54.234	0.191	-0.086
-348.464	59.458	0.159	-0.156
-347.450	-120.021	-0.113	0.019
-346.435	800.000	-0.083	0.236
-345.420	25.842	0.199	-0.165
-344.406	307.808	0.115	0.213
-343.391	-146.797	-0.055	0.005
-342.377	-200.000	0.027	-0.153
-341.362	-26.682	-0.300	0.174
-340.348	-109.181	-0.008	-0.002
-339.333	-120.720	-0.243	0.041
-338.318	119.655	-0.120	-0.148
-337.304	-78.139	0.037	0.013
-336.289	-76.059	-0.460	-0.162
-335.275	-179.197	-0.100	0.002
-334.260	-30.193	-0.087	-0.049
-333.245	67.477	-0.045	-0.046
-332.231	684.090	-0.054	-0.139
-331.216	-200.000	-0.031	0.209
-330.202	-200.000	-0.001	0.132
-329.187	-75.876	0.380	0.134
-328.172	345.499	-0.124	-0.241
-327.158	401.600	-0.059	-0.124
-326.143	-200.000	-0.028	0.274
-325.129	144.255	0.037	-0.049
-324.114	-200.000	0.019	-0.314
-323.099	-43.200	-0.303	0.152
-322.085	39.783	-0.080	0.071
-321.070	210.140	-0.135	0.210
-320.056	677.095	-0.087	0.224
-319.041	-117.560	0.434	-0.078
-318.026	-32.997	-0.070	0.038
-317.012	22.786	0.194	0.157
-315.997	226.663	-0.056	-0.090
-314.983	4.706	0.170	0.124
-313.968	104.434	-0.123	-0.143
-312.953	246.065	-0.063	0.105
-311.939	-163.548	-0.276	-0.013
-310.924	-66.396	0.248	0.098
-309.910	357.654	0.082	-0.163
-308.895	-64.820	0.131	-0.053
-307.880	800.000	0.116	0.318
-306.866	776.644	-0.020	0.053
-305.851	-52.597	0.237	-0.109
-304.837	79.286	-0.267	-0.285
-303.822	294.239	-0.081	0.146
-302.807	-152.631	-0.234	0.017
-301.793	-200.000	0.074	-0.467
-300.778	-9.480	0.579	-0.384
-299.764	268.100	-0.101	0.175
-298.749	-30.871	0.179	0.100
-297.735	74.398	0.223	-0.233
-296.720	-105.984	-0.385	0.086
-295.705	-92.483	0.314	0.088
-294.691	-70.728	0.126	0.047
-293.676	404.675	0.102	0.213
-292.662	35.483	0.136	0.118
-291.647	-87.160	-0.239	-0.072
-290.632	77.176	0.013	-0.014
-289.618	15.130	0.074	0.057
-288.603	800.000	-0.050	0.183
-287.589	-200.000	-0.029	0.227
-286.574	-72.961	0.192	0.070
-285.559	21.902	-0.103	0.084
-284.545	751.447	0.098	-0.262
-283.530	-66.174	0.255	0.101
-282.516	39.497	0.328	-0.291
-281.501	-149.398	0.251	-0.020
-280.486	5.583	-0.059	0.043
-279.472	166.870	-0.057	-0.080
-278.457	64.537	0.099	0.099
-277.443	-74.051	0.347	-0.125
-276.428	-140.422	-0.374	0.039
-275.413	800.000	0.049	0.137
-274.399	84.459	0.101	-0.110
-273.384	-23.339	0.076	-0.045
-272.370	28.271	0.133	-0.112
-271.355	76.070	-0.266	-0.279
-270.340	-200.000	-0.048	-0.233
-269.326	-200.000	-0.006	0.083
-268.311	-200.000	-0.047	0.362
-267.297	-108.138	0.303	-0.065
-266.282	800.000	0.072	-0.210
-265.267	245.745	-0.020	0.033
-264.253	473.295	-0.134	-0.299
-263.238	313.989	-0.078	0.146
-262.224	-200.000	0.002	0.277
-261.209	-72.743	-0.088	0.032
-260.195	1.425	-0.164	-0.117
-259.180	-135.203	-0.082	0.010
-258.165	6.736	-0.300	-0.221
-257.151	605.867	0.086	-0.211
-256.136	254.897	0.054	0.092
-255.122	-26.094	-0.070	-0.041
-254.107	-200.000	0.049	-0.215
-253.092	-44.194	0.333	-0.165
-252.078	800.000	0.120	0.340
-251.063	167.565	0.074	-0.104
-250.049	506.033	-0.040	-0.093
-249.034	293.733	-0.047	0.084
-248.019	800.000	0.031	0.131
-247.005	-200.000	-0.025	-0.211
-245.990	32.595	0.227	-0.194
-244.976	386.136	0.048	-0.099
-243.961	-103.973	0.103	-0.024
-242.946	38.376	-0.066	-0.058
-241.932	36.701	0.029	0.025
-240.917	-21.561	0.089	0.053
-239.903	-183.684	-0.150	-0.003
-238.888	-162.985	0.005	-0.000
-237.873	420.663	-0.046	0.097
-236.859	-200.000	-0.006	-0.181
-235.844	-35.266	0.252	0.136
-234.830	74.855	0.103	0.107
-233.815	-38.968	-0.372	0.194
-232.800	-126.202	0.149	-0.022
-231.786	-12.152	-0.125	0.081
-230.771	181.432	0.137	-0.200
-229.757	-165.778	-0.104	0.004
-228.742	-200.000	-0.002	-0.100
-227.727	322.829	0.064	0.121
-226.713	179.200	-0.020	-0.030
-225.698	-200.000	-0.015	0.089
-224.684	-135.880	0.030	-0.003
-223.669	95.331	-0.193	0.218
-222.655	-200.000	-0.022	0.505
-221.640	-84.636	0.353	-0.110
-220.625	-200.000	-0.002	0.165
-219.611	-200.000	0.009	0.114
-218.596	800.000	-0.105	0.315
-217.582	800.000	0.044	-0.129
-216.567	-200.000	0.001	-0.363
-215.552	-200.000	0.004	-0.361
-214.538	67.616	-0.226	-0.229
-213.523	-200.000	0.036	-0.309
-212.509	800.000	0.037	-0.125
-211.494	555.739	-0.075	-0.179
-210.479	6.921	0.148	-0.109
-209.465	508.601	0.057	-0.132
-208.450	-85.638	0.178	0.055
-207.436	274.732	-0.133	-0.232
-206.421	-131.960	0.549	-0.071
-205.406	438.635	-0.199	0.430
-204.392	85.036	-0.105	-0.114
-203.377	-200.000	-0.020	-0.176
-202.363	-200.000	-0.016	-0.209
-201.348	-44.805	0.192	-0.094
-200.333	111.969	-0.157	-0.188
-199.319	-38.465	0.132	0.069
-198.304	-200.000	-0.001	0.220
-197.290	16.734	0.317	-0.248
-196.275	-157.420	-0.041	0.002
-195.260	208.661	0.127	0.196
-194.246	60.413	-0.228	0.223
-193.231	-200.000	0.024	0.128
-192.217	187.401	-0.083	0.122
-191.202	196.069	-0.208	0.313
-190.187	714.218	0.105	0.275
-189.173	-200.000	-0.027	-0.137
-188.158	-1.482	-0.152	-0.106
-187.144	-22.364	-0.134	-0.080
-186.129	122.625	0.077	0.095
-185.114	-25.232	0.252	-0.148
-184.100	-200.000	-0.069	-0.334
-183.085	800.000	-0.040	-0.132
-182.071	725.133	-0.116	-0.305
-181.056	-200.000	-0.029	0.268
-180.042	-200.000	-0.064	0.367
-179.027	-64.377	-0.148	0.059
-178.012	211.957	0.063	-0.099
-176.998	502.650	0.037	-0.083
-175.983	67.133	0.077	-0.077
-174.969	-51.717	0.147	-0.068
-173.954	-129.839	-0.147	0.020
-172.939	4.492	0.015	0.011
-171.925	-144.951	0.122	0.011
-170.910	-82.026	-0.128	0.041
-169.896	95.961	0.147	-0.165
-168.881	-104.201	-0.248	0.057
-167.866	-200.000	-0.027	-0.138
-166.852	196.170	-0.138	-0.207
-165.837	-169.981	0.225	0.008
-164.823	-80.894	0.291	-0.095
-163.808	-87.287	-0.159	0.048
-162.793	90.400	0.201	0.222
-161.779	-200.000	0.024	0.107
-160.764	-114.030	-0.035	0.007
-159.750	-57.193	-0.158	-0.069
-158.735	-115.889	-0.191	0.035
-157.720	661.474	-0.046	0.116
-156.706	746.364	0.212	-0.564
-155.691	23.179	-0.114	-0.093
-154.677	-200.000	0.011	0.151
-153.662	-83.558	0.212	0.067
-152.647	-200.000	0.027	-0.206
-151.633	0.564	-0.259	0.183
-150.618	617.436	0.095	0.235
-149.604	31.717	0.090	0.076
-148.589	-33.002	0.280	-0.153
-147.574	119.210	0.095	-0.116
-146.560	-125.579	-0.245	0.037
-145.545	47.031	0.095	0.087
-144.531	-200.000	-0.019	0.098
-143.516	-135.349	0.346	-0.041
-142.502	-150.921	-0.290	0.022
-141.487	740.077	0.064	-0.170
-140.472	-69.898	-0.361	-0.136
-139.458	64.954	0.240	0.239
-138.443	-83.778	-0.321	-0.101
-137.429	800.000	0.042	-0.146
-136.414	-200.000	-0.018	0.141
-135.399	542.406	0.133	-0.313
-134.385	-73.117	0.025	-0.009
-133.370	59.367	0.107	0.104
-132.356	8.244	-0.114	0.084
-131.341	800.000	-0.072	0.260
-130.326	165.031	-0.230	0.320
-129.312	-57.647	-0.212	-0.092
-128.297	-23.608	0.317	0.188
-127.283	0.387	0.181	-0.127
-126.268	6.232	0.252	-0.184
-125.253	800.000	0.053	0.186
-124.239	319.010	-0.047	-0.087
-123.224	-95.764	0.037	-0.010
-122.210	-91.426	0.426	-0.120
-121.195	800.000	0.020	-0.085
