DTS Sentinel unit serial number:	SN413079Multiplexer serial number:	ORYXHardware model number:	OX4-SRSoftware version number:	ORYX F/W v4.00 Oryx Data Collector v3.7.2.0data status	okinstallation	princeton_trtdifferential loss correction	single-endedforward channel	channel 2reverse channel	N/Adate	2019/09/19time	07:03:34forward acquisition time	60.00reverse acquisition time	0.00gamma	496.2192k internal	0.2350k external	0.2350temperature offset calibration	1.0011default loss term (dB/km)	0.3790temperature slope calibration	1.0000multiplexer offset coefficient	1.0000multiplexer slope coefficient	1.0000fibre end	0.00T internal ref (°C)	19.00T ext. ref 1 (°C)	0.56T ext. ref 2 (°C)	13.10length (m)	temperature (°C)	Stokes	anti-Stokes-747.200	800.000	-0.086	-0.274
-746.185	800.000	-0.073	0.283
-745.171	43.568	-0.134	0.123
-744.156	800.000	-0.073	0.227
-743.142	59.864	-0.242	-0.239
-742.127	-200.000	-0.019	0.133
-741.112	-88.575	0.086	0.025
-740.098	292.358	0.174	0.316
-739.083	-181.707	0.279	-0.005
-738.069	118.609	-0.035	0.043
-737.054	138.467	-0.074	-0.097
-736.039	-175.381	0.275	-0.008
-735.025	447.297	0.028	0.061
-734.010	-167.434	0.172	0.007
-732.996	-200.000	-0.011	-0.143
-731.981	33.658	-0.250	0.217
-730.966	800.000	0.100	-0.358
-729.952	211.135	0.087	-0.137
-728.937	159.530	0.121	-0.168
-727.923	47.020	-0.108	0.100
-726.908	-200.000	-0.003	0.266
-725.894	312.798	-0.123	-0.230
-724.879	379.596	0.098	-0.201
-723.864	-1.306	0.199	0.140
-722.850	280.407	-0.087	-0.156
-721.835	217.259	-0.182	-0.290
-720.821	-77.057	-0.297	0.103
-719.806	-200.000	0.034	0.261
-718.791	97.621	0.166	0.191
-717.777	-103.377	-0.224	0.053
-716.762	-117.302	-0.536	-0.097
-715.748	-80.260	0.184	0.061
-714.733	672.535	0.136	0.351
-713.718	-60.574	0.052	0.022
-712.704	-70.212	0.111	-0.042
-711.689	-85.043	0.367	-0.115
-710.675	-126.758	-0.015	-0.002
-709.660	21.666	-0.243	-0.198
-708.645	47.108	0.154	0.142
-707.631	-85.917	-0.183	0.056
-706.616	-15.802	-0.107	-0.068
-705.602	-44.260	0.308	-0.154
-704.587	185.429	0.057	-0.085
-703.572	-67.996	0.118	0.046
-702.558	-122.013	0.286	0.047
-701.543	-42.892	-0.120	0.061
-700.529	138.189	0.159	-0.208
-699.514	-139.950	-0.114	-0.012
-698.499	142.791	0.172	-0.227
-697.485	122.040	-0.190	0.236
-696.470	-200.000	0.020	-0.185
-695.456	-200.000	0.002	0.123
-694.441	-200.000	-0.009	-0.274
-693.426	-66.256	0.157	0.062
-692.412	-200.000	-0.071	-0.421
-691.397	61.705	-0.169	-0.167
-690.383	260.563	-0.068	-0.118
-689.368	-98.327	0.138	0.035
-688.354	-46.827	-0.058	0.028
-687.339	235.500	-0.262	-0.432
-686.324	8.720	-0.351	-0.263
-685.310	253.299	0.100	0.169
-684.295	6.937	-0.092	-0.068
-683.281	154.981	0.154	0.211
-682.266	402.129	-0.156	0.327
-681.251	328.702	0.067	0.128
-680.237	94.096	-0.193	-0.218
-679.222	-84.808	-0.418	0.131
-678.208	-82.887	0.233	-0.075
-677.193	-149.560	0.404	-0.032
-676.178	290.972	0.177	-0.320
-675.164	18.360	-0.257	-0.205
-674.149	800.000	0.025	-0.109
-673.135	-57.094	0.209	0.092
-672.120	-191.089	-0.090	-0.001
-671.105	-200.000	-0.097	0.452
-670.091	156.611	-0.131	0.180
-669.076	-200.000	-0.020	0.145
-668.062	125.614	-0.194	0.244
-667.047	-119.039	-0.032	-0.006
-666.032	-182.526	-0.213	-0.004
-665.018	-142.766	0.224	0.022
-664.003	110.779	-0.063	-0.075
-662.989	-47.652	0.110	0.053
-661.974	-200.000	-0.023	-0.113
-660.959	800.000	-0.029	0.085
-659.945	-89.238	0.294	0.086
-658.930	-74.001	0.100	0.036
-657.916	136.572	-0.099	0.129
-656.901	142.088	-0.128	-0.169
-655.886	-43.808	-0.402	-0.201
-654.872	279.226	0.085	0.151
-653.857	-200.000	-0.023	-0.159
-652.843	-27.804	-0.195	0.112
-651.828	-200.000	0.014	-0.096
-650.814	-57.634	0.120	-0.052
-649.799	-5.230	-0.261	-0.178
-648.784	287.761	-0.209	0.377
-647.770	800.000	-0.095	0.379
-646.755	-128.243	-0.081	-0.012
-645.741	-107.250	0.299	-0.065
-644.726	71.525	-0.016	0.017
-643.711	260.412	0.169	-0.291
-642.697	-124.414	-0.143	0.022
-641.682	-145.988	-0.263	-0.023
-640.668	800.000	-0.078	-0.280
-639.653	-80.199	0.203	-0.068
-638.638	800.000	-0.158	-0.559
-637.624	-200.000	-0.022	-0.144
-636.609	-89.709	0.165	0.048
-635.595	800.000	-0.029	-0.115
-634.580	614.228	-0.131	0.325
-633.565	800.000	0.037	-0.141
-632.551	-139.307	0.077	0.008
-631.536	272.052	0.075	-0.131
-630.522	-93.672	-0.237	-0.065
-629.507	-116.181	-0.048	-0.009
-628.492	1.762	-0.167	0.120
-627.478	282.862	-0.125	-0.222
-626.463	44.752	0.144	-0.132
-625.449	425.569	0.021	0.044
-624.434	381.186	-0.082	-0.168
-623.419	-1.025	-0.279	0.196
-622.405	-147.156	0.155	0.013
-621.390	-9.872	0.184	-0.122
-620.376	-150.951	0.183	0.014
-619.361	-200.000	-0.034	-0.314
-618.346	-43.296	-0.182	-0.091
-617.332	199.415	-0.193	0.293
-616.317	66.883	-0.138	-0.140
-615.303	-200.000	-0.014	-0.106
-614.288	153.290	-0.134	0.182
-613.273	246.080	0.160	-0.268
-612.259	-32.459	0.275	0.152
-611.244	170.402	0.185	0.263
-610.230	-63.809	0.222	-0.090
-609.215	-200.000	-0.047	0.274
-608.201	-150.077	-0.132	-0.010
-607.186	800.000	-0.027	-0.113
-606.171	-200.000	0.014	0.072
-605.157	800.000	-0.124	0.379
-604.142	118.174	0.103	0.126
-603.128	-174.767	0.131	0.004
-602.113	375.766	0.059	0.120
-601.098	-26.380	-0.272	0.158
-600.084	37.938	-0.246	0.217
-599.069	93.807	0.121	0.136
-598.055	-200.000	0.023	0.131
-597.040	-118.889	-0.158	-0.027
-596.025	-111.459	-0.312	-0.063
-595.011	105.730	-0.112	-0.131
-593.996	259.610	0.135	-0.231
-592.982	-138.030	-0.234	-0.026
-591.967	-69.158	-0.096	0.037
-590.952	221.526	0.123	0.197
-589.938	337.044	0.186	0.358
-588.923	-194.263	-0.115	-0.001
-587.909	-142.427	0.121	-0.012
-586.894	-11.825	0.275	0.179
-585.879	-26.260	-0.296	-0.172
-584.865	265.854	0.164	0.284
-583.850	775.419	0.079	-0.213
-582.836	-35.624	-0.191	0.103
-581.821	-77.226	-0.157	-0.054
-580.806	800.000	0.049	0.164
-579.792	460.654	-0.128	0.283
-578.777	56.075	-0.196	-0.189
-577.763	390.325	0.029	0.059
-576.748	59.834	-0.184	0.180
-575.733	-133.602	-0.366	0.045
-574.719	162.270	0.043	-0.060
-573.704	59.991	-0.068	-0.066
-572.690	-54.792	0.203	0.091
-571.675	-47.446	-0.133	0.064
-570.661	-101.419	-0.483	-0.117
-569.646	-141.651	0.228	-0.023
-568.631	-38.058	-0.259	0.136
-567.617	24.948	-0.028	-0.023
-566.602	150.040	0.102	0.138
-565.588	-200.000	-0.060	0.317
-564.573	-200.000	0.005	0.191
-563.558	-85.593	-0.102	0.031
-562.544	113.642	-0.193	0.232
-561.529	-54.046	0.433	0.195
-560.515	-173.109	0.315	0.010
-559.500	505.468	0.038	0.086
-558.485	-46.547	-0.187	-0.091
-557.471	800.000	-0.103	0.430
-556.456	-117.262	-0.213	0.038
-555.442	-105.739	0.063	-0.014
-554.427	-40.183	-0.171	-0.088
-553.412	-28.556	0.070	-0.040
-552.398	196.737	-0.146	-0.220
-551.383	-52.778	-0.131	0.060
-550.369	-200.000	-0.087	-0.389
-549.354	-111.619	-0.215	-0.043
-548.339	-200.000	-0.041	-0.491
-547.325	265.906	-0.245	-0.424
-546.310	-89.367	0.062	-0.018
-545.296	-140.789	0.250	-0.026
-544.281	-0.206	-0.066	0.046
-543.266	-195.827	0.327	-0.002
-542.252	-200.000	0.079	-0.359
-541.237	-32.877	-0.155	0.085
-540.223	239.044	-0.126	0.208
-539.208	800.000	-0.083	0.297
-538.193	-170.396	-0.061	-0.002
-537.179	-55.963	-0.273	-0.121
-536.164	643.606	0.121	-0.306
-535.150	312.226	-0.095	-0.176
-534.135	-10.459	0.124	-0.082
-533.121	-95.459	-0.187	0.050
-532.106	800.000	-0.042	0.143
-531.091	-140.154	0.089	-0.009
-530.077	-200.000	0.012	0.147
-529.062	59.938	0.185	-0.181
-528.048	-151.799	0.069	0.005
-527.033	150.695	-0.111	0.150
-526.018	38.917	0.290	-0.257
-525.004	-153.900	-0.140	-0.009
-523.989	-200.000	-0.042	-0.314
-522.975	-200.000	0.001	-0.080
-521.960	-200.000	-0.040	-0.267
-520.945	-141.856	0.173	0.017
-519.931	-200.000	-0.016	0.086
-518.916	56.882	0.107	0.103
-517.902	16.734	-0.181	0.142
-516.887	-132.199	0.423	-0.054
-515.872	-200.000	0.014	0.189
-514.858	-1.186	0.110	0.077
-513.843	-119.899	-0.235	-0.040
-512.829	173.480	0.099	0.141
-511.814	-200.000	0.021	-0.238
-510.799	800.000	-0.115	-0.324
-509.785	152.723	0.197	0.267
-508.770	337.011	-0.099	0.191
-507.756	677.887	-0.111	0.286
-506.741	141.498	0.156	0.205
-505.726	800.000	0.131	0.359
-504.712	96.515	-0.093	0.105
-503.697	88.391	0.010	-0.011
-502.683	800.000	-0.072	0.232
-501.668	169.824	-0.222	0.314
-500.653	-82.588	0.125	-0.040
-499.639	-120.454	0.228	-0.038
-498.624	-105.661	-0.271	-0.061
-497.610	800.000	0.034	0.109
-496.595	29.070	-0.213	0.179
-495.581	-63.198	-0.448	-0.183
-494.566	-200.000	0.015	-0.198
-493.551	5.441	-0.174	0.127
-492.537	-92.119	0.309	-0.086
-491.522	38.405	0.109	0.096
-490.508	-200.000	-0.010	-0.065
-489.493	-88.658	-0.196	-0.058
-488.478	-154.147	0.276	0.018
-487.464	111.468	0.053	-0.063
-486.449	41.132	-0.283	-0.253
-485.435	-200.000	-0.023	0.111
-484.420	502.993	0.059	0.136
-483.405	800.000	0.018	0.051
-482.391	-0.402	-0.124	0.087
-481.376	-200.000	0.048	-0.505
-480.362	-99.081	0.452	0.113
-479.347	-2.933	-0.098	0.068
-478.332	-39.587	-0.163	0.084
-477.318	513.381	-0.024	0.056
-476.303	121.936	-0.218	-0.269
-475.289	-51.997	-0.294	0.135
-474.274	163.790	-0.170	0.236
-473.259	-90.821	0.121	0.035
-472.245	-64.121	0.172	0.069
-471.230	-49.160	-0.118	-0.055
-470.216	800.000	0.070	-0.274
-469.201	66.584	0.055	-0.055
-468.186	-59.631	-0.350	-0.148
-467.172	63.805	0.249	0.247
-466.157	29.109	0.185	-0.155
-465.143	-106.460	0.217	-0.048
-464.128	-128.807	0.075	0.010
-463.113	-200.000	0.087	0.400
-462.099	-16.937	0.257	0.161
-461.084	-200.000	-0.028	0.361
-460.070	-200.000	0.013	0.180
-459.055	253.331	0.043	0.072
-458.040	310.929	0.049	-0.091
-457.026	-134.600	0.167	0.020
-456.011	-200.000	-0.022	0.253
-454.997	-200.000	-0.002	-0.108
-453.982	379.776	0.112	-0.227
-452.968	-200.000	0.045	0.265
-451.953	-78.912	-0.201	0.068
-450.938	-100.247	-0.206	-0.050
-449.924	101.060	0.034	-0.040
-448.909	800.000	0.019	0.064
-447.895	163.267	-0.185	-0.257
-446.880	479.643	0.124	-0.277
-445.865	800.000	0.069	-0.201
-444.851	33.247	0.134	-0.115
-443.836	-80.431	0.234	0.077
-442.822	-93.291	0.311	0.085
-441.807	-180.493	-0.039	0.001
-440.792	47.303	0.328	-0.302
-439.778	347.759	-0.138	0.269
-438.763	-200.000	-0.220	-0.001
-437.749	-50.729	-0.168	-0.078
-436.734	-73.676	0.191	-0.069
-435.719	655.947	-0.115	-0.291
-434.705	50.370	-0.138	-0.129
-433.690	-200.000	-0.003	0.081
-432.676	23.897	0.229	0.186
-431.661	-73.095	0.146	0.053
-430.646	800.000	0.054	-0.201
-429.632	-72.923	0.076	0.028
-428.617	626.030	-0.099	0.247
-427.603	-9.264	0.299	0.197
-426.588	-72.782	-0.369	0.134
-425.573	-200.000	0.023	0.137
-424.559	-78.508	-0.203	-0.069
-423.544	-200.000	-0.267	-0.001
-422.530	356.376	-0.097	-0.191
-421.515	52.058	0.214	-0.201
-420.500	56.543	0.146	-0.140
-419.486	210.546	0.030	-0.047
-418.471	70.565	0.032	0.032
-417.457	-125.997	0.147	-0.022
-416.442	-39.955	-0.083	-0.043
-415.428	-22.138	0.300	0.179
-414.413	102.642	-0.160	-0.184
-413.398	-200.000	-0.035	-0.347
-412.384	-121.643	-0.311	0.051
-411.369	-200.000	0.011	0.413
-410.355	-156.369	0.171	-0.011
-409.340	-200.000	-0.008	-0.082
-408.325	-105.414	0.297	-0.067
-407.311	377.147	-0.011	-0.023
-406.296	-138.536	-0.150	-0.016
-405.282	-2.954	0.182	0.126
-404.267	366.853	0.055	0.109
-403.252	800.000	0.148	0.408
-402.238	-200.000	-0.016	0.133
-401.223	55.678	-0.157	-0.150
-400.209	-30.416	-0.106	-0.059
-399.194	13.501	-0.259	-0.198
-398.179	-26.275	-0.210	-0.122
-397.165	3.318	-0.269	-0.193
-396.150	43.944	0.174	0.157
-395.136	800.000	0.125	0.394
-394.121	-157.146	-0.336	0.020
-393.106	426.845	-0.123	-0.262
-392.092	-114.256	-0.149	-0.028
-391.077	98.725	0.066	0.075
-390.063	-121.946	0.273	0.044
-389.048	-200.000	-0.007	0.092
-388.033	-140.479	0.252	-0.026
-387.019	-62.483	0.296	-0.121
-386.004	28.603	0.235	-0.196
-384.990	-100.286	0.205	-0.050
-383.975	-35.534	-0.157	-0.084
-382.960	-58.134	0.200	-0.086
-381.946	-160.288	-0.126	-0.007
-380.931	34.457	-0.168	0.144
-379.917	43.625	-0.031	0.028
-378.902	-200.000	0.059	-0.319
-377.888	-200.000	0.017	-0.283
-376.873	800.000	-0.126	0.451
-375.858	-200.000	-0.024	-0.187
-374.844	551.170	-0.061	-0.144
-373.829	767.251	0.029	0.078
-372.815	-137.872	0.103	-0.011
-371.800	456.578	-0.127	-0.277
-370.785	800.000	-0.068	-0.201
-369.771	110.825	0.202	-0.239
-368.756	59.513	-0.209	0.203
-367.742	-200.000	-0.045	0.269
-366.727	140.461	-0.028	-0.036
-365.712	128.806	0.167	-0.210
-364.698	29.996	-0.058	-0.049
-363.683	-26.258	0.056	-0.033
-362.669	-16.963	-0.242	-0.151
-361.654	-77.909	0.343	0.116
-360.639	-70.454	0.142	0.053
-359.625	22.212	0.141	-0.113
-358.610	-12.238	0.160	-0.103
-357.596	-97.376	0.468	0.120
-356.581	410.578	-0.133	0.278
-355.566	-34.710	0.149	0.080
-354.552	800.000	-0.159	-0.519
-353.537	-200.000	-0.005	0.310
-352.523	82.949	0.152	0.163
-351.508	342.211	-0.175	-0.337
-350.493	-68.280	0.293	0.112
-349.479	-35.856	0.018	-0.010
-348.464	62.157	0.098	0.096
-347.450	-200.000	-0.047	-0.386
-346.435	-125.469	0.412	-0.062
-345.420	-102.476	-0.242	-0.057
-344.406	-183.664	-0.032	-0.001
-343.391	-189.448	0.256	0.003
-342.377	-6.889	-0.098	0.065
-341.362	-28.679	0.147	-0.083
-340.348	800.000	0.054	0.147
-339.333	-134.727	-0.309	-0.037
-338.318	-167.224	0.539	-0.021
-337.304	173.443	0.053	-0.075
-336.289	-200.000	-0.039	-0.206
-335.275	-63.160	0.229	0.093
-334.260	-52.111	-0.247	-0.113
-333.245	589.696	-0.051	-0.124
-332.231	-200.000	-0.048	0.237
-331.216	800.000	-0.048	0.186
-330.202	-200.000	0.026	0.224
-329.187	800.000	0.068	-0.198
-328.172	584.934	0.012	0.029
-327.158	49.812	0.040	0.037
-326.143	800.000	0.029	0.112
-325.129	-200.000	-0.008	0.247
-324.114	-115.454	0.448	-0.083
-323.099	-93.393	0.298	-0.081
-322.085	-0.455	0.110	-0.077
-321.070	-137.912	0.055	0.006
-320.056	635.044	-0.077	-0.191
-319.041	-49.113	-0.205	-0.096
-318.026	257.764	0.030	-0.051
-317.012	-146.518	-0.181	-0.015
-315.997	-200.000	-0.035	0.323
-314.983	-10.229	0.118	0.077
-313.968	-200.000	0.002	-0.072
-312.953	57.689	-0.302	0.290
-311.939	-122.344	0.068	0.011
-310.924	335.462	0.126	-0.239
-309.910	-200.000	-0.002	0.027
-308.895	-124.254	-0.282	-0.043
-307.880	23.176	0.183	-0.147
-306.866	-200.000	-0.044	0.356
-305.851	-3.847	0.088	0.060
-304.837	-200.000	0.107	-0.471
-303.822	800.000	0.076	0.240
-302.807	-200.000	-0.079	0.366
-301.793	-122.325	0.230	-0.037
-300.778	-38.612	-0.118	0.061
-299.764	-79.390	-0.300	-0.100
-298.749	26.618	0.168	0.138
-297.735	-151.418	-0.289	0.021
-296.720	-57.873	0.323	-0.139
-295.705	-200.000	0.030	0.148
-294.691	407.244	0.033	-0.068
-293.676	-17.360	-0.410	-0.253
-292.662	-28.627	0.277	-0.156
-291.647	281.873	0.058	0.102
-290.632	-186.680	-0.169	0.002
-289.618	485.304	0.084	0.187
-288.603	596.214	-0.050	-0.122
-287.589	800.000	0.117	0.372
-286.574	-162.290	-0.319	-0.016
-285.559	277.376	0.143	-0.250
-284.545	-115.380	-0.138	0.025
-283.530	-200.000	-0.017	-0.346
-282.516	124.551	-0.128	0.158
-281.501	397.265	0.055	-0.112
-280.486	-87.585	0.357	-0.106
-279.472	800.000	-0.032	0.110
-278.457	8.195	0.221	-0.163
-277.443	-182.631	0.219	0.004
-276.428	-164.844	-0.233	-0.010
-275.413	-117.514	0.354	0.063
-274.399	-97.606	-0.205	0.052
-273.384	-35.939	-0.219	-0.116
-272.370	-10.123	0.080	-0.052
-271.355	-189.288	0.274	0.003
-270.340	78.882	-0.118	-0.124
-269.326	-127.317	-0.561	0.080
-268.311	-40.235	-0.244	-0.124
-267.297	-83.563	0.170	-0.053
-266.282	-81.325	0.091	-0.030
-265.267	510.970	-0.057	-0.129
-264.253	-91.299	-0.149	0.042
-263.238	-11.259	0.120	-0.078
-262.224	-45.831	0.051	0.025
-261.209	-200.000	0.011	-0.060
-260.195	-97.207	-0.337	-0.086
-259.180	-105.824	0.061	-0.014
-258.165	105.115	0.243	-0.281
-257.151	-200.000	-0.017	0.126
-256.136	-51.087	0.130	-0.060
-255.122	-152.399	-0.255	0.018
-254.107	-151.247	0.222	0.016
-253.092	-200.000	-0.028	0.187
-252.078	471.975	-0.182	0.401
-251.063	800.000	-0.071	0.263
-250.049	71.694	0.123	-0.125
-249.034	-99.648	-0.211	-0.052
-248.019	284.559	-0.066	0.117
-247.005	95.722	-0.090	0.101
-245.990	236.568	0.121	0.196
-244.976	533.412	0.022	-0.051
-243.961	88.907	-0.089	-0.097
-242.946	267.783	-0.117	0.200
-241.932	93.915	0.138	-0.154
-240.917	-26.091	-0.359	0.207
-239.903	155.771	0.227	0.306
-238.888	621.619	-0.052	-0.129
-237.873	-200.000	0.111	-0.000
-236.859	800.000	0.091	-0.291
-235.844	-200.000	0.028	-0.174
-234.830	800.000	0.087	-0.281
-233.815	-78.798	0.198	0.066
-232.800	-200.000	0.049	-0.216
-231.786	-200.000	0.028	-0.236
-230.771	800.000	0.077	-0.221
-229.757	800.000	0.073	-0.211
-228.742	312.638	0.201	0.370
-227.727	111.118	0.228	0.268
-226.713	-169.233	0.498	0.018
-225.698	580.007	-0.071	-0.169
-224.684	-32.438	0.159	0.087
-223.669	-200.000	-0.004	0.152
-222.655	-200.000	-0.012	-0.173
-221.640	-84.993	0.281	0.086
-220.625	-152.512	-0.479	0.034
-219.611	404.803	-0.111	0.229
-218.596	-59.688	0.259	-0.108
-217.582	-167.268	0.138	0.005
-216.567	-62.245	0.109	-0.044
-215.552	203.740	-0.157	0.238
-214.538	-133.370	-0.229	0.028
-213.523	-114.085	0.273	0.052
-212.509	583.436	0.042	-0.100
-211.494	-124.738	0.055	0.008
-210.479	-74.978	0.228	0.080
-209.465	-38.300	0.244	0.127
-208.450	35.746	-0.223	-0.191
-207.436	373.085	-0.037	0.074
-206.421	-200.000	0.000	-0.084
-205.406	50.762	0.174	-0.161
-204.392	3.238	-0.304	-0.216
-203.377	800.000	-0.074	0.230
-202.363	-37.087	-0.032	0.017
-201.348	-44.449	-0.170	0.083
-200.333	-90.288	-0.082	0.023
-199.319	33.922	-0.112	-0.095
-198.304	-200.000	-0.008	-0.487
-197.290	800.000	-0.137	0.478
-196.275	183.693	0.268	-0.387
-195.260	-200.000	-0.007	0.091
-194.246	13.238	-0.159	0.120
-193.231	-38.875	0.189	0.097
-192.217	-86.267	-0.261	-0.078
-191.202	800.000	-0.022	0.064
-190.187	-57.701	0.024	0.010
-189.173	139.229	-0.111	0.143
-188.158	345.082	-0.106	0.203
-187.144	-108.624	-0.279	0.059
-186.129	176.291	0.106	0.150
-185.114	-200.000	-0.006	-0.058
-184.100	295.111	-0.096	-0.172
-183.085	306.350	0.090	-0.164
-182.071	126.724	-0.144	0.178
-181.056	-20.101	0.235	-0.142
-180.042	67.025	0.204	0.203
-179.027	672.911	-0.076	0.193
-178.012	-200.000	0.015	0.075
-176.998	-36.245	-0.202	0.107
-175.983	270.858	-0.129	-0.221
-174.969	429.217	-0.107	0.226
-173.954	-67.793	-0.252	-0.096
-172.939	374.077	0.163	-0.324
-171.925	-65.071	0.265	0.105
-170.910	800.000	-0.053	-0.198
-169.896	-128.077	-0.071	0.010
-168.881	-69.193	0.255	-0.096
-167.866	157.683	0.267	-0.360
-166.852	103.929	-0.074	0.085
-165.837	-31.418	-0.174	0.095
-164.823	-85.766	0.262	0.079
-163.808	60.029	-0.106	0.102
-162.793	-9.121	-0.243	0.158
-161.779	-63.987	-0.038	-0.015
-160.764	800.000	-0.048	0.182
-159.750	-99.739	-0.103	-0.025
-158.735	-108.290	-0.359	0.076
-157.720	559.469	-0.053	-0.125
-156.706	310.195	0.151	-0.276
-155.691	19.540	0.338	-0.266
-154.677	800.000	0.037	-0.153
-153.662	-60.754	-0.219	-0.091
-152.647	-57.252	0.090	-0.039
-151.633	-200.000	-0.012	0.245
-150.618	229.786	0.027	0.043
-149.604	-50.975	0.396	0.181
-148.589	-200.000	-0.012	0.083
-147.574	233.744	0.087	-0.139
-146.560	800.000	-0.066	0.234
-145.545	511.593	0.064	-0.146
-144.531	-80.022	-0.237	0.078
-143.516	-200.000	-0.008	0.036
-142.502	470.531	-0.122	0.267
-141.487	-200.000	0.016	0.315
-140.472	-7.711	0.181	-0.119
-139.458	217.055	0.121	-0.188
-138.443	-10.838	0.172	0.111
-137.429	792.580	-0.086	-0.231
-136.414	-200.000	-0.023	-0.119
-135.399	-25.670	0.322	0.185
-134.385	-200.000	0.044	0.221
-133.370	228.779	0.165	-0.262
-132.356	-200.000	0.018	0.119
-131.341	-147.514	0.249	0.021
-130.326	124.708	-0.197	0.242
-129.312	235.927	0.136	-0.219
-128.297	-135.699	0.156	-0.018
-127.283	44.163	0.154	0.137
-126.268	-87.468	0.405	-0.119
-125.253	412.326	0.007	-0.014
-124.239	-55.186	-0.158	0.069
-123.224	61.587	0.149	-0.145
-122.210	800.000	-0.064	-0.178
