DTS Sentinel unit serial number:	SN413079Multiplexer serial number:	ORYXHardware model number:	OX4-SRSoftware version number:	ORYX F/W v4.00 Oryx Data Collector v3.7.2.0data status	okinstallation	princeton_trtdifferential loss correction	single-endedforward channel	channel 2reverse channel	N/Adate	2019/09/11time	18:33:11forward acquisition time	60.00reverse acquisition time	0.00gamma	496.2192k internal	0.2287k external	0.2287temperature offset calibration	1.0027default loss term (dB/km)	0.3790temperature slope calibration	1.0000multiplexer offset coefficient	1.0000multiplexer slope coefficient	1.0000fibre end	0.00T internal ref (°C)	43.77T ext. ref 1 (°C)	1.18T ext. ref 2 (°C)	37.04length (m)	temperature (°C)	Stokes	anti-Stokes-747.200	506.597	0.106	0.253
-746.185	24.242	-0.295	0.250
-745.171	-28.471	0.112	-0.066
-744.156	-120.889	0.192	-0.033
-743.142	-132.472	-0.208	0.028
-742.127	67.291	-0.065	-0.068
-741.112	-14.567	0.275	0.182
-740.098	13.947	0.268	0.214
-739.083	-122.149	0.251	0.042
-738.069	800.000	0.082	0.234
-737.054	548.697	0.078	-0.191
-736.039	-79.653	0.401	-0.139
-735.025	-85.566	0.124	0.040
-734.010	-127.371	-0.604	0.090
-732.996	-145.426	-0.408	-0.038
-731.981	-98.925	-0.285	-0.074
-730.966	-42.972	0.028	0.014
-729.952	279.303	0.114	0.208
-728.937	26.933	-0.136	-0.117
-727.923	-157.372	0.353	-0.022
-726.908	8.861	-0.275	-0.213
-725.894	-139.341	-0.340	-0.037
-724.879	-200.000	0.006	-0.195
-723.864	239.501	-0.100	0.170
-722.850	-55.997	-0.253	-0.116
-721.835	-48.601	0.254	-0.125
-720.821	-106.880	-0.166	0.038
-719.806	-165.912	-0.149	-0.007
-718.791	-200.000	-0.031	-0.255
-717.777	188.874	0.012	0.018
-716.762	-10.366	-0.114	0.078
-715.748	64.538	-0.152	0.157
-714.733	157.140	-0.186	-0.263
-713.718	71.603	-0.078	0.083
-712.704	-200.000	0.004	0.354
-711.689	-8.629	0.234	-0.161
-710.675	81.671	-0.282	-0.313
-709.660	135.655	-0.159	-0.212
-708.645	-200.000	-0.008	-0.110
-707.631	409.762	-0.126	-0.272
-706.616	-155.258	-0.125	0.008
-705.602	-51.039	-0.137	-0.066
-704.587	800.000	0.009	0.026
-703.572	-200.000	0.012	-0.098
-702.558	800.000	0.067	0.247
-701.543	207.042	0.059	0.094
-700.529	-121.188	0.234	0.040
-699.514	-200.000	-0.021	-0.151
-698.499	800.000	-0.031	-0.131
-697.485	-200.000	-0.003	-0.100
-696.470	-153.333	0.482	-0.034
-695.456	-7.544	-0.108	-0.075
-694.441	99.178	0.173	-0.205
-693.426	63.071	0.175	-0.180
-692.412	-42.514	0.312	0.163
-691.397	190.432	0.087	0.133
-690.383	396.982	0.084	0.180
-689.368	-44.703	0.292	0.149
-688.354	-200.000	0.017	-0.386
-687.339	-200.000	0.107	-0.560
-686.324	242.675	-0.088	0.151
-685.310	-110.383	-0.407	-0.087
-684.295	-7.154	0.252	0.175
-683.281	-100.491	0.236	-0.060
-682.266	-183.953	0.288	0.005
-681.251	-3.390	-0.099	0.070
-680.237	-37.916	0.061	-0.033
-679.222	114.038	-0.329	-0.410
-678.208	-200.000	-0.034	-0.315
-677.193	-200.000	-0.011	-0.134
-676.178	116.132	-0.149	0.187
-675.164	-95.888	-0.047	-0.013
-674.149	783.662	-0.037	-0.103
-673.135	9.543	-0.195	0.151
-672.120	146.251	-0.225	0.309
-671.105	-200.000	0.022	0.325
-670.091	191.602	-0.121	-0.186
-669.076	-130.669	0.273	0.038
-668.062	168.828	-0.161	-0.235
-667.047	-200.000	0.050	-0.467
-666.032	-200.000	-0.002	-0.066
-665.018	371.935	-0.130	-0.271
-664.003	58.780	0.101	-0.101
-662.989	217.666	0.146	0.238
-661.974	84.308	0.189	-0.211
-660.959	-38.987	-0.226	0.122
-659.945	151.928	-0.111	0.155
-658.930	-71.883	0.223	0.085
-657.916	-200.000	0.033	-0.251
-656.901	26.001	0.207	0.177
-655.886	-200.000	-0.006	-0.270
-654.872	-124.323	-0.250	-0.040
-653.857	-65.009	0.049	-0.020
-652.843	8.741	0.207	-0.159
-651.828	60.888	-0.208	0.211
-650.814	35.179	0.055	-0.050
-649.799	138.546	0.098	-0.132
-648.784	359.747	-0.180	-0.368
-647.770	379.603	0.063	-0.133
-646.755	-200.000	0.036	0.205
-645.741	107.070	0.076	-0.093
-644.726	586.477	-0.100	0.250
-643.711	-79.307	-0.148	0.051
-642.697	114.473	0.144	-0.179
-641.682	-106.613	0.353	-0.080
-640.668	800.000	-0.018	0.057
-639.653	-22.612	0.221	-0.137
-638.638	59.631	-0.054	0.055
-637.624	172.465	0.108	-0.158
-636.609	262.879	-0.211	-0.374
-635.595	-106.160	-0.278	0.064
-634.580	-56.816	-0.158	0.071
-633.565	-80.970	-0.381	0.129
-632.551	-25.443	0.481	0.290
-631.536	-200.000	0.025	0.126
-630.522	577.353	-0.160	0.399
-629.507	-53.592	-0.094	0.044
-628.492	-96.060	0.151	-0.041
-627.478	-25.077	0.330	0.200
-626.463	-138.088	-0.253	0.029
-625.449	-151.652	-0.190	0.014
-624.434	800.000	0.062	0.175
-623.419	-39.539	0.069	0.037
-622.405	-170.555	-0.342	0.012
-621.390	-66.623	-0.065	0.026
-620.376	52.799	-0.234	-0.229
-619.361	52.880	0.125	0.122
-618.346	2.928	0.109	-0.081
-617.332	329.094	0.197	0.386
-616.317	263.851	-0.174	0.308
-615.303	-109.889	-0.129	0.028
-614.288	46.745	0.226	-0.214
-613.273	800.000	-0.043	0.187
-612.259	122.088	0.037	0.047
-611.244	-103.906	0.069	-0.017
-610.230	-200.000	-0.054	-0.278
-609.215	140.373	0.263	-0.354
-608.201	227.507	0.201	-0.333
-607.186	-73.605	-0.227	-0.084
-606.171	-200.000	-0.035	0.190
-605.157	-200.000	-0.034	0.189
-604.142	186.853	0.063	-0.096
-603.128	265.654	-0.130	-0.232
-602.113	-200.000	0.036	0.287
-601.098	147.298	0.194	-0.267
-600.084	168.714	-0.101	0.146
-599.069	174.959	-0.192	0.283
-598.055	739.257	-0.054	-0.148
-597.040	-77.902	0.102	-0.036
-596.025	800.000	0.053	0.176
-595.011	-45.449	-0.085	-0.043
-593.996	-2.171	0.201	0.144
-592.982	-22.664	-0.186	0.115
-591.967	61.256	0.087	0.088
-590.952	203.571	0.051	-0.080
-589.938	544.894	0.046	-0.113
-588.923	555.397	0.081	0.199
-587.909	-129.197	-0.161	-0.023
-586.894	800.000	0.029	0.127
-585.879	-37.970	0.122	-0.066
-584.865	-147.519	0.342	-0.029
-583.850	-6.994	-0.161	-0.111
-582.836	204.327	-0.212	-0.335
-581.821	-44.873	0.021	-0.011
-580.806	-120.046	0.090	-0.016
-579.792	238.984	-0.113	0.191
-578.777	-128.403	0.090	0.013
-577.763	-94.109	-0.129	0.036
-576.748	176.810	0.112	-0.166
-575.733	-38.384	-0.186	0.100
-574.719	53.283	-0.185	-0.181
-573.704	62.806	-0.055	-0.056
-572.690	66.987	0.161	-0.167
-571.675	-152.071	0.341	-0.025
-570.661	-200.000	-0.005	-0.293
-569.646	-56.650	-0.174	0.078
-568.631	-200.000	-0.032	-0.330
-567.617	41.919	-0.133	-0.123
-566.602	377.719	0.030	0.063
-565.588	-5.648	-0.202	-0.141
-564.573	-8.682	0.385	-0.263
-563.558	-17.029	-0.141	-0.091
-562.544	655.057	-0.015	0.040
-561.529	800.000	0.058	0.255
-560.515	210.457	0.064	-0.102
-559.500	-24.366	0.138	-0.084
-558.485	-155.811	-0.195	0.013
-557.471	19.716	-0.220	0.180
-556.456	-62.159	-0.580	0.246
-555.442	-104.370	-0.336	0.079
-554.427	754.241	0.070	0.192
-553.412	-100.881	-0.305	-0.076
-552.398	-51.878	-0.639	0.303
-551.383	701.513	0.043	0.117
-550.369	9.541	-0.332	0.256
-549.354	71.511	-0.075	0.079
-548.339	-21.011	-0.125	-0.078
-547.325	11.977	-0.109	0.086
-546.310	-200.000	-0.049	-0.340
-545.296	89.940	0.074	0.085
-544.281	-151.735	-0.092	0.007
-543.266	104.442	-0.126	0.150
-542.252	-148.240	-0.224	-0.019
-541.237	86.761	-0.164	-0.184
-540.223	-200.000	-0.015	0.253
-539.208	-19.549	-0.272	0.171
-538.193	-156.954	-0.370	-0.023
-537.179	-62.042	0.218	0.093
-536.164	125.997	-0.345	-0.443
-535.150	230.559	0.130	0.217
-534.135	-134.072	0.259	0.033
-533.121	-155.223	-0.172	0.011
-532.106	235.867	-0.076	0.128
-531.091	52.878	-0.142	-0.138
-530.077	-6.442	-0.181	0.126
-529.062	-200.000	0.027	0.130
-528.048	2.100	-0.101	0.075
-527.033	-38.071	0.266	-0.144
-526.018	-48.501	-0.099	0.048
-525.004	-115.875	0.294	0.056
-523.989	-34.231	-0.052	-0.029
-522.975	-200.000	-0.001	-0.016
-521.960	-200.000	0.046	0.406
-520.945	115.931	-0.035	-0.044
-519.931	142.622	0.171	-0.232
-518.916	800.000	0.064	0.186
-517.902	243.338	-0.177	0.302
-516.887	341.700	-0.087	0.173
-515.872	290.511	-0.120	0.221
-514.858	-40.980	0.161	0.085
-513.843	-115.688	-0.272	0.052
-512.829	115.272	0.294	0.365
-511.814	102.187	0.136	0.162
-510.799	-55.068	0.227	0.104
-509.785	800.000	0.079	0.253
-508.770	800.000	0.023	-0.075
-507.756	-4.277	-0.045	-0.031
-506.741	571.957	-0.169	0.419
-505.726	428.072	-0.133	-0.293
-504.712	20.106	0.121	0.100
-503.697	-94.351	-0.140	0.039
-502.683	142.955	0.086	0.116
-501.668	277.747	-0.046	0.083
-500.653	800.000	-0.031	0.091
-499.639	-12.529	-0.247	-0.164
-498.624	205.408	-0.103	-0.163
-497.610	15.680	0.119	0.095
-496.595	-200.000	-0.005	0.147
-495.581	-67.836	-0.159	0.063
-494.566	800.000	0.032	-0.139
-493.551	-163.444	-0.177	-0.009
-492.537	368.076	-0.170	0.350
-491.522	143.032	0.094	0.126
-490.508	244.709	-0.202	0.345
-489.493	34.702	0.236	0.209
-488.478	147.576	-0.125	0.171
-487.464	-124.698	-0.357	0.056
-486.449	-200.000	-0.023	0.130
-485.435	-19.787	-0.225	0.141
-484.420	-89.060	-0.121	0.036
-483.405	-200.000	0.008	0.131
-482.391	800.000	0.012	-0.043
-481.376	37.107	0.222	-0.200
-480.362	-200.000	-0.034	0.246
-479.347	27.326	-0.089	-0.076
-478.332	800.000	0.152	-0.427
-477.318	179.740	0.084	-0.125
-476.303	351.874	0.171	0.345
-475.289	13.666	-0.298	0.235
-474.274	-200.000	0.028	-0.309
-473.259	-200.000	-0.024	0.269
-472.245	120.585	-0.133	0.168
-471.230	491.488	-0.007	0.016
-470.216	-90.036	-0.138	0.041
-469.201	-200.000	0.000	-0.100
-468.186	457.259	0.079	-0.179
-467.172	-87.299	0.032	-0.010
-466.157	447.509	-0.135	-0.301
-465.143	-33.962	-0.236	-0.132
-464.128	96.955	-0.199	-0.232
-463.113	-200.000	-0.005	-0.098
-462.099	-3.920	-0.047	0.033
-461.084	337.680	-0.045	0.089
-460.070	-21.995	-0.187	0.115
-459.055	-200.000	0.002	0.017
-458.040	156.361	-0.113	-0.158
-457.026	-45.584	0.133	-0.067
-456.011	21.924	0.079	-0.065
-454.997	-200.000	-0.001	-0.004
-453.982	37.102	0.086	0.077
-452.968	-200.000	-0.010	-0.201
-451.953	105.789	0.153	-0.184
-450.938	-189.438	0.170	-0.002
-449.924	-1.332	-0.068	-0.049
-448.909	-133.751	0.230	-0.029
-447.895	-33.875	0.072	0.040
-446.880	-104.443	0.471	0.110
-445.865	800.000	-0.047	0.161
-444.851	-200.000	0.019	-0.325
-443.836	-12.587	-0.218	0.144
-442.822	705.141	-0.032	-0.085
-441.807	-21.201	-0.151	0.094
-440.792	-116.837	-0.178	0.033
-439.778	386.286	0.187	-0.391
-438.763	-93.041	0.201	-0.057
-437.749	135.691	0.050	0.065
-436.734	-81.066	0.190	0.064
-435.719	800.000	0.043	-0.125
-434.705	-28.810	0.148	-0.086
-433.690	-75.658	-0.357	0.129
-432.676	388.921	-0.124	0.261
-431.661	30.875	-0.193	-0.168
-430.646	-170.199	0.350	-0.013
-429.632	-106.899	-0.366	-0.082
-428.617	800.000	0.035	-0.100
-427.603	-175.697	0.227	0.006
-426.588	-159.475	0.144	-0.008
-425.573	-53.587	0.167	-0.077
-424.559	-86.345	-0.340	-0.106
-423.544	540.486	0.111	0.269
-422.530	215.692	0.150	0.241
-421.515	-186.118	0.282	-0.004
-420.500	81.854	-0.133	-0.146
-419.486	-200.000	-0.013	-0.210
-418.471	-119.970	-0.350	-0.061
-417.457	-80.479	-0.181	0.061
-416.442	-200.000	-0.043	-0.254
-415.428	170.312	0.146	0.212
-414.413	662.700	0.060	0.158
-413.398	-141.481	0.159	0.016
-412.384	-34.238	-0.153	-0.085
-411.369	-48.912	0.434	-0.210
-410.355	-200.000	0.007	0.074
-409.340	-115.024	0.305	-0.059
-408.325	-95.418	-0.121	0.033
-407.311	-67.638	0.071	0.028
-406.296	-88.906	0.437	0.131
-405.282	96.348	0.103	0.119
-404.267	800.000	0.117	-0.435
-403.252	-108.540	0.104	0.023
-402.238	-140.684	-0.098	0.010
-401.223	-128.864	0.317	-0.045
-400.209	-104.285	-0.345	-0.081
-399.194	277.907	0.176	-0.318
-398.179	-200.000	0.023	0.125
-397.165	800.000	0.050	0.196
-396.150	366.835	0.173	-0.352
-395.136	347.097	-0.021	0.043
-394.121	-135.863	0.357	-0.043
-393.106	464.064	0.243	0.549
-392.092	-166.120	-0.302	0.013
-391.077	70.614	-0.256	0.268
-390.063	469.499	0.014	-0.031
-389.048	-152.158	-0.156	-0.011
-388.033	385.158	0.183	-0.381
-387.019	800.000	-0.077	-0.221
-386.004	-200.000	-0.057	0.307
-384.990	-111.536	0.303	0.062
-383.975	-92.030	0.355	0.102
-382.960	133.196	0.135	0.176
-381.946	-4.648	0.061	0.042
-380.931	773.245	-0.037	-0.103
-379.917	-134.483	-0.268	0.033
-378.902	-156.224	-0.219	0.014
-377.888	-200.000	0.017	0.143
-376.873	-175.470	0.496	-0.014
-375.858	48.654	-0.198	0.188
-374.844	-76.246	0.243	-0.087
-373.829	346.353	-0.148	0.295
-372.815	-32.404	-0.204	-0.115
-371.800	-200.000	0.056	-0.374
-370.785	11.105	0.304	0.235
-369.771	140.751	-0.165	0.221
-368.756	-200.000	0.003	0.067
-367.742	42.963	0.176	-0.162
-366.727	142.979	0.175	-0.235
-365.712	347.415	0.033	0.066
-364.698	-200.000	0.007	-0.101
-363.683	-118.263	0.514	0.093
-362.669	247.613	0.172	-0.294
-361.654	-200.000	-0.019	-0.199
-360.639	-200.000	-0.000	-0.056
-359.625	487.103	-0.097	-0.224
-358.610	800.000	0.011	-0.046
-357.596	800.000	-0.050	0.212
-356.581	-200.000	0.002	-0.019
-355.566	214.410	0.102	0.163
-354.552	513.435	0.081	0.191
-353.537	-200.000	0.010	0.085
-352.523	-200.000	0.007	-0.303
-351.508	-109.872	-0.247	0.052
-350.493	800.000	-0.037	0.145
-349.479	-17.787	-0.199	0.126
-348.464	275.784	-0.093	-0.166
-347.450	584.223	-0.113	-0.282
-346.435	-165.117	0.165	0.007
-345.420	-86.345	-0.214	-0.067
-344.406	800.000	0.010	-0.034
-343.391	-54.501	-0.320	-0.146
-342.377	207.584	-0.077	-0.122
-341.362	197.368	-0.131	-0.201
-340.348	-183.107	0.198	0.004
-339.333	-79.619	-0.256	-0.087
-338.318	16.650	-0.052	0.041
-337.304	800.000	0.019	0.066
-336.289	262.779	0.197	-0.345
-335.275	-200.000	-0.014	0.239
-334.260	273.942	-0.105	-0.188
-333.245	-160.082	0.325	0.018
-332.231	360.913	0.269	0.544
-331.216	239.959	0.231	0.389
-330.202	-142.636	0.179	-0.018
-329.187	-200.000	0.004	0.183
-328.172	-200.000	0.015	-0.111
-327.158	-200.000	0.031	0.299
-326.143	199.908	-0.083	0.128
-325.129	87.416	0.213	0.237
-324.114	800.000	0.053	-0.184
-323.099	123.093	-0.138	0.174
-322.085	753.239	0.072	0.196
-321.070	159.392	0.080	0.113
-320.056	-54.482	-0.312	0.143
-319.041	-9.436	-0.327	-0.220
-318.026	-155.237	-0.180	0.012
-317.012	79.963	-0.201	0.218
-315.997	800.000	-0.070	-0.226
-314.983	-10.512	-0.354	-0.237
-313.968	-18.723	-0.362	-0.228
-312.953	139.322	-0.060	-0.080
-311.939	-129.779	0.382	-0.053
-310.924	111.940	0.218	-0.265
-309.910	31.101	0.041	0.035
-308.895	-73.923	0.342	0.125
-307.880	800.000	0.014	0.058
-306.866	-200.000	-0.004	0.063
-305.851	776.160	-0.042	-0.116
-304.837	-26.223	-0.159	0.094
-303.822	-149.815	-0.152	-0.012
-302.807	-200.000	0.004	0.189
-301.793	-11.671	0.210	-0.139
-300.778	-5.598	0.240	-0.166
-299.764	-200.000	-0.011	-0.201
-298.749	800.000	-0.073	0.315
-297.735	-88.140	0.271	-0.082
-296.720	-71.012	-0.077	0.029
-295.705	-200.000	-0.019	-0.108
-294.691	-34.625	0.154	-0.085
-293.676	-89.498	-0.225	0.067
-292.662	353.146	0.014	0.027
-291.647	262.658	0.188	-0.329
-290.632	-200.000	0.068	-0.313
-289.618	800.000	0.114	-0.322
-288.603	-50.723	0.322	-0.153
-287.589	-179.399	0.195	-0.004
-286.574	-45.802	0.308	-0.153
-285.559	-135.157	-0.299	-0.036
-284.545	653.000	0.087	0.226
-283.530	-121.568	0.224	0.038
-282.516	36.883	0.072	-0.064
-281.501	-76.266	-0.338	-0.120
-280.486	-179.492	0.258	0.006
-279.472	-200.000	-0.053	-0.236
-278.457	112.252	-0.175	0.213
-277.443	-177.770	-0.215	-0.005
-276.428	-112.452	-0.266	0.054
-275.413	47.025	0.045	0.042
-274.399	-16.659	-0.138	-0.088
-273.384	-126.481	-0.130	-0.019
-272.370	-200.000	0.015	0.111
-271.355	305.214	0.030	0.057
-270.340	800.000	-0.043	-0.148
-269.326	-168.231	0.260	-0.010
-268.311	-102.636	-0.105	-0.025
-267.297	81.216	0.176	0.191
-266.282	-101.917	0.258	-0.063
-265.267	454.755	-0.127	-0.282
-264.253	-200.000	-0.042	0.205
-263.238	553.690	0.022	0.054
-262.224	-104.858	-0.077	0.018
-261.209	-200.000	-0.014	-0.348
-260.195	-153.307	-0.314	-0.022
-259.180	-168.325	0.158	-0.006
-258.165	161.962	0.290	-0.408
-257.151	24.169	0.068	-0.056
-256.136	-155.091	0.233	-0.015
-255.122	11.960	-0.148	0.114
-254.107	251.883	0.128	0.220
-253.092	-31.358	-0.260	-0.147
-252.078	398.843	0.112	-0.237
-251.063	68.877	-0.196	-0.203
-250.049	-200.000	0.016	0.216
-249.034	309.986	-0.157	0.296
-248.019	-156.934	0.394	-0.024
-247.005	-152.007	0.206	0.015
-245.990	70.436	0.142	-0.148
-244.976	-90.250	-0.147	-0.043
-243.961	-142.525	0.480	0.047
-242.946	800.000	-0.074	0.228
-241.932	431.643	0.035	-0.076
-240.917	417.210	0.035	-0.076
-239.903	-200.000	-0.054	-0.245
-238.888	-200.000	0.025	-0.141
-237.873	-30.745	-0.255	-0.145
-236.859	-200.000	0.035	-0.171
-235.844	-107.104	-0.139	-0.031
-234.830	290.911	-0.104	-0.191
-233.815	-145.822	0.210	-0.019
-232.800	14.751	-0.219	0.172
-231.786	605.532	-0.089	0.224
-230.771	62.062	0.008	-0.008
-229.757	-112.768	0.386	-0.077
-228.742	800.000	0.030	-0.090
-227.727	148.527	0.142	-0.193
-226.713	-53.381	-0.105	-0.048
-225.698	-104.100	-0.368	0.086
-224.684	800.000	0.054	-0.151
-223.669	-60.510	0.105	0.045
-222.655	-200.000	0.019	0.202
-221.640	-7.654	0.216	0.147
-220.625	180.311	0.065	0.096
-219.611	145.752	0.225	0.302
-218.596	122.272	0.077	-0.097
-217.582	532.148	-0.049	-0.117
-216.567	42.640	0.150	0.138
-215.552	-18.361	-0.101	0.064
-214.538	135.757	0.045	-0.059
-213.523	55.011	-0.405	-0.393
-212.509	800.000	0.134	-0.399
-211.494	800.000	-0.123	-0.344
-210.479	66.165	0.247	-0.252
-209.465	119.753	0.078	0.097
-208.450	-116.222	-0.320	0.060
-207.436	10.751	0.175	0.134
-206.421	-119.160	0.135	-0.024
-205.406	-48.632	0.312	0.151
-204.392	391.809	-0.023	-0.047
-203.377	-200.000	0.023	-0.133
-202.363	-159.301	0.069	-0.004
-201.348	199.457	-0.035	-0.054
-200.333	288.220	-0.034	0.061
-199.319	800.000	0.105	-0.316
-198.304	-58.035	-0.272	-0.119
-197.290	-83.486	0.190	-0.061
-196.275	86.677	0.165	0.182
-195.260	-90.963	-0.246	-0.071
-194.246	179.208	-0.139	0.204
-193.231	-70.354	0.222	0.084
-192.217	240.857	0.189	-0.317
-191.202	83.958	0.020	0.022
-190.187	16.537	-0.144	0.115
-189.173	-200.000	0.005	-0.060
-188.158	800.000	-0.064	0.215
-187.144	800.000	0.057	0.245
-186.129	500.157	-0.077	0.179
-185.114	208.450	-0.054	0.084
-184.100	-200.000	-0.020	0.214
-183.085	800.000	-0.071	0.250
-182.071	102.637	-0.152	0.179
-181.056	652.316	-0.023	-0.059
-180.042	27.151	-0.240	-0.202
-179.027	-200.000	0.007	-0.068
-178.012	-200.000	-0.045	-0.384
-176.998	39.637	0.189	0.170
-175.983	-89.259	0.285	-0.084
-174.969	-200.000	-0.000	-0.066
-173.954	-133.479	-0.050	0.006
-172.939	800.000	0.073	-0.281
-171.925	9.612	0.103	0.078
-170.910	-36.366	0.314	-0.170
-169.896	-99.972	-0.128	0.032
-168.881	-200.000	-0.102	-0.450
-167.866	-200.000	0.005	0.221
-166.852	-73.416	-0.128	0.047
-165.837	-7.089	0.160	0.109
-164.823	173.497	0.131	0.189
-163.808	-45.808	-0.054	0.027
-162.793	-66.418	0.047	0.019
-161.779	-91.369	0.211	-0.061
-160.764	470.069	-0.098	0.221
-159.750	121.179	-0.130	-0.162
-158.735	800.000	0.036	0.130
-157.720	-126.369	-0.129	-0.019
-156.706	-200.000	-0.017	-0.078
-155.691	4.417	-0.076	0.056
-154.677	-78.046	-0.215	-0.074
-153.662	-105.196	0.143	-0.033
-152.647	-100.736	0.183	0.045
-151.633	-111.798	-0.139	0.028
-150.618	-138.009	-0.314	0.035
-149.604	-141.754	-0.054	0.005
-148.589	132.902	-0.013	-0.017
-147.574	-131.439	0.214	-0.028
-146.560	800.000	0.047	0.133
-145.545	800.000	0.057	0.228
-144.531	-200.000	-0.016	-0.101
-143.516	284.584	-0.100	-0.181
-142.502	-50.241	0.192	0.091
-141.487	-155.017	0.289	-0.019
-140.472	800.000	0.058	-0.241
-139.458	63.445	-0.082	0.083
-138.443	800.000	0.182	-0.652
-137.429	520.235	-0.055	-0.128
-136.414	-10.503	-0.062	-0.041
-135.399	-27.813	0.226	0.131
-134.385	-65.859	0.159	-0.064
-133.370	-200.000	-0.022	-0.133
-132.356	-2.493	-0.181	-0.127
-131.341	-52.924	-0.131	-0.060
-130.326	-109.345	-0.088	0.019
-129.312	800.000	-0.070	0.266
-128.297	-200.000	-0.006	0.230
-127.283	-200.000	-0.024	0.245
-126.268	800.000	0.121	0.372
-125.253	591.747	0.055	0.136
-124.239	35.749	0.137	-0.121
-123.224	-43.459	0.068	-0.035
-122.210	141.933	0.064	0.084
