DTS Sentinel unit serial number:	SN413079Multiplexer serial number:	ORYXHardware model number:	OX4-SRSoftware version number:	ORYX F/W v4.00 Oryx Data Collector v3.7.2.0data status	okinstallation	princeton_trtdifferential loss correction	single-endedforward channel	channel 2reverse channel	N/Adate	2019/09/18time	16:23:34forward acquisition time	60.00reverse acquisition time	0.00gamma	496.2192k internal	0.2302k external	0.2302temperature offset calibration	1.0012default loss term (dB/km)	0.3790temperature slope calibration	1.0000multiplexer offset coefficient	1.0000multiplexer slope coefficient	1.0000fibre end	0.00T internal ref (°C)	38.89T ext. ref 1 (°C)	0.84T ext. ref 2 (°C)	35.72length (m)	temperature (°C)	Stokes	anti-Stokes-747.200	511.748	0.113	0.268
-746.185	206.554	-0.134	0.213
-745.171	15.235	0.235	0.187
-744.156	-27.063	0.263	0.156
-743.142	-16.954	-0.153	0.099
-742.127	-200.000	0.008	-0.068
-741.112	-35.702	-0.183	-0.101
-740.098	404.277	0.145	0.311
-739.083	-200.000	-0.016	-0.098
-738.069	-200.000	-0.061	0.525
-737.054	-131.924	0.297	-0.040
-736.039	141.434	-0.146	-0.197
-735.025	-168.322	0.264	-0.010
-734.010	64.194	-0.086	-0.089
-732.996	-200.000	0.010	-0.121
-731.981	-100.435	-0.265	0.067
-730.966	350.007	-0.076	-0.154
-729.952	-200.000	-0.016	-0.095
-728.937	85.678	-0.072	0.080
-727.923	-200.000	-0.024	0.335
-726.908	-16.168	-0.145	0.094
-725.894	800.000	-0.071	-0.201
-724.879	-200.000	-0.026	-0.477
-723.864	800.000	-0.055	-0.222
-722.850	800.000	-0.012	0.041
-721.835	800.000	-0.061	0.228
-720.821	-103.648	-0.111	0.027
-719.806	800.000	-0.072	0.300
-718.791	-84.253	0.187	-0.060
-717.777	-200.000	-0.009	-0.166
-716.762	40.435	-0.219	0.201
-715.748	178.061	0.074	0.110
-714.733	459.598	-0.090	0.205
-713.718	-30.371	-0.329	0.190
-712.704	95.284	0.223	0.258
-711.689	-102.339	0.177	-0.043
-710.675	16.263	0.211	0.170
-709.660	-71.219	0.287	0.110
-708.645	149.252	0.136	-0.188
-707.631	800.000	-0.036	0.124
-706.616	800.000	-0.017	0.058
-705.602	-39.893	-0.085	-0.045
-704.587	-200.000	0.038	0.193
-703.572	-200.000	0.000	0.210
-702.558	-89.141	-0.367	-0.110
-701.543	610.468	0.089	0.226
-700.529	-7.613	-0.178	-0.122
-699.514	-68.950	-0.307	0.120
-698.499	86.845	-0.072	-0.081
-697.485	-180.063	0.109	-0.002
-696.470	-146.274	-0.175	0.016
-695.456	740.167	-0.053	0.145
-694.441	-200.000	-0.050	0.233
-693.426	-200.000	-0.009	-0.271
-692.412	-26.798	0.114	-0.068
-691.397	800.000	-0.104	-0.358
-690.383	-103.016	0.451	-0.109
-689.368	-40.742	0.316	-0.167
-688.354	-200.000	-0.009	0.045
-687.339	213.471	-0.054	-0.087
-686.324	364.847	-0.181	0.371
-685.310	800.000	-0.050	-0.154
-684.295	800.000	0.056	-0.198
-683.281	690.216	0.094	0.250
-682.266	-200.000	-0.013	0.228
-681.251	-55.092	-0.124	0.057
-680.237	-95.003	-0.311	0.086
-679.222	-39.051	0.229	-0.122
-678.208	621.591	-0.146	0.373
-677.193	-41.527	0.144	-0.075
-676.178	35.623	0.074	-0.066
-675.164	-86.051	0.211	-0.066
-674.149	144.222	-0.054	-0.073
-673.135	-200.000	0.029	-0.407
-672.120	-200.000	-0.009	0.091
-671.105	800.000	-0.062	0.249
-670.091	-116.594	-0.103	-0.019
-669.076	-178.327	0.224	-0.005
-668.062	48.105	-0.188	0.178
-667.047	-9.336	0.269	0.182
-666.032	29.094	0.159	0.137
-665.018	81.409	-0.093	0.103
-664.003	-53.884	0.016	0.007
-662.989	44.402	-0.034	-0.032
-661.974	-135.810	0.265	-0.032
-660.959	325.763	-0.263	-0.512
-659.945	-200.000	-0.019	-0.102
-658.930	-200.000	0.033	0.161
-657.916	163.361	0.137	0.195
-656.901	-78.141	-0.204	0.071
-655.886	-73.545	0.285	0.105
-654.872	-85.184	0.114	0.036
-653.857	-148.733	-0.259	0.021
-652.843	-200.000	-0.027	0.139
-651.828	-93.439	0.080	0.023
-650.814	13.876	0.118	-0.093
-649.799	-200.000	0.012	-0.162
-648.784	280.782	-0.185	0.336
-647.770	116.519	-0.038	0.047
-646.755	302.653	0.097	0.182
-645.741	-129.780	0.414	-0.058
-644.726	-106.490	0.173	-0.039
-643.711	800.000	0.122	0.345
-642.697	60.746	0.077	-0.078
-641.682	753.609	-0.031	-0.084
-640.668	-23.888	0.158	-0.096
-639.653	-200.000	-0.016	0.317
-638.638	79.617	-0.126	-0.137
-637.624	43.440	-0.056	0.052
-636.609	-106.089	0.147	-0.033
-635.595	-6.785	0.413	-0.285
-634.580	402.810	-0.063	0.134
-633.565	-41.108	0.137	0.072
-632.551	-23.643	-0.095	-0.058
-631.536	-200.000	-0.072	0.352
-630.522	800.000	-0.097	0.399
-629.507	16.777	-0.240	0.193
-628.492	-5.597	0.217	0.151
-627.478	-94.092	-0.056	-0.016
-626.463	675.837	-0.122	-0.322
-625.449	-127.006	0.072	-0.011
-624.434	213.389	-0.280	-0.448
-623.419	-89.773	0.195	-0.058
-622.405	71.542	-0.086	0.090
-621.390	97.769	0.033	-0.039
-620.376	-188.711	0.132	0.002
-619.361	-200.000	-0.012	-0.238
-618.346	-7.777	0.027	0.018
-617.332	175.099	-0.224	-0.330
-616.317	-9.808	0.273	0.184
-615.303	399.755	-0.032	0.068
-614.288	526.523	0.016	0.039
-613.273	-75.326	-0.065	0.023
-612.259	-145.417	0.223	0.020
-611.244	-116.770	-0.371	0.069
-610.230	-31.871	0.090	-0.051
-609.215	800.000	0.074	-0.261
-608.201	66.097	-0.320	-0.329
-607.186	-99.995	0.359	-0.091
-606.171	108.607	0.105	0.127
-605.157	77.959	0.252	0.272
-604.142	-107.828	-0.163	0.036
-603.128	-133.807	-0.712	-0.090
-602.113	-112.692	-0.238	0.048
-601.098	-90.227	-0.194	0.057
-600.084	278.676	0.074	-0.134
-599.069	-8.587	0.321	0.218
-598.055	-32.371	0.116	-0.066
-597.040	278.525	-0.053	0.097
-596.025	207.376	-0.118	0.187
-595.011	-200.000	-0.033	0.236
-593.996	364.257	0.160	0.325
-592.982	19.943	0.115	0.094
-591.967	387.938	-0.167	-0.351
-590.952	-188.475	0.302	-0.004
-589.938	14.172	-0.132	-0.104
-588.923	-35.537	-0.083	0.046
-587.909	-136.500	0.251	-0.029
-586.894	591.359	-0.094	-0.236
-585.879	-22.358	-0.109	-0.067
-584.865	800.000	-0.071	-0.218
-583.850	-10.782	0.213	0.143
-582.836	385.410	0.164	0.342
-581.821	-61.866	0.347	-0.147
-580.806	-138.752	-0.226	-0.025
-579.792	-200.000	-0.001	-0.147
-578.777	75.060	-0.136	-0.145
-577.763	680.381	-0.034	0.089
-576.748	-63.919	-0.339	-0.140
-575.733	-168.865	0.140	-0.005
-574.719	-157.727	0.344	-0.021
-573.704	255.763	0.174	-0.301
-572.690	761.450	-0.064	0.175
-571.675	-26.251	-0.179	0.106
-570.661	14.291	0.183	-0.145
-569.646	-139.953	-0.164	-0.017
-568.631	103.811	-0.138	-0.164
-567.617	128.629	0.112	0.145
-566.602	475.839	0.116	-0.264
-565.588	-50.422	0.345	0.165
-564.573	-160.216	-0.343	-0.019
-563.558	244.912	-0.087	-0.147
-562.544	-200.000	-0.008	0.342
-561.529	800.000	-0.067	0.201
-560.515	-184.113	0.117	0.002
-559.500	-200.000	0.020	0.304
-558.485	-142.809	0.286	-0.028
-557.471	-151.432	0.128	0.010
-556.456	-55.687	-0.183	-0.083
-555.442	193.648	0.317	-0.485
-554.427	75.333	0.304	-0.325
-553.412	76.735	-0.064	-0.069
-552.398	126.937	0.204	-0.262
-551.383	529.202	-0.060	-0.144
-550.369	-40.149	-0.133	0.070
-549.354	-10.352	0.137	0.092
-548.339	500.133	-0.150	-0.350
-547.325	-104.505	-0.024	-0.006
-546.310	29.477	0.098	0.085
-545.296	756.204	-0.147	-0.403
-544.281	95.613	0.144	0.166
-543.266	431.048	-0.069	0.152
-542.252	800.000	-0.065	-0.193
-541.237	111.624	0.269	-0.329
-540.223	-94.157	0.304	-0.084
-539.208	135.645	0.197	0.260
-538.193	-110.692	0.013	0.003
-537.179	800.000	0.037	-0.118
-536.164	-200.000	-0.037	0.370
-535.150	-102.027	0.191	0.047
-534.135	13.898	0.166	0.131
-533.121	-99.823	-0.018	-0.005
-532.106	-83.842	-0.054	-0.017
-531.091	217.049	0.167	0.269
-530.077	60.235	-0.349	0.348
-529.062	-200.000	-0.009	0.280
-528.048	-19.407	-0.188	0.118
-527.033	798.013	-0.113	-0.316
-526.018	52.359	0.144	0.139
-525.004	-157.048	-0.205	0.013
-523.989	98.829	0.076	0.088
-522.975	234.875	-0.049	0.081
-521.960	-155.546	-0.265	0.017
-520.945	-68.519	0.195	0.076
-519.931	-149.353	0.219	-0.018
-518.916	800.000	0.114	0.329
-517.902	-28.460	-0.141	0.082
-516.887	800.000	-0.086	0.251
-515.872	-15.567	0.189	-0.122
-514.858	800.000	-0.097	0.287
-513.843	371.213	-0.066	-0.134
-512.829	-59.215	0.224	0.098
-511.814	652.443	-0.061	0.159
-510.799	129.333	-0.088	0.113
-509.785	-125.087	0.233	0.036
-508.770	55.151	-0.070	-0.068
-507.756	83.261	0.135	-0.148
-506.741	5.004	0.114	-0.085
-505.726	175.431	-0.183	0.267
-504.712	-200.000	-0.013	-0.163
-503.697	-2.986	-0.097	-0.069
-502.683	191.535	-0.146	-0.223
-501.668	101.975	-0.182	-0.214
-500.653	-200.000	0.090	0.542
-499.639	-144.328	-0.066	-0.006
-498.624	23.278	-0.034	-0.028
-497.610	92.565	0.175	0.200
-496.595	676.848	0.194	0.508
-495.581	149.932	-0.053	-0.073
-494.566	800.000	-0.061	-0.239
-493.551	-115.675	0.163	0.031
-492.537	-71.406	0.134	0.051
-491.522	-86.214	0.051	-0.016
-490.508	-41.559	-0.122	0.063
-489.493	186.069	-0.131	0.196
-488.478	19.065	-0.205	0.166
-487.464	-96.557	0.054	-0.014
-486.449	-95.681	-0.195	0.053
-485.435	-1.933	0.131	0.093
-484.420	800.000	-0.023	-0.086
-483.405	-168.823	0.099	0.004
-482.391	-200.000	0.007	-0.119
-481.376	67.040	0.201	-0.206
-480.362	441.051	0.110	-0.242
-479.347	217.359	0.165	0.265
-478.332	0.094	0.188	-0.135
-477.318	-141.899	0.313	-0.032
-476.303	257.030	0.166	0.288
-475.289	391.445	-0.168	-0.352
-474.274	800.000	0.050	-0.191
-473.259	-107.191	-0.032	0.007
-472.245	-200.000	0.018	0.080
-471.230	98.173	-0.124	0.144
-470.216	18.338	-0.043	0.035
-469.201	-25.129	0.192	-0.115
-468.186	283.896	-0.109	0.197
-467.172	-200.000	-0.001	0.170
-466.157	-136.935	-0.350	0.040
-465.143	7.509	-0.050	0.038
-464.128	33.859	-0.135	0.119
-463.113	77.924	0.135	0.145
-462.099	-62.632	-0.141	-0.059
-461.084	-200.000	0.012	0.288
-460.070	2.314	-0.216	-0.157
-459.055	33.270	-0.169	0.148
-458.040	250.671	0.059	0.102
-457.026	509.909	-0.091	0.214
-456.011	-161.349	-0.196	-0.010
-454.997	21.759	0.315	-0.258
-453.982	-200.000	0.041	-0.248
-452.968	800.000	0.084	-0.273
-451.953	37.399	-0.157	0.140
-450.938	21.316	-0.099	-0.081
-449.924	800.000	0.075	0.222
-448.909	10.779	0.057	-0.044
-447.895	-77.835	0.026	0.009
-446.880	-61.952	-0.202	-0.085
-445.865	800.000	0.076	-0.308
-444.851	24.428	-0.195	-0.162
-443.836	150.676	0.175	0.240
-442.822	-54.284	-0.337	0.154
-441.807	102.785	-0.153	0.181
-440.792	-147.268	-0.146	0.012
-439.778	151.683	-0.102	-0.140
-438.763	-154.275	-0.039	-0.003
-437.749	-200.000	-0.035	-0.389
-436.734	-77.146	-0.286	0.100
-435.719	-163.810	0.261	0.012
-434.705	152.519	0.123	0.169
-433.690	74.102	0.137	-0.144
-432.676	395.212	0.169	-0.355
-431.661	-36.744	0.400	-0.216
-430.646	800.000	-0.019	-0.065
-429.632	-132.867	-0.449	-0.058
-428.617	62.466	-0.266	0.268
-427.603	126.262	-0.085	0.108
-426.588	800.000	0.006	-0.025
-425.573	20.140	-0.087	0.071
-424.559	-200.000	0.013	-0.269
-423.544	-128.193	-0.120	-0.017
-422.530	-200.000	-0.012	-0.178
-421.515	800.000	0.051	-0.189
-420.500	-24.056	0.156	0.094
-419.486	-200.000	0.000	0.179
-418.471	800.000	0.017	0.055
-417.457	-113.261	0.144	0.028
-416.442	-107.472	-0.177	0.039
-415.428	-200.000	-0.078	-0.369
-414.413	-200.000	0.007	0.131
-413.398	-37.911	0.189	-0.101
-412.384	13.900	0.019	-0.015
-411.369	800.000	-0.044	-0.173
-410.355	-200.000	0.010	-0.071
-409.340	-200.000	0.006	0.332
-408.325	129.926	0.211	0.272
-407.311	-146.432	-0.316	0.028
-406.296	800.000	0.052	0.159
-405.282	-200.000	-0.007	0.309
-404.267	356.558	0.023	0.046
-403.252	-39.812	-0.149	0.078
-402.238	19.263	0.224	-0.180
-401.223	-76.949	-0.213	0.075
-400.209	-200.000	0.038	-0.449
-399.194	-5.250	-0.093	0.064
-398.179	-100.920	0.175	-0.043
-397.165	-105.755	0.334	-0.076
-396.150	584.896	0.030	0.075
-395.136	800.000	0.143	0.457
-394.121	-13.008	0.178	-0.116
-393.106	-42.935	0.025	0.013
-392.092	674.866	0.060	-0.156
-391.077	-200.000	0.020	-0.392
-390.063	-39.594	0.245	-0.129
-389.048	800.000	-0.092	0.319
-388.033	-200.000	-0.017	0.160
-387.019	331.748	0.066	-0.129
-386.004	-200.000	-0.014	-0.125
-384.990	22.593	-0.082	-0.067
-383.975	-106.954	0.077	0.017
-382.960	74.775	0.011	0.012
-381.946	-1.949	0.176	0.124
-380.931	-113.307	-0.136	0.027
-379.917	49.675	0.133	0.126
-378.902	55.277	-0.037	0.036
-377.888	28.630	0.137	-0.117
-376.873	-12.631	-0.076	-0.050
-375.858	-147.430	-0.196	0.017
-374.844	-57.282	0.204	0.090
-373.829	-200.000	-0.008	0.136
-372.815	-200.000	-0.098	-0.481
-371.800	163.527	-0.104	-0.146
-370.785	174.634	-0.061	0.088
-369.771	113.887	-0.203	-0.248
-368.756	-200.000	0.030	-0.240
-367.742	-179.697	0.292	-0.006
-366.727	800.000	-0.079	0.235
-365.712	-200.000	0.012	0.336
-364.698	18.027	0.076	-0.060
-363.683	-200.000	0.025	-0.344
-362.669	223.011	0.065	0.106
-361.654	-78.964	0.095	-0.033
-360.639	12.702	-0.100	0.077
-359.625	398.922	-0.063	0.131
-358.610	-200.000	-0.349	-0.000
-357.596	-2.458	-0.078	-0.055
-356.581	-88.762	-0.311	-0.093
-355.566	21.310	0.288	0.235
-354.552	13.390	0.151	0.118
-353.537	-112.412	0.407	0.082
-352.523	-50.950	0.226	0.106
-351.508	-14.402	-0.143	0.092
-350.493	-200.000	-0.059	0.353
-349.479	-105.465	-0.388	0.089
-348.464	2.841	0.262	-0.191
-347.450	153.303	-0.099	-0.136
-346.435	390.186	0.121	-0.251
-345.420	-30.228	0.090	-0.051
-344.406	27.570	-0.102	0.086
-343.391	133.016	-0.295	-0.382
-342.377	-133.204	0.256	-0.032
-341.362	87.444	-0.267	-0.297
-340.348	-200.000	-0.023	-0.128
-339.333	800.000	0.075	-0.285
-338.318	-60.175	0.289	0.124
-337.304	283.678	0.082	-0.147
-336.289	800.000	-0.138	-0.386
-335.275	-137.117	-0.228	-0.026
-334.260	-90.835	0.178	-0.051
-333.245	-101.042	-0.086	0.021
-332.231	-124.139	0.176	-0.028
-331.216	-200.000	-0.012	0.242
-330.202	-132.388	0.162	0.021
-329.187	-75.569	0.210	0.075
-328.172	513.839	0.062	0.144
-327.158	8.446	0.164	-0.124
-326.143	76.772	-0.230	0.245
-325.129	-105.642	0.345	-0.078
-324.114	800.000	-0.080	-0.271
-323.099	-16.214	0.112	0.071
-322.085	-57.509	-0.051	0.022
-321.070	-200.000	0.011	-0.087
-320.056	800.000	-0.023	-0.072
-319.041	-69.655	-0.239	-0.092
-318.026	-200.000	-0.046	0.269
-317.012	127.527	-0.039	0.050
-315.997	-42.029	-0.410	-0.210
-314.983	27.738	-0.170	-0.143
-313.968	-200.000	0.052	-0.265
-312.953	-110.670	-0.090	0.019
-311.939	-16.267	-0.090	-0.057
-310.924	-198.895	0.303	0.002
-309.910	-200.000	0.016	-0.125
-308.895	461.933	0.172	-0.385
-307.880	-109.531	-0.241	-0.051
-306.866	94.644	0.119	0.135
-305.851	131.852	-0.093	0.120
-304.837	-200.000	-0.027	0.421
-303.822	-200.000	0.018	-0.199
-302.807	-79.490	-0.465	0.157
-301.793	104.192	-0.023	0.027
-300.778	-120.878	-0.086	-0.014
-299.764	36.930	-0.085	-0.075
-298.749	800.000	0.024	-0.075
-297.735	354.549	-0.099	-0.197
-296.720	800.000	-0.090	0.317
-295.705	-200.000	-0.022	-0.106
-294.691	-93.124	0.108	0.030
-293.676	-74.382	0.312	-0.113
-292.662	-74.497	0.210	-0.076
-291.647	-69.291	-0.106	-0.041
-290.632	-200.000	0.013	0.131
-289.618	-155.983	-0.131	0.008
-288.603	-200.000	-0.007	0.034
-287.589	599.514	0.070	0.174
-286.574	-200.000	-0.010	0.061
-285.559	13.526	-0.078	0.061
-284.545	-23.422	-0.070	-0.042
-283.530	-93.365	0.374	0.104
-282.516	-134.513	-0.108	-0.013
-281.501	-105.435	0.095	0.022
-280.486	156.305	0.088	0.121
-279.472	-11.335	-0.115	0.076
-278.457	-200.000	-0.046	-0.441
-277.443	-19.854	-0.101	0.062
-276.428	10.933	-0.325	-0.248
-275.413	-143.793	0.342	-0.032
-274.399	216.773	-0.100	0.159
-273.384	-62.279	-0.334	0.139
-272.370	186.039	-0.115	0.172
-271.355	44.555	-0.296	0.272
-270.340	160.792	0.143	-0.199
-269.326	-200.000	0.007	-0.244
-268.311	-113.016	-0.310	0.061
-267.297	-200.000	-0.019	-0.098
-266.282	42.255	0.218	0.198
-265.267	-33.140	-0.258	0.143
-264.253	-65.696	-0.289	0.116
-263.238	-111.918	0.159	-0.032
-262.224	170.594	-0.093	0.133
-261.209	-104.261	-0.135	-0.031
-260.195	-85.632	0.044	-0.014
-259.180	81.713	-0.171	0.185
-258.165	-101.585	0.252	-0.061
-257.151	425.115	0.103	-0.221
-256.136	-200.000	0.016	-0.121
-255.122	-130.172	0.150	0.020
-254.107	-76.102	-0.138	0.049
-253.092	-181.530	-0.450	0.009
-252.078	-137.207	0.034	-0.004
-251.063	-157.793	0.273	0.016
-250.049	25.895	-0.148	0.123
-249.034	-200.000	0.006	-0.065
-248.019	800.000	0.028	0.081
-247.005	238.850	-0.101	0.168
-245.990	-47.848	-0.093	0.045
-244.976	-200.000	-0.114	-0.521
-243.961	672.859	-0.222	-0.576
-242.946	-21.733	0.116	-0.070
-241.932	314.588	-0.190	0.357
-240.917	-22.186	-0.214	-0.129
-239.903	-112.106	-0.177	0.035
-238.888	29.610	-0.186	0.158
-237.873	-45.778	0.102	-0.051
-236.859	800.000	-0.076	0.256
-235.844	26.477	-0.108	0.091
-234.830	255.240	-0.299	0.512
-233.815	-149.581	0.112	-0.009
-232.800	-149.392	-0.110	0.009
-231.786	416.966	-0.099	0.210
-230.771	800.000	0.052	-0.157
-229.757	-11.623	0.108	0.071
-228.742	-95.319	0.107	0.029
-227.727	84.143	-0.130	-0.142
-226.713	557.468	-0.118	-0.284
-225.698	-200.000	0.013	-0.086
-224.684	542.502	0.142	0.339
-223.669	-171.134	-0.219	-0.007
-222.655	61.210	0.140	-0.139
-221.640	42.410	0.146	-0.132
-220.625	-200.000	0.008	-0.096
-219.611	66.231	0.042	0.043
-218.596	-82.477	-0.051	-0.016
-217.582	401.093	0.125	-0.261
-216.567	-30.428	0.143	-0.081
-215.552	-33.577	0.316	0.174
-214.538	576.894	-0.026	0.063
-213.523	395.196	-0.067	-0.138
-212.509	261.592	0.043	0.075
-211.494	-99.962	-0.279	0.070
-210.479	243.579	-0.187	-0.313
-209.465	137.562	-0.014	0.019
-208.450	-159.215	-0.275	0.015
-207.436	245.647	-0.060	-0.101
-206.421	-83.483	-0.342	0.109
-205.406	179.522	-0.129	-0.189
-204.392	-200.000	-0.012	0.275
-203.377	-146.594	-0.225	0.019
-202.363	-200.000	0.025	0.210
-201.348	-102.296	0.515	0.123
-200.333	32.941	0.339	-0.293
-199.319	86.242	-0.220	0.242
-198.304	94.692	0.281	0.319
-197.290	-200.000	-0.012	-0.303
-196.275	36.200	-0.183	-0.160
-195.260	-53.125	-0.147	0.068
-194.246	195.006	0.189	-0.286
-193.231	94.027	-0.207	-0.234
-192.217	-200.000	0.013	0.135
-191.202	-200.000	-0.010	-0.280
-190.187	-200.000	-0.060	-0.262
-189.173	233.103	-0.198	0.325
-188.158	259.315	0.118	0.204
-187.144	501.344	-0.046	-0.106
-186.129	-19.020	0.239	-0.148
-185.114	800.000	-0.099	0.337
-184.100	-135.178	-0.223	-0.027
-183.085	8.110	0.063	-0.047
-182.071	-200.000	-0.035	0.200
-181.056	-200.000	-0.207	-0.001
-180.042	800.000	-0.050	-0.178
-179.027	356.065	0.062	0.124
-178.012	-154.579	0.125	0.008
-176.998	-17.253	0.165	0.104
-175.983	-200.000	0.014	0.187
-174.969	-200.000	0.006	0.150
-173.954	-0.449	-0.205	-0.145
-172.939	464.568	0.033	-0.072
-171.925	-51.182	0.136	-0.064
-170.910	391.755	0.089	-0.185
-169.896	-200.000	0.039	0.169
-168.881	-200.000	0.029	0.230
-167.866	800.000	0.056	0.184
-166.852	637.413	0.057	-0.143
-165.837	204.342	-0.149	0.230
-164.823	143.861	0.061	0.080
-163.808	312.068	0.064	-0.120
-162.793	268.276	0.052	0.090
-161.779	-4.561	0.329	-0.226
-160.764	-200.000	0.029	0.193
-159.750	-200.000	0.045	0.238
-158.735	800.000	-0.055	0.155
-157.720	-97.758	0.284	-0.073
-156.706	-57.371	0.037	0.016
-155.691	-8.668	0.311	-0.208
-154.677	800.000	-0.034	-0.113
-153.662	2.487	-0.241	-0.174
-152.647	295.528	0.108	-0.197
-151.633	38.904	0.129	-0.114
-150.618	72.788	0.052	0.054
-149.604	-200.000	0.024	0.238
-148.589	800.000	0.033	0.114
-147.574	-9.061	-0.088	-0.058
-146.560	120.161	0.121	-0.150
-145.545	354.251	-0.182	-0.361
-144.531	402.385	-0.060	-0.126
-143.516	-98.069	0.289	-0.074
-142.502	-200.000	0.000	0.277
-141.487	-55.819	0.158	-0.070
-140.472	-80.857	0.233	0.077
-139.458	-152.399	0.307	0.022
-138.443	354.108	-0.108	0.214
-137.429	-200.000	-0.044	-0.548
-136.414	182.183	-0.253	-0.370
-135.399	-6.129	-0.072	-0.049
-134.385	23.640	-0.216	0.177
-133.370	487.040	0.097	0.219
-132.356	-200.000	-0.001	-0.193
-131.341	-5.201	-0.045	0.031
-130.326	800.000	0.119	0.344
-129.312	-9.422	0.117	0.078
-128.297	336.846	0.186	-0.358
-127.283	-184.907	-0.217	0.003
-126.268	108.477	-0.090	-0.106
-125.253	-46.402	0.231	-0.113
-124.239	-119.231	0.107	-0.018
-123.224	-27.971	0.148	-0.085
-122.210	-181.664	-0.365	0.007
-121.195	-134.012	0.508	-0.063
