DTS Sentinel unit serial number:	SN413079Multiplexer serial number:	ORYXHardware model number:	OX4-SRSoftware version number:	ORYX F/W v4.00 Oryx Data Collector v3.7.2.0data status	okinstallation	princeton_trtdifferential loss correction	single-endedforward channel	channel 2reverse channel	N/Adate	2019/09/12time	12:49:11forward acquisition time	60.00reverse acquisition time	0.00gamma	496.2192k internal	0.2298k external	0.2298temperature offset calibration	1.0077default loss term (dB/km)	0.3790temperature slope calibration	1.0000multiplexer offset coefficient	1.0000multiplexer slope coefficient	1.0000fibre end	0.00T internal ref (°C)	40.67T ext. ref 1 (°C)	2.05T ext. ref 2 (°C)	37.12length (m)	temperature (°C)	Stokes	anti-Stokes-747.200	-173.455	-0.281	-0.009
-746.185	635.364	-0.127	0.329
-745.171	-172.633	-0.081	-0.003
-744.156	118.941	0.281	0.354
-743.142	164.408	0.188	0.271
-742.127	-200.000	-0.010	0.351
-741.112	-39.420	0.290	-0.155
-740.098	-80.930	0.029	-0.010
-739.083	25.470	-0.212	-0.180
-738.069	800.000	-0.019	0.059
-737.054	-96.163	0.168	-0.046
-736.039	-198.405	0.328	0.002
-735.025	33.565	-0.203	0.180
-734.010	-51.200	-0.173	0.083
-732.996	-142.517	-0.064	0.006
-731.981	543.783	0.080	0.194
-730.966	-131.704	0.048	-0.006
-729.952	151.179	-0.156	-0.217
-728.937	88.429	0.141	-0.160
-727.923	-86.598	-0.295	-0.092
-726.908	210.840	0.182	0.292
-725.894	39.603	-0.383	-0.350
-724.879	-5.172	-0.158	0.111
-723.864	-39.194	0.144	-0.077
-722.850	-46.591	0.119	-0.060
-721.835	185.673	-0.226	-0.342
-720.821	-41.923	-0.038	-0.020
-719.806	-200.000	0.008	-0.067
-718.791	-46.488	-0.448	0.224
-717.777	163.365	-0.164	0.234
-716.762	48.388	0.126	-0.120
-715.748	-175.023	0.152	-0.004
-714.733	-160.666	-0.201	0.011
-713.718	-106.161	-0.350	0.080
-712.704	56.382	-0.134	-0.133
-711.689	-87.389	0.033	-0.010
-710.675	26.497	0.043	0.036
-709.660	17.256	-0.270	-0.219
-708.645	437.793	-0.047	0.105
-707.631	22.254	-0.103	0.086
-706.616	-200.000	0.051	-0.277
-705.602	-85.005	-0.182	-0.058
-704.587	-23.544	-0.316	-0.193
-703.572	-62.384	0.161	0.068
-702.558	-30.130	-0.095	-0.055
-701.543	-200.000	-0.016	-0.118
-700.529	368.068	0.089	0.184
-699.514	147.172	-0.122	-0.167
-698.499	-33.165	0.048	0.027
-697.485	-200.000	0.005	0.146
-696.470	397.543	-0.109	-0.231
-695.456	368.109	-0.089	-0.182
-694.441	107.643	-0.112	0.135
-693.426	-36.792	-0.242	-0.132
-692.412	155.475	-0.062	0.087
-691.397	70.858	-0.197	-0.208
-690.383	466.118	-0.132	-0.300
-689.368	-171.896	0.254	0.008
-688.354	-3.959	-0.175	-0.124
-687.339	800.000	0.031	-0.106
-686.324	-58.230	0.223	-0.099
-685.310	-20.838	-0.318	0.199
-684.295	1.708	-0.106	0.078
-683.281	-200.000	0.013	0.276
-682.266	-105.184	-0.287	-0.067
-681.251	-200.000	0.051	-0.383
-680.237	108.325	-0.121	-0.147
-679.222	92.815	0.282	-0.324
-678.208	-200.000	-0.020	-0.220
-677.193	-200.000	-0.061	0.469
-676.178	31.554	-0.250	0.219
-675.164	800.000	0.083	-0.263
-674.149	-53.408	-0.231	-0.108
-673.135	120.527	-0.134	0.169
-672.120	-200.000	-0.019	0.255
-671.105	66.056	0.075	0.077
-670.091	369.245	0.106	0.218
-669.076	-96.292	-0.234	-0.063
-668.062	-171.186	0.136	-0.005
-667.047	-12.894	-0.292	-0.194
-666.032	786.308	-0.094	0.262
-665.018	-105.478	0.262	0.061
-664.003	12.050	0.211	-0.165
-662.989	295.632	0.117	-0.219
-661.974	800.000	0.065	-0.204
-660.959	57.113	-0.173	-0.172
-659.945	11.514	0.233	-0.182
-658.930	118.514	-0.284	-0.356
-657.916	-200.000	0.006	0.137
-656.901	28.608	-0.092	0.079
-655.886	-56.162	-0.433	-0.196
-654.872	-200.000	0.032	-0.194
-653.857	165.604	-0.099	-0.143
-652.843	-200.000	0.038	0.276
-651.828	-95.479	0.399	0.109
-650.814	96.677	-0.127	-0.148
-649.799	700.013	0.048	-0.130
-648.784	210.370	0.164	-0.262
-647.770	154.063	0.130	-0.182
-646.755	-36.871	0.206	-0.112
-645.741	-70.983	-0.075	-0.029
-644.726	-42.256	-0.225	-0.117
-643.711	-200.000	0.003	-0.102
-642.697	-30.132	-0.323	-0.187
-641.682	800.000	-0.058	-0.184
-640.668	144.486	0.199	0.270
-639.653	-200.000	0.011	-0.310
-638.638	800.000	-0.051	0.194
-637.624	800.000	0.035	-0.105
-636.609	447.507	0.159	0.356
-635.595	-148.470	0.222	0.018
-634.580	318.806	-0.247	-0.477
-633.565	-61.709	0.255	-0.109
-632.551	252.731	0.107	-0.186
-631.536	-200.000	-0.030	-0.390
-630.522	-200.000	0.001	-0.350
-629.507	30.368	0.251	-0.218
-628.492	-14.702	0.238	0.155
-627.478	703.009	0.065	-0.175
-626.463	-200.000	0.046	-0.258
-625.449	-179.772	0.281	-0.006
-624.434	-18.343	0.211	-0.134
-623.419	199.766	0.100	0.156
-622.405	-31.231	-0.366	0.210
-621.390	220.432	0.183	0.297
-620.376	92.305	-0.137	0.157
-619.361	-177.642	-0.225	-0.006
-618.346	-74.905	-0.192	-0.070
-617.332	-200.000	-0.051	0.234
-616.317	-200.000	-0.002	-0.017
-615.303	800.000	0.056	-0.167
-614.288	32.859	-0.191	-0.168
-613.273	40.524	0.208	0.190
-612.259	84.207	0.030	0.034
-611.244	36.165	0.371	0.332
-610.230	351.329	0.088	0.178
-609.215	63.617	-0.242	0.247
-608.201	75.701	0.075	-0.080
-607.186	11.137	-0.245	-0.190
-606.171	-26.547	0.055	-0.033
-605.157	394.230	0.113	-0.239
-604.142	-149.755	-0.222	-0.018
-603.128	-146.959	-0.421	0.037
-602.113	-96.262	0.120	-0.032
-601.098	-23.408	0.347	-0.212
-600.084	-200.000	-0.007	0.293
-599.069	-200.000	0.006	0.328
-598.055	52.020	0.209	0.202
-597.040	194.676	0.257	0.396
-596.025	15.975	-0.075	0.060
-595.011	0.376	-0.238	-0.173
-593.996	-124.737	-0.289	-0.045
-592.982	-18.648	-0.090	0.057
-591.967	-49.145	-0.064	-0.031
-590.952	115.644	0.173	-0.215
-589.938	-57.589	-0.269	-0.120
-588.923	376.394	-0.089	-0.184
-587.909	-107.274	0.189	-0.042
-586.894	-200.000	-0.008	-0.171
-585.879	299.620	0.187	-0.350
-584.865	-200.000	0.016	-0.194
-583.850	-200.000	0.022	-0.242
-582.836	-64.452	-0.255	0.105
-581.821	9.005	-0.274	-0.210
-580.806	-118.450	-0.016	-0.003
-579.792	-200.000	-0.003	-0.150
-578.777	-200.000	0.015	0.420
-577.763	321.791	-0.046	-0.088
-576.748	535.248	0.143	-0.344
-575.733	41.618	-0.273	-0.251
-574.719	-115.078	0.136	-0.026
-573.704	-49.297	-0.158	-0.077
-572.690	-75.623	-0.223	0.081
-571.675	-107.453	-0.107	-0.024
-570.661	-127.354	0.313	-0.046
-569.646	-200.000	0.025	-0.299
-568.631	241.297	-0.200	0.338
-567.617	-200.000	-0.039	0.198
-566.602	334.160	-0.084	-0.165
-565.588	-131.097	0.111	-0.015
-564.573	-53.520	-0.126	-0.059
-563.558	-200.000	0.546	-0.001
-562.544	82.122	-0.177	-0.194
-561.529	-200.000	-0.014	0.095
-560.515	162.899	-0.177	-0.251
-559.500	-66.303	0.183	-0.074
-558.485	-101.089	-0.253	0.063
-557.471	157.301	0.237	0.333
-556.456	299.831	-0.049	0.091
-555.442	-66.622	0.111	-0.045
-554.427	-144.957	-0.378	-0.035
-553.412	-88.747	0.259	0.078
-552.398	-70.863	0.208	-0.079
-551.383	368.768	-0.067	0.137
-550.369	127.548	0.232	-0.299
-549.354	77.665	0.190	0.206
-548.339	305.535	-0.017	-0.032
-547.325	-46.811	0.383	-0.190
-546.310	6.799	0.027	0.020
-545.296	162.207	-0.097	-0.137
-544.281	800.000	0.062	-0.269
-543.266	692.480	0.077	0.203
-542.252	170.324	0.161	0.234
-541.237	47.049	-0.162	0.152
-540.223	-140.497	-0.174	0.018
-539.208	120.918	0.128	0.161
-538.193	-200.000	0.037	-0.296
-537.179	238.911	-0.165	-0.278
-536.164	78.468	-0.136	0.147
-535.150	800.000	-0.027	0.121
-534.135	-200.000	0.012	0.116
-533.121	259.309	0.076	0.132
-532.106	-153.951	-0.452	-0.031
-531.091	800.000	-0.011	-0.042
-530.077	205.612	-0.133	-0.209
-529.062	-145.847	0.094	-0.008
-528.048	312.467	-0.151	0.286
-527.033	-101.047	-0.146	0.036
-526.018	797.805	-0.124	0.346
-525.004	-155.480	-0.038	0.003
-523.989	-111.746	0.231	0.047
-522.975	374.041	-0.094	0.195
-521.960	158.719	0.327	0.460
-520.945	146.695	-0.066	0.090
-519.931	6.740	0.138	0.104
-518.916	320.223	0.206	-0.395
-517.902	-9.842	-0.084	0.057
-516.887	-112.568	-0.063	-0.013
-515.872	290.819	0.055	0.102
-514.858	-200.000	0.029	0.137
-513.843	328.527	0.155	0.301
-512.829	800.000	-0.038	-0.105
-511.814	11.580	0.047	0.037
-510.799	297.534	0.086	0.159
-509.785	586.566	0.098	0.243
-508.770	166.886	-0.026	-0.038
-507.756	-87.835	-0.215	0.066
-506.741	-144.349	0.216	0.020
-505.726	-200.000	0.009	-0.044
-504.712	-80.973	0.080	-0.027
-503.697	-113.709	-0.255	0.050
-502.683	-138.690	-0.204	-0.023
-501.668	-45.157	-0.259	-0.130
-500.653	0.214	-0.153	-0.111
-499.639	200.688	0.225	-0.350
-498.624	800.000	0.093	-0.260
-497.610	-51.775	0.020	-0.009
-496.595	-93.450	0.307	-0.086
-495.581	-60.783	-0.095	0.041
-494.566	681.023	-0.094	-0.249
-493.551	42.924	0.236	-0.217
-492.537	-82.526	0.205	-0.067
-491.522	-40.787	-0.156	-0.082
-490.508	-144.560	0.079	0.007
-489.493	-56.683	-0.208	-0.093
-488.478	-200.000	0.007	0.083
-487.464	-94.548	0.152	-0.042
-486.449	-39.356	0.017	-0.009
-485.435	800.000	0.077	-0.232
-484.420	-91.669	-0.624	0.180
-483.405	-38.314	0.156	-0.084
-482.391	-200.000	0.041	-0.220
-481.376	-200.000	-0.023	0.231
-480.362	-7.591	0.241	-0.164
-479.347	-113.684	-0.384	-0.076
-478.332	-170.522	0.498	-0.018
-477.318	-4.463	-0.117	-0.081
-476.303	363.638	0.011	0.023
-475.289	-56.952	0.345	-0.154
-474.274	339.863	-0.112	-0.221
-473.259	556.829	-0.041	0.099
-472.245	374.461	0.174	0.358
-471.230	-200.000	0.040	0.393
-470.216	-124.079	-0.256	0.041
-469.201	2.373	0.227	0.166
-468.186	-104.435	-0.511	-0.119
-467.172	172.781	0.144	0.209
-466.157	215.447	-0.212	0.339
-465.143	2.087	0.162	-0.119
-464.128	-37.439	0.301	0.162
-463.113	138.850	0.165	-0.219
-462.099	-200.000	0.041	-0.296
-461.084	622.927	-0.108	-0.276
-460.070	-64.423	-0.272	-0.112
-459.055	182.522	-0.014	-0.021
-458.040	-126.920	-0.312	-0.046
-457.026	152.151	0.158	0.217
-456.011	-69.581	0.117	0.045
-454.997	391.415	-0.084	-0.177
-453.982	-127.777	-0.089	0.013
-452.968	800.000	0.119	0.348
-451.953	-200.000	0.005	0.126
-450.938	-111.937	-0.365	0.074
-449.924	121.623	0.110	-0.139
-448.909	60.331	0.141	-0.141
-447.895	-7.457	0.329	0.225
-446.880	-200.000	-0.013	-0.215
-445.865	-0.714	0.265	-0.190
-444.851	49.661	-0.123	-0.117
-443.836	56.673	0.020	0.019
-442.822	586.741	0.175	0.435
-441.807	-99.184	-0.379	-0.097
-440.792	146.880	0.125	0.169
-439.778	-200.000	-0.029	-0.238
-438.763	-115.834	0.063	-0.012
-437.749	69.704	-0.300	-0.312
-436.734	256.884	0.108	0.188
-435.719	220.627	-0.160	0.259
-434.705	200.633	0.080	0.124
-433.690	-57.449	-0.154	-0.068
-432.676	-71.832	-0.232	-0.087
-431.661	-59.395	0.126	0.055
-430.646	-200.000	0.074	-0.326
-429.632	253.939	0.058	-0.100
-428.617	-115.523	0.142	0.027
-427.603	258.132	-0.062	0.107
-426.588	-40.483	-0.052	0.027
-425.573	113.213	-0.055	0.068
-424.559	397.138	-0.081	0.171
-423.544	800.000	0.058	0.193
-422.530	-200.000	0.035	-0.317
-421.515	393.535	0.074	0.156
-420.500	-200.000	0.037	0.331
-419.486	264.282	-0.045	0.079
-418.471	16.687	-0.086	0.069
-417.457	35.355	-0.216	-0.191
-416.442	229.197	-0.180	-0.296
-415.428	-91.520	-0.204	0.059
-414.413	128.188	0.123	0.158
-413.398	-96.445	-0.232	-0.062
-412.384	56.127	0.181	0.177
-411.369	149.240	-0.208	-0.284
-410.355	-200.000	-0.046	0.320
-409.340	416.525	0.169	0.363
-408.325	69.176	-0.181	-0.187
-407.311	-200.000	0.001	0.085
-406.296	-21.216	0.551	0.340
-405.282	-150.833	-0.080	-0.006
-404.267	-200.000	-0.094	0.542
-403.252	561.356	-0.067	0.163
-402.238	-147.574	-0.377	0.032
-401.223	-109.349	0.268	0.057
-400.209	28.001	0.269	-0.228
-399.194	-200.000	0.002	0.082
-398.179	-200.000	0.042	0.223
-397.165	-95.406	0.173	-0.047
-396.150	-54.954	0.046	0.021
-395.136	800.000	-0.028	0.079
-394.121	-57.053	-0.051	-0.023
-393.106	-22.533	-0.218	-0.133
-392.092	64.791	-0.320	-0.325
-391.077	-96.181	-0.245	0.065
-390.063	800.000	0.025	-0.099
-389.048	800.000	-0.041	-0.146
-388.033	-127.073	0.228	0.034
-387.019	-40.230	-0.213	0.112
-386.004	-31.821	-0.231	-0.130
-384.990	77.763	0.130	0.139
-383.975	800.000	0.015	-0.064
-382.960	-200.000	0.015	0.137
-381.946	-91.149	0.015	-0.004
-380.931	-200.000	-0.005	-0.061
-379.917	-22.554	0.122	-0.074
-378.902	335.046	-0.185	0.360
-377.888	-200.000	0.005	0.398
-376.873	-200.000	0.044	-0.271
-375.858	-25.773	0.139	0.083
-374.844	74.905	0.034	-0.036
-373.829	118.665	-0.075	0.094
-372.815	248.726	-0.199	-0.339
-371.800	800.000	-0.048	-0.142
-370.785	-4.255	0.140	-0.098
-369.771	-137.456	-0.136	0.016
-368.756	-200.000	0.050	0.335
-367.742	8.788	0.224	0.170
-366.727	-200.000	0.056	0.255
-365.712	67.430	0.082	-0.084
-364.698	-106.327	-0.175	0.039
-363.683	-200.000	0.010	0.047
-362.669	-200.000	0.029	-0.283
-361.654	379.849	0.232	-0.478
-360.639	147.761	-0.249	0.337
-359.625	-27.272	-0.313	0.183
-358.610	-102.537	-0.179	0.043
-357.596	-14.571	0.193	0.125
-356.581	14.980	-0.060	-0.047
-355.566	-200.000	-0.025	0.176
-354.552	656.378	0.101	-0.260
-353.537	-200.000	-0.058	0.321
-352.523	38.935	-0.032	0.029
-351.508	158.622	0.024	-0.034
-350.493	-200.000	0.015	0.323
-349.479	800.000	0.070	-0.201
-348.464	13.900	0.115	-0.090
-347.450	800.000	0.054	-0.161
-346.435	-200.000	0.062	0.330
-345.420	253.482	0.082	0.141
-344.406	175.694	0.243	0.354
-343.391	382.658	0.043	0.088
-342.377	-38.597	0.220	-0.117
-341.362	-91.354	0.222	0.064
-340.348	14.362	0.314	-0.246
-339.333	54.159	-0.157	-0.151
-338.318	-177.020	0.142	-0.004
-337.304	-200.000	-0.042	-0.290
-336.289	495.848	0.086	0.199
-335.275	-43.451	-0.298	0.151
-334.260	-200.000	0.103	0.659
-333.245	6.992	0.138	0.104
-332.231	-200.000	-0.022	0.182
-331.216	8.834	-0.214	-0.162
-330.202	425.715	0.136	-0.294
-329.187	227.556	0.024	0.039
-328.172	-200.000	-0.014	0.063
-327.158	78.789	-0.064	-0.069
-326.143	24.663	0.229	-0.191
-325.129	187.235	-0.180	-0.270
-324.114	-200.000	0.049	0.331
-323.099	19.480	0.163	-0.131
-322.085	-52.235	-0.302	0.141
-321.070	-200.000	0.004	-0.407
-320.056	-200.000	-0.020	-0.099
-319.041	-38.279	-0.171	-0.091
-318.026	30.374	0.179	0.154
-317.012	356.117	-0.124	-0.249
-315.997	-94.038	0.191	0.053
-314.983	-200.000	0.040	0.369
-313.968	-142.463	-0.287	-0.028
-312.953	-177.638	0.368	-0.009
-311.939	134.165	0.066	0.086
-310.924	334.013	-0.089	0.172
-309.910	261.758	-0.034	-0.060
-308.895	0.886	-0.198	-0.143
-307.880	-200.000	-0.016	0.136
-306.866	-57.588	0.113	0.050
-305.851	-49.403	-0.209	0.100
-304.837	-131.141	-0.045	0.006
-303.822	28.170	0.153	-0.129
-302.807	-56.419	-0.184	-0.082
-301.793	800.000	0.051	-0.165
-300.778	-163.157	-0.238	-0.011
-299.764	-158.249	-0.299	0.018
-298.749	-40.617	0.237	0.124
-297.735	-39.952	-0.274	0.144
-296.720	800.000	-0.075	-0.223
-295.705	800.000	0.158	0.482
-294.691	89.712	-0.072	0.081
-293.676	1.743	-0.226	-0.163
-292.662	54.097	0.221	-0.213
-291.647	-48.171	-0.225	-0.109
-290.632	23.795	-0.228	-0.189
-289.618	-70.571	-0.243	-0.092
-288.603	-41.953	-0.127	0.065
-287.589	169.588	0.182	0.261
-286.574	-7.811	-0.191	0.129
-285.559	-200.000	0.019	0.420
-284.545	171.828	0.143	0.206
-283.530	-72.822	0.208	0.077
-282.516	-169.606	0.218	0.008
-281.501	317.900	0.121	-0.230
-280.486	-146.201	-0.302	0.027
-279.472	-142.694	0.324	-0.032
-278.457	-115.574	0.355	-0.067
-277.443	-32.173	-0.144	-0.081
-276.428	298.149	-0.171	0.316
-275.413	-200.000	-0.021	0.283
-274.399	146.761	0.185	-0.250
-273.384	-7.880	-0.092	0.062
-272.370	-69.535	0.451	0.173
-271.355	-128.833	0.138	-0.019
-270.340	43.287	0.267	0.244
-269.326	-200.000	0.033	-0.183
-268.311	779.990	0.067	-0.183
-267.297	258.556	0.030	-0.052
-266.282	-48.371	-0.171	-0.082
-265.267	800.000	-0.100	0.319
-264.253	-10.141	-0.228	-0.151
-263.238	62.424	0.121	0.121
-262.224	-200.000	0.005	0.043
-261.209	-200.000	0.049	-0.280
-260.195	-63.749	0.136	-0.056
-259.180	800.000	0.074	-0.233
-258.165	-29.888	0.157	0.090
-257.151	80.847	-0.185	0.199
-256.136	89.862	-0.186	-0.208
-255.122	248.791	0.105	-0.178
-254.107	97.673	-0.305	0.351
-253.092	183.225	0.058	0.086
-252.078	322.319	-0.093	-0.178
-251.063	-200.000	0.042	0.192
-250.049	178.690	0.227	-0.332
-249.034	245.438	0.254	-0.428
-248.019	-65.190	0.222	0.090
-247.005	4.894	0.156	-0.115
-245.990	-200.000	-0.002	-0.069
-244.976	-41.376	0.250	-0.129
-243.961	68.687	-0.098	0.101
-242.946	304.961	-0.142	-0.264
-241.932	301.069	-0.100	0.185
-240.917	105.850	0.156	-0.185
-239.903	-200.000	-0.013	0.235
-238.888	-200.000	-0.024	-0.143
-237.873	-36.387	-0.175	-0.094
-236.859	-94.979	-0.103	-0.028
-235.844	800.000	-0.078	0.273
-234.830	-200.000	-0.023	0.262
-233.815	50.712	0.131	-0.124
-232.800	-200.000	-0.017	0.270
-231.786	-137.776	-0.317	0.036
-230.771	800.000	-0.087	0.276
-229.757	179.620	-0.215	0.315
-228.742	-200.000	0.010	-0.108
-227.727	-86.022	0.509	-0.158
-226.713	-200.000	0.003	0.045
-225.698	19.666	-0.057	-0.046
-224.684	62.790	0.277	0.277
-223.669	-9.526	0.416	0.278
-222.655	107.496	-0.163	-0.194
-221.640	-125.235	0.321	-0.049
-220.625	800.000	-0.020	-0.067
-219.611	93.967	-0.187	-0.212
-218.596	-66.450	-0.505	-0.201
-217.582	60.960	-0.175	0.174
-216.567	106.266	0.216	-0.255
-215.552	-41.064	-0.302	-0.156
-214.538	-84.969	-0.133	0.042
-213.523	402.662	-0.141	0.297
-212.509	-15.402	-0.094	0.060
-211.494	800.000	0.091	-0.384
-210.479	202.452	-0.072	-0.111
-209.465	-155.305	-0.261	-0.017
-208.450	126.402	-0.153	-0.194
-207.436	800.000	0.058	-0.193
-206.421	-66.428	-0.130	-0.052
-205.406	-57.003	0.158	-0.070
-204.392	42.855	0.416	-0.379
-203.377	64.428	-0.126	-0.127
-202.363	-47.105	0.135	0.066
-201.348	489.873	-0.153	-0.350
-200.333	-87.744	0.228	0.069
-199.319	324.044	0.121	-0.230
-198.304	800.000	0.070	0.276
-197.290	35.958	0.192	0.169
-196.275	-75.724	-0.284	-0.101
-195.260	142.035	0.044	0.058
-194.246	62.823	0.178	-0.178
-193.231	118.881	-0.174	-0.215
-192.217	800.000	0.084	-0.297
-191.202	-79.061	0.062	0.021
-190.187	-200.000	-0.000	0.168
-189.173	-120.503	-0.357	0.061
-188.158	-87.123	0.110	0.034
-187.144	-200.000	-0.039	0.247
-186.129	800.000	0.035	-0.139
-185.114	86.606	0.199	-0.219
-184.100	800.000	0.028	-0.100
-183.085	-94.369	-0.247	-0.067
-182.071	-200.000	0.009	-0.141
-181.056	-48.288	-0.285	-0.137
-180.042	-64.710	-0.082	0.033
-179.027	421.724	-0.084	0.180
-178.012	6.786	0.082	-0.061
-176.998	-145.076	0.310	0.028
-175.983	-176.729	-0.210	-0.005
-174.969	-200.000	0.025	0.378
-173.954	-177.196	-0.329	-0.008
-172.939	-82.340	0.497	0.162
-171.925	231.651	0.055	0.089
-170.910	31.357	-0.075	-0.064
-169.896	61.121	0.127	0.126
-168.881	225.728	-0.084	0.136
-167.866	161.048	-0.045	-0.063
-166.852	-53.960	0.302	-0.138
-165.837	-200.000	0.060	0.288
-164.823	-200.000	-0.040	0.349
-163.808	375.768	-0.089	0.181
-162.793	-37.785	-0.452	-0.240
-161.779	-98.943	0.511	0.130
-160.764	-175.266	-0.370	-0.010
-159.750	151.844	-0.106	-0.145
-158.735	-200.000	-0.018	-0.104
-157.720	-200.000	0.003	0.055
-156.706	-200.000	0.032	0.206
-155.691	528.964	-0.187	0.440
-154.677	271.879	-0.137	0.242
-153.662	-138.782	-0.120	0.013
-152.647	-200.000	-0.005	-0.216
-151.633	-200.000	0.061	-0.445
-150.618	-10.085	-0.106	-0.071
-149.604	309.422	0.083	-0.155
-148.589	-135.150	0.267	-0.032
-147.574	52.697	-0.278	-0.265
-146.560	55.764	0.166	0.161
-145.545	-32.258	0.246	0.137
-144.531	-200.000	0.007	0.221
-143.516	75.753	0.073	0.077
-142.502	76.421	0.133	-0.140
-141.487	-145.392	0.068	0.006
-140.472	-87.819	-0.369	-0.111
-139.458	-48.658	-0.155	-0.074
-138.443	360.420	-0.051	-0.101
-137.429	-56.635	-0.179	0.079
-136.414	-194.816	0.124	-0.001
-135.399	-200.000	0.052	0.325
-134.385	-200.000	-0.039	0.189
-133.370	-11.514	0.176	-0.115
-132.356	-200.000	-0.010	0.206
-131.341	-125.945	0.168	-0.025
-130.326	140.880	0.145	-0.191
-129.312	-39.961	-0.266	0.138
-128.297	-200.000	-0.012	0.497
-127.283	503.885	0.142	0.328
-126.268	210.037	-0.073	0.115
-125.253	-15.746	-0.163	-0.103
-124.239	18.018	0.111	0.088
-123.224	-28.067	-0.259	0.149
-122.210	-200.000	0.022	-0.269
-121.195	-47.287	0.083	0.040
