DTS Sentinel unit serial number:	SN413079Multiplexer serial number:	ORYXHardware model number:	OX4-SRSoftware version number:	ORYX F/W v4.00 Oryx Data Collector v3.7.2.0data status	okinstallation	princeton_trtdifferential loss correction	single-endedforward channel	channel 2reverse channel	N/Adate	2019/09/18time	09:19:34forward acquisition time	60.00reverse acquisition time	0.00gamma	496.2192k internal	0.2338k external	0.2338temperature offset calibration	0.9974default loss term (dB/km)	0.3790temperature slope calibration	1.0000multiplexer offset coefficient	1.0000multiplexer slope coefficient	1.0000fibre end	0.00T internal ref (°C)	25.92T ext. ref 1 (°C)	0.26T ext. ref 2 (°C)	23.33length (m)	temperature (°C)	Stokes	anti-Stokes-747.200	216.784	-0.090	-0.144
-746.185	-200.000	-0.015	0.320
-745.171	-43.294	0.131	0.066
-744.156	-200.000	0.007	-0.169
-743.142	-200.000	-0.008	-0.303
-742.127	-65.436	-0.224	-0.090
-741.112	-116.728	0.100	0.018
-740.098	-200.000	0.031	-0.180
-739.083	32.560	-0.026	0.023
-738.069	-200.000	-0.023	0.241
-737.054	800.000	-0.042	0.152
-736.039	118.994	-0.059	0.074
-735.025	-140.709	0.251	-0.026
-734.010	-109.198	0.223	-0.047
-732.996	54.491	-0.071	-0.069
-731.981	-200.000	0.030	-0.206
-730.966	-32.674	0.098	0.054
-729.952	800.000	0.079	-0.348
-728.937	463.356	-0.237	-0.531
-727.923	-200.000	-0.008	-0.056
-726.908	14.257	-0.223	0.174
-725.894	-137.084	-0.128	0.015
-724.879	-200.000	0.005	0.109
-723.864	-9.209	-0.256	-0.171
-722.850	-200.000	-0.032	-0.168
-721.835	-120.677	0.399	-0.068
-720.821	217.413	0.094	0.151
-719.806	116.785	-0.055	0.067
-718.791	-112.267	0.022	-0.004
-717.777	477.245	-0.021	-0.047
-716.762	-182.597	0.215	-0.004
-715.748	451.985	-0.148	-0.329
-714.733	50.612	-0.147	-0.139
-713.718	219.001	-0.050	0.080
-712.704	-92.137	-0.235	-0.067
-711.689	-168.096	-0.202	0.008
-710.675	-200.000	-0.003	-0.225
-709.660	-200.000	0.050	-0.376
-708.645	-145.077	-0.302	-0.028
-707.631	800.000	0.078	-0.329
-706.616	-200.000	0.034	-0.336
-705.602	-5.604	-0.253	0.174
-704.587	-77.203	0.095	0.033
-703.572	592.512	-0.115	0.284
-702.558	9.898	0.359	0.273
-701.543	-200.000	-0.014	0.170
-700.529	800.000	-0.029	0.086
-699.514	-13.359	0.225	-0.146
-698.499	-200.000	-0.018	0.128
-697.485	-109.159	-0.344	0.073
-696.470	-62.564	-0.107	0.045
-695.456	-200.000	0.011	-0.320
-694.441	525.120	0.124	-0.293
-693.426	-191.192	-0.133	0.001
-692.412	75.155	-0.119	-0.126
-691.397	48.786	-0.165	-0.155
-690.383	0.537	0.104	0.075
-689.368	-156.518	0.015	0.001
-688.354	-200.000	0.046	-0.262
-687.339	271.367	0.134	0.236
-686.324	800.000	0.161	-0.495
-685.310	-32.618	-0.330	-0.184
-684.295	198.160	-0.299	0.458
-683.281	57.904	-0.054	-0.053
-682.266	-136.573	-0.160	0.019
-681.251	800.000	-0.046	-0.165
-680.237	-200.000	-0.002	-0.037
-679.222	638.215	0.044	-0.112
-678.208	-145.177	-0.252	0.023
-677.193	-107.790	0.083	-0.018
-676.178	24.011	0.079	-0.065
-675.164	-108.556	-0.292	0.063
-674.149	-200.000	0.021	0.163
-673.135	-41.259	0.315	0.162
-672.120	-61.214	-0.336	-0.142
-671.105	800.000	0.073	-0.285
-670.091	320.813	-0.171	-0.325
-669.076	-200.000	-0.015	-0.160
-668.062	24.415	0.104	-0.086
-667.047	-155.313	0.069	0.004
-666.032	-78.713	-0.223	-0.076
-665.018	-200.000	0.029	0.193
-664.003	-122.177	-0.304	-0.050
-662.989	-184.127	-0.248	-0.004
-661.974	-95.252	-0.184	0.049
-660.959	800.000	0.073	-0.205
-659.945	10.176	-0.168	0.128
-658.930	45.898	-0.174	0.161
-657.916	800.000	0.108	0.354
-656.901	-200.000	-0.015	0.196
-655.886	-73.857	-0.267	-0.097
-654.872	0.208	-0.319	-0.228
-653.857	5.849	-0.234	-0.173
-652.843	17.690	-0.192	0.153
-651.828	68.925	-0.290	-0.298
-650.814	186.806	0.238	0.355
-649.799	106.863	-0.094	0.112
-648.784	800.000	0.066	-0.210
-647.770	-33.919	0.328	-0.181
-646.755	-200.000	-0.029	0.228
-645.741	-68.807	-0.079	-0.030
-644.726	-30.551	0.126	-0.071
-643.711	87.608	0.152	0.168
-642.697	431.869	-0.069	0.148
-641.682	-36.241	0.134	0.072
-640.668	800.000	-0.040	-0.147
-639.653	783.074	-0.029	-0.078
-638.638	464.094	0.072	0.161
-637.624	188.773	0.256	-0.382
-636.609	-39.986	0.103	0.054
-635.595	-42.252	-0.308	-0.157
-634.580	800.000	0.035	-0.097
-633.565	-13.105	-0.227	0.148
-632.551	-17.316	0.058	0.037
-631.536	-200.000	0.028	-0.379
-630.522	60.062	0.089	0.088
-629.507	800.000	-0.079	-0.310
-628.492	-125.956	-0.199	-0.030
-627.478	-113.789	0.328	0.064
-626.463	800.000	-0.038	0.142
-625.449	-9.085	0.401	0.268
-624.434	-70.804	-0.409	-0.154
-623.419	-129.091	0.163	0.023
-622.405	348.581	0.066	0.131
-621.390	-76.457	-0.171	0.060
-620.376	-200.000	-0.004	0.177
-619.361	69.745	-0.161	-0.166
-618.346	800.000	0.080	-0.274
-617.332	181.576	0.184	-0.270
-616.317	-77.407	-0.120	0.042
-615.303	-55.778	-0.175	0.078
-614.288	65.212	-0.137	-0.139
-613.273	-39.488	0.086	-0.045
-612.259	172.837	0.164	0.236
-611.244	-62.500	-0.117	0.049
-610.230	263.930	-0.052	0.090
-609.215	-152.593	-0.145	-0.010
-608.201	123.214	-0.192	0.241
-607.186	800.000	-0.144	0.407
-606.171	-41.254	0.344	-0.177
-605.157	800.000	-0.078	-0.279
-604.142	678.042	-0.127	0.328
-603.128	800.000	-0.060	0.170
-602.113	132.181	0.138	0.177
-601.098	-200.000	0.035	0.172
-600.084	-62.449	-0.145	-0.060
-599.069	-112.625	0.501	-0.100
-598.055	231.369	0.249	-0.407
-597.040	-102.354	-0.297	0.071
-596.025	0.031	-0.147	0.105
-595.011	-79.963	0.204	0.068
-593.996	-73.770	0.197	-0.071
-592.982	-200.000	-0.204	0.000
-591.967	-161.830	-0.242	-0.012
-590.952	-200.000	-0.042	-0.225
-589.938	87.775	0.225	0.248
-588.923	-35.983	-0.177	0.096
-587.909	-200.000	-0.014	-0.123
-586.894	800.000	-0.046	0.163
-585.879	-116.364	0.278	0.051
-584.865	167.347	0.111	-0.157
-583.850	274.013	-0.054	0.096
-582.836	-59.177	-0.390	-0.168
-581.821	-200.000	0.028	-0.209
-580.806	-150.292	0.165	-0.013
-579.792	-69.055	-0.325	0.125
-578.777	-200.000	0.021	0.202
-577.763	369.606	0.069	0.139
-576.748	7.296	-0.078	0.058
-575.733	-200.000	-0.026	-0.128
-574.719	-200.000	0.024	0.227
-573.704	162.308	-0.319	-0.446
-572.690	-43.429	-0.042	0.021
-571.675	-200.000	0.066	0.386
-570.661	159.036	0.137	-0.189
-569.646	60.504	-0.117	-0.116
-568.631	-137.742	0.137	-0.015
-567.617	-24.863	0.030	0.018
-566.602	-106.594	0.166	0.037
-565.588	-166.703	0.200	-0.008
-564.573	39.820	-0.198	-0.177
-563.558	168.471	0.062	-0.087
-562.544	608.506	-0.038	0.095
-561.529	-200.000	0.001	-0.019
-560.515	-35.198	0.254	0.138
-559.500	-18.279	-0.122	-0.076
-558.485	-106.804	0.389	-0.086
-557.471	191.467	-0.048	-0.071
-556.456	-140.995	-0.499	0.051
-555.442	-84.260	-0.316	-0.100
-554.427	129.608	0.094	-0.119
-553.412	-125.747	-0.146	-0.022
-552.398	-160.218	-0.114	-0.006
-551.383	-177.865	0.200	0.005
-550.369	355.445	0.017	0.034
-549.354	21.374	-0.103	0.084
-548.339	169.519	-0.061	-0.087
-547.325	-200.000	0.001	-0.160
-546.310	36.925	-0.049	-0.043
-545.296	800.000	-0.056	-0.180
-544.281	-200.000	-0.006	-0.030
-543.266	27.221	0.163	0.136
-542.252	-200.000	0.048	-0.406
-541.237	-165.849	0.138	-0.006
-540.223	448.364	-0.143	0.314
-539.208	722.885	-0.116	0.308
-538.193	-31.451	0.467	0.262
-537.179	-61.845	0.206	-0.086
-536.164	579.680	-0.061	0.150
-535.150	205.762	-0.139	0.216
-534.135	304.295	-0.102	0.188
-533.121	51.584	-0.280	0.265
-532.106	7.885	0.239	0.178
-531.091	-13.528	0.041	0.026
-530.077	313.207	-0.206	0.386
-529.062	-93.061	0.352	-0.098
-528.048	48.012	-0.229	0.213
-527.033	68.709	-0.078	0.080
-526.018	128.664	0.174	-0.221
-525.004	-94.546	-0.184	0.050
-523.989	-102.351	-0.128	-0.030
-522.975	132.763	-0.229	-0.294
-521.960	-200.000	-0.025	-0.284
-520.945	-200.000	0.034	0.181
-519.931	-106.075	0.158	0.035
-518.916	-85.771	-0.033	0.010
-517.902	800.000	0.124	-0.526
-516.887	-7.943	-0.139	-0.094
-515.872	800.000	0.046	0.158
-514.858	-200.000	0.043	-0.365
-513.843	172.840	-0.196	-0.281
-512.829	-200.000	0.018	-0.342
-511.814	-43.721	-0.290	0.146
-510.799	-55.020	-0.163	-0.073
-509.785	800.000	0.024	0.083
-508.770	-27.715	0.246	-0.142
-507.756	-27.157	0.221	-0.128
-506.741	-102.322	-0.331	0.079
-505.726	-5.448	-0.347	0.237
-504.712	330.142	0.075	0.143
-503.697	120.068	-0.066	0.081
-502.683	-143.583	-0.031	-0.003
-501.668	-126.409	0.159	-0.024
-500.653	-101.720	-0.201	0.049
-499.639	-67.857	0.203	-0.079
-498.624	769.344	0.044	-0.119
-497.610	-111.234	0.237	-0.048
-496.595	-65.096	-0.140	-0.056
-495.581	250.365	0.127	-0.214
-494.566	-149.662	0.241	0.019
-493.551	105.392	-0.155	-0.182
-492.537	-105.089	-0.103	0.023
-491.522	469.826	-0.083	-0.185
-490.508	-81.036	0.136	0.045
-489.493	-28.684	0.323	-0.185
-488.478	622.727	-0.027	0.069
-487.464	-14.481	-0.111	-0.071
-486.449	-107.181	-0.131	-0.029
-485.435	-92.630	-0.328	0.091
-484.420	-200.000	0.075	0.423
-483.405	-97.409	0.085	0.022
-482.391	-73.988	-0.136	-0.049
-481.376	32.442	0.282	-0.242
-480.362	-121.986	0.144	0.023
-479.347	-27.274	-0.151	0.087
-478.332	-48.163	-0.183	-0.088
-477.318	-16.039	-0.117	0.074
-476.303	-200.000	-0.035	0.166
-475.289	616.499	0.177	-0.440
-474.274	-200.000	0.046	0.244
-473.259	-200.000	-0.064	0.365
-472.245	263.459	-0.137	-0.237
-471.230	-103.070	-0.093	0.022
-470.216	53.628	0.173	-0.165
-469.201	36.684	-0.133	0.116
-468.186	354.138	-0.064	0.126
-467.172	-107.204	-0.291	0.064
-466.157	-200.000	-0.016	0.161
-465.143	70.363	0.283	0.291
-464.128	18.077	-0.208	0.165
-463.113	59.380	-0.168	-0.165
-462.099	126.382	-0.045	0.056
-461.084	173.587	0.109	0.156
-460.070	7.358	-0.076	0.056
-459.055	-21.428	-0.105	0.064
-458.040	800.000	0.080	-0.264
-457.026	8.443	-0.047	0.035
-456.011	443.271	0.148	-0.321
-454.997	800.000	-0.028	-0.119
-453.982	-79.838	-0.273	-0.091
-452.968	800.000	0.165	0.458
-451.953	-200.000	0.060	-0.272
-450.938	-200.000	0.050	-0.257
-449.924	-98.782	-0.150	-0.038
-448.909	-4.860	0.295	0.202
-447.895	371.079	-0.094	-0.189
-446.880	-200.000	0.009	-0.091
-445.865	-127.251	0.491	-0.071
-444.851	246.550	-0.203	-0.340
-443.836	-18.919	0.103	-0.064
-442.822	200.652	-0.116	0.177
-441.807	34.778	-0.167	-0.145
-440.792	755.638	-0.153	0.410
-439.778	188.598	0.134	0.199
-438.763	584.039	-0.090	0.220
-437.749	113.993	-0.052	0.063
-436.734	-43.202	0.108	-0.054
-435.719	-200.000	-0.027	-0.224
-434.705	320.850	-0.161	-0.303
-433.690	-200.000	-0.037	0.377
-432.676	-200.000	0.033	-0.245
-431.661	-181.190	0.066	-0.001
-430.646	-115.311	-0.461	-0.086
-429.632	-200.000	0.003	-0.214
-428.617	135.893	0.165	-0.213
-427.603	800.000	0.096	-0.281
-426.588	226.934	-0.066	-0.106
-425.573	-200.000	0.002	-0.379
-424.559	-112.747	0.192	0.038
-423.544	148.141	-0.049	-0.066
-422.530	-200.000	0.013	0.268
-421.515	-62.797	0.201	-0.083
-420.500	-66.346	0.307	0.121
-419.486	460.785	-0.110	0.242
-418.471	-200.000	0.064	0.329
-417.457	158.212	0.138	0.189
-416.442	-200.000	0.032	0.157
-415.428	-200.000	-0.014	0.152
-414.413	102.850	0.198	-0.230
-413.398	-36.610	0.192	0.102
-412.384	-200.000	-0.034	-0.275
-411.369	693.161	0.103	0.269
-410.355	3.394	-0.019	-0.014
-409.340	-49.005	-0.198	0.094
-408.325	-73.977	-0.144	0.052
-407.311	-116.525	-0.355	-0.065
-406.296	-200.000	0.007	0.402
-405.282	-200.000	-0.028	-0.185
-404.267	-19.573	0.087	0.053
-403.252	62.103	-0.141	0.140
-402.238	-100.408	0.317	-0.078
-401.223	800.000	0.123	0.362
-400.209	217.242	0.076	0.120
-399.194	-69.962	-0.145	-0.055
-398.179	-200.000	-0.005	-0.458
-397.165	800.000	-0.051	0.201
-396.150	800.000	-0.101	0.312
-395.136	-37.297	0.242	0.128
-394.121	314.357	-0.132	-0.245
-393.106	158.157	-0.122	-0.168
-392.092	-10.781	-0.051	-0.033
-391.077	28.718	-0.131	0.110
-390.063	-200.000	-0.017	0.146
-389.048	-105.634	-0.214	0.048
-388.033	133.528	0.095	-0.121
-387.019	93.860	-0.113	-0.127
-386.004	137.190	-0.030	-0.039
-384.990	-54.400	0.169	-0.076
-383.975	-200.000	-0.017	0.146
-382.960	474.231	0.080	-0.179
-381.946	-200.000	-0.006	-0.068
-380.931	800.000	-0.029	-0.119
-379.917	2.186	0.193	0.138
-378.902	247.400	0.208	0.348
-377.888	-200.000	0.012	0.229
-376.873	800.000	-0.055	0.179
-375.858	-200.000	0.038	0.217
-374.844	-27.463	-0.169	0.097
-373.829	-49.329	0.239	-0.113
-372.815	276.834	0.128	0.224
-371.800	-101.826	-0.229	0.055
-370.785	432.879	0.023	0.049
-369.771	419.501	0.044	0.094
-368.756	153.744	-0.073	0.099
-367.742	-200.000	0.055	0.393
-366.727	330.388	-0.107	0.203
-365.712	-101.472	0.075	-0.018
-364.698	-200.000	0.018	-0.246
-363.683	-200.000	-0.033	0.195
-362.669	-5.401	0.199	0.135
-361.654	-145.572	0.138	-0.012
-360.639	43.767	0.261	0.237
-359.625	430.484	-0.115	-0.246
-358.610	389.303	0.038	-0.077
-357.596	-200.000	-0.017	-0.159
-356.581	155.311	0.065	0.089
-355.566	800.000	0.092	0.343
-354.552	-12.797	0.061	0.039
-353.537	165.623	0.079	-0.111
-352.523	308.174	-0.120	-0.222
-351.508	255.630	0.183	0.310
-350.493	-200.000	-0.011	0.061
-349.479	-40.792	-0.249	0.127
-348.464	383.267	0.161	0.326
-347.450	-100.061	-0.168	0.041
-346.435	-67.530	-0.308	-0.119
-345.420	-161.544	0.236	-0.012
-344.406	-1.073	0.254	-0.178
-343.391	135.509	-0.104	-0.134
-342.377	671.596	-0.084	0.215
-341.362	-105.819	-0.143	0.032
-340.348	311.858	0.224	0.416
-339.333	-20.840	0.211	0.128
-338.318	233.074	-0.259	0.421
-337.304	-21.392	-0.153	-0.092
-336.289	-69.196	-0.109	0.041
-335.275	-64.701	0.175	-0.070
-334.260	20.674	-0.195	0.156
-333.245	-62.233	-0.158	0.065
-332.231	38.925	0.209	-0.184
-331.216	-93.378	-0.243	-0.067
-330.202	70.525	-0.191	0.195
-329.187	120.465	0.363	-0.446
-328.172	-200.000	-0.033	-0.443
-327.158	518.299	-0.058	-0.134
-326.143	328.922	-0.093	-0.176
-325.129	360.217	0.142	0.280
-324.114	-45.529	-0.171	-0.084
-323.099	472.880	-0.056	-0.124
-322.085	-149.078	-0.189	0.015
-321.070	-65.425	0.068	0.027
-320.056	-200.000	0.011	-0.151
-319.041	-151.461	-0.353	-0.026
-318.026	-65.916	0.094	0.037
-317.012	-200.000	0.018	-0.393
-315.997	-49.008	-0.536	0.253
-314.983	137.911	0.122	0.158
-313.968	-166.945	-0.241	-0.010
-312.953	-200.000	0.004	0.041
-311.939	800.000	0.030	-0.114
-310.924	800.000	-0.025	0.074
-309.910	372.988	0.069	0.138
-308.895	-156.319	-0.250	0.015
-307.880	393.838	0.132	-0.271
-306.866	612.909	-0.077	-0.191
-305.851	-200.000	-0.068	-0.345
-304.837	-149.892	-0.080	0.006
-303.822	-71.175	-0.126	-0.047
-302.807	-200.000	0.002	-0.058
-301.793	407.711	0.128	0.268
-300.778	-200.000	0.085	0.376
-299.764	60.716	-0.180	-0.176
-298.749	113.614	-0.176	0.211
-297.735	55.841	0.005	0.005
-296.720	-88.556	0.241	0.071
-295.705	83.639	-0.021	-0.023
-294.691	800.000	0.039	0.163
-293.676	204.303	0.090	0.138
-292.662	-200.000	0.034	0.307
-291.647	-130.286	0.475	-0.064
-290.632	-19.670	0.322	0.197
-289.618	-132.769	0.229	0.029
-288.603	800.000	0.039	0.115
-287.589	-110.595	0.098	0.020
-286.574	46.976	-0.045	0.041
-285.559	-166.664	0.340	-0.014
-284.545	-101.379	0.137	-0.033
-283.530	-200.000	0.011	-0.238
-282.516	-41.511	0.027	0.014
-281.501	-200.000	0.261	0.001
-280.486	198.932	0.036	-0.054
-279.472	-11.656	-0.018	-0.012
-278.457	-25.498	0.051	0.030
-277.443	47.587	0.208	0.191
-276.428	215.741	0.149	-0.233
-275.413	-92.982	-0.338	-0.093
-274.399	800.000	0.036	-0.100
-273.384	207.566	0.211	0.325
-272.370	210.668	0.068	-0.104
-271.355	-45.098	0.171	-0.084
-270.340	70.282	0.060	0.061
-269.326	16.181	-0.306	-0.237
-268.311	487.077	-0.097	-0.217
-267.297	-200.000	-0.083	0.518
-266.282	95.114	-0.193	-0.216
-265.267	-71.932	0.243	-0.089
-264.253	-46.866	0.090	0.043
-263.238	300.336	-0.088	-0.161
-262.224	338.141	0.127	-0.243
-261.209	-200.000	0.000	0.011
-260.195	-96.218	0.074	-0.019
-259.180	438.784	-0.108	-0.232
-258.165	-42.274	0.258	-0.130
-257.151	-60.852	0.247	-0.103
-256.136	63.618	0.174	-0.172
-255.122	0.672	-0.218	0.154
-254.107	278.421	-0.100	0.175
-253.092	-53.964	0.114	-0.051
-252.078	-69.328	0.081	-0.031
-251.063	-67.688	-0.434	-0.167
-250.049	-200.000	-0.006	0.072
-249.034	241.933	0.091	-0.150
-248.019	109.580	-0.173	0.204
-247.005	35.684	0.082	-0.071
-245.990	-83.539	-0.090	0.028
-244.976	-41.366	0.104	0.053
-243.961	-20.073	0.113	0.069
-242.946	582.568	0.144	-0.348
-241.932	49.228	-0.076	0.070
-240.917	-69.214	-0.186	0.070
-239.903	-9.466	-0.038	-0.025
-238.888	-17.625	-0.285	0.177
-237.873	-116.280	-0.351	-0.064
-236.859	154.666	-0.358	-0.484
-235.844	-200.000	-0.028	0.142
-234.830	6.857	0.199	0.146
-233.815	433.380	-0.091	-0.195
-232.800	77.371	0.136	0.142
-231.786	-86.512	-0.153	0.046
-230.771	-200.000	0.001	-0.046
-229.757	18.833	0.261	0.206
-228.742	14.881	-0.087	-0.067
-227.727	-78.172	-0.341	-0.115
-226.713	103.813	0.271	-0.313
-225.698	-86.896	-0.406	-0.122
-224.684	-9.558	-0.229	0.150
-223.669	-92.860	0.171	-0.047
-222.655	228.406	0.143	0.229
-221.640	-28.654	-0.184	0.104
-220.625	7.933	0.174	-0.128
-219.611	-37.733	-0.103	-0.054
-218.596	-90.037	0.302	0.086
-217.582	33.780	-0.174	-0.149
-216.567	-59.719	0.257	0.108
-215.552	-200.000	-0.071	0.321
-214.538	561.142	-0.047	-0.111
-213.523	356.101	0.079	-0.155
-212.509	-148.143	0.081	0.007
-211.494	-47.020	0.367	-0.176
-210.479	-106.778	0.144	-0.031
-209.465	800.000	-0.063	0.197
-208.450	-200.000	-0.001	-0.106
-207.436	435.830	0.093	-0.200
-206.421	-200.000	-0.017	-0.131
-205.406	272.778	-0.164	-0.285
-204.392	-127.776	0.159	0.023
-203.377	39.329	-0.176	-0.155
-202.363	-200.000	0.001	-0.095
-201.348	412.963	0.077	0.161
-200.333	-17.096	-0.173	-0.107
-199.319	-114.017	0.408	0.078
-198.304	114.213	-0.168	-0.201
-197.290	-87.978	-0.217	-0.064
-196.275	100.764	0.141	0.161
-195.260	-104.320	-0.072	-0.016
-194.246	-200.000	-0.047	0.463
-193.231	-147.849	0.182	0.015
-192.217	-200.000	0.042	-0.278
-191.202	-19.209	-0.349	-0.213
-190.187	10.542	0.442	-0.331
-189.173	-200.000	0.008	0.106
-188.158	800.000	-0.060	-0.200
-187.144	-99.137	-0.289	0.072
-186.129	176.161	0.006	0.009
-185.114	-200.000	0.163	0.001
-184.100	-200.000	-0.007	-0.033
-183.085	402.158	-0.099	-0.205
-182.071	18.523	-0.147	0.115
-181.056	391.705	0.061	-0.125
-180.042	-183.966	0.151	-0.002
-179.027	387.018	-0.016	-0.033
-178.012	-200.000	-0.018	0.344
-176.998	134.772	-0.142	0.180
-175.983	-9.902	0.068	0.045
-174.969	800.000	0.036	-0.112
-173.954	94.329	-0.121	-0.135
-172.939	-54.274	0.214	-0.095
-171.925	-37.788	0.354	-0.185
-170.910	114.899	-0.051	0.061
-169.896	-200.000	-0.002	-0.246
-168.881	28.843	0.068	-0.057
-167.866	-139.060	0.282	-0.030
-166.852	-200.000	-0.023	-0.237
-165.837	800.000	-0.048	0.143
-164.823	274.341	0.074	0.129
-163.808	800.000	0.099	0.287
-162.793	213.608	-0.137	0.212
-161.779	-200.000	-0.034	-0.207
-160.764	-200.000	-0.016	0.149
-159.750	-150.382	-0.531	0.040
-158.735	3.824	0.103	-0.074
-157.720	85.977	0.078	0.084
-156.706	97.610	0.207	-0.234
-155.691	52.618	0.081	0.076
-154.677	37.200	-0.311	0.270
-153.662	176.837	0.106	0.151
-152.647	61.149	-0.198	-0.193
-151.633	43.114	0.115	-0.103
-150.618	41.673	-0.280	-0.249
-149.604	-133.918	-0.262	-0.032
-148.589	330.581	0.122	-0.230
-147.574	86.031	-0.157	-0.169
-146.560	-200.000	0.010	-0.189
-145.545	-111.623	-0.146	0.029
-144.531	147.724	0.233	-0.308
-143.516	-200.000	0.071	-0.493
-142.502	-2.798	0.197	0.135
-141.487	-157.574	-0.045	-0.003
-140.472	-10.948	-0.175	0.113
-139.458	-200.000	-0.035	0.187
-138.443	6.237	0.288	0.209
-137.429	135.129	-0.135	0.171
-136.414	333.584	-0.158	-0.299
-135.399	-111.694	0.128	-0.025
-134.385	-101.388	0.242	-0.058
-133.370	668.056	-0.021	0.053
-132.356	280.445	-0.054	0.094
-131.341	5.758	-0.115	-0.084
-130.326	-19.585	0.162	0.098
-129.312	-10.879	-0.182	-0.118
-128.297	132.928	0.247	0.312
-127.283	-200.000	0.001	0.234
-126.268	89.628	0.339	0.370
-125.253	-142.782	0.341	0.033
-124.239	-173.446	-0.284	-0.008
-123.224	45.109	-0.163	-0.147
-122.210	-68.712	0.272	-0.103
