DTS Sentinel unit serial number:	SN413079Multiplexer serial number:	ORYXHardware model number:	OX4-SRSoftware version number:	ORYX F/W v4.00 Oryx Data Collector v3.7.2.0data status	okinstallation	princeton_trtdifferential loss correction	single-endedforward channel	channel 2reverse channel	N/Adate	2019/09/14time	12:43:34forward acquisition time	60.00reverse acquisition time	0.00gamma	496.2192k internal	0.2306k external	0.2306temperature offset calibration	1.0156default loss term (dB/km)	0.3790temperature slope calibration	1.0000multiplexer offset coefficient	1.0000multiplexer slope coefficient	1.0000fibre end	0.00T internal ref (°C)	37.97T ext. ref 1 (°C)	4.80T ext. ref 2 (°C)	32.77length (m)	temperature (°C)	Stokes	anti-Stokes-747.200	-200.000	-0.026	0.154
-746.185	199.851	0.127	0.199
-745.171	800.000	0.070	0.289
-744.156	-200.000	0.003	-0.205
-743.142	295.279	0.168	-0.312
-742.127	-200.000	0.150	-0.000
-741.112	-200.000	-0.027	-0.153
-740.098	81.128	-0.137	-0.151
-739.083	-54.457	-0.167	0.077
-738.069	-108.291	-0.035	0.008
-737.054	120.422	-0.190	-0.240
-736.039	-81.913	-0.190	-0.063
-735.025	502.783	0.145	0.340
-734.010	-200.000	0.030	-0.206
-732.996	-200.000	-0.017	-0.316
-731.981	-141.787	-0.220	-0.022
-730.966	12.325	0.211	-0.165
-729.952	50.436	-0.076	-0.073
-728.937	80.457	-0.095	0.104
-727.923	255.505	0.011	0.019
-726.908	548.903	0.075	0.183
-725.894	-200.000	-0.096	-0.480
-724.879	-54.884	-0.279	0.128
-723.864	-137.637	-0.381	-0.044
-722.850	418.246	-0.115	-0.250
-721.835	-95.993	-0.242	0.065
-720.821	152.921	-0.086	0.120
-719.806	172.278	-0.137	0.200
-718.791	220.430	0.065	0.105
-717.777	-200.000	0.067	-0.328
-716.762	800.000	0.038	-0.111
-715.748	-88.148	-0.109	0.033
-714.733	286.378	-0.041	0.074
-713.718	-165.741	-0.293	0.013
-712.704	329.768	0.119	-0.232
-711.689	17.130	-0.338	-0.272
-710.675	72.900	0.164	-0.175
-709.660	-67.566	0.280	-0.112
-708.645	-75.014	-0.304	0.111
-707.631	234.294	0.044	0.073
-706.616	-200.000	-0.009	-0.238
-705.602	-200.000	-0.010	0.051
-704.587	800.000	-0.060	0.222
-703.572	-79.925	-0.135	-0.046
-702.558	91.124	-0.318	-0.362
-701.543	-200.000	0.035	-0.185
-700.529	-119.687	0.112	-0.020
-699.514	-89.140	-0.287	-0.086
-698.499	-142.430	-0.142	-0.014
-697.485	184.062	0.133	0.200
-696.470	-110.607	-0.137	0.029
-695.456	-17.603	0.088	-0.056
-694.441	36.315	-0.104	-0.093
-693.426	64.524	-0.209	-0.214
-692.412	-200.000	-0.026	0.158
-691.397	192.695	0.091	0.139
-690.383	-79.281	-0.175	-0.060
-689.368	56.546	0.242	0.239
-688.354	-34.071	-0.501	0.279
-687.339	23.649	0.148	-0.123
-686.324	-91.222	0.153	-0.044
-685.310	-142.691	0.332	0.033
-684.295	-47.649	-0.337	-0.166
-683.281	-61.693	-0.312	0.133
-682.266	351.529	0.095	-0.190
-681.251	-32.976	0.121	-0.068
-680.237	-144.701	0.231	-0.022
-679.222	-116.336	-0.128	-0.024
-678.208	94.961	-0.161	0.186
-677.193	-71.890	0.211	0.080
-676.178	-13.404	0.205	-0.135
-675.164	-151.351	-0.390	0.029
-674.149	-97.207	-0.263	-0.070
-673.135	-200.000	-0.017	0.316
-672.120	-48.930	0.103	-0.050
-671.105	-155.336	-0.377	0.025
-670.091	479.364	-0.033	-0.077
-669.076	-200.000	-0.046	-0.219
-668.062	150.990	-0.116	0.160
-667.047	-200.000	0.021	-0.237
-666.032	-200.000	0.010	-0.467
-665.018	-121.680	-0.255	-0.043
-664.003	34.705	-0.052	-0.046
-662.989	23.396	0.289	-0.241
-661.974	701.645	-0.127	-0.340
-660.959	-200.000	0.001	-0.162
-659.945	-108.212	0.124	-0.027
-658.930	-11.578	-0.160	0.107
-657.916	-35.661	-0.198	-0.109
-656.901	800.000	0.120	0.345
-655.886	-39.236	-0.237	0.126
-654.872	-6.503	-0.298	-0.206
-653.857	-47.068	-0.025	0.012
-652.843	800.000	-0.105	0.376
-651.828	-19.307	0.356	-0.224
-650.814	-22.242	0.227	0.140
-649.799	-65.760	0.238	0.097
-648.784	-200.000	0.006	-0.203
-647.770	-200.000	-0.029	-0.237
-646.755	-64.951	-0.102	-0.042
-645.741	-125.904	0.394	-0.060
-644.726	-21.588	-0.170	0.105
-643.711	398.751	0.115	-0.243
-642.697	-200.000	0.023	-0.244
-641.682	21.962	-0.042	0.035
-640.668	-71.806	0.097	0.037
-639.653	243.922	0.145	-0.246
-638.638	-200.000	-0.051	-0.308
-637.624	1.136	-0.084	0.061
-636.609	-200.000	-0.012	-0.191
-635.595	152.834	0.072	-0.100
-634.580	-114.279	0.135	-0.026
-633.565	368.031	0.071	0.145
-632.551	-145.131	-0.099	0.009
-631.536	392.062	0.075	-0.158
-630.522	-200.000	0.013	0.119
-629.507	152.878	0.147	-0.204
-628.492	315.289	-0.057	0.109
-627.478	111.293	-0.061	-0.074
-626.463	120.604	0.131	-0.165
-625.449	800.000	0.034	-0.098
-624.434	23.250	0.139	0.115
-623.419	139.477	0.079	0.105
-622.405	417.108	0.048	0.105
-621.390	-102.851	-0.070	0.017
-620.376	-0.994	-0.109	-0.078
-619.361	-41.122	0.025	0.013
-618.346	-74.575	0.407	0.148
-617.332	-18.122	-0.372	0.236
-616.317	202.508	-0.033	0.051
-615.303	160.925	0.079	0.111
-614.288	-123.298	-0.242	-0.039
-613.273	282.590	-0.075	-0.136
-612.259	-81.663	-0.243	-0.081
-611.244	4.525	0.158	-0.118
-610.230	-142.464	0.245	0.024
-609.215	-91.561	-0.277	0.080
-608.201	-200.000	-0.321	0.000
-607.186	83.822	-0.146	0.162
-606.171	-200.000	-0.026	-0.279
-605.157	800.000	-0.018	0.051
-604.142	5.094	-0.063	-0.047
-603.128	800.000	0.090	-0.319
-602.113	92.280	0.246	-0.280
-601.098	98.918	-0.112	-0.130
-600.084	239.158	-0.131	-0.220
-599.069	-200.000	0.001	-0.008
-598.055	449.760	0.097	0.217
-597.040	360.229	-0.046	0.093
-596.025	-144.619	-0.260	-0.024
-595.011	355.458	0.065	0.132
-593.996	-66.704	-0.062	-0.025
-592.982	358.994	0.063	-0.128
-591.967	105.973	-0.035	-0.042
-590.952	89.058	-0.159	0.179
-589.938	-79.332	0.195	0.067
-588.923	-127.474	0.319	-0.047
-587.909	-97.844	-0.142	0.037
-586.894	-194.051	-0.252	0.002
-585.879	183.496	0.128	0.191
-584.865	-200.000	0.024	-0.315
-583.850	-0.132	-0.162	0.117
-582.836	-10.414	-0.293	-0.196
-581.821	-200.000	-0.009	-0.119
-580.806	-94.371	-0.337	-0.093
-579.792	328.272	-0.047	0.091
-578.777	736.932	-0.030	-0.082
-577.763	-37.253	0.210	-0.114
-576.748	15.676	0.280	-0.222
-575.733	-200.000	0.102	0.489
-574.719	-84.521	-0.328	-0.105
-573.704	422.428	-0.095	-0.206
-572.690	32.988	-0.262	-0.229
-571.675	-59.445	-0.216	-0.094
-570.661	-200.000	0.042	-0.187
-569.646	-200.000	0.079	0.514
-568.631	554.841	-0.113	0.274
-567.617	-85.845	-0.091	-0.028
-566.602	-200.000	0.023	-0.148
-565.588	-21.082	-0.225	0.139
-564.573	-200.000	-0.026	0.182
-563.558	-22.051	-0.354	0.217
-562.544	-95.798	0.081	0.022
-561.529	120.925	-0.008	-0.010
-560.515	584.710	-0.031	-0.078
-559.500	-200.000	-0.053	-0.253
-558.485	-22.867	0.258	0.158
-557.471	-200.000	-0.009	0.306
-556.456	-200.000	0.027	0.144
-555.442	-200.000	0.028	0.373
-554.427	800.000	-0.085	-0.277
-553.412	-98.234	-0.185	0.048
-552.398	115.556	0.047	-0.059
-551.383	-20.628	-0.135	0.084
-550.369	400.803	0.028	-0.059
-549.354	-200.000	-0.020	0.261
-548.339	-200.000	0.008	0.130
-547.325	344.066	0.032	-0.064
-546.310	-174.671	-0.275	0.008
-545.296	-200.000	0.055	0.375
-544.281	18.416	-0.420	0.339
-543.266	-200.000	-0.020	-0.104
-542.252	253.114	-0.151	-0.260
-541.237	85.588	-0.142	-0.157
-540.223	-111.964	-0.030	-0.006
-539.208	96.518	0.107	0.123
-538.193	-200.000	0.002	-0.068
-537.179	-200.000	0.040	-0.331
-536.164	-200.000	0.007	-0.130
-535.150	-200.000	-0.068	-0.323
-534.135	499.807	0.069	0.160
-533.121	-36.820	0.122	0.066
-532.106	-200.000	-0.010	-0.203
-531.091	-51.846	0.321	0.151
-530.077	-129.917	-0.342	-0.047
-529.062	-21.917	-0.370	-0.227
-528.048	-8.558	-0.179	-0.121
-527.033	267.001	-0.131	0.230
-526.018	-107.110	0.061	0.014
-525.004	-113.958	0.178	0.035
-523.989	118.699	0.107	0.133
-522.975	-108.708	0.273	0.059
-521.960	88.155	0.271	-0.303
-520.945	-26.813	-0.162	-0.095
-519.931	305.487	0.112	0.209
-518.916	-15.797	-0.042	-0.027
-517.902	29.021	0.309	-0.264
-516.887	165.587	0.123	-0.175
-515.872	-200.000	-0.001	0.140
-514.858	-200.000	-0.009	0.176
-513.843	-200.000	-0.014	-0.092
-512.829	465.603	-0.025	-0.057
-511.814	-200.000	0.049	-0.390
-510.799	141.042	0.162	-0.216
-509.785	254.435	0.102	0.176
-508.770	100.805	-0.141	0.165
-507.756	-200.000	0.013	0.082
-506.741	167.838	0.064	0.092
-505.726	-96.924	-0.058	0.015
-504.712	-75.458	-0.260	-0.093
-503.697	-37.788	0.132	-0.071
-502.683	800.000	0.108	0.341
-501.668	37.717	-0.193	-0.172
-500.653	-26.668	0.101	-0.060
-499.639	56.134	-0.100	-0.097
-498.624	-79.663	0.285	0.097
-497.610	-200.000	-0.010	0.177
-496.595	361.332	-0.045	-0.091
-495.581	-130.339	-0.422	0.058
-494.566	51.522	-0.073	-0.070
-493.551	-102.601	0.200	-0.048
-492.537	-97.643	-0.179	-0.047
-491.522	1.536	-0.096	0.070
-490.508	317.144	-0.104	0.197
-489.493	800.000	0.043	0.140
-488.478	-200.000	0.020	-0.116
-487.464	-200.000	-0.013	-0.121
-486.449	125.085	0.115	0.146
-485.435	91.707	0.106	-0.120
-484.420	5.573	0.063	-0.047
-483.405	103.900	-0.286	-0.338
-482.391	-64.944	-0.290	0.118
-481.376	93.628	0.168	0.192
-480.362	-119.387	0.281	-0.049
-479.347	488.881	-0.073	-0.168
-478.332	-80.739	0.227	0.076
-477.318	-25.792	0.193	-0.115
-476.303	-67.409	0.161	0.064
-475.289	-200.000	0.069	0.732
-474.274	-114.381	0.092	0.018
-473.259	104.601	0.056	0.067
-472.245	-112.120	-0.361	-0.073
-471.230	696.034	0.083	-0.219
-470.216	-25.405	0.184	-0.109
-469.201	-200.000	-0.072	0.405
-468.186	-110.172	-0.180	-0.038
-467.172	227.621	0.051	0.083
-466.157	-51.242	-0.268	0.126
-465.143	-114.614	-0.166	-0.032
-464.128	131.725	0.127	0.164
-463.113	-158.568	0.174	0.010
-462.099	-50.133	-0.192	0.091
-461.084	-161.935	-0.069	-0.004
-460.070	-12.583	0.361	-0.237
-459.055	82.782	-0.124	-0.136
-458.040	6.339	-0.286	-0.214
-457.026	800.000	0.034	0.123
-456.011	-156.034	-0.408	-0.026
-454.997	-129.459	0.214	0.030
-453.982	-200.000	0.036	-0.354
-452.968	800.000	-0.077	-0.240
-451.953	800.000	0.066	0.266
-450.938	439.065	0.111	0.244
-449.924	-200.000	-0.027	0.136
-448.909	-134.383	-0.169	-0.021
-447.895	108.267	-0.132	0.159
-446.880	782.700	0.013	-0.036
-445.865	-114.981	-0.120	-0.023
-444.851	-80.000	-0.193	0.065
-443.836	800.000	-0.068	-0.297
-442.822	216.789	0.098	0.158
-441.807	577.408	0.093	0.227
-440.792	78.897	-0.321	-0.345
-439.778	-200.000	-0.013	0.133
-438.763	-200.000	0.029	0.154
-437.749	800.000	0.069	0.250
-436.734	-95.014	-0.306	0.083
-435.719	-24.311	-0.095	0.057
-434.705	322.113	-0.145	0.277
-433.690	243.101	0.041	0.070
-432.676	75.698	0.105	-0.112
-431.661	-72.012	0.096	0.036
-430.646	-86.966	0.214	0.065
-429.632	-73.979	0.266	0.097
-428.617	-124.968	0.194	-0.030
-427.603	800.000	-0.016	-0.044
-426.588	729.441	0.046	0.124
-425.573	-200.000	0.068	-0.392
-424.559	-200.000	-0.009	-0.226
-423.544	-200.000	0.025	-0.178
-422.530	72.854	-0.201	-0.210
-421.515	-145.740	-0.233	0.021
-420.500	68.241	0.222	0.229
-419.486	164.293	-0.087	-0.123
-418.471	-178.522	0.318	-0.007
-417.457	210.397	-0.030	-0.047
-416.442	180.276	-0.039	-0.058
-415.428	49.707	0.178	0.168
-414.413	-185.446	0.485	0.007
-413.398	226.649	0.065	-0.106
-412.384	800.000	-0.015	0.046
-411.369	-52.744	0.425	-0.197
-410.355	-200.000	-0.006	0.138
-409.340	757.168	0.069	-0.188
-408.325	47.546	-0.146	-0.136
-407.311	-56.271	0.316	0.141
-406.296	628.926	0.034	-0.087
-405.282	-47.715	-0.209	0.102
-404.267	716.409	0.044	-0.117
-403.252	-200.000	-0.028	-0.161
-402.238	-91.539	0.278	-0.079
-401.223	-22.801	0.084	-0.051
-400.209	-200.000	0.044	-0.242
-399.194	-56.079	0.259	0.116
-398.179	11.842	-0.182	-0.140
-397.165	-74.710	-0.221	0.080
-396.150	-75.954	0.069	-0.025
-395.136	-78.722	0.203	-0.069
-394.121	-200.000	-0.036	-0.247
-393.106	800.000	-0.096	0.353
-392.092	-58.771	0.210	-0.091
-391.077	36.044	-0.253	0.223
-390.063	-46.428	0.187	-0.092
-389.048	314.171	-0.071	-0.134
-388.033	-200.000	0.035	0.290
-387.019	-87.342	0.132	0.040
-386.004	-200.000	-0.037	-0.178
-384.990	67.605	-0.228	-0.234
-383.975	-200.000	-0.061	0.294
-382.960	800.000	0.059	0.225
-381.946	656.231	0.024	-0.061
-380.931	-5.668	-0.229	0.157
-379.917	-69.194	-0.145	-0.056
-378.902	176.193	0.090	-0.132
-377.888	582.048	-0.113	0.277
-376.873	-93.317	0.159	-0.044
-375.858	582.711	-0.087	-0.213
-374.844	-53.731	0.238	-0.109
-373.829	211.223	0.216	-0.341
-372.815	175.355	-0.168	-0.244
-371.800	-101.388	-0.175	0.043
-370.785	-200.000	0.014	-0.163
-369.771	-192.731	0.400	-0.004
-368.756	168.243	-0.093	0.133
-367.742	186.614	-0.054	-0.080
-366.727	800.000	-0.008	-0.028
-365.712	-148.339	-0.410	-0.034
-364.698	-170.313	-0.510	-0.018
-363.683	-132.447	-0.094	-0.012
-362.669	-120.643	0.158	-0.027
-361.654	-10.653	-0.157	0.104
-360.639	-111.766	-0.206	0.042
-359.625	-200.000	-0.015	0.194
-358.610	165.116	0.093	0.132
-357.596	150.565	0.063	0.085
-356.581	-200.000	-0.059	0.267
-355.566	-200.000	0.013	0.236
-354.552	31.592	0.176	-0.152
-353.537	-200.000	-0.048	-0.292
-352.523	-0.253	-0.253	-0.180
-351.508	800.000	0.118	-0.482
-350.493	140.874	0.078	-0.103
-349.479	-96.432	0.316	-0.084
-348.464	-56.563	0.231	-0.103
-347.450	-200.000	-0.023	-0.190
-346.435	-200.000	-0.020	0.479
-345.420	404.969	-0.109	-0.231
-344.406	-7.555	-0.112	0.076
-343.391	-107.660	-0.256	-0.056
-342.377	-111.615	0.202	-0.041
-341.362	-118.922	-0.226	-0.040
-340.348	-37.539	0.179	0.096
-339.333	56.796	-0.270	0.264
-338.318	60.407	-0.167	-0.166
-337.304	-39.486	-0.273	0.143
-336.289	800.000	-0.026	0.078
-335.275	-108.901	-0.143	0.031
-334.260	-200.000	-0.037	0.289
-333.245	-179.487	-0.204	0.004
-332.231	800.000	0.085	-0.239
-331.216	-74.895	0.046	0.016
-330.202	186.387	-0.149	0.222
-329.187	134.068	-0.247	0.321
-328.172	11.566	-0.030	0.023
-327.158	130.053	-0.165	-0.212
-326.143	52.008	0.266	-0.254
-325.129	291.232	0.190	0.347
-324.114	15.195	-0.186	0.146
-323.099	75.070	-0.161	-0.170
-322.085	-43.377	-0.056	-0.028
-321.070	104.485	0.243	0.286
-320.056	178.847	0.146	0.213
-319.041	36.248	-0.136	-0.120
-318.026	85.296	-0.202	-0.222
-317.012	223.755	0.070	-0.113
-315.997	-29.610	0.126	0.072
-314.983	-200.000	-0.008	0.143
-313.968	-132.540	-0.157	-0.020
-312.953	-185.635	-0.057	-0.001
-311.939	-107.941	-0.399	0.087
-310.924	140.948	-0.101	0.134
-309.910	-92.354	-0.099	0.028
-308.895	46.107	0.066	0.061
-307.880	-52.432	0.150	-0.069
-306.866	-200.000	0.009	-0.138
-305.851	-200.000	-0.016	-0.151
-304.837	-136.883	-0.209	0.024
-303.822	-118.419	0.049	-0.009
-302.807	-9.288	0.160	0.107
-301.793	410.326	0.183	0.388
-300.778	-7.950	0.070	0.047
-299.764	56.199	-0.287	-0.279
-298.749	380.753	0.064	-0.132
-297.735	-200.000	0.044	-0.384
-296.720	396.095	0.012	-0.026
-295.705	-200.000	0.032	-0.152
-294.691	800.000	0.106	0.327
-293.676	-128.634	0.100	0.014
-292.662	381.473	-0.135	0.277
-291.647	14.816	0.110	-0.086
-290.632	-60.097	-0.117	-0.050
-289.618	-101.796	0.361	0.087
-288.603	-42.491	0.169	0.086
-287.589	-200.000	0.051	-0.252
-286.574	41.972	0.103	0.093
-285.559	335.111	0.097	-0.188
-284.545	-42.511	-0.146	-0.074
-283.530	138.825	-0.089	0.117
-282.516	294.007	0.088	0.160
-281.501	78.361	0.195	-0.209
-280.486	263.660	-0.152	0.264
-279.472	-200.000	-0.047	-0.284
-278.457	-51.657	0.401	0.187
-277.443	-200.000	0.031	-0.166
-276.428	-41.629	-0.335	0.172
-275.413	-114.098	0.171	0.033
-274.399	381.393	-0.128	0.262
-273.384	51.204	-0.182	-0.172
-272.370	75.655	0.160	0.169
-271.355	-119.666	0.172	0.030
-270.340	-18.921	0.390	-0.242
-269.326	-144.111	0.274	0.026
-268.311	287.390	0.147	-0.266
-267.297	250.679	0.076	-0.130
-266.282	-50.891	0.148	-0.069
-265.267	-136.379	-0.205	0.024
-264.253	800.000	0.078	0.244
-263.238	95.628	-0.057	0.065
-262.224	-200.000	0.121	0.623
-261.209	345.800	0.028	0.054
-260.195	99.731	0.232	0.268
-259.180	147.342	0.311	-0.419
-258.165	480.479	0.023	0.052
-257.151	187.714	0.147	0.219
-256.136	26.928	-0.110	0.092
-255.122	800.000	-0.035	0.125
-254.107	800.000	-0.030	0.087
-253.092	-119.859	0.271	-0.047
-252.078	343.959	0.089	-0.174
-251.063	287.422	0.046	0.082
-250.049	112.330	0.120	0.145
-249.034	763.768	-0.079	-0.213
-248.019	136.219	-0.019	0.024
-247.005	-39.522	0.061	-0.032
-245.990	234.230	-0.116	0.190
-244.976	-63.799	0.199	0.081
-243.961	64.493	-0.294	0.295
-242.946	17.838	0.233	-0.185
-241.932	-200.000	-0.001	0.016
-240.917	15.143	-0.236	-0.185
-239.903	798.667	0.072	-0.198
-238.888	2.102	-0.200	0.144
-237.873	-200.000	0.034	0.460
-236.859	28.823	-0.171	0.144
-235.844	-36.009	-0.023	-0.013
-234.830	-11.767	-0.051	0.033
-233.815	-90.927	-0.136	0.039
-232.800	-102.216	0.240	-0.058
-231.786	-166.040	0.210	0.009
-230.771	-71.027	0.220	-0.083
-229.757	13.965	0.095	0.074
-228.742	81.738	0.033	0.036
-227.727	182.739	0.198	-0.291
-226.713	81.343	-0.220	-0.237
-225.698	-200.000	0.029	0.179
-224.684	79.957	-0.235	0.252
-223.669	-141.705	0.036	0.004
-222.655	-2.770	-0.281	-0.196
-221.640	-11.346	-0.114	0.075
-220.625	800.000	-0.049	0.162
-219.611	170.075	0.226	-0.323
-218.596	-200.000	0.002	0.216
-217.582	-80.105	-0.136	-0.045
-216.567	-122.322	0.292	-0.048
-215.552	-161.829	0.093	-0.005
-214.538	-146.609	0.105	-0.009
-213.523	-143.170	-0.136	0.013
-212.509	-22.166	-0.172	0.104
-211.494	103.763	0.136	0.159
-210.479	623.358	-0.100	-0.250
-209.465	-95.800	-0.256	-0.068
-208.450	-11.956	-0.191	0.125
-207.436	-24.961	0.339	-0.200
-206.421	-200.000	0.001	0.150
-205.406	800.000	0.089	0.288
-204.392	62.912	-0.094	-0.093
-203.377	144.628	-0.147	0.195
-202.363	-200.000	0.026	-0.161
-201.348	-118.837	-0.141	-0.025
-200.333	800.000	-0.035	0.148
-199.319	130.033	0.163	-0.207
-198.304	95.102	0.127	0.144
-197.290	-2.923	0.254	-0.177
-196.275	-96.781	-0.261	-0.068
-195.260	-124.396	0.148	-0.023
-194.246	34.267	0.182	-0.158
-193.231	-79.901	-0.186	-0.062
-192.217	49.908	-0.250	0.234
-191.202	-50.281	-0.093	0.044
-190.187	-21.956	0.115	0.070
-189.173	800.000	-0.073	-0.209
-188.158	-95.463	-0.076	0.020
-187.144	800.000	0.045	0.165
-186.129	135.959	0.229	0.297
-185.114	-200.000	-0.031	-0.215
-184.100	-200.000	0.001	-0.085
-183.085	-62.900	-0.367	-0.151
-182.071	526.359	-0.052	-0.121
-181.056	-155.909	-0.061	0.004
-180.042	-117.576	0.393	-0.071
-179.027	-7.860	-0.327	-0.220
-178.012	-200.000	-0.033	0.314
-176.998	800.000	0.069	-0.200
-175.983	-200.000	-0.010	-0.357
-174.969	9.922	-0.215	-0.162
-173.954	-102.051	-0.193	-0.046
-172.939	-196.284	0.212	-0.001
-171.925	-33.186	-0.223	0.123
-170.910	271.507	0.120	0.211
-169.896	-200.000	0.029	-0.160
-168.881	-200.000	-0.003	-0.329
-167.866	21.431	-0.146	-0.118
-166.852	189.719	0.185	0.276
-165.837	21.388	0.367	0.297
-164.823	25.217	-0.184	0.152
-163.808	34.393	0.165	0.144
-162.793	-97.329	-0.036	-0.009
-161.779	77.178	-0.121	0.128
-160.764	-44.986	0.233	-0.115
-159.750	-108.809	0.243	-0.052
-158.735	-200.000	0.406	-0.001
-157.720	-87.568	0.107	0.032
-156.706	41.398	0.228	0.205
-155.691	800.000	-0.038	0.137
-154.677	574.878	-0.108	0.262
-153.662	-19.851	-0.071	-0.044
-152.647	111.559	0.116	0.139
-151.633	-51.104	0.121	-0.056
-150.618	10.237	0.093	0.071
-149.604	-200.000	-0.020	-0.279
-148.589	444.257	0.021	0.046
-147.574	25.806	-0.107	0.088
-146.560	244.283	-0.061	-0.102
-145.545	145.373	-0.276	0.367
-144.531	-200.000	-0.021	-0.280
-143.516	31.850	0.416	-0.356
-142.502	-200.000	0.044	-0.261
-141.487	280.760	0.138	-0.246
-140.472	-200.000	0.024	-0.149
-139.458	79.398	-0.114	0.122
-138.443	109.967	0.317	0.377
-137.429	292.120	0.018	0.032
-136.414	-119.911	0.415	0.071
-135.399	-46.422	0.162	0.079
-134.385	661.592	0.130	-0.334
-133.370	-55.114	0.122	-0.055
-132.356	98.214	-0.231	-0.264
-131.341	204.369	-0.112	-0.173
-130.326	-150.285	0.131	-0.010
-129.312	-106.219	0.080	0.018
-128.297	-56.687	0.218	0.096
-127.283	-200.000	-0.020	-0.317
-126.268	199.663	-0.141	-0.215
-125.253	-129.841	-0.156	0.021
-124.239	-99.949	-0.148	-0.037
-123.224	-172.273	0.031	0.001
-122.210	463.031	0.051	-0.114
