DTS Sentinel unit serial number:	SN413079Multiplexer serial number:	ORYXHardware model number:	OX4-SRSoftware version number:	ORYX F/W v4.00 Oryx Data Collector v3.7.2.0data status	okinstallation	princeton_trtdifferential loss correction	single-endedforward channel	channel 2reverse channel	N/Adate	2019/09/18time	11:11:34forward acquisition time	60.00reverse acquisition time	0.00gamma	496.2192k internal	0.2328k external	0.2328temperature offset calibration	0.9983default loss term (dB/km)	0.3790temperature slope calibration	1.0000multiplexer offset coefficient	1.0000multiplexer slope coefficient	1.0000fibre end	0.00T internal ref (°C)	29.67T ext. ref 1 (°C)	0.40T ext. ref 2 (°C)	26.48length (m)	temperature (°C)	Stokes	anti-Stokes-747.200	70.962	0.079	-0.083
-746.185	-107.052	-0.183	0.041
-745.171	800.000	0.079	0.265
-744.156	-101.567	0.173	0.042
-743.142	132.637	-0.081	0.105
-742.127	800.000	0.105	0.365
-741.112	800.000	0.080	-0.269
-740.098	-138.649	0.085	-0.009
-739.083	-27.927	-0.405	-0.236
-738.069	110.600	0.084	0.102
-737.054	-200.000	-0.020	-0.202
-736.039	-200.000	-0.017	0.149
-735.025	-78.902	0.166	0.057
-734.010	63.252	0.080	0.081
-732.996	88.662	-0.112	0.125
-731.981	-58.060	-0.131	0.058
-730.966	426.236	0.100	0.217
-729.952	57.118	-0.171	-0.168
-728.937	-200.000	0.008	0.129
-727.923	800.000	-0.029	-0.102
-726.908	-40.350	-0.507	-0.266
-725.894	-200.000	-0.043	-0.315
-724.879	128.159	0.111	-0.142
-723.864	-30.017	-0.462	0.265
-722.850	-200.000	-0.005	-0.028
-721.835	-77.173	-0.133	0.047
-720.821	11.049	0.062	0.048
-719.806	-200.000	0.022	0.109
-718.791	695.133	0.180	-0.476
-717.777	-140.188	-0.213	0.023
-716.762	-71.137	-0.300	0.113
-715.748	339.160	-0.056	-0.111
-714.733	800.000	0.101	-0.343
-713.718	75.252	-0.110	-0.117
-712.704	-8.255	-0.236	0.160
-711.689	-82.534	0.223	-0.073
-710.675	21.325	-0.351	-0.287
-709.660	-200.000	0.014	0.226
-708.645	479.830	-0.011	-0.025
-707.631	-109.239	-0.101	-0.022
-706.616	483.329	0.102	-0.233
-705.602	-89.562	0.057	-0.017
-704.587	-200.000	-0.046	-0.297
-703.572	-135.349	0.229	0.028
-702.558	201.097	0.091	-0.141
-701.543	-200.000	-0.066	0.385
-700.529	-45.519	-0.146	0.073
-699.514	-35.516	0.209	-0.114
-698.499	159.438	-0.127	-0.178
-697.485	-200.000	0.001	0.204
-696.470	-200.000	-0.024	0.141
-695.456	-41.104	-0.209	-0.109
-694.441	-200.000	0.001	-0.269
-693.426	-11.798	-0.103	-0.068
-692.412	-126.124	0.353	-0.053
-691.397	-200.000	-0.006	0.116
-690.383	-45.873	-0.029	-0.014
-689.368	-11.300	0.361	-0.239
-688.354	73.467	-0.175	0.184
-687.339	181.191	-0.238	-0.352
-686.324	545.111	0.177	-0.426
-685.310	64.223	-0.227	-0.230
-684.295	-149.188	-0.106	0.009
-683.281	800.000	-0.082	-0.341
-682.266	36.286	0.141	0.125
-681.251	-55.526	-0.087	0.039
-680.237	570.999	0.110	0.270
-679.222	-60.700	-0.097	-0.041
-678.208	-55.832	-0.242	-0.109
-677.193	-200.000	0.022	0.387
-676.178	-40.938	-0.082	0.042
-675.164	-200.000	-0.011	-0.355
-674.149	233.716	-0.085	-0.141
-673.135	-200.000	-0.000	0.057
-672.120	222.150	0.105	0.169
-671.105	-200.000	0.088	0.424
-670.091	-200.000	-0.013	0.116
-669.076	-200.000	0.006	0.373
-668.062	800.000	0.031	-0.127
-667.047	-128.581	-0.072	0.010
-666.032	132.220	-0.171	0.221
-665.018	-60.650	0.338	0.144
-664.003	86.559	0.056	0.062
-662.989	-85.453	-0.119	0.037
-661.974	261.022	0.019	0.033
-660.959	-44.420	-0.358	0.180
-659.945	-200.000	0.010	-0.079
-658.930	110.585	0.107	0.129
-657.916	-131.287	-0.360	0.048
-656.901	-200.000	0.051	0.256
-655.886	-78.255	-0.446	-0.154
-654.872	172.759	0.172	0.249
-653.857	-193.806	0.271	-0.002
-652.843	-200.000	0.028	-0.198
-651.828	-102.459	0.245	0.059
-650.814	190.436	-0.043	-0.065
-649.799	-200.000	0.020	0.131
-648.784	-65.062	-0.115	0.047
-647.770	-200.000	-0.011	-0.086
-646.755	-200.000	-0.037	-0.308
-645.741	-84.090	0.078	0.025
-644.726	279.206	0.174	-0.311
-643.711	-50.861	0.010	0.005
-642.697	-165.463	-0.142	0.006
-641.682	-144.957	-0.299	0.027
-640.668	-165.869	0.324	0.014
-639.653	100.641	-0.066	0.077
-638.638	800.000	-0.008	-0.030
-637.624	325.864	0.230	0.441
-636.609	-200.000	0.013	0.300
-635.595	-74.864	-0.323	0.116
-634.580	-200.000	0.001	-0.084
-633.565	-94.249	0.203	0.056
-632.551	-93.182	0.110	-0.031
-631.536	800.000	-0.004	0.014
-630.522	228.106	0.047	0.077
-629.507	-9.997	0.385	-0.257
-628.492	80.362	0.086	-0.093
-627.478	-50.611	-0.259	0.123
-626.463	50.806	-0.167	0.159
-625.449	-193.290	0.193	-0.002
-624.434	-152.818	-0.211	0.015
-623.419	-82.251	-0.251	-0.082
-622.405	-149.059	0.158	-0.013
-621.390	-152.132	0.138	0.010
-620.376	800.000	-0.050	0.140
-619.361	-200.000	0.025	0.122
-618.346	89.127	-0.239	-0.267
-617.332	-75.280	-0.183	-0.066
-616.317	-200.000	0.015	0.192
-615.303	800.000	0.051	-0.194
-614.288	268.633	0.118	-0.207
-613.273	218.507	0.208	-0.334
-612.259	272.841	0.096	-0.170
-611.244	325.621	-0.029	0.056
-610.230	213.684	-0.051	0.080
-609.215	-200.000	-0.037	0.175
-608.201	110.422	-0.151	-0.182
-607.186	-157.488	0.238	-0.014
-606.171	-73.079	0.176	0.065
-605.157	800.000	0.025	0.096
-604.142	-74.467	-0.202	-0.073
-603.128	-4.699	0.024	0.017
-602.113	-36.972	0.397	-0.213
-601.098	630.036	-0.071	0.181
-600.084	65.576	0.133	-0.135
-599.069	64.136	-0.217	0.219
-598.055	298.123	0.091	0.168
-597.040	-35.004	-0.017	0.009
-596.025	196.348	0.060	0.092
-595.011	-200.000	-0.010	0.087
-593.996	-30.652	0.130	0.074
-592.982	81.877	-0.250	-0.271
-591.967	-16.780	0.122	0.077
-590.952	-200.000	0.009	-0.065
-589.938	398.797	0.085	0.178
-588.923	-200.000	-0.046	0.208
-587.909	267.196	-0.194	-0.339
-586.894	-200.000	-0.012	0.280
-585.879	-200.000	-0.029	0.259
-584.865	-200.000	0.038	-0.307
-583.850	-99.314	-0.066	0.017
-582.836	800.000	-0.009	-0.032
-581.821	800.000	-0.061	0.219
-580.806	-72.151	-0.106	0.040
-579.792	67.387	-0.215	-0.219
-578.777	-200.000	-0.018	-0.169
-577.763	-42.333	0.241	-0.123
-576.748	-200.000	0.048	0.267
-575.733	389.196	0.075	-0.156
-574.719	-69.201	0.202	-0.078
-573.704	-200.000	0.051	-0.238
-572.690	62.142	0.123	0.123
-571.675	208.705	0.096	0.151
-570.661	-43.430	0.169	-0.085
-569.646	326.029	0.107	-0.204
-568.631	461.711	-0.100	0.224
-567.617	159.648	0.178	-0.247
-566.602	169.794	0.076	-0.109
-565.588	798.847	-0.053	0.147
-564.573	70.955	0.197	0.204
-563.558	-52.508	0.291	0.135
-562.544	560.090	-0.083	-0.200
-561.529	-200.000	-0.001	0.308
-560.515	-200.000	0.038	0.224
-559.500	71.426	-0.279	0.290
-558.485	-157.723	0.260	0.016
-557.471	16.950	0.078	0.062
-556.456	-40.215	0.187	0.097
-555.442	111.291	0.160	0.192
-554.427	-108.061	0.033	0.007
-553.412	239.435	-0.090	0.150
-552.398	335.044	-0.104	-0.201
-551.383	-48.019	0.189	0.091
-550.369	-99.557	0.366	0.092
-549.354	109.916	-0.173	0.207
-548.339	568.825	-0.062	-0.150
-547.325	150.950	0.200	-0.272
-546.310	-126.534	0.121	-0.018
-545.296	-20.539	-0.292	-0.179
-544.281	77.346	0.121	0.129
-543.266	72.426	-0.335	0.350
-542.252	-86.101	0.144	0.045
-541.237	-45.782	0.557	-0.275
-540.223	271.222	-0.193	-0.341
-539.208	170.452	0.063	0.090
-538.193	30.937	0.226	0.193
-537.179	-80.706	0.097	-0.032
-536.164	114.546	-0.120	-0.146
-535.150	-83.536	-0.210	0.067
-534.135	-65.946	-0.160	-0.064
-533.121	-166.378	-0.283	0.012
-532.106	-200.000	-0.009	-0.119
-531.091	-16.942	-0.149	-0.094
-530.077	-151.004	0.092	0.007
-529.062	800.000	0.038	0.124
-528.048	-110.324	-0.075	-0.016
-527.033	-95.057	-0.137	-0.037
-526.018	-200.000	-0.014	-0.064
-525.004	-200.000	-0.010	0.050
-523.989	-73.450	-0.205	-0.075
-522.975	-200.000	-0.017	0.082
-521.960	800.000	0.062	-0.212
-520.945	-200.000	-0.073	-0.418
-519.931	9.744	0.218	-0.165
-518.916	-200.000	-0.028	-0.189
-517.902	-15.514	-0.327	0.209
-516.887	-200.000	-0.053	-0.383
-515.872	800.000	-0.077	-0.236
-514.858	73.076	0.207	-0.216
-513.843	37.375	-0.182	-0.161
-512.829	63.311	-0.288	-0.289
-511.814	191.960	-0.053	-0.080
-510.799	612.198	-0.064	0.160
-509.785	-200.000	-0.039	-0.232
-508.770	456.932	0.043	-0.095
-507.756	800.000	-0.081	-0.272
-506.741	275.971	-0.150	0.265
-505.726	-1.490	-0.243	0.171
-504.712	800.000	-0.021	0.068
-503.697	10.454	0.344	0.262
-502.683	-6.642	-0.116	0.079
-501.668	-139.970	0.060	0.006
-500.653	163.346	0.212	0.297
-499.639	70.354	-0.118	-0.122
-498.624	-109.428	-0.180	-0.038
-497.610	-71.494	0.252	0.094
-496.595	-200.000	0.063	-0.487
-495.581	128.655	-0.065	-0.083
-494.566	145.542	0.212	-0.284
-493.551	-107.423	-0.231	-0.051
-492.537	-122.835	-0.178	0.029
-491.522	-140.440	0.501	-0.052
-490.508	774.716	-0.115	0.312
-489.493	800.000	0.016	-0.064
-488.478	351.914	-0.061	0.120
-487.464	800.000	-0.034	-0.139
-486.449	98.168	-0.140	0.161
-485.435	-46.644	-0.283	-0.138
-484.420	-89.034	0.063	-0.019
-483.405	125.488	-0.203	0.255
-482.391	-200.000	-0.171	0.000
-481.376	-70.095	0.096	-0.036
-480.362	26.406	0.150	0.125
-479.347	124.011	-0.036	0.045
-478.332	-200.000	-0.019	-0.195
-477.318	5.498	0.230	-0.169
-476.303	800.000	0.004	0.012
-475.289	-157.551	-0.451	0.027
-474.274	69.305	0.047	-0.048
-473.259	-33.921	0.123	0.068
-472.245	-117.378	-0.111	0.020
-471.230	800.000	-0.020	0.076
-470.216	800.000	0.127	-0.378
-469.201	-200.000	-0.002	-0.134
-468.186	-88.212	-0.274	-0.082
-467.172	-10.118	-0.303	-0.201
-466.157	-71.411	0.191	-0.071
-465.143	800.000	0.037	0.101
-464.128	478.407	0.121	0.273
-463.113	-200.000	0.044	0.265
-462.099	-119.179	-0.251	-0.044
-461.084	-68.037	-0.262	-0.102
-460.070	-1.590	-0.291	0.204
-459.055	-64.720	-0.105	-0.042
-458.040	-64.825	-0.243	0.098
-457.026	-97.470	-0.208	0.054
-456.011	-106.654	0.227	0.050
-454.997	-3.794	-0.294	-0.203
-453.982	-103.525	0.570	0.133
-452.968	800.000	-0.056	-0.199
-451.953	660.847	0.072	-0.184
-450.938	242.514	-0.046	-0.076
-449.924	-87.654	-0.318	-0.096
-448.909	-200.000	0.036	-0.290
-447.895	-50.052	-0.041	-0.019
-446.880	-8.696	0.143	0.095
-445.865	-127.844	-0.214	-0.031
-444.851	157.235	-0.143	0.196
-443.836	-90.265	0.067	0.019
-442.822	-117.597	0.072	-0.013
-441.807	-50.839	-0.094	-0.044
-440.792	-169.366	0.253	-0.009
-439.778	48.318	-0.055	0.051
-438.763	-166.881	0.321	-0.013
-437.749	-87.239	0.281	0.085
-436.734	-197.714	-0.209	0.001
-435.719	710.861	0.118	-0.312
-434.705	-157.073	-0.441	0.027
-433.690	348.976	-0.028	0.055
-432.676	-0.113	0.207	0.147
-431.661	-132.936	0.231	-0.029
-430.646	230.743	0.143	0.233
-429.632	-106.723	0.206	-0.046
-428.617	-200.000	-0.007	-0.064
-427.603	-65.411	-0.344	-0.138
-426.588	-68.812	0.180	0.069
-425.573	-18.126	-0.186	-0.116
-424.559	-126.620	-0.149	-0.022
-423.544	-44.246	-0.169	0.084
-422.530	341.270	-0.163	0.317
-421.515	23.252	0.077	0.063
-420.500	-176.596	-0.119	-0.003
-419.486	206.137	-0.251	-0.389
-418.471	341.200	0.228	-0.443
-417.457	-200.000	-0.050	-0.331
-416.442	-21.132	0.143	0.087
-415.428	109.379	0.171	-0.204
-414.413	-200.000	-0.061	0.283
-413.398	293.280	-0.062	-0.113
-412.384	-18.956	0.151	-0.093
-411.369	693.054	-0.121	0.316
-410.355	-185.277	0.111	0.002
-409.340	6.001	-0.471	0.347
-408.325	-77.672	-0.328	0.113
-407.311	-98.803	0.380	0.096
-406.296	-1.968	0.103	-0.072
-405.282	-135.357	-0.515	-0.061
-404.267	202.777	0.038	-0.059
-403.252	-100.701	0.160	0.039
-402.238	-200.000	-0.026	-0.227
-401.223	-36.155	0.156	0.083
-400.209	-28.509	-0.276	0.158
-399.194	-93.916	-0.215	-0.059
-398.179	-4.137	0.229	0.158
-397.165	800.000	0.077	0.314
-396.150	800.000	-0.037	0.146
-395.136	126.600	0.097	-0.122
-394.121	185.125	0.174	-0.256
-393.106	-200.000	-0.025	-0.175
-392.092	17.713	-0.159	-0.126
-391.077	-111.487	0.446	0.090
-390.063	-200.000	0.027	-0.150
-389.048	102.874	-0.215	0.250
-388.033	-200.000	0.033	0.255
-387.019	761.644	-0.086	0.231
-386.004	-76.819	0.229	0.080
-384.990	-130.180	0.265	0.036
-383.975	111.511	0.106	-0.127
-382.960	-134.358	-0.146	0.018
-381.946	24.125	-0.062	0.051
-380.931	299.912	-0.067	0.123
-379.917	224.532	0.106	-0.170
-378.902	22.901	0.205	0.167
-377.888	-200.000	0.023	0.105
-376.873	-77.340	-0.053	0.018
-375.858	800.000	0.084	-0.237
-374.844	800.000	0.052	0.147
-373.829	-200.000	0.092	0.467
-372.815	465.914	-0.116	0.258
-371.800	800.000	0.094	0.299
-370.785	-1.542	0.215	0.150
-369.771	-91.062	0.354	0.101
-368.756	800.000	-0.046	-0.186
-367.742	139.043	-0.058	-0.076
-366.727	-81.374	-0.221	0.072
-365.712	223.000	-0.134	-0.214
-364.698	-126.193	-0.134	-0.020
-363.683	311.043	-0.151	0.281
-362.669	65.463	-0.172	-0.173
-361.654	-85.794	0.488	0.150
-360.639	138.290	0.116	-0.152
-359.625	-139.268	-0.257	0.028
-358.610	800.000	0.117	-0.350
-357.596	208.820	-0.074	0.115
-356.581	-66.020	0.130	0.051
-355.566	-5.742	-0.184	-0.125
-354.552	514.260	0.088	-0.204
-353.537	149.800	0.173	-0.233
-352.523	427.515	0.063	-0.136
-351.508	784.412	0.193	0.525
-350.493	1.955	-0.153	-0.110
-349.479	163.461	0.151	-0.211
-348.464	-120.706	0.141	-0.024
-347.450	-166.607	0.164	0.007
-346.435	-200.000	0.031	0.140
-345.420	-200.000	-0.003	-0.157
-344.406	684.301	-0.081	0.210
-343.391	246.881	0.105	0.175
-342.377	-134.854	0.266	-0.032
-341.362	-61.687	-0.428	-0.178
-340.348	800.000	-0.026	0.073
-339.333	71.361	-0.077	0.079
-338.318	-200.000	0.001	0.126
-337.304	-138.180	0.072	0.008
-336.289	21.141	-0.059	0.047
-335.275	109.489	0.286	-0.340
-334.260	-200.000	0.043	0.217
-333.245	767.086	-0.143	0.384
-332.231	-29.553	0.428	0.243
-331.216	-53.738	-0.171	-0.078
-330.202	50.367	-0.079	0.074
-329.187	695.095	0.094	0.245
-328.172	-200.000	-0.035	-0.392
-327.158	-65.977	-0.268	0.106
-326.143	-17.618	-0.185	-0.115
-325.129	-187.611	0.208	-0.003
-324.114	-71.969	0.275	-0.102
-323.099	-200.000	-0.013	0.199
-322.085	-200.000	0.061	0.354
-321.070	-72.009	-0.291	-0.107
-320.056	55.994	-0.280	0.270
-319.041	139.206	0.139	0.181
-318.026	-7.260	-0.373	-0.251
-317.012	189.475	-0.155	0.230
-315.997	-81.537	-0.421	-0.137
-314.983	-200.000	0.021	-0.213
-313.968	-37.019	-0.234	0.124
-312.953	181.141	-0.078	0.114
-311.939	-173.757	0.096	0.003
-310.924	183.416	0.225	0.330
-309.910	-200.000	0.028	-0.259
-308.895	78.745	-0.169	-0.179
-307.880	133.293	-0.252	0.323
-306.866	-7.159	-0.276	0.186
-305.851	-77.656	-0.065	-0.022
-304.837	-200.000	-0.030	-0.253
-303.822	-64.321	0.280	0.113
-302.807	203.575	0.151	0.232
-301.793	-143.255	-0.198	-0.019
-300.778	99.208	-0.172	-0.197
-299.764	409.405	-0.019	0.040
-298.749	-200.000	0.043	0.201
-297.735	-200.000	-0.059	0.364
-296.720	63.338	0.132	0.131
-295.705	215.661	-0.110	-0.173
-294.691	109.014	-0.177	-0.210
-293.676	-200.000	-0.009	0.216
-292.662	54.528	0.063	-0.060
-291.647	-200.000	-0.038	0.370
-290.632	487.032	-0.103	0.232
-289.618	-53.103	-0.040	-0.018
-288.603	-200.000	-0.000	0.337
-287.589	-200.000	0.023	-0.120
-286.574	-76.922	-0.205	0.071
-285.559	374.223	0.045	0.090
-284.545	-83.103	-0.267	0.085
-283.530	144.726	0.168	-0.223
-282.516	2.735	-0.204	0.146
-281.501	-76.886	-0.096	0.033
-280.486	235.841	-0.026	-0.042
-279.472	-88.573	0.209	0.062
-278.457	712.419	0.140	-0.367
-277.443	30.443	0.034	-0.029
-276.428	-86.551	0.373	0.113
-275.413	-6.483	-0.067	0.045
-274.399	-86.733	0.194	0.059
-273.384	-3.748	-0.220	0.151
-272.370	-98.521	0.219	-0.055
-271.355	-115.722	0.064	0.012
-270.340	-17.551	-0.156	-0.097
-269.326	-60.936	0.146	0.061
-268.311	51.739	-0.097	0.092
-267.297	-200.000	-0.015	-0.281
-266.282	138.520	0.218	-0.282
-265.267	-200.000	0.041	-0.185
-264.253	800.000	-0.088	-0.379
-263.238	-200.000	-0.029	-0.187
-262.224	800.000	0.046	-0.177
-261.209	532.102	-0.119	-0.278
-260.195	-80.469	0.316	0.104
-259.180	60.116	0.097	-0.095
-258.165	203.409	0.022	0.034
-257.151	80.794	0.079	0.084
-256.136	-40.563	-0.385	0.197
-255.122	800.000	-0.093	-0.315
-254.107	-200.000	0.039	0.271
-253.092	-9.564	0.104	-0.069
-252.078	-200.000	-0.004	-0.017
-251.063	-176.074	-0.267	-0.007
-250.049	727.080	-0.091	0.239
-249.034	27.512	-0.129	-0.107
-248.019	7.011	0.130	0.096
-247.005	44.738	-0.229	-0.208
-245.990	86.069	-0.053	0.057
-244.976	10.220	0.236	-0.177
-243.961	-29.373	0.276	0.156
-242.946	-37.083	-0.045	0.024
-241.932	35.194	0.135	0.117
-240.917	78.637	-0.204	0.215
-239.903	-81.094	-0.211	0.069
-238.888	-50.152	0.147	-0.069
-237.873	169.822	-0.012	0.016
-236.859	800.000	0.105	-0.384
-235.844	346.365	-0.047	0.091
-234.830	10.639	-0.069	0.052
-233.815	-200.000	-0.034	-0.237
-232.800	-43.182	0.089	0.045
-231.786	-37.095	0.188	-0.099
-230.771	-40.061	-0.257	0.132
-229.757	-104.405	0.104	-0.024
-228.742	41.304	-0.073	0.065
-227.727	-90.149	0.384	0.110
-226.713	-75.075	-0.053	-0.019
-225.698	152.013	0.173	-0.232
-224.684	-41.287	0.159	0.081
-223.669	-104.079	-0.222	-0.051
-222.655	-35.190	0.288	0.155
-221.640	800.000	0.134	0.404
-220.625	-200.000	0.004	-0.083
-219.611	-66.440	-0.252	0.099
-218.596	65.824	0.062	0.062
-217.582	800.000	0.035	-0.127
-216.567	384.604	-0.019	-0.038
-215.552	-155.055	-0.264	-0.017
-214.538	80.677	0.105	0.112
-213.523	-164.302	-0.146	-0.007
-212.509	-116.086	-0.380	0.070
-211.494	383.218	0.111	-0.225
-210.479	259.156	0.111	0.189
-209.465	411.263	-0.129	-0.269
-208.450	19.070	-0.127	-0.100
-207.436	800.000	0.089	-0.293
-206.421	14.066	0.125	-0.096
-205.406	-200.000	0.014	-0.250
-204.392	5.657	0.412	0.300
-203.377	-66.933	-0.201	-0.078
-202.363	-87.769	0.133	-0.040
-201.348	194.695	-0.185	-0.277
-200.333	113.104	0.268	0.320
-199.319	-60.741	-0.139	0.058
-198.304	-200.000	-0.042	0.436
-197.290	-200.000	0.008	-0.187
-196.275	276.083	0.028	-0.050
-195.260	588.814	-0.018	-0.043
-194.246	-89.837	-0.048	-0.014
-193.231	239.518	0.100	-0.164
-192.217	-200.000	0.062	0.282
-191.202	214.406	0.216	0.337
-190.187	800.000	0.012	-0.035
-189.173	-74.343	-0.415	0.148
-188.158	-200.000	-0.070	0.423
-187.144	38.912	0.056	0.050
-186.129	-200.000	-0.026	-0.136
-185.114	-72.892	0.087	-0.032
-184.100	-44.833	0.068	0.033
-183.085	42.091	0.125	0.112
-182.071	20.902	0.065	-0.052
-181.056	-101.494	0.275	-0.066
-180.042	-81.103	0.126	0.041
-179.027	55.450	-0.151	-0.144
-178.012	800.000	0.044	-0.121
-176.998	-89.462	0.147	-0.043
-175.983	-40.595	0.291	0.149
-174.969	75.134	-0.202	-0.210
-173.954	-128.006	-0.285	0.040
-172.939	-200.000	-0.033	-0.367
-171.925	-126.694	0.253	0.037
-170.910	-156.305	-0.203	0.013
-169.896	-200.000	0.009	-0.192
-168.881	800.000	-0.108	-0.325
-167.866	-56.771	-0.220	-0.096
-166.852	-163.214	0.117	-0.006
-165.837	158.644	0.106	0.145
-164.823	-89.093	0.280	-0.082
-163.808	421.867	0.146	-0.310
-162.793	5.015	-0.026	0.019
-161.779	541.620	0.069	-0.162
-160.764	-154.507	-0.238	0.016
-159.750	-127.556	0.311	-0.044
-158.735	282.168	0.092	0.163
-157.720	800.000	-0.086	0.345
-156.706	-31.109	0.212	0.118
-155.691	800.000	0.017	-0.059
-154.677	314.702	-0.224	-0.415
-153.662	-200.000	0.052	-0.335
-152.647	-200.000	-0.017	0.306
-151.633	-116.714	-0.156	-0.028
-150.618	-146.282	0.171	0.015
-149.604	-20.533	-0.104	-0.063
-148.589	154.486	0.160	-0.217
-147.574	3.146	-0.059	0.042
-146.560	-200.000	-0.053	0.406
-145.545	-139.171	-0.250	-0.027
-144.531	-200.000	0.031	0.322
-143.516	47.780	0.294	-0.270
-142.502	286.408	-0.103	-0.183
-141.487	663.013	-0.174	0.442
-140.472	24.420	-0.120	-0.098
-139.458	91.497	-0.067	0.074
-138.443	-139.358	0.135	-0.014
-137.429	-200.000	-0.002	-0.183
-136.414	-90.702	0.164	-0.047
-135.399	800.000	-0.084	-0.301
-134.385	-103.998	0.086	0.020
-133.370	3.592	-0.155	0.111
-132.356	306.048	0.066	0.122
-131.341	-93.015	-0.181	0.050
-130.326	-14.058	-0.356	-0.226
-129.312	-115.744	-0.174	0.032
-128.297	-92.194	-0.121	0.034
-127.283	0.500	-0.063	0.044
-126.268	-53.755	0.223	0.100
-125.253	-5.823	-0.032	0.022
-124.239	-121.600	-0.209	0.034
-123.224	-200.000	0.072	0.432
-122.210	296.834	-0.203	0.367
-121.195	378.150	-0.107	0.215
