DTS Sentinel unit serial number:	SN413079Multiplexer serial number:	ORYXHardware model number:	OX4-SRSoftware version number:	ORYX F/W v4.00 Oryx Data Collector v3.7.2.0data status	okinstallation	princeton_trtdifferential loss correction	single-endedforward channel	channel 2reverse channel	N/Adate	2019/09/15time	16:31:35forward acquisition time	60.00reverse acquisition time	0.00gamma	496.2192k internal	0.2286k external	0.2286temperature offset calibration	0.9936default loss term (dB/km)	0.3790temperature slope calibration	1.0000multiplexer offset coefficient	1.0000multiplexer slope coefficient	1.0000fibre end	0.00T internal ref (°C)	43.94T ext. ref 1 (°C)	5.59T ext. ref 2 (°C)	40.55length (m)	temperature (°C)	Stokes	anti-Stokes-747.200	147.707	-0.086	0.119
-746.185	74.960	0.195	0.210
-745.171	-121.695	-0.261	0.044
-744.156	-55.162	-0.333	0.154
-743.142	-200.000	0.028	0.244
-742.127	727.203	0.233	0.638
-741.112	173.048	0.135	-0.200
-740.098	-95.792	0.280	-0.077
-739.083	-129.225	0.198	0.028
-738.069	-80.648	0.109	0.037
-737.054	-83.473	0.256	0.084
-736.039	-133.461	-0.307	0.040
-735.025	1.108	-0.042	0.031
-734.010	800.000	-0.078	-0.301
-732.996	351.828	0.080	-0.163
-731.981	355.859	-0.045	-0.092
-730.966	39.419	-0.120	0.110
-729.952	800.000	0.048	-0.178
-728.937	-127.578	-0.191	-0.028
-727.923	-40.008	-0.176	0.094
-726.908	-41.372	0.165	0.087
-725.894	290.760	-0.132	0.245
-724.879	288.144	0.105	-0.195
-723.864	325.755	0.079	-0.156
-722.850	800.000	-0.066	0.273
-721.835	11.399	-0.226	0.178
-720.821	-39.817	-0.161	-0.086
-719.806	261.449	0.100	0.177
-718.791	-200.000	0.061	-0.414
-717.777	-134.369	-0.196	0.025
-716.762	-135.729	-0.162	0.020
-715.748	5.150	0.288	0.218
-714.733	-200.000	0.043	-0.247
-713.718	-174.445	0.122	0.004
-712.704	136.481	0.202	0.271
-711.689	-71.135	0.157	0.060
-710.675	-200.000	0.012	-0.344
-709.660	-134.252	-0.337	0.042
-708.645	-82.454	-0.510	0.170
-707.631	-200.000	0.016	-0.133
-706.616	-200.000	0.015	0.286
-705.602	250.216	-0.035	0.060
-704.587	448.172	-0.177	-0.399
-703.572	8.591	-0.099	0.076
-702.558	-51.282	-0.237	0.113
-701.543	-139.288	-0.232	0.026
-700.529	-55.008	0.244	0.113
-699.514	-117.970	0.120	-0.022
-698.499	-157.389	-0.181	-0.011
-697.485	-131.212	0.054	0.007
-696.470	800.000	-0.089	-0.272
-695.456	-67.973	0.128	-0.051
-694.441	248.219	0.074	-0.128
-693.426	-126.862	-0.053	-0.008
-692.412	94.987	-0.056	0.065
-691.397	92.108	0.146	0.169
-690.383	-122.091	0.161	-0.027
-689.368	-75.490	-0.326	0.119
-688.354	-44.172	-0.193	0.099
-687.339	-200.000	0.035	-0.546
-686.324	-73.683	-0.653	-0.243
-685.310	-80.149	-0.006	-0.002
-684.295	-41.998	0.261	-0.137
-683.281	-39.428	-0.102	-0.055
-682.266	17.385	-0.134	0.109
-681.251	-200.000	-0.004	-0.027
-680.237	149.493	0.179	0.249
-679.222	53.952	-0.113	-0.111
-678.208	160.680	-0.086	0.122
-677.193	800.000	-0.029	-0.087
-676.178	-122.738	-0.128	0.021
-675.164	-100.926	0.210	0.053
-674.149	-75.224	0.321	-0.117
-673.135	-200.000	0.050	-0.375
-672.120	36.480	0.075	0.068
-671.105	-34.115	-0.122	-0.069
-670.091	-62.543	-0.256	-0.109
-669.076	-200.000	-0.016	-0.089
-668.062	800.000	0.064	0.206
-667.047	-200.000	-0.077	-0.361
-666.032	-28.284	-0.107	-0.063
-665.018	-200.000	-0.032	0.492
-664.003	-200.000	0.044	0.350
-662.989	-26.464	-0.100	-0.060
-661.974	19.533	-0.037	0.031
-660.959	-157.414	0.163	-0.010
-659.945	-130.120	-0.344	-0.048
-658.930	26.191	0.209	0.179
-657.916	-200.000	0.003	-0.151
-656.901	53.298	0.043	0.042
-655.886	-33.933	-0.148	-0.083
-654.872	-200.000	0.042	0.261
-653.857	315.001	-0.086	0.166
-652.843	-14.591	0.272	-0.179
-651.828	90.085	0.187	0.214
-650.814	-188.699	0.334	0.004
-649.799	-200.000	0.017	0.101
-648.784	-80.300	0.305	-0.104
-647.770	-200.000	0.001	-0.117
-646.755	-69.898	0.087	0.034
-645.741	-200.000	0.034	-0.184
-644.726	93.703	0.089	-0.103
-643.711	373.957	-0.088	-0.183
-642.697	56.392	-0.224	0.222
-641.682	800.000	0.077	0.246
-640.668	800.000	0.068	0.237
-639.653	6.738	0.203	0.154
-638.638	337.990	0.136	0.269
-637.624	-200.000	-0.019	-0.403
-636.609	-200.000	0.001	0.369
-635.595	-200.000	-0.001	0.072
-634.580	792.151	-0.021	-0.060
-633.565	-38.582	0.214	0.115
-632.551	730.156	-0.020	-0.054
-631.536	-107.485	-0.181	0.040
-630.522	95.844	-0.270	0.315
-629.507	110.992	-0.085	0.104
-628.492	-58.828	-0.369	0.163
-627.478	76.370	-0.305	-0.330
-626.463	-132.664	-0.044	-0.006
-625.449	47.000	0.157	0.149
-624.434	-165.958	-0.183	-0.008
-623.419	-41.179	-0.144	-0.076
-622.405	-105.657	-0.147	-0.034
-621.390	-49.841	-0.018	-0.009
-620.376	-200.000	-0.011	-0.250
-619.361	38.262	0.122	-0.110
-618.346	-91.718	-0.298	-0.086
-617.332	11.702	0.075	0.059
-616.317	410.998	-0.061	-0.133
-615.303	73.011	0.133	-0.142
-614.288	800.000	0.032	-0.100
-613.273	-1.009	-0.272	-0.197
-612.259	-30.698	0.240	-0.139
-611.244	-43.589	-0.115	-0.059
-610.230	-97.635	0.187	-0.049
-609.215	-113.333	0.079	-0.016
-608.201	800.000	0.031	-0.097
-607.186	-200.000	-0.015	0.175
-606.171	-100.593	-0.054	0.014
-605.157	31.478	-0.029	-0.025
-604.142	-53.581	0.562	-0.262
-603.128	-200.000	-0.016	0.131
-602.113	-6.402	0.269	-0.187
-601.098	153.491	-0.077	0.107
-600.084	233.253	-0.034	0.057
-599.069	-125.825	-0.372	0.057
-598.055	385.575	0.168	-0.353
-597.040	-200.000	-0.007	0.126
-596.025	-131.207	0.285	0.039
-595.011	-200.000	-0.003	0.015
-593.996	-110.110	0.313	-0.067
-592.982	-125.994	-0.203	0.031
-591.967	-12.053	0.186	0.124
-590.952	-200.000	-0.011	-0.243
-589.938	636.603	-0.028	0.074
-588.923	-200.000	-0.014	-0.096
-587.909	50.406	0.080	-0.077
-586.894	-27.199	-0.141	-0.084
-585.879	-200.000	-0.059	-0.396
-584.865	800.000	-0.070	0.281
-583.850	-200.000	0.095	0.573
-582.836	145.401	-0.081	-0.111
-581.821	-38.815	0.333	0.179
-580.806	138.627	-0.029	0.039
-579.792	-23.773	-0.158	0.096
-578.777	344.054	-0.098	-0.195
-577.763	-200.000	-0.087	0.477
-576.748	-165.328	0.168	0.008
-575.733	-12.762	-0.247	-0.164
-574.719	61.596	-0.144	-0.146
-573.704	14.749	-0.216	-0.172
-572.690	-47.459	0.223	0.111
-571.675	-141.585	0.130	-0.013
-570.661	-2.908	-0.196	-0.139
-569.646	-119.115	0.197	0.035
-568.631	642.000	0.069	-0.179
-567.617	-6.397	-0.223	0.155
-566.602	-80.431	-0.159	-0.054
-565.588	-15.547	0.298	0.194
-564.573	-120.339	-0.258	0.045
-563.558	800.000	-0.027	0.100
-562.544	31.391	-0.224	-0.196
-561.529	800.000	0.116	-0.491
-560.515	-200.000	0.002	0.124
-559.500	567.618	-0.130	-0.321
-558.485	35.434	-0.078	0.070
-557.471	3.174	-0.192	0.143
-556.456	-117.975	0.268	0.049
-555.442	-200.000	-0.006	-0.217
-554.427	22.224	0.257	0.214
-553.412	-136.805	-0.177	-0.021
-552.398	-81.369	0.132	0.044
-551.383	153.406	0.166	-0.232
-550.369	128.260	-0.279	-0.361
-549.354	-200.000	-0.049	-0.361
-548.339	-103.756	-0.249	-0.059
-547.325	-60.012	-0.543	0.236
-546.310	-68.417	0.240	-0.095
-545.296	-75.364	0.301	0.109
-544.281	800.000	-0.011	0.035
-543.266	217.435	-0.142	0.231
-542.252	302.031	0.060	0.113
-541.237	279.318	0.151	-0.275
-540.223	-155.670	0.376	0.025
-539.208	130.539	-0.250	0.326
-538.193	183.023	0.060	0.090
-537.179	-36.530	0.256	0.140
-536.164	-128.195	0.125	-0.018
-535.150	-107.304	0.169	0.038
-534.135	-126.550	-0.174	0.026
-533.121	800.000	-0.034	0.144
-532.106	234.297	-0.098	0.164
-531.091	64.109	0.265	-0.271
-530.077	-124.761	-0.237	-0.037
-529.062	-112.309	0.647	0.132
-528.048	-200.000	-0.011	-0.393
-527.033	-124.397	0.341	0.054
-526.018	-155.562	0.155	-0.010
-525.004	67.001	0.307	-0.319
-523.989	-61.550	0.152	0.065
-522.975	-200.000	-0.034	0.363
-521.960	-85.664	-0.096	0.030
-520.945	-72.640	-0.100	0.038
-519.931	70.542	-0.294	0.310
-518.916	-200.000	0.013	-0.234
-517.902	157.802	-0.140	-0.197
-516.887	-146.931	-0.139	-0.012
-515.872	159.305	-0.184	0.261
-514.858	-97.062	-0.170	0.045
-513.843	-200.000	-0.025	0.281
-512.829	169.518	-0.080	-0.117
-511.814	-136.997	-0.365	0.043
-510.799	-5.124	0.152	-0.106
-509.785	-200.000	-0.002	0.035
-508.770	263.349	-0.124	-0.219
-507.756	100.141	0.156	-0.184
-506.741	192.594	0.121	-0.186
-505.726	386.676	-0.143	-0.301
-504.712	-200.000	-0.018	-0.312
-503.697	65.600	0.110	-0.113
-502.683	-51.863	0.161	-0.076
-501.668	-200.000	-0.041	-0.189
-500.653	272.637	-0.077	-0.139
-499.639	295.528	-0.096	-0.178
-498.624	-200.000	0.033	-0.156
-497.610	-85.658	-0.153	0.048
-496.595	-40.059	0.093	0.049
-495.581	14.513	-0.376	-0.298
-494.566	800.000	0.029	0.118
-493.551	800.000	-0.026	-0.077
-492.537	-91.452	0.175	-0.051
-491.522	73.861	0.188	0.200
-490.508	-200.000	0.022	-0.178
-489.493	22.286	-0.140	-0.116
-488.478	60.301	-0.238	0.239
-487.464	-156.650	0.176	-0.011
-486.449	-133.608	-0.257	-0.033
-485.435	-200.000	-0.013	-0.343
-484.420	641.183	0.043	0.111
-483.405	291.281	0.115	-0.212
-482.391	-200.000	0.103	-0.000
-481.376	-45.797	0.340	-0.171
-480.362	-72.549	0.366	0.137
-479.347	99.655	0.233	0.274
-478.332	116.899	-0.156	-0.195
-477.318	800.000	0.042	-0.163
-476.303	168.039	0.101	-0.145
-475.289	45.192	0.149	-0.140
-474.274	65.243	0.048	-0.050
-473.259	-46.883	0.214	0.106
-472.245	-128.938	-0.263	0.037
-471.230	-11.625	0.106	-0.071
-470.216	153.997	0.272	-0.378
-469.201	-57.731	-0.079	0.035
-468.186	-147.872	0.216	0.018
-467.172	-200.000	0.013	0.120
-466.157	-29.389	-0.174	-0.101
-465.143	800.000	-0.141	-0.416
-464.128	23.640	-0.118	0.099
-463.113	613.832	0.035	-0.089
-462.099	-200.000	0.011	0.318
-461.084	800.000	-0.109	-0.311
-460.070	106.685	-0.157	-0.189
-459.055	-200.000	0.042	0.200
-458.040	-183.359	0.287	0.005
-457.026	-200.000	-0.027	0.413
-456.011	-200.000	-0.037	-0.213
-454.997	145.494	-0.090	-0.123
-453.982	98.737	0.155	0.181
-452.968	337.625	-0.077	0.153
-451.953	618.611	0.100	0.256
-450.938	-111.385	0.339	-0.070
-449.924	111.886	-0.167	-0.204
-448.909	-98.804	-0.133	0.034
-447.895	-200.000	-0.041	-0.240
-446.880	-200.000	-0.012	0.097
-445.865	454.715	-0.072	0.162
-444.851	-119.072	-0.301	0.053
-443.836	275.520	-0.110	0.199
-442.822	-83.532	-0.209	-0.068
-441.807	-94.823	-0.140	0.038
-440.792	-55.752	0.243	-0.110
-439.778	447.389	0.122	-0.271
-438.763	-34.432	0.098	0.054
-437.749	-73.401	-0.197	0.073
-436.734	-200.000	0.034	-0.254
-435.719	-93.496	-0.107	-0.030
-434.705	-200.000	0.032	-0.396
-433.690	-75.263	0.123	-0.045
-432.676	49.090	0.171	0.163
-431.661	-200.000	0.004	-0.396
-430.646	10.795	0.230	-0.178
-429.632	800.000	0.038	-0.133
-428.617	68.778	-0.029	-0.030
-427.603	180.303	0.048	-0.072
-426.588	-117.058	-0.332	0.061
-425.573	52.164	-0.408	-0.394
-424.559	134.297	0.256	-0.337
-423.544	275.065	-0.093	0.167
-422.530	-164.741	0.291	0.013
-421.515	-98.784	-0.291	-0.075
-420.500	-200.000	0.027	-0.150
-419.486	35.841	0.122	0.109
-418.471	-45.853	0.161	0.080
-417.457	-154.999	-0.104	-0.007
-416.442	284.599	-0.052	0.095
-415.428	-154.770	-0.264	0.018
-414.413	-200.000	-0.032	-0.177
-413.398	695.854	0.076	0.202
-412.384	-200.000	0.022	0.099
-411.369	40.543	0.269	0.246
-410.355	-154.845	-0.400	-0.027
-409.340	-200.000	-0.039	-0.297
-408.325	-52.505	-0.370	0.173
-407.311	-176.110	0.260	-0.007
-406.296	344.066	-0.078	-0.155
-405.282	-156.887	-0.211	0.013
-404.267	800.000	0.037	0.150
-403.252	-53.256	-0.275	0.128
-402.238	-200.000	0.004	0.139
-401.223	-31.947	-0.306	0.174
-400.209	371.872	0.083	-0.171
-399.194	-39.894	0.061	-0.032
-398.179	-21.616	0.269	0.166
-397.165	149.175	0.074	0.101
-396.150	-200.000	0.028	-0.250
-395.136	-200.000	0.127	-0.000
-394.121	191.595	0.146	-0.223
-393.106	800.000	0.085	0.238
-392.092	268.239	-0.080	0.142
-391.077	465.106	0.174	-0.394
-390.063	-200.000	-0.036	0.377
-389.048	800.000	-0.090	-0.331
-388.033	589.401	-0.050	0.125
-387.019	800.000	0.049	0.212
-386.004	-74.805	-0.156	0.057
-384.990	356.155	-0.115	-0.232
-383.975	797.154	-0.075	-0.209
-382.960	-19.091	0.167	0.105
-381.946	259.620	0.110	0.192
-380.931	-102.277	0.326	0.079
-379.917	-39.799	0.170	0.090
-378.902	115.801	-0.149	0.185
-377.888	73.310	-0.158	0.168
-376.873	-95.492	0.305	0.083
-375.858	788.102	-0.108	0.300
-374.844	-200.000	0.046	0.293
-373.829	-200.000	-0.016	0.135
-372.815	539.592	0.051	-0.122
-371.800	-115.048	0.320	0.062
-370.785	-123.364	0.081	0.013
-369.771	74.909	0.110	0.117
-368.756	-109.379	0.131	0.028
-367.742	3.618	0.154	0.113
-366.727	-10.799	0.108	0.072
-365.712	-11.550	0.010	0.006
-364.698	-200.000	-0.029	-0.330
-363.683	-143.726	0.033	0.003
-362.669	-200.000	0.026	0.134
-361.654	-21.688	0.235	-0.145
-360.639	-106.058	-0.196	0.045
-359.625	-94.080	0.172	-0.048
-358.610	-110.107	-0.222	0.047
-357.596	24.839	-0.133	0.112
-356.581	-90.417	-0.371	-0.109
-355.566	78.097	0.038	0.041
-354.552	-77.988	0.072	0.025
-353.537	-132.519	-0.126	-0.016
-352.523	-4.955	-0.264	0.184
-351.508	22.831	0.049	0.041
-350.493	-184.349	-0.150	-0.002
-349.479	44.107	-0.180	0.166
-348.464	-106.415	-0.306	-0.069
-347.450	-200.000	0.012	0.267
-346.435	800.000	0.086	0.295
-345.420	-200.000	-0.017	-0.120
-344.406	-200.000	0.034	0.152
-343.391	-200.000	0.018	0.235
-342.377	800.000	-0.097	0.273
-341.362	-10.153	-0.215	0.144
-340.348	1.981	-0.081	-0.059
-339.333	800.000	-0.103	0.371
-338.318	-0.387	-0.223	0.160
-337.304	-81.083	-0.211	0.071
-336.289	-92.668	0.218	0.062
-335.275	-200.000	0.008	0.111
-334.260	159.377	-0.142	0.199
-333.245	152.711	0.210	0.290
-332.231	28.376	-0.123	-0.105
-331.216	118.218	0.042	0.053
-330.202	55.162	0.128	0.125
-329.187	-77.051	0.105	0.037
-328.172	9.993	-0.287	-0.220
-327.158	800.000	0.093	-0.283
-326.143	-200.000	-0.009	-0.058
-325.129	-10.998	-0.235	-0.157
-324.114	-112.443	-0.075	0.015
-323.099	207.385	0.053	0.083
-322.085	-200.000	-0.006	0.314
-321.070	-103.781	0.089	-0.021
-320.056	-191.748	-0.160	-0.002
-319.041	-200.000	0.001	0.032
-318.026	24.411	-0.058	-0.049
-317.012	240.572	-0.073	-0.123
-315.997	-77.508	-0.173	-0.061
-314.983	32.026	0.115	0.100
-313.968	800.000	-0.142	0.481
-312.953	-44.636	-0.089	0.045
-311.939	800.000	-0.094	0.262
-310.924	-150.347	0.370	0.029
-309.910	-133.991	0.219	-0.027
-308.895	77.413	0.030	0.033
-307.880	336.857	-0.058	0.113
-306.866	691.860	0.039	-0.104
-305.851	-8.741	0.221	0.150
-304.837	-139.365	0.293	-0.032
-303.822	196.656	-0.069	0.107
-302.807	-200.000	-0.023	-0.129
-301.793	470.132	-0.080	0.182
-300.778	-27.694	-0.252	0.148
-299.764	253.756	-0.099	0.171
-298.749	-200.000	-0.056	0.414
-297.735	-104.852	-0.274	0.064
-296.720	633.401	0.116	0.296
-295.705	-137.484	-0.176	0.020
-294.691	-102.745	-0.192	-0.046
-293.676	73.771	0.095	0.100
-292.662	-83.207	0.205	-0.066
-291.647	-143.437	0.144	-0.014
-290.632	-147.017	-0.226	-0.020
-289.618	800.000	-0.098	-0.311
-288.603	-85.919	0.583	0.182
-287.589	-95.616	-0.153	-0.041
-286.574	-36.247	0.324	-0.176
-285.559	-5.037	-0.302	-0.210
-284.545	-200.000	0.019	-0.110
-283.530	455.246	-0.100	-0.223
-282.516	27.491	0.126	0.107
-281.501	-97.074	0.163	-0.043
-280.486	-16.045	-0.082	-0.052
-279.472	304.466	0.059	0.111
-278.457	212.664	-0.164	0.261
-277.443	-4.118	-0.234	-0.163
-276.428	368.113	0.107	-0.218
-275.413	29.558	0.157	-0.135
-274.399	-200.000	-0.023	-0.176
-273.384	800.000	0.042	0.142
-272.370	117.373	0.095	0.118
-271.355	33.829	0.272	0.238
-270.340	800.000	-0.048	0.206
-269.326	234.551	-0.073	-0.122
-268.311	274.953	0.081	-0.145
-267.297	800.000	-0.121	0.398
-266.282	18.026	-0.108	-0.087
-265.267	800.000	-0.018	-0.063
-264.253	719.720	-0.084	0.225
-263.238	108.193	-0.151	0.181
-262.224	-20.796	0.110	-0.068
-261.209	-75.194	0.116	0.042
-260.195	800.000	-0.034	0.121
-259.180	-200.000	0.050	-0.332
-258.165	228.730	-0.201	-0.330
-257.151	356.737	-0.086	-0.172
-256.136	51.307	-0.071	-0.067
-255.122	249.939	-0.180	-0.307
-254.107	-200.000	0.037	-0.284
-253.092	15.649	0.134	-0.106
-252.078	800.000	-0.092	0.286
-251.063	60.111	0.218	-0.217
-250.049	-200.000	-0.008	-0.091
-249.034	-28.732	0.193	0.112
-248.019	-200.000	0.038	-0.194
-247.005	800.000	-0.121	-0.339
-245.990	-49.594	-0.153	0.073
-244.976	165.052	-0.139	0.198
-243.961	0.108	0.050	0.036
-242.946	-9.023	0.479	0.323
-241.932	-200.000	0.020	0.119
-240.917	-33.297	-0.266	-0.148
-239.903	76.637	-0.259	0.277
-238.888	-36.183	0.227	-0.123
-237.873	-87.301	0.130	0.040
-236.859	435.999	0.117	0.256
-235.844	398.118	-0.072	0.152
-234.830	732.136	0.123	0.331
-233.815	49.002	-0.131	-0.124
-232.800	-200.000	0.031	0.251
-231.786	-136.646	-0.266	0.031
-230.771	-138.743	-0.254	0.028
-229.757	153.712	-0.058	0.080
-228.742	185.185	-0.252	-0.376
-227.727	-200.000	0.011	0.128
-226.713	-96.824	0.270	-0.071
-225.698	800.000	0.040	-0.173
-224.684	800.000	-0.012	-0.051
-223.669	114.268	-0.163	0.200
-222.655	380.107	0.038	-0.078
-221.640	51.439	-0.072	0.069
-220.625	-19.846	-0.215	0.134
-219.611	33.733	0.098	-0.086
-218.596	-29.098	-0.379	-0.219
-217.582	800.000	0.028	0.085
-216.567	172.546	-0.094	0.136
-215.552	45.013	-0.108	-0.100
-214.538	394.594	0.046	-0.097
-213.523	-24.912	0.131	-0.078
-212.509	-120.860	-0.191	0.032
-211.494	-136.231	0.307	0.036
-210.479	23.923	-0.298	-0.247
-209.465	131.155	-0.200	-0.258
-208.450	90.326	-0.089	0.100
-207.436	-95.057	-0.282	-0.077
-206.421	252.338	-0.017	-0.028
-205.406	-90.519	0.107	0.031
-204.392	664.305	-0.201	-0.520
-203.377	-38.402	0.088	0.047
-202.363	36.349	-0.093	-0.082
-201.348	113.390	0.086	-0.105
-200.333	-200.000	0.002	0.033
-199.319	671.788	0.088	0.228
-198.304	21.461	0.146	-0.119
-197.290	-61.112	0.322	0.137
-196.275	126.100	0.085	0.108
-195.260	95.230	-0.091	0.104
-194.246	428.086	-0.061	0.132
-193.231	-71.070	-0.119	-0.045
-192.217	800.000	0.060	0.180
-191.202	-125.286	0.431	0.066
-190.187	-113.949	-0.118	-0.023
-189.173	800.000	0.029	0.107
-188.158	-200.000	-0.043	-0.309
-187.144	-75.563	0.164	-0.059
-186.129	-52.098	0.268	0.125
-185.114	664.719	-0.051	-0.132
-184.100	800.000	-0.090	-0.279
-183.085	10.036	-0.353	-0.269
-182.071	15.289	0.098	0.077
-181.056	-200.000	0.018	0.260
-180.042	637.936	0.161	0.412
-179.027	45.927	-0.237	-0.220
-178.012	-200.000	0.072	0.337
-176.998	800.000	-0.077	-0.236
-175.983	-200.000	-0.001	-0.124
-174.969	126.537	0.107	0.136
-173.954	-126.796	0.043	0.006
-172.939	-34.586	0.329	0.181
-171.925	-200.000	0.014	-0.126
-170.910	-154.386	-0.144	-0.010
-169.896	60.359	0.122	0.121
-168.881	-200.000	0.078	-0.377
-167.866	-109.915	0.114	-0.024
-166.852	-19.131	-0.106	-0.066
-165.837	-124.493	0.328	0.051
-164.823	-200.000	0.008	-0.080
-163.808	7.727	-0.099	0.074
-162.793	-133.077	0.231	0.029
-161.779	-200.000	-0.005	-0.084
-160.764	-109.131	-0.251	0.054
-159.750	-145.091	0.353	-0.032
-158.735	97.650	0.250	0.288
-157.720	138.246	0.211	0.277
-156.706	-43.337	0.151	0.077
-155.691	-19.749	0.236	0.146
-154.677	37.688	0.260	-0.232
-153.662	147.116	-0.164	-0.221
-152.647	385.054	-0.077	0.159
-151.633	-59.146	-0.142	0.061
-150.618	800.000	0.153	-0.480
-149.604	-42.901	0.208	-0.106
-148.589	-200.000	-0.009	0.109
-147.574	-200.000	-0.002	-0.149
-146.560	800.000	-0.047	-0.142
-145.545	295.553	0.196	0.359
-144.531	-200.000	-0.033	0.393
-143.516	318.986	-0.062	0.117
-142.502	2.107	-0.112	0.081
-141.487	47.540	-0.192	0.180
-140.472	800.000	0.069	0.208
-139.458	27.625	0.246	-0.207
-138.443	81.145	-0.137	-0.148
-137.429	-17.135	-0.110	0.070
-136.414	800.000	-0.026	0.082
-135.399	84.494	0.110	-0.121
-134.385	-112.773	-0.184	-0.037
-133.370	456.679	0.028	0.062
-132.356	57.545	-0.212	-0.208
-131.341	800.000	0.026	0.105
-130.326	267.119	-0.068	-0.119
-129.312	800.000	-0.075	0.228
-128.297	-161.398	-0.188	-0.010
-127.283	88.283	0.159	-0.176
-126.268	-156.400	-0.193	-0.012
-125.253	800.000	-0.041	-0.165
-124.239	-43.506	0.171	-0.087
-123.224	-116.813	0.198	-0.036
-122.210	390.675	-0.053	0.110
-121.195	-164.228	-0.226	0.010
