DTS Sentinel unit serial number:	SN413079Multiplexer serial number:	ORYXHardware model number:	OX4-SRSoftware version number:	ORYX F/W v4.00 Oryx Data Collector v3.7.2.0data status	okinstallation	princeton_trtdifferential loss correction	single-endedforward channel	channel 2reverse channel	N/Adate	2019/09/19time	10:23:34forward acquisition time	60.00reverse acquisition time	0.00gamma	496.2192k internal	0.2343k external	0.2343temperature offset calibration	1.0006default loss term (dB/km)	0.3790temperature slope calibration	1.0000multiplexer offset coefficient	1.0000multiplexer slope coefficient	1.0000fibre end	0.00T internal ref (°C)	24.25T ext. ref 1 (°C)	0.70T ext. ref 2 (°C)	19.86length (m)	temperature (°C)	Stokes	anti-Stokes-747.200	-136.799	-0.295	-0.034
-746.185	-135.473	-0.286	0.034
-745.171	-200.000	0.044	-0.205
-744.156	17.605	0.239	0.190
-743.142	-74.851	0.404	-0.145
-742.127	-200.000	-0.006	0.413
-741.112	-24.326	0.250	-0.149
-740.098	-90.253	-0.206	0.060
-739.083	517.062	0.079	0.186
-738.069	-107.407	-0.367	0.081
-737.054	187.992	0.068	-0.101
-736.039	380.711	-0.066	0.135
-735.025	44.654	0.399	0.367
-734.010	800.000	-0.106	-0.314
-732.996	-153.406	-0.182	0.013
-731.981	-200.000	0.056	0.416
-730.966	327.817	-0.039	0.076
-729.952	302.790	-0.049	0.090
-728.937	18.567	-0.265	-0.212
-727.923	800.000	-0.063	-0.180
-726.908	49.616	-0.055	0.052
-725.894	-48.518	-0.098	-0.047
-724.879	-67.709	0.161	0.063
-723.864	4.418	0.271	-0.199
-722.850	-200.000	0.040	-0.224
-721.835	-24.111	0.101	-0.060
-720.821	161.992	-0.178	-0.250
-719.806	-200.000	0.127	0.000
-718.791	-50.602	-0.179	-0.084
-717.777	-129.275	-0.326	0.045
-716.762	142.180	-0.190	-0.252
-715.748	-200.000	-0.017	-0.177
-714.733	-22.556	0.231	-0.140
-713.718	573.681	-0.052	0.126
-712.704	-48.100	-0.030	0.014
-711.689	115.120	0.261	-0.318
-710.675	-40.116	-0.039	-0.020
-709.660	-53.121	-0.081	0.037
-708.645	33.309	0.151	-0.131
-707.631	244.721	0.023	-0.039
-706.616	-126.889	-0.452	0.067
-705.602	800.000	0.040	0.150
-704.587	-30.958	-0.248	-0.140
-703.572	-117.110	0.167	-0.030
-702.558	377.346	-0.101	0.205
-701.543	327.992	0.081	-0.155
-700.529	34.499	0.139	0.122
-699.514	12.262	-0.452	-0.348
-698.499	81.878	0.199	0.215
-697.485	163.991	0.125	-0.176
-696.470	-61.921	0.109	-0.046
-695.456	-99.525	-0.375	-0.094
-694.441	-185.599	-0.103	0.002
-693.426	-54.106	0.144	-0.066
-692.412	-77.119	0.186	-0.065
-691.397	-24.214	-0.120	-0.071
-690.383	-131.032	-0.286	0.038
-689.368	-200.000	-0.042	-0.254
-688.354	33.713	-0.408	0.355
-687.339	-55.493	0.187	0.084
-686.324	-200.000	0.054	0.249
-685.310	451.498	-0.211	0.466
-684.295	273.265	-0.091	-0.161
-683.281	-35.788	0.286	-0.155
-682.266	-119.792	-0.268	0.046
-681.251	-193.724	0.287	0.002
-680.237	-200.000	-0.020	-0.244
-679.222	644.658	-0.230	0.585
-678.208	173.730	-0.053	0.076
-677.193	479.639	0.175	0.395
-676.178	-200.000	-0.014	-0.238
-675.164	22.230	0.172	0.140
-674.149	283.839	-0.049	0.087
-673.135	-200.000	0.007	0.315
-672.120	30.563	0.091	-0.078
-671.105	489.669	0.041	-0.093
-670.091	-199.942	-0.254	0.001
-669.076	-0.321	-0.241	-0.171
-668.062	478.764	0.041	-0.093
-667.047	-112.182	0.173	0.035
-666.032	-175.131	-0.169	-0.005
-665.018	787.382	-0.150	0.410
-664.003	-36.580	-0.187	-0.101
-662.989	800.000	0.042	0.175
-661.974	800.000	0.035	-0.098
-660.959	167.627	-0.074	-0.105
-659.945	800.000	0.051	0.183
-658.930	-200.000	0.019	0.115
-657.916	310.809	0.132	-0.247
-656.901	-45.998	-0.066	0.033
-655.886	114.519	0.122	-0.148
-654.872	-122.024	-0.288	-0.047
-653.857	-186.431	0.306	-0.004
-652.843	-160.386	0.076	0.004
-651.828	-200.000	-0.029	0.153
-650.814	-182.637	0.046	-0.001
-649.799	-117.226	-0.255	-0.046
-648.784	69.198	0.147	-0.151
-647.770	-193.942	-0.080	-0.001
-646.755	-118.001	-0.246	-0.044
-645.741	-125.217	-0.416	-0.064
-644.726	223.155	0.085	-0.136
-643.711	42.804	0.191	0.173
-642.697	800.000	0.026	-0.115
-641.682	-56.640	0.182	-0.080
-640.668	41.044	-0.135	0.122
-639.653	6.074	-0.318	0.235
-638.638	9.846	0.301	-0.228
-637.624	203.265	-0.051	0.078
-636.609	-87.315	-0.241	0.073
-635.595	6.038	0.226	-0.167
-634.580	-161.953	-0.155	-0.008
-633.565	500.304	-0.035	0.079
-632.551	-200.000	0.004	0.208
-631.536	243.131	0.105	-0.175
-630.522	800.000	0.053	0.171
-629.507	-103.482	-0.364	0.085
-628.492	-200.000	0.002	-0.089
-627.478	800.000	-0.100	-0.305
-626.463	413.503	0.064	-0.135
-625.449	249.432	-0.065	-0.110
-624.434	40.076	0.202	-0.181
-623.419	800.000	0.066	0.216
-622.405	-38.952	-0.129	0.068
-621.390	-53.887	-0.280	-0.127
-620.376	-21.600	-0.171	-0.104
-619.361	29.276	-0.250	-0.212
-618.346	-62.530	-0.364	-0.150
-617.332	128.672	0.205	-0.260
-616.317	571.728	-0.030	-0.073
-615.303	20.111	-0.071	-0.057
-614.288	165.369	-0.045	0.063
-613.273	-200.000	-0.020	0.163
-612.259	-200.000	0.001	0.140
-611.244	315.997	0.055	-0.104
-610.230	800.000	-0.014	-0.041
-609.215	-5.929	0.216	-0.147
-608.201	-7.267	-0.233	0.157
-607.186	-58.985	-0.028	0.012
-606.171	-200.000	0.034	0.292
-605.157	423.987	0.094	-0.201
-604.142	-67.674	-0.173	0.068
-603.128	345.219	0.126	-0.246
-602.113	-79.602	-0.117	0.039
-601.098	7.189	-0.142	-0.105
-600.084	-200.000	0.339	0.002
-599.069	800.000	0.112	0.344
-598.055	9.951	0.178	0.135
-597.040	643.955	0.067	0.171
-596.025	-118.337	0.066	0.012
-595.011	-126.993	-0.276	-0.040
-593.996	-25.987	-0.128	-0.075
-592.982	275.308	0.033	-0.059
-591.967	-117.065	0.135	0.025
-590.952	240.403	0.061	-0.101
-589.938	93.671	-0.115	-0.130
-588.923	196.217	0.133	0.202
-587.909	-109.859	0.263	-0.055
-586.894	-66.877	0.056	0.022
-585.879	-138.950	-0.396	0.043
-584.865	-200.000	-0.006	0.427
-583.850	-200.000	-0.029	0.241
-582.836	7.317	-0.094	0.070
-581.821	-60.900	-0.166	-0.070
-580.806	-121.784	0.135	0.022
-579.792	-98.616	-0.208	-0.053
-578.777	632.145	0.047	-0.120
-577.763	-185.988	0.256	0.004
-576.748	-73.405	-0.162	0.059
-575.733	234.958	0.053	0.087
-574.719	-116.516	-0.224	-0.041
-573.704	80.681	-0.051	-0.055
-572.690	800.000	-0.016	-0.060
-571.675	-200.000	0.003	0.371
-570.661	-200.000	-0.027	0.325
-569.646	-135.253	-0.228	0.027
-568.631	-124.538	0.229	-0.035
-567.617	-40.398	0.174	-0.090
-566.602	172.719	-0.194	0.278
-565.588	238.953	0.147	0.243
-564.573	-39.304	0.139	0.073
-563.558	406.864	-0.161	0.339
-562.544	800.000	0.053	0.185
-561.529	-200.000	0.042	-0.312
-560.515	47.569	-0.182	-0.168
-559.500	-134.146	0.230	0.028
-558.485	-200.000	-0.038	-0.210
-557.471	800.000	-0.031	-0.110
-556.456	5.451	-0.198	-0.145
-555.442	99.735	-0.092	0.106
-554.427	14.717	-0.171	0.133
-553.412	-78.886	0.401	0.136
-552.398	-41.519	0.106	-0.054
-551.383	-97.705	0.375	0.096
-550.369	-99.262	0.163	0.041
-549.354	800.000	-0.118	-0.397
-548.339	-200.000	-0.033	0.174
-547.325	-137.457	0.121	0.014
-546.310	-200.000	-0.021	0.148
-545.296	285.304	0.132	0.236
-544.281	-200.000	-0.047	-0.524
-543.266	326.413	0.083	-0.158
-542.252	397.348	0.039	-0.082
-541.237	-140.160	-0.365	-0.038
-540.223	6.904	-0.058	-0.043
-539.208	-99.809	0.197	0.049
-538.193	-200.000	-0.001	-0.233
-537.179	-200.000	0.004	-0.215
-536.164	80.338	0.061	0.065
-535.150	-18.786	0.217	0.134
-534.135	-41.927	0.116	-0.059
-533.121	167.404	0.085	-0.121
-532.106	-59.355	0.213	0.091
-531.091	-166.706	-0.316	-0.013
-530.077	182.708	0.213	0.312
-529.062	-20.960	-0.342	0.208
-528.048	-200.000	0.005	-0.060
-527.033	17.549	0.311	0.246
-526.018	-102.418	0.103	0.025
-525.004	77.692	-0.176	-0.186
-523.989	-200.000	-0.014	0.234
-522.975	-72.683	-0.270	-0.099
-521.960	-200.000	-0.020	0.190
-520.945	800.000	0.067	-0.289
-519.931	253.061	-0.090	-0.153
-518.916	57.292	-0.149	0.144
-517.902	72.462	-0.153	-0.158
-516.887	358.401	0.153	0.304
-515.872	-200.000	0.003	0.170
-514.858	-136.309	-0.134	0.015
-513.843	634.017	0.115	0.290
-512.829	84.332	0.048	0.052
-511.814	1.891	-0.185	0.132
-510.799	112.721	-0.146	-0.175
-509.785	43.651	0.036	-0.033
-508.770	-48.985	-0.355	0.169
-507.756	-69.905	-0.369	-0.140
-506.741	204.443	-0.176	-0.271
-505.726	786.602	-0.028	0.075
-504.712	131.751	0.131	0.167
-503.697	27.575	0.234	-0.195
-502.683	-200.000	-0.012	-0.142
-501.668	-95.408	0.214	-0.057
-500.653	186.203	-0.137	0.203
-499.639	800.000	-0.128	0.422
-498.624	-200.000	0.039	0.240
-497.610	800.000	0.053	-0.230
-496.595	-200.000	0.024	-0.330
-495.581	-102.418	-0.088	0.021
-494.566	191.578	-0.101	0.150
-493.551	800.000	0.052	-0.150
-492.537	-129.582	0.282	0.039
-491.522	25.038	0.174	0.143
-490.508	-90.752	0.025	0.007
-489.493	-200.000	0.011	-0.244
-488.478	-77.887	0.236	-0.081
-487.464	-119.795	-0.300	0.051
-486.449	630.793	-0.107	-0.269
-485.435	-115.028	-0.137	0.026
-484.420	702.870	0.080	-0.209
-483.405	-165.602	0.222	0.010
-482.391	-32.162	-0.282	0.156
-481.376	-179.975	-0.249	0.005
-480.362	-200.000	0.024	-0.341
-479.347	275.414	0.189	-0.332
-478.332	160.666	0.212	-0.293
-477.318	295.033	0.064	-0.116
-476.303	264.600	0.105	0.181
-475.289	106.874	0.153	-0.180
-474.274	435.218	0.170	0.366
-473.259	-90.141	-0.107	-0.031
-472.245	246.644	0.102	0.170
-471.230	-39.869	-0.014	0.007
-470.216	-200.000	-0.004	0.021
-469.201	800.000	0.082	-0.238
-468.186	94.853	0.217	-0.244
-467.172	57.016	-0.250	0.242
-466.157	0.845	-0.321	-0.227
-465.143	71.914	-0.393	-0.404
-464.128	-65.009	-0.341	-0.137
-463.113	100.090	-0.179	-0.205
-462.099	204.231	-0.081	-0.125
-461.084	-12.219	-0.210	-0.136
-460.070	209.797	-0.087	0.136
-459.055	85.291	0.073	-0.079
-458.040	-87.947	-0.208	-0.062
-457.026	318.485	0.029	-0.055
-456.011	-32.868	0.069	0.038
-454.997	44.596	0.077	0.070
-453.982	615.818	0.098	0.243
-452.968	-56.005	0.393	0.173
-451.953	-174.603	0.172	-0.005
-450.938	-111.438	0.428	-0.086
-449.924	205.221	-0.222	-0.342
-448.909	417.437	0.150	0.318
-447.895	56.202	0.086	-0.082
-446.880	-125.671	-0.255	0.038
-445.865	-67.329	0.172	0.067
-444.851	-36.083	0.390	0.209
-443.836	-142.248	0.096	-0.009
-442.822	800.000	0.096	-0.280
-441.807	-27.779	0.219	-0.126
-440.792	8.521	-0.194	0.145
-439.778	-16.681	0.246	-0.154
-438.763	-200.000	0.090	-0.454
-437.749	129.890	0.117	0.149
-436.734	-85.569	-0.170	0.052
-435.719	598.581	-0.126	0.308
-434.705	800.000	0.107	0.314
-433.690	80.702	-0.185	-0.198
-432.676	349.414	-0.083	0.162
-431.661	48.932	-0.216	-0.200
-430.646	-97.705	0.248	0.063
-429.632	-200.000	0.028	-0.325
-428.617	45.262	0.180	-0.164
-427.603	-122.633	0.137	-0.022
-426.588	494.985	-0.115	-0.262
-425.573	537.975	0.087	-0.205
-424.559	316.584	-0.024	-0.045
-423.544	63.953	-0.056	-0.056
-422.530	-200.000	-0.037	-0.163
-421.515	16.785	0.364	-0.285
-420.500	-39.889	-0.120	0.062
-419.486	-161.433	-0.243	-0.012
-418.471	-82.233	-0.027	0.009
-417.457	45.180	0.167	0.152
-416.442	800.000	-0.075	0.245
-415.428	147.165	0.283	0.376
-414.413	-200.000	0.035	-0.200
-413.398	-200.000	-0.042	0.217
-412.384	-166.391	0.527	0.022
-411.369	800.000	0.099	0.402
-410.355	230.455	-0.128	0.206
-409.340	26.383	-0.041	0.034
-408.325	-60.222	-0.070	0.030
-407.311	-94.586	-0.408	0.110
-406.296	-122.851	0.120	-0.019
-405.282	-200.000	0.020	0.295
-404.267	438.973	-0.078	0.169
-403.252	-48.282	-0.326	-0.155
-402.238	800.000	0.073	0.311
-401.223	-200.000	0.075	-0.421
-400.209	-140.511	-0.346	-0.036
-399.194	110.739	0.181	0.216
-398.179	-101.436	0.079	0.019
-397.165	-200.000	-0.012	-0.089
-396.150	189.638	0.131	-0.193
-395.136	282.974	0.103	-0.182
-394.121	477.728	0.110	0.246
-393.106	-51.944	0.145	-0.067
-392.092	800.000	0.041	0.165
-391.077	208.637	0.122	0.188
-390.063	-88.080	-0.218	-0.065
-389.048	9.867	0.152	0.114
-388.033	210.075	0.039	0.060
-387.019	129.844	-0.190	-0.239
-386.004	-7.853	0.154	-0.103
-384.990	164.190	0.193	-0.268
-383.975	60.390	0.127	-0.124
-382.960	346.157	0.047	-0.091
-381.946	339.173	-0.099	0.190
-380.931	375.713	-0.075	0.151
-379.917	-147.441	-0.061	-0.005
-378.902	-200.000	-0.090	-0.435
-377.888	12.232	-0.337	-0.256
-376.873	-71.129	0.144	0.053
-375.858	256.126	0.095	-0.160
-374.844	409.076	0.140	0.292
-373.829	800.000	-0.099	-0.277
-372.815	759.975	-0.037	-0.099
-371.800	-62.750	-0.334	-0.137
-370.785	41.934	0.240	0.215
-369.771	800.000	-0.051	0.172
-368.756	-200.000	0.008	-0.063
-367.742	13.867	0.223	-0.171
-366.727	-200.000	-0.013	-0.092
-365.712	-200.000	0.005	0.153
-364.698	-55.436	0.198	0.087
-363.683	-118.954	-0.196	0.034
-362.669	-118.065	0.220	0.039
-361.654	543.301	0.091	0.214
-360.639	-105.585	-0.123	0.027
-359.625	46.891	-0.118	0.108
-358.610	800.000	0.068	0.232
-357.596	-91.461	0.018	0.005
-356.581	81.255	0.216	0.230
-355.566	-63.767	-0.178	-0.072
-354.552	231.931	-0.132	-0.214
-353.537	-35.763	0.024	0.013
-352.523	-51.797	0.292	-0.134
-351.508	-133.959	0.294	0.036
-350.493	77.919	-0.203	-0.213
-349.479	58.355	0.253	-0.245
-348.464	-200.000	-0.025	-0.395
-347.450	-3.948	0.114	0.078
-346.435	5.973	-0.180	-0.131
-345.420	-3.290	0.299	0.205
-344.406	142.847	0.163	-0.213
-343.391	-200.000	0.024	-0.159
-342.377	-16.881	0.101	0.063
-341.362	-41.734	0.300	-0.152
-340.348	51.301	-0.112	0.104
-339.333	800.000	-0.048	0.190
-338.318	68.911	-0.018	0.018
-337.304	800.000	0.053	-0.157
-336.289	406.751	-0.189	-0.392
-335.275	172.603	-0.152	-0.216
-334.260	800.000	0.013	0.036
-333.245	-150.849	0.208	0.016
-332.231	-104.746	0.370	-0.084
-331.216	800.000	0.040	0.110
-330.202	44.523	0.059	-0.053
-329.187	-200.000	0.024	0.177
-328.172	-200.000	0.001	-0.005
-327.158	158.230	0.131	0.180
-326.143	39.183	0.274	0.242
-325.129	-32.145	-0.160	-0.088
-324.114	-200.000	0.031	-0.158
-323.099	-16.734	0.080	0.050
-322.085	-123.097	0.132	0.021
-321.070	800.000	0.019	-0.070
-320.056	66.751	-0.265	-0.265
-319.041	-19.396	0.208	0.127
-318.026	800.000	-0.046	0.167
-317.012	-98.289	-0.287	0.073
-315.997	339.293	0.144	0.276
-314.983	-152.941	0.242	0.017
-313.968	-79.419	-0.142	-0.047
-312.953	25.195	-0.158	0.129
-311.939	112.466	0.101	-0.121
-310.924	417.093	-0.068	0.143
-309.910	80.635	-0.138	-0.147
-308.895	-200.000	0.044	-0.279
-307.880	287.287	-0.189	0.336
-306.866	-91.147	-0.107	-0.030
-305.851	94.630	0.101	-0.113
-304.837	9.169	-0.277	-0.206
-303.822	-200.000	-0.025	0.411
-302.807	515.887	0.133	-0.305
-301.793	-172.737	-0.167	-0.005
-300.778	284.473	0.137	0.242
-299.764	-200.000	0.037	0.271
-298.749	75.409	-0.084	0.087
-297.735	-132.010	0.188	0.024
-296.720	-200.000	0.028	-0.267
-295.705	-52.905	0.408	-0.185
-294.691	-52.921	-0.360	-0.163
-293.676	800.000	0.082	-0.233
-292.662	344.619	-0.035	-0.067
-291.647	800.000	-0.072	-0.262
-290.632	-12.746	0.059	-0.038
-289.618	373.388	0.065	0.129
-288.603	-72.859	0.306	-0.111
-287.589	-35.949	0.045	-0.024
-286.574	-200.000	-0.001	0.035
-285.559	-63.739	-0.101	0.041
-284.545	-200.000	0.080	-0.364
-283.530	-174.078	-0.132	-0.004
-282.516	800.000	-0.073	0.248
-281.501	-50.806	0.245	0.114
-280.486	92.186	-0.179	0.198
-279.472	219.632	0.105	-0.165
-278.457	-200.000	-0.007	-0.100
-277.443	-132.250	-0.051	-0.006
-276.428	-17.126	0.186	0.116
-275.413	156.000	-0.214	0.289
-274.399	121.462	-0.174	-0.213
-273.384	-123.990	-0.382	0.059
-272.370	-200.000	-0.055	0.306
-271.355	103.276	0.079	0.091
-270.340	32.906	-0.336	0.286
-269.326	-105.848	0.076	0.017
-268.311	-116.887	0.159	-0.029
-267.297	-200.000	-0.010	0.161
-266.282	-24.622	0.146	0.085
-265.267	-20.735	-0.180	-0.109
-264.253	13.573	0.139	0.106
-263.238	98.091	0.250	-0.282
-262.224	12.555	-0.146	0.111
-261.209	-44.478	-0.075	-0.037
-260.195	800.000	-0.105	0.368
-259.180	-18.603	-0.170	0.104
-258.165	-125.546	0.171	0.026
-257.151	216.103	0.016	-0.025
-256.136	-16.901	-0.182	-0.113
-255.122	-133.470	-0.173	-0.021
-254.107	2.613	-0.090	0.064
-253.092	-200.000	0.045	-0.195
-252.078	715.257	-0.161	0.418
-251.063	-121.085	0.335	-0.055
-250.049	-200.000	-0.017	-0.172
-249.034	170.775	0.111	0.157
-248.019	-108.670	-0.307	0.065
-247.005	233.057	0.027	0.043
-245.990	266.606	-0.017	0.030
-244.976	688.750	0.139	-0.357
-243.961	615.067	-0.108	-0.265
-242.946	-200.000	-0.002	0.114
-241.932	5.383	0.097	-0.070
-240.917	-200.000	-0.010	0.123
-239.903	-25.780	-0.319	0.185
-238.888	-100.473	0.362	0.088
-237.873	33.775	-0.169	-0.144
-236.859	-69.034	-0.227	0.086
-235.844	-200.000	0.022	0.190
-234.830	-153.995	0.154	0.010
-233.815	800.000	-0.026	-0.075
-232.800	-29.318	0.142	-0.080
-231.786	-200.000	-0.008	0.112
-230.771	800.000	-0.040	0.161
-229.757	157.752	0.163	0.221
-228.742	-129.741	0.247	0.033
-227.727	-104.502	-0.350	0.079
-226.713	800.000	-0.027	0.113
-225.698	249.011	0.106	-0.176
-224.684	-200.000	0.012	-0.239
-223.669	92.795	0.035	0.039
-222.655	336.714	0.133	0.253
-221.640	19.800	-0.101	0.079
-220.625	800.000	-0.048	-0.139
-219.611	-123.971	-0.260	-0.040
-218.596	-200.000	-0.008	0.092
-217.582	50.299	0.238	-0.220
-216.567	-22.487	-0.130	-0.077
-215.552	-39.055	-0.247	-0.128
-214.538	-200.000	-0.012	0.205
-213.523	-83.334	-0.123	-0.039
-212.509	-102.748	-0.139	0.032
-211.494	-106.275	0.225	0.049
-210.479	87.728	0.138	0.150
-209.465	-200.000	-0.008	0.167
-208.450	297.735	0.073	0.131
-207.436	687.462	0.086	-0.220
-206.421	-200.000	0.025	-0.251
-205.406	156.737	0.253	-0.343
-204.392	-200.000	0.020	0.133
-203.377	701.150	-0.064	-0.165
-202.363	-200.000	0.036	-0.338
-201.348	-67.896	-0.209	-0.080
-200.333	-46.806	-0.102	0.049
-199.319	48.814	0.406	0.373
-198.304	-200.000	0.048	0.296
-197.290	-80.639	-0.450	-0.147
-196.275	69.187	-0.130	-0.131
-195.260	-128.247	-0.364	0.051
-194.246	56.948	-0.215	0.206
-193.231	77.373	-0.016	0.017
-192.217	-42.657	0.209	-0.104
-191.202	-200.000	-0.036	-0.323
-190.187	355.853	-0.076	0.148
-189.173	-200.000	-0.037	0.415
-188.158	-200.000	0.024	0.348
-187.144	-28.077	0.155	0.088
-186.129	-200.000	-0.054	0.448
-185.114	775.269	0.075	-0.201
-184.100	169.540	0.195	-0.273
-183.085	52.114	0.101	0.095
-182.071	-200.000	0.018	0.150
-181.056	-200.000	-0.008	-0.116
-180.042	-45.260	-0.155	-0.075
-179.027	-150.565	0.448	0.034
-178.012	800.000	-0.019	0.056
-176.998	252.282	-0.156	0.261
-175.983	141.702	-0.145	-0.188
-174.969	-31.987	0.089	-0.049
-173.954	800.000	0.034	-0.121
-172.939	-200.000	0.029	0.133
-171.925	-121.435	-0.343	-0.056
-170.910	-200.000	0.027	-0.145
-169.896	11.513	-0.063	0.048
-168.881	130.715	0.032	0.040
-167.866	163.835	0.132	-0.181
-166.852	-200.000	-0.024	0.184
-165.837	-25.912	-0.281	-0.162
-164.823	151.408	0.070	-0.093
-163.808	280.107	-0.124	0.216
-162.793	-20.485	0.350	0.211
-161.779	-51.792	-0.378	-0.172
-160.764	-200.000	-0.034	-0.248
-159.750	-138.186	-0.453	0.049
-158.735	-97.456	0.608	0.155
-157.720	-171.146	-0.266	0.009
-156.706	-200.000	0.129	-0.000
-155.691	193.445	-0.178	0.264
-154.677	-62.318	0.163	0.067
-153.662	800.000	-0.042	-0.158
-152.647	-28.467	0.162	-0.091
-151.633	-200.000	-0.045	0.326
-150.618	174.650	0.336	-0.475
-149.604	-3.509	-0.356	0.242
-148.589	658.240	-0.070	0.175
-147.574	577.144	-0.185	0.441
-146.560	800.000	-0.056	0.176
-145.545	707.569	-0.083	0.214
-144.531	338.773	-0.180	0.344
-143.516	183.654	-0.172	-0.249
-142.502	20.655	0.298	-0.236
-141.487	120.562	0.074	0.090
-140.472	667.337	-0.130	0.328
-139.458	-107.958	0.054	0.011
-138.443	-134.920	-0.161	0.019
-137.429	800.000	0.038	-0.137
-136.414	119.391	-0.130	-0.157
-135.399	221.664	0.164	0.257
-134.385	-62.166	-0.256	-0.104
-133.370	312.881	0.052	0.095
-132.356	-44.162	-0.069	0.034
-131.341	800.000	-0.088	0.315
-130.326	-140.195	0.166	0.017
-129.312	-35.352	0.261	0.139
-128.297	82.121	-0.111	-0.118
-127.283	-14.870	0.132	0.083
-126.268	15.987	0.230	0.177
-125.253	290.049	-0.105	-0.187
-124.239	43.432	0.406	0.362
-123.224	35.563	0.137	0.117
-122.210	-200.000	-0.019	-0.229
-121.195	-145.180	-0.341	-0.030
-120.180	800.000	-0.043	-0.122
