DTS Sentinel unit serial number:	SN413079Multiplexer serial number:	ORYXHardware model number:	OX4-SRSoftware version number:	ORYX F/W v4.00 Oryx Data Collector v3.7.2.0data status	okinstallation	princeton_trtdifferential loss correction	single-endedforward channel	channel 2reverse channel	N/Adate	2019/09/11time	10:01:11forward acquisition time	60.00reverse acquisition time	0.00gamma	496.2192k internal	0.2314k external	0.2314temperature offset calibration	0.9968default loss term (dB/km)	0.3790temperature slope calibration	1.0000multiplexer offset coefficient	1.0000multiplexer slope coefficient	1.0000fibre end	0.00T internal ref (°C)	35.37T ext. ref 1 (°C)	0.15T ext. ref 2 (°C)	32.76length (m)	temperature (°C)	Stokes	anti-Stokes-747.200	-93.002	0.221	-0.062
-746.185	1.143	0.078	0.057
-745.171	-106.897	-0.586	-0.132
-744.156	50.167	0.178	-0.170
-743.142	404.210	-0.069	0.148
-742.127	-121.757	-0.081	0.014
-741.112	63.569	-0.177	0.180
-740.098	171.493	-0.178	0.259
-739.083	58.804	-0.387	0.386
-738.069	-78.073	-0.297	-0.104
-737.054	502.394	-0.102	0.238
-736.039	-200.000	-0.010	-0.081
-735.025	148.999	0.066	0.091
-734.010	344.705	-0.069	0.137
-732.996	291.641	0.164	-0.303
-731.981	395.212	-0.149	0.315
-730.966	163.788	-0.319	0.455
-729.952	-200.000	-0.039	-0.314
-728.937	-32.636	-0.407	-0.230
-727.923	-151.715	-0.175	-0.013
-726.908	800.000	0.085	-0.254
-725.894	667.334	0.050	-0.131
-724.879	14.058	0.083	-0.065
-723.864	-200.000	-0.066	0.340
-722.850	-52.102	-0.386	-0.181
-721.835	800.000	-0.056	-0.171
-720.821	483.567	0.067	0.154
-719.806	92.632	-0.180	-0.206
-718.791	-19.553	-0.067	-0.042
-717.777	12.589	-0.291	-0.227
-716.762	-200.000	-0.014	-0.123
-715.748	398.917	-0.130	-0.275
-714.733	800.000	-0.020	-0.074
-713.718	-200.000	0.019	-0.333
-712.704	69.801	0.122	-0.127
-711.689	96.944	0.158	-0.183
-710.675	64.441	-0.237	-0.242
-709.660	-63.679	-0.437	-0.181
-708.645	-101.388	0.333	0.082
-707.631	-82.601	-0.409	-0.134
-706.616	-200.000	0.013	0.105
-705.602	800.000	-0.091	-0.380
-704.587	127.807	0.197	-0.253
-703.572	78.877	0.184	-0.199
-702.558	-93.186	-0.327	-0.092
-701.543	-0.464	-0.273	-0.196
-700.529	-109.467	-0.275	-0.059
-699.514	-48.552	0.199	-0.097
-698.499	800.000	-0.050	-0.142
-697.485	-1.311	0.056	-0.040
-696.470	800.000	0.038	-0.109
-695.456	51.158	0.108	-0.104
-694.441	-200.000	0.005	0.132
-693.426	-200.000	0.062	0.373
-692.412	62.952	0.140	-0.142
-691.397	189.110	0.041	0.061
-690.383	-80.178	-0.214	-0.073
-689.368	-200.000	-0.019	0.089
-688.354	-128.410	0.129	0.019
-687.339	-45.635	0.077	-0.038
-686.324	800.000	-0.054	-0.206
-685.310	800.000	0.062	-0.178
-684.295	-200.000	0.067	-0.507
-683.281	99.258	0.142	-0.166
-682.266	-153.276	0.122	0.009
-681.251	60.097	-0.249	-0.249
-680.237	-31.801	0.140	-0.079
-679.222	319.395	-0.072	-0.138
-678.208	-100.838	-0.098	-0.024
-677.193	195.061	0.072	0.111
-676.178	-4.456	-0.082	0.058
-675.164	-189.296	-0.042	0.000
-674.149	5.865	-0.148	-0.111
-673.135	166.934	0.107	-0.153
-672.120	-200.000	0.019	-0.140
-671.105	-200.000	0.051	-0.228
-670.091	220.469	-0.098	0.158
-669.076	-200.000	-0.106	0.489
-668.062	-102.626	-0.190	0.046
-667.047	172.195	-0.046	0.067
-666.032	-200.000	0.068	0.317
-665.018	-32.262	-0.111	0.063
-664.003	800.000	-0.086	-0.278
-662.989	-20.604	-0.153	0.095
-661.974	35.462	-0.308	0.273
-660.959	560.479	-0.058	0.141
-659.945	-99.274	-0.143	-0.037
-658.930	-121.402	-0.011	-0.002
-657.916	201.087	0.175	-0.271
-656.901	-84.032	-0.372	-0.119
-655.886	135.989	-0.117	0.154
-654.872	178.354	0.024	-0.035
-653.857	-31.633	-0.350	0.198
-652.843	159.083	-0.145	0.204
-651.828	-192.367	0.060	0.001
-650.814	10.515	0.019	0.015
-649.799	-200.000	0.042	-0.318
-648.784	-157.304	0.188	0.011
-647.770	95.750	-0.125	-0.144
-646.755	84.460	-0.070	-0.077
-645.741	137.339	0.145	-0.191
-644.726	-200.000	-0.015	-0.169
-643.711	6.514	-0.219	0.164
-642.697	-200.000	-0.019	-0.152
-641.682	412.833	-0.138	0.296
-640.668	-138.871	-0.083	0.009
-639.653	-112.025	-0.282	0.057
-638.638	-59.841	0.037	0.016
-637.624	-200.000	-0.015	0.071
-636.609	-200.000	0.002	0.037
-635.595	127.041	0.007	0.009
-634.580	-137.139	-0.138	-0.016
-633.565	35.002	-0.281	-0.248
-632.551	111.531	0.125	0.153
-631.536	-48.099	-0.100	-0.049
-630.522	39.959	0.264	-0.239
-629.507	-5.851	-0.275	0.190
-628.492	154.473	-0.159	-0.220
-627.478	259.288	0.240	0.417
-626.463	-117.290	-0.164	-0.030
-625.449	124.962	-0.059	-0.075
-624.434	-80.405	-0.150	0.051
-623.419	395.011	-0.121	-0.254
-622.405	-72.851	-0.249	0.093
-621.390	119.748	-0.083	0.104
-620.376	-83.687	-0.280	0.090
-619.361	-200.000	-0.016	-0.343
-618.346	65.905	0.258	-0.264
-617.332	60.091	0.202	-0.202
-616.317	106.795	-0.064	0.077
-615.303	-35.876	0.093	-0.051
-614.288	-158.813	-0.174	-0.010
-613.273	45.563	-0.340	-0.317
-612.259	-68.837	0.248	-0.097
-611.244	129.177	-0.077	-0.099
-610.230	-132.929	0.061	0.008
-609.215	-113.371	0.317	0.063
-608.201	144.017	-0.235	0.316
-607.186	-82.406	-0.109	0.036
-606.171	-200.000	0.026	0.127
-605.157	591.756	-0.168	-0.419
-604.142	-82.285	-0.329	0.108
-603.128	-200.000	-0.068	0.346
-602.113	-200.000	0.032	0.244
-601.098	51.033	0.028	0.027
-600.084	-55.062	-0.087	-0.039
-599.069	-200.000	0.015	0.178
-598.055	788.901	0.075	0.208
-597.040	152.720	0.128	0.177
-596.025	-45.018	-0.092	-0.046
-595.011	765.838	0.110	0.302
-593.996	-54.757	-0.408	-0.186
-592.982	306.548	-0.147	-0.276
-591.967	378.927	0.176	0.363
-590.952	-68.932	0.226	-0.088
-589.938	155.678	-0.266	0.369
-588.923	-158.516	-0.056	0.003
-587.909	800.000	-0.174	-0.491
-586.894	43.903	-0.093	0.086
-585.879	235.117	-0.223	-0.371
-584.865	-200.000	-0.013	0.093
-583.850	-200.000	0.036	0.228
-582.836	190.833	-0.124	0.187
-581.821	-143.955	-0.116	0.011
-580.806	164.214	-0.135	0.191
-579.792	109.144	-0.179	-0.216
-578.777	192.713	0.088	-0.134
-577.763	275.673	0.051	-0.092
-576.748	800.000	-0.059	0.209
-575.733	-140.663	0.180	0.019
-574.719	-200.000	-0.006	-0.176
-573.704	-162.476	0.071	-0.004
-572.690	-37.115	-0.303	-0.163
-571.675	185.548	-0.035	0.052
-570.661	57.224	-0.179	0.176
-569.646	-52.785	0.129	0.060
-568.631	-200.000	-0.010	-0.095
-567.617	800.000	-0.040	-0.118
-566.602	13.769	-0.098	0.076
-565.588	-89.788	0.195	-0.058
-564.573	43.601	0.124	0.114
-563.558	-7.078	-0.160	-0.109
-562.544	-56.140	0.164	0.073
-561.529	-46.838	-0.131	0.065
-560.515	-30.597	0.209	0.119
-559.500	139.994	0.016	-0.022
-558.485	-1.587	-0.185	0.131
-557.471	-150.302	0.307	-0.024
-556.456	100.681	-0.060	0.071
-555.442	800.000	-0.118	-0.354
-554.427	-130.007	-0.072	-0.010
-553.412	-107.644	-0.089	0.020
-552.398	-23.406	0.095	-0.058
-551.383	-48.665	-0.191	0.092
-550.369	60.008	0.150	-0.149
-549.354	15.907	0.158	0.125
-548.339	-200.000	0.011	-0.106
-547.325	-135.305	-0.086	-0.010
-546.310	76.943	-0.041	0.044
-545.296	800.000	0.068	-0.209
-544.281	202.981	-0.068	-0.105
-543.266	260.191	-0.054	-0.094
-542.252	-73.697	0.067	-0.025
-541.237	-200.000	0.029	0.240
-540.223	-4.507	-0.105	-0.073
-539.208	176.290	-0.177	-0.259
-538.193	-200.000	0.008	-0.214
-537.179	-34.762	0.075	0.041
-536.164	69.627	0.029	-0.030
-535.150	21.793	0.138	-0.113
-534.135	-200.000	0.019	-0.109
-533.121	-51.006	-0.166	0.078
-532.106	117.328	0.013	-0.016
-531.091	-71.187	0.084	0.032
-530.077	800.000	0.045	-0.172
-529.062	-123.643	-0.175	0.028
-528.048	57.127	0.086	0.084
-527.033	442.911	0.042	-0.092
-526.018	-169.158	-0.270	0.010
-525.004	3.748	-0.191	0.140
-523.989	-200.000	0.050	0.286
-522.975	74.357	-0.134	-0.141
-521.960	5.911	-0.114	0.085
-520.945	186.732	-0.154	-0.230
-519.931	611.539	0.040	-0.100
-518.916	13.110	0.261	-0.203
-517.902	-200.000	0.017	-0.211
-516.887	431.593	0.112	-0.244
-515.872	-50.765	-0.233	-0.110
-514.858	19.497	-0.106	0.085
-513.843	800.000	0.146	0.534
-512.829	367.655	-0.055	0.112
-511.814	16.371	-0.032	0.026
-510.799	-200.000	0.008	0.181
-509.785	252.972	0.125	-0.214
-508.770	112.798	0.151	-0.184
-507.756	-156.376	-0.241	0.015
-506.741	205.701	0.077	0.120
-505.726	745.955	-0.034	0.092
-504.712	592.390	0.090	-0.223
-503.697	12.547	-0.055	-0.043
-502.683	-33.559	0.109	-0.061
-501.668	-21.235	0.060	-0.037
-500.653	-63.789	0.332	-0.136
-499.639	42.167	0.182	-0.166
-498.624	-56.625	-0.206	0.092
-497.610	-80.655	0.284	0.095
-496.595	800.000	-0.074	0.251
-495.581	-200.000	0.035	0.216
-494.566	-126.230	-0.152	0.023
-493.551	-130.004	0.296	-0.041
-492.537	-122.665	0.091	0.015
-491.522	-123.431	0.231	-0.037
-490.508	-158.801	0.102	0.006
-489.493	-82.119	0.317	0.104
-488.478	309.143	-0.050	-0.094
-487.464	45.553	-0.146	-0.135
-486.449	-74.457	-0.311	-0.113
-485.435	92.187	-0.063	-0.071
-484.420	425.511	-0.052	-0.112
-483.405	-35.749	-0.139	0.075
-482.391	132.457	0.439	0.567
-481.376	-46.745	0.097	0.047
-480.362	-69.559	0.224	0.086
-479.347	-45.627	-0.261	0.129
-478.332	784.496	0.125	0.343
-477.318	-39.018	-0.259	0.137
-476.303	-39.800	-0.408	-0.214
-475.289	14.230	0.338	0.264
-474.274	-38.580	-0.154	0.082
-473.259	58.651	-0.081	0.080
-472.245	-54.017	-0.076	0.035
-471.230	-9.860	0.078	0.052
-470.216	-85.133	0.127	-0.040
-469.201	-116.734	-0.232	-0.043
-468.186	198.027	0.102	0.157
-467.172	339.619	0.033	-0.065
-466.157	98.812	0.151	0.175
-465.143	421.118	-0.073	0.157
-464.128	800.000	0.042	-0.143
-463.113	-81.938	0.326	-0.107
-462.099	46.520	0.194	-0.181
-461.084	511.925	-0.090	-0.210
-460.070	-44.879	-0.129	0.065
-459.055	41.485	0.129	0.117
-458.040	-200.000	-0.003	-0.228
-457.026	-38.614	-0.176	0.093
-456.011	-98.995	-0.097	0.025
-454.997	-200.000	-0.007	0.207
-453.982	800.000	-0.096	0.370
-452.968	-169.675	0.303	-0.011
-451.953	24.821	-0.228	-0.190
-450.938	-92.083	0.184	-0.052
-449.924	-27.399	-0.135	0.078
-448.909	100.921	0.187	-0.218
-447.895	-154.851	0.248	0.016
-446.880	59.809	0.349	0.345
-445.865	-194.999	0.129	-0.001
-444.851	800.000	-0.095	-0.412
-443.836	-143.377	-0.239	0.023
-442.822	382.164	0.120	0.248
-441.807	800.000	0.038	-0.142
-440.792	-200.000	-0.021	-0.501
-439.778	-37.993	0.307	0.164
-438.763	-200.000	-0.008	0.065
-437.749	-200.000	-0.013	-0.146
-436.734	800.000	-0.045	-0.127
-435.719	455.286	0.065	-0.145
-434.705	-96.184	0.088	-0.023
-433.690	-74.902	-0.074	-0.027
-432.676	800.000	0.031	0.101
-431.661	-17.598	0.127	0.080
-430.646	-88.371	-0.124	0.037
-429.632	800.000	0.082	0.312
-428.617	-7.601	0.228	0.154
-427.603	106.759	-0.175	-0.207
-426.588	-132.286	0.199	-0.026
-425.573	211.441	0.110	-0.173
-424.559	-55.567	0.251	0.113
-423.544	25.141	0.124	0.103
-422.530	-200.000	0.031	-0.269
-421.515	-127.814	-0.035	-0.005
-420.500	-122.609	0.035	-0.006
-419.486	41.512	0.182	-0.165
-418.471	-121.722	-0.132	0.022
-417.457	249.838	0.137	0.232
-416.442	292.839	-0.192	0.350
-415.428	-129.820	0.149	0.021
-414.413	94.831	-0.052	0.060
-413.398	-28.447	0.356	0.205
-412.384	-200.000	0.034	-0.207
-411.369	23.389	-0.276	-0.227
-410.355	14.585	0.222	0.174
-409.340	-108.679	-0.328	-0.070
-408.325	-200.000	0.030	0.216
-407.311	384.221	-0.222	0.457
-406.296	89.887	-0.083	0.093
-405.282	9.385	0.192	0.145
-404.267	-200.000	-0.022	0.215
-403.252	-120.609	0.091	0.015
-402.238	223.441	-0.062	-0.100
-401.223	-173.279	-0.080	0.002
-400.209	96.959	-0.161	-0.185
-399.194	264.394	0.193	0.336
-398.179	-114.475	-0.365	0.070
-397.165	560.272	-0.067	-0.162
-396.150	-106.011	0.071	0.016
-395.136	-6.110	-0.340	0.232
-394.121	-199.019	0.351	0.002
-393.106	800.000	-0.041	0.125
-392.092	83.622	0.051	-0.056
-391.077	-98.146	0.388	0.100
-390.063	-154.061	0.147	-0.010
-389.048	-64.146	-0.246	-0.100
-388.033	-90.980	0.215	0.062
-387.019	-200.000	0.012	0.661
-386.004	-42.278	-0.283	-0.145
-384.990	57.358	0.108	0.105
-383.975	514.779	0.042	-0.098
-382.960	6.801	0.171	0.128
-381.946	800.000	0.112	-0.448
-380.931	391.735	-0.078	0.161
-379.917	-61.397	0.087	0.037
-378.902	43.829	-0.218	-0.200
-377.888	-200.000	-0.033	-0.306
-376.873	19.479	0.090	-0.072
-375.858	267.062	0.191	-0.333
-374.844	740.281	-0.119	-0.320
-373.829	800.000	0.053	0.195
-372.815	-159.487	0.239	-0.013
-371.800	-200.000	-0.020	-0.109
-370.785	-200.000	-0.059	0.277
-369.771	75.483	-0.003	-0.004
-368.756	-150.842	-0.179	0.014
-367.742	416.595	-0.097	0.206
-366.727	-149.384	0.259	0.021
-365.712	800.000	0.105	-0.330
-364.698	-200.000	0.024	-0.131
-363.683	85.621	0.105	0.115
-362.669	-103.170	0.356	-0.084
-361.654	169.745	-0.270	-0.386
-360.639	59.775	0.203	0.200
-359.625	439.655	-0.039	-0.085
-358.610	454.532	-0.026	0.059
-357.596	-157.140	0.243	-0.015
-356.581	183.473	0.157	-0.232
-355.566	-33.716	0.068	-0.037
-354.552	-59.654	0.187	0.080
-353.537	-18.173	-0.116	0.073
-352.523	-112.091	-0.416	-0.084
-351.508	-120.030	-0.251	0.043
-350.493	2.255	-0.154	-0.111
-349.479	-27.445	-0.076	-0.044
-348.464	538.749	0.030	0.071
-347.450	-21.145	-0.415	-0.254
-346.435	-200.000	-0.026	-0.167
-345.420	-10.075	0.181	0.120
-344.406	35.043	-0.119	0.104
-343.391	134.869	-0.085	0.110
-342.377	-34.349	0.278	-0.152
-341.362	-65.093	-0.211	-0.085
-340.348	169.570	0.214	-0.305
-339.333	-96.922	0.148	-0.039
-338.318	-145.116	-0.356	-0.032
-337.304	-39.077	-0.199	-0.104
-336.289	-200.000	-0.029	0.149
-335.275	-200.000	0.001	0.030
-334.260	-200.000	0.028	-0.176
-333.245	-107.658	-0.125	-0.027
-332.231	-200.000	0.022	-0.100
-331.216	-112.278	0.242	-0.048
-330.202	302.025	0.114	-0.209
-329.187	-200.000	0.038	0.192
-328.172	339.351	0.067	0.130
-327.158	1.462	-0.302	0.217
-326.143	-139.899	0.205	-0.022
-325.129	148.280	-0.107	0.144
-324.114	800.000	0.077	0.309
-323.099	-73.959	0.207	0.075
-322.085	294.170	0.168	0.306
-321.070	34.425	-0.147	0.128
-320.056	-92.841	0.051	-0.014
-319.041	73.640	-0.097	-0.102
-318.026	106.816	0.083	0.098
-317.012	528.115	0.094	0.221
-315.997	-126.409	-0.344	-0.051
-314.983	-200.000	0.086	0.402
-313.968	94.220	0.029	-0.033
-312.953	800.000	0.074	0.211
-311.939	-148.392	0.146	-0.012
-310.924	30.790	0.370	0.316
-309.910	220.907	-0.097	0.155
-308.895	488.568	0.063	-0.143
-307.880	-103.335	-0.206	0.048
-306.866	5.671	-0.178	-0.131
-305.851	-52.541	-0.056	-0.026
-304.837	-162.791	0.308	0.015
-303.822	-8.312	0.148	-0.099
-302.807	800.000	0.092	-0.290
-301.793	-146.489	0.220	-0.019
-300.778	93.377	0.111	-0.125
-299.764	33.025	-0.161	0.139
-298.749	-50.890	-0.085	-0.040
-297.735	-75.526	0.259	0.092
-296.720	-98.951	-0.010	-0.003
-295.705	-200.000	0.004	0.207
-294.691	686.631	-0.143	0.373
-293.676	-6.997	0.078	0.053
-292.662	92.808	-0.189	0.213
-291.647	-48.179	-0.286	-0.138
-290.632	800.000	0.028	-0.118
-289.618	131.376	-0.053	0.067
-288.603	-79.286	0.520	-0.176
-287.589	-4.396	-0.017	-0.012
-286.574	681.201	-0.037	-0.096
-285.559	121.076	-0.129	-0.160
-284.545	-14.031	0.157	0.101
-283.530	-118.532	0.235	0.041
-282.516	-200.000	-0.029	-0.381
-281.501	-200.000	0.021	-0.152
-280.486	24.806	0.102	0.084
-279.472	376.767	-0.105	-0.213
-278.457	-139.363	0.166	-0.018
-277.443	394.058	-0.050	0.104
-276.428	-200.000	-0.053	0.254
-275.413	-170.397	-0.308	0.011
-274.399	3.829	0.404	-0.293
-273.384	-200.000	-0.009	-0.135
-272.370	43.276	0.131	0.119
-271.355	-132.506	0.264	0.034
-270.340	-134.936	-0.196	-0.024
-269.326	800.000	0.006	-0.020
-268.311	514.401	-0.083	0.194
-267.297	-64.245	-0.347	0.141
-266.282	-83.747	0.086	0.027
-265.267	-28.774	-0.143	-0.082
-264.253	3.521	0.225	-0.163
-263.238	260.953	-0.156	-0.268
-262.224	-200.000	-0.026	-0.312
-261.209	-21.963	0.314	0.190
-260.195	-43.487	0.134	-0.067
-259.180	-43.081	0.155	0.078
-258.165	800.000	0.119	0.328
-257.151	-15.613	0.115	0.073
-256.136	-108.342	-0.448	-0.096
-255.122	-81.432	-0.164	-0.054
-254.107	6.827	-0.075	-0.055
-253.092	800.000	0.086	-0.340
-252.078	800.000	0.078	0.235
-251.063	94.522	0.051	0.058
-250.049	-146.309	-0.114	0.010
-249.034	-126.996	0.103	-0.015
-248.019	37.505	0.260	-0.230
-247.005	788.005	0.045	-0.122
-245.990	30.564	-0.300	0.255
-244.976	98.776	-0.089	-0.102
-243.961	-200.000	0.023	-0.216
-242.946	160.487	0.103	0.143
-241.932	131.826	0.204	0.260
-240.917	32.131	-0.152	0.130
-239.903	-7.618	-0.243	-0.163
-238.888	59.948	-0.048	0.047
-237.873	492.110	0.080	0.183
-236.859	-30.421	0.216	-0.122
-235.844	87.776	-0.141	-0.156
-234.830	78.659	-0.046	-0.049
-233.815	800.000	-0.077	-0.316
-232.800	-91.758	-0.171	-0.048
-231.786	132.685	-0.250	-0.320
-230.771	800.000	0.063	-0.216
-229.757	-108.885	0.264	0.056
-228.742	800.000	0.052	-0.207
-227.727	-13.594	0.046	-0.030
-226.713	-200.000	-0.049	0.455
-225.698	-104.266	-0.148	0.034
-224.684	36.697	-0.190	-0.167
-223.669	56.346	0.104	0.101
-222.655	-24.810	0.190	-0.112
-221.640	-132.424	-0.102	0.013
-220.625	-5.052	-0.196	0.134
-219.611	-34.362	-0.199	0.108
-218.596	-71.835	0.250	0.093
-217.582	-200.000	0.017	0.227
-216.567	256.797	-0.111	-0.189
-215.552	800.000	-0.006	0.020
-214.538	131.384	0.221	0.282
-213.523	-200.000	0.071	0.310
-212.509	-200.000	0.019	-0.128
-211.494	250.920	0.082	0.138
-210.479	-73.426	-0.072	0.026
-209.465	-150.092	0.330	-0.025
-208.450	618.752	-0.030	0.074
-207.436	-32.383	0.282	0.156
-206.421	-65.319	-0.170	0.068
-205.406	800.000	0.060	0.238
-204.392	-115.103	-0.239	-0.045
-203.377	-58.336	-0.057	-0.025
-202.363	92.985	0.213	0.239
-201.348	-72.207	-0.362	-0.133
-200.333	345.780	-0.060	0.118
-199.319	31.929	0.202	0.173
-198.304	55.189	0.183	-0.176
-197.290	-174.372	0.198	-0.006
-196.275	94.072	-0.067	0.076
-195.260	357.222	-0.147	0.291
-194.246	-49.997	-0.186	-0.087
-193.231	148.452	-0.126	-0.169
-192.217	374.121	-0.070	-0.140
-191.202	-31.616	0.147	-0.082
-190.187	-163.709	-0.135	0.006
-189.173	60.723	0.038	0.037
-188.158	800.000	-0.032	0.129
-187.144	-126.752	-0.400	-0.059
-186.129	-18.750	-0.068	0.042
-185.114	800.000	-0.013	-0.053
-184.100	632.471	-0.137	-0.344
-183.085	-33.000	-0.420	-0.231
-182.071	-200.000	-0.010	-0.084
-181.056	50.986	0.099	-0.093
-180.042	-200.000	-0.012	-0.251
-179.027	385.694	0.022	0.044
-178.012	-70.414	0.432	0.163
-176.998	-27.544	-0.404	-0.233
-175.983	-22.916	0.046	-0.027
-174.969	800.000	0.014	-0.046
-173.954	266.788	0.104	-0.180
-172.939	11.253	-0.015	0.011
-171.925	140.065	-0.078	-0.101
-170.910	-3.370	-0.209	0.144
-169.896	800.000	0.039	0.132
-168.881	769.940	0.040	-0.107
-167.866	-200.000	0.038	-0.229
-166.852	56.200	0.182	-0.176
-165.837	98.807	-0.153	0.175
-164.823	800.000	-0.090	0.367
-163.808	-120.395	0.191	-0.032
-162.793	-200.000	0.039	-0.244
-161.779	19.689	-0.231	-0.184
-160.764	-65.053	-0.340	0.136
-159.750	-132.129	0.247	0.032
-158.735	774.672	0.024	0.064
-157.720	-156.387	0.419	-0.026
-156.706	-109.930	0.031	0.007
-155.691	800.000	0.050	0.208
-154.677	-200.000	0.021	-0.152
-153.662	-80.861	0.255	0.084
-152.647	303.350	0.074	-0.136
-151.633	-107.271	-0.230	-0.050
-150.618	18.701	-0.052	-0.041
-149.604	800.000	0.054	-0.188
-148.589	-75.951	-0.238	0.084
-147.574	46.076	0.335	-0.307
-146.560	133.719	-0.074	-0.095
-145.545	-80.649	0.141	-0.047
-144.531	-118.761	-0.214	0.037
-143.516	-60.098	-0.212	0.090
-142.502	179.107	0.083	-0.120
-141.487	205.340	0.057	0.088
-140.472	503.393	0.098	0.225
-139.458	125.969	-0.257	0.322
-138.443	-39.068	-0.226	-0.118
-137.429	-141.911	-0.187	0.018
-136.414	44.382	0.204	0.186
-135.399	-200.000	-0.002	-0.121
-134.385	-27.840	0.153	-0.088
-133.370	12.936	0.190	0.145
-132.356	-48.237	0.101	0.048
-131.341	215.440	0.028	-0.044
-130.326	-161.139	0.060	0.003
-129.312	-13.517	0.285	-0.183
-128.297	-114.045	0.172	0.033
-127.283	-152.554	-0.059	0.004
-126.268	-108.405	-0.196	-0.042
-125.253	-200.000	-0.039	-0.191
-124.239	134.394	-0.153	0.196
-123.224	235.047	-0.084	-0.137
-122.210	-24.096	-0.141	0.083
-121.195	34.022	0.107	0.092
-120.180	143.617	0.070	0.093
