DTS Sentinel unit serial number:	SN413079Multiplexer serial number:	ORYXHardware model number:	OX4-SRSoftware version number:	ORYX F/W v4.00 Oryx Data Collector v3.7.2.0data status	okinstallation	princeton_trtdifferential loss correction	single-endedforward channel	channel 2reverse channel	N/Adate	2019/09/18time	20:15:35forward acquisition time	60.00reverse acquisition time	0.00gamma	496.2192k internal	0.2334k external	0.2334temperature offset calibration	1.0036default loss term (dB/km)	0.3790temperature slope calibration	1.0000multiplexer offset coefficient	1.0000multiplexer slope coefficient	1.0000fibre end	0.00T internal ref (°C)	29.27T ext. ref 1 (°C)	1.05T ext. ref 2 (°C)	19.95length (m)	temperature (°C)	Stokes	anti-Stokes-747.200	171.455	0.183	0.264
-746.185	130.218	-0.060	0.077
-745.171	-114.447	-0.118	-0.023
-744.156	-200.000	0.058	0.275
-743.142	79.273	-0.148	0.160
-742.127	-78.360	0.317	0.109
-741.112	-19.192	-0.238	-0.149
-740.098	276.622	-0.115	-0.206
-739.083	172.007	0.098	-0.142
-738.069	800.000	0.066	0.188
-737.054	80.908	-0.244	0.265
-736.039	11.198	-0.230	-0.177
-735.025	800.000	0.014	-0.060
-734.010	80.253	-0.315	-0.340
-732.996	-159.885	-0.093	-0.005
-731.981	104.024	-0.105	-0.124
-730.966	-44.111	-0.132	0.066
-729.952	242.115	0.081	-0.135
-728.937	60.417	0.087	0.086
-727.923	-99.673	-0.171	-0.043
-726.908	-138.714	-0.167	0.018
-725.894	-16.901	-0.193	0.123
-724.879	331.962	-0.234	-0.453
-723.864	-51.087	0.190	0.090
-722.850	7.966	-0.021	-0.016
-721.835	-6.388	-0.268	-0.184
-720.821	-80.213	0.379	-0.127
-719.806	-27.569	-0.388	-0.226
-718.791	-148.813	0.224	-0.018
-717.777	-30.565	-0.314	-0.179
-716.762	142.718	-0.201	0.268
-715.748	2.594	-0.075	0.055
-714.733	-149.479	0.255	-0.020
-713.718	800.000	0.069	0.221
-712.704	800.000	-0.029	-0.102
-711.689	-200.000	-0.030	0.143
-710.675	800.000	-0.128	-0.363
-709.660	140.267	0.145	-0.192
-708.645	-113.814	-0.259	-0.051
-707.631	-43.645	0.308	-0.156
-706.616	-96.554	-0.195	0.052
-705.602	800.000	-0.020	0.077
-704.587	302.959	-0.081	-0.151
-703.572	158.079	-0.189	0.263
-702.558	-67.552	0.252	-0.099
-701.543	-200.000	-0.055	0.303
-700.529	176.175	-0.233	-0.340
-699.514	-200.000	0.017	0.274
-698.499	-151.156	-0.306	0.023
-697.485	274.098	0.035	-0.063
-696.470	-134.498	0.258	0.032
-695.456	-200.000	0.034	-0.274
-694.441	69.120	-0.254	-0.262
-693.426	233.055	0.076	0.125
-692.412	-200.000	0.060	-0.300
-691.397	-150.101	0.213	-0.017
-690.383	-64.214	-0.267	0.109
-689.368	800.000	-0.132	0.389
-688.354	23.284	-0.134	-0.111
-687.339	-11.981	-0.144	-0.094
-686.324	162.497	-0.053	-0.074
-685.310	-63.579	-0.246	0.101
-684.295	-142.986	0.111	-0.011
-683.281	109.257	-0.190	-0.228
-682.266	-44.840	0.286	-0.143
-681.251	170.674	0.049	0.070
-680.237	-105.037	0.192	0.044
-679.222	-200.000	0.011	0.262
-678.208	310.765	0.031	0.057
-677.193	-73.874	0.260	0.095
-676.178	262.897	0.096	-0.167
-675.164	-8.770	-0.075	-0.051
-674.149	0.458	-0.244	0.175
-673.135	-79.581	0.158	0.054
-672.120	783.374	0.147	-0.403
-671.105	-200.000	-0.059	-0.377
-670.091	-97.173	0.222	-0.058
-669.076	13.267	0.178	0.138
-668.062	61.442	0.212	-0.212
-667.047	-57.869	-0.163	0.071
-666.032	-3.023	-0.186	0.130
-665.018	19.038	0.296	-0.238
-664.003	-151.167	-0.139	0.010
-662.989	-62.825	-0.253	-0.105
-661.974	-200.000	-0.010	0.186
-660.959	1.591	0.119	-0.086
-659.945	-200.000	0.003	0.150
-658.930	-96.415	-0.037	0.010
-657.916	-200.000	0.012	-0.136
-656.901	48.638	-0.164	0.154
-655.886	-200.000	0.047	0.351
-654.872	-152.728	0.120	-0.009
-653.857	-137.779	0.294	0.033
-652.843	80.477	-0.075	-0.081
-651.828	-58.784	0.191	-0.083
-650.814	-150.556	-0.352	-0.027
-649.799	-5.196	-0.267	-0.184
-648.784	-74.504	-0.063	0.023
-647.770	-69.214	0.280	-0.108
-646.755	128.173	-0.091	-0.116
-645.741	800.000	0.009	-0.039
-644.726	-177.059	-0.150	0.004
-643.711	18.158	-0.059	-0.047
-642.697	-131.147	-0.058	-0.008
-641.682	-200.000	-0.032	-0.162
-640.668	-74.953	0.198	-0.071
-639.653	-85.712	0.314	-0.098
-638.638	-45.468	-0.269	-0.133
-637.624	18.350	-0.357	0.286
-636.609	51.300	-0.052	0.049
-635.595	236.415	-0.052	-0.086
-634.580	56.131	-0.112	0.108
-633.565	-47.340	-0.194	-0.095
-632.551	-200.000	0.043	-0.500
-631.536	-74.448	-0.050	-0.018
-630.522	4.915	-0.124	0.091
-629.507	800.000	-0.053	-0.219
-628.492	-197.268	-0.149	0.001
-627.478	-200.000	0.002	-0.080
-626.463	800.000	-0.089	0.249
-625.449	800.000	-0.038	-0.109
-624.434	-149.113	0.070	-0.006
-623.419	-200.000	-0.034	0.274
-622.405	-134.013	0.102	0.013
-621.390	800.000	-0.109	-0.319
-620.376	-43.191	-0.252	0.127
-619.361	-133.006	0.258	0.033
-618.346	539.948	-0.126	-0.300
-617.332	-23.891	-0.190	-0.114
-616.317	-43.958	0.272	-0.137
-615.303	-32.670	-0.377	0.210
-614.288	-37.726	0.258	0.137
-613.273	60.525	-0.055	-0.054
-612.259	800.000	0.117	0.349
-611.244	261.145	-0.092	-0.159
-610.230	-131.541	0.007	0.001
-609.215	-37.287	0.301	-0.161
-608.201	800.000	0.031	0.088
-607.186	-200.000	0.057	0.355
-606.171	441.981	0.097	-0.212
-605.157	-101.386	-0.261	0.064
-604.142	-200.000	-0.010	0.089
-603.128	-200.000	-0.021	0.307
-602.113	-163.906	0.192	0.009
-601.098	-196.306	-0.181	0.001
-600.084	-200.000	-0.022	-0.338
-599.069	-200.000	0.019	0.171
-598.055	-200.000	0.015	-0.170
-597.040	90.192	-0.348	-0.389
-596.025	-200.000	-0.004	-0.374
-595.011	-200.000	0.035	-0.212
-593.996	-39.450	0.173	0.091
-592.982	-200.000	-0.021	-0.227
-591.967	5.035	0.229	-0.168
-590.952	-200.000	0.008	-0.127
-589.938	178.581	0.175	-0.256
-588.923	251.306	0.180	-0.307
-587.909	-200.000	-0.005	0.151
-586.894	-66.870	0.170	-0.067
-585.879	484.194	0.097	-0.220
-584.865	429.051	-0.156	0.337
-583.850	800.000	-0.066	0.191
-582.836	800.000	0.038	0.105
-581.821	-155.550	-0.100	0.006
-580.806	136.265	0.159	-0.207
-579.792	-102.152	0.163	-0.039
-578.777	119.705	-0.302	-0.374
-577.763	-200.000	0.031	-0.356
-576.748	-22.862	0.309	-0.186
-575.733	-27.594	0.127	-0.074
-574.719	-14.542	-0.323	-0.207
-573.704	53.087	0.174	0.166
-572.690	800.000	-0.046	0.161
-571.675	126.298	0.078	0.099
-570.661	53.393	-0.181	-0.173
-569.646	386.434	0.034	0.069
-568.631	403.209	-0.150	-0.316
-567.617	-9.129	0.327	0.218
-566.602	800.000	-0.099	-0.283
-565.588	-200.000	-0.020	0.156
-564.573	-200.000	0.052	0.316
-563.558	114.927	-0.093	-0.114
-562.544	-106.301	0.181	0.041
-561.529	64.064	0.096	-0.096
-560.515	136.424	-0.029	0.038
-559.500	-200.000	0.042	-0.201
-558.485	-58.281	-0.047	-0.021
-557.471	800.000	0.031	-0.109
-556.456	-118.595	-0.276	-0.049
-555.442	183.165	0.156	0.230
-554.427	-15.721	0.301	-0.191
-553.412	-95.728	-0.213	0.057
-552.398	292.294	-0.083	0.150
-551.383	-36.975	0.142	0.076
-550.369	-143.088	0.155	-0.015
-549.354	-38.326	-0.117	-0.062
-548.339	503.786	0.014	0.032
-547.325	23.558	0.206	-0.169
-546.310	800.000	-0.102	-0.309
-545.296	145.989	-0.145	-0.193
-544.281	83.080	-0.062	-0.067
-543.266	-111.041	0.147	-0.030
-542.252	-85.477	0.211	0.066
-541.237	-118.808	0.121	0.021
-540.223	348.135	-0.094	0.186
-539.208	-200.000	0.047	-0.219
-538.193	-170.275	-0.369	0.013
-537.179	94.784	0.050	-0.057
-536.164	16.829	-0.043	0.034
-535.150	-58.074	-0.155	0.067
-534.135	12.579	0.194	0.149
-533.121	-200.000	0.023	0.262
-532.106	-200.000	-0.017	-0.101
-531.091	-200.000	-0.016	-0.075
-530.077	-20.417	0.122	-0.075
-529.062	-25.613	0.300	0.176
-528.048	16.665	-0.356	-0.280
-527.033	-89.935	-0.261	-0.076
-526.018	800.000	0.047	0.168
-525.004	-23.574	0.199	-0.119
-523.989	222.963	-0.142	0.228
-522.975	-56.895	0.177	-0.078
-521.960	51.835	-0.103	0.097
-520.945	36.056	0.138	-0.121
-519.931	-200.000	0.038	0.170
-518.916	-88.254	0.249	-0.074
-517.902	800.000	-0.094	0.315
-516.887	-200.000	0.013	0.177
-515.872	-130.309	-0.197	0.027
-514.858	-100.557	0.203	0.050
-513.843	100.245	-0.151	-0.175
-512.829	20.827	0.025	0.020
-511.814	-121.641	0.047	-0.008
-510.799	308.045	0.064	0.119
-509.785	-26.337	-0.058	-0.034
-508.770	-15.484	-0.212	0.135
-507.756	444.447	-0.106	-0.231
-506.741	-200.000	-0.008	-0.062
-505.726	427.430	-0.134	0.287
-504.712	-33.608	0.234	0.128
-503.697	-41.905	0.184	-0.094
-502.683	-72.863	0.106	-0.039
-501.668	-72.574	-0.269	-0.099
-500.653	-134.004	-0.190	-0.023
-499.639	-200.000	-0.005	0.034
-498.624	800.000	-0.039	0.151
-497.610	331.457	0.092	0.177
-496.595	-200.000	-0.029	-0.128
-495.581	562.391	0.013	0.031
-494.566	-200.000	0.014	-0.163
-493.551	-200.000	0.040	-0.202
-492.537	-129.941	-0.236	-0.032
-491.522	-123.889	-0.040	0.006
-490.508	-28.247	-0.115	-0.066
-489.493	202.677	0.210	-0.323
-488.478	360.044	0.148	-0.295
-487.464	256.395	0.173	0.295
-486.449	464.467	0.169	0.376
-485.435	-185.747	0.274	-0.004
-484.420	-148.990	-0.310	-0.025
-483.405	-200.000	-0.035	0.199
-482.391	-16.795	-0.193	-0.121
-481.376	622.565	-0.045	0.112
-480.362	-167.458	-0.109	0.004
-479.347	24.824	-0.179	0.147
-478.332	-155.157	-0.266	-0.017
-477.318	49.432	0.102	-0.096
-476.303	-80.723	0.078	-0.026
-475.289	-59.763	-0.197	0.084
-474.274	-151.085	0.206	-0.015
-473.259	597.053	0.109	-0.269
-472.245	-102.979	-0.372	0.088
-471.230	-170.864	0.354	0.012
-470.216	-71.170	-0.029	0.011
-469.201	50.828	-0.325	-0.306
-468.186	800.000	0.047	0.151
-467.172	800.000	-0.045	-0.150
-466.157	111.219	-0.163	0.195
-465.143	-123.305	-0.238	-0.038
-464.128	-67.976	-0.209	-0.081
-463.113	24.435	-0.185	-0.152
-462.099	-11.873	-0.109	0.071
-461.084	-200.000	-0.033	0.189
-460.070	-21.959	-0.248	0.150
-459.055	-21.377	0.434	-0.263
-458.040	667.410	0.056	-0.143
-457.026	-127.832	0.253	0.036
-456.011	800.000	-0.016	0.048
-454.997	109.509	0.049	-0.058
-453.982	354.690	-0.065	-0.129
-452.968	-200.000	-0.022	-0.193
-451.953	-200.000	-0.004	0.053
-450.938	270.047	-0.058	-0.102
-449.924	64.577	-0.081	-0.082
-448.909	310.580	0.215	0.399
-447.895	61.433	0.080	-0.079
-446.880	99.378	0.102	-0.118
-445.865	-143.246	0.273	-0.026
-444.851	-26.276	-0.237	0.138
-443.836	-125.730	0.267	0.040
-442.822	-137.709	0.354	0.040
-441.807	-200.000	0.006	-0.134
-440.792	-200.000	-0.038	0.314
-439.778	800.000	-0.141	0.425
-438.763	-13.352	0.053	-0.034
-437.749	-123.570	-0.085	-0.013
-436.734	-22.555	-0.209	-0.126
-435.719	85.970	-0.094	-0.103
-434.705	-200.000	0.005	-0.382
-433.690	-26.881	0.169	0.098
-432.676	-24.458	-0.396	-0.234
-431.661	-108.929	-0.420	0.089
-430.646	800.000	-0.070	0.212
-429.632	-200.000	-0.061	0.400
-428.617	-68.379	0.140	-0.054
-427.603	-200.000	0.022	0.177
-426.588	-67.803	-0.270	0.105
-425.573	365.237	0.160	0.320
-424.559	266.514	-0.252	-0.437
-423.544	697.108	-0.081	0.212
-422.530	-146.540	0.166	-0.014
-421.515	-129.480	-0.219	-0.030
-420.500	-141.440	0.252	-0.025
-419.486	-164.985	-0.210	-0.009
-418.471	-117.912	0.176	-0.031
-417.457	479.642	-0.147	-0.331
-416.442	353.032	-0.060	-0.118
-415.428	8.607	-0.187	0.140
-414.413	18.064	-0.289	-0.229
-413.398	-200.000	0.099	-0.502
-412.384	-30.280	0.286	-0.161
-411.369	-200.000	0.029	0.181
-410.355	-200.000	-0.004	0.106
-409.340	25.369	-0.092	0.076
-408.325	112.793	-0.138	-0.166
-407.311	-200.000	-0.039	-0.177
-406.296	660.445	-0.143	-0.365
-405.282	111.377	0.164	-0.196
-404.267	-200.000	0.058	0.339
-403.252	46.666	-0.083	0.077
-402.238	-177.364	-0.300	0.007
-401.223	800.000	0.098	0.316
-400.209	-77.854	0.197	-0.068
-399.194	222.586	-0.178	-0.284
-398.179	-27.976	-0.261	0.150
-397.165	-86.776	-0.096	-0.029
-396.150	17.083	0.179	0.141
-395.136	-112.138	0.139	0.028
-394.121	67.729	0.043	-0.044
-393.106	104.238	-0.145	-0.169
-392.092	210.521	0.116	-0.180
-391.077	800.000	-0.010	-0.036
-390.063	-88.808	0.073	-0.022
-389.048	-27.574	-0.175	-0.101
-388.033	-103.298	0.208	-0.049
-387.019	488.370	-0.161	-0.365
-386.004	32.455	-0.216	0.185
-384.990	-200.000	0.007	0.312
-383.975	-186.023	-0.169	-0.002
-382.960	549.327	-0.111	0.265
-381.946	-200.000	-0.007	0.097
-380.931	-119.811	0.184	0.031
-379.917	609.448	-0.073	0.179
-378.902	-15.066	0.152	0.097
-377.888	-200.000	0.006	-0.259
-376.873	-96.482	0.080	0.021
-375.858	-9.267	0.147	-0.097
-374.844	-200.000	0.037	0.330
-373.829	5.006	-0.161	-0.118
-372.815	325.506	0.068	0.128
-371.800	-200.000	0.036	0.185
-370.785	-18.267	-0.170	-0.105
-369.771	110.892	-0.161	0.192
-368.756	-200.000	0.066	-0.306
-367.742	365.961	0.195	-0.390
-366.727	131.924	-0.184	-0.234
-365.712	83.780	0.108	0.117
-364.698	800.000	-0.048	0.140
-363.683	30.452	-0.053	-0.045
-362.669	-69.864	0.354	-0.134
-361.654	-141.437	-0.158	-0.016
-360.639	-200.000	-0.008	-0.219
-359.625	-28.558	0.124	-0.071
-358.610	-84.345	-0.365	0.114
-357.596	266.641	0.013	0.022
-356.581	-29.346	-0.139	-0.079
-355.566	-103.901	0.343	-0.079
-354.552	-65.880	-0.132	0.052
-353.537	-8.329	0.146	0.097
-352.523	-135.429	-0.027	0.003
-351.508	-45.383	0.073	0.036
-350.493	-200.000	-0.005	0.137
-349.479	-184.974	-0.203	0.003
-348.464	800.000	-0.143	0.428
-347.450	-200.000	0.004	-0.226
-346.435	32.650	-0.364	-0.311
-345.420	-200.000	-0.065	-0.390
-344.406	-128.808	0.142	0.020
-343.391	31.598	0.311	0.264
-342.377	125.187	-0.209	0.261
-341.362	-200.000	0.014	0.281
-340.348	-100.711	0.169	0.041
-339.333	-200.000	-0.019	0.236
-338.318	800.000	-0.027	-0.077
-337.304	-40.433	-0.385	-0.198
-336.289	-114.734	0.104	0.020
-335.275	95.655	0.090	0.101
-334.260	136.183	-0.134	-0.172
-333.245	16.928	-0.154	-0.120
-332.231	155.912	-0.141	0.192
-331.216	5.145	0.115	0.084
-330.202	-200.000	0.003	-0.152
-329.187	39.192	0.139	0.123
-328.172	267.603	-0.139	-0.241
-327.158	-17.312	0.083	0.052
-326.143	800.000	0.019	0.080
-325.129	39.785	0.202	0.179
-324.114	-200.000	-0.008	0.270
-323.099	-200.000	0.027	0.307
-322.085	-55.953	0.119	-0.053
-321.070	800.000	0.144	0.431
-320.056	94.455	-0.176	-0.198
-319.041	46.791	-0.208	-0.191
-318.026	-200.000	0.029	-0.131
-317.012	-6.538	0.105	-0.071
-315.997	28.050	0.360	0.300
-314.983	378.653	0.091	0.185
-313.968	14.763	0.094	0.073
-312.953	-35.298	0.273	-0.147
-311.939	-83.484	0.129	-0.041
-310.924	-7.310	0.244	-0.164
-309.910	-157.736	-0.135	0.008
-308.895	-151.958	0.484	-0.035
-307.880	144.655	0.152	-0.201
-306.866	-32.547	0.359	0.198
-305.851	171.667	0.285	0.405
-304.837	17.449	0.516	0.405
-303.822	192.585	0.124	-0.185
-302.807	-139.531	0.265	-0.028
-301.793	-45.737	-0.180	-0.088
-300.778	800.000	0.035	-0.133
-299.764	2.173	0.129	-0.092
-298.749	535.198	0.120	0.282
-297.735	-84.133	-0.289	-0.091
-296.720	625.442	-0.076	0.189
-295.705	19.865	-0.056	0.045
-294.691	-37.059	-0.066	0.035
-293.676	-68.812	0.270	-0.103
-292.662	67.538	-0.039	0.040
-291.647	-200.000	0.015	-0.282
-290.632	-138.796	0.155	-0.017
-289.618	684.748	0.059	0.153
-288.603	307.496	-0.145	-0.266
-287.589	-1.763	-0.141	-0.098
-286.574	-69.273	0.316	-0.120
-285.559	9.985	-0.406	-0.305
-284.545	-8.708	0.392	-0.260
-283.530	-60.859	-0.153	0.064
-282.516	-200.000	0.022	0.107
-281.501	-116.105	0.154	0.028
-280.486	-6.220	0.307	0.207
-279.472	-69.203	-0.249	0.094
-278.457	8.922	-0.183	0.136
-277.443	69.639	-0.177	-0.180
-276.428	162.233	-0.152	0.210
-275.413	-200.000	0.029	0.318
-274.399	-200.000	0.025	0.191
-273.384	-25.497	0.294	-0.172
-272.370	-50.539	0.102	0.048
-271.355	544.862	0.045	0.107
-270.340	-95.433	0.437	0.116
-269.326	-200.000	0.012	0.189
-268.311	281.116	0.123	0.218
-267.297	-99.158	0.139	0.035
-266.282	502.656	-0.077	0.175
-265.267	-200.000	0.022	0.275
-264.253	139.657	-0.351	-0.456
-263.238	-78.367	-0.053	0.018
-262.224	-200.000	0.030	0.000
-261.209	115.963	-0.086	-0.104
-260.195	-200.000	-0.126	0.567
-259.180	-3.096	-0.110	0.076
-258.165	-200.000	0.001	-0.015
-257.151	17.805	-0.089	0.070
-256.136	94.381	-0.245	0.275
-255.122	800.000	-0.035	-0.108
-254.107	-80.891	-0.152	-0.050
-253.092	-42.053	-0.219	-0.111
-252.078	245.076	0.029	-0.049
-251.063	-140.656	-0.213	-0.022
-250.049	580.607	0.045	-0.110
-249.034	-68.342	0.245	0.094
-248.019	61.306	0.126	0.123
-247.005	-200.000	-0.080	0.407
-245.990	-60.598	0.225	0.094
-244.976	-56.314	0.137	0.060
-243.961	248.434	0.293	0.489
-242.946	-200.000	0.014	0.087
-241.932	486.312	0.029	-0.065
-240.917	112.065	-0.038	0.045
-239.903	523.220	-0.100	0.231
-238.888	9.130	0.033	-0.025
-237.873	800.000	-0.099	-0.316
-236.859	-68.024	-0.098	-0.038
-235.844	800.000	-0.080	-0.242
-234.830	-59.061	0.242	-0.103
-233.815	-26.119	-0.191	0.111
-232.800	50.277	-0.082	-0.076
-231.786	408.994	0.160	-0.334
-230.771	-137.965	0.202	0.022
-229.757	31.652	0.072	-0.061
-228.742	800.000	-0.089	0.244
-227.727	-159.211	-0.172	0.010
-226.713	-200.000	-0.005	-0.099
-225.698	40.551	0.219	0.194
-224.684	800.000	0.081	-0.264
-223.669	71.691	0.023	0.023
-222.655	-200.000	0.202	0.001
-221.640	514.666	-0.115	0.265
-220.625	-51.707	0.120	0.055
-219.611	-37.551	-0.206	0.108
-218.596	-200.000	0.015	-0.100
-217.582	-35.833	-0.154	0.082
-216.567	-200.000	-0.001	-0.061
-215.552	-101.601	-0.397	0.095
-214.538	-100.795	0.153	-0.037
-213.523	615.096	-0.151	0.372
-212.509	3.318	0.160	-0.115
-211.494	231.147	-0.037	-0.060
-210.479	-64.047	0.122	-0.049
-209.465	-6.226	0.304	0.205
-208.450	800.000	-0.012	-0.049
-207.436	-76.978	0.129	-0.044
-206.421	54.636	0.411	0.390
-205.406	-13.996	-0.189	0.120
-204.392	-200.000	-0.024	0.143
-203.377	-93.968	-0.141	-0.038
-202.363	-200.000	-0.017	0.152
-201.348	800.000	0.021	-0.068
-200.333	52.176	-0.050	-0.047
-199.319	553.779	-0.142	0.337
-198.304	161.494	0.151	0.208
-197.290	-9.352	-0.090	-0.059
-196.275	-200.000	0.045	-0.481
-195.260	-42.287	0.286	0.144
-194.246	-200.000	0.007	-0.055
-193.231	173.834	-0.085	0.121
-192.217	800.000	0.116	0.316
-191.202	800.000	0.025	-0.105
-190.187	-152.773	-0.266	0.019
-189.173	-166.905	0.182	-0.007
-188.158	-33.326	-0.325	-0.177
-187.144	-6.595	-0.387	-0.259
-186.129	20.032	0.119	0.094
-185.114	113.198	-0.117	-0.140
-184.100	-24.584	-0.207	0.121
-183.085	-39.306	-0.206	0.106
-182.071	-16.751	-0.161	-0.100
-181.056	-171.144	-0.154	0.005
-180.042	730.433	-0.104	0.273
-179.027	-200.000	-0.013	0.063
-178.012	-123.564	-0.060	0.009
-176.998	73.131	-0.130	0.134
-175.983	2.835	0.167	-0.119
-174.969	-121.214	0.119	-0.020
-173.954	344.661	-0.105	0.202
-172.939	-200.000	0.014	-0.106
-171.925	4.783	-0.124	0.090
-170.910	-200.000	-0.024	0.289
-169.896	98.879	-0.122	0.138
-168.881	-45.922	-0.284	-0.138
-167.866	800.000	0.086	-0.304
-166.852	800.000	-0.080	-0.269
-165.837	-56.309	-0.105	0.046
-164.823	800.000	-0.030	0.096
-163.808	141.450	0.186	0.241
-162.793	85.497	0.204	-0.220
-161.779	-200.000	0.012	0.269
-160.764	127.225	0.134	0.167
-159.750	22.419	-0.089	-0.071
-158.735	32.674	0.071	-0.060
-157.720	-147.209	0.383	0.032
-156.706	-200.000	-0.036	-0.170
-155.691	-200.000	0.066	-0.368
-154.677	-121.524	0.149	0.024
-153.662	312.954	0.166	-0.306
-152.647	-58.986	0.307	0.130
-151.633	-37.576	0.188	0.098
-150.618	-22.672	0.154	0.091
-149.604	272.792	-0.222	0.384
-148.589	13.147	0.367	0.279
-147.574	-174.868	0.152	0.004
-146.560	-121.968	-0.372	0.060
-145.545	425.857	0.062	0.131
-144.531	-153.939	0.039	-0.003
-143.516	124.383	-0.151	-0.187
-142.502	-200.000	0.030	-0.244
-141.487	-200.000	0.011	-0.165
-140.472	120.560	0.151	-0.184
-139.458	-24.271	-0.156	0.091
-138.443	55.354	-0.211	0.200
-137.429	800.000	-0.103	-0.371
-136.414	103.552	-0.086	-0.099
-135.399	-200.000	-0.016	0.126
-134.385	-141.381	-0.321	0.032
-133.370	164.175	0.091	0.126
-132.356	800.000	-0.126	0.414
-131.341	76.717	-0.346	0.361
-130.326	254.295	-0.148	-0.248
-129.312	-94.654	-0.251	-0.067
-128.297	-200.000	-0.021	0.269
-127.283	-21.909	0.285	-0.170
-126.268	-81.624	0.206	0.066
-125.253	254.373	0.216	0.362
-124.239	86.197	-0.141	-0.152
-123.224	-130.412	-0.234	-0.031
-122.210	-27.072	0.052	0.030
-121.195	295.654	-0.101	0.181
