DTS Sentinel unit serial number:	SN413079Multiplexer serial number:	ORYXHardware model number:	OX4-SRSoftware version number:	ORYX F/W v4.00 Oryx Data Collector v3.7.2.0data status	okinstallation	princeton_trtdifferential loss correction	single-endedforward channel	channel 2reverse channel	N/Adate	2019/09/16time	14:35:35forward acquisition time	60.00reverse acquisition time	0.00gamma	496.2192k internal	0.2297k external	0.2297temperature offset calibration	0.9940default loss term (dB/km)	0.3790temperature slope calibration	1.0000multiplexer offset coefficient	1.0000multiplexer slope coefficient	1.0000fibre end	0.00T internal ref (°C)	41.80T ext. ref 1 (°C)	14.29T ext. ref 2 (°C)	36.23length (m)	temperature (°C)	Stokes	anti-Stokes-747.200	60.930	0.201	0.203
-746.185	486.150	-0.064	-0.150
-745.171	-200.000	0.030	0.194
-744.156	148.250	-0.295	0.406
-743.142	-43.324	0.218	0.113
-742.127	71.046	0.226	0.239
-741.112	318.850	-0.090	0.174
-740.098	324.651	0.077	-0.151
-739.083	-200.000	-0.043	-0.409
-738.069	-80.391	0.127	0.043
-737.054	-177.008	-0.552	0.014
-736.039	691.658	0.067	-0.178
-735.025	-112.396	0.300	-0.061
-734.010	218.292	-0.112	0.183
-732.996	49.703	0.097	-0.093
-731.981	-53.899	-0.272	-0.127
-730.966	446.039	0.119	0.267
-729.952	800.000	0.044	-0.149
-728.937	28.827	-0.080	-0.069
-727.923	-73.909	-0.125	0.046
-726.908	-19.680	0.280	-0.177
-725.894	-200.000	-0.045	-0.413
-724.879	-200.000	-0.017	-0.157
-723.864	-157.022	0.073	-0.005
-722.850	-30.486	0.204	0.118
-721.835	-10.137	-0.174	0.118
-720.821	-1.998	-0.030	0.021
-719.806	-107.849	-0.234	0.052
-718.791	-25.406	-0.253	0.153
-717.777	-62.364	-0.148	-0.063
-716.762	800.000	-0.010	-0.039
-715.748	-7.252	0.278	-0.192
-714.733	19.691	0.176	0.144
-713.718	-200.000	0.011	0.069
-712.704	-23.885	0.228	-0.139
-711.689	66.025	-0.154	0.160
-710.675	19.696	-0.304	-0.250
-709.660	800.000	0.047	-0.166
-708.645	-62.652	0.161	0.068
-707.631	556.124	-0.087	0.215
-706.616	23.148	-0.195	0.163
-705.602	800.000	-0.038	0.130
-704.587	234.767	0.133	0.224
-703.572	-65.414	-0.317	-0.130
-702.558	-63.408	-0.113	0.047
-701.543	-138.891	0.034	0.004
-700.529	-26.271	0.156	-0.093
-699.514	34.405	-0.258	-0.229
-698.499	-200.000	-0.065	-0.304
-697.485	-189.208	-0.302	-0.004
-696.470	407.222	-0.126	-0.272
-695.456	-60.836	0.191	0.082
-694.441	-54.415	0.429	0.198
-693.426	-147.576	-0.051	-0.004
-692.412	-200.000	0.000	-0.172
-691.397	-66.864	0.202	0.081
-690.383	292.353	-0.071	0.131
-689.368	536.475	0.141	0.340
-688.354	215.323	0.063	-0.102
-687.339	-137.586	0.277	0.032
-686.324	-200.000	-0.014	-0.161
-685.310	-38.725	0.159	-0.086
-684.295	117.227	-0.129	0.161
-683.281	-95.249	0.065	0.018
-682.266	448.261	-0.098	-0.219
-681.251	42.627	-0.048	-0.045
-680.237	49.336	-0.131	0.125
-679.222	-129.920	-0.025	-0.004
-678.208	220.345	-0.086	0.140
-677.193	-200.000	0.004	0.070
-676.178	-35.504	0.440	-0.243
-675.164	-62.350	0.295	-0.125
-674.149	148.370	-0.085	0.117
-673.135	-99.824	-0.350	0.089
-672.120	-54.293	0.256	0.118
-671.105	278.999	0.118	-0.215
-670.091	-15.954	-0.202	-0.131
-669.076	320.827	0.120	-0.232
-668.062	-29.693	-0.246	-0.143
-667.047	-200.000	0.024	0.286
-666.032	-200.000	-0.019	0.096
-665.018	90.632	-0.111	0.127
-664.003	186.745	0.097	0.147
-662.989	-44.497	-0.210	-0.107
-661.974	266.856	0.121	-0.215
-660.959	17.222	-0.083	-0.067
-659.945	136.370	0.056	-0.075
-658.930	-146.581	0.439	-0.039
-657.916	172.722	-0.251	-0.367
-656.901	800.000	0.118	-0.400
-655.886	31.220	-0.208	0.182
-654.872	323.084	0.123	-0.238
-653.857	216.615	-0.107	0.173
-652.843	-146.328	0.036	0.003
-651.828	277.991	-0.230	-0.418
-650.814	2.768	-0.157	0.116
-649.799	-38.073	-0.127	-0.069
-648.784	-42.023	-0.279	0.145
-647.770	-89.705	0.255	-0.076
-646.755	-27.267	0.191	-0.113
-645.741	-200.000	0.029	0.204
-644.726	57.204	0.118	-0.117
-643.711	-200.000	0.012	-0.237
-642.697	-94.344	-0.223	-0.062
-641.682	55.735	0.227	-0.224
-640.668	-110.107	-0.136	-0.029
-639.653	-200.000	0.021	-0.173
-638.638	-200.000	-0.032	0.238
-637.624	121.187	0.194	-0.246
-636.609	138.292	0.286	-0.381
-635.595	-77.118	-0.300	-0.106
-634.580	-57.739	-0.318	0.142
-633.565	-134.408	0.428	0.053
-632.551	65.365	-0.115	0.118
-631.536	-119.099	0.151	-0.027
-630.522	374.755	0.048	0.099
-629.507	-109.801	-0.351	-0.075
-628.492	-126.279	0.242	-0.037
-627.478	-200.000	-0.005	-0.052
-626.463	-64.414	-0.155	-0.064
-625.449	-89.790	-0.456	0.136
-624.434	800.000	-0.050	0.162
-623.419	-200.000	-0.023	0.498
-622.405	800.000	0.021	-0.079
-621.390	36.401	-0.159	-0.142
-620.376	-29.386	0.250	-0.145
-619.361	-103.450	0.504	-0.120
-618.346	-200.000	0.076	-0.342
-617.332	105.328	-0.420	0.504
-616.317	800.000	0.044	0.194
-615.303	-52.629	0.143	-0.067
-614.288	-72.323	0.058	0.022
-613.273	113.894	0.129	0.160
-612.259	248.436	-0.126	-0.216
-611.244	800.000	0.043	-0.178
-610.230	-106.444	0.274	0.062
-609.215	-81.389	0.115	-0.038
-608.201	-200.000	0.009	-0.104
-607.186	404.786	-0.050	0.107
-606.171	188.454	-0.176	0.267
-605.157	800.000	-0.059	-0.167
-604.142	254.165	-0.138	-0.240
-603.128	104.631	0.219	-0.262
-602.113	206.678	-0.105	-0.167
-601.098	-77.570	0.184	-0.065
-600.084	800.000	-0.057	-0.186
-599.069	45.464	-0.251	0.235
-598.055	526.939	-0.100	-0.239
-597.040	-200.000	-0.004	0.026
-596.025	-108.137	0.164	0.036
-595.011	-73.506	0.201	-0.075
-593.996	-200.000	-0.032	0.271
-592.982	26.169	-0.145	0.123
-591.967	-200.000	-0.031	-0.190
-590.952	-28.507	-0.284	-0.166
-589.938	6.301	0.132	-0.099
-588.923	-200.000	0.015	0.104
-587.909	-39.090	-0.167	-0.089
-586.894	373.222	-0.022	-0.046
-585.879	-83.888	-0.244	-0.079
-584.865	-200.000	0.008	-0.148
-583.850	-111.535	-0.234	-0.048
-582.836	47.587	0.166	-0.157
-581.821	800.000	0.072	-0.262
-580.806	-200.000	-0.034	-0.184
-579.792	2.976	-0.229	-0.169
-578.777	26.794	-0.135	0.115
-577.763	-153.572	0.101	-0.007
-576.748	-177.021	0.177	0.005
-575.733	-20.711	-0.209	0.130
-574.719	-200.000	0.057	0.385
-573.704	429.655	0.023	0.050
-572.690	800.000	0.078	-0.299
-571.675	-6.570	-0.103	0.071
-570.661	-92.653	0.106	0.030
-569.646	189.695	-0.174	-0.264
-568.631	-82.011	-0.225	0.075
-567.617	-78.595	0.167	0.058
-566.602	13.531	0.272	0.214
-565.588	800.000	0.087	-0.273
-564.573	87.763	-0.187	0.210
-563.558	-67.181	0.256	0.102
-562.544	-200.000	-0.010	0.135
-561.529	-200.000	0.042	0.220
-560.515	-24.167	0.107	0.065
-559.500	691.876	-0.059	0.156
-558.485	-200.000	-0.023	-0.181
-557.471	473.057	0.098	-0.223
-556.456	-132.228	-0.120	-0.016
-555.442	-14.136	0.334	-0.219
-554.427	238.641	0.173	0.291
-553.412	-126.095	-0.102	0.015
-552.398	-79.806	-0.063	0.022
-551.383	20.384	-0.173	-0.142
-550.369	-53.898	-0.419	0.194
-549.354	-31.214	0.175	-0.100
-548.339	-130.089	-0.194	0.027
-547.325	-3.216	-0.174	-0.123
-546.310	53.284	0.087	-0.084
-545.296	-81.189	-0.270	-0.090
-544.281	-200.000	-0.011	0.278
-543.266	-128.928	-0.307	-0.044
-542.252	-200.000	0.045	0.206
-541.237	-89.769	-0.256	-0.076
-540.223	36.699	0.262	0.235
-539.208	-80.483	-0.129	0.044
-538.193	-122.399	0.168	0.028
-537.179	-200.000	0.036	0.251
-536.164	-200.000	-0.005	0.180
-535.150	56.205	-0.208	0.205
-534.135	-20.640	-0.444	-0.276
-533.121	-200.000	-0.065	0.366
-532.106	-141.202	0.288	0.030
-531.091	18.932	-0.253	-0.205
-530.077	-32.566	-0.152	-0.086
-529.062	-22.074	0.298	0.183
-528.048	18.651	-0.116	0.094
-527.033	-200.000	-0.021	-0.204
-526.018	-131.882	0.135	0.018
-525.004	-57.097	-0.258	-0.115
-523.989	-200.000	0.033	0.150
-522.975	-200.000	0.049	0.260
-521.960	96.818	0.208	0.241
-520.945	800.000	0.116	0.326
-519.931	103.819	-0.015	0.018
-518.916	131.315	-0.056	0.073
-517.902	-59.798	-0.195	-0.084
-516.887	-200.000	-0.063	0.000
-515.872	587.798	0.109	0.271
-514.858	81.600	-0.197	0.216
-513.843	-70.241	-0.137	-0.053
-512.829	14.389	0.192	-0.152
-511.814	-200.000	0.005	0.223
-510.799	-200.000	-0.024	0.206
-509.785	-200.000	-0.032	-0.465
-508.770	-100.492	0.195	-0.049
-507.756	-106.523	0.121	0.027
-506.741	-65.664	0.069	-0.028
-505.726	246.837	-0.152	-0.260
-504.712	-107.544	-0.233	0.052
-503.697	-14.816	-0.202	-0.131
-502.683	800.000	-0.078	0.331
-501.668	207.240	-0.123	-0.194
-500.653	-61.313	-0.246	0.105
-499.639	-200.000	0.021	-0.172
-498.624	138.121	0.269	0.356
-497.610	-200.000	0.005	-0.043
-496.595	34.964	-0.129	0.114
-495.581	800.000	-0.055	-0.159
-494.566	502.895	-0.156	-0.365
-493.551	-0.652	0.192	-0.138
-492.537	20.270	-0.314	0.257
-491.522	4.190	-0.210	-0.155
-490.508	-158.375	0.403	-0.024
-489.493	-200.000	-0.008	-0.089
-488.478	-5.157	0.072	0.050
-487.464	-89.126	-0.222	0.066
-486.449	247.547	0.132	-0.226
-485.435	304.967	0.032	-0.060
-484.420	800.000	-0.085	0.262
-483.405	-12.215	0.188	-0.124
-482.391	-52.348	0.318	0.149
-481.376	78.621	-0.111	-0.120
-480.362	-1.757	-0.190	-0.135
-479.347	-68.210	0.021	0.008
-478.332	-200.000	0.085	-0.380
-477.318	273.695	-0.045	0.080
-476.303	-158.816	-0.176	-0.010
-475.289	114.224	0.183	-0.225
-474.274	81.361	-0.203	0.222
-473.259	800.000	0.046	0.161
-472.245	272.149	-0.058	-0.104
-471.230	-8.857	-0.008	-0.006
-470.216	800.000	-0.076	0.245
-469.201	28.037	0.159	0.135
-468.186	22.951	0.116	0.096
-467.172	-200.000	-0.083	0.426
-466.157	-92.153	-0.171	-0.049
-465.143	-200.000	-0.001	-0.077
-464.128	-59.652	0.082	0.035
-463.113	-74.289	-0.286	-0.104
-462.099	-106.506	-0.192	0.043
-461.084	-188.054	-0.155	-0.002
-460.070	91.832	-0.190	-0.216
-459.055	-6.866	0.019	-0.013
-458.040	70.250	0.244	-0.255
-457.026	148.714	0.193	0.264
-456.011	-49.786	-0.064	0.031
-454.997	-33.438	-0.091	-0.051
-453.982	-200.000	0.012	-0.263
-452.968	147.610	-0.100	0.137
-451.953	-200.000	0.012	0.176
-450.938	225.512	0.057	-0.093
-449.924	-108.465	-0.278	0.060
-448.909	-86.823	-0.200	-0.062
-447.895	3.848	0.384	0.283
-446.880	435.552	-0.044	-0.096
-445.865	-49.765	0.248	0.119
-444.851	7.254	-0.083	-0.063
-443.836	-37.274	0.120	0.065
-442.822	2.602	0.136	0.100
-441.807	-111.818	0.353	-0.072
-440.792	47.641	-0.119	-0.112
-439.778	-51.282	-0.305	-0.144
-438.763	-200.000	-0.016	-0.287
-437.749	-62.182	-0.315	0.132
-436.734	305.216	-0.091	-0.171
-435.719	333.252	-0.072	-0.139
-434.705	87.303	0.104	0.116
-433.690	-43.066	0.162	0.083
-432.676	9.404	0.164	0.125
-431.661	172.936	0.155	-0.225
-430.646	-97.515	-0.190	-0.050
-429.632	264.554	0.117	-0.205
-428.617	50.455	0.164	0.156
-427.603	30.737	0.189	0.163
-426.588	-36.799	-0.049	0.027
-425.573	144.793	0.038	0.052
-424.559	-69.143	0.079	0.031
-423.544	-200.000	-0.026	-0.247
-422.530	-60.994	-0.046	-0.020
-421.515	-200.000	0.145	0.000
-420.500	-16.002	-0.172	0.110
-419.486	-120.006	0.200	-0.035
-418.471	31.228	0.188	-0.163
-417.457	203.947	0.100	0.156
-416.442	777.418	-0.024	0.066
-415.428	-94.637	0.127	-0.035
-414.413	85.961	0.109	-0.120
-413.398	-73.055	-0.327	-0.121
-412.384	643.046	-0.144	-0.369
-411.369	-200.000	-0.016	-0.176
-410.355	58.104	0.072	0.071
-409.340	40.131	0.272	0.246
-408.325	29.948	0.107	-0.092
-407.311	-105.876	-0.410	-0.093
-406.296	800.000	-0.082	0.294
-405.282	-90.675	0.398	-0.116
-404.267	-10.218	0.414	0.277
-403.252	-200.000	-0.021	0.343
-402.238	147.297	0.112	0.152
-401.223	59.622	-0.087	-0.087
-400.209	-115.721	-0.298	-0.056
-399.194	-166.235	0.290	0.012
-398.179	-123.902	0.404	-0.064
-397.165	-24.657	-0.118	0.070
-396.150	-200.000	0.011	0.156
-395.136	110.488	0.265	-0.321
-394.121	6.760	-0.060	0.045
-393.106	17.319	-0.156	0.125
-392.092	-54.815	-0.182	-0.083
-391.077	-111.053	0.330	0.068
-390.063	-200.000	0.009	-0.054
-389.048	11.472	-0.230	0.178
-388.033	81.380	-0.211	0.230
-387.019	-200.000	0.022	-0.123
-386.004	-200.000	0.018	0.198
-384.990	196.555	0.056	0.086
-383.975	41.724	0.230	-0.210
-382.960	-157.602	0.174	-0.010
-381.946	85.293	-0.122	0.134
-380.931	-150.977	-0.226	-0.017
-379.917	-73.433	0.282	-0.104
-378.902	-73.891	0.279	-0.102
-377.888	536.678	0.051	0.122
-376.873	-69.544	0.409	0.158
-375.858	-200.000	0.385	0.000
-374.844	-190.769	0.148	-0.002
-373.829	67.213	0.068	-0.069
-372.815	232.144	0.186	0.307
-371.800	751.888	0.032	0.087
-370.785	276.474	0.059	0.105
-369.771	-40.133	0.335	0.175
-368.756	140.170	-0.067	-0.089
-367.742	-181.611	0.346	0.007
-366.727	-200.000	0.003	0.220
-365.712	-116.174	-0.154	0.029
-364.698	91.596	-0.156	0.177
-363.683	596.362	0.058	0.144
-362.669	-135.523	-0.559	0.067
-361.654	800.000	-0.147	-0.450
-360.639	292.806	0.049	0.090
-359.625	-5.751	0.327	0.225
-358.610	-200.000	-0.009	0.097
-357.596	-51.916	-0.103	0.048
-356.581	-26.666	0.096	-0.056
-355.566	800.000	0.032	0.138
-354.552	52.115	0.043	-0.041
-353.537	-130.644	-0.356	0.048
-352.523	-200.000	0.056	0.260
-351.508	800.000	-0.116	0.325
-350.493	38.075	0.238	-0.213
-349.479	-200.000	-0.004	0.243
-348.464	-108.722	0.216	-0.047
-347.450	378.443	0.064	-0.131
-346.435	-200.000	0.059	-0.366
-345.420	26.025	-0.234	-0.197
-344.406	-200.000	-0.006	0.225
-343.391	-200.000	-0.072	-0.331
-342.377	401.267	0.136	-0.287
-341.362	-155.039	-0.023	0.002
-340.348	272.808	0.088	-0.156
-339.333	-200.000	-0.048	-0.240
-338.318	80.846	0.134	-0.145
-337.304	-138.643	-0.131	0.014
-336.289	101.783	0.082	0.096
-335.275	790.979	-0.030	0.083
-334.260	-97.333	0.031	-0.008
-333.245	-200.000	0.016	-0.154
-332.231	-45.615	0.120	-0.060
-331.216	-19.498	0.082	-0.051
-330.202	-200.000	0.009	-0.078
-329.187	20.701	0.252	-0.205
-328.172	-200.000	-0.065	0.339
-327.158	92.441	-0.117	0.133
-326.143	-8.788	0.189	0.127
-325.129	89.848	0.153	0.172
-324.114	-144.185	0.201	0.019
-323.099	-173.177	0.244	-0.007
-322.085	-200.000	0.025	-0.139
-321.070	-20.516	-0.472	-0.291
-320.056	123.018	0.122	0.153
-319.041	-71.172	-0.242	0.091
-318.026	-136.609	-0.237	0.027
-317.012	-29.922	0.233	0.133
-315.997	-0.108	-0.255	0.182
-314.983	800.000	0.116	0.375
-313.968	193.355	-0.117	-0.177
-312.953	-97.685	0.509	0.132
-311.939	800.000	-0.019	0.078
-310.924	-153.055	0.272	-0.019
-309.910	800.000	-0.062	0.185
-308.895	-193.770	0.323	0.003
-307.880	500.396	-0.054	-0.126
-306.866	10.437	0.186	-0.142
-305.851	91.633	0.364	0.411
-304.837	-90.187	-0.176	0.051
-303.822	-200.000	0.017	-0.123
-302.807	200.917	-0.123	-0.189
-301.793	-200.000	0.027	0.215
-300.778	20.716	0.169	-0.138
-299.764	-105.353	0.327	-0.075
-298.749	-12.978	0.149	-0.097
-297.735	7.128	-0.405	0.303
-296.720	-128.298	0.364	0.052
-295.705	-200.000	-0.003	0.250
-294.691	135.361	0.124	0.162
-293.676	-200.000	0.151	0.001
-292.662	-157.006	-0.122	-0.007
-291.647	-200.000	0.024	-0.389
-290.632	-101.833	-0.118	-0.029
-289.618	496.246	-0.075	0.173
-288.603	-61.790	0.175	-0.073
-287.589	184.601	-0.075	-0.112
-286.574	-3.022	-0.054	0.038
-285.559	-46.191	0.221	0.109
-284.545	-102.574	0.031	0.007
-283.530	86.058	-0.079	-0.087
-282.516	-124.452	-0.338	0.053
-281.501	800.000	-0.040	0.115
-280.486	113.000	0.113	0.137
-279.472	-12.904	0.083	-0.054
-278.457	-129.007	-0.175	0.025
-277.443	-165.328	-0.490	-0.022
-276.428	715.109	0.077	0.205
-275.413	-56.289	-0.162	0.072
-274.399	-175.509	-0.138	0.004
-273.384	-34.007	-0.378	0.208
-272.370	171.015	0.055	-0.079
-271.355	-200.000	-0.028	-0.155
-270.340	231.044	0.095	-0.155
-269.326	-85.407	0.222	-0.069
-268.311	27.722	0.180	0.152
-267.297	-66.703	-0.105	0.042
-266.282	112.064	-0.109	0.132
-265.267	-44.344	0.059	-0.029
-264.253	-146.400	-0.336	-0.029
-263.238	256.598	-0.151	0.260
-262.224	800.000	0.051	0.221
-261.209	174.275	-0.127	-0.184
-260.195	67.137	0.277	-0.283
-259.180	769.090	0.078	-0.213
-258.165	38.366	0.343	0.306
-257.151	800.000	-0.029	0.103
-256.136	-102.724	-0.113	-0.027
-255.122	800.000	-0.129	0.374
-254.107	-92.180	-0.183	0.052
-253.092	524.325	0.095	0.224
-252.078	454.267	0.056	0.124
-251.063	60.839	0.208	0.206
-250.049	-122.927	0.111	0.018
-249.034	-49.067	-0.211	-0.101
-248.019	59.610	0.121	-0.120
-247.005	102.141	0.204	0.239
-245.990	-89.058	-0.058	-0.017
-244.976	10.919	-0.178	-0.136
-243.961	-97.853	-0.167	0.043
-242.946	800.000	0.055	-0.188
-241.932	-118.909	0.255	0.045
-240.917	-29.740	-0.078	0.045
-239.903	67.423	-0.035	-0.035
-238.888	-200.000	-0.002	-0.030
-237.873	-156.986	0.471	-0.029
-236.859	800.000	0.062	-0.193
-235.844	35.847	0.221	-0.194
-234.830	263.132	-0.120	-0.208
-233.815	-51.358	-0.278	-0.130
-232.800	394.698	-0.057	-0.119
-231.786	284.927	-0.112	0.202
-230.771	67.601	-0.107	0.109
-229.757	41.083	-0.194	-0.176
-228.742	-76.933	0.137	-0.048
-227.727	30.324	-0.275	0.235
-226.713	-200.000	-0.016	0.094
-225.698	389.165	0.131	0.272
-224.684	181.439	0.166	0.245
-223.669	-200.000	-0.013	0.082
-222.655	-34.808	-0.060	0.033
-221.640	235.951	-0.100	-0.165
-220.625	95.970	0.216	-0.247
-219.611	-161.123	-0.186	-0.010
-218.596	8.953	-0.050	0.037
-217.582	87.477	-0.089	-0.098
-216.567	-200.000	-0.225	0.000
-215.552	562.524	-0.061	-0.147
-214.538	251.820	0.078	0.133
-213.523	800.000	-0.073	0.273
-212.509	-170.748	0.326	-0.011
-211.494	800.000	0.030	-0.128
-210.479	166.009	0.219	0.310
-209.465	40.067	0.094	0.084
-208.450	202.327	-0.085	-0.131
-207.436	800.000	-0.052	0.145
-206.421	-25.112	-0.231	-0.137
-205.406	26.539	-0.101	-0.085
-204.392	-200.000	-0.014	0.080
-203.377	-200.000	-0.014	-0.061
-202.363	583.696	-0.118	-0.291
-201.348	-200.000	0.039	-0.191
-200.333	735.242	0.069	0.186
-199.319	385.200	-0.159	-0.328
-198.304	-104.668	0.294	0.068
-197.290	-200.000	0.045	-0.305
-196.275	800.000	0.011	-0.042
-195.260	277.553	-0.081	0.145
-194.246	51.537	0.042	0.040
-193.231	-121.840	0.257	0.042
-192.217	-136.757	0.149	0.017
-191.202	-31.122	-0.450	-0.254
-190.187	47.096	0.302	-0.281
-189.173	-200.000	-0.024	-0.153
-188.158	50.611	-0.108	-0.102
-187.144	10.112	-0.304	-0.231
-186.129	238.682	-0.168	-0.280
-185.114	-200.000	0.012	-0.320
-184.100	-40.637	-0.078	-0.040
-183.085	114.699	-0.193	0.236
-182.071	-51.129	-0.112	-0.053
-181.056	628.244	-0.114	0.287
-180.042	-200.000	0.014	-0.123
-179.027	10.109	-0.223	-0.169
-178.012	90.568	0.068	-0.076
-176.998	118.716	-0.175	-0.216
-175.983	128.896	0.124	-0.158
-174.969	-133.605	0.291	0.036
-173.954	632.334	-0.072	-0.183
-172.939	469.997	-0.033	0.073
-171.925	-1.329	0.157	0.111
-170.910	349.078	0.069	-0.135
-169.896	165.273	0.097	0.137
-168.881	-24.571	0.267	0.159
-167.866	800.000	0.053	0.159
-166.852	3.369	-0.212	-0.154
-165.837	745.092	-0.146	0.391
-164.823	232.594	-0.101	0.165
-163.808	-200.000	0.028	-0.233
-162.793	-89.133	-0.240	0.071
-161.779	-200.000	0.028	-0.157
-160.764	31.210	0.157	-0.135
-159.750	800.000	0.064	-0.190
-158.735	-104.513	-0.339	-0.078
-157.720	522.532	-0.184	-0.431
-156.706	239.570	-0.117	0.194
-155.691	-200.000	-0.049	0.276
-154.677	-102.218	-0.174	0.042
-153.662	-89.436	-0.317	-0.093
-152.647	-200.000	0.034	-0.282
-151.633	-200.000	-0.064	-0.303
-150.618	-49.331	0.208	0.099
-149.604	-83.322	0.220	-0.071
-148.589	800.000	0.083	0.292
-147.574	800.000	-0.097	0.314
-146.560	-92.550	0.129	-0.036
-145.545	390.966	0.203	-0.420
-144.531	-101.698	0.428	0.103
-143.516	-95.074	-0.207	-0.056
-142.502	-71.947	-0.061	-0.022
-141.487	77.592	0.028	0.030
-140.472	11.844	0.203	0.155
-139.458	56.383	0.136	-0.131
-138.443	-200.000	0.015	0.192
-137.429	433.489	0.054	0.117
-136.414	135.665	-0.245	0.318
-135.399	576.668	0.107	0.261
-134.385	-146.179	0.420	-0.037
-133.370	76.032	0.291	0.307
-132.356	-17.360	-0.175	0.110
-131.341	-82.921	-0.227	-0.073
-130.326	-64.294	0.156	0.063
-129.312	-107.430	0.235	0.051
-128.297	256.099	0.039	0.067
-127.283	-200.000	0.037	0.296
-126.268	-200.000	0.035	-0.155
-125.253	-180.153	-0.195	-0.004
-124.239	800.000	0.067	-0.272
-123.224	-130.343	0.090	-0.012
-122.210	-89.256	0.052	0.015
-121.195	-200.000	-0.015	-0.107
