DTS Sentinel unit serial number:	SN413079Multiplexer serial number:	ORYXHardware model number:	OX4-SRSoftware version number:	ORYX F/W v4.00 Oryx Data Collector v3.7.2.0data status	okinstallation	princeton_trtdifferential loss correction	single-endedforward channel	channel 2reverse channel	N/Adate	2019/09/11time	00:01:10forward acquisition time	60.00reverse acquisition time	0.00gamma	496.2192k internal	0.2331k external	0.2331temperature offset calibration	0.9941default loss term (dB/km)	0.3790temperature slope calibration	1.0000multiplexer offset coefficient	1.0000multiplexer slope coefficient	1.0000fibre end	0.00T internal ref (°C)	29.44T ext. ref 1 (°C)	-0.30T ext. ref 2 (°C)	22.98length (m)	temperature (°C)	Stokes	anti-Stokes-747.200	78.082	-0.235	-0.252
-746.185	-1.046	-0.188	0.134
-745.171	365.670	0.127	-0.257
-744.156	413.264	0.076	0.162
-743.142	133.425	-0.091	0.118
-742.127	-200.000	-0.005	-0.048
-741.112	800.000	-0.070	-0.224
-740.098	1.665	-0.304	0.220
-739.083	-89.552	-0.118	0.035
-738.069	-200.000	-0.003	0.062
-737.054	453.168	-0.090	0.200
-736.039	-67.456	-0.340	-0.134
-735.025	800.000	-0.090	0.280
-734.010	-200.000	-0.023	-0.320
-732.996	-76.056	-0.307	0.109
-731.981	-79.191	0.248	-0.085
-730.966	197.112	0.035	0.054
-729.952	-43.045	-0.183	-0.094
-728.937	24.459	0.182	0.152
-727.923	102.042	-0.215	0.252
-726.908	78.430	-0.258	-0.278
-725.894	129.532	0.114	0.147
-724.879	29.391	0.174	-0.149
-723.864	66.632	-0.185	0.189
-722.850	16.732	-0.128	-0.102
-721.835	-98.684	-0.231	-0.059
-720.821	593.170	-0.141	-0.349
-719.806	800.000	-0.093	0.268
-718.791	-127.770	-0.295	0.043
-717.777	34.294	0.372	0.326
-716.762	800.000	-0.023	0.091
-715.748	-152.917	-0.151	0.011
-714.733	73.117	-0.103	0.109
-713.718	-129.628	-0.453	0.063
-712.704	-200.000	0.075	0.374
-711.689	184.614	0.111	0.166
-710.675	-36.934	-0.091	-0.049
-709.660	47.879	0.079	-0.074
-708.645	-199.976	0.121	-0.001
-707.631	-12.151	-0.227	0.149
-706.616	-200.000	-0.013	0.346
-705.602	620.234	0.089	0.224
-704.587	14.222	0.126	0.098
-703.572	-200.000	-0.032	0.289
-702.558	742.038	0.079	-0.213
-701.543	-88.880	0.383	-0.114
-700.529	-121.477	0.322	-0.054
-699.514	-121.240	-0.222	-0.037
-698.499	-14.983	-0.294	-0.189
-697.485	-123.783	-0.142	0.023
-696.470	-89.219	-0.041	-0.012
-695.456	-81.968	0.070	-0.023
-694.441	-9.433	-0.141	0.095
-693.426	-186.943	-0.173	0.002
-692.412	61.649	0.204	-0.204
-691.397	328.823	-0.045	0.086
-690.383	800.000	-0.041	-0.129
-689.368	345.858	-0.131	0.260
-688.354	125.731	-0.066	0.084
-687.339	-76.819	-0.203	0.071
-686.324	132.801	-0.163	-0.211
-685.310	123.610	-0.283	-0.357
-684.295	-25.107	0.072	0.043
-683.281	-200.000	-0.003	-0.158
-682.266	157.266	-0.210	0.292
-681.251	129.102	-0.169	0.216
-680.237	390.401	-0.103	0.214
-679.222	-95.111	-0.072	-0.019
-678.208	-111.175	0.074	-0.015
-677.193	800.000	-0.114	-0.368
-676.178	-23.829	-0.038	0.023
-675.164	800.000	-0.052	0.214
-674.149	86.839	-0.193	0.214
-673.135	-200.000	0.010	-0.178
-672.120	-132.755	-0.225	0.029
-671.105	-30.645	0.184	-0.105
-670.091	35.560	-0.279	0.246
-669.076	-63.969	-0.040	-0.016
-668.062	-171.306	0.343	0.012
-667.047	-137.233	-0.445	0.051
-666.032	133.421	-0.089	-0.115
-665.018	258.334	-0.028	-0.049
-664.003	-83.224	-0.398	-0.128
-662.989	-200.000	-0.006	0.078
-661.974	-200.000	-0.009	0.100
-660.959	-26.756	-0.319	0.187
-659.945	256.631	0.101	-0.174
-658.930	-4.563	0.142	0.098
-657.916	196.348	-0.034	0.052
-656.901	331.520	0.088	-0.170
-655.886	-193.297	0.252	0.002
-654.872	-140.574	-0.189	-0.020
-653.857	-29.751	0.105	0.060
-652.843	334.915	0.105	0.204
-651.828	800.000	-0.019	0.063
-650.814	325.428	-0.150	0.287
-649.799	61.148	0.197	0.196
-648.784	287.978	-0.099	0.180
-647.770	402.465	-0.125	0.264
-646.755	-200.000	0.016	0.118
-645.741	-65.046	-0.086	0.035
-644.726	616.073	0.131	0.329
-643.711	-6.991	0.142	0.097
-642.697	-200.000	-0.079	-0.458
-641.682	-200.000	-0.014	-0.269
-640.668	-11.706	-0.284	0.187
-639.653	-123.156	0.267	0.043
-638.638	-200.000	0.077	-0.371
-637.624	54.133	-0.312	0.301
-636.609	-23.193	-0.169	-0.102
-635.595	-24.885	0.142	0.085
-634.580	232.746	0.052	-0.086
-633.565	-88.426	-0.065	-0.020
-632.551	800.000	0.034	0.145
-631.536	-200.000	-0.077	-0.366
-630.522	26.834	-0.174	-0.146
-629.507	-200.000	0.073	0.368
-628.492	-96.996	-0.129	-0.034
-627.478	-180.686	-0.123	-0.003
-626.463	-145.376	-0.349	-0.032
-625.449	-31.338	-0.267	0.151
-624.434	360.474	0.145	0.290
-623.419	-172.832	-0.323	0.010
-622.405	-200.000	0.028	0.260
-621.390	-19.634	0.308	-0.191
-620.376	-67.845	-0.083	0.033
-619.361	-12.835	-0.167	-0.109
-618.346	62.025	0.147	-0.146
-617.332	800.000	-0.053	-0.171
-616.317	-47.022	0.179	-0.087
-615.303	-200.000	0.045	-0.297
-614.288	-94.487	-0.041	-0.011
-613.273	70.029	-0.141	-0.145
-612.259	-200.000	-0.083	-0.371
-611.244	65.004	-0.191	0.193
-610.230	-29.686	0.071	-0.040
-609.215	-149.127	-0.102	0.008
-608.201	-82.402	0.078	0.025
-607.186	-130.882	-0.313	-0.042
-606.171	51.849	-0.119	-0.113
-605.157	-72.643	0.259	-0.096
-604.142	-147.987	0.336	-0.028
-603.128	-124.400	-0.276	0.043
-602.113	287.363	0.080	0.144
-601.098	-97.205	0.348	0.091
-600.084	-87.462	-0.474	-0.144
-599.069	5.382	0.229	-0.169
-598.055	-200.000	-0.005	-0.092
-597.040	-54.455	-0.246	-0.111
-596.025	0.429	0.247	-0.177
-595.011	-175.004	-0.350	0.010
-593.996	66.670	0.078	-0.080
-592.982	-38.683	0.065	-0.034
-591.967	337.360	0.099	-0.192
-590.952	-58.789	-0.154	0.067
-589.938	145.924	-0.195	-0.261
-588.923	-52.509	0.126	0.058
-587.909	226.942	-0.080	-0.131
-586.894	214.744	0.197	0.313
-585.879	-56.386	0.245	-0.109
-584.865	2.017	-0.108	0.078
-583.850	88.128	0.238	0.264
-582.836	-200.000	0.027	-0.411
-581.821	7.186	-0.191	0.143
-580.806	611.545	-0.103	-0.257
-579.792	187.686	0.077	0.115
-578.777	800.000	0.020	-0.078
-577.763	508.848	0.078	0.181
-576.748	-6.018	-0.058	0.040
-575.733	-200.000	0.029	0.227
-574.719	-200.000	-0.028	0.123
-573.704	216.827	-0.160	0.255
-572.690	-157.977	0.207	-0.012
-571.675	77.027	-0.052	0.055
-570.661	-42.171	-0.078	-0.040
-569.646	-92.276	0.328	-0.093
-568.631	-176.360	-0.182	0.005
-567.617	-200.000	-0.015	-0.109
-566.602	289.013	0.102	-0.184
-565.588	-26.067	0.113	0.067
-564.573	142.167	-0.203	0.269
-563.558	711.860	0.112	-0.297
-562.544	-100.011	0.237	0.059
-561.529	394.994	0.101	0.210
-560.515	-23.186	0.087	0.052
-559.500	140.403	-0.147	-0.194
-558.485	193.653	-0.066	-0.099
-557.471	34.248	0.149	0.130
-556.456	-26.751	0.367	0.215
-555.442	800.000	0.038	0.156
-554.427	-200.000	-0.005	-0.165
-553.412	-59.830	-0.443	-0.189
-552.398	-6.880	0.306	0.208
-551.383	-200.000	-0.248	-0.000
-550.369	-65.465	0.197	0.079
-549.354	800.000	-0.146	-0.449
-548.339	797.421	-0.099	0.273
-547.325	75.009	-0.242	-0.255
-546.310	-200.000	-0.004	0.343
-545.296	-22.338	-0.393	0.238
-544.281	-112.275	-0.192	0.038
-543.266	-200.000	0.002	0.524
-542.252	-112.830	-0.194	0.038
-541.237	657.958	0.042	-0.107
-540.223	25.676	0.075	0.063
-539.208	3.740	-0.210	0.153
-538.193	496.148	0.121	-0.277
-537.179	259.050	-0.092	-0.159
-536.164	-59.528	0.436	-0.187
-535.150	-200.000	-0.016	0.289
-534.135	-147.229	0.213	0.018
-533.121	422.770	0.088	-0.188
-532.106	69.065	0.267	-0.274
-531.091	287.429	-0.091	-0.165
-530.077	-9.522	-0.061	0.040
-529.062	233.668	-0.123	-0.203
-528.048	-140.602	-0.073	-0.008
-527.033	-39.724	0.283	0.148
-526.018	-200.000	0.021	-0.122
-525.004	78.895	0.048	0.051
-523.989	132.326	-0.059	-0.076
-522.975	-200.000	-0.027	-0.382
-521.960	-200.000	-0.012	0.072
-520.945	427.069	0.047	0.102
-519.931	-200.000	-0.010	0.282
-518.916	547.212	-0.130	-0.310
-517.902	81.219	-0.064	-0.069
-516.887	148.122	-0.109	-0.147
-515.872	-145.987	-0.341	-0.030
-514.858	-173.510	0.236	-0.007
-513.843	257.299	0.186	0.319
-512.829	-61.040	0.116	-0.049
-511.814	782.436	-0.044	-0.121
-510.799	-88.400	0.290	-0.086
-509.785	787.624	0.038	0.103
-508.770	201.514	0.050	0.077
-507.756	175.497	-0.108	-0.156
-506.741	-107.269	0.231	0.051
-505.726	-70.508	0.217	-0.082
-504.712	-200.000	-0.006	0.232
-503.697	-20.881	0.011	0.007
-502.683	610.053	0.104	-0.258
-501.668	-51.612	-0.256	0.119
-500.653	-97.636	0.292	-0.075
-499.639	359.577	-0.020	-0.040
-498.624	-177.422	-0.071	-0.002
-497.610	-200.000	-0.005	0.068
-496.595	112.584	0.230	0.277
-495.581	-37.558	-0.363	-0.193
-494.566	-40.687	0.041	0.021
-493.551	800.000	0.042	-0.131
-492.537	100.095	0.077	0.089
-491.522	217.206	0.165	-0.261
-490.508	-134.684	-0.079	0.010
-489.493	800.000	-0.023	-0.065
-488.478	-72.534	-0.037	-0.013
-487.464	11.394	-0.110	0.084
-486.449	448.360	0.058	0.126
-485.435	-129.809	0.273	-0.037
-484.420	16.212	0.118	0.093
-483.405	105.578	-0.153	-0.181
-482.391	358.233	-0.069	0.137
-481.376	37.223	-0.110	0.097
-480.362	689.053	-0.043	0.112
-479.347	384.824	-0.042	0.086
-478.332	256.862	0.084	0.144
-477.318	157.168	0.278	0.382
-476.303	33.264	-0.194	-0.168
-475.289	-101.936	0.070	0.017
-474.274	-200.000	0.022	0.175
-473.259	13.470	-0.276	-0.213
-472.245	-200.000	-0.001	0.203
-471.230	165.823	0.029	-0.041
-470.216	-109.416	0.082	-0.017
-469.201	69.695	-0.089	-0.091
-468.186	-132.038	-0.179	0.023
-467.172	-200.000	-0.032	0.264
-466.157	-200.000	-0.645	-0.002
-465.143	-200.000	-0.002	0.294
-464.128	-43.296	0.291	0.147
-463.113	-200.000	0.002	0.053
-462.099	709.870	-0.068	0.178
-461.084	158.638	0.272	-0.376
-460.070	-11.520	-0.221	0.145
-459.055	192.095	-0.060	-0.090
-458.040	-40.977	0.288	0.148
-457.026	106.756	0.185	-0.218
-456.011	160.056	-0.040	-0.056
-454.997	-44.967	-0.286	-0.142
-453.982	-200.000	-0.105	-0.625
-452.968	-46.285	-0.320	-0.156
-451.953	274.153	-0.043	-0.076
-450.938	-116.004	0.156	0.029
-449.924	187.906	0.050	0.075
-448.909	-6.195	0.055	-0.037
-447.895	-14.958	0.258	-0.164
-446.880	800.000	0.050	-0.212
-445.865	423.652	-0.094	0.202
-444.851	-139.465	-0.082	0.009
-443.836	222.184	-0.125	0.200
-442.822	-200.000	-0.014	-0.163
-441.807	-25.836	-0.158	0.093
-440.792	425.831	0.049	0.104
-439.778	-159.089	0.282	-0.016
-438.763	92.846	0.204	-0.229
-437.749	251.879	-0.195	-0.330
-436.734	-200.000	0.011	-0.169
-435.719	-200.000	0.041	0.250
-434.705	-151.768	-0.036	0.003
-433.690	604.012	0.113	-0.279
-432.676	-200.000	0.000	-0.278
-431.661	-57.819	0.426	-0.185
-430.646	-106.242	-0.132	-0.030
-429.632	641.157	0.094	-0.238
-428.617	399.502	-0.064	0.134
-427.603	800.000	-0.044	-0.121
-426.588	442.005	-0.198	-0.431
-425.573	447.404	0.025	-0.056
-424.559	-100.482	0.288	-0.071
-423.544	-52.485	-0.156	0.072
-422.530	-200.000	-0.007	0.086
-421.515	-94.642	-0.114	0.031
-420.500	-153.598	-0.428	0.029
-419.486	248.466	-0.130	0.218
-418.471	-190.693	0.069	0.001
-417.457	-95.106	0.156	-0.042
-416.442	636.597	0.065	-0.164
-415.428	-113.370	-0.294	0.057
-414.413	-112.829	0.291	0.057
-413.398	-200.000	-0.002	0.223
-412.384	-200.000	-0.005	0.230
-411.369	-128.532	0.236	-0.033
-410.355	396.326	0.040	-0.083
-409.340	282.969	-0.116	0.207
-408.325	-149.661	0.224	-0.018
-407.311	-139.077	-0.375	-0.040
-406.296	-191.314	-0.219	0.002
-405.282	800.000	-0.038	-0.135
-404.267	-75.802	-0.159	0.056
-403.252	-29.343	-0.209	-0.119
-402.238	9.757	0.241	0.182
-401.223	-200.000	-0.017	-0.146
-400.209	268.366	-0.091	-0.158
-399.194	-34.957	0.158	-0.086
-398.179	800.000	0.036	0.144
-397.165	-200.000	0.022	-0.278
-396.150	16.323	0.439	-0.344
-395.136	19.208	0.200	-0.159
-394.121	-96.532	0.053	0.014
-393.106	133.990	-0.201	0.259
-392.092	-13.899	-0.115	-0.074
-391.077	-182.714	-0.265	0.005
-390.063	161.960	0.284	0.395
-389.048	-117.975	-0.058	0.010
-388.033	-129.712	0.136	-0.019
-387.019	-49.124	0.198	-0.094
-386.004	-11.116	-0.116	-0.076
-384.990	-200.000	-0.022	0.178
-383.975	-200.000	-0.032	-0.174
-382.960	345.195	0.075	-0.146
-381.946	153.155	-0.097	-0.132
-380.931	-200.000	0.030	-0.179
-379.917	-95.722	-0.362	-0.096
-378.902	342.765	0.101	0.197
-377.888	-59.399	-0.242	-0.103
-376.873	-200.000	-0.047	-0.213
-375.858	-30.457	0.152	-0.086
-374.844	-122.052	-0.327	-0.053
-373.829	-27.040	-0.290	0.168
-372.815	-35.387	-0.040	-0.021
-371.800	-153.905	0.272	-0.018
-370.785	445.599	-0.034	0.074
-369.771	-111.888	-0.381	-0.076
-368.756	-25.529	-0.173	0.101
-367.742	-74.392	0.285	-0.102
-366.727	318.762	0.074	0.139
-365.712	-15.189	0.057	-0.036
-364.698	-134.221	-0.382	-0.047
-363.683	-200.000	-0.004	-0.171
-362.669	699.835	-0.096	0.251
-361.654	800.000	0.042	0.152
-360.639	39.135	0.129	-0.114
-359.625	588.971	0.048	0.117
-358.610	-200.000	0.039	0.277
-357.596	-200.000	-0.005	0.260
-356.581	98.014	-0.173	-0.197
-355.566	400.234	0.157	-0.325
-354.552	202.898	-0.226	-0.345
-353.537	390.426	-0.061	0.125
-352.523	-200.000	-0.028	-0.162
-351.508	335.102	0.205	-0.395
-350.493	3.859	-0.186	0.134
-349.479	-200.000	-0.061	0.441
-348.464	800.000	0.050	-0.172
-347.450	50.521	0.188	0.176
-346.435	-127.833	-0.323	-0.046
-345.420	-97.293	0.119	-0.031
-344.406	-146.933	0.302	0.026
-343.391	-12.510	-0.233	-0.151
-342.377	800.000	-0.048	-0.136
-341.362	-59.295	-0.157	0.067
-340.348	24.593	0.012	0.010
-339.333	160.963	0.153	0.212
-338.318	4.831	0.239	0.174
-337.304	-139.457	-0.218	-0.023
-336.289	-35.881	0.210	0.113
-335.275	-65.823	0.086	-0.034
-334.260	-27.099	0.226	0.130
-333.245	27.846	-0.083	-0.069
-332.231	-200.000	-0.002	0.042
-331.216	-200.000	0.002	-0.261
-330.202	11.351	0.199	-0.151
-329.187	-200.000	-0.017	-0.095
-328.172	-52.581	-0.039	0.018
-327.158	302.454	0.085	-0.155
-326.143	-99.823	0.235	0.058
-325.129	199.455	-0.096	0.146
-324.114	-102.815	-0.356	-0.084
-323.099	78.286	0.168	-0.178
-322.085	2.530	0.217	-0.155
-321.070	-158.200	0.141	-0.008
-320.056	155.531	-0.151	-0.206
-319.041	-200.000	-0.007	-0.299
-318.026	-40.960	0.254	0.130
-317.012	17.191	-0.245	-0.192
-315.997	-200.000	-0.018	0.105
-314.983	-127.091	0.321	-0.047
-313.968	-59.191	0.294	0.125
-312.953	800.000	-0.037	0.142
-311.939	449.916	0.045	-0.098
-310.924	200.101	0.193	-0.293
-309.910	-200.000	0.024	0.113
-308.895	800.000	-0.119	0.454
-307.880	194.937	-0.020	0.030
-306.866	32.030	-0.252	-0.215
-305.851	5.516	0.192	-0.140
-304.837	148.059	-0.128	0.171
-303.822	-131.009	-0.209	-0.028
-302.807	-7.934	-0.212	0.142
-301.793	-200.000	-0.053	0.291
-300.778	325.466	0.081	0.153
-299.764	-200.000	-0.029	0.200
-298.749	800.000	-0.106	0.321
-297.735	-200.000	0.233	0.000
-296.720	800.000	0.117	-0.337
-295.705	-200.000	0.019	0.165
-294.691	-200.000	0.030	-0.183
-293.676	-19.546	-0.072	-0.044
-292.662	-134.276	0.240	0.029
-291.647	654.437	-0.054	0.136
-290.632	-59.910	-0.371	-0.157
-289.618	50.053	0.183	-0.171
-288.603	47.696	-0.167	-0.154
-287.589	-187.158	-0.151	-0.002
-286.574	-200.000	0.042	0.187
-285.559	383.403	-0.158	-0.322
-284.545	128.711	-0.150	-0.189
-283.530	9.247	-0.095	0.071
-282.516	-200.000	0.025	-0.108
-281.501	256.674	-0.058	0.099
-280.486	-82.092	0.139	-0.045
-279.472	15.449	-0.169	-0.131
-278.457	-200.000	0.011	-0.213
-277.443	2.223	-0.250	0.179
-276.428	46.777	0.090	-0.082
-275.413	-152.788	-0.201	0.014
-274.399	-75.415	-0.203	-0.071
-273.384	40.254	-0.166	-0.148
-272.370	-109.748	0.149	-0.031
-271.355	465.840	0.084	0.185
-270.340	-156.939	0.321	-0.019
-269.326	182.540	0.082	0.119
-268.311	-200.000	0.015	0.426
-267.297	-168.780	0.282	-0.010
-266.282	-200.000	-0.026	-0.412
-265.267	-143.892	-0.390	-0.036
-264.253	-183.812	-0.168	0.003
-263.238	-77.963	0.268	-0.091
-262.224	459.747	-0.104	0.228
-261.209	47.186	0.254	0.233
-260.195	42.189	-0.209	0.188
-259.180	-200.000	-0.003	0.088
-258.165	-99.448	-0.216	-0.054
-257.151	19.857	-0.203	-0.161
-256.136	20.484	-0.045	-0.036
-255.122	800.000	0.074	0.297
-254.107	11.522	-0.088	0.066
-253.092	398.072	-0.123	-0.255
-252.078	-200.000	0.013	-0.092
-251.063	-87.994	-0.174	-0.052
-250.049	-150.390	0.090	-0.007
-249.034	30.392	0.341	-0.288
-248.019	-200.000	-0.005	0.086
-247.005	800.000	-0.032	0.112
-245.990	-200.000	-0.004	0.166
-244.976	-138.986	-0.158	-0.017
-243.961	534.360	0.035	0.082
-242.946	49.894	0.336	0.313
-241.932	62.940	-0.199	-0.197
-240.917	-137.627	0.255	0.028
-239.903	-200.000	-0.019	0.121
-238.888	422.955	0.064	0.136
-237.873	-60.766	0.176	-0.073
-236.859	-101.791	-0.272	-0.065
-235.844	-0.265	0.161	0.113
-234.830	-56.818	0.086	-0.037
-233.815	-40.291	-0.166	0.085
-232.800	800.000	0.070	-0.284
-231.786	193.979	0.146	0.219
-230.771	3.297	0.420	0.301
-229.757	-115.625	-0.198	0.037
-228.742	-85.774	0.121	-0.037
-227.727	-72.526	0.225	0.082
-226.713	-87.786	0.309	0.092
-225.698	800.000	0.055	0.152
-224.684	-57.644	-0.124	0.053
-223.669	-66.606	-0.268	0.105
-222.655	-200.000	-0.026	-0.344
-221.640	83.682	0.166	0.178
-220.625	800.000	0.063	0.245
-219.611	-86.489	0.132	0.040
-218.596	-62.095	0.269	0.111
-217.582	116.695	-0.075	-0.091
-216.567	164.792	0.128	-0.179
-215.552	-148.577	-0.249	0.020
-214.538	-142.331	0.102	-0.010
-213.523	800.000	-0.037	0.137
-212.509	800.000	0.113	-0.344
-211.494	-148.805	-0.048	-0.004
-210.479	-38.341	-0.207	-0.108
-209.465	-2.446	0.430	-0.297
-208.450	800.000	-0.083	-0.275
-207.436	-27.918	0.238	-0.136
-206.421	-72.166	0.281	0.103
-205.406	39.323	-0.339	0.299
-204.392	800.000	-0.066	-0.256
-203.377	71.800	0.081	0.083
-202.363	-200.000	-0.082	0.356
-201.348	-200.000	-0.039	0.243
-200.333	-200.000	0.010	0.182
-199.319	107.521	0.246	0.288
-198.304	-200.000	0.049	0.230
-197.290	-200.000	0.013	0.114
-196.275	-81.507	-0.117	0.038
-195.260	15.427	-0.331	0.256
-194.246	800.000	-0.106	0.380
-193.231	122.206	-0.242	0.298
-192.217	-200.000	0.040	0.293
-191.202	143.699	0.144	0.189
-190.187	17.095	0.321	-0.251
-189.173	-200.000	0.036	0.208
-188.158	12.525	0.162	0.123
-187.144	-42.163	0.135	0.068
-186.129	-29.833	0.359	-0.202
-185.114	84.323	0.293	0.316
-184.100	-159.655	0.048	-0.003
-183.085	96.925	0.080	-0.090
-182.071	-16.683	-0.199	-0.124
-181.056	-107.113	-0.223	0.048
-180.042	72.841	0.217	0.223
-179.027	82.554	-0.059	-0.063
-178.012	-109.833	-0.194	0.040
-176.998	-33.995	0.033	-0.018
-175.983	740.693	0.093	-0.246
-174.969	7.202	-0.276	0.203
-173.954	109.800	-0.163	0.193
-172.939	77.409	-0.163	-0.170
-171.925	800.000	0.080	0.320
-170.910	70.854	-0.050	0.051
-169.896	800.000	0.051	-0.187
-168.881	87.052	0.235	0.256
-167.866	12.766	0.014	0.011
-166.852	23.313	0.137	-0.110
-165.837	-73.869	-0.020	-0.007
-164.823	-200.000	0.005	-0.058
-163.808	383.850	0.079	0.160
-162.793	-67.394	0.172	0.067
-161.779	-200.000	0.007	0.221
-160.764	800.000	0.021	-0.074
-159.750	-73.682	-0.311	0.111
-158.735	-108.962	0.488	0.102
-157.720	800.000	0.053	-0.193
-156.706	607.148	-0.092	-0.227
-155.691	-77.794	-0.370	-0.126
-154.677	-71.674	0.096	-0.035
-153.662	72.184	-0.124	-0.127
-152.647	14.622	0.018	-0.014
-151.633	-66.919	-0.152	0.059
-150.618	6.754	0.142	0.104
-149.604	-200.000	0.031	-0.206
-148.589	413.738	0.090	0.188
-147.574	68.526	0.143	0.144
-146.560	8.530	-0.120	0.089
-145.545	-200.000	0.007	-0.295
-144.531	66.791	0.094	0.094
-143.516	-93.521	-0.146	0.040
-142.502	159.297	-0.078	-0.106
-141.487	-200.000	0.004	-0.154
-140.472	171.900	-0.051	-0.072
-139.458	46.442	0.139	-0.126
-138.443	-29.572	0.094	-0.053
-137.429	-147.837	0.222	-0.018
-136.414	51.187	0.109	0.102
-135.399	-159.140	0.089	0.005
-134.385	800.000	0.013	-0.041
-133.370	-19.626	0.220	0.133
-132.356	800.000	0.053	0.195
-131.341	158.270	0.350	0.477
-130.326	-114.655	0.290	0.055
-129.312	-101.449	-0.092	-0.022
-128.297	-37.896	-0.085	-0.045
-127.283	135.906	-0.135	-0.172
-126.268	-29.689	-0.186	-0.105
-125.253	334.589	-0.099	0.188
-124.239	-109.555	0.390	-0.081
-123.224	-24.230	-0.110	0.064
-122.210	32.803	0.200	0.170
-121.195	-31.606	0.278	0.153
