DTS Sentinel unit serial number:	SN413079Multiplexer serial number:	ORYXHardware model number:	OX4-SRSoftware version number:	ORYX F/W v4.00 Oryx Data Collector v3.7.2.0data status	okinstallation	princeton_trtdifferential loss correction	single-endedforward channel	channel 2reverse channel	N/Adate	2019/09/13time	05:39:35forward acquisition time	60.00reverse acquisition time	0.00gamma	496.2192k internal	0.2338k external	0.2338temperature offset calibration	1.0190default loss term (dB/km)	0.3790temperature slope calibration	1.0000multiplexer offset coefficient	1.0000multiplexer slope coefficient	1.0000fibre end	0.00T internal ref (°C)	26.20T ext. ref 1 (°C)	4.05T ext. ref 2 (°C)	20.88length (m)	temperature (°C)	Stokes	anti-Stokes-747.200	-200.000	-0.141	0.000
-746.185	-27.136	-0.148	0.086
-745.171	-47.020	-0.290	-0.142
-744.156	-53.976	-0.093	0.042
-743.142	-200.000	-0.004	0.127
-742.127	-50.323	-0.521	-0.247
-741.112	-88.434	-0.491	0.147
-740.098	800.000	-0.026	-0.083
-739.083	-178.234	0.153	0.004
-738.069	-48.127	0.234	0.113
-737.054	54.957	-0.185	0.180
-736.039	39.964	-0.098	0.089
-735.025	-89.004	0.295	0.088
-734.010	-18.624	-0.138	0.086
-732.996	96.491	0.179	-0.206
-731.981	4.001	-0.137	0.100
-730.966	36.398	0.267	-0.236
-729.952	93.041	-0.155	-0.175
-728.937	38.353	0.166	-0.149
-727.923	505.348	0.013	0.031
-726.908	193.912	0.045	0.068
-725.894	-158.853	-0.139	0.008
-724.879	-109.625	0.076	0.016
-723.864	582.181	0.138	-0.340
-722.850	-87.283	0.312	-0.095
-721.835	800.000	-0.071	-0.249
-720.821	446.702	0.041	0.091
-719.806	-11.611	-0.160	0.105
-718.791	-156.088	-0.031	0.002
-717.777	-71.694	-0.036	0.014
-716.762	-128.338	0.222	0.032
-715.748	203.387	0.057	-0.089
-714.733	-44.724	-0.329	0.165
-713.718	124.928	0.081	-0.102
-712.704	42.719	-0.182	0.166
-711.689	-200.000	0.015	-0.236
-710.675	11.139	-0.243	-0.186
-709.660	-57.080	-0.528	0.233
-708.645	-112.609	-0.187	0.037
-707.631	-11.144	0.294	-0.194
-706.616	271.879	0.084	0.149
-705.602	102.756	-0.089	-0.105
-704.587	9.218	-0.240	-0.181
-703.572	12.130	0.166	0.128
-702.558	73.776	-0.266	0.279
-701.543	782.631	0.069	0.189
-700.529	46.773	0.095	0.089
-699.514	566.368	0.129	-0.315
-698.499	-200.000	0.026	0.214
-697.485	573.270	-0.048	0.118
-696.470	-125.576	0.108	0.016
-695.456	-139.593	0.172	0.018
-694.441	63.250	0.473	-0.475
-693.426	94.925	0.069	-0.079
-692.412	800.000	0.065	0.205
-691.397	-200.000	-0.019	-0.130
-690.383	523.439	0.102	-0.241
-689.368	800.000	0.073	-0.296
-688.354	-134.205	0.249	0.031
-687.339	-162.924	-0.423	0.021
-686.324	-114.872	-0.121	0.023
-685.310	-200.000	0.008	0.172
-684.295	40.126	-0.057	-0.052
-683.281	-68.172	0.094	-0.037
-682.266	26.134	-0.468	0.391
-681.251	54.245	0.194	-0.187
-680.237	-200.000	0.053	-0.298
-679.222	39.135	-0.307	0.275
-678.208	777.582	-0.100	-0.273
-677.193	-46.327	-0.220	0.108
-676.178	800.000	-0.106	0.409
-675.164	-101.568	-0.254	0.062
-674.149	-107.320	-0.351	-0.077
-673.135	185.666	-0.051	-0.076
-672.120	27.029	0.203	0.170
-671.105	800.000	0.059	0.248
-670.091	-26.562	0.131	-0.077
-669.076	-39.793	0.151	0.079
-668.062	159.776	-0.109	0.151
-667.047	-101.445	0.397	-0.097
-666.032	-109.440	0.059	0.013
-665.018	186.430	-0.186	0.276
-664.003	-78.849	0.313	0.107
-662.989	256.874	0.005	0.008
-661.974	54.793	0.006	0.006
-660.959	2.705	0.169	-0.123
-659.945	-94.252	-0.169	-0.046
-658.930	-4.196	0.180	0.125
-657.916	-59.373	-0.232	-0.100
-656.901	373.869	-0.155	-0.315
-655.886	-73.779	-0.270	-0.098
-654.872	-125.976	0.277	0.042
-653.857	-138.080	-0.037	0.004
-652.843	-81.511	-0.056	0.019
-651.828	-142.777	-0.397	-0.039
-650.814	-84.840	-0.228	0.072
-649.799	-1.747	0.176	0.124
-648.784	800.000	0.006	-0.017
-647.770	-200.000	0.000	-0.082
-646.755	-94.425	0.290	0.079
-645.741	-117.550	-0.163	-0.029
-644.726	339.503	0.062	-0.121
-643.711	-200.000	0.020	0.220
-642.697	199.130	-0.108	-0.165
-641.682	564.766	-0.102	0.247
-640.668	331.965	-0.107	-0.206
-639.653	-128.176	-0.308	-0.044
-638.638	-115.315	-0.495	0.093
-637.624	800.000	0.041	-0.140
-636.609	-107.443	-0.218	-0.048
-635.595	-13.425	-0.416	0.269
-634.580	800.000	-0.077	-0.276
-633.565	-155.138	-0.333	0.022
-632.551	29.314	-0.058	0.050
-631.536	-200.000	-0.000	-0.018
-630.522	-155.887	-0.162	-0.010
-629.507	-147.282	0.097	-0.008
-628.492	-9.359	-0.380	-0.254
-627.478	-200.000	-0.038	-0.191
-626.463	-188.442	-0.222	0.003
-625.449	18.160	0.195	0.156
-624.434	-69.590	0.080	-0.030
-623.419	144.766	0.135	-0.181
-622.405	422.684	0.043	-0.091
-621.390	49.532	-0.327	-0.308
-620.376	-200.000	-0.061	0.285
-619.361	800.000	0.034	0.117
-618.346	42.816	0.211	0.192
-617.332	167.520	-0.041	0.058
-616.317	-147.602	0.326	0.027
-615.303	126.180	0.192	-0.242
-614.288	-200.000	0.071	-0.393
-613.273	-8.187	-0.304	-0.205
-612.259	-106.040	0.216	0.048
-611.244	-29.846	0.125	0.071
-610.230	116.666	0.070	0.086
-609.215	-133.277	-0.251	0.032
-608.201	183.212	-0.090	-0.133
-607.186	38.531	-0.212	-0.188
-606.171	444.786	0.124	0.272
-605.157	194.726	-0.189	-0.286
-604.142	424.001	0.116	-0.249
-603.128	338.608	-0.138	-0.269
-602.113	18.807	0.184	-0.147
-601.098	-200.000	-0.062	0.518
-600.084	360.320	-0.142	-0.284
-599.069	465.882	0.103	0.230
-598.055	-99.408	0.194	-0.049
-597.040	63.247	-0.138	0.138
-596.025	-62.517	-0.262	0.109
-595.011	56.700	0.233	-0.227
-593.996	-200.000	-0.048	0.237
-592.982	800.000	-0.066	0.229
-591.967	62.672	-0.143	0.143
-590.952	-200.000	0.098	0.565
-589.938	-200.000	-0.011	-0.095
-588.923	720.583	0.101	0.268
-587.909	-149.468	0.345	0.027
-586.894	258.567	-0.140	0.241
-585.879	339.731	0.050	-0.096
-584.865	-200.000	0.051	-0.597
-583.850	53.589	0.244	-0.233
-582.836	-88.994	0.394	-0.116
-581.821	-107.556	0.429	-0.094
-580.806	-115.933	-0.231	0.043
-579.792	800.000	0.034	0.109
-578.777	339.016	0.080	-0.155
-577.763	62.042	-0.149	-0.148
-576.748	-200.000	0.005	0.110
-575.733	-154.725	0.384	-0.025
-574.719	-62.084	-0.038	0.016
-573.704	-188.102	0.096	-0.001
-572.690	378.939	0.152	0.310
-571.675	-28.349	-0.351	-0.202
-570.661	800.000	0.049	-0.207
-569.646	-112.584	-0.166	0.033
-568.631	48.023	0.137	-0.128
-567.617	-25.894	-0.127	0.075
-566.602	-200.000	0.020	-0.404
-565.588	-88.523	0.280	0.083
-564.573	-53.241	-0.341	0.156
-563.558	-59.761	0.292	0.125
-562.544	-118.142	0.116	-0.021
-561.529	2.192	0.111	-0.080
-560.515	-196.491	0.317	0.002
-559.500	92.987	-0.082	-0.092
-558.485	175.639	0.125	0.181
-557.471	-200.000	-0.004	-0.068
-556.456	800.000	0.156	-0.508
-555.442	-5.349	0.264	0.181
-554.427	-200.000	-0.053	-0.262
-553.412	-159.519	-0.206	0.011
-552.398	276.084	-0.022	-0.039
-551.383	-200.000	0.017	0.077
-550.369	-121.306	0.191	0.032
-549.354	38.519	-0.096	0.085
-548.339	-6.981	0.163	-0.111
-547.325	9.982	0.185	-0.140
-546.310	1.563	0.234	-0.168
-545.296	-200.000	0.022	0.112
-544.281	-200.000	-0.009	-0.300
-543.266	656.255	0.078	-0.200
-542.252	-200.000	0.017	0.214
-541.237	-170.825	-0.266	-0.009
-540.223	-153.706	0.098	0.007
-539.208	405.061	0.054	0.114
-538.193	-200.000	0.027	-0.194
-537.179	8.420	-0.303	-0.227
-536.164	124.708	0.228	0.286
-535.150	62.443	0.132	0.131
-534.135	800.000	-0.069	-0.202
-533.121	-154.872	-0.230	0.015
-532.106	-71.168	-0.151	-0.056
-531.091	-129.760	-0.423	-0.058
-530.077	3.431	-0.239	0.173
-529.062	149.732	0.105	0.142
-528.048	-165.895	-0.333	-0.014
-527.033	-200.000	-0.007	-0.045
-526.018	-96.080	0.137	-0.036
-525.004	358.630	0.102	-0.204
-523.989	-68.056	-0.178	0.069
-522.975	-200.000	0.021	-0.143
-521.960	-143.610	0.266	0.025
-520.945	-200.000	-0.006	-0.221
-519.931	47.345	0.118	-0.109
-518.916	51.584	-0.161	-0.152
-517.902	-13.921	-0.371	-0.239
-516.887	35.229	-0.154	-0.134
-515.872	774.072	-0.047	-0.127
-514.858	29.141	-0.120	0.102
-513.843	-200.000	0.008	-0.092
-512.829	-200.000	0.015	0.257
-511.814	109.438	0.120	-0.143
-510.799	-59.671	0.157	-0.067
-509.785	-200.000	-0.011	0.156
-508.770	-120.260	0.334	-0.057
-507.756	-100.955	0.262	0.064
-506.741	-200.000	-0.007	-0.213
-505.726	-83.825	-0.385	0.122
-504.712	-200.000	-0.063	-0.281
-503.697	-200.000	0.077	-0.438
-502.683	310.694	0.087	0.162
-501.668	155.362	0.134	0.184
-500.653	-107.327	0.333	0.073
-499.639	-100.564	0.062	0.015
-498.624	-19.444	0.345	0.212
-497.610	-74.997	-0.229	0.082
-496.595	297.951	-0.150	0.273
-495.581	800.000	-0.021	0.080
-494.566	701.172	0.045	0.118
-493.551	406.100	0.137	0.287
-492.537	300.119	0.124	0.227
-491.522	-172.216	-0.193	0.006
-490.508	-181.238	-0.251	-0.005
-489.493	-68.567	0.414	-0.159
-488.478	151.120	-0.118	-0.160
-487.464	-49.795	-0.017	0.008
-486.449	50.048	-0.256	0.240
-485.435	5.578	0.103	0.076
-484.420	-39.351	-0.152	-0.079
-483.405	-98.228	0.114	0.029
-482.391	53.782	0.039	0.037
-481.376	139.277	0.138	0.181
-480.362	-30.808	-0.110	-0.062
-479.347	-141.732	0.092	-0.009
-478.332	217.333	-0.091	-0.144
-477.318	166.173	-0.186	-0.262
-476.303	58.289	-0.257	0.250
-475.289	-166.595	-0.114	-0.005
-474.274	121.308	-0.131	-0.162
-473.259	-42.071	0.149	-0.076
-472.245	-160.933	-0.438	-0.023
-471.230	-167.649	0.171	0.007
-470.216	-100.554	-0.082	-0.020
-469.201	-11.286	0.221	-0.145
-468.186	-124.499	-0.154	0.024
-467.172	486.127	0.073	0.165
-466.157	-71.388	-0.296	-0.110
-465.143	-128.221	-0.315	0.045
-464.128	163.134	0.047	0.065
-463.113	487.869	-0.074	0.167
-462.099	-167.007	0.109	0.004
-461.084	678.646	-0.051	-0.131
-460.070	18.169	-0.143	-0.113
-459.055	32.644	-0.140	0.120
-458.040	-200.000	-0.024	-0.436
-457.026	-74.918	-0.154	0.055
-456.011	-156.890	0.153	0.009
-454.997	233.990	-0.228	0.373
-453.982	-119.751	-0.139	0.024
-452.968	352.382	-0.106	-0.209
-451.953	190.233	0.097	0.144
-450.938	6.595	-0.178	-0.131
-449.924	-85.276	0.431	0.134
-448.909	178.936	-0.096	0.139
-447.895	-86.900	0.160	0.048
-446.880	108.219	0.099	-0.117
-445.865	-49.478	0.058	0.028
-444.851	-82.054	0.396	0.128
-443.836	0.348	0.164	0.116
-442.822	-200.000	-0.042	0.264
-441.807	-115.014	0.383	-0.072
-440.792	-161.154	-0.228	0.012
-439.778	-127.395	-0.220	-0.032
-438.763	800.000	0.062	-0.182
-437.749	388.840	0.067	0.137
-436.734	-79.659	-0.031	-0.010
-435.719	131.051	0.411	0.523
-434.705	-200.000	-0.057	-0.317
-433.690	140.451	0.071	0.093
-432.676	58.710	0.217	-0.212
-431.661	-200.000	0.002	-0.289
-430.646	14.971	0.245	-0.190
-429.632	149.630	-0.202	-0.271
-428.617	230.143	-0.177	0.287
-427.603	-200.000	-0.040	0.265
-426.588	146.527	-0.094	0.125
-425.573	193.603	-0.122	0.183
-424.559	-47.772	0.233	-0.112
-423.544	392.858	0.075	0.154
-422.530	446.773	0.070	0.153
-421.515	133.714	-0.114	0.147
-420.500	336.776	0.176	-0.338
-419.486	-7.305	0.165	-0.111
-418.471	-69.921	-0.089	0.034
-417.457	291.377	0.099	-0.178
-416.442	363.118	-0.028	-0.055
-415.428	17.253	0.260	0.204
-414.413	800.000	0.080	-0.312
-413.398	17.895	-0.354	0.280
-412.384	250.402	-0.101	0.169
-411.369	220.163	0.104	0.166
-410.355	35.748	0.033	0.028
-409.340	418.347	0.171	-0.362
-408.325	109.282	-0.136	0.161
-407.311	409.919	0.131	-0.276
-406.296	695.004	-0.078	-0.202
-405.282	800.000	-0.021	-0.074
-404.267	21.060	0.154	0.123
-403.252	-71.273	-0.237	-0.088
-402.238	71.397	-0.189	-0.194
-401.223	-35.078	-0.212	-0.114
-400.209	-36.215	0.093	0.050
-399.194	-200.000	-0.047	-0.349
-398.179	-58.402	-0.277	0.119
-397.165	-200.000	0.016	0.189
-396.150	-86.221	0.075	-0.023
-395.136	-200.000	-0.008	0.051
-394.121	-197.429	-0.153	0.001
-393.106	32.772	-0.256	-0.219
-392.092	-59.420	0.262	0.112
-391.077	-48.063	0.176	0.084
-390.063	18.347	0.084	-0.067
-389.048	-3.313	0.141	-0.097
-388.033	-72.241	-0.277	0.102
-387.019	800.000	0.039	0.136
-386.004	237.204	0.102	0.167
-384.990	-59.337	-0.384	0.163
-383.975	800.000	-0.143	0.600
-382.960	218.421	0.061	0.097
-381.946	-47.665	0.220	0.106
-380.931	-50.442	-0.348	-0.163
-379.917	102.662	-0.159	-0.184
-378.902	-200.000	0.004	-0.418
-377.888	800.000	0.048	-0.183
-376.873	800.000	0.119	0.383
-375.858	-197.806	-0.313	-0.002
-374.844	800.000	0.014	0.041
-373.829	-200.000	-0.019	-0.184
-372.815	-200.000	0.000	-0.076
-371.800	-75.133	-0.166	0.059
-370.785	-40.171	-0.322	0.166
-369.771	-25.769	-0.164	0.096
-368.756	-134.092	0.289	-0.035
-367.742	59.746	-0.115	-0.112
-366.727	-118.129	-0.089	0.016
-365.712	90.688	0.162	-0.180
-364.698	-65.163	0.185	-0.074
-363.683	-64.263	-0.284	0.114
-362.669	502.415	0.229	0.524
-361.654	-132.336	0.240	0.031
-360.639	-80.517	-0.105	0.035
-359.625	-6.192	0.061	0.041
-358.610	262.302	-0.059	0.101
-357.596	-200.000	0.000	-0.356
-356.581	168.269	0.067	0.095
-355.566	571.805	-0.066	-0.160
-354.552	800.000	-0.061	-0.167
-353.537	11.263	0.136	0.103
-352.523	413.459	-0.038	0.081
-351.508	800.000	0.018	0.071
-350.493	-35.257	-0.065	0.035
-349.479	51.459	0.047	-0.044
-348.464	343.646	0.076	-0.147
-347.450	-112.923	0.238	0.047
-346.435	-200.000	0.008	0.198
-345.420	-139.190	0.201	-0.021
-344.406	-175.144	0.262	-0.007
-343.391	-79.226	0.376	-0.126
-342.377	276.517	0.081	-0.142
-341.362	800.000	0.090	-0.281
-340.348	53.816	0.137	0.130
-339.333	385.560	-0.071	0.144
-338.318	-200.000	-0.004	-0.217
-337.304	-200.000	-0.005	0.214
-336.289	154.313	0.034	-0.047
-335.275	-32.737	0.276	-0.152
-334.260	88.291	0.116	-0.127
-333.245	-65.906	-0.191	0.075
-332.231	701.850	-0.012	0.032
-331.216	-46.506	-0.146	0.071
-330.202	-200.000	0.029	-0.133
-329.187	-17.385	0.123	0.076
-328.172	70.441	0.125	-0.127
-327.158	-137.988	-0.076	0.008
-326.143	-85.105	0.156	0.048
-325.129	-69.389	0.211	0.080
-324.114	-200.000	0.040	0.209
-323.099	530.069	-0.146	-0.341
-322.085	-59.746	-0.102	0.043
-321.070	-122.969	-0.313	-0.050
-320.056	560.782	-0.198	-0.472
-319.041	47.751	0.089	0.082
-318.026	-16.038	0.058	0.036
-317.012	-188.118	-0.418	-0.005
-315.997	800.000	-0.040	-0.142
-314.983	800.000	-0.061	0.196
-313.968	-90.291	0.252	-0.072
-312.953	-200.000	0.038	0.261
-311.939	144.763	-0.146	-0.193
-310.924	59.962	0.054	-0.053
-309.910	-200.000	0.051	-0.300
-308.895	118.850	0.275	0.335
-307.880	800.000	0.178	-0.487
-306.866	800.000	0.108	-0.373
-305.851	14.043	0.151	0.116
-304.837	-2.818	0.207	0.143
-303.822	359.093	0.160	-0.316
-302.807	72.397	0.152	-0.156
-301.793	1.356	0.128	0.091
-300.778	0.395	0.068	0.048
-299.764	-139.655	-0.053	0.006
-298.749	-96.583	0.275	-0.071
-297.735	-200.000	-0.028	-0.149
-296.720	-8.956	-0.196	0.129
-295.705	-4.072	-0.428	0.292
-294.691	-200.000	-0.027	-0.198
-293.676	-176.858	0.135	0.003
-292.662	-71.974	0.110	0.040
-291.647	55.680	-0.161	0.154
-290.632	77.616	0.216	0.227
-289.618	-4.088	-0.082	-0.056
-288.603	-200.000	0.010	-0.176
-287.589	-27.245	0.257	0.147
-286.574	46.932	0.115	0.105
-285.559	244.973	0.098	0.163
-284.545	-49.792	0.031	0.014
-283.530	-200.000	0.030	0.276
-282.516	-110.011	-0.203	0.042
-281.501	92.818	-0.168	0.187
-280.486	-78.853	-0.208	-0.070
-279.472	148.971	-0.050	0.066
-278.457	800.000	-0.071	-0.223
-277.443	800.000	-0.043	0.183
-276.428	-200.000	0.049	0.289
-275.413	657.591	0.059	-0.148
-274.399	441.760	0.133	-0.286
-273.384	-148.437	-0.147	0.012
-272.370	367.870	0.159	-0.316
-271.355	-200.000	0.008	-0.310
-270.340	-71.946	-0.268	-0.098
-269.326	289.453	0.187	0.335
-268.311	-180.075	-0.232	-0.005
-267.297	-2.582	-0.209	0.144
-266.282	800.000	0.121	-0.401
-265.267	42.523	-0.148	0.133
-264.253	11.607	0.222	0.168
-263.238	800.000	0.072	0.303
-262.224	-200.000	0.009	-0.161
-261.209	-49.382	-0.260	0.122
-260.195	-200.000	-0.031	0.159
-259.180	-90.056	0.038	0.011
-258.165	33.894	-0.190	0.163
-257.151	800.000	0.079	-0.294
-256.136	800.000	-0.102	0.283
-255.122	-200.000	-0.004	0.116
-254.107	187.762	-0.158	0.232
-253.092	-200.000	-0.018	0.384
-252.078	-200.000	0.015	-0.128
-251.063	-200.000	0.022	-0.223
-250.049	46.513	0.098	0.090
-249.034	368.100	0.174	-0.346
-248.019	-44.391	0.348	-0.172
-247.005	-116.062	0.240	0.044
-245.990	-31.203	-0.120	-0.066
-244.976	-64.532	0.119	-0.048
-243.961	800.000	-0.123	-0.506
-242.946	724.148	-0.103	0.269
-241.932	191.575	-0.289	0.429
-240.917	-72.902	0.127	-0.046
-239.903	800.000	0.043	0.127
-238.888	-137.141	-0.269	0.030
-237.873	-6.188	-0.041	-0.028
-236.859	-57.765	-0.102	0.044
-235.844	8.328	-0.121	0.089
-234.830	-56.153	0.320	-0.140
-233.815	30.220	-0.129	-0.109
-232.800	800.000	-0.028	-0.096
-231.786	132.085	-0.134	-0.169
-230.771	213.098	-0.121	0.188
-229.757	-143.641	-0.336	-0.031
-228.742	5.257	0.379	-0.275
-227.727	800.000	0.074	0.255
-226.713	102.339	-0.160	0.184
-225.698	19.510	-0.237	0.187
-224.684	254.075	-0.068	-0.114
-223.669	512.855	0.114	0.261
-222.655	375.282	-0.113	0.226
-221.640	-200.000	0.020	0.106
-220.625	-200.000	0.050	0.235
-219.611	195.288	-0.290	0.433
-218.596	7.555	-0.249	0.183
-217.582	232.256	-0.046	-0.074
-216.567	152.686	-0.147	0.197
-215.552	-124.287	-0.204	-0.031
-214.538	-94.991	0.270	-0.072
-213.523	257.833	0.049	-0.083
-212.509	-162.671	-0.101	0.005
-211.494	-10.354	0.274	0.179
-210.479	-85.585	-0.281	-0.086
-209.465	-200.000	-0.054	0.325
-208.450	-71.459	0.089	0.033
-207.436	144.376	0.036	-0.047
-206.421	155.632	-0.182	0.247
-205.406	-25.056	-0.234	0.136
-204.392	36.604	0.276	-0.240
-203.377	-200.000	-0.022	-0.141
-202.363	-102.274	-0.592	0.140
-201.348	-111.751	0.332	-0.066
-200.333	800.000	-0.024	0.092
-199.319	174.103	0.068	0.096
-198.304	188.557	-0.088	0.129
-197.290	-200.000	-0.017	-0.085
-196.275	-126.404	0.148	0.022
-195.260	-170.945	-0.167	-0.006
-194.246	-200.000	-0.032	-0.244
-193.231	-41.508	0.091	-0.046
-192.217	481.417	0.075	-0.168
-191.202	-200.000	0.049	-0.260
-190.187	-29.503	-0.103	0.058
-189.173	80.277	-0.108	0.114
-188.158	248.496	-0.074	-0.123
-187.144	-200.000	-0.069	-0.311
-186.129	30.334	-0.323	0.271
-185.114	-50.327	-0.315	0.146
-184.100	26.060	-0.152	-0.124
-183.085	227.614	-0.086	-0.138
-182.071	47.803	0.344	0.315
-181.056	-200.000	0.054	0.321
-180.042	151.656	0.103	0.138
-179.027	-43.038	0.362	-0.180
-178.012	-200.000	0.013	0.080
-176.998	-53.835	0.357	-0.160
-175.983	111.901	-0.101	0.119
-174.969	-34.471	0.079	-0.043
-173.954	-40.557	-0.202	-0.103
-172.939	704.318	0.085	0.221
-171.925	-57.760	0.033	-0.014
-170.910	-200.000	-0.022	-0.332
-169.896	-200.000	0.045	0.325
-168.881	-200.000	-0.040	0.300
-167.866	-138.423	0.238	-0.026
-166.852	45.649	-0.082	-0.074
-165.837	800.000	0.079	-0.234
-164.823	-97.031	0.301	0.077
-163.808	-200.000	-0.052	-0.265
-162.793	105.669	-0.048	0.056
-161.779	-200.000	-0.002	-0.064
-160.764	80.241	0.127	0.134
-159.750	-200.000	-0.001	0.157
-158.735	-57.472	0.389	-0.167
-157.720	-200.000	0.014	-0.139
-156.706	245.499	0.191	0.315
-155.691	-200.000	0.027	0.198
-154.677	-200.000	-0.024	0.269
-153.662	426.559	0.018	0.039
-152.647	98.376	-0.070	-0.079
-151.633	52.660	0.142	-0.133
-150.618	-29.940	-0.154	-0.086
-149.604	-200.000	0.021	0.210
-148.589	-24.723	0.149	0.087
-147.574	27.970	0.274	-0.226
-146.560	-191.569	0.233	0.002
-145.545	-124.534	-0.572	0.087
-144.531	469.927	-0.049	-0.108
-143.516	-200.000	-0.038	-0.250
-142.502	41.421	-0.147	-0.130
-141.487	-41.956	0.125	0.063
-140.472	-91.445	0.202	0.057
-139.458	98.050	0.272	0.307
-138.443	107.617	0.307	0.358
-137.429	-113.202	0.162	0.031
-136.414	-0.869	0.174	0.121
-135.399	5.923	-0.240	0.174
-134.385	800.000	-0.012	-0.037
-133.370	-105.052	-0.065	0.015
-132.356	233.734	-0.076	0.122
-131.341	82.033	-0.097	0.103
-130.326	-200.000	-0.017	0.365
-129.312	-37.116	0.236	-0.124
-128.297	-200.000	-0.049	0.233
-127.283	-200.000	-0.054	0.435
-126.268	472.894	-0.163	0.360
-125.253	107.155	0.292	-0.340
-124.239	793.676	-0.054	0.145
-123.224	105.304	0.216	-0.250
-122.210	4.507	0.062	0.045
-121.195	368.248	0.103	0.203
-120.180	-86.839	0.359	-0.107
-119.166	-78.542	-0.166	0.056
