DTS Sentinel unit serial number:	SN413079Multiplexer serial number:	ORYXHardware model number:	OX4-SRSoftware version number:	ORYX F/W v4.00 Oryx Data Collector v3.7.2.0data status	okinstallation	princeton_trtdifferential loss correction	single-endedforward channel	channel 2reverse channel	N/Adate	2019/09/15time	09:43:35forward acquisition time	60.00reverse acquisition time	0.00gamma	496.2192k internal	0.2316k external	0.2316temperature offset calibration	1.0014default loss term (dB/km)	0.3790temperature slope calibration	1.0000multiplexer offset coefficient	1.0000multiplexer slope coefficient	1.0000fibre end	0.00T internal ref (°C)	33.94T ext. ref 1 (°C)	4.95T ext. ref 2 (°C)	29.74length (m)	temperature (°C)	Stokes	anti-Stokes-747.200	736.379	-0.043	-0.117
-746.185	651.870	-0.010	-0.027
-745.171	-200.000	0.010	-0.098
-744.156	771.546	-0.085	0.234
-743.142	-43.519	0.165	0.084
-742.127	26.586	0.257	0.218
-741.112	146.515	-0.032	-0.044
-740.098	728.030	-0.045	-0.122
-739.083	-146.433	0.169	0.015
-738.069	-26.458	0.227	0.135
-737.054	-13.790	-0.219	-0.143
-736.039	-129.840	-0.195	-0.027
-735.025	-28.375	0.281	0.164
-734.010	389.453	-0.130	0.272
-732.996	-155.092	0.115	-0.008
-731.981	479.439	-0.091	0.208
-730.966	729.901	-0.087	0.234
-729.952	800.000	-0.085	-0.282
-728.937	36.502	-0.246	-0.220
-727.923	800.000	-0.046	-0.196
-726.908	69.280	-0.211	-0.220
-725.894	-179.613	-0.377	-0.008
-724.879	-21.715	-0.139	0.086
-723.864	22.014	-0.090	0.074
-722.850	-143.495	-0.148	-0.014
-721.835	-200.000	-0.011	-0.300
-720.821	16.389	0.127	0.102
-719.806	-187.696	0.244	0.003
-718.791	181.286	0.067	-0.099
-717.777	160.289	-0.113	0.159
-716.762	743.598	0.098	0.267
-715.748	61.426	-0.201	0.202
-714.733	106.740	0.127	0.152
-713.718	-38.342	-0.200	0.107
-712.704	-200.000	-0.281	0.000
-711.689	199.925	-0.220	-0.341
-710.675	-29.917	0.069	-0.040
-709.660	22.302	-0.094	-0.077
-708.645	-7.152	0.280	0.192
-707.631	131.126	0.102	-0.133
-706.616	261.329	0.067	-0.118
-705.602	-200.000	-0.009	-0.091
-704.587	800.000	-0.107	0.353
-703.572	239.084	0.248	-0.417
-702.558	16.979	0.205	0.164
-701.543	-200.000	0.002	0.250
-700.529	9.640	-0.274	-0.210
-699.514	71.320	-0.272	-0.285
-698.499	14.373	-0.134	-0.106
-697.485	-48.997	-0.290	0.141
-696.470	117.119	0.172	-0.214
-695.456	243.398	0.051	-0.086
-694.441	117.457	0.142	0.177
-693.426	800.000	-0.053	0.211
-692.412	305.145	-0.194	0.365
-691.397	150.272	-0.170	0.233
-690.383	-47.064	-0.218	-0.108
-689.368	-93.439	0.191	0.053
-688.354	-200.000	-0.035	0.335
-687.339	-200.000	0.039	-0.186
-686.324	164.201	0.093	-0.132
-685.310	40.868	-0.131	0.119
-684.295	-200.000	-0.035	-0.185
-683.281	-43.514	-0.170	-0.087
-682.266	210.132	-0.107	0.170
-681.251	-81.757	0.184	-0.061
-680.237	-200.000	0.006	-0.055
-679.222	-34.993	0.229	-0.127
-678.208	-90.575	0.111	-0.032
-677.193	349.482	0.067	-0.133
-676.178	800.000	-0.049	0.177
-675.164	451.862	-0.055	-0.124
-674.149	140.022	-0.093	0.124
-673.135	-108.730	0.303	-0.066
-672.120	39.380	0.122	-0.110
-671.105	129.239	-0.161	-0.208
-670.091	-200.000	0.018	-0.404
-669.076	48.774	-0.154	0.146
-668.062	-142.011	-0.298	0.030
-667.047	197.730	-0.281	-0.433
-666.032	-180.013	-0.280	-0.006
-665.018	743.543	-0.077	-0.208
-664.003	285.846	0.071	-0.130
-662.989	15.026	-0.146	0.116
-661.974	16.942	-0.070	-0.056
-660.959	17.917	0.478	0.385
-659.945	230.379	-0.150	-0.247
-658.930	800.000	-0.034	0.128
-657.916	132.375	-0.011	0.015
-656.901	800.000	-0.056	-0.221
-655.886	-200.000	0.008	0.224
-654.872	-200.000	-0.040	0.427
-653.857	225.836	0.164	-0.268
-652.843	338.376	-0.013	-0.025
-651.828	-83.243	-0.120	-0.039
-650.814	-122.461	0.089	0.015
-649.799	-200.000	-0.023	-0.244
-648.784	-159.958	0.172	0.009
-647.770	416.750	-0.053	-0.115
-646.755	215.793	0.111	0.178
-645.741	153.754	-0.185	0.255
-644.726	-200.000	-0.012	0.183
-643.711	800.000	-0.084	0.237
-642.697	359.067	0.096	-0.193
-641.682	-18.002	-0.065	-0.041
-640.668	-200.000	0.043	-0.317
-639.653	800.000	0.047	-0.198
-638.638	-102.928	0.130	-0.031
-637.624	-200.000	0.045	0.227
-636.609	-172.012	0.190	-0.006
-635.595	76.134	-0.120	-0.129
-634.580	800.000	0.043	0.156
-633.565	800.000	-0.081	0.348
-632.551	381.829	0.062	-0.128
-631.536	-121.985	0.205	0.034
-630.522	688.354	0.194	-0.511
-629.507	-48.379	0.335	-0.163
-628.492	241.964	-0.091	-0.154
-627.478	19.398	-0.159	-0.129
-626.463	71.712	0.048	0.050
-625.449	-118.841	0.157	-0.028
-624.434	-200.000	-0.065	-0.444
-623.419	235.013	-0.090	-0.150
-622.405	-43.339	0.206	-0.105
-621.390	-200.000	-0.000	-0.055
-620.376	-200.000	-0.025	0.120
-619.361	372.473	0.145	0.298
-618.346	359.200	-0.115	-0.233
-617.332	1.612	-0.122	0.088
-616.317	-122.994	0.320	-0.052
-615.303	-11.087	0.104	0.069
-614.288	-200.000	-0.032	-0.290
-613.273	-57.547	-0.194	0.086
-612.259	-126.432	-0.438	-0.066
-611.244	-78.671	-0.154	-0.053
-610.230	198.504	-0.112	0.172
-609.215	-200.000	0.033	-0.184
-608.201	-159.333	0.226	0.013
-607.186	-156.086	-0.050	0.003
-606.171	96.003	-0.081	-0.093
-605.157	112.465	0.208	0.254
-604.142	-148.266	-0.155	0.013
-603.128	-200.000	-0.017	0.260
-602.113	-120.873	-0.217	-0.037
-601.098	-110.948	0.241	-0.050
-600.084	-148.781	-0.094	0.008
-599.069	-87.007	-0.054	0.017
-598.055	-85.258	-0.282	0.089
-597.040	-125.070	-0.208	0.032
-596.025	-43.155	0.047	-0.024
-595.011	-200.000	-0.007	-0.459
-593.996	-11.447	-0.147	-0.097
-592.982	800.000	0.036	-0.104
-591.967	-55.758	0.369	0.166
-590.952	-99.205	-0.461	-0.117
-589.938	-200.000	-0.011	-0.292
-588.923	-121.655	0.086	0.014
-587.909	-172.667	0.113	-0.004
-586.894	170.298	0.162	0.233
-585.879	-200.000	0.009	0.292
-584.865	-200.000	-0.098	-0.586
-583.850	-200.000	0.093	-0.472
-582.836	-37.041	0.199	-0.107
-581.821	-200.000	-0.009	0.168
-580.806	-200.000	-0.021	-0.422
-579.792	126.911	-0.314	-0.400
-578.777	754.976	-0.046	0.126
-577.763	800.000	0.072	0.215
-576.748	86.113	-0.118	-0.131
-575.733	57.732	-0.052	-0.051
-574.719	3.266	0.181	0.133
-573.704	45.044	-0.129	0.120
-572.690	-61.289	-0.067	0.028
-571.675	-200.000	0.004	-0.288
-570.661	16.165	0.146	-0.116
-569.646	800.000	0.095	-0.292
-568.631	800.000	0.103	0.406
-567.617	-115.674	0.051	-0.010
-566.602	-27.960	-0.121	0.070
-565.588	800.000	0.096	-0.307
-564.573	360.199	-0.017	0.035
-563.558	-98.439	0.087	-0.022
-562.544	-62.498	0.187	-0.078
-561.529	-111.103	-0.198	-0.041
-560.515	-76.577	0.303	0.107
-559.500	800.000	0.055	-0.168
-558.485	-200.000	-0.019	0.094
-557.471	-103.647	-0.167	0.039
-556.456	11.945	-0.163	0.126
-555.442	-200.000	0.058	0.368
-554.427	669.114	-0.045	-0.118
-553.412	-114.991	-0.359	0.069
-552.398	165.089	0.010	-0.014
-551.383	73.965	0.250	-0.264
-550.369	-148.079	0.259	-0.022
-549.354	-200.000	-0.007	-0.077
-548.339	-35.541	-0.503	-0.275
-547.325	-111.220	0.056	-0.011
-546.310	118.174	-0.258	-0.320
-545.296	-200.000	0.011	-0.236
-544.281	85.298	-0.116	0.128
-543.266	370.869	0.073	-0.150
-542.252	310.722	-0.097	0.182
-541.237	339.740	0.159	0.312
-540.223	4.787	0.199	0.147
-539.208	-100.659	-0.215	0.053
-538.193	-121.972	-0.228	0.038
-537.179	-200.000	-0.005	0.111
-536.164	-200.000	-0.005	0.347
-535.150	240.646	0.090	0.151
-534.135	-91.657	0.104	0.030
-533.121	-28.284	-0.390	0.226
-532.106	800.000	0.023	0.067
-531.091	118.778	-0.254	-0.315
-530.077	800.000	0.051	-0.164
-529.062	-200.000	-0.055	-0.275
-528.048	-67.838	-0.114	-0.045
-527.033	6.652	-0.031	-0.023
-526.018	-129.080	-0.108	-0.015
-525.004	78.670	0.121	-0.130
-523.989	-13.165	0.210	-0.137
-522.975	106.947	-0.111	-0.133
-521.960	64.910	0.052	-0.053
-520.945	304.453	-0.065	-0.122
-519.931	-31.662	-0.346	-0.195
-518.916	-95.210	-0.175	-0.047
-517.902	-110.206	0.051	-0.011
-516.887	-94.080	-0.265	-0.073
-515.872	40.990	-0.049	0.045
-514.858	-200.000	-0.022	0.211
-513.843	-178.867	-0.127	0.003
-512.829	800.000	-0.096	0.317
-511.814	45.706	-0.247	0.229
-510.799	-69.411	0.277	0.107
-509.785	113.543	-0.174	-0.212
-508.770	185.509	-0.029	0.043
-507.756	-200.000	-0.021	0.190
-506.741	83.136	0.075	0.081
-505.726	1.117	0.228	0.164
-504.712	-156.644	0.103	0.006
-503.697	800.000	-0.004	0.015
-502.683	-28.819	-0.140	0.081
-501.668	187.596	0.158	-0.237
-500.653	-59.358	-0.146	0.063
-499.639	-71.375	0.165	0.062
-498.624	800.000	0.028	0.080
-497.610	21.335	0.175	-0.143
-496.595	20.794	0.098	-0.079
-495.581	-72.714	0.179	0.066
-494.566	419.517	0.069	-0.149
-493.551	-52.995	0.590	-0.273
-492.537	-200.000	0.024	-0.327
-491.522	179.972	-0.101	0.148
-490.508	353.628	0.070	-0.139
-489.493	415.646	-0.035	-0.075
-488.478	23.858	-0.156	0.129
-487.464	-200.000	0.029	-0.179
-486.449	-41.763	-0.290	0.149
-485.435	133.527	0.175	0.227
-484.420	-53.061	0.207	0.095
-483.405	82.708	0.078	0.085
-482.391	59.632	0.144	0.143
-481.376	-39.794	0.146	0.077
-480.362	290.007	-0.007	0.012
-479.347	220.339	0.194	-0.311
-478.332	-19.600	-0.386	0.239
-477.318	-147.896	-0.075	-0.006
-476.303	-63.557	0.610	-0.251
-475.289	47.258	-0.098	-0.092
-474.274	-68.651	-0.057	0.022
-473.259	800.000	0.066	0.192
-472.245	168.115	0.033	-0.047
-471.230	181.233	-0.192	-0.283
-470.216	-3.094	-0.130	-0.091
-469.201	800.000	-0.068	-0.215
-468.186	-26.830	-0.078	0.046
-467.172	-200.000	0.070	0.356
-466.157	128.316	0.078	-0.100
-465.143	-131.760	0.098	0.013
-464.128	-123.288	0.131	-0.021
-463.113	55.900	-0.184	0.179
-462.099	-67.230	0.282	-0.111
-461.084	169.116	0.236	0.337
-460.070	-0.625	0.086	-0.061
-459.055	-200.000	-0.143	0.000
-458.040	686.405	0.135	0.355
-457.026	-200.000	-0.044	0.392
-456.011	-200.000	0.067	-0.315
-454.997	-200.000	0.027	0.258
-453.982	134.002	0.057	0.073
-452.968	800.000	-0.063	0.230
-451.953	45.634	0.045	-0.041
-450.938	-28.913	-0.329	0.189
-449.924	-65.827	-0.162	0.065
-448.909	117.445	-0.086	0.106
-447.895	-200.000	0.021	0.388
-446.880	81.058	-0.092	0.099
-445.865	454.077	-0.095	0.210
-444.851	-42.277	0.308	-0.157
-443.836	800.000	-0.045	0.184
-442.822	800.000	-0.061	-0.204
-441.807	-118.325	-0.256	-0.046
-440.792	-146.787	-0.431	0.037
-439.778	16.695	0.080	0.063
-438.763	-74.533	-0.232	-0.084
-437.749	28.099	0.154	0.130
-436.734	800.000	0.090	-0.384
-435.719	800.000	0.020	0.083
-434.705	628.959	0.165	-0.417
-433.690	-7.402	0.240	-0.163
-432.676	242.234	0.087	-0.146
-431.661	-71.852	0.105	0.039
-430.646	-200.000	0.108	-0.481
-429.632	71.655	-0.073	0.075
-428.617	-80.151	-0.316	-0.106
-427.603	-200.000	-0.002	0.250
-426.588	220.068	-0.046	-0.075
-425.573	-124.528	-0.193	0.030
-424.559	-32.325	0.201	-0.112
-423.544	800.000	0.036	0.116
-422.530	-78.282	-0.481	-0.165
-421.515	-50.113	0.109	-0.052
-420.500	250.636	-0.078	-0.133
-419.486	-140.866	0.243	-0.025
-418.471	-1.283	-0.268	0.189
-417.457	-200.000	-0.052	-0.240
-416.442	-131.208	0.210	-0.028
-415.428	509.610	-0.126	0.294
-414.413	21.374	-0.175	-0.142
-413.398	231.920	-0.080	-0.132
-412.384	52.122	-0.057	-0.054
-411.369	105.448	-0.111	0.131
-410.355	-16.594	0.275	0.174
-409.340	-78.091	-0.043	0.015
-408.325	-27.068	0.162	0.094
-407.311	189.290	-0.059	-0.089
-406.296	800.000	-0.100	0.327
-405.282	800.000	-0.136	-0.417
-404.267	800.000	-0.064	0.194
-403.252	-24.516	0.239	0.142
-402.238	-39.514	-0.108	-0.057
-401.223	-65.759	0.312	0.125
-400.209	-200.000	0.050	-0.303
-399.194	318.414	-0.058	0.110
-398.179	124.986	-0.181	0.228
-397.165	-200.000	-0.018	-0.102
-396.150	120.605	0.104	-0.129
-395.136	92.643	-0.135	0.152
-394.121	-200.000	0.009	-0.312
-393.106	-117.674	-0.183	-0.033
-392.092	234.968	-0.116	-0.192
-391.077	-200.000	-0.008	-0.157
-390.063	-55.119	0.276	-0.124
-389.048	388.932	-0.047	0.098
-388.033	-67.529	-0.060	-0.024
-387.019	-71.990	0.176	-0.065
-386.004	-200.000	0.029	0.377
-384.990	117.993	0.118	-0.145
-383.975	-167.521	0.377	0.015
-382.960	65.707	0.129	-0.131
-381.946	800.000	0.070	0.231
-380.931	267.407	0.091	0.159
-379.917	75.193	0.061	-0.065
-378.902	-200.000	-0.034	-0.181
-377.888	33.276	0.153	-0.133
-376.873	33.633	0.192	0.167
-375.858	590.496	-0.096	0.235
-374.844	-14.586	-0.277	-0.178
-373.829	159.754	-0.056	0.078
-372.815	268.551	-0.182	-0.319
-371.800	-200.000	-0.009	-0.455
-370.785	800.000	0.056	-0.159
-369.771	-52.138	-0.154	-0.072
-368.756	800.000	0.058	-0.223
-367.742	43.953	0.071	-0.065
-366.727	-200.000	0.026	0.163
-365.712	169.996	0.198	0.283
-364.698	330.208	-0.070	0.135
-363.683	800.000	-0.061	0.175
-362.669	-72.726	-0.215	0.079
-361.654	-200.000	0.007	0.398
-360.639	299.755	-0.129	-0.237
-359.625	-86.072	0.100	-0.031
-358.610	782.736	0.063	0.172
-357.596	-26.117	0.147	-0.086
-356.581	-182.531	0.227	-0.004
-355.566	100.781	0.133	-0.154
-354.552	137.034	-0.152	-0.198
-353.537	800.000	0.085	-0.364
-352.523	-93.280	-0.146	-0.040
-351.508	-200.000	0.005	0.092
-350.493	-114.230	-0.118	0.023
-349.479	411.824	-0.057	0.121
-348.464	800.000	-0.054	-0.187
-347.450	800.000	0.022	0.068
-346.435	-58.277	-0.258	-0.112
-345.420	123.288	0.152	-0.190
-344.406	800.000	0.024	-0.071
-343.391	800.000	-0.051	0.218
-342.377	116.664	-0.187	-0.229
-341.362	14.956	-0.054	-0.042
-340.348	-200.000	-0.063	0.385
-339.333	-200.000	-0.016	-0.120
-338.318	-200.000	-0.015	0.114
-337.304	800.000	0.085	0.331
-336.289	-77.888	-0.328	-0.113
-335.275	800.000	0.044	-0.135
-334.260	800.000	0.097	-0.295
-333.245	-86.408	0.061	0.019
-332.231	134.759	-0.139	0.180
-331.216	-200.000	-0.036	0.247
-330.202	46.035	0.135	0.125
-329.187	384.569	-0.095	0.195
-328.172	-88.730	0.141	-0.042
-327.158	217.684	0.014	0.022
-326.143	93.664	-0.334	0.377
-325.129	800.000	-0.017	0.058
-324.114	652.988	-0.057	-0.145
-323.099	-142.566	0.344	0.034
-322.085	800.000	0.070	0.204
-321.070	800.000	0.106	0.403
-320.056	33.787	-0.231	0.201
-319.041	13.367	0.185	0.143
-318.026	646.797	-0.155	0.394
-317.012	97.951	-0.054	-0.062
-315.997	-3.117	-0.355	-0.246
-314.983	-66.995	0.262	-0.103
-313.968	800.000	-0.037	-0.109
-312.953	-200.000	0.001	0.184
-311.939	-200.000	0.046	0.266
-310.924	-77.211	-0.059	0.020
-309.910	123.044	0.178	0.222
-308.895	-45.899	0.040	0.020
-307.880	-59.619	0.324	0.138
-306.866	-82.784	-0.196	-0.063
-305.851	-200.000	0.085	0.396
-304.837	-5.406	-0.304	0.208
-303.822	-70.070	-0.165	-0.063
-302.807	37.315	0.145	0.128
-301.793	-57.746	0.436	-0.190
-300.778	292.839	-0.111	-0.202
-299.764	-124.232	-0.086	0.013
-298.749	-5.468	0.338	0.231
-297.735	-200.000	-0.049	0.223
-296.720	5.684	0.228	-0.168
-295.705	-200.000	-0.018	-0.082
-294.691	800.000	-0.084	-0.319
-293.676	41.098	-0.089	0.080
-292.662	386.765	0.125	0.257
-291.647	-87.566	-0.164	-0.049
-290.632	-63.932	-0.297	-0.121
-289.618	-65.352	0.151	-0.060
-288.603	288.622	0.079	-0.143
-287.589	-28.121	-0.256	-0.147
-286.574	18.433	-0.277	0.220
-285.559	91.690	0.281	0.314
-284.545	371.495	-0.143	-0.289
-283.530	800.000	0.057	0.168
-282.516	110.972	-0.061	0.073
-281.501	107.813	-0.193	0.229
-280.486	375.376	0.102	-0.206
-279.472	-164.585	-0.240	0.011
-278.457	66.010	-0.258	-0.260
-277.443	800.000	0.049	0.148
-276.428	-172.865	0.458	-0.014
-275.413	-74.470	0.167	-0.060
-274.399	213.846	-0.142	0.224
-273.384	800.000	-0.084	-0.238
-272.370	160.410	-0.258	0.358
-271.355	-200.000	0.023	0.212
-270.340	-129.682	-0.174	-0.024
-269.326	20.473	0.139	-0.112
-268.311	261.315	0.103	-0.177
-267.297	-200.000	0.037	0.210
-266.282	-159.551	0.085	-0.005
-265.267	224.070	-0.207	0.332
-264.253	800.000	-0.072	0.222
-263.238	-200.000	0.043	-0.298
-262.224	-153.227	0.052	-0.004
-261.209	33.892	0.123	-0.106
-260.195	800.000	-0.106	0.380
-259.180	-200.000	0.006	-0.029
-258.165	-123.486	0.057	-0.009
-257.151	-181.433	-0.175	0.003
-256.136	-200.000	0.009	0.150
-255.122	709.048	0.074	0.194
-254.107	742.131	0.097	0.258
-253.092	-200.000	0.039	0.236
-252.078	-77.138	0.182	0.063
-251.063	-133.012	-0.101	-0.013
-250.049	-200.000	0.026	0.208
-249.034	4.568	-0.463	0.338
-248.019	-37.751	-0.273	-0.145
-247.005	-200.000	-0.037	-0.240
-245.990	128.796	-0.101	0.128
-244.976	-114.356	0.202	-0.039
-243.961	95.558	0.088	-0.100
-242.946	304.597	0.069	0.128
-241.932	50.286	0.092	-0.086
-240.917	121.372	0.031	-0.038
-239.903	-24.675	0.187	0.111
-238.888	800.000	-0.025	0.083
-237.873	-108.783	-0.318	-0.068
-236.859	-200.000	0.003	-0.267
-235.844	-62.589	-0.054	0.022
-234.830	-35.975	-0.091	-0.049
-233.815	91.742	-0.104	0.116
-232.800	74.802	-0.123	0.128
-231.786	-63.688	0.400	0.163
-230.771	-4.402	0.337	0.231
-229.757	29.749	-0.091	0.077
-228.742	127.989	-0.066	-0.083
-227.727	298.659	0.181	-0.331
-226.713	-182.273	-0.353	-0.007
-225.698	800.000	-0.087	-0.295
-224.684	-200.000	-0.045	0.406
-223.669	161.488	-0.306	0.425
-222.655	-53.704	0.107	0.049
-221.640	271.473	0.147	-0.258
-220.625	-15.276	0.146	0.093
-219.611	-200.000	-0.021	-0.361
-218.596	219.929	0.205	0.326
-217.582	293.342	-0.025	-0.046
-216.567	-200.000	-0.006	-0.080
-215.552	26.981	-0.273	-0.227
-214.538	468.673	0.098	-0.218
-213.523	-200.000	0.001	0.213
-212.509	800.000	0.086	0.245
-211.494	767.487	0.025	0.067
-210.479	-182.624	-0.312	-0.006
-209.465	-79.693	0.326	-0.109
-208.450	-200.000	-0.004	-0.251
-207.436	-103.376	0.075	0.017
-206.421	-84.761	0.217	-0.068
-205.406	106.346	0.170	0.200
-204.392	31.140	-0.267	-0.227
-203.377	-200.000	0.024	-0.379
-202.363	-200.000	0.033	-0.214
-201.348	527.470	0.055	0.129
-200.333	-200.000	0.038	0.169
-199.319	-115.108	-0.277	-0.052
-198.304	-130.355	-0.228	0.031
-197.290	800.000	0.047	0.155
-196.275	-81.147	0.343	-0.112
-195.260	133.514	-0.141	0.181
-194.246	32.076	0.198	-0.169
-193.231	800.000	0.098	-0.279
-192.217	-200.000	-0.009	0.301
-191.202	-153.859	0.187	0.013
-190.187	48.649	-0.119	0.110
-189.173	-155.686	0.246	0.016
-188.158	7.001	-0.274	0.202
-187.144	437.222	0.099	-0.213
-186.129	-200.000	0.040	-0.429
-185.114	800.000	0.046	0.160
-184.100	-119.304	-0.207	-0.036
-183.085	351.137	-0.148	-0.290
-182.071	-200.000	0.006	-0.132
-181.056	-200.000	-0.220	-0.001
-180.042	234.915	0.148	0.243
-179.027	800.000	-0.061	0.236
-178.012	800.000	-0.166	0.463
-176.998	-131.693	0.217	-0.028
-175.983	-200.000	0.056	-0.457
-174.969	800.000	0.022	-0.066
-173.954	159.095	-0.116	-0.159
-172.939	572.781	-0.031	0.074
-171.925	-39.112	0.296	0.154
-170.910	208.477	-0.171	-0.265
-169.896	-118.510	0.157	0.028
-168.881	545.153	0.022	-0.051
-167.866	-69.185	0.261	-0.099
-166.852	-41.937	0.123	-0.063
-165.837	2.720	0.273	-0.196
-164.823	-20.899	-0.206	-0.125
-163.808	-64.510	-0.180	0.073
-162.793	76.985	-0.198	0.208
-161.779	-49.744	0.387	0.182
-160.764	-139.618	-0.490	-0.052
-159.750	-130.384	0.417	-0.056
-158.735	-40.851	0.086	-0.044
-157.720	379.178	0.134	-0.272
-156.706	333.118	-0.083	-0.159
-155.691	800.000	0.070	0.205
-154.677	604.072	-0.130	0.320
-153.662	131.278	0.176	0.224
-152.647	119.041	0.289	-0.353
-151.633	-130.319	0.227	0.031
-150.618	299.101	0.095	0.173
-149.604	-200.000	-0.003	-0.226
-148.589	7.945	0.122	-0.091
-147.574	-38.599	-0.115	0.060
-146.560	458.556	0.067	0.147
-145.545	214.269	0.175	-0.274
-144.531	146.163	-0.176	-0.234
-143.516	-43.395	0.218	-0.109
-142.502	-200.000	-0.003	-0.015
-141.487	-200.000	-0.027	0.175
-140.472	101.880	-0.027	0.031
-139.458	-200.000	0.268	0.000
-138.443	-200.000	0.021	-0.152
-137.429	-88.583	-0.200	0.059
-136.414	-37.108	-0.086	0.046
-135.399	-133.294	-0.405	-0.051
-134.385	17.214	0.072	0.056
-133.370	252.620	-0.078	0.131
-132.356	-200.000	0.014	0.079
-131.341	-38.723	0.116	0.061
-130.326	259.379	-0.048	0.082
-129.312	-200.000	0.013	-0.285
-128.297	-200.000	-0.003	0.091
-127.283	-127.091	0.301	0.044
-126.268	-10.225	0.162	0.106
-125.253	-33.125	0.170	0.093
-124.239	-85.001	0.081	-0.025
-123.224	141.151	-0.195	0.255
-122.210	176.854	0.087	-0.126
