DTS Sentinel unit serial number:	SN413079Multiplexer serial number:	ORYXHardware model number:	OX4-SRSoftware version number:	ORYX F/W v4.00 Oryx Data Collector v3.7.2.0data status	okinstallation	princeton_trtdifferential loss correction	single-endedforward channel	channel 2reverse channel	N/Adate	2019/09/17time	12:39:35forward acquisition time	60.00reverse acquisition time	0.00gamma	496.2192k internal	0.2321k external	0.2321temperature offset calibration	0.9988default loss term (dB/km)	0.3790temperature slope calibration	1.0000multiplexer offset coefficient	1.0000multiplexer slope coefficient	1.0000fibre end	0.00T internal ref (°C)	32.30T ext. ref 1 (°C)	0.41T ext. ref 2 (°C)	30.07length (m)	temperature (°C)	Stokes	anti-Stokes-747.200	-58.462	-0.225	-0.099
-746.185	91.612	0.249	0.283
-745.171	800.000	0.033	-0.134
-744.156	14.084	0.026	-0.021
-743.142	640.522	-0.044	-0.114
-742.127	474.356	0.161	0.368
-741.112	-102.800	-0.114	0.027
-740.098	189.722	-0.141	0.214
-739.083	244.993	-0.054	0.092
-738.069	27.927	-0.291	0.248
-737.054	-200.000	0.009	0.244
-736.039	-85.712	-0.338	-0.106
-735.025	-158.351	0.397	0.023
-734.010	-147.867	-0.076	0.006
-732.996	-101.181	-0.178	-0.044
-731.981	78.208	-0.314	-0.339
-730.966	-8.981	-0.024	-0.016
-729.952	-125.725	-0.219	0.033
-728.937	598.354	0.138	-0.345
-727.923	-200.000	-0.008	-0.267
-726.908	7.558	0.129	-0.098
-725.894	-19.364	0.125	-0.079
-724.879	-141.022	0.320	0.033
-723.864	286.890	-0.113	-0.207
-722.850	-133.383	0.082	0.010
-721.835	327.296	0.017	-0.032
-720.821	-33.241	0.208	0.116
-719.806	19.907	0.068	-0.056
-718.791	-82.396	0.370	-0.121
-717.777	-200.000	-0.090	-0.482
-716.762	800.000	0.057	-0.248
-715.748	-179.491	-0.249	0.006
-714.733	-61.318	-0.180	0.076
-713.718	-59.089	0.323	0.141
-712.704	-5.253	-0.256	-0.178
-711.689	137.289	0.009	-0.012
-710.675	48.620	0.103	0.098
-709.660	-200.000	-0.043	-0.243
-708.645	160.820	-0.047	-0.067
-707.631	227.259	-0.071	-0.116
-706.616	18.537	0.080	0.064
-705.602	-44.055	-0.371	-0.188
-704.587	-19.661	0.084	0.052
-703.572	-14.305	-0.170	0.111
-702.558	-56.410	0.293	0.131
-701.543	-200.000	0.041	-0.255
-700.529	-82.146	-0.245	0.081
-699.514	-200.000	0.016	-0.155
-698.499	-200.000	0.000	0.314
-697.485	142.674	-0.207	-0.277
-696.470	-76.861	0.229	-0.081
-695.456	-68.670	-0.151	0.059
-694.441	103.771	-0.163	-0.194
-693.426	117.687	0.123	0.153
-692.412	-40.483	-0.195	-0.102
-691.397	-200.000	-0.011	-0.256
-690.383	71.524	0.073	-0.077
-689.368	-58.923	-0.311	0.135
-688.354	-200.000	-0.007	-0.251
-687.339	352.958	-0.084	0.167
-686.324	353.858	-0.114	-0.229
-685.310	-200.000	-0.024	-0.240
-684.295	-168.254	-0.407	-0.016
-683.281	405.849	0.095	-0.203
-682.266	-200.000	-0.001	0.066
-681.251	9.080	0.252	0.192
-680.237	67.070	-0.409	-0.420
-679.222	-7.694	0.295	0.201
-678.208	-57.301	-0.257	0.114
-677.193	11.096	-0.108	0.084
-676.178	179.880	-0.141	-0.209
-675.164	15.274	-0.146	0.115
-674.149	-161.025	0.146	-0.008
-673.135	565.144	0.102	0.249
-672.120	19.389	0.338	0.274
-671.105	-179.606	0.278	0.006
-670.091	51.428	0.061	-0.059
-669.076	619.434	-0.208	-0.526
-668.062	-95.212	0.118	-0.032
-667.047	-157.471	0.091	-0.005
-666.032	-151.294	0.328	-0.025
-665.018	119.420	0.122	-0.152
-664.003	-157.267	-0.316	-0.019
-662.989	419.401	-0.128	-0.277
-661.974	88.687	-0.046	-0.052
-660.959	6.137	0.115	-0.086
-659.945	29.069	-0.120	0.102
-658.930	800.000	-0.037	-0.158
-657.916	-146.288	-0.306	0.027
-656.901	-60.234	0.146	-0.063
-655.886	-200.000	0.004	-0.202
-654.872	-139.186	0.228	-0.025
-653.857	800.000	-0.064	0.210
-652.843	245.671	0.042	0.070
-651.828	57.030	0.150	0.147
-650.814	-45.135	0.285	0.143
-649.799	-8.165	-0.168	0.114
-648.784	34.565	0.102	0.090
-647.770	-29.992	-0.390	0.224
-646.755	40.847	-0.190	-0.173
-645.741	-94.209	-0.093	-0.026
-644.726	-138.882	-0.050	-0.005
-643.711	-141.057	0.140	-0.014
-642.697	-200.000	-0.126	-0.000
-641.682	-2.869	0.202	-0.142
-640.668	-150.506	0.296	-0.023
-639.653	-60.023	-0.428	-0.184
-638.638	-180.340	-0.340	0.007
-637.624	-97.351	0.165	-0.043
-636.609	-85.311	-0.365	-0.115
-635.595	58.075	-0.184	-0.181
-634.580	-200.000	0.074	-0.341
-633.565	800.000	0.093	0.311
-632.551	800.000	0.049	0.177
-631.536	399.731	-0.100	0.210
-630.522	8.523	-0.337	0.255
-629.507	-23.751	0.241	-0.145
-628.492	800.000	0.071	-0.226
-627.478	264.067	-0.127	-0.223
-626.463	-36.027	-0.235	-0.128
-625.449	-8.223	0.218	-0.147
-624.434	-13.974	0.196	0.127
-623.419	-14.022	-0.096	-0.062
-622.405	242.705	0.275	-0.463
-621.390	132.404	0.121	-0.157
-620.376	27.276	-0.078	-0.066
-619.361	295.932	0.125	-0.230
-618.346	-200.000	0.063	-0.307
-617.332	800.000	-0.106	0.357
-616.317	80.817	-0.108	0.117
-615.303	-200.000	0.040	0.181
-614.288	8.358	-0.191	0.145
-613.273	121.309	-0.052	-0.065
-612.259	184.668	-0.080	-0.119
-611.244	800.000	0.093	-0.407
-610.230	-200.000	0.080	0.000
-609.215	170.325	-0.168	0.242
-608.201	800.000	0.070	-0.216
-607.186	253.532	0.028	-0.048
-606.171	-36.534	-0.188	0.102
-605.157	70.835	-0.053	0.055
-604.142	-200.000	-0.028	-0.155
-603.128	-200.000	-0.015	-0.087
-602.113	167.827	0.187	-0.267
-601.098	20.003	-0.202	-0.164
-600.084	-110.866	-0.157	0.033
-599.069	341.314	-0.102	0.200
-598.055	-200.000	0.001	0.111
-597.040	85.847	0.063	0.070
-596.025	-128.420	0.100	0.014
-595.011	-200.000	0.029	-0.143
-593.996	116.456	0.127	-0.157
-592.982	23.673	0.167	-0.138
-591.967	-80.709	-0.235	-0.079
-590.952	13.895	-0.354	0.277
-589.938	164.251	0.095	-0.134
-588.923	295.960	0.051	0.094
-587.909	-120.326	-0.328	0.056
-586.894	-139.601	0.220	-0.024
-585.879	83.652	0.167	-0.183
-584.865	-200.000	-0.026	-0.120
-583.850	136.720	-0.181	-0.237
-582.836	800.000	0.024	-0.078
-581.821	0.482	0.269	-0.193
-580.806	-64.185	-0.175	-0.072
-579.792	-127.179	0.407	-0.060
-578.777	-113.548	-0.333	0.065
-577.763	-200.000	-0.000	0.015
-576.748	-163.808	0.429	-0.020
-575.733	715.213	-0.031	0.082
-574.719	11.132	0.216	-0.166
-573.704	-21.832	0.180	-0.110
-572.690	319.385	0.136	-0.259
-571.675	179.107	-0.211	0.310
-570.661	-176.326	-0.227	-0.006
-569.646	-80.197	-0.249	0.084
-568.631	-17.552	-0.154	-0.097
-567.617	-77.112	0.144	-0.050
-566.602	27.518	-0.217	0.183
-565.588	-200.000	0.204	0.000
-564.573	356.587	0.063	-0.125
-563.558	-66.792	0.181	0.072
-562.544	-32.308	0.179	-0.100
-561.529	-152.753	-0.289	-0.021
-560.515	-146.829	0.168	0.015
-559.500	-200.000	-0.002	0.115
-558.485	800.000	0.064	0.182
-557.471	-4.651	-0.207	-0.143
-556.456	-56.575	-0.309	0.137
-555.442	37.988	-0.189	0.169
-554.427	800.000	-0.029	0.099
-553.412	60.249	-0.084	0.084
-552.398	64.418	-0.243	-0.246
-551.383	-200.000	0.075	0.386
-550.369	24.598	-0.039	-0.032
-549.354	122.520	-0.075	0.094
-548.339	-200.000	0.177	0.000
-547.325	-113.666	0.260	0.051
-546.310	-200.000	-0.020	0.334
-545.296	-175.552	0.235	0.006
-544.281	-11.641	-0.197	-0.130
-543.266	-5.545	0.093	-0.064
-542.252	4.737	-0.124	0.091
-541.237	288.065	-0.028	-0.051
-540.223	-109.938	-0.206	0.043
-539.208	800.000	-0.075	-0.210
-538.193	-31.582	0.253	0.143
-537.179	-72.655	-0.199	-0.074
-536.164	87.925	0.018	-0.020
-535.150	-167.157	0.150	0.006
-534.135	-80.217	0.212	-0.071
-533.121	20.500	0.056	0.045
-532.106	-164.277	-0.293	-0.014
-531.091	-140.811	-0.089	0.009
-530.077	800.000	0.020	0.059
-529.062	-106.312	-0.115	-0.026
-528.048	-62.060	0.235	0.098
-527.033	190.797	0.013	-0.020
-526.018	-200.000	-0.023	0.228
-525.004	-44.934	0.143	-0.072
-523.989	70.983	-0.223	-0.232
-522.975	81.622	0.190	0.206
-521.960	-83.061	-0.108	0.035
-520.945	-102.748	0.302	0.072
-519.931	-16.810	-0.308	-0.195
-518.916	-140.536	0.211	-0.022
-517.902	-105.043	0.075	-0.017
-516.887	62.258	-0.213	0.213
-515.872	105.024	-0.120	0.142
-514.858	800.000	-0.096	0.292
-513.843	-200.000	-0.020	-0.188
-512.829	-162.846	0.244	0.012
-511.814	7.058	-0.342	0.255
-510.799	-193.180	0.118	0.001
-509.785	-85.561	0.096	0.030
-508.770	25.403	-0.244	-0.203
-507.756	-113.333	-0.235	0.046
-506.741	171.566	-0.070	0.101
-505.726	-200.000	0.008	-0.131
-504.712	-47.132	-0.175	-0.085
-503.697	138.920	0.091	-0.120
-502.683	-80.745	0.220	-0.073
-501.668	748.702	0.073	0.198
-500.653	-21.187	-0.236	0.144
-499.639	20.425	-0.249	-0.201
-498.624	-200.000	0.011	-0.207
-497.610	21.878	-0.143	0.117
-496.595	11.745	0.206	0.158
-495.581	-94.085	-0.296	-0.081
-494.566	-14.693	-0.364	-0.234
-493.551	75.133	-0.223	0.235
-492.537	-157.962	-0.347	0.021
-491.522	187.997	-0.203	-0.303
-490.508	-17.875	0.061	-0.038
-489.493	-0.280	-0.234	-0.166
-488.478	92.267	0.139	-0.157
-487.464	363.070	-0.104	-0.209
-486.449	653.353	-0.052	-0.135
-485.435	36.075	0.063	0.055
-484.420	800.000	0.026	-0.076
-483.405	-200.000	-0.036	0.166
-482.391	291.182	0.090	-0.163
-481.376	-130.305	0.097	-0.013
-480.362	-107.234	0.322	0.071
-479.347	308.521	-0.092	-0.172
-478.332	357.181	-0.189	-0.377
-477.318	-113.379	0.281	0.055
-476.303	-1.118	0.080	-0.057
-475.289	95.614	0.155	-0.177
-474.274	-70.973	0.275	-0.103
-473.259	800.000	0.012	0.048
-472.245	18.782	-0.237	-0.190
-471.230	-200.000	-0.008	0.112
-470.216	-38.825	0.365	0.193
-469.201	-121.990	0.294	-0.048
-468.186	132.994	-0.058	-0.075
-467.172	-127.746	-0.170	0.025
-466.157	-27.146	-0.330	0.192
-465.143	800.000	0.078	0.261
-464.128	390.018	-0.033	0.068
-463.113	88.862	0.146	0.163
-462.099	-31.646	-0.054	-0.030
-461.084	345.137	0.108	-0.213
-460.070	24.464	-0.227	-0.188
-459.055	-200.000	0.014	0.169
-458.040	-151.306	-0.161	0.012
-457.026	-80.112	0.083	0.028
-456.011	-200.000	0.082	0.395
-454.997	261.179	-0.136	-0.236
-453.982	800.000	-0.039	0.144
-452.968	-86.071	-0.155	0.048
-451.953	-200.000	0.017	0.172
-450.938	-180.953	0.088	-0.002
-449.924	800.000	0.123	0.380
-448.909	143.109	-0.146	0.194
-447.895	-200.000	0.001	-0.058
-446.880	-137.969	0.300	-0.033
-445.865	35.822	-0.178	-0.156
-444.851	408.254	-0.171	-0.361
-443.836	-124.833	0.284	-0.044
-442.822	-39.149	0.064	0.034
-441.807	-77.868	0.076	0.026
-440.792	272.593	0.155	0.274
-439.778	-163.041	-0.225	0.011
-438.763	344.857	0.210	0.412
-437.749	800.000	0.104	0.377
-436.734	-200.000	0.009	0.209
-435.719	289.889	0.152	-0.276
-434.705	800.000	0.073	0.205
-433.690	572.017	-0.076	0.184
-432.676	681.795	-0.064	-0.168
-431.661	122.897	-0.126	0.158
-430.646	523.285	0.188	-0.440
-429.632	-25.241	-0.168	-0.099
-428.617	-49.760	0.205	-0.097
-427.603	-49.367	0.256	-0.122
-426.588	51.189	-0.128	0.121
-425.573	105.629	0.052	0.062
-424.559	-87.841	0.390	-0.117
-423.544	-69.985	0.134	-0.051
-422.530	81.309	0.133	-0.144
-421.515	-160.121	0.156	-0.008
-420.500	-5.882	0.163	-0.111
-419.486	-57.927	0.337	-0.147
-418.471	663.443	0.028	0.071
-417.457	-84.973	-0.230	-0.072
-416.442	239.663	0.293	-0.486
-415.428	266.036	-0.095	-0.166
-414.413	-118.031	-0.213	0.038
-413.398	-90.236	-0.328	-0.095
-412.384	765.954	-0.016	0.042
-411.369	136.500	0.070	-0.091
-410.355	289.630	-0.213	-0.386
-409.340	157.285	-0.046	0.063
-408.325	329.720	-0.038	0.074
-407.311	81.217	-0.032	0.034
-406.296	-18.810	-0.388	-0.241
-405.282	-155.513	0.256	0.016
-404.267	222.478	-0.170	-0.272
-403.252	6.594	-0.227	0.168
-402.238	489.507	-0.122	-0.277
-401.223	420.203	0.060	0.128
-400.209	-200.000	0.027	0.145
-399.194	567.322	0.058	-0.141
-398.179	-200.000	0.006	0.101
-397.165	-46.113	0.187	0.092
-396.150	-131.191	-0.291	-0.039
-395.136	-128.644	0.339	-0.048
-394.121	201.110	0.069	0.105
-393.106	-200.000	0.058	-0.256
-392.092	-200.000	0.010	0.098
-391.077	476.300	-0.181	0.408
-390.063	-97.714	-0.124	-0.032
-389.048	-199.186	-0.166	-0.001
-388.033	-200.000	0.026	0.162
-387.019	135.930	0.060	-0.078
-386.004	6.549	0.391	0.290
-384.990	-200.000	0.030	-0.274
-383.975	-88.016	0.254	-0.076
-382.960	800.000	-0.107	0.331
-381.946	-126.416	0.176	0.026
-380.931	-128.344	0.166	-0.024
-379.917	151.886	0.062	0.084
-378.902	645.679	-0.050	-0.128
-377.888	-49.004	-0.213	-0.101
-376.873	156.013	0.127	-0.175
-375.858	-159.096	-0.042	0.002
-374.844	-200.000	0.042	0.201
-373.829	-132.585	-0.173	-0.022
-372.815	-133.572	-0.189	-0.024
-371.800	19.186	0.171	0.136
-370.785	-200.000	-0.028	0.182
-369.771	-200.000	-0.006	0.179
-368.756	-114.902	0.266	0.051
-367.742	-131.686	-0.223	0.029
-366.727	-200.000	0.042	0.253
-365.712	-200.000	0.021	0.113
-364.698	79.436	-0.259	-0.276
-363.683	105.681	0.097	0.114
-362.669	-86.375	0.349	-0.107
-361.654	800.000	-0.074	-0.320
-360.639	-147.370	-0.185	0.016
-359.625	-200.000	-0.001	0.153
-358.610	800.000	0.012	0.047
-357.596	33.597	-0.198	0.171
-356.581	-38.632	-0.097	0.051
-355.566	-35.033	-0.100	-0.054
-354.552	800.000	-0.066	0.249
-353.537	582.351	-0.061	-0.149
-352.523	-200.000	-0.001	0.136
-351.508	352.623	0.095	-0.188
-350.493	800.000	0.125	0.356
-349.479	18.086	0.206	0.164
-348.464	370.131	0.082	0.165
-347.450	77.429	-0.228	-0.242
-346.435	-200.000	-0.058	-0.432
-345.420	-21.147	0.246	-0.150
-344.406	-42.709	0.139	0.070
-343.391	-200.000	-0.012	-0.227
-342.377	-16.074	-0.106	-0.067
-341.362	439.490	0.114	-0.248
-340.348	18.172	-0.223	0.177
-339.333	-200.000	0.006	-0.253
-338.318	-72.472	-0.353	0.130
-337.304	-87.118	-0.289	0.087
-336.289	135.274	-0.042	-0.054
-335.275	-183.887	-0.265	-0.004
-334.260	-112.930	-0.331	-0.065
-333.245	-102.072	0.141	0.034
-332.231	161.595	0.155	-0.215
-331.216	51.461	-0.047	-0.045
-330.202	-200.000	-0.094	-0.419
-329.187	70.937	-0.175	-0.180
-328.172	-50.009	-0.107	0.051
-327.158	-5.465	-0.456	-0.311
-326.143	-200.000	-0.006	0.205
-325.129	311.038	0.089	0.166
-324.114	-140.242	0.171	0.018
-323.099	-200.000	0.012	0.083
-322.085	-152.433	-0.133	-0.009
-321.070	-62.783	0.279	0.115
-320.056	-163.425	-0.286	-0.014
-319.041	-0.318	-0.074	-0.052
-318.026	158.143	0.119	0.164
-317.012	-200.000	0.002	0.150
-315.997	800.000	-0.056	-0.235
-314.983	800.000	-0.028	-0.081
-313.968	-87.302	0.095	-0.029
-312.953	47.396	-0.027	0.025
-311.939	-82.684	0.152	-0.049
-310.924	800.000	-0.084	0.278
-309.910	800.000	0.093	-0.348
-308.895	522.221	-0.101	-0.236
-307.880	-12.894	-0.369	-0.239
-306.866	-10.679	0.080	-0.053
-305.851	13.961	0.113	-0.087
-304.837	-125.108	0.396	-0.060
-303.822	78.487	0.175	-0.186
-302.807	298.762	-0.050	0.091
-301.793	-11.740	0.086	-0.056
-300.778	101.769	-0.195	-0.226
-299.764	778.388	0.031	-0.085
-298.749	146.728	0.138	0.184
-297.735	175.987	0.238	-0.342
-296.720	-200.000	0.000	-0.066
-295.705	-2.049	0.177	0.123
-294.691	-62.831	0.605	0.249
-293.676	724.275	0.039	-0.104
-292.662	-200.000	-0.017	-0.165
-291.647	518.730	0.082	0.191
-290.632	-27.608	0.154	0.089
-289.618	800.000	0.127	0.459
-288.603	-48.208	0.166	-0.080
-287.589	-106.954	0.459	-0.101
-286.574	342.370	0.077	0.150
-285.559	-97.591	-0.052	0.014
-284.545	89.426	0.151	0.167
-283.530	9.529	-0.190	0.143
-282.516	-34.166	0.330	0.180
-281.501	-200.000	0.055	0.308
-280.486	106.418	0.025	0.029
-279.472	638.830	0.107	0.270
-278.457	-200.000	-0.127	0.000
-277.443	239.328	-0.177	0.292
-276.428	523.690	-0.022	0.051
-275.413	40.396	-0.080	-0.071
-274.399	102.003	-0.137	0.158
-273.384	-62.010	0.137	0.057
-272.370	-79.490	0.470	0.158
-271.355	-200.000	0.013	0.297
-270.340	-25.083	0.245	-0.144
-269.326	-20.760	0.256	-0.156
-268.311	534.307	0.124	0.292
-267.297	645.311	0.143	0.362
-266.282	-31.993	0.068	-0.038
-265.267	245.999	-0.155	0.259
-264.253	7.866	0.192	0.143
-263.238	-200.000	-0.302	-0.001
-262.224	-25.573	-0.074	-0.043
-261.209	-200.000	0.020	-0.172
-260.195	374.686	-0.074	0.150
-259.180	274.643	0.118	0.208
-258.165	-200.000	0.034	0.178
-257.151	800.000	0.063	0.194
-256.136	539.999	-0.140	0.330
-255.122	321.821	0.080	-0.151
-254.107	-52.425	0.205	-0.094
-253.092	-200.000	0.020	-0.177
-252.078	-200.000	0.014	-0.195
-251.063	26.826	0.092	0.076
-250.049	-121.281	-0.474	0.078
-249.034	350.718	-0.075	0.147
-248.019	191.805	-0.106	-0.158
-247.005	-38.610	0.153	0.080
-245.990	50.785	0.144	-0.135
-244.976	-13.823	-0.070	0.045
-243.961	100.253	0.139	-0.160
-242.946	-200.000	0.028	-0.200
-241.932	-200.000	0.092	-0.402
-240.917	-77.024	0.172	0.060
-239.903	-49.167	-0.016	-0.008
-238.888	168.203	-0.192	0.271
-237.873	123.190	-0.187	0.232
-236.859	800.000	-0.065	0.195
-235.844	800.000	0.073	-0.235
-234.830	378.429	-0.111	0.225
-233.815	79.165	0.059	-0.063
-232.800	-66.257	-0.165	-0.065
-231.786	-200.000	0.047	0.296
-230.771	136.982	0.135	-0.175
-229.757	-169.106	0.173	-0.006
-228.742	-35.266	-0.340	-0.183
-227.727	239.666	-0.234	0.387
-226.713	-200.000	-0.023	0.162
-225.698	6.106	-0.103	0.076
-224.684	54.038	0.192	0.182
-223.669	-96.101	0.101	0.027
-222.655	1.824	-0.179	0.128
-221.640	-156.208	0.112	0.007
-220.625	379.754	0.153	-0.310
-219.611	-200.000	0.031	-0.180
-218.596	-19.011	-0.125	0.077
-217.582	-104.136	0.379	0.087
-216.567	-200.000	-0.070	0.323
-215.552	-114.954	0.297	0.056
-214.538	-1.884	0.163	-0.114
-213.523	-200.000	0.006	-0.283
-212.509	4.511	0.040	0.029
-211.494	-45.016	-0.460	0.227
-210.479	-65.196	0.080	0.032
-209.465	579.677	-0.091	-0.221
-208.450	-38.393	0.142	0.074
-207.436	800.000	0.073	0.272
-206.421	21.369	-0.198	0.160
-205.406	46.403	0.064	0.059
-204.392	188.205	0.119	0.176
-203.377	70.988	-0.068	0.070
-202.363	800.000	0.086	-0.249
-201.348	428.151	-0.024	0.051
-200.333	-111.249	-0.259	0.052
-199.319	21.983	-0.107	-0.086
-198.304	800.000	-0.083	-0.303
-197.290	432.616	0.104	-0.223
-196.275	-54.731	0.263	-0.117
-195.260	-98.231	0.384	0.098
-194.246	-199.822	-0.150	0.001
-193.231	99.462	0.217	-0.248
-192.217	129.646	-0.192	0.243
-191.202	-85.969	0.232	-0.071
-190.187	800.000	-0.130	-0.417
-189.173	620.748	0.067	0.166
-188.158	-67.385	0.135	0.052
-187.144	32.964	-0.102	-0.087
-186.129	64.777	0.109	-0.108
-185.114	29.144	0.114	0.096
-184.100	-31.590	0.322	-0.179
-183.085	-200.000	-0.034	0.293
-182.071	49.627	-0.165	0.154
-181.056	-86.705	-0.308	0.093
-180.042	-57.421	0.109	-0.047
-179.027	281.431	-0.046	-0.081
-178.012	380.685	0.084	-0.171
-176.998	-31.830	0.112	0.062
-175.983	-34.401	-0.251	0.136
-174.969	-63.925	-0.268	-0.108
-173.954	-48.034	0.105	0.050
-172.939	166.271	-0.138	0.194
-171.925	-123.169	0.193	-0.031
-170.910	391.596	-0.155	-0.318
-169.896	-67.235	-0.158	0.061
-168.881	57.109	0.207	-0.199
-167.866	-200.000	-0.039	-0.239
-166.852	-200.000	-0.038	0.200
-165.837	-13.357	-0.050	-0.032
-164.823	142.900	-0.095	-0.125
-163.808	-4.120	0.247	-0.169
-162.793	-13.917	0.389	0.249
-161.779	-179.468	0.123	-0.003
-160.764	-5.093	-0.276	0.187
-159.750	468.368	-0.081	0.180
-158.735	-9.158	-0.245	0.162
-157.720	556.519	-0.121	-0.289
-156.706	-114.994	0.043	-0.008
-155.691	-67.231	-0.097	0.038
-154.677	23.866	0.197	0.160
-153.662	40.367	-0.145	0.129
-152.647	-200.000	0.033	0.239
-151.633	140.939	-0.136	0.177
-150.618	-37.322	0.167	-0.088
-149.604	-200.000	-0.024	-0.147
-148.589	-200.000	-0.013	0.095
-147.574	-200.000	-0.003	0.210
-146.560	-200.000	0.023	-0.102
-145.545	-181.930	-0.356	-0.007
-144.531	-41.198	0.322	-0.164
-143.516	-123.748	-0.087	-0.014
-142.502	800.000	-0.165	-0.509
-141.487	-200.000	-0.013	0.098
-140.472	-36.317	-0.248	-0.132
-139.458	165.831	0.231	0.322
-138.443	202.985	0.099	0.151
-137.429	306.556	-0.052	0.095
-136.414	-200.000	0.042	0.279
-135.399	-200.000	0.007	0.065
-134.385	196.712	0.100	-0.151
-133.370	-145.853	0.130	0.011
-132.356	800.000	-0.009	0.033
-131.341	-115.975	0.179	-0.033
-130.326	-106.459	-0.397	-0.087
-129.312	136.948	-0.100	0.130
-128.297	-66.365	-0.329	-0.129
-127.283	-130.253	-0.435	0.058
-126.268	-167.642	-0.223	-0.009
-125.253	376.051	0.127	0.256
-124.239	-38.228	-0.161	0.084
-123.224	-200.000	0.003	-0.144
-122.210	-32.595	-0.141	-0.077
-121.195	-97.228	-0.112	-0.029
