DTS Sentinel unit serial number:	SN413079Multiplexer serial number:	ORYXHardware model number:	OX4-SRSoftware version number:	ORYX F/W v4.00 Oryx Data Collector v3.7.2.0data status	okinstallation	princeton_trtdifferential loss correction	single-endedforward channel	channel 2reverse channel	N/Adate	2019/09/12time	18:54:49forward acquisition time	15.00reverse acquisition time	0.00gamma	496.2192k internal	0.2325k external	0.2325temperature offset calibration	1.0132default loss term (dB/km)	0.3790temperature slope calibration	1.0000multiplexer offset coefficient	1.0000multiplexer slope coefficient	1.0000fibre end	0.00T internal ref (°C)	32.87T ext. ref 1 (°C)	3.00T ext. ref 2 (°C)	27.35length (m)	temperature (°C)	Stokes	anti-Stokes-747.200	-101.071	-0.417	0.103
-746.185	11.906	0.555	-0.430
-745.171	-113.550	0.582	-0.115
-744.156	10.805	-0.320	-0.246
-743.142	34.252	0.621	-0.547
-742.127	4.514	-0.798	0.591
-741.112	-55.076	0.455	-0.207
-740.098	-24.058	1.055	0.636
-739.083	19.995	-0.077	-0.063
-738.069	800.000	-0.074	-0.209
-737.054	19.851	-0.790	-0.642
-736.039	-32.288	-0.401	-0.226
-735.025	15.189	0.323	-0.255
-734.010	-23.416	0.361	-0.219
-732.996	505.855	-0.329	-0.770
-731.981	-81.043	0.479	-0.160
-730.966	-70.785	0.900	-0.343
-729.952	242.019	0.146	0.246
-728.937	-111.349	-0.706	0.145
-727.923	-10.462	-0.030	-0.020
-726.908	1.401	0.690	0.500
-725.894	-46.329	-0.340	0.169
-724.879	-77.859	-0.362	-0.126
-723.864	-37.437	0.550	0.296
-722.850	-52.005	0.261	-0.122
-721.835	5.630	-0.129	0.096
-720.821	-187.178	-0.656	-0.009
-719.806	-130.860	1.023	0.138
-718.791	-83.819	0.154	0.050
-717.777	-3.874	-0.614	-0.430
-716.762	-109.450	0.716	0.153
-715.748	-145.472	-0.998	-0.090
-714.733	-109.961	0.196	-0.041
-713.718	133.592	0.702	0.915
-712.704	-108.535	0.315	0.068
-711.689	74.908	-0.620	-0.659
-710.675	-200.000	-0.023	0.372
-709.660	-12.122	0.788	-0.520
-708.645	3.947	-1.396	1.028
-707.631	-48.921	0.883	0.427
-706.616	534.686	0.087	-0.208
-705.602	-49.788	0.315	0.151
-704.587	-159.664	-0.565	0.031
-703.572	-57.338	0.582	0.258
-702.558	245.176	-0.363	0.615
-701.543	-171.076	0.858	0.029
-700.529	-58.372	0.706	0.309
-699.514	-34.430	-0.711	-0.393
-698.499	800.000	-0.211	-0.707
-697.485	328.524	-0.090	0.175
-696.470	26.153	-0.241	0.203
-695.456	800.000	-0.061	-0.196
-694.441	-200.000	0.021	0.103
-693.426	-166.897	-0.793	0.033
-692.412	-141.060	0.715	-0.074
-691.397	-76.743	-0.674	-0.238
-690.383	68.957	-0.321	0.332
-689.368	-4.183	-1.003	0.699
-688.354	99.121	-0.401	-0.466
-687.339	11.455	0.443	-0.342
-686.324	-200.000	-0.010	0.230
-685.310	-200.000	0.074	0.351
-684.295	-52.487	0.955	0.444
-683.281	-100.175	-0.512	-0.128
-682.266	95.224	0.508	-0.583
-681.251	-5.301	-1.034	0.715
-680.237	-142.847	0.316	0.031
-679.222	192.534	0.115	-0.175
-678.208	-121.788	0.132	-0.022
-677.193	90.249	-0.931	1.048
-676.178	800.000	0.202	-0.660
-675.164	149.015	0.144	-0.196
-674.149	103.348	0.602	0.711
-673.135	-61.908	-0.268	0.113
-672.120	-44.475	-0.889	-0.448
-671.105	-153.197	-0.234	0.016
-670.091	800.000	0.275	0.806
-669.076	-200.000	0.000	0.370
-668.062	83.555	-0.380	-0.417
-667.047	-200.000	0.066	0.320
-666.032	-30.304	-0.387	-0.221
-665.018	800.000	-0.198	-0.843
-664.003	100.221	-0.434	-0.506
-662.989	42.177	0.471	0.431
-661.974	-200.000	-0.072	-0.589
-660.959	800.000	-0.133	0.521
-659.945	-200.000	-0.050	0.573
-658.930	-61.450	1.125	0.476
-657.916	80.517	0.361	0.391
-656.901	800.000	-0.166	-0.622
-655.886	800.000	-0.267	-1.013
-654.872	-200.000	0.151	0.753
-653.857	98.814	-0.440	-0.511
-652.843	675.707	0.041	0.108
-651.828	800.000	-0.086	0.352
-650.814	800.000	0.241	0.869
-649.799	-111.702	-0.189	-0.039
-648.784	-26.755	0.494	-0.290
-647.770	-123.871	0.201	-0.032
-646.755	-99.388	0.443	0.112
-645.741	117.461	0.170	0.211
-644.726	7.884	0.501	-0.377
-643.711	-49.737	0.143	-0.068
-642.697	-200.000	0.018	0.293
-641.682	524.406	-0.057	-0.135
-640.668	432.843	0.077	-0.167
-639.653	-115.300	-0.790	-0.150
-638.638	-200.000	-0.075	-0.839
-637.624	4.736	-0.919	0.679
-636.609	20.431	0.158	0.129
-635.595	513.307	0.083	0.194
-634.580	-183.660	0.951	0.016
-633.565	-76.797	0.377	-0.133
-632.551	18.854	-0.498	-0.401
-631.536	-23.715	-0.613	0.369
-630.522	633.654	0.186	0.474
-629.507	800.000	-0.130	-0.415
-628.492	-151.947	0.643	-0.047
-627.478	-54.530	0.455	0.207
-626.463	800.000	-0.246	1.061
-625.449	-135.203	-0.731	-0.088
-624.434	-176.677	0.682	-0.018
-623.419	0.666	-0.495	-0.355
-622.405	44.012	0.302	0.278
-621.390	800.000	-0.219	-0.857
-620.376	-122.394	-0.585	-0.096
-619.361	182.727	0.265	0.393
-618.346	279.756	0.179	0.321
-617.332	-200.000	-0.022	0.197
-616.317	-36.061	0.632	-0.343
-615.303	-200.000	0.055	-1.062
-614.288	103.960	-0.147	0.173
-613.273	-119.972	0.520	0.090
-612.259	-200.000	0.047	0.522
-611.244	-134.723	-0.403	-0.049
-610.230	-103.549	-0.571	0.135
-609.215	800.000	-0.094	-0.296
-608.201	-59.441	0.506	-0.218
-607.186	32.432	0.652	0.565
-606.171	-141.177	0.897	0.092
-605.157	-87.293	0.009	-0.003
-604.142	800.000	-0.280	0.857
-603.128	-89.736	-0.224	0.066
-602.113	-97.236	-0.430	-0.113
-601.098	-200.000	-0.047	-0.349
-600.084	185.663	0.719	-1.072
-599.069	409.608	0.189	-0.403
-598.055	164.469	-0.367	-0.520
-597.040	-46.652	0.529	0.260
-596.025	-114.964	0.117	0.022
-595.011	-137.969	-0.910	-0.102
-593.996	4.653	0.634	0.467
-592.982	-64.271	-0.479	0.196
-591.967	-54.480	-0.525	0.238
-590.952	13.461	-0.507	0.394
-589.938	-200.000	0.030	0.190
-588.923	91.125	-0.419	0.471
-587.909	286.498	0.708	1.282
-586.894	4.183	0.148	0.109
-585.879	-200.000	0.050	0.674
-584.865	54.944	0.150	-0.145
-583.850	-112.059	0.316	-0.064
-582.836	62.354	0.162	-0.162
-581.821	-88.810	-0.495	-0.147
-580.806	169.126	-0.315	-0.451
-579.792	-71.230	-0.553	0.208
-578.777	121.352	0.675	0.843
-577.763	-23.964	-0.497	0.298
-576.748	183.213	0.347	-0.514
-575.733	366.515	-0.225	-0.455
-574.719	151.549	0.450	-0.615
-573.704	177.171	0.529	0.772
-572.690	200.641	0.274	-0.423
-571.675	76.751	-0.810	-0.862
-570.661	-95.995	-0.510	-0.136
-569.646	800.000	0.150	0.615
-568.631	-90.904	0.407	-0.118
-567.617	-81.481	-0.229	-0.076
-566.602	-13.434	0.223	0.145
-565.588	317.515	-0.122	0.230
-564.573	123.701	0.365	0.459
-563.558	35.074	0.592	0.519
-562.544	-74.796	-0.499	0.179
-561.529	10.079	-0.655	-0.499
-560.515	647.767	0.183	0.468
-559.500	-200.000	-0.055	-0.324
-558.485	110.266	-0.397	0.477
-557.471	-200.000	0.011	0.445
-556.456	-45.812	-1.045	0.517
-555.442	727.393	0.136	0.364
-554.427	-57.114	-0.380	-0.168
-553.412	214.928	0.366	-0.581
-552.398	-68.166	0.500	-0.195
-551.383	800.000	0.251	-0.700
-550.369	-72.797	-0.305	-0.113
-549.354	620.560	0.184	-0.463
-548.339	-0.307	-0.298	-0.212
-547.325	123.931	-0.340	-0.427
-546.310	10.557	0.288	0.220
-545.296	-28.623	-0.583	-0.336
-544.281	-140.692	0.612	-0.063
-543.266	0.831	0.359	-0.257
-542.252	416.536	-0.261	0.557
-541.237	15.736	-0.043	-0.034
-540.223	-88.205	-1.069	0.320
-539.208	-26.623	0.334	-0.195
-538.193	-105.085	0.247	0.057
-537.179	-135.023	0.552	0.067
-536.164	800.000	-0.137	0.544
-535.150	61.338	0.444	-0.442
-534.135	-49.769	0.359	0.171
-533.121	65.845	-0.779	-0.790
-532.106	-200.000	-0.003	0.099
-531.091	-200.000	-0.090	0.493
-530.077	800.000	0.078	0.286
-529.062	269.507	-0.203	-0.357
-528.048	50.121	-0.228	0.215
-527.033	144.384	-0.146	0.195
-526.018	153.377	-0.068	0.093
-525.004	75.173	0.506	0.534
-523.989	-200.000	0.022	-0.426
-522.975	28.004	-0.327	0.276
-521.960	297.761	-0.130	0.238
-520.945	46.780	-0.346	0.322
-519.931	374.752	-0.370	0.753
-518.916	800.000	-0.088	-0.323
-517.902	17.129	-0.647	-0.514
-516.887	27.324	0.459	-0.386
-515.872	-200.000	0.034	0.835
-514.858	-100.064	-1.035	0.258
-513.843	106.338	0.335	0.398
-512.829	112.413	0.483	0.584
-511.814	772.790	0.086	-0.234
-510.799	44.255	0.167	0.153
-509.785	800.000	-0.058	0.167
-508.770	800.000	0.156	-0.431
-507.756	-123.928	0.343	-0.054
-506.741	463.050	0.304	-0.680
-505.726	-200.000	0.069	0.781
-504.712	329.670	-0.432	-0.830
-503.697	257.456	-0.389	0.669
-502.683	-200.000	0.008	-0.347
-501.668	65.785	-0.363	-0.367
-500.653	-171.688	-0.259	0.009
-499.639	-15.984	-0.513	-0.326
-498.624	-27.320	-0.563	0.327
-497.610	-53.906	-0.177	-0.081
-496.595	387.687	-0.252	0.521
-495.581	122.466	-0.229	-0.286
-494.566	-147.275	-0.235	0.020
-493.551	-152.097	-0.732	-0.053
-492.537	15.959	-0.526	-0.414
-491.522	154.316	0.554	-0.759
-490.508	-200.000	0.042	0.676
-489.493	-122.573	0.264	-0.043
-488.478	800.000	0.158	0.460
-487.464	373.958	-0.199	-0.405
-486.449	52.373	-0.640	0.610
-485.435	104.353	-0.230	-0.270
-484.420	-131.868	0.386	-0.050
-483.405	-38.741	0.097	0.051
-482.391	104.772	0.213	0.250
-481.376	-87.759	-0.111	-0.034
-480.362	555.763	-0.144	0.348
-479.347	-135.910	0.606	-0.071
-478.332	255.764	-0.075	-0.129
-477.318	-122.266	-0.365	-0.060
-476.303	-200.000	0.022	-0.717
-475.289	207.550	-0.261	-0.406
-474.274	-53.140	-0.102	0.047
-473.259	190.947	0.266	0.400
-472.245	-200.000	0.032	0.498
-471.230	-19.534	0.853	-0.527
-470.216	779.434	-0.157	-0.428
-469.201	-27.111	-0.428	0.249
-468.186	800.000	-0.094	-0.287
-467.172	-22.280	0.519	-0.314
-466.157	-200.000	-0.024	0.107
-465.143	286.600	-0.189	0.341
-464.128	49.717	-0.840	0.790
-463.113	-200.000	0.066	-0.355
-462.099	-200.000	0.050	-0.571
-461.084	-106.856	-0.303	0.067
-460.070	-200.000	0.069	-0.394
-459.055	55.330	-1.032	-0.996
-458.040	-200.000	-0.058	0.285
-457.026	358.618	-0.255	0.509
-456.011	-80.764	-0.161	-0.054
-454.997	-3.478	0.732	0.508
-453.982	46.727	-0.272	-0.252
-452.968	340.824	-0.069	0.134
-451.953	-160.224	-0.680	0.037
-450.938	-200.000	-0.048	0.378
-449.924	-0.443	0.289	-0.205
-448.909	-200.000	0.021	-0.554
-447.895	372.733	0.267	0.542
-446.880	-36.192	0.230	0.124
-445.865	128.721	-0.154	-0.196
-444.851	800.000	-0.125	-0.393
-443.836	46.560	0.388	0.359
-442.822	800.000	-0.075	0.210
-441.807	-200.000	0.018	0.109
-440.792	-81.600	-0.505	-0.166
-439.778	83.173	0.379	-0.411
-438.763	355.450	-0.450	-0.893
-437.749	-39.482	0.388	0.203
-436.734	-200.000	-0.113	-0.608
-435.719	800.000	0.139	-0.387
-434.705	93.825	-0.583	0.659
-433.690	800.000	0.102	0.432
-432.676	-59.987	-0.690	0.294
-431.661	800.000	-0.088	0.301
-430.646	-22.348	0.848	0.512
-429.632	-167.652	-0.352	-0.014
-428.617	157.548	-0.214	0.295
-427.603	-18.937	0.210	0.130
-426.588	-68.733	0.856	-0.330
-425.573	800.000	-0.058	0.247
-424.559	634.403	-0.392	-0.990
-423.544	-8.837	0.689	0.460
-422.530	26.779	-0.444	0.371
-421.515	676.585	0.385	0.997
-420.500	-169.779	-0.127	-0.005
-419.486	-127.693	0.467	0.067
-418.471	6.950	0.439	0.326
-417.457	54.799	-0.294	-0.282
-416.442	-111.196	0.547	0.112
-415.428	-68.428	0.105	-0.041
-414.413	94.000	-0.159	0.180
-413.398	-200.000	0.043	-0.620
-412.384	218.936	-0.111	0.177
-411.369	103.704	-0.083	-0.097
-410.355	226.591	0.138	-0.222
-409.340	270.867	-0.097	-0.169
-408.325	-200.000	-0.009	-0.421
-407.311	319.410	-0.133	-0.251
-406.296	150.018	0.308	0.417
-405.282	-200.000	-0.123	-0.763
-404.267	-61.872	-0.553	-0.230
-403.252	-38.565	-0.603	-0.317
-402.238	800.000	0.096	-0.310
-401.223	-88.976	-0.298	0.088
-400.209	19.527	0.296	0.237
-399.194	-65.733	-0.412	-0.164
-398.179	-200.000	-0.005	-0.804
-397.165	105.589	0.532	-0.626
-396.150	8.615	0.234	-0.176
-395.136	226.835	0.207	0.334
-394.121	-31.085	-0.371	0.209
-393.106	-44.262	-0.197	-0.098
-392.092	-3.163	-0.298	0.206
-391.077	-200.000	-0.083	-0.485
-390.063	800.000	-0.274	-0.886
-389.048	-200.000	-0.219	-1.057
-388.033	41.885	0.160	0.145
-387.019	-30.050	-0.432	-0.245
-386.004	800.000	0.069	0.208
-384.990	-41.382	-0.679	-0.348
-383.975	-9.813	0.381	0.252
-382.960	-139.758	1.031	-0.109
-381.946	-129.554	0.459	-0.063
-380.931	-200.000	-0.024	-0.527
-379.917	121.599	-0.049	0.061
-378.902	264.230	0.423	-0.733
-377.888	128.105	-0.356	-0.451
-376.873	684.768	-0.224	0.580
-375.858	255.939	0.452	0.772
-374.844	5.115	-0.430	0.315
-373.829	168.433	-0.424	-0.601
-372.815	265.123	-0.249	-0.432
-371.800	-88.233	0.131	-0.039
-370.785	-200.000	-0.028	-0.366
-369.771	309.973	-0.193	0.360
-368.756	-69.480	0.159	0.061
-367.742	648.748	0.201	-0.512
-366.727	-200.000	0.019	0.261
-365.712	-107.883	0.417	0.090
-364.698	-37.440	-0.391	0.207
-363.683	-81.392	-0.614	0.201
-362.669	-33.015	-0.280	-0.154
-361.654	-142.479	-0.692	0.068
-360.639	24.326	-0.149	0.122
-359.625	-200.000	-0.038	-0.254
-358.610	355.213	0.022	-0.043
-357.596	-200.000	0.056	-0.266
-356.581	-13.486	0.130	0.084
-355.566	-142.643	-0.464	-0.045
-354.552	-88.487	-0.940	-0.279
-353.537	-200.000	0.093	-0.543
-352.523	-183.704	0.710	-0.012
-351.508	134.734	0.618	0.797
-350.493	-29.787	0.693	0.392
-349.479	-103.358	0.180	-0.042
-348.464	800.000	0.089	0.286
-347.450	-200.000	0.008	0.148
-346.435	-103.487	0.768	-0.180
-345.420	9.706	0.429	0.323
-344.406	-200.000	-0.022	-0.346
-343.391	-200.000	0.053	-0.638
-342.377	-77.740	-0.341	-0.117
-341.362	-84.175	0.230	-0.073
-340.348	15.101	-0.133	0.103
-339.333	154.825	-0.337	-0.460
-338.318	43.646	0.133	0.121
-337.304	-200.000	0.116	-0.662
-336.289	-123.173	-2.141	-0.341
-335.275	-200.000	0.120	-0.622
-334.260	-93.857	1.236	-0.338
-333.245	-46.868	-0.689	-0.335
-332.231	47.050	-0.405	0.374
-331.216	-44.680	0.552	0.273
-330.202	605.559	0.074	-0.182
-329.187	143.602	-0.298	0.394
-328.172	800.000	0.193	0.739
-327.158	-200.000	-0.000	0.078
-326.143	474.043	-0.056	-0.124
-325.129	-120.281	-0.406	0.069
-324.114	1.986	0.195	0.140
-323.099	800.000	-0.215	-0.627
-322.085	-126.566	-0.803	0.118
-321.070	-124.963	-0.177	0.027
-320.056	549.477	0.158	0.376
-319.041	-53.613	0.213	0.096
-318.026	-63.559	0.111	0.045
-317.012	-73.064	-0.267	0.097
-315.997	-200.000	0.036	-0.265
-314.983	116.181	-0.098	0.119
-313.968	-200.000	-0.193	0.881
-312.953	251.309	0.346	0.584
-311.939	549.700	0.045	0.106
-310.924	-158.124	0.445	-0.026
-309.910	126.405	0.183	0.230
-308.895	-112.745	-1.054	0.208
-307.880	-73.996	0.339	0.122
-306.866	-7.323	-0.223	0.150
-305.851	35.188	0.557	0.484
-304.837	68.256	-0.206	-0.209
-303.822	-74.456	-0.282	-0.101
-302.807	22.335	-0.339	-0.274
-301.793	147.157	-0.265	0.354
-300.778	124.546	-0.324	-0.404
-299.764	800.000	0.133	-0.502
-298.749	-48.535	-0.374	0.179
-297.735	-78.062	0.113	0.039
-296.720	16.056	-0.490	0.383
-295.705	500.168	-0.554	-1.267
-294.691	56.912	0.243	0.235
-293.676	81.653	-0.663	-0.711
-292.662	307.723	-0.257	-0.475
-291.647	151.240	-0.213	-0.288
-290.632	397.264	0.202	0.419
-289.618	149.340	0.381	-0.511
-288.603	-59.954	0.594	0.251
-287.589	800.000	0.171	0.638
-286.574	-56.399	0.796	-0.350
-285.559	-73.782	-0.606	-0.219
-284.545	-102.038	0.305	0.073
-283.530	146.512	-0.620	0.826
-282.516	-86.217	0.344	0.105
-281.501	277.736	-0.075	-0.133
-280.486	-150.992	0.758	0.057
-279.472	-19.320	0.105	0.065
-278.457	682.842	0.035	-0.090
-277.443	200.853	0.279	0.425
-276.428	-200.000	-0.008	0.041
-275.413	-31.745	0.646	0.359
-274.399	-82.538	0.664	0.213
-273.384	110.436	-0.360	0.428
-272.370	30.606	0.532	-0.451
-271.355	-12.192	-0.118	0.076
-270.340	61.697	0.158	0.156
-269.326	131.910	-0.221	-0.281
-268.311	17.227	-0.243	-0.191
-267.297	253.432	0.056	-0.094
-266.282	-200.000	-0.041	-0.297
-265.267	-200.000	0.068	-0.300
-264.253	-38.992	0.384	-0.200
-263.238	264.458	-0.467	-0.805
-262.224	34.317	-0.538	0.465
-261.209	-200.000	-0.027	0.468
-260.195	-47.578	0.497	0.239
-259.180	179.254	0.265	-0.384
-258.165	-200.000	0.149	0.848
-257.151	-113.574	-0.781	0.151
-256.136	128.531	-0.032	0.040
-255.122	800.000	-0.184	0.693
-254.107	-200.000	-0.041	0.829
-253.092	-193.361	0.242	-0.002
-252.078	5.613	-0.615	-0.450
-251.063	123.364	0.157	-0.195
-250.049	-20.791	0.570	0.346
-249.034	-130.725	0.676	0.090
-248.019	-72.836	0.558	0.203
-247.005	-109.308	0.400	-0.084
-245.990	800.000	-0.180	-0.596
-244.976	-200.000	0.088	0.729
-243.961	-98.315	1.191	-0.302
-242.946	38.084	-0.705	0.620
-241.932	-95.135	1.097	-0.293
-240.917	-64.826	-0.258	0.103
-239.903	-112.584	0.501	0.099
-238.888	178.588	0.532	0.769
-237.873	-200.000	-0.051	-0.388
-236.859	468.964	0.215	-0.478
-235.844	-89.303	0.388	-0.113
-234.830	-109.071	-0.702	0.148
-233.815	227.674	0.251	0.404
-232.800	-66.079	-0.813	0.321
-231.786	-97.000	0.920	0.238
-230.771	800.000	0.160	-0.488
-229.757	-132.859	0.786	0.099
-228.742	64.049	0.826	-0.822
-227.727	5.002	0.293	0.213
-226.713	501.230	-0.078	-0.178
-225.698	-57.531	0.531	-0.230
-224.684	-56.541	0.620	0.272
-223.669	44.322	0.027	-0.024
-222.655	-86.930	-0.509	-0.154
-221.640	-84.153	0.598	0.188
-220.625	-200.000	-0.029	-0.202
-219.611	-109.535	0.209	-0.044
-218.596	-94.615	-0.494	0.133
-217.582	208.175	-0.263	-0.407
-216.567	-46.659	0.537	0.260
-215.552	70.895	0.440	-0.450
-214.538	-200.000	-0.039	-0.387
-213.523	-33.346	0.083	0.046
-212.509	-91.789	-0.706	0.198
-211.494	-200.000	0.053	-0.418
-210.479	80.403	0.510	0.542
-209.465	-110.980	-0.526	-0.107
-208.450	-200.000	-0.062	0.567
-207.436	800.000	-0.050	-0.141
-206.421	-175.105	-0.427	-0.012
-205.406	-90.945	0.543	0.154
-204.392	-59.399	0.412	0.175
-203.377	-98.819	-0.389	-0.098
-202.363	-200.000	-0.040	-0.289
-201.348	-200.000	0.051	-0.388
-200.333	116.317	0.177	-0.214
-199.319	-200.000	-0.007	-0.044
-198.304	2.416	0.256	-0.183
-197.290	-6.872	0.174	-0.117
-196.275	-39.366	-0.484	-0.251
-195.260	-200.000	0.028	0.371
-194.246	370.886	0.324	0.649
-193.231	-200.000	-0.102	-0.967
-192.217	-76.996	0.527	-0.182
-191.202	-148.603	0.349	0.028
-190.187	-200.000	-0.129	0.895
-189.173	-140.503	0.507	0.052
-188.158	466.534	-0.294	-0.651
-187.144	-200.000	0.014	-0.221
-186.129	-200.000	-0.067	-0.959
-185.114	-200.000	-0.187	0.904
-184.100	156.824	0.288	0.393
-183.085	-137.840	-0.490	0.054
-182.071	-200.000	0.119	-1.056
-181.056	1.028	-0.445	0.315
-180.042	-58.211	-0.370	0.159
-179.027	319.596	0.299	0.561
-178.012	-200.000	-0.011	-0.090
-176.998	59.572	-0.434	-0.422
-175.983	-0.415	0.454	-0.318
-174.969	103.375	-0.531	0.614
-173.954	-200.000	-0.016	-0.379
-172.939	102.438	0.709	0.818
-171.925	373.425	-0.170	-0.341
-170.910	-61.026	1.096	0.457
-169.896	-200.000	0.100	0.718
-168.881	-57.534	-0.657	-0.284
-167.866	-113.511	0.328	0.063
-166.852	-118.279	-0.791	-0.139
-165.837	-114.795	-0.307	0.058
-164.823	86.423	-0.233	0.253
-163.808	-200.000	-0.037	0.404
-162.793	321.685	-0.226	0.424
-161.779	12.529	0.386	-0.293
-160.764	338.715	0.076	-0.147
-159.750	-200.000	0.038	0.453
-158.735	524.360	-0.295	0.684
-157.720	-27.499	0.058	0.033
-156.706	800.000	0.178	-0.660
-155.691	280.834	0.264	0.466
-154.677	800.000	0.094	-0.309
-153.662	96.841	0.473	0.535
-152.647	-142.205	-0.658	-0.064
-151.633	-3.012	0.607	-0.418
-150.618	-65.106	-1.003	-0.399
-149.604	155.249	0.312	0.423
-148.589	239.422	0.268	0.439
-147.574	130.147	-0.212	-0.268
-146.560	332.148	0.314	0.597
-145.545	-129.965	0.877	-0.118
-144.531	800.000	-0.097	-0.406
-143.516	-85.484	-0.367	0.113
-142.502	65.711	-0.392	0.391
-141.487	-200.000	-0.039	0.817
-140.472	83.805	-0.417	-0.448
-139.458	-200.000	-0.019	0.549
-138.443	-200.000	0.061	1.010
-137.429	301.066	-0.181	0.329
-136.414	-176.225	0.492	-0.013
-135.399	41.851	-0.376	-0.336
-134.385	407.183	0.179	-0.372
-133.370	-129.492	-0.409	-0.056
-132.356	212.090	0.363	0.564
-131.341	322.778	-0.308	0.578
-130.326	800.000	-0.307	0.904
-129.312	-34.129	-0.380	0.206
-128.297	-200.000	0.037	-0.251
-127.283	286.748	-0.271	-0.481
-126.268	262.015	0.291	-0.497
-125.253	133.224	0.390	-0.497
-124.239	-200.000	-0.033	-0.251
-123.224	-200.000	-0.098	-0.444
-122.210	343.179	-0.422	0.813
-121.195	-69.893	-0.456	0.171
-120.180	-2.831	0.621	0.428
