DTS Sentinel unit serial number:	SN413079Multiplexer serial number:	ORYXHardware model number:	OX4-SRSoftware version number:	ORYX F/W v4.00 Oryx Data Collector v3.7.2.0data status	okinstallation	princeton_trtdifferential loss correction	single-endedforward channel	channel 2reverse channel	N/Adate	2019/09/11time	03:25:11forward acquisition time	60.00reverse acquisition time	0.00gamma	496.2192k internal	0.2329k external	0.2329temperature offset calibration	0.9939default loss term (dB/km)	0.3790temperature slope calibration	1.0000multiplexer offset coefficient	1.0000multiplexer slope coefficient	1.0000fibre end	0.00T internal ref (°C)	29.41T ext. ref 1 (°C)	-0.30T ext. ref 2 (°C)	24.20length (m)	temperature (°C)	Stokes	anti-Stokes-747.200	800.000	0.055	0.240
-746.185	-122.013	-0.248	-0.041
-745.171	-14.446	-0.217	-0.141
-744.156	-75.954	-0.289	-0.103
-743.142	-200.000	-0.008	-0.205
-742.127	181.448	-0.042	-0.062
-741.112	162.020	-0.111	0.157
-740.098	234.190	0.101	-0.168
-739.083	249.066	-0.067	-0.114
-738.069	-24.881	-0.170	0.101
-737.054	-200.000	0.005	0.215
-736.039	-200.000	0.002	0.205
-735.025	-47.734	0.321	-0.157
-734.010	-125.037	-0.080	-0.012
-732.996	-124.772	-0.296	-0.046
-731.981	-91.235	-0.244	0.070
-730.966	-127.408	-0.061	0.009
-729.952	409.483	-0.086	0.184
-728.937	-105.779	-0.435	0.099
-727.923	-3.236	0.231	-0.162
-726.908	-23.473	-0.114	-0.069
-725.894	-185.832	-0.257	0.004
-724.879	-46.571	-0.345	-0.170
-723.864	746.286	-0.160	-0.433
-722.850	-17.790	-0.303	-0.191
-721.835	253.206	-0.213	0.366
-720.821	-200.000	-0.026	0.240
-719.806	-200.000	0.053	-0.307
-718.791	419.794	-0.267	-0.574
-717.777	-53.798	-0.313	-0.144
-716.762	91.907	-0.128	-0.145
-715.748	-3.585	-0.138	-0.096
-714.733	-57.877	-0.129	0.057
-713.718	313.373	0.098	0.185
-712.704	-91.129	-0.227	0.066
-711.689	-91.905	-0.232	-0.066
-710.675	93.640	-0.143	-0.163
-709.660	-52.553	-0.225	0.105
-708.645	379.627	-0.019	0.039
-707.631	756.264	-0.090	0.244
-706.616	-108.484	-0.265	-0.057
-705.602	95.361	0.035	0.040
-704.587	-95.668	-0.215	0.058
-703.572	800.000	-0.034	0.136
-702.558	-37.257	0.168	0.090
-701.543	681.393	0.029	0.076
-700.529	82.780	0.151	-0.165
-699.514	800.000	-0.074	0.230
-698.499	-44.682	0.174	-0.088
-697.485	110.235	-0.034	0.040
-696.470	-200.000	0.018	-0.475
-695.456	-164.626	-0.101	-0.005
-694.441	232.834	-0.146	-0.242
-693.426	-161.926	0.079	0.004
-692.412	554.897	0.082	0.198
-691.397	127.364	-0.184	-0.235
-690.383	-200.000	0.018	-0.102
-689.368	-200.000	0.014	-0.144
-688.354	534.185	0.092	-0.220
-687.339	371.732	-0.159	-0.324
-686.324	-200.000	0.018	0.098
-685.310	-18.352	0.152	-0.095
-684.295	-91.189	-0.276	0.079
-683.281	-140.454	-0.088	-0.009
-682.266	-200.000	-0.004	-0.167
-681.251	-54.451	-0.312	0.142
-680.237	215.292	-0.182	-0.291
-679.222	-167.949	-0.290	0.011
-678.208	-19.014	-0.152	-0.095
-677.193	731.998	-0.081	-0.218
-676.178	167.168	-0.131	-0.186
-675.164	-81.308	0.114	0.038
-674.149	800.000	-0.079	0.221
-673.135	-26.243	0.335	0.198
-672.120	-100.632	0.190	-0.047
-671.105	60.493	-0.056	0.056
-670.091	-176.444	-0.156	-0.004
-669.076	58.753	0.232	-0.229
-668.062	-95.969	0.099	-0.026
-667.047	-26.097	-0.185	0.109
-666.032	-72.054	0.021	-0.008
-665.018	-111.969	0.173	0.035
-664.003	-200.000	-0.126	-0.583
-662.989	800.000	0.090	-0.251
-661.974	800.000	-0.047	-0.154
-660.959	-200.000	-0.028	0.128
-659.945	-200.000	-0.014	-0.119
-658.930	-32.269	0.280	-0.157
-657.916	8.410	-0.087	-0.066
-656.901	93.011	-0.097	-0.110
-655.886	28.566	-0.173	-0.147
-654.872	437.449	0.124	-0.272
-653.857	5.151	0.078	0.058
-652.843	71.874	-0.281	0.294
-651.828	329.503	-0.054	-0.105
-650.814	420.341	0.107	-0.230
-649.799	99.732	-0.182	-0.211
-648.784	217.604	0.090	0.144
-647.770	315.664	-0.035	0.066
-646.755	-49.218	0.374	0.179
-645.741	353.102	-0.082	0.163
-644.726	-104.512	-0.153	-0.036
-643.711	-200.000	0.052	-0.491
-642.697	-200.000	0.009	-0.077
-641.682	-200.000	0.225	-0.001
-640.668	30.589	-0.114	0.098
-639.653	121.488	-0.104	0.130
-638.638	33.264	-0.208	0.181
-637.624	-148.217	-0.423	-0.035
-636.609	-87.240	0.429	0.131
-635.595	800.000	-0.056	-0.160
-634.580	800.000	-0.101	0.354
-633.565	-200.000	-0.106	-0.489
-632.551	435.838	-0.037	0.081
-631.536	-200.000	-0.028	0.141
-630.522	-99.006	0.321	-0.082
-629.507	491.351	0.125	-0.286
-628.492	-196.400	0.109	0.001
-627.478	-200.000	0.002	0.053
-626.463	-87.980	-0.228	-0.069
-625.449	0.678	0.213	-0.153
-624.434	126.171	-0.026	0.033
-623.419	-157.555	0.216	0.013
-622.405	-151.744	0.193	0.014
-621.390	380.157	-0.020	-0.041
-620.376	-200.000	0.364	-0.000
-619.361	200.403	-0.044	-0.068
-618.346	-200.000	-0.044	0.238
-617.332	65.626	-0.142	-0.145
-616.317	248.424	-0.078	-0.133
-615.303	-79.708	-0.159	0.054
-614.288	202.054	0.109	0.168
-613.273	-71.469	-0.235	0.088
-612.259	204.364	-0.227	-0.353
-611.244	800.000	-0.050	-0.191
-610.230	166.042	0.114	0.161
-609.215	-26.927	-0.161	-0.094
-608.201	-42.983	-0.133	0.068
-607.186	15.600	-0.067	-0.053
-606.171	800.000	-0.030	-0.121
-605.157	-130.995	-0.185	-0.025
-604.142	-133.170	-0.146	-0.019
-603.128	51.114	-0.126	-0.120
-602.113	-2.904	0.104	0.073
-601.098	332.515	0.094	-0.182
-600.084	-74.977	-0.394	0.141
-599.069	-200.000	-0.020	0.201
-598.055	106.188	-0.135	-0.160
-597.040	-16.867	-0.164	-0.104
-596.025	-200.000	-0.006	0.170
-595.011	-200.000	-0.006	-0.339
-593.996	171.887	0.066	-0.095
-592.982	34.809	0.016	-0.014
-591.967	-86.023	0.299	0.092
-590.952	800.000	-0.057	-0.176
-589.938	-66.809	-0.160	-0.063
-588.923	-110.480	-0.267	-0.056
-587.909	348.571	-0.147	-0.291
-586.894	-200.000	-0.063	0.360
-585.879	-101.564	-0.178	-0.043
-584.865	-200.000	-0.002	0.057
-583.850	-23.971	-0.091	0.054
-582.836	73.697	-0.196	-0.205
-581.821	-7.925	-0.173	0.117
-580.806	76.923	-0.239	0.254
-579.792	106.353	0.212	-0.252
-578.777	64.874	-0.225	-0.227
-577.763	250.487	-0.080	-0.135
-576.748	-200.000	-0.009	-0.101
-575.733	-0.087	-0.090	0.064
-574.719	-200.000	-0.012	-0.054
-573.704	153.301	-0.120	-0.164
-572.690	195.175	0.156	-0.237
-571.675	150.464	-0.216	-0.294
-570.661	-200.000	0.000	0.033
-569.646	-86.192	-0.083	0.026
-568.631	88.554	0.192	0.214
-567.617	-105.663	0.104	-0.024
-566.602	-6.909	0.266	0.181
-565.588	242.522	0.092	0.154
-564.573	-24.150	-0.283	0.169
-563.558	611.155	-0.075	-0.188
-562.544	193.282	0.220	0.332
-561.529	346.096	-0.238	0.467
-560.515	-44.869	0.404	0.201
-559.500	-164.087	-0.221	-0.010
-558.485	20.319	-0.131	-0.106
-557.471	-140.440	-0.269	-0.028
-556.456	-75.877	-0.069	-0.025
-555.442	-110.496	-0.207	0.043
-554.427	70.112	0.251	-0.260
-553.412	207.436	-0.095	-0.148
-552.398	97.289	0.113	-0.130
-551.383	12.332	-0.085	-0.066
-550.369	77.016	-0.038	0.040
-549.354	70.008	0.322	0.332
-548.339	-15.028	-0.142	0.091
-547.325	-34.980	0.080	-0.044
-546.310	-32.772	0.078	0.043
-545.296	101.648	0.089	0.104
-544.281	52.416	-0.082	-0.078
-543.266	26.169	0.188	-0.157
-542.252	800.000	0.072	-0.314
-541.237	800.000	0.037	0.106
-540.223	93.780	0.093	-0.106
-539.208	-60.263	0.174	-0.074
-538.193	313.287	0.108	0.202
-537.179	-108.021	-0.150	0.032
-536.164	-200.000	-0.004	0.163
-535.150	-200.000	0.016	-0.224
-534.135	91.431	0.121	-0.135
-533.121	12.460	0.129	-0.099
-532.106	546.378	0.021	0.051
-531.091	-30.048	-0.304	-0.173
-530.077	-200.000	0.001	-0.035
-529.062	134.109	0.378	-0.490
-528.048	1.798	0.157	0.113
-527.033	-200.000	-0.050	-0.264
-526.018	-145.654	-0.265	-0.024
-525.004	283.643	-0.058	-0.104
-523.989	-60.610	-0.305	-0.129
-522.975	291.252	-0.233	-0.422
-521.960	-161.300	0.219	0.011
-520.945	-85.366	-0.492	-0.153
-519.931	-132.535	0.233	-0.030
-518.916	-167.796	0.252	-0.010
-517.902	74.605	-0.212	-0.222
-516.887	173.172	0.262	-0.376
-515.872	-103.201	-0.178	0.042
-514.858	219.532	0.266	-0.425
-513.843	305.704	-0.126	-0.234
-512.829	800.000	-0.113	-0.332
-511.814	192.019	0.125	0.188
-510.799	94.365	-0.109	-0.123
-509.785	684.835	-0.034	0.087
-508.770	0.835	-0.125	-0.089
-507.756	14.484	-0.118	0.092
-506.741	800.000	-0.042	-0.122
-505.726	198.722	0.080	-0.122
-504.712	-83.606	0.298	0.095
-503.697	68.856	0.141	-0.144
-502.683	172.991	-0.163	-0.234
-501.668	-200.000	-0.010	-0.268
-500.653	-124.081	-0.221	-0.035
-499.639	-200.000	-0.044	-0.217
-498.624	-0.870	-0.208	-0.147
-497.610	160.755	0.235	-0.328
-496.595	-71.516	0.236	0.088
-495.581	21.275	0.176	0.143
-494.566	187.735	0.133	-0.197
-493.551	1.259	-0.129	0.093
-492.537	242.367	0.020	0.034
-491.522	131.064	0.123	-0.157
-490.508	363.289	0.176	-0.352
-489.493	-169.062	0.357	-0.013
-488.478	2.203	-0.065	0.047
-487.464	14.963	-0.175	0.136
-486.449	-160.427	-0.271	-0.015
-485.435	-200.000	0.019	0.269
-484.420	-149.729	0.098	-0.008
-483.405	190.213	-0.113	0.170
-482.391	-116.768	-0.251	0.046
-481.376	-172.196	-0.146	0.005
-480.362	800.000	-0.149	0.536
-479.347	-59.493	0.611	-0.262
-478.332	-153.330	0.295	0.020
-477.318	-25.476	0.119	-0.070
-476.303	-29.754	0.189	-0.108
-475.289	-38.036	0.193	-0.102
-474.274	-160.670	0.137	-0.007
-473.259	-200.000	-0.018	-0.280
-472.245	296.896	0.137	-0.251
-471.230	-18.276	-0.088	-0.055
-470.216	-200.000	-0.048	0.216
-469.201	-33.092	0.153	0.084
-468.186	118.454	0.215	0.265
-467.172	180.710	-0.095	0.139
-466.157	773.211	0.040	-0.107
-465.143	-34.719	0.144	-0.078
-464.128	98.794	-0.302	0.347
-463.113	74.082	0.136	0.142
-462.099	209.991	0.171	0.267
-461.084	800.000	-0.095	0.299
-460.070	152.277	0.074	0.100
-459.055	800.000	0.020	0.082
-458.040	-113.861	-0.371	0.072
-457.026	-200.000	-0.006	-0.085
-456.011	-38.032	0.209	0.111
-454.997	-200.000	0.023	-0.337
-453.982	76.326	-0.222	-0.234
-452.968	800.000	-0.008	0.026
-451.953	-133.224	0.042	-0.005
-450.938	800.000	0.034	-0.115
-449.924	-61.823	0.174	0.072
-448.909	-108.239	0.177	-0.038
-447.895	-200.000	-0.007	0.065
-446.880	-119.138	-0.269	-0.047
-445.865	-17.094	-0.298	-0.187
-444.851	209.556	-0.194	0.302
-443.836	-102.026	0.166	0.040
-442.822	800.000	0.047	-0.180
-441.807	-17.456	0.305	0.191
-440.792	49.767	-0.128	-0.120
-439.778	4.278	0.021	-0.015
-438.763	800.000	-0.041	-0.170
-437.749	800.000	-0.046	-0.140
-436.734	-200.000	0.006	0.321
-435.719	-79.121	-0.065	0.022
-434.705	-81.326	0.151	-0.050
-433.690	-51.191	-0.318	0.148
-432.676	-8.021	0.250	-0.168
-431.661	-95.033	-0.216	-0.058
-430.646	36.240	-0.123	0.108
-429.632	-200.000	0.021	-0.199
-428.617	-69.923	-0.069	-0.026
-427.603	-139.201	-0.235	0.025
-426.588	-200.000	0.019	0.147
-425.573	59.573	0.185	0.181
-424.559	15.610	-0.146	0.114
-423.544	-200.000	-0.019	0.289
-422.530	-200.000	-0.053	0.351
-421.515	-200.000	-0.014	-0.116
-420.500	55.037	0.116	-0.111
-419.486	113.425	-0.231	0.279
-418.471	-24.550	-0.149	-0.088
-417.457	-26.295	0.303	-0.177
-416.442	202.697	0.040	0.061
-415.428	-84.906	-0.159	-0.050
-414.413	-77.769	-0.354	0.122
-413.398	-63.596	0.107	-0.044
-412.384	-69.584	-0.176	-0.067
-411.369	250.656	-0.287	0.485
-410.355	-200.000	-0.004	0.393
-409.340	37.199	-0.134	-0.118
-408.325	-67.309	0.153	0.060
-407.311	-200.000	-0.006	-0.132
-406.296	-109.384	0.052	0.011
-405.282	-34.822	-0.183	0.099
-404.267	-195.016	-0.344	0.003
-403.252	-200.000	0.007	-0.118
-402.238	800.000	0.076	-0.303
-401.223	-115.460	0.241	-0.045
-400.209	-200.000	-0.027	0.276
-399.194	643.990	0.010	-0.025
-398.179	800.000	-0.056	-0.183
-397.165	-200.000	0.066	-0.381
-396.150	576.256	-0.078	0.189
-395.136	267.160	-0.043	-0.074
-394.121	-74.652	0.091	-0.032
-393.106	-77.024	-0.213	-0.074
-392.092	353.866	0.121	0.240
-391.077	48.877	-0.031	0.029
-390.063	376.201	-0.041	-0.083
-389.048	-200.000	-0.026	0.250
-388.033	-200.000	-0.005	0.025
-387.019	142.824	0.128	-0.169
-386.004	-76.900	0.261	-0.091
-384.990	34.026	-0.121	0.105
-383.975	-200.000	-0.002	-0.119
-382.960	-137.659	0.021	-0.002
-381.946	800.000	0.094	0.374
-380.931	-121.538	0.269	0.044
-379.917	-53.002	0.113	0.051
-378.902	-200.000	-0.012	0.199
-377.888	29.804	-0.206	-0.174
-376.873	11.059	-0.143	0.109
-375.858	11.548	-0.187	0.142
-374.844	-90.908	-0.061	0.018
-373.829	231.395	-0.067	-0.108
-372.815	800.000	0.140	-0.450
-371.800	-200.000	0.020	-0.143
-370.785	-35.269	0.337	-0.182
-369.771	800.000	0.041	0.128
-368.756	235.617	-0.340	0.558
-367.742	102.090	0.130	0.151
-366.727	219.817	0.112	-0.178
-365.712	-38.135	0.235	-0.124
-364.698	210.353	0.086	-0.134
-363.683	-200.000	0.004	0.134
-362.669	229.588	0.048	-0.078
-361.654	72.094	0.227	-0.235
-360.639	-200.000	0.065	0.610
-359.625	83.764	-0.188	0.204
-358.610	-200.000	-0.022	0.355
-357.596	-90.251	0.085	-0.024
-356.581	145.933	0.130	0.173
-355.566	35.399	0.317	0.276
-354.552	-61.957	0.214	0.089
-353.537	-174.891	0.151	-0.004
-352.523	-200.000	0.081	-0.390
-351.508	-154.410	0.226	-0.015
-350.493	-83.004	-0.174	-0.056
-349.479	28.371	0.170	0.142
-348.464	82.248	0.053	-0.057
-347.450	-200.000	0.054	0.313
-346.435	-200.000	-0.028	-0.132
-345.420	33.459	0.202	-0.174
-344.406	800.000	-0.053	0.150
-343.391	800.000	0.070	-0.207
-342.377	18.730	-0.119	-0.094
-341.362	600.917	0.077	-0.191
-340.348	-76.610	0.123	-0.043
-339.333	-103.857	0.080	0.018
-338.318	-200.000	0.009	-0.280
-337.304	800.000	0.056	-0.236
-336.289	481.702	-0.045	0.102
-335.275	-13.981	0.074	-0.048
-334.260	-200.000	-0.032	0.428
-333.245	-24.733	0.233	-0.138
-332.231	-200.000	0.006	0.027
-331.216	323.892	-0.175	-0.332
-330.202	-39.330	-0.214	-0.111
-329.187	-126.660	-0.204	-0.030
-328.172	122.872	-0.074	0.092
-327.158	-0.903	-0.187	-0.131
-326.143	-182.702	-0.148	-0.003
-325.129	164.604	-0.306	-0.427
-324.114	120.343	0.081	-0.099
-323.099	-138.695	0.052	-0.006
-322.085	627.641	0.097	0.243
-321.070	-200.000	-0.006	0.389
-320.056	506.443	-0.141	0.325
-319.041	-73.895	0.069	-0.025
-318.026	90.637	0.244	0.271
-317.012	332.385	-0.072	0.137
-315.997	63.414	0.041	0.040
-314.983	-28.093	0.082	0.047
-313.968	40.353	0.075	-0.067
-312.953	-55.188	-0.174	-0.077
-311.939	768.007	-0.061	0.165
-310.924	-44.221	0.103	0.051
-309.910	180.398	-0.076	0.110
-308.895	800.000	-0.018	-0.055
-307.880	-66.160	-0.089	0.035
-306.866	-88.203	0.216	-0.064
-305.851	-48.808	0.148	-0.070
-304.837	330.533	-0.071	-0.135
-303.822	232.006	0.106	0.172
-302.807	-79.492	0.289	0.097
-301.793	118.464	-0.052	-0.064
-300.778	-200.000	0.058	0.394
-299.764	-114.066	0.082	-0.016
-298.749	800.000	-0.023	0.071
-297.735	-200.000	0.015	0.152
-296.720	374.500	-0.150	0.303
-295.705	-200.000	0.008	0.258
-294.691	800.000	-0.060	0.189
-293.676	68.617	0.197	-0.200
-292.662	212.006	-0.309	-0.481
-291.647	11.486	0.160	-0.121
-290.632	-98.985	-0.091	-0.023
-289.618	-32.896	0.123	-0.067
-288.603	-200.000	-0.053	0.377
-287.589	-156.445	0.125	-0.008
-286.574	55.787	-0.248	-0.238
-285.559	-200.000	0.003	-0.267
-284.545	123.703	0.105	0.130
-283.530	18.074	-0.164	0.129
-282.516	-93.954	0.164	-0.045
-281.501	-149.685	0.295	-0.023
-280.486	-200.000	-0.047	0.245
-279.472	-32.042	-0.086	0.048
-278.457	337.062	0.084	0.161
-277.443	107.232	-0.042	0.050
-276.428	435.194	-0.030	-0.064
-275.413	1.326	0.205	0.146
-274.399	-200.000	-0.002	0.097
-273.384	-90.384	0.154	-0.044
-272.370	-142.246	0.174	0.017
-271.355	-200.000	0.003	0.019
-270.340	-148.187	0.140	-0.011
-269.326	118.247	0.391	0.476
-268.311	-200.000	-0.020	-0.170
-267.297	-200.000	-0.005	0.311
-266.282	280.955	-0.080	-0.141
-265.267	185.415	0.160	-0.235
-264.253	-156.811	-0.104	0.006
-263.238	-161.045	0.375	-0.019
-262.224	-119.555	-0.317	0.054
-261.209	-88.227	-0.408	-0.121
-260.195	-48.495	0.327	0.156
-259.180	351.638	-0.018	-0.036
-258.165	107.335	-0.144	0.169
-257.151	-101.457	0.211	0.051
-256.136	401.780	0.044	0.092
-255.122	-8.264	0.138	0.092
-254.107	800.000	-0.027	0.117
-253.092	800.000	0.145	0.565
-252.078	-101.286	0.298	0.072
-251.063	-10.416	0.199	-0.130
-250.049	-57.727	-0.057	-0.025
-249.034	110.764	0.143	0.170
-248.019	303.253	-0.104	-0.191
-247.005	800.000	-0.049	-0.203
-245.990	-177.751	0.102	-0.002
-244.976	-12.400	-0.182	-0.117
-243.961	535.466	0.130	0.306
-242.946	-59.265	-0.217	0.092
-241.932	156.462	-0.182	0.248
-240.917	-200.000	0.001	0.169
-239.903	-176.250	-0.295	-0.008
-238.888	-15.101	-0.101	0.064
-237.873	-85.063	-0.098	-0.030
-236.859	41.290	-0.123	0.110
-235.844	389.544	-0.138	0.282
-234.830	-21.873	0.169	-0.102
-233.815	267.505	-0.090	0.155
-232.800	-200.000	0.016	0.120
-231.786	28.492	0.148	0.123
-230.771	-200.000	-0.016	0.279
-229.757	544.714	-0.069	-0.164
-228.742	-200.000	-0.048	-0.271
-227.727	-169.999	-0.330	-0.012
-226.713	-53.662	0.347	0.156
-225.698	249.739	0.026	-0.044
-224.684	-91.264	-0.166	0.047
-223.669	62.322	-0.083	0.082
-222.655	-127.583	0.356	-0.051
-221.640	259.841	-0.084	0.144
-220.625	-115.099	-0.288	-0.054
-219.611	-88.616	0.122	-0.036
-218.596	14.687	0.205	-0.158
-217.582	-136.285	-0.107	-0.012
-216.567	-43.867	0.269	-0.133
-215.552	-112.846	0.039	0.008
-214.538	800.000	0.049	-0.201
-213.523	70.703	-0.187	-0.191
-212.509	-200.000	-0.023	-0.282
-211.494	-200.000	0.014	-0.125
-210.479	217.114	0.115	0.180
-209.465	800.000	0.092	0.325
-208.450	35.754	-0.215	0.187
-207.436	-125.548	-0.242	-0.036
-206.421	-200.000	0.022	0.188
-205.406	-100.313	-0.348	0.085
-204.392	-20.801	-0.585	-0.354
-203.377	-96.837	-0.159	-0.041
-202.363	-67.906	0.184	-0.071
-201.348	800.000	0.051	-0.145
-200.333	-155.406	-0.079	0.005
-199.319	-31.448	0.265	-0.147
-198.304	-99.114	-0.166	0.041
-197.290	-109.010	0.398	0.084
-196.275	-124.580	-0.219	-0.034
-195.260	-200.000	0.006	-0.062
-194.246	-37.436	0.083	0.044
-193.231	-47.269	0.163	0.078
-192.217	800.000	-0.133	-0.572
-191.202	-200.000	-0.037	0.163
-190.187	36.620	-0.231	0.201
-189.173	-22.319	-0.247	-0.147
-188.158	-200.000	-0.038	0.287
-187.144	800.000	-0.043	0.141
-186.129	-60.909	0.217	0.090
-185.114	13.731	-0.169	-0.130
-184.100	-43.108	0.315	0.157
-183.085	223.670	-0.045	-0.072
-182.071	-93.890	-0.298	-0.081
-181.056	-119.329	0.191	-0.033
-180.042	25.501	0.183	-0.150
-179.027	800.000	0.032	0.093
-178.012	79.918	-0.098	-0.104
-176.998	-61.452	0.298	-0.123
-175.983	800.000	-0.057	-0.218
-174.969	-200.000	0.040	0.190
-173.954	181.397	-0.139	-0.202
-172.939	-200.000	0.042	0.218
-171.925	-200.000	-0.000	-0.024
-170.910	352.012	0.077	0.150
-169.896	547.989	-0.074	-0.175
-168.881	-51.731	0.222	-0.102
-167.866	-200.000	0.003	-0.199
-166.852	-97.326	-0.229	0.059
-165.837	274.482	0.071	0.124
-164.823	800.000	0.122	0.450
-163.808	-200.000	-0.007	0.053
-162.793	-153.462	-0.121	0.008
-161.779	800.000	-0.036	-0.109
-160.764	-29.322	0.102	0.057
-159.750	-73.001	-0.368	-0.133
-158.735	214.565	-0.096	-0.150
-157.720	-47.150	0.037	-0.018
-156.706	-114.796	0.272	-0.051
-155.691	-0.124	-0.162	-0.113
-154.677	31.804	0.031	0.027
-153.662	550.883	0.136	0.321
-152.647	86.634	0.024	0.026
-151.633	217.815	0.132	0.207
-150.618	30.024	-0.094	0.079
-149.604	16.206	0.206	0.160
-148.589	542.757	0.157	0.368
-147.574	-108.313	0.024	-0.005
-146.560	-200.000	0.076	-0.417
-145.545	702.841	0.033	-0.086
-144.531	-40.463	0.157	0.080
-143.516	-200.000	-0.019	-0.105
-142.502	106.711	0.077	-0.090
-141.487	-200.000	0.000	-0.075
-140.472	-196.956	0.402	-0.003
-139.458	101.809	0.205	-0.236
-138.443	370.496	0.084	-0.168
-137.429	645.310	-0.092	-0.230
-136.414	-107.795	-0.181	-0.039
-135.399	560.015	0.070	0.165
-134.385	-15.787	-0.113	-0.071
-133.370	-5.617	-0.134	-0.090
-132.356	55.317	0.057	-0.054
-131.341	216.869	0.241	-0.377
-130.326	339.914	-0.089	0.170
-129.312	37.233	0.264	0.230
-128.297	-17.384	-0.234	-0.145
-127.283	-65.456	-0.293	0.116
-126.268	800.000	0.006	0.016
-125.253	212.149	-0.041	-0.064
-124.239	-89.163	-0.191	-0.055
-123.224	98.189	0.106	0.120
