DTS Sentinel unit serial number:	SN413079Multiplexer serial number:	ORYXHardware model number:	OX4-SRSoftware version number:	ORYX F/W v4.00 Oryx Data Collector v3.7.2.0data status	okinstallation	princeton_trtdifferential loss correction	single-endedforward channel	channel 2reverse channel	N/Adate	2019/09/16time	06:39:35forward acquisition time	60.00reverse acquisition time	0.00gamma	496.2192k internal	0.2334k external	0.2334temperature offset calibration	0.9976default loss term (dB/km)	0.3790temperature slope calibration	1.0000multiplexer offset coefficient	1.0000multiplexer slope coefficient	1.0000fibre end	0.00T internal ref (°C)	27.37T ext. ref 1 (°C)	11.40T ext. ref 2 (°C)	21.96length (m)	temperature (°C)	Stokes	anti-Stokes-747.200	11.214	0.457	0.351
-746.185	-200.000	0.031	-0.161
-745.171	-66.758	-0.128	0.051
-744.156	-137.364	-0.144	-0.016
-743.142	279.574	-0.119	0.213
-742.127	-200.000	0.017	0.108
-741.112	462.261	0.106	0.237
-740.098	148.252	0.160	0.217
-739.083	-69.831	-0.267	-0.103
-738.069	-200.000	0.009	0.198
-737.054	-11.529	-0.315	0.208
-736.039	-113.635	-0.152	0.030
-735.025	-85.942	0.360	0.112
-734.010	422.703	-0.234	-0.504
-732.996	138.652	-0.277	-0.365
-731.981	-200.000	-0.044	-0.232
-730.966	142.719	-0.170	-0.227
-729.952	698.672	-0.116	-0.305
-728.937	-66.659	-0.216	0.086
-727.923	-59.796	-0.208	-0.089
-726.908	548.732	0.041	0.098
-725.894	-29.431	-0.278	-0.160
-724.879	99.883	0.153	-0.177
-723.864	-130.650	-0.157	0.021
-722.850	648.719	-0.086	-0.222
-721.835	499.572	0.106	-0.245
-720.821	28.724	-0.236	-0.200
-719.806	-9.338	0.070	0.047
-718.791	-10.373	-0.225	0.150
-717.777	-19.571	-0.242	-0.151
-716.762	531.303	0.092	0.217
-715.748	-113.455	0.138	0.027
-714.733	6.186	-0.182	0.136
-713.718	-200.000	-0.038	-0.256
-712.704	-146.421	0.096	0.008
-711.689	280.537	-0.057	-0.102
-710.675	-29.410	-0.226	-0.130
-709.660	-116.955	0.379	0.069
-708.645	800.000	-0.044	-0.176
-707.631	78.390	0.103	-0.111
-706.616	-112.375	-0.298	0.060
-705.602	-200.000	0.007	-0.194
-704.587	102.789	0.133	-0.156
-703.572	796.893	0.115	0.319
-702.558	-61.498	-0.109	0.046
-701.543	-200.000	-0.022	-0.256
-700.529	-38.800	0.185	0.098
-699.514	-45.704	0.031	0.015
-698.499	-200.000	0.069	-0.339
-697.485	-144.952	0.217	0.020
-696.470	124.218	-0.077	-0.098
-695.456	-98.924	0.076	-0.019
-694.441	-174.697	-0.519	0.015
-693.426	3.657	0.129	0.094
-692.412	637.137	0.084	-0.215
-691.397	-200.000	-0.031	0.143
-690.383	170.603	0.122	-0.175
-689.368	158.164	-0.170	0.236
-688.354	-146.386	0.116	-0.010
-687.339	-19.007	0.079	-0.049
-686.324	4.558	-0.125	0.092
-685.310	161.368	0.213	-0.298
-684.295	-99.960	-0.442	-0.111
-683.281	57.236	-0.151	0.148
-682.266	-27.289	0.046	-0.027
-681.251	-200.000	0.045	-0.202
-680.237	800.000	-0.072	-0.215
-679.222	40.937	0.109	0.098
-678.208	81.940	-0.287	-0.312
-677.193	35.134	0.338	-0.297
-676.178	-55.833	-0.181	-0.081
-675.164	-91.522	0.087	-0.025
-674.149	4.676	-0.228	-0.168
-673.135	-200.000	-0.007	-0.236
-672.120	314.570	-0.181	0.343
-671.105	-164.856	-0.215	0.010
-670.091	-200.000	0.026	-0.147
-669.076	-164.507	-0.400	-0.018
-668.062	21.335	-0.331	-0.269
-667.047	110.857	0.123	-0.149
-666.032	-10.747	0.137	-0.091
-665.018	-50.447	0.080	-0.038
-664.003	-200.000	-0.008	0.054
-662.989	329.265	0.060	0.115
-661.974	330.906	0.025	-0.047
-660.959	-118.769	0.455	0.080
-659.945	-119.672	0.110	-0.019
-658.930	57.206	-0.295	-0.289
-657.916	33.347	-0.084	0.073
-656.901	138.997	0.212	-0.278
-655.886	-92.120	0.107	-0.030
-654.872	279.187	-0.095	0.170
-653.857	102.176	-0.207	-0.242
-652.843	184.286	0.038	-0.057
-651.828	-59.648	0.130	-0.056
-650.814	-165.555	-0.222	0.010
-649.799	-28.636	0.085	-0.049
-648.784	-51.813	-0.264	-0.123
-647.770	493.438	0.216	-0.495
-646.755	-136.710	-0.493	-0.057
-645.741	651.017	0.072	0.185
-644.726	326.904	0.138	-0.265
-643.711	-200.000	-0.046	0.319
-642.697	800.000	0.101	-0.305
-641.682	195.599	0.170	-0.258
-640.668	44.896	0.368	0.339
-639.653	14.225	-0.352	-0.274
-638.638	-40.315	0.148	-0.077
-637.624	-21.539	0.165	0.101
-636.609	-59.509	-0.200	0.086
-635.595	-27.665	-0.192	-0.112
-634.580	-200.000	-0.127	-0.001
-633.565	53.089	0.067	0.064
-632.551	-165.612	0.444	-0.019
-631.536	-34.050	-0.165	-0.091
-630.522	-116.622	0.109	0.020
-629.507	25.713	0.160	0.134
-628.492	117.828	-0.133	-0.164
-627.478	-167.380	0.290	-0.012
-626.463	367.009	0.034	0.069
-625.449	-28.180	-0.150	-0.086
-624.434	-164.409	-0.228	0.010
-623.419	-200.000	-0.020	0.153
-622.405	-52.618	0.012	-0.005
-621.390	-160.504	0.071	-0.004
-620.376	-200.000	-0.037	-0.172
-619.361	217.821	0.109	-0.174
-618.346	693.345	-0.056	0.146
-617.332	148.613	-0.060	0.081
-616.317	-200.000	-0.008	0.184
-615.303	24.460	0.135	0.111
-614.288	147.669	0.075	-0.101
-613.273	-200.000	-0.005	-0.526
-612.259	-62.800	0.126	-0.052
-611.244	-35.274	-0.104	-0.056
-610.230	800.000	-0.064	0.206
-609.215	-143.626	-0.248	0.024
-608.201	68.473	-0.131	0.135
-607.186	202.652	-0.176	0.272
-606.171	-115.013	0.335	0.064
-605.157	53.896	-0.116	0.112
-604.142	-119.520	-0.147	-0.026
-603.128	-119.594	-0.324	-0.056
-602.113	800.000	-0.059	-0.221
-601.098	-184.841	-0.472	-0.007
-600.084	-88.503	-0.153	-0.046
-599.069	340.217	0.034	-0.066
-598.055	-73.861	0.341	0.124
-597.040	126.075	0.178	-0.224
-596.025	-126.572	-0.348	0.052
-595.011	-88.287	-0.205	-0.061
-593.996	-200.000	0.031	-0.210
-592.982	130.121	-0.080	-0.103
-591.967	-120.124	0.252	0.043
-590.952	353.396	0.073	-0.144
-589.938	105.595	-0.075	0.088
-588.923	27.076	0.261	0.218
-587.909	532.467	-0.046	-0.110
-586.894	79.062	0.170	-0.182
-585.879	800.000	0.129	-0.498
-584.865	673.381	-0.114	0.296
-583.850	-93.586	-0.222	0.061
-582.836	94.120	-0.081	-0.092
-581.821	34.900	-0.153	0.134
-580.806	-74.656	0.178	0.064
-579.792	-11.331	0.130	-0.085
-578.777	103.754	0.196	0.230
-577.763	-33.767	0.095	0.052
-576.748	800.000	0.041	0.132
-575.733	-16.188	0.217	0.138
-574.719	162.009	-0.187	0.261
-573.704	450.702	0.092	-0.202
-572.690	-107.515	-0.165	0.036
-571.675	251.087	-0.236	0.401
-570.661	-200.000	0.023	-0.251
-569.646	-76.364	-0.150	-0.053
-568.631	-200.000	-0.038	0.189
-567.617	-154.379	-0.386	0.026
-566.602	-200.000	0.048	-0.225
-565.588	-200.000	0.021	-0.204
-564.573	103.520	-0.207	-0.243
-563.558	-200.000	-0.016	0.411
-562.544	141.111	0.060	-0.080
-561.529	-200.000	-0.027	-0.442
-560.515	-200.000	0.001	-0.009
-559.500	185.081	-0.018	-0.026
-558.485	283.875	0.072	-0.128
-557.471	17.935	0.219	-0.174
-556.456	373.494	0.068	0.138
-555.442	-58.778	0.284	-0.123
-554.427	800.000	0.051	-0.195
-553.412	-179.758	0.194	0.004
-552.398	97.110	-0.356	-0.408
-551.383	194.855	-0.056	-0.085
-550.369	-129.247	-0.240	-0.033
-549.354	-126.884	-0.097	0.014
-548.339	14.852	-0.302	0.236
-547.325	75.417	0.202	0.212
-546.310	-14.073	0.106	-0.068
-545.296	198.553	0.070	0.107
-544.281	76.399	0.147	-0.155
-543.266	-14.980	0.179	-0.114
-542.252	-200.000	0.039	0.304
-541.237	21.488	0.080	0.065
-540.223	793.960	0.103	0.283
-539.208	50.627	0.297	-0.280
-538.193	-83.456	0.043	0.014
-537.179	81.054	0.150	-0.162
-536.164	800.000	0.084	0.353
-535.150	-200.000	0.012	0.173
-534.135	-200.000	0.040	0.257
-533.121	7.057	0.088	-0.065
-532.106	-52.839	0.194	-0.089
-531.091	-14.557	-0.251	-0.161
-530.077	70.720	0.226	0.233
-529.062	-73.078	-0.111	-0.041
-528.048	-22.983	0.118	0.071
-527.033	-46.732	-0.082	-0.040
-526.018	-37.884	0.268	-0.142
-525.004	-78.867	0.172	0.059
-523.989	99.427	-0.168	0.194
-522.975	347.191	-0.051	0.100
-521.960	51.186	0.182	0.172
-520.945	747.596	0.081	0.218
-519.931	307.714	-0.118	-0.220
-518.916	15.839	-0.168	0.131
-517.902	-38.646	-0.216	-0.113
-516.887	404.049	0.054	0.113
-515.872	123.585	0.112	0.140
-514.858	-121.489	-0.232	0.038
-513.843	-200.000	-0.003	-0.125
-512.829	159.408	0.196	-0.272
-511.814	800.000	-0.109	-0.314
-510.799	-2.427	-0.219	0.153
-509.785	12.618	0.242	0.186
-508.770	5.258	-0.212	-0.155
-507.756	94.828	0.140	-0.158
-506.741	452.912	-0.122	0.269
-505.726	37.868	-0.236	0.209
-504.712	550.912	-0.076	-0.182
-503.697	-169.121	-0.026	0.001
-502.683	-105.377	0.179	-0.041
-501.668	301.000	0.136	-0.250
-500.653	-200.000	-0.005	0.067
-499.639	-90.106	-0.188	0.055
-498.624	11.490	-0.126	0.096
-497.610	-3.702	0.208	0.144
-496.595	-104.746	-0.164	0.038
-495.581	-27.114	0.118	0.068
-494.566	-200.000	-0.027	-0.267
-493.551	-119.372	-0.122	0.021
-492.537	-108.542	0.165	-0.035
-491.522	-200.000	-0.018	0.113
-490.508	-200.000	-0.003	-0.040
-489.493	-138.085	0.213	0.024
-488.478	220.709	0.104	0.166
-487.464	652.984	0.122	-0.312
-486.449	-146.725	-0.373	0.032
-485.435	-62.734	0.271	0.112
-484.420	-200.000	-0.038	0.256
-483.405	-173.399	-0.347	-0.010
-482.391	149.223	0.160	0.216
-481.376	-58.295	0.120	-0.052
-480.362	-68.269	0.223	0.086
-479.347	719.445	-0.046	0.121
-478.332	800.000	-0.143	0.422
-477.318	219.708	0.236	0.376
-476.303	602.170	0.068	-0.167
-475.289	190.045	0.138	0.206
-474.274	-200.000	0.034	0.420
-473.259	-200.000	0.003	0.013
-472.245	513.042	-0.024	0.056
-471.230	-135.538	0.096	-0.011
-470.216	-130.633	0.528	0.071
-469.201	32.827	0.131	-0.113
-468.186	26.383	-0.136	-0.113
-467.172	121.449	-0.169	0.209
-466.157	-200.000	-0.045	-0.217
-465.143	-200.000	0.079	-0.413
-464.128	28.457	-0.295	0.248
-463.113	-200.000	-0.003	0.074
-462.099	34.776	-0.252	0.219
-461.084	0.105	-0.040	-0.028
-460.070	-109.111	-0.312	-0.066
-459.055	526.197	0.220	-0.514
-458.040	30.564	0.073	-0.062
-457.026	137.697	0.072	-0.094
-456.011	-200.000	-0.000	0.014
-454.997	-47.173	0.308	0.149
-453.982	48.146	0.019	-0.018
-452.968	800.000	0.050	-0.140
-451.953	-200.000	0.023	-0.102
-450.938	-200.000	0.083	0.570
-449.924	724.190	-0.141	0.374
-448.909	-51.489	-0.108	-0.050
-447.895	-200.000	-0.010	0.230
-446.880	-200.000	0.012	0.177
-445.865	-80.122	0.239	-0.080
-444.851	44.145	-0.147	-0.134
-443.836	-200.000	-0.009	-0.258
-442.822	-143.289	-0.214	0.020
-441.807	-60.315	0.204	0.086
-440.792	-144.057	0.162	-0.015
-439.778	-200.000	-0.018	-0.425
-438.763	-37.936	0.165	-0.087
-437.749	174.181	-0.241	0.346
-436.734	6.073	-0.195	0.143
-435.719	68.881	0.250	0.255
-434.705	800.000	0.015	-0.058
-433.690	-86.633	-0.081	0.025
-432.676	800.000	0.076	0.325
-431.661	248.020	0.038	-0.064
-430.646	426.754	0.033	0.071
-429.632	-23.477	0.259	-0.154
-428.617	474.121	0.116	-0.261
-427.603	21.638	0.147	0.118
-426.588	73.554	-0.120	0.125
-425.573	564.380	-0.048	-0.116
-424.559	-22.560	-0.103	-0.062
-423.544	291.164	-0.026	0.047
-422.530	58.419	0.107	0.104
-421.515	170.301	-0.008	-0.011
-420.500	-119.683	-0.050	-0.009
-419.486	623.442	0.059	0.147
-418.471	-7.122	-0.072	-0.048
-417.457	-29.452	-0.025	0.014
-416.442	-200.000	0.009	0.158
-415.428	694.386	-0.008	0.020
-414.413	-76.170	-0.195	-0.068
-413.398	-144.674	0.012	0.001
-412.384	-200.000	-0.020	-0.331
-411.369	-200.000	-0.311	-0.000
-410.355	-8.812	0.139	-0.093
-409.340	84.307	0.176	-0.191
-408.325	235.422	0.085	0.139
-407.311	800.000	-0.075	-0.258
-406.296	800.000	0.074	-0.270
-405.282	367.996	-0.059	-0.117
-404.267	233.104	0.097	0.159
-403.252	36.277	-0.080	0.070
-402.238	800.000	-0.166	0.602
-401.223	-1.350	-0.109	-0.076
-400.209	390.126	0.102	0.209
-399.194	-106.014	0.411	0.092
-398.179	35.219	0.077	-0.067
-397.165	-200.000	0.023	0.199
-396.150	-200.000	0.016	0.150
-395.136	800.000	0.020	0.086
-394.121	98.814	0.106	-0.121
-393.106	34.690	-0.100	-0.087
-392.092	209.248	0.084	-0.130
-391.077	134.882	-0.267	0.344
-390.063	58.874	0.301	0.293
-389.048	-145.294	-0.167	-0.015
-388.033	150.035	-0.102	-0.137
-387.019	-67.163	0.140	-0.055
-386.004	-78.415	-0.266	-0.090
-384.990	158.186	0.193	0.266
-383.975	613.424	-0.099	0.245
-382.960	503.867	0.079	-0.182
-381.946	-42.168	0.175	0.088
-380.931	102.348	-0.133	-0.154
-379.917	-78.862	-0.185	0.063
-378.902	800.000	0.073	0.217
-377.888	236.800	-0.113	0.186
-376.873	-75.878	0.349	0.122
-375.858	-53.781	0.101	-0.046
-374.844	8.158	0.179	-0.133
-373.829	76.753	0.215	-0.226
-372.815	46.645	-0.020	0.019
-371.800	88.286	0.195	-0.215
-370.785	-200.000	-0.012	-0.240
-369.771	130.877	0.237	-0.302
-368.756	2.938	0.080	0.057
-367.742	-200.000	0.002	0.240
-366.727	-200.000	-0.045	0.246
-365.712	800.000	0.057	-0.228
-364.698	282.987	-0.032	-0.056
-363.683	-106.281	0.157	-0.035
-362.669	64.670	-0.213	0.213
-361.654	451.352	-0.219	0.478
-360.639	71.408	0.238	0.245
-359.625	92.660	0.047	-0.052
-358.610	-200.000	-0.005	-0.274
-357.596	233.581	0.178	0.290
-356.581	716.447	-0.080	-0.211
-355.566	-156.294	0.166	-0.010
-354.552	-58.374	-0.302	-0.130
-353.537	103.636	-0.135	0.157
-352.523	27.791	-0.154	-0.128
-351.508	800.000	0.086	0.263
-350.493	20.992	-0.165	0.133
-349.479	31.908	-0.064	-0.055
-348.464	-11.026	0.219	0.143
-347.450	-73.205	-0.141	0.051
-346.435	40.617	0.231	0.206
-345.420	-120.826	0.234	0.039
-344.406	77.321	0.151	0.159
-343.391	744.522	0.083	-0.220
-342.377	-189.086	0.425	-0.005
-341.362	800.000	0.027	-0.080
-340.348	-200.000	0.038	0.260
-339.333	227.344	0.161	0.259
-338.318	30.348	0.170	-0.144
-337.304	-200.000	-0.068	0.495
-336.289	530.519	-0.017	0.040
-335.275	-200.000	0.002	-0.051
-334.260	60.896	0.078	-0.077
-333.245	-200.000	-0.020	0.096
-332.231	27.608	0.069	-0.057
-331.216	-145.082	-0.382	-0.034
-330.202	-42.564	0.027	0.014
-329.187	-23.215	-0.225	0.134
-328.172	-72.124	0.136	-0.050
-327.158	-200.000	0.006	-0.156
-326.143	14.507	0.114	0.088
-325.129	23.075	0.083	0.067
-324.114	-132.075	0.158	-0.020
-323.099	336.732	0.114	-0.219
-322.085	-200.000	0.032	0.421
-321.070	-128.891	0.360	-0.050
-320.056	-37.029	-0.248	-0.131
-319.041	508.640	0.041	-0.094
-318.026	-91.236	0.337	0.095
-317.012	-28.501	0.069	-0.039
-315.997	-104.616	-0.262	-0.060
-314.983	-200.000	0.007	-0.138
-313.968	657.822	0.054	0.138
-312.953	-200.000	-0.026	-0.189
-311.939	-200.000	-0.017	0.086
-310.924	7.016	0.115	-0.085
-309.910	800.000	-0.116	0.345
-308.895	-200.000	0.006	0.169
-307.880	75.016	0.116	-0.121
-306.866	-51.862	-0.204	-0.094
-305.851	800.000	-0.037	0.113
-304.837	-69.535	-0.014	-0.005
-303.822	-123.762	-0.150	0.023
-302.807	106.935	-0.221	-0.259
-301.793	315.675	0.216	-0.402
-300.778	6.171	-0.113	0.082
-299.764	148.996	-0.161	-0.215
-298.749	-133.493	0.264	-0.033
-297.735	4.582	-0.106	0.077
-296.720	174.717	0.137	-0.196
-295.705	-37.567	0.306	0.161
-294.691	-122.420	-0.024	0.004
-293.676	-200.000	0.014	-0.308
-292.662	-200.000	-0.023	0.296
-291.647	150.649	-0.091	-0.122
-290.632	-110.553	-0.369	0.075
-289.618	296.038	-0.076	0.138
-288.603	-38.389	0.150	-0.078
-287.589	172.325	-0.147	0.208
-286.574	-23.016	-0.099	-0.059
-285.559	-81.668	-0.246	-0.080
-284.545	47.078	0.147	0.135
-283.530	60.511	-0.285	-0.278
-282.516	-89.542	-0.227	-0.066
-281.501	-52.963	-0.220	0.100
-280.486	-46.953	-0.264	-0.127
-279.472	-93.801	0.118	-0.032
-278.457	-102.960	0.314	0.074
-277.443	168.257	0.131	0.184
-276.428	800.000	0.027	0.074
-275.413	23.308	0.220	-0.179
-274.399	-200.000	-0.016	0.198
-273.384	-114.665	-0.124	0.023
-272.370	-200.000	-0.042	-0.545
-271.355	-14.784	0.157	0.099
-270.340	-60.356	0.041	0.017
-269.326	69.136	0.128	0.130
-268.311	-75.582	-0.231	0.081
-267.297	73.208	-0.272	-0.280
-266.282	-107.644	0.452	-0.097
-265.267	-106.166	-0.404	-0.089
-264.253	-141.603	-0.089	0.009
-263.238	90.538	-0.040	-0.044
-262.224	-200.000	0.005	-0.105
-261.209	-200.000	0.036	0.211
-260.195	800.000	-0.079	0.217
-259.180	-101.626	0.447	0.107
-258.165	502.070	0.030	0.067
-257.151	-165.926	0.162	0.007
-256.136	-72.333	-0.339	-0.124
-255.122	800.000	0.097	-0.274
-254.107	29.102	-0.160	0.134
-253.092	9.838	-0.282	0.211
-252.078	49.301	-0.079	0.074
-251.063	102.649	0.170	-0.197
-250.049	-73.881	0.208	-0.075
-249.034	-45.308	-0.386	0.189
-248.019	-133.392	-0.264	-0.033
-247.005	-36.337	0.095	-0.050
-245.990	68.804	0.175	0.177
-244.976	-200.000	0.022	0.136
-243.961	60.561	-0.118	-0.115
-242.946	796.949	-0.137	-0.371
-241.932	-200.000	-0.018	-0.116
-240.917	-63.579	-0.193	0.078
-239.903	-153.342	-0.085	0.006
-238.888	0.196	0.428	-0.300
-237.873	800.000	-0.035	0.146
-236.859	-111.735	-0.251	-0.050
-235.844	800.000	0.058	-0.238
-234.830	-200.000	-0.033	-0.457
-233.815	64.837	0.286	0.285
-232.800	-200.000	-0.052	-0.305
-231.786	-112.293	0.103	-0.020
-230.771	55.092	-0.059	-0.056
-229.757	-156.718	0.221	0.013
-228.742	-200.000	0.003	-0.237
-227.727	247.363	-0.120	-0.199
-226.713	36.121	0.213	0.185
-225.698	786.529	-0.121	-0.328
-224.684	-1.510	0.258	-0.179
-223.669	800.000	0.064	0.180
-222.655	800.000	-0.090	0.317
-221.640	-103.781	-0.289	-0.067
-220.625	418.498	0.167	-0.351
-219.611	-66.358	-0.121	0.047
-218.596	125.473	-0.171	0.212
-217.582	183.972	-0.082	-0.119
-216.567	-13.975	0.240	0.152
-215.552	-118.340	0.203	-0.036
-214.538	-200.000	0.032	-0.228
-213.523	-115.231	0.236	-0.044
-212.509	168.327	-0.218	0.306
-211.494	133.490	-0.064	0.082
-210.479	183.573	-0.148	-0.215
-209.465	317.420	0.155	-0.288
-208.450	-200.000	-0.033	-0.258
-207.436	800.000	-0.045	-0.133
-206.421	-114.846	0.244	-0.046
-205.406	-200.000	-0.032	-0.264
-204.392	22.393	0.075	-0.060
-203.377	738.107	-0.070	-0.184
-202.363	151.075	-0.105	0.140
-201.348	-104.006	-0.128	0.029
-200.333	35.091	-0.174	-0.150
-199.319	-200.000	-0.002	0.111
-198.304	-37.765	-0.394	0.206
-197.290	-136.291	0.252	0.029
-196.275	-57.988	0.287	-0.123
-195.260	-174.237	-0.237	-0.007
-194.246	-200.000	0.023	0.252
-193.231	-200.000	-0.073	0.447
-192.217	2.796	-0.089	0.063
-191.202	-47.610	0.061	-0.029
-190.187	800.000	0.068	-0.261
-189.173	-190.237	-0.171	-0.002
-188.158	800.000	-0.090	0.264
-187.144	177.246	-0.093	-0.133
-186.129	-119.458	-0.367	-0.063
-185.114	356.507	0.201	0.394
-184.100	-200.000	-0.001	-0.067
-183.085	-130.731	-0.196	-0.026
-182.071	663.383	0.049	0.125
-181.056	277.323	-0.042	-0.073
-180.042	-30.892	-0.102	0.057
-179.027	36.016	0.205	0.177
-178.012	365.069	0.063	-0.125
-176.998	-63.031	0.037	0.015
-175.983	800.000	-0.069	-0.273
-174.969	-107.314	-0.447	-0.097
-173.954	221.188	-0.073	0.115
-172.939	20.362	0.173	-0.137
-171.925	-170.823	0.181	0.006
-170.910	52.862	-0.325	0.306
-169.896	258.109	-0.213	-0.361
-168.881	-83.833	-0.083	0.026
-167.866	-26.503	-0.227	-0.131
-166.852	-142.228	-0.240	-0.023
-165.837	65.626	-0.240	0.239
-164.823	227.007	-0.064	-0.103
-163.808	-200.000	-0.046	-0.277
-162.793	-200.000	-0.057	-0.285
-161.779	-20.676	0.256	0.154
-160.764	16.074	0.072	0.055
-159.750	-40.161	-0.190	-0.097
-158.735	156.536	-0.151	-0.205
-157.720	314.950	0.131	0.243
-156.706	-84.732	-0.361	0.112
-155.691	379.421	0.040	-0.081
-154.677	338.848	-0.181	-0.346
-153.662	-6.758	0.243	0.162
-152.647	796.114	-0.060	-0.162
-151.633	-141.008	-0.106	-0.011
-150.618	-200.000	0.052	0.261
-149.604	562.974	0.077	0.183
-148.589	-72.093	-0.093	-0.034
-147.574	365.288	-0.087	0.171
-146.560	-85.412	0.127	0.039
-145.545	-46.824	0.179	0.086
-144.531	-200.000	-0.004	-0.132
-143.516	184.377	0.103	-0.150
-142.502	-189.099	-0.019	-0.000
-141.487	-43.381	0.265	0.131
-140.472	-200.000	-0.008	-0.114
-139.458	-189.117	0.293	0.003
-138.443	-102.809	0.387	0.090
-137.429	800.000	-0.061	-0.230
-136.414	-92.453	0.088	-0.024
-135.399	800.000	-0.035	-0.104
-134.385	517.753	-0.033	-0.075
-133.370	112.346	-0.224	-0.266
-132.356	133.828	0.203	0.257
-131.341	-91.691	-0.139	0.039
-130.326	-200.000	0.038	0.516
-129.312	99.776	0.061	0.070
-128.297	-111.906	0.446	-0.088
-127.283	-157.673	-0.137	0.008
-126.268	295.896	0.127	0.228
-125.253	-200.000	-0.007	0.046
-124.239	-86.994	-0.150	0.045
-123.224	-11.862	0.160	0.103
-122.210	-85.743	0.281	0.086
-121.195	-122.116	0.263	0.042
