DTS Sentinel unit serial number:	SN413079Multiplexer serial number:	ORYXHardware model number:	OX4-SRSoftware version number:	ORYX F/W v4.00 Oryx Data Collector v3.7.2.0data status	okinstallation	princeton_trtdifferential loss correction	single-endedforward channel	channel 2reverse channel	N/Adate	2019/09/16time	21:55:35forward acquisition time	60.00reverse acquisition time	0.00gamma	496.2192k internal	0.2328k external	0.2328temperature offset calibration	0.9971default loss term (dB/km)	0.3790temperature slope calibration	1.0000multiplexer offset coefficient	1.0000multiplexer slope coefficient	1.0000fibre end	0.00T internal ref (°C)	31.23T ext. ref 1 (°C)	0.07T ext. ref 2 (°C)	25.54length (m)	temperature (°C)	Stokes	anti-Stokes-747.200	-200.000	0.027	-0.141
-746.185	-182.568	-0.328	-0.006
-745.171	-200.000	-0.020	-0.261
-744.156	104.969	-0.230	0.273
-743.142	381.603	0.151	0.312
-742.127	126.689	-0.272	0.347
-741.112	117.490	0.090	-0.111
-740.098	127.888	0.103	0.132
-739.083	-78.741	0.361	-0.124
-738.069	-200.000	-0.066	0.292
-737.054	-200.000	-0.046	0.302
-736.039	-52.540	-0.346	-0.161
-735.025	114.130	0.038	0.047
-734.010	-200.000	0.010	-0.295
-732.996	-65.467	-0.484	-0.196
-731.981	-177.555	-0.086	0.002
-730.966	29.800	0.091	0.078
-729.952	305.908	0.025	-0.046
-728.937	324.158	-0.106	-0.205
-727.923	800.000	-0.058	-0.194
-726.908	168.711	-0.157	-0.225
-725.894	-200.000	0.028	-0.240
-724.879	-191.363	-0.413	-0.004
-723.864	69.107	-0.212	0.220
-722.850	-200.000	-0.022	-0.134
-721.835	51.385	-0.142	0.136
-720.821	-68.368	-0.094	-0.037
-719.806	79.680	-0.268	-0.289
-718.791	-123.693	-0.414	-0.066
-717.777	-21.762	0.344	0.211
-716.762	800.000	-0.098	0.306
-715.748	135.163	-0.220	-0.287
-714.733	800.000	-0.087	0.299
-713.718	107.752	-0.088	0.106
-712.704	48.746	0.077	-0.073
-711.689	-1.257	-0.215	-0.153
-710.675	800.000	0.052	0.204
-709.660	-111.692	-0.046	0.009
-708.645	-48.364	-0.076	-0.037
-707.631	-16.062	-0.082	0.052
-706.616	-105.416	0.142	-0.032
-705.602	292.914	-0.047	0.086
-704.587	300.295	-0.121	0.224
-703.572	-151.871	-0.223	-0.016
-702.558	-79.779	-0.083	-0.028
-701.543	48.256	0.090	0.085
-700.529	-124.914	-0.384	0.059
-699.514	-200.000	-0.040	0.184
-698.499	800.000	-0.031	0.094
-697.485	-200.000	-0.025	-0.256
-696.470	92.280	-0.190	0.216
-695.456	20.919	-0.081	-0.066
-694.441	22.641	-0.138	0.113
-693.426	-103.029	0.362	-0.086
-692.412	-200.000	-0.033	-0.279
-691.397	-131.909	-0.171	-0.022
-690.383	-135.094	0.305	0.037
-689.368	20.154	0.284	0.231
-688.354	-200.000	0.066	0.360
-687.339	0.282	0.144	-0.103
-686.324	-84.172	0.306	-0.098
-685.310	104.644	0.115	0.136
-684.295	246.616	-0.093	-0.158
-683.281	-200.000	0.001	0.089
-682.266	-200.000	-0.081	0.412
-681.251	-178.933	0.165	0.004
-680.237	633.484	-0.144	-0.366
-679.222	800.000	0.031	0.119
-678.208	83.439	0.123	-0.135
-677.193	318.013	0.044	-0.084
-676.178	411.130	-0.088	0.188
-675.164	-105.475	0.202	-0.046
-674.149	-62.025	-0.089	-0.037
-673.135	-123.353	-0.502	-0.080
-672.120	-132.898	0.112	-0.014
-671.105	-200.000	0.015	0.148
-670.091	-200.000	0.020	0.121
-669.076	-115.923	0.064	0.012
-668.062	576.383	0.061	-0.150
-667.047	-68.633	-0.233	-0.091
-666.032	-51.773	-0.237	0.111
-665.018	-31.692	0.280	-0.158
-664.003	-62.601	-0.029	-0.012
-662.989	800.000	-0.009	0.027
-661.974	-62.952	0.114	0.047
-660.959	321.915	-0.100	-0.191
-659.945	206.229	-0.029	0.046
-658.930	-195.162	0.025	0.000
-657.916	267.806	-0.040	-0.071
-656.901	332.559	0.123	-0.239
-655.886	-200.000	-0.030	-0.549
-654.872	-200.000	-0.066	0.294
-653.857	-200.000	0.059	0.276
-652.843	397.055	-0.012	0.026
-651.828	-113.806	0.194	0.038
-650.814	800.000	0.104	-0.412
-649.799	800.000	-0.084	-0.339
-648.784	-200.000	-0.005	-0.198
-647.770	-143.080	-0.208	-0.020
-646.755	180.406	-0.117	-0.172
-645.741	-53.337	0.206	0.095
-644.726	-200.000	-0.013	0.211
-643.711	-80.733	0.277	-0.092
-642.697	-143.002	-0.164	0.016
-641.682	-200.000	-0.043	0.229
-640.668	584.267	0.061	0.150
-639.653	-119.761	-0.219	0.038
-638.638	-3.864	-0.202	0.141
-637.624	226.869	0.170	-0.277
-636.609	800.000	0.047	-0.175
-635.595	70.504	0.193	0.200
-634.580	617.600	0.074	0.186
-633.565	800.000	0.113	-0.318
-632.551	75.099	0.255	-0.270
-631.536	376.537	0.093	0.191
-630.522	800.000	0.016	0.057
-629.507	-35.203	-0.173	0.095
-628.492	162.234	0.098	0.138
-627.478	-145.523	-0.179	0.016
-626.463	-1.890	0.232	-0.164
-625.449	-200.000	0.032	0.346
-624.434	-200.000	-0.052	0.260
-623.419	351.090	-0.110	-0.219
-622.405	-73.105	0.437	-0.161
-621.390	72.943	-0.144	0.151
-620.376	-40.463	-0.094	0.049
-619.361	384.672	0.128	-0.264
-618.346	800.000	0.041	0.157
-617.332	-145.120	0.149	0.014
-616.317	-110.118	-0.069	-0.014
-615.303	-66.817	0.270	-0.107
-614.288	-200.000	-0.017	0.168
-613.273	-200.000	0.021	0.134
-612.259	-200.000	-0.019	0.267
-611.244	114.799	-0.216	-0.264
-610.230	-200.000	-0.019	-0.311
-609.215	-72.483	0.238	-0.088
-608.201	-67.680	-0.257	0.101
-607.186	108.830	-0.101	0.121
-606.171	114.069	-0.255	-0.311
-605.157	491.111	-0.069	0.157
-604.142	50.976	-0.120	-0.114
-603.128	-200.000	0.024	-0.163
-602.113	-32.063	-0.232	-0.130
-601.098	-88.618	-0.061	0.018
-600.084	-200.000	0.059	-0.452
-599.069	-169.166	0.178	0.007
-598.055	-111.341	-0.280	0.057
-597.040	-102.361	-0.168	0.040
-596.025	90.399	0.121	-0.136
-595.011	-27.001	-0.169	-0.099
-593.996	111.070	-0.227	0.273
-592.982	-145.589	0.342	-0.031
-591.967	-200.000	0.018	0.099
-590.952	666.655	-0.029	0.076
-589.938	557.660	0.045	-0.109
-588.923	98.747	0.181	-0.209
-587.909	-91.373	0.183	0.052
-586.894	70.263	-0.207	0.214
-585.879	38.262	0.051	-0.046
-584.865	-117.379	-0.229	0.042
-583.850	-47.325	-0.116	-0.057
-582.836	768.369	-0.068	0.185
-581.821	800.000	0.077	0.314
-580.806	744.042	0.051	0.136
-579.792	611.960	0.045	0.112
-578.777	459.049	-0.104	0.231
-577.763	-30.336	0.164	-0.093
-576.748	800.000	0.115	-0.383
-575.733	111.279	-0.025	-0.030
-574.719	420.708	0.065	-0.139
-573.704	229.062	-0.050	-0.082
-572.690	-64.712	-0.255	-0.103
-571.675	-200.000	0.002	0.371
-570.661	394.578	0.206	-0.430
-569.646	800.000	-0.115	-0.395
-568.631	47.343	-0.353	-0.330
-567.617	115.182	-0.142	-0.173
-566.602	97.366	0.346	0.397
-565.588	-67.164	-0.205	0.081
-564.573	800.000	0.062	0.183
-563.558	-49.092	0.490	-0.235
-562.544	-148.134	0.360	0.030
-561.529	-7.599	-0.244	-0.165
-560.515	-58.219	0.133	0.058
-559.500	145.660	-0.062	-0.083
-558.485	800.000	-0.082	-0.226
-557.471	177.075	-0.128	-0.186
-556.456	17.501	0.393	0.313
-555.442	205.587	0.048	-0.075
-554.427	-20.304	-0.107	-0.066
-553.412	-119.037	0.194	0.034
-552.398	-49.549	-0.243	-0.116
-551.383	-138.005	0.278	-0.031
-550.369	-87.518	-0.085	-0.026
-549.354	49.864	-0.212	-0.200
-548.339	-146.900	-0.193	0.017
-547.325	-141.348	-0.121	-0.012
-546.310	-161.258	-0.053	-0.003
-545.296	372.540	-0.062	0.126
-544.281	637.201	0.116	-0.295
-543.266	127.117	-0.090	-0.114
-542.252	-81.202	-0.288	-0.095
-541.237	800.000	0.018	0.073
-540.223	62.133	-0.149	0.148
-539.208	213.442	-0.128	-0.202
-538.193	-165.502	0.087	0.004
-537.179	-114.561	0.058	-0.011
-536.164	-200.000	0.034	0.341
-535.150	-109.180	-0.362	0.077
-534.135	-187.744	0.084	-0.001
-533.121	252.275	0.138	0.236
-532.106	-125.181	0.308	-0.047
-531.091	-200.000	0.000	-0.238
-530.077	90.005	0.266	0.297
-529.062	-200.000	-0.036	-0.222
-528.048	-200.000	-0.038	-0.201
-527.033	800.000	-0.014	0.057
-526.018	-5.088	0.128	-0.088
-525.004	221.471	0.103	0.166
-523.989	-69.018	-0.361	-0.139
-522.975	-124.461	-0.304	0.047
-521.960	337.788	0.085	0.166
-520.945	-200.000	0.025	0.243
-519.931	326.951	-0.100	-0.191
-518.916	-195.578	-0.137	-0.001
-517.902	-10.407	-0.167	-0.111
-516.887	-155.388	-0.224	-0.015
-515.872	-200.000	-0.036	0.315
-514.858	800.000	-0.099	-0.301
-513.843	72.010	-0.057	0.060
-512.829	257.104	0.089	0.153
-511.814	-35.660	0.212	0.115
-510.799	-3.590	0.126	-0.087
-509.785	-189.770	-0.137	0.002
-508.770	-132.213	0.165	-0.021
-507.756	-4.960	0.186	-0.128
-506.741	-127.658	-0.122	-0.018
-505.726	-38.118	-0.111	-0.059
-504.712	54.032	0.168	-0.161
-503.697	-13.938	-0.153	-0.099
-502.683	-200.000	-0.028	0.296
-501.668	-114.676	0.151	0.029
-500.653	-123.151	-0.102	0.016
-499.639	-5.872	-0.329	-0.225
-498.624	3.349	0.307	0.223
-497.610	-180.120	-0.207	-0.004
-496.595	-200.000	-0.010	-0.270
-495.581	-28.784	0.175	-0.100
-494.566	-71.697	0.205	0.076
-493.551	-200.000	0.011	-0.194
-492.537	800.000	0.086	0.249
-491.522	419.395	-0.109	-0.233
-490.508	-45.267	-0.107	0.053
-489.493	-147.533	-0.198	-0.017
-488.478	-105.293	-0.409	0.093
-487.464	-170.551	-0.281	0.010
-486.449	125.757	-0.189	0.238
-485.435	409.634	0.045	0.095
-484.420	800.000	0.027	-0.080
-483.405	-200.000	-0.009	0.326
-482.391	-134.759	0.154	-0.019
-481.376	-200.000	0.027	-0.210
-480.362	-200.000	-0.001	0.114
-479.347	-200.000	-0.040	0.496
-478.332	6.549	-0.132	0.098
-477.318	214.723	0.090	-0.142
-476.303	-161.717	-0.399	-0.020
-475.289	-200.000	0.013	0.424
-474.274	277.950	0.241	0.428
-473.259	139.734	-0.078	-0.102
-472.245	779.944	0.029	0.078
-471.230	-200.000	-0.010	0.058
-470.216	800.000	-0.042	-0.144
-469.201	465.658	0.171	0.381
-468.186	-81.892	0.371	0.121
-467.172	-104.612	-0.193	-0.044
-466.157	-38.214	0.143	0.075
-465.143	800.000	0.036	-0.113
-464.128	-15.144	0.151	-0.096
-463.113	-45.816	-0.236	-0.116
-462.099	264.677	-0.244	0.423
-461.084	-178.502	0.350	-0.008
-460.070	-200.000	0.033	-0.218
-459.055	623.856	0.051	-0.129
-458.040	113.409	0.056	-0.068
-457.026	737.221	-0.080	-0.212
-456.011	-121.312	0.270	-0.045
-454.997	-172.226	-0.351	-0.011
-453.982	8.683	-0.056	0.042
-452.968	800.000	0.061	0.252
-451.953	177.400	0.099	-0.144
-450.938	30.245	-0.080	-0.068
-449.924	-41.673	0.143	0.073
-448.909	-50.628	0.433	0.203
-447.895	-58.789	-0.237	0.102
-446.880	786.358	0.076	-0.207
-445.865	-200.000	-0.023	-0.303
-444.851	53.766	-0.167	0.160
-443.836	120.622	0.342	-0.424
-442.822	-83.130	-0.422	-0.135
-441.807	642.290	-0.054	-0.136
-440.792	-53.801	0.237	-0.108
-439.778	800.000	-0.078	-0.327
-438.763	-200.000	-0.016	-0.305
-437.749	-57.127	-0.243	-0.107
-436.734	132.866	0.082	0.106
-435.719	70.498	-0.305	-0.314
-434.705	-166.903	-0.260	0.011
-433.690	372.183	0.070	0.141
-432.676	-63.754	-0.278	-0.113
-431.661	-22.859	0.143	0.086
-430.646	401.970	-0.175	0.366
-429.632	800.000	0.096	-0.335
-428.617	63.609	0.224	0.224
-427.603	-97.629	0.055	-0.014
-426.588	57.707	0.062	-0.060
-425.573	-200.000	0.020	0.098
-424.559	644.713	-0.154	0.391
-423.544	137.231	-0.086	0.112
-422.530	-200.000	-0.026	-0.183
-421.515	800.000	0.112	-0.466
-420.500	-10.089	0.159	-0.105
-419.486	465.485	-0.071	0.159
-418.471	-200.000	0.025	-0.172
-417.457	48.979	0.183	-0.171
-416.442	800.000	0.087	-0.315
-415.428	250.874	-0.113	0.191
-414.413	-156.939	0.133	-0.008
-413.398	-6.461	0.281	0.190
-412.384	59.471	-0.113	0.111
-411.369	230.075	-0.074	-0.120
-410.355	-30.406	-0.270	-0.152
-409.340	101.331	0.175	-0.203
-408.325	-80.352	-0.376	-0.125
-407.311	-28.628	-0.110	0.063
-406.296	19.615	-0.237	-0.190
-405.282	-33.035	0.071	0.039
-404.267	-102.576	0.282	0.067
-403.252	800.000	0.086	0.259
-402.238	188.298	0.147	0.219
-401.223	-200.000	-0.030	0.220
-400.209	2.117	0.171	0.123
-399.194	106.652	-0.097	-0.114
-398.179	-200.000	0.028	0.307
-397.165	-200.000	0.020	0.371
-396.150	-200.000	-0.007	0.086
-395.136	-109.788	0.281	-0.059
-394.121	-200.000	-0.010	-0.194
-393.106	-2.996	0.071	-0.050
-392.092	330.320	0.086	0.164
-391.077	-200.000	0.085	0.372
-390.063	787.945	-0.097	0.265
-389.048	-18.171	-0.075	0.046
-388.033	-200.000	0.050	0.297
-387.019	33.430	-0.190	-0.164
-386.004	-21.191	-0.201	-0.122
-384.990	167.556	-0.192	-0.271
-383.975	800.000	0.045	0.126
-382.960	25.022	-0.439	0.362
-381.946	9.528	-0.077	0.058
-380.931	109.817	0.162	0.193
-379.917	170.155	0.173	-0.246
-378.902	141.275	0.104	-0.137
-377.888	-55.950	-0.237	-0.105
-376.873	-200.000	-0.015	0.134
-375.858	0.830	-0.046	0.033
-374.844	-80.541	-0.060	-0.020
-373.829	279.424	-0.232	0.412
-372.815	-154.059	0.424	-0.029
-371.800	213.225	0.066	0.104
-370.785	-200.000	0.027	0.307
-369.771	-86.745	-0.236	-0.072
-368.756	449.085	-0.078	0.171
-367.742	-143.612	0.117	0.011
-366.727	-200.000	0.052	-0.401
-365.712	-37.647	-0.078	-0.041
-364.698	-200.000	-0.003	0.161
-363.683	-119.683	0.438	0.075
-362.669	-116.990	-0.092	0.017
-361.654	800.000	-0.038	0.143
-360.639	-102.913	0.254	-0.060
-359.625	4.062	-0.151	0.110
-358.610	59.829	0.124	0.122
-357.596	1.899	0.183	0.131
-356.581	590.486	0.058	-0.142
-355.566	-200.000	-0.016	-0.157
-354.552	-102.109	-0.047	0.011
-353.537	-20.802	-0.085	0.051
-352.523	5.398	-0.161	0.118
-351.508	19.232	0.080	-0.064
-350.493	-59.388	-0.285	-0.122
-349.479	142.163	-0.076	0.100
-348.464	-89.604	-0.203	-0.059
-347.450	-200.000	0.011	0.149
-346.435	-140.762	-0.224	0.023
-345.420	800.000	-0.083	0.243
-344.406	100.125	0.104	0.120
-343.391	-161.183	-0.269	0.014
-342.377	-200.000	0.012	-0.185
-341.362	-77.177	-0.131	0.045
-340.348	94.579	-0.182	0.205
-339.333	29.742	0.239	0.202
-338.318	708.754	-0.131	-0.342
-337.304	-200.000	-0.045	-0.217
-336.289	800.000	0.033	0.113
-335.275	-137.660	-0.292	-0.033
-334.260	-200.000	-0.046	0.317
-333.245	-64.614	-0.160	-0.064
-332.231	-186.099	0.023	0.000
-331.216	-31.015	-0.189	-0.106
-330.202	-53.565	0.242	-0.110
-329.187	226.801	-0.214	0.345
-328.172	-37.550	-0.100	0.053
-327.158	354.289	0.083	-0.163
-326.143	-18.316	-0.093	-0.057
-325.129	612.516	0.035	-0.087
-324.114	-65.814	-0.102	-0.040
-323.099	-21.603	0.368	0.222
-322.085	-102.991	0.120	-0.028
-321.070	87.715	0.048	0.053
-320.056	-113.398	0.351	0.068
-319.041	-86.660	0.299	-0.091
-318.026	-81.088	0.296	-0.097
-317.012	-115.422	-0.117	0.022
-315.997	5.741	0.127	0.093
-314.983	-125.976	0.267	0.040
-313.968	-116.394	0.417	-0.076
-312.953	-55.084	-0.217	0.097
-311.939	-9.958	-0.232	0.153
-310.924	107.522	0.058	0.068
-309.910	800.000	0.079	0.222
-308.895	41.945	0.247	0.222
-307.880	28.532	0.169	0.142
-306.866	172.044	0.162	0.230
-305.851	800.000	0.047	-0.129
-304.837	-116.127	-0.166	0.031
-303.822	97.984	0.069	0.079
-302.807	-22.215	0.182	-0.109
-301.793	-49.996	-0.141	-0.066
-300.778	343.470	0.210	0.407
-299.764	316.225	0.065	-0.122
-298.749	-96.744	0.249	-0.065
-297.735	-200.000	0.033	-0.143
-296.720	800.000	0.066	-0.230
-295.705	395.883	-0.056	0.116
-294.691	-23.973	0.124	-0.074
-293.676	-139.462	-0.117	-0.012
-292.662	64.149	0.208	-0.208
-291.647	-200.000	0.110	-0.000
-290.632	-155.498	-0.422	-0.027
-289.618	-132.471	0.166	-0.021
-288.603	702.701	0.068	0.177
-287.589	61.173	-0.033	0.033
-286.574	-108.130	-0.027	-0.006
-285.559	-186.279	0.365	0.005
-284.545	-96.491	-0.175	0.046
-283.530	-92.676	-0.214	0.059
-282.516	139.728	-0.062	0.080
-281.501	-85.676	-0.141	-0.043
-280.486	800.000	0.126	-0.521
-279.472	125.692	-0.106	-0.133
-278.457	-200.000	0.014	-0.195
-277.443	-91.727	-0.253	0.071
-276.428	88.224	-0.121	-0.133
-275.413	-168.345	0.373	-0.014
-274.399	-92.095	-0.156	0.044
-273.384	-200.000	0.019	0.225
-272.370	800.000	-0.117	-0.363
-271.355	-193.033	0.247	-0.002
-270.340	-200.000	0.079	-0.387
-269.326	-200.000	-0.019	-0.343
-268.311	-51.082	0.183	-0.085
-267.297	37.008	0.054	0.048
-266.282	-200.000	-0.001	0.291
-265.267	-27.299	-0.293	0.169
-264.253	193.506	0.036	0.054
-263.238	-200.000	0.009	0.106
-262.224	84.284	0.093	0.101
-261.209	-200.000	-0.026	-0.172
-260.195	-11.932	-0.208	0.135
-259.180	-6.888	0.212	0.142
-258.165	-200.000	-0.028	-0.301
-257.151	145.497	-0.072	0.096
-256.136	-9.343	0.117	-0.077
-255.122	-49.445	0.328	-0.154
-254.107	366.656	-0.035	-0.069
-253.092	-99.480	-0.149	-0.037
-252.078	800.000	0.089	-0.263
-251.063	249.272	-0.120	-0.202
-250.049	-200.000	0.007	-0.179
-249.034	-21.043	-0.188	-0.114
-248.019	-76.875	0.339	0.117
-247.005	-200.000	-0.034	0.215
-245.990	-200.000	0.002	-0.299
-244.976	15.052	0.112	0.086
-243.961	-14.574	0.174	-0.111
-242.946	800.000	-0.054	-0.151
-241.932	-32.610	0.120	-0.066
-240.917	94.285	-0.061	-0.068
-239.903	7.493	0.042	0.031
-238.888	-200.000	0.017	0.149
-237.873	-114.495	0.202	0.038
-236.859	-113.531	0.387	-0.075
-235.844	132.755	-0.071	0.090
-234.830	469.329	0.068	0.151
-233.815	154.623	-0.061	-0.083
-232.800	-200.000	-0.036	0.209
-231.786	391.135	0.083	-0.170
-230.771	-200.000	-0.135	-0.822
-229.757	189.549	0.120	-0.177
-228.742	-186.401	-0.254	0.004
-227.727	-6.454	-0.201	-0.136
-226.713	136.919	-0.188	-0.243
-225.698	-200.000	-0.023	0.230
-224.684	-116.694	0.222	0.040
-223.669	83.749	-0.131	-0.141
-222.655	-56.592	0.348	-0.152
-221.640	-33.599	-0.164	-0.089
-220.625	-155.076	-0.122	0.008
-219.611	-84.829	-0.220	0.068
-218.596	-200.000	0.002	0.056
-217.582	-101.749	0.167	-0.040
-216.567	22.983	0.189	0.153
-215.552	-186.712	0.294	-0.004
-214.538	70.408	-0.196	-0.200
-213.523	167.706	0.094	0.132
-212.509	55.743	-0.198	0.189
-211.494	10.595	0.114	0.086
-210.479	800.000	0.056	-0.217
-209.465	-29.013	0.271	-0.153
-208.450	800.000	0.126	-0.413
-207.436	143.413	0.033	0.043
-206.421	9.738	-0.108	0.081
-205.406	800.000	-0.086	0.367
-204.392	-200.000	-0.015	0.165
-203.377	-200.000	-0.007	-0.046
-202.363	288.788	0.158	-0.283
-201.348	-81.755	-0.305	-0.099
-200.333	90.028	-0.164	0.181
-199.319	461.018	0.106	0.232
-198.304	-180.173	-0.216	0.004
-197.290	-200.000	-0.003	-0.030
-196.275	-139.973	-0.399	-0.042
-195.260	322.545	-0.082	-0.155
-194.246	-200.000	0.065	0.445
-193.231	-54.230	0.209	0.094
-192.217	-166.061	0.356	-0.015
-191.202	-103.747	-0.151	-0.035
-190.187	-136.600	-0.287	0.033
-189.173	187.617	-0.032	-0.047
-188.158	-21.008	0.119	-0.072
-187.144	-32.710	0.140	0.077
-186.129	45.956	0.168	-0.153
-185.114	800.000	0.009	0.035
-184.100	-200.000	-0.027	0.311
-183.085	146.338	0.116	-0.154
-182.071	369.933	-0.083	0.167
-181.056	96.429	-0.138	-0.156
-180.042	-3.337	0.006	-0.004
-179.027	512.849	-0.054	-0.124
-178.012	90.744	-0.074	-0.081
-176.998	-200.000	0.005	0.396
-175.983	-56.946	0.336	0.146
-174.969	91.609	0.139	-0.154
-173.954	-136.721	-0.310	0.035
-172.939	-200.000	0.030	0.239
-171.925	-6.599	-0.193	-0.129
-170.910	-200.000	-0.037	0.237
-169.896	800.000	-0.037	-0.136
-168.881	248.314	-0.100	0.167
-167.866	103.563	0.250	0.289
-166.852	148.441	-0.089	-0.118
-165.837	-3.435	-0.086	-0.059
-164.823	-117.261	0.226	-0.040
-163.808	-12.460	0.168	0.108
-162.793	150.556	-0.030	-0.040
-161.779	-133.842	-0.208	0.025
-160.764	-76.484	0.243	0.084
-159.750	-200.000	0.008	0.118
-158.735	384.419	0.124	-0.251
-157.720	-200.000	-0.017	0.252
-156.706	96.425	-0.184	0.207
-155.691	-200.000	-0.038	-0.213
-154.677	-31.311	-0.219	-0.121
-153.662	-22.789	-0.078	-0.046
-152.647	36.511	-0.031	-0.027
-151.633	800.000	0.104	0.337
-150.618	-47.669	0.265	0.126
-149.604	373.636	0.187	-0.375
-148.589	-30.182	0.223	-0.125
-147.574	166.264	-0.172	0.240
-146.560	-120.658	-0.316	0.053
-145.545	90.438	-0.100	-0.110
-144.531	4.718	-0.158	0.114
-143.516	373.215	-0.111	0.223
-142.502	-143.546	0.292	-0.027
-141.487	-200.000	-0.016	0.134
-140.472	75.686	-0.344	0.358
-139.458	-38.881	0.082	-0.043
-138.443	-14.660	0.151	0.096
-137.429	-123.543	0.213	0.033
-136.414	91.443	0.163	-0.180
-135.399	-200.000	-0.066	-0.408
-134.385	-139.868	-0.146	0.015
-133.370	-200.000	0.051	-0.302
-132.356	286.351	-0.115	0.205
-131.341	56.918	0.037	-0.035
-130.326	8.683	0.125	0.092
-129.312	-42.157	-0.257	-0.129
-128.297	419.899	0.242	0.509
-127.283	-117.142	0.081	0.014
-126.268	-113.876	0.304	-0.058
-125.253	-200.000	-0.064	0.316
-124.239	-200.000	0.011	0.129
-123.224	-100.347	-0.197	-0.048
-122.210	-51.308	0.261	-0.120
