DTS Sentinel unit serial number:	SN413079Multiplexer serial number:	ORYXHardware model number:	OX4-SRSoftware version number:	ORYX F/W v4.00 Oryx Data Collector v3.7.2.0data status	okinstallation	princeton_trtdifferential loss correction	single-endedforward channel	channel 2reverse channel	N/Adate	2019/09/12time	06:57:11forward acquisition time	60.00reverse acquisition time	0.00gamma	496.2192k internal	0.2325k external	0.2325temperature offset calibration	1.0065default loss term (dB/km)	0.3790temperature slope calibration	1.0000multiplexer offset coefficient	1.0000multiplexer slope coefficient	1.0000fibre end	0.00T internal ref (°C)	32.16T ext. ref 1 (°C)	1.60T ext. ref 2 (°C)	27.31length (m)	temperature (°C)	Stokes	anti-Stokes-747.200	140.530	0.330	0.439
-746.185	-55.066	0.410	0.186
-745.171	256.677	0.059	0.102
-744.156	800.000	0.068	0.297
-743.142	143.505	0.296	-0.398
-742.127	9.006	0.235	-0.179
-741.112	800.000	-0.097	-0.313
-740.098	20.471	-0.408	0.333
-739.083	800.000	0.049	-0.209
-738.069	800.000	-0.051	-0.145
-737.054	35.503	0.163	-0.145
-736.039	279.016	-0.031	0.056
-735.025	-200.000	0.075	0.508
-734.010	-119.377	-0.306	0.054
-732.996	41.478	-0.222	-0.202
-731.981	85.760	0.121	0.134
-730.966	-200.000	0.038	0.277
-729.952	12.710	0.142	0.111
-728.937	-181.797	-0.183	0.004
-727.923	-200.000	0.071	-0.405
-726.908	18.555	-0.077	-0.062
-725.894	123.688	0.244	-0.309
-724.879	-19.952	-0.195	-0.121
-723.864	-164.405	-0.093	0.004
-722.850	-200.000	0.015	-0.199
-721.835	768.367	0.092	0.254
-720.821	-123.344	-0.199	-0.032
-719.806	11.270	-0.112	0.086
-718.791	-147.724	-0.193	-0.016
-717.777	213.984	-0.249	-0.397
-716.762	54.069	-0.157	0.152
-715.748	517.545	-0.111	0.261
-714.733	101.381	-0.070	0.082
-713.718	-90.211	-0.248	-0.073
-712.704	568.495	-0.017	-0.042
-711.689	-78.351	0.177	-0.061
-710.675	113.622	0.139	0.170
-709.660	115.104	0.346	0.426
-708.645	-121.047	0.090	-0.015
-707.631	499.400	-0.145	0.336
-706.616	-200.000	-0.016	0.167
-705.602	172.233	-0.086	-0.125
-704.587	-81.127	0.122	0.041
-703.572	-200.000	0.057	0.270
-702.558	-110.571	-0.302	-0.063
-701.543	49.959	-0.093	0.088
-700.529	-200.000	0.008	0.080
-699.514	626.798	-0.097	-0.246
-698.499	-200.000	0.035	-0.595
-697.485	83.661	-0.119	0.131
-696.470	-111.984	-0.219	-0.045
-695.456	192.075	0.054	-0.082
-694.441	-109.936	-0.099	-0.021
-693.426	-137.975	-0.191	-0.021
-692.412	25.324	0.067	-0.056
-691.397	-129.859	0.225	0.031
-690.383	-200.000	-0.083	-0.454
-689.368	81.904	0.244	-0.266
-688.354	-40.032	-0.561	0.295
-687.339	-200.000	0.046	0.296
-686.324	351.794	-0.057	0.113
-685.310	-22.231	0.295	-0.180
-684.295	-200.000	0.001	0.225
-683.281	222.182	-0.126	-0.203
-682.266	-112.524	0.093	-0.019
-681.251	-81.402	-0.071	0.023
-680.237	166.736	0.250	-0.357
-679.222	56.686	0.106	0.104
-678.208	-105.838	-0.268	-0.061
-677.193	554.675	0.059	-0.144
-676.178	-0.104	-0.523	0.375
-675.164	-200.000	0.015	0.294
-674.149	33.487	0.019	-0.016
-673.135	277.872	0.167	0.300
-672.120	-113.187	0.240	-0.048
-671.105	-200.000	-0.014	0.141
-670.091	-10.066	-0.162	0.108
-669.076	-120.412	-0.212	-0.036
-668.062	358.639	0.174	0.350
-667.047	-200.000	-0.070	0.366
-666.032	-45.773	0.138	0.069
-665.018	-200.000	0.003	0.072
-664.003	-84.070	0.216	0.069
-662.989	40.445	0.306	-0.277
-661.974	-130.581	0.050	-0.007
-660.959	-34.701	-0.302	-0.166
-659.945	11.496	0.193	-0.149
-658.930	-82.892	0.308	0.100
-657.916	-200.000	0.014	-0.142
-656.901	-110.327	0.276	0.058
-655.886	-170.630	-0.302	0.011
-654.872	419.006	0.141	-0.303
-653.857	-200.000	0.020	-0.261
-652.843	228.564	-0.127	0.209
-651.828	105.942	-0.058	-0.069
-650.814	31.560	-0.202	-0.175
-649.799	81.679	-0.310	0.337
-648.784	800.000	0.059	0.170
-647.770	-117.683	-0.325	-0.059
-646.755	-200.000	-0.008	-0.140
-645.741	800.000	-0.067	-0.193
-644.726	161.422	0.163	0.229
-643.711	307.624	0.137	0.257
-642.697	5.992	0.347	0.258
-641.682	-44.958	-0.163	-0.082
-640.668	-113.784	0.056	-0.011
-639.653	-200.000	-0.069	-0.325
-638.638	800.000	0.020	0.072
-637.624	-17.349	-0.439	0.278
-636.609	1.514	0.209	-0.151
-635.595	-82.032	0.102	-0.034
-634.580	216.788	-0.195	-0.312
-633.565	-81.920	0.239	0.079
-632.551	800.000	-0.085	0.262
-631.536	800.000	-0.078	0.264
-630.522	-157.395	0.653	-0.040
-629.507	-148.007	-0.353	0.030
-628.492	-102.425	-0.327	0.079
-627.478	-200.000	0.001	0.166
-626.463	-74.031	-0.280	0.102
-625.449	535.406	0.027	0.064
-624.434	-66.568	0.123	-0.049
-623.419	182.697	-0.191	-0.283
-622.405	-92.768	-0.101	-0.029
-621.390	-200.000	0.032	0.141
-620.376	276.141	-0.124	0.221
-619.361	-200.000	-0.021	-0.453
-618.346	13.024	0.158	-0.123
-617.332	800.000	-0.047	-0.136
-616.317	-200.000	0.017	0.386
-615.303	-96.657	-0.037	0.010
-614.288	591.739	0.043	0.107
-613.273	101.092	0.095	0.111
-612.259	-135.328	0.144	-0.017
-611.244	-105.791	-0.162	-0.037
-610.230	55.724	0.062	0.061
-609.215	34.611	0.249	-0.218
-608.201	21.763	-0.141	0.115
-607.186	-200.000	-0.017	0.092
-606.171	20.898	0.132	-0.107
-605.157	40.381	-0.088	0.079
-604.142	-200.000	0.018	0.198
-603.128	-136.714	0.270	0.031
-602.113	114.093	0.153	0.187
-601.098	-144.611	-0.107	0.010
-600.084	179.520	0.099	0.145
-599.069	158.844	0.144	0.200
-598.055	-200.000	0.027	-0.134
-597.040	-200.000	0.032	0.203
-596.025	14.748	-0.098	0.077
-595.011	137.978	-0.082	0.108
-593.996	-200.000	0.015	0.139
-592.982	-200.000	-0.034	-0.163
-591.967	317.986	0.103	0.196
-590.952	-200.000	0.031	-0.193
-589.938	103.366	0.182	-0.214
-588.923	-110.894	0.201	-0.042
-587.909	3.969	-0.208	0.152
-586.894	-153.294	0.341	0.024
-585.879	163.723	-0.087	0.123
-584.865	165.008	0.028	0.040
-583.850	-200.000	-0.004	0.179
-582.836	491.550	0.052	-0.119
-581.821	-84.624	0.120	0.038
-580.806	-200.000	0.011	0.174
-579.792	67.219	-0.240	-0.245
-578.777	800.000	0.024	-0.091
-577.763	-96.408	-0.067	0.018
-576.748	-87.366	-0.464	-0.141
-575.733	-162.808	0.092	-0.004
-574.719	41.195	-0.026	0.023
-573.704	553.141	-0.133	0.321
-572.690	-69.377	-0.011	0.004
-571.675	464.071	-0.159	0.355
-570.661	92.649	0.189	0.214
-569.646	-101.538	-0.128	0.031
-568.631	-54.002	-0.280	-0.128
-567.617	800.000	-0.085	-0.292
-566.602	-200.000	0.018	-0.145
-565.588	-15.293	0.200	-0.128
-564.573	-99.024	0.280	-0.071
-563.558	-66.992	-0.171	0.068
-562.544	-184.204	0.339	0.006
-561.529	268.242	-0.156	-0.275
-560.515	-51.228	0.226	-0.106
-559.500	800.000	-0.045	0.192
-558.485	-26.223	-0.171	-0.100
-557.471	-200.000	-0.040	-0.324
-556.456	-200.000	-0.013	-0.354
-555.442	-126.603	-0.554	0.082
-554.427	-96.437	0.418	0.111
-553.412	-45.909	-0.147	0.073
-552.398	15.619	0.117	0.092
-551.383	-30.528	0.080	0.046
-550.369	-200.000	0.032	0.158
-549.354	-44.410	0.227	-0.114
-548.339	-35.967	0.240	0.130
-547.325	56.218	0.160	0.155
-546.310	-8.964	0.179	0.120
-545.296	110.430	-0.071	-0.086
-544.281	328.176	-0.040	-0.077
-543.266	-78.011	-0.080	-0.027
-542.252	800.000	0.052	0.205
-541.237	-76.871	-0.196	0.069
-540.223	-79.030	-0.095	0.032
-539.208	-41.920	-0.198	0.102
-538.193	65.589	0.128	0.130
-537.179	-101.689	-0.488	-0.119
-536.164	78.489	-0.158	-0.169
-535.150	184.747	-0.106	0.157
-534.135	-120.854	0.424	0.072
-533.121	-138.093	-0.140	0.016
-532.106	-67.020	-0.460	-0.182
-531.091	800.000	0.061	-0.213
-530.077	-46.122	0.138	0.068
-529.062	405.069	0.129	0.272
-528.048	58.300	0.220	-0.216
-527.033	800.000	-0.063	0.194
-526.018	-200.000	-0.013	-0.078
-525.004	-200.000	-0.004	-0.148
-523.989	210.656	-0.116	0.183
-522.975	-140.146	0.201	-0.021
-521.960	-69.382	0.084	-0.032
-520.945	-96.905	-0.078	0.021
-519.931	800.000	-0.089	0.296
-518.916	119.152	0.079	-0.098
-517.902	-127.418	-0.181	0.026
-516.887	126.525	0.045	-0.057
-515.872	172.354	-0.236	0.339
-514.858	605.744	0.014	-0.034
-513.843	254.242	0.155	-0.264
-512.829	-159.103	0.262	0.015
-511.814	-200.000	0.038	0.168
-510.799	-200.000	0.008	0.336
-509.785	-151.299	0.322	-0.024
-508.770	239.927	-0.173	-0.289
-507.756	800.000	0.054	-0.189
-506.741	66.361	-0.122	0.123
-505.726	71.555	0.190	-0.197
-504.712	-149.087	-0.243	-0.019
-503.697	24.085	-0.187	-0.154
-502.683	-200.000	0.045	-0.217
-501.668	-111.524	-0.182	0.037
-500.653	-79.110	-0.445	0.151
-499.639	-127.280	0.396	-0.058
-498.624	-153.572	-0.290	0.020
-497.610	-200.000	0.025	-0.274
-496.595	12.094	-0.140	-0.107
-495.581	-128.289	-0.220	0.031
-494.566	-120.319	-0.172	-0.029
-493.551	61.223	0.249	0.247
-492.537	800.000	-0.050	0.158
-491.522	-200.000	-0.027	0.224
-490.508	-155.211	-0.337	0.022
-489.493	763.697	-0.084	-0.227
-488.478	-128.320	-0.214	-0.030
-487.464	800.000	0.012	-0.049
-486.449	-63.478	-0.189	-0.077
-485.435	-200.000	0.207	0.000
-484.420	168.694	-0.106	-0.151
-483.405	-23.273	0.172	-0.104
-482.391	112.653	-0.126	-0.153
-481.376	-22.075	-0.074	0.045
-480.362	474.627	-0.024	-0.053
-479.347	-10.935	0.338	-0.223
-478.332	584.308	0.057	-0.139
-477.318	-153.048	0.064	-0.004
-476.303	179.822	-0.094	0.138
-475.289	-200.000	0.022	0.110
-474.274	-84.817	0.090	-0.028
-473.259	-125.036	-0.178	0.027
-472.245	-200.000	-0.014	-0.242
-471.230	-48.920	0.089	-0.042
-470.216	-26.037	0.467	-0.274
-469.201	64.224	0.241	-0.242
-468.186	-32.476	0.181	-0.101
-467.172	-22.403	-0.073	0.044
-466.157	74.649	-0.119	-0.125
-465.143	298.380	-0.193	-0.355
-464.128	536.621	0.152	-0.360
-463.113	21.773	-0.117	-0.095
-462.099	-32.613	0.393	-0.218
-461.084	231.930	-0.088	0.145
-460.070	800.000	-0.049	-0.210
-459.055	-106.339	-0.314	-0.070
-458.040	-110.467	0.240	-0.050
-457.026	-200.000	-0.007	0.106
-456.011	-28.072	0.314	-0.181
-454.997	-136.852	-0.337	-0.039
-453.982	-137.650	0.128	0.014
-452.968	21.975	-0.142	-0.116
-451.953	179.664	0.199	-0.291
-450.938	-200.000	0.022	-0.135
-449.924	323.933	-0.086	-0.163
-448.909	186.532	-0.072	0.107
-447.895	800.000	0.085	-0.308
-446.880	365.763	-0.045	-0.090
-445.865	24.262	-0.329	-0.271
-444.851	-200.000	-0.108	-0.711
-443.836	-121.080	-0.082	0.014
-442.822	358.138	0.087	0.173
-441.807	-12.597	-0.143	0.093
-440.792	-121.241	0.249	-0.041
-439.778	-90.748	-0.253	-0.073
-438.763	-154.030	0.287	-0.019
-437.749	-108.739	-0.500	-0.107
-436.734	61.653	-0.135	-0.134
-435.719	-178.897	-0.268	0.006
-434.705	-50.880	0.037	-0.017
-433.690	129.203	-0.081	-0.103
-432.676	800.000	-0.085	0.263
-431.661	-142.756	0.270	0.026
-430.646	62.567	-0.046	0.045
-429.632	743.398	0.139	0.372
-428.617	-120.049	-0.219	0.037
-427.603	162.315	-0.043	-0.061
-426.588	98.413	0.134	0.153
-425.573	265.844	0.066	0.115
-424.559	-45.180	0.248	-0.123
-423.544	343.041	-0.035	-0.069
-422.530	61.976	0.241	-0.240
-421.515	800.000	0.074	-0.273
-420.500	37.543	-0.239	-0.211
-419.486	-139.210	-0.080	-0.009
-418.471	303.883	-0.085	0.157
-417.457	800.000	-0.088	-0.256
-416.442	-200.000	-0.039	0.174
-415.428	217.485	-0.147	0.234
-414.413	-59.552	-0.184	0.079
-413.398	110.029	0.149	0.178
-412.384	224.353	0.230	-0.370
-411.369	197.228	-0.082	-0.125
-410.355	149.215	-0.173	0.233
-409.340	-200.000	-0.013	0.157
-408.325	-81.001	-0.107	0.035
-407.311	-87.987	0.324	-0.097
-406.296	-81.830	-0.239	-0.078
-405.282	-90.226	0.298	0.086
-404.267	324.507	-0.095	-0.182
-403.252	-39.319	0.256	-0.134
-402.238	800.000	-0.092	0.323
-401.223	-200.000	-0.034	-0.430
-400.209	-106.220	0.109	0.024
-399.194	250.354	-0.261	-0.442
-398.179	-106.939	0.190	0.042
-397.165	118.242	-0.308	0.378
-396.150	-18.058	0.456	0.284
-395.136	-72.167	-0.307	-0.114
-394.121	-103.353	0.306	-0.072
-393.106	24.262	0.271	-0.223
-392.092	-62.857	-0.382	-0.157
-391.077	142.211	-0.019	0.025
-390.063	-29.737	-0.251	-0.142
-389.048	651.060	0.081	0.206
-388.033	-28.709	0.528	-0.302
-387.019	178.265	-0.033	-0.048
-386.004	246.583	0.036	-0.060
-384.990	-87.625	-0.201	0.061
-383.975	-96.785	-0.236	-0.062
-382.960	194.237	-0.121	-0.182
-381.946	-56.335	0.319	-0.141
-380.931	-96.476	-0.299	0.079
-379.917	-120.541	-0.575	-0.097
-378.902	126.722	0.048	0.060
-377.888	430.224	0.086	-0.184
-376.873	169.657	0.057	0.080
-375.858	-169.738	-0.149	-0.005
-374.844	-200.000	0.024	0.388
-373.829	1.364	0.317	0.227
-372.815	-200.000	-0.009	-0.083
-371.800	-168.859	-0.449	-0.017
-370.785	800.000	-0.077	0.211
-369.771	687.386	0.072	-0.187
-368.756	-200.000	-0.028	-0.252
-367.742	238.429	-0.088	0.146
-366.727	-47.213	-0.281	-0.136
-365.712	65.272	0.158	0.159
-364.698	-200.000	0.012	0.078
-363.683	-200.000	-0.001	-0.242
-362.669	97.613	-0.080	-0.091
-361.654	-1.894	0.111	-0.078
-360.639	88.011	-0.012	0.013
-359.625	-32.012	-0.210	0.117
-358.610	800.000	-0.061	-0.229
-357.596	-28.549	-0.217	0.124
-356.581	-99.268	-0.314	0.079
-355.566	-170.651	0.225	-0.008
-354.552	238.718	-0.025	-0.041
-353.537	164.905	0.190	0.266
-352.523	-59.569	0.156	0.067
-351.508	-200.000	0.009	0.135
-350.493	-114.169	-0.648	-0.124
-349.479	-29.212	0.075	-0.043
-348.464	-67.994	0.302	0.117
-347.450	-200.000	-0.025	0.304
-346.435	-111.697	-0.195	-0.039
-345.420	139.063	0.103	0.135
-344.406	43.825	-0.233	-0.212
-343.391	800.000	0.066	-0.222
-342.377	-200.000	-0.012	0.203
-341.362	-200.000	-0.044	0.233
-340.348	211.531	-0.077	-0.120
-339.333	-200.000	0.043	0.194
-338.318	800.000	0.031	0.107
-337.304	-162.825	0.186	0.009
-336.289	-107.316	-0.199	-0.044
-335.275	-200.000	-0.014	-0.119
-334.260	-75.647	-0.180	-0.064
-333.245	-76.060	-0.218	-0.076
-332.231	54.130	-0.155	-0.148
-331.216	-143.767	0.227	0.021
-330.202	126.715	-0.107	-0.135
-329.187	139.652	0.053	-0.069
-328.172	-200.000	0.008	0.180
-327.158	-200.000	-0.000	0.108
-326.143	-200.000	-0.084	-0.407
-325.129	-103.447	0.410	0.096
-324.114	777.131	-0.093	-0.252
-323.099	-79.809	0.108	0.036
-322.085	-48.474	0.333	0.159
-321.070	93.769	-0.141	0.159
-320.056	281.215	0.041	-0.072
-319.041	-200.000	0.002	0.190
-318.026	-200.000	0.033	0.424
-317.012	329.871	-0.063	0.120
-315.997	-94.538	-0.220	-0.059
-314.983	-73.767	-0.169	-0.061
-313.968	-159.319	0.430	-0.024
-312.953	233.570	-0.129	0.210
-311.939	-70.307	0.280	0.106
-310.924	-178.940	-0.087	-0.002
-309.910	-145.079	0.293	-0.026
-308.895	551.418	-0.016	0.038
-307.880	79.085	0.113	0.120
-306.866	57.085	0.113	-0.109
-305.851	-83.194	0.113	0.036
-304.837	-6.200	-0.191	0.129
-303.822	-35.214	0.125	0.067
-302.807	342.151	-0.100	0.194
-301.793	161.233	0.079	-0.109
-300.778	-172.315	0.197	-0.006
-299.764	-200.000	0.015	0.304
-298.749	87.369	-0.082	0.090
-297.735	-0.242	-0.211	0.149
-296.720	-13.239	-0.171	0.110
-295.705	-84.571	0.062	0.019
-294.691	800.000	-0.059	0.207
-293.676	800.000	0.053	-0.178
-292.662	800.000	-0.075	-0.256
-291.647	369.859	0.137	0.274
-290.632	-50.911	0.101	-0.047
-289.618	800.000	-0.065	0.263
-288.603	161.616	0.033	-0.046
-287.589	749.954	0.076	0.204
-286.574	387.298	-0.127	0.260
-285.559	-200.000	0.035	0.166
-284.545	110.422	0.138	-0.165
-283.530	4.260	0.184	-0.133
-282.516	33.614	0.418	0.360
-281.501	451.654	0.136	0.297
-280.486	725.633	-0.074	-0.196
-279.472	-200.000	-0.028	0.275
-278.457	-114.373	-0.278	0.053
-277.443	-200.000	-0.042	-0.325
-276.428	97.865	0.143	0.163
-275.413	800.000	0.022	-0.094
-274.399	50.153	0.267	-0.249
-273.384	-99.496	0.147	0.037
-272.370	610.182	0.140	-0.347
-271.355	-34.280	-0.076	-0.041
-270.340	-200.000	-0.041	-0.434
-269.326	-14.516	-0.255	-0.163
-268.311	-111.063	-0.145	-0.029
-267.297	-25.279	0.085	-0.050
-266.282	-20.581	-0.258	-0.157
-265.267	71.939	0.247	0.255
-264.253	-43.940	-0.065	-0.032
-263.238	-109.601	0.090	-0.019
-262.224	255.952	-0.112	0.190
-261.209	-162.874	0.172	0.008
-260.195	-200.000	0.005	0.220
-259.180	49.856	-0.168	0.157
-258.165	124.173	0.176	0.219
-257.151	47.585	0.282	0.260
-256.136	-18.091	-0.131	0.081
-255.122	35.989	0.208	0.181
-254.107	-89.566	0.171	0.050
-253.092	118.589	-0.154	-0.188
-252.078	600.584	-0.102	-0.252
-251.063	-200.000	-0.023	0.158
-250.049	-200.000	-0.017	-0.253
-249.034	29.885	0.278	-0.234
-248.019	-135.844	-0.082	0.010
-247.005	177.025	0.121	0.174
-245.990	-65.374	0.486	0.193
-244.976	-200.000	0.009	-0.102
-243.961	-51.868	0.444	0.204
-242.946	-154.447	0.309	-0.021
-241.932	391.820	0.125	-0.257
-240.917	-171.361	0.324	-0.011
-239.903	-42.470	-0.337	-0.170
-238.888	456.633	-0.017	0.037
-237.873	800.000	-0.108	0.338
-236.859	-200.000	-0.067	-0.299
-235.844	-58.226	-0.180	0.078
-234.830	-15.271	-0.141	0.089
-233.815	800.000	0.073	0.277
-232.800	-31.642	0.268	0.149
-231.786	-100.588	0.115	-0.028
-230.771	800.000	0.148	-0.443
-229.757	-200.000	0.008	-0.207
-228.742	113.624	0.152	-0.182
-227.727	-189.335	-0.117	-0.001
-226.713	-117.783	0.375	0.067
-225.698	-100.628	-0.118	0.029
-224.684	-166.631	0.171	-0.007
-223.669	-131.487	-0.298	0.039
-222.655	800.000	-0.029	-0.118
-221.640	-22.176	-0.320	-0.192
-220.625	22.235	0.294	-0.237
-219.611	175.124	0.074	-0.106
-218.596	-112.920	0.281	-0.055
-217.582	-200.000	0.018	-0.448
-216.567	-200.000	0.041	0.299
-215.552	-52.242	-0.046	-0.021
-214.538	-127.088	-0.047	-0.007
-213.523	-106.344	-0.373	-0.083
-212.509	-200.000	0.089	-0.415
-211.494	66.058	-0.095	0.096
-210.479	-111.350	0.210	0.042
-209.465	800.000	0.076	0.237
-208.450	-200.000	0.042	-0.276
-207.436	541.787	0.062	-0.146
-206.421	33.089	-0.238	-0.203
-205.406	479.564	0.047	-0.106
-204.392	800.000	-0.064	-0.192
-203.377	800.000	-0.126	0.372
-202.363	535.099	0.215	0.503
-201.348	-56.089	0.142	0.062
-200.333	-2.462	-0.224	0.155
-199.319	269.684	-0.233	0.404
-198.304	-22.340	-0.071	0.043
-197.290	-178.990	0.366	0.008
-196.275	-53.527	0.303	0.137
-195.260	-126.704	-0.097	0.014
-194.246	-200.000	0.004	0.476
-193.231	228.805	0.024	0.039
-192.217	164.850	0.117	0.164
-191.202	-200.000	0.067	-0.408
-190.187	-200.000	-0.050	-0.312
-189.173	-10.662	0.158	0.103
-188.158	120.838	0.074	-0.091
-187.144	66.028	-0.153	0.154
-186.129	162.651	-0.139	0.193
-185.114	-140.404	0.043	0.004
-184.100	99.956	-0.096	0.109
-183.085	-183.880	-0.195	0.003
-182.071	-200.000	-0.032	-0.207
-181.056	-9.103	-0.142	-0.094
-180.042	34.718	-0.150	0.129
-179.027	-17.900	-0.237	0.147
-178.012	299.964	-0.165	-0.300
-176.998	554.820	0.038	-0.091
-175.983	800.000	-0.061	0.199
-174.969	-87.575	0.266	0.079
-173.954	-135.724	-0.255	0.030
-172.939	131.495	-0.186	0.236
-171.925	800.000	-0.025	0.097
-170.910	-83.780	-0.097	0.030
-169.896	16.167	-0.254	0.198
-168.881	-36.430	0.182	-0.097
-167.866	-172.626	0.520	0.016
-166.852	800.000	0.114	-0.347
-165.837	169.550	0.230	0.324
-164.823	161.360	-0.171	0.236
-163.808	77.131	0.104	-0.109
-162.793	-128.808	-0.193	0.027
-161.779	-78.075	0.175	0.059
-160.764	117.022	-0.152	-0.184
-159.750	-83.905	-0.039	-0.012
-158.735	-157.719	0.043	-0.003
-157.720	3.661	-0.267	0.192
-156.706	100.568	-0.195	0.223
-155.691	106.335	0.082	-0.096
-154.677	-158.714	0.412	0.023
-153.662	-200.000	0.018	0.432
-152.647	615.267	-0.007	-0.018
-151.633	585.630	0.146	-0.353
-150.618	132.355	-0.076	0.096
-149.604	-59.548	0.299	-0.127
-148.589	800.000	0.009	0.038
-147.574	-200.000	0.027	-0.161
-146.560	-200.000	0.020	-0.287
-145.545	-31.700	0.479	0.265
-144.531	-9.037	-0.157	-0.104
-143.516	-200.000	0.020	-0.171
-142.502	-18.667	-0.149	0.092
-141.487	-72.613	-0.356	0.130
-140.472	800.000	-0.034	-0.127
-139.458	91.211	0.134	-0.148
-138.443	-48.905	0.265	-0.125
-137.429	87.991	0.254	-0.278
-136.414	219.150	-0.150	0.237
-135.399	48.233	0.143	0.132
-134.385	6.803	0.082	-0.060
-133.370	800.000	0.051	0.143
-132.356	-200.000	0.002	-0.122
-131.341	-75.043	-0.178	-0.063
-130.326	-170.961	0.370	0.012
-129.312	712.879	0.108	-0.281
-128.297	-174.074	0.268	-0.008
-127.283	201.460	-0.180	-0.274
-126.268	-139.080	0.105	-0.011
-125.253	-20.779	0.201	0.122
-124.239	8.830	-0.222	0.165
-123.224	-200.000	0.012	0.180
-122.210	-13.282	-0.131	0.084
