DTS Sentinel unit serial number:	SN413079Multiplexer serial number:	ORYXHardware model number:	OX4-SRSoftware version number:	ORYX F/W v4.00 Oryx Data Collector v3.7.2.0data status	okinstallation	princeton_trtdifferential loss correction	single-endedforward channel	channel 2reverse channel	N/Adate	2019/09/13time	02:11:34forward acquisition time	60.00reverse acquisition time	0.00gamma	496.2192k internal	0.2334k external	0.2334temperature offset calibration	1.0183default loss term (dB/km)	0.3790temperature slope calibration	1.0000multiplexer offset coefficient	1.0000multiplexer slope coefficient	1.0000fibre end	0.00T internal ref (°C)	27.56T ext. ref 1 (°C)	3.90T ext. ref 2 (°C)	22.30length (m)	temperature (°C)	Stokes	anti-Stokes-747.200	438.128	-0.147	0.323
-746.185	-74.069	0.239	0.087
-745.171	-37.107	-0.084	-0.045
-744.156	800.000	-0.031	-0.121
-743.142	-58.634	-0.272	0.118
-742.127	342.326	0.174	0.342
-741.112	800.000	0.058	-0.251
-740.098	-200.000	-0.004	0.103
-739.083	-135.614	0.155	0.019
-738.069	203.599	-0.212	0.330
-737.054	-94.324	-0.259	-0.071
-736.039	-148.510	0.023	0.002
-735.025	265.006	0.137	-0.240
-734.010	-124.703	-0.334	0.052
-732.996	498.964	-0.230	-0.534
-731.981	-101.033	-0.041	-0.010
-730.966	-45.927	0.208	0.103
-729.952	-131.254	0.030	-0.004
-728.937	-22.414	-0.084	0.051
-727.923	-51.886	-0.051	0.024
-726.908	-52.389	-0.177	0.082
-725.894	-43.061	0.235	-0.120
-724.879	-125.215	-0.285	0.044
-723.864	-34.131	-0.197	-0.109
-722.850	-90.890	-0.138	0.040
-721.835	-200.000	0.019	-0.168
-720.821	35.280	0.254	-0.224
-719.806	-158.306	-0.154	0.009
-718.791	335.980	0.056	0.110
-717.777	62.999	-0.079	-0.079
-716.762	477.964	0.099	-0.225
-715.748	-111.568	0.403	0.082
-714.733	-200.000	0.027	-0.136
-713.718	92.038	0.134	-0.152
-712.704	-200.000	-0.002	0.135
-711.689	129.489	-0.089	-0.114
-710.675	102.249	-0.311	0.365
-709.660	-58.777	0.435	0.189
-708.645	-200.000	0.015	-0.267
-707.631	168.390	0.124	-0.177
-706.616	10.891	0.088	0.067
-705.602	48.254	0.141	0.132
-704.587	29.782	-0.079	-0.067
-703.572	220.665	0.207	-0.333
-702.558	779.689	-0.019	-0.053
-701.543	-186.759	-0.122	0.002
-700.529	61.640	0.105	0.105
-699.514	-0.908	0.239	-0.170
-698.499	598.621	0.060	-0.149
-697.485	-20.212	-0.263	-0.162
-696.470	218.267	0.055	-0.088
-695.456	-200.000	0.002	-0.336
-694.441	800.000	-0.093	-0.260
-693.426	128.667	0.056	-0.072
-692.412	-190.873	-0.292	0.003
-691.397	431.264	0.031	0.067
-690.383	242.747	-0.035	0.060
-689.368	-59.565	0.032	0.014
-688.354	180.309	-0.134	0.197
-687.339	-125.697	-0.228	0.035
-686.324	-200.000	0.018	0.091
-685.310	109.522	0.088	0.105
-684.295	-175.040	0.431	-0.012
-683.281	-200.000	0.019	0.465
-682.266	-82.048	0.270	0.089
-681.251	375.867	0.009	0.018
-680.237	-200.000	0.001	0.029
-679.222	4.303	0.237	-0.174
-678.208	-200.000	0.004	-0.242
-677.193	74.071	0.165	0.174
-676.178	63.814	-0.134	0.135
-675.164	-43.746	-0.174	0.088
-674.149	-13.234	0.091	0.059
-673.135	371.523	-0.124	0.252
-672.120	800.000	0.043	0.127
-671.105	800.000	-0.047	-0.199
-670.091	-200.000	0.037	-0.358
-669.076	592.511	0.088	0.217
-668.062	60.665	-0.237	-0.236
-667.047	-200.000	0.030	0.143
-666.032	800.000	-0.051	-0.151
-665.018	-53.142	0.157	0.072
-664.003	-118.749	-0.052	-0.009
-662.989	-153.336	0.311	-0.022
-661.974	-95.638	0.256	0.069
-660.959	-186.969	-0.049	0.001
-659.945	-200.000	0.017	-0.170
-658.930	-200.000	0.006	-0.106
-657.916	800.000	0.117	0.345
-656.901	66.688	-0.092	-0.093
-655.886	-30.493	0.121	0.069
-654.872	73.705	0.311	0.327
-653.857	-200.000	0.027	0.123
-652.843	-136.410	-0.171	0.020
-651.828	207.132	-0.186	0.291
-650.814	544.406	-0.129	-0.307
-649.799	-73.872	-0.117	0.043
-648.784	-200.000	-0.033	-0.290
-647.770	-200.000	-0.035	-0.263
-646.755	800.000	0.007	-0.025
-645.741	78.410	-0.247	-0.264
-644.726	-107.410	-0.376	0.083
-643.711	-119.726	-0.270	-0.047
-642.697	-2.281	0.151	-0.106
-641.682	-67.366	-0.124	0.049
-640.668	800.000	0.068	-0.227
-639.653	-79.439	-0.213	-0.072
-638.638	37.941	-0.186	-0.166
-637.624	78.001	-0.047	0.051
-636.609	800.000	-0.053	-0.154
-635.595	-21.959	0.350	-0.213
-634.580	113.460	0.024	-0.029
-633.565	-200.000	-0.036	0.353
-632.551	-117.212	-0.211	-0.038
-631.536	57.178	-0.225	-0.220
-630.522	548.438	0.078	0.188
-629.507	747.605	-0.038	0.101
-628.492	-48.991	-0.216	-0.104
-627.478	-107.780	-0.217	-0.047
-626.463	515.622	-0.042	0.097
-625.449	-200.000	0.053	-0.276
-624.434	77.471	0.046	-0.049
-623.419	208.429	-0.093	-0.146
-622.405	800.000	-0.071	0.251
-621.390	56.885	0.254	-0.248
-620.376	-200.000	-0.028	-0.264
-619.361	450.196	-0.236	-0.521
-618.346	552.283	0.079	-0.191
-617.332	-200.000	0.005	0.085
-616.317	-5.934	-0.090	-0.062
-615.303	-79.486	0.157	-0.053
-614.288	-200.000	0.049	-0.375
-613.273	-200.000	-0.002	0.261
-612.259	-78.846	0.340	0.116
-611.244	800.000	-0.076	0.327
-610.230	-76.356	0.371	-0.130
-609.215	800.000	0.029	-0.099
-608.201	112.868	-0.057	0.069
-607.186	323.310	-0.112	0.214
-606.171	16.264	-0.063	0.050
-605.157	-108.217	-0.132	0.028
-604.142	264.770	-0.297	-0.518
-603.128	-200.000	0.018	-0.189
-602.113	-200.000	-0.017	0.158
-601.098	-21.150	-0.146	0.089
-600.084	-146.050	-0.258	-0.023
-599.069	57.590	0.138	-0.135
-598.055	-126.402	0.154	0.023
-597.040	-88.616	0.256	-0.076
-596.025	74.099	0.273	-0.286
-595.011	-7.763	0.089	0.060
-593.996	2.757	-0.215	-0.156
-592.982	-80.988	-0.248	0.082
-591.967	-200.000	-0.379	-0.001
-590.952	-106.952	0.089	0.020
-589.938	-200.000	0.034	-0.370
-588.923	-53.040	0.409	-0.188
-587.909	526.395	-0.075	-0.177
-586.894	800.000	0.075	0.214
-585.879	-100.459	0.042	0.010
-584.865	-129.658	-0.128	0.018
-583.850	-100.401	-0.197	0.049
-582.836	-56.013	0.342	-0.152
-581.821	-1.995	0.146	-0.102
-580.806	800.000	0.064	-0.250
-579.792	-32.148	-0.083	-0.046
-578.777	27.858	0.189	-0.159
-577.763	578.600	0.123	-0.300
-576.748	33.144	-0.101	0.087
-575.733	386.100	0.057	0.118
-574.719	-199.393	-0.420	0.002
-573.704	-134.235	0.290	0.036
-572.690	800.000	0.073	0.213
-571.675	-84.316	0.243	-0.077
-570.661	-90.270	-0.167	0.048
-569.646	-38.172	-0.148	0.078
-568.631	-200.000	-0.099	-0.000
-567.617	-1.043	0.336	-0.237
-566.602	16.180	0.254	0.200
-565.588	-200.000	0.027	-0.178
-564.573	81.749	-0.164	-0.177
-563.558	320.978	-0.061	-0.117
-562.544	-5.594	-0.220	0.151
-561.529	-59.916	0.102	0.044
-560.515	-178.600	-0.238	0.005
-559.500	-64.964	0.257	0.104
-558.485	171.484	0.094	-0.135
-557.471	-104.831	0.254	-0.058
-556.456	-200.000	0.065	0.307
-555.442	-10.405	0.104	0.069
-554.427	-5.730	-0.234	-0.160
-553.412	-131.589	0.176	-0.023
-552.398	-120.789	-0.205	-0.034
-551.383	-64.494	-0.398	0.161
-550.369	170.432	0.076	0.108
-549.354	-17.902	-0.040	0.025
-548.339	-92.474	0.363	-0.102
-547.325	-200.000	-0.034	0.264
-546.310	18.767	-0.099	-0.079
-545.296	-117.152	-0.125	0.023
-544.281	82.867	-0.038	0.041
-543.266	-30.947	-0.313	-0.177
-542.252	92.160	-0.231	-0.259
-541.237	52.054	-0.208	0.197
-540.223	385.456	0.173	0.356
-539.208	7.557	0.196	-0.146
-538.193	-200.000	-0.065	0.309
-537.179	-40.772	0.352	0.182
-536.164	-58.119	0.288	0.125
-535.150	-67.997	0.270	0.105
-534.135	63.218	0.322	0.322
-533.121	-200.000	-0.001	-0.032
-532.106	84.914	0.076	-0.083
-531.091	39.824	0.198	0.177
-530.077	800.000	0.062	-0.204
-529.062	36.872	-0.019	-0.017
-528.048	-146.596	-0.286	-0.025
-527.033	4.221	0.048	0.035
-526.018	19.671	0.099	-0.079
-525.004	-200.000	-0.020	0.107
-523.989	72.680	-0.108	-0.112
-522.975	800.000	-0.073	-0.218
-521.960	455.322	-0.112	-0.248
-520.945	310.549	0.149	-0.277
-519.931	800.000	-0.028	0.083
-518.916	242.943	0.185	-0.309
-517.902	307.553	0.141	0.262
-516.887	800.000	-0.047	-0.144
-515.872	-180.238	-0.398	-0.008
-514.858	-200.000	0.005	-0.112
-513.843	768.485	0.039	0.105
-512.829	-53.807	0.225	0.102
-511.814	238.971	0.082	-0.135
-510.799	-118.894	-0.243	0.043
-509.785	800.000	0.113	0.392
-508.770	-74.604	-0.311	0.112
-507.756	-200.000	-0.007	-0.143
-506.741	800.000	-0.101	-0.419
-505.726	800.000	0.136	-0.559
-504.712	57.156	-0.264	-0.257
-503.697	5.781	0.391	-0.288
-502.683	502.640	0.107	-0.245
-501.668	36.795	-0.210	-0.185
-500.653	-200.000	0.003	-0.189
-499.639	-200.000	-0.006	-0.136
-498.624	-40.659	0.176	-0.091
-497.610	-176.605	-0.071	-0.002
-496.595	800.000	0.064	-0.256
-495.581	800.000	0.052	0.148
-494.566	70.157	-0.219	0.226
-493.551	800.000	-0.007	-0.032
-492.537	-46.980	-0.221	0.107
-491.522	265.151	-0.097	-0.168
-490.508	63.384	-0.091	-0.091
-489.493	344.212	-0.187	0.365
-488.478	-200.000	0.006	0.388
-487.464	16.173	-0.227	-0.178
-486.449	37.270	0.104	0.091
-485.435	227.413	-0.061	-0.099
-484.420	800.000	-0.104	0.319
-483.405	535.186	0.142	0.334
-482.391	800.000	0.057	0.190
-481.376	31.060	0.124	0.106
-480.362	16.305	-0.166	-0.131
-479.347	-200.000	-0.039	0.221
-478.332	-200.000	0.039	0.175
-477.318	254.745	-0.231	0.393
-476.303	-29.445	0.209	-0.119
-475.289	-200.000	0.020	-0.317
-474.274	800.000	-0.079	0.235
-473.259	-45.226	0.142	-0.070
-472.245	40.743	-0.437	0.392
-471.230	12.499	-0.421	-0.323
-470.216	192.022	-0.185	0.277
-469.201	-81.987	0.220	-0.072
-468.186	-200.000	-0.005	0.057
-467.172	-50.647	0.207	-0.097
-466.157	-200.000	0.031	0.381
-465.143	359.290	0.033	0.065
-464.128	-128.060	0.011	0.002
-463.113	-145.123	0.361	0.033
-462.099	31.506	0.159	-0.136
-461.084	-111.020	-0.057	0.012
-460.070	800.000	-0.074	0.229
-459.055	800.000	-0.080	-0.310
-458.040	55.443	-0.207	-0.199
-457.026	37.435	-0.144	-0.127
-456.011	540.181	-0.074	0.176
-454.997	253.462	-0.108	0.183
-453.982	272.161	-0.180	0.315
-452.968	373.944	0.114	0.231
-451.953	-200.000	0.122	-0.555
-450.938	199.550	-0.048	-0.074
-449.924	-48.078	-0.281	0.135
-448.909	-74.982	0.030	-0.011
-447.895	231.389	-0.046	0.075
-446.880	349.784	0.102	0.201
-445.865	-159.328	0.228	0.013
-444.851	117.350	-0.170	-0.208
-443.836	-200.000	0.012	0.111
-442.822	-122.530	0.145	0.023
-441.807	-90.916	-0.095	-0.027
-440.792	38.855	-0.117	0.104
-439.778	-60.451	-0.237	0.100
-438.763	-200.000	0.037	0.292
-437.749	194.578	0.040	-0.060
-436.734	646.219	-0.046	0.116
-435.719	800.000	-0.009	0.025
-434.705	-149.455	-0.293	0.023
-433.690	496.097	0.073	-0.167
-432.676	-174.286	-0.314	0.009
-431.661	-62.808	-0.074	-0.030
-430.646	-46.814	-0.045	0.022
-429.632	280.813	-0.044	-0.077
-428.617	800.000	-0.020	-0.085
-427.603	-200.000	-0.067	0.334
-426.588	214.897	0.258	-0.406
-425.573	-65.067	-0.173	-0.069
-424.559	-153.600	0.507	-0.035
-423.544	234.145	-0.233	0.381
-422.530	-143.192	0.050	-0.005
-421.515	188.237	-0.216	-0.320
-420.500	800.000	-0.023	-0.086
-419.486	-200.000	-0.200	0.000
-418.471	-90.720	-0.139	-0.040
-417.457	-143.791	0.222	0.021
-416.442	800.000	0.046	0.199
-415.428	466.736	-0.097	0.215
-414.413	217.027	0.133	-0.210
-413.398	-200.000	-0.028	-0.245
-412.384	415.960	0.233	0.494
-411.369	-43.408	-0.333	-0.167
-410.355	800.000	-0.136	0.372
-409.340	-200.000	-0.020	0.119
-408.325	-176.082	-0.080	-0.002
-407.311	335.652	-0.089	-0.171
-406.296	-113.308	-0.357	0.070
-405.282	-126.022	-0.429	0.064
-404.267	-29.484	0.092	-0.052
-403.252	-23.662	-0.081	0.048
-402.238	85.112	-0.143	0.156
-401.223	336.196	0.135	-0.260
-400.209	-167.849	0.126	-0.005
-399.194	134.136	0.050	0.064
-398.179	-106.984	0.158	-0.035
-397.165	-55.825	0.277	0.123
-396.150	-200.000	-0.011	0.053
-395.136	-172.033	-0.418	0.013
-394.121	-117.764	-0.209	0.037
-393.106	800.000	0.096	0.308
-392.092	-45.994	0.249	-0.122
-391.077	-200.000	0.031	0.288
-390.063	-200.000	-0.473	0.001
-389.048	-158.935	0.465	0.026
-388.033	-20.666	-0.224	0.137
-387.019	56.842	0.048	-0.046
-386.004	-200.000	-0.004	-0.390
-384.990	121.694	0.112	-0.138
-383.975	-22.575	-0.217	0.130
-382.960	73.196	0.066	0.068
-381.946	-38.541	0.006	0.003
-380.931	-26.834	-0.196	0.113
-379.917	-117.948	-0.281	-0.050
-378.902	-63.872	0.220	0.089
-377.888	215.659	-0.134	-0.210
-376.873	107.898	0.135	0.159
-375.858	-6.411	-0.139	0.094
-374.844	-6.530	-0.182	0.123
-373.829	-200.000	0.031	0.144
-372.815	-58.509	0.270	0.116
-371.800	800.000	0.076	0.274
-370.785	-200.000	0.024	-0.312
-369.771	477.007	0.101	0.226
-368.756	-113.827	-0.157	-0.030
-367.742	-71.938	0.150	0.055
-366.727	261.897	-0.057	-0.098
-365.712	-39.851	0.200	-0.104
-364.698	-200.000	0.002	-0.154
-363.683	-166.253	-0.187	0.008
-362.669	169.042	0.150	-0.212
-361.654	-126.987	0.199	0.029
-360.639	45.423	0.265	-0.242
-359.625	-90.309	-0.307	0.088
-358.610	-4.224	0.211	0.144
-357.596	402.053	0.180	0.374
-356.581	25.959	-0.103	0.085
-355.566	62.588	0.092	-0.091
-354.552	-15.937	0.094	-0.059
-353.537	800.000	0.045	-0.172
-352.523	-57.259	-0.344	0.150
-351.508	57.634	-0.151	-0.146
-350.493	343.345	0.093	0.181
-349.479	-74.078	0.426	-0.153
-348.464	-171.322	0.128	0.004
-347.450	-14.837	-0.155	0.098
-346.435	800.000	-0.049	-0.146
-345.420	-200.000	0.012	0.113
-344.406	800.000	-0.024	0.087
-343.391	-47.970	-0.222	-0.106
-342.377	694.889	-0.018	-0.048
-341.362	59.427	-0.121	0.118
-340.348	137.813	0.111	0.144
-339.333	-171.501	0.267	-0.009
-338.318	-200.000	0.129	0.000
-337.304	-98.591	0.056	-0.014
-336.289	-153.487	0.191	-0.013
-335.275	49.748	0.279	-0.260
-334.260	-200.000	0.019	-0.401
-333.245	71.941	-0.199	-0.205
-332.231	-109.518	0.283	-0.059
-331.216	-42.358	0.139	0.070
-330.202	-149.015	-0.109	0.009
-329.187	285.171	0.111	0.198
-328.172	545.369	-0.060	-0.142
-327.158	261.575	0.050	-0.085
-326.143	204.653	-0.075	-0.115
-325.129	-200.000	0.022	-0.188
-324.114	336.591	0.031	-0.059
-323.099	-139.341	0.451	-0.048
-322.085	7.814	0.188	0.139
-321.070	52.293	-0.070	-0.066
-320.056	-172.226	0.119	-0.004
-319.041	350.501	-0.106	-0.207
-318.026	-95.037	-0.195	-0.052
-317.012	-200.000	0.020	-0.150
-315.997	-200.000	-0.044	-0.231
-314.983	547.404	-0.201	-0.475
-313.968	-88.631	-0.216	0.063
-312.953	13.447	-0.077	0.059
-311.939	-108.957	0.387	0.082
-310.924	78.357	-0.170	0.180
-309.910	148.501	0.144	0.192
-308.895	16.623	-0.129	-0.101
-307.880	-200.000	-0.078	0.532
-306.866	526.530	0.133	0.309
-305.851	244.726	-0.194	-0.322
-304.837	-112.810	0.239	-0.047
-303.822	132.443	-0.091	0.115
-302.807	-15.739	0.323	-0.203
-301.793	68.285	0.287	0.290
-300.778	-141.994	-0.253	-0.025
-299.764	-15.122	0.205	0.129
-298.749	-141.553	-0.171	-0.017
-297.735	8.868	0.322	0.240
-296.720	200.186	0.136	-0.206
-295.705	800.000	-0.079	-0.273
-294.691	-108.380	-0.169	0.036
-293.676	564.363	-0.092	-0.220
-292.662	80.735	-0.231	0.246
-291.647	-119.607	-0.300	-0.051
-290.632	-40.243	0.160	0.082
-289.618	68.270	0.067	0.068
-288.603	800.000	0.051	-0.170
-287.589	-200.000	-0.004	0.143
-286.574	-59.350	0.135	0.057
-285.559	800.000	-0.111	0.307
-284.545	25.300	-0.241	-0.198
-283.530	-125.780	0.217	0.032
-282.516	-184.563	0.036	0.001
-281.501	51.215	-0.028	0.026
-280.486	360.837	0.083	0.164
-279.472	-200.000	0.042	0.214
-278.457	114.018	0.254	0.305
-277.443	41.169	-0.100	0.089
-276.428	-97.841	0.121	0.031
-275.413	126.582	0.081	0.101
-274.399	10.607	-0.222	-0.167
-273.384	25.484	0.022	-0.018
-272.370	-54.232	-0.273	-0.122
-271.355	-111.663	0.330	-0.066
-270.340	738.732	0.069	0.182
-269.326	62.014	-0.155	-0.152
-268.311	195.835	0.130	-0.194
-267.297	-200.000	0.050	-0.298
-266.282	41.249	-0.176	0.157
-265.267	-113.736	0.143	0.028
-264.253	-200.000	0.041	0.377
-263.238	186.127	0.216	-0.316
-262.224	-146.176	0.134	-0.012
-261.209	-92.526	0.294	-0.081
-260.195	-200.000	0.024	0.149
-259.180	105.732	-0.191	-0.222
-258.165	-200.000	0.019	-0.193
-257.151	-200.000	-0.064	0.286
-256.136	800.000	-0.008	0.036
-255.122	800.000	-0.040	0.116
-254.107	-33.285	-0.340	-0.185
-253.092	-65.102	-0.191	-0.076
-252.078	70.849	0.177	0.181
-251.063	-0.518	0.259	0.181
-250.049	-70.188	0.275	0.103
-249.034	-74.755	0.092	-0.033
-248.019	263.309	-0.067	-0.114
-247.005	-146.198	0.090	-0.008
-245.990	355.082	0.069	-0.135
-244.976	-143.547	0.076	-0.007
-243.961	-96.307	-0.124	0.032
-242.946	5.985	0.161	0.117
-241.932	-87.493	-0.059	-0.018
-240.917	36.891	0.198	0.173
-239.903	-118.676	0.255	0.044
-238.888	91.661	0.096	0.107
-237.873	800.000	0.102	0.280
-236.859	-109.736	-0.244	0.051
-235.844	-200.000	-0.025	0.167
-234.830	-78.326	-0.034	0.012
-233.815	25.582	0.207	0.169
-232.800	366.415	0.141	0.281
-231.786	-200.000	0.012	0.263
-230.771	-64.108	-0.028	-0.011
-229.757	-164.840	0.110	0.005
-228.742	-200.000	-0.007	0.221
-227.727	255.473	-0.042	0.071
-226.713	-23.597	-0.197	0.117
-225.698	144.745	0.112	0.148
-224.684	-200.000	-0.001	-0.270
-223.669	-200.000	-0.021	-0.241
-222.655	-200.000	0.020	0.214
-221.640	-200.000	0.034	-0.228
-220.625	-86.832	0.193	0.058
-219.611	800.000	0.098	-0.319
-218.596	-200.000	-0.016	-0.088
-217.582	-109.276	0.095	0.020
-216.567	-8.088	-0.209	0.139
-215.552	-81.470	-0.142	-0.046
-214.538	-200.000	0.024	0.270
-213.523	-66.987	0.327	0.127
-212.509	800.000	0.041	-0.119
-211.494	-156.217	0.144	-0.009
-210.479	445.407	0.116	0.251
-209.465	-87.282	-0.244	0.073
-208.450	591.346	-0.094	0.228
-207.436	119.187	-0.218	-0.266
-206.421	354.648	-0.108	-0.211
-205.406	-135.710	-0.247	-0.029
-204.392	800.000	0.052	-0.221
-203.377	-157.989	0.278	0.016
-202.363	375.874	-0.047	-0.094
-201.348	71.955	-0.169	-0.172
-200.333	-200.000	0.042	-0.381
-199.319	-200.000	0.013	-0.423
-198.304	-80.807	0.114	-0.037
-197.290	-119.458	0.382	0.065
-196.275	800.000	-0.003	-0.008
-195.260	800.000	0.038	-0.117
-194.246	-200.000	-0.008	0.064
-193.231	-200.000	0.087	0.667
-192.217	-200.000	0.014	0.505
-191.202	431.255	-0.129	0.274
-190.187	-2.922	-0.133	0.091
-189.173	15.258	-0.276	0.213
-188.158	575.961	0.114	0.273
-187.144	-54.528	0.220	0.098
-186.129	-200.000	-0.012	-0.212
-185.114	-13.964	0.309	0.196
-184.100	91.051	-0.247	0.273
-183.085	-85.681	0.062	-0.019
-182.071	800.000	0.083	-0.252
-181.056	-200.000	-0.041	0.251
-180.042	107.204	-0.169	-0.197
-179.027	-28.850	0.158	0.089
-178.012	302.555	-0.326	-0.592
-176.998	-147.481	-0.097	-0.008
-175.983	-200.000	-0.039	0.187
-174.969	-121.330	-0.184	0.030
-173.954	88.780	-0.067	-0.073
-172.939	195.890	-0.067	-0.100
-171.925	-101.125	-0.059	-0.014
-170.910	15.547	-0.087	0.067
-169.896	-114.231	0.131	-0.025
-168.881	-200.000	0.026	0.132
-167.866	-140.986	0.211	-0.021
-166.852	-200.000	-0.006	-0.093
-165.837	681.458	-0.099	-0.252
-164.823	-126.992	0.111	0.016
-163.808	-45.516	0.258	0.126
-162.793	215.308	-0.068	-0.105
-161.779	-64.430	-0.323	0.129
-160.764	-159.813	0.217	-0.012
-159.750	42.258	-0.221	0.197
-158.735	-200.000	0.004	-0.233
-157.720	-89.470	0.371	0.107
-156.706	264.596	-0.084	0.143
-155.691	99.659	0.116	0.132
-154.677	800.000	0.040	-0.161
-153.662	154.943	0.050	0.067
-152.647	-57.335	0.198	-0.086
-151.633	-77.032	-0.128	0.044
-150.618	325.007	-0.062	0.117
-149.604	-102.014	0.132	-0.031
-148.589	-76.773	0.131	0.045
-147.574	76.688	-0.153	-0.159
-146.560	461.742	0.106	0.231
-145.545	800.000	0.091	0.284
-144.531	-149.678	-0.188	0.015
-143.516	-100.024	0.157	-0.038
-142.502	652.282	-0.061	0.154
-141.487	31.489	-0.070	-0.059
-140.472	-38.347	0.340	-0.177
-139.458	-175.979	-0.127	-0.003
-138.443	800.000	0.129	0.350
-137.429	-57.177	-0.421	0.182
-136.414	59.627	0.177	0.171
-135.399	-107.846	-0.168	0.036
-134.385	-200.000	-0.021	-0.257
-133.370	-73.906	0.222	0.079
-132.356	71.385	-0.101	0.103
-131.341	-200.000	0.013	0.131
-130.326	-43.641	-0.151	0.075
-129.312	800.000	-0.125	-0.437
-128.297	-200.000	0.008	0.121
-127.283	124.304	0.128	0.158
-126.268	-200.000	-0.029	0.356
-125.253	330.985	-0.084	-0.158
-124.239	652.735	0.085	-0.215
-123.224	800.000	0.026	0.086
-122.210	118.185	0.101	-0.122
-121.195	800.000	-0.028	-0.112
