DTS Sentinel unit serial number:	SN413079Multiplexer serial number:	ORYXHardware model number:	OX4-SRSoftware version number:	ORYX F/W v4.00 Oryx Data Collector v3.7.2.0data status	okinstallation	princeton_trtdifferential loss correction	single-endedforward channel	channel 2reverse channel	N/Adate	2019/09/15time	09:51:35forward acquisition time	60.00reverse acquisition time	0.00gamma	496.2192k internal	0.2316k external	0.2316temperature offset calibration	1.0016default loss term (dB/km)	0.3790temperature slope calibration	1.0000multiplexer offset coefficient	1.0000multiplexer slope coefficient	1.0000fibre end	0.00T internal ref (°C)	34.06T ext. ref 1 (°C)	4.98T ext. ref 2 (°C)	29.83length (m)	temperature (°C)	Stokes	anti-Stokes-747.200	-73.167	0.298	-0.111
-746.185	-50.568	0.126	0.060
-745.171	2.889	-0.268	0.197
-744.156	104.504	0.253	-0.302
-743.142	-47.246	-0.289	-0.143
-742.127	534.167	-0.105	0.253
-741.112	-107.418	0.181	-0.040
-740.098	-19.621	0.096	-0.060
-739.083	-104.358	0.303	-0.071
-738.069	-129.803	0.066	0.009
-737.054	590.782	-0.117	0.292
-736.039	-200.000	-0.027	-0.423
-735.025	50.335	0.153	0.146
-734.010	54.314	-0.148	-0.145
-732.996	800.000	-0.080	-0.230
-731.981	88.592	-0.080	-0.091
-730.966	111.117	-0.198	0.241
-729.952	800.000	-0.105	0.356
-728.937	800.000	0.081	-0.268
-727.923	14.276	-0.125	0.098
-726.908	123.617	-0.213	0.271
-725.894	-200.000	0.014	-0.198
-724.879	636.006	0.087	-0.225
-723.864	-200.000	0.005	-0.622
-722.850	-8.752	-0.100	0.068
-721.835	163.110	-0.118	0.167
-720.821	201.194	-0.280	-0.436
-719.806	28.999	-0.149	-0.128
-718.791	800.000	-0.024	0.080
-717.777	-200.000	-0.075	-0.391
-716.762	23.067	-0.152	-0.126
-715.748	730.924	-0.074	0.200
-714.733	-166.080	0.094	-0.004
-713.718	-61.502	-0.314	0.133
-712.704	61.228	0.107	0.107
-711.689	800.000	-0.103	-0.370
-710.675	-150.268	0.149	-0.012
-709.660	800.000	-0.091	-0.293
-708.645	-44.398	-0.168	-0.085
-707.631	-34.216	0.204	-0.113
-706.616	-15.429	0.131	0.085
-705.602	48.575	0.083	0.078
-704.587	114.243	-0.118	-0.145
-703.572	-7.931	-0.132	-0.090
-702.558	69.325	0.251	0.261
-701.543	-149.427	0.100	-0.008
-700.529	187.954	-0.101	-0.153
-699.514	274.921	0.044	0.079
-698.499	-59.146	0.143	-0.062
-697.485	-200.000	0.002	0.019
-696.470	800.000	0.057	0.176
-695.456	-200.000	-0.042	0.192
-694.441	-51.421	-0.134	-0.063
-693.426	-53.540	-0.182	-0.084
-692.412	800.000	-0.041	-0.134
-691.397	521.990	0.111	0.264
-690.383	-200.000	-0.003	-0.046
-689.368	122.160	0.193	-0.243
-688.354	-77.376	0.297	-0.104
-687.339	-10.808	-0.157	0.105
-686.324	-74.158	0.070	-0.026
-685.310	-200.000	-0.035	0.367
-684.295	-200.000	-0.051	0.344
-683.281	368.677	-0.108	-0.222
-682.266	-131.631	0.088	-0.012
-681.251	-200.000	-0.067	0.379
-680.237	71.641	-0.246	0.258
-679.222	-200.000	0.007	0.274
-678.208	426.285	-0.089	-0.193
-677.193	57.198	0.138	-0.136
-676.178	800.000	0.057	-0.243
-675.164	-13.179	-0.314	0.206
-674.149	-175.493	0.171	0.005
-673.135	-42.167	0.107	-0.055
-672.120	-165.465	-0.130	0.006
-671.105	-9.370	0.264	0.178
-670.091	-70.390	-0.174	0.067
-669.076	57.177	-0.049	0.048
-668.062	334.719	0.083	-0.163
-667.047	-21.181	-0.191	0.118
-666.032	20.252	0.238	-0.194
-665.018	22.542	-0.217	-0.179
-664.003	-76.104	0.173	-0.062
-662.989	-120.464	-0.158	-0.027
-661.974	-58.651	-0.208	-0.091
-660.959	490.836	-0.033	-0.075
-659.945	533.902	0.107	-0.257
-658.930	-88.653	0.168	0.050
-657.916	380.628	0.177	-0.367
-656.901	800.000	-0.041	-0.159
-655.886	-89.427	-0.112	-0.033
-654.872	183.312	-0.153	0.229
-653.857	193.762	-0.219	0.334
-652.843	-200.000	-0.034	0.363
-651.828	35.266	0.266	0.236
-650.814	-100.809	0.205	0.051
-649.799	6.576	-0.028	-0.021
-648.784	14.393	0.223	-0.175
-647.770	347.574	0.165	0.328
-646.755	-145.799	-0.418	0.038
-645.741	800.000	0.117	0.432
-644.726	-115.752	0.144	-0.027
-643.711	-46.061	0.206	0.103
-642.697	98.251	-0.207	-0.240
-641.682	-200.000	0.034	-0.352
-640.668	791.616	0.118	0.328
-639.653	52.495	0.054	0.052
-638.638	225.574	0.273	-0.446
-637.624	-200.000	-0.001	-0.007
-636.609	5.013	0.152	0.113
-635.595	800.000	0.037	-0.112
-634.580	-70.656	0.547	0.209
-633.565	98.148	-0.163	0.190
-632.551	-132.371	-0.344	-0.045
-631.536	13.752	-0.120	-0.094
-630.522	800.000	-0.132	0.374
-629.507	-66.549	-0.147	-0.059
-628.492	83.000	0.084	-0.092
-627.478	-102.543	0.101	-0.024
-626.463	341.221	0.114	0.226
-625.449	-109.715	0.156	-0.033
-624.434	-16.189	-0.225	0.144
-623.419	800.000	-0.055	0.181
-622.405	-144.576	-0.276	0.026
-621.390	24.842	0.206	-0.172
-620.376	800.000	0.146	-0.447
-619.361	104.846	-0.100	-0.119
-618.346	-93.280	-0.219	0.061
-617.332	-131.290	-0.204	-0.027
-616.317	-108.017	-0.178	-0.039
-615.303	-188.622	0.055	0.001
-614.288	660.432	-0.043	-0.111
-613.273	800.000	-0.077	0.292
-612.259	-34.704	0.313	0.172
-611.244	40.075	0.089	0.080
-610.230	-121.728	-0.202	0.034
-609.215	-18.976	-0.279	-0.175
-608.201	-155.360	-0.475	0.031
-607.186	225.835	0.014	-0.023
-606.171	-53.669	0.045	-0.021
-605.157	-53.511	-0.099	0.046
-604.142	-122.076	-0.136	0.022
-603.128	-29.706	0.167	0.096
-602.113	-53.912	-0.296	-0.136
-601.098	-85.168	0.311	-0.098
-600.084	-48.534	0.267	-0.129
-599.069	-101.135	0.233	-0.057
-598.055	-69.375	-0.058	0.022
-597.040	-35.237	0.047	-0.026
-596.025	57.715	-0.099	-0.097
-595.011	-200.000	-0.129	-0.617
-593.996	276.495	0.099	-0.177
-592.982	73.423	-0.059	0.062
-591.967	423.632	0.071	-0.154
-590.952	800.000	0.074	-0.230
-589.938	166.474	-0.083	-0.119
-588.923	800.000	-0.131	-0.370
-587.909	-9.543	-0.160	-0.107
-586.894	283.195	-0.089	0.160
-585.879	233.281	-0.018	-0.030
-584.865	441.991	0.097	0.215
-583.850	-200.000	-0.028	-0.322
-582.836	346.345	-0.124	-0.246
-581.821	800.000	0.086	0.331
-580.806	18.261	-0.262	-0.210
-579.792	132.911	-0.130	-0.169
-578.777	378.054	-0.087	-0.179
-577.763	-14.495	-0.164	0.106
-576.748	72.383	0.077	-0.081
-575.733	396.402	-0.066	0.139
-574.719	800.000	0.050	0.191
-573.704	105.639	0.132	0.157
-572.690	-68.187	-0.314	0.123
-571.675	-120.715	0.155	-0.026
-570.661	120.111	-0.239	-0.298
-569.646	-163.064	-0.520	0.025
-568.631	200.461	0.146	-0.226
-567.617	800.000	-0.020	0.065
-566.602	-180.915	-0.112	-0.002
-565.588	37.657	-0.275	-0.245
-564.573	17.253	-0.054	0.043
-563.558	-33.213	0.056	0.031
-562.544	33.128	-0.301	-0.263
-561.529	-173.411	0.410	0.012
-560.515	700.556	0.042	0.112
-559.500	19.438	0.012	0.009
-558.485	800.000	0.038	-0.130
-557.471	-8.563	-0.145	-0.098
-556.456	-126.043	-0.413	-0.062
-555.442	-46.773	0.182	-0.090
-554.427	-200.000	-0.008	0.123
-553.412	-200.000	-0.021	0.257
-552.398	-174.361	0.381	-0.011
-551.383	-54.821	0.269	-0.122
-550.369	-63.693	0.395	-0.163
-549.354	41.610	-0.138	-0.125
-548.339	242.342	0.082	-0.137
-547.325	76.861	-0.023	0.024
-546.310	-112.366	-0.300	-0.060
-545.296	368.201	0.088	-0.178
-544.281	24.960	0.154	-0.128
-543.266	-34.750	-0.109	0.060
-542.252	-200.000	-0.019	-0.167
-541.237	-136.121	-0.185	0.022
-540.223	-200.000	-0.010	0.088
-539.208	160.877	-0.179	-0.252
-538.193	-89.123	-0.110	-0.033
-537.179	4.113	-0.125	-0.092
-536.164	-55.578	0.183	-0.082
-535.150	-39.538	-0.233	0.122
-534.135	85.447	-0.142	0.156
-533.121	67.464	0.179	-0.183
-532.106	-46.601	-0.162	-0.080
-531.091	-200.000	0.031	-0.154
-530.077	-200.000	0.013	0.090
-529.062	76.414	0.057	-0.061
-528.048	-79.313	-0.401	-0.136
-527.033	-101.847	0.135	0.033
-526.018	383.208	0.080	0.165
-525.004	-34.044	-0.170	-0.094
-523.989	-21.577	0.181	-0.111
-522.975	7.473	-0.205	0.154
-521.960	800.000	0.097	-0.282
-520.945	304.303	0.084	-0.156
-519.931	22.762	0.132	-0.108
-518.916	-200.000	-0.016	-0.138
-517.902	152.242	-0.189	0.260
-516.887	7.952	0.104	0.078
-515.872	-82.213	0.271	0.089
-514.858	275.674	0.131	0.233
-513.843	800.000	-0.054	-0.236
-512.829	75.046	-0.119	0.125
-511.814	-19.117	0.166	0.103
-510.799	651.560	0.067	0.172
-509.785	-11.803	-0.182	0.120
-508.770	-186.349	-0.286	-0.004
-507.756	125.300	0.049	0.062
-506.741	-200.000	-0.077	0.341
-505.726	-38.173	0.201	0.107
-504.712	230.983	0.089	0.146
-503.697	-1.778	0.253	0.179
-502.683	120.219	0.121	0.151
-501.668	117.235	-0.123	-0.152
-500.653	-200.000	-0.005	0.073
-499.639	800.000	0.040	0.150
-498.624	-200.000	0.016	0.184
-497.610	-50.000	0.259	0.123
-496.595	-60.428	-0.310	-0.132
-495.581	445.741	0.117	-0.259
-494.566	-70.484	-0.213	-0.081
-493.551	66.427	0.087	-0.089
-492.537	800.000	-0.071	0.286
-491.522	-150.033	0.187	-0.015
-490.508	373.947	0.064	0.132
-489.493	-200.000	0.071	-0.348
-488.478	800.000	0.024	-0.094
-487.464	20.527	0.113	0.092
-486.449	359.303	0.137	-0.275
-485.435	135.219	-0.060	-0.079
-484.420	-96.109	-0.311	-0.083
-483.405	-36.715	-0.161	0.087
-482.391	-109.354	0.327	0.070
-481.376	155.370	-0.298	0.412
-480.362	-75.913	0.391	-0.139
-479.347	-200.000	-0.294	-0.001
-478.332	-4.732	-0.114	0.079
-477.318	122.824	-0.025	0.031
-476.303	-42.705	-0.248	0.127
-475.289	92.412	0.070	-0.079
-474.274	-200.000	-0.020	-0.109
-473.259	-200.000	-0.009	-0.044
-472.245	-88.907	0.094	0.028
-471.230	66.898	-0.103	-0.105
-470.216	37.955	0.240	-0.214
-469.201	-88.670	0.326	-0.097
-468.186	-37.374	0.273	-0.146
-467.172	-187.693	-0.131	0.002
-466.157	18.613	-0.096	0.077
-465.143	-200.000	-0.029	-0.159
-464.128	214.271	0.132	-0.210
-463.113	800.000	-0.034	-0.147
-462.099	32.392	0.320	0.276
-461.084	-100.362	0.082	0.020
-460.070	-58.724	0.270	-0.117
-459.055	-103.564	0.405	0.095
-458.040	170.318	0.029	0.042
-457.026	-166.005	-0.040	-0.002
-456.011	63.723	0.122	0.123
-454.997	33.883	-0.301	0.262
-453.982	-43.770	-0.405	0.204
-452.968	196.811	-0.167	0.255
-451.953	178.345	-0.060	0.087
-450.938	17.580	0.170	-0.135
-449.924	-200.000	-0.042	0.236
-448.909	34.169	0.178	0.155
-447.895	-200.000	-0.009	0.503
-446.880	-200.000	0.050	0.455
-445.865	-81.264	-0.553	-0.183
-444.851	-50.668	0.335	-0.158
-443.836	-34.650	0.176	0.096
-442.822	-200.000	-0.010	0.103
-441.807	260.849	0.006	-0.011
-440.792	184.196	-0.148	-0.219
-439.778	800.000	0.051	-0.192
-438.763	575.899	0.103	0.251
-437.749	427.302	-0.033	0.071
-436.734	800.000	-0.052	-0.217
-435.719	59.922	0.077	0.076
-434.705	-102.972	-0.183	-0.043
-433.690	144.734	-0.056	0.075
-432.676	271.517	-0.112	0.197
-431.661	89.288	0.166	0.185
-430.646	800.000	0.045	0.168
-429.632	-73.994	0.136	0.049
-428.617	36.508	-0.182	0.161
-427.603	-200.000	0.027	-0.173
-426.588	-200.000	0.054	-0.379
-425.573	-157.959	-0.134	0.008
-424.559	272.031	0.210	-0.370
-423.544	518.987	-0.104	-0.245
-422.530	-200.000	0.010	0.252
-421.515	-100.769	-0.066	0.016
-420.500	800.000	-0.053	0.226
-419.486	-200.000	0.121	-0.759
-418.471	-128.745	-0.228	-0.032
-417.457	-24.874	-0.099	-0.059
-416.442	800.000	-0.036	0.120
-415.428	-200.000	-0.098	0.488
-414.413	-112.517	0.253	0.050
-413.398	-7.604	0.156	0.106
-412.384	303.617	0.099	-0.183
-411.369	-200.000	0.024	-0.221
-410.355	-200.000	-0.069	0.324
-409.340	-24.534	0.170	-0.101
-408.325	145.993	0.108	-0.145
-407.311	-29.174	-0.260	-0.149
-406.296	-200.000	0.016	0.112
-405.282	188.317	-0.034	0.051
-404.267	100.835	-0.211	0.245
-403.252	-63.926	0.235	-0.096
-402.238	319.711	0.094	0.177
-401.223	79.026	-0.106	0.113
-400.209	-10.088	0.070	-0.046
-399.194	-122.643	-0.086	0.014
-398.179	800.000	-0.080	0.278
-397.165	-200.000	-0.043	-0.441
-396.150	186.962	0.131	-0.195
-395.136	-200.000	0.012	-0.315
-394.121	-50.707	-0.134	-0.063
-393.106	-200.000	-0.025	-0.287
-392.092	-136.026	0.332	-0.039
-391.077	131.095	-0.105	0.135
-390.063	758.351	0.063	-0.170
-389.048	-200.000	0.012	-0.208
-388.033	47.343	-0.074	0.069
-387.019	-74.173	0.233	-0.084
-386.004	-152.265	-0.241	-0.017
-384.990	-70.536	-0.386	0.146
-383.975	-200.000	0.062	-0.314
-382.960	-6.225	-0.034	0.023
-381.946	39.534	0.119	0.107
-380.931	145.861	-0.173	0.231
-379.917	800.000	0.055	0.168
-378.902	800.000	-0.116	0.361
-377.888	540.597	-0.108	-0.257
-376.873	-147.657	0.559	-0.047
-375.858	-200.000	0.023	-0.191
-374.844	-59.389	0.159	-0.068
-373.829	-160.427	-0.178	-0.010
-372.815	-111.311	0.288	0.059
-371.800	-86.046	0.086	0.026
-370.785	37.923	0.075	0.067
-369.771	-132.730	-0.226	0.029
-368.756	235.764	-0.082	-0.135
-367.742	-111.579	-0.147	-0.030
-366.727	800.000	0.095	0.351
-365.712	-200.000	-0.003	0.251
-364.698	-200.000	0.001	0.127
-363.683	594.131	-0.060	0.149
-362.669	156.532	-0.057	-0.078
-361.654	-50.889	-0.366	0.172
-360.639	-200.000	-0.052	0.253
-359.625	258.780	0.181	-0.311
-358.610	-66.829	-0.245	0.097
-357.596	366.880	-0.089	-0.180
-356.581	-145.646	0.035	-0.003
-355.566	-200.000	-0.061	-0.277
-354.552	-105.456	0.113	0.026
-353.537	242.313	0.080	0.134
-352.523	26.410	-0.058	-0.049
-351.508	18.424	-0.195	-0.156
-350.493	800.000	0.060	-0.230
-349.479	194.445	-0.015	-0.022
-348.464	150.772	-0.121	-0.165
-347.450	-42.774	-0.259	-0.131
-346.435	158.061	0.181	-0.250
-345.420	199.615	-0.063	-0.097
-344.406	91.789	-0.144	-0.161
-343.391	309.757	-0.027	-0.051
-342.377	417.903	-0.073	-0.155
-341.362	-40.282	-0.129	-0.067
-340.348	85.736	0.059	0.064
-339.333	800.000	0.052	-0.209
-338.318	-133.206	0.362	0.046
-337.304	-38.379	0.336	0.177
-336.289	-161.978	0.171	-0.009
-335.275	-4.532	0.213	0.147
-334.260	70.831	-0.070	0.072
-333.245	-101.277	-0.213	-0.052
-332.231	501.215	0.048	-0.110
-331.216	37.055	-0.139	0.123
-330.202	-200.000	-0.045	-0.320
-329.187	18.490	0.095	-0.076
-328.172	148.433	0.020	0.027
-327.158	148.451	-0.101	-0.137
-326.143	40.149	0.206	0.184
-325.129	244.469	-0.082	0.137
-324.114	-144.025	-0.379	-0.035
-323.099	-198.925	0.235	0.001
-322.085	-165.263	-0.260	-0.011
-321.070	-104.217	-0.171	-0.040
-320.056	-73.331	-0.092	-0.034
-319.041	-140.601	-0.130	0.013
-318.026	-136.680	0.209	0.024
-317.012	-98.793	0.165	-0.042
-315.997	-78.628	0.216	0.074
-314.983	514.322	0.106	-0.246
-313.968	613.268	0.142	0.354
-312.953	215.471	-0.125	0.197
-311.939	183.182	-0.183	-0.269
-310.924	-200.000	-0.002	-0.235
-309.910	65.557	-0.301	-0.303
-308.895	-89.136	0.250	0.073
-307.880	-84.416	-0.483	-0.152
-306.866	800.000	0.071	0.268
-305.851	-83.267	0.429	-0.137
-304.837	-181.255	-0.206	-0.004
-303.822	-68.602	0.176	-0.068
-302.807	34.545	0.268	0.233
-301.793	-136.620	0.232	-0.027
-300.778	33.200	-0.263	0.227
-299.764	0.128	0.092	0.065
-298.749	800.000	-0.044	-0.176
-297.735	-76.111	-0.170	0.060
-296.720	800.000	0.113	0.332
-295.705	-86.329	-0.202	-0.062
-294.691	8.727	-0.214	-0.160
-293.676	-65.901	0.192	0.076
-292.662	-40.109	-0.096	0.050
-291.647	-64.814	0.241	-0.097
-290.632	31.178	0.157	-0.134
-289.618	1.950	0.131	0.094
-288.603	800.000	-0.092	-0.396
-287.589	-42.762	0.064	0.033
-286.574	-14.764	0.126	-0.081
-285.559	212.846	0.153	-0.241
-284.545	-200.000	-0.040	-0.194
-283.530	800.000	-0.079	0.291
-282.516	132.221	0.157	-0.201
-281.501	-200.000	0.025	0.170
-280.486	-200.000	-0.032	-0.378
-279.472	85.147	0.296	-0.323
-278.457	-200.000	-0.025	-0.236
-277.443	90.172	0.095	0.106
-276.428	-138.882	0.287	-0.031
-275.413	-134.847	-0.419	0.050
-274.399	142.276	0.205	0.270
-273.384	-117.432	0.314	0.057
-272.370	800.000	0.038	-0.136
-271.355	-104.767	0.328	0.075
-270.340	-153.648	0.183	0.013
-269.326	104.495	0.249	0.292
-268.311	-34.671	-0.230	0.125
-267.297	18.593	0.196	0.156
-266.282	-200.000	-0.003	0.100
-265.267	-200.000	-0.009	0.499
-264.253	-200.000	0.013	0.127
-263.238	644.412	-0.049	-0.125
-262.224	72.916	-0.079	-0.082
-261.209	-200.000	0.012	0.079
-260.195	-161.575	0.182	0.009
-259.180	-38.143	-0.193	-0.102
-258.165	8.653	-0.156	-0.117
-257.151	-66.646	0.286	-0.113
-256.136	-200.000	0.019	0.139
-255.122	238.074	0.095	-0.158
-254.107	193.090	0.018	0.027
-253.092	-200.000	-0.044	-0.235
-252.078	-11.203	-0.056	0.037
-251.063	-200.000	-0.092	0.636
-250.049	800.000	-0.048	-0.180
-249.034	-200.000	0.001	-0.252
-248.019	501.860	0.046	0.105
-247.005	6.999	-0.076	-0.056
-245.990	-141.357	-0.244	-0.025
-244.976	601.263	-0.085	-0.210
-243.961	-96.329	0.407	-0.107
-242.946	21.479	0.195	0.158
-241.932	-4.708	0.087	0.060
-240.917	-200.000	-0.038	0.169
-239.903	101.134	-0.105	0.122
-238.888	34.534	-0.137	-0.119
-237.873	800.000	0.056	0.165
-236.859	-200.000	0.028	0.126
-235.844	187.183	0.246	-0.365
-234.830	800.000	-0.047	-0.146
-233.815	-149.829	0.153	-0.012
-232.800	-159.656	-0.403	-0.022
-231.786	800.000	0.026	0.093
-230.771	-200.000	0.035	-0.163
-229.757	-140.135	-0.157	-0.016
-228.742	33.366	-0.232	0.200
-227.727	800.000	0.091	0.380
-226.713	-200.000	-0.017	-0.326
-225.698	-200.000	-0.037	-0.212
-224.684	-200.000	0.006	-0.090
-223.669	-200.000	-0.036	0.406
-222.655	-200.000	-0.005	0.030
-221.640	396.951	0.058	0.120
-220.625	-168.951	-0.211	-0.008
-219.611	-200.000	0.045	0.486
-218.596	613.940	0.067	0.166
-217.582	-200.000	-0.017	0.238
-216.567	800.000	-0.047	-0.168
-215.552	-72.860	-0.125	-0.046
-214.538	59.739	0.037	-0.036
-213.523	190.391	0.086	-0.128
-212.509	345.151	-0.118	-0.230
-211.494	-30.023	-0.186	0.105
-210.479	-116.351	0.337	-0.062
-209.465	-200.000	0.003	-0.040
-208.450	-72.774	0.194	0.071
-207.436	-98.780	0.263	-0.066
-206.421	727.313	-0.075	0.198
-205.406	272.212	0.188	0.329
-204.392	-50.356	-0.260	-0.122
-203.377	272.910	0.125	-0.219
-202.363	800.000	0.040	-0.135
-201.348	-111.230	-0.156	-0.032
-200.333	778.258	-0.082	0.223
-199.319	169.534	-0.238	0.337
-198.304	-9.399	-0.081	0.053
-197.290	159.087	0.038	-0.052
-196.275	19.373	0.329	0.262
-195.260	664.461	-0.068	0.173
-194.246	295.997	0.117	0.213
-193.231	-60.117	0.134	0.057
-192.217	29.780	-0.143	0.121
-191.202	2.330	0.114	-0.082
-190.187	-169.602	-0.218	-0.008
-189.173	-200.000	0.040	-0.229
-188.158	-87.756	-0.407	0.121
-187.144	250.815	-0.178	0.299
-186.129	80.562	-0.410	0.437
-185.114	800.000	-0.100	0.327
-184.100	271.063	-0.078	-0.136
-183.085	15.073	0.163	0.127
-182.071	-200.000	-0.006	0.147
-181.056	800.000	0.025	-0.086
-180.042	-10.348	0.163	-0.107
-179.027	92.734	-0.325	0.364
-178.012	-44.710	0.384	0.190
-176.998	-160.137	-0.095	-0.005
-175.983	183.806	0.140	0.205
-174.969	158.659	-0.168	-0.231
-173.954	-132.489	-0.016	-0.002
-172.939	-5.992	0.207	-0.141
-171.925	-27.571	0.262	0.151
-170.910	-182.407	0.329	0.006
-169.896	56.308	0.100	-0.096
-168.881	-11.539	0.053	-0.035
-167.866	800.000	0.092	0.257
-166.852	800.000	-0.071	-0.282
-165.837	571.978	0.105	-0.253
-164.823	-200.000	0.031	0.169
-163.808	-137.077	-0.122	-0.014
-162.793	43.750	-0.085	-0.077
-161.779	148.691	0.052	0.069
-160.764	800.000	-0.107	0.318
-159.750	17.044	0.120	-0.094
-158.735	-73.639	0.283	-0.102
-157.720	16.422	-0.085	-0.067
-156.706	800.000	-0.116	0.404
-155.691	-96.185	0.074	0.019
-154.677	-128.290	-0.301	0.042
-153.662	-200.000	-0.025	0.272
-152.647	-118.176	-0.282	0.050
-151.633	-200.000	0.030	-0.373
-150.618	-200.000	0.036	-0.239
-149.604	-200.000	-0.021	-0.444
-148.589	73.129	0.144	0.149
-147.574	154.102	0.064	-0.087
-146.560	131.001	0.053	0.068
-145.545	-74.664	-0.113	-0.040
-144.531	504.394	0.044	0.102
-143.516	-37.901	-0.244	0.128
-142.502	675.355	0.115	0.296
-141.487	-200.000	0.001	-0.073
-140.472	-200.000	-0.017	-0.193
-139.458	-121.296	0.141	-0.023
-138.443	-200.000	-0.015	0.238
-137.429	27.871	-0.124	0.103
-136.414	-5.649	-0.098	0.066
-135.399	-76.818	-0.146	-0.050
-134.385	-102.728	-0.323	-0.076
-133.370	46.903	-0.138	0.127
-132.356	-132.095	0.226	-0.029
-131.341	197.628	-0.158	-0.238
-130.326	-34.071	0.175	0.095
-129.312	-94.779	-0.175	0.047
-128.297	132.490	-0.138	0.176
-127.283	-200.000	-0.025	0.206
-126.268	344.657	-0.036	0.071
-125.253	-200.000	0.006	0.252
-124.239	398.704	0.114	0.236
-123.224	230.485	0.068	-0.110
-122.210	-27.840	0.114	0.065
-121.195	800.000	0.068	0.194
