DTS Sentinel unit serial number:	SN413079Multiplexer serial number:	ORYXHardware model number:	OX4-SRSoftware version number:	ORYX F/W v4.00 Oryx Data Collector v3.7.2.0data status	okinstallation	princeton_trtdifferential loss correction	single-endedforward channel	channel 2reverse channel	N/Adate	2019/09/17time	05:11:35forward acquisition time	60.00reverse acquisition time	0.00gamma	496.2192k internal	0.2328k external	0.2328temperature offset calibration	0.9979default loss term (dB/km)	0.3790temperature slope calibration	1.0000multiplexer offset coefficient	1.0000multiplexer slope coefficient	1.0000fibre end	0.00T internal ref (°C)	29.42T ext. ref 1 (°C)	0.14T ext. ref 2 (°C)	23.87length (m)	temperature (°C)	Stokes	anti-Stokes-747.200	-66.464	-0.161	-0.064
-746.185	241.774	0.187	0.314
-745.171	-200.000	-0.022	-0.275
-744.156	6.333	0.443	0.331
-743.142	800.000	0.055	0.164
-742.127	555.423	0.094	0.228
-741.112	-21.345	-0.297	0.183
-740.098	127.340	-0.233	0.298
-739.083	25.548	0.246	0.206
-738.069	-200.000	-0.015	0.105
-737.054	56.450	-0.049	0.048
-736.039	-132.575	-0.293	0.038
-735.025	-200.000	0.025	0.373
-734.010	77.364	0.015	-0.016
-732.996	33.946	0.224	0.196
-731.981	17.532	-0.143	0.114
-730.966	702.533	-0.124	0.328
-729.952	800.000	-0.105	-0.354
-728.937	-33.048	0.336	0.188
-727.923	-85.072	0.176	0.056
-726.908	44.293	0.306	0.283
-725.894	-8.328	-0.230	0.155
-724.879	-136.809	-0.233	0.027
-723.864	-47.535	-0.312	0.153
-722.850	16.247	0.130	-0.103
-721.835	-49.071	-0.280	0.135
-720.821	-40.934	-0.153	-0.080
-719.806	239.869	-0.102	0.171
-718.791	-54.575	-0.386	-0.176
-717.777	-3.723	-0.369	-0.258
-716.762	78.893	0.226	0.243
-715.748	-79.206	-0.190	-0.065
-714.733	59.938	0.187	0.186
-713.718	406.426	0.063	-0.134
-712.704	-148.092	0.425	0.035
-711.689	-93.390	0.140	-0.039
-710.675	-104.772	0.160	-0.037
-709.660	-34.160	-0.072	0.040
-708.645	-110.371	0.400	0.084
-707.631	7.649	-0.164	0.123
-706.616	573.080	-0.063	-0.154
-705.602	95.365	0.145	-0.166
-704.587	800.000	-0.126	-0.394
-703.572	-200.000	0.122	-0.589
-702.558	-200.000	-0.009	-0.130
-701.543	-67.461	-0.312	-0.123
-700.529	-141.622	0.066	-0.007
-699.514	-200.000	-0.018	-0.244
-698.499	-25.673	0.509	-0.302
-697.485	-88.374	0.045	0.014
-696.470	-200.000	0.021	-0.335
-695.456	-62.903	0.195	-0.081
-694.441	800.000	-0.032	-0.122
-693.426	-200.000	-0.006	0.121
-692.412	800.000	0.022	0.065
-691.397	-40.930	0.187	0.097
-690.383	-146.109	-0.306	-0.027
-689.368	-200.000	0.045	-0.251
-688.354	-109.527	0.380	-0.081
-687.339	-2.050	-0.028	0.020
-686.324	17.520	-0.127	0.101
-685.310	-162.581	-0.163	-0.008
-684.295	43.851	0.119	0.109
-683.281	146.985	0.094	0.127
-682.266	627.286	-0.008	0.021
-681.251	-14.511	0.220	0.142
-680.237	12.270	-0.079	-0.061
-679.222	-92.861	0.391	0.110
-678.208	-93.698	0.207	0.057
-677.193	55.057	-0.128	-0.125
-676.178	662.320	-0.036	0.094
-675.164	-144.459	0.464	-0.043
-674.149	-33.087	-0.194	-0.108
-673.135	160.268	-0.217	-0.304
-672.120	-130.663	0.133	-0.018
-671.105	-36.103	0.364	-0.198
-670.091	-174.861	0.121	-0.003
-669.076	179.349	-0.106	0.155
-668.062	800.000	-0.061	-0.220
-667.047	-49.700	-0.073	0.035
-666.032	800.000	-0.035	0.151
-665.018	-200.000	0.003	-0.176
-664.003	25.796	-0.151	0.126
-662.989	386.740	-0.186	0.387
-661.974	316.781	0.085	0.162
-660.959	-57.442	0.174	0.077
-659.945	441.180	0.058	0.128
-658.930	334.436	0.227	0.442
-657.916	105.734	0.080	-0.095
-656.901	-58.113	0.069	-0.030
-655.886	250.771	-0.122	0.208
-654.872	-129.217	-0.184	-0.026
-653.857	-74.908	0.156	-0.056
-652.843	-200.000	-0.006	-0.220
-651.828	800.000	-0.048	-0.149
-650.814	-49.761	-0.216	-0.103
-649.799	447.702	-0.177	0.391
-648.784	-119.845	0.206	0.036
-647.770	-55.062	-0.053	-0.024
-646.755	800.000	-0.032	-0.102
-645.741	56.848	-0.024	-0.023
-644.726	-107.680	0.332	0.073
-643.711	-125.005	0.151	0.023
-642.697	-51.985	0.363	0.169
-641.682	787.874	-0.102	0.282
-640.668	12.748	-0.359	0.278
-639.653	10.682	-0.105	-0.080
-638.638	-20.888	-0.091	-0.056
-637.624	-200.000	0.010	0.089
-636.609	181.085	0.037	-0.055
-635.595	800.000	0.082	-0.229
-634.580	-168.950	-0.183	0.007
-633.565	-161.291	-0.154	-0.008
-632.551	47.573	-0.196	0.184
-631.536	79.796	0.137	-0.148
-630.522	77.692	-0.201	0.215
-629.507	-24.112	0.187	0.112
-628.492	-200.000	-0.153	0.000
-627.478	215.552	0.211	0.336
-626.463	800.000	-0.122	0.441
-625.449	800.000	-0.071	0.236
-624.434	-35.867	0.278	0.151
-623.419	-78.129	-0.232	0.080
-622.405	-92.766	0.224	-0.063
-621.390	23.398	0.343	0.283
-620.376	108.164	0.154	-0.184
-619.361	-200.000	0.029	-0.226
-618.346	-200.000	-0.060	0.397
-617.332	-27.922	0.132	0.077
-616.317	90.327	-0.061	-0.068
-615.303	800.000	-0.068	0.218
-614.288	-16.432	0.272	0.173
-613.273	-24.038	0.133	-0.080
-612.259	-72.262	-0.250	-0.093
-611.244	109.326	-0.077	0.093
-610.230	-104.692	-0.266	0.061
-609.215	17.295	-0.180	-0.143
-608.201	219.405	-0.025	-0.040
-607.186	477.349	0.071	0.161
-606.171	-200.000	0.024	-0.309
-605.157	-200.000	0.009	-0.063
-604.142	-200.000	0.042	0.476
-603.128	-16.486	0.157	-0.100
-602.113	-38.582	0.075	0.040
-601.098	-200.000	0.001	-0.050
-600.084	-114.210	0.315	-0.061
-599.069	154.928	0.052	0.072
-598.055	800.000	-0.029	0.119
-597.040	-14.199	-0.067	-0.043
-596.025	-109.819	0.208	-0.044
-595.011	-108.828	-0.339	-0.073
-593.996	-111.929	0.109	0.022
-592.982	-71.590	0.174	-0.065
-591.967	0.142	0.359	0.256
-590.952	-103.997	-0.448	0.105
-589.938	32.796	0.075	-0.065
-588.923	-55.949	0.181	0.081
-587.909	456.988	-0.140	0.312
-586.894	132.528	-0.199	-0.257
-585.879	-171.321	-0.196	0.007
-584.865	565.392	-0.080	-0.195
-583.850	-200.000	0.021	0.200
-582.836	71.053	0.192	-0.199
-581.821	800.000	0.121	-0.350
-580.806	59.247	-0.344	0.339
-579.792	-84.998	0.226	0.071
-578.777	-200.000	0.046	0.317
-577.763	-200.000	0.017	0.287
-576.748	-200.000	-0.024	-0.173
-575.733	-95.985	0.084	0.022
-574.719	800.000	0.029	-0.087
-573.704	-139.697	-0.243	-0.026
-572.690	100.267	-0.218	0.253
-571.675	800.000	0.015	0.055
-570.661	-200.000	0.026	0.167
-569.646	-0.441	-0.214	-0.152
-568.631	-34.918	0.228	-0.124
-567.617	-200.000	0.107	-0.518
-566.602	110.258	-0.104	0.125
-565.588	-2.674	0.114	0.080
-564.573	-58.486	0.123	0.053
-563.558	-105.329	-0.142	-0.032
-562.544	26.511	0.174	-0.145
-561.529	-37.710	-0.228	-0.121
-560.515	483.219	-0.141	0.321
-559.500	345.626	-0.095	-0.186
-558.485	89.574	-0.031	0.035
-557.471	160.754	0.098	-0.137
-556.456	-31.283	-0.223	0.125
-555.442	-172.731	0.154	-0.005
-554.427	800.000	-0.013	0.042
-553.412	82.422	-0.196	-0.213
-552.398	564.109	0.009	-0.022
-551.383	-200.000	0.009	-0.168
-550.369	-200.000	-0.008	-0.266
-549.354	800.000	-0.039	0.149
-548.339	-74.829	0.275	-0.099
-547.325	-55.362	-0.362	0.162
-546.310	5.731	0.233	0.173
-545.296	-200.000	-0.024	0.225
-544.281	-80.713	0.208	-0.069
-543.266	-118.590	0.225	0.040
-542.252	138.989	-0.290	-0.381
-541.237	-200.000	-0.028	0.162
-540.223	600.327	0.034	-0.084
-539.208	59.165	0.200	-0.197
-538.193	-63.316	-0.248	-0.102
-537.179	321.646	0.051	0.098
-536.164	339.219	0.211	0.411
-535.150	-89.566	0.122	-0.036
-534.135	-99.462	-0.262	0.066
-533.121	31.283	-0.126	0.108
-532.106	114.518	-0.086	-0.105
-531.091	800.000	0.082	0.352
-530.077	800.000	-0.082	-0.234
-529.062	600.739	0.108	-0.267
-528.048	-65.192	0.064	0.026
-527.033	-99.694	0.179	0.045
-526.018	438.242	-0.025	-0.055
-525.004	227.381	-0.047	-0.076
-523.989	27.182	-0.143	-0.120
-522.975	52.740	-0.279	-0.266
-521.960	-200.000	-0.001	-0.397
-520.945	53.819	0.094	-0.090
-519.931	-153.625	0.190	-0.013
-518.916	-66.465	0.039	0.015
-517.902	163.023	0.099	-0.139
-516.887	-200.000	0.047	0.402
-515.872	35.976	0.299	-0.263
-514.858	-30.874	0.170	0.096
-513.843	29.329	0.606	0.514
-512.829	-97.782	0.112	-0.029
-511.814	-62.334	-0.305	0.127
-510.799	-200.000	-0.005	-0.233
-509.785	16.684	0.279	0.220
-508.770	-22.020	-0.086	-0.052
-507.756	122.593	-0.067	0.084
-506.741	-54.461	0.192	0.087
-505.726	48.887	0.144	0.135
-504.712	574.506	-0.115	0.280
-503.697	-200.000	0.006	0.050
-502.683	-147.617	0.232	0.019
-501.668	305.553	0.095	-0.176
-500.653	800.000	-0.097	0.294
-499.639	38.468	0.058	-0.052
-498.624	133.676	0.100	-0.130
-497.610	785.198	-0.093	-0.253
-496.595	175.198	-0.135	-0.195
-495.581	501.927	-0.087	0.201
-494.566	-41.618	0.358	0.184
-493.551	-200.000	0.030	-0.138
-492.537	-200.000	-0.045	-0.275
-491.522	-97.727	-0.302	0.078
-490.508	-200.000	-0.006	-0.036
-489.493	-143.034	-0.393	0.038
-488.478	81.335	0.078	0.084
-487.464	206.043	-0.103	-0.160
-486.449	-200.000	-0.016	0.252
-485.435	54.759	-0.132	-0.127
-484.420	273.326	-0.030	-0.053
-483.405	-97.861	0.204	-0.053
-482.391	800.000	0.079	0.315
-481.376	366.773	-0.054	0.109
-480.362	-200.000	-0.018	0.124
-479.347	87.660	0.166	-0.183
-478.332	-162.556	-0.200	0.010
-477.318	-164.841	0.179	0.008
-476.303	-22.529	-0.412	0.248
-475.289	800.000	0.084	0.246
-474.274	-2.876	0.365	0.254
-473.259	-142.339	0.342	0.034
-472.245	179.716	0.060	0.087
-471.230	800.000	-0.040	-0.140
-470.216	-200.000	-0.058	0.369
-469.201	-140.995	0.056	0.006
-468.186	-65.904	-0.224	-0.089
-467.172	-36.014	-0.253	-0.136
-466.157	-10.525	-0.036	-0.024
-465.143	-94.339	-0.210	0.057
-464.128	-200.000	-0.012	0.132
-463.113	-67.485	-0.274	0.107
-462.099	800.000	0.088	-0.267
-461.084	159.095	0.012	0.016
-460.070	-200.000	0.011	0.110
-459.055	-137.242	0.212	-0.024
-458.040	20.453	-0.178	-0.143
-457.026	-135.091	0.189	-0.023
-456.011	-200.000	-0.085	-0.417
-454.997	-160.524	-0.092	-0.005
-453.982	-43.866	0.222	-0.111
-452.968	800.000	0.048	0.153
-451.953	-171.344	-0.286	0.010
-450.938	-175.252	-0.195	-0.005
-449.924	123.302	-0.111	0.139
-448.909	-172.478	0.447	-0.014
-447.895	4.499	-0.153	-0.112
-446.880	-200.000	0.054	-0.299
-445.865	-200.000	-0.002	-0.182
-444.851	726.499	0.086	-0.228
-443.836	800.000	0.085	0.334
-442.822	392.204	0.065	-0.134
-441.807	800.000	-0.106	0.314
-440.792	-159.174	0.164	-0.009
-439.778	-9.743	0.012	-0.008
-438.763	21.333	-0.215	-0.174
-437.749	-180.962	0.454	0.009
-436.734	94.263	-0.042	0.048
-435.719	-200.000	-0.055	-0.354
-434.705	-200.000	-0.047	0.219
-433.690	43.488	-0.256	0.233
-432.676	-200.000	0.049	-0.286
-431.661	-200.000	-0.000	-0.029
-430.646	-140.962	0.301	-0.031
-429.632	-76.772	-0.188	0.065
-428.617	-200.000	0.004	-0.049
-427.603	-146.085	0.300	-0.026
-426.588	-55.793	-0.371	-0.165
-425.573	-200.000	-0.115	-0.512
-424.559	800.000	-0.093	-0.274
-423.544	-69.638	0.152	0.058
-422.530	129.390	-0.132	-0.167
-421.515	-200.000	-0.032	-0.365
-420.500	-154.110	-0.180	0.012
-419.486	420.558	-0.057	-0.123
-418.471	-61.929	0.211	-0.088
-417.457	193.807	0.064	-0.097
-416.442	-16.335	0.028	0.018
-415.428	213.753	-0.133	0.209
-414.413	-46.934	0.064	-0.031
-413.398	-63.151	-0.311	0.127
-412.384	759.379	-0.047	0.127
-411.369	-105.478	-0.056	-0.013
-410.355	-200.000	0.005	0.086
-409.340	-59.353	0.134	-0.057
-408.325	296.764	-0.156	0.284
-407.311	135.246	0.164	0.212
-406.296	-200.000	0.019	-0.200
-405.282	-200.000	-0.025	0.342
-404.267	-132.488	0.261	-0.033
-403.252	-116.304	0.225	-0.041
-402.238	69.844	0.039	0.040
-401.223	6.772	0.306	-0.226
-400.209	-90.322	0.229	0.066
-399.194	475.779	-0.085	-0.190
-398.179	-126.746	-0.037	-0.006
-397.165	210.361	-0.326	-0.509
-396.150	-48.682	-0.286	0.137
-395.136	-200.000	0.012	0.111
-394.121	-146.891	0.074	0.006
-393.106	-48.748	0.188	-0.090
-392.092	48.479	-0.177	-0.165
-391.077	251.468	0.012	0.020
-390.063	-15.140	-0.073	-0.047
-389.048	-200.000	0.007	-0.199
-388.033	800.000	0.079	0.231
-387.019	118.364	-0.110	0.135
-386.004	-38.215	0.229	0.121
-384.990	-106.261	0.193	0.043
-383.975	-133.563	0.109	-0.014
-382.960	-65.821	-0.075	0.030
-381.946	141.113	0.236	-0.310
-380.931	-200.000	0.031	-0.373
-379.917	64.452	-0.235	-0.235
-378.902	-200.000	0.023	-0.123
-377.888	-107.539	-0.193	0.042
-376.873	-123.416	0.120	-0.019
-375.858	-70.380	-0.351	0.132
-374.844	-162.582	-0.190	-0.009
-373.829	-116.124	0.073	0.013
-372.815	-110.809	0.262	-0.054
-371.800	-123.928	0.139	-0.022
-370.785	413.699	-0.022	0.047
-369.771	646.824	0.069	0.174
-368.756	-145.733	-0.398	-0.035
-367.742	53.045	0.057	-0.054
-366.727	207.999	-0.088	0.137
-365.712	-179.801	0.159	0.003
-364.698	-200.000	-0.015	0.145
-363.683	-19.264	-0.165	0.102
-362.669	800.000	-0.033	-0.113
-361.654	-46.047	0.220	-0.108
-360.639	-163.713	-0.551	-0.026
-359.625	216.408	-0.141	0.222
-358.610	-142.668	-0.259	0.025
-357.596	14.392	0.048	0.037
-356.581	-200.000	-0.009	0.265
-355.566	193.738	-0.089	0.134
-354.552	-142.102	0.315	0.031
-353.537	93.253	-0.015	0.017
-352.523	-102.932	-0.073	-0.017
-351.508	-200.000	-0.009	0.389
-350.493	-33.382	0.255	-0.140
-349.479	-20.198	0.056	0.034
-348.464	-200.000	-0.045	0.220
-347.450	-22.081	0.085	-0.051
-346.435	81.754	-0.245	-0.263
-345.420	19.569	0.068	0.054
-344.406	24.457	-0.178	-0.146
-343.391	-154.795	0.187	0.012
-342.377	-156.518	-0.278	-0.017
-341.362	207.101	0.199	0.308
-340.348	-200.000	-0.046	0.338
-339.333	800.000	-0.037	0.151
-338.318	800.000	-0.057	0.210
-337.304	-200.000	0.036	-0.205
-336.289	-11.430	-0.146	-0.095
-335.275	54.190	-0.126	0.120
-334.260	34.785	-0.239	0.208
-333.245	-9.805	-0.173	-0.114
-332.231	452.859	-0.052	0.114
-331.216	175.479	-0.074	0.106
-330.202	46.760	-0.252	-0.232
-329.187	79.668	0.080	-0.085
-328.172	-53.593	0.481	-0.218
-327.158	-118.124	0.291	-0.051
-326.143	-200.000	0.006	0.180
-325.129	-92.223	0.378	0.106
-324.114	652.420	0.136	0.345
-323.099	-38.705	-0.056	-0.030
-322.085	800.000	0.006	0.022
-321.070	-97.019	-0.213	-0.055
-320.056	471.847	0.119	0.265
-319.041	-200.000	0.006	0.148
-318.026	-30.272	-0.145	0.082
-317.012	-16.799	-0.133	0.083
-315.997	-16.834	0.053	0.033
-314.983	406.716	0.074	0.155
-313.968	-48.500	-0.139	-0.066
-312.953	-134.487	-0.105	0.013
-311.939	11.936	-0.156	-0.118
-310.924	455.913	0.222	0.488
-309.910	-44.383	-0.142	-0.071
-308.895	-200.000	0.065	-0.527
-307.880	-200.000	0.026	-0.114
-306.866	-58.465	-0.179	-0.077
-305.851	341.817	-0.173	-0.335
-304.837	275.785	-0.124	0.218
-303.822	-8.082	0.135	-0.090
-302.807	167.799	-0.238	0.335
-301.793	129.142	0.274	-0.347
-300.778	-62.627	0.392	0.161
-299.764	-11.990	-0.247	-0.160
-298.749	-37.160	-0.096	-0.051
-297.735	-2.167	-0.271	0.188
-296.720	-80.909	0.059	-0.019
-295.705	-200.000	0.028	-0.140
-294.691	-200.000	-0.000	-0.302
-293.676	405.926	0.260	0.543
-292.662	-32.272	0.341	-0.189
-291.647	800.000	-0.038	-0.142
-290.632	31.794	-0.179	-0.153
-289.618	-59.839	0.033	-0.014
-288.603	-152.526	-0.324	0.023
-287.589	-200.000	-0.026	-0.189
-286.574	49.980	-0.391	0.365
-285.559	-200.000	-0.011	0.533
-284.545	-68.584	0.104	0.040
-283.530	322.696	-0.122	-0.229
-282.516	-200.000	-0.033	0.269
-281.501	-60.012	0.256	-0.108
-280.486	191.202	0.025	-0.038
-279.472	-200.000	0.071	0.352
-278.457	-119.805	0.224	-0.038
-277.443	-200.000	-0.017	-0.478
-276.428	39.278	0.047	0.042
-275.413	392.645	-0.163	0.336
-274.399	-88.720	-0.263	0.077
-273.384	211.957	-0.085	0.132
-272.370	311.476	-0.184	0.342
-271.355	237.133	0.090	-0.148
-270.340	-33.041	0.184	-0.101
-269.326	-150.994	0.190	-0.014
-268.311	-3.864	-0.405	0.278
-267.297	-1.781	0.108	-0.075
-266.282	-200.000	0.038	-0.234
-265.267	26.154	0.444	-0.366
-264.253	376.856	-0.134	0.270
-263.238	206.945	0.070	0.108
-262.224	800.000	-0.052	0.201
-261.209	18.216	-0.113	0.089
-260.195	800.000	0.028	-0.111
-259.180	-40.421	0.166	0.085
-258.165	-0.338	-0.126	-0.089
-257.151	797.746	0.054	-0.146
-256.136	110.923	0.098	-0.117
-255.122	-181.828	0.341	0.006
-254.107	-125.884	0.085	0.013
-253.092	-28.952	0.163	0.092
-252.078	189.269	0.028	0.041
-251.063	-63.626	-0.244	-0.099
-250.049	-8.355	0.365	0.242
-249.034	87.626	-0.265	-0.290
-248.019	-150.502	-0.178	0.013
-247.005	800.000	-0.044	-0.125
-245.990	-177.282	0.181	0.004
-244.976	-52.678	0.280	0.128
-243.961	800.000	-0.054	-0.153
-242.946	176.037	0.108	0.155
-241.932	-51.855	-0.232	0.107
-240.917	-62.663	0.281	0.115
-239.903	-82.994	-0.286	0.091
-238.888	68.604	-0.041	0.042
-237.873	-138.839	-0.237	-0.026
-236.859	160.573	-0.039	-0.054
-235.844	116.236	0.115	0.140
-234.830	166.539	-0.049	0.069
-233.815	800.000	0.028	0.105
-232.800	-107.671	-0.299	0.064
-231.786	554.113	0.130	-0.308
-230.771	-86.397	0.319	0.097
-229.757	800.000	0.128	-0.462
-228.742	-50.412	-0.289	-0.135
-227.727	-172.054	0.209	-0.007
-226.713	363.040	-0.035	-0.068
-225.698	71.977	-0.117	-0.120
-224.684	290.323	-0.098	0.176
-223.669	-200.000	-0.019	-0.242
-222.655	107.781	0.280	-0.330
-221.640	77.580	0.343	-0.360
-220.625	800.000	0.072	0.283
-219.611	-78.001	0.080	-0.027
-218.596	-130.559	-0.099	-0.013
-217.582	-25.833	0.104	-0.060
-216.567	251.932	-0.075	0.127
-215.552	2.676	0.094	0.067
-214.538	85.537	-0.105	-0.114
-213.523	10.284	0.232	-0.174
-212.509	-66.448	-0.195	-0.077
-211.494	800.000	-0.029	-0.096
-210.479	92.781	0.123	-0.137
-209.465	25.949	0.175	0.144
-208.450	-110.349	-0.047	-0.010
-207.436	0.928	-0.192	-0.136
-206.421	493.901	-0.049	0.111
-205.406	-200.000	-0.057	0.308
-204.392	-200.000	0.018	0.141
-203.377	44.831	-0.123	-0.112
-202.363	216.399	0.104	-0.163
-201.348	156.168	-0.216	0.293
-200.333	-95.512	-0.255	0.067
-199.319	-110.958	-0.463	-0.094
-198.304	36.821	0.244	-0.212
-197.290	51.725	-0.133	-0.125
-196.275	517.988	0.127	-0.292
-195.260	16.451	0.029	-0.023
-194.246	-182.483	0.314	0.006
-193.231	60.757	0.220	-0.215
-192.217	118.417	-0.342	-0.416
-191.202	-200.000	-0.003	-0.157
-190.187	-200.000	0.017	-0.170
-189.173	392.074	0.162	-0.332
-188.158	161.229	0.075	-0.104
-187.144	160.933	-0.155	-0.214
-186.129	-136.404	0.138	-0.016
-185.114	-61.853	0.255	-0.105
-184.100	-160.288	-0.210	0.011
-183.085	-1.274	0.187	-0.130
-182.071	113.861	0.112	-0.134
-181.056	-200.000	0.017	-0.105
-180.042	-15.368	0.060	0.038
-179.027	164.325	-0.068	-0.094
-178.012	198.484	-0.222	0.335
-176.998	-67.914	-0.357	-0.137
-175.983	-97.648	-0.492	-0.126
-174.969	-200.000	-0.001	0.294
-173.954	-200.000	-0.017	0.210
-172.939	-102.586	-0.160	0.038
-171.925	-197.389	-0.182	-0.001
-170.910	-79.057	-0.248	-0.083
-169.896	-200.000	0.003	0.063
-168.881	-200.000	-0.006	-0.049
-167.866	-0.830	0.140	-0.098
-166.852	96.086	-0.181	-0.204
-165.837	-200.000	0.012	-0.322
-164.823	116.730	0.090	0.109
-163.808	-94.217	-0.237	0.064
-162.793	411.705	-0.047	-0.098
-161.779	-200.000	-0.047	-0.394
-160.764	800.000	0.136	0.468
-159.750	-200.000	0.001	-0.081
-158.735	246.161	-0.133	-0.220
-157.720	1.986	0.280	0.199
-156.706	81.455	0.045	-0.048
-155.691	14.349	0.263	-0.202
-154.677	63.479	0.052	-0.051
-153.662	-45.172	-0.048	0.023
-152.647	33.453	0.109	0.093
-151.633	147.770	0.229	-0.304
-150.618	2.633	-0.091	0.065
-149.604	-200.000	-0.023	0.218
-148.589	-153.581	0.148	0.010
-147.574	-95.259	-0.347	0.092
-146.560	-7.878	0.174	-0.116
-145.545	-106.518	0.276	-0.061
-144.531	136.373	-0.156	0.200
-143.516	-200.000	-0.015	-0.075
-142.502	-81.842	-0.077	-0.025
-141.487	-31.825	0.238	-0.131
-140.472	-8.313	0.123	-0.081
-139.458	-16.275	-0.155	0.097
-138.443	-12.910	0.079	0.051
-137.429	-196.530	0.255	0.002
-136.414	-9.540	0.068	-0.045
-135.399	-30.296	-0.227	-0.127
-134.385	-132.620	0.212	-0.027
-133.370	-34.664	-0.580	-0.312
-132.356	-39.534	0.245	0.126
-131.341	-200.000	-0.014	0.103
-130.326	1.665	-0.434	-0.308
-129.312	94.508	-0.112	0.125
-128.297	-36.514	-0.203	-0.108
-127.283	45.737	0.222	0.202
-126.268	-110.490	-0.170	0.035
-125.253	481.775	-0.066	0.148
-124.239	-200.000	0.008	0.266
-123.224	-74.969	-0.068	-0.024
-122.210	410.689	-0.025	0.052
-121.195	165.944	-0.060	0.084
