DTS Sentinel unit serial number:	SN413079Multiplexer serial number:	ORYXHardware model number:	OX4-SRSoftware version number:	ORYX F/W v4.00 Oryx Data Collector v3.7.2.0data status	okinstallation	princeton_trtdifferential loss correction	single-endedforward channel	channel 2reverse channel	N/Adate	2019/09/10time	16:25:10forward acquisition time	60.00reverse acquisition time	0.00gamma	496.2192k internal	0.2307k external	0.2307temperature offset calibration	0.9938default loss term (dB/km)	0.3790temperature slope calibration	1.0000multiplexer offset coefficient	1.0000multiplexer slope coefficient	1.0000fibre end	0.00T internal ref (°C)	38.14T ext. ref 1 (°C)	-0.28T ext. ref 2 (°C)	30.93length (m)	temperature (°C)	Stokes	anti-Stokes-747.200	10.908	-0.023	-0.018
-746.185	-90.360	0.450	0.133
-745.171	-1.739	0.232	-0.166
-744.156	800.000	-0.023	-0.087
-743.142	-60.999	0.122	-0.052
-742.127	-152.481	0.272	0.020
-741.112	152.217	0.136	0.189
-740.098	253.396	0.203	0.352
-739.083	800.000	-0.059	-0.172
-738.069	133.588	0.127	0.167
-737.054	351.003	-0.160	-0.322
-736.039	81.692	-0.158	-0.174
-735.025	-123.370	0.041	0.007
-734.010	-155.797	0.134	0.009
-732.996	-3.592	0.252	-0.178
-731.981	-99.357	-0.308	-0.079
-730.966	-126.332	0.241	-0.037
-729.952	-200.000	-0.000	-0.095
-728.937	-200.000	-0.258	0.001
-727.923	-76.687	-0.115	-0.041
-726.908	106.661	0.228	0.274
-725.894	266.619	-0.040	-0.070
-724.879	-108.493	0.182	-0.040
-723.864	800.000	0.075	-0.230
-722.850	-115.189	0.474	0.091
-721.835	-139.800	0.181	0.020
-720.821	-10.854	0.259	0.174
-719.806	-136.349	-0.136	0.016
-718.791	154.932	-0.222	0.310
-717.777	-30.256	0.148	-0.085
-716.762	0.652	-0.272	-0.197
-715.748	-4.863	-0.188	0.132
-714.733	279.858	0.089	0.162
-713.718	-60.077	0.306	-0.133
-712.704	-78.838	-0.206	-0.071
-711.689	-200.000	0.007	-0.076
-710.675	-118.211	0.130	0.023
-709.660	14.405	0.132	0.105
-708.645	-97.891	-0.254	0.066
-707.631	-200.000	0.018	-0.090
-706.616	-136.463	-0.234	0.028
-705.602	50.314	-0.129	-0.123
-704.587	800.000	-0.050	0.194
-703.572	30.375	0.182	-0.158
-702.558	256.627	0.071	-0.124
-701.543	-39.125	0.111	-0.059
-700.529	419.484	-0.122	0.264
-699.514	-177.840	-0.242	0.006
-698.499	26.438	-0.110	-0.093
-697.485	-46.749	0.295	-0.146
-696.470	800.000	0.069	-0.292
-695.456	-200.000	-0.021	-0.206
-694.441	800.000	0.056	-0.156
-693.426	-200.000	-0.008	0.128
-692.412	-200.000	-0.027	-0.186
-691.397	-200.000	-0.002	-0.177
-690.383	-76.738	-0.141	0.050
-689.368	-200.000	0.001	0.042
-688.354	150.779	-0.306	-0.421
-687.339	113.329	0.143	0.176
-686.324	108.447	0.201	-0.243
-685.310	800.000	0.078	-0.240
-684.295	-200.000	0.031	-0.450
-683.281	-10.197	-0.109	-0.073
-682.266	800.000	-0.044	0.174
-681.251	-75.598	0.159	-0.057
-680.237	-22.167	0.263	0.162
-679.222	-149.393	0.222	0.018
-678.208	54.664	0.124	-0.121
-677.193	-200.000	0.005	-0.062
-676.178	-55.366	-0.242	-0.110
-675.164	175.628	0.054	-0.080
-674.149	247.885	0.076	-0.129
-673.135	-174.456	-0.165	-0.005
-672.120	255.850	0.171	-0.298
-671.105	279.035	0.147	-0.265
-670.091	800.000	-0.010	-0.045
-669.076	-172.954	0.214	-0.007
-668.062	171.679	0.100	-0.146
-667.047	210.607	-0.067	-0.107
-666.032	-109.223	0.110	-0.024
-665.018	800.000	-0.063	-0.209
-664.003	142.180	0.142	0.190
-662.989	-38.777	0.112	-0.060
-661.974	-85.580	0.111	-0.035
-660.959	-200.000	0.027	0.316
-659.945	800.000	0.055	-0.226
-658.930	172.909	-0.204	-0.298
-657.916	210.240	-0.117	-0.186
-656.901	-158.475	-0.327	-0.019
-655.886	-132.037	-0.277	-0.037
-654.872	-41.858	0.065	0.034
-653.857	39.703	0.273	0.248
-652.843	117.820	0.135	-0.169
-651.828	-43.465	-0.087	0.045
-650.814	800.000	0.050	0.159
-649.799	-4.584	0.407	0.285
-648.784	297.372	0.115	0.215
-647.770	776.524	0.060	-0.166
-646.755	-39.346	-0.168	-0.089
-645.741	800.000	-0.102	-0.286
-644.726	-79.061	0.554	0.191
-643.711	521.837	-0.137	-0.325
-642.697	323.535	0.138	-0.266
-641.682	-110.240	0.376	0.079
-640.668	-200.000	-0.013	-0.134
-639.653	177.184	-0.051	0.076
-638.638	-48.145	0.166	-0.081
-637.624	63.579	0.269	-0.273
-636.609	10.667	-0.317	-0.245
-635.595	-124.937	0.163	-0.025
-634.580	-3.088	0.305	-0.215
-633.565	545.425	-0.065	-0.157
-632.551	-103.800	-0.310	-0.073
-631.536	-200.000	0.012	-0.161
-630.522	-200.000	-0.002	0.175
-629.507	-86.846	0.144	0.044
-628.492	31.903	-0.184	-0.161
-627.478	-59.057	-0.185	-0.081
-626.463	383.822	-0.127	0.264
-625.449	85.177	0.158	0.175
-624.434	28.556	-0.129	-0.111
-623.419	39.344	-0.108	0.098
-622.405	533.297	0.057	-0.138
-621.390	-142.038	-0.069	-0.007
-620.376	-65.281	-0.275	0.112
-619.361	-192.539	-0.327	-0.003
-618.346	68.666	0.305	0.317
-617.332	282.561	-0.069	-0.125
-616.317	77.931	-0.291	0.314
-615.303	-200.000	-0.002	0.182
-614.288	-193.148	-0.144	0.001
-613.273	-200.000	-0.004	0.151
-612.259	-200.000	0.038	0.281
-611.244	-56.325	0.416	-0.187
-610.230	51.913	-0.124	0.119
-609.215	97.959	-0.168	0.195
-608.201	109.019	-0.121	-0.146
-607.186	-200.000	-0.009	-0.183
-606.171	33.583	0.067	0.059
-605.157	165.110	-0.142	-0.203
-604.142	-82.495	0.292	-0.096
-603.128	-200.000	-0.062	0.408
-602.113	442.740	-0.027	0.060
-601.098	-72.431	0.218	0.081
-600.084	-63.655	0.076	-0.032
-599.069	-121.539	0.045	-0.008
-598.055	318.535	0.025	0.047
-597.040	-200.000	0.025	0.111
-596.025	800.000	0.076	0.299
-595.011	-200.000	-0.082	0.403
-593.996	57.714	-0.024	0.024
-592.982	61.265	-0.085	0.085
-591.967	158.145	-0.067	-0.094
-590.952	21.701	-0.038	-0.031
-589.938	21.909	-0.072	0.060
-588.923	-80.357	0.229	0.077
-587.909	160.155	-0.171	0.241
-586.894	587.901	-0.073	0.183
-585.879	-17.830	0.139	-0.088
-584.865	24.192	0.159	-0.133
-583.850	478.183	-0.054	-0.123
-582.836	800.000	-0.065	-0.210
-581.821	119.527	-0.210	0.263
-580.806	-95.104	0.096	0.026
-579.792	130.342	-0.121	0.157
-578.777	88.613	0.210	-0.235
-577.763	4.790	0.136	-0.101
-576.748	20.447	0.036	-0.029
-575.733	-159.534	-0.187	0.010
-574.719	-99.205	0.384	-0.098
-573.704	-59.032	0.191	0.083
-572.690	-124.437	0.187	-0.029
-571.675	800.000	-0.071	-0.203
-570.661	266.050	0.245	-0.433
-569.646	140.754	0.081	-0.108
-568.631	26.820	0.065	-0.055
-567.617	-200.000	-0.018	0.255
-566.602	-200.000	-0.019	0.323
-565.588	-36.288	0.198	0.108
-564.573	33.826	-0.059	0.052
-563.558	423.288	-0.180	0.390
-562.544	20.683	0.207	-0.169
-561.529	-60.485	0.352	0.151
-560.515	-46.903	-0.317	0.156
-559.500	382.219	-0.182	-0.377
-558.485	-46.626	-0.284	-0.141
-557.471	-67.184	-0.175	0.070
-556.456	-160.713	-0.294	0.016
-555.442	169.654	-0.082	0.119
-554.427	-38.885	0.082	-0.044
-553.412	119.371	0.177	-0.221
-552.398	102.520	-0.096	-0.114
-551.383	225.188	-0.054	-0.088
-550.369	177.568	-0.065	-0.096
-549.354	800.000	-0.040	0.154
-548.339	-11.816	0.121	0.080
-547.325	-102.089	0.323	0.078
-546.310	719.341	0.070	0.189
-545.296	800.000	-0.081	0.263
-544.281	-31.175	-0.464	0.264
-543.266	7.872	-0.098	0.074
-542.252	-89.330	0.365	-0.109
-541.237	-78.150	-0.147	0.051
-540.223	297.053	-0.018	-0.033
-539.208	-5.954	-0.161	-0.111
-538.193	180.282	-0.387	0.572
-537.179	90.727	0.339	-0.383
-536.164	-133.051	-0.341	0.044
-535.150	177.344	0.091	-0.134
-534.135	-200.000	0.052	-0.327
-533.121	-200.000	-0.045	0.213
-532.106	131.129	-0.020	-0.025
-531.091	-200.000	0.013	0.215
-530.077	-62.993	0.089	0.037
-529.062	-96.680	0.292	-0.078
-528.048	-90.031	0.379	-0.111
-527.033	800.000	0.071	0.205
-526.018	-163.159	-0.231	-0.011
-525.004	-200.000	0.001	0.073
-523.989	-67.891	-0.316	-0.125
-522.975	-153.252	-0.213	-0.015
-521.960	-160.921	-0.135	0.007
-520.945	-199.694	-0.153	-0.001
-519.931	651.274	0.094	-0.243
-518.916	-200.000	0.067	-0.296
-517.902	800.000	0.148	0.520
-516.887	194.407	0.121	-0.185
-515.872	-95.047	0.181	-0.049
-514.858	132.849	-0.292	-0.380
-513.843	7.171	-0.051	0.038
-512.829	-56.459	0.350	0.157
-511.814	28.413	0.146	0.124
-510.799	-21.344	-0.257	0.158
-509.785	127.409	-0.155	-0.198
-508.770	82.374	-0.086	-0.093
-507.756	-91.751	0.064	-0.018
-506.741	-81.773	0.191	0.063
-505.726	-155.256	0.013	-0.001
-504.712	64.457	-0.140	0.142
-503.697	171.956	-0.092	-0.133
-502.683	471.108	-0.106	0.240
-501.668	-59.533	-0.269	-0.116
-500.653	633.089	0.158	-0.402
-499.639	33.594	0.060	-0.052
-498.624	424.217	-0.126	-0.273
-497.610	-119.898	0.222	-0.038
-496.595	-54.558	-0.334	-0.152
-495.581	193.700	-0.052	-0.079
-494.566	65.838	0.038	0.039
-493.551	404.872	0.079	0.168
-492.537	312.105	-0.030	0.057
-491.522	-200.000	-0.066	-0.334
-490.508	451.498	-0.100	-0.222
-489.493	800.000	0.032	-0.133
-488.478	8.482	-0.056	0.042
-487.464	-200.000	0.006	0.107
-486.449	-138.222	0.184	-0.021
-485.435	-22.550	-0.333	0.203
-484.420	-200.000	0.024	0.349
-483.405	492.868	-0.040	0.092
-482.391	-16.919	-0.313	-0.199
-481.376	-185.417	-0.045	-0.001
-480.362	-179.951	-0.329	0.007
-479.347	-44.640	-0.242	-0.122
-478.332	-200.000	0.065	0.409
-477.318	-154.542	0.208	0.014
-476.303	-200.000	0.003	0.263
-475.289	-200.000	0.023	-0.168
-474.274	-26.878	-0.136	-0.080
-473.259	70.767	0.058	0.060
-472.245	-200.000	-0.035	-0.210
-471.230	-76.801	-0.253	0.089
-470.216	-161.365	-0.267	0.014
-469.201	-200.000	0.021	0.139
-468.186	-141.279	0.126	0.013
-467.172	19.281	0.161	-0.130
-466.157	-115.935	-0.341	0.064
-465.143	-127.708	-0.318	-0.046
-464.128	-200.000	-0.014	0.379
-463.113	-128.497	0.210	-0.030
-462.099	-21.266	0.287	-0.176
-461.084	-47.798	-0.217	-0.106
-460.070	-17.431	0.351	0.222
-459.055	-36.462	-0.026	0.014
-458.040	-67.084	0.384	-0.152
-457.026	-165.522	-0.146	0.006
-456.011	752.729	0.151	0.411
-454.997	800.000	-0.053	-0.200
-453.982	391.302	-0.100	-0.210
-452.968	-200.000	-0.166	-0.001
-451.953	-0.809	-0.127	-0.090
-450.938	-41.488	0.313	-0.162
-449.924	-83.757	-0.406	-0.130
-448.909	-26.758	0.157	-0.092
-447.895	-200.000	0.064	-0.413
-446.880	282.326	0.123	-0.221
-445.865	535.428	0.013	0.031
-444.851	-160.506	0.097	0.005
-443.836	123.096	-0.147	0.185
-442.822	207.886	-0.204	-0.320
-441.807	96.194	-0.149	-0.171
-440.792	34.565	-0.309	-0.271
-439.778	-200.000	0.039	0.268
-438.763	718.432	-0.095	0.254
-437.749	506.093	-0.064	-0.149
-436.734	-2.226	0.240	-0.169
-435.719	800.000	0.045	-0.144
-434.705	14.223	-0.283	-0.221
-433.690	-200.000	0.001	-0.356
-432.676	356.829	0.260	-0.520
-431.661	-165.190	0.166	0.007
-430.646	41.166	-0.083	0.075
-429.632	459.985	-0.083	0.186
-428.617	-73.880	0.330	-0.121
-427.603	-200.000	0.003	0.129
-426.588	197.210	-0.210	-0.322
-425.573	-41.582	0.064	0.033
-424.559	-64.771	0.162	0.066
-423.544	59.317	-0.192	-0.190
-422.530	-200.000	-0.082	0.371
-421.515	318.053	-0.159	-0.302
-420.500	143.657	-0.222	-0.297
-419.486	546.665	-0.052	0.124
-418.471	794.421	0.068	0.189
-417.457	52.848	0.096	-0.093
-416.442	99.128	-0.056	-0.066
-415.428	-165.902	-0.156	-0.007
-414.413	66.595	-0.149	-0.152
-413.398	408.432	0.186	-0.394
-412.384	-61.533	-0.296	-0.125
-411.369	397.772	0.028	-0.058
-410.355	-71.754	-0.145	0.054
-409.340	70.294	-0.185	-0.191
-408.325	2.845	-0.230	-0.167
-407.311	-200.000	-0.006	0.285
-406.296	-104.108	-0.132	0.031
-405.282	800.000	0.046	0.150
-404.267	-37.944	-0.288	0.154
-403.252	-59.859	-0.111	-0.048
-402.238	-97.276	0.133	-0.035
-401.223	68.114	-0.070	-0.072
-400.209	-80.346	-0.217	0.073
-399.194	-99.625	0.327	-0.082
-398.179	512.718	0.158	0.369
-397.165	-148.884	0.204	-0.017
-396.150	221.556	0.102	-0.165
-395.136	187.507	0.165	0.247
-394.121	800.000	-0.054	0.181
-393.106	433.718	-0.085	-0.186
-392.092	-122.090	-0.145	-0.024
-391.077	-200.000	0.025	0.296
-390.063	223.052	-0.184	0.297
-389.048	800.000	-0.106	-0.359
-388.033	47.995	-0.128	0.120
-387.019	128.217	0.125	-0.159
-386.004	-28.277	0.172	-0.100
-384.990	251.442	-0.056	0.095
-383.975	-127.511	-0.025	0.004
-382.960	-36.717	0.060	0.032
-381.946	-15.120	-0.156	0.100
-380.931	-54.879	0.271	0.123
-379.917	-24.333	-0.266	0.159
-378.902	725.885	-0.035	-0.093
-377.888	196.559	-0.024	-0.037
-376.873	-122.370	-0.243	-0.040
-375.858	-200.000	0.090	0.535
-374.844	-43.785	0.163	-0.082
-373.829	-200.000	0.015	-0.215
-372.815	-29.773	-0.096	0.055
-371.800	-179.877	0.112	0.002
-370.785	-200.000	-0.016	0.282
-369.771	-190.206	0.291	-0.003
-368.756	800.000	-0.122	-0.463
-367.742	-85.080	0.278	0.087
-366.727	-15.965	0.094	0.060
-365.712	800.000	0.039	-0.141
-364.698	-200.000	-0.020	0.244
-363.683	-200.000	0.030	0.177
-362.669	-200.000	0.027	-0.264
-361.654	800.000	-0.043	-0.153
-360.639	83.159	-0.195	-0.213
-359.625	800.000	-0.036	-0.148
-358.610	48.039	-0.061	-0.057
-357.596	800.000	-0.007	-0.031
-356.581	800.000	-0.063	0.265
-355.566	-200.000	-0.024	0.466
-354.552	469.306	0.134	-0.301
-353.537	133.148	-0.147	-0.190
-352.523	-200.000	-0.010	0.339
-351.508	800.000	0.017	-0.055
-350.493	160.798	0.203	-0.283
-349.479	-106.509	-0.133	-0.030
-348.464	-170.602	0.255	0.009
-347.450	-200.000	0.016	0.096
-346.435	-41.221	0.224	-0.116
-345.420	374.013	-0.074	0.150
-344.406	82.013	-0.095	0.103
-343.391	-200.000	-0.004	0.084
-342.377	800.000	0.075	-0.284
-341.362	702.064	-0.004	-0.012
-340.348	-200.000	-0.041	0.285
-339.333	-186.200	-0.105	0.002
-338.318	-200.000	-0.037	-0.262
-337.304	-64.732	-0.124	0.050
-336.289	130.472	-0.156	0.200
-335.275	767.238	-0.074	-0.201
-334.260	-200.000	0.018	-0.168
-333.245	314.199	-0.066	-0.125
-332.231	800.000	0.016	-0.047
-331.216	304.279	0.077	0.143
-330.202	-41.588	0.136	0.070
-329.187	284.518	-0.076	0.137
-328.172	-163.906	0.068	-0.003
-327.158	-102.697	0.061	0.015
-326.143	83.451	0.183	-0.199
-325.129	113.499	-0.234	0.284
-324.114	104.750	-0.042	-0.050
-323.099	209.632	0.138	0.216
-322.085	267.576	-0.123	-0.215
-321.070	-200.000	-0.036	-0.251
-320.056	800.000	-0.053	0.199
-319.041	129.485	0.143	-0.183
-318.026	-181.057	0.213	0.004
-317.012	588.194	0.085	0.210
-315.997	-133.227	0.103	0.013
-314.983	290.106	-0.097	-0.176
-313.968	-12.547	0.086	0.056
-312.953	-200.000	-0.017	0.186
-311.939	-121.046	0.261	-0.044
-310.924	229.970	-0.107	0.174
-309.910	-86.506	0.155	0.048
-308.895	635.718	0.058	-0.146
-307.880	103.666	0.231	0.271
-306.866	800.000	0.022	-0.087
-305.851	228.389	0.090	-0.146
-304.837	800.000	0.191	0.567
-303.822	-40.636	0.098	0.051
-302.807	44.710	0.196	0.180
-301.793	737.371	-0.151	0.406
-300.778	501.979	-0.138	0.318
-299.764	-103.056	0.140	-0.033
-298.749	-25.443	0.298	0.176
-297.735	-69.508	0.133	-0.051
-296.720	641.566	0.069	-0.176
-295.705	800.000	-0.099	0.391
-294.691	322.946	0.153	0.291
-293.676	800.000	-0.029	0.086
-292.662	-57.056	-0.074	-0.033
-291.647	145.905	-0.145	-0.194
-290.632	800.000	0.083	-0.235
-289.618	179.668	-0.112	-0.164
-288.603	-45.719	-0.265	0.131
-287.589	-139.831	-0.304	0.032
-286.574	-101.038	0.282	0.069
-285.559	-63.664	-0.150	-0.061
-284.545	66.112	-0.159	0.161
-283.530	-24.143	0.113	0.067
-282.516	-130.994	-0.245	0.033
-281.501	-200.000	-0.049	-0.256
-280.486	-100.894	0.284	-0.070
-279.472	191.645	-0.068	-0.103
-278.457	128.151	-0.093	0.118
-277.443	346.910	-0.028	0.054
-276.428	800.000	0.014	-0.054
-275.413	5.545	0.036	0.027
-274.399	-200.000	-0.007	-0.257
-273.384	-200.000	-0.014	-0.173
-272.370	-77.384	-0.289	-0.100
-271.355	-12.698	-0.143	-0.093
-270.340	-200.000	0.014	-0.063
-269.326	-94.912	-0.368	0.099
-268.311	-190.491	-0.271	-0.003
-267.297	-90.675	-0.109	-0.031
-266.282	-150.899	0.445	-0.034
-265.267	-200.000	0.028	-0.348
-264.253	-83.316	-0.138	-0.044
-263.238	800.000	0.011	0.039
-262.224	-200.000	0.007	0.177
-261.209	27.045	0.193	-0.162
-260.195	-200.000	-0.003	-0.196
-259.180	-200.000	-0.216	-0.000
-258.165	-200.000	0.017	-0.286
-257.151	85.422	-0.110	-0.120
-256.136	-7.064	-0.029	0.020
-255.122	148.580	-0.068	-0.092
-254.107	-64.680	0.404	0.163
-253.092	-200.000	0.053	0.246
-252.078	-95.501	0.431	0.115
-251.063	61.115	-0.187	-0.185
-250.049	212.042	0.123	-0.193
-249.034	-135.108	-0.183	-0.022
-248.019	-10.864	0.277	-0.183
-247.005	63.772	-0.094	0.094
-245.990	800.000	-0.041	-0.140
-244.976	155.245	0.151	-0.207
-243.961	-200.000	-0.001	0.005
-242.946	800.000	0.097	0.282
-241.932	-200.000	-0.026	0.122
-240.917	-200.000	0.017	0.350
-239.903	403.019	0.074	0.154
-238.888	-56.611	-0.108	-0.048
-237.873	8.723	0.059	0.045
-236.859	-6.429	0.273	-0.185
-235.844	-55.058	-0.200	-0.090
-234.830	-200.000	0.066	-0.325
-233.815	-161.904	-0.393	-0.020
-232.800	1.419	-0.147	0.106
-231.786	626.465	-0.026	0.065
-230.771	-85.831	0.069	0.021
-229.757	-200.000	-0.009	-0.096
-228.742	-91.892	0.112	-0.032
-227.727	-23.252	-0.098	0.059
-226.713	158.874	-0.240	-0.333
-225.698	-185.009	0.220	0.003
-224.684	800.000	-0.061	0.201
-223.669	-200.000	0.007	-0.069
-222.655	-139.004	0.355	-0.038
-221.640	144.523	0.046	0.061
-220.625	19.694	0.084	0.068
-219.611	-29.186	0.349	-0.199
-218.596	-200.000	-0.029	-0.158
-217.582	8.300	0.283	-0.212
-216.567	-6.508	0.137	-0.093
-215.552	-80.940	-0.133	-0.044
-214.538	337.877	-0.150	0.290
-213.523	800.000	-0.037	-0.122
-212.509	210.069	0.038	-0.060
-211.494	800.000	-0.085	-0.349
-210.479	124.107	0.253	-0.317
-209.465	800.000	-0.090	0.261
-208.450	362.718	-0.134	-0.268
-207.436	800.000	0.082	-0.293
-206.421	-29.628	-0.184	-0.105
-205.406	83.052	0.167	-0.181
-204.392	-80.226	0.310	0.103
-203.377	-200.000	-0.010	0.179
-202.363	89.744	0.166	0.184
-201.348	631.444	0.003	-0.007
-200.333	40.240	-0.113	0.101
-199.319	40.244	-0.114	0.102
-198.304	-20.105	-0.065	-0.040
-197.290	102.694	-0.066	-0.076
-196.275	187.343	-0.119	-0.177
-195.260	23.583	0.197	0.162
-194.246	766.383	-0.125	0.339
-193.231	-200.000	-0.089	0.397
-192.217	-200.000	0.049	0.274
-191.202	56.025	-0.166	0.160
-190.187	117.405	-0.038	-0.046
-189.173	401.173	-0.051	0.107
-188.158	-21.977	0.068	-0.041
-187.144	-200.000	-0.007	-0.038
-186.129	25.896	0.172	-0.143
-185.114	20.048	-0.171	0.137
-184.100	252.291	0.053	0.089
-183.085	33.341	0.087	0.075
-182.071	43.177	0.205	0.187
-181.056	62.020	-0.428	0.424
-180.042	-52.817	0.121	0.055
-179.027	-31.429	-0.153	0.086
-178.012	265.795	-0.036	0.063
-176.998	-200.000	0.012	-0.127
-175.983	-200.000	0.016	0.141
-174.969	5.314	-0.300	-0.220
-173.954	-51.865	-0.044	-0.020
-172.939	-92.007	0.146	0.041
-171.925	8.503	0.437	0.327
-170.910	-190.736	0.164	-0.002
-169.896	388.237	0.079	-0.163
-168.881	141.876	0.030	-0.039
-167.866	800.000	0.067	0.203
-166.852	-78.901	0.229	-0.077
-165.837	-200.000	0.007	-0.110
-164.823	-35.505	0.215	-0.116
-163.808	-146.336	0.034	0.003
-162.793	-129.342	0.104	0.014
-161.779	-36.094	-0.157	-0.084
-160.764	167.114	0.010	-0.014
-159.750	-200.000	-0.028	0.240
-158.735	800.000	0.128	0.360
-157.720	-200.000	0.003	0.031
-156.706	55.890	-0.078	-0.075
-155.691	119.251	-0.035	-0.043
-154.677	-35.153	0.347	0.188
-153.662	-55.129	-0.235	0.105
-152.647	-180.367	0.263	-0.005
-151.633	447.991	0.110	0.240
-150.618	-26.719	-0.150	-0.087
-149.604	-40.603	-0.140	0.072
-148.589	765.343	-0.087	0.236
-147.574	800.000	0.070	-0.285
-146.560	-161.781	-0.378	-0.019
-145.545	-200.000	0.015	0.134
-144.531	-200.000	0.009	0.212
-143.516	-44.701	-0.140	-0.070
-142.502	-122.054	-0.195	-0.032
-141.487	20.173	0.181	-0.145
-140.472	-36.447	0.240	-0.128
-139.458	-119.007	-0.295	-0.051
-138.443	-200.000	-0.003	-0.292
-137.429	13.257	-0.012	0.009
-136.414	-172.034	-0.123	-0.004
-135.399	-161.365	-0.362	-0.019
-134.385	-118.583	0.277	0.049
-133.370	800.000	-0.125	-0.356
-132.356	-160.932	-0.069	0.004
-131.341	27.575	0.116	-0.097
-130.326	-200.000	0.021	-0.125
-129.312	-138.944	0.150	0.016
-128.297	800.000	-0.084	0.299
-127.283	788.759	-0.092	-0.251
-126.268	192.732	-0.137	-0.205
-125.253	-200.000	-0.013	-0.303
-124.239	-102.760	0.367	-0.087
-123.224	-200.000	0.003	-0.297
-122.210	800.000	-0.036	0.134
