DTS Sentinel unit serial number:	SN413079Multiplexer serial number:	ORYXHardware model number:	OX4-SRSoftware version number:	ORYX F/W v4.00 Oryx Data Collector v3.7.2.0data status	okinstallation	princeton_trtdifferential loss correction	single-endedforward channel	channel 2reverse channel	N/Adate	2019/09/19time	07:23:35forward acquisition time	60.00reverse acquisition time	0.00gamma	496.2192k internal	0.2351k external	0.2351temperature offset calibration	1.0010default loss term (dB/km)	0.3790temperature slope calibration	1.0000multiplexer offset coefficient	1.0000multiplexer slope coefficient	1.0000fibre end	0.00T internal ref (°C)	19.16T ext. ref 1 (°C)	0.55T ext. ref 2 (°C)	13.65length (m)	temperature (°C)	Stokes	anti-Stokes-747.200	-200.000	0.026	-0.333
-746.185	26.024	0.199	0.166
-745.171	287.391	-0.137	0.247
-744.156	800.000	-0.104	0.439
-743.142	377.053	0.016	0.033
-742.127	-150.263	0.141	-0.011
-741.112	305.818	-0.116	-0.216
-740.098	-105.826	0.285	-0.064
-739.083	800.000	0.026	0.106
-738.069	-186.893	-0.165	-0.002
-737.054	64.361	-0.159	-0.160
-736.039	50.001	-0.292	0.275
-735.025	-200.000	-0.061	0.314
-734.010	800.000	0.006	0.021
-732.996	800.000	-0.079	-0.307
-731.981	-53.450	-0.401	-0.183
-730.966	-33.446	-0.146	-0.080
-729.952	71.726	-0.083	-0.086
-728.937	451.195	0.049	0.108
-727.923	-59.206	-0.199	0.086
-726.908	-124.102	0.130	0.020
-725.894	318.644	-0.051	0.097
-724.879	-20.587	0.119	0.073
-723.864	90.206	0.165	-0.184
-722.850	-76.502	-0.360	-0.126
-721.835	6.077	0.199	-0.147
-720.821	207.287	0.085	-0.132
-719.806	346.490	0.099	0.193
-718.791	0.177	-0.119	0.084
-717.777	-85.937	-0.209	0.065
-716.762	800.000	0.092	-0.359
-715.748	-132.557	-0.182	0.023
-714.733	-83.631	-0.097	-0.031
-713.718	-168.343	0.045	0.002
-712.704	-200.000	-0.002	-0.102
-711.689	-178.662	0.360	-0.008
-710.675	-200.000	-0.049	0.401
-709.660	-177.666	0.402	0.010
-708.645	-99.131	0.096	-0.024
-707.631	800.000	0.020	-0.078
-706.616	-106.529	-0.249	0.055
-705.602	-200.000	0.012	0.280
-704.587	28.153	0.338	-0.285
-703.572	294.078	-0.085	0.155
-702.558	-144.730	0.181	-0.017
-701.543	-61.641	-0.145	-0.060
-700.529	69.241	-0.142	0.145
-699.514	-127.981	0.273	0.039
-698.499	284.002	-0.106	-0.190
-697.485	-200.000	-0.000	-0.211
-696.470	-200.000	-0.009	0.240
-695.456	-180.985	0.167	0.003
-694.441	-110.234	-0.292	0.061
-693.426	-29.511	-0.214	0.122
-692.412	-24.043	-0.087	0.052
-691.397	623.640	0.059	-0.149
-690.383	-119.224	-0.139	0.024
-689.368	94.932	-0.162	-0.184
-688.354	76.907	0.112	-0.119
-687.339	396.379	0.038	0.079
-686.324	178.532	0.183	-0.266
-685.310	-4.418	-0.311	-0.214
-684.295	-50.560	0.145	-0.068
-683.281	-44.477	-0.112	0.056
-682.266	-59.045	0.463	0.199
-681.251	-35.731	0.202	-0.109
-680.237	232.216	-0.168	-0.275
-679.222	-200.000	-0.013	-0.153
-678.208	-200.000	-0.001	-0.237
-677.193	-133.178	-0.254	0.032
-676.178	-142.767	-0.160	-0.016
-675.164	-21.402	0.111	-0.067
-674.149	78.826	-0.109	0.116
-673.135	-29.677	-0.148	-0.084
-672.120	-158.273	0.161	-0.009
-671.105	-115.636	0.354	0.066
-670.091	472.959	-0.161	0.361
-669.076	-84.446	-0.387	0.122
-668.062	-48.296	0.157	-0.075
-667.047	-81.139	-0.206	0.068
-666.032	664.604	0.034	0.087
-665.018	-200.000	-0.009	-0.102
-664.003	-175.097	-0.289	-0.008
-662.989	800.000	-0.076	-0.276
-661.974	238.218	-0.129	0.214
-660.959	-80.229	-0.268	-0.089
-659.945	114.205	-0.250	-0.302
-658.930	-200.000	-0.066	0.399
-657.916	-93.967	0.439	0.120
-656.901	-200.000	-0.016	-0.123
-655.886	244.928	0.180	0.300
-654.872	95.046	-0.089	0.101
-653.857	-200.000	-0.053	0.293
-652.843	-34.575	-0.239	0.130
-651.828	-200.000	0.004	0.328
-650.814	-200.000	0.014	-0.307
-649.799	-133.844	-0.328	0.041
-648.784	79.194	0.085	0.090
-647.770	41.327	-0.124	0.112
-646.755	-200.000	0.029	0.265
-645.741	-119.590	0.208	-0.036
-644.726	-113.087	-0.324	-0.064
-643.711	-18.931	-0.052	-0.032
-642.697	114.394	0.124	0.150
-641.682	-200.000	0.003	-0.048
-640.668	79.112	0.042	-0.045
-639.653	800.000	-0.102	-0.325
-638.638	-200.000	-0.022	0.151
-637.624	-59.069	0.322	-0.138
-636.609	-87.707	0.107	-0.032
-635.595	-24.204	-0.099	-0.059
-634.580	-200.000	0.005	-0.093
-633.565	-104.979	-0.361	0.082
-632.551	-146.471	0.165	0.014
-631.536	-75.870	-0.226	0.080
-630.522	-128.578	0.113	-0.016
-629.507	-7.749	-0.171	0.115
-628.492	-116.311	-0.287	0.053
-627.478	116.745	0.067	0.081
-626.463	82.579	0.161	-0.173
-625.449	-24.828	-0.214	0.126
-624.434	12.541	-0.264	-0.202
-623.419	-200.000	-0.004	-0.361
-622.405	-32.812	-0.302	-0.167
-621.390	-200.000	-0.001	-0.141
-620.376	141.711	-0.215	0.283
-619.361	679.707	0.116	0.300
-618.346	800.000	0.028	-0.114
-617.332	-82.627	-0.192	-0.062
-616.317	-200.000	0.005	0.243
-615.303	-45.668	0.133	-0.065
-614.288	-11.366	0.060	-0.039
-613.273	-151.852	0.293	-0.021
-612.259	-144.951	-0.210	-0.019
-611.244	-118.314	-0.326	-0.058
-610.230	497.876	-0.097	0.222
-609.215	-200.000	0.085	-0.000
-608.201	332.150	-0.093	-0.177
-607.186	-152.969	-0.093	-0.006
-606.171	-152.641	0.196	-0.014
-605.157	-30.616	0.325	-0.183
-604.142	674.446	0.072	0.185
-603.128	-147.197	-0.193	0.016
-602.113	-101.115	0.097	-0.024
-601.098	800.000	-0.073	-0.249
-600.084	-29.280	0.130	0.074
-599.069	-19.282	0.142	0.088
-598.055	-61.279	-0.098	-0.041
-597.040	-4.214	-0.176	-0.121
-596.025	349.453	-0.001	-0.002
-595.011	703.367	0.079	-0.205
-593.996	-9.674	-0.163	0.108
-592.982	-134.088	-0.348	-0.043
-591.967	-118.868	0.325	-0.057
-590.952	-141.739	-0.164	-0.016
-589.938	385.152	-0.045	0.092
-588.923	-113.050	0.316	0.062
-587.909	-200.000	-0.070	0.403
-586.894	-23.585	-0.491	-0.292
-585.879	-134.123	0.255	0.031
-584.865	-137.821	-0.540	-0.060
-583.850	-44.812	0.152	-0.075
-582.836	106.412	0.138	0.163
-581.821	415.129	-0.149	-0.315
-580.806	298.273	0.176	-0.320
-579.792	-200.000	0.091	-0.615
-578.777	-0.661	0.239	0.168
-577.763	-200.000	-0.024	0.115
-576.748	-200.000	0.009	0.286
-575.733	-0.483	0.289	-0.204
-574.719	371.463	-0.060	-0.121
-573.704	-55.231	0.085	-0.038
-572.690	138.012	0.089	-0.116
-571.675	-133.448	-0.308	-0.038
-570.661	6.130	0.174	-0.128
-569.646	-200.000	-0.021	0.254
-568.631	-200.000	-0.017	-0.190
-567.617	800.000	-0.075	-0.246
-566.602	138.841	-0.090	-0.117
-565.588	505.402	0.215	0.493
-564.573	359.965	-0.028	-0.056
-563.558	-200.000	0.006	0.058
-562.544	800.000	-0.124	0.424
-561.529	-17.230	0.244	-0.152
-560.515	39.708	-0.289	-0.257
-559.500	-130.441	-0.396	0.053
-558.485	249.047	-0.108	-0.181
-557.471	2.382	-0.180	0.129
-556.456	442.217	-0.083	-0.180
-555.442	8.413	-0.236	0.176
-554.427	-200.000	0.086	0.776
-553.412	53.731	-0.229	-0.218
-552.398	-12.329	0.135	0.088
-551.383	-200.000	-0.027	0.260
-550.369	-178.428	-0.265	0.006
-549.354	-121.973	0.335	0.055
-548.339	-84.035	0.223	0.070
-547.325	-200.000	-0.007	0.276
-546.310	377.340	-0.200	-0.405
-545.296	-40.008	-0.167	0.086
-544.281	462.614	0.131	0.289
-543.266	-200.000	0.041	-0.350
-542.252	-80.323	-0.125	-0.041
-541.237	-148.610	-0.095	-0.008
-540.223	232.702	-0.172	0.279
-539.208	-100.898	-0.049	0.012
-538.193	-128.409	-0.138	-0.019
-537.179	-159.588	0.261	0.014
-536.164	27.545	-0.116	0.096
-535.150	-28.415	0.195	0.111
-534.135	592.407	0.102	0.249
-533.121	131.923	0.032	-0.040
-532.106	-151.122	0.171	-0.013
-531.091	8.492	-0.152	-0.113
-530.077	-26.280	-0.140	0.081
-529.062	800.000	0.090	0.305
-528.048	-152.032	0.193	-0.014
-527.033	35.696	-0.268	-0.233
-526.018	-200.000	0.052	0.278
-525.004	412.151	0.136	-0.286
-523.989	351.398	-0.058	-0.114
-522.975	162.927	-0.407	0.565
-521.960	-99.338	0.176	-0.044
-520.945	-34.392	0.306	0.166
-519.931	74.389	0.196	-0.204
-518.916	800.000	0.029	0.108
-517.902	101.959	-0.157	-0.181
-516.887	-64.161	0.212	-0.085
-515.872	11.198	0.181	0.137
-514.858	-151.894	-0.507	0.037
-513.843	-33.291	0.173	0.095
-512.829	-46.969	0.009	0.004
-511.814	-46.923	0.275	-0.133
-510.799	10.400	0.195	-0.147
-509.785	194.813	0.119	0.179
-508.770	800.000	0.112	-0.412
-507.756	-16.771	0.134	-0.084
-506.741	66.849	-0.191	0.192
-505.726	-49.267	-0.339	0.160
-504.712	-103.489	0.297	-0.069
-503.697	283.568	-0.139	-0.247
-502.683	-123.722	0.221	-0.035
-501.668	70.598	0.028	-0.029
-500.653	800.000	-0.035	0.099
-499.639	-156.701	-0.543	-0.033
-498.624	309.830	0.036	-0.067
-497.610	-54.273	-0.133	0.060
-496.595	-128.145	-0.064	-0.009
-495.581	55.933	-0.333	-0.319
-494.566	38.957	0.203	-0.179
-493.551	172.061	0.109	0.155
-492.537	-42.839	-0.147	0.074
-491.522	-148.674	0.260	0.021
-490.508	66.114	0.124	-0.124
-489.493	-200.000	0.045	-0.246
-488.478	-21.514	0.186	-0.112
-487.464	63.018	0.171	0.169
-486.449	800.000	0.148	0.432
-485.435	-151.137	-0.086	0.006
-484.420	205.745	-0.145	0.223
-483.405	301.711	0.053	0.096
-482.391	20.028	-0.211	0.168
-481.376	-105.478	-0.142	0.032
-480.362	721.247	0.036	0.094
-479.347	-120.638	-0.123	0.021
-478.332	17.682	-0.090	-0.070
-477.318	-161.411	-0.063	-0.003
-476.303	-139.276	-0.069	0.007
-475.289	-92.395	-0.201	0.056
-474.274	128.147	-0.043	0.054
-473.259	-200.000	0.049	0.270
-472.245	-131.377	-0.099	0.013
-471.230	328.151	0.046	0.088
-470.216	-66.983	0.435	-0.169
-469.201	-49.273	-0.052	-0.024
-468.186	-39.833	-0.147	0.076
-467.172	359.451	0.286	0.565
-466.157	-91.755	-0.063	-0.018
-465.143	600.592	-0.025	0.061
-464.128	314.064	0.070	0.129
-463.113	-48.669	-0.455	0.216
-462.099	-200.000	-0.045	-0.279
-461.084	11.707	0.124	0.094
-460.070	-29.058	-0.191	-0.108
-459.055	427.528	-0.051	-0.109
-458.040	-200.000	0.055	0.389
-457.026	521.194	0.111	-0.258
-456.011	800.000	-0.066	0.223
-454.997	9.857	-0.167	-0.125
-453.982	-200.000	-0.055	-0.291
-452.968	-4.669	0.067	-0.046
-451.953	800.000	0.099	-0.301
-450.938	800.000	-0.102	-0.428
-449.924	-200.000	-0.009	0.119
-448.909	-41.410	-0.104	-0.053
-447.895	800.000	-0.051	0.208
-446.880	-200.000	0.017	0.110
-445.865	299.668	0.053	-0.097
-444.851	34.080	-0.077	-0.066
-443.836	70.122	-0.224	-0.228
-442.822	445.542	-0.059	-0.127
-441.807	-101.588	0.097	-0.023
-440.792	332.564	0.180	0.343
-439.778	-200.000	0.006	-0.226
-438.763	800.000	-0.050	0.185
-437.749	800.000	0.044	0.122
-436.734	19.522	-0.034	0.027
-435.719	132.138	-0.044	0.056
-434.705	272.476	0.176	0.305
-433.690	-71.586	-0.269	0.099
-432.676	280.075	0.211	0.371
-431.661	-158.821	0.146	0.008
-430.646	248.272	-0.221	0.369
-429.632	251.454	0.084	0.140
-428.617	127.278	-0.234	-0.292
-427.603	-28.026	0.390	-0.223
-426.588	-200.000	-0.006	-0.049
-425.573	800.000	0.079	0.231
-424.559	-64.995	-0.128	0.051
-423.544	-138.714	-0.275	-0.030
-422.530	-200.000	0.009	-0.198
-421.515	322.417	0.016	0.031
-420.500	-50.674	0.231	0.107
-419.486	-200.000	0.042	-0.317
-418.471	-59.854	0.118	0.050
-417.457	468.936	-0.045	-0.100
-416.442	-161.210	-0.268	-0.014
-415.428	-115.232	0.346	0.065
-414.413	-79.635	-0.140	0.047
-413.398	51.259	-0.060	-0.056
-412.384	-12.069	-0.194	0.125
-411.369	49.175	0.391	-0.362
-410.355	-18.706	0.129	0.079
-409.340	281.110	-0.192	-0.339
-408.325	800.000	-0.083	-0.285
-407.311	19.666	-0.105	0.083
-406.296	9.598	0.191	0.142
-405.282	-200.000	-0.020	0.221
-404.267	31.019	-0.057	-0.048
-403.252	-78.193	0.232	-0.079
-402.238	-200.000	-0.049	-0.213
-401.223	-92.073	-0.107	-0.030
-400.209	800.000	0.044	0.141
-399.194	-113.432	-0.269	0.052
-398.179	419.284	-0.085	0.179
-397.165	2.218	-0.039	0.028
-396.150	800.000	0.098	0.285
-395.136	476.522	-0.074	-0.164
-394.121	190.764	-0.116	0.172
-393.106	-93.023	0.241	-0.066
-392.092	197.403	0.097	-0.145
-391.077	-200.000	0.054	0.336
-390.063	281.830	0.105	-0.185
-389.048	-200.000	-0.054	0.378
-388.033	-200.000	-0.003	0.125
-387.019	-52.718	-0.240	0.109
-386.004	37.203	-0.276	-0.240
-384.990	-93.200	0.239	-0.065
-383.975	800.000	-0.084	-0.295
-382.960	101.780	0.160	0.184
-381.946	800.000	-0.042	-0.180
-380.931	800.000	-0.025	0.093
-379.917	800.000	0.069	0.208
-378.902	-31.883	0.404	0.223
-377.888	-200.000	-0.041	-0.259
-376.873	44.183	-0.127	-0.114
-375.858	-200.000	0.016	0.285
-374.844	-200.000	0.023	0.321
-373.829	800.000	-0.028	0.089
-372.815	-42.888	-0.131	0.065
-371.800	800.000	-0.112	-0.326
-370.785	168.205	-0.077	-0.108
-369.771	210.119	-0.144	-0.222
-368.756	7.662	-0.157	-0.116
-367.742	-200.000	0.041	0.178
-366.727	-200.000	-0.066	0.483
-365.712	-6.068	0.115	0.077
-364.698	-160.047	0.358	-0.019
-363.683	-200.000	0.007	0.068
-362.669	800.000	-0.127	-0.536
-361.654	405.581	0.044	-0.091
-360.639	553.688	-0.098	0.231
-359.625	-2.910	0.050	-0.035
-358.610	-81.809	0.099	-0.032
-357.596	-82.599	-0.131	-0.042
-356.581	94.811	-0.068	-0.077
-355.566	-160.196	0.100	-0.005
-354.552	124.644	-0.050	-0.062
-353.537	526.962	-0.128	0.296
-352.523	31.302	-0.147	-0.124
-351.508	336.720	0.056	0.108
-350.493	-88.145	0.218	-0.064
-349.479	-200.000	-0.061	-0.445
-348.464	-25.111	-0.292	-0.170
-347.450	-154.269	0.110	0.007
-346.435	119.793	-0.113	-0.138
-345.420	-66.154	0.103	-0.040
-344.406	60.520	0.289	-0.281
-343.391	-99.314	0.215	-0.053
-342.377	143.667	0.056	0.074
-341.362	-1.938	0.028	-0.019
-340.348	800.000	-0.060	0.211
-339.333	-56.512	-0.207	-0.090
-338.318	-112.046	0.074	0.015
-337.304	-47.768	0.173	-0.082
-336.289	-99.125	-0.104	-0.026
-335.275	488.419	-0.094	-0.210
-334.260	668.647	-0.108	-0.274
-333.245	-14.546	0.380	0.240
-332.231	197.335	0.133	-0.200
-331.216	56.634	-0.113	-0.108
-330.202	289.985	0.142	0.252
-329.187	217.228	0.079	-0.124
-328.172	800.000	0.006	-0.024
-327.158	107.865	0.252	0.295
-326.143	218.906	0.133	-0.209
-325.129	749.912	0.161	-0.428
-324.114	-140.893	-0.214	-0.022
-323.099	-182.562	-0.167	0.003
-322.085	67.801	-0.236	-0.236
-321.070	100.627	0.234	0.267
-320.056	35.241	0.139	0.119
-319.041	-148.061	0.033	0.003
-318.026	-87.176	-0.050	0.015
-317.012	-200.000	0.021	-0.317
-315.997	422.880	-0.195	-0.410
-314.983	-94.246	0.226	-0.061
-313.968	9.301	0.228	-0.169
-312.953	112.827	0.298	0.355
-311.939	-21.119	-0.205	0.123
-310.924	558.172	0.087	0.207
-309.910	57.158	0.092	-0.088
-308.895	-71.383	0.503	-0.185
-307.880	-200.000	-0.034	0.250
-306.866	-55.223	0.063	0.028
-305.851	-200.000	0.006	-0.079
-304.837	188.574	-0.121	-0.177
-303.822	47.023	-0.265	-0.242
-302.807	9.102	0.176	-0.130
-301.793	-131.863	-0.180	0.023
-300.778	-65.878	-0.335	0.131
-299.764	-200.000	0.019	-0.300
-298.749	-200.000	0.008	0.277
-297.735	-137.722	0.397	-0.044
-296.720	-19.357	-0.281	0.171
-295.705	189.698	0.097	-0.143
-294.691	-74.045	-0.260	0.092
-293.676	-200.000	-0.034	0.247
-292.662	-200.000	-0.011	0.114
-291.647	-106.017	0.480	0.106
-290.632	58.635	-0.073	0.070
-289.618	-101.155	-0.187	0.045
-288.603	-47.677	0.313	0.149
-287.589	-186.573	-0.325	-0.005
-286.574	-200.000	0.040	-0.183
-285.559	171.790	-0.089	-0.125
-284.545	289.880	0.104	0.185
-283.530	-19.188	0.299	-0.182
-282.516	-200.000	0.031	-0.181
-281.501	-72.276	0.314	0.114
-280.486	265.627	-0.140	0.240
-279.472	-101.385	0.117	0.028
-278.457	38.719	-0.226	0.198
-277.443	-200.000	0.004	0.112
-276.428	800.000	0.080	-0.325
-275.413	-71.451	-0.257	0.094
-274.399	-200.000	-0.017	-0.201
-273.384	5.775	-0.251	0.182
-272.370	95.999	0.225	0.251
-271.355	140.269	-0.227	0.293
-270.340	800.000	0.027	0.099
-269.326	9.387	-0.218	0.162
-268.311	453.045	-0.012	0.025
-267.297	361.644	-0.121	0.238
-266.282	39.027	-0.176	0.154
-265.267	800.000	-0.033	-0.137
-264.253	-200.000	0.073	-0.321
-263.238	800.000	-0.124	-0.370
-262.224	-91.848	0.067	0.019
-261.209	-53.540	0.304	-0.136
-260.195	-199.270	0.223	-0.001
-259.180	498.362	-0.147	-0.331
-258.165	-73.286	0.141	0.050
-257.151	-118.030	-0.426	-0.075
-256.136	-71.649	0.078	0.029
-255.122	144.634	0.127	0.166
-254.107	163.193	0.247	0.339
-253.092	-113.965	-0.063	0.012
-252.078	210.763	-0.305	-0.470
-251.063	200.362	0.341	-0.513
-250.049	-104.043	0.216	-0.049
-249.034	323.801	-0.113	0.210
-248.019	-45.845	0.063	0.030
-247.005	-20.677	-0.324	0.194
-245.990	252.853	-0.257	0.429
-244.976	-71.328	-0.151	0.056
-243.961	-21.717	-0.199	0.118
-242.946	-200.000	0.000	0.071
-241.932	-200.000	0.008	0.068
-240.917	37.774	0.142	-0.124
-239.903	154.225	0.100	0.134
-238.888	-156.200	-0.042	-0.003
-237.873	-17.434	0.268	0.165
-236.859	-31.060	0.178	-0.098
-235.844	404.991	-0.155	0.320
-234.830	560.071	-0.062	0.146
-233.815	-162.325	0.043	0.002
-232.800	-65.143	0.245	0.097
-231.786	38.045	0.236	-0.205
-230.771	111.135	0.084	-0.098
-229.757	-5.780	0.071	0.048
-228.742	0.555	-0.435	-0.304
-227.727	-93.367	0.473	-0.128
-226.713	-200.000	0.031	0.133
-225.698	24.585	0.257	-0.208
-224.684	-125.962	-0.260	0.038
-223.669	-62.181	-0.202	0.082
-222.655	242.474	-0.118	0.194
-221.640	343.609	-0.030	0.057
-220.625	336.610	0.087	-0.166
-219.611	-30.587	0.103	0.057
-218.596	265.756	-0.103	0.177
-217.582	800.000	0.041	-0.153
-216.567	800.000	-0.053	0.186
-215.552	-106.504	0.116	0.025
-214.538	754.021	0.059	-0.156
-213.523	445.514	0.030	0.065
-212.509	800.000	-0.042	0.157
-211.494	-200.000	-0.006	-0.083
-210.479	-2.709	0.144	0.098
-209.465	-200.000	-0.046	0.269
-208.450	-1.849	0.204	-0.140
-207.436	65.468	-0.086	0.085
-206.421	-200.000	-0.025	0.206
-205.406	-126.144	0.196	-0.029
-204.392	330.244	0.094	0.178
-203.377	12.367	-0.151	0.114
-202.363	-103.208	0.319	-0.074
-201.348	800.000	0.049	-0.169
-200.333	22.659	0.168	-0.134
-199.319	377.418	-0.134	-0.268
-198.304	-200.000	-0.036	-0.174
-197.290	-155.936	-0.167	-0.010
-196.275	46.869	0.178	-0.162
-195.260	-77.677	0.222	0.075
-194.246	288.467	0.063	-0.112
-193.231	387.200	0.031	-0.062
-192.217	-200.000	-0.028	-0.141
-191.202	116.244	-0.036	-0.043
-190.187	-101.237	0.233	-0.056
-189.173	-200.000	0.003	0.030
-188.158	49.592	0.016	-0.015
-187.144	85.688	-0.104	0.112
-186.129	-87.136	-0.244	0.072
-185.114	-200.000	0.001	0.044
-184.100	800.000	0.192	0.521
-183.085	-39.468	0.159	-0.082
-182.071	7.391	-0.181	-0.132
-181.056	-5.928	0.097	-0.065
-180.042	-187.549	0.097	-0.001
-179.027	-200.000	0.046	-0.360
-178.012	-36.956	0.245	0.128
-176.998	562.184	-0.003	0.008
-175.983	-200.000	-0.029	0.161
-174.969	-190.008	-0.079	-0.001
-173.954	51.173	0.298	0.276
-172.939	-166.813	-0.063	0.003
-171.925	800.000	0.128	-0.376
-170.910	-87.294	-0.121	-0.036
-169.896	-87.579	-0.188	0.056
-168.881	123.929	0.063	-0.078
-167.866	-200.000	-0.014	-0.296
-166.852	-200.000	-0.022	-0.128
-165.837	-82.835	-0.266	-0.084
-164.823	268.665	0.225	-0.384
-163.808	-200.000	0.003	-0.040
-162.793	-153.550	0.069	0.005
-161.779	148.058	0.298	0.392
-160.764	-200.000	0.004	0.181
-159.750	-18.712	-0.280	-0.170
-158.735	-188.208	0.165	-0.002
-157.720	800.000	-0.063	0.235
-156.706	-86.895	-0.290	-0.086
-155.691	-200.000	-0.013	-0.164
-154.677	-200.000	-0.057	-0.401
-153.662	-200.000	-0.334	-0.001
-152.647	-139.957	0.237	-0.024
-151.633	-97.514	0.287	-0.073
-150.618	800.000	-0.034	0.142
-149.604	353.896	0.211	0.409
-148.589	101.829	-0.128	-0.145
-147.574	-165.760	0.368	-0.015
-146.560	-110.793	0.448	-0.090
-145.545	99.473	0.242	-0.273
-144.531	628.958	-0.146	0.359
-143.516	-167.336	0.081	0.003
-142.502	-93.544	0.113	-0.031
-141.487	89.083	0.209	0.227
-140.472	-108.060	-0.178	-0.038
-139.458	65.331	-0.067	0.066
-138.443	-121.752	0.144	-0.023
-137.429	-58.913	0.288	0.121
-136.414	12.409	0.073	0.055
-135.399	687.250	-0.053	-0.134
-134.385	-69.062	-0.351	0.132
-133.370	6.479	0.106	0.076
-132.356	-19.429	0.268	-0.162
-131.341	-18.500	0.227	-0.138
-130.326	800.000	0.112	0.408
-129.312	-88.842	0.383	-0.111
-128.297	-200.000	-0.028	-0.240
-127.283	800.000	0.091	-0.380
-126.268	-11.772	0.213	0.136
-125.253	-32.833	0.122	0.066
-124.239	71.203	0.209	-0.211
-123.224	-115.496	0.225	0.041
-122.210	800.000	0.189	-0.565
