DTS Sentinel unit serial number:	SN413079Multiplexer serial number:	ORYXHardware model number:	OX4-SRSoftware version number:	ORYX F/W v4.00 Oryx Data Collector v3.7.2.0data status	okinstallation	princeton_trtdifferential loss correction	single-endedforward channel	channel 2reverse channel	N/Adate	2019/09/16time	20:11:35forward acquisition time	60.00reverse acquisition time	0.00gamma	496.2192k internal	0.2327k external	0.2327temperature offset calibration	0.9966default loss term (dB/km)	0.3790temperature slope calibration	1.0000multiplexer offset coefficient	1.0000multiplexer slope coefficient	1.0000fibre end	0.00T internal ref (°C)	33.06T ext. ref 1 (°C)	0.07T ext. ref 2 (°C)	26.65length (m)	temperature (°C)	Stokes	anti-Stokes-747.200	-120.853	-0.235	0.040
-746.185	93.897	-0.055	0.063
-745.171	-115.276	-0.096	0.018
-744.156	-200.000	-0.037	0.213
-743.142	-52.615	0.189	-0.088
-742.127	800.000	-0.047	0.140
-741.112	800.000	-0.122	0.399
-740.098	-200.000	0.042	0.195
-739.083	461.486	0.012	0.027
-738.069	-152.151	-0.267	0.020
-737.054	-200.000	0.027	0.257
-736.039	24.108	-0.089	0.074
-735.025	-98.952	0.311	0.080
-734.010	175.591	0.101	0.147
-732.996	-200.000	-0.028	-0.247
-731.981	72.676	-0.087	-0.092
-730.966	-200.000	-0.036	-0.240
-729.952	-129.225	-0.167	0.024
-728.937	-21.249	-0.248	-0.153
-727.923	72.693	-0.142	0.150
-726.908	155.432	-0.318	0.441
-725.894	-2.852	-0.121	-0.085
-724.879	318.200	-0.083	-0.159
-723.864	212.764	0.039	-0.063
-722.850	-113.529	0.449	-0.088
-721.835	122.201	0.129	0.163
-720.821	294.843	0.126	-0.233
-719.806	9.153	0.134	0.102
-718.791	-99.809	-0.205	-0.052
-717.777	-175.620	-0.286	0.008
-716.762	224.452	0.197	-0.322
-715.748	-103.556	0.218	0.052
-714.733	150.822	-0.102	-0.139
-713.718	-76.734	0.134	-0.047
-712.704	800.000	-0.033	-0.114
-711.689	-1.307	-0.160	0.113
-710.675	-200.000	-0.000	-0.061
-709.660	-132.643	0.257	-0.033
-708.645	-200.000	0.018	-0.159
-707.631	-40.853	-0.102	0.053
-706.616	-200.000	-0.056	-0.341
-705.602	392.841	-0.133	-0.279
-704.587	-200.000	-0.003	-0.202
-703.572	-130.019	-0.097	-0.013
-702.558	116.751	-0.189	0.233
-701.543	263.779	0.285	0.498
-700.529	-200.000	0.061	0.406
-699.514	-200.000	0.002	0.182
-698.499	-58.119	-0.153	-0.067
-697.485	66.689	-0.101	0.104
-696.470	-86.016	0.385	-0.120
-695.456	159.552	-0.149	0.209
-694.441	-170.297	0.230	-0.008
-693.426	226.530	-0.182	-0.298
-692.412	-200.000	-0.030	-0.394
-691.397	-105.926	-0.254	0.058
-690.383	800.000	-0.041	0.171
-689.368	-200.000	-0.031	-0.220
-688.354	-107.796	0.357	-0.078
-687.339	-63.443	-0.258	0.107
-686.324	-200.000	-0.024	-0.237
-685.310	800.000	0.057	-0.237
-684.295	-124.375	0.144	-0.023
-683.281	-200.000	-0.027	0.289
-682.266	-104.914	0.044	-0.010
-681.251	-6.269	0.247	0.170
-680.237	-106.318	-0.279	0.063
-679.222	-26.620	-0.166	-0.098
-678.208	101.607	0.203	0.238
-677.193	-107.218	-0.259	0.057
-676.178	-65.359	0.045	-0.018
-675.164	80.356	-0.249	0.270
-674.149	176.083	-0.083	0.122
-673.135	345.458	0.078	0.154
-672.120	299.043	-0.108	-0.200
-671.105	-27.043	-0.355	0.208
-670.091	5.891	-0.271	0.201
-669.076	15.044	-0.183	-0.144
-668.062	-117.368	0.084	0.015
-667.047	68.344	-0.111	-0.114
-666.032	38.186	-0.196	0.176
-665.018	132.501	0.157	0.203
-664.003	-94.855	-0.071	0.019
-662.989	475.453	-0.088	0.199
-661.974	-23.094	-0.087	-0.053
-660.959	716.662	-0.087	-0.231
-659.945	8.301	0.274	-0.207
-658.930	800.000	0.049	-0.158
-657.916	40.796	-0.069	0.062
-656.901	-47.594	0.236	-0.115
-655.886	578.237	0.065	0.159
-654.872	719.247	-0.100	0.268
-653.857	-129.729	-0.249	-0.034
-652.843	183.715	-0.216	-0.320
-651.828	171.211	0.337	0.486
-650.814	-200.000	-0.009	-0.292
-649.799	-110.778	0.142	-0.029
-648.784	157.300	0.057	0.080
-647.770	36.291	-0.093	-0.082
-646.755	-37.962	-0.437	0.233
-645.741	116.462	-0.025	-0.030
-644.726	-121.477	0.176	0.029
-643.711	651.242	0.023	-0.059
-642.697	-99.990	-0.513	0.128
-641.682	762.226	-0.047	0.127
-640.668	-86.801	-0.044	-0.014
-639.653	12.546	-0.091	-0.071
-638.638	54.221	0.375	0.363
-637.624	-83.762	-0.107	0.034
-636.609	800.000	-0.072	0.256
-635.595	-200.000	0.011	0.191
-634.580	268.038	0.127	0.223
-633.565	278.662	-0.047	-0.083
-632.551	-200.000	-0.011	0.236
-631.536	-64.461	0.195	0.079
-630.522	415.263	-0.092	0.197
-629.507	-200.000	-0.047	0.235
-628.492	-200.000	0.008	0.070
-627.478	-200.000	0.010	0.187
-626.463	-110.231	0.302	-0.063
-625.449	-33.834	0.174	-0.096
-624.434	-28.216	-0.087	0.051
-623.419	800.000	-0.014	-0.046
-622.405	118.608	0.116	0.144
-621.390	419.038	0.043	-0.093
-620.376	-154.592	0.176	-0.012
-619.361	269.082	0.115	0.203
-618.346	800.000	0.022	0.066
-617.332	-200.000	0.036	-0.303
-616.317	800.000	0.067	0.232
-615.303	84.687	0.120	-0.132
-614.288	30.669	-0.091	0.078
-613.273	-39.605	-0.233	0.122
-612.259	191.625	-0.110	0.166
-611.244	330.186	0.062	0.120
-610.230	-115.871	-0.406	0.076
-609.215	-82.026	0.341	-0.112
-608.201	-7.939	-0.507	-0.343
-607.186	26.948	-0.272	0.229
-606.171	758.815	-0.050	0.137
-605.157	34.592	-0.184	-0.161
-604.142	-200.000	-0.038	-0.318
-603.128	-136.803	-0.511	0.059
-602.113	-200.000	-0.003	-0.170
-601.098	174.634	0.165	0.240
-600.084	319.780	0.068	-0.130
-599.069	52.494	0.130	-0.124
-598.055	-200.000	0.036	0.000
-597.040	-101.102	-0.121	-0.030
-596.025	-200.000	-0.033	0.349
-595.011	-121.196	-0.109	-0.018
-593.996	-200.000	-0.023	-0.116
-592.982	-42.695	0.086	0.044
-591.967	-1.334	-0.027	-0.019
-590.952	-150.388	-0.131	-0.010
-589.938	-144.619	0.181	0.017
-588.923	800.000	0.038	0.106
-587.909	800.000	0.094	-0.346
-586.894	-83.767	-0.332	0.106
-585.879	-167.769	-0.047	-0.002
-584.865	-46.197	-0.133	0.065
-583.850	129.448	-0.184	0.235
-582.836	-8.831	0.171	0.115
-581.821	-75.772	-0.337	-0.120
-580.806	42.624	-0.277	-0.253
-579.792	224.877	-0.059	0.095
-578.777	65.918	-0.062	0.063
-577.763	-2.458	0.235	-0.165
-576.748	-200.000	-0.061	-0.273
-575.733	303.527	0.117	-0.216
-574.719	317.032	-0.066	0.126
-573.704	-156.226	-0.265	0.017
-572.690	21.730	0.292	0.239
-571.675	-79.121	0.410	-0.139
-570.661	-94.583	0.374	0.102
-569.646	-145.487	-0.100	0.009
-568.631	19.215	-0.137	-0.110
-567.617	223.187	0.059	-0.095
-566.602	-3.497	-0.017	0.012
-565.588	28.718	-0.396	-0.336
-564.573	-106.262	-0.291	0.065
-563.558	-84.307	0.410	-0.130
-562.544	188.883	0.078	0.117
-561.529	-200.000	-0.034	0.202
-560.515	800.000	0.049	-0.146
-559.500	-200.000	-0.002	0.401
-558.485	68.019	0.046	0.047
-557.471	-200.000	0.019	-0.306
-556.456	692.004	0.119	-0.312
-555.442	-200.000	-0.038	0.229
-554.427	-8.507	0.171	-0.115
-553.412	-200.000	-0.010	0.067
-552.398	34.473	0.058	-0.051
-551.383	138.108	-0.107	-0.140
-550.369	-200.000	-0.016	0.459
-549.354	-38.227	-0.391	-0.208
-548.339	-53.422	-0.272	0.125
-547.325	-150.585	0.269	0.021
-546.310	-47.394	0.203	0.099
-545.296	-72.442	0.284	-0.105
-544.281	-200.000	-0.018	0.108
-543.266	130.243	0.203	0.260
-542.252	800.000	-0.042	-0.154
-541.237	41.937	-0.123	0.112
-540.223	800.000	0.048	-0.179
-539.208	272.986	0.092	0.162
-538.193	-35.286	-0.173	0.094
-537.179	-200.000	0.055	-0.341
-536.164	800.000	-0.047	0.148
-535.150	365.756	0.136	0.274
-534.135	-200.000	-0.002	0.190
-533.121	-23.070	0.128	0.077
-532.106	46.015	-0.063	-0.058
-531.091	-200.000	0.050	0.420
-530.077	-36.315	0.427	0.230
-529.062	-200.000	0.048	-0.293
-528.048	-200.000	0.003	-0.215
-527.033	-76.329	-0.348	0.122
-526.018	-68.238	0.205	0.080
-525.004	57.049	0.112	0.110
-523.989	-44.913	0.244	-0.121
-522.975	17.564	-0.226	0.180
-521.960	-29.765	-0.217	0.124
-520.945	-59.277	-0.111	-0.048
-519.931	131.611	0.162	0.208
-518.916	-200.000	0.020	0.155
-517.902	800.000	0.096	0.345
-516.887	800.000	-0.128	0.361
-515.872	-18.051	-0.174	-0.109
-514.858	-73.436	-0.259	-0.094
-513.843	-147.699	0.027	-0.002
-512.829	-200.000	0.034	-0.167
-511.814	-101.847	-0.185	-0.045
-510.799	319.812	0.095	-0.181
-509.785	-200.000	-0.040	0.334
-508.770	179.254	-0.015	0.022
-507.756	-200.000	0.006	-0.087
-506.741	-28.191	0.309	0.179
-505.726	-13.293	0.256	0.166
-504.712	-200.000	-0.017	-0.157
-503.697	328.471	0.058	0.111
-502.683	122.261	-0.197	-0.246
-501.668	-50.100	-0.136	0.064
-500.653	498.405	0.019	0.044
-499.639	431.394	-0.036	0.079
-498.624	-200.000	-0.031	0.167
-497.610	800.000	0.041	-0.128
-496.595	-79.101	0.176	0.060
-495.581	645.461	0.087	0.222
-494.566	800.000	-0.027	0.098
-493.551	95.569	0.225	0.256
-492.537	268.422	-0.072	-0.127
-491.522	17.558	-0.110	-0.088
-490.508	-200.000	0.016	0.193
-489.493	119.256	-0.030	0.037
-488.478	80.120	0.052	0.056
-487.464	-200.000	-0.043	-0.259
-486.449	75.046	-0.248	-0.261
-485.435	421.172	0.017	-0.036
-484.420	-200.000	-0.001	-0.011
-483.405	51.041	0.104	0.098
-482.391	-150.341	0.032	-0.002
-481.376	-141.428	0.208	-0.021
-480.362	660.743	-0.054	0.139
-479.347	52.510	0.152	-0.145
-478.332	331.794	0.030	0.057
-477.318	336.431	-0.139	0.268
-476.303	147.658	-0.097	0.131
-475.289	567.639	-0.011	-0.026
-474.274	-125.179	0.210	-0.032
-473.259	3.178	-0.080	-0.058
-472.245	-200.000	0.036	-0.270
-471.230	-127.972	-0.229	-0.033
-470.216	21.982	0.151	-0.123
-469.201	-124.958	0.337	-0.052
-468.186	-72.771	0.121	-0.044
-467.172	-113.225	0.236	0.046
-466.157	36.136	0.375	-0.329
-465.143	-32.966	-0.109	0.060
-464.128	800.000	-0.061	0.245
-463.113	-27.691	0.157	-0.091
-462.099	147.832	0.011	-0.015
-461.084	11.900	-0.174	0.133
-460.070	-200.000	0.019	-0.225
-459.055	648.263	0.069	-0.177
-458.040	455.333	0.286	-0.633
-457.026	-31.598	-0.200	0.112
-456.011	377.030	0.065	-0.133
-454.997	-127.147	0.166	-0.024
-453.982	-35.558	0.082	-0.044
-452.968	-32.166	0.101	0.056
-451.953	70.782	0.092	-0.095
-450.938	-58.115	0.222	-0.096
-449.924	-20.703	0.138	0.084
-448.909	-108.160	0.050	-0.011
-447.895	-200.000	-0.006	-0.040
-446.880	-69.963	-0.232	-0.088
-445.865	-200.000	-0.013	0.216
-444.851	-200.000	-0.011	-0.197
-443.836	-200.000	-0.058	-0.271
-442.822	800.000	-0.016	-0.066
-441.807	-68.057	-0.164	0.064
-440.792	251.936	0.129	0.219
-439.778	6.200	-0.082	0.061
-438.763	-161.070	-0.174	0.009
-437.749	-55.727	0.186	0.083
-436.734	-200.000	-0.004	0.135
-435.719	4.677	-0.197	0.144
-434.705	-10.930	-0.093	0.061
-433.690	-79.886	-0.373	0.125
-432.676	-62.324	-0.086	0.035
-431.661	-149.431	0.206	0.016
-430.646	315.734	0.112	0.210
-429.632	449.971	0.076	-0.167
-428.617	800.000	0.015	0.052
-427.603	12.843	-0.201	-0.155
-426.588	-200.000	-0.013	0.265
-425.573	18.081	-0.129	0.103
-424.559	81.777	0.073	-0.079
-423.544	396.831	0.132	-0.274
-422.530	143.735	-0.208	-0.276
-421.515	68.430	-0.118	-0.121
-420.500	-200.000	-0.059	0.379
-419.486	38.484	0.017	-0.016
-418.471	-77.482	-0.269	-0.093
-417.457	-37.677	-0.253	0.134
-416.442	48.983	0.088	-0.082
-415.428	800.000	-0.032	0.102
-414.413	153.494	0.154	0.210
-413.398	-200.000	0.036	0.200
-412.384	-200.000	0.009	0.160
-411.369	28.553	0.233	0.196
-410.355	328.922	-0.140	0.268
-409.340	60.273	0.050	-0.049
-408.325	-35.020	0.367	-0.199
-407.311	800.000	-0.055	0.161
-406.296	45.353	0.084	-0.077
-405.282	-159.447	0.349	-0.019
-404.267	-66.860	0.532	0.209
-403.252	725.767	0.065	-0.172
-402.238	800.000	-0.061	0.188
-401.223	131.395	0.207	-0.265
-400.209	-139.284	-0.229	-0.024
-399.194	3.374	-0.085	-0.062
-398.179	312.253	-0.228	-0.425
-397.165	-200.000	0.038	0.326
-396.150	-0.318	-0.075	0.053
-395.136	143.709	0.282	-0.374
-394.121	147.575	-0.049	0.065
-393.106	15.264	0.258	-0.202
-392.092	-57.274	0.035	0.015
-391.077	45.438	0.197	-0.181
-390.063	-200.000	0.041	-0.417
-389.048	376.447	0.050	-0.102
-388.033	118.036	-0.080	-0.098
-387.019	10.079	-0.198	0.150
-386.004	239.870	-0.116	-0.192
-384.990	-200.000	-0.001	-0.304
-383.975	9.670	0.206	-0.155
-382.960	-65.205	-0.258	0.103
-381.946	-200.000	0.001	-0.234
-380.931	-0.830	-0.178	0.126
-379.917	-163.124	0.223	-0.011
-378.902	-200.000	-0.066	0.341
-377.888	357.798	-0.124	-0.246
-376.873	-128.312	0.274	0.039
-375.858	109.873	-0.062	0.073
-374.844	-75.275	0.297	-0.105
-373.829	-43.931	-0.098	0.049
-372.815	-8.712	-0.179	0.119
-371.800	48.892	0.248	0.231
-370.785	135.168	-0.160	0.206
-369.771	177.047	0.168	0.243
-368.756	-110.028	-0.138	-0.029
-367.742	-200.000	-0.003	0.146
-366.727	10.974	-0.108	-0.082
-365.712	-131.991	-0.524	-0.068
-364.698	-200.000	0.030	0.292
-363.683	-83.812	0.149	0.047
-362.669	-200.000	0.001	0.161
-361.654	800.000	0.045	0.159
-360.639	285.845	0.193	0.346
-359.625	119.606	-0.064	-0.079
-358.610	100.209	-0.145	-0.167
-357.596	77.350	0.088	-0.093
-356.581	31.528	-0.300	-0.256
-355.566	-105.330	-0.131	0.030
-354.552	800.000	-0.017	0.048
-353.537	2.112	0.125	-0.090
-352.523	800.000	-0.027	0.079
-351.508	149.014	0.134	-0.180
-350.493	-139.849	0.327	-0.034
-349.479	-137.165	-0.275	-0.031
-348.464	-167.726	-0.387	-0.015
-347.450	-200.000	-0.011	-0.096
-346.435	-200.000	0.040	-0.342
-345.420	-75.531	-0.217	0.077
-344.406	-4.153	-0.034	-0.023
-343.391	-106.888	-0.307	0.068
-342.377	-61.371	-0.095	-0.040
-341.362	-158.908	0.355	0.020
-340.348	6.731	-0.047	-0.035
-339.333	19.147	-0.086	-0.068
-338.318	-148.731	-0.036	-0.003
-337.304	-200.000	0.058	-0.383
-336.289	-116.987	0.483	-0.088
-335.275	-200.000	-0.035	-0.156
-334.260	52.155	0.260	0.246
-333.245	-39.257	-0.215	0.112
-332.231	-51.061	-0.166	0.077
-331.216	-5.492	0.168	-0.114
-330.202	105.805	0.265	0.311
-329.187	-101.553	-0.245	-0.059
-328.172	800.000	-0.055	-0.164
-327.158	-124.524	0.451	0.070
-326.143	800.000	-0.070	-0.235
-325.129	144.674	0.286	0.378
-324.114	208.139	0.092	-0.143
-323.099	-200.000	-0.042	-0.511
-322.085	41.502	-0.208	0.187
-321.070	34.571	-0.139	-0.121
-320.056	-200.000	-0.033	-0.155
-319.041	800.000	-0.081	0.285
-318.026	-200.000	0.030	-0.225
-317.012	-200.000	-0.012	0.362
-315.997	129.051	-0.029	0.037
-314.983	5.867	0.213	-0.156
-313.968	-83.005	-0.364	0.116
-312.953	438.303	0.170	-0.367
-311.939	-123.108	0.405	0.064
-310.924	-200.000	-0.003	-0.051
-309.910	-23.567	-0.317	-0.189
-308.895	313.803	0.147	-0.274
-307.880	-99.293	0.039	0.010
-306.866	-2.603	0.221	0.153
-305.851	-173.005	-0.056	0.002
-304.837	-120.840	0.113	0.019
-303.822	800.000	0.069	0.238
-302.807	-200.000	0.020	0.170
-301.793	19.523	-0.195	-0.155
-300.778	-79.816	-0.354	-0.118
-299.764	800.000	0.107	-0.405
-298.749	659.272	-0.124	0.315
-297.735	-58.580	0.218	-0.094
-296.720	800.000	0.078	-0.247
-295.705	800.000	-0.041	0.119
-294.691	338.006	0.128	0.248
-293.676	800.000	0.003	0.011
-292.662	-114.190	-0.228	-0.044
-291.647	-134.210	-0.207	0.025
-290.632	-36.758	-0.125	0.066
-289.618	-200.000	0.068	-0.523
-288.603	-36.354	0.236	0.126
-287.589	-96.674	0.246	-0.064
-286.574	-43.243	-0.209	-0.105
-285.559	-45.267	-0.145	-0.071
-284.545	220.738	0.113	0.179
-283.530	109.517	0.068	0.080
-282.516	279.903	0.094	0.166
-281.501	-32.037	-0.144	-0.080
-280.486	-200.000	-0.009	-0.103
-279.472	-145.518	0.355	0.032
-278.457	-200.000	0.049	0.227
-277.443	34.699	0.103	-0.089
-276.428	-54.032	-0.164	0.074
-275.413	-200.000	0.013	-0.400
-274.399	90.580	-0.082	0.090
-273.384	-27.141	-0.105	0.060
-272.370	519.242	0.082	-0.191
-271.355	95.036	-0.023	-0.025
-270.340	-87.117	-0.312	0.094
-269.326	-200.000	0.012	0.142
-268.311	701.922	0.071	-0.186
-267.297	110.081	-0.119	0.141
-266.282	-40.364	-0.199	-0.102
-265.267	-96.243	-0.312	0.082
-264.253	182.447	-0.085	0.124
-263.238	-30.205	0.112	-0.063
-262.224	-36.258	0.127	-0.068
-261.209	15.453	0.365	0.284
-260.195	536.801	-0.081	-0.191
-259.180	106.658	-0.180	-0.211
-258.165	21.422	0.201	0.162
-257.151	800.000	-0.092	-0.280
-256.136	-157.445	-0.282	0.017
-255.122	-200.000	0.084	0.389
-254.107	104.118	0.125	-0.145
-253.092	-83.171	-0.171	0.054
-252.078	69.499	0.231	0.235
-251.063	333.350	0.086	0.165
-250.049	-59.119	0.362	-0.154
-249.034	330.525	0.051	-0.098
-248.019	12.066	0.184	0.140
-247.005	110.410	0.229	0.272
-245.990	-15.079	-0.058	0.037
-244.976	-200.000	-0.048	-0.241
-243.961	-200.000	0.022	-0.203
-242.946	276.426	-0.132	0.232
-241.932	-200.000	-0.058	0.344
-240.917	800.000	0.067	0.238
-239.903	-182.568	0.173	0.003
-238.888	-200.000	-0.034	-0.214
-237.873	115.114	-0.139	0.168
-236.859	-8.522	0.168	-0.112
-235.844	-200.000	-0.059	0.286
-234.830	-18.374	0.144	0.089
-233.815	-200.000	0.057	-0.277
-232.800	496.592	-0.069	-0.157
-231.786	-4.619	0.165	-0.112
-230.771	800.000	-0.011	0.047
-229.757	61.548	-0.082	0.081
-228.742	-87.460	0.280	0.084
-227.727	-35.220	0.203	-0.109
-226.713	-51.997	-0.158	-0.073
-225.698	-45.121	-0.385	-0.189
-224.684	-69.784	0.104	-0.039
-223.669	10.859	0.124	-0.093
-222.655	-200.000	-0.004	0.064
-221.640	-200.000	0.013	-0.418
-220.625	265.330	-0.059	-0.102
-219.611	254.255	-0.107	-0.181
-218.596	-200.000	-0.015	0.349
-217.582	26.739	0.104	-0.086
-216.567	-200.000	-0.029	-0.246
-215.552	217.601	-0.052	-0.081
-214.538	169.211	0.106	-0.149
-213.523	-130.208	0.103	-0.014
-212.509	-170.237	-0.211	-0.007
-211.494	744.688	0.037	0.098
-210.479	-200.000	-0.049	-0.236
-209.465	181.362	-0.132	-0.191
-208.450	-115.337	0.138	-0.026
-207.436	309.931	-0.006	0.011
-206.421	-142.439	0.271	-0.026
-205.406	-125.376	-0.243	-0.037
-204.392	-4.945	0.063	-0.043
-203.377	30.676	-0.300	-0.254
-202.363	-200.000	0.001	0.014
-201.348	-200.000	0.020	0.124
-200.333	-92.093	-0.060	-0.017
-199.319	-150.438	-0.627	0.048
-198.304	-56.224	-0.352	0.154
-197.290	223.985	-0.316	-0.503
-196.275	-200.000	0.045	-0.265
-195.260	-200.000	-0.004	0.259
-194.246	12.185	-0.110	-0.084
-193.231	445.978	-0.070	-0.151
-192.217	148.485	-0.144	-0.192
-191.202	-39.308	-0.181	0.094
-190.187	-143.415	0.057	0.005
-189.173	-200.000	0.015	-0.398
-188.158	24.671	-0.072	-0.059
-187.144	175.158	-0.143	-0.205
-186.129	-32.100	0.170	-0.094
-185.114	115.897	-0.048	0.058
-184.100	-6.203	0.331	0.223
-183.085	-143.043	-0.192	0.018
-182.071	25.382	-0.134	-0.110
-181.056	116.467	0.109	-0.132
-180.042	0.358	-0.112	0.079
-179.027	-200.000	-0.033	0.186
-178.012	273.132	0.184	0.321
-176.998	800.000	-0.047	-0.167
-175.983	747.974	0.084	-0.224
-174.969	408.349	-0.133	0.278
-173.954	-162.264	-0.294	0.014
-172.939	-200.000	0.021	-0.279
-171.925	-74.978	-0.148	0.052
-170.910	-81.396	0.212	-0.069
-169.896	-200.000	-0.080	-0.422
-168.881	309.903	0.191	-0.351
-167.866	800.000	-0.079	0.242
-166.852	388.721	0.164	0.335
-165.837	-2.292	-0.112	-0.078
-164.823	7.082	0.126	-0.092
-163.808	-97.740	-0.107	0.027
-162.793	770.490	0.092	-0.248
-161.779	-80.841	0.232	0.076
-160.764	-38.569	-0.042	0.022
-159.750	291.620	-0.096	0.173
-158.735	-84.271	0.243	0.076
-157.720	246.059	-0.072	-0.120
-156.706	800.000	-0.039	-0.143
-155.691	-80.084	0.086	-0.028
-154.677	56.474	0.041	-0.039
-153.662	369.601	0.112	0.223
-152.647	-200.000	0.017	0.190
-151.633	323.259	-0.261	0.490
-150.618	-200.000	-0.027	-0.170
-149.604	-2.209	0.203	0.140
-148.589	800.000	-0.025	0.094
-147.574	-45.908	-0.267	-0.130
-146.560	471.095	-0.133	0.295
-145.545	154.196	-0.193	0.261
-144.531	-200.000	0.023	-0.292
-143.516	142.056	-0.196	0.256
-142.502	-94.382	-0.368	-0.099
-141.487	671.428	0.093	-0.236
-140.472	-75.253	0.230	0.081
-139.458	800.000	-0.012	-0.039
-138.443	-50.414	-0.071	0.033
-137.429	800.000	-0.094	-0.277
-136.414	36.606	0.232	0.202
-135.399	-76.491	-0.382	-0.132
-134.385	-74.130	-0.147	0.052
-133.370	187.524	-0.131	0.192
-132.356	-52.991	-0.090	-0.041
-131.341	-42.975	-0.035	0.017
-130.326	800.000	0.042	0.182
-129.312	279.108	-0.053	-0.094
-128.297	-154.875	-0.098	-0.006
-127.283	-200.000	0.050	0.432
-126.268	403.631	0.114	0.237
-125.253	-24.180	0.315	0.185
-124.239	-94.018	-0.144	-0.039
-123.224	-168.991	0.208	0.008
-122.210	-200.000	0.012	0.196
