DTS Sentinel unit serial number:	SN413079Multiplexer serial number:	ORYXHardware model number:	OX4-SRSoftware version number:	ORYX F/W v4.00 Oryx Data Collector v3.7.2.0data status	okinstallation	princeton_trtdifferential loss correction	single-endedforward channel	channel 2reverse channel	N/Adate	2019/09/11time	20:17:11forward acquisition time	60.00reverse acquisition time	0.00gamma	496.2192k internal	0.2317k external	0.2317temperature offset calibration	1.0050default loss term (dB/km)	0.3790temperature slope calibration	1.0000multiplexer offset coefficient	1.0000multiplexer slope coefficient	1.0000fibre end	0.00T internal ref (°C)	38.09T ext. ref 1 (°C)	1.45T ext. ref 2 (°C)	31.47length (m)	temperature (°C)	Stokes	anti-Stokes-747.200	223.585	-0.087	0.143
-746.185	-160.734	-0.176	0.009
-745.171	89.100	0.200	0.225
-744.156	55.555	0.257	0.252
-743.142	-15.961	-0.104	0.067
-742.127	-83.166	-0.148	-0.048
-741.112	-188.479	-0.388	-0.005
-740.098	-200.000	0.023	0.428
-739.083	-37.340	0.055	0.030
-738.069	-137.116	0.115	-0.013
-737.054	168.107	0.077	0.111
-736.039	112.300	-0.037	0.045
-735.025	-105.096	-0.103	-0.024
-734.010	577.685	0.054	-0.134
-732.996	4.470	0.136	0.101
-731.981	533.196	-0.045	-0.107
-730.966	-129.767	0.181	-0.025
-729.952	-200.000	0.021	-0.217
-728.937	-88.522	-0.211	-0.064
-727.923	-200.000	-0.002	-0.291
-726.908	-140.092	0.348	0.037
-725.894	-126.865	0.183	-0.027
-724.879	-74.332	0.155	0.057
-723.864	-87.614	-0.202	-0.062
-722.850	-71.418	0.035	0.013
-721.835	-126.156	-0.191	0.029
-720.821	99.024	-0.189	0.221
-719.806	-200.000	0.021	0.166
-718.791	-93.677	-0.162	0.045
-717.777	68.482	-0.233	-0.242
-716.762	800.000	-0.028	0.083
-715.748	9.971	0.121	0.093
-714.733	139.210	0.124	-0.165
-713.718	-57.933	-0.494	-0.218
-712.704	95.057	0.038	-0.044
-711.689	-38.572	0.317	0.169
-710.675	180.818	0.292	0.434
-709.660	-69.842	0.092	-0.035
-708.645	41.764	0.140	-0.128
-707.631	-39.247	0.253	-0.135
-706.616	-6.206	-0.171	0.118
-705.602	-200.000	-0.022	0.134
-704.587	168.737	0.015	0.021
-703.572	49.679	-0.400	0.381
-702.558	-200.000	-0.021	0.184
-701.543	-151.964	-0.377	0.028
-700.529	-200.000	0.002	-0.054
-699.514	800.000	-0.017	-0.048
-698.499	800.000	0.106	0.333
-697.485	-200.000	-0.132	-0.000
-696.470	-55.748	-0.120	-0.054
-695.456	164.591	0.142	-0.202
-694.441	205.249	0.215	-0.337
-693.426	69.427	0.106	-0.111
-692.412	-122.449	-0.438	-0.072
-691.397	585.248	-0.155	0.386
-690.383	-117.693	-0.311	-0.057
-689.368	800.000	-0.061	-0.193
-688.354	-46.937	0.223	-0.110
-687.339	262.867	-0.152	0.267
-686.324	-200.000	-0.010	-0.069
-685.310	-82.788	-0.129	0.042
-684.295	-200.000	0.002	-0.164
-683.281	123.843	-0.107	-0.136
-682.266	-1.579	-0.190	-0.135
-681.251	398.132	0.066	-0.140
-680.237	-4.088	-0.154	-0.108
-679.222	-200.000	-0.062	-0.483
-678.208	-200.000	0.029	-0.262
-677.193	217.437	-0.134	-0.216
-676.178	-10.452	0.103	-0.069
-675.164	-200.000	0.008	0.136
-674.149	-82.522	-0.071	-0.023
-673.135	-34.463	-0.211	-0.117
-672.120	-34.532	0.108	0.060
-671.105	-17.404	-0.195	0.124
-670.091	-52.747	-0.122	0.057
-669.076	800.000	-0.014	0.042
-668.062	362.943	0.045	-0.091
-667.047	17.153	-0.137	-0.110
-666.032	-106.722	-0.366	0.082
-665.018	226.604	-0.175	-0.286
-664.003	-82.911	0.070	-0.023
-662.989	800.000	0.062	0.230
-661.974	800.000	0.042	0.127
-660.959	42.060	0.129	-0.119
-659.945	-45.240	-0.150	0.075
-658.930	-52.240	0.300	0.140
-657.916	207.767	0.041	0.065
-656.901	295.603	-0.041	0.075
-655.886	561.401	-0.177	0.432
-654.872	578.542	0.075	0.184
-653.857	-200.000	-0.019	0.265
-652.843	232.873	-0.066	-0.109
-651.828	262.400	0.260	-0.454
-650.814	-200.000	0.033	-0.217
-649.799	-200.000	0.049	-0.290
-648.784	-200.000	-0.033	0.284
-647.770	0.023	0.046	0.033
-646.755	475.453	-0.061	0.139
-645.741	-14.614	0.064	0.042
-644.726	26.535	0.051	-0.043
-643.711	-103.248	0.249	0.059
-642.697	-51.680	0.359	0.169
-641.682	-118.596	-0.162	-0.029
-640.668	-180.598	0.324	-0.007
-639.653	24.325	-0.311	-0.259
-638.638	-89.420	0.175	-0.052
-637.624	-153.758	0.319	-0.022
-636.609	87.566	-0.087	0.097
-635.595	296.208	-0.024	0.044
-634.580	-200.000	-0.007	-0.147
-633.565	-200.000	0.005	0.036
-632.551	800.000	-0.047	0.161
-631.536	39.287	0.108	0.097
-630.522	204.729	0.045	0.070
-629.507	8.271	-0.312	-0.236
-628.492	-83.847	0.248	0.080
-627.478	-200.000	0.013	-0.090
-626.463	90.910	-0.110	0.125
-625.449	800.000	0.055	-0.195
-624.434	-200.000	-0.045	0.351
-623.419	800.000	0.056	-0.212
-622.405	-141.610	0.249	-0.025
-621.390	800.000	0.058	-0.199
-620.376	24.062	-0.193	-0.161
-619.361	-200.000	0.014	0.146
-618.346	139.778	-0.164	0.218
-617.332	-24.885	-0.113	-0.068
-616.317	192.792	0.016	0.024
-615.303	165.819	-0.132	0.189
-614.288	153.948	0.072	-0.099
-613.273	-200.000	0.041	-0.352
-612.259	47.854	-0.174	-0.164
-611.244	41.862	-0.124	0.113
-610.230	107.063	-0.164	-0.196
-609.215	-160.666	-0.091	0.005
-608.201	-200.000	-0.026	-0.299
-607.186	153.917	-0.054	0.075
-606.171	145.531	-0.193	-0.260
-605.157	-68.731	0.131	-0.051
-604.142	88.229	-0.198	-0.221
-603.128	-88.799	-0.468	0.140
-602.113	134.674	-0.244	0.319
-601.098	-130.117	-0.163	-0.022
-600.084	40.948	0.089	0.081
-599.069	19.500	-0.055	0.045
-598.055	-140.232	-0.163	-0.017
-597.040	299.736	0.142	-0.264
-596.025	113.139	-0.060	0.073
-595.011	-51.748	-0.128	0.060
-593.996	440.911	0.070	-0.155
-592.982	143.339	0.203	0.272
-591.967	-137.169	-0.059	0.007
-590.952	800.000	0.037	0.114
-589.938	166.947	-0.252	-0.360
-588.923	-116.573	0.409	0.076
-587.909	37.705	0.109	-0.097
-586.894	-104.688	0.128	-0.030
-585.879	-60.771	-0.056	0.024
-584.865	25.516	0.058	-0.049
-583.850	-118.833	-0.105	-0.019
-582.836	245.906	0.101	0.170
-581.821	138.968	-0.084	-0.112
-580.806	-3.929	0.281	-0.196
-579.792	800.000	-0.042	-0.157
-578.777	-130.716	-0.226	0.031
-577.763	18.939	0.013	0.010
-576.748	14.653	-0.290	-0.228
-575.733	-104.561	0.224	-0.052
-574.719	-108.947	-0.203	0.044
-573.704	117.969	-0.235	-0.291
-572.690	21.299	0.188	-0.154
-571.675	8.904	-0.146	-0.111
-570.661	-92.269	0.391	-0.111
-569.646	-72.535	-0.292	-0.108
-568.631	407.948	-0.061	0.131
-567.617	800.000	-0.087	-0.354
-566.602	26.690	0.248	-0.209
-565.588	-76.831	0.084	-0.030
-564.573	14.504	0.134	0.105
-563.558	-63.833	0.128	0.053
-562.544	-90.673	-0.208	0.060
-561.529	-200.000	-0.034	0.161
-560.515	-34.911	-0.085	-0.047
-559.500	-102.584	-0.286	0.069
-558.485	-51.683	0.160	-0.075
-557.471	-69.707	0.112	-0.043
-556.456	-200.000	0.009	-0.043
-555.442	-200.000	-0.043	0.313
-554.427	-126.220	-0.355	-0.053
-553.412	778.975	-0.023	0.062
-552.398	-51.476	-0.137	-0.064
-551.383	-200.000	-0.039	0.190
-550.369	-101.080	0.347	0.086
-549.354	120.490	-0.085	0.106
-548.339	-85.070	-0.195	-0.061
-547.325	-200.000	0.008	-0.119
-546.310	-61.947	0.272	-0.114
-545.296	800.000	-0.085	0.240
-544.281	-200.000	0.002	-0.162
-543.266	67.290	-0.068	-0.070
-542.252	-147.333	0.518	-0.044
-541.237	800.000	-0.054	-0.178
-540.223	800.000	0.027	-0.108
-539.208	-109.977	-0.053	-0.011
-538.193	54.871	-0.202	0.196
-537.179	-9.917	-0.103	-0.069
-536.164	120.473	-0.260	0.324
-535.150	-120.237	-0.188	0.032
-534.135	-106.074	0.240	0.054
-533.121	-200.000	-0.022	-0.156
-532.106	-187.563	-0.177	0.002
-531.091	800.000	0.076	-0.256
-530.077	42.586	0.103	0.094
-529.062	-200.000	-0.071	-0.403
-528.048	-176.931	-0.369	-0.009
-527.033	-153.066	-0.580	-0.041
-526.018	-66.219	-0.093	-0.037
-525.004	467.628	-0.079	-0.178
-523.989	-164.312	0.168	-0.008
-522.975	-126.583	0.406	-0.060
-521.960	-200.000	-0.037	0.201
-520.945	-183.445	0.309	-0.005
-519.931	-15.105	-0.205	-0.132
-518.916	402.189	-0.181	-0.382
-517.902	-200.000	0.217	0.000
-516.887	201.657	-0.055	0.084
-515.872	800.000	-0.038	0.109
-514.858	578.473	-0.022	-0.054
-513.843	-103.437	-0.239	0.056
-512.829	800.000	-0.047	-0.199
-511.814	-54.685	-0.236	0.107
-510.799	800.000	-0.043	0.128
-509.785	-49.535	0.134	0.064
-508.770	-200.000	-0.034	-0.152
-507.756	321.267	-0.092	-0.176
-506.741	179.918	-0.077	0.113
-505.726	1.605	0.511	0.369
-504.712	-76.170	0.449	0.159
-503.697	-128.618	-0.221	-0.031
-502.683	-200.000	0.000	0.191
-501.668	-83.341	-0.079	0.025
-500.653	-87.755	-0.132	0.040
-499.639	-200.000	-0.010	0.118
-498.624	-107.356	0.479	-0.106
-497.610	19.005	-0.242	-0.195
-496.595	344.443	-0.123	0.242
-495.581	-127.328	-0.129	0.019
-494.566	-121.220	0.154	-0.026
-493.551	103.602	-0.154	-0.181
-492.537	266.502	-0.036	0.064
-491.522	-94.809	0.437	-0.119
-490.508	36.325	0.230	-0.204
-489.493	-32.838	0.270	-0.150
-488.478	-138.577	0.193	-0.021
-487.464	50.456	-0.286	-0.271
-486.449	730.506	0.131	-0.350
-485.435	-36.286	-0.251	0.136
-484.420	-20.162	0.332	0.205
-483.405	370.810	-0.053	-0.108
-482.391	-46.308	0.173	-0.085
-481.376	800.000	-0.062	0.195
-480.362	50.501	-0.332	-0.315
-479.347	36.715	0.075	0.066
-478.332	-200.000	-0.045	0.243
-477.318	35.491	-0.130	0.114
-476.303	-109.066	0.315	0.067
-475.289	11.419	0.149	-0.115
-474.274	-82.516	0.217	0.071
-473.259	-200.000	0.053	0.394
-472.245	-82.175	-0.350	0.114
-471.230	144.672	-0.048	-0.064
-470.216	-62.696	-0.036	-0.015
-469.201	-146.118	0.312	0.028
-468.186	495.522	-0.060	-0.139
-467.172	46.001	-0.259	0.240
-466.157	-200.000	-0.024	0.108
-465.143	24.661	0.368	-0.306
-464.128	-200.000	-0.054	0.263
-463.113	18.524	-0.211	-0.169
-462.099	-200.000	-0.127	-0.001
-461.084	-18.878	-0.255	-0.159
-460.070	474.269	-0.010	-0.022
-459.055	-33.876	0.122	0.067
-458.040	-188.922	-0.156	0.002
-457.026	15.925	0.226	0.178
-456.011	178.768	0.213	-0.312
-454.997	520.358	-0.071	0.166
-453.982	625.885	-0.115	-0.290
-452.968	365.081	0.160	-0.323
-451.953	181.855	-0.102	0.151
-450.938	-48.085	0.190	-0.092
-449.924	425.178	-0.097	0.208
-448.909	-47.903	0.283	0.137
-447.895	140.394	0.187	0.247
-446.880	480.625	-0.131	-0.297
-445.865	-139.639	0.358	-0.038
-444.851	-81.262	-0.204	0.067
-443.836	-200.000	-0.024	-0.229
-442.822	-200.000	-0.065	0.457
-441.807	34.846	0.198	0.174
-440.792	-5.236	-0.080	-0.055
-439.778	-23.902	0.292	0.175
-438.763	96.459	-0.006	-0.007
-437.749	-7.585	-0.134	-0.091
-436.734	800.000	0.009	0.034
-435.719	800.000	-0.059	-0.200
-434.705	-7.783	-0.260	-0.176
-433.690	606.374	-0.072	-0.179
-432.676	-92.275	-0.275	-0.078
-431.661	202.727	-0.111	-0.171
-430.646	800.000	-0.094	0.388
-429.632	120.650	-0.047	-0.059
-428.617	156.388	-0.068	0.094
-427.603	-103.040	-0.229	0.054
-426.588	-77.238	-0.186	0.065
-425.573	800.000	-0.050	-0.147
-424.559	538.037	0.157	-0.373
-423.544	304.585	0.118	0.218
-422.530	-99.976	-0.094	-0.023
-421.515	-136.377	0.076	0.009
-420.500	-158.242	0.124	0.007
-419.486	-200.000	0.082	-0.378
-418.471	104.530	0.060	-0.071
-417.457	-200.000	-0.059	-0.291
-416.442	-29.024	-0.296	0.170
-415.428	-59.514	-0.168	0.072
-414.413	-78.192	0.168	0.058
-413.398	48.542	-0.116	-0.109
-412.384	-200.000	-0.025	0.243
-411.369	-200.000	-0.014	0.247
-410.355	-200.000	0.003	-0.017
-409.340	205.146	0.194	-0.301
-408.325	-80.746	0.199	-0.066
-407.311	-60.737	-0.073	-0.031
-406.296	747.193	0.050	0.136
-405.282	-94.195	-0.200	0.055
-404.267	-75.705	0.081	0.029
-403.252	800.000	-0.099	0.304
-402.238	-200.000	-0.043	0.206
-401.223	-144.956	0.240	0.022
-400.209	-54.380	-0.090	-0.041
-399.194	84.746	-0.146	0.160
-398.179	238.961	0.037	0.062
-397.165	697.698	0.033	0.085
-396.150	800.000	0.064	-0.239
-395.136	202.443	0.173	-0.266
-394.121	-200.000	0.032	0.228
-393.106	-200.000	0.015	0.143
-392.092	185.193	0.145	-0.214
-391.077	800.000	0.102	0.298
-390.063	-62.407	-0.168	0.070
-389.048	-71.467	0.158	-0.059
-388.033	-200.000	-0.111	0.540
-387.019	-48.891	0.418	-0.200
-386.004	68.711	0.240	-0.246
-384.990	724.723	0.012	-0.033
-383.975	-200.000	-0.027	0.286
-382.960	-200.000	-0.006	-0.108
-381.946	-200.000	-0.013	0.258
-380.931	-200.000	0.009	0.044
-379.917	-51.645	-0.177	-0.082
-378.902	-117.343	0.332	0.060
-377.888	281.780	0.125	0.224
-376.873	-12.108	0.136	-0.089
-375.858	800.000	-0.095	0.352
-374.844	-76.249	0.160	0.056
-373.829	209.931	0.151	0.236
-372.815	-70.027	0.242	0.092
-371.800	86.165	0.122	-0.134
-370.785	-200.000	-0.013	0.292
-369.771	-200.000	-0.012	-0.202
-368.756	-48.463	0.223	0.107
-367.742	263.996	0.197	0.342
-366.727	-163.374	0.152	0.007
-365.712	-200.000	0.023	0.162
-364.698	-200.000	0.038	0.230
-363.683	-200.000	-0.039	0.295
-362.669	-196.300	0.243	-0.002
-361.654	800.000	-0.095	0.286
-360.639	-200.000	0.003	0.078
-359.625	-200.000	0.084	-0.378
-358.610	-49.264	-0.180	0.086
-357.596	-200.000	0.002	-0.126
-356.581	-1.879	-0.346	0.243
-355.566	-3.103	0.118	-0.082
-354.552	161.344	-0.028	-0.039
-353.537	-144.640	-0.029	-0.003
-352.523	48.463	-0.140	0.130
-351.508	800.000	-0.010	0.029
-350.493	-0.984	-0.152	0.107
-349.479	-200.000	0.161	-0.001
-348.464	481.644	-0.125	0.283
-347.450	98.217	0.120	0.138
-346.435	800.000	-0.087	-0.269
-345.420	-200.000	-0.014	-0.185
-344.406	581.522	-0.043	-0.105
-343.391	453.966	-0.027	-0.059
-342.377	52.478	0.137	0.130
-341.362	-163.554	-0.258	-0.012
-340.348	-200.000	0.022	-0.126
-339.333	-200.000	0.137	0.606
-338.318	-200.000	0.007	-0.101
-337.304	-38.821	-0.331	0.174
-336.289	160.033	-0.073	-0.101
-335.275	82.637	0.099	-0.107
-334.260	800.000	0.015	-0.060
-333.245	-60.238	-0.071	-0.030
-332.231	-75.443	-0.393	0.140
-331.216	-42.290	-0.249	-0.127
-330.202	800.000	0.042	-0.143
-329.187	-200.000	0.000	-0.053
-328.172	-200.000	0.001	-0.014
-327.158	589.817	-0.089	-0.218
-326.143	232.147	-0.255	-0.417
-325.129	-115.502	-0.081	-0.015
-324.114	-153.899	-0.339	0.023
-323.099	800.000	-0.018	0.053
-322.085	-6.810	0.294	0.199
-321.070	58.637	0.277	-0.271
-320.056	246.067	-0.100	0.168
-319.041	800.000	-0.072	0.215
-318.026	6.976	0.297	0.221
-317.012	-29.958	0.137	0.078
-315.997	187.154	-0.209	0.310
-314.983	800.000	-0.134	0.411
-313.968	-95.508	0.355	-0.095
-312.953	138.510	0.130	-0.170
-311.939	347.803	-0.124	0.244
-310.924	800.000	0.024	-0.072
-309.910	-112.902	0.362	-0.071
-308.895	23.870	-0.197	-0.162
-307.880	800.000	-0.070	-0.252
-306.866	-77.849	0.371	-0.128
-305.851	-200.000	-0.017	0.149
-304.837	193.469	-0.055	-0.083
-303.822	-9.106	0.209	-0.139
-302.807	800.000	-0.082	0.242
-301.793	683.188	-0.132	0.343
-300.778	-92.003	-0.085	0.024
-299.764	-133.222	-0.257	-0.032
-298.749	147.846	-0.255	-0.342
-297.735	-185.561	-0.356	-0.005
-296.720	-200.000	0.007	-0.384
-295.705	50.588	0.136	0.128
-294.691	78.833	-0.121	0.129
-293.676	299.408	0.055	-0.101
-292.662	247.905	0.109	-0.183
-291.647	444.723	-0.109	-0.237
-290.632	22.104	-0.072	0.058
-289.618	-63.805	0.156	-0.064
-288.603	152.539	0.048	0.065
-287.589	-70.393	0.219	0.083
-286.574	-41.913	0.116	-0.059
-285.559	-200.000	0.040	0.192
-284.545	55.036	0.136	-0.130
-283.530	-200.000	0.010	0.071
-282.516	-200.000	0.036	-0.249
-281.501	110.722	-0.177	0.212
-280.486	-141.164	-0.190	-0.019
-279.472	148.754	0.211	0.284
-278.457	-61.277	0.098	-0.041
-277.443	216.860	0.142	-0.225
-276.428	-67.482	-0.333	-0.130
-275.413	-112.588	0.279	0.055
-274.399	145.398	-0.046	0.061
-273.384	368.149	0.027	-0.054
-272.370	-3.030	0.088	0.061
-271.355	20.868	-0.052	0.042
-270.340	-82.487	0.167	0.054
-269.326	-46.522	0.173	0.084
-268.311	-200.000	0.012	-0.093
-267.297	-128.473	0.298	0.042
-266.282	-110.108	0.304	0.063
-265.267	204.266	-0.128	0.197
-264.253	800.000	-0.072	-0.202
-263.238	-31.147	0.139	0.078
-262.224	304.633	-0.158	0.292
-261.209	128.821	-0.164	-0.207
-260.195	15.463	-0.373	0.291
-259.180	-68.800	-0.051	0.020
-258.165	800.000	0.061	-0.260
-257.151	-41.474	0.179	-0.092
-256.136	-200.000	0.056	0.339
-255.122	-43.277	0.252	0.127
-254.107	-135.587	0.160	-0.019
-253.092	216.210	-0.043	-0.069
-252.078	10.658	0.141	-0.106
-251.063	-156.389	-0.245	0.015
-250.049	-200.000	-0.006	0.161
-249.034	-18.625	0.062	-0.038
-248.019	-200.000	-0.061	-0.329
-247.005	11.086	-0.211	0.161
-245.990	-27.058	0.175	0.101
-244.976	-127.275	0.393	-0.057
-243.961	-200.000	0.056	-0.331
-242.946	-200.000	-0.027	0.146
-241.932	-140.750	-0.078	0.008
-240.917	105.083	-0.022	0.025
-239.903	-200.000	-0.029	-0.132
-238.888	-50.176	-0.210	-0.099
-237.873	800.000	0.023	0.071
-236.859	-56.604	0.177	0.078
-235.844	-77.862	-0.110	-0.038
-234.830	-101.850	-0.277	0.066
-233.815	628.624	0.066	0.166
-232.800	356.640	-0.056	-0.110
-231.786	193.738	-0.293	0.440
-230.771	-78.498	-0.300	0.102
-229.757	199.939	-0.049	-0.074
-228.742	1.167	-0.279	-0.199
-227.727	-0.692	0.107	-0.076
-226.713	-200.000	0.014	0.144
-225.698	-117.359	0.233	-0.042
-224.684	314.530	-0.113	-0.212
-223.669	66.348	-0.289	-0.292
-222.655	-200.000	-0.032	-0.368
-221.640	37.979	0.119	-0.105
-220.625	-200.000	0.039	-0.423
-219.611	-100.572	0.320	-0.078
-218.596	-200.000	0.059	0.327
-217.582	-109.817	-0.237	0.049
-216.567	800.000	-0.111	-0.463
-215.552	-6.180	-0.190	-0.129
-214.538	15.847	-0.211	-0.164
-213.523	-135.396	-0.113	0.013
-212.509	-114.199	0.151	-0.029
-211.494	-200.000	-0.015	-0.176
-210.479	-148.455	0.156	-0.013
-209.465	119.897	-0.055	0.067
-208.450	716.324	-0.107	-0.283
-207.436	1.694	-0.236	0.168
-206.421	745.415	0.110	0.293
-205.406	-200.000	0.187	0.001
-204.392	-77.873	0.072	0.025
-203.377	-69.626	-0.267	0.101
-202.363	-200.000	-0.052	0.428
-201.348	800.000	0.102	-0.385
-200.333	-4.838	0.214	0.146
-199.319	84.394	0.055	-0.060
-198.304	-23.350	-0.301	-0.179
-197.290	102.381	-0.104	0.121
-196.275	13.756	0.144	0.111
-195.260	800.000	-0.081	0.224
-194.246	-200.000	-0.043	0.220
-193.231	-150.770	0.524	0.039
-192.217	495.399	-0.043	-0.099
-191.202	-200.000	-0.002	0.160
-190.187	487.201	-0.062	-0.141
-189.173	411.453	-0.116	-0.243
-188.158	344.779	-0.123	0.240
-187.144	-193.450	-0.103	0.001
-186.129	-200.000	-0.077	0.373
-185.114	800.000	0.041	-0.113
-184.100	-75.311	0.194	0.069
-183.085	-200.000	0.046	-0.355
-182.071	257.004	-0.042	0.072
-181.056	-200.000	-0.016	0.240
-180.042	28.001	0.335	0.280
-179.027	-17.145	-0.029	0.018
-178.012	27.926	0.130	0.109
-176.998	-200.000	-0.044	-0.327
-175.983	-81.418	-0.190	0.062
-174.969	-117.028	0.203	0.037
-173.954	800.000	0.096	-0.279
-172.939	-105.165	0.444	-0.100
-171.925	800.000	0.010	0.031
-170.910	24.224	-0.110	-0.090
-169.896	1.547	0.109	-0.078
-168.881	442.149	-0.072	0.156
-167.866	331.520	-0.038	-0.073
-166.852	407.237	0.104	-0.217
-165.837	-200.000	0.011	0.070
-164.823	-137.997	0.074	-0.008
-163.808	-160.774	-0.077	-0.004
-162.793	3.150	0.101	0.072
-161.779	29.760	-0.221	-0.187
-160.764	169.160	-0.116	-0.163
-159.750	-52.761	-0.087	-0.040
-158.735	637.867	-0.119	0.299
-157.720	-108.331	-0.074	0.016
-156.706	96.434	-0.086	0.097
-155.691	-60.736	-0.269	0.113
-154.677	-116.097	0.290	0.053
-153.662	-103.196	0.282	0.066
-152.647	710.842	0.072	0.190
-151.633	576.043	0.008	0.019
-150.618	-121.234	-0.104	0.017
-149.604	-115.342	-0.260	-0.049
-148.589	462.291	-0.172	-0.381
-147.574	-13.850	-0.200	-0.128
-146.560	800.000	0.062	-0.184
-145.545	382.164	0.037	0.075
-144.531	-89.029	-0.112	0.033
-143.516	193.376	0.123	0.184
-142.502	-96.453	0.104	0.027
-141.487	-81.943	-0.137	0.044
-140.472	76.165	-0.321	0.336
-139.458	116.297	0.087	0.106
-138.443	75.018	0.297	-0.310
-137.429	-101.542	-0.414	0.100
-136.414	-4.749	-0.098	-0.067
-135.399	800.000	0.036	-0.121
-134.385	-109.950	0.104	0.021
-133.370	7.732	-0.160	-0.119
-132.356	39.313	-0.064	-0.056
-131.341	-69.356	0.234	-0.089
-130.326	92.441	-0.089	-0.099
-129.312	42.003	0.052	-0.047
-128.297	-15.519	0.136	0.086
-127.283	279.518	0.202	0.357
-126.268	681.536	0.096	0.247
-125.253	441.709	-0.100	0.216
-124.239	24.254	0.219	-0.179
-123.224	308.404	-0.102	0.188
-122.210	136.744	-0.055	0.072
