DTS Sentinel unit serial number:	SN413079Multiplexer serial number:	ORYXHardware model number:	OX4-SRSoftware version number:	ORYX F/W v4.00 Oryx Data Collector v3.7.2.0data status	okinstallation	princeton_trtdifferential loss correction	single-endedforward channel	channel 2reverse channel	N/Adate	2019/09/16time	19:11:34forward acquisition time	60.00reverse acquisition time	0.00gamma	496.2192k internal	0.2323k external	0.2323temperature offset calibration	0.9965default loss term (dB/km)	0.3790temperature slope calibration	1.0000multiplexer offset coefficient	1.0000multiplexer slope coefficient	1.0000fibre end	0.00T internal ref (°C)	35.19T ext. ref 1 (°C)	0.06T ext. ref 2 (°C)	28.32length (m)	temperature (°C)	Stokes	anti-Stokes-747.200	-30.754	0.249	-0.142
-746.185	134.606	0.131	-0.172
-745.171	-200.000	-0.026	-0.333
-744.156	41.088	-0.353	0.322
-743.142	20.104	-0.138	0.112
-742.127	-200.000	0.057	0.292
-741.112	38.164	0.332	0.298
-740.098	309.203	-0.259	0.489
-739.083	335.530	0.111	0.217
-738.069	800.000	-0.094	0.406
-737.054	22.938	-0.216	0.179
-736.039	-59.431	0.213	0.092
-735.025	42.383	-0.188	0.172
-734.010	-92.088	-0.287	-0.082
-732.996	-61.334	0.124	-0.053
-731.981	59.713	0.059	0.059
-730.966	-200.000	-0.021	0.132
-729.952	17.785	-0.211	0.170
-728.937	-123.030	0.218	-0.035
-727.923	800.000	0.085	-0.271
-726.908	-200.000	-0.010	-0.110
-725.894	-2.272	0.174	-0.123
-724.879	-200.000	0.023	0.158
-723.864	-113.823	-0.223	0.044
-722.850	-200.000	-0.025	-0.170
-721.835	-71.196	0.194	0.073
-720.821	-98.892	-0.025	-0.006
-719.806	-200.000	0.006	-0.430
-718.791	-47.689	-0.323	-0.158
-717.777	-79.574	-0.234	-0.080
-716.762	800.000	-0.032	-0.096
-715.748	-98.424	0.239	0.062
-714.733	-100.883	0.305	-0.076
-713.718	424.706	0.057	-0.124
-712.704	131.334	-0.151	-0.196
-711.689	800.000	-0.020	-0.084
-710.675	-65.276	0.128	-0.052
-709.660	800.000	0.115	0.345
-708.645	-101.372	0.204	0.050
-707.631	-200.000	-0.033	-0.193
-706.616	313.705	-0.207	-0.394
-705.602	-154.575	0.278	-0.019
-704.587	-63.219	-0.196	0.081
-703.572	379.045	0.075	-0.156
-702.558	179.579	-0.175	-0.259
-701.543	-16.945	0.381	-0.243
-700.529	-101.412	-0.299	-0.073
-699.514	2.766	-0.057	0.041
-698.499	-108.471	-0.143	-0.031
-697.485	-200.000	-0.067	-0.413
-696.470	-176.040	-0.186	0.005
-695.456	132.426	0.024	0.031
-694.441	131.890	-0.172	0.223
-693.426	-56.424	0.342	-0.153
-692.412	635.793	0.101	-0.259
-691.397	-8.160	0.265	-0.180
-690.383	-200.000	0.001	0.337
-689.368	-116.493	-0.144	0.027
-688.354	-12.440	0.122	-0.081
-687.339	-138.404	-0.240	0.027
-686.324	-11.536	-0.358	-0.237
-685.310	-200.000	-0.034	-0.332
-684.295	376.404	-0.128	0.263
-683.281	-43.747	-0.355	-0.180
-682.266	-66.780	0.157	0.063
-681.251	259.833	-0.148	-0.257
-680.237	23.662	0.145	-0.120
-679.222	-72.206	-0.288	-0.108
-678.208	-121.325	-0.154	-0.026
-677.193	-200.000	-0.039	0.321
-676.178	127.016	0.208	-0.266
-675.164	307.640	-0.095	-0.178
-674.149	-175.491	-0.197	0.005
-673.135	-31.091	0.091	0.052
-672.120	-195.148	-0.104	0.001
-671.105	97.283	-0.050	-0.058
-670.091	-200.000	0.011	-0.106
-669.076	-82.317	-0.143	0.047
-668.062	-153.164	0.085	-0.006
-667.047	218.646	-0.157	-0.253
-666.032	345.980	0.080	-0.158
-665.018	-200.000	-0.037	-0.190
-664.003	-51.955	0.143	-0.067
-662.989	-200.000	-0.004	-0.262
-661.974	420.631	0.051	-0.110
-660.959	222.155	0.057	0.092
-659.945	-34.964	-0.088	0.048
-658.930	-200.000	-0.058	0.314
-657.916	-200.000	0.010	0.134
-656.901	-60.952	-0.106	0.045
-655.886	800.000	0.214	0.679
-654.872	-69.906	0.231	-0.089
-653.857	-52.498	-0.276	-0.128
-652.843	800.000	0.053	-0.221
-651.828	-200.000	0.011	0.139
-650.814	-25.402	0.124	-0.074
-649.799	386.112	-0.068	-0.141
-648.784	43.577	0.193	0.177
-647.770	-200.000	-0.006	0.110
-646.755	-144.211	-0.346	-0.032
-645.741	-103.501	0.247	0.058
-644.726	181.428	0.204	0.303
-643.711	419.417	0.031	-0.067
-642.697	-200.000	-0.019	-0.170
-641.682	418.790	-0.099	-0.213
-640.668	-133.821	0.294	0.037
-639.653	90.472	0.322	-0.363
-638.638	-200.000	0.021	-0.294
-637.624	206.864	0.073	-0.115
-636.609	-200.000	0.024	-0.162
-635.595	-156.260	0.074	-0.005
-634.580	265.070	-0.105	0.184
-633.565	7.425	-0.156	-0.117
-632.551	800.000	-0.118	-0.512
-631.536	-130.234	-0.227	0.031
-630.522	53.983	-0.233	0.226
-629.507	307.601	0.006	-0.011
-628.492	-17.632	-0.315	-0.199
-627.478	298.088	0.078	-0.144
-626.463	37.934	-0.119	0.107
-625.449	-33.116	-0.219	0.122
-624.434	249.411	-0.178	-0.303
-623.419	-117.485	-0.111	-0.020
-622.405	567.831	-0.014	-0.035
-621.390	112.968	0.136	-0.166
-620.376	-75.652	0.224	0.080
-619.361	800.000	-0.039	-0.125
-618.346	-129.912	0.175	-0.024
-617.332	489.730	-0.160	-0.367
-616.317	800.000	0.071	-0.280
-615.303	227.345	-0.131	0.214
-614.288	-200.000	-0.020	-0.414
-613.273	800.000	0.054	0.212
-612.259	-74.304	0.237	-0.086
-611.244	800.000	-0.112	-0.319
-610.230	110.886	-0.182	0.220
-609.215	117.835	-0.107	-0.133
-608.201	668.614	0.068	0.176
-607.186	-68.407	-0.051	-0.020
-606.171	242.849	0.048	0.080
-605.157	-177.337	-0.416	-0.010
-604.142	-115.463	-0.430	-0.081
-603.128	-30.872	0.185	-0.105
-602.113	553.385	0.024	0.058
-601.098	297.968	-0.143	0.265
-600.084	43.984	0.219	-0.202
-599.069	124.936	-0.062	-0.079
-598.055	-200.000	-0.007	0.293
-597.040	49.317	-0.079	-0.075
-596.025	-22.860	-0.321	-0.194
-595.011	145.555	-0.017	-0.023
-593.996	-107.883	-0.105	0.023
-592.982	37.795	0.140	-0.125
-591.967	167.778	0.212	-0.303
-590.952	-200.000	0.017	-0.212
-589.938	212.247	0.106	0.168
-588.923	-131.742	-0.092	-0.012
-587.909	148.516	0.061	0.083
-586.894	800.000	-0.129	-0.517
-585.879	-200.000	-0.088	-0.483
-584.865	-104.715	0.177	0.041
-583.850	134.088	0.089	0.115
-582.836	24.051	-0.273	0.226
-581.821	-91.027	-0.143	-0.041
-580.806	-200.000	0.028	-0.275
-579.792	800.000	-0.056	0.192
-578.777	49.501	-0.106	-0.100
-577.763	171.104	0.069	0.099
-576.748	453.881	-0.076	0.168
-575.733	149.718	-0.067	0.092
-574.719	462.622	-0.084	-0.189
-573.704	310.291	0.101	-0.190
-572.690	87.575	0.261	-0.290
-571.675	-173.863	0.350	-0.010
-570.661	164.561	-0.256	0.362
-569.646	20.436	0.171	-0.138
-568.631	-200.000	0.072	-0.319
-567.617	-22.936	-0.070	0.043
-566.602	-200.000	0.002	-0.031
-565.588	68.741	0.214	0.220
-564.573	47.011	-0.319	-0.298
-563.558	-134.204	0.199	0.025
-562.544	46.032	-0.277	0.257
-561.529	312.906	0.050	0.094
-560.515	118.090	-0.140	0.173
-559.500	800.000	0.100	0.308
-558.485	562.281	-0.140	0.340
-557.471	-53.041	-0.214	0.099
-556.456	104.374	0.096	0.113
-555.442	-177.748	0.257	-0.006
-554.427	-198.468	-0.347	0.002
-553.412	800.000	-0.097	0.303
-552.398	-3.695	0.141	0.099
-551.383	97.998	0.265	-0.306
-550.369	139.663	-0.166	-0.219
-549.354	-13.026	-0.043	0.028
-548.339	-113.579	-0.324	0.064
-547.325	-12.996	0.146	-0.095
-546.310	-10.577	0.138	-0.092
-545.296	-200.000	0.028	-0.348
-544.281	800.000	0.066	-0.206
-543.266	12.599	0.036	0.028
-542.252	203.812	-0.160	0.249
-541.237	224.120	-0.050	0.081
-540.223	480.571	-0.061	-0.139
-539.208	182.015	0.155	0.229
-538.193	-68.438	0.286	0.111
-537.179	720.959	-0.223	-0.594
-536.164	50.566	0.163	-0.154
-535.150	-135.408	0.134	-0.016
-534.135	-106.896	0.543	0.120
-533.121	-20.209	0.241	-0.149
-532.106	-85.117	-0.170	0.053
-531.091	800.000	0.141	-0.464
-530.077	-200.000	0.059	-0.282
-529.062	800.000	-0.048	0.168
-528.048	163.965	0.116	0.164
-527.033	117.131	-0.151	0.186
-526.018	-69.149	-0.080	-0.031
-525.004	-92.880	0.186	-0.052
-523.989	254.833	0.119	0.205
-522.975	-200.000	-0.026	-0.241
-521.960	-200.000	-0.010	-0.418
-520.945	37.726	-0.196	-0.174
-519.931	800.000	-0.005	0.017
-518.916	43.029	-0.026	-0.024
-517.902	-119.784	-0.406	0.070
-516.887	48.867	0.391	0.367
-515.872	-200.000	-0.008	-0.317
-514.858	88.298	-0.069	-0.076
-513.843	-103.101	-0.170	0.040
-512.829	-19.277	0.199	0.123
-511.814	-92.892	0.480	0.134
-510.799	800.000	0.064	0.235
-509.785	194.051	0.179	-0.271
-508.770	800.000	-0.034	-0.142
-507.756	800.000	-0.073	0.240
-506.741	76.055	0.153	0.161
-505.726	-8.387	-0.305	0.205
-504.712	2.966	-0.119	-0.087
-503.697	226.766	0.077	0.125
-502.683	55.682	-0.046	-0.045
-501.668	-198.378	-0.042	-0.000
-500.653	-147.599	-0.151	0.013
-499.639	8.272	0.067	-0.050
-498.624	-87.876	-0.217	-0.065
-497.610	-73.497	-0.235	-0.086
-496.595	9.650	0.194	0.147
-495.581	-195.941	-0.175	0.001
-494.566	-200.000	-0.018	0.084
-493.551	-113.579	-0.113	-0.022
-492.537	-62.496	0.266	-0.110
-491.522	13.395	-0.145	-0.113
-490.508	-167.292	0.235	0.009
-489.493	-110.880	-0.316	0.065
-488.478	-102.301	0.274	-0.066
-487.464	761.018	0.104	0.282
-486.449	-166.371	-0.268	0.011
-485.435	-87.191	-0.148	-0.045
-484.420	-143.018	-0.093	-0.009
-483.405	-82.192	-0.101	-0.033
-482.391	-0.467	-0.110	-0.078
-481.376	-200.000	-0.042	-0.188
-480.362	-11.789	-0.173	-0.113
-479.347	-54.561	-0.221	0.100
-478.332	47.549	0.172	-0.160
-477.318	-0.686	-0.144	-0.102
-476.303	-106.599	-0.263	-0.059
-475.289	435.210	0.086	-0.188
-474.274	-112.897	-0.052	-0.010
-473.259	-65.342	-0.138	-0.055
-472.245	216.899	-0.127	0.202
-471.230	365.302	0.151	-0.303
-470.216	250.577	-0.127	-0.216
-469.201	-78.780	-0.118	0.040
-468.186	-127.486	0.289	-0.042
-467.172	134.271	0.119	0.155
-466.157	69.581	-0.145	-0.149
-465.143	800.000	-0.017	-0.065
-464.128	-200.000	0.129	-0.000
-463.113	-200.000	-0.007	0.083
-462.099	274.706	0.096	-0.170
-461.084	-196.394	-0.318	-0.002
-460.070	-200.000	-0.004	0.289
-459.055	-73.131	-0.022	0.008
-458.040	4.389	0.366	0.268
-457.026	800.000	-0.081	-0.274
-456.011	-97.692	-0.163	-0.042
-454.997	209.213	0.116	0.181
-453.982	-170.934	-0.104	0.004
-452.968	-200.000	-0.011	-0.157
-451.953	800.000	-0.037	-0.150
-450.938	-117.925	0.254	-0.045
-449.924	800.000	-0.038	-0.146
-448.909	800.000	0.046	-0.149
-447.895	-80.060	0.175	-0.059
-446.880	-114.785	0.486	0.093
-445.865	90.989	-0.032	0.035
-444.851	-35.557	0.219	-0.119
-443.836	-200.000	0.027	-0.292
-442.822	-200.000	-0.054	0.306
-441.807	307.281	0.069	-0.128
-440.792	-61.026	0.270	0.114
-439.778	8.835	-0.251	0.189
-438.763	-140.055	0.028	-0.003
-437.749	-153.135	-0.184	-0.013
-436.734	-51.097	-0.171	-0.080
-435.719	-83.180	-0.367	-0.118
-434.705	-200.000	0.013	0.159
-433.690	27.994	-0.143	-0.120
-432.676	-23.526	0.320	0.192
-431.661	-36.511	0.215	0.116
-430.646	-94.097	-0.181	-0.050
-429.632	-199.660	0.348	-0.002
-428.617	126.319	-0.159	0.201
-427.603	-200.000	0.046	0.313
-426.588	171.580	0.182	0.261
-425.573	-101.022	0.093	0.023
-424.559	800.000	-0.059	-0.214
-423.544	0.089	0.357	0.254
-422.530	-200.000	0.001	-0.164
-421.515	371.279	-0.158	-0.321
-420.500	-81.560	0.069	0.023
-419.486	-4.832	0.220	-0.151
-418.471	-172.465	0.092	-0.003
-417.457	69.225	0.095	0.098
-416.442	162.181	0.096	0.134
-415.428	439.300	0.110	-0.238
-414.413	-38.725	-0.121	0.064
-413.398	-113.712	-0.204	-0.040
-412.384	-47.474	0.147	-0.071
-411.369	-200.000	-0.037	-0.401
-410.355	-119.326	0.300	-0.052
-409.340	798.639	-0.014	-0.040
-408.325	-140.335	-0.150	-0.016
-407.311	800.000	0.083	0.336
-406.296	237.710	0.109	-0.180
-405.282	-200.000	0.053	0.306
-404.267	-173.479	0.186	-0.006
-403.252	116.384	-0.266	0.325
-402.238	-135.547	-0.258	0.031
-401.223	517.965	-0.131	0.306
-400.209	-159.385	-0.139	0.008
-399.194	32.174	-0.129	-0.111
-398.179	18.337	-0.292	0.233
-397.165	-200.000	0.004	0.194
-396.150	-54.909	0.172	-0.077
-395.136	800.000	0.102	-0.422
-394.121	88.801	0.039	0.043
-393.106	800.000	-0.029	-0.121
-392.092	89.520	0.154	-0.172
-391.077	261.547	-0.184	0.318
-390.063	-200.000	0.022	0.335
-389.048	34.573	-0.109	0.095
-388.033	38.990	-0.229	-0.204
-387.019	-60.580	0.120	-0.051
-386.004	-85.277	0.037	-0.012
-384.990	31.631	-0.126	-0.108
-383.975	-200.000	0.021	-0.171
-382.960	-200.000	-0.027	0.222
-381.946	186.025	-0.109	-0.162
-380.931	-25.891	0.091	-0.054
-379.917	-198.248	0.272	-0.002
-378.902	-200.000	0.005	0.120
-377.888	-21.526	-0.164	-0.100
-376.873	38.476	-0.204	0.181
-375.858	-40.988	0.071	0.036
-374.844	56.788	0.046	0.045
-373.829	15.240	-0.147	0.114
-372.815	800.000	-0.046	-0.158
-371.800	10.837	-0.115	0.087
-370.785	-95.824	-0.268	-0.071
-369.771	481.384	-0.155	0.351
-368.756	20.722	-0.156	-0.126
-367.742	800.000	0.027	0.115
-366.727	-200.000	0.015	0.301
-365.712	405.573	-0.006	0.013
-364.698	-5.325	-0.209	0.143
-363.683	-37.951	0.125	-0.066
-362.669	-164.207	0.456	0.021
-361.654	-200.000	-0.008	-0.245
-360.639	-182.088	0.261	0.005
-359.625	252.407	-0.053	0.089
-358.610	72.452	-0.165	-0.172
-357.596	-4.831	-0.213	0.146
-356.581	800.000	-0.047	-0.168
-355.566	138.750	0.082	0.107
-354.552	-42.741	-0.196	0.099
-353.537	609.389	0.097	-0.240
-352.523	-179.714	0.289	-0.006
-351.508	-200.000	0.042	0.249
-350.493	560.120	0.032	0.078
-349.479	288.693	-0.100	0.181
-348.464	-200.000	0.003	0.049
-347.450	4.428	0.334	-0.243
-346.435	-200.000	0.002	0.050
-345.420	-65.746	0.244	-0.097
-344.406	-39.075	-0.124	0.065
-343.391	-45.800	-0.105	0.052
-342.377	-102.454	-0.119	0.028
-341.362	-20.780	-0.055	0.034
-340.348	-123.211	0.364	-0.058
-339.333	800.000	0.009	-0.025
-338.318	-199.806	-0.295	-0.001
-337.304	-200.000	0.000	0.150
-336.289	326.618	0.169	0.322
-335.275	159.913	-0.109	0.151
-334.260	-200.000	-0.017	0.364
-333.245	-200.000	0.019	0.095
-332.231	612.560	-0.161	0.401
-331.216	-119.682	0.381	0.065
-330.202	-200.000	0.001	-0.131
-329.187	-200.000	0.016	-0.192
-328.172	152.150	0.222	0.301
-327.158	800.000	0.094	0.349
-326.143	-200.000	-0.018	-0.088
-325.129	-200.000	-0.008	0.239
-324.114	12.186	-0.151	-0.116
-323.099	3.983	-0.287	-0.208
-322.085	-200.000	0.002	-0.177
-321.070	132.463	0.133	0.170
-320.056	-93.732	-0.184	-0.050
-319.041	-22.268	-0.273	-0.164
-318.026	-36.539	0.171	0.091
-317.012	-129.124	0.048	0.007
-315.997	-11.689	0.063	-0.041
-314.983	91.319	0.326	-0.364
-313.968	-37.780	0.050	-0.027
-312.953	-34.617	0.192	-0.104
-311.939	-70.614	-0.240	-0.090
-310.924	-78.231	0.360	0.123
-309.910	456.339	0.140	0.309
-308.895	-101.044	-0.202	0.049
-307.880	226.794	0.186	-0.300
-306.866	-200.000	0.005	0.169
-305.851	-44.190	-0.136	-0.068
-304.837	90.286	-0.163	-0.181
-303.822	-122.192	-0.121	0.020
-302.807	-200.000	-0.021	0.101
-301.793	-21.820	0.199	0.120
-300.778	-27.928	0.230	0.132
-299.764	-63.477	-0.183	0.075
-298.749	800.000	0.071	-0.259
-297.735	-46.005	-0.345	0.169
-296.720	-6.491	0.322	0.218
-295.705	800.000	0.146	0.453
-294.691	-145.922	-0.094	-0.008
-293.676	36.946	-0.060	0.053
-292.662	800.000	-0.082	-0.226
-291.647	-64.113	-0.127	-0.051
-290.632	-94.335	0.290	-0.079
-289.618	-68.720	-0.159	-0.061
-288.603	-81.692	0.132	0.043
-287.589	-200.000	0.046	-0.221
-286.574	10.973	-0.128	0.097
-285.559	-0.573	-0.254	-0.179
-284.545	-33.801	-0.082	0.045
-283.530	135.968	0.051	-0.066
-282.516	390.640	-0.046	0.094
-281.501	243.588	0.161	-0.268
-280.486	800.000	0.009	0.032
-279.472	155.020	-0.042	-0.058
-278.457	-140.072	0.113	-0.012
-277.443	-200.000	0.005	-0.094
-276.428	-66.713	0.235	-0.092
-275.413	-200.000	0.002	-0.076
-274.399	-113.205	-0.184	0.036
-273.384	-200.000	-0.083	-0.485
-272.370	-200.000	-0.031	-0.261
-271.355	-200.000	-0.011	-0.398
-270.340	126.456	0.130	-0.163
-269.326	160.249	0.023	0.032
-268.311	-35.770	0.195	-0.105
-267.297	-142.087	0.078	-0.008
-266.282	517.827	-0.055	0.127
-265.267	90.893	0.111	0.124
-264.253	-51.548	0.094	0.043
-263.238	2.176	-0.112	-0.080
-262.224	-33.253	-0.130	0.071
-261.209	56.506	-0.035	-0.034
-260.195	-55.865	-0.332	0.147
-259.180	-79.633	0.073	-0.024
-258.165	-95.803	-0.115	0.030
-257.151	-111.851	-0.254	-0.051
-256.136	-200.000	-0.007	-0.176
-255.122	800.000	-0.085	0.240
-254.107	-200.000	-0.021	-0.262
-253.092	-200.000	0.037	0.344
-252.078	800.000	0.051	-0.214
-251.063	-200.000	0.024	0.248
-250.049	172.130	-0.112	0.159
-249.034	800.000	-0.048	0.187
-248.019	717.463	0.094	0.248
-247.005	25.569	0.271	0.223
-245.990	681.419	0.106	0.274
-244.976	-200.000	0.013	0.059
-243.961	-59.693	0.114	0.048
-242.946	118.262	-0.073	-0.090
-241.932	523.907	-0.104	0.243
-240.917	-53.072	0.216	0.098
-239.903	-12.976	-0.299	0.193
-238.888	-200.000	0.007	0.114
-237.873	0.403	-0.227	0.161
-236.859	-189.496	-0.154	-0.002
-235.844	800.000	0.041	0.146
-234.830	128.885	0.118	0.149
-233.815	159.675	-0.190	0.262
-232.800	-200.000	-0.018	0.225
-231.786	296.286	-0.031	-0.056
-230.771	-61.281	-0.079	0.033
-229.757	251.007	-0.181	-0.305
-228.742	437.258	0.059	-0.128
-227.727	-57.768	-0.120	0.052
-226.713	-34.620	-0.211	0.114
-225.698	-88.955	-0.079	-0.023
-224.684	574.651	0.079	0.191
-223.669	173.432	-0.048	-0.069
-222.655	-117.846	0.251	-0.045
-221.640	81.525	0.136	0.146
-220.625	-7.725	0.180	0.120
-219.611	-174.127	0.212	0.006
-218.596	-64.502	-0.196	-0.079
-217.582	-7.785	0.078	0.052
-216.567	282.172	0.196	0.347
-215.552	-200.000	0.334	-0.001
-214.538	136.179	-0.163	0.210
-213.523	-104.226	-0.107	0.025
-212.509	-141.604	-0.231	-0.023
-211.494	80.520	-0.116	0.123
-210.479	89.705	0.135	-0.149
-209.465	85.181	0.116	0.126
-208.450	205.453	0.108	0.166
-207.436	-85.892	-0.042	-0.013
-206.421	223.859	-0.219	-0.349
-205.406	-71.191	-0.109	0.041
-204.392	-113.043	0.251	0.049
-203.377	800.000	0.083	0.242
-202.363	232.101	0.082	-0.133
-201.348	-132.410	0.385	0.049
-200.333	209.201	-0.348	0.539
-199.319	-97.708	0.169	0.043
-198.304	36.675	-0.153	-0.133
-197.290	197.146	-0.110	0.166
-196.275	140.210	-0.049	-0.064
-195.260	-112.273	0.355	-0.070
-194.246	316.996	0.072	0.135
-193.231	-200.000	0.047	-0.384
-192.217	70.548	-0.156	-0.160
-191.202	800.000	-0.096	0.380
-190.187	250.302	-0.206	-0.347
-189.173	12.299	0.236	-0.179
-188.158	800.000	0.071	0.288
-187.144	800.000	-0.053	-0.177
-186.129	-16.010	-0.139	-0.087
-185.114	23.661	-0.129	0.105
-184.100	-53.349	0.295	-0.134
-183.085	111.074	0.140	0.167
-182.071	-83.110	-0.185	0.059
-181.056	320.070	0.063	-0.118
-180.042	315.084	-0.057	-0.106
-179.027	-71.336	0.391	-0.145
-178.012	800.000	-0.116	-0.325
-176.998	236.386	-0.063	0.103
-175.983	-200.000	-0.027	-0.147
-174.969	-22.966	-0.043	-0.025
-173.954	-65.484	-0.184	-0.073
-172.939	393.195	0.112	0.230
-171.925	111.435	0.132	0.157
-170.910	-117.681	0.118	0.021
-169.896	-38.127	-0.085	-0.045
-168.881	-200.000	-0.025	0.128
-167.866	-32.063	-0.070	0.039
-166.852	-200.000	-0.041	0.283
-165.837	800.000	0.023	-0.097
-164.823	277.415	-0.160	0.281
-163.808	189.278	0.153	0.227
-162.793	331.856	-0.182	-0.347
-161.779	696.131	0.081	-0.210
-160.764	-99.354	0.183	-0.045
-159.750	-125.736	0.355	-0.053
-158.735	664.368	-0.004	-0.009
-157.720	167.771	-0.088	0.124
-156.706	273.873	0.047	-0.083
-155.691	128.051	0.082	-0.103
-154.677	-94.319	0.203	-0.055
-153.662	-200.000	-0.051	0.351
-152.647	-200.000	0.072	0.374
-151.633	202.024	-0.127	-0.194
-150.618	-7.461	-0.137	0.092
-149.604	-200.000	0.041	0.201
-148.589	-62.581	0.080	0.033
-147.574	12.046	0.048	0.036
-146.560	480.084	0.128	-0.285
-145.545	-125.073	-0.162	-0.025
-144.531	-170.661	-0.111	-0.004
-143.516	-26.861	0.249	0.143
-142.502	-200.000	0.059	0.476
-141.487	96.881	0.246	0.278
-140.472	-79.004	-0.288	-0.097
-139.458	-150.335	0.304	-0.023
-138.443	-200.000	-0.067	-0.384
-137.429	130.894	0.248	-0.313
-136.414	-71.084	0.152	-0.056
-135.399	-200.000	-0.055	-0.263
-134.385	-28.595	-0.059	-0.033
-133.370	-200.000	-0.032	0.158
-132.356	397.065	-0.084	-0.172
-131.341	-22.250	0.480	-0.287
-130.326	-23.374	-0.134	-0.079
-129.312	-82.906	-0.273	0.087
-128.297	-200.000	0.021	-0.096
-127.283	-200.000	-0.019	-0.094
-126.268	-200.000	0.041	0.258
-125.253	-200.000	-0.052	-0.349
-124.239	-77.870	0.130	0.044
-123.224	-139.733	-0.142	-0.015
