DTS Sentinel unit serial number:	SN413079Multiplexer serial number:	ORYXHardware model number:	OX4-SRSoftware version number:	ORYX F/W v4.00 Oryx Data Collector v3.7.2.0data status	okinstallation	princeton_trtdifferential loss correction	single-endedforward channel	channel 2reverse channel	N/Adate	2019/09/19time	06:59:35forward acquisition time	60.00reverse acquisition time	0.00gamma	496.2192k internal	0.2350k external	0.2350temperature offset calibration	1.0012default loss term (dB/km)	0.3790temperature slope calibration	1.0000multiplexer offset coefficient	1.0000multiplexer slope coefficient	1.0000fibre end	0.00T internal ref (°C)	19.00T ext. ref 1 (°C)	0.56T ext. ref 2 (°C)	12.84length (m)	temperature (°C)	Stokes	anti-Stokes-747.200	-130.588	-0.313	-0.042
-746.185	738.667	-0.209	0.559
-745.171	-10.373	-0.115	0.076
-744.156	-200.000	0.029	0.474
-743.142	94.312	0.183	0.207
-742.127	800.000	-0.072	0.228
-741.112	-123.872	0.275	0.043
-740.098	62.810	-0.170	0.170
-739.083	208.367	-0.117	-0.182
-738.069	90.171	0.118	0.132
-737.054	800.000	-0.044	-0.192
-736.039	151.960	-0.155	-0.211
-735.025	800.000	0.022	-0.089
-734.010	-124.521	-0.094	0.015
-732.996	-113.343	-0.064	0.013
-731.981	46.492	-0.111	-0.103
-730.966	800.000	0.062	0.260
-729.952	-109.068	-0.096	-0.020
-728.937	214.937	-0.168	-0.266
-727.923	22.003	-0.266	0.216
-726.908	800.000	-0.003	-0.009
-725.894	-48.260	-0.160	-0.077
-724.879	71.198	-0.258	-0.267
-723.864	543.330	-0.126	-0.301
-722.850	-133.630	-0.360	-0.045
-721.835	-68.542	0.254	0.098
-720.821	95.166	-0.330	-0.375
-719.806	-48.545	-0.424	-0.203
-718.791	102.378	0.162	-0.189
-717.777	-92.623	0.085	0.024
-716.762	800.000	-0.032	-0.136
-715.748	800.000	-0.085	-0.279
-714.733	184.602	-0.079	-0.117
-713.718	-108.559	0.077	0.017
-712.704	-46.766	-0.212	0.104
-711.689	-138.521	0.038	0.004
-710.675	-200.000	-0.005	-0.021
-709.660	800.000	0.067	-0.237
-708.645	365.956	0.042	-0.084
-707.631	800.000	0.029	-0.123
-706.616	-12.255	-0.325	0.212
-705.602	117.215	0.114	0.139
-704.587	-86.889	-0.376	0.114
-703.572	18.540	0.129	-0.103
-702.558	-60.119	0.109	-0.046
-701.543	162.425	-0.106	0.148
-700.529	-200.000	0.003	0.021
-699.514	34.669	0.240	0.209
-698.499	74.643	-0.197	0.207
-697.485	-33.421	-0.079	0.044
-696.470	184.858	0.166	0.245
-695.456	-200.000	0.008	-0.374
-694.441	-46.864	-0.222	0.108
-693.426	27.387	0.084	0.070
-692.412	22.401	0.116	-0.095
-691.397	67.254	0.169	0.172
-690.383	192.273	-0.290	-0.437
-689.368	165.997	-0.166	0.235
-688.354	29.513	-0.218	-0.185
-687.339	800.000	-0.067	0.265
-686.324	439.517	-0.113	-0.247
-685.310	-200.000	-0.021	-0.403
-684.295	-102.796	-0.190	-0.045
-683.281	-200.000	-0.009	-0.125
-682.266	-128.843	-0.409	0.057
-681.251	-86.446	-0.189	0.058
-680.237	-104.864	0.322	-0.074
-679.222	282.705	0.142	-0.254
-678.208	-130.376	-0.275	-0.037
-677.193	-123.345	0.271	-0.043
-676.178	154.228	-0.087	-0.119
-675.164	-200.000	0.014	0.117
-674.149	203.619	0.130	-0.200
-673.135	131.570	0.168	-0.214
-672.120	-200.000	-0.009	-0.124
-671.105	27.699	0.122	0.102
-670.091	-200.000	-0.007	-0.363
-669.076	594.294	-0.104	0.255
-668.062	74.370	-0.159	-0.166
-667.047	-35.044	0.079	-0.043
-666.032	77.181	-0.236	-0.250
-665.018	-12.549	-0.189	0.123
-664.003	179.428	0.130	-0.189
-662.989	-74.852	-0.159	-0.057
-661.974	-200.000	0.037	-0.323
-660.959	-159.494	0.179	0.010
-659.945	-200.000	-0.039	0.482
-658.930	-200.000	-0.075	0.443
-657.916	84.318	0.250	-0.273
-656.901	-123.124	-0.309	-0.049
-655.886	-82.332	-0.049	-0.016
-654.872	15.994	0.385	0.302
-653.857	309.880	0.043	0.080
-652.843	-14.421	0.173	0.111
-651.828	-200.000	0.006	-0.360
-650.814	-200.000	0.010	-0.093
-649.799	-200.000	-0.003	-0.041
-648.784	-200.000	-0.077	0.383
-647.770	74.696	-0.046	-0.048
-646.755	119.357	0.136	-0.167
-645.741	578.070	-0.163	-0.397
-644.726	800.000	-0.104	0.303
-643.711	570.894	0.180	0.435
-642.697	-45.586	-0.188	-0.092
-641.682	-200.000	0.012	0.221
-640.668	277.116	-0.054	-0.095
-639.653	-200.000	0.025	0.271
-638.638	-200.000	-0.001	0.072
-637.624	62.299	-0.052	-0.052
-636.609	-200.000	0.017	0.164
-635.595	-200.000	0.007	-0.110
-634.580	-78.420	-0.144	0.049
-633.565	800.000	0.101	0.395
-632.551	-2.411	0.080	0.056
-631.536	-98.764	-0.179	0.045
-630.522	-133.613	-0.209	-0.026
-629.507	-200.000	-0.021	-0.186
-628.492	737.778	0.060	-0.160
-627.478	-169.944	-0.136	0.005
-626.463	-166.713	0.252	0.010
-625.449	-200.000	0.011	0.082
-624.434	800.000	-0.003	-0.011
-623.419	-31.590	-0.200	-0.112
-622.405	800.000	0.068	0.233
-621.390	424.358	-0.066	0.141
-620.376	-78.649	-0.132	-0.045
-619.361	-200.000	0.009	0.177
-618.346	-141.905	0.377	0.037
-617.332	15.619	0.157	-0.123
-616.317	68.413	0.297	0.302
-615.303	-36.338	0.274	-0.147
-614.288	-108.180	0.023	-0.005
-613.273	-172.978	-0.080	0.002
-612.259	155.195	-0.088	-0.120
-611.244	315.183	0.021	0.040
-610.230	16.524	-0.169	0.133
-609.215	101.172	0.169	-0.195
-608.201	800.000	0.058	0.167
-607.186	-200.000	-0.059	-0.310
-606.171	-200.000	-0.058	-0.539
-605.157	185.570	-0.147	-0.217
-604.142	23.868	-0.149	0.122
-603.128	61.035	-0.213	-0.210
-602.113	298.374	0.052	-0.095
-601.098	800.000	-0.132	0.504
-600.084	63.302	0.242	0.241
-599.069	-200.000	-0.006	-0.214
-598.055	357.609	0.177	-0.351
-597.040	-200.000	-0.010	-0.122
-596.025	-173.181	-0.434	0.013
-595.011	10.945	0.153	0.116
-593.996	-140.743	-0.339	-0.035
-592.982	153.335	0.121	-0.165
-591.967	-72.210	0.193	-0.071
-590.952	-26.692	-0.370	0.215
-589.938	7.883	0.191	-0.142
-588.923	628.663	-0.066	0.166
-587.909	-200.000	-0.004	0.247
-586.894	-59.633	-0.113	-0.048
-585.879	81.182	0.166	0.178
-584.865	605.489	-0.031	0.076
-583.850	348.923	0.092	0.180
-582.836	800.000	0.081	0.277
-581.821	127.285	0.072	-0.090
-580.806	-61.901	-0.434	0.180
-579.792	6.709	-0.185	0.137
-578.777	-197.138	0.432	0.003
-577.763	621.847	0.077	-0.193
-576.748	-200.000	0.318	-0.001
-575.733	-31.553	-0.127	-0.071
-574.719	800.000	0.073	0.306
-573.704	7.876	0.171	0.127
-572.690	61.499	0.179	-0.177
-571.675	17.752	-0.149	-0.117
-570.661	-200.000	-0.004	-0.292
-569.646	325.677	-0.023	0.044
-568.631	800.000	-0.114	-0.376
-567.617	41.567	-0.065	-0.058
-566.602	-200.000	0.028	-0.288
-565.588	800.000	0.054	-0.157
-564.573	178.245	0.152	0.220
-563.558	456.353	-0.065	-0.143
-562.544	35.956	0.091	-0.079
-561.529	268.429	0.154	-0.267
-560.515	-24.108	0.165	0.098
-559.500	-200.000	0.009	0.075
-558.485	-163.952	-0.027	0.001
-557.471	-127.722	-0.407	0.058
-556.456	-8.117	0.164	-0.110
-555.442	-8.587	0.179	-0.119
-554.427	-200.000	0.017	-0.269
-553.412	679.234	-0.063	0.161
-552.398	251.264	-0.122	0.206
-551.383	120.850	-0.135	-0.166
-550.369	-119.384	0.182	0.031
-549.354	53.246	-0.095	-0.090
-548.339	148.315	0.188	-0.251
-547.325	800.000	-0.032	-0.093
-546.310	-31.796	-0.092	0.051
-545.296	-200.000	0.008	-0.129
-544.281	719.478	0.112	-0.296
-543.266	800.000	-0.038	-0.116
-542.252	-200.000	0.019	0.230
-541.237	-89.336	-0.104	0.030
-540.223	-1.206	-0.148	0.103
-539.208	81.344	-0.332	0.355
-538.193	264.618	-0.065	0.111
-537.179	-158.463	0.207	-0.012
-536.164	-15.747	0.162	0.102
-535.150	29.049	-0.268	-0.225
-534.135	-173.142	-0.085	0.003
-533.121	237.041	0.094	0.154
-532.106	212.925	-0.036	0.056
-531.091	-90.627	0.181	-0.052
-530.077	-71.117	-0.308	-0.115
-529.062	-136.386	-0.058	0.007
-528.048	-60.775	-0.229	0.096
-527.033	-67.642	-0.119	0.046
-526.018	-7.256	0.166	0.111
-525.004	154.847	0.113	-0.153
-523.989	-59.793	-0.403	-0.171
-522.975	-112.975	0.158	0.031
-521.960	-181.133	0.132	0.003
-520.945	-44.990	0.231	-0.114
-519.931	-78.438	0.074	-0.025
-518.916	513.428	-0.062	-0.144
-517.902	-114.551	-0.159	0.030
-516.887	69.289	0.045	0.046
-515.872	52.333	0.107	-0.101
-514.858	117.973	-0.182	0.222
-513.843	-69.495	0.218	-0.083
-512.829	-0.035	-0.126	0.089
-511.814	-200.000	0.018	-0.190
-510.799	800.000	-0.027	0.080
-509.785	-79.538	-0.148	-0.049
-508.770	618.896	0.129	0.321
-507.756	-109.218	-0.219	0.046
-506.741	-3.803	-0.096	-0.066
-505.726	-200.000	0.004	0.132
-504.712	493.875	0.075	0.170
-503.697	800.000	-0.096	-0.264
-502.683	800.000	0.081	-0.256
-501.668	-73.792	0.319	-0.115
-500.653	-121.416	-0.202	0.033
-499.639	-87.732	0.398	0.119
-498.624	800.000	-0.044	0.137
-497.610	420.738	-0.060	0.127
-496.595	5.579	0.084	0.062
-495.581	-174.759	0.236	-0.007
-494.566	-200.000	-0.061	0.291
-493.551	24.164	-0.296	0.242
-492.537	-135.849	0.066	0.008
-491.522	800.000	-0.061	0.226
-490.508	136.346	-0.096	0.123
-489.493	-57.356	0.197	-0.086
-488.478	175.031	0.073	-0.105
-487.464	-200.000	0.012	0.190
-486.449	-37.115	0.144	0.076
-485.435	-200.000	0.018	0.126
-484.420	-110.915	-0.183	-0.037
-483.405	-97.579	0.086	0.022
-482.391	-105.532	-0.183	0.041
-481.376	-200.000	0.024	-0.267
-480.362	-39.590	0.156	0.081
-479.347	-29.465	-0.280	-0.158
-478.332	-112.402	-0.130	-0.026
-477.318	800.000	0.116	0.349
-476.303	-200.000	-0.029	0.338
-475.289	243.873	-0.240	0.397
-474.274	66.096	-0.257	0.257
-473.259	53.282	0.240	-0.227
-472.245	-38.728	0.106	0.055
-471.230	-131.083	0.288	0.038
-470.216	104.145	0.114	-0.133
-469.201	43.758	-0.204	0.184
-468.186	225.756	0.279	0.447
-467.172	23.016	-0.032	-0.026
-466.157	800.000	-0.075	0.205
-465.143	-55.176	-0.063	-0.028
-464.128	-54.340	-0.220	0.099
-463.113	-122.486	-0.160	0.026
-462.099	147.277	-0.142	-0.189
-461.084	685.612	0.036	-0.092
-460.070	-37.682	-0.019	0.010
-459.055	-36.673	-0.193	-0.103
-458.040	176.488	-0.131	-0.189
-457.026	412.253	0.067	-0.140
-456.011	54.022	-0.013	0.012
-454.997	-49.662	0.161	-0.076
-453.982	-200.000	0.016	-0.179
-452.968	28.211	0.241	0.201
-451.953	8.166	-0.061	0.045
-450.938	-200.000	-0.019	-0.340
-449.924	342.851	0.068	-0.132
-448.909	-33.858	-0.163	0.088
-447.895	-200.000	0.005	-0.265
-446.880	800.000	0.060	0.212
-445.865	-200.000	-0.010	0.315
-444.851	41.849	-0.229	0.205
-443.836	252.682	-0.106	0.179
-442.822	78.785	0.119	-0.126
-441.807	-125.122	-0.178	0.027
-440.792	-23.969	0.054	0.032
-439.778	-96.111	-0.359	-0.094
-438.763	-200.000	-0.033	0.364
-437.749	84.050	-0.095	-0.102
-436.734	-159.690	-0.303	-0.017
-435.719	-41.729	-0.099	-0.050
-434.705	-48.773	-0.316	-0.149
-433.690	517.691	0.179	-0.413
-432.676	-172.780	0.267	0.008
-431.661	-88.152	0.395	-0.117
-430.646	29.576	0.248	0.208
-429.632	-12.064	-0.081	-0.052
-428.617	-200.000	0.032	0.244
-427.603	-56.410	0.315	0.138
-426.588	-98.559	0.218	-0.055
-425.573	255.622	-0.124	-0.210
-424.559	-114.187	-0.373	0.071
-423.544	800.000	-0.126	-0.389
-422.530	800.000	-0.063	-0.223
-421.515	-22.173	0.250	-0.149
-420.500	-128.557	-0.447	-0.062
-419.486	-83.725	0.421	-0.132
-418.471	-44.200	0.361	-0.179
-417.457	-200.000	0.023	-0.245
-416.442	56.384	0.178	-0.171
-415.428	-38.056	-0.142	0.074
-414.413	-72.953	-0.246	0.089
-413.398	-59.335	0.191	0.081
-412.384	508.583	-0.188	-0.430
-411.369	800.000	0.052	0.163
-410.355	-50.446	-0.288	-0.134
-409.340	-68.072	-0.505	0.194
-408.325	-200.000	0.044	0.297
-407.311	341.598	-0.138	0.267
-406.296	-9.235	-0.060	0.040
-405.282	-108.543	-0.114	-0.024
-404.267	107.630	-0.125	-0.146
-403.252	-59.973	-0.168	-0.071
-402.238	533.359	-0.136	-0.318
-401.223	282.074	0.091	-0.161
-400.209	68.855	0.111	-0.112
-399.194	172.840	0.273	0.388
-398.179	-154.730	-0.087	-0.006
-397.165	-112.365	-0.190	-0.038
-396.150	340.038	-0.058	0.111
-395.136	800.000	0.034	0.134
-394.121	-200.000	-0.007	0.178
-393.106	4.803	0.354	-0.256
-392.092	800.000	0.093	0.278
-391.077	220.376	0.132	-0.209
-390.063	-124.515	-0.234	-0.036
-389.048	-106.658	-0.192	0.042
-388.033	233.885	0.129	0.208
-387.019	376.682	-0.130	0.261
-386.004	-131.552	-0.165	-0.021
-384.990	72.052	0.147	0.151
-383.975	-72.418	-0.026	-0.010
-382.960	9.299	0.318	0.237
-381.946	82.120	-0.138	-0.147
-380.931	363.984	-0.152	-0.300
-379.917	27.068	0.161	0.133
-378.902	148.622	-0.227	0.302
-377.888	-22.751	0.101	0.060
-376.873	-29.830	0.156	0.088
-375.858	47.098	0.353	0.323
-374.844	314.652	-0.053	0.098
-373.829	168.792	-0.066	-0.093
-372.815	731.622	0.048	0.125
-371.800	-126.989	-0.101	-0.015
-370.785	-200.000	0.005	-0.226
-369.771	447.599	0.082	-0.178
-368.756	-110.713	0.126	0.026
-367.742	103.025	-0.281	-0.324
-366.727	-200.000	-0.012	0.076
-365.712	800.000	-0.072	-0.216
-364.698	-200.000	-0.008	0.137
-363.683	-42.206	0.517	0.260
-362.669	800.000	0.059	-0.246
-361.654	-200.000	0.047	-0.221
-360.639	263.977	-0.055	-0.095
-359.625	45.395	0.147	0.133
-358.610	-67.002	-0.246	0.095
-357.596	246.248	-0.116	-0.192
-356.581	-30.947	0.167	0.093
-355.566	-200.000	0.021	0.310
-354.552	-71.352	0.061	-0.023
-353.537	311.381	0.091	-0.168
-352.523	120.110	-0.142	-0.173
-351.508	306.971	-0.128	-0.235
-350.493	-167.273	0.153	0.006
-349.479	30.729	-0.299	-0.252
-348.464	-200.000	-0.025	-0.177
-347.450	254.566	0.155	-0.260
-346.435	-73.842	0.069	-0.025
-345.420	-113.643	-0.362	0.069
-344.406	-174.010	0.319	0.009
-343.391	307.028	-0.159	0.291
-342.377	317.701	-0.221	0.410
-341.362	-62.552	0.127	0.052
-340.348	-200.000	0.011	-0.058
-339.333	96.251	0.136	-0.153
-338.318	329.423	-0.135	-0.254
-337.304	303.041	0.043	-0.078
-336.289	44.318	-0.101	0.091
-335.275	176.591	-0.191	-0.273
-334.260	32.031	-0.085	-0.072
-333.245	-27.939	0.131	-0.075
-332.231	-185.660	0.230	-0.003
-331.216	-70.592	0.305	0.113
-330.202	20.829	-0.087	0.069
-329.187	158.495	-0.128	0.174
-328.172	-99.448	0.049	0.012
-327.158	120.614	0.093	-0.113
-326.143	248.501	0.076	-0.126
-325.129	-200.000	-0.022	0.285
-324.114	716.258	-0.032	-0.083
-323.099	800.000	0.029	0.124
-322.085	37.392	0.171	-0.149
-321.070	82.048	0.179	0.191
-320.056	-109.190	-0.321	0.067
-319.041	-96.909	0.284	0.073
-318.026	800.000	0.038	0.148
-317.012	-200.000	0.038	0.171
-315.997	52.190	0.080	0.075
-314.983	192.801	0.121	0.179
-313.968	-181.720	0.165	0.003
-312.953	118.967	-0.045	-0.055
-311.939	-50.869	0.301	-0.139
-310.924	-200.000	0.128	-0.564
-309.910	-193.818	-0.503	-0.004
-308.895	49.554	0.230	-0.212
-307.880	226.036	-0.173	0.275
-306.866	-200.000	-0.034	0.201
-305.851	-114.569	-0.172	0.032
-304.837	-12.327	0.237	0.152
-303.822	28.358	0.188	-0.156
-302.807	-146.289	-0.337	-0.029
-301.793	-200.000	-0.010	0.180
-300.778	-167.654	-0.078	-0.003
-299.764	15.022	0.148	-0.114
-298.749	69.878	0.194	0.197
-297.735	54.962	0.126	-0.119
-296.720	-200.000	-0.041	-0.224
-295.705	-94.603	-0.512	-0.137
-294.691	187.331	0.080	0.117
-293.676	5.299	0.132	0.095
-292.662	234.463	-0.247	0.399
-291.647	82.791	0.044	0.047
-290.632	-20.995	-0.242	-0.145
-289.618	70.653	0.125	0.126
-288.603	-10.907	-0.047	0.030
-287.589	171.788	-0.100	-0.140
-286.574	-37.215	-0.232	-0.122
-285.559	-72.482	0.191	-0.069
-284.545	134.039	0.268	0.341
-283.530	-151.128	0.109	-0.008
-282.516	800.000	-0.062	0.204
-281.501	-75.795	0.282	-0.098
-280.486	100.415	-0.371	-0.422
-279.472	-58.792	0.078	0.033
-278.457	-59.651	-0.184	-0.077
-277.443	30.289	-0.209	-0.175
-276.428	5.420	0.209	0.151
-275.413	798.691	-0.141	0.381
-274.399	346.905	-0.016	0.032
-273.384	-200.000	-0.065	0.409
-272.370	-10.291	0.022	0.014
-271.355	-85.559	0.263	-0.080
-270.340	45.259	-0.223	-0.202
-269.326	-200.000	0.042	-0.227
-268.311	800.000	-0.074	-0.286
-267.297	-133.315	-0.056	0.007
-266.282	302.139	-0.056	-0.101
-265.267	800.000	0.084	-0.265
-264.253	-19.487	-0.227	0.138
-263.238	-113.063	0.134	0.026
-262.224	20.594	0.085	-0.068
-261.209	-200.000	-0.010	-0.176
-260.195	-200.000	-0.049	0.250
-259.180	-200.000	-0.018	0.302
-258.165	195.555	0.180	-0.269
-257.151	56.650	-0.151	-0.144
-256.136	-32.835	-0.105	-0.057
-255.122	-200.000	0.026	0.175
-254.107	800.000	-0.097	-0.302
-253.092	-26.684	0.125	0.072
-252.078	54.589	-0.158	0.150
-251.063	-200.000	-0.001	0.090
-250.049	68.152	0.261	0.261
-249.034	-59.162	-0.123	-0.052
-248.019	-200.000	-0.128	0.000
-247.005	-105.833	0.213	0.047
-245.990	107.369	0.058	0.068
-244.976	72.592	-0.045	-0.046
-243.961	-200.000	0.013	-0.393
-242.946	67.263	-0.153	-0.153
-241.932	-200.000	-0.038	0.165
-240.917	-200.000	0.020	0.094
-239.903	54.444	0.264	0.249
-238.888	22.814	0.112	0.090
-237.873	-154.772	0.186	0.012
-236.859	-132.253	0.037	0.005
-235.844	800.000	-0.080	0.309
-234.830	800.000	-0.026	-0.100
-233.815	800.000	-0.125	-0.394
-232.800	-97.574	-0.236	-0.060
-231.786	-4.598	0.108	0.073
-230.771	-200.000	-0.007	-0.102
-229.757	157.929	-0.330	-0.447
-228.742	-30.649	0.467	0.259
-227.727	-26.923	-0.161	-0.092
-226.713	-115.505	0.180	-0.033
-225.698	-108.239	-0.235	-0.050
-224.684	-119.831	0.308	-0.052
-223.669	-200.000	0.028	-0.232
-222.655	206.685	0.023	0.035
-221.640	-91.674	0.070	-0.019
-220.625	255.290	0.125	-0.210
-219.611	22.581	0.139	0.111
-218.596	800.000	0.113	-0.307
-217.582	-29.878	0.101	-0.056
-216.567	-200.000	0.001	-0.139
-215.552	800.000	0.081	0.315
-214.538	-158.793	-0.268	0.015
-213.523	800.000	0.024	0.068
-212.509	-88.536	-0.486	-0.142
-211.494	146.941	0.199	-0.262
-210.479	92.434	0.168	0.186
-209.465	800.000	-0.092	-0.250
-208.450	31.661	0.250	0.210
-207.436	-22.035	0.197	0.117
-206.421	800.000	0.044	0.153
-205.406	225.149	-0.297	0.469
-204.392	-200.000	0.020	-0.266
-203.377	-46.247	-0.140	-0.067
-202.363	-193.125	-0.119	0.001
-201.348	46.609	0.109	-0.099
-200.333	-91.312	0.247	0.069
-199.319	-200.000	-0.038	0.287
-198.304	-97.118	-0.124	-0.032
-197.290	800.000	0.054	0.187
-196.275	-166.210	0.183	-0.008
-195.260	800.000	0.093	-0.290
-194.246	-200.000	0.039	-0.195
-193.231	-95.182	-0.245	-0.065
-192.217	-184.674	-0.104	0.002
-191.202	35.190	-0.271	0.232
-190.187	800.000	0.131	0.400
-189.173	303.031	-0.141	0.256
-188.158	800.000	0.052	-0.217
-187.144	555.379	-0.066	-0.155
-186.129	-88.620	-0.017	-0.005
-185.114	255.870	0.184	-0.309
-184.100	-68.191	0.292	-0.111
-183.085	-200.000	-0.047	0.306
-182.071	115.503	-0.294	-0.351
-181.056	38.122	0.219	0.190
-180.042	-200.000	-0.055	0.251
-179.027	-142.925	0.073	-0.007
-178.012	43.730	0.213	-0.190
-176.998	-142.971	0.134	-0.013
-175.983	-152.415	-0.393	-0.028
-174.969	646.788	0.089	0.223
-173.954	-200.000	-0.065	0.345
-172.939	2.499	-0.059	-0.042
-171.925	800.000	-0.052	-0.187
-170.910	-4.908	0.318	0.214
-169.896	88.271	-0.314	-0.341
-168.881	-130.553	0.374	0.049
-167.866	-94.124	0.470	-0.126
-166.852	-200.000	-0.005	-0.054
-165.837	-200.000	-0.046	-0.325
-164.823	-200.000	-0.006	-0.188
-163.808	-133.006	-0.319	0.040
-162.793	99.284	0.151	-0.170
-161.779	32.498	0.071	-0.059
-160.764	-118.657	0.227	-0.039
-159.750	-19.134	0.226	0.137
-158.735	84.738	0.042	-0.045
-157.720	6.622	-0.268	0.195
-156.706	-95.650	0.277	-0.072
-155.691	345.526	-0.063	-0.120
-154.677	-28.120	-0.123	-0.070
-153.662	-73.474	-0.135	0.048
-152.647	-200.000	0.009	0.051
-151.633	-148.792	0.056	-0.004
-150.618	149.846	0.064	0.084
-149.604	-116.281	0.050	-0.009
-148.589	800.000	-0.104	-0.298
-147.574	800.000	0.139	0.530
-146.560	-200.000	-0.038	0.217
-145.545	172.683	-0.233	-0.327
-144.531	397.646	0.074	-0.152
-143.516	-200.000	-0.011	-0.116
-142.502	-200.000	0.005	0.200
-141.487	-170.664	0.084	-0.003
-140.472	181.322	0.107	-0.154
-139.458	-30.363	-0.296	-0.164
-138.443	-200.000	-0.006	0.387
-137.429	-200.000	0.010	0.287
-136.414	1.600	-0.142	-0.100
-135.399	-43.863	-0.051	-0.025
-134.385	424.980	0.070	0.148
-133.370	-200.000	-0.034	0.257
-132.356	92.002	-0.224	0.246
-131.341	-200.000	0.033	0.323
-130.326	60.835	-0.163	0.158
-129.312	160.428	-0.043	-0.059
-128.297	95.998	0.176	0.196
-127.283	-87.251	0.306	0.091
-126.268	-21.227	0.276	0.164
-125.253	800.000	0.053	-0.211
-124.239	97.140	-0.204	-0.228
-123.224	-101.975	0.102	0.024
-122.210	121.097	-0.160	-0.194
-121.195	186.280	-0.215	0.311
