DTS Sentinel unit serial number:	SN413079Multiplexer serial number:	ORYXHardware model number:	OX4-SRSoftware version number:	ORYX F/W v4.00 Oryx Data Collector v3.7.2.0data status	okinstallation	princeton_trtdifferential loss correction	single-endedforward channel	channel 2reverse channel	N/Adate	2019/09/11time	20:13:11forward acquisition time	60.00reverse acquisition time	0.00gamma	496.2192k internal	0.2315k external	0.2315temperature offset calibration	1.0053default loss term (dB/km)	0.3790temperature slope calibration	1.0000multiplexer offset coefficient	1.0000multiplexer slope coefficient	1.0000fibre end	0.00T internal ref (°C)	38.25T ext. ref 1 (°C)	1.42T ext. ref 2 (°C)	31.57length (m)	temperature (°C)	Stokes	anti-Stokes-747.200	-21.779	-0.165	0.102
-746.185	157.526	0.253	0.355
-745.171	800.000	-0.093	0.369
-744.156	-152.105	-0.420	-0.031
-743.142	-200.000	0.061	0.361
-742.127	-200.000	0.033	0.325
-741.112	-126.428	0.217	0.033
-740.098	-165.812	-0.224	0.010
-739.083	654.998	0.148	0.385
-738.069	-131.475	-0.111	0.015
-737.054	800.000	-0.080	-0.240
-736.039	-104.902	-0.292	-0.068
-735.025	446.048	0.023	0.052
-734.010	-200.000	0.029	0.153
-732.996	68.709	-0.156	-0.162
-731.981	-138.259	0.361	0.041
-730.966	50.113	0.334	-0.320
-729.952	-146.285	-0.125	0.011
-728.937	-133.687	0.143	-0.018
-727.923	132.647	-0.114	-0.149
-726.908	2.684	-0.092	0.067
-725.894	800.000	-0.084	-0.284
-724.879	625.135	-0.093	-0.238
-723.864	18.232	0.091	-0.074
-722.850	280.690	0.101	0.183
-721.835	800.000	-0.028	0.098
-720.821	-98.348	0.220	0.057
-719.806	420.907	0.092	-0.200
-718.791	20.125	0.170	-0.139
-717.777	-200.000	-0.040	-0.232
-716.762	-37.181	0.067	0.036
-715.748	-200.000	0.014	-0.281
-714.733	-200.000	-0.011	-0.303
-713.718	211.568	0.084	-0.134
-712.704	38.990	-0.214	-0.194
-711.689	150.103	-0.225	-0.309
-710.675	-200.000	0.036	-0.167
-709.660	-200.000	-0.013	-0.198
-708.645	800.000	0.056	-0.242
-707.631	800.000	-0.054	0.211
-706.616	-72.561	0.215	0.080
-705.602	800.000	-0.073	-0.267
-704.587	121.275	0.128	-0.161
-703.572	-31.401	0.245	0.140
-702.558	125.735	0.068	-0.087
-701.543	-54.610	0.338	-0.155
-700.529	-200.000	-0.001	-0.074
-699.514	-3.876	0.129	-0.091
-698.499	22.373	-0.121	-0.100
-697.485	-200.000	-0.008	0.189
-696.470	-76.904	-0.114	-0.040
-695.456	-39.526	0.250	-0.132
-694.441	-30.297	0.249	-0.143
-693.426	32.604	-0.139	0.122
-692.412	-115.000	-0.365	0.070
-691.397	-62.332	0.256	0.108
-690.383	-18.000	-0.223	0.141
-689.368	-101.589	0.048	-0.012
-688.354	37.967	-0.210	-0.188
-687.339	215.833	-0.126	-0.202
-686.324	-110.362	-0.032	-0.007
-685.310	-13.821	-0.095	0.062
-684.295	-200.000	-0.002	0.106
-683.281	800.000	0.039	0.146
-682.266	46.170	0.200	-0.188
-681.251	-157.056	-0.210	-0.013
-680.237	-61.740	-0.095	0.040
-679.222	-200.000	0.043	-0.402
-678.208	800.000	0.068	-0.280
-677.193	-124.592	-0.288	0.045
-676.178	-200.000	-0.021	-0.254
-675.164	-200.000	-0.069	0.485
-674.149	146.028	-0.207	-0.281
-673.135	-75.422	-0.373	-0.134
-672.120	-200.000	-0.000	0.646
-671.105	-200.000	-0.051	0.350
-670.091	789.871	0.049	0.135
-669.076	-200.000	-0.011	0.291
-668.062	-47.045	0.074	-0.036
-667.047	-200.000	-0.005	-0.086
-666.032	-200.000	-0.014	0.157
-665.018	508.619	-0.119	0.278
-664.003	617.679	-0.159	-0.402
-662.989	193.536	-0.064	-0.097
-661.974	-200.000	-0.048	-0.368
-660.959	-45.668	-0.062	-0.031
-659.945	800.000	0.156	0.498
-658.930	-127.839	-0.291	0.042
-657.916	-120.132	0.093	0.016
-656.901	380.334	0.157	-0.325
-655.886	142.818	-0.086	0.115
-654.872	-81.117	0.194	-0.065
-653.857	-200.000	0.033	-0.250
-652.843	495.814	0.078	0.182
-651.828	-136.355	-0.216	0.025
-650.814	-200.000	-0.010	-0.306
-649.799	-200.000	-0.032	-0.181
-648.784	-87.939	-0.175	0.053
-647.770	-200.000	0.004	0.397
-646.755	800.000	-0.067	-0.273
-645.741	-200.000	0.030	-0.359
-644.726	800.000	-0.058	-0.240
-643.711	-200.000	-0.019	-0.196
-642.697	278.929	0.135	-0.243
-641.682	800.000	-0.075	-0.227
-640.668	800.000	-0.040	-0.166
-639.653	119.878	0.178	-0.223
-638.638	655.913	0.004	-0.010
-637.624	800.000	-0.222	0.632
-636.609	-200.000	0.048	0.287
-635.595	128.851	0.114	0.147
-634.580	-82.254	-0.095	0.031
-633.565	-200.000	-0.015	-0.262
-632.551	-200.000	-0.002	-0.038
-631.536	-200.000	0.068	0.390
-630.522	-200.000	-0.022	-0.324
-629.507	220.765	-0.054	0.087
-628.492	163.402	0.056	0.079
-627.478	-200.000	-0.013	-0.063
-626.463	316.876	-0.124	-0.235
-625.449	-102.184	-0.207	0.050
-624.434	-44.162	-0.245	0.124
-623.419	-107.314	-0.262	0.058
-622.405	80.198	0.143	0.155
-621.390	-66.851	-0.079	0.031
-620.376	174.393	0.131	0.191
-619.361	394.772	0.069	0.146
-618.346	15.206	0.088	-0.070
-617.332	-12.979	-0.144	-0.095
-616.317	-88.716	-0.342	-0.102
-615.303	-127.186	-0.143	-0.021
-614.288	70.505	0.180	0.188
-613.273	-68.635	-0.090	0.035
-612.259	800.000	-0.052	0.156
-611.244	331.777	0.103	0.201
-610.230	-164.197	0.268	0.012
-609.215	-200.000	0.041	0.216
-608.201	-116.696	0.270	-0.050
-607.186	-29.750	-0.034	-0.020
-606.171	-2.625	0.107	-0.076
-605.157	12.253	-0.093	-0.072
-604.142	-200.000	-0.003	0.189
-603.128	266.522	-0.147	0.259
-602.113	35.870	0.043	-0.038
-601.098	16.231	0.218	-0.174
-600.084	-54.865	0.327	0.148
-599.069	-200.000	-0.008	0.213
-598.055	-151.217	-0.148	-0.011
-597.040	50.517	0.221	-0.210
-596.025	-113.449	0.513	-0.101
-595.011	157.354	0.148	-0.206
-593.996	-84.433	-0.297	-0.095
-592.982	547.951	-0.048	0.117
-591.967	-34.727	-0.277	0.152
-590.952	32.062	0.217	0.188
-589.938	679.977	0.029	0.075
-588.923	-60.162	-0.256	0.110
-587.909	-116.762	-0.379	-0.070
-586.894	53.752	-0.129	-0.125
-585.879	-3.506	-0.021	-0.014
-584.865	800.000	0.047	-0.188
-583.850	-100.744	-0.282	0.070
-582.836	622.920	0.056	0.142
-581.821	-200.000	-0.005	-0.145
-580.806	-32.058	0.196	-0.111
-579.792	350.461	0.028	0.056
-578.777	-200.000	0.014	-0.079
-577.763	-50.359	-0.357	-0.170
-576.748	-200.000	0.015	-0.261
-575.733	-200.000	-0.012	-0.065
-574.719	-200.000	-0.007	0.247
-573.704	644.532	-0.057	0.146
-572.690	-3.586	0.047	-0.033
-571.675	-119.269	0.173	0.030
-570.661	800.000	0.135	-0.380
-569.646	137.525	-0.114	-0.150
-568.631	-161.020	-0.268	-0.014
-567.617	-75.127	-0.127	-0.046
-566.602	-200.000	-0.044	0.251
-565.588	22.146	0.278	-0.228
-564.573	-200.000	0.064	-0.400
-563.558	429.314	0.113	-0.246
-562.544	131.606	-0.046	0.060
-561.529	-21.590	-0.146	-0.090
-560.515	291.869	-0.157	0.287
-559.500	334.756	0.151	-0.295
-558.485	-200.000	-0.045	0.415
-557.471	-76.316	-0.132	0.047
-556.456	-72.769	-0.078	-0.029
-555.442	-200.000	0.018	0.151
-554.427	-42.839	0.152	0.078
-553.412	691.606	0.128	0.339
-552.398	23.756	-0.259	-0.215
-551.383	107.941	0.209	0.251
-550.369	800.000	0.016	0.069
-549.354	-200.000	-0.027	0.194
-548.339	5.675	0.247	0.184
-547.325	-147.083	0.174	0.015
-546.310	800.000	0.129	-0.422
-545.296	70.080	0.136	0.141
-544.281	-78.118	0.343	-0.119
-543.266	-167.023	-0.257	-0.011
-542.252	800.000	-0.034	-0.130
-541.237	573.920	-0.074	0.181
-540.223	-200.000	0.079	-0.489
-539.208	3.388	-0.107	-0.078
-538.193	449.273	-0.092	-0.205
-537.179	800.000	-0.063	-0.222
-536.164	800.000	0.045	-0.133
-535.150	-113.692	-0.253	-0.050
-534.135	625.620	0.007	-0.019
-533.121	23.178	0.170	0.140
-532.106	-162.658	-0.482	-0.024
-531.091	800.000	0.026	0.076
-530.077	-53.525	0.149	-0.068
-529.062	800.000	-0.041	-0.121
-528.048	313.241	-0.079	0.148
-527.033	-116.639	0.163	-0.030
-526.018	105.443	0.149	0.177
-525.004	-17.828	-0.313	0.197
-523.989	-143.545	-0.146	0.014
-522.975	223.306	-0.188	-0.304
-521.960	-81.491	0.185	0.061
-520.945	-59.624	-0.256	-0.110
-519.931	-118.673	0.060	-0.011
-518.916	-200.000	0.003	-0.189
-517.902	-200.000	0.004	-0.504
-516.887	-61.293	0.185	0.078
-515.872	-200.000	-0.016	0.111
-514.858	153.326	0.182	-0.250
-513.843	-82.387	-0.330	0.108
-512.829	619.424	-0.009	-0.023
-511.814	800.000	-0.127	0.367
-510.799	-37.383	0.280	0.150
-509.785	-200.000	0.041	-0.360
-508.770	-90.872	-0.109	0.031
-507.756	279.915	-0.072	-0.128
-506.741	-81.832	0.182	0.060
-505.726	-6.831	-0.306	0.209
-504.712	615.667	0.068	0.170
-503.697	479.625	-0.118	0.269
-502.683	142.861	0.073	-0.098
-501.668	-73.689	-0.206	-0.075
-500.653	-54.773	0.303	0.137
-499.639	-130.849	0.247	0.033
-498.624	-11.461	0.108	0.071
-497.610	-133.379	-0.174	0.022
-496.595	34.984	0.253	-0.222
-495.581	-104.031	0.604	-0.141
-494.566	-200.000	-0.019	0.339
-493.551	-58.323	-0.163	0.071
-492.537	-113.160	-0.208	-0.041
-491.522	-146.356	-0.014	-0.001
-490.508	250.619	-0.178	-0.303
-489.493	800.000	0.064	0.265
-488.478	-145.040	-0.218	0.020
-487.464	-112.840	-0.265	0.053
-486.449	-200.000	-0.034	0.369
-485.435	-89.217	0.331	-0.098
-484.420	-200.000	-0.039	-0.181
-483.405	800.000	0.128	-0.450
-482.391	7.248	-0.290	0.217
-481.376	14.480	-0.154	0.120
-480.362	800.000	-0.047	-0.160
-479.347	800.000	-0.048	-0.174
-478.332	-200.000	-0.039	0.294
-477.318	44.419	0.078	0.071
-476.303	194.862	-0.087	0.133
-475.289	-200.000	0.013	0.158
-474.274	-62.870	0.100	-0.042
-473.259	-58.064	-0.183	-0.080
-472.245	517.563	0.139	-0.325
-471.230	-39.431	-0.071	-0.037
-470.216	-200.000	0.059	-0.465
-469.201	-115.573	-0.219	0.041
-468.186	-95.702	-0.092	0.025
-467.172	256.541	0.079	-0.136
-466.157	191.047	0.107	-0.162
-465.143	523.191	-0.134	-0.315
-464.128	-137.196	0.213	0.024
-463.113	-116.752	0.047	-0.009
-462.099	192.612	-0.071	0.108
-461.084	55.535	0.341	0.331
-460.070	-200.000	-0.052	-0.228
-459.055	50.913	0.256	-0.243
-458.040	-200.000	-0.050	0.321
-457.026	-200.000	0.034	-0.282
-456.011	-200.000	0.005	0.116
-454.997	-200.000	0.043	0.224
-453.982	503.602	-0.303	0.703
-452.968	-41.428	-0.130	-0.067
-451.953	-96.988	0.152	0.040
-450.938	314.839	0.222	-0.418
-449.924	-200.000	0.045	-0.469
-448.909	-200.000	-0.023	0.262
-447.895	5.908	0.200	-0.148
-446.880	67.909	0.444	0.455
-445.865	-11.405	0.086	0.056
-444.851	-200.000	-0.242	0.001
-443.836	-70.288	-0.103	0.039
-442.822	20.120	-0.165	-0.134
-441.807	341.569	0.152	0.297
-440.792	-68.758	0.281	0.109
-439.778	-26.130	0.210	-0.123
-438.763	-200.000	-0.082	0.438
-437.749	1.499	0.189	0.136
-436.734	800.000	0.034	0.113
-435.719	800.000	0.131	0.387
-434.705	125.702	0.242	-0.306
-433.690	-79.678	-0.094	0.032
-432.676	-200.000	-0.012	0.417
-431.661	-137.253	-0.163	0.019
-430.646	-101.517	-0.269	0.065
-429.632	800.000	0.133	0.369
-428.617	79.201	-0.183	-0.196
-427.603	-22.164	0.314	0.191
-426.588	33.024	-0.295	-0.256
-425.573	-200.000	0.076	0.343
-424.559	-200.000	-0.044	0.375
-423.544	-200.000	0.022	-0.200
-422.530	-98.858	-0.322	-0.082
-421.515	-200.000	0.038	0.369
-420.500	-28.834	-0.243	0.140
-419.486	-63.235	0.344	-0.142
-418.471	-161.077	-0.187	0.010
-417.457	90.757	-0.216	0.242
-416.442	8.030	0.142	0.106
-415.428	-200.000	-0.001	0.134
-414.413	-8.947	0.076	-0.051
-413.398	110.593	-0.033	0.040
-412.384	-16.342	-0.220	0.140
-411.369	-0.414	-0.070	0.050
-410.355	800.000	0.067	-0.191
-409.340	113.186	0.174	-0.211
-408.325	-132.810	-0.226	-0.029
-407.311	6.259	0.122	0.090
-406.296	-129.370	-0.468	0.065
-405.282	-58.422	0.387	0.168
-404.267	-200.000	0.034	-0.162
-403.252	11.549	-0.063	0.048
-402.238	177.647	0.175	-0.255
-401.223	-75.778	-0.086	-0.030
-400.209	-81.369	0.354	-0.117
-399.194	-74.912	-0.302	0.108
-398.179	498.386	-0.066	0.152
-397.165	39.748	-0.238	-0.214
-396.150	192.772	0.086	0.129
-395.136	800.000	-0.087	0.268
-394.121	32.364	0.166	0.143
-393.106	396.972	0.098	0.204
-392.092	62.337	0.130	-0.130
-391.077	288.804	-0.171	0.309
-390.063	628.434	-0.050	-0.127
-389.048	-58.869	0.245	0.106
-388.033	-105.422	-0.266	-0.060
-387.019	348.095	0.154	-0.303
-386.004	-200.000	-0.177	0.000
-384.990	138.650	-0.142	-0.186
-383.975	317.482	-0.105	0.198
-382.960	-61.131	-0.096	0.041
-381.946	-38.358	0.013	-0.007
-380.931	800.000	-0.041	0.140
-379.917	304.570	-0.126	-0.233
-378.902	-200.000	0.032	-0.430
-377.888	86.134	0.304	-0.334
-376.873	70.223	-0.109	0.112
-375.858	-200.000	-0.046	0.284
-374.844	-126.366	-0.246	0.037
-373.829	-200.000	-0.052	-0.310
-372.815	800.000	-0.113	-0.384
-371.800	-62.370	0.263	-0.109
-370.785	57.387	0.084	-0.082
-369.771	-88.507	0.204	-0.061
-368.756	-33.737	-0.446	0.246
-367.742	596.754	0.084	-0.207
-366.727	-126.407	-0.357	-0.053
-365.712	-200.000	-0.013	-0.102
-364.698	-141.616	-0.144	0.015
-363.683	189.423	0.114	0.171
-362.669	229.685	-0.187	-0.305
-361.654	92.145	0.324	-0.364
-360.639	800.000	0.010	0.032
-359.625	-96.604	-0.067	-0.018
-358.610	-30.794	0.222	0.125
-357.596	-60.612	-0.081	-0.034
-356.581	-20.116	-0.227	0.140
-355.566	11.884	-0.077	-0.059
-354.552	-94.348	-0.315	0.086
-353.537	459.909	0.107	-0.238
-352.523	-200.000	-0.075	-0.432
-351.508	29.298	-0.192	0.163
-350.493	-200.000	0.003	0.335
-349.479	-93.667	-0.447	-0.123
-348.464	-200.000	0.017	0.341
-347.450	-200.000	0.082	0.447
-346.435	120.937	-0.275	0.341
-345.420	159.955	-0.158	0.220
-344.406	-200.000	-0.022	0.234
-343.391	226.113	0.128	0.206
-342.377	-17.450	0.327	-0.206
-341.362	32.808	0.250	-0.216
-340.348	-46.659	0.235	-0.115
-339.333	-150.297	0.205	-0.016
-338.318	-158.259	-0.114	0.007
-337.304	172.266	-0.216	0.310
-336.289	800.000	-0.068	-0.188
-335.275	537.880	-0.055	-0.131
-334.260	-200.000	0.049	-0.350
-333.245	-0.746	-0.057	-0.040
-332.231	298.363	-0.054	0.099
-331.216	21.671	-0.083	-0.067
-330.202	137.719	-0.124	-0.161
-329.187	-96.145	0.137	0.036
-328.172	21.895	-0.242	0.196
-327.158	-105.086	-0.352	0.080
-326.143	30.930	-0.235	-0.200
-325.129	600.018	0.066	0.164
-324.114	196.581	-0.114	0.174
-323.099	58.447	0.089	0.087
-322.085	31.901	0.246	-0.211
-321.070	269.900	0.147	-0.257
-320.056	-159.408	0.322	0.018
-319.041	4.065	-0.322	0.235
-318.026	-200.000	-0.052	-0.250
-317.012	727.163	0.121	0.322
-315.997	800.000	0.040	0.138
-314.983	-133.211	-0.497	-0.063
-313.968	206.762	-0.156	-0.243
-312.953	-63.329	0.288	-0.118
-311.939	-23.716	0.245	-0.146
-310.924	-200.000	0.003	-0.353
-309.910	359.178	0.152	0.302
-308.895	-87.455	-0.139	0.042
-307.880	23.910	-0.169	-0.139
-306.866	-200.000	-0.023	0.115
-305.851	-63.010	-0.423	0.174
-304.837	238.166	-0.180	-0.298
-303.822	-200.000	0.007	0.159
-302.807	16.772	-0.275	0.217
-301.793	114.621	0.028	-0.034
-300.778	189.355	0.095	0.141
-299.764	-200.000	0.003	0.241
-298.749	150.420	0.071	-0.096
-297.735	153.753	0.222	-0.302
-296.720	800.000	0.165	-0.596
-295.705	-35.827	-0.041	-0.022
-294.691	-47.857	0.230	0.111
-293.676	15.211	0.125	-0.098
-292.662	453.022	0.102	0.225
-291.647	699.953	0.119	-0.312
-290.632	29.006	-0.173	-0.146
-289.618	21.488	-0.061	0.049
-288.603	800.000	-0.014	0.049
-287.589	21.204	-0.111	0.090
-286.574	341.812	-0.150	-0.292
-285.559	288.309	0.133	0.239
-284.545	-55.414	0.177	-0.079
-283.530	332.049	0.177	-0.339
-282.516	-200.000	-0.013	0.306
-281.501	-200.000	-0.004	-0.101
-280.486	587.572	0.068	0.166
-279.472	-163.702	0.193	0.009
-278.457	-200.000	-0.018	0.167
-277.443	279.306	-0.072	-0.128
-276.428	5.623	0.192	-0.141
-275.413	-200.000	0.020	0.110
-274.399	330.016	0.143	-0.274
-273.384	-200.000	-0.033	-0.214
-272.370	-43.958	0.113	-0.056
-271.355	800.000	0.045	0.180
-270.340	800.000	0.084	0.247
-269.326	-102.394	-0.221	0.053
-268.311	-58.222	-0.424	0.184
-267.297	-124.494	0.224	0.035
-266.282	22.065	0.235	-0.190
-265.267	-58.466	-0.077	-0.033
-264.253	99.900	0.077	-0.089
-263.238	244.568	0.048	-0.080
-262.224	-153.467	-0.102	-0.007
-261.209	-17.935	0.168	0.105
-260.195	-64.265	-0.286	-0.116
-259.180	-74.980	0.276	0.098
-258.165	-200.000	-0.038	0.246
-257.151	75.551	0.068	-0.072
-256.136	153.066	0.231	-0.314
-255.122	133.809	-0.039	-0.050
-254.107	-65.472	-0.154	0.061
-253.092	-6.697	0.106	-0.072
-252.078	-18.747	0.084	0.052
-251.063	-78.934	0.219	0.074
-250.049	-141.728	-0.257	0.026
-249.034	-50.121	0.109	-0.051
-248.019	323.337	0.056	0.106
-247.005	-38.265	-0.164	-0.086
-245.990	28.320	-0.147	0.124
-244.976	-127.930	0.320	-0.046
-243.961	800.000	-0.031	-0.086
-242.946	702.795	0.161	-0.420
-241.932	-51.246	0.081	-0.038
-240.917	-71.039	0.233	0.087
-239.903	76.550	0.259	0.272
-238.888	46.264	0.109	-0.100
-237.873	563.857	0.095	-0.229
-236.859	-56.626	-0.223	-0.098
-235.844	-142.955	0.217	0.021
-234.830	800.000	-0.043	-0.145
-233.815	-23.641	-0.181	-0.108
-232.800	-200.000	0.051	-0.532
-231.786	16.277	-0.093	-0.073
-230.771	14.044	-0.094	0.072
-229.757	128.895	-0.084	-0.107
-228.742	124.066	0.088	-0.110
-227.727	-63.698	0.228	-0.093
-226.713	-33.973	-0.125	0.068
-225.698	548.676	-0.170	0.405
-224.684	260.968	-0.227	-0.390
-223.669	133.097	-0.082	0.105
-222.655	536.520	-0.079	0.187
-221.640	109.587	0.033	0.040
-220.625	-200.000	0.004	0.174
-219.611	-101.856	0.276	0.066
-218.596	-200.000	-0.022	0.481
-217.582	-50.455	-0.250	0.117
-216.567	-200.000	-0.009	-0.177
-215.552	72.926	0.161	0.166
-214.538	800.000	-0.014	0.051
-213.523	-162.671	0.180	-0.009
-212.509	800.000	-0.093	-0.402
-211.494	58.134	-0.091	0.088
-210.479	195.147	-0.092	0.138
-209.465	4.806	-0.526	0.383
-208.450	-54.011	-0.280	0.126
-207.436	21.210	0.303	-0.244
-206.421	-200.000	-0.220	-0.001
-205.406	462.146	-0.138	-0.305
-204.392	800.000	-0.082	0.259
-203.377	-56.142	0.284	0.126
-202.363	118.512	-0.106	0.130
-201.348	202.267	0.125	0.191
-200.333	-54.962	0.070	-0.031
-199.319	800.000	0.062	0.224
-198.304	43.490	0.233	0.211
-197.290	-200.000	-0.037	0.210
-196.275	52.254	-0.032	0.031
-195.260	-134.638	0.335	0.041
-194.246	-96.651	0.074	-0.019
-193.231	-157.051	-0.331	0.020
-192.217	-182.114	-0.336	-0.006
-191.202	-97.053	0.212	-0.055
-190.187	800.000	0.084	-0.253
-189.173	-84.117	-0.163	0.051
-188.158	191.339	0.116	-0.173
-187.144	-82.003	-0.150	-0.048
-186.129	429.604	0.052	-0.112
-185.114	15.722	0.097	-0.076
-184.100	40.702	0.100	0.089
-183.085	59.979	-0.041	-0.040
-182.071	334.219	-0.006	-0.011
-181.056	-200.000	0.004	-0.098
-180.042	-43.272	-0.275	-0.138
-179.027	-200.000	0.016	0.264
-178.012	-85.917	0.156	0.048
-176.998	-57.710	-0.105	0.045
-175.983	174.313	0.197	-0.283
-174.969	-142.818	0.322	-0.031
-173.954	33.568	0.205	0.176
-172.939	800.000	0.032	-0.135
-171.925	181.588	0.073	-0.107
-170.910	497.650	0.062	-0.142
-169.896	698.920	-0.074	-0.192
-168.881	800.000	0.100	-0.326
-167.866	22.863	-0.115	0.094
-166.852	40.386	0.175	0.156
-165.837	260.474	0.049	0.085
-164.823	-113.242	-0.094	-0.018
-163.808	800.000	0.019	-0.058
-162.793	-129.504	0.220	-0.030
-161.779	800.000	0.069	0.233
-160.764	-200.000	-0.011	-0.142
-159.750	-200.000	0.002	-0.181
-158.735	-126.537	0.216	-0.032
-157.720	-200.000	-0.032	0.180
-156.706	-83.496	0.362	0.115
-155.691	-200.000	-0.004	0.395
-154.677	800.000	0.056	0.233
-153.662	97.940	0.041	-0.047
-152.647	153.891	0.120	0.163
-151.633	177.719	0.156	-0.225
-150.618	782.203	-0.155	-0.421
-149.604	800.000	-0.009	-0.036
-148.589	-47.795	-0.258	-0.124
-147.574	-38.654	0.047	0.025
-146.560	184.578	0.050	-0.073
-145.545	101.192	0.109	0.125
-144.531	800.000	-0.037	0.115
-143.516	-47.128	-0.228	0.110
-142.502	-46.943	0.205	0.099
-141.487	56.209	-0.072	0.069
-140.472	-40.833	0.110	-0.056
-139.458	346.698	-0.077	0.151
-138.443	146.247	-0.289	0.384
-137.429	-163.937	0.055	-0.003
-136.414	-12.375	0.276	-0.178
-135.399	-56.589	-0.198	0.087
-134.385	357.142	0.117	0.231
-133.370	18.764	0.193	0.153
-132.356	75.083	0.185	-0.193
-131.341	-200.000	0.022	0.222
-130.326	99.674	0.123	0.141
-129.312	31.401	0.158	0.134
-128.297	-200.000	-0.003	0.053
-127.283	-162.234	0.205	-0.010
-126.268	-142.364	-0.295	0.029
-125.253	460.451	-0.095	0.208
-124.239	-200.000	-0.006	0.089
-123.224	-129.457	-0.158	0.022
-122.210	422.644	0.086	0.183
