DTS Sentinel unit serial number:	SN413079Multiplexer serial number:	ORYXHardware model number:	OX4-SRSoftware version number:	ORYX F/W v4.00 Oryx Data Collector v3.7.2.0data status	okinstallation	princeton_trtdifferential loss correction	single-endedforward channel	channel 2reverse channel	N/Adate	2019/09/10time	19:25:11forward acquisition time	60.00reverse acquisition time	0.00gamma	496.2192k internal	0.2325k external	0.2325temperature offset calibration	0.9947default loss term (dB/km)	0.3790temperature slope calibration	1.0000multiplexer offset coefficient	1.0000multiplexer slope coefficient	1.0000fibre end	0.00T internal ref (°C)	33.62T ext. ref 1 (°C)	-0.35T ext. ref 2 (°C)	26.07length (m)	temperature (°C)	Stokes	anti-Stokes-747.200	7.962	-0.372	0.281
-746.185	66.689	-0.155	0.159
-745.171	516.719	-0.108	0.254
-744.156	30.541	0.158	0.136
-743.142	-200.000	0.003	-0.279
-742.127	-177.924	0.248	0.006
-741.112	-92.930	-0.088	-0.025
-740.098	191.530	-0.188	0.286
-739.083	-37.700	0.090	-0.048
-738.069	800.000	0.091	0.269
-737.054	303.635	-0.118	-0.221
-736.039	12.189	0.197	-0.153
-735.025	67.279	-0.102	0.105
-734.010	800.000	-0.048	-0.136
-732.996	90.573	0.259	-0.292
-731.981	105.719	-0.210	0.251
-730.966	147.444	0.028	0.038
-729.952	175.287	-0.197	-0.287
-728.937	800.000	0.046	0.133
-727.923	-17.886	-0.185	0.117
-726.908	800.000	-0.007	-0.029
-725.894	-121.502	-0.060	0.010
-724.879	38.639	-0.042	0.038
-723.864	102.491	-0.233	-0.275
-722.850	-51.916	-0.112	0.052
-721.835	-79.293	0.197	-0.067
-720.821	-115.057	0.045	-0.009
-719.806	701.531	0.106	-0.280
-718.791	452.326	-0.070	-0.157
-717.777	-200.000	-0.018	0.399
-716.762	105.069	0.181	0.216
-715.748	-120.627	0.262	0.045
-714.733	19.442	-0.120	-0.097
-713.718	-51.211	0.225	0.106
-712.704	-78.361	0.115	-0.040
-711.689	-141.625	0.091	0.009
-710.675	315.781	0.084	-0.160
-709.660	800.000	0.031	-0.120
-708.645	158.976	0.137	-0.191
-707.631	-200.000	-0.019	-0.136
-706.616	-200.000	-0.041	-0.196
-705.602	-134.406	0.297	0.037
-704.587	-137.056	0.119	-0.014
-703.572	-78.685	0.137	-0.047
-702.558	-128.008	-0.576	0.083
-701.543	-200.000	-0.029	0.183
-700.529	-57.801	0.188	0.083
-699.514	-38.229	0.140	0.075
-698.499	11.552	0.161	-0.124
-697.485	-45.558	-0.338	-0.169
-696.470	32.315	-0.337	-0.293
-695.456	303.367	0.027	0.051
-694.441	-200.000	0.021	-0.227
-693.426	-123.793	-0.224	-0.036
-692.412	-19.530	-0.219	0.136
-691.397	-55.300	-0.190	-0.086
-690.383	210.894	0.247	0.391
-689.368	-9.433	0.057	-0.038
-688.354	-28.300	-0.240	0.140
-687.339	104.658	-0.074	0.088
-686.324	386.590	-0.051	-0.106
-685.310	-88.607	0.047	0.014
-684.295	-200.000	0.054	-0.249
-683.281	-200.000	0.041	-0.304
-682.266	317.161	0.020	0.038
-681.251	215.401	0.200	0.320
-680.237	-200.000	-0.002	-0.188
-679.222	-175.849	-0.186	-0.005
-678.208	800.000	-0.076	-0.235
-677.193	50.094	-0.255	0.243
-676.178	25.381	-0.042	-0.035
-675.164	-133.427	0.122	0.015
-674.149	-1.959	-0.193	0.136
-673.135	-7.868	-0.311	-0.211
-672.120	-85.673	0.119	0.037
-671.105	-200.000	-0.041	-0.265
-670.091	-200.000	0.025	0.196
-669.076	77.691	-0.145	0.155
-668.062	-133.852	-0.386	-0.048
-667.047	-105.418	0.329	0.075
-666.032	-144.749	0.211	0.019
-665.018	-170.972	-0.144	0.005
-664.003	-200.000	-0.031	-0.196
-662.989	11.870	0.365	-0.282
-661.974	56.561	-0.125	0.123
-660.959	723.763	-0.166	-0.445
-659.945	410.088	0.183	-0.390
-658.930	-200.000	0.032	-0.464
-657.916	395.467	0.151	-0.316
-656.901	-200.000	0.003	-0.166
-655.886	106.114	0.056	-0.067
-654.872	265.961	0.147	-0.258
-653.857	-179.912	0.327	0.007
-652.843	95.808	0.047	-0.054
-651.828	-39.218	0.234	0.123
-650.814	213.789	0.197	-0.312
-649.799	150.180	-0.123	0.168
-648.784	73.257	-0.372	0.391
-647.770	-151.829	-0.174	0.013
-646.755	-200.000	0.032	-0.308
-645.741	-23.166	-0.280	-0.169
-644.726	331.202	0.022	-0.043
-643.711	-81.529	0.282	0.093
-642.697	-164.311	0.183	-0.008
-641.682	-82.324	-0.314	-0.103
-640.668	173.073	-0.096	0.138
-639.653	-73.326	-0.134	-0.049
-638.638	800.000	-0.084	0.234
-637.624	-93.239	0.323	0.090
-636.609	16.769	0.150	-0.119
-635.595	291.668	-0.038	0.070
-634.580	-39.944	0.027	-0.014
-633.565	-200.000	0.010	0.089
-632.551	800.000	0.117	0.438
-631.536	800.000	0.079	0.221
-630.522	-200.000	-0.034	-0.257
-629.507	59.600	-0.143	-0.142
-628.492	24.345	-0.331	-0.275
-627.478	47.521	-0.089	-0.083
-626.463	52.564	-0.075	-0.072
-625.449	158.658	-0.052	-0.072
-624.434	466.767	-0.123	-0.276
-623.419	135.047	0.225	-0.294
-622.405	145.228	0.188	0.252
-621.390	-200.000	-0.024	-0.122
-620.376	-172.763	0.174	-0.005
-619.361	159.050	-0.316	0.442
-618.346	-14.416	0.284	-0.184
-617.332	-116.021	0.126	-0.024
-616.317	36.586	-0.172	0.153
-615.303	800.000	-0.036	-0.121
-614.288	53.476	0.192	0.185
-613.273	23.902	-0.151	0.125
-612.259	170.829	-0.173	0.249
-611.244	-39.440	0.066	0.035
-610.230	392.309	0.070	-0.146
-609.215	-56.569	-0.624	-0.278
-608.201	189.178	0.087	-0.130
-607.186	507.798	0.136	0.316
-606.171	700.928	0.182	0.482
-605.157	234.769	-0.127	0.209
-604.142	66.091	-0.039	0.040
-603.128	-86.376	0.041	-0.013
-602.113	-200.000	-0.005	0.091
-601.098	-85.088	0.114	0.036
-600.084	98.717	0.133	0.153
-599.069	37.919	-0.104	-0.093
-598.055	26.320	-0.328	-0.275
-597.040	73.401	0.215	-0.226
-596.025	-2.366	-0.300	0.211
-595.011	800.000	0.058	-0.183
-593.996	102.905	0.106	-0.124
-592.982	-74.858	0.065	0.023
-591.967	-28.337	-0.217	0.126
-590.952	50.993	0.117	0.111
-589.938	14.114	-0.141	-0.111
-588.923	91.277	-0.236	-0.265
-587.909	-139.982	-0.140	-0.015
-586.894	-200.000	0.012	0.284
-585.879	-0.941	0.294	-0.209
-584.865	800.000	0.069	-0.208
-583.850	-200.000	-0.004	-0.188
-582.836	107.180	0.174	0.207
-581.821	-126.651	0.251	-0.037
-580.806	-200.000	-0.090	-0.421
-579.792	800.000	-0.114	-0.376
-578.777	-123.424	-0.106	-0.017
-577.763	274.686	0.180	0.320
-576.748	216.221	-0.078	0.124
-575.733	-114.799	-0.161	0.031
-574.719	444.826	-0.077	-0.168
-573.704	134.791	-0.166	-0.216
-572.690	111.232	-0.178	0.215
-571.675	445.555	0.053	0.117
-570.661	217.637	0.053	-0.084
-569.646	800.000	0.093	-0.261
-568.631	44.570	0.185	-0.171
-567.617	108.837	0.124	0.148
-566.602	-200.000	-0.030	-0.158
-565.588	0.619	0.232	-0.166
-564.573	20.667	-0.088	-0.071
-563.558	386.328	-0.162	-0.335
-562.544	227.480	0.144	-0.235
-561.529	-146.773	-0.032	-0.003
-560.515	297.319	-0.027	-0.049
-559.500	-115.437	-0.299	0.056
-558.485	211.657	-0.187	0.294
-557.471	-20.061	0.140	-0.087
-556.456	-200.000	-0.058	-0.340
-555.442	365.580	-0.052	0.105
-554.427	282.125	0.161	-0.289
-553.412	-160.927	0.243	0.013
-552.398	294.823	0.064	-0.118
-551.383	525.657	-0.039	-0.091
-550.369	800.000	-0.106	0.325
-549.354	-3.491	0.023	-0.016
-548.339	184.848	-0.074	0.110
-547.325	-17.969	0.077	0.049
-546.310	-200.000	-0.006	-0.167
-545.296	61.144	0.389	0.387
-544.281	354.004	-0.136	-0.271
-543.266	52.707	0.160	-0.153
-542.252	-99.922	0.137	0.034
-541.237	-5.596	0.175	0.120
-540.223	454.805	-0.094	-0.209
-539.208	-95.804	-0.309	-0.083
-538.193	65.201	0.102	0.103
-537.179	-138.972	-0.231	0.025
-536.164	-200.000	-0.002	0.213
-535.150	-66.078	-0.128	-0.051
-534.135	174.744	-0.035	-0.051
-533.121	-24.190	-0.152	0.091
-532.106	-200.000	-0.011	-0.205
-531.091	-200.000	-0.038	0.479
-530.077	-82.609	-0.238	-0.077
-529.062	6.087	0.050	-0.037
-528.048	-200.000	0.091	0.442
-527.033	524.104	0.029	0.069
-526.018	16.034	0.180	-0.142
-525.004	239.786	-0.039	0.065
-523.989	85.425	0.192	0.210
-522.975	800.000	0.098	0.418
-521.960	800.000	0.084	-0.312
-520.945	6.512	0.189	-0.141
-519.931	-147.679	0.160	-0.013
-518.916	-107.349	-0.354	-0.078
-517.902	-121.411	0.316	0.053
-516.887	-74.696	-0.026	-0.009
-515.872	800.000	-0.053	-0.204
-514.858	193.550	0.125	-0.189
-513.843	782.257	-0.061	0.167
-512.829	-125.612	0.244	0.037
-511.814	800.000	0.054	-0.220
-510.799	245.316	0.212	-0.357
-509.785	-42.380	0.264	-0.135
-508.770	-200.000	0.048	-0.378
-507.756	59.879	-0.139	-0.137
-506.741	-40.362	-0.257	-0.133
-505.726	-35.313	-0.092	0.050
-504.712	214.325	0.213	-0.337
-503.697	91.402	-0.131	-0.147
-502.683	43.187	0.071	-0.065
-501.668	506.113	-0.161	-0.374
-500.653	183.521	-0.173	0.255
-499.639	-85.336	-0.309	0.097
-498.624	-15.015	0.157	0.100
-497.610	-107.120	0.189	0.042
-496.595	-102.526	-0.062	0.015
-495.581	-200.000	0.005	-0.111
-494.566	-26.396	-0.053	-0.031
-493.551	800.000	-0.068	-0.233
-492.537	7.362	0.058	-0.043
-491.522	324.005	0.137	0.262
-490.508	-64.825	-0.202	0.082
-489.493	314.706	-0.121	-0.229
-488.478	32.046	0.146	-0.126
-487.464	-200.000	-0.001	0.071
-486.449	-200.000	-0.018	-0.148
-485.435	7.049	0.059	-0.044
-484.420	-86.578	0.119	-0.036
-483.405	-0.445	-0.178	-0.126
-482.391	-68.372	0.454	0.176
-481.376	-200.000	-0.011	-0.109
-480.362	785.393	-0.032	0.087
-479.347	132.245	-0.173	0.222
-478.332	-36.392	-0.158	0.085
-477.318	-200.000	-0.007	0.051
-476.303	-154.706	0.227	0.015
-475.289	17.621	-0.327	0.260
-474.274	-14.132	-0.161	-0.104
-473.259	29.375	-0.057	-0.048
-472.245	160.413	0.173	0.241
-471.230	269.169	-0.136	0.239
-470.216	800.000	-0.061	0.223
-469.201	-7.307	0.159	-0.108
-468.186	-119.448	-0.297	0.051
-467.172	-59.053	0.328	0.141
-466.157	118.459	-0.078	-0.096
-465.143	-161.566	0.124	-0.006
-464.128	22.255	-0.156	0.127
-463.113	-126.776	-0.084	0.012
-462.099	-90.034	-0.420	0.122
-461.084	-32.527	0.174	0.097
-460.070	-200.000	0.011	0.180
-459.055	28.806	-0.033	0.028
-458.040	-145.737	0.241	0.021
-457.026	208.466	0.047	0.073
-456.011	-34.831	-0.279	0.152
-454.997	800.000	-0.049	0.199
-453.982	-200.000	0.022	-0.255
-452.968	27.294	0.198	0.166
-451.953	-97.381	-0.155	-0.040
-450.938	800.000	0.040	0.130
-449.924	462.141	0.104	0.230
-448.909	103.348	-0.096	-0.112
-447.895	153.312	0.269	-0.367
-446.880	-74.565	-0.122	0.044
-445.865	-9.901	0.013	-0.008
-444.851	-84.590	0.263	-0.083
-443.836	800.000	-0.064	-0.200
-442.822	-113.003	-0.026	-0.005
-441.807	-67.972	-0.108	0.042
-440.792	72.439	0.148	-0.154
-439.778	96.602	-0.061	-0.070
-438.763	57.283	0.033	0.032
-437.749	-200.000	0.008	0.118
-436.734	62.505	-0.039	-0.039
-435.719	-21.785	-0.214	0.130
-434.705	502.148	0.068	0.158
-433.690	-25.139	-0.135	-0.080
-432.676	-66.924	0.258	-0.102
-431.661	-34.419	0.503	0.275
-430.646	-116.251	-0.208	-0.038
-429.632	-117.805	0.154	-0.028
-428.617	-200.000	0.018	-0.175
-427.603	646.933	-0.109	-0.278
-426.588	24.059	-0.082	-0.067
-425.573	14.600	-0.213	0.166
-424.559	800.000	0.052	-0.181
-423.544	-185.564	-0.302	-0.005
-422.530	-81.230	-0.247	-0.081
-421.515	-8.978	-0.118	-0.078
-420.500	-200.000	0.006	-0.162
-419.486	800.000	-0.027	0.110
-418.471	-54.595	-0.366	0.165
-417.457	-0.979	-0.049	0.034
-416.442	147.303	0.118	0.158
-415.428	-40.375	0.147	0.076
-414.413	-123.367	0.296	0.047
-413.398	335.657	-0.193	-0.374
-412.384	-36.021	0.182	-0.098
-411.369	-85.492	0.180	0.056
-410.355	800.000	0.021	-0.059
-409.340	-153.570	0.187	-0.013
-408.325	129.958	-0.157	0.201
-407.311	-34.725	-0.050	0.027
-406.296	299.551	-0.096	0.176
-405.282	-53.499	0.129	0.059
-404.267	51.142	0.123	0.116
-403.252	223.683	0.217	-0.349
-402.238	800.000	0.069	0.202
-401.223	311.435	-0.099	0.184
-400.209	-200.000	0.026	-0.265
-399.194	207.991	0.079	-0.124
-398.179	-54.281	-0.343	-0.155
-397.165	251.636	0.070	-0.118
-396.150	800.000	0.041	0.130
-395.136	-0.830	-0.248	-0.175
-394.121	-54.764	-0.073	0.033
-393.106	90.838	-0.142	-0.158
-392.092	-161.061	-0.069	0.004
-391.077	800.000	0.130	0.398
-390.063	20.497	0.145	0.117
-389.048	18.286	0.256	0.203
-388.033	-124.631	-0.308	-0.048
-387.019	-200.000	-0.000	-0.107
-386.004	118.923	-0.085	-0.105
-384.990	-200.000	0.076	-0.455
-383.975	-200.000	-0.025	0.126
-382.960	-143.004	-0.188	-0.018
-381.946	-143.653	-0.161	-0.015
-380.931	206.935	0.129	-0.201
-379.917	133.096	0.125	-0.160
-378.902	223.007	0.168	0.269
-377.888	800.000	-0.102	0.386
-376.873	220.136	-0.151	0.241
-375.858	-44.690	-0.470	0.233
-374.844	800.000	0.066	0.204
-373.829	-200.000	-0.003	-0.272
-372.815	-200.000	-0.020	-0.244
-371.800	-200.000	-0.014	0.086
-370.785	-200.000	-0.004	-0.102
-369.771	-84.010	0.250	-0.079
-368.756	-10.185	0.089	-0.059
-367.742	183.493	0.239	0.351
-366.727	210.601	0.154	-0.240
-365.712	141.051	-0.192	-0.252
-364.698	-200.000	-0.004	0.313
-363.683	-200.000	0.008	-0.139
-362.669	65.884	0.156	-0.158
-361.654	-200.000	-0.017	0.159
-360.639	17.917	-0.013	0.010
-359.625	-4.712	0.318	0.218
-358.610	-91.625	-0.319	0.090
-357.596	284.555	-0.270	0.482
-356.581	-42.993	0.141	-0.071
-355.566	-78.847	0.350	0.119
-354.552	-115.771	-0.335	-0.062
-353.537	-50.930	0.169	0.079
-352.523	-148.516	-0.016	-0.001
-351.508	-147.472	-0.213	-0.018
-350.493	368.743	-0.146	0.293
-349.479	800.000	-0.010	0.034
-348.464	-200.000	-0.018	0.299
-347.450	-15.656	0.177	0.112
-346.435	-90.158	0.361	0.104
-345.420	-89.224	-0.301	-0.088
-344.406	-82.233	-0.390	-0.126
-343.391	-200.000	0.034	0.337
-342.377	-151.452	0.264	0.019
-341.362	-49.425	0.224	0.106
-340.348	358.663	-0.109	0.216
-339.333	-4.888	-0.055	-0.037
-338.318	70.786	0.126	0.129
-337.304	362.591	0.091	-0.181
-336.289	800.000	-0.090	-0.386
-335.275	47.927	-0.088	-0.082
-334.260	120.201	0.299	-0.368
-333.245	-147.431	0.112	0.009
-332.231	-0.148	-0.235	-0.166
-331.216	130.045	-0.325	0.413
-330.202	-148.155	-0.284	0.023
-329.187	-200.000	0.021	0.144
-328.172	-13.536	-0.322	-0.207
-327.158	-2.497	0.232	0.161
-326.143	-17.118	-0.118	-0.074
-325.129	-108.862	-0.079	0.017
-324.114	224.742	0.214	-0.344
-323.099	-14.952	0.112	0.071
-322.085	99.784	-0.107	0.123
-321.070	-54.051	0.084	0.038
-320.056	-200.000	-0.022	0.172
-319.041	167.857	0.229	-0.323
-318.026	112.585	-0.294	-0.353
-317.012	285.677	0.153	-0.273
-315.997	-60.562	0.039	-0.016
-314.983	99.425	-0.112	-0.128
-313.968	603.815	0.062	0.152
-312.953	-200.000	0.032	0.193
-311.939	800.000	-0.094	0.271
-310.924	-42.516	-0.048	-0.024
-309.910	656.750	0.109	-0.277
-308.895	-108.094	0.057	-0.012
-307.880	-41.442	-0.091	-0.047
-306.866	493.579	0.103	-0.234
-305.851	-20.447	-0.232	-0.141
-304.837	199.290	-0.006	0.009
-303.822	318.386	-0.213	0.399
-302.807	18.221	-0.081	-0.064
-301.793	-200.000	0.042	0.196
-300.778	-200.000	0.061	0.000
-299.764	14.083	-0.174	0.134
-298.749	-200.000	-0.016	-0.318
-297.735	537.989	-0.126	-0.298
-296.720	267.195	-0.155	0.268
-295.705	291.699	-0.020	0.035
-294.691	-200.000	0.031	-0.213
-293.676	69.405	-0.174	0.177
-292.662	-200.000	0.034	0.475
-291.647	-72.083	0.372	-0.137
-290.632	-200.000	0.040	0.435
-289.618	-16.240	-0.108	0.068
-288.603	-200.000	-0.024	0.147
-287.589	197.257	0.024	-0.036
-286.574	-200.000	0.008	0.041
-285.559	-84.400	-0.103	0.032
-284.545	-200.000	-0.009	-0.221
-283.530	-40.647	0.328	-0.169
-282.516	-200.000	0.032	-0.198
-281.501	14.737	-0.138	-0.107
-280.486	529.017	-0.093	-0.219
-279.472	-47.360	-0.282	0.136
-278.457	-57.408	-0.369	-0.161
-277.443	562.643	0.028	-0.066
-276.428	137.524	0.062	0.080
-275.413	406.933	-0.130	-0.271
-274.399	260.216	-0.209	-0.359
-273.384	381.748	-0.057	0.117
-272.370	800.000	0.100	-0.413
-271.355	608.618	0.144	-0.356
-270.340	348.156	0.170	0.331
-269.326	3.838	-0.179	0.130
-268.311	-192.296	0.101	0.001
-267.297	-200.000	-0.013	-0.320
-266.282	61.336	0.129	-0.127
-265.267	27.916	-0.212	0.177
-264.253	-200.000	0.023	0.173
-263.238	70.136	-0.279	0.285
-262.224	-200.000	0.014	-0.127
-261.209	47.915	0.162	0.150
-260.195	410.619	0.142	-0.298
-259.180	800.000	-0.057	-0.194
-258.165	-40.682	0.056	-0.029
-257.151	800.000	-0.054	-0.211
-256.136	27.105	-0.098	0.081
-255.122	5.696	0.182	0.133
-254.107	183.567	-0.172	0.252
-253.092	-166.191	0.332	-0.014
-252.078	469.026	0.110	-0.243
-251.063	55.575	0.085	-0.081
-250.049	77.651	-0.167	0.176
-249.034	-169.542	0.227	0.008
-248.019	-200.000	-0.034	-0.225
-247.005	18.731	-0.175	-0.139
-245.990	-83.964	-0.074	-0.023
-244.976	-62.071	0.164	0.068
-243.961	800.000	-0.052	0.194
-242.946	800.000	-0.058	-0.240
-241.932	197.169	-0.230	0.348
-240.917	-73.246	-0.376	0.136
-239.903	800.000	0.049	-0.161
-238.888	-167.382	-0.126	-0.005
-237.873	264.516	0.013	0.022
-236.859	188.525	0.105	0.155
-235.844	-200.000	-0.031	0.157
-234.830	-149.961	0.230	-0.018
-233.815	66.603	0.205	0.206
-232.800	-108.156	0.219	-0.047
-231.786	800.000	-0.006	0.026
-230.771	-86.572	0.156	-0.047
-229.757	-121.586	-0.051	0.008
-228.742	-13.088	-0.026	-0.017
-227.727	-76.420	0.115	-0.040
-226.713	-200.000	0.026	0.130
-225.698	552.461	0.015	0.036
-224.684	-111.721	-0.211	-0.042
-223.669	-200.000	-0.013	0.358
-222.655	53.700	-0.143	0.136
-221.640	-51.199	-0.285	0.132
-220.625	175.379	0.162	-0.232
-219.611	-177.550	0.471	-0.011
-218.596	156.065	0.032	-0.044
-217.582	295.780	-0.181	-0.327
-216.567	-200.000	-0.028	0.180
-215.552	-82.975	0.098	0.031
-214.538	325.910	0.060	-0.114
-213.523	-94.242	0.307	-0.083
-212.509	321.991	0.052	0.098
-211.494	800.000	0.020	-0.059
-210.479	40.785	0.226	-0.201
-209.465	-42.981	0.109	-0.054
-208.450	-41.384	0.093	0.047
-207.436	-161.533	0.270	0.014
-206.421	-109.186	0.200	0.042
-205.406	599.678	-0.143	-0.350
-204.392	-40.231	0.084	-0.043
-203.377	114.190	0.329	-0.396
-202.363	475.204	0.158	0.351
-201.348	-91.425	0.282	-0.080
-200.333	800.000	0.031	0.121
-199.319	-15.396	0.073	0.046
-198.304	511.781	0.157	0.361
-197.290	-87.676	-0.102	0.030
-196.275	209.833	0.094	-0.146
-195.260	345.209	0.066	-0.128
-194.246	-98.148	0.183	-0.047
-193.231	-200.000	-0.014	-0.136
-192.217	-200.000	0.047	0.298
-191.202	-52.429	0.139	-0.064
-190.187	-200.000	0.023	-0.432
-189.173	-101.181	-0.197	-0.048
-188.158	800.000	-0.020	-0.077
-187.144	-15.778	-0.326	-0.205
-186.129	-200.000	-0.002	0.290
-185.114	-200.000	0.004	-0.125
-184.100	184.060	-0.034	-0.050
-183.085	292.015	-0.151	-0.271
-182.071	-115.233	-0.352	0.066
-181.056	-115.084	0.331	0.062
-180.042	-134.856	0.134	0.016
-179.027	-86.244	0.221	0.067
-178.012	102.682	0.263	0.303
-176.998	-49.801	-0.162	0.076
-175.983	-200.000	-0.038	0.233
-174.969	-75.700	-0.250	0.087
-173.954	-108.079	-0.158	-0.034
-172.939	55.629	0.184	0.176
-171.925	-6.560	0.283	0.190
-170.910	2.318	-0.084	0.060
-169.896	-55.592	-0.273	0.120
-168.881	87.760	0.120	0.131
-167.866	-200.000	-0.022	-0.118
-166.852	351.891	0.078	0.153
-165.837	264.058	0.146	0.250
-164.823	375.241	0.029	-0.057
-163.808	-185.561	-0.176	-0.003
-162.793	356.516	0.132	-0.258
-161.779	-200.000	-0.073	-0.319
-160.764	-200.000	-0.046	0.206
-159.750	-127.824	0.278	0.040
-158.735	800.000	0.099	0.338
-157.720	-33.471	0.388	0.211
-156.706	-200.000	0.030	0.435
-155.691	14.504	-0.310	0.239
-154.677	800.000	-0.027	0.087
-153.662	-200.000	-0.072	-0.353
-152.647	66.102	-0.206	0.206
-151.633	-177.010	0.139	0.003
-150.618	62.167	-0.197	-0.194
-149.604	122.318	0.104	-0.128
-148.589	258.575	0.278	0.473
-147.574	62.423	-0.083	-0.082
-146.560	-14.181	-0.101	0.064
-145.545	21.368	-0.115	-0.092
-144.531	109.585	-0.192	0.227
-143.516	-127.543	-0.072	0.010
-142.502	-200.000	-0.012	-0.066
-141.487	-200.000	-0.035	0.351
-140.472	44.722	0.253	0.230
-139.458	26.585	0.339	0.280
-138.443	14.822	0.218	-0.168
-137.429	6.499	-0.146	0.107
-136.414	74.207	0.262	0.271
-135.399	-24.583	0.115	-0.067
-134.385	-200.000	-0.016	-0.217
-133.370	800.000	-0.025	-0.075
-132.356	184.133	-0.211	-0.308
-131.341	-72.349	0.255	0.093
-130.326	736.548	0.035	-0.092
-129.312	23.731	-0.131	-0.106
-128.297	800.000	-0.048	-0.179
-127.283	-4.024	-0.093	-0.063
-126.268	192.016	0.102	-0.151
-125.253	-69.600	-0.197	-0.074
-124.239	-31.687	0.230	0.127
-123.224	-84.162	-0.411	-0.128
-122.210	599.114	0.030	-0.074
-121.195	-200.000	-0.014	0.204
