DTS Sentinel unit serial number:	SN413079Multiplexer serial number:	ORYXHardware model number:	OX4-SRSoftware version number:	ORYX F/W v4.00 Oryx Data Collector v3.7.2.0data status	okinstallation	princeton_trtdifferential loss correction	single-endedforward channel	channel 2reverse channel	N/Adate	2019/09/19time	00:19:34forward acquisition time	60.00reverse acquisition time	0.00gamma	496.2192k internal	0.2352k external	0.2352temperature offset calibration	1.0016default loss term (dB/km)	0.3790temperature slope calibration	1.0000multiplexer offset coefficient	1.0000multiplexer slope coefficient	1.0000fibre end	0.00T internal ref (°C)	22.69T ext. ref 1 (°C)	0.73T ext. ref 2 (°C)	15.71length (m)	temperature (°C)	Stokes	anti-Stokes-747.200	800.000	-0.089	0.277
-746.185	-106.203	-0.378	0.085
-745.171	-120.406	0.094	-0.016
-744.156	30.871	-0.317	0.271
-743.142	-68.295	-0.160	-0.062
-742.127	671.741	-0.050	0.128
-741.112	7.860	-0.247	0.185
-740.098	-191.479	-0.095	0.001
-739.083	-188.110	-0.040	-0.001
-738.069	53.682	-0.101	0.097
-737.054	-4.714	0.080	-0.055
-736.039	96.955	-0.126	0.144
-735.025	-110.488	0.249	0.052
-734.010	-200.000	-0.065	-0.311
-732.996	7.858	-0.210	0.157
-731.981	651.867	0.165	0.421
-730.966	713.683	-0.021	0.054
-729.952	-200.000	-0.033	-0.313
-728.937	38.934	-0.313	-0.279
-727.923	413.354	-0.113	-0.240
-726.908	-133.757	-0.563	-0.070
-725.894	41.700	-0.027	-0.025
-724.879	-200.000	0.034	-0.470
-723.864	78.120	-0.103	0.109
-722.850	800.000	0.033	0.128
-721.835	-7.009	-0.158	0.107
-720.821	800.000	-0.097	0.349
-719.806	141.447	-0.146	-0.192
-718.791	86.204	-0.132	0.145
-717.777	567.966	-0.050	-0.122
-716.762	124.967	0.024	0.030
-715.748	-142.931	-0.190	-0.018
-714.733	-174.486	0.273	0.008
-713.718	-44.449	-0.070	-0.035
-712.704	37.963	-0.338	-0.300
-711.689	-150.813	-0.286	-0.022
-710.675	122.525	0.054	0.068
-709.660	67.086	-0.050	-0.051
-708.645	-64.608	0.295	0.119
-707.631	21.254	-0.076	-0.061
-706.616	109.175	-0.126	-0.151
-705.602	168.631	-0.116	0.165
-704.587	362.303	0.153	0.305
-703.572	-101.550	-0.158	0.038
-702.558	20.566	0.193	-0.155
-701.543	-108.015	-0.089	0.019
-700.529	-70.081	0.084	-0.032
-699.514	15.519	-0.286	-0.224
-698.499	-200.000	-0.026	0.121
-697.485	800.000	0.032	-0.090
-696.470	98.416	-0.074	-0.085
-695.456	-4.387	-0.044	0.030
-694.441	82.206	0.092	0.099
-693.426	392.596	0.102	-0.211
-692.412	30.416	-0.145	0.124
-691.397	-139.647	-0.447	-0.047
-690.383	186.002	-0.023	-0.034
-689.368	-117.696	-0.216	-0.039
-688.354	-200.000	0.021	-0.152
-687.339	158.413	0.072	-0.100
-686.324	256.729	-0.119	0.204
-685.310	616.400	-0.017	-0.043
-684.295	800.000	-0.019	0.062
-683.281	-200.000	0.001	-0.215
-682.266	-86.608	-0.201	-0.061
-681.251	800.000	0.060	0.247
-680.237	-42.633	-0.274	0.139
-679.222	-152.620	-0.404	-0.029
-678.208	-134.887	0.339	0.041
-677.193	-41.884	-0.307	-0.157
-676.178	-134.319	0.416	0.051
-675.164	39.386	-0.161	0.143
-674.149	556.469	0.097	0.232
-673.135	-200.000	0.026	-0.125
-672.120	-200.000	-0.009	-0.296
-671.105	8.367	0.072	0.054
-670.091	328.591	-0.083	-0.159
-669.076	-48.722	0.330	-0.158
-668.062	92.774	-0.160	0.180
-667.047	362.950	0.167	-0.333
-666.032	-5.404	-0.125	-0.085
-665.018	800.000	-0.144	-0.404
-664.003	-141.066	-0.270	0.028
-662.989	243.432	0.201	0.336
-661.974	51.451	0.136	-0.129
-660.959	-200.000	0.004	0.199
-659.945	-190.287	-0.197	-0.002
-658.930	-18.541	-0.328	-0.203
-657.916	-41.881	0.434	-0.221
-656.901	-194.725	-0.066	0.001
-655.886	-14.187	-0.215	-0.138
-654.872	1.520	-0.246	-0.176
-653.857	-35.757	-0.060	0.032
-652.843	-200.000	-0.009	0.216
-651.828	-137.543	0.068	0.008
-650.814	215.366	0.115	0.182
-649.799	-85.304	-0.374	0.116
-648.784	-200.000	-0.016	0.203
-647.770	800.000	-0.123	0.400
-646.755	-78.760	-0.522	0.177
-645.741	800.000	-0.088	0.293
-644.726	43.735	0.020	0.018
-643.711	84.393	0.135	0.147
-642.697	64.951	-0.090	0.090
-641.682	-82.076	0.263	-0.085
-640.668	89.452	0.204	0.227
-639.653	-163.260	0.232	-0.011
-638.638	165.398	0.107	0.150
-637.624	99.713	-0.091	0.104
-636.609	-75.929	0.337	0.119
-635.595	75.339	-0.222	0.232
-634.580	230.511	0.143	0.233
-633.565	619.157	0.097	0.243
-632.551	195.082	-0.197	0.297
-631.536	80.414	0.165	0.176
-630.522	-148.208	0.095	0.008
-629.507	9.785	-0.167	0.126
-628.492	-88.814	-0.179	-0.053
-627.478	79.868	0.135	-0.145
-626.463	-19.063	-0.142	-0.088
-625.449	-200.000	0.039	-0.348
-624.434	-133.880	-0.362	-0.045
-623.419	-84.676	0.280	-0.088
-622.405	199.845	0.100	-0.153
-621.390	-200.000	-0.112	-0.610
-620.376	-200.000	-0.015	-0.175
-619.361	364.845	-0.091	-0.183
-618.346	-28.154	0.250	-0.144
-617.332	230.234	0.124	0.201
-616.317	45.872	0.163	-0.150
-615.303	67.144	-0.584	-0.591
-614.288	-200.000	0.011	-0.090
-613.273	1.418	0.099	0.071
-612.259	292.943	0.115	0.207
-611.244	531.567	-0.134	0.315
-610.230	375.104	-0.163	-0.330
-609.215	800.000	0.082	0.333
-608.201	-53.920	-0.322	0.145
-607.186	-115.598	0.111	-0.021
-606.171	243.148	0.036	0.060
-605.157	-47.898	-0.342	-0.164
-604.142	-27.451	-0.095	0.055
-603.128	618.349	0.084	-0.210
-602.113	800.000	-0.011	-0.037
-601.098	-3.298	0.157	0.109
-600.084	-69.562	-0.185	0.070
-599.069	38.314	-0.371	0.328
-598.055	-200.000	0.018	-0.136
-597.040	363.099	-0.295	-0.588
-596.025	-38.626	-0.164	-0.086
-595.011	-72.934	-0.115	-0.042
-593.996	-200.000	-0.002	0.129
-592.982	-83.574	0.375	-0.119
-591.967	-107.235	-0.114	-0.025
-590.952	-200.000	-0.036	-0.198
-589.938	-4.352	-0.226	-0.155
-588.923	256.308	-0.106	-0.181
-587.909	87.508	-0.113	-0.124
-586.894	800.000	-0.068	0.205
-585.879	46.778	-0.056	0.052
-584.865	-200.000	0.038	-0.214
-583.850	7.255	-0.424	0.314
-582.836	-64.560	0.169	0.068
-581.821	551.275	0.076	-0.180
-580.806	-66.440	0.169	-0.066
-579.792	-49.960	-0.150	0.071
-578.777	153.063	-0.218	0.295
-577.763	-88.386	0.243	0.072
-576.748	137.201	-0.044	0.057
-575.733	345.964	0.143	0.278
-574.719	-74.354	-0.050	-0.018
-573.704	-98.363	0.221	-0.056
-572.690	15.884	-0.122	-0.095
-571.675	444.440	0.092	-0.200
-570.661	188.766	-0.092	-0.136
-569.646	-166.712	0.147	-0.006
-568.631	-9.709	-0.277	-0.183
-567.617	-42.492	0.406	-0.205
-566.602	-128.620	0.253	0.036
-565.588	74.886	-0.107	-0.112
-564.573	239.129	-0.183	-0.301
-563.558	59.238	-0.029	-0.028
-562.544	-95.495	-0.361	-0.096
-561.529	231.660	-0.149	-0.242
-560.515	786.453	-0.075	-0.205
-559.500	144.290	-0.166	0.219
-558.485	181.875	0.103	-0.150
-557.471	618.758	-0.036	0.091
-556.456	-200.000	0.031	0.339
-555.442	-108.601	0.116	0.025
-554.427	-200.000	-0.331	-0.001
-553.412	-65.783	-0.312	-0.124
-552.398	353.171	-0.104	-0.205
-551.383	-200.000	0.005	0.251
-550.369	-83.044	0.233	0.074
-549.354	-200.000	-0.017	-0.270
-548.339	-156.541	-0.319	-0.020
-547.325	533.903	0.073	0.171
-546.310	347.635	-0.101	0.197
-545.296	10.725	0.251	-0.189
-544.281	38.286	-0.164	-0.145
-543.266	-104.225	-0.100	-0.023
-542.252	-200.000	-0.018	-0.212
-541.237	-117.727	-0.363	0.065
-540.223	-200.000	-0.025	0.249
-539.208	128.947	-0.148	-0.187
-538.193	-17.892	-0.075	-0.047
-537.179	128.362	-0.031	-0.039
-536.164	-142.486	-0.234	-0.023
-535.150	-31.950	0.194	-0.107
-534.135	12.307	0.324	-0.247
-533.121	800.000	-0.122	-0.345
-532.106	-104.040	-0.404	-0.093
-531.091	222.332	0.069	0.110
-530.077	15.887	-0.327	-0.254
-529.062	-40.479	0.169	0.087
-528.048	141.602	0.183	-0.240
-527.033	-147.357	0.215	0.018
-526.018	-10.435	-0.199	0.131
-525.004	-141.678	0.314	-0.031
-523.989	-200.000	0.025	-0.678
-522.975	17.317	-0.066	0.052
-521.960	112.930	0.165	0.197
-520.945	-85.413	-0.191	0.059
-519.931	164.068	-0.188	0.261
-518.916	757.771	0.076	-0.202
-517.902	-143.974	-0.310	0.029
-516.887	-181.559	0.035	-0.001
-515.872	-200.000	-0.177	0.000
-514.858	-200.000	0.014	0.209
-513.843	97.350	-0.208	-0.236
-512.829	110.275	-0.174	-0.207
-511.814	-46.473	0.273	-0.132
-510.799	-151.665	0.058	-0.004
-509.785	484.511	0.194	-0.436
-508.770	660.452	-0.082	-0.208
-507.756	310.410	-0.105	-0.194
-506.741	-200.000	-0.072	-0.000
-505.726	-200.000	0.013	0.217
-504.712	-120.342	-0.451	-0.076
-503.697	-16.356	-0.195	0.122
-502.683	390.175	-0.170	0.349
-501.668	-200.000	0.009	0.111
-500.653	317.225	0.116	-0.216
-499.639	-41.955	-0.076	0.038
-498.624	227.793	0.314	-0.504
-497.610	127.816	-0.229	-0.287
-496.595	-200.000	0.013	-0.172
-495.581	547.838	0.080	0.188
-494.566	30.414	-0.264	-0.223
-493.551	95.871	-0.252	-0.284
-492.537	84.569	0.117	-0.126
-491.522	800.000	-0.064	-0.244
-490.508	156.141	0.249	-0.339
-489.493	96.211	-0.263	0.298
-488.478	-153.170	0.196	0.014
-487.464	800.000	0.050	-0.186
-486.449	800.000	0.037	-0.155
-485.435	-59.930	-0.306	0.129
-484.420	178.848	-0.085	-0.123
-483.405	-67.855	-0.170	-0.066
-482.391	-9.710	0.229	0.151
-481.376	-68.112	-0.329	-0.127
-480.362	-200.000	0.055	-0.378
-479.347	-116.842	0.248	-0.045
-478.332	-43.508	-0.063	-0.031
-477.318	160.509	-0.130	0.180
-476.303	-137.613	-0.153	0.017
-475.289	-63.736	0.268	0.108
-474.274	-200.000	-0.011	-0.192
-473.259	-22.053	-0.091	-0.055
-472.245	83.373	-0.087	0.093
-471.230	-46.807	0.287	0.139
-470.216	-107.315	0.121	-0.026
-469.201	-200.000	0.010	-0.065
-468.186	-126.525	-0.072	0.011
-467.172	-119.197	0.092	-0.016
-466.157	-50.763	0.140	-0.065
-465.143	-200.000	-0.030	-0.207
-464.128	720.259	0.064	0.168
-463.113	244.187	0.075	-0.125
-462.099	800.000	-0.044	-0.180
-461.084	-26.473	-0.061	0.035
-460.070	-3.659	0.164	0.113
-459.055	-200.000	0.047	0.309
-458.040	112.418	-0.082	0.098
-457.026	-200.000	0.052	0.267
-456.011	-50.473	-0.224	-0.104
-454.997	-155.794	-0.204	-0.013
-453.982	-114.749	-0.253	-0.048
-452.968	-24.838	-0.251	-0.147
-451.953	25.493	-0.125	0.102
-450.938	7.245	-0.222	-0.164
-449.924	-96.278	-0.245	-0.064
-448.909	151.192	-0.228	0.306
-447.895	229.474	0.044	-0.071
-446.880	262.452	-0.025	-0.042
-445.865	-200.000	-0.002	0.371
-444.851	308.482	-0.094	0.173
-443.836	-79.757	0.312	0.103
-442.822	663.528	-0.105	0.267
-441.807	-158.756	0.154	0.009
-440.792	58.764	0.094	-0.091
-439.778	143.746	0.263	0.345
-438.763	-8.428	-0.439	-0.291
-437.749	91.619	-0.061	-0.067
-436.734	-7.789	0.257	-0.171
-435.719	-102.138	0.229	0.054
-434.705	800.000	0.134	0.406
-433.690	-23.966	-0.086	-0.051
-432.676	-142.328	-0.190	-0.018
-431.661	38.598	0.261	0.230
-430.646	-38.168	-0.050	-0.026
-429.632	37.797	0.330	-0.289
-428.617	-79.661	0.080	0.026
-427.603	-10.089	-0.404	-0.264
-426.588	800.000	0.208	0.571
-425.573	727.586	-0.092	0.243
-424.559	14.120	0.509	-0.390
-423.544	-151.333	0.144	0.011
-422.530	20.491	0.224	-0.179
-421.515	-200.000	-0.007	-0.060
-420.500	-64.835	0.264	0.105
-419.486	-69.152	-0.042	-0.016
-418.471	800.000	-0.049	-0.147
-417.457	-200.000	-0.026	0.184
-416.442	156.344	-0.208	0.283
-415.428	800.000	-0.062	0.178
-414.413	-25.231	0.178	-0.104
-413.398	800.000	-0.037	-0.129
-412.384	-200.000	-0.002	0.176
-411.369	-112.938	0.092	-0.018
-410.355	-116.936	0.033	-0.006
-409.340	176.061	0.131	-0.188
-408.325	89.876	0.374	0.411
-407.311	-28.379	0.351	-0.199
-406.296	491.493	-0.015	0.033
-405.282	89.055	-0.060	0.066
-404.267	259.420	-0.096	0.164
-403.252	51.514	0.104	-0.097
-402.238	-200.000	-0.043	-0.360
-401.223	129.972	-0.133	0.167
-400.209	-55.050	-0.128	0.057
-399.194	-129.469	0.292	-0.040
-398.179	-200.000	0.009	0.101
-397.165	213.929	-0.008	-0.012
-396.150	800.000	0.049	-0.206
-395.136	277.539	0.117	-0.204
-394.121	-97.981	-0.389	-0.099
-393.106	46.898	0.186	-0.170
-392.092	-200.000	-0.006	-0.057
-391.077	86.199	-0.199	0.215
-390.063	-37.930	-0.088	-0.046
-389.048	-200.000	0.024	0.105
-388.033	50.108	0.285	0.264
-387.019	403.847	0.055	-0.114
-386.004	525.243	-0.070	-0.161
-384.990	226.279	-0.063	0.101
-383.975	-56.452	-0.287	0.125
-382.960	-200.000	0.033	0.192
-381.946	111.069	0.130	-0.153
-380.931	-146.981	0.055	0.005
-379.917	-200.000	0.075	-0.348
-378.902	-80.875	0.163	0.053
-377.888	-31.235	0.031	0.017
-376.873	800.000	-0.127	-0.522
-375.858	-200.000	0.031	-0.172
-374.844	-49.265	0.336	-0.158
-373.829	656.614	0.141	0.356
-372.815	75.191	-0.069	-0.072
-371.800	-127.917	0.273	-0.039
-370.785	-66.943	-0.148	0.058
-369.771	24.034	0.254	0.206
-368.756	38.205	-0.234	-0.205
-367.742	-28.212	-0.020	0.011
-366.727	-200.000	-0.024	0.500
-365.712	-167.738	0.204	0.008
-364.698	49.436	0.196	-0.181
-363.683	-200.000	0.014	-0.258
-362.669	-107.951	0.127	-0.027
-361.654	800.000	0.022	0.080
-360.639	-200.000	-0.017	-0.239
-359.625	-200.000	0.042	0.229
-358.610	-200.000	-0.047	-0.216
-357.596	-200.000	-0.012	0.087
-356.581	-81.200	-0.077	-0.025
-355.566	-200.000	-0.004	-0.030
-354.552	-114.354	-0.120	-0.023
-353.537	-77.133	0.148	0.051
-352.523	655.025	-0.011	-0.027
-351.508	-39.259	-0.230	0.119
-350.493	-134.029	-0.239	-0.029
-349.479	-200.000	-0.007	0.124
-348.464	-50.072	0.158	-0.073
-347.450	-200.000	-0.042	0.209
-346.435	30.041	-0.412	0.345
-345.420	-130.168	0.157	0.021
-344.406	-74.085	0.054	0.019
-343.391	43.482	-0.129	0.116
-342.377	-103.799	-0.156	-0.036
-341.362	-200.000	-0.005	-0.177
-340.348	239.138	0.076	-0.125
-339.333	1.565	-0.079	-0.056
-338.318	-200.000	-0.057	0.331
-337.304	44.594	-0.156	-0.140
-336.289	-129.580	0.239	0.032
-335.275	-132.616	-0.180	-0.023
-334.260	143.302	-0.195	0.255
-333.245	800.000	0.091	0.281
-332.231	800.000	-0.025	-0.078
-331.216	-134.251	-0.511	-0.062
-330.202	246.730	0.234	0.387
-329.187	-25.706	0.334	0.193
-328.172	-200.000	0.002	0.109
-327.158	177.629	-0.110	-0.157
-326.143	800.000	-0.010	0.028
-325.129	-44.037	-0.072	-0.035
-324.114	-30.350	-0.111	-0.062
-323.099	43.887	-0.140	-0.126
-322.085	-70.878	0.347	-0.128
-321.070	-200.000	0.008	0.080
-320.056	-124.578	0.317	-0.048
-319.041	227.268	-0.047	0.075
-318.026	-57.160	-0.219	-0.095
-317.012	513.105	-0.074	0.169
-315.997	-52.592	-0.298	-0.135
-314.983	-158.708	-0.478	-0.027
-313.968	66.109	0.106	0.106
-312.953	-156.958	0.265	0.016
-311.939	34.567	0.220	0.188
-310.924	276.171	-0.061	0.106
-309.910	800.000	-0.131	-0.361
-308.895	-108.120	0.261	-0.056
-307.880	-175.845	-0.155	0.004
-306.866	31.714	0.179	0.151
-305.851	630.213	-0.089	0.221
-304.837	-200.000	0.015	0.242
-303.822	-200.000	-0.009	0.304
-302.807	-200.000	-0.092	0.578
-301.793	-140.872	0.113	-0.011
-300.778	-200.000	-0.005	0.071
-299.764	147.813	0.145	0.191
-298.749	3.718	0.388	0.278
-297.735	-200.000	-0.024	0.248
-296.720	147.836	0.049	-0.065
-295.705	-200.000	-0.040	0.196
-294.691	-200.000	0.010	0.106
-293.676	800.000	0.133	0.385
-292.662	-92.364	-0.137	-0.038
-291.647	-170.047	0.380	0.013
-290.632	159.883	-0.038	-0.052
-289.618	-54.867	-0.202	-0.089
-288.603	800.000	-0.093	0.271
-287.589	294.286	0.053	0.095
-286.574	442.716	0.037	-0.080
-285.559	229.696	0.179	-0.286
-284.545	-167.048	-0.302	0.012
-283.530	-52.877	0.185	-0.083
-282.516	-76.020	0.247	0.086
-281.501	800.000	0.031	0.105
-280.486	-200.000	0.052	0.276
-279.472	-200.000	-0.022	0.173
-278.457	14.381	-0.120	0.092
-277.443	191.142	-0.057	-0.084
-276.428	160.708	0.053	0.072
-275.413	-200.000	-0.031	0.174
-274.399	1.343	-0.065	0.046
-273.384	-87.913	0.275	0.081
-272.370	369.768	0.054	0.107
-271.355	153.169	-0.054	-0.072
-270.340	-33.029	0.364	0.198
-269.326	7.084	0.066	0.048
-268.311	22.975	0.291	0.233
-267.297	71.497	-0.249	0.253
-266.282	-200.000	0.023	-0.133
-265.267	-49.982	0.286	-0.133
-264.253	11.741	0.117	0.088
-263.238	-199.026	0.211	-0.001
-262.224	111.802	0.091	0.107
-261.209	-200.000	0.025	0.118
-260.195	-171.411	0.588	0.019
-259.180	-200.000	-0.026	0.209
-258.165	-200.000	0.010	0.158
-257.151	111.063	-0.150	-0.177
-256.136	2.800	0.153	0.109
-255.122	554.227	-0.185	-0.437
-254.107	20.494	0.195	0.154
-253.092	508.304	0.155	-0.352
-252.078	335.971	0.050	0.095
-251.063	18.979	-0.241	-0.189
-250.049	189.911	0.143	-0.209
-249.034	-200.000	-0.043	-0.339
-248.019	-200.000	0.022	0.265
-247.005	308.949	0.122	0.223
-245.990	131.612	0.048	0.061
-244.976	627.769	0.080	-0.198
-243.961	184.618	-0.243	-0.352
-242.946	86.639	-0.023	0.024
-241.932	-80.946	0.026	-0.009
-240.917	3.522	0.162	-0.116
-239.903	-140.105	0.164	-0.017
-238.888	-50.834	-0.147	-0.067
-237.873	800.000	-0.110	0.370
-236.859	161.473	-0.170	0.233
-235.844	607.812	-0.137	-0.335
-234.830	328.043	0.090	0.169
-233.815	-200.000	-0.033	-0.165
-232.800	-48.258	0.211	0.100
-231.786	-200.000	-0.119	-0.000
-230.771	-100.549	0.147	0.036
-229.757	-115.260	0.108	-0.020
-228.742	98.912	0.018	-0.021
-227.727	-200.000	0.018	-0.153
-226.713	-132.524	-0.185	-0.023
-225.698	-112.767	0.237	-0.046
-224.684	-122.618	-0.362	-0.057
-223.669	200.652	-0.048	-0.072
-222.655	-0.007	-0.245	-0.171
-221.640	-145.526	0.380	0.033
-220.625	-21.289	-0.035	-0.021
-219.611	800.000	0.044	0.130
-218.596	41.741	-0.083	0.073
-217.582	257.532	0.080	0.134
-216.567	61.659	0.082	0.080
-215.552	-117.077	0.367	-0.065
-214.538	213.913	-0.267	0.412
-213.523	51.794	-0.062	0.057
-212.509	263.106	0.082	0.139
-211.494	237.364	0.059	-0.095
-210.479	-181.643	-0.146	-0.003
-209.465	308.207	0.147	-0.268
-208.450	-161.381	-0.286	0.014
-207.436	800.000	-0.094	0.292
-206.421	-39.484	0.221	-0.113
-205.406	-21.242	0.162	-0.097
-204.392	800.000	0.032	-0.112
-203.377	800.000	-0.035	0.121
-202.363	-98.996	-0.107	0.026
-201.348	-200.000	-0.041	-0.391
-200.333	-40.042	0.390	0.198
-199.319	800.000	0.049	0.145
-198.304	62.564	0.124	0.121
-197.290	-21.148	-0.382	-0.228
-196.275	-90.766	-0.275	-0.077
-195.260	649.228	0.062	0.155
-194.246	-200.000	-0.004	0.094
-193.231	-24.179	-0.076	-0.044
-192.217	-74.250	0.241	0.085
-191.202	-200.000	-0.003	0.194
-190.187	-41.163	-0.344	0.173
-189.173	-18.292	-0.159	0.097
-188.158	-24.595	0.345	0.200
-187.144	-60.412	0.185	-0.077
-186.129	800.000	0.061	0.194
-185.114	75.803	0.207	-0.214
-184.100	-120.753	-0.454	-0.075
-183.085	125.820	0.113	0.140
-182.071	-200.000	0.024	-0.145
-181.056	800.000	-0.082	-0.332
-180.042	-119.061	0.079	0.013
-179.027	-105.135	0.227	0.051
-178.012	126.700	-0.302	0.374
-176.998	-153.796	0.480	-0.032
-175.983	-90.420	0.083	0.023
-174.969	-39.305	-0.210	-0.107
-173.954	-200.000	0.007	0.051
-172.939	-30.574	0.358	0.198
-171.925	-100.549	0.291	-0.070
-170.910	-200.000	-0.072	-0.513
-169.896	9.503	0.150	0.111
-168.881	93.341	0.234	-0.258
-167.866	-9.997	-0.172	0.112
-166.852	85.449	0.107	0.114
-165.837	238.372	0.150	-0.244
-164.823	-200.000	-0.058	-0.342
-163.808	-100.802	0.130	0.031
-162.793	421.587	-0.102	-0.213
-161.779	800.000	0.045	-0.122
-160.764	-29.208	0.065	-0.036
-159.750	-200.000	0.023	0.336
-158.735	-102.896	0.263	0.061
-157.720	-200.000	0.018	-0.202
-156.706	-96.095	0.374	0.097
-155.691	-66.217	-0.297	-0.115
-154.677	800.000	0.028	-0.087
-153.662	616.676	-0.137	-0.336
-152.647	-200.000	0.023	-0.122
-151.633	-200.000	-0.051	0.274
-150.618	-67.507	0.287	0.110
-149.604	2.040	-0.072	0.050
-148.589	-2.578	0.066	-0.045
-147.574	568.575	0.034	0.080
-146.560	-74.070	-0.177	-0.062
-145.545	-81.438	-0.114	-0.037
-144.531	800.000	0.023	-0.070
-143.516	74.318	-0.314	-0.321
-142.502	-200.000	-0.076	-0.471
-141.487	-184.359	-0.302	-0.005
-140.472	198.715	-0.132	0.197
-139.458	-20.210	0.047	0.028
-138.443	148.918	-0.088	0.116
-137.429	800.000	0.081	0.285
-136.414	-200.000	0.017	-0.507
-135.399	-145.241	-0.384	0.034
-134.385	768.046	0.113	-0.300
-133.370	800.000	0.100	-0.313
-132.356	800.000	0.139	0.378
-131.341	800.000	-0.123	0.481
-130.326	800.000	0.127	-0.381
-129.312	459.227	0.115	0.250
-128.297	407.484	-0.033	0.069
-127.283	-75.407	0.271	0.094
-126.268	-200.000	0.002	0.159
-125.253	124.325	0.287	-0.352
-124.239	-149.169	-0.271	-0.021
-123.224	-200.000	0.008	-0.109
-122.210	355.434	0.043	0.083
