DTS Sentinel unit serial number:	SN413079Multiplexer serial number:	ORYXHardware model number:	OX4-SRSoftware version number:	ORYX F/W v4.00 Oryx Data Collector v3.7.2.0data status	okinstallation	princeton_trtdifferential loss correction	single-endedforward channel	channel 2reverse channel	N/Adate	2019/09/15time	12:19:35forward acquisition time	60.00reverse acquisition time	0.00gamma	496.2192k internal	0.2314k external	0.2314temperature offset calibration	1.0010default loss term (dB/km)	0.3790temperature slope calibration	1.0000multiplexer offset coefficient	1.0000multiplexer slope coefficient	1.0000fibre end	0.00T internal ref (°C)	34.75T ext. ref 1 (°C)	5.04T ext. ref 2 (°C)	31.93length (m)	temperature (°C)	Stokes	anti-Stokes-747.200	4.846	-0.276	0.205
-746.185	295.728	0.222	0.412
-745.171	-125.267	0.157	0.024
-744.156	148.835	-0.234	-0.320
-743.142	-200.000	0.022	0.210
-742.127	218.600	-0.179	0.290
-741.112	242.628	0.125	-0.213
-740.098	-126.530	-0.194	-0.029
-739.083	10.483	-0.095	-0.073
-738.069	800.000	0.071	0.228
-737.054	-105.585	0.129	0.030
-736.039	60.394	-0.145	-0.146
-735.025	-195.290	0.071	0.001
-734.010	186.489	-0.092	0.139
-732.996	12.651	-0.255	0.200
-731.981	632.177	-0.096	-0.247
-730.966	618.962	-0.099	0.251
-729.952	259.252	0.128	-0.224
-728.937	-200.000	-0.015	-0.145
-727.923	-9.230	0.161	0.109
-726.908	-81.346	0.239	-0.080
-725.894	800.000	0.043	-0.171
-724.879	-200.000	-0.051	0.387
-723.864	47.769	-0.051	-0.049
-722.850	-200.000	-0.014	0.113
-721.835	315.929	0.116	0.221
-720.821	74.860	-0.147	-0.157
-719.806	114.006	0.154	-0.189
-718.791	-12.215	-0.274	-0.182
-717.777	800.000	-0.071	-0.217
-716.762	-4.112	-0.023	0.016
-715.748	-101.894	0.289	-0.071
-714.733	43.338	0.151	0.139
-713.718	628.952	0.085	-0.218
-712.704	-137.457	-0.170	0.020
-711.689	687.974	0.095	0.251
-710.675	-88.513	-0.216	0.065
-709.660	800.000	0.053	-0.154
-708.645	217.127	0.208	-0.336
-707.631	81.803	0.114	-0.125
-706.616	-200.000	0.008	-0.103
-705.602	-200.000	-0.040	0.299
-704.587	-91.759	0.196	-0.056
-703.572	-136.795	-0.148	0.017
-702.558	-39.557	0.400	0.212
-701.543	-200.000	0.032	-0.310
-700.529	-75.216	0.402	-0.145
-699.514	329.963	0.039	0.076
-698.499	800.000	-0.076	-0.249
-697.485	157.903	-0.311	-0.437
-696.470	-29.625	-0.112	-0.065
-695.456	-69.722	0.075	-0.029
-694.441	244.958	-0.041	-0.070
-693.426	234.079	-0.086	-0.144
-692.412	789.809	-0.130	0.361
-691.397	-92.241	0.339	0.097
-690.383	800.000	-0.079	-0.294
-689.368	-200.000	0.032	0.261
-688.354	-74.079	-0.222	0.082
-687.339	361.348	-0.131	-0.266
-686.324	800.000	0.042	-0.133
-685.310	478.139	-0.049	-0.113
-684.295	342.855	0.150	0.297
-683.281	76.305	0.225	-0.241
-682.266	-156.326	-0.214	-0.014
-681.251	461.904	-0.065	-0.147
-680.237	316.282	-0.073	-0.139
-679.222	-80.774	0.292	-0.098
-678.208	100.154	0.102	0.120
-677.193	162.840	-0.260	-0.369
-676.178	-40.593	-0.283	0.148
-675.164	446.049	-0.097	0.215
-674.149	418.709	0.085	-0.184
-673.135	-200.000	0.022	0.173
-672.120	89.952	0.220	0.248
-671.105	-132.824	-0.126	-0.016
-670.091	-200.000	0.004	-0.021
-669.076	257.386	0.037	0.064
-668.062	-50.068	0.229	-0.110
-667.047	-32.179	0.260	0.147
-666.032	537.110	-0.064	-0.153
-665.018	-0.880	0.074	0.053
-664.003	800.000	0.110	-0.388
-662.989	181.213	0.068	-0.101
-661.974	-86.240	-0.219	0.068
-660.959	39.423	-0.250	-0.227
-659.945	-200.000	0.058	0.325
-658.930	458.891	-0.034	0.076
-657.916	140.933	-0.046	0.061
-656.901	592.660	0.077	-0.192
-655.886	-200.000	0.001	0.019
-654.872	-200.000	0.042	0.223
-653.857	-200.000	0.001	0.160
-652.843	-200.000	-0.019	-0.209
-651.828	-108.103	-0.115	-0.025
-650.814	351.213	-0.091	-0.183
-649.799	52.039	0.256	0.247
-648.784	-13.354	-0.127	-0.083
-647.770	-157.851	-0.153	0.009
-646.755	14.290	0.122	-0.096
-645.741	86.130	0.142	-0.158
-644.726	-37.338	0.127	0.069
-643.711	-196.082	0.133	-0.001
-642.697	-115.491	0.130	0.025
-641.682	-2.559	-0.230	-0.163
-640.668	-129.423	0.064	-0.009
-639.653	111.427	0.201	0.245
-638.638	-3.719	-0.099	0.069
-637.624	-58.910	0.088	0.038
-636.609	-58.914	0.309	-0.135
-635.595	-118.788	0.162	-0.029
-634.580	-150.133	0.426	0.033
-633.565	-90.383	0.229	0.067
-632.551	-200.000	0.029	0.213
-631.536	627.304	-0.106	-0.271
-630.522	-21.995	-0.037	0.023
-629.507	-120.404	-0.179	-0.031
-628.492	-176.787	0.062	-0.002
-627.478	800.000	-0.040	-0.148
-626.463	778.782	0.059	0.162
-625.449	800.000	0.043	0.186
-624.434	-100.899	-0.332	-0.082
-623.419	-190.831	-0.116	-0.001
-622.405	53.637	0.164	-0.159
-621.390	800.000	0.107	-0.323
-620.376	-81.697	-0.148	0.049
-619.361	-181.693	0.155	-0.003
-618.346	-123.028	-0.061	-0.010
-617.332	-30.553	-0.137	0.079
-616.317	408.788	0.114	-0.243
-615.303	101.153	-0.106	-0.125
-614.288	186.566	0.075	0.113
-613.273	-60.961	-0.027	-0.011
-612.259	800.000	-0.038	-0.125
-611.244	-132.368	-0.090	-0.012
-610.230	-189.243	-0.282	-0.003
-609.215	-58.566	-0.066	-0.029
-608.201	-12.771	-0.080	0.052
-607.186	-77.597	-0.267	-0.093
-606.171	366.518	-0.081	-0.164
-605.157	-200.000	0.035	-0.337
-604.142	219.166	0.189	-0.305
-603.128	504.801	0.028	-0.066
-602.113	747.814	-0.021	-0.058
-601.098	150.299	-0.114	-0.156
-600.084	253.241	0.035	-0.061
-599.069	-123.160	-0.303	-0.049
-598.055	-165.854	-0.263	-0.011
-597.040	-121.303	-0.023	0.004
-596.025	-71.857	-0.146	0.055
-595.011	-64.697	0.343	-0.140
-593.996	-200.000	-0.014	0.238
-592.982	1.199	0.113	0.082
-591.967	-200.000	0.031	-0.197
-590.952	-200.000	-0.007	0.132
-589.938	-200.000	-0.036	0.195
-588.923	19.676	0.330	0.268
-587.909	-61.139	0.084	0.036
-586.894	-89.277	-0.268	-0.080
-585.879	-200.000	0.009	0.080
-584.865	-7.342	0.098	0.067
-583.850	496.271	0.110	-0.255
-582.836	-200.000	0.010	-0.429
-581.821	191.864	0.040	0.061
-580.806	158.106	-0.132	0.184
-579.792	51.557	-0.200	0.192
-578.777	-140.523	-0.076	0.008
-577.763	129.409	0.189	0.243
-576.748	-4.318	-0.214	0.149
-575.733	583.059	0.091	-0.225
-574.719	-200.000	0.030	0.134
-573.704	360.828	-0.098	-0.198
-572.690	-200.000	0.045	0.273
-571.675	170.779	-0.065	0.094
-570.661	-73.176	0.222	0.082
-569.646	-118.298	-0.241	0.043
-568.631	452.494	0.085	-0.189
-567.617	800.000	0.036	-0.109
-566.602	800.000	-0.066	-0.242
-565.588	222.338	0.125	0.203
-564.573	-118.821	0.337	0.060
-563.558	-200.000	-0.034	-0.216
-562.544	-109.461	-0.175	0.037
-561.529	422.723	0.112	0.242
-560.515	800.000	0.032	-0.098
-559.500	800.000	-0.108	-0.418
-558.485	-113.175	-0.181	0.036
-557.471	-200.000	0.104	0.535
-556.456	-45.345	-0.351	-0.175
-555.442	-158.298	0.312	0.018
-554.427	624.156	-0.019	0.048
-553.412	800.000	0.049	0.169
-552.398	98.201	-0.225	-0.260
-551.383	284.233	-0.201	-0.364
-550.369	-200.000	0.007	-0.317
-549.354	-200.000	0.012	-0.066
-548.339	170.605	-0.070	-0.101
-547.325	245.698	-0.083	0.140
-546.310	-52.783	0.173	0.080
-545.296	-132.957	0.241	0.031
-544.281	35.047	0.175	-0.154
-543.266	-151.790	0.307	-0.023
-542.252	800.000	-0.055	0.226
-541.237	-146.212	-0.266	-0.024
-540.223	68.756	0.110	0.113
-539.208	230.237	-0.110	0.180
-538.193	-123.157	0.070	-0.011
-537.179	125.736	0.107	0.136
-536.164	50.882	0.176	0.168
-535.150	237.158	0.225	0.376
-534.135	-8.993	0.042	0.028
-533.121	-75.707	0.383	-0.137
-532.106	-54.054	-0.143	0.066
-531.091	0.824	-0.405	0.292
-530.077	-67.624	0.076	-0.030
-529.062	55.706	-0.117	0.114
-528.048	-92.154	0.182	0.052
-527.033	-11.210	-0.259	0.171
-526.018	800.000	-0.061	-0.185
-525.004	-200.000	-0.014	0.087
-523.989	-17.296	-0.283	0.179
-522.975	800.000	0.117	-0.415
-521.960	61.981	-0.171	0.171
-520.945	106.800	-0.092	-0.110
-519.931	215.332	0.149	0.238
-518.916	-200.000	0.006	0.142
-517.902	-200.000	0.046	0.235
-516.887	303.691	-0.091	0.169
-515.872	-76.162	-0.398	-0.141
-514.858	-85.431	-0.406	0.127
-513.843	-50.744	-0.374	-0.177
-512.829	-56.995	-0.141	-0.063
-511.814	800.000	-0.074	-0.276
-510.799	-111.862	0.326	-0.066
-509.785	472.034	-0.111	-0.250
-508.770	534.885	-0.086	0.205
-507.756	-200.000	-0.044	-0.203
-506.741	-200.000	-0.014	0.099
-505.726	-157.807	0.275	-0.016
-504.712	-94.208	0.463	-0.127
-503.697	303.887	-0.142	0.264
-502.683	-64.160	-0.057	-0.024
-501.668	-14.292	-0.037	-0.024
-500.653	-149.002	-0.207	-0.017
-499.639	178.682	-0.044	-0.065
-498.624	-121.487	-0.555	0.093
-497.610	-54.025	0.254	-0.116
-496.595	61.966	0.211	-0.211
-495.581	-50.378	0.099	0.047
-494.566	17.043	-0.111	0.089
-493.551	363.808	0.083	0.167
-492.537	-15.205	-0.076	0.049
-491.522	461.535	0.087	0.194
-490.508	-57.588	-0.095	0.042
-489.493	-52.804	0.360	-0.166
-488.478	-45.230	0.110	-0.055
-487.464	302.849	0.074	0.137
-486.449	-63.889	0.175	-0.072
-485.435	-200.000	-0.009	-0.220
-484.420	-68.259	0.070	0.027
-483.405	214.841	-0.136	0.216
-482.391	364.244	0.186	-0.376
-481.376	800.000	-0.047	0.180
-480.362	56.363	0.104	0.101
-479.347	-76.054	0.361	0.128
-478.332	-85.808	0.097	0.030
-477.318	-36.380	0.355	0.192
-476.303	-200.000	0.001	-0.154
-475.289	-200.000	0.066	0.296
-474.274	37.403	0.213	-0.189
-473.259	-24.383	-0.412	-0.247
-472.245	131.725	-0.071	0.091
-471.230	238.511	0.099	0.166
-470.216	-34.198	0.215	-0.119
-469.201	271.839	0.144	-0.255
-468.186	59.411	0.119	0.117
-467.172	-200.000	-0.014	0.230
-466.157	472.053	0.067	-0.150
-465.143	10.801	0.054	0.042
-464.128	-107.538	0.229	-0.050
-463.113	30.417	0.174	-0.150
-462.099	800.000	0.135	-0.395
-461.084	496.835	0.026	0.061
-460.070	-200.000	-0.038	-0.190
-459.055	278.500	0.037	0.067
-458.040	-200.000	0.008	-0.103
-457.026	-106.344	-0.254	0.057
-456.011	-54.656	-0.329	0.149
-454.997	-183.053	0.394	-0.007
-453.982	-200.000	0.039	0.210
-452.968	-61.344	-0.284	-0.120
-451.953	-126.998	-0.161	-0.024
-450.938	-77.386	-0.215	-0.075
-449.924	-41.215	0.153	0.079
-448.909	-131.422	0.261	-0.035
-447.895	800.000	-0.025	-0.085
-446.880	47.859	-0.296	0.277
-445.865	4.832	-0.069	0.051
-444.851	265.749	-0.037	-0.064
-443.836	-47.595	-0.143	-0.070
-442.822	-1.748	-0.115	-0.081
-441.807	-36.800	0.080	-0.043
-440.792	25.508	0.102	0.085
-439.778	50.581	0.130	-0.124
-438.763	214.802	-0.076	0.121
-437.749	166.740	-0.129	-0.184
-436.734	-161.853	0.182	-0.009
-435.719	593.639	0.106	-0.263
-434.705	138.995	0.118	0.155
-433.690	251.740	0.196	-0.335
-432.676	32.877	0.131	-0.114
-431.661	-200.000	0.003	0.512
-430.646	-200.000	-0.027	-0.182
-429.632	68.611	0.193	0.199
-428.617	-60.713	-0.200	0.085
-427.603	-61.750	-0.226	-0.095
-426.588	-138.177	-0.119	-0.013
-425.573	-144.626	0.180	0.017
-424.559	-65.635	-0.403	-0.162
-423.544	800.000	-0.095	0.373
-422.530	102.224	0.182	0.213
-421.515	-57.201	0.120	0.053
-420.500	359.721	-0.096	0.192
-419.486	361.359	0.082	-0.165
-418.471	58.927	-0.178	0.176
-417.457	185.090	-0.046	0.068
-416.442	-165.291	0.159	-0.007
-415.428	-200.000	0.002	-0.164
-414.413	-112.473	0.112	0.022
-413.398	-146.557	-0.242	-0.021
-412.384	-98.575	-0.007	-0.002
-411.369	800.000	0.097	-0.321
-410.355	354.252	-0.040	0.080
-409.340	-200.000	-0.038	-0.208
-408.325	-200.000	0.017	-0.228
-407.311	800.000	0.062	0.241
-406.296	-160.912	-0.210	0.011
-405.282	216.341	-0.112	-0.179
-404.267	71.776	0.059	0.062
-403.252	-8.535	-0.196	0.132
-402.238	-200.000	-0.017	-0.108
-401.223	800.000	-0.057	-0.167
-400.209	-48.339	-0.149	-0.072
-399.194	72.220	0.144	0.150
-398.179	-200.000	0.015	0.273
-397.165	800.000	0.076	0.221
-396.150	800.000	-0.026	-0.074
-395.136	95.823	-0.133	0.152
-394.121	421.769	0.088	-0.188
-393.106	-200.000	-0.027	-0.239
-392.092	-8.930	0.058	-0.039
-391.077	84.945	-0.092	0.101
-390.063	-200.000	0.012	-0.249
-389.048	199.187	0.087	-0.133
-388.033	314.544	-0.038	0.072
-387.019	-168.401	-0.063	0.002
-386.004	645.346	-0.123	0.315
-384.990	117.097	-0.269	0.330
-383.975	-135.517	-0.132	0.016
-382.960	35.159	-0.112	0.098
-381.946	52.483	-0.249	0.238
-380.931	-80.006	-0.187	0.063
-379.917	300.216	-0.034	-0.062
-378.902	-40.789	0.349	-0.181
-377.888	-200.000	-0.040	-0.241
-376.873	44.400	-0.201	0.184
-375.858	14.055	0.349	0.271
-374.844	800.000	-0.048	-0.148
-373.829	39.708	0.059	0.053
-372.815	266.162	-0.114	-0.198
-371.800	-58.372	-0.163	-0.071
-370.785	-111.683	0.169	0.034
-369.771	-88.344	0.550	-0.164
-368.756	53.154	-0.243	-0.233
-367.742	45.784	0.104	-0.096
-366.727	338.432	0.076	-0.148
-365.712	-92.722	0.467	0.131
-364.698	-11.057	-0.294	-0.194
-363.683	50.976	-0.052	0.050
-362.669	325.700	-0.130	0.248
-361.654	-200.000	0.042	-0.302
-360.639	26.785	0.114	0.095
-359.625	-200.000	-0.007	0.254
-358.610	154.085	-0.215	-0.294
-357.596	-22.432	-0.328	0.198
-356.581	-157.795	0.018	0.001
-355.566	3.961	0.207	0.151
-354.552	-200.000	-0.035	-0.267
-353.537	83.741	-0.395	-0.430
-352.523	-134.061	0.152	0.019
-351.508	-200.000	-0.039	-0.221
-350.493	-47.530	-0.164	0.080
-349.479	-115.566	0.138	0.026
-348.464	-200.000	0.028	0.148
-347.450	33.734	0.115	-0.100
-346.435	0.092	-0.271	0.193
-345.420	-140.865	-0.076	0.008
-344.406	297.245	-0.037	0.068
-343.391	43.939	0.253	0.232
-342.377	10.788	-0.155	-0.118
-341.362	-64.632	0.277	-0.112
-340.348	156.782	-0.063	0.086
-339.333	67.078	0.180	-0.183
-338.318	483.997	0.210	-0.476
-337.304	-11.045	0.098	0.065
-336.289	-115.425	-0.315	0.059
-335.275	-200.000	-0.017	-0.102
-334.260	-129.951	-0.185	0.025
-333.245	148.579	-0.065	0.088
-332.231	89.998	0.261	-0.291
-331.216	221.914	0.105	-0.168
-330.202	-200.000	-0.018	0.123
-329.187	-90.358	0.298	0.086
-328.172	800.000	0.028	-0.097
-327.158	-91.957	-0.140	-0.039
-326.143	-72.669	0.413	0.152
-325.129	-14.426	0.141	0.091
-324.114	-200.000	0.027	0.241
-323.099	800.000	0.066	0.195
-322.085	152.775	-0.264	-0.360
-321.070	706.321	-0.137	-0.361
-320.056	17.981	0.210	-0.167
-319.041	-156.711	0.252	0.016
-318.026	-200.000	-0.023	0.147
-317.012	93.872	-0.156	0.176
-315.997	-59.956	0.063	-0.027
-314.983	-88.313	0.228	-0.068
-313.968	-41.725	-0.269	0.138
-312.953	-124.795	-0.142	-0.022
-311.939	-96.591	-0.315	0.083
-310.924	-70.500	-0.095	-0.036
-309.910	-200.000	-0.023	-0.261
-308.895	-17.133	-0.206	0.130
-307.880	-200.000	0.002	0.067
-306.866	2.451	0.097	-0.070
-305.851	-200.000	0.138	0.001
-304.837	96.477	0.169	-0.193
-303.822	800.000	-0.030	-0.097
-302.807	81.768	0.041	0.045
-301.793	276.316	-0.118	-0.209
-300.778	128.315	0.113	0.143
-299.764	332.197	-0.097	0.186
-298.749	-0.872	-0.171	-0.121
-297.735	-135.330	-0.288	0.034
-296.720	-200.000	-0.014	-0.163
-295.705	-49.680	0.063	-0.030
-294.691	-33.675	-0.107	0.059
-293.676	-113.304	-0.319	0.062
-292.662	-84.486	-0.320	-0.101
-291.647	99.493	0.131	0.151
-290.632	-189.658	0.199	-0.002
-289.618	-58.824	-0.108	0.047
-288.603	-200.000	0.002	-0.167
-287.589	52.721	0.175	-0.166
-286.574	67.989	0.053	-0.054
-285.559	55.038	0.310	0.298
-284.545	-200.000	-0.015	0.234
-283.530	-174.348	0.156	0.004
-282.516	-127.913	0.289	0.041
-281.501	59.354	0.228	0.224
-280.486	-50.716	0.155	0.073
-279.472	-178.368	-0.046	0.001
-278.457	-9.090	-0.088	-0.058
-277.443	-26.650	0.213	0.124
-276.428	800.000	-0.062	-0.207
-275.413	472.371	0.043	-0.097
-274.399	45.782	0.224	-0.206
-273.384	782.092	-0.089	0.242
-272.370	192.307	-0.042	0.063
-271.355	-81.508	0.081	0.027
-270.340	-200.000	0.057	0.340
-269.326	191.167	-0.174	-0.261
-268.311	173.605	-0.060	-0.086
-267.297	3.283	0.274	-0.199
-266.282	-96.317	0.170	0.045
-265.267	170.350	0.205	0.292
-264.253	-200.000	-0.009	0.084
-263.238	-193.085	-0.347	-0.003
-262.224	-200.000	0.028	-0.266
-261.209	246.710	-0.181	0.303
-260.195	-200.000	-0.009	-0.388
-259.180	-75.702	0.180	0.064
-258.165	302.362	-0.029	0.053
-257.151	-200.000	-0.011	-0.195
-256.136	-138.230	-0.305	-0.034
-255.122	800.000	-0.038	0.137
-254.107	403.279	0.184	-0.385
-253.092	-84.099	-0.094	-0.030
-252.078	-200.000	-0.047	0.280
-251.063	-200.000	0.006	-0.067
-250.049	-50.397	0.113	0.053
-249.034	800.000	0.108	-0.392
-248.019	800.000	0.040	0.115
-247.005	224.051	0.115	-0.185
-245.990	234.885	0.122	0.199
-244.976	123.811	0.029	0.036
-243.961	-200.000	-0.041	0.462
-242.946	-18.573	0.177	-0.110
-241.932	-200.000	0.025	-0.318
-240.917	-132.577	0.241	0.031
-239.903	-32.761	0.123	0.068
-238.888	-97.739	-0.134	-0.034
-237.873	-78.395	0.201	-0.069
-236.859	800.000	-0.019	-0.083
-235.844	326.474	0.078	0.148
-234.830	167.643	-0.061	0.087
-233.815	-200.000	-0.031	0.184
-232.800	-200.000	0.016	-0.075
-231.786	-45.862	-0.072	0.036
-230.771	18.688	0.104	0.082
-229.757	-171.903	0.273	0.009
-228.742	-180.269	-0.030	0.001
-227.727	800.000	-0.061	-0.208
-226.713	-200.000	-0.010	-0.360
-225.698	-200.000	-0.235	-0.000
-224.684	-200.000	-0.008	-0.126
-223.669	-36.171	-0.104	0.056
-222.655	100.837	0.073	0.085
-221.640	-96.790	-0.123	-0.032
-220.625	100.474	0.113	-0.131
-219.611	-1.980	-0.158	0.110
-218.596	42.879	-0.091	-0.082
-217.582	-200.000	-0.010	-0.577
-216.567	-41.609	-0.248	0.127
-215.552	219.477	-0.156	0.248
-214.538	220.703	-0.141	0.224
-213.523	126.891	-0.265	0.333
-212.509	274.806	-0.081	0.143
-211.494	-200.000	-0.004	0.318
-210.479	152.084	0.098	-0.133
-209.465	-163.753	-0.390	0.018
-208.450	529.574	-0.128	-0.300
-207.436	-132.100	0.251	0.032
-206.421	-136.539	0.203	0.023
-205.406	-30.482	-0.172	0.097
-204.392	421.724	-0.102	-0.218
-203.377	60.730	-0.202	0.199
-202.363	-76.937	-0.198	0.069
-201.348	-72.252	0.164	0.060
-200.333	329.612	0.122	0.233
-199.319	-4.046	0.298	0.205
-198.304	-123.024	-0.139	-0.022
-197.290	101.808	-0.161	-0.186
-196.275	763.498	-0.093	-0.250
-195.260	192.442	0.073	-0.110
-194.246	50.386	-0.290	0.272
-193.231	444.237	-0.072	0.156
-192.217	370.121	-0.089	0.179
-191.202	-73.711	0.129	-0.046
-190.187	48.716	0.303	0.282
-189.173	-126.599	-0.272	-0.040
-188.158	-200.000	0.008	0.111
-187.144	-36.355	-0.250	0.134
-186.129	-200.000	0.076	-0.452
-185.114	-78.053	-0.170	0.058
-184.100	24.557	0.160	-0.132
-183.085	-11.331	0.279	-0.182
-182.071	-143.367	0.442	0.042
-181.056	-27.127	-0.163	-0.094
-180.042	-112.929	0.161	-0.032
-179.027	-22.781	-0.294	-0.176
-178.012	800.000	0.098	0.281
-176.998	625.198	-0.045	-0.111
-175.983	19.776	-0.182	0.145
-174.969	-110.992	0.177	-0.036
-173.954	-200.000	0.046	0.258
-172.939	109.315	-0.155	0.184
-171.925	257.270	0.130	0.222
-170.910	78.185	0.035	-0.037
-169.896	-98.274	0.171	-0.044
-168.881	-107.135	0.076	0.017
-167.866	-200.000	0.020	0.263
-166.852	70.173	-0.227	0.233
-165.837	-25.864	0.183	0.107
-164.823	-154.389	-0.242	0.016
-163.808	246.027	-0.240	0.401
-162.793	-184.180	0.150	0.002
-161.779	-200.000	0.001	-0.108
-160.764	-8.161	-0.124	-0.083
-159.750	-56.802	0.418	0.183
-158.735	299.411	0.057	-0.104
-157.720	228.944	-0.050	0.080
-156.706	-52.348	0.081	-0.037
-155.691	-117.496	-0.131	0.023
-154.677	47.931	-0.287	-0.266
-153.662	0.931	-0.340	-0.242
-152.647	550.684	0.120	0.285
-151.633	27.336	-0.127	0.106
-150.618	133.206	0.124	0.159
-149.604	-106.880	-0.184	-0.040
-148.589	87.617	0.088	-0.097
-147.574	-154.425	-0.235	0.016
-146.560	-91.567	-0.083	-0.023
-145.545	759.035	-0.100	-0.268
-144.531	1.490	0.209	0.149
-143.516	1.266	0.257	0.183
-142.502	-50.074	0.261	0.122
-141.487	48.132	-0.279	0.259
-140.472	-54.622	0.208	0.093
-139.458	-109.969	-0.418	0.087
-138.443	-136.652	0.137	-0.016
-137.429	-81.033	0.266	0.087
-136.414	366.109	-0.098	-0.196
-135.399	-97.582	-0.035	0.009
-134.385	-160.140	0.420	-0.023
-133.370	77.736	0.044	-0.047
-132.356	-113.100	0.673	-0.131
-131.341	-59.424	0.255	0.108
-130.326	-200.000	-0.024	-0.243
-129.312	-194.394	-0.088	-0.001
-128.297	170.492	0.193	0.274
-127.283	-37.344	0.137	0.072
-126.268	-58.445	0.040	-0.017
-125.253	-133.292	-0.060	-0.008
-124.239	-14.521	0.217	0.138
-123.224	25.520	-0.155	0.128
-122.210	-89.323	0.373	0.109
-121.195	89.059	0.099	-0.110
