DTS Sentinel unit serial number:	SN413079Multiplexer serial number:	ORYXHardware model number:	OX4-SRSoftware version number:	ORYX F/W v4.00 Oryx Data Collector v3.7.2.0data status	okinstallation	princeton_trtdifferential loss correction	single-endedforward channel	channel 2reverse channel	N/Adate	2019/09/15time	01:11:35forward acquisition time	60.00reverse acquisition time	0.00gamma	496.2192k internal	0.2324k external	0.2324temperature offset calibration	1.0038default loss term (dB/km)	0.3790temperature slope calibration	1.0000multiplexer offset coefficient	1.0000multiplexer slope coefficient	1.0000fibre end	0.00T internal ref (°C)	31.97T ext. ref 1 (°C)	4.51T ext. ref 2 (°C)	26.84length (m)	temperature (°C)	Stokes	anti-Stokes-747.200	800.000	0.014	-0.057
-746.185	58.686	0.218	0.217
-745.171	93.653	0.191	0.219
-744.156	-44.699	0.147	0.074
-743.142	-81.619	0.347	-0.115
-742.127	236.112	-0.023	0.039
-741.112	-200.000	-0.015	0.224
-740.098	-73.504	-0.243	0.089
-739.083	800.000	-0.066	0.202
-738.069	-82.428	0.402	-0.132
-737.054	206.702	-0.104	0.164
-736.039	-9.612	0.061	-0.041
-735.025	78.278	0.205	-0.221
-734.010	-47.318	-0.418	-0.206
-732.996	-182.483	-0.254	-0.005
-731.981	-159.953	0.283	0.016
-730.966	-87.737	-0.179	0.054
-729.952	270.177	-0.125	-0.221
-728.937	800.000	-0.069	-0.195
-727.923	-200.000	0.020	0.252
-726.908	-89.502	-0.205	0.061
-725.894	-80.034	0.187	-0.063
-724.879	-110.135	-0.175	0.037
-723.864	-41.457	0.185	-0.096
-722.850	118.654	-0.064	0.080
-721.835	536.226	0.058	-0.140
-720.821	-85.456	0.316	-0.099
-719.806	-137.924	-0.160	0.018
-718.791	-200.000	0.064	-0.363
-717.777	142.312	-0.076	-0.101
-716.762	19.007	0.064	0.052
-715.748	73.580	-0.211	-0.222
-714.733	-200.000	0.009	-0.183
-713.718	-10.264	0.052	-0.035
-712.704	-196.050	-0.143	-0.001
-711.689	-51.323	0.158	0.074
-710.675	-51.357	-0.274	0.129
-709.660	16.118	-0.174	-0.138
-708.645	116.898	0.206	-0.255
-707.631	-200.000	-0.069	0.364
-706.616	565.110	0.078	-0.190
-705.602	-52.748	-0.208	-0.097
-704.587	-150.627	0.273	-0.021
-703.572	-165.570	0.258	0.011
-702.558	-31.592	-0.182	-0.103
-701.543	-149.538	0.425	0.034
-700.529	8.516	-0.053	-0.040
-699.514	-19.705	-0.166	-0.104
-698.499	19.057	0.082	0.066
-697.485	-49.793	0.332	-0.159
-696.470	-200.000	0.017	-0.362
-695.456	-200.000	0.000	-0.006
-694.441	-200.000	0.028	0.316
-693.426	-64.511	-0.143	-0.058
-692.412	-65.148	-0.323	0.131
-691.397	-77.601	-0.022	-0.008
-690.383	-135.444	-0.101	-0.012
-689.368	58.682	-0.117	-0.116
-688.354	8.416	0.055	0.042
-687.339	-200.000	0.008	0.130
-686.324	200.128	0.078	0.120
-685.310	33.425	0.224	0.196
-684.295	138.728	-0.045	-0.059
-683.281	209.724	-0.227	-0.359
-682.266	26.738	-0.131	-0.110
-681.251	-24.529	0.194	-0.116
-680.237	428.148	-0.107	-0.234
-679.222	800.000	0.031	0.126
-678.208	16.591	0.118	-0.094
-677.193	121.088	-0.142	-0.177
-676.178	340.933	-0.095	-0.187
-675.164	61.586	0.169	-0.169
-674.149	688.176	0.099	0.262
-673.135	22.911	-0.222	0.183
-672.120	115.011	0.169	0.208
-671.105	13.572	-0.134	0.104
-670.091	-200.000	0.002	0.261
-669.076	799.048	0.118	-0.327
-668.062	480.529	-0.056	0.129
-667.047	-8.442	-0.216	-0.146
-666.032	-119.361	-0.132	0.023
-665.018	-81.985	0.031	-0.010
-664.003	-155.492	0.251	-0.016
-662.989	800.000	0.056	-0.159
-661.974	-78.661	0.220	0.076
-660.959	-200.000	-0.044	-0.295
-659.945	364.687	0.128	-0.258
-658.930	630.021	-0.050	0.126
-657.916	-200.000	-0.072	-0.351
-656.901	91.173	-0.197	-0.223
-655.886	-128.508	-0.344	0.049
-654.872	-124.684	0.198	0.031
-653.857	-55.323	0.285	0.129
-652.843	-119.485	-0.192	0.034
-651.828	-68.282	-0.163	-0.064
-650.814	161.668	-0.146	-0.206
-649.799	-85.097	-0.190	0.060
-648.784	-200.000	-0.009	-0.344
-647.770	109.629	0.181	0.219
-646.755	17.163	-0.223	0.178
-645.741	56.962	-0.108	0.105
-644.726	800.000	-0.051	0.217
-643.711	-38.115	0.453	0.242
-642.697	220.752	-0.243	-0.392
-641.682	-200.000	0.075	-0.384
-640.668	-138.102	0.185	0.021
-639.653	710.087	0.087	-0.232
-638.638	-94.037	0.155	-0.043
-637.624	-115.963	-0.212	-0.040
-636.609	22.478	-0.116	0.095
-635.595	-89.908	-0.131	0.038
-634.580	44.753	-0.118	0.109
-633.565	0.152	-0.272	-0.195
-632.551	562.666	-0.033	-0.080
-631.536	-200.000	0.015	-0.106
-630.522	-20.373	0.310	0.191
-629.507	519.934	-0.075	0.178
-628.492	-200.000	0.002	-0.145
-627.478	-106.665	-0.015	0.003
-626.463	-200.000	-0.016	-0.327
-625.449	92.553	0.038	-0.044
-624.434	-54.047	0.222	0.101
-623.419	-19.065	0.179	-0.112
-622.405	800.000	0.039	-0.119
-621.390	-0.565	-0.348	0.248
-620.376	800.000	-0.044	0.137
-619.361	-42.870	0.198	0.101
-618.346	-200.000	-0.046	-0.222
-617.332	-200.000	0.024	-0.261
-616.317	800.000	-0.071	0.280
-615.303	-200.000	0.048	0.341
-614.288	520.938	0.081	-0.190
-613.273	800.000	-0.047	0.166
-612.259	50.776	0.159	0.151
-611.244	-116.503	0.304	0.056
-610.230	391.290	-0.107	0.222
-609.215	80.391	0.068	0.073
-608.201	698.143	-0.055	-0.144
-607.186	-110.955	-0.210	0.043
-606.171	-200.000	-0.007	-0.061
-605.157	232.178	-0.050	-0.083
-604.142	-58.438	-0.156	0.068
-603.128	-200.000	-0.030	0.147
-602.113	158.156	-0.127	0.177
-601.098	667.016	-0.052	-0.136
-600.084	-121.429	0.261	0.044
-599.069	-200.000	0.010	0.084
-598.055	-200.000	0.000	0.301
-597.040	57.555	-0.038	-0.037
-596.025	543.956	0.141	-0.339
-595.011	267.541	0.037	0.064
-593.996	-5.621	-0.423	0.291
-592.982	-200.000	0.020	0.138
-591.967	-77.150	0.171	-0.060
-590.952	-200.000	0.001	0.288
-589.938	389.979	-0.107	0.223
-588.923	459.181	0.047	0.105
-587.909	-109.045	-0.167	0.036
-586.894	111.874	0.035	-0.043
-585.879	-35.894	0.303	0.164
-584.865	-55.682	-0.188	-0.085
-583.850	148.461	0.124	0.169
-582.836	106.864	-0.099	-0.118
-581.821	87.807	-0.109	0.122
-580.806	-200.000	-0.020	0.131
-579.792	-200.000	0.053	0.366
-578.777	800.000	0.068	-0.207
-577.763	83.433	0.080	-0.087
-576.748	-158.647	-0.366	0.021
-575.733	12.079	-0.082	-0.063
-574.719	800.000	-0.025	0.072
-573.704	-5.532	0.164	-0.113
-572.690	585.775	0.106	0.262
-571.675	-60.109	-0.163	0.070
-570.661	85.708	0.018	-0.020
-569.646	45.629	0.273	-0.253
-568.631	-40.559	-0.135	-0.070
-567.617	-46.240	0.164	0.081
-566.602	681.271	0.081	-0.211
-565.588	-149.948	0.122	0.010
-564.573	-58.505	0.147	0.064
-563.558	457.965	-0.127	-0.284
-562.544	414.940	0.049	0.105
-561.529	-200.000	-0.033	0.392
-560.515	33.802	-0.204	0.178
-559.500	114.958	-0.189	0.231
-558.485	800.000	0.020	0.061
-557.471	-200.000	0.016	-0.232
-556.456	800.000	0.159	-0.476
-555.442	-82.342	-0.166	-0.054
-554.427	-165.380	-0.509	-0.022
-553.412	-200.000	-0.027	-0.245
-552.398	299.644	-0.102	-0.188
-551.383	59.710	-0.385	0.380
-550.369	-23.223	-0.095	-0.057
-549.354	-38.736	-0.290	-0.153
-548.339	800.000	0.014	0.045
-547.325	272.240	-0.098	-0.174
-546.310	275.752	-0.097	-0.172
-545.296	159.640	-0.165	-0.230
-544.281	255.389	-0.132	-0.226
-543.266	-200.000	-0.003	0.263
-542.252	-73.096	0.335	-0.123
-541.237	-29.528	0.088	0.050
-540.223	63.628	-0.306	-0.308
-539.208	-63.969	-0.283	-0.116
-538.193	-162.246	-0.093	0.005
-537.179	-18.574	-0.233	0.146
-536.164	131.181	0.134	0.173
-535.150	205.562	-0.072	-0.111
-534.135	101.697	0.081	-0.095
-533.121	1.405	0.108	-0.077
-532.106	-131.137	0.323	0.043
-531.091	-107.807	0.132	0.029
-530.077	-157.856	-0.232	-0.014
-529.062	800.000	-0.125	-0.351
-528.048	-200.000	-0.001	0.023
-527.033	415.702	0.125	0.266
-526.018	-200.000	-0.022	0.326
-525.004	-25.784	0.217	0.128
-523.989	800.000	0.023	-0.080
-522.975	310.026	0.050	-0.094
-521.960	-200.000	-0.014	0.490
-520.945	125.303	-0.131	-0.165
-519.931	800.000	-0.081	-0.263
-518.916	-115.885	-0.329	0.061
-517.902	208.683	0.126	-0.197
-516.887	800.000	0.069	0.233
-515.872	49.696	-0.156	0.147
-514.858	-200.000	0.004	0.176
-513.843	-109.983	0.157	0.033
-512.829	-10.017	-0.151	0.100
-511.814	-85.528	0.136	-0.042
-510.799	-66.234	-0.171	-0.068
-509.785	513.371	-0.099	-0.232
-508.770	10.750	0.238	-0.182
-507.756	87.375	0.149	0.165
-506.741	61.577	-0.162	-0.161
-505.726	800.000	-0.120	-0.382
-504.712	-92.301	-0.099	0.028
-503.697	-113.964	0.060	-0.012
-502.683	800.000	0.051	0.205
-501.668	-90.113	0.171	-0.050
-500.653	-70.412	0.188	0.071
-499.639	-143.430	-0.423	0.040
-498.624	-45.755	-0.273	-0.135
-497.610	-200.000	-0.093	0.407
-496.595	-4.614	-0.168	-0.116
-495.581	484.603	0.111	-0.253
-494.566	22.818	-0.344	0.282
-493.551	-38.650	0.067	0.035
-492.537	-84.615	0.380	-0.120
-491.522	70.312	-0.178	-0.183
-490.508	79.340	0.080	0.085
-489.493	-94.374	-0.189	-0.052
-488.478	-22.989	-0.075	-0.045
-487.464	56.802	0.102	-0.099
-486.449	322.211	0.064	0.123
-485.435	-149.143	0.342	-0.027
-484.420	-55.526	0.155	-0.070
-483.405	16.174	0.223	0.176
-482.391	223.504	-0.068	-0.110
-481.376	159.068	0.209	-0.291
-480.362	-110.368	0.193	-0.040
-479.347	-74.280	-0.089	-0.032
-478.332	-122.284	0.214	0.035
-477.318	-9.784	0.215	0.143
-476.303	-200.000	0.001	0.100
-475.289	-81.937	-0.216	0.070
-474.274	-173.468	-0.115	0.003
-473.259	2.786	-0.086	-0.062
-472.245	-14.863	0.280	0.180
-471.230	-32.406	-0.132	0.074
-470.216	-91.703	-0.039	0.011
-469.201	-41.079	0.152	0.078
-468.186	-37.317	0.077	0.041
-467.172	-60.595	0.151	0.064
-466.157	-123.588	-0.183	0.029
-465.143	-22.166	0.156	0.094
-464.128	143.445	-0.009	0.011
-463.113	-104.705	-0.063	0.014
-462.099	800.000	-0.092	0.297
-461.084	800.000	0.086	0.254
-460.070	-188.043	0.031	-0.000
-459.055	43.936	-0.363	-0.332
-458.040	184.993	0.062	-0.091
-457.026	-200.000	-0.037	-0.212
-456.011	-141.646	-0.315	0.032
-454.997	37.669	0.066	-0.058
-453.982	327.613	-0.143	-0.274
-452.968	130.304	-0.062	-0.080
-451.953	-200.000	0.047	-0.259
-450.938	-101.638	-0.203	-0.049
-449.924	-147.838	-0.104	-0.009
-448.909	800.000	-0.118	0.337
-447.895	34.773	0.094	0.082
-446.880	-40.105	-0.175	-0.091
-445.865	98.384	0.098	0.112
-444.851	-200.000	0.032	-0.204
-443.836	-39.518	0.157	0.082
-442.822	258.045	-0.079	-0.135
-441.807	-60.555	0.182	0.077
-440.792	800.000	0.014	-0.060
-439.778	-76.936	0.320	-0.112
-438.763	10.360	-0.386	-0.293
-437.749	283.030	0.212	0.380
-436.734	-35.710	-0.219	0.118
-435.719	14.536	-0.088	0.068
-434.705	3.896	0.068	0.049
-433.690	-123.965	0.089	-0.014
-432.676	278.775	0.045	-0.079
-431.661	41.333	0.210	-0.190
-430.646	-57.926	0.199	0.087
-429.632	-200.000	-0.043	-0.343
-428.617	-116.788	-0.377	0.069
-427.603	-200.000	0.004	0.131
-426.588	800.000	-0.073	-0.240
-425.573	38.302	0.180	-0.160
-424.559	-200.000	-0.000	-0.053
-423.544	-66.773	0.172	-0.068
-422.530	-25.061	-0.165	0.098
-421.515	800.000	-0.070	-0.208
-420.500	-27.494	0.228	-0.132
-419.486	-92.101	0.175	-0.049
-418.471	-14.520	-0.195	0.125
-417.457	-157.944	0.055	-0.003
-416.442	-115.615	-0.108	-0.020
-415.428	462.908	-0.044	-0.097
-414.413	76.820	-0.140	0.148
-413.398	53.177	0.118	0.113
-412.384	-200.000	0.008	-0.065
-411.369	-34.739	0.139	-0.076
-410.355	-158.708	-0.186	-0.011
-409.340	-200.000	-0.010	-0.137
-408.325	29.493	-0.105	-0.089
-407.311	325.796	0.051	-0.096
-406.296	800.000	0.006	-0.021
-405.282	-96.179	0.187	0.049
-404.267	-190.447	-0.345	0.004
-403.252	484.965	0.086	0.195
-402.238	-130.276	-0.396	-0.054
-401.223	-200.000	0.015	-0.228
-400.209	-200.000	0.027	-0.168
-399.194	800.000	-0.041	0.128
-398.179	672.001	0.192	0.497
-397.165	-200.000	-0.059	0.306
-396.150	-27.696	0.152	-0.088
-395.136	-200.000	-0.004	0.141
-394.121	280.010	-0.135	-0.240
-393.106	-200.000	-0.007	0.083
-392.092	-200.000	-0.028	-0.151
-391.077	800.000	0.047	-0.172
-390.063	101.263	0.312	-0.362
-389.048	-111.168	-0.315	0.064
-388.033	-134.089	-0.142	-0.017
-387.019	60.332	-0.224	0.221
-386.004	295.289	-0.140	-0.254
-384.990	-47.968	-0.219	-0.105
-383.975	-132.330	0.192	-0.025
-382.960	58.116	0.128	0.124
-381.946	-114.349	-0.073	-0.014
-380.931	-200.000	0.029	-0.157
-379.917	-84.716	-0.226	0.071
-378.902	800.000	-0.120	0.343
-377.888	422.209	0.098	0.209
-376.873	-117.394	-0.366	0.066
-375.858	-7.171	0.206	-0.139
-374.844	-112.371	-0.247	-0.049
-373.829	-50.506	0.072	0.034
-372.815	8.515	0.331	0.248
-371.800	-13.655	0.231	0.149
-370.785	-18.537	-0.203	-0.126
-369.771	29.264	0.111	0.094
-368.756	-192.375	0.312	-0.003
-367.742	-47.447	0.138	-0.067
-366.727	521.244	0.153	-0.356
-365.712	-36.044	0.163	0.087
-364.698	-165.573	-0.200	0.009
-363.683	550.600	-0.042	-0.099
-362.669	-7.428	0.407	0.274
-361.654	318.758	0.108	-0.204
-360.639	-200.000	-0.004	0.183
-359.625	141.379	0.181	0.238
-358.610	140.339	-0.022	-0.029
-357.596	268.024	-0.082	-0.144
-356.581	334.387	0.162	-0.311
-355.566	-200.000	0.020	0.092
-354.552	7.168	0.296	-0.220
-353.537	-128.582	-0.272	0.038
-352.523	-101.628	0.186	0.045
-351.508	-98.099	-0.278	-0.071
-350.493	118.513	0.081	0.100
-349.479	57.033	0.205	0.199
-348.464	-130.740	-0.176	-0.024
-347.450	800.000	-0.094	-0.318
-346.435	-200.000	-0.042	0.236
-345.420	23.253	0.057	0.046
-344.406	125.785	-0.097	0.122
-343.391	-36.466	-0.243	-0.130
-342.377	-23.448	0.120	-0.072
-341.362	-200.000	-0.019	0.250
-340.348	800.000	0.017	-0.066
-339.333	212.663	0.136	0.213
-338.318	-200.000	-0.000	0.157
-337.304	-118.645	-0.302	0.053
-336.289	252.310	0.128	0.216
-335.275	54.729	-0.121	-0.116
-334.260	50.380	-0.193	-0.181
-333.245	234.383	0.068	0.111
-332.231	-96.361	-0.072	0.019
-331.216	537.698	-0.118	0.278
-330.202	-134.992	0.121	-0.014
-329.187	800.000	0.068	-0.237
-328.172	-63.417	-0.272	0.111
-327.158	-200.000	-0.026	-0.165
-326.143	-110.676	-0.139	0.029
-325.129	-81.820	-0.369	-0.120
-324.114	-71.301	-0.226	-0.084
-323.099	288.731	-0.148	0.267
-322.085	2.576	0.135	0.097
-321.070	179.443	0.140	0.204
-320.056	800.000	0.056	0.201
-319.041	66.667	-0.111	0.112
-318.026	43.391	0.203	-0.184
-317.012	715.231	0.143	-0.376
-315.997	800.000	-0.041	0.158
-314.983	-84.793	0.439	-0.137
-313.968	-200.000	-0.043	-0.294
-312.953	-29.669	-0.278	0.158
-311.939	-77.065	-0.357	0.124
-310.924	800.000	-0.032	-0.097
-309.910	-157.539	0.436	-0.026
-308.895	-200.000	-0.011	0.408
-307.880	-119.981	0.121	0.021
-306.866	418.316	-0.140	0.298
-305.851	-35.841	-0.248	-0.133
-304.837	36.854	-0.284	-0.249
-303.822	388.038	0.167	-0.343
-302.807	90.060	0.210	0.233
-301.793	101.713	-0.113	-0.131
-300.778	-113.944	-0.198	0.038
-299.764	131.531	0.164	-0.209
-298.749	18.800	-0.160	0.127
-297.735	9.251	0.083	0.062
-296.720	-132.473	0.160	-0.020
-295.705	800.000	0.063	0.196
-294.691	-102.659	-0.188	0.045
-293.676	-79.050	0.198	0.067
-292.662	-38.767	-0.108	0.057
-291.647	-84.557	-0.186	-0.058
-290.632	2.107	-0.071	0.051
-289.618	-200.000	0.040	0.244
-288.603	-60.028	0.215	0.091
-287.589	-200.000	-0.076	0.000
-286.574	-51.850	0.084	0.039
-285.559	-200.000	0.042	0.267
-284.545	25.655	0.180	0.149
-283.530	-200.000	0.005	-0.095
-282.516	299.256	0.153	0.279
-281.501	-168.355	0.052	0.002
-280.486	-96.785	0.315	0.082
-279.472	-6.878	-0.230	0.155
-278.457	-54.631	-0.174	0.078
-277.443	-200.000	0.029	-0.346
-276.428	-181.814	-0.111	0.002
-275.413	-136.529	0.078	0.009
-274.399	-78.909	-0.165	0.056
-273.384	800.000	-0.107	-0.310
-272.370	800.000	0.088	0.367
-271.355	94.862	0.110	-0.125
-270.340	781.497	-0.130	-0.353
-269.326	-62.656	0.216	0.089
-268.311	-33.035	-0.155	-0.085
-267.297	252.710	0.166	-0.281
-266.282	-92.533	0.244	0.068
-265.267	800.000	0.058	0.161
-264.253	-200.000	0.003	-0.214
-263.238	220.807	-0.038	0.061
-262.224	242.526	-0.218	0.362
-261.209	-200.000	0.013	-0.077
-260.195	-80.316	0.428	-0.142
-259.180	800.000	-0.047	-0.202
-258.165	-127.503	0.143	-0.021
-257.151	11.375	-0.116	0.088
-256.136	800.000	-0.122	-0.350
-255.122	571.484	-0.036	-0.087
-254.107	269.019	0.072	0.126
-253.092	350.802	-0.095	-0.187
-252.078	-131.539	0.163	-0.021
-251.063	-10.182	-0.066	0.043
-250.049	-17.932	-0.179	0.111
-249.034	-168.925	0.301	0.011
-248.019	281.104	0.174	-0.308
-247.005	209.814	-0.103	0.161
-245.990	-94.030	0.050	-0.013
-244.976	-150.374	0.437	0.033
-243.961	78.660	-0.125	-0.132
-242.946	-200.000	0.020	0.227
-241.932	800.000	-0.055	-0.182
-240.917	-200.000	0.043	-0.280
-239.903	-85.001	-0.135	0.042
-238.888	132.553	0.133	-0.169
-237.873	-53.797	0.105	0.047
-236.859	74.214	-0.203	-0.211
-235.844	573.685	-0.161	-0.389
-234.830	-101.355	0.092	0.022
-233.815	800.000	0.016	-0.069
-232.800	-117.422	-0.115	0.021
-231.786	-200.000	0.009	-0.069
-230.771	-133.337	-0.077	-0.010
-229.757	800.000	0.061	0.233
-228.742	800.000	0.014	0.041
-227.727	-120.409	0.154	0.026
-226.713	-160.570	-0.140	-0.007
-225.698	57.255	0.120	0.115
-224.684	-94.033	-0.284	-0.077
-223.669	-166.971	0.393	0.016
-222.655	-36.625	-0.127	0.068
-221.640	-130.247	0.418	-0.056
-220.625	-200.000	-0.028	0.393
-219.611	70.685	-0.143	0.146
-218.596	123.193	0.374	-0.463
-217.582	-123.824	0.193	0.030
-216.567	-28.994	-0.270	0.153
-215.552	-37.308	0.330	0.174
-214.538	-200.000	0.028	-0.184
-213.523	17.752	0.370	-0.291
-212.509	-102.671	-0.108	-0.025
-211.494	-142.755	0.066	-0.006
-210.479	486.093	0.056	0.126
-209.465	-200.000	0.078	-0.340
-208.450	77.858	0.159	0.168
-207.436	800.000	0.031	-0.125
-206.421	326.285	-0.246	-0.466
-205.406	145.366	0.278	0.367
-204.392	85.189	-0.304	-0.330
-203.377	800.000	-0.091	-0.313
-202.363	256.874	-0.097	0.165
-201.348	-70.933	0.467	-0.174
-200.333	592.209	-0.014	0.034
-199.319	-200.000	-0.019	0.105
-198.304	-84.890	-0.101	-0.031
-197.290	800.000	0.066	0.269
-196.275	800.000	-0.052	-0.165
-195.260	800.000	-0.154	0.513
-194.246	-86.283	0.220	0.067
-193.231	27.434	0.091	-0.076
-192.217	-58.984	-0.058	0.025
-191.202	169.520	0.051	-0.072
-190.187	-45.041	0.150	0.074
-189.173	459.799	-0.072	-0.158
-188.158	-108.599	-0.030	0.006
-187.144	-162.914	0.253	-0.012
-186.129	-51.961	0.093	-0.043
-185.114	228.424	-0.103	0.166
-184.100	-1.573	0.075	-0.052
-183.085	-9.859	0.103	0.068
-182.071	255.650	0.062	-0.105
-181.056	-98.890	0.130	-0.033
-180.042	231.279	0.177	0.286
-179.027	-127.441	0.092	0.013
-178.012	82.959	0.171	-0.183
-176.998	-96.968	0.217	-0.056
-175.983	-52.658	-0.204	-0.093
-174.969	-122.309	0.190	0.031
-173.954	206.579	-0.143	-0.220
-172.939	-200.000	-0.001	0.131
-171.925	519.363	0.014	0.033
-170.910	76.344	-0.106	0.111
-169.896	800.000	0.053	0.191
-168.881	135.468	0.053	0.068
-167.866	-149.823	-0.288	0.022
-166.852	-95.821	0.121	0.032
-165.837	286.918	0.252	-0.449
-164.823	-200.000	-0.062	-0.284
-163.808	-119.953	-0.217	0.037
-162.793	90.298	-0.114	-0.126
-161.779	-200.000	0.012	-0.067
-160.764	-2.676	-0.063	0.043
-159.750	-175.937	-0.383	-0.010
-158.735	121.734	0.200	0.246
-157.720	62.781	0.095	0.094
-156.706	-27.951	-0.170	0.097
-155.691	-104.886	0.267	0.060
-154.677	-192.222	0.098	0.001
-153.662	267.722	-0.167	0.288
-152.647	-164.755	-0.206	-0.009
-151.633	-200.000	0.033	0.248
-150.618	44.383	0.096	0.087
-149.604	800.000	-0.021	0.084
-148.589	73.485	0.112	-0.116
-147.574	-20.735	0.142	0.086
-146.560	111.827	0.167	0.199
-145.545	-123.115	0.101	-0.016
-144.531	800.000	0.032	0.137
-143.516	-180.920	-0.162	-0.003
-142.502	280.216	0.081	0.142
-141.487	-46.054	-0.118	0.057
-140.472	-200.000	0.064	0.600
-139.458	-200.000	-0.002	0.181
-138.443	-23.942	-0.093	0.055
-137.429	-87.158	0.273	0.082
-136.414	-35.297	-0.169	0.091
-135.399	156.514	-0.102	0.138
-134.385	-200.000	0.020	-0.229
-133.370	-1.437	0.242	-0.169
-132.356	262.469	0.043	-0.073
-131.341	18.613	-0.209	-0.165
-130.326	-177.278	-0.133	-0.003
-129.312	335.905	0.144	-0.276
-128.297	20.019	0.180	0.143
-127.283	-68.007	-0.179	-0.069
-126.268	-61.809	-0.209	0.086
-125.253	-100.280	0.191	0.047
-124.239	404.770	-0.206	0.427
-123.224	770.456	0.157	0.422
-122.210	-95.246	-0.264	0.070
-121.195	-23.911	-0.081	-0.048
