DTS Sentinel unit serial number:	SN413079Multiplexer serial number:	ORYXHardware model number:	OX4-SRSoftware version number:	ORYX F/W v4.00 Oryx Data Collector v3.7.2.0data status	okinstallation	princeton_trtdifferential loss correction	single-endedforward channel	channel 2reverse channel	N/Adate	2019/09/12time	07:49:11forward acquisition time	60.00reverse acquisition time	0.00gamma	496.2192k internal	0.2321k external	0.2321temperature offset calibration	1.0061default loss term (dB/km)	0.3790temperature slope calibration	1.0000multiplexer offset coefficient	1.0000multiplexer slope coefficient	1.0000fibre end	0.00T internal ref (°C)	32.86T ext. ref 1 (°C)	1.64T ext. ref 2 (°C)	28.92length (m)	temperature (°C)	Stokes	anti-Stokes-747.200	800.000	0.061	0.234
-746.185	-35.878	0.219	0.120
-745.171	-118.978	-0.152	0.027
-744.156	65.402	0.137	0.140
-743.142	800.000	-0.053	-0.230
-742.127	230.012	0.019	0.031
-741.112	-31.163	0.126	0.072
-740.098	800.000	0.090	0.285
-739.083	44.972	-0.237	0.221
-738.069	-96.784	-0.056	-0.015
-737.054	8.932	-0.114	-0.087
-736.039	114.340	-0.068	-0.084
-735.025	800.000	-0.116	0.387
-734.010	-139.806	0.057	0.006
-732.996	-200.000	-0.034	0.168
-731.981	155.858	-0.155	0.215
-730.966	182.063	-0.047	0.069
-729.952	-62.579	-0.223	-0.093
-728.937	42.607	0.251	0.231
-727.923	-12.519	-0.362	-0.239
-726.908	20.622	-0.286	-0.234
-725.894	146.114	0.196	-0.265
-724.879	-29.273	0.352	-0.203
-723.864	95.963	0.261	0.301
-722.850	-23.957	0.047	0.029
-721.835	-36.565	-0.109	0.059
-720.821	-111.959	0.162	0.033
-719.806	-82.466	-0.333	-0.109
-718.791	-200.000	-0.044	0.267
-717.777	93.413	0.185	0.211
-716.762	157.425	-0.123	-0.172
-715.748	10.966	-0.160	0.123
-714.733	98.809	-0.228	0.266
-713.718	-82.065	0.122	-0.040
-712.704	694.767	0.028	-0.075
-711.689	-100.676	-0.209	-0.052
-710.675	-80.003	0.288	-0.098
-709.660	-109.327	-0.243	0.052
-708.645	-82.023	-0.275	0.091
-707.631	-200.000	-0.012	0.139
-706.616	800.000	-0.106	-0.401
-705.602	125.655	0.236	-0.301
-704.587	528.121	-0.196	-0.467
-703.572	-49.856	-0.128	-0.061
-702.558	696.574	0.114	0.302
-701.543	-117.853	-0.226	-0.041
-700.529	-101.630	0.228	-0.056
-699.514	-149.523	0.026	0.002
-698.499	17.950	0.146	-0.118
-697.485	6.351	0.156	0.117
-696.470	-200.000	0.006	-0.213
-695.456	721.337	-0.048	0.128
-694.441	355.064	-0.131	-0.263
-693.426	-160.990	0.170	0.009
-692.412	309.487	0.127	-0.239
-691.397	800.000	0.054	-0.191
-690.383	518.715	0.091	-0.215
-689.368	6.396	-0.139	-0.104
-688.354	-200.000	-0.035	0.200
-687.339	-105.604	0.264	-0.060
-686.324	-113.252	-0.190	-0.038
-685.310	-105.332	-0.353	0.081
-684.295	-200.000	-0.006	0.065
-683.281	-60.370	-0.336	0.144
-682.266	-177.453	0.275	0.007
-681.251	-164.554	-0.129	0.006
-680.237	-200.000	0.041	-0.197
-679.222	-200.000	0.046	0.279
-678.208	382.685	0.085	-0.175
-677.193	178.497	-0.036	-0.052
-676.178	-88.202	0.147	-0.044
-675.164	32.196	0.080	-0.070
-674.149	-14.676	-0.097	-0.063
-673.135	223.983	0.112	0.182
-672.120	236.495	-0.091	-0.152
-671.105	166.296	-0.129	-0.184
-670.091	-200.000	0.013	0.365
-669.076	-13.479	0.111	-0.073
-668.062	179.462	0.212	-0.313
-667.047	-27.653	-0.126	0.074
-666.032	-102.305	0.255	-0.062
-665.018	-157.837	0.329	-0.020
-664.003	-29.057	-0.390	0.226
-662.989	164.536	0.082	-0.116
-661.974	416.951	-0.090	0.193
-660.959	-200.000	-0.012	-0.391
-659.945	106.564	0.159	0.190
-658.930	97.402	-0.201	0.233
-657.916	201.058	-0.149	0.231
-656.901	75.022	-0.126	-0.133
-655.886	-200.000	0.052	0.244
-654.872	-200.000	0.059	-0.422
-653.857	-150.385	0.314	-0.024
-652.843	-200.000	-0.014	0.098
-651.828	-37.231	-0.196	0.106
-650.814	112.603	-0.271	0.330
-649.799	344.104	0.165	0.325
-648.784	286.688	0.178	-0.324
-647.770	44.525	0.209	-0.193
-646.755	-200.000	0.043	-0.334
-645.741	800.000	-0.102	-0.286
-644.726	-15.934	0.221	0.142
-643.711	-55.412	0.172	-0.078
-642.697	44.801	-0.238	-0.220
-641.682	-90.775	-0.217	-0.063
-640.668	37.526	0.112	-0.100
-639.653	-191.676	-0.329	-0.003
-638.638	-200.000	0.050	0.313
-637.624	368.583	-0.141	-0.286
-636.609	-187.270	-0.030	0.000
-635.595	-127.155	-0.219	0.032
-634.580	12.682	-0.107	0.084
-633.565	-99.660	0.153	0.039
-632.551	83.331	0.104	-0.114
-631.536	-37.916	-0.386	-0.206
-630.522	-46.560	0.231	0.114
-629.507	-78.950	-0.209	-0.071
-628.492	134.329	-0.202	-0.263
-627.478	-85.121	0.187	0.059
-626.463	-170.970	0.289	0.010
-625.449	-110.823	0.276	0.057
-624.434	4.126	0.244	0.180
-623.419	72.890	-0.218	-0.229
-622.405	-99.636	-0.054	-0.014
-621.390	-62.632	-0.289	-0.121
-620.376	110.918	0.102	-0.123
-619.361	52.505	-0.175	-0.168
-618.346	115.741	0.004	-0.005
-617.332	779.972	0.042	-0.114
-616.317	60.257	0.133	-0.132
-615.303	-95.975	-0.060	-0.016
-614.288	59.570	0.072	0.071
-613.273	-200.000	-0.015	0.255
-612.259	-165.893	-0.202	0.009
-611.244	-200.000	-0.059	0.329
-610.230	79.374	-0.143	0.155
-609.215	-200.000	0.032	0.250
-608.201	498.617	0.037	-0.087
-607.186	538.748	-0.072	0.172
-606.171	-200.000	-0.009	-0.231
-605.157	-200.000	0.030	-0.314
-604.142	223.420	0.152	-0.246
-603.128	100.057	0.064	-0.075
-602.113	486.679	-0.090	-0.207
-601.098	-90.443	-0.154	0.045
-600.084	14.151	0.152	-0.119
-599.069	116.263	0.156	0.192
-598.055	-120.131	-0.091	0.016
-597.040	-200.000	-0.032	-0.272
-596.025	12.667	0.164	-0.127
-595.011	408.189	-0.120	0.255
-593.996	-8.268	0.235	-0.159
-592.982	-17.849	0.136	0.086
-591.967	-200.000	0.042	0.231
-590.952	-200.000	0.064	0.430
-589.938	-200.000	-0.037	-0.178
-588.923	-200.000	0.007	0.049
-587.909	98.085	-0.216	0.250
-586.894	-200.000	-0.008	-0.045
-585.879	496.439	-0.053	0.122
-584.865	-77.663	0.489	-0.170
-583.850	207.973	0.106	-0.167
-582.836	327.642	0.072	-0.139
-581.821	800.000	0.036	-0.133
-580.806	-32.382	0.325	0.182
-579.792	21.620	-0.118	0.097
-578.777	-151.562	0.192	-0.014
-577.763	397.397	-0.057	0.120
-576.748	259.721	-0.177	0.307
-575.733	12.558	0.057	0.044
-574.719	-115.306	-0.298	-0.057
-573.704	-200.000	-0.029	0.384
-572.690	260.312	-0.168	0.291
-571.675	-27.142	-0.233	-0.137
-570.661	-155.069	-0.163	-0.011
-569.646	1.220	0.196	-0.141
-568.631	-200.000	-0.020	-0.122
-567.617	224.319	0.100	0.162
-566.602	-197.405	-0.333	-0.002
-565.588	-99.493	0.168	0.042
-564.573	-23.458	0.547	-0.330
-563.558	305.406	0.135	0.252
-562.544	33.615	-0.180	-0.157
-561.529	-200.000	-0.010	-0.079
-560.515	733.228	0.116	0.311
-559.500	-36.600	-0.382	0.206
-558.485	-200.000	-0.029	-0.309
-557.471	-65.894	0.262	-0.105
-556.456	-200.000	-0.066	0.339
-555.442	241.104	-0.084	0.141
-554.427	800.000	-0.032	0.093
-553.412	-200.000	0.010	0.291
-552.398	-54.032	0.320	-0.146
-551.383	373.738	-0.165	-0.336
-550.369	-200.000	-0.086	-0.471
-549.354	28.987	-0.321	-0.273
-548.339	224.181	-0.131	-0.213
-547.325	-21.362	-0.292	-0.179
-546.310	-117.985	-0.270	-0.048
-545.296	-89.930	0.342	-0.100
-544.281	-200.000	0.012	-0.194
-543.266	38.781	-0.216	0.194
-542.252	-131.746	-0.164	-0.022
-541.237	236.769	0.125	0.207
-540.223	-200.000	0.006	-0.322
-539.208	201.269	-0.090	-0.138
-538.193	504.429	-0.051	-0.118
-537.179	695.292	0.024	-0.063
-536.164	112.995	0.217	-0.264
-535.150	181.402	0.251	-0.370
-534.135	800.000	-0.024	-0.078
-533.121	126.922	0.184	-0.234
-532.106	4.686	-0.186	-0.137
-531.091	158.806	0.117	-0.162
-530.077	137.898	-0.263	0.346
-529.062	-86.944	0.251	-0.077
-528.048	597.919	0.008	0.019
-527.033	800.000	0.042	-0.170
-526.018	-129.672	0.321	0.044
-525.004	-200.000	0.028	-0.189
-523.989	800.000	0.032	-0.110
-522.975	-200.000	-0.024	0.252
-521.960	54.394	0.125	0.121
-520.945	-139.847	-0.249	0.026
-519.931	-37.788	0.245	0.131
-518.916	-200.000	0.040	-0.368
-517.902	293.224	-0.090	0.165
-516.887	228.754	0.145	0.237
-515.872	-118.848	0.218	-0.038
-514.858	-46.963	-0.208	-0.102
-513.843	139.246	-0.172	0.227
-512.829	258.645	0.067	0.115
-511.814	-200.000	0.006	-0.187
-510.799	-32.792	-0.060	-0.034
-509.785	-200.000	0.034	-0.255
-508.770	-47.295	-0.433	-0.211
-507.756	-200.000	-0.064	0.305
-506.741	-12.838	0.278	-0.181
-505.726	800.000	-0.084	-0.279
-504.712	-200.000	0.038	-0.266
-503.697	-200.000	0.055	-0.347
-502.683	-24.544	-0.259	0.154
-501.668	-54.187	-0.177	-0.081
-500.653	68.296	-0.136	0.140
-499.639	-67.313	-0.061	0.024
-498.624	-200.000	0.013	0.167
-497.610	589.017	0.072	-0.178
-496.595	-59.149	-0.070	0.030
-495.581	-200.000	0.006	0.181
-494.566	-200.000	-0.036	-0.261
-493.551	-2.263	0.329	-0.231
-492.537	42.469	-0.217	-0.198
-491.522	1.474	-0.192	-0.138
-490.508	668.193	-0.101	-0.261
-489.493	800.000	-0.092	-0.343
-488.478	-64.280	-0.116	0.047
-487.464	-116.560	0.399	-0.073
-486.449	-137.767	-0.274	-0.031
-485.435	456.452	0.087	-0.193
-484.420	-57.774	-0.355	0.156
-483.405	800.000	0.070	-0.283
-482.391	-58.956	0.185	0.080
-481.376	76.757	-0.228	-0.242
-480.362	21.692	-0.156	0.127
-479.347	-200.000	-0.030	0.201
-478.332	180.923	-0.244	0.358
-477.318	-24.232	0.345	-0.206
-476.303	-172.367	0.145	-0.005
-475.289	-84.074	0.172	0.055
-474.274	280.605	-0.169	-0.302
-473.259	385.254	-0.175	-0.361
-472.245	-45.287	-0.038	-0.019
-471.230	338.428	-0.076	-0.148
-470.216	245.528	-0.129	-0.218
-469.201	94.320	-0.088	0.100
-468.186	-130.651	-0.100	0.013
-467.172	28.840	-0.212	-0.180
-466.157	-37.471	0.198	-0.106
-465.143	-167.257	0.014	0.001
-464.128	-200.000	0.004	-0.233
-463.113	311.374	0.153	-0.287
-462.099	-60.484	0.077	0.033
-461.084	-110.402	-0.182	-0.038
-460.070	-200.000	-0.013	-0.069
-459.055	-110.910	-0.303	-0.062
-458.040	-171.525	0.314	-0.010
-457.026	-200.000	-0.043	0.209
-456.011	10.332	-0.165	0.126
-454.997	-8.891	-0.409	0.274
-453.982	800.000	-0.053	-0.158
-452.968	-84.975	0.543	0.170
-451.953	-25.332	0.237	0.140
-450.938	2.508	0.229	-0.166
-449.924	440.900	-0.025	-0.054
-448.909	-15.763	-0.362	-0.230
-447.895	382.408	0.027	-0.055
-446.880	-200.000	-0.052	-0.328
-445.865	-112.895	0.083	-0.016
-444.851	-73.665	-0.149	-0.054
-443.836	-50.906	0.129	0.061
-442.822	-58.224	-0.066	0.029
-441.807	-200.000	-0.007	0.144
-440.792	103.571	-0.223	0.262
-439.778	-24.065	0.268	-0.160
-438.763	-152.192	-0.180	0.013
-437.749	266.062	-0.094	0.163
-436.734	-32.377	-0.162	0.090
-435.719	-83.005	-0.266	-0.086
-434.705	488.277	0.060	-0.136
-433.690	-114.025	0.095	-0.018
-432.676	118.241	-0.054	0.066
-431.661	-64.719	0.086	-0.035
-430.646	-62.326	-0.433	0.180
-429.632	165.235	0.108	0.153
-428.617	-123.115	0.021	-0.003
-427.603	314.926	-0.106	0.199
-426.588	-44.917	-0.127	-0.063
-425.573	-200.000	0.173	-0.000
-424.559	-200.000	-0.016	-0.124
-423.544	-200.000	-0.010	0.108
-422.530	220.425	-0.061	-0.097
-421.515	48.579	0.067	0.062
-420.500	-140.186	0.197	0.021
-419.486	221.093	-0.167	-0.268
-418.471	-61.147	0.236	0.099
-417.457	51.786	0.221	0.210
-416.442	800.000	0.030	-0.116
-415.428	762.298	0.053	0.144
-414.413	-89.080	-0.057	-0.017
-413.398	206.547	0.158	-0.246
-412.384	-200.000	-0.002	-0.146
-411.369	-88.370	0.137	-0.041
-410.355	-54.885	0.129	0.058
-409.340	-40.967	-0.124	0.064
-408.325	-8.400	0.263	0.176
-407.311	-158.424	-0.207	0.012
-406.296	19.087	0.455	0.364
-405.282	230.775	-0.128	0.208
-404.267	-54.742	-0.120	0.054
-403.252	-157.643	-0.247	-0.015
-402.238	39.535	0.121	0.108
-401.223	-200.000	-0.043	-0.267
-400.209	-200.000	0.012	0.331
-399.194	-83.370	0.269	0.086
-398.179	62.063	0.189	-0.187
-397.165	125.032	0.191	-0.239
-396.150	465.397	0.112	0.251
-395.136	-57.301	-0.192	-0.084
-394.121	-141.316	-0.139	-0.014
-393.106	404.374	-0.109	0.228
-392.092	-200.000	-0.051	-0.237
-391.077	-200.000	0.041	0.278
-390.063	-130.926	0.250	0.033
-389.048	-148.880	0.100	-0.008
-388.033	-56.229	0.112	-0.049
-387.019	155.500	-0.056	0.077
-386.004	-128.684	-0.126	0.018
-384.990	222.648	0.133	0.214
-383.975	800.000	-0.067	-0.263
-382.960	-106.220	-0.220	-0.049
-381.946	-171.337	0.107	-0.004
-380.931	-200.000	0.001	0.042
-379.917	-70.213	0.371	-0.140
-378.902	-109.721	0.411	0.086
-377.888	-200.000	-0.035	-0.242
-376.873	-124.388	0.341	-0.053
-375.858	639.098	-0.112	-0.285
-374.844	-200.000	-0.006	-0.228
-373.829	-25.090	0.042	-0.025
-372.815	-0.992	0.115	-0.081
-371.800	-30.468	-0.198	-0.112
-370.785	-33.592	0.176	-0.097
-369.771	-200.000	0.027	0.156
-368.756	800.000	-0.125	0.370
-367.742	179.325	0.152	0.222
-366.727	63.630	-0.117	-0.117
-365.712	2.206	0.293	0.211
-364.698	800.000	-0.062	0.261
-363.683	800.000	-0.161	-0.456
-362.669	91.790	0.174	0.195
-361.654	75.902	-0.281	-0.296
-360.639	-84.867	0.292	-0.091
-359.625	-14.575	0.093	0.060
-358.610	-200.000	0.043	-0.217
-357.596	317.507	0.097	-0.183
-356.581	-200.000	-0.012	0.331
-355.566	68.569	-0.135	0.138
-354.552	-53.119	0.178	-0.082
-353.537	-70.419	0.302	-0.114
-352.523	-200.000	-0.008	0.351
-351.508	-8.603	-0.123	0.082
-350.493	-147.069	-0.141	-0.012
-349.479	-6.185	0.144	0.098
-348.464	-96.790	-0.154	0.040
-347.450	-200.000	-0.059	-0.380
-346.435	-200.000	-0.012	0.312
-345.420	-200.000	-0.007	-0.132
-344.406	-200.000	0.028	-0.176
-343.391	-118.664	-0.090	0.016
-342.377	-200.000	0.019	0.175
-341.362	-200.000	-0.041	-0.297
-340.348	800.000	0.094	-0.363
-339.333	-126.123	-0.313	-0.047
-338.318	-96.702	-0.140	-0.037
-337.304	-129.755	-0.299	0.041
-336.289	-84.295	-0.042	-0.013
-335.275	144.298	0.075	0.100
-334.260	-78.544	0.243	0.083
-333.245	9.758	0.032	0.024
-332.231	-200.000	0.020	-0.166
-331.216	201.946	-0.145	0.223
-330.202	800.000	0.140	0.437
-329.187	492.536	-0.024	0.055
-328.172	800.000	0.094	-0.347
-327.158	-101.326	0.045	-0.011
-326.143	-32.184	-0.163	-0.090
-325.129	24.759	-0.108	-0.089
-324.114	384.290	0.145	0.298
-323.099	727.492	-0.048	0.129
-322.085	550.166	0.072	-0.171
-321.070	-75.029	-0.115	-0.041
-320.056	107.193	-0.169	0.199
-319.041	450.003	0.090	0.198
-318.026	162.063	-0.267	-0.372
-317.012	-160.793	0.054	-0.003
-315.997	-17.233	0.068	-0.042
-314.983	-16.456	0.138	0.087
-313.968	730.698	0.038	-0.101
-312.953	800.000	-0.076	0.293
-311.939	167.485	-0.187	0.264
-310.924	41.405	-0.098	0.088
-309.910	167.824	0.135	0.191
-308.895	-171.593	0.488	-0.016
-307.880	-200.000	-0.004	0.261
-306.866	800.000	0.060	0.192
-305.851	396.587	-0.114	-0.236
-304.837	354.274	-0.158	0.312
-303.822	-95.828	0.295	0.078
-302.807	623.376	0.126	-0.315
-301.793	723.158	-0.087	0.229
-300.778	223.881	-0.104	-0.166
-299.764	628.948	-0.096	-0.241
-298.749	-157.381	0.196	-0.012
-297.735	67.701	0.208	0.211
-296.720	161.137	-0.179	-0.248
-295.705	-191.224	-0.303	0.003
-294.691	800.000	0.023	0.080
-293.676	459.559	-0.066	0.145
-292.662	-200.000	-0.007	0.224
-291.647	146.675	-0.294	0.392
-290.632	-200.000	0.033	0.238
-289.618	-200.000	0.026	0.229
-288.603	-122.440	-0.527	0.085
-287.589	-91.088	0.096	-0.027
-286.574	784.244	0.139	0.378
-285.559	-200.000	0.016	-0.308
-284.545	-200.000	-0.009	0.238
-283.530	-1.366	-0.173	0.121
-282.516	-200.000	-0.050	-0.233
-281.501	-200.000	0.016	0.287
-280.486	10.318	-0.126	0.095
-279.472	250.887	0.011	-0.019
-278.457	800.000	0.024	-0.088
-277.443	76.461	0.167	-0.176
-276.428	-200.000	0.031	0.159
-275.413	-130.605	-0.217	0.029
-274.399	-20.050	0.109	-0.067
-273.384	339.405	0.138	-0.268
-272.370	100.992	0.069	0.080
-271.355	-200.000	0.016	0.214
-270.340	-58.354	0.061	0.026
-269.326	-40.742	-0.149	-0.077
-268.311	-200.000	-0.023	0.126
-267.297	-111.249	-0.072	0.015
-266.282	-6.659	0.069	0.047
-265.267	-200.000	0.084	-0.372
-264.253	-11.792	-0.170	0.111
-263.238	416.400	-0.102	-0.215
-262.224	-200.000	0.043	-0.268
-261.209	-65.098	0.206	-0.083
-260.195	35.770	0.306	0.267
-259.180	13.127	-0.080	0.062
-258.165	188.283	0.120	0.177
-257.151	122.775	0.125	0.155
-256.136	280.825	-0.039	0.069
-255.122	-200.000	-0.025	-0.215
-254.107	334.952	-0.054	0.103
-253.092	-200.000	0.038	-0.202
-252.078	584.466	0.128	0.312
-251.063	-200.000	-0.021	0.137
-250.049	208.975	0.134	0.208
-249.034	-84.783	-0.112	-0.035
-248.019	-77.654	-0.251	0.086
-247.005	-125.171	-0.209	-0.032
-245.990	-50.867	-0.133	0.062
-244.976	21.326	0.198	0.159
-243.961	476.295	0.067	0.150
-242.946	-68.374	-0.222	0.085
-241.932	-200.000	0.033	0.356
-240.917	-54.421	-0.229	-0.103
-239.903	-8.234	0.071	-0.047
-238.888	46.942	-0.117	-0.108
-237.873	89.773	0.177	-0.196
-236.859	521.278	0.024	-0.055
-235.844	226.135	0.101	0.163
-234.830	-46.845	-0.384	-0.186
-233.815	22.395	0.142	-0.115
-232.800	800.000	0.044	0.167
-231.786	291.515	-0.063	0.113
-230.771	-13.862	-0.531	0.340
-229.757	-118.561	0.123	-0.022
-228.742	-200.000	-0.012	0.358
-227.727	-200.000	0.001	-0.046
-226.713	338.940	0.146	-0.282
-225.698	800.000	0.071	-0.210
-224.684	-200.000	0.043	-0.359
-223.669	-200.000	0.002	0.013
-222.655	41.218	0.125	0.112
-221.640	-59.206	0.058	-0.025
-220.625	32.010	0.066	-0.057
-219.611	126.386	0.235	-0.295
-218.596	-115.740	-0.117	-0.022
-217.582	-103.549	0.096	0.022
-216.567	-128.325	-0.137	-0.019
-215.552	11.657	-0.322	-0.244
-214.538	24.473	-0.269	0.220
-213.523	-97.228	-0.410	-0.106
-212.509	228.309	-0.117	-0.188
-211.494	505.920	-0.208	0.477
-210.479	511.677	-0.101	0.233
-209.465	638.917	0.173	0.435
-208.450	-17.410	0.303	0.189
-207.436	-75.719	0.776	0.273
-206.421	-8.290	-0.411	0.274
-205.406	-53.979	0.153	0.069
-204.392	-112.083	0.165	-0.033
-203.377	-144.857	0.075	0.007
-202.363	-181.969	0.223	-0.004
-201.348	-109.338	0.154	-0.032
-200.333	-3.381	-0.053	0.037
-199.319	-64.345	0.286	0.115
-198.304	-16.272	0.085	-0.053
-197.290	29.340	0.208	0.175
-196.275	-35.860	-0.055	0.030
-195.260	73.610	-0.087	-0.091
-194.246	-200.000	-0.025	-0.192
-193.231	351.621	-0.190	0.372
-192.217	49.021	0.245	0.227
-191.202	-93.196	-0.106	-0.029
-190.187	-200.000	0.003	0.051
-189.173	48.004	-0.106	0.098
-188.158	-200.000	0.040	0.315
-187.144	-17.781	-0.061	-0.038
-186.129	274.366	0.111	-0.194
-185.114	-87.848	0.253	-0.075
-184.100	173.392	-0.103	0.146
-183.085	800.000	-0.047	0.172
-182.071	-4.702	0.256	-0.175
-181.056	16.861	-0.296	-0.231
-180.042	64.712	0.057	0.057
-179.027	-200.000	-0.040	-0.197
-178.012	8.338	-0.048	-0.036
-176.998	137.146	-0.090	0.116
-175.983	-17.494	-0.265	0.165
-174.969	-200.000	-0.044	-0.341
-173.954	254.393	0.112	-0.189
-172.939	604.593	-0.072	0.176
-171.925	-200.000	-0.020	0.114
-170.910	182.746	-0.061	0.089
-169.896	800.000	0.123	0.374
-168.881	-135.304	0.191	-0.023
-167.866	-72.415	-0.265	-0.097
-166.852	54.157	0.185	0.176
-165.837	311.172	0.176	0.327
-164.823	21.281	-0.186	0.149
-163.808	800.000	0.054	0.166
-162.793	-97.028	-0.080	0.021
-161.779	-7.846	0.432	0.288
-160.764	-200.000	-0.008	0.038
-159.750	133.528	0.091	-0.116
-158.735	83.512	-0.136	0.146
-157.720	-49.158	-0.166	-0.078
-156.706	-200.000	-0.039	0.207
-155.691	28.276	0.339	-0.283
-154.677	6.634	0.193	0.142
-153.662	800.000	-0.044	0.121
-152.647	-181.913	-0.167	-0.003
-151.633	60.010	-0.314	-0.306
-150.618	99.104	0.146	-0.167
-149.604	-66.429	0.408	0.160
-148.589	227.530	-0.135	0.218
-147.574	800.000	0.106	0.423
-146.560	397.086	0.113	0.233
-145.545	435.172	-0.122	0.263
-144.531	-76.160	0.108	-0.038
-143.516	-9.876	-0.209	0.137
-142.502	-200.000	0.052	0.379
-141.487	206.473	-0.023	-0.036
-140.472	800.000	-0.072	0.247
-139.458	66.225	0.188	0.189
-138.443	327.311	-0.215	-0.407
-137.429	7.748	-0.103	-0.076
-136.414	336.445	-0.093	0.179
-135.399	800.000	-0.077	0.303
-134.385	130.774	-0.158	0.200
-133.370	-35.320	-0.271	-0.145
-132.356	-55.480	0.248	0.110
-131.341	-200.000	0.034	-0.331
-130.326	-200.000	-0.038	-0.390
-129.312	-200.000	-0.004	-0.041
-128.297	800.000	-0.025	0.101
-127.283	-200.000	-0.117	0.550
-126.268	147.035	-0.149	-0.198
-125.253	107.475	0.084	0.098
-124.239	-200.000	0.002	0.231
-123.224	49.032	-0.049	0.046
-122.210	-67.051	-0.369	0.144
