DTS Sentinel unit serial number:	SN413079Multiplexer serial number:	ORYXHardware model number:	OX4-SRSoftware version number:	ORYX F/W v4.00 Oryx Data Collector v3.7.2.0data status	okinstallation	princeton_trtdifferential loss correction	single-endedforward channel	channel 2reverse channel	N/Adate	2019/09/12time	05:17:10forward acquisition time	60.00reverse acquisition time	0.00gamma	496.2192k internal	0.2325k external	0.2325temperature offset calibration	1.0069default loss term (dB/km)	0.3790temperature slope calibration	1.0000multiplexer offset coefficient	1.0000multiplexer slope coefficient	1.0000fibre end	0.00T internal ref (°C)	31.86T ext. ref 1 (°C)	1.63T ext. ref 2 (°C)	27.33length (m)	temperature (°C)	Stokes	anti-Stokes-747.200	-164.474	0.413	0.019
-746.185	-200.000	-0.099	0.471
-745.171	800.000	-0.023	0.076
-744.156	-29.608	-0.254	0.146
-743.142	-200.000	-0.004	0.386
-742.127	800.000	-0.045	0.141
-741.112	132.442	0.136	0.177
-740.098	654.154	-0.098	0.253
-739.083	51.669	0.013	-0.012
-738.069	-91.259	0.110	0.032
-737.054	800.000	0.042	0.176
-736.039	728.650	-0.042	-0.112
-735.025	20.211	0.335	0.272
-734.010	-73.342	-0.300	-0.111
-732.996	800.000	0.038	-0.115
-731.981	77.409	-0.290	-0.311
-730.966	-69.346	-0.417	-0.161
-729.952	72.984	-0.345	-0.364
-728.937	255.807	-0.148	-0.256
-727.923	-122.138	-0.195	-0.032
-726.908	57.222	-0.168	0.165
-725.894	74.086	-0.135	0.142
-724.879	-166.859	-0.386	-0.016
-723.864	121.484	-0.099	0.125
-722.850	-200.000	0.007	0.380
-721.835	37.394	-0.307	0.274
-720.821	137.772	0.040	0.053
-719.806	-119.610	0.113	0.020
-718.791	66.258	-0.097	-0.100
-717.777	-85.187	-0.117	0.037
-716.762	-54.674	-0.111	-0.051
-715.748	-55.996	0.086	-0.039
-714.733	165.828	-0.123	-0.176
-713.718	-200.000	0.024	0.315
-712.704	277.978	0.128	-0.229
-711.689	-200.000	-0.070	-0.323
-710.675	191.362	0.056	0.085
-709.660	800.000	-0.007	-0.025
-708.645	611.573	-0.074	-0.187
-707.631	103.930	0.181	-0.214
-706.616	237.460	-0.143	-0.240
-705.602	547.589	-0.155	0.374
-704.587	203.470	0.117	0.182
-703.572	800.000	-0.069	-0.205
-702.558	-46.962	0.050	0.024
-701.543	-64.401	0.026	0.011
-700.529	136.792	-0.063	0.083
-699.514	-200.000	-0.020	0.225
-698.499	221.834	0.053	0.086
-697.485	440.718	-0.129	0.284
-696.470	800.000	-0.033	-0.127
-695.456	-62.456	-0.266	0.111
-694.441	-200.000	0.073	-0.336
-693.426	800.000	-0.144	0.496
-692.412	184.420	0.065	-0.097
-691.397	59.335	0.120	-0.119
-690.383	-200.000	0.024	-0.129
-689.368	-71.674	-0.363	-0.136
-688.354	-31.851	0.121	0.068
-687.339	-127.638	0.226	0.033
-686.324	105.856	0.184	0.219
-685.310	800.000	-0.051	-0.179
-684.295	-16.930	-0.315	-0.200
-683.281	800.000	-0.017	0.072
-682.266	19.966	0.039	-0.032
-681.251	-157.036	0.285	-0.017
-680.237	-200.000	0.008	-0.085
-679.222	-200.000	-0.079	-0.000
-678.208	31.468	-0.191	-0.165
-677.193	-184.170	-0.416	-0.007
-676.178	199.290	-0.057	-0.087
-675.164	116.750	-0.147	0.182
-674.149	-127.020	0.086	0.013
-673.135	-41.116	0.378	0.196
-672.120	-121.948	-0.198	-0.033
-671.105	11.705	-0.229	0.176
-670.091	169.861	-0.079	0.114
-669.076	-105.781	0.100	-0.023
-668.062	472.064	-0.088	0.199
-667.047	55.180	-0.082	0.080
-666.032	10.228	0.031	-0.023
-665.018	-98.646	-0.181	-0.047
-664.003	33.589	0.052	-0.046
-662.989	576.799	0.071	0.174
-661.974	-15.219	-0.141	-0.091
-660.959	12.696	0.089	-0.069
-659.945	291.165	0.121	0.221
-658.930	-200.000	-0.042	0.188
-657.916	-200.000	0.011	-0.216
-656.901	800.000	-0.055	-0.181
-655.886	-140.134	-0.126	0.013
-654.872	-28.045	-0.322	0.187
-653.857	-52.882	-0.277	0.128
-652.843	37.725	-0.075	-0.067
-651.828	-167.604	-0.359	-0.014
-650.814	800.000	-0.073	0.224
-649.799	-63.518	0.075	-0.031
-648.784	101.498	-0.098	0.114
-647.770	-200.000	0.045	0.270
-646.755	137.775	0.066	-0.087
-645.741	-200.000	-0.019	-0.122
-644.726	-124.564	-0.169	-0.026
-643.711	-200.000	-0.035	0.266
-642.697	800.000	-0.041	0.151
-641.682	27.270	0.054	-0.045
-640.668	274.441	0.020	0.036
-639.653	60.185	0.240	-0.238
-638.638	13.706	-0.081	-0.064
-637.624	-200.000	0.025	-0.267
-636.609	243.130	0.229	-0.385
-635.595	800.000	0.102	-0.322
-634.580	-200.000	0.001	-0.076
-633.565	-32.888	-0.237	0.132
-632.551	-200.000	0.008	-0.129
-631.536	-200.000	0.019	0.139
-630.522	-200.000	0.017	0.131
-629.507	302.367	0.156	-0.289
-628.492	393.422	-0.143	0.300
-627.478	-69.044	-0.246	-0.095
-626.463	-99.691	0.204	-0.051
-625.449	-113.507	-0.158	0.031
-624.434	375.436	-0.048	0.098
-623.419	-67.236	-0.132	-0.052
-622.405	800.000	0.079	-0.247
-621.390	142.510	0.026	-0.035
-620.376	778.576	-0.081	0.223
-619.361	-12.984	-0.233	0.152
-618.346	-114.395	0.143	-0.028
-617.332	800.000	0.009	-0.034
-616.317	-90.950	-0.184	-0.053
-615.303	27.158	0.231	-0.195
-614.288	-25.080	0.299	-0.178
-613.273	-8.393	0.277	0.187
-612.259	800.000	-0.054	0.173
-611.244	800.000	-0.065	0.191
-610.230	320.165	0.106	0.203
-609.215	88.201	-0.153	0.171
-608.201	-159.805	-0.110	-0.006
-607.186	800.000	0.048	-0.195
-606.171	-200.000	0.002	-0.272
-605.157	800.000	-0.038	0.160
-604.142	-48.583	-0.231	-0.111
-603.128	-27.893	0.206	0.120
-602.113	23.679	0.150	0.124
-601.098	800.000	-0.039	-0.132
-600.084	-131.441	-0.191	-0.025
-599.069	148.867	0.125	-0.170
-598.055	-57.151	0.082	0.036
-597.040	49.588	-0.103	0.097
-596.025	-46.908	0.222	0.109
-595.011	-21.906	-0.110	-0.067
-593.996	39.039	-0.263	-0.236
-592.982	-200.000	0.023	0.104
-591.967	-13.863	0.235	0.152
-590.952	-200.000	0.019	0.277
-589.938	52.166	-0.113	-0.108
-588.923	6.691	-0.114	0.085
-587.909	-200.000	0.006	0.203
-586.894	-73.851	-0.291	0.106
-585.879	-200.000	0.005	0.114
-584.865	200.537	0.176	-0.272
-583.850	-189.540	-0.317	-0.004
-582.836	-153.187	0.057	0.004
-581.821	-189.627	0.079	0.001
-580.806	146.052	-0.136	0.183
-579.792	-200.000	-0.019	0.209
-578.777	-16.932	-0.142	-0.090
-577.763	94.335	-0.236	0.268
-576.748	45.606	-0.193	0.179
-575.733	-69.799	-0.076	-0.029
-574.719	-83.812	-0.247	0.079
-573.704	-12.300	-0.235	0.154
-572.690	-108.040	-0.287	0.062
-571.675	755.031	0.054	0.146
-570.661	-200.000	0.050	0.329
-569.646	800.000	-0.041	-0.149
-568.631	-16.768	-0.443	-0.281
-567.617	16.744	0.092	-0.073
-566.602	57.776	-0.196	0.192
-565.588	-200.000	0.021	-0.175
-564.573	280.113	0.036	0.064
-563.558	553.671	-0.092	0.222
-562.544	-113.911	-0.295	0.057
-561.529	-89.897	-0.196	0.057
-560.515	-143.654	0.084	0.008
-559.500	66.772	0.181	0.184
-558.485	800.000	0.024	0.077
-557.471	68.670	-0.074	0.076
-556.456	60.459	0.131	-0.130
-555.442	55.988	-0.210	0.205
-554.427	414.797	0.114	-0.243
-553.412	-45.130	-0.335	-0.167
-552.398	199.998	0.095	0.146
-551.383	34.782	0.120	0.105
-550.369	-139.866	-0.064	0.007
-549.354	-75.314	-0.152	-0.054
-548.339	-101.760	-0.261	-0.063
-547.325	-88.993	-0.268	0.079
-546.310	247.411	-0.093	0.157
-545.296	-59.506	0.262	-0.113
-544.281	-67.659	-0.176	-0.069
-543.266	-200.000	-0.013	0.088
-542.252	-200.000	-0.019	-0.166
-541.237	-200.000	0.016	0.078
-540.223	571.273	-0.096	0.235
-539.208	-22.398	0.068	0.041
-538.193	119.946	0.169	-0.210
-537.179	360.512	-0.197	-0.395
-536.164	-200.000	-0.051	-0.356
-535.150	-132.127	-0.189	-0.025
-534.135	-77.267	-0.312	-0.109
-533.121	-139.478	-0.313	-0.033
-532.106	-62.225	-0.062	-0.026
-531.091	-13.267	-0.258	-0.167
-530.077	-200.000	0.004	0.262
-529.062	-117.767	-0.247	-0.044
-528.048	-14.211	-0.275	0.177
-527.033	0.897	0.163	0.117
-526.018	212.709	0.174	-0.274
-525.004	70.885	-0.163	-0.169
-523.989	-200.000	-0.008	0.074
-522.975	800.000	-0.023	-0.073
-521.960	-137.667	0.170	0.019
-520.945	-63.526	0.084	0.035
-519.931	-200.000	0.018	0.359
-518.916	20.087	0.036	-0.029
-517.902	-186.665	-0.526	0.007
-516.887	404.959	-0.092	-0.195
-515.872	61.186	-0.161	0.160
-514.858	48.453	-0.083	-0.078
-513.843	-71.804	-0.222	-0.083
-512.829	-125.184	0.277	0.042
-511.814	-56.114	0.079	0.035
-510.799	474.178	-0.080	-0.180
-509.785	519.166	0.060	0.141
-508.770	-170.385	0.126	-0.004
-507.756	147.835	-0.093	-0.126
-506.741	-30.861	0.179	0.101
-505.726	-66.374	0.434	0.173
-504.712	-200.000	0.045	0.240
-503.697	-45.013	0.242	0.120
-502.683	-140.866	-0.176	0.018
-501.668	-151.731	0.256	-0.019
-500.653	58.279	0.069	0.067
-499.639	-115.124	0.200	-0.038
-498.624	-62.167	0.198	0.082
-497.610	120.931	-0.175	-0.217
-496.595	-1.704	-0.100	0.070
-495.581	-109.000	-0.110	-0.023
-494.566	25.208	-0.135	-0.112
-493.551	430.387	0.068	-0.146
-492.537	-31.654	0.305	-0.171
-491.522	-110.822	-0.130	0.027
-490.508	800.000	0.079	-0.304
-489.493	-200.000	0.000	0.110
-488.478	364.148	0.079	-0.159
-487.464	-3.964	0.137	-0.095
-486.449	-200.000	-0.031	0.209
-485.435	-11.586	-0.028	0.019
-484.420	800.000	0.061	0.264
-483.405	-45.948	0.124	0.061
-482.391	-200.000	-0.038	-0.346
-481.376	608.557	-0.130	-0.323
-480.362	94.983	0.102	0.116
-479.347	45.921	0.197	0.182
-478.332	-48.637	-0.228	0.109
-477.318	-106.204	-0.338	0.076
-476.303	-200.000	0.004	0.091
-475.289	-34.053	0.213	-0.117
-474.274	-5.806	-0.289	-0.198
-473.259	-51.267	0.463	0.217
-472.245	-153.850	-0.191	0.013
-471.230	-13.663	-0.257	0.166
-470.216	205.168	0.013	0.020
-469.201	45.034	-0.319	-0.293
-468.186	-135.571	0.421	-0.050
-467.172	25.538	-0.155	-0.129
-466.157	-1.123	0.265	-0.187
-465.143	-200.000	-0.009	-0.218
-464.128	-61.721	0.210	-0.088
-463.113	-31.890	0.176	-0.099
-462.099	800.000	-0.023	-0.082
-461.084	-76.198	-0.292	0.103
-460.070	-200.000	-0.017	-0.087
-459.055	-75.180	0.200	0.071
-458.040	-198.041	0.104	0.001
-457.026	-106.810	-0.317	0.070
-456.011	220.992	0.107	0.172
-454.997	152.681	0.205	0.279
-453.982	212.159	-0.072	0.113
-452.968	57.621	-0.205	-0.200
-451.953	31.673	-0.103	0.088
-450.938	86.922	-0.170	-0.187
-449.924	800.000	0.074	0.222
-448.909	-111.943	0.105	-0.021
-447.895	-14.621	0.365	0.234
-446.880	-200.000	0.023	0.290
-445.865	-104.121	-0.113	-0.026
-444.851	416.590	0.098	-0.207
-443.836	-200.000	0.010	-0.078
-442.822	2.576	0.132	-0.095
-441.807	29.110	0.222	0.188
-440.792	800.000	-0.069	0.257
-439.778	-83.390	-0.076	0.024
-438.763	51.683	-0.350	-0.332
-437.749	24.580	-0.113	0.093
-436.734	148.701	0.119	-0.160
-435.719	-127.927	-0.216	0.031
-434.705	-200.000	0.010	-0.158
-433.690	27.871	0.250	0.210
-432.676	-93.945	-0.112	-0.031
-431.661	-78.972	-0.447	0.151
-430.646	99.707	-0.149	0.172
-429.632	171.485	0.128	-0.183
-428.617	-151.935	-0.094	0.007
-427.603	-104.769	0.057	0.013
-426.588	-150.455	-0.394	0.030
-425.573	800.000	0.058	0.207
-424.559	-200.000	0.005	0.050
-423.544	141.129	-0.121	-0.159
-422.530	-200.000	0.018	0.225
-421.515	-200.000	-0.021	0.329
-420.500	-41.420	-0.251	-0.129
-419.486	800.000	-0.042	-0.126
-418.471	800.000	-0.023	0.075
-417.457	800.000	0.073	-0.300
-416.442	-89.195	-0.325	0.096
-415.428	42.763	0.178	-0.162
-414.413	50.695	-0.193	-0.182
-413.398	-70.152	-0.105	-0.040
-412.384	-38.179	0.342	-0.181
-411.369	-91.711	-0.315	0.089
-410.355	73.668	0.252	-0.263
-409.340	-101.905	-0.245	-0.059
-408.325	-58.836	-0.258	-0.111
-407.311	-45.216	0.141	0.070
-406.296	-9.679	0.268	0.178
-405.282	514.892	0.071	0.165
-404.267	-200.000	-0.022	0.132
-403.252	-46.724	-0.222	-0.108
-402.238	46.711	-0.219	-0.203
-401.223	150.122	-0.115	-0.155
-400.209	-124.130	-0.460	0.072
-399.194	-107.976	-0.235	0.051
-398.179	70.524	0.175	-0.180
-397.165	-75.415	-0.259	-0.092
-396.150	-200.000	-0.005	0.120
-395.136	186.562	0.113	-0.167
-394.121	133.118	-0.170	-0.218
-393.106	-32.000	0.186	-0.104
-392.092	9.454	-0.101	0.076
-391.077	-95.119	0.042	0.011
-390.063	800.000	-0.045	0.161
-389.048	800.000	-0.044	-0.131
-388.033	-137.856	0.084	-0.009
-387.019	34.909	0.105	0.091
-386.004	296.169	-0.038	0.069
-384.990	69.941	0.109	-0.112
-383.975	-120.453	-0.105	-0.018
-382.960	800.000	0.074	-0.206
-381.946	-31.760	-0.127	-0.071
-380.931	60.810	0.058	0.058
-379.917	800.000	0.045	0.185
-378.902	-147.729	0.302	-0.025
-377.888	-200.000	0.004	0.093
-376.873	244.864	-0.107	0.180
-375.858	235.689	-0.184	0.302
-374.844	378.663	0.156	-0.317
-373.829	-32.239	-0.133	0.074
-372.815	179.908	-0.126	0.184
-371.800	-97.558	0.298	-0.077
-370.785	540.473	0.075	-0.179
-369.771	-136.593	0.342	0.039
-368.756	-97.174	-0.253	0.066
-367.742	49.385	-0.072	0.067
-366.727	547.770	-0.097	0.232
-365.712	-200.000	0.019	0.188
-364.698	-26.251	0.325	-0.190
-363.683	65.992	0.189	-0.191
-362.669	153.909	0.095	-0.130
-361.654	112.186	-0.223	-0.268
-360.639	-157.225	0.195	0.012
-359.625	-110.699	-0.198	-0.041
-358.610	230.781	0.095	-0.155
-357.596	0.793	0.178	0.126
-356.581	800.000	0.043	0.133
-355.566	-158.019	-0.117	0.007
-354.552	131.312	-0.080	0.102
-353.537	-124.991	0.356	0.054
-352.523	-145.981	0.231	0.020
-351.508	800.000	-0.126	-0.431
-350.493	-61.544	0.200	-0.084
-349.479	179.747	0.041	-0.059
-348.464	-68.019	-0.175	0.068
-347.450	-200.000	-0.007	0.143
-346.435	-200.000	0.021	-0.250
-345.420	800.000	0.118	-0.329
-344.406	20.478	-0.173	-0.139
-343.391	-88.377	-0.153	-0.046
-342.377	-8.419	-0.180	-0.120
-341.362	59.971	0.332	0.325
-340.348	417.441	0.062	-0.132
-339.333	-11.642	-0.048	0.031
-338.318	-200.000	-0.059	0.343
-337.304	-65.698	0.133	0.053
-336.289	129.803	-0.187	0.237
-335.275	-46.400	-0.176	0.086
-334.260	-165.891	-0.328	0.014
-333.245	-85.867	0.102	0.031
-332.231	-29.842	0.504	-0.285
-331.216	270.733	0.243	0.424
-330.202	439.261	0.103	0.223
-329.187	800.000	0.061	0.220
-328.172	226.052	0.018	-0.029
-327.158	12.316	0.296	0.227
-326.143	59.721	-0.062	-0.060
-325.129	800.000	0.030	0.106
-324.114	-22.215	0.058	-0.035
-323.099	-119.403	-0.377	0.065
-322.085	-200.000	0.020	-0.336
-321.070	111.527	-0.174	-0.208
-320.056	340.269	0.232	0.449
-319.041	705.045	-0.078	0.204
-318.026	800.000	-0.071	-0.241
-317.012	185.272	0.104	0.153
-315.997	38.595	-0.257	0.227
-314.983	-200.000	0.036	-0.197
-313.968	344.237	-0.161	0.312
-312.953	800.000	-0.091	0.375
-311.939	124.494	0.193	-0.241
-310.924	635.635	-0.052	-0.131
-309.910	-200.000	0.069	0.312
-308.895	120.752	0.105	0.129
-307.880	65.229	0.127	-0.128
-306.866	78.710	-0.101	-0.108
-305.851	-118.827	0.435	0.076
-304.837	-92.600	0.275	-0.077
-303.822	-114.114	-0.289	0.055
-302.807	120.039	0.029	-0.035
-301.793	800.000	0.063	-0.181
-300.778	6.108	0.141	-0.104
-299.764	-101.732	0.175	0.042
-298.749	2.333	-0.089	-0.064
-297.735	-51.786	0.209	0.097
-296.720	-200.000	0.005	-0.262
-295.705	-161.957	-0.331	-0.017
-294.691	-200.000	0.086	-0.539
-293.676	-200.000	-0.050	0.219
-292.662	600.213	0.121	-0.298
-291.647	-122.053	0.325	0.053
-290.632	517.076	0.102	-0.236
-289.618	-23.995	-0.389	0.230
-288.603	-51.045	0.335	0.156
-287.589	-181.401	-0.045	-0.001
-286.574	76.533	-0.166	-0.174
-285.559	-148.100	-0.180	-0.015
-284.545	-144.309	0.069	-0.006
-283.530	-83.607	-0.060	0.019
-282.516	304.726	-0.152	0.280
-281.501	130.378	-0.022	0.028
-280.486	-200.000	0.009	-0.167
-279.472	-31.131	0.189	-0.105
-278.457	-200.000	-0.013	0.169
-277.443	800.000	-0.087	0.339
-276.428	-101.038	0.600	0.146
-275.413	-200.000	-0.067	0.469
-274.399	757.276	-0.091	-0.243
-273.384	800.000	0.017	0.069
-272.370	476.528	0.024	-0.054
-271.355	67.441	0.172	0.174
-270.340	353.507	0.104	-0.204
-269.326	-200.000	-0.036	-0.346
-268.311	-22.801	0.224	-0.134
-267.297	106.150	0.206	-0.242
-266.282	-41.198	-0.107	0.055
-265.267	-200.000	-0.010	-0.049
-264.253	13.231	-0.368	0.282
-263.238	55.972	-0.280	-0.269
-262.224	-161.570	-0.049	-0.003
-261.209	700.695	-0.151	0.394
-260.195	-38.844	0.012	-0.006
-259.180	571.028	0.024	-0.057
-258.165	800.000	0.075	-0.243
-257.151	793.277	-0.006	-0.017
-256.136	-91.628	0.159	-0.045
-255.122	-200.000	-0.020	0.455
-254.107	-200.000	0.032	-0.140
-253.092	231.952	0.029	-0.047
-252.078	800.000	0.022	-0.063
-251.063	800.000	0.108	-0.341
-250.049	53.506	-0.086	-0.082
-249.034	27.665	-0.142	-0.118
-248.019	45.347	0.259	0.237
-247.005	-86.797	0.099	-0.030
-245.990	-136.743	0.146	-0.017
-244.976	800.000	0.026	-0.109
-243.961	-200.000	-0.003	0.032
-242.946	-71.372	-0.141	-0.052
-241.932	-192.038	-0.185	-0.002
-240.917	-75.753	0.304	-0.107
-239.903	11.117	-0.266	-0.201
-238.888	83.132	0.096	0.104
-237.873	-29.405	0.314	0.178
-236.859	-200.000	-0.005	0.142
-235.844	-75.757	-0.261	-0.092
-234.830	380.236	-0.108	-0.218
-233.815	-87.987	-0.293	-0.087
-232.800	525.183	0.050	-0.117
-231.786	603.096	-0.043	-0.106
-230.771	151.378	-0.092	-0.124
-229.757	763.938	0.146	0.391
-228.742	202.400	-0.119	-0.181
-227.727	-200.000	0.032	-0.252
-226.713	-40.571	0.299	-0.153
-225.698	77.581	-0.335	0.353
-224.684	-139.343	0.131	0.014
-223.669	528.833	-0.057	0.133
-222.655	-200.000	-0.023	-0.115
-221.640	-200.000	0.022	-0.250
-220.625	4.088	0.199	-0.144
-219.611	280.138	-0.024	0.043
-218.596	222.967	0.106	-0.169
-217.582	-99.668	0.611	-0.152
-216.567	305.335	-0.016	0.030
-215.552	20.049	0.144	0.115
-214.538	-60.750	-0.412	0.172
-213.523	16.972	-0.122	0.095
-212.509	800.000	-0.036	-0.106
-211.494	-200.000	0.015	0.108
-210.479	-200.000	0.003	-0.151
-209.465	800.000	-0.115	-0.315
-208.450	319.464	-0.053	-0.099
-207.436	26.726	0.308	-0.255
-206.421	-200.000	0.011	0.179
-205.406	-78.479	0.114	-0.038
-204.392	262.418	-0.038	0.065
-203.377	0.330	0.108	0.076
-202.363	-151.582	0.570	-0.042
-201.348	-59.762	0.245	-0.104
-200.333	800.000	0.057	0.200
-199.319	-200.000	0.034	0.218
-198.304	-189.301	-0.180	0.002
-197.290	-70.863	-0.075	0.028
-196.275	800.000	0.085	-0.323
-195.260	800.000	0.049	0.206
-194.246	-26.516	-0.153	0.088
-193.231	800.000	0.107	-0.350
-192.217	-118.122	0.224	0.039
-191.202	-120.457	-0.109	0.018
-190.187	-200.000	-0.410	-0.001
-189.173	-57.004	-0.055	0.024
-188.158	66.191	-0.029	-0.029
-187.144	800.000	-0.044	0.173
-186.129	-200.000	-0.014	0.202
-185.114	-153.356	0.123	0.008
-184.100	250.407	0.144	0.241
-183.085	-65.840	0.232	0.092
-182.071	23.224	0.347	-0.281
-181.056	188.067	0.091	0.134
-180.042	75.958	-0.141	-0.147
-179.027	-59.300	0.198	0.084
-178.012	73.582	-0.077	-0.080
-176.998	93.614	0.044	0.049
-175.983	-200.000	-0.006	0.079
-174.969	-200.000	-0.007	-0.168
-173.954	42.400	0.037	-0.033
-172.939	41.489	-0.238	-0.212
-171.925	418.360	-0.081	0.170
-170.910	-153.038	-0.162	0.011
-169.896	-112.210	-0.046	-0.009
-168.881	51.422	0.182	0.171
-167.866	-95.715	0.357	-0.094
-166.852	64.955	0.200	0.199
-165.837	253.405	-0.035	-0.059
-164.823	-15.204	0.235	0.148
-163.808	-156.915	0.317	0.019
-162.793	-161.466	0.435	0.022
-161.779	800.000	-0.095	-0.337
-160.764	38.943	0.098	0.086
-159.750	-200.000	0.058	0.281
-158.735	-200.000	0.045	-0.285
-157.720	99.254	0.321	0.366
-156.706	38.777	0.260	0.229
-155.691	-37.974	0.090	0.047
-154.677	-113.236	0.310	-0.060
-153.662	-102.369	-0.138	0.033
-152.647	-79.179	0.073	0.024
-151.633	-17.628	-0.287	-0.178
-150.618	-104.516	0.109	-0.025
-149.604	73.235	0.171	0.176
-148.589	800.000	0.059	0.223
-147.574	279.721	0.184	0.323
-146.560	-140.384	0.179	0.018
-145.545	800.000	-0.059	0.181
-144.531	-129.223	-0.163	0.022
-143.516	-200.000	0.026	0.147
-142.502	-15.281	0.075	-0.047
-141.487	-57.732	0.272	-0.117
-140.472	-168.618	-0.143	0.005
-139.458	-28.888	0.140	-0.079
-138.443	-130.700	-0.224	0.030
-137.429	800.000	0.040	0.172
-136.414	449.978	0.050	0.108
-135.399	130.412	0.140	0.177
-134.385	253.624	-0.048	0.081
-133.370	-119.317	-0.066	-0.011
-132.356	-140.586	-0.054	-0.005
-131.341	236.182	0.078	0.127
-130.326	-30.872	-0.111	0.062
-129.312	144.056	0.175	0.230
-128.297	-25.280	-0.205	0.119
-127.283	-200.000	-0.002	0.130
-126.268	199.775	0.106	0.160
-125.253	-125.555	0.286	0.043
-124.239	99.200	-0.121	-0.137
-123.224	-103.107	-0.303	-0.071
-122.210	55.594	0.193	0.184
-121.195	-140.500	0.100	-0.010
-120.180	-26.741	-0.118	0.068
