DTS Sentinel unit serial number:	SN413079Multiplexer serial number:	ORYXHardware model number:	OX4-SRSoftware version number:	ORYX F/W v4.00 Oryx Data Collector v3.7.2.0data status	okinstallation	princeton_trtdifferential loss correction	single-endedforward channel	channel 2reverse channel	N/Adate	2019/09/11time	10:09:11forward acquisition time	60.00reverse acquisition time	0.00gamma	496.2192k internal	0.2313k external	0.2313temperature offset calibration	0.9966default loss term (dB/km)	0.3790temperature slope calibration	1.0000multiplexer offset coefficient	1.0000multiplexer slope coefficient	1.0000fibre end	0.00T internal ref (°C)	35.69T ext. ref 1 (°C)	0.12T ext. ref 2 (°C)	33.33length (m)	temperature (°C)	Stokes	anti-Stokes-747.200	-200.000	0.014	-0.289
-746.185	294.938	0.125	0.231
-745.171	26.050	-0.052	-0.044
-744.156	-141.472	-0.598	0.061
-743.142	-165.768	-0.202	0.009
-742.127	12.468	0.258	0.201
-741.112	800.000	0.097	0.290
-740.098	35.060	-0.261	0.231
-739.083	276.215	-0.121	-0.218
-738.069	516.443	-0.114	-0.270
-737.054	370.575	-0.116	0.238
-736.039	-200.000	-0.024	-0.212
-735.025	-38.754	-0.096	-0.051
-734.010	550.805	-0.126	-0.307
-732.996	-132.688	0.098	-0.013
-731.981	-78.750	-0.143	-0.050
-730.966	43.939	-0.172	0.160
-729.952	-136.299	-0.283	-0.033
-728.937	627.307	-0.087	-0.223
-727.923	-200.000	-0.029	-0.276
-726.908	193.841	-0.117	-0.179
-725.894	-129.190	-0.209	-0.030
-724.879	4.936	-0.244	-0.182
-723.864	-114.265	-0.260	-0.051
-722.850	61.261	-0.203	-0.204
-721.835	-14.199	-0.269	0.176
-720.821	-49.338	0.134	0.065
-719.806	-2.341	-0.166	-0.118
-718.791	-200.000	-0.002	-0.268
-717.777	-52.799	0.382	-0.178
-716.762	-92.841	0.119	0.034
-715.748	-71.231	0.079	0.030
-714.733	-38.769	-0.268	0.143
-713.718	-142.746	0.250	-0.025
-712.704	800.000	-0.121	-0.452
-711.689	-200.000	0.012	-0.091
-710.675	-55.559	0.067	-0.030
-709.660	-177.340	0.037	-0.001
-708.645	-6.516	-0.108	-0.075
-707.631	800.000	-0.116	-0.353
-706.616	19.067	-0.023	0.019
-705.602	-200.000	-0.010	0.066
-704.587	-68.925	0.201	-0.078
-703.572	800.000	-0.064	0.197
-702.558	-200.000	0.031	-0.175
-701.543	6.858	0.427	0.322
-700.529	-139.096	-0.179	-0.020
-699.514	-91.039	0.224	-0.065
-698.499	-32.088	0.169	0.096
-697.485	297.190	-0.075	0.140
-696.470	459.021	0.106	-0.238
-695.456	-8.298	-0.189	0.129
-694.441	-200.000	-0.002	0.076
-693.426	800.000	-0.039	-0.165
-692.412	-15.420	-0.025	0.016
-691.397	-112.557	0.115	0.023
-690.383	65.860	0.090	-0.092
-689.368	360.681	-0.069	-0.140
-688.354	316.166	-0.102	-0.196
-687.339	-200.000	0.014	0.071
-686.324	-122.155	0.079	0.013
-685.310	-33.145	-0.111	0.062
-684.295	19.036	0.386	-0.313
-683.281	-200.000	0.006	0.168
-682.266	-200.000	-0.216	-0.000
-681.251	760.350	0.048	0.131
-680.237	43.825	0.298	-0.276
-679.222	-98.208	-0.234	0.061
-678.208	-188.560	-0.148	-0.002
-677.193	205.326	0.215	0.337
-676.178	-114.646	-0.101	-0.020
-675.164	255.108	0.127	-0.221
-674.149	245.415	0.020	-0.035
-673.135	800.000	0.053	-0.210
-672.120	-69.838	-0.380	-0.147
-671.105	231.976	0.176	-0.291
-670.091	-16.587	0.193	0.123
-669.076	800.000	-0.010	-0.040
-668.062	182.909	0.121	-0.181
-667.047	202.890	-0.174	0.273
-666.032	11.965	-0.149	-0.116
-665.018	743.577	0.038	0.103
-664.003	-175.315	0.238	0.007
-662.989	-6.816	0.073	-0.050
-661.974	61.014	-0.283	-0.284
-660.959	-78.509	-0.213	0.074
-659.945	800.000	-0.071	0.296
-658.930	-28.785	-0.231	0.134
-657.916	-200.000	-0.022	-0.246
-656.901	29.122	0.193	0.165
-655.886	-185.959	-0.203	-0.003
-654.872	-33.586	0.184	0.103
-653.857	-200.000	0.005	0.163
-652.843	-200.000	0.002	-0.134
-651.828	-148.860	-0.079	0.006
-650.814	-35.955	0.163	-0.089
-649.799	158.448	0.203	-0.284
-648.784	-176.725	-0.082	-0.002
-647.770	-121.416	-0.222	0.037
-646.755	326.820	-0.128	-0.249
-645.741	-200.000	-0.012	0.080
-644.726	761.283	-0.041	-0.112
-643.711	23.427	-0.180	-0.150
-642.697	296.265	0.079	-0.146
-641.682	-78.318	0.200	-0.069
-640.668	301.725	0.110	-0.206
-639.653	-39.547	-0.143	-0.076
-638.638	-200.000	-0.005	0.201
-637.624	765.066	0.076	0.208
-636.609	26.049	0.091	0.077
-635.595	-90.751	0.143	0.042
-634.580	-114.731	-0.164	0.032
-633.565	60.451	0.135	0.135
-632.551	87.369	0.093	-0.104
-631.536	20.571	0.063	-0.051
-630.522	159.052	-0.120	0.168
-629.507	-95.338	-0.260	0.071
-628.492	-99.572	0.219	-0.056
-627.478	-200.000	-0.016	-0.244
-626.463	713.771	0.048	0.128
-625.449	103.086	0.161	0.191
-624.434	-42.281	-0.153	0.079
-623.419	-200.000	0.013	0.198
-622.405	-9.134	-0.058	-0.039
-621.390	-198.731	0.356	-0.002
-620.376	528.829	0.011	-0.026
-619.361	246.689	0.017	-0.030
-618.346	59.658	-0.137	-0.136
-617.332	-133.192	0.110	-0.014
-616.317	-1.174	0.341	-0.243
-615.303	-24.854	-0.087	0.052
-614.288	-6.067	-0.082	-0.056
-613.273	390.014	-0.086	0.179
-612.259	11.695	-0.083	0.064
-611.244	159.196	0.073	-0.102
-610.230	-78.023	0.074	-0.026
-609.215	-42.123	-0.138	-0.071
-608.201	170.479	-0.153	-0.220
-607.186	407.308	0.104	-0.221
-606.171	-117.843	-0.191	0.035
-605.157	-96.091	-0.240	-0.064
-604.142	10.414	-0.134	-0.103
-603.128	-39.517	-0.088	0.047
-602.113	7.476	-0.246	0.186
-601.098	-42.124	0.128	-0.066
-600.084	66.205	-0.105	-0.107
-599.069	-200.000	-0.026	-0.123
-598.055	-80.973	0.166	0.055
-597.040	-200.000	-0.000	-0.091
-596.025	-200.000	0.018	-0.149
-595.011	-27.905	0.145	-0.085
-593.996	-200.000	0.042	-0.399
-592.982	87.161	-0.096	-0.107
-591.967	113.057	0.119	0.145
-590.952	-167.636	-0.265	-0.011
-589.938	25.014	0.129	0.108
-588.923	800.000	-0.106	0.381
-587.909	356.660	-0.214	-0.430
-586.894	489.816	0.026	-0.059
-585.879	104.150	-0.205	0.243
-584.865	579.549	0.135	0.334
-583.850	-155.966	-0.279	-0.018
-582.836	-49.818	-0.258	-0.123
-581.821	484.100	0.152	0.348
-580.806	-200.000	-0.567	0.001
-579.792	-4.456	0.063	0.044
-578.777	-83.023	0.087	-0.028
-577.763	51.387	0.158	0.151
-576.748	-8.707	-0.191	0.129
-575.733	-162.965	-0.224	0.011
-574.719	-200.000	-0.046	-0.297
-573.704	214.987	-0.292	-0.466
-572.690	800.000	0.084	-0.349
-571.675	-40.149	-0.322	0.169
-570.661	-200.000	0.048	-0.376
-569.646	305.888	-0.102	-0.192
-568.631	-63.951	0.493	0.203
-567.617	-118.108	-0.170	-0.031
-566.602	-200.000	0.273	-0.001
-565.588	-41.087	-0.211	-0.110
-564.573	-20.503	0.155	0.096
-563.558	-80.577	0.030	-0.010
-562.544	-200.000	0.020	0.162
-561.529	-74.389	-0.161	0.058
-560.515	-140.946	-0.051	0.005
-559.500	11.917	0.197	0.152
-558.485	-165.551	-0.364	-0.016
-557.471	-169.553	-0.220	-0.008
-556.456	85.979	0.097	0.108
-555.442	83.075	-0.263	0.288
-554.427	800.000	0.051	0.162
-553.412	-13.115	0.467	-0.305
-552.398	379.046	-0.156	-0.322
-551.383	40.828	0.071	-0.065
-550.369	800.000	-0.053	0.168
-549.354	-105.559	-0.132	-0.030
-548.339	-177.132	-0.103	-0.003
-547.325	239.417	0.073	-0.122
-546.310	-200.000	-0.024	-0.405
-545.296	61.512	-0.140	-0.140
-544.281	231.335	0.142	-0.234
-543.266	-158.432	0.250	-0.015
-542.252	800.000	-0.082	-0.236
-541.237	-28.377	0.106	0.061
-540.223	-200.000	-0.046	0.328
-539.208	-174.542	-0.151	-0.004
-538.193	212.530	-0.111	0.175
-537.179	-200.000	0.019	-0.178
-536.164	-15.952	-0.254	0.162
-535.150	665.348	0.108	0.281
-534.135	-95.710	-0.186	0.050
-533.121	800.000	-0.095	-0.303
-532.106	521.578	0.099	-0.234
-531.091	249.260	-0.093	-0.158
-530.077	-115.704	-0.258	0.049
-529.062	205.451	-0.088	0.138
-528.048	261.063	0.087	-0.151
-527.033	-85.136	-0.287	-0.090
-526.018	581.549	0.049	-0.121
-525.004	-139.314	0.236	0.025
-523.989	64.152	0.173	0.175
-522.975	-200.000	-0.002	-0.027
-521.960	-60.457	-0.121	0.052
-520.945	-200.000	-0.004	0.203
-519.931	-178.945	-0.173	-0.004
-518.916	-200.000	-0.039	0.279
-517.902	174.765	-0.116	0.168
-516.887	253.261	-0.149	-0.255
-515.872	275.381	0.128	-0.228
-514.858	-54.251	0.123	0.056
-513.843	-200.000	-0.007	-0.293
-512.829	163.781	-0.041	0.057
-511.814	277.017	0.168	0.300
-510.799	-200.000	0.009	0.059
-509.785	178.584	0.151	-0.221
-508.770	-200.000	-0.016	-0.131
-507.756	-99.494	-0.170	0.043
-506.741	800.000	0.039	0.165
-505.726	-99.537	0.118	0.030
-504.712	800.000	0.037	0.117
-503.697	480.669	-0.115	-0.262
-502.683	-200.000	-0.030	-0.358
-501.668	-200.000	-0.000	-0.170
-500.653	-49.245	0.096	0.046
-499.639	73.261	-0.182	-0.192
-498.624	-200.000	0.008	-0.072
-497.610	-40.879	-0.090	-0.047
-496.595	-200.000	0.126	0.597
-495.581	153.609	-0.117	0.161
-494.566	-38.238	0.154	0.082
-493.551	-170.450	0.285	0.010
-492.537	-3.275	-0.102	-0.071
-491.522	614.097	0.060	-0.150
-490.508	-125.290	0.137	0.021
-489.493	129.908	-0.078	0.101
-488.478	32.272	-0.209	0.181
-487.464	800.000	0.128	0.363
-486.449	300.000	-0.084	-0.155
-485.435	32.035	-0.026	0.023
-484.420	246.324	0.190	0.321
-483.405	13.620	0.222	-0.173
-482.391	-163.221	0.244	-0.012
-481.376	-98.785	-0.385	0.098
-480.362	-200.000	0.058	-0.333
-479.347	-1.003	-0.301	-0.214
-478.332	35.203	0.153	0.134
-477.318	-35.987	0.199	0.108
-476.303	137.070	0.119	0.157
-475.289	100.430	0.193	0.225
-474.274	467.286	0.041	0.092
-473.259	800.000	0.100	-0.329
-472.245	-55.336	-0.165	0.074
-471.230	-61.608	-0.328	-0.138
-470.216	-200.000	0.027	-0.135
-469.201	-64.550	-0.101	0.041
-468.186	-143.289	-0.022	-0.002
-467.172	-67.940	0.057	-0.022
-466.157	6.322	0.195	-0.145
-465.143	-200.000	-0.026	-0.217
-464.128	3.123	-0.260	-0.190
-463.113	184.184	-0.132	0.196
-462.099	-178.266	-0.263	0.006
-461.084	231.537	0.051	0.084
-460.070	-95.643	0.192	0.051
-459.055	575.863	0.051	-0.125
-458.040	800.000	-0.052	-0.210
-457.026	78.721	0.122	-0.131
-456.011	-200.000	0.003	-0.187
-454.997	-200.000	-0.064	-0.296
-453.982	413.622	-0.106	-0.227
-452.968	-102.922	-0.294	0.070
-451.953	238.444	0.044	-0.073
-450.938	-36.782	0.401	0.216
-449.924	-162.714	-0.260	-0.013
-448.909	108.806	-0.061	0.073
-447.895	-129.035	0.125	0.018
-446.880	33.793	0.152	0.133
-445.865	-200.000	-0.003	-0.415
-444.851	-200.000	-0.023	0.284
-443.836	-200.000	0.064	0.330
-442.822	28.530	-0.175	-0.148
-441.807	-97.294	0.153	-0.040
-440.792	-77.891	-0.194	0.067
-439.778	233.586	-0.083	-0.136
-438.763	-31.525	0.153	-0.086
-437.749	-63.255	-0.154	0.064
-436.734	-119.375	-0.160	0.028
-435.719	-137.915	-0.202	0.023
-434.705	-200.000	-0.003	0.217
-433.690	19.633	0.257	-0.207
-432.676	320.459	-0.116	-0.220
-431.661	-26.251	0.046	0.027
-430.646	22.535	-0.195	-0.160
-429.632	-80.608	0.142	0.047
-428.617	-38.848	0.298	0.157
-427.603	-108.263	0.431	0.093
-426.588	800.000	0.067	-0.231
-425.573	67.392	-0.241	-0.246
-424.559	-160.650	-0.299	-0.016
-423.544	-132.759	0.152	-0.019
-422.530	-75.767	0.363	0.129
-421.515	46.773	0.032	0.029
-420.500	38.129	-0.141	0.126
-419.486	-172.967	0.204	0.006
-418.471	281.067	0.126	0.225
-417.457	800.000	-0.042	0.147
-416.442	238.900	0.034	0.057
-415.428	800.000	0.028	0.092
-414.413	87.323	0.081	0.090
-413.398	-62.465	-0.104	0.043
-412.384	-200.000	-0.098	-0.448
-411.369	-0.084	0.116	0.083
-410.355	-90.286	-0.318	0.092
-409.340	365.750	0.044	-0.089
-408.325	462.729	-0.041	0.091
-407.311	-111.606	0.256	-0.052
-406.296	298.445	0.123	0.226
-405.282	-200.000	-0.006	-0.212
-404.267	-200.000	0.005	0.052
-403.252	-69.646	0.158	-0.061
-402.238	385.761	-0.032	0.067
-401.223	-145.879	0.168	0.015
-400.209	110.018	-0.045	0.053
-399.194	800.000	-0.020	0.072
-398.179	-140.604	-0.304	0.032
-397.165	-200.000	0.028	0.274
-396.150	277.472	-0.023	-0.041
-395.136	81.856	0.167	-0.181
-394.121	-88.973	0.096	-0.029
-393.106	-80.033	-0.379	-0.127
-392.092	559.915	-0.077	0.185
-391.077	34.182	0.046	0.040
-390.063	220.485	0.205	0.328
-389.048	-74.203	-0.246	-0.089
-388.033	136.335	0.143	-0.186
-387.019	120.466	0.203	0.252
-386.004	800.000	-0.085	-0.267
-384.990	90.383	0.156	0.175
-383.975	778.305	0.113	0.310
-382.960	184.544	-0.197	0.292
-381.946	424.012	-0.068	-0.147
-380.931	262.184	-0.059	-0.102
-379.917	-120.869	-0.237	0.040
-378.902	-110.137	0.102	-0.021
-377.888	9.558	-0.131	-0.099
-376.873	800.000	-0.126	-0.367
-375.858	583.005	0.089	0.218
-374.844	-200.000	-0.019	-0.085
-373.829	800.000	0.063	-0.268
-372.815	-147.134	-0.183	-0.016
-371.800	150.895	-0.148	0.201
-370.785	-200.000	0.013	-0.125
-369.771	-171.491	0.283	0.009
-368.756	-113.715	-0.120	-0.023
-367.742	-111.657	0.238	-0.048
-366.727	747.940	0.019	0.052
-365.712	-200.000	0.041	0.190
-364.698	-87.768	-0.255	0.077
-363.683	-124.713	-0.235	-0.036
-362.669	-200.000	0.003	-0.034
-361.654	48.093	0.115	-0.108
-360.639	-3.728	-0.149	0.103
-359.625	-36.534	0.198	-0.106
-358.610	-67.528	-0.234	0.092
-357.596	800.000	-0.023	-0.083
-356.581	-91.659	0.150	0.043
-355.566	46.514	-0.062	-0.058
-354.552	-64.509	-0.351	-0.143
-353.537	-11.599	-0.119	-0.078
-352.523	800.000	0.103	0.293
-351.508	-200.000	0.050	-0.365
-350.493	-5.825	0.069	0.047
-349.479	795.776	-0.117	-0.322
-348.464	661.014	-0.017	0.043
-347.450	-92.899	0.356	-0.099
-346.435	8.599	-0.034	0.025
-345.420	-200.000	0.007	0.299
-344.406	-200.000	-0.051	-0.320
-343.391	41.269	-0.146	0.132
-342.377	224.930	0.087	0.141
-341.362	800.000	0.035	-0.111
-340.348	446.964	-0.065	-0.142
-339.333	147.099	-0.055	-0.074
-338.318	24.152	-0.019	-0.016
-337.304	-141.505	-0.331	0.033
-336.289	48.364	-0.124	0.115
-335.275	-15.489	-0.015	-0.010
-334.260	199.917	-0.045	0.068
-333.245	-200.000	0.031	0.279
-332.231	800.000	0.062	-0.215
-331.216	-150.253	0.205	0.016
-330.202	92.966	-0.210	0.237
-329.187	614.318	-0.156	0.390
-328.172	-136.061	-0.096	0.011
-327.158	-136.879	0.253	0.029
-326.143	-43.905	0.322	-0.162
-325.129	33.080	-0.135	0.116
-324.114	533.272	0.103	-0.244
-323.099	-36.404	0.389	0.209
-322.085	-200.000	0.039	-0.189
-321.070	131.780	0.210	0.270
-320.056	12.352	0.371	0.285
-319.041	164.135	-0.271	0.381
-318.026	-121.779	0.255	-0.042
-317.012	-80.756	0.185	-0.061
-315.997	-200.000	0.005	-0.038
-314.983	11.595	-0.041	-0.031
-313.968	194.687	0.260	-0.393
-312.953	90.704	0.214	0.239
-311.939	97.987	-0.193	0.222
-310.924	499.646	0.103	0.237
-309.910	-89.986	0.235	0.068
-308.895	800.000	-0.034	0.135
-307.880	734.691	0.083	0.222
-306.866	187.157	0.035	0.052
-305.851	482.945	-0.121	0.274
-304.837	-200.000	0.021	0.289
-303.822	-6.771	-0.045	0.031
-302.807	-39.199	0.267	0.140
-301.793	432.241	-0.219	0.473
-300.778	-200.000	-0.000	0.168
-299.764	37.529	-0.263	0.233
-298.749	-138.207	-0.288	-0.032
-297.735	-68.594	0.260	0.101
-296.720	-99.985	0.327	-0.081
-295.705	-143.684	0.269	0.025
-294.691	154.934	0.110	-0.151
-293.676	-87.676	0.147	-0.044
-292.662	115.188	0.222	-0.271
-291.647	28.917	-0.207	-0.175
-290.632	-200.000	0.021	-0.252
-289.618	-102.266	-0.367	-0.088
-288.603	-200.000	-0.063	-0.360
-287.589	-96.750	-0.151	-0.039
-286.574	-12.455	-0.154	0.100
-285.559	-200.000	0.067	-0.357
-284.545	-11.857	0.342	0.224
-283.530	39.093	0.209	0.186
-282.516	-44.385	0.047	0.023
-281.501	-122.367	-0.251	0.041
-280.486	54.761	0.232	0.223
-279.472	800.000	0.090	-0.332
-278.457	800.000	-0.142	-0.399
-277.443	800.000	-0.058	-0.200
-276.428	-175.801	-0.375	-0.010
-275.413	-93.136	0.108	0.030
-274.399	800.000	-0.030	0.126
-273.384	-200.000	-0.001	-0.229
-272.370	295.001	0.066	0.120
-271.355	-30.496	0.260	0.147
-270.340	-138.216	-0.214	-0.024
-269.326	396.069	-0.009	-0.018
-268.311	-9.392	-0.046	-0.031
-267.297	24.179	0.137	-0.112
-266.282	575.389	0.069	-0.168
-265.267	398.817	0.053	-0.111
-264.253	-200.000	0.011	0.109
-263.238	378.437	0.055	0.113
-262.224	-147.897	-0.083	0.007
-261.209	-121.223	0.150	-0.025
-260.195	-200.000	0.007	0.076
-259.180	28.008	-0.047	0.039
-258.165	800.000	-0.027	0.087
-257.151	19.248	-0.124	0.099
-256.136	518.718	-0.094	-0.218
-255.122	-142.320	-0.188	-0.018
-254.107	171.860	-0.151	-0.215
-253.092	-110.928	-0.085	0.017
-252.078	48.324	0.166	-0.155
-251.063	21.757	-0.156	-0.127
-250.049	800.000	-0.048	0.194
-249.034	800.000	-0.075	0.272
-248.019	23.631	0.083	-0.068
-247.005	800.000	0.043	0.122
-245.990	-200.000	0.028	0.174
-244.976	-200.000	-0.002	0.357
-243.961	-115.600	0.227	-0.042
-242.946	-16.001	-0.144	-0.091
-241.932	-39.237	0.107	0.056
-240.917	-5.357	-0.104	0.071
-239.903	226.550	-0.074	0.119
-238.888	-58.413	0.321	-0.139
-237.873	745.538	-0.049	0.130
-236.859	-200.000	-0.013	0.110
-235.844	-50.718	0.599	-0.281
-234.830	276.666	0.092	-0.163
-233.815	-137.919	0.245	-0.027
-232.800	-87.207	-0.378	0.114
-231.786	-147.324	-0.066	0.006
-230.771	-121.716	0.375	0.062
-229.757	514.602	0.094	-0.217
-228.742	-14.600	0.082	0.052
-227.727	-57.968	-0.247	-0.107
-226.713	568.178	-0.033	0.079
-225.698	275.206	0.103	0.182
-224.684	-137.670	0.438	0.049
-223.669	-155.062	0.040	-0.003
-222.655	105.422	0.136	-0.160
-221.640	353.703	0.049	0.097
-220.625	-51.624	0.197	-0.091
-219.611	-5.421	-0.265	-0.181
-218.596	7.078	0.096	-0.071
-217.582	-181.743	-0.244	0.005
-216.567	-23.672	0.116	-0.069
-215.552	-109.140	0.078	0.017
-214.538	465.720	-0.062	0.137
-213.523	485.190	-0.046	-0.104
-212.509	-200.000	-0.049	0.412
-211.494	18.529	-0.354	-0.281
-210.479	683.437	0.113	-0.292
-209.465	22.806	0.174	-0.141
-208.450	355.207	0.220	0.435
-207.436	164.075	-0.091	0.128
-206.421	-148.467	-0.397	0.032
-205.406	291.577	-0.082	0.149
-204.392	-75.817	-0.153	-0.054
-203.377	-16.823	0.275	0.172
-202.363	199.151	-0.105	0.159
-201.348	-129.965	0.170	-0.023
-200.333	300.829	0.119	0.218
-199.319	234.161	0.169	0.277
-198.304	-8.901	0.141	-0.093
-197.290	-100.938	-0.414	-0.101
-196.275	-79.373	0.212	-0.071
-195.260	-200.000	0.047	-0.295
-194.246	343.204	-0.083	0.161
-193.231	-200.000	-0.045	0.398
-192.217	369.627	0.196	0.394
-191.202	130.276	-0.130	0.166
-190.187	119.133	-0.265	0.325
-189.173	-83.742	0.025	0.008
-188.158	223.824	0.178	-0.285
-187.144	-176.366	0.221	-0.006
-186.129	134.883	0.103	0.133
-185.114	-200.000	0.002	-0.176
-184.100	-153.004	-0.079	-0.006
-183.085	263.809	0.064	0.110
-182.071	-113.512	0.327	0.063
-181.056	-200.000	0.026	-0.208
-180.042	181.890	0.195	0.285
-179.027	-200.000	0.055	0.239
-178.012	-200.000	-0.047	0.268
-176.998	-54.877	0.110	0.049
-175.983	-142.264	0.343	0.034
-174.969	0.917	-0.317	-0.225
-173.954	-67.566	-0.009	0.003
-172.939	-45.148	0.219	-0.108
-171.925	-200.000	0.027	0.135
-170.910	800.000	0.071	0.305
-169.896	-187.647	0.099	0.001
-168.881	-148.851	0.271	-0.022
-167.866	37.082	0.109	-0.096
-166.852	-101.117	-0.639	0.155
-165.837	661.382	-0.103	-0.263
-164.823	-200.000	0.059	-0.264
-163.808	-43.155	-0.339	0.170
-162.793	800.000	0.032	-0.095
-161.779	102.072	-0.308	-0.356
-160.764	470.392	0.169	-0.378
-159.750	-68.434	-0.324	-0.125
-158.735	20.394	-0.135	0.108
-157.720	639.135	-0.133	0.336
-156.706	800.000	-0.046	-0.162
-155.691	800.000	-0.052	-0.163
-154.677	-41.527	-0.083	-0.042
-153.662	-200.000	0.039	-0.224
-152.647	258.786	0.143	0.245
-151.633	363.180	0.062	-0.123
-150.618	-58.955	-0.097	0.042
-149.604	105.006	0.140	0.163
-148.589	86.346	-0.181	-0.198
-147.574	-66.470	0.243	0.096
-146.560	-73.158	0.257	-0.093
-145.545	-45.121	-0.150	0.074
-144.531	73.763	-0.047	0.049
-143.516	-168.225	0.513	0.020
-142.502	-135.298	0.267	-0.032
-141.487	481.739	0.104	0.234
-140.472	113.301	0.197	0.236
-139.458	310.300	-0.140	0.260
-138.443	146.043	0.179	0.237
-137.429	-25.280	0.046	-0.027
-136.414	39.006	-0.192	0.170
-135.399	92.392	0.045	0.050
-134.385	-200.000	-0.010	-0.478
-133.370	-200.000	0.060	0.353
-132.356	-78.741	0.449	0.152
-131.341	-190.789	0.208	0.002
-130.326	575.729	0.053	0.129
-129.312	326.061	-0.123	0.233
-128.297	80.325	0.268	0.286
-127.283	31.825	0.201	-0.171
-126.268	-200.000	0.018	-0.312
-125.253	91.180	-0.171	-0.190
-124.239	77.826	0.091	0.096
-123.224	-64.082	0.151	0.061
-122.210	87.324	0.095	-0.104
-121.195	264.503	-0.132	-0.228
