DTS Sentinel unit serial number:	SN413079Multiplexer serial number:	ORYXHardware model number:	OX4-SRSoftware version number:	ORYX F/W v4.00 Oryx Data Collector v3.7.2.0data status	okinstallation	princeton_trtdifferential loss correction	single-endedforward channel	channel 2reverse channel	N/Adate	2019/09/12time	09:37:11forward acquisition time	60.00reverse acquisition time	0.00gamma	496.2192k internal	0.2314k external	0.2314temperature offset calibration	1.0065default loss term (dB/km)	0.3790temperature slope calibration	1.0000multiplexer offset coefficient	1.0000multiplexer slope coefficient	1.0000fibre end	0.00T internal ref (°C)	35.69T ext. ref 1 (°C)	1.82T ext. ref 2 (°C)	32.54length (m)	temperature (°C)	Stokes	anti-Stokes-747.200	-164.284	0.197	-0.009
-746.185	172.604	-0.107	0.156
-745.171	-200.000	-0.011	0.092
-744.156	-102.641	0.158	-0.038
-743.142	227.906	-0.239	-0.394
-742.127	800.000	0.059	0.209
-741.112	800.000	0.094	0.281
-740.098	416.629	0.121	0.262
-739.083	179.011	0.138	-0.205
-738.069	-72.045	-0.342	0.129
-737.054	800.000	-0.034	0.096
-736.039	-200.000	0.088	-0.407
-735.025	30.518	-0.057	0.050
-734.010	459.671	0.045	0.101
-732.996	-19.036	-0.201	0.126
-731.981	-56.887	0.254	0.114
-730.966	-40.576	0.137	0.072
-729.952	-54.396	-0.236	-0.108
-728.937	-67.164	-0.299	-0.120
-727.923	-36.087	-0.277	0.152
-726.908	-20.681	-0.271	0.169
-725.894	38.548	-0.213	-0.192
-724.879	609.855	-0.046	0.116
-723.864	34.237	-0.136	0.120
-722.850	-200.000	0.011	0.294
-721.835	117.630	-0.016	0.020
-720.821	465.837	-0.108	-0.244
-719.806	109.236	0.038	0.046
-718.791	-200.000	-0.123	-0.637
-717.777	800.000	-0.035	-0.127
-716.762	93.197	-0.365	-0.418
-715.748	14.172	0.190	-0.150
-714.733	-55.896	-0.150	0.068
-713.718	-38.116	0.308	-0.165
-712.704	-111.571	-0.139	-0.029
-711.689	159.439	-0.083	-0.116
-710.675	-156.851	-0.135	-0.008
-709.660	-134.818	0.284	0.035
-708.645	-200.000	-0.032	-0.234
-707.631	314.672	-0.189	0.361
-706.616	-32.761	0.062	-0.035
-705.602	-114.713	0.126	0.024
-704.587	71.645	-0.211	0.222
-703.572	373.574	0.083	-0.172
-702.558	-83.740	-0.297	-0.096
-701.543	-43.313	-0.205	-0.105
-700.529	-28.997	-0.252	-0.147
-699.514	406.940	-0.030	0.064
-698.499	800.000	0.086	0.275
-697.485	-200.000	0.012	-0.146
-696.470	-200.000	0.010	-0.109
-695.456	428.210	-0.199	-0.435
-694.441	-44.842	0.109	0.055
-693.426	-35.355	0.350	-0.193
-692.412	160.213	-0.065	-0.092
-691.397	-16.687	-0.337	0.216
-690.383	194.312	-0.115	-0.176
-689.368	54.837	-0.329	-0.321
-688.354	94.884	0.158	-0.182
-687.339	-25.240	-0.288	0.172
-686.324	-32.271	0.099	-0.056
-685.310	-200.000	-0.021	0.161
-684.295	255.886	-0.219	-0.380
-683.281	-172.278	-0.195	-0.006
-682.266	800.000	0.116	-0.445
-681.251	-76.789	-0.162	-0.057
-680.237	-8.613	0.055	0.038
-679.222	145.613	0.248	-0.336
-678.208	211.784	0.183	-0.291
-677.193	800.000	0.077	0.291
-676.178	699.966	0.105	0.279
-675.164	16.914	0.192	-0.154
-674.149	179.977	-0.127	0.188
-673.135	443.717	-0.063	0.140
-672.120	-118.075	0.010	-0.002
-671.105	71.275	-0.166	-0.174
-670.091	-9.612	0.036	-0.024
-669.076	438.952	-0.107	-0.237
-668.062	-102.344	-0.357	-0.086
-667.047	508.697	0.061	-0.143
-666.032	1.797	-0.093	0.068
-665.018	751.884	0.154	0.420
-664.003	-84.657	-0.170	-0.054
-662.989	-130.642	0.050	0.007
-661.974	-13.771	0.090	-0.059
-660.959	39.898	0.111	-0.100
-659.945	-71.817	0.150	-0.057
-658.930	800.000	0.052	0.186
-657.916	-200.000	-0.047	0.349
-656.901	-200.000	0.055	-0.270
-655.886	65.353	0.174	-0.178
-654.872	-200.000	0.032	-0.264
-653.857	-171.612	-0.157	0.005
-652.843	-73.748	0.083	0.031
-651.828	0.190	-0.054	-0.039
-650.814	-116.654	0.170	0.032
-649.799	50.779	-0.065	-0.063
-648.784	79.852	0.157	-0.170
-647.770	-200.000	-0.005	-0.152
-646.755	791.139	-0.068	-0.190
-645.741	137.586	0.151	-0.199
-644.726	-150.381	-0.121	0.009
-643.711	800.000	-0.058	-0.187
-642.697	-100.100	0.024	0.006
-641.682	-62.812	-0.083	0.035
-640.668	2.249	-0.110	-0.080
-639.653	10.713	-0.232	0.179
-638.638	634.002	-0.078	-0.200
-637.624	-200.000	-0.013	-0.080
-636.609	80.011	-0.018	-0.020
-635.595	-200.000	0.019	0.171
-634.580	800.000	-0.089	0.303
-633.565	-127.721	0.094	-0.014
-632.551	-200.000	-0.042	0.217
-631.536	800.000	0.008	0.029
-630.522	-200.000	-0.037	0.335
-629.507	200.490	0.086	0.134
-628.492	-200.000	-0.022	0.158
-627.478	-200.000	-0.010	-0.105
-626.463	-75.101	-0.137	-0.049
-625.449	800.000	-0.033	-0.103
-624.434	-132.006	-0.119	0.016
-623.419	52.924	0.159	-0.153
-622.405	-200.000	-0.005	-0.186
-621.390	121.929	0.188	0.236
-620.376	-200.000	0.006	0.217
-619.361	529.271	-0.048	-0.114
-618.346	-71.480	0.219	-0.083
-617.332	-25.158	-0.129	0.077
-616.317	40.484	-0.296	0.269
-615.303	-200.000	0.002	-0.128
-614.288	4.425	0.119	0.088
-613.273	-63.511	-0.157	-0.065
-612.259	-191.942	-0.356	-0.003
-611.244	-200.000	0.007	-0.190
-610.230	-46.838	-0.037	0.018
-609.215	369.763	-0.047	0.096
-608.201	33.208	0.072	-0.063
-607.186	-125.819	0.319	-0.049
-606.171	82.877	-0.107	0.117
-605.157	144.169	-0.127	-0.171
-604.142	9.072	0.154	-0.117
-603.128	220.221	0.039	-0.063
-602.113	439.179	-0.076	-0.168
-601.098	375.176	-0.078	-0.161
-600.084	-200.000	0.039	-0.392
-599.069	180.694	-0.153	-0.226
-598.055	-13.432	-0.182	0.119
-597.040	-68.938	-0.239	-0.093
-596.025	-101.922	0.241	-0.059
-595.011	186.505	0.109	-0.164
-593.996	188.230	0.126	0.189
-592.982	-63.052	-0.411	0.171
-591.967	179.712	-0.179	0.264
-590.952	-73.188	0.159	-0.059
-589.938	106.775	0.161	0.193
-588.923	-90.413	-0.125	0.037
-587.909	-101.521	-0.131	0.032
-586.894	-200.000	-0.001	-0.148
-585.879	800.000	-0.080	-0.269
-584.865	-62.925	-0.296	0.123
-583.850	800.000	-0.034	-0.143
-582.836	196.068	-0.110	-0.168
-581.821	146.046	-0.066	-0.089
-580.806	-146.380	0.123	-0.011
-579.792	-183.420	0.071	0.001
-578.777	800.000	-0.037	0.159
-577.763	12.295	-0.269	0.209
-576.748	-200.000	0.008	-0.312
-575.733	-184.689	0.068	0.001
-574.719	800.000	-0.096	0.388
-573.704	227.389	-0.072	0.118
-572.690	800.000	-0.031	0.134
-571.675	-200.000	0.043	-0.420
-570.661	145.667	-0.141	0.191
-569.646	-131.229	0.140	-0.019
-568.631	214.828	-0.142	-0.226
-567.617	-200.000	0.018	-0.149
-566.602	800.000	0.062	0.200
-565.588	-117.600	-0.266	0.048
-564.573	800.000	0.128	0.434
-563.558	76.133	0.215	-0.229
-562.544	-96.865	0.227	-0.060
-561.529	-31.820	-0.311	0.176
-560.515	145.670	0.168	0.226
-559.500	-147.072	-0.182	0.016
-558.485	327.682	0.200	-0.386
-557.471	-80.696	0.374	-0.125
-556.456	800.000	-0.046	-0.149
-555.442	-0.579	0.129	-0.092
-554.427	-32.411	0.097	-0.055
-553.412	-200.000	-0.047	0.296
-552.398	130.860	0.255	0.329
-551.383	264.260	-0.127	0.223
-550.369	-30.642	0.075	0.043
-549.354	108.683	-0.303	-0.364
-548.339	800.000	-0.136	0.435
-547.325	92.032	-0.278	0.315
-546.310	-59.949	-0.253	0.109
-545.296	-55.293	-0.145	0.066
-544.281	-13.984	-0.038	0.025
-543.266	-95.272	-0.168	-0.045
-542.252	-121.946	-0.203	0.034
-541.237	800.000	-0.085	-0.288
-540.223	-144.947	-0.112	0.010
-539.208	4.621	-0.168	0.124
-538.193	23.476	-0.060	0.049
-537.179	-107.350	-0.362	0.080
-536.164	480.617	0.050	-0.114
-535.150	-200.000	-0.004	-0.197
-534.135	-29.208	0.211	-0.121
-533.121	106.035	0.096	-0.114
-532.106	-70.744	-0.313	-0.119
-531.091	-44.851	-0.123	-0.062
-530.077	-45.306	-0.172	0.086
-529.062	800.000	-0.070	0.247
-528.048	128.351	0.214	0.274
-527.033	-0.232	0.084	0.060
-526.018	376.203	-0.077	0.157
-525.004	99.501	-0.188	-0.219
-523.989	619.192	-0.102	-0.258
-522.975	39.977	-0.050	0.045
-521.960	-72.045	0.025	-0.009
-520.945	150.530	-0.072	-0.098
-519.931	27.393	-0.098	-0.082
-518.916	-111.049	0.116	-0.024
-517.902	561.125	-0.201	0.489
-516.887	166.267	-0.278	0.395
-515.872	-139.848	0.094	0.010
-514.858	-28.803	0.210	-0.122
-513.843	93.700	-0.088	0.101
-512.829	-135.942	0.092	0.011
-511.814	165.764	-0.005	0.007
-510.799	-49.725	-0.071	0.034
-509.785	100.912	0.287	-0.335
-508.770	-42.876	0.330	0.169
-507.756	-200.000	0.089	-0.517
-506.741	-82.003	0.229	-0.075
-505.726	800.000	0.028	0.103
-504.712	117.909	0.039	-0.048
-503.697	-18.982	-0.154	0.096
-502.683	-137.996	0.409	0.046
-501.668	-10.670	-0.120	-0.080
-500.653	-106.484	-0.371	0.083
-499.639	-167.308	0.252	-0.010
-498.624	-95.964	0.419	0.112
-497.610	800.000	0.076	0.277
-496.595	-91.487	0.246	-0.070
-495.581	262.314	0.145	-0.252
-494.566	71.520	-0.043	0.044
-493.551	476.776	0.009	0.020
-492.537	-200.000	0.005	-0.287
-491.522	11.077	-0.194	-0.149
-490.508	-200.000	-0.022	-0.262
-489.493	-76.124	-0.187	-0.066
-488.478	-108.261	-0.103	-0.022
-487.464	568.463	0.054	0.131
-486.449	800.000	0.093	-0.274
-485.435	-8.936	-0.204	0.137
-484.420	181.470	0.059	-0.087
-483.405	-157.005	-0.455	0.028
-482.391	-9.584	-0.227	0.152
-481.376	-200.000	-0.026	-0.173
-480.362	-200.000	-0.018	-0.360
-479.347	238.269	-0.363	-0.604
-478.332	-84.647	-0.294	-0.093
-477.318	800.000	0.122	0.482
-476.303	88.735	-0.170	0.189
-475.289	-24.390	0.034	-0.021
-474.274	-85.936	0.179	0.056
-473.259	415.421	0.095	0.203
-472.245	800.000	-0.032	-0.140
-471.230	334.662	-0.049	-0.096
-470.216	800.000	0.007	0.026
-469.201	-200.000	-0.016	-0.222
-468.186	-110.283	-0.508	0.106
-467.172	-83.439	-0.187	-0.060
-466.157	-100.201	-0.245	0.061
-465.143	-200.000	-0.013	-0.196
-464.128	-89.562	0.270	0.079
-463.113	706.632	0.087	-0.231
-462.099	182.634	-0.206	0.305
-461.084	313.255	-0.200	-0.376
-460.070	-200.000	-0.002	0.285
-459.055	-39.098	-0.370	-0.195
-458.040	241.432	0.120	-0.201
-457.026	183.506	0.087	0.129
-456.011	21.655	0.306	0.250
-454.997	-197.834	-0.116	-0.001
-453.982	-102.732	0.182	0.044
-452.968	343.612	-0.038	-0.075
-451.953	-200.000	-0.035	-0.481
-450.938	-2.933	0.095	0.066
-449.924	188.092	-0.024	0.036
-448.909	317.915	-0.100	-0.190
-447.895	-200.000	-0.056	-0.249
-446.880	166.671	0.175	-0.249
-445.865	-60.289	0.123	-0.052
-444.851	-118.215	-0.201	0.036
-443.836	-160.611	-0.118	-0.006
-442.822	94.856	-0.061	0.069
-441.807	151.282	-0.081	0.110
-440.792	-84.498	0.195	0.062
-439.778	30.582	-0.073	0.063
-438.763	65.377	-0.209	-0.212
-437.749	-185.639	0.200	0.003
-436.734	-30.662	0.038	-0.022
-435.719	-14.273	-0.307	-0.198
-434.705	97.980	-0.212	-0.244
-433.690	501.693	-0.128	0.297
-432.676	-200.000	0.026	-0.258
-431.661	170.930	-0.260	0.373
-430.646	-200.000	-0.066	0.406
-429.632	-170.988	-0.250	0.009
-428.617	-200.000	-0.019	-0.111
-427.603	7.627	0.126	0.094
-426.588	23.358	0.082	0.067
-425.573	-54.075	0.514	-0.234
-424.559	77.025	-0.166	-0.176
-423.544	-200.000	-0.083	-0.534
-422.530	112.528	-0.137	-0.166
-421.515	-145.157	0.117	-0.011
-420.500	-112.790	-0.195	0.039
-419.486	39.822	0.342	-0.307
-418.471	-200.000	0.004	-0.075
-417.457	-10.622	-0.136	-0.090
-416.442	-60.347	0.394	0.168
-415.428	73.095	-0.233	-0.244
-414.413	-24.644	0.147	-0.088
-413.398	-48.092	-0.117	-0.057
-412.384	110.213	-0.309	0.371
-411.369	-85.712	0.261	-0.081
-410.355	-200.000	0.018	-0.234
-409.340	209.996	0.170	0.267
-408.325	42.678	-0.083	0.075
-407.311	152.406	0.097	-0.132
-406.296	800.000	-0.065	-0.255
-405.282	79.070	-0.092	-0.099
-404.267	-119.596	0.240	-0.041
-403.252	522.594	0.112	0.263
-402.238	215.222	0.070	-0.111
-401.223	-11.473	0.309	-0.203
-400.209	236.704	-0.114	0.189
-399.194	-95.931	-0.123	0.033
-398.179	0.996	-0.129	0.093
-397.165	85.028	-0.124	-0.136
-396.150	-200.000	0.010	0.155
-395.136	-81.214	-0.152	-0.050
-394.121	108.659	0.152	-0.181
-393.106	-42.841	0.047	0.024
-392.092	68.349	-0.105	0.107
-391.077	-150.018	0.323	-0.025
-390.063	-98.149	0.094	0.024
-389.048	-118.272	0.431	0.077
-388.033	-137.007	-0.177	-0.020
-387.019	-115.418	-0.080	0.015
-386.004	262.789	0.113	-0.197
-384.990	-120.571	0.247	-0.042
-383.975	800.000	-0.059	0.243
-382.960	-63.839	0.156	0.064
-381.946	106.800	0.043	0.051
-380.931	-114.191	0.309	0.060
-379.917	-82.433	-0.191	-0.062
-378.902	-26.890	0.088	0.051
-377.888	321.174	-0.196	0.373
-376.873	-104.257	-0.290	0.067
-375.858	18.770	-0.202	0.162
-374.844	142.594	0.058	-0.077
-373.829	688.642	0.157	-0.411
-372.815	-25.813	0.209	-0.123
-371.800	103.960	0.197	-0.232
-370.785	-200.000	0.005	0.210
-369.771	800.000	-0.092	0.396
-368.756	-58.717	0.014	0.006
-367.742	800.000	0.047	0.179
-366.727	800.000	-0.088	0.249
-365.712	-48.030	-0.214	0.103
-364.698	46.000	-0.068	0.063
-363.683	-147.003	0.193	0.017
-362.669	-93.578	0.108	0.030
-361.654	-53.593	-0.117	-0.053
-360.639	-200.000	0.038	-0.396
-359.625	25.711	0.310	-0.258
-358.610	17.096	-0.161	0.128
-357.596	15.558	-0.197	0.154
-356.581	-106.538	0.288	0.064
-355.566	741.262	-0.050	-0.133
-354.552	-27.776	-0.228	-0.132
-353.537	-178.793	0.109	-0.002
-352.523	-200.000	0.023	0.122
-351.508	-18.132	0.216	-0.135
-350.493	-200.000	0.009	-0.049
-349.479	-33.891	-0.062	-0.034
-348.464	800.000	-0.062	0.246
-347.450	476.608	0.034	-0.077
-346.435	275.218	0.093	-0.164
-345.420	131.140	0.184	0.235
-344.406	800.000	-0.069	0.194
-343.391	2.670	-0.137	0.099
-342.377	42.038	0.221	0.200
-341.362	-62.500	-0.138	-0.057
-340.348	380.448	0.109	0.223
-339.333	-200.000	-0.054	0.288
-338.318	242.634	0.153	0.255
-337.304	25.664	-0.187	0.155
-336.289	-24.139	-0.201	-0.120
-335.275	39.405	-0.217	0.194
-334.260	-102.768	-0.220	-0.052
-333.245	782.071	0.075	-0.205
-332.231	-151.410	0.189	-0.014
-331.216	4.776	-0.107	-0.078
-330.202	-200.000	0.057	0.266
-329.187	-78.810	0.203	0.069
-328.172	209.914	0.118	-0.185
-327.158	24.574	0.208	-0.172
-326.143	89.936	-0.157	-0.174
-325.129	-105.027	0.171	-0.039
-324.114	204.467	0.025	0.039
-323.099	800.000	0.031	0.104
-322.085	-22.259	0.052	0.031
-321.070	-129.936	0.260	0.035
-320.056	-43.586	-0.312	0.157
-319.041	-200.000	0.000	-0.028
-318.026	259.434	0.092	-0.158
-317.012	50.741	-0.155	0.146
-315.997	301.027	-0.061	-0.113
-314.983	-102.174	0.366	0.088
-313.968	64.340	0.064	0.065
-312.953	-74.430	0.112	-0.040
-311.939	800.000	-0.036	-0.104
-310.924	39.818	-0.160	0.143
-309.910	315.877	-0.069	-0.131
-308.895	299.791	0.146	-0.269
-307.880	-163.345	0.163	0.008
-306.866	276.415	-0.162	-0.287
-305.851	-200.000	-0.018	0.140
-304.837	-113.619	0.402	0.078
-303.822	-59.112	0.068	0.029
-302.807	42.075	-0.130	0.118
-301.793	-38.662	0.009	0.005
-300.778	-200.000	0.005	0.108
-299.764	800.000	0.021	-0.084
-298.749	800.000	0.102	0.414
-297.735	96.511	-0.236	0.269
-296.720	-91.910	0.188	0.053
-295.705	9.947	0.157	0.118
-294.691	-97.684	0.133	-0.034
-293.676	473.460	-0.045	-0.101
-292.662	-38.284	0.066	-0.035
-291.647	24.493	-0.116	-0.095
-290.632	-76.408	0.089	0.031
-289.618	-200.000	-0.019	0.089
-288.603	-143.886	-0.259	-0.024
-287.589	-159.327	0.150	0.008
-286.574	-200.000	-0.029	0.147
-285.559	221.691	-0.283	0.453
-284.545	62.236	0.166	-0.165
-283.530	800.000	0.122	-0.350
-282.516	194.580	-0.072	-0.109
-281.501	560.233	0.140	-0.337
-280.486	66.162	0.300	0.303
-279.472	47.648	0.125	-0.116
-278.457	-94.383	0.178	0.048
-277.443	-128.724	0.347	-0.049
-276.428	-36.435	0.479	0.257
-275.413	-62.449	-0.154	0.064
-274.399	-200.000	0.230	-0.001
-273.384	63.318	0.283	-0.282
-272.370	-200.000	-0.025	0.375
-271.355	-74.522	-0.424	0.152
-270.340	-200.000	-0.080	-0.439
-269.326	-116.599	-0.230	0.042
-268.311	4.047	-0.160	0.116
-267.297	-0.452	0.065	0.046
-266.282	-73.144	0.308	-0.112
-265.267	-128.555	0.129	0.018
-264.253	-53.801	0.353	0.160
-263.238	727.810	0.146	-0.387
-262.224	-200.000	0.005	-0.141
-261.209	-200.000	0.035	-0.160
-260.195	800.000	-0.029	-0.089
-259.180	386.559	0.129	0.264
-258.165	169.607	0.256	0.364
-257.151	-200.000	0.017	-0.189
-256.136	-200.000	-0.005	0.328
-255.122	-105.072	0.455	-0.103
-254.107	-142.033	0.287	0.028
-253.092	-34.689	0.068	-0.037
-252.078	-140.619	-0.139	0.014
-251.063	800.000	0.049	-0.156
-250.049	800.000	0.034	-0.131
-249.034	664.027	0.124	0.317
-248.019	434.041	-0.119	-0.257
-247.005	440.198	0.144	-0.312
-245.990	704.315	0.063	-0.165
-244.976	72.783	-0.131	-0.136
-243.961	57.521	-0.153	0.149
-242.946	-94.672	0.093	-0.025
-241.932	-56.771	0.213	0.094
-240.917	437.791	0.057	0.123
-239.903	-10.247	-0.179	-0.118
-238.888	5.081	0.024	-0.018
-237.873	290.593	0.110	-0.199
-236.859	-42.722	-0.189	-0.096
-235.844	800.000	0.048	-0.142
-234.830	97.740	-0.148	0.169
-233.815	800.000	-0.041	-0.123
-232.800	329.006	-0.215	-0.411
-231.786	-200.000	0.045	0.322
-230.771	800.000	-0.087	0.344
-229.757	246.543	0.170	-0.285
-228.742	328.502	0.015	0.028
-227.727	-140.781	-0.152	0.016
-226.713	-21.439	-0.166	0.101
-225.698	-53.060	0.305	-0.139
-224.684	59.146	-0.098	0.096
-223.669	-11.591	-0.357	0.233
-222.655	148.111	0.047	0.062
-221.640	-200.000	-0.028	0.319
-220.625	-69.210	0.114	0.043
-219.611	-200.000	-0.069	-0.329
-218.596	800.000	0.060	-0.237
-217.582	800.000	0.069	-0.214
-216.567	82.284	0.250	-0.269
-215.552	46.885	-0.263	0.243
-214.538	-43.951	-0.130	0.065
-213.523	-102.783	0.272	0.064
-212.509	-73.088	0.445	0.162
-211.494	511.517	0.076	-0.176
-210.479	101.761	-0.185	0.215
-209.465	-91.679	-0.136	0.038
-208.450	-200.000	0.049	0.230
-207.436	-7.842	0.082	0.055
-206.421	66.896	0.133	0.135
-205.406	81.166	0.182	0.195
-204.392	-14.376	-0.153	0.098
-203.377	217.119	0.149	0.235
-202.363	116.023	0.076	0.093
-201.348	800.000	0.033	-0.106
-200.333	70.462	0.131	-0.134
-199.319	-13.021	0.277	0.179
-198.304	100.935	0.042	0.049
-197.290	25.739	0.157	0.130
-196.275	-74.563	-0.453	-0.162
-195.260	93.177	0.252	0.283
-194.246	122.768	0.153	0.191
-193.231	-200.000	-0.031	0.255
-192.217	541.102	-0.099	0.234
-191.202	800.000	0.059	0.191
-190.187	69.930	0.100	0.102
-189.173	-200.000	-0.005	0.045
-188.158	800.000	-0.025	-0.102
-187.144	-200.000	-0.011	-0.145
-186.129	-169.105	-0.299	0.011
-185.114	30.361	-0.062	0.052
-184.100	-200.000	-0.027	-0.418
-183.085	800.000	0.070	0.208
-182.071	800.000	-0.050	0.189
-181.056	-29.268	0.128	-0.073
-180.042	130.805	0.418	0.531
-179.027	8.454	-0.151	-0.113
-178.012	-30.460	0.099	-0.056
-176.998	-200.000	-0.032	-0.392
-175.983	-200.000	-0.011	-0.206
-174.969	94.501	-0.045	0.051
-173.954	-49.575	-0.345	-0.163
-172.939	-200.000	0.011	0.269
-171.925	15.350	0.130	0.101
-170.910	-9.543	-0.135	0.089
-169.896	43.632	-0.173	-0.157
-168.881	520.716	0.077	-0.179
-167.866	-80.452	0.157	0.052
-166.852	-200.000	-0.000	-0.138
-165.837	-200.000	-0.015	0.279
-164.823	-180.798	-0.120	0.002
-163.808	-200.000	-0.028	-0.168
-162.793	-5.716	-0.239	-0.162
-161.779	-98.964	-0.285	-0.072
-160.764	800.000	-0.026	0.106
-159.750	-113.265	0.051	-0.010
-158.735	-90.197	-0.274	0.079
-157.720	-200.000	-0.008	0.104
-156.706	307.022	0.118	-0.218
-155.691	-95.155	0.261	0.070
-154.677	29.502	-0.118	-0.099
-153.662	-200.000	-0.011	0.418
-152.647	65.894	0.077	0.077
-151.633	-200.000	0.003	-0.206
-150.618	303.476	-0.049	0.090
-149.604	-75.212	0.326	0.115
-148.589	-85.758	-0.026	-0.008
-147.574	-81.061	0.256	-0.084
-146.560	24.984	0.088	-0.073
-145.545	800.000	0.013	-0.037
-144.531	-112.696	-0.146	-0.029
-143.516	224.252	0.136	0.218
-142.502	89.867	0.188	0.208
-141.487	-200.000	0.015	0.091
-140.472	-1.678	0.132	-0.092
-139.458	-200.000	-0.008	0.145
-138.443	-200.000	0.034	-0.150
-137.429	44.965	0.078	0.071
-136.414	158.914	0.216	0.297
-135.399	-156.378	0.229	0.014
-134.385	-109.719	-0.172	-0.036
-133.370	-116.781	0.327	0.059
-132.356	-52.371	-0.205	0.094
-131.341	131.113	-0.177	0.224
-130.326	-200.000	-0.037	0.263
-129.312	-80.910	0.191	-0.063
-128.297	-143.665	-0.248	-0.023
-127.283	800.000	-0.058	0.204
-126.268	800.000	-0.093	-0.281
-125.253	-140.825	0.095	0.010
-124.239	35.722	0.167	0.145
-123.224	-79.246	0.132	0.044
-122.210	-45.380	-0.179	-0.088
-121.195	150.389	-0.089	-0.120
-120.180	499.220	-0.059	-0.134
