DTS Sentinel unit serial number:	SN413079Multiplexer serial number:	ORYXHardware model number:	OX4-SRSoftware version number:	ORYX F/W v4.00 Oryx Data Collector v3.7.2.0data status	okinstallation	princeton_trtdifferential loss correction	single-endedforward channel	channel 2reverse channel	N/Adate	2019/09/17time	09:35:35forward acquisition time	60.00reverse acquisition time	0.00gamma	496.2192k internal	0.2328k external	0.2328temperature offset calibration	0.9974default loss term (dB/km)	0.3790temperature slope calibration	1.0000multiplexer offset coefficient	1.0000multiplexer slope coefficient	1.0000fibre end	0.00T internal ref (°C)	29.12T ext. ref 1 (°C)	0.15T ext. ref 2 (°C)	25.43length (m)	temperature (°C)	Stokes	anti-Stokes-747.200	195.105	0.125	-0.192
-746.185	-31.142	-0.128	0.073
-745.171	161.451	0.138	-0.195
-744.156	-200.000	-0.024	0.113
-743.142	-115.504	-0.360	0.068
-742.127	372.496	-0.171	0.351
-741.112	-200.000	-0.019	0.093
-740.098	9.827	-0.305	0.233
-739.083	-149.698	-0.058	0.005
-738.069	463.264	-0.115	0.258
-737.054	800.000	-0.084	0.275
-736.039	800.000	-0.090	0.272
-735.025	-50.737	-0.249	-0.118
-734.010	-149.783	-0.541	-0.043
-732.996	-70.494	-0.258	-0.099
-731.981	227.074	-0.092	0.150
-730.966	-135.116	-0.269	0.033
-729.952	800.000	-0.063	-0.202
-728.937	-82.138	-0.273	-0.090
-727.923	388.556	0.165	-0.344
-726.908	74.839	0.115	-0.121
-725.894	-140.829	-0.408	-0.042
-724.879	-102.732	0.272	-0.065
-723.864	-157.234	-0.077	0.005
-722.850	800.000	-0.022	-0.091
-721.835	72.806	-0.171	0.180
-720.821	-5.561	-0.128	-0.088
-719.806	-74.427	-0.494	0.180
-718.791	505.987	-0.155	-0.363
-717.777	-42.899	-0.244	0.125
-716.762	-200.000	0.021	-0.441
-715.748	800.000	-0.065	-0.232
-714.733	-200.000	0.011	0.111
-713.718	-200.000	-0.005	-0.278
-712.704	800.000	-0.028	-0.095
-711.689	800.000	0.014	-0.060
-710.675	-34.864	0.051	-0.028
-709.660	218.725	0.150	-0.242
-708.645	28.249	0.177	0.150
-707.631	366.135	-0.094	-0.190
-706.616	-200.000	0.007	0.310
-705.602	-179.433	-0.136	-0.003
-704.587	-124.956	0.181	0.028
-703.572	1.485	0.278	-0.201
-702.558	583.625	-0.139	-0.343
-701.543	42.281	0.184	-0.168
-700.529	-200.000	-0.033	-0.270
-699.514	5.486	-0.053	-0.039
-698.499	-200.000	-0.053	-0.261
-697.485	-200.000	0.007	-0.153
-696.470	-27.811	-0.154	0.090
-695.456	64.696	-0.093	0.095
-694.441	-51.067	-0.273	0.129
-693.426	-104.100	-0.043	-0.010
-692.412	125.561	0.142	-0.181
-691.397	-89.355	-0.216	-0.064
-690.383	-15.427	0.126	-0.081
-689.368	104.584	-0.114	0.135
-688.354	-200.000	0.013	-0.060
-687.339	-148.883	-0.201	-0.016
-686.324	-25.581	-0.127	0.075
-685.310	-118.292	-0.316	-0.057
-684.295	-200.000	0.004	0.107
-683.281	-64.716	-0.166	0.068
-682.266	207.444	0.112	-0.175
-681.251	37.275	0.200	0.179
-680.237	-20.856	0.018	0.011
-679.222	140.091	-0.058	-0.077
-678.208	-9.837	0.384	-0.257
-677.193	800.000	-0.069	-0.218
-676.178	195.023	-0.061	-0.093
-675.164	284.763	0.106	-0.193
-674.149	-96.972	-0.381	-0.100
-673.135	800.000	-0.116	-0.344
-672.120	-200.000	0.004	-0.371
-671.105	-54.408	0.227	0.103
-670.091	-173.140	0.121	-0.004
-669.076	800.000	0.085	-0.302
-668.062	-155.374	-0.166	0.011
-667.047	4.377	0.163	-0.120
-666.032	-200.000	-0.006	0.118
-665.018	124.329	-0.184	-0.233
-664.003	-86.470	-0.103	-0.032
-662.989	-67.950	0.160	0.063
-661.974	-91.334	0.220	0.063
-660.959	149.764	-0.028	-0.038
-659.945	-51.767	-0.152	-0.071
-658.930	800.000	0.096	0.273
-657.916	-67.830	-0.163	-0.064
-656.901	800.000	0.119	0.399
-655.886	-59.983	-0.307	-0.132
-654.872	-11.220	0.060	0.039
-653.857	-147.779	-0.331	0.028
-652.843	-15.115	-0.149	0.096
-651.828	2.279	0.221	0.161
-650.814	307.743	0.020	0.038
-649.799	59.658	-0.134	0.133
-648.784	-20.103	0.272	-0.169
-647.770	-184.229	-0.449	-0.007
-646.755	-70.163	0.078	0.030
-645.741	800.000	-0.012	-0.043
-644.726	-74.503	0.143	-0.052
-643.711	221.297	-0.094	0.152
-642.697	-200.000	0.027	0.171
-641.682	-104.919	-0.358	-0.082
-640.668	-200.000	-0.050	-0.231
-639.653	-107.394	-0.285	0.063
-638.638	-62.164	-0.116	-0.048
-637.624	77.307	0.084	0.090
-636.609	-200.000	0.013	-0.068
-635.595	-200.000	0.002	-0.215
-634.580	-15.053	0.071	0.045
-633.565	108.317	-0.154	0.184
-632.551	800.000	0.055	0.175
-631.536	-200.000	0.010	0.300
-630.522	-85.041	-0.314	-0.099
-629.507	-11.216	0.394	0.260
-628.492	-75.033	-0.209	-0.075
-627.478	156.899	-0.049	-0.069
-626.463	-147.489	-0.151	-0.013
-625.449	-8.009	0.119	-0.080
-624.434	-73.560	-0.133	-0.049
-623.419	-200.000	-0.026	-0.444
-622.405	-54.456	-0.060	-0.027
-621.390	-98.411	-0.407	0.105
-620.376	-200.000	0.015	0.192
-619.361	97.108	0.111	-0.128
-618.346	-35.641	0.105	0.057
-617.332	-34.502	-0.238	-0.131
-616.317	-200.000	-0.001	-0.166
-615.303	800.000	-0.025	-0.092
-614.288	-3.648	-0.311	-0.217
-613.273	-2.617	0.184	-0.129
-612.259	316.708	-0.138	-0.262
-611.244	140.235	0.028	0.037
-610.230	-200.000	0.001	0.030
-609.215	-143.486	-0.138	0.013
-608.201	-119.561	-0.248	0.043
-607.186	800.000	0.047	-0.148
-606.171	-200.000	-0.012	-0.073
-605.157	31.604	0.371	-0.320
-604.142	0.206	-0.051	-0.037
-603.128	-30.669	-0.119	0.068
-602.113	-179.950	-0.307	-0.007
-601.098	32.758	-0.289	0.250
-600.084	-145.729	0.157	0.014
-599.069	-200.000	0.045	-0.205
-598.055	800.000	0.105	0.329
-597.040	-92.105	-0.226	-0.064
-596.025	233.582	0.254	0.420
-595.011	-16.622	0.091	-0.058
-593.996	-67.538	-0.355	0.140
-592.982	-200.000	0.008	-0.263
-591.967	-34.324	-0.208	-0.114
-590.952	758.182	0.021	0.056
-589.938	383.062	-0.131	-0.269
-588.923	-200.000	-0.038	-0.180
-587.909	346.389	0.245	0.482
-586.894	0.010	0.015	0.011
-585.879	-109.234	-0.301	0.064
-584.865	-8.319	-0.301	0.203
-583.850	14.939	0.278	-0.218
-582.836	207.736	-0.129	-0.201
-581.821	22.652	-0.187	0.153
-580.806	800.000	-0.025	0.083
-579.792	86.277	-0.210	0.232
-578.777	-178.314	0.151	0.004
-577.763	35.194	-0.088	0.077
-576.748	-200.000	-0.005	0.120
-575.733	-109.321	-0.119	0.025
-574.719	-13.331	0.170	-0.111
-573.704	49.068	0.249	-0.234
-572.690	765.300	-0.046	-0.125
-571.675	363.771	0.164	0.330
-570.661	-200.000	-0.071	0.463
-569.646	-147.789	0.454	-0.038
-568.631	226.827	-0.174	-0.284
-567.617	800.000	0.043	-0.121
-566.602	-200.000	0.002	0.270
-565.588	208.091	0.185	0.289
-564.573	-81.906	-0.090	-0.029
-563.558	-170.744	0.072	0.002
-562.544	391.690	0.074	-0.153
-561.529	-42.923	-0.140	-0.071
-560.515	696.016	-0.085	-0.223
-559.500	800.000	-0.044	0.183
-558.485	-144.171	0.229	-0.021
-557.471	-200.000	0.002	-0.075
-556.456	-200.000	-0.043	0.248
-555.442	33.317	-0.296	-0.257
-554.427	-102.514	0.168	-0.040
-553.412	70.936	-0.261	-0.271
-552.398	-85.628	0.099	-0.031
-551.383	800.000	0.089	0.363
-550.369	-6.467	-0.160	0.109
-549.354	-117.972	-0.308	-0.055
-548.339	-200.000	0.028	-0.184
-547.325	35.841	-0.188	0.165
-546.310	-101.162	-0.311	-0.076
-545.296	-68.473	0.464	0.180
-544.281	73.339	0.052	0.054
-543.266	-200.000	0.032	0.230
-542.252	800.000	0.088	-0.364
-541.237	162.709	-0.129	-0.182
-540.223	-80.051	0.043	0.015
-539.208	-24.548	0.289	-0.172
-538.193	-200.000	-0.029	-0.202
-537.179	328.589	0.089	-0.170
-536.164	-19.739	-0.111	0.069
-535.150	-76.685	0.092	0.032
-534.135	130.076	-0.112	-0.144
-533.121	129.213	0.051	0.065
-532.106	434.187	0.154	-0.334
-531.091	9.945	-0.085	0.065
-530.077	22.948	-0.142	-0.117
-529.062	800.000	0.045	-0.187
-528.048	-93.875	-0.248	0.068
-527.033	233.343	-0.178	-0.293
-526.018	-200.000	0.019	0.142
-525.004	-118.997	0.295	0.052
-523.989	517.356	-0.027	-0.064
-522.975	-157.069	-0.148	0.009
-521.960	163.393	-0.041	-0.058
-520.945	-141.395	-0.362	-0.037
-519.931	456.575	-0.117	0.259
-518.916	29.311	0.253	0.215
-517.902	166.560	-0.120	-0.170
-516.887	575.498	0.189	0.462
-515.872	-14.164	0.114	-0.073
-514.858	-93.575	-0.251	0.069
-513.843	10.741	0.149	0.113
-512.829	151.961	0.076	-0.104
-511.814	36.170	0.275	0.242
-510.799	-150.365	0.247	-0.019
-509.785	-38.055	-0.313	-0.166
-508.770	-41.731	-0.207	-0.106
-507.756	35.740	-0.260	0.228
-506.741	248.569	0.321	0.542
-505.726	-35.088	0.127	-0.069
-504.712	-200.000	-0.013	-0.095
-503.697	231.431	-0.112	0.184
-502.683	-36.547	0.138	0.074
-501.668	18.825	0.239	0.191
-500.653	-67.906	-0.098	0.038
-499.639	303.621	-0.116	-0.215
-498.624	400.524	-0.143	-0.299
-497.610	-181.974	0.268	-0.005
-496.595	43.190	0.187	-0.170
-495.581	800.000	0.120	-0.378
-494.566	-112.852	0.207	0.041
-493.551	-58.799	-0.175	-0.076
-492.537	800.000	0.058	0.172
-491.522	800.000	0.055	-0.234
-490.508	-108.508	0.320	0.069
-489.493	-200.000	0.012	-0.142
-488.478	147.721	-0.069	-0.093
-487.464	125.804	-0.070	0.088
-486.449	-138.607	0.218	0.024
-485.435	42.277	-0.042	0.038
-484.420	20.294	0.112	-0.090
-483.405	-40.894	0.101	-0.052
-482.391	-200.000	-0.055	0.247
-481.376	-74.558	0.229	0.082
-480.362	-61.292	0.150	-0.063
-479.347	-200.000	0.005	-0.043
-478.332	800.000	0.021	0.088
-477.318	167.970	0.184	0.261
-476.303	-80.563	-0.163	-0.054
-475.289	179.175	0.098	0.142
-474.274	-27.258	-0.159	0.092
-473.259	271.044	-0.119	0.210
-472.245	-113.274	0.128	0.025
-471.230	-2.212	0.027	0.019
-470.216	-94.565	-0.297	-0.081
-469.201	-200.000	-0.023	0.351
-468.186	369.577	0.094	0.191
-467.172	-139.285	0.038	-0.004
-466.157	215.713	0.209	-0.330
-465.143	692.466	-0.085	0.221
-464.128	-200.000	0.015	-0.132
-463.113	-200.000	-0.027	0.191
-462.099	-200.000	-0.008	0.074
-461.084	-145.912	-0.515	0.046
-460.070	67.237	0.192	0.195
-459.055	800.000	0.117	-0.352
-458.040	-93.782	0.261	-0.072
-457.026	-63.730	-0.150	0.061
-456.011	459.984	0.038	0.084
-454.997	543.196	-0.074	-0.176
-453.982	-54.997	-0.132	0.059
-452.968	-19.083	0.213	0.132
-451.953	-163.053	-0.030	0.001
-450.938	-135.920	0.159	0.019
-449.924	-168.509	-0.147	0.006
-448.909	35.966	0.023	0.020
-447.895	-131.763	-0.261	-0.034
-446.880	-102.986	0.349	-0.082
-445.865	-200.000	-0.048	0.272
-444.851	93.892	-0.142	-0.161
-443.836	-131.582	-0.189	0.025
-442.822	187.073	0.170	0.253
-441.807	-200.000	0.012	0.158
-440.792	121.187	0.094	0.117
-439.778	800.000	0.043	-0.164
-438.763	38.633	0.231	0.205
-437.749	-2.039	-0.257	-0.180
-436.734	-39.488	-0.334	0.175
-435.719	-31.023	-0.239	-0.135
-434.705	-35.233	-0.191	-0.104
-433.690	35.271	-0.063	0.055
-432.676	-23.460	0.180	-0.108
-431.661	22.378	0.252	0.205
-430.646	-200.000	-0.030	0.315
-429.632	418.823	0.147	0.312
-428.617	-75.739	-0.050	0.018
-427.603	-86.781	0.282	-0.086
-426.588	-200.000	-0.003	0.058
-425.573	9.347	0.043	0.032
-424.559	53.828	0.170	-0.163
-423.544	19.019	0.021	-0.017
-422.530	-173.331	-0.119	-0.004
-421.515	-200.000	0.026	0.260
-420.500	23.865	-0.105	-0.086
-419.486	274.975	0.124	0.219
-418.471	183.280	0.030	0.045
-417.457	800.000	0.024	0.099
-416.442	-200.000	-0.179	-0.001
-415.428	52.606	0.119	0.113
-414.413	-149.358	-0.190	-0.015
-413.398	487.483	0.034	0.077
-412.384	-200.000	0.006	-0.283
-411.369	-180.063	-0.311	-0.007
-410.355	-123.606	-0.045	-0.007
-409.340	65.286	0.197	-0.198
-408.325	534.743	0.077	-0.181
-407.311	-200.000	0.064	0.362
-406.296	66.531	-0.152	0.153
-405.282	-88.938	0.208	-0.061
-404.267	-200.000	-0.032	-0.161
-403.252	85.587	-0.255	0.278
-402.238	13.473	0.128	0.099
-401.223	-200.000	0.038	-0.215
-400.209	-167.725	-0.207	0.008
-399.194	800.000	-0.093	-0.282
-398.179	7.871	0.062	-0.046
-397.165	800.000	0.045	-0.158
-396.150	-87.603	0.131	0.039
-395.136	-176.685	0.165	-0.004
-394.121	-177.969	0.176	-0.004
-393.106	-153.344	-0.170	-0.012
-392.092	318.327	0.028	0.053
-391.077	-200.000	-0.015	0.098
-390.063	-200.000	-0.044	-0.228
-389.048	-26.204	0.026	0.015
-388.033	-41.869	0.100	-0.051
-387.019	209.341	0.146	0.227
-386.004	258.658	0.068	-0.117
-384.990	-200.000	0.010	0.182
-383.975	-128.546	-0.481	-0.068
-382.960	-27.973	-0.324	-0.186
-381.946	-200.000	-0.003	0.079
-380.931	65.891	0.157	-0.158
-379.917	303.700	0.133	0.244
-378.902	242.293	0.093	0.155
-377.888	-120.340	0.131	-0.022
-376.873	180.351	-0.102	-0.149
-375.858	-130.747	0.127	-0.017
-374.844	800.000	-0.044	-0.183
-373.829	-200.000	0.002	0.021
-372.815	41.668	0.028	0.025
-371.800	-200.000	-0.001	-0.135
-370.785	-187.458	0.097	0.001
-369.771	-10.838	0.122	-0.080
-368.756	-90.505	-0.209	-0.060
-367.742	-159.690	0.387	-0.021
-366.727	-134.280	-0.430	-0.053
-365.712	-25.996	-0.221	0.129
-364.698	44.672	0.138	-0.126
-363.683	283.539	0.083	-0.148
-362.669	-97.453	-0.116	-0.030
-361.654	46.852	0.090	0.083
-360.639	129.797	0.092	-0.117
-359.625	-0.030	-0.440	-0.311
-358.610	3.801	-0.066	0.048
-357.596	-91.101	0.220	0.063
-356.581	624.794	-0.023	0.057
-355.566	-24.846	0.228	-0.135
-354.552	144.827	-0.031	-0.041
-353.537	-91.760	-0.294	0.083
-352.523	-35.149	0.197	0.107
-351.508	215.825	0.178	0.280
-350.493	223.734	0.078	0.125
-349.479	-23.885	0.258	-0.153
-348.464	-30.288	-0.132	0.074
-347.450	-15.259	0.183	0.116
-346.435	64.301	0.131	0.131
-345.420	9.455	-0.290	0.218
-344.406	-110.371	-0.249	0.051
-343.391	-200.000	0.036	0.292
-342.377	140.835	-0.244	-0.320
-341.362	800.000	-0.115	0.370
-340.348	-12.145	0.191	0.124
-339.333	-200.000	0.057	0.269
-338.318	-12.320	-0.065	-0.042
-337.304	-91.750	-0.300	0.085
-336.289	72.538	-0.159	-0.164
-335.275	-102.358	0.255	-0.061
-334.260	120.498	-0.087	-0.107
-333.245	-152.116	-0.097	-0.007
-332.231	-200.000	0.013	-0.325
-331.216	98.896	0.112	-0.128
-330.202	65.197	0.238	-0.238
-329.187	56.592	0.146	0.141
-328.172	-9.425	0.359	0.238
-327.158	6.852	0.318	-0.235
-326.143	800.000	0.064	0.194
-325.129	3.015	-0.202	0.146
-324.114	-200.000	0.047	-0.247
-323.099	97.417	0.196	0.223
-322.085	-200.000	-0.051	-0.438
-321.070	-83.427	0.277	-0.088
-320.056	-65.151	-0.226	0.090
-319.041	-150.824	-0.169	0.013
-318.026	45.386	0.111	0.101
-317.012	-200.000	0.046	0.202
-315.997	47.775	0.121	-0.112
-314.983	152.147	-0.069	-0.093
-313.968	173.015	0.027	0.038
-312.953	424.989	-0.166	-0.353
-311.939	-24.354	0.243	-0.143
-310.924	800.000	-0.084	-0.269
-309.910	91.850	-0.064	0.071
-308.895	-200.000	0.015	0.532
-307.880	6.160	-0.104	-0.076
-306.866	800.000	-0.080	0.295
-305.851	-106.145	-0.301	0.067
-304.837	800.000	0.080	-0.268
-303.822	-62.843	0.037	0.015
-302.807	-154.503	0.109	0.007
-301.793	18.202	-0.124	0.098
-300.778	-200.000	0.009	0.397
-299.764	-200.000	0.039	-0.214
-298.749	18.043	-0.143	0.113
-297.735	-63.971	0.110	-0.044
-296.720	13.456	-0.189	-0.145
-295.705	-200.000	0.037	0.209
-294.691	252.873	-0.087	0.147
-293.676	97.062	0.088	0.100
-292.662	73.778	-0.131	0.136
-291.647	800.000	0.046	-0.188
-290.632	-200.000	-0.038	-0.245
-289.618	3.570	0.404	0.291
-288.603	-57.831	-0.148	-0.064
-287.589	-130.300	0.299	-0.040
-286.574	44.379	-0.287	-0.261
-285.559	-35.212	-0.347	0.187
-284.545	-135.749	0.329	0.039
-283.530	32.567	0.133	-0.114
-282.516	-168.360	0.254	-0.010
-281.501	17.679	0.360	0.284
-280.486	143.901	-0.085	-0.112
-279.472	-200.000	-0.033	-0.196
-278.457	-40.121	0.194	-0.100
-277.443	-128.013	-0.038	0.005
-276.428	332.660	0.066	0.126
-275.413	-131.050	0.271	-0.036
-274.399	-40.776	-0.239	-0.123
-273.384	344.485	-0.020	-0.038
-272.370	670.626	0.149	-0.382
-271.355	-90.155	0.247	0.071
-270.340	17.358	0.299	-0.235
-269.326	64.245	-0.172	0.171
-268.311	-200.000	-0.007	-0.045
-267.297	-49.763	-0.298	0.140
-266.282	180.151	0.066	-0.096
-265.267	241.126	-0.101	0.167
-264.253	-200.000	-0.028	0.200
-263.238	117.118	0.142	0.173
-262.224	509.476	0.044	-0.100
-261.209	-115.139	0.064	0.012
-260.195	-10.764	-0.086	0.056
-259.180	-156.453	0.247	0.015
-258.165	188.853	0.080	-0.118
-257.151	-200.000	0.036	-0.379
-256.136	177.683	-0.069	-0.099
-255.122	48.303	-0.258	0.238
-254.107	-99.421	-0.504	-0.126
-253.092	-150.924	0.185	-0.014
-252.078	-91.787	0.274	0.077
-251.063	-92.472	-0.219	-0.061
-250.049	-200.000	0.025	-0.138
-249.034	71.862	-0.211	-0.217
-248.019	-31.999	0.071	0.039
-247.005	-10.749	0.146	0.096
-245.990	82.471	-0.229	0.246
-244.976	-128.083	-0.220	-0.031
-243.961	-136.214	0.235	-0.027
-242.946	157.185	-0.179	-0.244
-241.932	726.138	0.110	-0.291
-240.917	-127.806	-0.359	0.051
-239.903	135.560	-0.097	-0.125
-238.888	800.000	0.078	-0.315
-237.873	53.227	0.115	-0.109
-236.859	501.298	-0.067	0.154
-235.844	-200.000	-0.021	-0.123
-234.830	5.616	-0.110	0.080
-233.815	-38.587	0.365	-0.191
-232.800	-96.374	-0.230	0.060
-231.786	-32.268	-0.155	-0.086
-230.771	-56.168	-0.145	-0.064
-229.757	102.430	0.257	0.297
-228.742	24.591	0.107	-0.087
-227.727	-24.455	0.061	-0.036
-226.713	29.289	0.106	-0.089
-225.698	800.000	0.047	0.173
-224.684	-3.499	0.090	-0.062
-223.669	-124.127	-0.206	-0.032
-222.655	243.912	-0.138	-0.228
-221.640	-143.581	0.347	0.033
-220.625	37.455	0.169	-0.148
-219.611	-106.950	0.209	-0.046
-218.596	9.145	0.119	-0.089
-217.582	-67.311	-0.178	0.069
-216.567	206.408	-0.195	-0.300
-215.552	111.455	-0.127	0.152
-214.538	800.000	0.019	-0.071
-213.523	-80.621	-0.468	0.154
-212.509	-48.115	-0.376	-0.180
-211.494	-6.076	0.276	0.186
-210.479	-200.000	-0.002	0.151
-209.465	-77.148	-0.192	0.066
-208.450	390.448	0.116	0.237
-207.436	82.477	-0.106	-0.113
-206.421	105.480	0.150	0.175
-205.406	-10.899	-0.147	0.096
-204.392	39.210	0.278	-0.245
-203.377	72.903	0.224	0.231
-202.363	-165.766	-0.346	-0.015
-201.348	269.079	-0.116	-0.200
-200.333	-52.817	-0.100	-0.045
-199.319	-113.908	-0.157	0.030
-198.304	-53.435	0.130	-0.059
-197.290	800.000	0.071	0.270
-196.275	109.594	0.197	0.233
-195.260	-82.851	0.376	0.120
-194.246	356.017	0.102	-0.199
-193.231	184.785	0.072	-0.105
-192.217	-78.620	0.308	0.104
-191.202	34.268	0.193	-0.166
-190.187	-13.901	0.336	0.214
-189.173	-192.424	-0.141	0.001
-188.158	58.639	0.308	0.298
-187.144	76.587	0.242	0.253
-186.129	-72.433	-0.072	-0.026
-185.114	47.111	-0.220	-0.201
-184.100	800.000	-0.091	-0.380
-183.085	164.772	0.041	-0.057
-182.071	-38.086	-0.151	-0.079
-181.056	-113.840	-0.173	-0.033
-180.042	264.895	0.184	-0.315
-179.027	611.433	0.052	-0.128
-178.012	33.076	0.242	0.207
-176.998	-1.793	0.240	0.166
-175.983	-159.177	-0.327	-0.018
-174.969	152.605	-0.174	0.235
-173.954	-75.048	0.039	-0.014
-172.939	800.000	-0.034	-0.113
-171.925	-31.192	-0.300	-0.167
-170.910	603.651	0.075	-0.183
-169.896	157.798	0.210	-0.287
-168.881	-144.951	0.366	0.033
-167.866	-115.974	-0.289	-0.053
-166.852	414.603	0.123	0.258
-165.837	-90.372	-0.352	-0.101
-164.823	800.000	-0.042	-0.125
-163.808	-38.054	-0.090	0.047
-162.793	-46.850	0.049	0.024
-161.779	-113.973	0.206	0.039
-160.764	-18.624	-0.400	-0.245
-159.750	163.414	0.049	0.068
-158.735	-6.294	-0.141	0.094
-157.720	35.721	-0.158	0.136
-156.706	-45.592	0.440	0.214
-155.691	66.195	-0.215	-0.215
-154.677	104.270	0.142	0.165
-153.662	-11.753	0.271	-0.175
-152.647	-6.700	0.174	0.117
-151.633	61.709	-0.149	0.146
-150.618	-200.000	0.011	-0.085
-149.604	-70.392	0.044	-0.016
-148.589	-200.000	0.023	0.157
-147.574	-114.922	0.116	-0.022
-146.560	2.838	0.258	0.184
-145.545	81.643	-0.307	-0.327
-144.531	30.717	-0.205	-0.172
-143.516	-200.000	0.056	0.412
-142.502	555.475	0.107	0.254
-141.487	76.171	-0.178	0.185
-140.472	578.383	-0.091	-0.218
-139.458	800.000	0.036	0.141
-138.443	420.502	-0.097	0.204
-137.429	141.900	0.080	0.105
-136.414	376.607	0.172	0.346
-135.399	277.463	0.098	0.172
-134.385	-95.133	0.164	0.044
-133.370	61.338	-0.187	0.183
-132.356	552.046	0.111	-0.262
-131.341	-22.483	-0.275	0.164
-130.326	-200.000	0.007	-0.236
-129.312	-103.916	0.207	-0.048
-128.297	-64.782	-0.031	-0.012
-127.283	46.623	-0.202	-0.185
-126.268	-200.000	-0.053	-0.301
-125.253	-35.324	-0.165	0.088
-124.239	-200.000	-0.017	-0.368
-123.224	63.995	-0.125	-0.124
-122.210	-200.000	0.029	0.217
-121.195	57.546	0.193	0.186
-120.180	16.504	0.089	-0.069
