DTS Sentinel unit serial number:	SN413079Multiplexer serial number:	ORYXHardware model number:	OX4-SRSoftware version number:	ORYX F/W v4.00 Oryx Data Collector v3.7.2.0data status	okinstallation	princeton_trtdifferential loss correction	single-endedforward channel	channel 2reverse channel	N/Adate	2019/09/13time	11:43:34forward acquisition time	60.00reverse acquisition time	0.00gamma	496.2192k internal	0.2318k external	0.2318temperature offset calibration	1.0209default loss term (dB/km)	0.3790temperature slope calibration	1.0000multiplexer offset coefficient	1.0000multiplexer slope coefficient	1.0000fibre end	0.00T internal ref (°C)	33.12T ext. ref 1 (°C)	4.51T ext. ref 2 (°C)	30.34length (m)	temperature (°C)	Stokes	anti-Stokes-747.200	54.570	0.102	0.099
-746.185	429.618	-0.139	0.305
-745.171	-28.676	0.240	0.140
-744.156	261.374	-0.127	0.222
-743.142	-119.769	-0.123	0.021
-742.127	100.561	-0.210	0.247
-741.112	256.328	0.070	0.122
-740.098	622.376	0.034	0.087
-739.083	90.950	0.162	0.184
-738.069	-50.746	-0.240	0.114
-737.054	-58.476	-0.243	-0.107
-736.039	-126.558	-0.395	0.059
-735.025	-95.492	0.168	-0.046
-734.010	198.205	-0.109	-0.168
-732.996	130.133	-0.056	-0.072
-731.981	-200.000	-0.341	0.000
-730.966	-104.318	-0.395	-0.093
-729.952	124.893	0.155	-0.198
-728.937	-200.000	-0.030	-0.300
-727.923	112.110	0.221	0.270
-726.908	-87.343	-0.297	-0.091
-725.894	-30.260	0.053	0.030
-724.879	73.261	0.083	0.088
-723.864	160.912	-0.238	-0.336
-722.850	96.834	0.360	-0.417
-721.835	-37.399	-0.100	0.054
-720.821	-139.953	-0.380	0.041
-719.806	211.565	-0.083	0.131
-718.791	-15.645	0.292	-0.189
-717.777	166.959	-0.175	0.251
-716.762	-200.000	-0.007	0.344
-715.748	77.990	-0.120	-0.130
-714.733	-200.000	-0.014	0.235
-713.718	-48.926	-0.191	-0.093
-712.704	122.727	0.171	-0.217
-711.689	-25.052	0.212	0.127
-710.675	-200.000	0.081	0.385
-709.660	-130.981	-0.339	-0.046
-708.645	-124.182	-0.491	0.078
-707.631	-63.880	-0.214	-0.088
-706.616	-200.000	-0.006	-0.093
-705.602	436.486	-0.152	-0.334
-704.587	-91.872	-0.265	0.076
-703.572	300.818	-0.168	0.313
-702.558	-41.596	0.184	-0.095
-701.543	82.325	-0.033	-0.036
-700.529	50.554	-0.295	0.282
-699.514	-16.052	-0.284	0.182
-698.499	-200.000	0.003	-0.463
-697.485	-148.290	0.266	-0.022
-696.470	-200.000	0.013	0.149
-695.456	7.046	-0.163	0.123
-694.441	439.994	0.036	0.079
-693.426	-16.887	0.117	-0.075
-692.412	-200.000	-0.040	-0.232
-691.397	-200.000	-0.009	-0.081
-690.383	-75.677	0.176	-0.063
-689.368	10.347	-0.336	0.259
-688.354	-72.607	0.100	-0.037
-687.339	112.627	-0.124	-0.151
-686.324	698.489	-0.108	0.286
-685.310	17.007	-0.233	-0.186
-684.295	42.113	0.140	0.129
-683.281	116.233	-0.115	-0.143
-682.266	-7.240	0.187	0.128
-681.251	-128.080	0.117	0.017
-680.237	-123.075	0.126	-0.020
-679.222	260.252	0.230	-0.401
-678.208	290.074	-0.040	-0.073
-677.193	12.839	0.112	-0.088
-676.178	161.023	-0.117	-0.165
-675.164	800.000	0.061	-0.231
-674.149	-101.013	0.298	0.074
-673.135	754.563	0.077	-0.210
-672.120	258.956	-0.275	-0.478
-671.105	800.000	0.054	-0.184
-670.091	-22.678	0.183	-0.112
-669.076	27.218	0.285	-0.241
-668.062	-55.542	-0.170	0.077
-667.047	752.156	0.059	0.160
-666.032	-149.773	-0.241	0.019
-665.018	-113.599	0.261	-0.052
-664.003	381.000	0.200	0.413
-662.989	112.043	0.108	0.132
-661.974	106.851	-0.036	-0.044
-660.959	-78.752	-0.187	-0.064
-659.945	-200.000	-0.002	-0.103
-658.930	-1.379	0.178	-0.127
-657.916	800.000	0.062	0.174
-656.901	-81.539	-0.127	0.042
-655.886	-57.933	-0.226	-0.100
-654.872	-200.000	0.022	-0.269
-653.857	159.455	-0.116	-0.163
-652.843	142.783	-0.371	0.498
-651.828	119.086	-0.025	0.032
-650.814	800.000	-0.039	0.149
-649.799	-26.894	0.206	-0.122
-648.784	-64.762	0.340	0.139
-647.770	-114.991	-0.084	-0.016
-646.755	-39.518	0.260	-0.137
-645.741	800.000	0.103	-0.296
-644.726	-134.207	0.107	0.013
-643.711	-200.000	-0.029	0.322
-642.697	589.567	-0.106	-0.262
-641.682	509.615	-0.119	-0.279
-640.668	53.027	-0.069	0.067
-639.653	-131.294	-0.340	0.045
-638.638	-200.000	-0.024	-0.198
-637.624	-92.851	0.219	-0.062
-636.609	-77.658	-0.164	0.057
-635.595	800.000	-0.087	0.254
-634.580	800.000	-0.058	0.204
-633.565	800.000	-0.103	-0.298
-632.551	-161.959	-0.176	-0.009
-631.536	82.505	-0.255	-0.279
-630.522	57.752	0.056	0.056
-629.507	800.000	0.062	0.230
-628.492	-71.875	0.151	0.057
-627.478	252.333	0.030	0.051
-626.463	-105.116	-0.061	-0.014
-625.449	16.968	0.040	0.032
-624.434	-31.274	0.264	0.150
-623.419	-200.000	0.010	0.147
-622.405	-85.350	-0.257	0.081
-621.390	161.067	0.287	-0.404
-620.376	-142.012	0.072	0.007
-619.361	177.187	-0.060	0.088
-618.346	800.000	0.091	0.344
-617.332	-144.626	0.088	-0.008
-616.317	800.000	-0.101	-0.348
-615.303	800.000	-0.056	-0.194
-614.288	-164.755	-0.159	0.007
-613.273	197.404	-0.149	0.230
-612.259	-26.350	0.326	-0.193
-611.244	-82.370	-0.174	-0.057
-610.230	-176.510	-0.191	-0.005
-609.215	587.925	0.077	-0.191
-608.201	41.374	-0.117	0.107
-607.186	-28.130	0.105	-0.061
-606.171	-200.000	-0.014	-0.105
-605.157	-70.863	0.147	-0.056
-604.142	54.712	0.039	-0.038
-603.128	84.402	0.164	0.180
-602.113	-200.000	0.003	-0.117
-601.098	-22.173	0.061	-0.037
-600.084	15.326	-0.279	0.221
-599.069	-42.272	-0.089	0.046
-598.055	267.534	0.123	-0.216
-597.040	-57.793	0.171	0.075
-596.025	182.654	-0.185	0.275
-595.011	163.998	0.068	0.097
-593.996	800.000	0.021	0.063
-592.982	25.130	-0.153	-0.128
-591.967	-180.863	-0.324	0.007
-590.952	-200.000	0.004	-0.240
-589.938	-102.625	-0.086	0.021
-588.923	-200.000	-0.006	0.099
-587.909	79.024	-0.041	-0.044
-586.894	-6.611	0.128	0.088
-585.879	800.000	-0.015	-0.057
-584.865	144.742	-0.100	-0.134
-583.850	-40.598	-0.092	-0.048
-582.836	-7.313	0.192	-0.131
-581.821	-72.501	0.382	0.142
-580.806	-85.196	0.123	0.039
-579.792	800.000	0.038	-0.164
-578.777	-11.382	0.339	0.224
-577.763	800.000	-0.060	0.213
-576.748	-73.406	-0.110	-0.041
-575.733	-143.064	-0.178	0.017
-574.719	-59.379	-0.080	-0.035
-573.704	171.753	0.091	-0.131
-572.690	15.517	0.156	-0.123
-571.675	-128.998	-0.087	-0.012
-570.661	-95.000	-0.111	-0.030
-569.646	-95.825	-0.227	0.061
-568.631	-41.628	0.041	0.021
-567.617	69.787	-0.137	-0.142
-566.602	-118.177	-0.069	0.012
-565.588	-99.899	0.117	-0.029
-564.573	-85.946	0.238	0.074
-563.558	800.000	-0.081	0.246
-562.544	-147.688	0.183	-0.015
-561.529	-6.425	0.196	0.134
-560.515	-66.332	-0.135	-0.054
-559.500	335.524	-0.099	-0.194
-558.485	100.071	0.079	-0.092
-557.471	-65.350	0.054	0.022
-556.456	-0.789	0.268	0.191
-555.442	-118.293	-0.054	0.010
-554.427	-8.569	-0.057	-0.039
-553.412	-168.111	-0.104	-0.004
-552.398	-12.636	-0.146	-0.095
-551.383	-68.967	-0.198	0.077
-550.369	245.594	0.094	0.159
-549.354	18.633	-0.151	0.121
-548.339	61.369	0.354	0.354
-547.325	615.715	0.097	0.245
-546.310	-62.126	-0.329	-0.138
-545.296	59.140	0.161	0.159
-544.281	275.067	0.099	-0.177
-543.266	160.826	-0.048	0.068
-542.252	571.779	-0.068	0.166
-541.237	-162.092	0.228	0.012
-540.223	800.000	-0.052	0.151
-539.208	-160.144	0.126	-0.007
-538.193	166.535	-0.168	0.239
-537.179	294.168	-0.167	0.306
-536.164	-136.608	0.201	0.023
-535.150	-200.000	-0.027	0.151
-534.135	800.000	-0.070	0.211
-533.121	37.720	-0.133	0.119
-532.106	800.000	0.060	-0.183
-531.091	95.497	0.296	-0.338
-530.077	73.993	-0.266	0.280
-529.062	-103.212	0.300	0.071
-528.048	-200.000	-0.081	-0.387
-527.033	656.017	0.043	-0.112
-526.018	550.027	-0.124	0.299
-525.004	-46.669	-0.382	-0.188
-523.989	-54.832	0.156	-0.071
-522.975	-112.956	-0.077	-0.015
-521.960	201.730	-0.158	-0.244
-520.945	302.476	-0.139	-0.258
-519.931	-72.488	-0.134	0.050
-518.916	212.610	-0.141	-0.223
-517.902	-200.000	0.003	-0.154
-516.887	-111.930	0.276	0.056
-515.872	21.613	-0.060	0.049
-514.858	99.310	0.155	0.180
-513.843	-22.770	0.072	-0.044
-512.829	-200.000	0.015	0.207
-511.814	604.347	-0.038	-0.095
-510.799	-63.903	-0.182	0.075
-509.785	410.874	0.083	0.176
-508.770	669.418	-0.061	0.157
-507.756	-175.532	-0.364	0.010
-506.741	-200.000	-0.032	-0.283
-505.726	-200.000	-0.023	-0.184
-504.712	-187.011	0.167	0.002
-503.697	-200.000	0.028	-0.338
-502.683	82.916	0.130	-0.142
-501.668	-200.000	-0.054	0.240
-500.653	-200.000	0.001	-0.037
-499.639	50.574	0.140	0.133
-498.624	47.427	-0.308	-0.288
-497.610	138.173	-0.042	-0.055
-496.595	-137.753	0.388	0.044
-495.581	421.217	0.117	-0.251
-494.566	460.803	0.090	-0.202
-493.551	-200.000	0.020	0.099
-492.537	-41.776	0.177	0.091
-491.522	103.733	0.224	0.264
-490.508	800.000	-0.082	-0.239
-489.493	-163.227	0.121	-0.006
-488.478	-93.346	0.389	0.108
-487.464	-15.656	0.095	-0.061
-486.449	-181.034	-0.188	-0.004
-485.435	182.064	-0.147	-0.216
-484.420	501.570	-0.078	0.181
-483.405	-122.942	-0.292	0.047
-482.391	-49.305	-0.205	-0.098
-481.376	205.255	0.105	0.164
-480.362	-27.363	-0.262	-0.153
-479.347	-125.248	-0.118	-0.018
-478.332	-70.956	-0.235	-0.089
-477.318	-200.000	0.015	-0.193
-476.303	320.099	0.109	-0.208
-475.289	52.903	0.034	0.032
-474.274	37.923	-0.298	0.265
-473.259	-90.557	0.213	0.062
-472.245	-108.665	0.308	0.066
-471.230	85.980	0.227	0.251
-470.216	425.642	0.053	-0.115
-469.201	-200.000	0.041	0.294
-468.186	409.135	0.015	0.033
-467.172	407.726	-0.053	0.112
-466.157	297.616	0.094	0.174
-465.143	800.000	0.058	-0.189
-464.128	-20.235	0.266	0.164
-463.113	-200.000	-0.082	0.397
-462.099	13.431	0.052	0.040
-461.084	-152.292	-0.117	-0.008
-460.070	62.330	0.126	-0.126
-459.055	125.350	0.191	-0.242
-458.040	-200.000	0.001	-0.059
-457.026	544.698	-0.062	0.148
-456.011	157.076	-0.105	0.145
-454.997	-11.434	0.069	0.045
-453.982	47.702	0.174	-0.163
-452.968	202.973	-0.052	-0.080
-451.953	-200.000	0.048	-0.461
-450.938	-70.331	-0.067	-0.026
-449.924	-95.122	0.066	-0.018
-448.909	-76.677	-0.189	0.066
-447.895	-46.331	-0.064	-0.031
-446.880	-200.000	-0.018	-0.090
-445.865	4.443	-0.178	0.131
-444.851	356.872	-0.102	-0.203
-443.836	17.475	-0.227	-0.181
-442.822	267.441	0.023	-0.040
-441.807	90.856	-0.136	-0.153
-440.792	6.364	0.215	0.159
-439.778	8.594	-0.035	-0.026
-438.763	6.866	0.089	-0.066
-437.749	-73.782	-0.452	0.164
-436.734	800.000	0.088	-0.288
-435.719	-101.280	-0.203	0.050
-434.705	-200.000	-0.041	0.197
-433.690	38.161	-0.297	0.264
-432.676	-200.000	-0.055	0.333
-431.661	178.568	0.094	0.137
-430.646	-145.983	-0.050	0.004
-429.632	-63.720	-0.225	-0.092
-428.617	-55.379	0.150	0.067
-427.603	-124.034	0.248	-0.039
-426.588	-72.268	0.052	0.019
-425.573	-200.000	-0.000	0.183
-424.559	-45.519	-0.184	0.091
-423.544	-60.833	0.144	0.061
-422.530	390.929	-0.072	-0.148
-421.515	-64.491	0.093	-0.038
-420.500	220.097	0.087	0.139
-419.486	-200.000	0.038	0.302
-418.471	285.120	-0.045	-0.080
-417.457	416.468	0.101	0.216
-416.442	385.150	-0.105	-0.217
-415.428	714.665	-0.072	0.190
-414.413	52.630	0.092	-0.088
-413.398	-167.070	0.257	-0.010
-412.384	800.000	0.112	-0.369
-411.369	62.279	-0.080	-0.080
-410.355	-200.000	0.024	0.161
-409.340	-2.903	0.138	-0.096
-408.325	-97.096	-0.117	0.031
-407.311	-130.375	0.292	0.040
-406.296	-4.744	-0.147	-0.101
-405.282	-200.000	-0.003	-0.015
-404.267	-21.263	-0.325	-0.198
-403.252	-94.684	-0.031	-0.008
-402.238	-200.000	0.022	-0.322
-401.223	253.191	-0.115	-0.196
-400.209	-200.000	-0.033	-0.277
-399.194	33.353	0.269	0.233
-398.179	-69.806	0.226	0.086
-397.165	-22.138	0.020	-0.012
-396.150	-200.000	-0.023	-0.196
-395.136	-139.324	-0.234	-0.025
-394.121	26.772	0.176	0.148
-393.106	-43.180	0.146	0.074
-392.092	-69.577	0.266	-0.102
-391.077	-77.616	-0.182	0.063
-390.063	-128.745	0.049	0.007
-389.048	295.070	0.068	0.124
-388.033	-99.746	-0.122	-0.030
-387.019	23.644	-0.226	-0.186
-386.004	419.720	0.107	-0.228
-384.990	99.126	-0.068	-0.079
-383.975	-15.325	-0.098	-0.063
-382.960	476.061	0.122	0.275
-381.946	97.770	-0.251	0.288
-380.931	-4.702	0.058	0.040
-379.917	93.025	-0.088	0.100
-378.902	-131.332	0.157	0.021
-377.888	194.586	0.080	0.122
-376.873	116.368	-0.060	0.073
-375.858	-153.297	0.221	0.015
-374.844	800.000	0.045	0.179
-373.829	40.293	0.021	0.019
-372.815	800.000	-0.039	-0.142
-371.800	102.147	0.082	-0.095
-370.785	-200.000	0.001	0.076
-369.771	-152.543	0.156	-0.011
-368.756	800.000	0.074	-0.228
-367.742	-83.043	-0.137	0.044
-366.727	196.100	0.191	0.290
-365.712	59.330	-0.108	0.106
-364.698	56.660	-0.148	0.144
-363.683	-141.423	-0.177	0.018
-362.669	800.000	0.114	-0.462
-361.654	-88.464	0.048	-0.014
-360.639	170.808	-0.044	-0.062
-359.625	-200.000	0.040	-0.250
-358.610	800.000	0.094	-0.343
-357.596	198.496	-0.095	-0.144
-356.581	442.888	0.138	-0.301
-355.566	199.686	0.175	-0.267
-354.552	-113.629	-0.408	0.079
-353.537	-6.044	-0.231	0.157
-352.523	800.000	0.072	0.216
-351.508	-113.980	-0.265	-0.051
-350.493	123.765	0.169	-0.212
-349.479	437.645	-0.099	-0.214
-348.464	64.447	-0.087	-0.088
-347.450	-6.101	0.086	-0.058
-346.435	-6.987	0.143	-0.096
-345.420	102.861	-0.209	-0.244
-344.406	-144.867	0.604	-0.055
-343.391	-145.312	-0.120	0.011
-342.377	80.374	0.113	-0.121
-341.362	45.138	-0.173	-0.159
-340.348	-47.695	-0.107	-0.052
-339.333	624.582	-0.104	0.262
-338.318	-126.950	0.213	-0.031
-337.304	-113.512	0.037	-0.007
-336.289	-49.708	0.209	-0.099
-335.275	-105.641	0.180	0.041
-334.260	800.000	-0.048	-0.189
-333.245	112.908	0.212	0.255
-332.231	34.560	0.096	0.084
-331.216	4.929	-0.074	0.054
-330.202	800.000	0.045	0.155
-329.187	501.810	0.045	-0.103
-328.172	46.182	0.100	0.093
-327.158	-46.500	-0.249	-0.122
-326.143	800.000	0.070	0.269
-325.129	408.767	-0.040	-0.084
-324.114	800.000	0.035	-0.126
-323.099	-101.238	0.197	-0.048
-322.085	-134.185	-0.224	-0.027
-321.070	639.816	0.118	0.299
-320.056	-200.000	0.015	0.163
-319.041	-72.089	-0.096	0.036
-318.026	360.126	0.164	0.326
-317.012	-200.000	-0.039	0.320
-315.997	116.171	0.057	0.069
-314.983	583.004	0.092	0.226
-313.968	-113.380	-0.208	-0.041
-312.953	800.000	-0.115	-0.332
-311.939	217.272	0.101	-0.161
-310.924	360.650	-0.095	0.189
-309.910	644.285	0.088	0.223
-308.895	-11.282	0.036	-0.023
-307.880	178.693	-0.194	0.282
-306.866	-73.561	-0.208	-0.075
-305.851	-65.308	0.296	0.118
-304.837	-122.541	0.146	0.024
-303.822	-75.628	0.307	-0.109
-302.807	35.848	-0.143	-0.125
-301.793	-145.324	-0.173	0.016
-300.778	-200.000	-0.003	-0.277
-299.764	156.276	0.145	-0.200
-298.749	800.000	0.095	0.320
-297.735	29.008	-0.191	0.161
-296.720	-138.377	-0.490	0.054
-295.705	85.447	-0.199	-0.217
-294.691	-41.264	-0.063	-0.032
-293.676	311.433	-0.080	0.150
-292.662	754.816	0.015	-0.040
-291.647	800.000	0.104	-0.308
-290.632	-15.045	-0.068	-0.043
-289.618	-200.000	-0.005	-0.038
-288.603	21.997	0.288	0.234
-287.589	401.908	0.077	-0.162
-286.574	-91.686	-0.314	-0.089
-285.559	-200.000	-0.016	-0.167
-284.545	-5.356	0.157	0.107
-283.530	227.573	0.224	0.362
-282.516	-119.832	-0.173	-0.030
-281.501	-200.000	0.067	-0.439
-280.486	-103.394	0.078	0.018
-279.472	-62.951	0.100	0.041
-278.457	-200.000	0.019	-0.343
-277.443	-38.989	-0.288	-0.151
-276.428	-91.769	0.356	0.101
-275.413	198.683	-0.071	0.108
-274.399	800.000	-0.156	0.442
-273.384	114.535	0.089	-0.108
-272.370	-9.945	0.173	0.115
-271.355	-0.292	-0.217	0.154
-270.340	181.962	0.044	-0.064
-269.326	-10.031	0.089	0.059
-268.311	-44.113	-0.182	0.091
-267.297	8.698	-0.149	-0.112
-266.282	800.000	-0.046	0.192
-265.267	11.934	0.250	0.191
-264.253	-200.000	0.010	0.050
-263.238	576.842	-0.123	-0.298
-262.224	352.030	0.092	0.181
-261.209	571.683	-0.088	-0.212
-260.195	354.689	-0.153	0.302
-259.180	-177.557	0.070	-0.002
-258.165	15.805	-0.142	-0.111
-257.151	-126.462	-0.239	-0.035
-256.136	-200.000	0.019	0.167
-255.122	27.208	-0.121	0.101
-254.107	52.435	-0.187	0.177
-253.092	800.000	-0.036	-0.115
-252.078	-141.128	0.307	-0.031
-251.063	-170.204	0.370	-0.013
-250.049	-102.568	-0.118	-0.028
-249.034	-47.176	-0.107	-0.052
-248.019	119.204	-0.185	0.228
-247.005	200.419	0.088	0.134
-245.990	-20.057	-0.193	0.118
-244.976	-6.941	-0.054	-0.036
-243.961	-200.000	0.018	-0.177
-242.946	-93.721	0.635	0.174
-241.932	-139.649	0.092	0.010
-240.917	-35.985	-0.056	-0.030
-239.903	-70.035	0.218	-0.082
-238.888	-90.493	0.062	0.018
-237.873	-5.292	0.349	-0.238
-236.859	133.600	0.127	-0.163
-235.844	149.860	0.104	-0.140
-234.830	-17.110	-0.165	-0.103
-233.815	-40.269	0.343	-0.177
-232.800	-58.701	-0.120	0.052
-231.786	-200.000	0.032	0.206
-230.771	-50.545	0.071	0.033
-229.757	-24.899	-0.257	-0.151
-228.742	83.653	0.131	-0.142
-227.727	-200.000	-0.011	0.105
-226.713	-86.633	-0.198	0.060
-225.698	-200.000	-0.035	0.486
-224.684	800.000	0.093	-0.282
-223.669	62.593	-0.261	-0.259
-222.655	253.855	-0.215	-0.365
-221.640	51.192	-0.368	-0.346
-220.625	-91.884	-0.143	0.040
-219.611	210.605	-0.061	-0.095
-218.596	30.070	0.287	0.243
-217.582	140.336	-0.100	0.130
-216.567	734.290	0.091	-0.241
-215.552	64.247	-0.145	0.145
-214.538	37.584	-0.171	0.150
-213.523	-138.136	-0.060	-0.007
-212.509	-0.141	-0.026	-0.018
-211.494	-97.126	0.263	0.068
-210.479	-102.492	0.113	-0.027
-209.465	213.551	0.063	0.098
-208.450	800.000	-0.057	0.210
-207.436	-70.011	-0.227	0.086
-206.421	-96.799	-0.276	-0.072
-205.406	-140.984	-0.287	0.029
-204.392	267.079	0.117	-0.203
-203.377	-74.255	-0.037	0.013
-202.363	-91.761	0.246	-0.069
-201.348	-200.000	0.007	0.239
-200.333	-200.000	-0.024	0.315
-199.319	261.211	0.103	-0.177
-198.304	-66.671	-0.326	-0.128
-197.290	-79.508	0.318	0.106
-196.275	800.000	-0.120	0.394
-195.260	656.821	0.061	-0.155
-194.246	9.150	-0.075	-0.056
-193.231	221.290	-0.083	0.132
-192.217	-132.464	0.300	-0.038
-191.202	-200.000	0.016	0.121
-190.187	-200.000	-0.003	-0.017
-189.173	-200.000	-0.008	-0.105
-188.158	-49.655	-0.375	0.177
-187.144	72.902	0.099	-0.102
-186.129	43.105	-0.213	0.192
-185.114	-200.000	0.062	-0.402
-184.100	2.284	0.045	0.032
-183.085	-200.000	-0.048	-0.265
-182.071	-155.055	-0.357	-0.023
-181.056	-200.000	-0.023	-0.271
-180.042	-182.493	-0.265	0.005
-179.027	-113.014	0.332	0.065
-178.012	110.058	0.167	-0.198
-176.998	19.146	0.215	-0.171
-175.983	-95.679	-0.448	-0.119
-174.969	-136.266	0.072	-0.008
-173.954	44.530	0.194	0.177
-172.939	118.926	-0.139	0.170
-171.925	89.194	-0.158	-0.174
-170.910	-200.000	0.002	0.141
-169.896	9.194	0.285	0.213
-168.881	474.526	-0.134	0.299
-167.866	-165.325	-0.404	-0.018
-166.852	800.000	0.052	0.177
-165.837	-200.000	0.014	0.214
-164.823	60.977	-0.220	0.216
-163.808	32.388	0.161	0.138
-162.793	-200.000	0.018	-0.125
-161.779	-200.000	0.019	-0.227
-160.764	28.600	0.373	-0.312
-159.750	-112.237	0.328	-0.065
-158.735	-85.921	-0.186	0.057
-157.720	800.000	-0.039	-0.145
-156.706	61.580	0.156	0.153
-155.691	767.783	-0.045	0.122
-154.677	-13.304	0.209	0.134
-153.662	800.000	-0.068	0.221
-152.647	12.986	0.147	-0.113
-151.633	-160.203	-0.095	-0.005
-150.618	-105.236	-0.153	-0.035
-149.604	38.145	-0.242	0.213
-148.589	-49.095	0.225	0.107
-147.574	-85.542	-0.135	0.042
-146.560	-105.508	-0.257	-0.058
-145.545	-92.743	-0.373	-0.103
-144.531	257.050	0.177	0.301
-143.516	77.399	0.073	0.077
-142.502	-118.515	0.111	0.019
-141.487	-30.928	0.264	-0.147
-140.472	-200.000	-0.012	0.173
-139.458	85.796	0.112	0.121
-138.443	-13.905	-0.130	-0.083
-137.429	-36.550	-0.355	0.189
-136.414	-85.230	-0.147	-0.046
-135.399	-57.220	-0.269	-0.117
-134.385	254.946	0.231	0.391
-133.370	557.070	-0.088	-0.209
-132.356	-10.773	-0.184	-0.120
-131.341	-200.000	-0.051	-0.293
-130.326	-37.665	-0.174	-0.091
-129.312	135.607	0.142	0.183
-128.297	39.112	-0.252	0.223
-127.283	-73.070	-0.180	-0.065
-126.268	95.481	0.105	-0.119
-125.253	312.760	-0.115	-0.213
-124.239	726.657	0.076	-0.200
-123.224	307.454	0.128	-0.235
-122.210	800.000	-0.049	0.160
-121.195	90.077	0.219	0.242
-120.180	-10.985	0.349	0.228
