DTS Sentinel unit serial number:	SN413079Multiplexer serial number:	ORYXHardware model number:	OX4-SRSoftware version number:	ORYX F/W v4.00 Oryx Data Collector v3.7.2.0data status	okinstallation	princeton_trtdifferential loss correction	single-endedforward channel	channel 2reverse channel	N/Adate	2019/09/12time	04:33:11forward acquisition time	60.00reverse acquisition time	0.00gamma	496.2192k internal	0.2327k external	0.2327temperature offset calibration	1.0114default loss term (dB/km)	0.3790temperature slope calibration	1.0000multiplexer offset coefficient	1.0000multiplexer slope coefficient	1.0000fibre end	0.00T internal ref (°C)	31.61T ext. ref 1 (°C)	2.45T ext. ref 2 (°C)	26.65length (m)	temperature (°C)	Stokes	anti-Stokes-747.200	-12.357	0.211	-0.139
-746.185	123.906	0.233	0.295
-745.171	-154.668	0.260	-0.017
-744.156	-110.549	-0.034	0.007
-743.142	61.144	-0.128	0.128
-742.127	800.000	-0.103	0.339
-741.112	-63.693	-0.196	0.081
-740.098	201.766	0.058	0.090
-739.083	333.458	-0.067	-0.130
-738.069	354.172	0.179	0.357
-737.054	-88.250	-0.114	0.034
-736.039	666.933	0.144	-0.376
-735.025	507.447	0.130	-0.305
-734.010	-51.953	-0.112	-0.052
-732.996	-129.301	-0.029	-0.004
-731.981	358.220	-0.059	-0.119
-730.966	-100.416	0.192	0.048
-729.952	-22.993	-0.162	-0.099
-728.937	86.186	0.114	-0.127
-727.923	-34.597	-0.369	0.204
-726.908	-200.000	-0.010	-0.085
-725.894	-96.452	-0.170	0.045
-724.879	43.723	-0.132	-0.121
-723.864	800.000	0.059	0.166
-722.850	800.000	0.096	-0.276
-721.835	-16.835	-0.163	-0.104
-720.821	-74.587	-0.296	0.107
-719.806	119.874	0.248	0.310
-718.791	14.201	-0.141	-0.111
-717.777	-56.063	-0.119	-0.054
-716.762	-14.259	-0.188	-0.122
-715.748	340.866	-0.103	-0.202
-714.733	217.725	-0.146	-0.235
-713.718	186.531	0.150	-0.225
-712.704	-113.116	-0.020	0.004
-711.689	272.073	0.168	0.298
-710.675	-32.665	-0.439	0.246
-709.660	198.453	-0.162	-0.249
-708.645	235.535	0.148	0.247
-707.631	152.031	0.098	0.134
-706.616	68.375	-0.022	-0.023
-705.602	-200.000	-0.051	0.339
-704.587	-49.268	0.063	-0.030
-703.572	-34.149	0.313	-0.173
-702.558	-200.000	0.005	0.130
-701.543	-117.237	-0.340	0.062
-700.529	800.000	0.063	0.226
-699.514	800.000	-0.044	-0.168
-698.499	-141.850	0.347	-0.035
-697.485	208.596	-0.104	-0.164
-696.470	65.841	0.337	-0.344
-695.456	-150.965	-0.330	-0.025
-694.441	75.935	-0.188	0.200
-693.426	95.217	0.018	-0.021
-692.412	800.000	-0.070	0.196
-691.397	111.346	-0.151	0.183
-690.383	267.972	0.030	0.053
-689.368	-12.773	0.224	0.147
-688.354	-113.348	0.231	0.046
-687.339	516.829	-0.131	-0.309
-686.324	171.627	-0.318	-0.459
-685.310	169.260	0.012	-0.017
-684.295	-200.000	-0.065	0.354
-683.281	-200.000	-0.011	-0.056
-682.266	-139.914	-0.329	-0.035
-681.251	-151.619	0.219	-0.016
-680.237	-200.000	-0.054	-0.247
-679.222	22.485	0.180	-0.148
-678.208	-200.000	0.007	-0.175
-677.193	-135.455	-0.139	0.017
-676.178	-0.256	0.021	0.015
-675.164	-200.000	-0.010	-0.051
-674.149	-64.195	-0.109	-0.044
-673.135	709.983	-0.051	-0.136
-672.120	-165.577	0.301	0.013
-671.105	-71.803	-0.177	-0.066
-670.091	800.000	-0.054	-0.152
-669.076	704.847	-0.155	-0.412
-668.062	-154.636	0.274	-0.018
-667.047	-133.260	0.112	-0.014
-666.032	-200.000	-0.011	-0.392
-665.018	175.705	0.118	-0.172
-664.003	246.357	-0.108	-0.183
-662.989	800.000	0.079	0.329
-661.974	-78.876	0.256	0.088
-660.959	800.000	0.125	0.364
-659.945	-193.254	-0.075	-0.001
-658.930	-29.478	0.159	-0.091
-657.916	-6.464	0.142	-0.097
-656.901	11.509	-0.088	0.068
-655.886	800.000	-0.086	-0.303
-654.872	-121.113	0.278	0.047
-653.857	-70.894	-0.198	0.075
-652.843	401.182	0.068	-0.144
-651.828	647.627	0.024	-0.061
-650.814	800.000	-0.052	0.172
-649.799	-200.000	0.015	-0.222
-648.784	382.562	0.023	-0.047
-647.770	58.256	-0.021	0.020
-646.755	301.828	0.082	0.153
-645.741	66.124	0.071	-0.073
-644.726	631.549	-0.052	0.131
-643.711	128.234	0.120	0.153
-642.697	-51.120	-0.052	0.025
-641.682	800.000	0.037	-0.139
-640.668	-12.554	-0.062	0.041
-639.653	673.287	-0.052	-0.134
-638.638	73.677	-0.157	-0.165
-637.624	-123.324	0.123	-0.020
-636.609	446.359	0.229	0.506
-635.595	364.525	0.120	-0.242
-634.580	-134.203	-0.182	0.022
-633.565	-82.418	-0.262	-0.085
-632.551	-200.000	0.026	0.261
-631.536	-133.066	-0.355	0.045
-630.522	-139.963	-0.151	-0.016
-629.507	-72.515	-0.076	-0.028
-628.492	478.297	0.090	-0.205
-627.478	-200.000	0.010	-0.147
-626.463	800.000	-0.097	-0.329
-625.449	-200.000	0.013	-0.198
-624.434	376.974	-0.087	-0.177
-623.419	55.221	-0.244	-0.236
-622.405	800.000	-0.012	-0.051
-621.390	617.276	-0.069	-0.173
-620.376	-77.480	-0.159	-0.055
-619.361	131.138	-0.243	0.313
-618.346	266.539	-0.025	-0.045
-617.332	-200.000	0.034	0.189
-616.317	219.722	-0.121	-0.194
-615.303	32.527	-0.139	-0.120
-614.288	-200.000	0.019	0.290
-613.273	-40.577	0.208	0.108
-612.259	7.543	0.158	-0.118
-611.244	-55.454	0.101	-0.045
-610.230	-121.812	-0.312	0.052
-609.215	-53.022	-0.394	0.182
-608.201	-95.789	-0.391	0.105
-607.186	-49.505	-0.259	0.123
-606.171	-101.128	0.277	-0.068
-605.157	225.995	-0.039	-0.063
-604.142	128.642	-0.048	0.062
-603.128	-78.590	-0.167	0.057
-602.113	275.685	-0.098	0.174
-601.098	153.793	-0.065	-0.090
-600.084	-50.377	0.261	-0.124
-599.069	61.756	-0.324	-0.323
-598.055	-152.426	0.380	0.027
-597.040	89.960	0.132	-0.148
-596.025	-200.000	-0.092	0.497
-595.011	565.728	0.156	-0.379
-593.996	716.900	0.068	-0.181
-592.982	-52.813	0.141	-0.065
-591.967	-200.000	-0.023	-0.336
-590.952	1.867	0.133	-0.096
-589.938	114.766	0.057	0.070
-588.923	-53.402	-0.148	-0.068
-587.909	8.965	-0.097	0.074
-586.894	-156.642	0.331	-0.021
-585.879	164.809	0.110	0.156
-584.865	-200.000	-0.066	-0.300
-583.850	162.349	0.027	-0.039
-582.836	201.248	-0.265	0.409
-581.821	347.318	-0.142	-0.280
-580.806	-44.856	0.139	-0.069
-579.792	-58.516	-0.378	-0.165
-578.777	608.031	0.069	0.173
-577.763	-200.000	-0.011	-0.339
-576.748	-57.454	0.090	0.040
-575.733	56.423	-0.285	0.277
-574.719	-99.347	0.192	0.048
-573.704	6.930	0.166	-0.124
-572.690	-152.853	0.290	-0.021
-571.675	800.000	-0.046	0.178
-570.661	-25.594	-0.207	0.122
-569.646	-200.000	-0.023	-0.304
-568.631	113.594	0.196	-0.239
-567.617	800.000	0.038	0.136
-566.602	-11.519	-0.077	-0.051
-565.588	-73.383	0.135	0.049
-564.573	-200.000	-0.038	0.234
-563.558	-141.674	0.388	0.039
-562.544	-125.259	0.203	0.031
-561.529	-94.466	0.320	0.087
-560.515	-87.873	-0.218	-0.066
-559.500	800.000	-0.060	0.244
-558.485	-200.000	-0.009	-0.195
-557.471	800.000	0.065	-0.261
-556.456	800.000	-0.048	0.162
-555.442	-6.064	0.235	0.161
-554.427	-200.000	0.017	0.175
-553.412	105.190	-0.246	-0.290
-552.398	102.719	0.141	0.165
-551.383	418.710	0.148	-0.316
-550.369	-167.954	-0.475	-0.019
-549.354	-133.992	-0.138	-0.017
-548.339	-200.000	-0.009	-0.146
-547.325	323.805	-0.049	0.093
-546.310	800.000	0.100	0.299
-545.296	800.000	-0.092	-0.328
-544.281	-200.000	-0.010	0.440
-543.266	-87.319	0.223	-0.068
-542.252	3.970	-0.197	0.144
-541.237	-13.675	-0.175	0.113
-540.223	456.917	0.113	0.251
-539.208	-200.000	-0.049	-0.220
-538.193	73.975	0.176	-0.185
-537.179	-123.808	0.194	-0.031
-536.164	106.343	0.082	0.097
-535.150	-200.000	0.055	-0.258
-534.135	800.000	-0.064	0.218
-533.121	135.222	0.089	0.116
-532.106	226.952	0.083	-0.135
-531.091	-120.570	0.129	-0.022
-530.077	150.251	-0.079	-0.108
-529.062	76.593	-0.091	-0.096
-528.048	54.353	-0.104	-0.100
-527.033	-200.000	0.013	-0.203
-526.018	-189.881	0.126	0.001
-525.004	-122.431	-0.306	-0.050
-523.989	-34.961	0.028	0.015
-522.975	800.000	0.010	-0.037
-521.960	-105.112	0.157	0.036
-520.945	296.763	0.067	0.123
-519.931	150.623	0.126	-0.170
-518.916	-200.000	0.047	-0.317
-517.902	-31.715	-0.109	-0.061
-516.887	-30.301	-0.113	-0.064
-515.872	240.355	-0.206	0.342
-514.858	-45.457	-0.161	-0.080
-513.843	-15.009	-0.157	0.100
-512.829	800.000	0.110	-0.382
-511.814	-200.000	-0.000	-0.239
-510.799	-22.829	-0.084	0.051
-509.785	49.887	0.145	0.136
-508.770	71.285	-0.307	-0.318
-507.756	-200.000	0.028	-0.185
-506.741	20.898	-0.059	-0.047
-505.726	55.093	-0.120	-0.116
-504.712	174.842	-0.046	0.066
-503.697	-101.097	-0.196	0.048
-502.683	44.639	0.106	0.098
-501.668	800.000	0.105	-0.318
-500.653	-94.061	-0.230	-0.063
-499.639	-115.732	0.239	0.045
-498.624	-26.490	-0.173	0.101
-497.610	261.265	0.037	0.064
-496.595	800.000	0.097	0.286
-495.581	-96.883	-0.166	0.043
-494.566	309.837	-0.147	-0.274
-493.551	234.356	-0.067	-0.111
-492.537	-46.679	0.264	0.129
-491.522	-200.000	0.010	-0.049
-490.508	700.293	0.025	-0.066
-489.493	152.135	0.147	0.200
-488.478	-36.761	0.185	0.099
-487.464	46.927	0.034	0.032
-486.449	-100.327	-0.340	0.084
-485.435	486.000	-0.152	0.345
-484.420	-159.661	-0.271	-0.015
-483.405	104.486	-0.213	-0.250
-482.391	-123.900	0.173	0.027
-481.376	97.700	0.138	-0.158
-480.362	-185.899	-0.028	-0.000
-479.347	-87.787	0.045	0.013
-478.332	-200.000	-0.037	0.266
-477.318	-56.428	-0.146	0.065
-476.303	414.734	0.109	0.232
-475.289	258.843	0.079	-0.137
-474.274	-11.432	-0.042	-0.028
-473.259	-86.707	0.193	0.059
-472.245	46.170	-0.165	0.153
-471.230	-200.000	0.012	-0.213
-470.216	170.715	-0.101	0.144
-469.201	-34.312	0.193	-0.106
-468.186	-13.609	-0.352	-0.227
-467.172	-200.000	0.006	0.223
-466.157	-34.585	0.244	0.133
-465.143	297.991	-0.092	-0.169
-464.128	-39.663	0.143	-0.075
-463.113	-54.868	0.181	-0.081
-462.099	-126.929	-0.282	-0.041
-461.084	-74.359	0.356	-0.128
-460.070	47.263	-0.179	-0.166
-459.055	328.701	-0.024	0.047
-458.040	-70.631	0.229	0.086
-457.026	-145.795	-0.346	-0.031
-456.011	-200.000	-0.029	-0.307
-454.997	-71.891	0.294	-0.109
-453.982	24.042	-0.062	-0.051
-452.968	-21.662	0.166	-0.101
-451.953	77.001	0.128	0.135
-450.938	89.520	0.119	0.132
-449.924	-86.059	-0.156	0.048
-448.909	204.097	-0.114	0.176
-447.895	53.766	-0.085	0.082
-446.880	-152.613	0.544	0.039
-445.865	800.000	0.065	0.207
-444.851	-7.257	0.321	0.217
-443.836	800.000	-0.043	0.173
-442.822	-122.696	0.147	0.024
-441.807	-100.600	-0.141	0.035
-440.792	-59.839	0.160	-0.068
-439.778	-200.000	-0.008	-0.546
-438.763	-200.000	0.017	-0.352
-437.749	800.000	-0.028	-0.108
-436.734	-103.263	-0.025	-0.006
-435.719	-200.000	-0.026	-0.213
-434.705	225.710	-0.106	0.171
-433.690	-10.126	-0.168	-0.111
-432.676	106.964	0.012	0.014
-431.661	-110.381	0.442	-0.091
-430.646	322.592	-0.103	0.196
-429.632	-21.701	-0.203	0.123
-428.617	800.000	-0.036	-0.122
-427.603	-15.324	-0.455	0.289
-426.588	57.020	-0.086	0.084
-425.573	-83.743	-0.207	-0.066
-424.559	15.247	0.036	-0.028
-423.544	-137.581	0.276	0.031
-422.530	-124.226	-0.166	-0.026
-421.515	-200.000	-0.061	-0.320
-420.500	-119.777	0.269	-0.046
-419.486	44.439	0.279	-0.255
-418.471	231.129	-0.073	-0.120
-417.457	-30.625	-0.205	-0.116
-416.442	-19.375	0.121	-0.075
-415.428	89.695	-0.231	-0.256
-414.413	134.754	0.276	-0.356
-413.398	-38.516	-0.124	0.065
-412.384	-200.000	0.024	-0.247
-411.369	157.460	0.014	0.019
-410.355	-170.686	-0.270	-0.009
-409.340	-126.824	0.200	0.029
-408.325	-121.931	-0.429	-0.070
-407.311	9.903	0.147	0.111
-406.296	-119.903	-0.247	0.042
-405.282	363.417	0.086	0.172
-404.267	-12.599	-0.253	0.164
-403.252	251.105	0.023	-0.039
-402.238	4.597	-0.120	-0.088
-401.223	-80.666	-0.056	-0.019
-400.209	-200.000	-0.006	-0.354
-399.194	-81.984	0.200	-0.065
-398.179	-75.974	-0.451	0.159
-397.165	319.224	0.139	0.263
-396.150	106.988	-0.042	0.049
-395.136	-13.197	-0.325	0.210
-394.121	-200.000	-0.042	0.365
-393.106	-1.755	-0.205	0.143
-392.092	77.361	-0.128	-0.136
-391.077	283.824	0.050	-0.090
-390.063	293.222	0.240	-0.435
-389.048	-14.359	-0.216	0.138
-388.033	15.399	0.196	-0.153
-387.019	-200.000	0.015	0.135
-386.004	427.838	-0.051	0.110
-384.990	-200.000	-0.074	-0.350
-383.975	29.889	-0.319	0.270
-382.960	117.861	0.187	0.229
-381.946	-52.146	0.159	-0.073
-380.931	-200.000	-0.004	-0.054
-379.917	-15.049	0.253	0.161
-378.902	50.944	0.026	-0.024
-377.888	-143.377	0.102	0.010
-376.873	-113.585	-0.037	-0.007
-375.858	218.815	0.116	-0.184
-374.844	232.625	0.036	-0.059
-373.829	110.712	0.214	0.256
-372.815	69.158	-0.251	0.256
-371.800	-107.583	-0.110	0.024
-370.785	-3.109	0.120	0.083
-369.771	459.481	-0.132	0.293
-368.756	87.519	-0.063	0.069
-367.742	-200.000	0.000	0.478
-366.727	-8.796	0.155	0.103
-365.712	-75.040	0.020	-0.007
-364.698	208.634	-0.038	0.059
-363.683	42.371	-0.146	-0.132
-362.669	142.424	0.084	-0.111
-361.654	-83.463	-0.157	-0.050
-360.639	25.552	0.262	0.217
-359.625	-62.628	0.185	-0.076
-358.610	130.496	-0.213	-0.271
-357.596	-200.000	0.044	0.299
-356.581	-144.607	0.128	0.012
-355.566	-23.276	-0.106	0.063
-354.552	-200.000	0.018	-0.251
-353.537	-200.000	0.009	-0.513
-352.523	15.204	-0.079	0.061
-351.508	-148.146	0.193	-0.016
-350.493	184.847	0.085	-0.125
-349.479	463.249	-0.008	0.018
-348.464	187.344	-0.139	0.206
-347.450	-34.677	0.291	-0.158
-346.435	-200.000	-0.010	-0.115
-345.420	-187.770	0.235	0.003
-344.406	800.000	0.044	-0.151
-343.391	2.233	-0.262	-0.188
-342.377	-200.000	0.009	0.066
-341.362	316.479	-0.095	0.179
-340.348	-128.536	0.266	0.037
-339.333	-54.378	0.123	0.055
-338.318	58.033	-0.077	0.075
-337.304	258.402	-0.067	-0.115
-336.289	-76.005	0.265	-0.093
-335.275	-94.065	-0.277	-0.075
-334.260	-40.179	-0.141	0.073
-333.245	92.814	0.239	-0.268
-332.231	55.285	0.177	0.170
-331.216	497.961	-0.150	0.343
-330.202	600.697	-0.071	-0.176
-329.187	418.745	-0.148	0.315
-328.172	-19.100	0.194	-0.120
-327.158	-200.000	-0.047	0.204
-326.143	800.000	-0.025	-0.089
-325.129	13.293	-0.266	0.204
-324.114	120.755	-0.361	0.445
-323.099	-25.293	-0.265	-0.155
-322.085	32.701	0.086	0.074
-321.070	-176.157	0.094	0.002
-320.056	218.687	-0.116	0.184
-319.041	-74.649	0.083	-0.030
-318.026	800.000	0.123	0.357
-317.012	102.980	0.060	0.070
-315.997	-136.650	-0.224	-0.026
-314.983	106.163	0.145	0.170
-313.968	397.069	0.180	0.373
-312.953	-200.000	-0.032	-0.221
-311.939	-200.000	0.008	-0.155
-310.924	-68.248	0.142	-0.055
-309.910	-200.000	-0.036	0.371
-308.895	800.000	-0.059	0.218
-307.880	-200.000	0.005	-0.088
-306.866	3.642	-0.141	0.102
-305.851	99.674	-0.144	-0.165
-304.837	800.000	0.101	-0.334
-303.822	-56.892	-0.046	0.020
-302.807	800.000	-0.086	-0.245
-301.793	-200.000	-0.022	-0.138
-300.778	7.013	-0.291	-0.215
-299.764	120.203	0.066	-0.081
-298.749	-29.207	-0.039	-0.022
-297.735	-76.903	-0.296	-0.103
-296.720	132.861	0.104	-0.132
-295.705	-100.046	0.024	0.006
-294.691	-109.534	0.127	-0.027
-293.676	158.210	-0.184	0.253
-292.662	171.300	-0.198	0.281
-291.647	374.537	-0.129	-0.261
-290.632	-100.895	0.283	-0.069
-289.618	281.217	-0.036	-0.063
-288.603	140.536	0.219	-0.286
-287.589	742.505	0.101	-0.269
-286.574	94.230	0.224	-0.252
-285.559	576.942	-0.076	0.183
-284.545	84.632	0.231	0.250
-283.530	-200.000	-0.011	0.221
-282.516	108.086	-0.172	0.203
-281.501	-108.854	0.394	-0.083
-280.486	79.050	0.184	0.195
-279.472	-86.840	-0.606	0.183
-278.457	172.765	-0.141	-0.201
-277.443	-63.068	0.326	-0.133
-276.428	800.000	0.016	-0.063
-275.413	-66.880	0.083	0.032
-274.399	-196.364	-0.297	0.002
-273.384	74.760	0.092	-0.096
-272.370	232.836	0.212	0.345
-271.355	-200.000	-0.009	0.165
-270.340	23.151	-0.114	-0.093
-269.326	-88.037	0.204	0.060
-268.311	-31.771	-0.064	0.036
-267.297	-200.000	0.005	-0.300
-266.282	-151.461	-0.280	-0.021
-265.267	76.041	0.055	0.058
-264.253	-173.943	0.456	-0.013
-263.238	179.409	0.092	0.133
-262.224	721.528	0.127	-0.335
-261.209	-97.933	0.071	-0.018
-260.195	-200.000	-0.041	-0.201
-259.180	-102.672	0.063	0.015
-258.165	800.000	0.091	-0.360
-257.151	177.301	0.129	0.186
-256.136	800.000	0.114	0.437
-255.122	-72.624	0.383	-0.140
-254.107	-47.988	0.035	0.017
-253.092	-200.000	0.016	0.141
-252.078	-96.272	-0.105	-0.028
-251.063	-91.710	0.124	-0.035
-250.049	131.302	0.208	0.264
-249.034	32.657	0.152	-0.130
-248.019	800.000	-0.019	0.080
-247.005	-110.142	-0.289	-0.060
-245.990	-83.322	-0.401	-0.127
-244.976	800.000	-0.034	0.129
-243.961	-200.000	0.016	-0.413
-242.946	103.048	-0.128	-0.149
-241.932	-9.724	-0.120	-0.079
-240.917	-200.000	0.033	-0.151
-239.903	242.946	0.116	-0.192
-238.888	-72.701	-0.092	-0.033
-237.873	51.169	-0.341	-0.320
-236.859	301.359	0.049	-0.090
-235.844	231.667	0.122	0.198
-234.830	-64.027	0.107	-0.043
-233.815	244.447	0.214	0.355
-232.800	48.641	0.330	-0.306
-231.786	280.768	-0.077	0.136
-230.771	90.186	-0.273	-0.302
-229.757	-200.000	0.002	-0.234
-228.742	800.000	-0.047	0.146
-227.727	-200.000	0.019	-0.329
-226.713	-84.734	-0.290	-0.090
-225.698	-200.000	-0.045	0.243
-224.684	-68.514	0.066	0.025
-223.669	-67.809	-0.106	-0.041
-222.655	-200.000	-0.051	-0.639
-221.640	-200.000	-0.015	0.325
-220.625	139.592	-0.118	0.153
-219.611	168.632	-0.243	-0.342
-218.596	118.722	0.228	0.278
-217.582	800.000	0.038	-0.123
-216.567	800.000	-0.097	-0.271
-215.552	72.572	0.096	0.099
-214.538	800.000	-0.071	0.197
-213.523	333.166	-0.069	0.133
-212.509	158.408	-0.235	0.322
-211.494	198.648	0.077	0.116
-210.479	13.452	-0.231	0.177
-209.465	800.000	0.027	-0.100
-208.450	-200.000	0.030	0.275
-207.436	-47.011	-0.200	0.096
-206.421	40.901	0.096	0.086
-205.406	44.529	0.274	0.248
-204.392	146.247	0.029	0.038
-203.377	-14.994	0.184	0.117
-202.363	548.927	0.197	0.467
-201.348	800.000	0.056	0.190
-200.333	800.000	0.106	-0.289
-199.319	-75.447	-0.095	-0.033
-198.304	-107.709	0.299	-0.064
-197.290	-55.208	0.289	-0.128
-196.275	9.423	0.398	0.298
-195.260	-31.919	-0.121	0.067
-194.246	-156.423	0.458	-0.028
-193.231	800.000	-0.102	0.288
-192.217	-123.715	-0.004	-0.001
-191.202	-117.508	-0.109	-0.019
-190.187	104.837	0.210	-0.244
-189.173	63.437	0.137	0.135
-188.158	272.930	-0.255	0.445
-187.144	-200.000	-0.026	0.210
-186.129	145.333	0.215	0.284
-185.114	73.928	-0.341	0.352
-184.100	143.015	-0.069	0.090
-183.085	-200.000	0.009	0.193
-182.071	-7.982	0.243	0.161
-181.056	-163.320	-0.307	0.014
-180.042	-25.017	-0.039	0.023
-179.027	-101.822	0.437	-0.104
-178.012	293.235	-0.064	-0.116
-176.998	-84.620	0.148	0.046
-175.983	-26.266	-0.230	-0.133
-174.969	315.946	-0.049	0.091
-173.954	-114.830	0.341	0.064
-172.939	-134.997	-0.210	-0.025
-171.925	56.474	-0.205	-0.196
-170.910	48.581	0.148	-0.136
-169.896	-179.067	0.314	-0.007
-168.881	39.896	0.324	0.286
-167.866	-200.000	-0.003	-0.212
-166.852	-134.633	-0.065	-0.008
-165.837	800.000	-0.047	0.175
-164.823	123.437	0.210	0.260
-163.808	-200.000	0.003	0.408
-162.793	800.000	-0.089	0.247
-161.779	325.224	-0.121	-0.227
-160.764	800.000	-0.064	0.230
-159.750	116.544	0.136	0.164
-158.735	-200.000	-0.017	-0.408
-157.720	-108.117	0.107	0.023
-156.706	800.000	0.116	0.322
-155.691	-200.000	0.027	0.129
-154.677	-200.000	0.006	-0.174
-153.662	-97.803	0.040	-0.010
-152.647	-37.007	-0.158	-0.084
-151.633	-101.187	0.183	-0.044
-150.618	-39.301	0.271	0.140
-149.604	-62.703	0.032	-0.013
-148.589	130.675	0.260	0.328
-147.574	54.174	-0.217	0.206
-146.560	800.000	0.034	-0.147
-145.545	362.905	0.067	-0.132
-144.531	-93.761	0.196	0.053
-143.516	-84.677	-0.046	-0.014
-142.502	20.612	-0.178	0.141
-141.487	-9.919	0.300	-0.197
-140.472	-143.941	-0.254	-0.024
-139.458	118.696	-0.085	0.103
-138.443	100.997	-0.080	0.091
-137.429	-103.515	0.036	-0.008
-136.414	-139.612	0.241	0.025
-135.399	800.000	0.106	0.361
-134.385	-74.895	-0.095	-0.033
-133.370	344.371	-0.222	-0.428
-132.356	91.526	0.146	0.162
-131.341	800.000	0.153	0.460
-130.326	-26.423	0.299	0.172
-129.312	18.897	0.293	-0.231
-128.297	128.994	0.155	0.194
-127.283	-200.000	0.009	0.070
-126.268	292.340	0.162	-0.290
-125.253	-73.771	-0.112	-0.040
-124.239	21.377	0.261	-0.209
-123.224	-97.495	-0.183	-0.047
-122.210	218.841	-0.144	0.226
-121.195	308.774	-0.031	-0.058
