DTS Sentinel unit serial number:	SN413079Multiplexer serial number:	ORYXHardware model number:	OX4-SRSoftware version number:	ORYX F/W v4.00 Oryx Data Collector v3.7.2.0data status	okinstallation	princeton_trtdifferential loss correction	single-endedforward channel	channel 2reverse channel	N/Adate	2019/09/14time	09:11:35forward acquisition time	60.00reverse acquisition time	0.00gamma	496.2192k internal	0.2324k external	0.2324temperature offset calibration	1.0130default loss term (dB/km)	0.3790temperature slope calibration	1.0000multiplexer offset coefficient	1.0000multiplexer slope coefficient	1.0000fibre end	0.00T internal ref (°C)	30.53T ext. ref 1 (°C)	3.78T ext. ref 2 (°C)	28.50length (m)	temperature (°C)	Stokes	anti-Stokes-747.200	-111.673	0.368	0.075
-746.185	-98.020	-0.189	0.049
-745.171	321.511	-0.088	0.169
-744.156	-200.000	-0.005	0.336
-743.142	436.692	0.179	0.394
-742.127	800.000	0.098	0.333
-741.112	-105.920	-0.269	0.061
-740.098	-86.134	-0.323	0.101
-739.083	136.264	0.122	-0.161
-738.069	-101.841	0.120	0.029
-737.054	-66.245	-0.234	-0.094
-736.039	-123.320	0.022	0.004
-735.025	-27.957	-0.040	0.023
-734.010	199.167	-0.169	-0.262
-732.996	-200.000	0.047	0.218
-731.981	104.754	0.257	0.306
-730.966	-65.605	-0.085	-0.034
-729.952	117.376	-0.186	-0.231
-728.937	800.000	-0.064	-0.186
-727.923	-200.000	-0.026	-0.223
-726.908	-28.551	-0.089	0.052
-725.894	8.236	-0.121	0.092
-724.879	441.196	0.040	-0.089
-723.864	-64.218	-0.192	-0.079
-722.850	-109.796	0.107	0.023
-721.835	800.000	-0.110	0.448
-720.821	800.000	-0.047	-0.158
-719.806	-200.000	-0.029	-0.276
-718.791	87.624	-0.145	-0.162
-717.777	51.982	-0.027	-0.026
-716.762	451.503	0.029	-0.064
-715.748	781.744	-0.123	-0.341
-714.733	359.531	0.176	0.354
-713.718	-100.570	-0.139	-0.035
-712.704	-92.726	0.270	-0.076
-711.689	-127.895	-0.066	-0.010
-710.675	44.592	-0.224	0.207
-709.660	-8.884	-0.154	-0.104
-708.645	216.954	-0.081	-0.130
-707.631	-114.621	0.291	-0.056
-706.616	742.353	-0.117	0.318
-705.602	441.361	0.070	-0.153
-704.587	-103.276	0.194	-0.046
-703.572	-200.000	0.020	-0.280
-702.558	208.338	0.083	0.131
-701.543	-85.965	-0.158	0.049
-700.529	-200.000	-0.058	0.291
-699.514	-66.969	-0.215	0.086
-698.499	800.000	-0.084	-0.266
-697.485	-143.106	0.443	-0.043
-696.470	800.000	0.075	-0.296
-695.456	190.564	-0.113	-0.171
-694.441	43.084	0.302	-0.278
-693.426	350.847	-0.048	-0.096
-692.412	-27.415	-0.081	0.047
-691.397	55.022	0.281	0.273
-690.383	-6.349	-0.157	0.108
-689.368	-200.000	0.005	0.104
-688.354	112.107	0.136	0.165
-687.339	800.000	0.083	-0.293
-686.324	-28.025	-0.129	-0.075
-685.310	-122.598	-0.245	0.040
-684.295	158.932	0.107	0.149
-683.281	-200.000	-0.001	-0.302
-682.266	800.000	-0.102	-0.325
-681.251	11.349	-0.199	-0.153
-680.237	470.870	0.070	-0.159
-679.222	-135.423	0.135	-0.016
-678.208	-148.899	0.061	0.005
-677.193	-200.000	0.001	0.291
-676.178	-63.229	-0.138	0.057
-675.164	-115.457	0.553	0.105
-674.149	75.609	0.252	-0.268
-673.135	-140.895	-0.272	0.028
-672.120	-82.084	0.162	0.053
-671.105	-200.000	-0.003	-0.258
-670.091	800.000	-0.057	-0.244
-669.076	8.651	0.309	-0.234
-668.062	-200.000	-0.025	0.198
-667.047	19.039	-0.180	-0.145
-666.032	800.000	0.108	0.437
-665.018	800.000	-0.095	0.273
-664.003	-54.307	0.337	0.154
-662.989	-65.578	-0.234	-0.094
-661.974	92.999	0.137	0.156
-660.959	250.906	-0.075	0.128
-659.945	-200.000	-0.039	-0.193
-658.930	-88.149	-0.042	0.013
-657.916	800.000	0.057	-0.197
-656.901	39.252	0.122	0.110
-655.886	-141.568	0.136	0.014
-654.872	-107.513	-0.135	-0.030
-653.857	-151.865	-0.026	-0.002
-652.843	-53.365	-0.175	0.081
-651.828	297.086	0.290	0.535
-650.814	-200.000	0.004	-0.165
-649.799	70.405	-0.114	0.119
-648.784	-51.238	-0.133	0.063
-647.770	-152.644	0.235	-0.017
-646.755	-77.541	-0.197	0.069
-645.741	-98.906	-0.253	0.065
-644.726	588.969	0.072	-0.177
-643.711	-97.306	-0.126	0.033
-642.697	387.695	-0.084	0.174
-641.682	-33.144	0.232	0.129
-640.668	800.000	0.129	-0.380
-639.653	800.000	-0.070	-0.307
-638.638	219.603	-0.155	-0.250
-637.624	44.658	0.146	-0.135
-636.609	-172.574	0.215	-0.007
-635.595	-200.000	-0.004	-0.253
-634.580	22.415	0.005	-0.004
-633.565	348.259	0.084	0.167
-632.551	81.771	-0.221	-0.240
-631.536	7.564	-0.101	-0.076
-630.522	326.912	0.066	0.127
-629.507	-145.179	0.106	0.010
-628.492	-2.826	0.237	0.167
-627.478	63.757	0.165	-0.166
-626.463	-160.495	0.243	-0.013
-625.449	-26.407	-0.034	0.020
-624.434	200.331	-0.077	-0.120
-623.419	-121.098	-0.128	-0.022
-622.405	232.089	0.130	-0.214
-621.390	800.000	-0.071	-0.209
-620.376	277.057	-0.133	0.237
-619.361	-68.360	-0.253	0.099
-618.346	-100.163	-0.052	-0.013
-617.332	-40.206	-0.080	0.042
-616.317	-200.000	-0.005	0.371
-615.303	477.838	-0.211	-0.480
-614.288	432.013	0.120	0.261
-613.273	-49.097	0.174	-0.083
-612.259	714.687	0.115	0.307
-611.244	-40.644	0.326	0.170
-610.230	142.420	0.141	-0.188
-609.215	-200.000	0.022	-0.450
-608.201	-131.371	0.274	0.036
-607.186	-200.000	-0.023	-0.298
-606.171	-42.146	0.321	0.165
-605.157	112.224	0.134	-0.162
-604.142	-125.874	-0.345	0.052
-603.128	-125.138	0.228	-0.035
-602.113	800.000	-0.071	0.206
-601.098	800.000	-0.008	-0.022
-600.084	-124.245	-0.149	-0.023
-599.069	-200.000	0.026	0.279
-598.055	-83.850	0.226	0.072
-597.040	-58.835	-0.186	-0.081
-596.025	-20.308	-0.249	-0.154
-595.011	54.418	0.197	0.190
-593.996	153.289	0.142	-0.195
-592.982	-144.621	0.264	-0.024
-591.967	354.206	0.063	-0.126
-590.952	-83.795	-0.203	0.065
-589.938	-151.979	-0.077	-0.006
-588.923	-71.849	0.147	0.055
-587.909	-200.000	0.000	0.042
-586.894	-81.442	-0.462	0.153
-585.879	-200.000	0.005	-0.177
-584.865	-98.578	0.237	0.061
-583.850	800.000	0.034	0.136
-582.836	193.979	-0.166	0.252
-581.821	-148.539	-0.351	0.029
-580.806	10.757	-0.208	0.160
-579.792	29.423	0.130	0.111
-578.777	-200.000	0.006	0.209
-577.763	42.053	0.131	0.119
-576.748	800.000	0.038	-0.139
-575.733	61.039	-0.200	-0.199
-574.719	-160.310	-0.342	-0.019
-573.704	800.000	-0.030	0.089
-572.690	11.405	-0.246	0.189
-571.675	-200.000	0.087	-0.411
-570.661	-32.840	0.169	-0.094
-569.646	782.431	-0.020	-0.055
-568.631	204.871	0.105	0.163
-567.617	-53.917	-0.406	-0.185
-566.602	-200.000	0.018	-0.244
-565.588	-126.986	-0.218	-0.032
-564.573	94.826	0.250	-0.285
-563.558	-200.000	-0.055	-0.396
-562.544	800.000	-0.039	-0.114
-561.529	-113.431	-0.078	0.015
-560.515	386.858	-0.146	-0.302
-559.500	-200.000	-0.008	-0.277
-558.485	-122.851	0.180	0.029
-557.471	-45.469	0.219	0.109
-556.456	-24.977	0.260	-0.155
-555.442	300.114	-0.068	0.126
-554.427	-70.301	0.227	0.086
-553.412	-118.008	-0.153	0.027
-552.398	-122.619	0.240	-0.039
-551.383	-74.449	-0.097	0.035
-550.369	-200.000	-0.024	-0.254
-549.354	-45.843	-0.199	0.098
-548.339	-200.000	0.004	0.405
-547.325	-11.712	-0.196	-0.129
-546.310	-122.386	-0.182	-0.030
-545.296	41.221	-0.232	-0.210
-544.281	-200.000	-0.015	-0.220
-543.266	1.685	0.248	0.179
-542.252	800.000	-0.095	-0.359
-541.237	-200.000	-0.008	0.291
-540.223	-136.290	0.471	-0.055
-539.208	-55.585	0.162	-0.073
-538.193	50.522	-0.212	0.201
-537.179	-200.000	-0.055	0.323
-536.164	-61.600	0.228	0.096
-535.150	-95.570	-0.342	-0.092
-534.135	800.000	0.022	-0.070
-533.121	116.478	0.171	-0.210
-532.106	67.266	0.102	-0.104
-531.091	73.405	-0.273	-0.286
-530.077	-171.131	-0.153	-0.005
-529.062	-24.913	0.167	-0.099
-528.048	297.340	-0.077	0.142
-527.033	-121.318	0.092	-0.015
-526.018	-22.266	-0.252	0.153
-525.004	159.856	-0.091	-0.127
-523.989	-74.835	0.134	-0.048
-522.975	305.809	-0.089	-0.165
-521.960	-163.288	-0.385	0.018
-520.945	-31.200	-0.189	0.107
-519.931	487.608	0.029	-0.067
-518.916	-137.016	-0.076	0.009
-517.902	-200.000	0.066	0.501
-516.887	128.752	0.142	0.181
-515.872	121.942	0.142	0.177
-514.858	199.333	0.093	-0.143
-513.843	-129.122	-0.051	0.007
-512.829	-74.435	-0.219	-0.079
-511.814	775.966	0.100	0.272
-510.799	66.242	-0.187	0.190
-509.785	-75.336	-0.146	0.052
-508.770	61.063	-0.297	-0.295
-507.756	-60.811	-0.136	0.058
-506.741	-142.014	-0.241	0.024
-505.726	39.699	-0.392	-0.352
-504.712	717.715	0.063	-0.167
-503.697	259.930	-0.148	0.256
-502.683	-14.784	-0.075	-0.048
-501.668	-19.883	-0.433	-0.267
-500.653	-83.308	0.299	-0.096
-499.639	-131.427	0.217	-0.029
-498.624	-200.000	0.036	-0.202
-497.610	18.540	0.232	0.185
-496.595	800.000	0.023	-0.094
-495.581	-40.264	-0.496	-0.258
-494.566	-122.540	-0.338	0.055
-493.551	-185.846	-0.102	0.002
-492.537	800.000	-0.044	0.168
-491.522	528.874	-0.074	0.174
-490.508	-103.775	0.207	0.049
-489.493	-200.000	-0.045	0.278
-488.478	150.531	-0.234	0.318
-487.464	9.998	-0.483	-0.367
-486.449	-41.675	0.258	-0.132
-485.435	800.000	-0.028	0.111
-484.420	-72.308	-0.387	-0.143
-483.405	-62.920	-0.319	-0.132
-482.391	-91.612	-0.171	-0.049
-481.376	-37.117	0.109	0.058
-480.362	-92.297	-0.296	-0.083
-479.347	119.429	-0.117	0.145
-478.332	-0.587	0.146	-0.103
-477.318	-39.014	-0.043	-0.023
-476.303	395.066	0.085	-0.176
-475.289	258.078	-0.121	-0.207
-474.274	16.399	-0.067	0.053
-473.259	-41.105	0.189	0.098
-472.245	-178.699	-0.292	-0.007
-471.230	582.422	-0.054	-0.132
-470.216	-172.007	0.215	0.007
-469.201	359.373	-0.061	0.122
-468.186	-74.292	0.284	0.103
-467.172	190.465	-0.244	0.366
-466.157	201.390	0.070	0.107
-465.143	-200.000	0.010	-0.223
-464.128	-48.096	0.354	0.171
-463.113	27.352	0.064	0.053
-462.099	32.501	0.204	-0.176
-461.084	800.000	-0.022	-0.064
-460.070	86.524	0.175	-0.193
-459.055	171.527	-0.167	-0.239
-458.040	60.318	-0.026	0.026
-457.026	15.949	-0.212	0.167
-456.011	48.913	-0.325	0.304
-454.997	-45.702	-0.312	-0.154
-453.982	-146.389	0.260	-0.023
-452.968	-167.631	-0.229	0.009
-451.953	-200.000	0.049	0.382
-450.938	-134.756	-0.339	0.041
-449.924	132.718	0.106	-0.137
-448.909	22.513	-0.168	-0.137
-447.895	53.344	-0.256	0.245
-446.880	84.465	-0.020	-0.021
-445.865	-200.000	0.016	0.308
-444.851	34.573	0.113	-0.098
-443.836	712.133	0.032	-0.084
-442.822	175.293	-0.107	-0.155
-441.807	441.515	-0.146	-0.318
-440.792	108.324	0.078	-0.093
-439.778	800.000	0.187	-0.534
-438.763	-97.307	0.129	-0.034
-437.749	-27.414	0.149	0.087
-436.734	308.042	0.109	-0.202
-435.719	-1.081	-0.267	-0.188
-434.705	-120.635	-0.240	-0.040
-433.690	-200.000	-0.049	0.245
-432.676	-36.615	-0.137	-0.073
-431.661	-200.000	-0.024	0.427
-430.646	-200.000	0.006	0.065
-429.632	797.700	0.111	-0.306
-428.617	21.576	-0.071	0.058
-427.603	-200.000	0.009	0.081
-426.588	-117.130	0.331	-0.060
-425.573	23.750	0.080	-0.066
-424.559	0.910	0.145	0.104
-423.544	9.855	0.134	-0.101
-422.530	45.509	0.180	-0.166
-421.515	459.053	-0.033	-0.072
-420.500	-200.000	0.030	-0.351
-419.486	-60.564	0.100	0.042
-418.471	-101.496	-0.034	0.008
-417.457	-95.156	-0.260	0.070
-416.442	153.274	-0.190	0.259
-415.428	276.732	-0.116	-0.206
-414.413	95.786	-0.063	0.072
-413.398	-108.871	0.477	0.101
-412.384	362.997	-0.077	0.155
-411.369	-125.732	0.116	-0.018
-410.355	580.756	-0.096	-0.233
-409.340	-106.116	0.158	0.035
-408.325	-90.152	0.212	0.061
-407.311	800.000	0.166	-0.542
-406.296	-200.000	0.010	-0.143
-405.282	481.306	-0.056	0.126
-404.267	-73.070	0.293	0.107
-403.252	800.000	-0.074	0.309
-402.238	-200.000	-0.090	0.445
-401.223	800.000	-0.080	0.251
-400.209	-200.000	-0.003	-0.139
-399.194	-87.611	0.143	0.043
-398.179	193.845	0.117	0.177
-397.165	-17.817	0.096	0.060
-396.150	-113.008	-0.063	-0.012
-395.136	56.992	0.222	0.215
-394.121	134.176	0.191	0.246
-393.106	-22.241	-0.193	0.116
-392.092	-40.304	0.337	-0.175
-391.077	317.977	-0.075	0.141
-390.063	208.495	-0.041	0.063
-389.048	99.285	0.136	0.156
-388.033	375.031	-0.128	0.260
-387.019	345.158	-0.054	0.105
-386.004	109.863	0.225	0.268
-384.990	-113.737	-0.410	-0.080
-383.975	32.435	-0.066	-0.056
-382.960	-200.000	-0.022	-0.229
-381.946	800.000	0.017	-0.064
-380.931	154.779	0.115	0.157
-379.917	-34.410	-0.074	0.041
-378.902	121.597	-0.175	-0.217
-377.888	133.346	-0.125	0.160
-376.873	800.000	-0.072	-0.252
-375.858	800.000	0.090	0.372
-374.844	559.330	0.093	-0.225
-373.829	275.260	0.178	0.314
-372.815	-128.278	-0.367	0.052
-371.800	25.167	0.106	0.087
-370.785	-34.782	-0.229	0.125
-369.771	-33.128	-0.171	-0.094
-368.756	800.000	0.022	-0.076
-367.742	116.873	-0.138	0.168
-366.727	800.000	-0.011	0.043
-365.712	-200.000	0.051	0.253
-364.698	-41.646	0.109	-0.056
-363.683	-41.507	0.071	0.036
-362.669	-81.394	-0.340	-0.111
-361.654	-108.463	-0.330	-0.071
-360.639	-135.776	0.505	-0.059
-359.625	65.028	-0.114	0.115
-358.610	-200.000	0.029	-0.135
-357.596	84.524	0.104	0.114
-356.581	-200.000	-0.039	-0.241
-355.566	101.517	0.194	-0.225
-354.552	-40.029	0.133	0.069
-353.537	-99.459	0.295	-0.074
-352.523	105.752	0.043	0.051
-351.508	-95.373	0.127	-0.034
-350.493	-82.707	-0.294	-0.095
-349.479	-81.411	0.291	-0.095
-348.464	-200.000	-0.008	0.049
-347.450	62.603	0.101	-0.100
-346.435	200.083	0.041	-0.062
-345.420	-155.496	0.195	0.012
-344.406	108.665	-0.083	0.099
-343.391	-200.000	0.015	0.173
-342.377	-119.415	-0.248	-0.043
-341.362	144.771	0.101	-0.134
-340.348	-129.733	-0.216	0.030
-339.333	-200.000	-0.011	-0.050
-338.318	194.079	-0.108	-0.163
-337.304	-200.000	-0.003	0.031
-336.289	-18.916	-0.125	-0.077
-335.275	-86.705	0.236	0.072
-334.260	-200.000	-0.043	0.225
-333.245	-67.221	0.241	0.094
-332.231	-200.000	0.071	0.000
-331.216	-59.129	0.037	0.016
-330.202	140.056	0.066	-0.086
-329.187	144.226	-0.116	-0.154
-328.172	800.000	-0.106	-0.314
-327.158	53.699	-0.203	0.193
-326.143	793.751	0.086	0.236
-325.129	17.770	-0.167	0.132
-324.114	800.000	-0.004	-0.016
-323.099	123.036	0.200	-0.248
-322.085	-43.367	0.080	-0.040
-321.070	-76.688	-0.174	-0.061
-320.056	-200.000	0.017	-0.106
-319.041	4.406	-0.126	-0.092
-318.026	1.669	0.356	0.255
-317.012	-85.171	0.270	-0.084
-315.997	800.000	0.022	-0.087
-314.983	-104.339	0.313	-0.072
-313.968	-200.000	-0.028	-0.167
-312.953	200.622	0.150	0.229
-311.939	477.697	-0.118	-0.264
-310.924	-56.082	-0.135	-0.060
-309.910	59.339	-0.214	-0.209
-308.895	-122.770	-0.309	-0.050
-307.880	-7.224	0.122	-0.082
-306.866	800.000	-0.040	0.137
-305.851	-200.000	-0.069	0.354
-304.837	-200.000	0.299	-0.001
-303.822	3.579	-0.062	-0.045
-302.807	-157.810	0.275	0.016
-301.793	-200.000	-0.068	0.329
-300.778	-145.448	0.017	0.002
-299.764	158.034	0.095	0.131
-298.749	-27.566	-0.228	0.132
-297.735	441.413	0.114	-0.248
-296.720	29.285	0.217	-0.183
-295.705	-125.461	0.235	0.035
-294.691	-192.816	0.293	-0.003
-293.676	-136.024	-0.090	0.011
-292.662	-89.276	0.167	0.049
-291.647	48.186	0.108	-0.101
-290.632	457.025	0.113	-0.249
-289.618	76.886	0.214	-0.225
-288.603	86.022	-0.142	0.155
-287.589	518.099	0.114	0.264
-286.574	-140.924	-0.049	-0.005
-285.559	-29.452	0.173	0.098
-284.545	-200.000	-0.008	0.083
-283.530	-82.437	-0.250	-0.081
-282.516	-112.163	-0.135	-0.027
-281.501	-73.427	0.155	-0.056
-280.486	28.507	0.155	0.130
-279.472	160.755	0.159	0.220
-278.457	-40.009	-0.291	0.151
-277.443	-67.575	0.406	0.158
-276.428	215.796	-0.105	0.166
-275.413	237.269	0.133	-0.218
-274.399	-114.901	0.051	-0.010
-273.384	-200.000	0.035	-0.217
-272.370	-83.878	0.172	-0.054
-271.355	800.000	0.039	-0.134
-270.340	800.000	-0.033	-0.132
-269.326	185.592	0.009	-0.014
-268.311	354.812	0.014	-0.027
-267.297	-200.000	0.031	-0.152
-266.282	221.166	0.056	-0.089
-265.267	167.478	-0.208	0.292
-264.253	145.544	-0.067	-0.089
-263.238	-40.743	0.158	-0.081
-262.224	-123.795	0.359	0.056
-261.209	-58.865	-0.171	0.073
-260.195	-200.000	0.047	-0.372
-259.180	-0.743	-0.187	-0.131
-258.165	337.472	0.091	-0.176
-257.151	-138.490	-0.144	0.016
-256.136	39.359	0.193	-0.172
-255.122	-17.580	0.095	0.059
-254.107	-25.412	0.382	-0.224
-253.092	670.835	-0.152	0.390
-252.078	-22.052	0.180	0.108
-251.063	-4.939	0.068	-0.046
-250.049	297.646	-0.158	0.288
-249.034	800.000	0.056	-0.227
-248.019	-200.000	0.013	0.288
-247.005	521.592	-0.075	0.173
-245.990	119.821	-0.084	0.103
-244.976	-147.734	0.095	-0.008
-243.961	-42.848	0.111	-0.056
-242.946	-157.301	-0.206	-0.012
-241.932	83.522	0.096	0.103
-240.917	-13.311	0.319	-0.205
-239.903	-200.000	-0.017	-0.155
-238.888	751.492	-0.064	0.172
-237.873	-38.933	-0.065	0.034
-236.859	211.196	-0.032	0.050
-235.844	48.084	0.114	-0.105
-234.830	-58.761	-0.068	0.029
-233.815	-200.000	0.061	0.272
-232.800	124.690	0.078	0.097
-231.786	-200.000	-0.048	-0.216
-230.771	-200.000	0.084	0.396
-229.757	-50.962	-0.240	0.111
-228.742	-200.000	0.037	0.418
-227.727	-200.000	-0.004	0.348
-226.713	85.628	0.080	0.087
-225.698	-118.924	0.405	0.070
-224.684	-78.471	-0.279	0.095
-223.669	-121.482	-0.072	0.012
-222.655	800.000	-0.014	-0.043
-221.640	-200.000	-0.035	0.473
-220.625	-200.000	-0.017	0.115
-219.611	688.988	0.120	0.310
-218.596	-97.228	-0.283	0.073
-217.582	-55.992	0.179	-0.079
-216.567	69.359	0.102	-0.104
-215.552	800.000	-0.078	-0.272
-214.538	-59.176	0.208	-0.089
-213.523	-120.075	-0.086	0.015
-212.509	-144.643	-0.230	-0.021
-211.494	79.458	-0.136	0.144
-210.479	9.857	-0.267	0.200
-209.465	179.038	0.171	-0.247
-208.450	-12.922	0.193	-0.124
-207.436	-200.000	0.243	-0.001
-206.421	115.506	0.160	0.193
-205.406	153.325	0.181	0.245
-204.392	-169.799	0.163	-0.006
-203.377	732.131	0.123	-0.326
-202.363	-164.852	0.248	-0.011
-201.348	14.561	-0.028	0.022
-200.333	48.615	0.145	0.134
-199.319	-200.000	-0.058	-0.386
-198.304	-133.933	0.230	-0.028
-197.290	-59.649	0.276	0.117
-196.275	50.124	0.344	-0.321
-195.260	298.938	-0.050	-0.092
-194.246	27.929	-0.175	0.146
-193.231	-33.808	0.129	0.070
-192.217	-122.872	-0.226	-0.036
-191.202	-200.000	0.005	-0.062
-190.187	800.000	0.089	0.243
-189.173	72.636	-0.165	-0.170
-188.158	219.094	0.127	-0.200
-187.144	-200.000	-0.003	-0.028
-186.129	57.837	0.035	-0.034
-185.114	-9.423	-0.142	-0.093
-184.100	-32.180	0.294	0.162
-183.085	29.297	-0.037	-0.031
-182.071	375.231	0.176	0.355
-181.056	330.727	-0.075	0.142
-180.042	52.430	-0.289	-0.272
-179.027	-200.000	-0.024	-0.107
-178.012	147.955	-0.265	0.353
-176.998	201.754	-0.145	0.220
-175.983	413.455	0.131	0.275
-174.969	-33.324	-0.051	-0.028
-173.954	-54.253	0.097	-0.044
-172.939	-122.321	-0.285	0.046
-171.925	-200.000	0.013	0.157
-170.910	800.000	-0.060	-0.169
-169.896	263.025	-0.107	0.183
-168.881	712.950	-0.021	0.055
-167.866	704.420	0.082	0.215
-166.852	-200.000	0.000	0.022
-165.837	130.405	-0.055	-0.069
-164.823	-58.657	-0.344	-0.147
-163.808	-95.368	0.166	-0.044
-162.793	-7.917	-0.107	0.071
-161.779	800.000	0.006	-0.023
-160.764	-122.430	-0.370	0.060
-159.750	-200.000	-0.015	-0.210
-158.735	-2.164	-0.152	-0.105
-157.720	-102.175	0.348	0.083
-156.706	107.809	-0.081	-0.096
-155.691	280.143	-0.175	-0.308
-154.677	180.389	0.123	0.178
-153.662	146.623	0.009	0.012
-152.647	747.586	0.096	-0.255
-151.633	-19.171	0.053	0.032
-150.618	-92.439	0.105	0.029
-149.604	-90.488	0.256	0.073
-148.589	48.949	0.229	-0.212
-147.574	49.731	-0.147	0.137
-146.560	58.417	-0.171	0.165
-145.545	63.387	-0.029	0.029
-144.531	-200.000	0.031	0.336
-143.516	-178.590	0.268	0.006
-142.502	59.626	0.251	-0.244
-141.487	135.430	-0.126	0.162
-140.472	-91.533	-0.111	0.031
-139.458	-84.399	0.162	-0.050
-138.443	-132.075	0.251	-0.032
-137.429	-119.410	-0.252	-0.043
-136.414	-200.000	-0.004	0.192
-135.399	-90.922	-0.229	0.065
-134.385	733.760	0.080	0.211
-133.370	302.064	0.131	0.239
-132.356	-5.837	-0.201	-0.136
-131.341	-50.639	0.484	0.225
-130.326	-200.000	-0.008	0.091
-129.312	-200.000	0.007	0.238
-128.297	182.705	0.081	0.118
-127.283	-144.523	0.161	0.015
-126.268	800.000	0.086	-0.240
-125.253	-200.000	0.006	-0.085
-124.239	-150.588	0.430	0.032
-123.224	-95.256	0.046	-0.012
-122.210	-101.403	0.337	-0.081
-121.195	431.532	-0.070	0.150
