DTS Sentinel unit serial number:	SN413079Multiplexer serial number:	ORYXHardware model number:	OX4-SRSoftware version number:	ORYX F/W v4.00 Oryx Data Collector v3.7.2.0data status	okinstallation	princeton_trtdifferential loss correction	single-endedforward channel	channel 2reverse channel	N/Adate	2019/09/16time	19:07:35forward acquisition time	60.00reverse acquisition time	0.00gamma	496.2192k internal	0.2323k external	0.2323temperature offset calibration	0.9967default loss term (dB/km)	0.3790temperature slope calibration	1.0000multiplexer offset coefficient	1.0000multiplexer slope coefficient	1.0000fibre end	0.00T internal ref (°C)	35.31T ext. ref 1 (°C)	0.08T ext. ref 2 (°C)	28.49length (m)	temperature (°C)	Stokes	anti-Stokes-747.200	191.895	0.201	0.306
-746.185	-129.878	0.156	-0.022
-745.171	-200.000	-0.048	0.238
-744.156	152.494	-0.183	0.252
-743.142	350.601	0.034	-0.068
-742.127	-10.917	-0.171	0.114
-741.112	70.256	0.128	-0.134
-740.098	-149.116	-0.130	-0.011
-739.083	263.995	0.114	0.200
-738.069	171.282	-0.244	0.353
-737.054	-34.161	0.162	-0.090
-736.039	-51.053	-0.201	0.095
-735.025	-108.420	0.208	-0.045
-734.010	-200.000	-0.413	-0.002
-732.996	30.404	-0.252	-0.217
-731.981	-33.087	-0.158	0.089
-730.966	16.172	-0.211	0.168
-729.952	800.000	0.140	-0.398
-728.937	-70.734	-0.329	-0.125
-727.923	23.363	0.157	-0.131
-726.908	39.293	-0.294	-0.265
-725.894	-168.043	0.075	-0.003
-724.879	800.000	-0.017	-0.073
-723.864	800.000	0.015	0.056
-722.850	-200.000	-0.025	-0.297
-721.835	33.611	0.280	0.245
-720.821	-31.870	-0.271	0.153
-719.806	-200.000	-0.028	-0.196
-718.791	-22.398	0.161	-0.099
-717.777	-95.669	-0.378	-0.102
-716.762	-136.975	-0.120	0.014
-715.748	141.618	-0.126	-0.169
-714.733	1.823	-0.337	0.245
-713.718	280.130	0.100	0.180
-712.704	66.388	-0.264	0.271
-711.689	24.670	-0.165	-0.138
-710.675	-200.000	0.042	-0.323
-709.660	238.225	-0.164	-0.275
-708.645	-179.649	-0.598	-0.013
-707.631	-94.506	0.242	-0.067
-706.616	387.389	0.101	0.211
-705.602	-40.239	0.049	-0.026
-704.587	-200.000	-0.006	0.046
-703.572	92.755	0.178	0.203
-702.558	38.972	-0.260	-0.234
-701.543	-200.000	0.035	-0.164
-700.529	-25.187	-0.134	0.080
-699.514	800.000	-0.032	-0.113
-698.499	-169.622	-0.216	-0.008
-697.485	-132.818	0.263	0.034
-696.470	403.625	-0.097	0.205
-695.456	-12.780	0.108	-0.071
-694.441	20.335	0.293	-0.239
-693.426	-20.625	0.291	-0.180
-692.412	149.912	0.205	-0.281
-691.397	-149.942	-0.156	-0.012
-690.383	-6.472	0.413	-0.284
-689.368	181.253	0.195	-0.289
-688.354	-34.554	-0.185	0.102
-687.339	192.034	-0.156	-0.237
-686.324	33.345	-0.128	-0.112
-685.310	-28.700	0.292	0.169
-684.295	800.000	0.162	0.475
-683.281	430.584	-0.078	-0.169
-682.266	68.704	0.143	0.148
-681.251	-200.000	-0.010	0.116
-680.237	-51.117	-0.190	0.090
-679.222	-200.000	-0.030	-0.192
-678.208	-10.695	-0.102	-0.068
-677.193	313.132	0.055	-0.103
-676.178	-78.945	-0.073	0.025
-675.164	25.204	-0.084	-0.070
-674.149	214.630	-0.061	-0.098
-673.135	142.955	0.072	-0.096
-672.120	-86.823	-0.170	0.052
-671.105	281.407	-0.166	-0.299
-670.091	-200.000	0.023	0.228
-669.076	72.301	0.146	-0.153
-668.062	-37.487	-0.398	0.214
-667.047	800.000	0.097	0.418
-666.032	-200.000	-0.009	-0.288
-665.018	-40.979	0.122	0.063
-664.003	-111.123	-0.235	-0.048
-662.989	69.694	-0.219	0.228
-661.974	800.000	-0.082	-0.284
-660.959	-78.482	-0.025	0.009
-659.945	39.653	-0.036	0.032
-658.930	696.944	0.065	0.173
-657.916	-80.228	0.193	-0.065
-656.901	137.993	-0.124	-0.164
-655.886	-40.650	-0.137	0.071
-654.872	-200.000	-0.028	-0.431
-653.857	32.298	-0.173	-0.150
-652.843	800.000	-0.045	-0.127
-651.828	-1.942	0.243	0.172
-650.814	-63.298	0.309	0.128
-649.799	12.807	0.150	0.116
-648.784	-200.000	0.013	-0.092
-647.770	-89.762	0.155	-0.046
-646.755	463.818	-0.073	-0.165
-645.741	631.809	0.032	0.083
-644.726	-56.046	-0.205	-0.092
-643.711	-200.000	-0.080	-0.458
-642.697	164.631	-0.117	-0.166
-641.682	24.914	-0.153	-0.128
-640.668	-165.005	-0.123	0.006
-639.653	-142.377	0.393	-0.039
-638.638	800.000	0.097	-0.298
-637.624	-114.137	-0.064	-0.013
-636.609	178.578	0.252	0.370
-635.595	10.545	0.151	0.116
-634.580	-64.536	0.245	0.100
-633.565	-89.845	0.101	-0.030
-632.551	-200.000	0.022	0.112
-631.536	-96.010	-0.033	-0.009
-630.522	-26.714	-0.445	-0.262
-629.507	147.193	0.110	-0.149
-628.492	-200.000	-0.003	0.160
-627.478	-200.000	-0.029	-0.197
-626.463	-80.937	-0.213	0.071
-625.449	-64.859	0.132	0.054
-624.434	21.043	0.175	-0.143
-623.419	-200.000	-0.021	0.227
-622.405	54.221	-0.194	-0.188
-621.390	800.000	-0.033	0.140
-620.376	-73.634	0.218	-0.080
-619.361	-177.036	0.060	-0.002
-618.346	234.932	0.113	-0.188
-617.332	-200.000	0.047	-0.245
-616.317	287.682	0.015	0.027
-615.303	-111.886	0.238	0.048
-614.288	800.000	-0.086	-0.249
-613.273	182.253	0.153	0.227
-612.259	99.089	-0.077	0.089
-611.244	-51.500	0.165	-0.078
-610.230	75.504	0.251	0.266
-609.215	-134.268	0.342	-0.042
-608.201	16.655	-0.120	-0.095
-607.186	-45.184	0.244	-0.122
-606.171	-144.719	0.104	-0.010
-605.157	-200.000	0.022	0.253
-604.142	46.946	-0.248	0.232
-603.128	-145.545	-0.345	-0.031
-602.113	199.053	-0.217	0.334
-601.098	-200.000	0.019	-0.235
-600.084	547.207	0.053	0.126
-599.069	47.398	-0.055	-0.052
-598.055	156.430	0.124	0.171
-597.040	777.819	-0.053	-0.145
-596.025	800.000	0.112	-0.354
-595.011	749.896	-0.100	-0.272
-593.996	-22.583	0.217	-0.132
-592.982	-67.055	0.254	-0.101
-591.967	-200.000	0.036	-0.292
-590.952	-40.048	0.261	-0.137
-589.938	-37.514	-0.256	0.137
-588.923	-49.837	0.356	-0.170
-587.909	16.591	0.122	0.097
-586.894	-120.099	-0.229	0.039
-585.879	47.070	-0.215	-0.200
-584.865	23.019	0.098	0.080
-583.850	-31.601	-0.209	-0.118
-582.836	-0.444	-0.101	-0.072
-581.821	-70.392	-0.060	-0.023
-580.806	800.000	-0.052	0.198
-579.792	20.127	0.107	-0.087
-578.777	142.413	0.091	-0.122
-577.763	-162.129	0.265	-0.013
-576.748	740.481	-0.017	0.045
-575.733	800.000	0.075	-0.324
-574.719	-200.000	0.063	-0.285
-573.704	800.000	0.077	-0.260
-572.690	-133.296	0.305	-0.039
-571.675	-21.965	0.174	0.106
-570.661	362.929	-0.086	0.173
-569.646	-95.484	0.036	0.010
-568.631	353.110	0.115	-0.229
-567.617	-20.665	0.208	0.128
-566.602	800.000	-0.039	0.138
-565.588	670.872	-0.129	-0.334
-564.573	-129.661	0.223	-0.031
-563.558	47.599	-0.231	0.216
-562.544	800.000	-0.044	-0.151
-561.529	67.473	0.165	-0.169
-560.515	200.102	0.014	-0.022
-559.500	-73.942	0.554	-0.202
-558.485	-200.000	-0.005	0.196
-557.471	44.546	0.263	0.243
-556.456	-35.604	-0.055	-0.030
-555.442	94.351	0.129	-0.147
-554.427	1.586	-0.303	-0.219
-553.412	107.819	0.207	-0.248
-552.398	-105.724	-0.497	0.113
-551.383	-144.292	0.237	-0.022
-550.369	430.586	-0.199	-0.432
-549.354	101.953	-0.099	-0.116
-548.339	148.087	-0.079	-0.107
-547.325	-117.200	0.401	0.073
-546.310	21.886	-0.112	-0.091
-545.296	-125.361	-0.135	-0.021
-544.281	30.222	0.158	0.135
-543.266	-200.000	0.022	-0.186
-542.252	800.000	0.084	-0.236
-541.237	-200.000	0.006	-0.121
-540.223	78.592	-0.212	0.227
-539.208	116.785	-0.167	-0.205
-538.193	-200.000	0.018	0.249
-537.179	-200.000	-0.010	-0.175
-536.164	33.938	-0.187	-0.163
-535.150	-19.587	0.156	-0.097
-534.135	-170.723	-0.134	-0.005
-533.121	5.456	-0.126	-0.093
-532.106	-48.888	-0.077	-0.037
-531.091	-146.744	-0.127	-0.011
-530.077	47.182	-0.135	0.126
-529.062	23.485	0.123	-0.101
-528.048	18.899	-0.127	0.102
-527.033	11.438	0.289	0.222
-526.018	-35.144	-0.173	-0.095
-525.004	-200.000	-0.035	-0.200
-523.989	-10.167	0.188	0.125
-522.975	101.689	0.024	0.027
-521.960	-200.000	-0.029	-0.403
-520.945	-200.000	-0.033	-0.146
-519.931	-159.302	0.104	-0.006
-518.916	218.031	-0.074	0.118
-517.902	800.000	-0.119	-0.363
-516.887	370.407	-0.102	-0.208
-515.872	-20.268	-0.108	-0.067
-514.858	64.263	-0.159	-0.160
-513.843	-95.733	0.089	-0.024
-512.829	-87.054	0.033	-0.010
-511.814	260.389	0.040	0.070
-510.799	800.000	-0.061	-0.236
-509.785	800.000	0.037	-0.154
-508.770	112.209	-0.190	0.230
-507.756	-112.059	0.330	-0.067
-506.741	-140.705	-0.245	0.025
-505.726	-91.678	-0.053	-0.015
-504.712	-200.000	0.023	-0.188
-503.697	646.201	0.043	-0.109
-502.683	-200.000	0.062	0.293
-501.668	-153.436	-0.282	0.020
-500.653	182.638	0.081	0.119
-499.639	567.160	-0.111	0.270
-498.624	309.095	-0.117	0.218
-497.610	0.129	0.259	0.185
-496.595	176.016	-0.054	-0.078
-495.581	48.931	0.115	0.108
-494.566	132.400	0.076	0.098
-493.551	-103.236	-0.095	0.022
-492.537	-200.000	-0.023	0.207
-491.522	440.464	0.059	0.129
-490.508	-200.000	-0.004	0.214
-489.493	-111.470	-0.114	0.023
-488.478	-35.246	0.281	0.153
-487.464	-19.681	-0.271	-0.168
-486.449	274.539	-0.142	-0.252
-485.435	-108.881	-0.489	0.104
-484.420	-30.440	0.110	0.062
-483.405	50.520	0.328	0.310
-482.391	38.402	0.177	0.158
-481.376	-200.000	-0.030	0.186
-480.362	263.348	0.040	-0.070
-479.347	151.158	0.133	-0.181
-478.332	800.000	-0.020	-0.075
-477.318	800.000	0.023	0.086
-476.303	-57.681	0.154	-0.067
-475.289	-200.000	0.363	0.000
-474.274	180.675	0.083	0.121
-473.259	648.300	-0.105	-0.269
-472.245	-200.000	-0.002	0.112
-471.230	800.000	0.078	-0.271
-470.216	182.952	-0.022	0.032
-469.201	-146.263	0.211	0.019
-468.186	-131.710	-0.175	-0.023
-467.172	-86.116	-0.265	0.082
-466.157	-156.801	0.398	-0.024
-465.143	-93.267	0.116	-0.032
-464.128	-12.087	-0.142	0.093
-463.113	46.761	-0.101	-0.094
-462.099	442.703	0.031	-0.069
-461.084	88.652	0.125	0.138
-460.070	461.510	0.017	0.038
-459.055	188.401	-0.055	0.082
-458.040	-34.217	-0.182	0.100
-457.026	-158.995	-0.396	-0.022
-456.011	61.962	0.117	-0.117
-454.997	-200.000	0.007	-0.124
-453.982	-90.404	0.052	0.015
-452.968	495.530	-0.058	0.132
-451.953	72.943	0.243	0.253
-450.938	201.767	0.123	0.190
-449.924	-200.000	0.063	-0.322
-448.909	156.415	-0.207	0.286
-447.895	-18.477	-0.220	-0.137
-446.880	-14.018	0.043	-0.028
-445.865	-30.483	-0.052	0.030
-444.851	-121.029	-0.090	-0.015
-443.836	-22.503	0.153	-0.092
-442.822	631.059	0.022	0.056
-441.807	432.153	0.043	0.092
-440.792	-200.000	-0.014	-0.229
-439.778	-173.559	0.163	-0.005
-438.763	-103.180	-0.257	0.061
-437.749	-138.743	0.595	-0.065
-436.734	-200.000	0.020	0.212
-435.719	264.432	-0.075	-0.131
-434.705	-66.585	0.237	-0.094
-433.690	-5.471	0.222	-0.152
-432.676	740.677	-0.100	-0.268
-431.661	-130.651	-0.100	-0.013
-430.646	59.960	0.224	-0.221
-429.632	104.602	-0.258	0.303
-428.617	800.000	-0.106	0.344
-427.603	-56.692	-0.252	-0.111
-426.588	-130.623	0.502	-0.068
-425.573	107.628	0.056	-0.066
-424.559	-100.821	-0.205	0.050
-423.544	297.927	0.106	0.194
-422.530	-200.000	0.019	0.378
-421.515	4.385	0.183	0.134
-420.500	-170.707	-0.191	-0.007
-419.486	-200.000	-0.002	0.015
-418.471	-87.831	-0.398	0.120
-417.457	-24.158	-0.167	0.100
-416.442	-200.000	0.006	-0.155
-415.428	-62.864	-0.100	0.041
-414.413	6.109	-0.103	0.076
-413.398	518.365	-0.210	0.491
-412.384	301.596	-0.075	0.138
-411.369	312.800	0.048	0.090
-410.355	-150.779	-0.335	0.025
-409.340	12.346	0.208	-0.160
-408.325	14.095	-0.197	-0.153
-407.311	-200.000	-0.030	-0.243
-406.296	-144.919	0.403	0.037
-405.282	125.698	-0.038	0.048
-404.267	39.200	-0.149	-0.133
-403.252	-200.000	0.019	-0.267
-402.238	-100.693	-0.124	0.030
-401.223	28.961	-0.192	0.162
-400.209	447.901	-0.055	-0.121
-399.194	138.606	0.187	-0.245
-398.179	-173.308	-0.261	-0.008
-397.165	158.314	-0.135	0.186
-396.150	-40.076	-0.309	0.160
-395.136	50.412	-0.124	0.117
-394.121	-200.000	0.001	-0.030
-393.106	-103.433	0.171	0.040
-392.092	-61.496	-0.087	0.036
-391.077	275.413	0.203	0.358
-390.063	67.608	0.070	-0.072
-389.048	-114.627	-0.315	0.060
-388.033	-93.467	-0.204	-0.056
-387.019	-92.565	-0.397	0.111
-386.004	-200.000	0.019	-0.255
-384.990	-73.997	-0.173	0.063
-383.975	-118.868	0.046	-0.008
-382.960	-97.744	0.223	0.058
-381.946	-200.000	0.035	0.190
-380.931	-200.000	0.098	0.517
-379.917	696.707	0.147	0.384
-378.902	-72.986	-0.234	-0.086
-377.888	600.632	0.165	0.407
-376.873	-200.000	0.004	0.098
-375.858	-63.546	-0.327	0.134
-374.844	23.827	0.062	-0.051
-373.829	-129.407	0.369	-0.051
-372.815	320.927	-0.045	0.085
-371.800	272.394	0.245	-0.430
-370.785	800.000	0.027	-0.116
-369.771	-85.876	0.178	-0.055
-368.756	569.533	-0.061	0.147
-367.742	-88.735	0.142	0.042
-366.727	800.000	-0.033	-0.105
-365.712	-9.516	-0.099	-0.066
-364.698	800.000	-0.026	-0.074
-363.683	-42.347	0.202	0.103
-362.669	-56.061	-0.337	0.150
-361.654	161.182	0.163	0.226
-360.639	-88.371	-0.113	0.034
-359.625	-50.902	-0.349	-0.163
-358.610	52.535	-0.298	0.283
-357.596	-122.404	-0.024	0.004
-356.581	145.409	-0.106	0.141
-355.566	47.784	0.115	0.107
-354.552	-159.087	0.253	-0.014
-353.537	2.325	-0.133	0.096
-352.523	185.870	-0.091	0.135
-351.508	800.000	-0.037	0.124
-350.493	58.938	0.193	-0.189
-349.479	4.644	0.094	0.068
-348.464	-200.000	-0.050	-0.322
-347.450	82.606	0.061	0.066
-346.435	-150.336	0.195	-0.015
-345.420	-69.596	0.356	-0.136
-344.406	800.000	0.090	-0.315
-343.391	-150.636	-0.123	0.009
-342.377	-99.463	-0.406	0.102
-341.362	-74.735	-0.316	0.113
-340.348	706.879	-0.016	0.043
-339.333	105.459	0.112	-0.131
-338.318	-200.000	0.002	0.184
-337.304	517.478	-0.165	0.383
-336.289	-200.000	-0.077	0.358
-335.275	441.936	-0.140	-0.305
-334.260	162.201	0.288	-0.401
-333.245	-135.539	0.191	-0.023
-332.231	24.241	0.127	-0.104
-331.216	531.664	0.049	-0.116
-330.202	661.574	0.131	0.335
-329.187	372.293	-0.100	0.203
-328.172	-115.890	-0.165	0.031
-327.158	-60.963	-0.206	0.086
-326.143	800.000	-0.088	-0.304
-325.129	-44.225	-0.071	-0.035
-324.114	1.421	0.099	-0.071
-323.099	399.391	0.178	0.371
-322.085	162.134	0.062	-0.086
-321.070	303.163	0.030	-0.056
-320.056	-200.000	0.338	0.001
-319.041	111.012	-0.049	-0.059
-318.026	165.646	0.098	-0.138
-317.012	714.770	0.085	-0.225
-315.997	122.613	-0.147	0.183
-314.983	13.389	-0.071	0.055
-313.968	13.090	0.175	0.135
-312.953	-35.060	0.177	0.096
-311.939	151.984	0.096	-0.130
-310.924	21.807	0.106	-0.086
-309.910	8.746	-0.019	-0.014
-308.895	72.358	0.123	0.127
-307.880	-39.380	0.088	0.046
-306.866	-200.000	0.013	0.093
-305.851	647.562	0.026	-0.066
-304.837	-200.000	-0.030	0.150
-303.822	180.876	-0.083	-0.121
-302.807	-154.658	-0.180	-0.012
-301.793	-200.000	-0.078	0.360
-300.778	800.000	0.017	0.050
-299.764	-32.095	0.078	0.043
-298.749	345.206	0.056	0.109
-297.735	223.169	0.043	-0.069
-296.720	-113.766	-0.499	0.096
-295.705	-200.000	0.294	0.001
-294.691	152.721	0.089	-0.121
-293.676	-163.920	-0.086	-0.004
-292.662	17.971	-0.233	-0.184
-291.647	71.457	-0.170	0.175
-290.632	-88.916	0.200	0.059
-289.618	-200.000	-0.015	-0.113
-288.603	21.794	-0.162	0.131
-287.589	46.832	0.098	0.090
-286.574	-200.000	0.027	-0.164
-285.559	-7.288	0.327	-0.220
-284.545	-60.439	0.127	-0.054
-283.530	-200.000	-0.316	-0.000
-282.516	-200.000	-0.071	0.434
-281.501	38.793	-0.145	0.128
-280.486	-80.739	0.428	0.141
-279.472	-86.114	-0.196	-0.060
-278.457	-67.784	0.186	0.072
-277.443	354.876	-0.090	0.177
-276.428	800.000	-0.109	-0.378
-275.413	-178.560	0.194	-0.004
-274.399	-55.656	-0.224	-0.099
-273.384	-200.000	-0.028	0.142
-272.370	-42.362	0.290	0.147
-271.355	-89.073	-0.367	-0.108
-270.340	-9.888	0.252	0.166
-269.326	-19.394	-0.261	0.160
-268.311	-200.000	0.049	0.272
-267.297	-200.000	0.041	0.330
-266.282	509.292	-0.119	0.275
-265.267	-34.347	-0.207	-0.113
-264.253	441.706	-0.019	-0.042
-263.238	-200.000	-0.064	0.290
-262.224	-200.000	0.008	-0.175
-261.209	800.000	-0.077	0.262
-260.195	800.000	0.062	0.232
-259.180	800.000	-0.103	-0.418
-258.165	800.000	-0.045	0.134
-257.151	453.100	0.013	0.029
-256.136	-107.636	0.401	-0.087
-255.122	394.373	-0.064	-0.133
-254.107	112.757	0.086	0.103
-253.092	48.592	-0.198	0.184
-252.078	-200.000	-0.023	0.281
-251.063	-63.580	-0.228	-0.093
-250.049	-39.811	0.158	-0.082
-249.034	27.181	0.260	-0.216
-248.019	22.603	-0.350	-0.283
-247.005	-42.363	-0.178	-0.090
-245.990	-3.998	-0.180	-0.124
-244.976	-125.243	0.191	0.029
-243.961	-157.742	0.324	0.019
-242.946	-65.944	0.095	0.038
-241.932	-62.833	-0.192	0.079
-240.917	-200.000	-0.033	0.295
-239.903	-111.362	-0.192	-0.039
-238.888	-22.256	0.282	-0.170
-237.873	-65.868	0.306	0.121
-236.859	800.000	-0.078	-0.230
-235.844	-23.185	-0.162	-0.096
-234.830	-200.000	-0.042	0.370
-233.815	-200.000	-0.020	0.218
-232.800	298.835	0.074	0.135
-231.786	72.929	-0.038	0.039
-230.771	-116.938	0.500	0.091
-229.757	-200.000	-0.022	-0.277
-228.742	-24.520	-0.217	0.128
-227.727	-200.000	0.042	0.199
-226.713	450.379	0.146	0.318
-225.698	191.151	-0.139	0.207
-224.684	800.000	-0.057	0.211
-223.669	-145.083	-0.225	0.020
-222.655	436.904	0.081	-0.174
-221.640	103.987	-0.302	-0.351
-220.625	17.464	-0.167	0.131
-219.611	-7.832	-0.264	-0.176
-218.596	152.754	-0.180	-0.243
-217.582	164.021	0.173	-0.241
-216.567	433.901	0.083	0.178
-215.552	-25.832	0.051	-0.030
-214.538	800.000	-0.015	-0.054
-213.523	158.384	-0.171	-0.235
-212.509	-112.644	-0.202	-0.040
-211.494	79.275	0.285	0.302
-210.479	67.738	0.154	-0.156
-209.465	-200.000	-0.046	-0.273
-208.450	-30.137	0.198	-0.111
-207.436	800.000	-0.095	-0.312
-206.421	60.991	-0.037	-0.036
-205.406	800.000	-0.103	0.314
-204.392	-200.000	0.016	0.218
-203.377	98.789	0.116	-0.132
-202.363	-101.581	-0.382	0.092
-201.348	55.414	0.278	-0.266
-200.333	52.611	-0.149	-0.140
-199.319	-200.000	-0.026	0.182
-198.304	-200.000	0.024	-0.151
-197.290	-190.484	0.177	0.002
-196.275	28.732	0.194	0.162
-195.260	23.721	-0.178	0.145
-194.246	-118.579	0.229	-0.040
-193.231	-200.000	-0.064	-0.294
-192.217	-171.972	-0.171	-0.005
-191.202	37.577	0.326	0.286
-190.187	83.723	-0.124	-0.134
-189.173	800.000	-0.029	-0.084
-188.158	46.203	0.202	-0.185
-187.144	449.712	0.111	0.243
-186.129	434.511	-0.085	0.182
-185.114	257.097	0.068	0.115
-184.100	-28.162	0.050	0.028
-183.085	149.963	-0.091	-0.122
-182.071	-200.000	-0.002	-0.126
-181.056	-59.123	-0.128	0.055
-180.042	-200.000	-0.027	0.123
-179.027	-108.507	-0.236	0.050
-178.012	-125.991	0.111	-0.016
-176.998	-200.000	-0.006	-0.256
-175.983	-72.210	-0.177	0.065
-174.969	800.000	0.048	0.182
-173.954	45.078	-0.186	-0.169
-172.939	-200.000	-0.042	-0.339
-171.925	209.240	-0.071	-0.111
-170.910	-26.513	-0.053	-0.031
-169.896	-84.776	-0.160	-0.050
-168.881	-66.238	0.360	-0.141
-167.866	-200.000	-0.011	-0.123
-166.852	6.223	-0.144	0.106
-165.837	-200.000	0.124	-0.551
-164.823	241.274	0.196	-0.323
-163.808	-147.246	-0.468	0.039
-162.793	56.612	-0.232	0.223
-161.779	51.613	0.202	0.190
-160.764	191.457	0.230	0.343
-159.750	-122.314	0.284	-0.046
-158.735	-160.733	-0.365	0.019
-157.720	800.000	0.078	-0.240
-156.706	417.938	0.052	-0.110
-155.691	339.256	-0.273	0.526
-154.677	-200.000	-0.030	-0.327
-153.662	49.098	-0.154	0.143
-152.647	398.398	0.172	0.355
-151.633	-70.806	-0.186	-0.069
-150.618	-48.372	-0.329	0.156
-149.604	71.009	-0.101	-0.104
-148.589	800.000	-0.043	0.173
-147.574	-200.000	-0.032	0.187
-146.560	-99.185	-0.083	-0.021
-145.545	163.250	0.258	0.357
-144.531	-169.686	-0.302	0.011
-143.516	23.628	0.136	-0.110
-142.502	622.603	0.019	-0.048
-141.487	-200.000	-0.086	0.396
-140.472	215.935	0.307	-0.481
-139.458	-200.000	0.029	0.191
-138.443	-152.138	0.293	-0.021
-137.429	-22.290	-0.168	0.100
-136.414	776.963	0.071	-0.190
-135.399	-36.711	0.255	0.135
-134.385	-101.432	0.246	0.059
-133.370	547.435	-0.061	-0.144
-132.356	-176.778	-0.102	-0.003
-131.341	-41.105	0.362	0.184
-130.326	-200.000	0.000	-0.275
-129.312	760.253	0.063	0.169
-128.297	-11.255	0.157	-0.102
-127.283	127.605	-0.196	0.246
-126.268	800.000	0.072	-0.293
-125.253	800.000	0.025	0.073
-124.239	-116.194	-0.258	-0.047
-123.224	800.000	0.057	0.156
-122.210	111.345	0.225	0.268
-121.195	-200.000	0.023	0.437
