DTS Sentinel unit serial number:	SN413079Multiplexer serial number:	ORYXHardware model number:	OX4-SRSoftware version number:	ORYX F/W v4.00 Oryx Data Collector v3.7.2.0data status	okinstallation	princeton_trtdifferential loss correction	single-endedforward channel	channel 2reverse channel	N/Adate	2019/09/12time	12:13:11forward acquisition time	60.00reverse acquisition time	0.00gamma	496.2192k internal	0.2299k external	0.2299temperature offset calibration	1.0076default loss term (dB/km)	0.3790temperature slope calibration	1.0000multiplexer offset coefficient	1.0000multiplexer slope coefficient	1.0000fibre end	0.00T internal ref (°C)	40.62T ext. ref 1 (°C)	2.03T ext. ref 2 (°C)	35.86length (m)	temperature (°C)	Stokes	anti-Stokes-747.200	101.467	-0.320	-0.381
-746.185	5.611	-0.276	0.208
-745.171	-111.576	0.071	0.015
-744.156	5.990	0.300	0.227
-743.142	95.162	0.231	-0.269
-742.127	63.108	-0.239	0.245
-741.112	-200.000	-0.004	-0.220
-740.098	800.000	-0.052	0.146
-739.083	-43.890	-0.117	0.060
-738.069	166.613	-0.204	-0.295
-737.054	800.000	0.054	0.227
-736.039	-58.830	-0.412	0.182
-735.025	800.000	0.062	0.210
-734.010	-73.916	0.032	0.012
-732.996	-102.410	-0.456	-0.111
-731.981	-129.472	-0.093	-0.013
-730.966	15.047	0.106	0.085
-729.952	-149.606	0.046	-0.004
-728.937	-75.805	-0.165	0.060
-727.923	-200.000	0.002	-0.016
-726.908	311.462	-0.152	-0.290
-725.894	-69.168	-0.362	0.142
-724.879	-36.141	0.126	-0.069
-723.864	-100.305	0.225	-0.057
-722.850	325.214	-0.105	-0.205
-721.835	-52.482	-0.016	-0.008
-720.821	109.302	0.057	0.070
-719.806	-200.000	-0.011	0.122
-718.791	-122.026	0.249	0.042
-717.777	-143.638	0.265	-0.026
-716.762	192.249	0.038	-0.059
-715.748	-28.720	0.221	-0.130
-714.733	10.085	-0.103	-0.080
-713.718	800.000	-0.037	0.162
-712.704	111.112	-0.119	-0.146
-711.689	-200.000	-0.028	0.178
-710.675	-146.867	-0.149	0.013
-709.660	194.500	-0.257	0.397
-708.645	201.774	0.105	0.165
-707.631	-200.000	-0.022	0.110
-706.616	-200.000	-0.033	-0.191
-705.602	-200.000	-0.028	0.148
-704.587	-25.951	0.136	0.082
-703.572	-85.451	-0.336	0.107
-702.558	482.014	-0.215	-0.497
-701.543	-82.663	0.170	0.056
-700.529	-75.856	0.157	0.057
-699.514	361.934	-0.128	-0.262
-698.499	14.954	0.331	-0.264
-697.485	18.333	-0.147	-0.120
-696.470	-164.710	0.142	0.007
-695.456	-56.751	-0.117	0.053
-694.441	-200.000	0.004	0.045
-693.426	800.000	0.085	-0.263
-692.412	259.034	-0.072	0.127
-691.397	28.289	-0.148	0.127
-690.383	-110.193	0.382	-0.081
-689.368	344.796	0.094	0.187
-688.354	-200.000	-0.033	0.387
-687.339	-48.450	-0.390	0.191
-686.324	-135.380	-0.221	0.027
-685.310	-111.254	0.306	-0.064
-684.295	11.695	0.096	0.075
-683.281	-100.989	-0.248	0.062
-682.266	800.000	-0.063	0.256
-681.251	-8.608	0.147	-0.100
-680.237	-200.000	-0.027	-0.210
-679.222	-200.000	0.033	-0.359
-678.208	-13.799	-0.056	-0.037
-677.193	-169.154	0.102	0.004
-676.178	-61.012	0.181	0.078
-675.164	74.233	0.242	0.258
-674.149	-42.698	0.257	0.133
-673.135	206.201	0.194	0.307
-672.120	800.000	-0.022	0.083
-671.105	-11.184	0.264	-0.177
-670.091	-200.000	-0.063	0.377
-669.076	-200.000	-0.022	0.135
-668.062	-36.927	0.107	0.058
-667.047	-97.377	-0.274	0.072
-666.032	273.163	0.063	-0.114
-665.018	800.000	-0.087	-0.340
-664.003	-56.165	0.051	0.023
-662.989	-59.328	0.254	-0.111
-661.974	-200.000	0.007	-0.092
-660.959	-200.000	0.055	-0.252
-659.945	-86.182	0.280	0.088
-658.930	648.819	-0.069	-0.180
-657.916	104.661	0.147	-0.177
-656.901	-93.686	-0.167	-0.047
-655.886	-161.802	0.213	-0.011
-654.872	-200.000	-0.033	-0.336
-653.857	-200.000	-0.022	-0.348
-652.843	-200.000	0.032	-0.169
-651.828	106.456	-0.049	-0.059
-650.814	-174.393	-0.122	0.004
-649.799	-164.374	-0.399	-0.019
-648.784	83.559	-0.013	-0.015
-647.770	550.566	-0.133	-0.324
-646.755	-138.789	0.252	-0.028
-645.741	800.000	-0.075	-0.275
-644.726	-200.000	0.012	-0.126
-643.711	473.693	-0.086	-0.197
-642.697	94.501	0.103	-0.118
-641.682	-57.434	0.201	-0.090
-640.668	14.199	0.204	-0.162
-639.653	0.543	0.125	0.091
-638.638	-200.000	0.031	-0.398
-637.624	800.000	-0.053	-0.190
-636.609	-119.840	0.148	-0.026
-635.595	-131.360	0.083	0.011
-634.580	9.379	0.099	-0.076
-633.565	800.000	-0.034	-0.109
-632.551	62.196	-0.030	-0.030
-631.536	-78.297	0.256	-0.089
-630.522	30.879	0.301	-0.262
-629.507	-132.049	-0.445	-0.059
-628.492	463.594	-0.052	0.117
-627.478	4.008	0.288	0.214
-626.463	-0.550	-0.238	0.172
-625.449	5.233	-0.099	-0.074
-624.434	49.783	-0.214	-0.205
-623.419	192.236	0.207	0.317
-622.405	-103.618	0.045	-0.011
-621.390	800.000	0.037	0.149
-620.376	-200.000	0.009	0.045
-619.361	-124.151	0.232	-0.037
-618.346	-200.000	-0.057	0.289
-617.332	369.490	-0.126	0.258
-616.317	800.000	0.125	-0.551
-615.303	156.761	-0.065	-0.092
-614.288	91.149	0.244	0.278
-613.273	-158.480	0.324	-0.019
-612.259	-151.242	-0.045	-0.003
-611.244	-100.409	0.284	-0.071
-610.230	-161.618	-0.249	0.013
-609.215	-32.348	-0.135	-0.077
-608.201	321.797	0.095	-0.184
-607.186	-200.000	0.045	0.396
-606.171	132.487	-0.174	0.228
-605.157	-19.594	-0.201	0.126
-604.142	-200.000	0.061	0.426
-603.128	-48.925	0.078	0.038
-602.113	-32.877	-0.115	-0.065
-601.098	-82.652	0.323	0.106
-600.084	-200.000	0.013	-0.436
-599.069	244.424	-0.042	-0.071
-598.055	-146.824	0.164	-0.014
-597.040	-76.010	0.259	-0.093
-596.025	245.966	-0.098	0.167
-595.011	738.501	-0.067	-0.183
-593.996	23.691	-0.108	0.091
-592.982	-200.000	-0.018	0.197
-591.967	800.000	-0.087	0.284
-590.952	-94.468	0.162	-0.045
-589.938	-18.336	-0.069	-0.044
-588.923	-200.000	0.032	0.303
-587.909	-200.000	0.025	0.211
-586.894	-56.022	0.348	0.157
-585.879	-39.299	-0.391	-0.208
-584.865	104.468	0.091	-0.109
-583.850	-13.480	0.249	0.164
-582.836	-200.000	0.014	0.215
-581.821	800.000	0.159	-0.586
-580.806	-113.905	0.136	-0.027
-579.792	313.961	-0.067	-0.128
-578.777	-128.629	-0.270	0.039
-577.763	-102.886	-0.045	0.011
-576.748	-67.835	0.341	0.135
-575.733	-48.764	-0.285	-0.139
-574.719	-74.839	0.333	-0.121
-573.704	32.018	-0.179	-0.156
-572.690	566.401	-0.091	-0.223
-571.675	170.751	-0.082	0.119
-570.661	-200.000	0.008	0.131
-569.646	-38.165	-0.112	-0.060
-568.631	0.729	0.145	0.105
-567.617	-54.394	0.068	-0.031
-566.602	-38.375	-0.165	0.088
-565.588	25.088	0.267	0.225
-564.573	-112.553	-0.055	0.011
-563.558	-114.743	0.196	-0.038
-562.544	461.376	0.206	-0.466
-561.529	-81.507	-0.146	0.049
-560.515	15.554	-0.191	0.152
-559.500	-138.807	-0.323	0.036
-558.485	704.820	0.116	0.311
-557.471	-25.433	-0.303	0.182
-556.456	111.639	0.052	-0.064
-555.442	-200.000	-0.007	-0.254
-554.427	-83.674	-0.061	0.020
-553.412	690.586	0.090	-0.237
-552.398	-180.152	0.112	-0.002
-551.383	-53.538	0.105	0.049
-550.369	-44.261	-0.213	-0.108
-549.354	90.045	0.056	-0.064
-548.339	-70.287	0.177	0.068
-547.325	245.811	0.106	-0.181
-546.310	-200.000	-0.036	-0.190
-545.296	-90.597	0.203	-0.059
-544.281	53.776	0.185	0.180
-543.266	232.149	0.133	0.222
-542.252	165.274	0.053	0.076
-541.237	-1.376	0.386	-0.276
-540.223	87.477	0.146	0.164
-539.208	-200.000	-0.014	-0.088
-538.193	-4.895	-0.097	-0.067
-537.179	-77.106	-0.299	-0.106
-536.164	213.292	-0.089	0.143
-535.150	279.158	0.035	-0.063
-534.135	800.000	0.018	0.061
-533.121	-200.000	-0.043	-0.249
-532.106	334.092	0.026	-0.051
-531.091	-200.000	0.016	-0.129
-530.077	39.999	0.227	-0.207
-529.062	40.966	0.125	-0.114
-528.048	-128.186	-0.622	-0.090
-527.033	800.000	0.019	0.076
-526.018	-129.467	0.396	0.056
-525.004	-200.000	-0.003	-0.161
-523.989	-58.705	0.076	-0.033
-522.975	266.861	0.063	-0.112
-521.960	68.524	0.039	-0.041
-520.945	269.367	-0.041	-0.072
-519.931	-200.000	-0.032	-0.255
-518.916	-161.384	-0.074	0.004
-517.902	38.140	0.213	-0.192
-516.887	-96.222	0.134	-0.036
-515.872	-200.000	0.002	-0.304
-514.858	800.000	-0.073	0.238
-513.843	-197.416	-0.374	0.002
-512.829	-200.000	-0.014	-0.105
-511.814	-185.880	-0.119	-0.002
-510.799	113.374	0.103	0.127
-509.785	93.310	0.202	-0.231
-508.770	-169.881	0.307	-0.011
-507.756	277.917	-0.143	-0.258
-506.741	-8.560	-0.102	0.069
-505.726	-64.275	0.347	-0.143
-504.712	129.710	-0.113	0.146
-503.697	-125.276	0.220	-0.034
-502.683	800.000	0.009	0.041
-501.668	-109.385	0.369	-0.079
-500.653	424.582	-0.114	0.248
-499.639	23.771	0.249	-0.207
-498.624	-122.009	0.210	0.035
-497.610	-121.045	0.362	-0.061
-496.595	-146.092	-0.206	-0.018
-495.581	144.442	-0.126	0.170
-494.566	-70.178	-0.383	-0.147
-493.551	-127.672	-0.030	0.004
-492.537	-200.000	-0.010	0.117
-491.522	-39.265	-0.119	0.063
-490.508	-200.000	-0.032	0.214
-489.493	111.676	-0.117	0.143
-488.478	36.358	-0.168	-0.150
-487.464	439.947	0.108	-0.238
-486.449	800.000	0.073	-0.305
-485.435	-10.584	-0.207	0.139
-484.420	-67.398	0.028	-0.011
-483.405	800.000	0.076	0.295
-482.391	64.874	-0.337	0.344
-481.376	332.659	0.126	0.245
-480.362	183.666	0.216	0.322
-479.347	-185.085	0.310	-0.005
-478.332	-200.000	-0.014	0.341
-477.318	30.057	0.218	0.188
-476.303	186.550	0.293	-0.441
-475.289	618.582	0.051	-0.130
-474.274	-30.542	0.099	0.057
-473.259	295.536	-0.038	-0.070
-472.245	-132.046	0.156	-0.020
-471.230	-74.509	-0.055	0.020
-470.216	42.096	-0.202	-0.185
-469.201	-116.928	-0.262	-0.048
-468.186	200.385	0.012	0.019
-467.172	217.105	-0.052	-0.084
-466.157	800.000	0.091	0.325
-465.143	3.107	0.122	0.089
-464.128	-141.858	-0.169	0.017
-463.113	60.610	-0.227	0.227
-462.099	-153.300	0.228	0.016
-461.084	-131.946	-0.200	0.026
-460.070	-166.610	-0.209	0.009
-459.055	-14.297	-0.048	0.031
-458.040	347.741	0.035	-0.070
-457.026	286.562	0.100	0.182
-456.011	-200.000	-0.003	-0.124
-454.997	308.046	0.102	0.192
-453.982	-163.122	0.134	0.007
-452.968	-154.152	0.198	0.014
-451.953	-38.039	0.246	-0.132
-450.938	14.832	0.034	-0.027
-449.924	154.541	-0.110	0.153
-448.909	486.960	-0.075	-0.173
-447.895	243.891	0.101	-0.171
-446.880	551.311	-0.061	0.147
-445.865	-34.658	-0.139	0.077
-444.851	652.978	-0.076	-0.197
-443.836	-144.370	-0.177	-0.017
-442.822	-114.157	0.129	-0.025
-441.807	-91.962	-0.061	0.018
-440.792	-200.000	0.020	-0.152
-439.778	83.699	0.134	0.147
-438.763	388.766	-0.115	0.241
-437.749	303.126	0.085	0.159
-436.734	-54.689	-0.236	-0.108
-435.719	-146.262	0.235	0.021
-434.705	-200.000	-0.015	-0.131
-433.690	189.271	0.114	-0.172
-432.676	-200.000	0.017	-0.348
-431.661	-200.000	0.008	-0.072
-430.646	-52.034	0.059	-0.027
-429.632	-58.340	-0.465	-0.204
-428.617	-86.745	-0.338	0.104
-427.603	-55.443	0.080	0.036
-426.588	-200.000	0.074	-0.433
-425.573	-51.779	-0.358	-0.168
-424.559	800.000	0.108	-0.299
-423.544	-127.956	-0.285	0.041
-422.530	75.913	0.122	-0.130
-421.515	776.818	0.056	0.153
-420.500	120.689	0.093	-0.117
-419.486	148.286	0.198	0.270
-418.471	96.437	-0.066	0.076
-417.457	2.309	0.232	-0.169
-416.442	-200.000	0.004	0.184
-415.428	-200.000	0.028	-0.144
-414.413	-149.276	-0.199	0.016
-413.398	-95.888	-0.311	0.084
-412.384	-45.191	0.120	-0.060
-411.369	36.744	-0.045	-0.040
-410.355	-76.054	0.087	0.031
-409.340	-74.494	0.117	-0.042
-408.325	-200.000	0.016	-0.330
-407.311	35.940	-0.197	0.175
-406.296	-200.000	-0.025	0.133
-405.282	428.049	0.131	0.285
-404.267	528.388	-0.081	0.193
-403.252	235.720	0.060	0.100
-402.238	-13.132	0.152	0.099
-401.223	800.000	-0.078	0.316
-400.209	-200.000	-0.007	0.212
-399.194	3.642	-0.377	0.277
-398.179	-57.705	0.205	0.090
-397.165	86.025	0.115	-0.128
-396.150	364.115	-0.133	-0.270
-395.136	5.414	0.134	-0.100
-394.121	468.875	-0.141	0.319
-393.106	21.353	-0.253	0.207
-392.092	-136.258	0.216	-0.025
-391.077	800.000	0.168	0.589
-390.063	-200.000	0.046	0.279
-389.048	77.709	0.130	0.140
-388.033	83.705	-0.355	-0.390
-387.019	-16.071	-0.299	-0.191
-386.004	-108.312	0.303	0.066
-384.990	47.975	0.186	0.175
-383.975	226.125	-0.146	-0.238
-382.960	-121.793	0.468	0.078
-381.946	-132.349	0.267	-0.035
-380.931	-156.896	-0.293	-0.018
-379.917	-172.231	-0.106	0.003
-378.902	247.869	0.042	0.071
-377.888	216.752	-0.126	0.202
-376.873	406.984	-0.083	-0.175
-375.858	-3.484	-0.198	0.139
-374.844	-33.882	0.363	0.201
-373.829	-7.314	0.185	-0.126
-372.815	-200.000	-0.052	-0.240
-371.800	-200.000	-0.006	0.060
-370.785	-200.000	0.001	0.236
-369.771	-84.371	0.143	-0.045
-368.756	-99.817	0.120	0.030
-367.742	-34.425	0.155	-0.085
-366.727	-200.000	-0.001	-0.252
-365.712	-65.709	-0.154	0.062
-364.698	-41.370	-0.372	-0.193
-363.683	-42.946	-0.079	0.040
-362.669	-200.000	-0.008	-0.102
-361.654	-74.046	0.302	0.110
-360.639	-200.000	-0.004	-0.101
-359.625	361.887	-0.102	-0.206
-358.610	-4.383	-0.228	-0.159
-357.596	-152.197	-0.049	0.004
-356.581	207.465	-0.138	0.217
-355.566	268.804	0.083	-0.147
-354.552	800.000	0.032	-0.103
-353.537	305.114	-0.406	0.759
-352.523	-132.723	-0.250	-0.032
-351.508	192.904	-0.042	-0.064
-350.493	800.000	-0.037	-0.117
-349.479	-72.955	-0.306	-0.113
-348.464	116.232	-0.090	0.111
-347.450	-119.746	-0.318	0.055
-346.435	93.959	-0.131	0.149
-345.420	-47.837	0.085	0.041
-344.406	-200.000	-0.013	-0.072
-343.391	178.012	-0.161	0.236
-342.377	122.086	-0.146	-0.183
-341.362	65.349	-0.047	0.047
-340.348	-200.000	0.067	0.350
-339.333	-157.352	-0.245	0.015
-338.318	-148.444	0.258	0.021
-337.304	761.057	-0.069	0.188
-336.289	36.399	-0.212	0.188
-335.275	-82.738	-0.323	0.105
-334.260	-27.512	0.182	-0.106
-333.245	136.180	-0.163	-0.213
-332.231	-153.644	-0.023	-0.002
-331.216	66.813	0.092	0.094
-330.202	-200.000	0.022	0.343
-329.187	46.831	0.169	-0.158
-328.172	1.803	-0.309	-0.223
-327.158	-57.861	-0.284	-0.125
-326.143	28.281	0.165	-0.140
-325.129	-200.000	-0.006	0.200
-324.114	-26.212	-0.132	-0.078
-323.099	438.451	-0.137	-0.300
-322.085	-200.000	0.007	0.230
-321.070	575.148	0.076	0.187
-320.056	-200.000	-0.027	0.183
-319.041	800.000	0.064	-0.238
-318.026	-142.408	-0.034	-0.003
-317.012	800.000	-0.089	-0.287
-315.997	800.000	-0.070	0.207
-314.983	583.890	0.085	-0.210
-313.968	-35.901	0.142	0.077
-312.953	-102.889	-0.316	0.075
-311.939	382.680	0.107	0.220
-310.924	24.722	0.060	-0.050
-309.910	-99.391	0.109	0.028
-308.895	-23.599	-0.184	-0.111
-307.880	-200.000	0.007	-0.353
-306.866	-21.520	-0.394	-0.241
-305.851	-200.000	0.026	-0.226
-304.837	107.007	-0.115	0.137
-303.822	87.495	0.039	0.044
-302.807	208.593	-0.124	0.194
-301.793	-73.103	0.398	-0.147
-300.778	59.787	-0.283	0.280
-299.764	34.553	-0.314	0.275
-298.749	188.162	-0.175	0.262
-297.735	-200.000	0.016	0.369
-296.720	620.386	-0.145	0.367
-295.705	-109.829	-0.125	-0.026
-294.691	491.365	0.089	0.205
-293.676	51.442	0.137	-0.131
-292.662	401.635	-0.171	-0.361
-291.647	406.543	0.248	-0.524
-290.632	-38.292	-0.074	0.039
-289.618	88.066	0.148	-0.165
-288.603	48.903	0.167	0.157
-287.589	54.820	0.099	0.096
-286.574	-98.949	-0.287	-0.073
-285.559	800.000	0.100	-0.299
-284.545	525.584	-0.176	-0.416
-283.530	119.231	-0.183	-0.227
-282.516	-88.075	0.193	0.058
-281.501	588.896	0.122	0.302
-280.486	-42.554	0.153	0.078
-279.472	-76.852	0.274	0.096
-278.457	-5.519	-0.133	-0.092
-277.443	-200.000	-0.021	-0.353
-276.428	-52.039	-0.208	-0.097
-275.413	122.043	-0.171	-0.214
-274.399	348.948	0.061	0.122
-273.384	-104.785	-0.186	0.043
-272.370	-135.682	0.142	0.017
-271.355	180.269	0.047	0.069
-270.340	-200.000	-0.034	0.466
-269.326	-83.463	0.222	-0.071
-268.311	-166.098	0.258	0.011
-267.297	358.455	0.080	0.161
-266.282	800.000	-0.023	-0.082
-265.267	-108.169	-0.229	-0.050
-264.253	-162.433	-0.078	-0.004
-263.238	-200.000	-0.079	0.353
-262.224	-108.147	-0.109	0.024
-261.209	448.650	0.059	0.131
-260.195	-45.558	-0.396	0.196
-259.180	-56.844	-0.252	-0.112
-258.165	800.000	-0.057	0.215
-257.151	17.260	0.053	-0.042
-256.136	288.570	0.005	0.009
-255.122	72.309	0.110	-0.115
-254.107	49.917	-0.170	-0.161
-253.092	-96.424	0.185	-0.049
-252.078	-200.000	0.030	-0.212
-251.063	-6.621	0.133	-0.091
-250.049	83.624	0.191	0.208
-249.034	424.968	0.068	-0.147
-248.019	-81.927	0.050	-0.016
-247.005	-164.428	-0.354	-0.016
-245.990	-200.000	0.003	0.282
-244.976	800.000	0.046	0.164
-243.961	-120.082	0.250	-0.043
-242.946	-64.980	-0.270	-0.109
-241.932	-200.000	-0.034	0.212
-240.917	181.470	-0.031	-0.045
-239.903	-122.786	0.147	0.024
-238.888	800.000	-0.071	0.268
-237.873	-72.030	0.224	-0.083
-236.859	162.465	-0.113	-0.158
-235.844	-85.127	0.082	0.026
-234.830	-60.461	0.391	0.166
-233.815	-76.925	0.422	0.148
-232.800	-200.000	0.027	0.212
-231.786	67.838	-0.308	-0.315
-230.771	-83.959	0.036	-0.011
-229.757	800.000	-0.037	0.121
-228.742	305.899	0.012	-0.023
-227.727	84.972	-0.085	0.093
-226.713	-62.078	0.064	0.027
-225.698	111.129	-0.061	0.073
-224.684	49.503	-0.185	-0.174
-223.669	-102.393	-0.063	-0.015
-222.655	54.504	0.216	-0.208
-221.640	-56.909	-0.144	0.063
-220.625	800.000	0.092	-0.262
-219.611	-200.000	0.079	-0.381
-218.596	12.880	-0.158	-0.122
-217.582	-200.000	-0.033	-0.431
-216.567	49.685	-0.057	-0.053
-215.552	-125.067	0.221	0.034
-214.538	800.000	-0.084	-0.292
-213.523	7.779	-0.145	0.109
-212.509	-36.674	0.339	-0.182
-211.494	-39.870	-0.490	0.256
-210.479	-200.000	-0.049	0.496
-209.465	800.000	-0.025	-0.098
-208.450	-113.996	0.156	0.030
-207.436	-133.517	-0.397	0.050
-206.421	-200.000	0.042	0.203
-205.406	168.045	0.071	-0.101
-204.392	-64.633	-0.273	0.111
-203.377	-43.779	-0.186	0.094
-202.363	-48.560	0.102	0.049
-201.348	-74.863	0.068	0.024
-200.333	517.791	0.061	0.142
-199.319	-1.320	0.180	-0.127
-198.304	-200.000	-0.069	0.451
-197.290	800.000	-0.055	-0.190
-196.275	-106.103	0.274	-0.062
-195.260	13.261	0.146	0.113
-194.246	-154.857	0.137	-0.009
-193.231	418.719	0.092	-0.197
-192.217	87.132	-0.171	0.189
-191.202	179.545	-0.271	-0.396
-190.187	-200.000	0.029	0.499
-189.173	800.000	0.118	0.374
-188.158	290.732	-0.112	-0.203
-187.144	416.456	-0.108	0.231
-186.129	80.899	-0.080	0.087
-185.114	44.334	0.191	0.175
-184.100	-200.000	0.046	-0.287
-183.085	-98.218	0.256	0.066
-182.071	137.942	-0.199	0.260
-181.056	128.333	-0.143	-0.182
-180.042	685.036	-0.071	-0.184
-179.027	119.789	0.213	-0.264
-178.012	-152.538	0.390	-0.028
-176.998	-68.978	0.060	0.023
-175.983	717.901	-0.169	0.449
-174.969	324.453	0.067	-0.128
-173.954	-200.000	-0.006	-0.123
-172.939	226.799	0.099	0.161
-171.925	453.854	0.068	0.149
-170.910	297.030	-0.077	-0.141
-169.896	-57.165	-0.037	-0.016
-168.881	-170.787	0.221	-0.008
-167.866	-200.000	0.014	-0.226
-166.852	254.073	-0.142	-0.242
-165.837	800.000	-0.058	0.186
-164.823	-76.422	0.408	-0.143
-163.808	252.951	-0.204	-0.347
-162.793	-79.408	0.127	0.043
-161.779	-200.000	-0.021	0.382
-160.764	-18.964	-0.255	0.158
-159.750	151.351	0.248	-0.337
-158.735	-118.284	0.070	-0.012
-157.720	178.211	-0.068	-0.099
-156.706	19.064	0.199	0.159
-155.691	-200.000	0.010	-0.065
-154.677	-9.446	-0.238	0.158
-153.662	86.062	-0.103	-0.113
-152.647	19.421	-0.028	0.023
-151.633	-35.872	0.133	0.072
-150.618	115.356	-0.218	-0.265
-149.604	-144.290	-0.146	0.014
-148.589	-200.000	-0.021	0.209
-147.574	103.695	0.041	-0.048
-146.560	-144.180	0.291	0.027
-145.545	86.277	0.257	-0.282
-144.531	93.260	-0.164	-0.185
-143.516	-92.397	0.288	-0.081
-142.502	82.845	0.115	0.125
-141.487	-71.739	-0.275	-0.102
-140.472	-200.000	-0.012	0.099
-139.458	-49.322	0.088	0.042
-138.443	-67.326	0.165	-0.065
-137.429	-131.210	0.094	0.012
-136.414	-200.000	-0.030	-0.157
-135.399	-2.982	-0.154	-0.107
-134.385	-200.000	-0.020	0.226
-133.370	99.643	-0.207	0.239
-132.356	-107.464	-0.234	0.051
-131.341	-22.376	-0.374	0.226
-130.326	-58.403	-0.247	0.107
-129.312	-200.000	0.013	-0.166
-128.297	-200.000	0.026	0.372
-127.283	-37.196	0.194	0.104
-126.268	-120.949	-0.130	-0.022
-125.253	-78.419	0.130	0.045
-124.239	-19.985	-0.286	0.176
-123.224	-38.583	0.323	0.170
-122.210	15.997	-0.072	0.057
-121.195	-54.927	-0.240	-0.108
