DTS Sentinel unit serial number:	SN413079Multiplexer serial number:	ORYXHardware model number:	OX4-SRSoftware version number:	ORYX F/W v4.00 Oryx Data Collector v3.7.2.0data status	okinstallation	princeton_trtdifferential loss correction	single-endedforward channel	channel 2reverse channel	N/Adate	2019/09/11time	03:21:11forward acquisition time	60.00reverse acquisition time	0.00gamma	496.2192k internal	0.2329k external	0.2329temperature offset calibration	0.9939default loss term (dB/km)	0.3790temperature slope calibration	1.0000multiplexer offset coefficient	1.0000multiplexer slope coefficient	1.0000fibre end	0.00T internal ref (°C)	29.37T ext. ref 1 (°C)	-0.29T ext. ref 2 (°C)	24.17length (m)	temperature (°C)	Stokes	anti-Stokes-747.200	419.012	-0.221	0.477
-746.185	-79.590	-0.094	0.032
-745.171	-82.839	-0.195	0.063
-744.156	187.410	0.066	-0.099
-743.142	-41.369	0.345	0.179
-742.127	-200.000	0.014	0.259
-741.112	282.650	0.097	0.176
-740.098	-113.790	0.352	-0.069
-739.083	800.000	0.072	-0.254
-738.069	45.237	-0.319	0.296
-737.054	-103.036	0.405	0.097
-736.039	-23.395	-0.116	-0.070
-735.025	-49.656	0.073	0.035
-734.010	-90.902	-0.264	0.076
-732.996	742.596	0.028	-0.075
-731.981	-185.747	-0.379	0.006
-730.966	91.466	-0.216	-0.244
-729.952	-108.131	-0.126	0.028
-728.937	800.000	-0.023	0.097
-727.923	30.109	-0.271	0.233
-726.908	-14.207	0.226	-0.147
-725.894	70.503	-0.038	0.040
-724.879	228.767	-0.245	-0.402
-723.864	275.933	-0.029	-0.052
-722.850	-69.986	0.159	0.061
-721.835	-37.351	0.038	0.021
-720.821	-200.000	-0.013	-0.201
-719.806	24.999	0.237	-0.198
-718.791	-200.000	0.034	-0.216
-717.777	283.653	0.005	0.010
-716.762	800.000	-0.052	-0.182
-715.748	80.655	0.042	0.045
-714.733	-131.222	0.150	0.020
-713.718	-67.147	-0.011	0.004
-712.704	84.003	-0.209	-0.230
-711.689	73.373	-0.161	-0.170
-710.675	-83.495	0.431	-0.139
-709.660	-154.047	0.177	0.012
-708.645	160.781	-0.199	0.279
-707.631	431.930	-0.036	0.078
-706.616	-173.937	0.322	0.010
-705.602	-125.250	-0.184	0.028
-704.587	800.000	0.062	0.267
-703.572	288.837	-0.118	0.215
-702.558	-200.000	-0.007	0.199
-701.543	281.952	-0.113	-0.204
-700.529	-185.549	0.062	0.001
-699.514	28.281	0.236	-0.200
-698.499	-7.953	0.271	0.184
-697.485	446.142	-0.028	0.061
-696.470	-165.799	-0.211	-0.009
-695.456	-200.000	0.031	0.193
-694.441	40.188	-0.226	0.204
-693.426	77.513	0.122	-0.131
-692.412	-156.137	-0.275	0.017
-691.397	-147.714	-0.238	-0.020
-690.383	-35.843	-0.122	-0.066
-689.368	-33.455	0.191	0.106
-688.354	390.753	0.116	-0.241
-687.339	185.404	-0.079	0.118
-686.324	-200.000	0.022	0.202
-685.310	21.915	0.169	-0.139
-684.295	-101.047	-0.307	-0.076
-683.281	-92.636	-0.108	0.030
-682.266	513.223	-0.037	-0.088
-681.251	375.864	0.155	-0.318
-680.237	-44.042	0.028	-0.014
-679.222	280.685	-0.063	0.114
-678.208	-79.272	-0.375	-0.128
-677.193	-0.464	0.160	0.114
-676.178	800.000	-0.073	-0.257
-675.164	141.794	-0.178	0.236
-674.149	-200.000	-0.020	0.137
-673.135	112.527	0.168	-0.204
-672.120	48.130	-0.217	-0.204
-671.105	211.229	-0.094	0.149
-670.091	-94.615	0.346	-0.094
-669.076	51.463	-0.312	0.298
-668.062	-123.534	-0.238	-0.038
-667.047	-200.000	0.000	0.441
-666.032	24.192	-0.240	-0.199
-665.018	295.446	-0.053	-0.098
-664.003	0.897	0.057	-0.041
-662.989	-18.329	-0.225	-0.141
-661.974	292.840	0.140	-0.257
-660.959	59.618	-0.163	-0.162
-659.945	330.617	-0.125	0.241
-658.930	5.753	0.077	-0.057
-657.916	-200.000	0.022	-0.295
-656.901	-200.000	-0.043	-0.221
-655.886	425.996	0.148	-0.321
-654.872	800.000	-0.030	0.095
-653.857	-200.000	-0.008	-0.330
-652.843	32.477	0.092	0.080
-651.828	-142.753	-0.237	-0.023
-650.814	28.993	0.028	-0.024
-649.799	-126.457	-0.337	-0.050
-648.784	800.000	0.062	-0.269
-647.770	-200.000	0.056	-0.250
-646.755	-166.230	-0.110	-0.005
-645.741	-23.829	0.255	0.153
-644.726	-27.869	-0.310	0.180
-643.711	-200.000	0.010	0.210
-642.697	800.000	-0.028	0.115
-641.682	-59.289	0.089	-0.039
-640.668	-160.563	-0.162	-0.009
-639.653	294.513	-0.015	0.027
-638.638	-37.868	0.100	-0.053
-637.624	32.646	0.019	0.017
-636.609	-143.882	0.355	0.034
-635.595	-40.585	0.326	0.170
-634.580	-21.446	0.138	-0.084
-633.565	-139.362	0.044	-0.005
-632.551	-85.448	0.054	0.017
-631.536	-179.935	0.141	0.003
-630.522	1.888	0.319	-0.230
-629.507	-74.120	0.082	-0.030
-628.492	-48.299	0.153	-0.074
-627.478	6.119	-0.174	0.130
-626.463	-68.766	0.130	0.051
-625.449	469.577	-0.165	-0.372
-624.434	82.124	0.158	-0.172
-623.419	-61.071	-0.278	-0.118
-622.405	-64.885	0.127	-0.052
-621.390	-20.650	-0.168	0.103
-620.376	-47.738	0.164	-0.080
-619.361	36.960	0.048	0.043
-618.346	-113.592	0.222	0.043
-617.332	-84.959	-0.264	0.083
-616.317	800.000	0.061	-0.236
-615.303	147.787	0.124	-0.168
-614.288	-26.445	0.049	0.029
-613.273	-64.173	0.190	-0.078
-612.259	-196.026	-0.219	-0.002
-611.244	49.652	0.122	0.115
-610.230	33.396	0.046	-0.040
-609.215	-200.000	0.016	0.107
-608.201	-57.137	0.207	-0.092
-607.186	73.434	-0.110	-0.115
-606.171	-200.000	0.087	-0.400
-605.157	-47.964	0.247	-0.120
-604.142	-200.000	-0.033	0.160
-603.128	176.928	0.042	-0.061
-602.113	320.894	-0.112	0.213
-601.098	414.357	-0.201	-0.429
-600.084	-38.431	0.110	0.058
-599.069	9.102	0.029	-0.022
-598.055	322.187	-0.101	0.193
-597.040	-33.257	0.279	0.155
-596.025	153.022	0.092	0.126
-595.011	87.523	-0.082	-0.091
-593.996	-41.611	-0.268	-0.138
-592.982	109.686	0.047	0.057
-591.967	-200.000	-0.027	-0.159
-590.952	-200.000	-0.003	-0.109
-589.938	402.733	0.070	0.148
-588.923	-200.000	0.018	-0.093
-587.909	800.000	0.019	0.053
-586.894	-8.171	0.281	-0.190
-585.879	-200.000	0.024	-0.157
-584.865	340.533	0.027	0.053
-583.850	800.000	-0.100	0.302
-582.836	316.231	0.097	0.184
-581.821	-39.519	0.367	0.193
-580.806	-56.898	-0.020	-0.009
-579.792	-159.691	-0.358	-0.020
-578.777	-200.000	0.021	0.144
-577.763	800.000	-0.069	0.227
-576.748	212.000	-0.069	0.109
-575.733	-143.604	0.066	0.006
-574.719	-182.436	-0.117	-0.002
-573.704	-90.354	0.222	0.064
-572.690	-6.668	-0.158	-0.107
-571.675	453.208	0.090	-0.199
-570.661	206.153	0.069	0.107
-569.646	-10.945	0.262	-0.173
-568.631	-24.642	0.117	-0.069
-567.617	2.620	-0.170	0.123
-566.602	20.359	-0.057	0.046
-565.588	-39.864	0.264	0.138
-564.573	-99.285	0.089	-0.022
-563.558	177.749	-0.150	0.219
-562.544	-69.342	-0.174	-0.067
-561.529	-49.800	0.116	-0.055
-560.515	178.902	0.080	-0.117
-559.500	-6.505	-0.119	0.081
-558.485	29.491	0.239	-0.204
-557.471	5.634	0.173	-0.128
-556.456	160.489	0.036	0.051
-555.442	-120.356	-0.203	0.034
-554.427	-127.598	-0.367	-0.053
-553.412	215.640	-0.047	-0.075
-552.398	-53.756	-0.247	0.113
-551.383	124.801	-0.312	-0.393
-550.369	-159.326	0.261	0.015
-549.354	15.135	0.059	0.046
-548.339	29.751	0.229	0.195
-547.325	-180.779	0.068	-0.001
-546.310	800.000	0.055	-0.210
-545.296	-35.614	0.198	0.107
-544.281	73.464	-0.243	0.255
-543.266	800.000	-0.054	-0.220
-542.252	-27.670	-0.170	-0.099
-541.237	32.136	-0.028	0.025
-540.223	800.000	0.059	-0.173
-539.208	-57.292	0.389	0.171
-538.193	30.669	0.162	0.138
-537.179	-200.000	-0.068	0.395
-536.164	-125.582	-0.217	0.033
-535.150	48.210	-0.128	0.120
-534.135	800.000	0.026	0.077
-533.121	-200.000	0.122	0.608
-532.106	-174.476	0.283	-0.008
-531.091	-200.000	-0.046	-0.314
-530.077	-67.507	-0.092	0.036
-529.062	-153.770	0.191	-0.013
-528.048	186.523	0.161	0.239
-527.033	485.906	-0.043	-0.098
-526.018	-171.395	-0.144	0.005
-525.004	361.914	-0.111	0.222
-523.989	-28.498	-0.080	-0.046
-522.975	-148.438	-0.227	-0.019
-521.960	-156.291	-0.402	-0.025
-520.945	790.861	-0.125	0.344
-519.931	800.000	-0.099	0.337
-518.916	-77.829	-0.168	-0.058
-517.902	-200.000	-0.040	0.339
-516.887	259.007	-0.144	-0.248
-515.872	201.415	-0.146	-0.224
-514.858	273.943	0.098	-0.173
-513.843	-10.882	-0.233	-0.154
-512.829	-14.936	0.224	-0.143
-511.814	385.081	-0.040	-0.082
-510.799	-133.563	0.147	0.018
-509.785	11.581	-0.278	-0.213
-508.770	-54.821	-0.484	-0.218
-507.756	79.805	0.143	-0.153
-506.741	9.784	0.194	-0.147
-505.726	99.688	0.277	-0.320
-504.712	334.183	-0.140	0.270
-503.697	-117.381	-0.087	0.016
-502.683	137.284	0.121	0.158
-501.668	449.458	-0.044	0.097
-500.653	-95.785	-0.231	0.061
-499.639	353.911	-0.115	-0.227
-498.624	122.469	0.093	-0.116
-497.610	-200.000	-0.015	0.175
-496.595	-97.298	0.283	-0.074
-495.581	-200.000	0.003	0.274
-494.566	5.315	-0.246	0.181
-493.551	61.404	-0.123	-0.122
-492.537	-200.000	-0.025	0.216
-491.522	-58.232	-0.206	0.089
-490.508	-134.141	0.096	0.012
-489.493	384.646	-0.031	-0.064
-488.478	-30.383	0.113	-0.064
-487.464	674.747	-0.080	0.208
-486.449	22.238	-0.261	-0.213
-485.435	-200.000	0.001	-0.019
-484.420	-3.417	0.037	-0.026
-483.405	-117.780	0.283	0.051
-482.391	-92.556	0.377	0.105
-481.376	516.877	0.065	-0.151
-480.362	-135.160	0.111	0.013
-479.347	-48.128	-0.395	0.190
-478.332	-28.368	0.153	-0.088
-477.318	27.010	0.066	-0.055
-476.303	149.839	0.174	-0.235
-475.289	-63.781	-0.137	-0.056
-474.274	-200.000	-0.019	0.373
-473.259	47.684	0.207	-0.193
-472.245	-200.000	-0.016	-0.075
-471.230	69.712	-0.191	0.197
-470.216	-140.281	-0.062	-0.006
-469.201	-56.629	-0.141	0.062
-468.186	-71.688	0.172	-0.064
-467.172	-48.512	-0.136	0.065
-466.157	-85.278	-0.286	0.089
-465.143	570.311	-0.085	0.205
-464.128	-200.000	0.009	-0.055
-463.113	-81.543	-0.250	0.082
-462.099	-106.232	-0.094	0.021
-461.084	-134.451	-0.300	0.037
-460.070	-200.000	-0.013	-0.088
-459.055	-128.482	-0.522	-0.074
-458.040	241.853	0.126	-0.210
-457.026	-167.555	0.140	-0.006
-456.011	-36.633	-0.229	-0.123
-454.997	-200.000	0.000	0.094
-453.982	-200.000	-0.003	0.372
-452.968	-200.000	-0.006	0.173
-451.953	-105.551	-0.197	0.044
-450.938	-66.485	0.236	0.093
-449.924	575.382	-0.034	-0.084
-448.909	800.000	0.079	-0.231
-447.895	-47.508	0.250	0.121
-446.880	800.000	-0.049	-0.158
-445.865	-200.000	0.016	-0.083
-444.851	-149.069	0.101	0.008
-443.836	800.000	-0.076	0.224
-442.822	-62.986	0.107	-0.044
-441.807	-200.000	0.032	0.172
-440.792	157.875	0.140	0.193
-439.778	-12.084	0.188	-0.122
-438.763	216.362	-0.089	-0.140
-437.749	-181.764	-0.065	-0.001
-436.734	609.620	0.140	0.347
-435.719	-17.002	-0.095	0.060
-434.705	800.000	0.012	0.050
-433.690	415.823	0.085	-0.180
-432.676	293.017	-0.086	0.157
-431.661	59.631	0.091	-0.090
-430.646	92.988	0.130	0.146
-429.632	160.575	0.219	-0.303
-428.617	-27.813	0.203	0.117
-427.603	-93.640	-0.377	0.104
-426.588	800.000	-0.056	-0.195
-425.573	514.532	-0.120	-0.279
-424.559	-59.885	-0.147	0.062
-423.544	222.768	0.106	-0.170
-422.530	219.788	0.090	0.143
-421.515	274.788	-0.145	-0.256
-420.500	-11.730	-0.254	-0.166
-419.486	150.270	-0.232	-0.314
-418.471	-95.152	0.236	0.063
-417.457	-200.000	-0.006	-0.189
-416.442	-200.000	0.043	-0.259
-415.428	-140.261	0.271	-0.028
-414.413	-15.877	-0.203	-0.128
-413.398	800.000	0.033	-0.127
-412.384	-118.518	0.268	-0.047
-411.369	800.000	-0.127	-0.431
-410.355	-19.856	0.219	-0.135
-409.340	161.160	-0.077	-0.107
-408.325	295.898	0.136	0.248
-407.311	73.723	0.191	0.199
-406.296	-200.000	-0.034	0.202
-405.282	-180.268	0.339	0.007
-404.267	-125.553	0.326	-0.049
-403.252	-200.000	-0.024	0.165
-402.238	-27.055	0.288	0.167
-401.223	591.298	-0.062	0.152
-400.209	36.203	-0.180	0.158
-399.194	146.440	0.132	-0.177
-398.179	-112.937	-0.452	-0.089
-397.165	-130.331	0.240	0.032
-396.150	516.368	0.054	-0.126
-395.136	13.319	0.179	0.138
-394.121	-54.895	-0.112	-0.050
-393.106	-200.000	-0.002	0.244
-392.092	-113.196	-0.290	0.057
-391.077	-200.000	-0.009	-0.249
-390.063	95.222	-0.014	0.016
-389.048	25.037	0.222	0.183
-388.033	136.033	-0.037	-0.048
-387.019	-43.310	-0.173	-0.087
-386.004	136.919	0.109	-0.142
-384.990	-7.187	0.140	-0.094
-383.975	61.196	-0.188	0.185
-382.960	-31.075	-0.118	0.066
-381.946	-114.507	0.179	-0.034
-380.931	23.500	0.077	0.063
-379.917	262.036	0.074	-0.127
-378.902	144.767	-0.240	-0.318
-377.888	-35.836	-0.123	0.066
-376.873	-51.167	-0.276	-0.128
-375.858	-38.871	0.219	0.115
-374.844	-52.226	-0.252	0.116
-373.829	-162.508	-0.029	-0.001
-372.815	83.140	0.083	0.089
-371.800	72.728	0.071	-0.073
-370.785	800.000	-0.168	0.491
-369.771	47.345	0.087	0.080
-368.756	134.520	-0.086	-0.110
-367.742	-22.002	-0.164	-0.099
-366.727	-45.888	-0.256	0.125
-365.712	-200.000	-0.017	0.101
-364.698	4.772	0.054	0.039
-363.683	757.322	0.034	0.093
-362.669	63.803	-0.078	0.077
-361.654	-106.969	-0.326	-0.072
-360.639	-74.661	-0.363	0.129
-359.625	800.000	-0.118	0.485
-358.610	531.526	0.146	-0.342
-357.596	53.714	0.381	-0.363
-356.581	-200.000	-0.045	0.335
-355.566	20.415	-0.047	0.037
-354.552	-54.726	0.371	-0.166
-353.537	383.911	-0.121	-0.246
-352.523	800.000	-0.058	0.202
-351.508	-200.000	0.019	-0.178
-350.493	71.930	-0.071	-0.073
-349.479	78.369	-0.132	0.140
-348.464	545.781	0.082	0.194
-347.450	-124.282	0.208	0.032
-346.435	-146.709	0.362	-0.031
-345.420	-200.000	0.009	-0.515
-344.406	-85.420	-0.344	-0.106
-343.391	13.389	0.065	0.050
-342.377	-62.430	-0.455	0.188
-341.362	-116.548	-0.215	0.039
-340.348	8.260	-0.354	-0.264
-339.333	-94.074	0.467	-0.127
-338.318	308.637	0.195	-0.360
-337.304	74.392	0.156	0.163
-336.289	-51.955	-0.182	0.084
-335.275	232.108	0.070	-0.113
-334.260	-100.345	-0.266	0.065
-333.245	-200.000	-0.042	-0.334
-332.231	-125.306	0.152	0.023
-331.216	-200.000	-0.047	0.307
-330.202	-187.342	0.129	0.002
-329.187	40.345	-0.190	-0.170
-328.172	71.650	-0.146	-0.151
-327.158	471.816	-0.099	0.221
-326.143	50.565	-0.177	0.166
-325.129	-178.955	0.329	-0.007
-324.114	316.235	-0.089	-0.167
-323.099	-144.484	-0.062	-0.006
-322.085	139.748	-0.292	0.382
-321.070	-91.708	0.078	-0.022
-320.056	91.090	0.101	0.112
-319.041	800.000	0.024	0.085
-318.026	570.781	-0.027	-0.066
-317.012	-200.000	0.042	-0.218
-315.997	-39.950	-0.192	-0.099
-314.983	-68.276	0.332	0.128
-313.968	-113.079	-0.034	0.007
-312.953	215.401	0.085	-0.133
-311.939	-52.483	-0.161	-0.074
-310.924	253.649	-0.166	-0.281
-309.910	210.560	0.029	0.045
-308.895	21.156	0.193	-0.155
-307.880	72.468	-0.163	0.168
-306.866	-43.458	-0.137	0.069
-305.851	-49.697	-0.308	0.145
-304.837	-17.383	0.241	0.150
-303.822	-123.326	0.332	0.052
-302.807	800.000	-0.080	0.267
-301.793	357.998	0.093	0.184
-300.778	2.655	0.240	-0.172
-299.764	-35.667	0.249	0.134
-298.749	548.232	-0.076	-0.180
-297.735	-155.226	0.243	0.016
-296.720	112.611	0.216	0.258
-295.705	79.030	-0.388	-0.411
-294.691	123.621	0.175	-0.217
-293.676	326.255	-0.044	-0.083
-292.662	-21.081	0.063	0.038
-291.647	297.956	0.158	0.287
-290.632	-43.670	-0.339	-0.169
-289.618	-200.000	0.045	0.472
-288.603	267.849	0.246	0.427
-287.589	-200.000	0.002	0.156
-286.574	41.094	0.174	-0.156
-285.559	482.648	-0.019	-0.042
-284.545	-128.380	-0.202	-0.028
-283.530	-200.000	-0.038	-0.313
-282.516	168.628	-0.047	0.066
-281.501	800.000	-0.054	-0.154
-280.486	-200.000	-0.040	0.446
-279.472	444.163	-0.119	-0.258
-278.457	17.201	0.096	-0.075
-277.443	-40.503	0.178	0.092
-276.428	-27.216	0.346	0.199
-275.413	-26.000	-0.431	0.251
-274.399	-176.349	0.181	0.005
-273.384	141.218	0.038	0.050
-272.370	-15.715	0.162	0.102
-271.355	-58.262	-0.238	-0.102
-270.340	-137.204	-0.076	-0.009
-269.326	-200.000	-0.028	0.238
-268.311	347.003	-0.167	0.325
-267.297	-98.247	0.229	0.058
-266.282	126.383	0.056	0.069
-265.267	-44.249	-0.269	0.134
-264.253	-112.497	-0.482	-0.095
-263.238	-103.213	0.181	-0.042
-262.224	21.335	-0.171	0.137
-261.209	49.173	-0.087	0.080
-260.195	-2.941	-0.069	0.048
-259.180	-64.492	-0.209	-0.084
-258.165	335.552	0.217	-0.415
-257.151	64.511	0.164	-0.163
-256.136	-120.200	-0.102	-0.017
-255.122	68.158	0.490	-0.496
-254.107	-94.662	0.274	0.074
-253.092	241.837	-0.095	-0.157
-252.078	800.000	0.142	0.493
-251.063	189.827	0.247	0.365
-250.049	-138.688	0.198	0.021
-249.034	800.000	0.066	-0.204
-248.019	155.058	-0.219	-0.298
-247.005	-77.170	0.096	0.033
-245.990	103.033	0.271	-0.313
-244.976	-90.544	-0.347	0.099
-243.961	-123.185	-0.091	-0.014
-242.946	78.673	0.187	0.198
-241.932	-107.476	-0.109	-0.024
-240.917	800.000	-0.033	0.128
-239.903	-75.673	-0.125	0.044
-238.888	409.217	0.098	0.204
-237.873	-4.755	0.174	-0.119
-236.859	-200.000	0.009	0.074
-235.844	123.379	-0.132	-0.163
-234.830	-34.800	-0.336	-0.181
-233.815	-167.772	0.386	0.015
-232.800	400.603	0.060	0.125
-231.786	-140.208	0.146	-0.015
-230.771	504.340	-0.045	-0.102
-229.757	800.000	0.030	0.085
-228.742	75.495	0.330	-0.344
-227.727	524.205	-0.114	-0.265
-226.713	-116.358	-0.317	0.058
-225.698	-200.000	0.115	-0.501
-224.684	-200.000	0.078	0.367
-223.669	424.895	-0.028	0.059
-222.655	312.779	0.169	0.313
-221.640	90.320	0.261	0.288
-220.625	30.665	0.097	0.082
-219.611	-154.337	-0.222	0.015
-218.596	570.656	0.075	0.180
-217.582	-200.000	-0.001	0.116
-216.567	413.558	0.043	-0.091
-215.552	800.000	-0.022	0.084
-214.538	-8.642	-0.508	0.337
-213.523	336.826	0.134	0.256
-212.509	-130.120	-0.289	0.039
-211.494	10.368	-0.190	-0.143
-210.479	-200.000	-0.025	-0.291
-209.465	800.000	0.054	-0.210
-208.450	48.467	-0.188	-0.174
-207.436	800.000	-0.061	-0.178
-206.421	194.488	-0.061	-0.091
-205.406	800.000	0.016	0.059
-204.392	800.000	-0.078	0.243
-203.377	270.458	0.035	-0.060
-202.363	800.000	-0.035	-0.131
-201.348	34.007	0.201	0.172
-200.333	404.325	0.123	-0.255
-199.319	-200.000	-0.028	-0.296
-198.304	-73.774	0.076	0.027
-197.290	90.107	-0.129	0.142
-196.275	119.508	0.093	-0.114
-195.260	800.000	-0.072	0.211
-194.246	144.548	0.229	-0.301
-193.231	-64.650	-0.379	0.151
-192.217	118.995	0.210	-0.256
-191.202	-23.781	0.348	-0.205
-190.187	800.000	-0.043	-0.133
-189.173	415.307	-0.045	-0.095
-188.158	32.942	-0.210	-0.180
-187.144	-43.035	0.210	0.105
-186.129	-152.783	0.096	-0.007
-185.114	9.403	-0.275	0.205
-184.100	-200.000	-0.001	-0.150
-183.085	645.697	-0.152	-0.382
-182.071	-200.000	-0.011	0.244
-181.056	-200.000	-0.006	-0.056
-180.042	-23.223	0.125	-0.074
-179.027	108.790	-0.105	-0.124
-178.012	-130.198	0.162	0.022
-176.998	8.859	-0.091	-0.067
-175.983	-200.000	-0.100	0.522
-174.969	53.397	0.096	0.091
-173.954	-24.019	0.138	-0.081
-172.939	-2.981	-0.237	-0.163
-171.925	-151.046	0.225	-0.017
-170.910	-200.000	-0.004	0.104
-169.896	134.941	-0.044	-0.057
-168.881	800.000	-0.024	0.100
-167.866	-164.211	0.397	-0.018
-166.852	-200.000	0.034	0.317
-165.837	-200.000	-0.027	0.125
-164.823	-90.012	-0.172	-0.049
-163.808	-200.000	-0.019	0.138
-162.793	114.891	-0.153	0.183
-161.779	800.000	-0.178	-0.532
-160.764	-200.000	0.001	-0.303
-159.750	88.478	0.416	0.455
-158.735	-75.276	-0.169	0.060
-157.720	800.000	0.030	0.098
-156.706	-49.082	0.288	0.135
-155.691	-200.000	-0.009	-0.069
-154.677	-200.000	-0.001	-0.082
-153.662	-200.000	0.050	-0.323
-152.647	-86.512	-0.031	-0.009
-151.633	-116.682	-0.610	0.110
-150.618	192.508	-0.202	-0.300
-149.604	359.312	0.169	0.333
-148.589	76.139	0.058	-0.060
-147.574	800.000	0.078	0.306
-146.560	800.000	0.030	0.082
-145.545	800.000	-0.032	-0.127
-144.531	-200.000	0.033	-0.230
-143.516	-93.741	-0.288	0.078
-142.502	115.521	-0.045	0.054
-141.487	800.000	0.037	-0.102
-140.472	66.155	-0.097	-0.097
-139.458	27.721	-0.235	-0.194
-138.443	96.263	0.137	-0.154
-137.429	-137.903	-0.133	0.015
-136.414	173.812	-0.080	0.114
-135.399	-96.878	-0.179	0.046
-134.385	-194.179	0.343	-0.003
-133.370	487.871	-0.043	-0.097
-132.356	-148.396	0.078	0.006
-131.341	-143.256	0.450	-0.042
-130.326	-165.295	-0.060	-0.003
-129.312	319.265	0.243	-0.453
-128.297	800.000	0.118	0.338
-127.283	-200.000	0.036	0.311
-126.268	50.174	0.220	0.204
-125.253	79.935	0.217	0.229
-124.239	800.000	-0.020	-0.055
-123.224	-15.589	0.125	0.079
-122.210	690.673	-0.078	-0.200
-121.195	-200.000	-0.018	0.282
-120.180	-19.904	0.105	0.064
