DTS Sentinel unit serial number:	SN413079Multiplexer serial number:	ORYXHardware model number:	OX4-SRSoftware version number:	ORYX F/W v4.00 Oryx Data Collector v3.7.2.0data status	okinstallation	princeton_trtdifferential loss correction	single-endedforward channel	channel 2reverse channel	N/Adate	2019/09/19time	14:39:35forward acquisition time	60.00reverse acquisition time	0.00gamma	496.2192k internal	0.2323k external	0.2323temperature offset calibration	1.0025default loss term (dB/km)	0.3790temperature slope calibration	1.0000multiplexer offset coefficient	1.0000multiplexer slope coefficient	1.0000fibre end	0.00T internal ref (°C)	32.48T ext. ref 1 (°C)	1.09T ext. ref 2 (°C)	29.45length (m)	temperature (°C)	Stokes	anti-Stokes-747.200	433.724	0.068	-0.150
-746.185	-33.712	-0.272	0.152
-745.171	195.888	-0.098	0.150
-744.156	-156.062	-0.053	0.003
-743.142	-18.443	-0.396	0.250
-742.127	76.182	0.265	0.284
-741.112	-200.000	-0.023	-0.243
-740.098	-35.459	-0.242	0.133
-739.083	36.228	0.143	-0.127
-738.069	332.354	0.147	0.287
-737.054	28.398	-0.113	0.096
-736.039	-146.616	-0.442	0.039
-735.025	-1.464	0.040	0.029
-734.010	161.270	-0.055	-0.078
-732.996	-71.838	0.221	0.083
-731.981	-37.772	0.256	0.137
-730.966	192.735	0.142	0.216
-729.952	-38.406	0.239	0.128
-728.937	-157.565	0.223	-0.014
-727.923	-0.340	-0.214	0.153
-726.908	15.647	0.121	0.096
-725.894	2.860	0.191	-0.140
-724.879	179.728	-0.100	-0.148
-723.864	2.399	-0.254	0.185
-722.850	44.506	0.355	0.329
-721.835	-200.000	0.007	-0.374
-720.821	-101.982	-0.076	0.018
-719.806	-200.000	0.019	-0.404
-718.791	800.000	-0.045	-0.175
-717.777	-78.688	0.242	0.083
-716.762	492.585	-0.079	0.183
-715.748	228.906	-0.117	-0.193
-714.733	33.390	-0.082	0.072
-713.718	788.013	0.071	-0.196
-712.704	-200.000	-0.014	-0.186
-711.689	800.000	0.125	-0.553
-710.675	364.852	-0.138	-0.280
-709.660	-125.623	-0.047	0.007
-708.645	-176.374	0.210	0.005
-707.631	-41.140	0.047	-0.025
-706.616	207.632	0.172	0.271
-705.602	10.873	0.162	0.125
-704.587	-34.592	0.232	-0.128
-703.572	102.946	0.151	-0.178
-702.558	-124.720	-0.137	-0.021
-701.543	-111.770	-0.037	0.008
-700.529	98.723	0.145	-0.169
-699.514	-85.824	-0.136	-0.042
-698.499	-14.112	-0.181	0.118
-697.485	-200.000	0.006	0.089
-696.470	800.000	0.026	0.074
-695.456	16.763	0.216	-0.172
-694.441	-200.000	0.001	-0.145
-693.426	15.394	-0.221	-0.175
-692.412	-63.806	-0.352	-0.145
-691.397	34.849	-0.242	0.213
-690.383	-97.375	-0.244	-0.064
-689.368	-200.000	0.015	0.298
-688.354	-52.712	0.029	-0.013
-687.339	76.983	-0.127	-0.136
-686.324	-200.000	0.031	0.315
-685.310	-27.361	0.224	0.132
-684.295	72.301	-0.268	-0.281
-683.281	-32.985	-0.107	-0.060
-682.266	172.420	0.097	0.141
-681.251	53.685	0.121	0.117
-680.237	-117.033	-0.193	0.035
-679.222	-200.000	0.012	-0.206
-678.208	-59.537	0.457	0.198
-677.193	114.990	0.138	0.170
-676.178	-58.956	0.056	-0.024
-675.164	-200.000	-0.055	0.369
-674.149	789.223	-0.070	0.194
-673.135	86.970	-0.193	0.215
-672.120	32.716	0.052	-0.046
-671.105	-200.000	0.054	0.292
-670.091	-111.112	-0.199	0.041
-669.076	-108.224	-0.424	-0.092
-668.062	-44.653	-0.168	-0.084
-667.047	-1.849	0.381	-0.270
-666.032	-79.335	-0.207	0.071
-665.018	-0.782	0.058	0.042
-664.003	545.523	0.104	-0.250
-662.989	-200.000	0.045	-0.276
-661.974	800.000	0.056	-0.174
-660.959	-1.517	0.082	0.058
-659.945	-200.000	0.004	-0.063
-658.930	-82.026	0.123	0.040
-657.916	-200.000	0.002	0.188
-656.901	-170.922	0.396	0.014
-655.886	606.803	0.013	0.031
-654.872	800.000	-0.064	-0.244
-653.857	225.527	-0.057	-0.094
-652.843	800.000	0.045	-0.135
-651.828	-90.952	0.223	-0.064
-650.814	-200.000	-0.013	0.226
-649.799	497.873	-0.093	-0.216
-648.784	800.000	-0.042	0.157
-647.770	378.380	-0.085	0.174
-646.755	-200.000	0.018	0.162
-645.741	257.709	-0.082	-0.142
-644.726	16.370	0.291	-0.231
-643.711	-200.000	0.033	0.228
-642.697	166.864	-0.233	0.333
-641.682	701.431	0.118	-0.313
-640.668	26.674	0.107	0.090
-639.653	54.921	-0.376	0.365
-638.638	-200.000	-0.048	0.523
-637.624	-194.565	-0.148	-0.001
-636.609	-186.413	0.141	0.002
-635.595	-5.663	-0.188	-0.130
-634.580	-174.734	-0.127	-0.004
-633.565	636.981	-0.014	-0.037
-632.551	800.000	-0.061	-0.191
-631.536	557.802	-0.074	-0.180
-630.522	-149.322	-0.286	-0.023
-629.507	-30.383	-0.122	0.069
-628.492	101.715	0.236	-0.277
-627.478	-90.366	-0.338	-0.099
-626.463	-155.987	0.139	0.009
-625.449	800.000	0.029	0.106
-624.434	-83.974	-0.251	0.080
-623.419	394.319	-0.130	-0.271
-622.405	-60.096	-0.280	-0.120
-621.390	101.259	0.166	0.195
-620.376	-112.097	0.070	0.014
-619.361	301.959	-0.146	-0.272
-618.346	-49.091	0.227	-0.109
-617.332	-48.518	0.195	0.094
-616.317	800.000	0.051	-0.170
-615.303	-70.695	-0.063	-0.024
-614.288	-42.950	0.231	0.118
-613.273	-200.000	0.015	0.186
-612.259	-200.000	-0.116	0.000
-611.244	-1.427	-0.112	0.079
-610.230	-188.340	0.226	-0.003
-609.215	-161.390	-0.080	-0.004
-608.201	-134.309	0.178	-0.022
-607.186	320.436	0.158	-0.301
-606.171	-106.813	0.122	0.027
-605.157	-132.942	0.412	0.053
-604.142	-200.000	0.006	0.447
-603.128	-1.964	0.208	0.147
-602.113	777.102	-0.089	-0.245
-601.098	83.914	0.255	0.280
-600.084	-80.890	0.069	0.023
-599.069	105.143	-0.317	0.375
-598.055	-50.932	0.008	0.004
-597.040	-200.000	0.005	-0.215
-596.025	81.314	-0.257	0.279
-595.011	-200.000	0.014	0.189
-593.996	-200.000	0.013	-0.072
-592.982	28.933	0.242	0.206
-591.967	-200.000	0.011	0.170
-590.952	172.651	-0.133	0.192
-589.938	250.691	0.138	-0.235
-588.923	21.029	0.099	0.081
-587.909	-10.172	0.167	0.111
-586.894	-200.000	0.023	-0.150
-585.879	-113.134	-0.070	0.014
-584.865	180.116	-0.032	0.047
-583.850	800.000	-0.078	-0.227
-582.836	-200.000	-0.001	0.058
-581.821	78.254	-0.053	0.056
-580.806	-200.000	0.028	0.216
-579.792	347.909	0.083	-0.165
-578.777	152.106	-0.022	-0.031
-577.763	-84.952	-0.278	0.087
-576.748	-81.065	-0.231	0.077
-575.733	-200.000	-0.000	0.094
-574.719	-14.705	-0.330	0.213
-573.704	417.784	0.018	0.039
-572.690	520.596	-0.183	-0.431
-571.675	71.928	0.170	-0.178
-570.661	21.735	0.312	-0.255
-569.646	-46.892	-0.344	0.168
-568.631	-176.081	-0.258	0.007
-567.617	800.000	-0.121	-0.406
-566.602	800.000	0.051	-0.185
-565.588	146.146	-0.208	-0.280
-564.573	-200.000	-0.046	0.350
-563.558	201.581	0.108	0.166
-562.544	-200.000	-0.038	-0.190
-561.529	127.871	0.116	-0.147
-560.515	-77.124	-0.288	0.100
-559.500	212.796	-0.171	0.270
-558.485	-60.564	0.162	-0.069
-557.471	-200.000	0.024	0.242
-556.456	-113.343	-0.163	0.032
-555.442	394.384	0.115	0.241
-554.427	-94.724	0.219	0.060
-553.412	176.527	0.105	-0.152
-552.398	244.164	-0.177	0.298
-551.383	800.000	-0.039	-0.115
-550.369	155.780	-0.082	0.114
-549.354	685.842	-0.028	0.073
-548.339	-151.606	0.471	0.035
-547.325	-200.000	-0.026	0.191
-546.310	-112.755	0.176	-0.035
-545.296	-200.000	0.069	-0.327
-544.281	-121.590	-0.439	-0.073
-543.266	800.000	0.021	-0.062
-542.252	677.815	-0.026	-0.069
-541.237	-200.000	0.195	-0.001
-540.223	-114.181	0.314	0.061
-539.208	13.369	0.048	0.037
-538.193	-15.140	-0.227	0.145
-537.179	-200.000	-0.032	0.287
-536.164	39.433	-0.444	0.398
-535.150	-184.022	-0.024	0.000
-534.135	-25.750	0.410	0.242
-533.121	-200.000	-0.038	-0.230
-532.106	-200.000	-0.019	-0.207
-531.091	-200.000	-0.069	-0.343
-530.077	-115.223	-0.330	-0.063
-529.062	-62.766	0.277	0.115
-528.048	27.721	0.255	0.215
-527.033	2.923	-0.203	0.148
-526.018	-200.000	-0.030	0.240
-525.004	117.611	-0.214	-0.264
-523.989	609.943	-0.043	-0.107
-522.975	492.964	0.026	0.061
-521.960	-157.823	0.333	0.020
-520.945	-29.546	-0.069	0.039
-519.931	800.000	0.057	-0.236
-518.916	-130.019	-0.126	-0.017
-517.902	-108.449	-0.058	-0.012
-516.887	0.074	-0.156	-0.111
-515.872	247.972	-0.220	-0.372
-514.858	-108.141	0.213	0.046
-513.843	492.489	0.204	-0.469
-512.829	-91.952	0.223	-0.063
-511.814	800.000	-0.018	0.066
-510.799	800.000	0.033	-0.096
-509.785	800.000	0.079	-0.310
-508.770	-200.000	-0.009	-0.043
-507.756	-45.876	0.226	-0.112
-506.741	-174.407	-0.146	-0.004
-505.726	-200.000	0.029	-0.332
-504.712	-32.786	0.178	0.099
-503.697	-88.212	0.176	0.053
-502.683	30.241	0.140	-0.120
-501.668	-33.296	-0.150	0.083
-500.653	-55.815	0.161	0.072
-499.639	-136.566	0.237	-0.027
-498.624	-136.932	-0.188	-0.022
-497.610	-200.000	-0.057	0.293
-496.595	-19.862	0.175	-0.108
-495.581	-1.075	0.231	-0.164
-494.566	238.237	-0.098	0.162
-493.551	-200.000	0.008	-0.136
-492.537	0.245	-0.203	-0.145
-491.522	24.872	0.111	0.092
-490.508	-33.342	0.332	-0.184
-489.493	147.904	-0.027	-0.036
-488.478	84.907	0.205	-0.224
-487.464	-90.896	-0.284	-0.082
-486.449	-123.820	0.094	0.015
-485.435	122.455	-0.181	-0.226
-484.420	-54.518	0.116	-0.052
-483.405	54.614	0.145	-0.140
-482.391	67.545	0.016	0.016
-481.376	-114.582	0.424	0.081
-480.362	162.571	0.083	0.116
-479.347	-200.000	0.030	0.150
-478.332	82.716	-0.162	-0.176
-477.318	45.697	0.189	0.175
-476.303	-101.228	0.086	-0.021
-475.289	331.835	0.074	-0.143
-474.274	800.000	0.082	-0.283
-473.259	800.000	-0.078	0.317
-472.245	555.036	-0.089	0.213
-471.230	-132.993	-0.401	-0.051
-470.216	-200.000	0.018	-0.295
-469.201	-130.617	0.319	0.043
-468.186	-200.000	0.026	-0.343
-467.172	44.751	-0.274	-0.251
-466.157	-177.479	0.211	0.005
-465.143	36.930	0.246	0.217
-464.128	-200.000	0.023	0.180
-463.113	-50.309	0.100	-0.047
-462.099	363.686	0.044	-0.089
-461.084	58.130	0.080	-0.078
-460.070	-43.376	0.416	-0.210
-459.055	-115.523	-0.457	-0.086
-458.040	167.655	0.204	-0.290
-457.026	-186.976	-0.225	-0.003
-456.011	-200.000	0.049	-0.234
-454.997	-126.382	-0.245	0.037
-453.982	-37.901	-0.157	-0.083
-452.968	-75.557	0.046	-0.016
-451.953	334.919	0.104	0.202
-450.938	266.934	-0.119	0.208
-449.924	-3.298	-0.370	0.257
-448.909	800.000	-0.068	-0.213
-447.895	177.270	-0.159	-0.231
-446.880	219.655	0.112	-0.179
-445.865	-128.160	-0.220	0.031
-444.851	-200.000	0.043	-0.267
-443.836	-200.000	0.025	0.246
-442.822	37.039	-0.123	-0.108
-441.807	-151.294	0.074	-0.006
-440.792	-63.797	-0.309	-0.126
-439.778	-200.000	0.001	0.120
-438.763	66.816	-0.108	-0.110
-437.749	411.699	-0.138	0.292
-436.734	-200.000	0.003	-0.165
-435.719	-23.853	0.273	-0.163
-434.705	-62.790	-0.149	0.062
-433.690	44.136	0.283	-0.259
-432.676	36.227	0.202	0.177
-431.661	45.041	-0.291	-0.268
-430.646	-133.537	-0.250	-0.031
-429.632	-57.201	-0.085	0.038
-428.617	293.147	0.112	0.204
-427.603	167.943	-0.262	0.372
-426.588	85.884	0.215	0.236
-425.573	800.000	-0.044	0.188
-424.559	13.831	0.260	0.202
-423.544	-200.000	0.011	0.121
-422.530	50.765	0.089	0.084
-421.515	-200.000	-0.038	0.638
-420.500	91.000	0.115	0.128
-419.486	-200.000	-0.029	-0.132
-418.471	-200.000	-0.048	-0.297
-417.457	-112.353	0.271	0.054
-416.442	-200.000	0.045	-0.207
-415.428	119.735	-0.180	-0.222
-414.413	96.411	0.173	-0.197
-413.398	-200.000	0.014	-0.237
-412.384	348.314	-0.047	-0.093
-411.369	-38.455	0.374	-0.197
-410.355	-48.155	0.367	-0.176
-409.340	23.984	-0.047	0.038
-408.325	-155.298	0.227	0.015
-407.311	118.312	-0.153	0.188
-406.296	-27.767	-0.183	0.106
-405.282	-200.000	-0.009	0.279
-404.267	-38.937	-0.175	-0.092
-403.252	6.159	-0.128	0.094
-402.238	-108.397	0.081	-0.017
-401.223	58.570	-0.150	-0.147
-400.209	800.000	-0.024	0.074
-399.194	-200.000	0.010	0.179
-398.179	-88.547	-0.362	-0.107
-397.165	800.000	0.041	0.129
-396.150	99.762	-0.181	-0.209
-395.136	-95.262	0.331	0.089
-394.121	-200.000	-0.004	0.374
-393.106	-115.409	0.127	-0.024
-392.092	5.316	-0.095	-0.070
-391.077	-110.193	0.081	-0.017
-390.063	-42.950	0.089	0.045
-389.048	800.000	0.057	0.189
-388.033	-30.498	-0.097	0.055
-387.019	-1.849	0.089	0.062
-386.004	-147.049	-0.218	0.019
-384.990	800.000	0.092	-0.398
-383.975	25.518	-0.203	0.168
-382.960	-97.477	-0.268	-0.069
-381.946	-200.000	0.065	0.392
-380.931	75.410	-0.089	0.093
-379.917	-200.000	0.021	-0.333
-378.902	-15.131	-0.067	0.043
-377.888	32.901	0.216	0.186
-376.873	226.450	-0.132	0.214
-375.858	-67.352	-0.226	0.088
-374.844	-139.576	-0.183	0.019
-373.829	505.363	-0.221	-0.510
-372.815	-50.956	0.082	-0.038
-371.800	670.950	-0.130	-0.335
-370.785	-200.000	-0.011	-0.260
-369.771	-38.805	0.188	-0.098
-368.756	-200.000	0.021	-0.194
-367.742	43.166	0.130	0.118
-366.727	-200.000	-0.016	0.389
-365.712	-58.612	-0.201	-0.087
-364.698	104.383	0.113	-0.132
-363.683	107.449	0.211	-0.250
-362.669	-126.814	-0.056	0.008
-361.654	-17.605	0.429	0.268
-360.639	-17.085	0.263	0.165
-359.625	-200.000	0.006	-0.238
-358.610	-53.382	-0.196	0.089
-357.596	-49.968	0.104	0.049
-356.581	-123.714	-0.339	0.053
-355.566	-126.933	0.019	-0.003
-354.552	-112.484	-0.209	-0.041
-353.537	117.371	-0.197	0.241
-352.523	377.135	-0.093	0.189
-351.508	18.458	-0.195	-0.155
-350.493	-61.954	0.141	-0.059
-349.479	-125.161	0.191	0.029
-348.464	-43.267	-0.144	-0.072
-347.450	-43.323	0.145	0.073
-346.435	505.207	0.083	-0.192
-345.420	-37.372	-0.164	0.087
-344.406	59.299	-0.290	0.284
-343.391	-139.767	-0.212	-0.022
-342.377	44.758	0.351	-0.321
-341.362	-191.913	-0.200	0.002
-340.348	138.545	-0.187	0.244
-339.333	622.131	0.050	-0.125
-338.318	-200.000	-0.008	0.220
-337.304	290.420	-0.177	0.319
-336.289	-78.805	-0.388	0.132
-335.275	-87.705	0.218	-0.065
-334.260	59.356	-0.107	-0.105
-333.245	800.000	0.020	0.070
-332.231	-48.040	0.283	0.136
-331.216	-38.976	0.047	0.024
-330.202	-200.000	-0.041	-0.234
-329.187	40.100	-0.284	-0.253
-328.172	156.029	-0.054	-0.074
-327.158	-200.000	0.045	0.202
-326.143	800.000	-0.038	0.124
-325.129	-106.826	0.056	-0.012
-324.114	-200.000	0.005	0.220
-323.099	-131.306	0.344	-0.045
-322.085	119.353	0.335	-0.412
-321.070	-49.885	-0.131	0.062
-320.056	-200.000	0.005	0.027
-319.041	-200.000	0.045	0.397
-318.026	527.133	0.123	-0.289
-317.012	216.781	0.059	0.093
-315.997	800.000	0.110	0.396
-314.983	402.988	0.089	0.186
-313.968	-107.951	0.306	-0.066
-312.953	-10.502	-0.192	0.126
-311.939	800.000	0.094	0.344
-310.924	800.000	-0.108	0.311
-309.910	-143.074	-0.142	0.014
-308.895	209.373	-0.042	0.066
-307.880	800.000	-0.049	0.188
-306.866	-31.084	0.029	0.016
-305.851	800.000	-0.074	-0.285
-304.837	-108.761	-0.579	0.123
-303.822	-65.056	-0.067	-0.027
-302.807	-116.553	-0.145	-0.027
-301.793	800.000	0.063	-0.210
-300.778	1.864	-0.120	0.086
-299.764	289.103	-0.351	-0.632
-298.749	-118.560	-0.368	-0.065
-297.735	113.281	0.087	0.104
-296.720	-200.000	0.012	-0.307
-295.705	-200.000	-0.007	0.175
-294.691	800.000	0.037	0.116
-293.676	800.000	0.086	0.299
-292.662	-200.000	0.028	-0.293
-291.647	-200.000	0.014	0.084
-290.632	-31.448	-0.129	-0.072
-289.618	-200.000	-0.011	-0.328
-288.603	-93.406	0.018	-0.005
-287.589	-200.000	-0.036	0.168
-286.574	-200.000	-0.051	0.348
-285.559	-86.165	0.357	0.109
-284.545	800.000	0.173	0.569
-283.530	-21.488	-0.199	0.120
-282.516	158.735	0.111	-0.153
-281.501	-56.272	-0.225	-0.099
-280.486	-140.324	0.326	-0.034
-279.472	87.261	-0.191	0.209
-278.457	-98.522	0.158	0.040
-277.443	800.000	-0.055	0.198
-276.428	-200.000	0.011	-0.075
-275.413	-133.011	-0.238	-0.030
-274.399	-56.194	0.382	-0.168
-273.384	331.588	-0.135	-0.257
-272.370	-67.123	0.287	0.112
-271.355	-136.711	0.080	0.009
-270.340	-200.000	-0.036	0.159
-269.326	800.000	0.019	0.051
-268.311	-51.720	0.042	-0.019
-267.297	-200.000	0.015	0.167
-266.282	694.746	0.082	-0.213
-265.267	-1.900	-0.321	-0.224
-264.253	-111.870	0.098	0.020
-263.238	47.812	0.299	0.277
-262.224	-67.921	0.119	-0.046
-261.209	55.807	-0.151	-0.146
-260.195	-72.493	-0.127	-0.047
-259.180	-103.059	0.082	0.019
-258.165	-28.841	0.264	0.151
-257.151	-45.550	-0.118	-0.058
-256.136	-26.933	-0.151	0.087
-255.122	-164.310	-0.102	-0.005
-254.107	-24.966	0.256	0.150
-253.092	800.000	-0.038	-0.137
-252.078	64.654	0.081	-0.081
-251.063	-200.000	0.032	-0.232
-250.049	800.000	-0.054	-0.203
-249.034	0.574	0.110	0.078
-248.019	268.759	0.109	-0.190
-247.005	18.298	0.177	-0.140
-245.990	-100.056	-0.230	-0.057
-244.976	22.435	-0.186	-0.150
-243.961	454.181	0.074	-0.162
-242.946	84.323	0.113	-0.122
-241.932	-183.042	0.245	0.004
-240.917	-65.683	-0.181	-0.072
-239.903	281.602	-0.100	-0.178
-238.888	-200.000	-0.004	0.322
-237.873	126.642	0.139	-0.175
-236.859	0.043	-0.198	0.140
-235.844	274.021	-0.121	-0.212
-234.830	-118.518	0.308	-0.054
-233.815	-185.576	0.485	0.007
-232.800	180.621	0.201	0.291
-231.786	-200.000	0.017	0.287
-230.771	-9.292	0.404	0.267
-229.757	-106.861	0.060	-0.013
-228.742	800.000	-0.041	0.118
-227.727	796.783	-0.035	-0.094
-226.713	438.740	0.013	-0.029
-225.698	-200.000	0.000	-0.138
-224.684	-13.617	0.193	-0.124
-223.669	-200.000	-0.001	-0.305
-222.655	-92.189	-0.063	-0.018
-221.640	-87.274	-0.186	0.056
-220.625	32.490	0.156	-0.133
-219.611	800.000	-0.087	0.244
-218.596	39.567	-0.095	-0.084
-217.582	-78.670	-0.317	-0.107
-216.567	219.570	-0.059	-0.093
-215.552	-161.374	0.363	0.019
-214.538	-47.150	-0.285	0.138
-213.523	-120.661	0.154	-0.026
-212.509	-200.000	-0.028	-0.136
-211.494	-32.425	-0.114	-0.063
-210.479	41.041	0.186	0.166
-209.465	-110.001	0.195	0.040
-208.450	42.384	0.085	0.076
-207.436	800.000	0.109	-0.379
-206.421	68.366	-0.099	-0.100
-205.406	41.232	0.191	-0.171
-204.392	-115.286	-0.047	0.009
-203.377	313.918	-0.093	0.174
-202.363	-94.037	0.199	0.054
-201.348	407.314	-0.104	0.216
-200.333	-66.222	-0.073	-0.029
-199.319	-97.657	-0.581	-0.149
-198.304	-110.318	-0.063	-0.013
-197.290	63.712	-0.213	0.212
-196.275	-162.488	-0.144	-0.007
-195.260	-32.508	0.299	-0.164
-194.246	-22.397	-0.264	-0.158
-193.231	-139.622	0.120	-0.013
-192.217	-152.154	-0.144	0.010
-191.202	335.130	0.229	-0.439
-190.187	-200.000	0.028	-0.186
-189.173	-73.185	-0.344	0.125
-188.158	130.296	0.118	0.149
-187.144	800.000	-0.087	0.302
-186.129	477.181	-0.039	-0.087
-185.114	116.199	-0.127	-0.154
-184.100	800.000	0.088	-0.354
-183.085	-91.840	-0.205	0.057
-182.071	-80.575	0.131	0.043
-181.056	-17.610	0.129	-0.080
-180.042	800.000	-0.024	0.084
-179.027	87.132	0.257	0.280
-178.012	96.858	0.155	-0.175
-176.998	-170.366	-0.060	0.002
-175.983	37.334	0.091	0.080
-174.969	800.000	0.050	0.189
-173.954	-200.000	-0.045	-0.285
-172.939	76.783	-0.067	-0.070
-171.925	-139.628	-0.132	0.014
-170.910	-146.169	0.208	-0.018
-169.896	-4.714	0.218	0.148
-168.881	-69.343	0.164	0.062
-167.866	69.313	-0.181	0.184
-166.852	228.397	0.059	-0.095
-165.837	-71.483	-0.324	0.120
-164.823	119.687	-0.105	0.128
-163.808	-93.254	0.315	0.086
-162.793	-76.138	-0.224	-0.078
-161.779	-120.328	-0.256	0.043
-160.764	258.257	0.048	0.082
-159.750	-20.397	-0.116	0.071
-158.735	-27.233	0.283	0.163
-157.720	-200.000	-0.032	0.166
-156.706	-158.291	0.163	0.009
-155.691	-110.632	0.282	-0.058
-154.677	800.000	-0.085	0.313
-153.662	212.113	-0.099	-0.153
-152.647	241.594	0.071	-0.117
-151.633	-28.475	-0.092	0.052
-150.618	68.100	0.368	-0.371
-149.604	800.000	-0.018	-0.051
-148.589	800.000	0.037	-0.119
-147.574	14.124	-0.299	-0.230
-146.560	25.734	0.159	0.131
-145.545	-200.000	0.021	0.198
-144.531	800.000	-0.082	0.308
-143.516	-132.643	-0.298	0.038
-142.502	63.760	0.106	-0.105
-141.487	-2.383	0.116	0.080
-140.472	-27.074	-0.116	-0.067
-139.458	-200.000	-0.057	-0.407
-138.443	-137.513	-0.205	-0.023
-137.429	-200.000	-0.049	-0.242
-136.414	-200.000	-0.027	0.176
-135.399	800.000	-0.039	-0.155
-134.385	-14.671	-0.066	-0.042
-133.370	149.957	0.241	0.322
-132.356	189.753	-0.198	-0.293
-131.341	485.308	-0.080	0.179
-130.326	-125.426	0.232	-0.035
-129.312	-174.436	-0.201	-0.006
-128.297	-200.000	-0.120	-0.001
-127.283	187.026	-0.157	0.230
-126.268	-124.739	0.218	-0.033
-125.253	-200.000	-0.260	-0.000
-124.239	570.859	0.051	0.122
-123.224	-200.000	-0.044	-0.360
-122.210	-87.417	-0.295	0.088
-121.195	-123.210	0.245	0.039
