DTS Sentinel unit serial number:	SN413079Multiplexer serial number:	ORYXHardware model number:	OX4-SRSoftware version number:	ORYX F/W v4.00 Oryx Data Collector v3.7.2.0data status	okinstallation	princeton_trtdifferential loss correction	single-endedforward channel	channel 2reverse channel	N/Adate	2019/09/18time	00:55:34forward acquisition time	60.00reverse acquisition time	0.00gamma	496.2192k internal	0.2350k external	0.2350temperature offset calibration	0.9983default loss term (dB/km)	0.3790temperature slope calibration	1.0000multiplexer offset coefficient	1.0000multiplexer slope coefficient	1.0000fibre end	0.00T internal ref (°C)	23.31T ext. ref 1 (°C)	0.16T ext. ref 2 (°C)	17.03length (m)	temperature (°C)	Stokes	anti-Stokes-747.200	-28.870	0.089	0.051
-746.185	-137.050	0.229	0.026
-745.171	157.321	0.041	-0.056
-744.156	-80.190	-0.420	-0.140
-743.142	-64.228	-0.166	-0.068
-742.127	-126.636	-0.103	0.015
-741.112	-121.003	0.201	0.034
-740.098	-65.295	-0.605	0.243
-739.083	-153.165	0.147	0.010
-738.069	-200.000	-0.015	0.154
-737.054	126.088	0.084	0.106
-736.039	7.318	-0.057	0.042
-735.025	418.373	0.071	0.152
-734.010	541.778	-0.010	-0.023
-732.996	-100.548	-0.087	-0.021
-731.981	-200.000	-0.027	-0.288
-730.966	378.845	0.151	0.308
-729.952	164.298	-0.039	0.055
-728.937	-134.673	0.323	-0.039
-727.923	68.530	-0.038	-0.039
-726.908	199.894	0.142	0.218
-725.894	387.504	0.082	0.168
-724.879	-164.361	-0.132	-0.006
-723.864	54.259	-0.052	-0.050
-722.850	376.727	-0.090	-0.184
-721.835	-200.000	-0.033	0.147
-720.821	148.256	-0.355	-0.479
-719.806	-14.573	0.150	0.096
-718.791	-22.102	-0.188	-0.114
-717.777	70.584	0.389	-0.401
-716.762	-200.000	0.009	-0.191
-715.748	46.408	-0.122	-0.113
-714.733	61.034	0.296	0.293
-713.718	-87.628	-0.450	-0.136
-712.704	-200.000	-0.002	0.195
-711.689	566.183	0.012	0.030
-710.675	3.255	0.134	0.097
-709.660	193.722	-0.147	-0.221
-708.645	-51.010	0.181	-0.084
-707.631	-33.982	0.248	-0.136
-706.616	-6.770	-0.158	0.107
-705.602	123.234	0.112	0.140
-704.587	237.100	0.158	-0.262
-703.572	66.358	0.162	0.165
-702.558	800.000	0.027	-0.110
-701.543	-200.000	0.024	0.124
-700.529	187.503	0.062	0.093
-699.514	-151.775	0.285	-0.021
-698.499	345.077	-0.038	0.074
-697.485	-82.341	0.198	-0.064
-696.470	128.037	-0.021	0.027
-695.456	-129.555	0.663	0.091
-694.441	800.000	0.042	0.142
-693.426	-200.000	0.017	-0.088
-692.412	800.000	0.080	-0.332
-691.397	-200.000	0.002	-0.420
-690.383	800.000	0.088	0.306
-689.368	-60.761	-0.190	0.080
-688.354	-144.661	-0.068	0.006
-687.339	6.979	0.092	0.068
-686.324	-100.432	-0.256	0.063
-685.310	-200.000	-0.013	-0.067
-684.295	800.000	0.045	-0.178
-683.281	63.680	0.056	-0.056
-682.266	-165.700	0.061	-0.003
-681.251	-200.000	-0.063	-0.000
-680.237	-76.413	0.214	-0.075
-679.222	-68.429	0.119	-0.046
-678.208	-57.730	-0.178	0.078
-677.193	333.482	0.045	-0.086
-676.178	-200.000	0.009	0.356
-675.164	205.454	0.028	0.043
-674.149	800.000	0.076	-0.294
-673.135	37.149	-0.064	-0.056
-672.120	-200.000	0.031	-0.190
-671.105	800.000	-0.093	-0.371
-670.091	170.774	-0.195	-0.278
-669.076	30.315	-0.114	0.097
-668.062	-61.011	-0.353	0.148
-667.047	-125.070	0.211	0.032
-666.032	139.019	0.270	-0.353
-665.018	-200.000	-0.013	0.169
-664.003	65.163	-0.116	0.117
-662.989	-5.701	0.166	0.113
-661.974	-20.338	0.084	-0.051
-660.959	646.414	-0.066	-0.167
-659.945	-200.000	0.023	0.175
-658.930	108.542	-0.153	-0.182
-657.916	152.749	-0.164	-0.223
-656.901	-200.000	-0.000	-0.059
-655.886	-185.997	-0.118	-0.002
-654.872	-122.377	0.332	0.054
-653.857	14.578	-0.389	0.302
-652.843	114.249	0.212	-0.256
-651.828	201.252	0.080	-0.123
-650.814	168.507	-0.094	0.133
-649.799	-97.149	0.319	0.083
-648.784	713.413	0.040	-0.105
-647.770	800.000	-0.015	-0.052
-646.755	-200.000	-0.008	0.090
-645.741	259.017	0.259	0.444
-644.726	270.440	-0.114	-0.199
-643.711	-99.106	-0.156	0.039
-642.697	549.895	-0.097	-0.232
-641.682	-68.833	-0.257	0.099
-640.668	362.285	0.081	0.162
-639.653	426.648	0.085	0.182
-638.638	-95.049	0.166	0.045
-637.624	172.985	-0.145	0.208
-636.609	254.635	-0.208	0.355
-635.595	-6.354	-0.218	-0.148
-634.580	218.118	-0.115	-0.183
-633.565	-147.890	-0.301	0.025
-632.551	205.170	0.244	0.377
-631.536	78.057	0.163	-0.173
-630.522	43.198	-0.213	0.193
-629.507	70.227	0.122	0.125
-628.492	-107.292	0.122	0.027
-627.478	-200.000	-0.022	0.168
-626.463	-134.228	-0.213	-0.026
-625.449	-135.934	0.022	-0.003
-624.434	663.926	-0.012	-0.031
-623.419	-97.392	0.117	-0.030
-622.405	-41.058	0.176	0.090
-621.390	7.744	-0.309	0.230
-620.376	39.804	-0.130	0.116
-619.361	-72.190	0.189	0.070
-618.346	-88.767	-0.135	0.040
-617.332	80.250	-0.048	-0.051
-616.317	-50.358	0.338	0.158
-615.303	-61.429	-0.195	-0.081
-614.288	49.689	0.085	-0.080
-613.273	800.000	0.014	0.050
-612.259	-94.110	0.140	0.038
-611.244	-118.346	0.130	0.023
-610.230	-68.504	-0.160	-0.062
-609.215	-149.001	-0.237	-0.019
-608.201	800.000	-0.077	-0.281
-607.186	48.329	-0.145	-0.135
-606.171	43.519	-0.042	-0.038
-605.157	-12.673	-0.207	-0.134
-604.142	-200.000	0.027	-0.275
-603.128	388.078	0.101	-0.207
-602.113	675.323	-0.092	-0.238
-601.098	312.101	-0.056	-0.104
-600.084	-66.243	0.353	0.140
-599.069	-113.194	0.145	-0.028
-598.055	-122.194	-0.233	-0.038
-597.040	800.000	0.044	0.127
-596.025	72.347	0.087	-0.090
-595.011	7.444	0.315	0.234
-593.996	-74.861	0.200	-0.071
-592.982	-200.000	-0.016	0.311
-591.967	94.541	-0.195	-0.220
-590.952	459.339	0.199	0.440
-589.938	800.000	0.009	0.024
-588.923	52.056	0.184	-0.174
-587.909	-100.099	-0.213	-0.053
-586.894	48.147	-0.071	0.066
-585.879	291.392	0.120	0.216
-584.865	-69.097	0.159	-0.061
-583.850	-146.209	-0.159	0.014
-582.836	-96.727	-0.724	-0.189
-581.821	-200.000	0.043	-0.401
-580.806	-19.116	0.274	-0.169
-579.792	257.122	0.123	0.210
-578.777	-200.000	0.033	-0.233
-577.763	-4.954	-0.164	0.112
-576.748	800.000	0.085	0.242
-575.733	-200.000	0.011	0.180
-574.719	-200.000	0.000	-0.073
-573.704	-200.000	-0.026	-0.156
-572.690	-200.000	0.039	0.207
-571.675	-200.000	0.007	0.079
-570.661	800.000	-0.138	-0.512
-569.646	-29.628	0.122	0.069
-568.631	-79.179	-0.198	-0.067
-567.617	-60.857	0.321	0.135
-566.602	-154.570	-0.150	-0.010
-565.588	296.374	-0.090	-0.164
-564.573	-200.000	-0.012	-0.061
-563.558	-200.000	0.003	0.232
-562.544	134.297	0.031	0.039
-561.529	169.312	0.121	-0.171
-560.515	56.510	-0.099	-0.095
-559.500	800.000	-0.074	-0.223
-558.485	-10.199	-0.086	-0.056
-557.471	-200.000	0.028	0.186
-556.456	-149.887	0.117	0.009
-555.442	-200.000	-0.020	0.365
-554.427	-29.050	-0.374	-0.213
-553.412	14.372	0.278	0.215
-552.398	800.000	0.035	-0.095
-551.383	92.389	0.080	-0.089
-550.369	-189.805	-0.240	0.003
-549.354	-76.780	-0.203	0.071
-548.339	-200.000	-0.033	0.150
-547.325	-200.000	-0.051	-0.253
-546.310	-25.386	0.375	-0.220
-545.296	-104.958	-0.285	0.065
-544.281	-200.000	0.124	-0.549
-543.266	-200.000	-0.074	-0.379
-542.252	800.000	0.068	-0.258
-541.237	158.267	0.116	0.160
-540.223	32.327	0.077	-0.066
-539.208	-113.797	-0.448	-0.086
-538.193	-200.000	0.006	0.179
-537.179	-85.579	0.041	0.013
-536.164	800.000	-0.076	0.240
-535.150	-200.000	0.029	0.255
-534.135	111.836	0.090	0.108
-533.121	30.084	0.077	0.065
-532.106	764.549	-0.087	0.233
-531.091	-200.000	-0.013	-0.165
-530.077	-32.018	-0.085	0.047
-529.062	-55.496	-0.232	0.103
-528.048	499.497	-0.027	0.062
-527.033	-57.677	-0.089	-0.038
-526.018	183.380	-0.168	0.246
-525.004	-200.000	0.031	-0.347
-523.989	800.000	-0.077	-0.229
-522.975	-200.000	0.023	-0.388
-521.960	80.766	0.328	0.350
-520.945	-19.167	0.140	-0.086
-519.931	-200.000	0.003	-0.134
-518.916	749.119	-0.112	0.299
-517.902	-200.000	-0.068	-0.389
-516.887	312.643	-0.036	-0.067
-515.872	224.586	-0.055	-0.087
-514.858	-96.405	-0.386	-0.101
-513.843	-68.581	-0.030	0.011
-512.829	481.711	0.065	-0.145
-511.814	109.538	0.140	-0.166
-510.799	-112.833	0.127	0.025
-509.785	-40.694	-0.233	0.119
-508.770	800.000	0.057	0.193
-507.756	229.940	0.178	-0.288
-506.741	-125.611	-0.183	-0.028
-505.726	9.320	0.205	-0.154
-504.712	37.446	0.259	-0.227
-503.697	53.090	0.134	0.127
-502.683	800.000	-0.118	-0.397
-501.668	77.386	0.152	-0.160
-500.653	-117.152	0.052	-0.009
-499.639	-125.246	0.089	0.014
-498.624	-133.686	0.143	0.018
-497.610	800.000	0.084	0.252
-496.595	-200.000	-0.005	-0.335
-495.581	-129.572	-0.542	-0.074
-494.566	-103.324	0.140	-0.033
-493.551	-200.000	0.012	0.425
-492.537	-200.000	-0.006	0.087
-491.522	206.847	0.165	-0.254
-490.508	-31.175	0.164	-0.091
-489.493	-184.335	0.167	0.003
-488.478	800.000	0.046	0.153
-487.464	-57.483	0.059	-0.026
-486.449	-53.745	-0.344	0.155
-485.435	326.199	-0.089	-0.168
-484.420	-168.018	-0.263	-0.010
-483.405	-159.272	-0.058	-0.003
-482.391	-59.657	-0.295	0.125
-481.376	-48.002	0.325	-0.155
-480.362	454.796	0.039	-0.085
-479.347	126.157	-0.072	0.090
-478.332	-157.896	-0.245	-0.014
-477.318	54.230	0.265	-0.252
-476.303	-200.000	0.002	-0.034
-475.289	-34.864	-0.135	-0.073
-474.274	-116.817	-0.147	-0.027
-473.259	-71.552	-0.145	0.053
-472.245	-200.000	0.050	0.245
-471.230	-71.963	0.098	0.036
-470.216	-55.347	0.097	-0.043
-469.201	14.561	-0.181	0.140
-468.186	-74.335	0.062	-0.022
-467.172	54.415	-0.158	-0.150
-466.157	-143.394	0.344	0.033
-465.143	-200.000	-0.022	-0.426
-464.128	-1.723	0.311	-0.216
-463.113	-74.492	-0.256	0.091
-462.099	-60.634	0.275	-0.115
-461.084	-200.000	-0.013	0.179
-460.070	136.682	-0.167	-0.216
-459.055	-111.518	-0.101	0.020
-458.040	39.121	0.089	0.078
-457.026	-73.138	-0.184	0.066
-456.011	372.894	-0.010	-0.020
-454.997	-8.413	-0.187	-0.124
-453.982	0.155	0.066	-0.046
-452.968	-1.077	-0.018	0.013
-451.953	175.607	-0.086	0.123
-450.938	800.000	0.019	0.067
-449.924	75.733	-0.138	-0.144
-448.909	31.195	0.248	-0.210
-447.895	-85.031	-0.335	0.104
-446.880	123.514	-0.142	-0.175
-445.865	-72.527	0.143	-0.052
-444.851	469.556	-0.121	0.267
-443.836	50.920	-0.078	0.073
-442.822	540.431	0.145	0.339
-441.807	-109.064	0.175	0.037
-440.792	800.000	-0.081	-0.232
-439.778	217.148	-0.151	-0.238
-438.763	-200.000	-0.007	-0.076
-437.749	-96.704	0.155	0.040
-436.734	102.382	0.041	0.047
-435.719	213.630	-0.091	-0.143
-434.705	-43.120	-0.070	-0.035
-433.690	268.194	0.065	0.113
-432.676	468.201	-0.098	0.217
-431.661	267.851	0.034	0.060
-430.646	274.664	-0.025	-0.044
-429.632	295.384	0.182	-0.328
-428.617	151.741	0.135	0.182
-427.603	-200.000	0.036	0.188
-426.588	-200.000	0.015	0.085
-425.573	317.824	-0.103	-0.193
-424.559	0.034	-0.092	0.065
-423.544	-13.365	-0.395	0.253
-422.530	55.507	-0.254	-0.242
-421.515	-200.000	0.004	-0.127
-420.500	-200.000	0.014	-0.168
-419.486	11.334	0.086	0.065
-418.471	-1.098	0.105	-0.073
-417.457	-143.855	-0.232	-0.022
-416.442	-119.216	-0.209	-0.036
-415.428	-200.000	0.018	-0.150
-414.413	-60.544	0.057	-0.024
-413.398	366.915	-0.129	-0.257
-412.384	-9.297	0.315	0.207
-411.369	-107.886	0.065	0.014
-410.355	-57.794	0.147	0.064
-409.340	185.751	-0.089	0.130
-408.325	160.488	-0.188	-0.258
-407.311	-174.675	0.236	-0.007
-406.296	-116.941	-0.316	0.057
-405.282	-200.000	0.056	-0.243
-404.267	-36.066	-0.197	0.105
-403.252	181.207	0.044	0.063
-402.238	325.803	0.091	-0.171
-401.223	800.000	-0.040	-0.147
-400.209	26.685	0.130	-0.107
-399.194	50.268	0.151	-0.141
-398.179	659.137	-0.078	-0.198
-397.165	-178.376	-0.094	-0.002
-396.150	-200.000	-0.012	-0.206
-395.136	-135.835	0.236	0.028
-394.121	-200.000	-0.021	-0.108
-393.106	800.000	-0.085	0.244
-392.092	81.609	0.197	0.210
-391.077	592.315	-0.160	-0.389
-390.063	-175.357	-0.443	-0.012
-389.048	-120.453	0.398	-0.067
-388.033	2.435	0.218	0.155
-387.019	-23.078	-0.092	0.054
-386.004	-1.377	0.193	-0.134
-384.990	-28.879	0.294	-0.166
-383.975	800.000	-0.053	0.201
-382.960	237.769	-0.192	0.314
-381.946	133.891	0.111	-0.142
-380.931	-200.000	-0.036	-0.211
-379.917	40.001	0.146	-0.129
-378.902	-96.939	0.075	0.019
-377.888	-0.882	0.366	-0.255
-376.873	-156.908	-0.193	0.012
-375.858	54.851	-0.181	0.172
-374.844	-173.590	-0.188	0.006
-373.829	161.464	-0.061	-0.085
-372.815	-119.195	-0.028	-0.005
-371.800	-200.000	-0.039	0.184
-370.785	23.879	-0.067	0.054
-369.771	-36.883	0.192	-0.101
-368.756	-67.291	-0.083	-0.032
-367.742	204.738	0.270	-0.411
-366.727	-200.000	0.053	0.268
-365.712	-125.488	-0.026	0.004
-364.698	-200.000	-0.006	-0.131
-363.683	10.594	0.040	0.030
-362.669	71.882	0.393	0.402
-361.654	-154.584	0.141	0.009
-360.639	80.068	0.075	0.079
-359.625	709.353	0.045	0.118
-358.610	-200.000	-0.055	-0.339
-357.596	344.475	0.153	0.295
-356.581	11.056	-0.250	0.188
-355.566	120.327	-0.047	-0.057
-354.552	-200.000	0.055	0.268
-353.537	327.852	-0.160	0.302
-352.523	-116.024	0.239	-0.044
-351.508	78.390	0.085	0.090
-350.493	-71.251	-0.234	-0.086
-349.479	-179.203	0.411	-0.009
-348.464	-178.406	-0.224	-0.005
-347.450	64.004	-0.024	-0.024
-346.435	-178.179	0.182	0.004
-345.420	131.046	-0.132	0.166
-344.406	800.000	0.037	-0.106
-343.391	-113.139	0.139	0.027
-342.377	-24.189	0.167	0.098
-341.362	-68.030	-0.178	0.068
-340.348	-24.995	0.028	0.016
-339.333	7.569	0.173	-0.127
-338.318	-20.146	-0.138	0.083
-337.304	669.543	-0.059	0.150
-336.289	-136.683	0.088	0.010
-335.275	-36.722	-0.122	-0.064
-334.260	-200.000	0.037	0.373
-333.245	18.629	0.316	-0.249
-332.231	-82.366	0.092	-0.029
-331.216	-36.119	-0.424	-0.225
-330.202	253.638	0.095	0.160
-329.187	-184.351	0.030	0.000
-328.172	-24.510	-0.323	0.189
-327.158	-200.000	0.014	0.291
-326.143	-106.681	-0.204	0.045
-325.129	-77.011	0.122	0.042
-324.114	800.000	-0.060	0.169
-323.099	91.470	0.129	0.142
-322.085	800.000	0.042	0.178
-321.070	800.000	0.029	-0.117
-320.056	800.000	-0.075	-0.216
-319.041	189.575	-0.234	-0.344
-318.026	-76.059	-0.054	0.019
-317.012	-154.697	0.154	-0.010
-315.997	66.688	0.141	0.140
-314.983	526.201	-0.118	-0.273
-313.968	-200.000	-0.060	0.290
-312.953	800.000	0.079	0.264
-311.939	-94.328	0.323	-0.087
-310.924	214.794	-0.115	0.180
-309.910	-200.000	0.002	0.165
-308.895	73.746	-0.284	-0.292
-307.880	550.502	0.193	-0.454
-306.866	-57.066	0.239	-0.103
-305.851	8.228	0.080	0.059
-304.837	-21.539	-0.118	0.071
-303.822	78.856	0.071	0.075
-302.807	182.429	-0.095	0.138
-301.793	-0.591	-0.084	-0.059
-300.778	-75.527	0.174	0.061
-299.764	800.000	-0.038	-0.141
-298.749	-0.461	0.344	-0.239
-297.735	503.074	0.250	0.567
-296.720	-200.000	-0.158	-0.000
-295.705	-200.000	0.010	-0.135
-294.691	-81.132	-0.415	-0.134
-293.676	-200.000	-0.041	-0.288
-292.662	-87.855	0.255	-0.075
-291.647	30.437	0.090	-0.075
-290.632	-41.985	0.036	0.018
-289.618	800.000	-0.077	0.241
-288.603	249.330	-0.083	0.139
-287.589	186.728	-0.201	-0.294
-286.574	145.837	-0.171	0.225
-285.559	29.410	-0.095	-0.079
-284.545	520.309	-0.072	0.167
-283.530	724.604	0.087	-0.226
-282.516	60.976	0.224	-0.218
-281.501	-117.430	0.028	0.005
-280.486	800.000	-0.052	0.208
-279.472	-39.056	-0.265	0.136
-278.457	67.549	-0.088	0.088
-277.443	-200.000	-0.025	-0.178
-276.428	5.511	0.387	0.280
-275.413	380.854	0.192	-0.387
-274.399	182.425	-0.145	0.210
-273.384	-11.418	0.250	0.161
-272.370	265.106	0.120	-0.205
-271.355	-167.108	-0.080	-0.003
-270.340	-54.146	-0.078	0.035
-269.326	62.796	0.189	0.185
-268.311	102.494	0.072	0.082
-267.297	-108.376	0.200	-0.042
-266.282	-156.266	0.459	0.028
-265.267	800.000	-0.046	-0.135
-264.253	193.988	0.153	-0.227
-263.238	20.813	-0.232	0.184
-262.224	372.144	-0.021	-0.042
-261.209	631.237	0.042	0.105
-260.195	147.853	-0.183	-0.241
-259.180	282.961	-0.042	0.074
-258.165	321.609	0.077	-0.144
-257.151	37.096	-0.392	-0.340
-256.136	201.208	0.200	-0.302
-255.122	-168.553	0.252	-0.009
-254.107	28.801	-0.181	-0.150
-253.092	53.181	-0.218	0.205
-252.078	231.269	-0.127	0.205
-251.063	-67.022	0.112	-0.043
-250.049	-112.491	-0.231	-0.045
-249.034	800.000	0.020	-0.072
-248.019	-200.000	0.027	0.190
-247.005	-76.223	0.322	0.111
-245.990	-23.388	0.227	0.133
-244.976	-126.567	0.185	-0.027
-243.961	-200.000	-0.000	-0.035
-242.946	-200.000	0.016	-0.127
-241.932	-95.358	0.254	-0.067
-240.917	69.457	-0.187	0.189
-239.903	-93.340	-0.113	0.031
-238.888	-68.948	-0.057	0.021
-237.873	77.796	-0.268	0.279
-236.859	14.642	0.202	0.155
-235.844	-200.000	0.023	0.444
-234.830	143.257	0.124	0.162
-233.815	-200.000	0.007	-0.139
-232.800	-163.825	0.254	-0.012
-231.786	56.327	-0.208	-0.198
-230.771	-74.046	0.301	-0.107
-229.757	-178.619	0.136	-0.003
-228.742	-200.000	0.016	0.187
-227.727	-200.000	0.009	0.231
-226.713	-16.191	0.220	0.137
-225.698	102.735	-0.072	-0.082
-224.684	23.044	0.088	-0.071
-223.669	170.198	-0.158	0.221
-222.655	32.278	-0.171	0.144
-221.640	71.923	0.168	0.171
-220.625	-200.000	0.001	0.161
-219.611	-200.000	0.018	-0.279
-218.596	800.000	-0.059	0.186
-217.582	-93.415	0.049	0.013
-216.567	354.999	-0.042	0.082
-215.552	-200.000	-0.008	0.106
-214.538	-200.000	0.029	0.185
-213.523	112.714	0.098	-0.116
-212.509	-147.548	-0.512	-0.042
-211.494	430.324	0.057	0.120
-210.479	4.044	0.180	0.128
-209.465	-74.301	0.271	0.096
-208.450	16.193	-0.082	-0.063
-207.436	-200.000	-0.029	0.225
-206.421	800.000	0.059	-0.228
-205.406	800.000	-0.067	-0.243
-204.392	-200.000	0.028	0.146
-203.377	-94.777	-0.389	0.103
-202.363	-68.399	0.230	-0.087
-201.348	-70.035	0.362	-0.135
-200.333	-94.529	-0.140	0.037
-199.319	15.538	-0.070	0.054
-198.304	-200.000	0.053	-0.358
-197.290	24.326	-0.055	-0.045
-196.275	-54.748	-0.084	0.037
-195.260	-200.000	-0.031	0.277
-194.246	-101.935	-0.136	-0.032
-193.231	800.000	0.061	0.197
-192.217	-200.000	-0.054	-0.429
-191.202	-27.595	0.169	0.096
-190.187	-200.000	0.026	0.113
-189.173	-200.000	0.011	0.081
-188.158	-200.000	-0.018	0.245
-187.144	-19.216	-0.149	0.090
-186.129	-59.636	0.022	0.009
-185.114	-200.000	-0.011	-0.344
-184.100	731.435	0.044	0.116
-183.085	381.484	0.066	0.132
-182.071	328.649	-0.341	-0.640
-181.056	-165.602	0.092	0.004
-180.042	800.000	-0.077	0.254
-179.027	6.766	0.456	0.331
-178.012	800.000	-0.030	0.126
-176.998	30.955	-0.233	-0.195
-175.983	-200.000	0.006	0.276
-174.969	-200.000	-0.040	-0.239
-173.954	303.019	-0.090	-0.163
-172.939	-200.000	0.039	0.393
-171.925	-174.756	0.229	-0.006
-170.910	800.000	-0.120	-0.436
-169.896	205.592	-0.110	-0.166
-168.881	800.000	0.039	-0.126
-167.866	3.264	-0.267	0.190
-166.852	-125.378	-0.301	0.045
-165.837	241.305	0.013	-0.021
-164.823	-172.238	-0.120	0.004
-163.808	-200.000	0.040	0.313
-162.793	800.000	0.091	-0.288
-161.779	252.797	0.094	0.156
-160.764	99.464	0.161	0.182
-159.750	-88.538	-0.070	0.020
-158.735	-200.000	0.007	0.159
-157.720	-123.727	-0.118	-0.018
-156.706	-39.530	-0.287	0.147
-155.691	-9.571	0.344	0.224
-154.677	800.000	-0.066	0.181
-153.662	-4.113	-0.140	0.095
-152.647	292.302	-0.038	-0.067
-151.633	-200.000	0.024	-0.235
-150.618	-53.762	0.168	-0.075
-149.604	-102.640	-0.333	0.078
-148.589	-71.422	-0.349	0.128
-147.574	-55.204	0.307	-0.135
-146.560	-42.942	-0.303	-0.150
-145.545	800.000	0.124	0.357
-144.531	-119.206	0.494	-0.084
-143.516	60.146	0.369	0.355
-142.502	-26.135	0.160	0.092
-141.487	-70.776	0.208	0.077
-140.472	-34.295	-0.162	0.087
-139.458	-200.000	0.062	-0.484
-138.443	-200.000	-0.083	-0.375
-137.429	-200.000	-0.026	0.119
-136.414	260.549	0.190	-0.321
-135.399	-31.905	-0.229	-0.125
-134.385	-4.845	-0.071	0.047
-133.370	-200.000	0.004	0.221
-132.356	26.681	0.088	-0.072
-131.341	-90.692	0.093	0.026
-130.326	-30.091	0.178	0.099
-129.312	-200.000	0.004	0.170
-128.297	-200.000	0.034	0.247
-127.283	-200.000	-0.010	-0.274
-126.268	800.000	-0.108	0.319
-125.253	-30.544	0.217	-0.120
-124.239	-66.622	-0.103	-0.040
-123.224	514.139	0.038	-0.087
-122.210	-91.064	0.085	-0.024
-121.195	-115.654	0.176	-0.032
-120.180	-93.833	0.202	0.054
