DTS Sentinel unit serial number:	SN413079Multiplexer serial number:	ORYXHardware model number:	OX4-SRSoftware version number:	ORYX F/W v4.00 Oryx Data Collector v3.7.2.0data status	okinstallation	princeton_trtdifferential loss correction	single-endedforward channel	channel 2reverse channel	N/Adate	2019/09/19time	08:31:35forward acquisition time	60.00reverse acquisition time	0.00gamma	496.2192k internal	0.2352k external	0.2352temperature offset calibration	1.0003default loss term (dB/km)	0.3790temperature slope calibration	1.0000multiplexer offset coefficient	1.0000multiplexer slope coefficient	1.0000fibre end	0.00T internal ref (°C)	20.67T ext. ref 1 (°C)	0.57T ext. ref 2 (°C)	16.38length (m)	temperature (°C)	Stokes	anti-Stokes-747.200	263.052	0.187	0.324
-746.185	195.731	0.202	0.307
-745.171	106.485	0.196	-0.232
-744.156	123.616	-0.263	0.329
-743.142	11.056	-0.059	0.045
-742.127	-65.266	-0.036	-0.015
-741.112	206.415	-0.076	0.118
-740.098	11.653	-0.132	0.101
-739.083	800.000	0.037	0.132
-738.069	-187.167	-0.106	-0.001
-737.054	37.218	0.174	0.153
-736.039	-128.108	-0.311	0.044
-735.025	-11.276	0.356	-0.234
-734.010	273.499	-0.183	-0.322
-732.996	-40.342	-0.264	0.137
-731.981	-135.276	-0.197	-0.024
-730.966	7.336	-0.329	0.245
-729.952	-200.000	-0.012	-0.223
-728.937	130.249	0.216	-0.275
-727.923	216.254	-0.116	0.184
-726.908	10.435	-0.044	0.033
-725.894	-71.590	-0.117	-0.044
-724.879	-16.734	0.198	0.125
-723.864	652.046	0.137	0.349
-722.850	-200.000	-0.079	-0.372
-721.835	-200.000	-0.004	0.195
-720.821	456.131	-0.054	-0.118
-719.806	-45.668	0.202	0.100
-718.791	-1.640	-0.088	0.062
-717.777	-200.000	0.012	-0.316
-716.762	-54.995	0.234	-0.105
-715.748	-79.022	0.217	0.074
-714.733	800.000	0.132	-0.455
-713.718	-145.898	-0.208	-0.018
-712.704	-64.967	-0.062	-0.025
-711.689	-190.414	-0.072	0.001
-710.675	58.829	-0.177	-0.173
-709.660	22.675	-0.343	0.280
-708.645	92.894	0.120	-0.135
-707.631	-200.000	-0.009	-0.129
-706.616	-8.162	0.194	0.130
-705.602	20.206	0.084	0.067
-704.587	91.746	-0.034	-0.039
-703.572	-200.000	-0.084	-0.463
-702.558	433.874	-0.138	0.298
-701.543	-146.759	-0.171	0.015
-700.529	84.738	0.111	-0.121
-699.514	32.933	-0.267	0.230
-698.499	219.671	0.043	-0.069
-697.485	-28.391	-0.243	0.140
-696.470	156.306	-0.134	-0.184
-695.456	599.883	-0.148	0.364
-694.441	329.078	0.099	0.190
-693.426	-200.000	-0.048	-0.211
-692.412	433.576	-0.034	0.074
-691.397	-89.613	0.148	-0.043
-690.383	27.052	0.290	-0.242
-689.368	-200.000	0.036	0.320
-688.354	524.650	0.078	-0.184
-687.339	323.015	-0.099	-0.188
-686.324	-112.887	0.016	-0.003
-685.310	412.054	-0.049	-0.103
-684.295	-189.092	0.181	-0.002
-683.281	-200.000	0.038	-0.199
-682.266	40.136	-0.118	0.106
-681.251	-86.280	0.122	-0.038
-680.237	-200.000	0.088	0.393
-679.222	161.714	0.053	0.074
-678.208	-35.679	-0.038	0.021
-677.193	-20.827	-0.343	0.209
-676.178	-183.388	-0.047	-0.001
-675.164	-86.268	0.281	-0.086
-674.149	45.284	-0.217	-0.199
-673.135	134.828	-0.169	0.218
-672.120	-143.231	-0.133	-0.013
-671.105	800.000	0.146	-0.429
-670.091	-169.091	-0.178	0.007
-669.076	104.765	0.128	-0.150
-668.062	196.045	0.048	-0.072
-667.047	24.020	-0.212	-0.173
-666.032	-143.126	-0.311	-0.030
-665.018	-111.727	-0.179	0.036
-664.003	-200.000	-0.026	-0.187
-662.989	-125.033	0.138	0.021
-661.974	-42.943	-0.035	0.018
-660.959	800.000	-0.018	-0.075
-659.945	800.000	-0.113	-0.323
-658.930	214.182	-0.039	0.062
-657.916	-200.000	-0.007	-0.118
-656.901	26.802	0.207	-0.172
-655.886	636.772	-0.050	0.126
-654.872	506.583	0.089	0.205
-653.857	-200.000	0.006	0.403
-652.843	-52.163	0.152	-0.070
-651.828	-10.916	0.080	-0.053
-650.814	244.655	-0.038	0.064
-649.799	-112.876	0.321	-0.063
-648.784	-97.969	-0.329	0.084
-647.770	-0.828	0.242	0.171
-646.755	-83.433	0.153	0.049
-645.741	-77.864	-0.147	0.051
-644.726	13.886	-0.382	0.295
-643.711	357.294	0.094	0.187
-642.697	-144.177	0.159	0.015
-641.682	155.242	-0.230	-0.314
-640.668	-121.854	0.099	0.016
-639.653	-33.680	-0.045	-0.025
-638.638	296.002	0.065	0.118
-637.624	242.838	0.057	0.095
-636.609	-140.574	-0.130	0.013
-635.595	568.225	-0.078	-0.188
-634.580	800.000	-0.019	-0.054
-633.565	-200.000	-0.075	-0.346
-632.551	-48.451	-0.329	0.157
-631.536	694.014	0.143	0.372
-630.522	-34.209	-0.140	-0.077
-629.507	210.260	-0.087	-0.136
-628.492	24.258	0.105	-0.086
-627.478	305.273	-0.148	-0.273
-626.463	-9.805	-0.226	-0.149
-625.449	-200.000	0.042	-0.217
-624.434	-74.096	0.434	-0.156
-623.419	439.180	0.080	-0.173
-622.405	149.958	-0.320	-0.431
-621.390	39.169	0.082	-0.073
-620.376	22.684	-0.036	-0.029
-619.361	-177.546	-0.144	0.003
-618.346	87.035	0.109	-0.119
-617.332	244.421	-0.138	0.230
-616.317	209.601	0.197	-0.306
-615.303	-57.286	0.148	-0.065
-614.288	331.479	0.063	0.121
-613.273	-54.397	0.095	0.043
-612.259	377.687	-0.127	-0.257
-611.244	-200.000	-0.010	0.050
-610.230	53.020	0.038	0.036
-609.215	87.748	-0.226	0.248
-608.201	-3.196	0.085	-0.059
-607.186	95.015	-0.195	0.220
-606.171	-99.703	0.144	-0.036
-605.157	249.669	0.148	-0.248
-604.142	95.623	-0.267	0.302
-603.128	-50.449	-0.148	-0.069
-602.113	-200.000	-0.028	0.247
-601.098	615.191	0.083	-0.206
-600.084	-200.000	0.015	-0.232
-599.069	-109.348	-0.080	-0.017
-598.055	422.497	-0.131	-0.279
-597.040	-200.000	-0.055	-0.363
-596.025	9.968	-0.170	-0.128
-595.011	279.132	-0.108	-0.191
-593.996	-177.329	-0.281	0.007
-592.982	116.867	-0.325	-0.396
-591.967	-123.602	0.476	-0.075
-590.952	47.234	0.223	0.206
-589.938	328.929	0.012	-0.022
-588.923	-97.263	-0.295	0.076
-587.909	-56.653	0.303	-0.133
-586.894	-200.000	-0.015	0.231
-585.879	-149.792	-0.281	0.022
-584.865	-200.000	0.040	-0.252
-583.850	-200.000	-0.012	-0.245
-582.836	-139.622	-0.287	0.030
-581.821	-87.427	0.204	-0.061
-580.806	-124.193	0.298	-0.046
-579.792	-147.184	-0.212	-0.018
-578.777	350.760	0.137	-0.268
-577.763	553.867	-0.041	0.098
-576.748	800.000	0.121	-0.358
-575.733	10.219	-0.240	0.181
-574.719	329.722	0.115	-0.219
-573.704	74.879	-0.123	-0.129
-572.690	-156.186	-0.089	-0.006
-571.675	-157.622	-0.240	-0.014
-570.661	-152.597	-0.246	0.017
-569.646	240.356	0.124	0.205
-568.631	197.321	-0.140	0.212
-567.617	25.984	0.051	0.042
-566.602	-200.000	-0.002	-0.020
-565.588	59.428	-0.318	0.311
-564.573	89.129	0.158	-0.174
-563.558	-191.360	0.129	-0.001
-562.544	73.201	-0.171	-0.177
-561.529	221.430	-0.110	-0.175
-560.515	96.831	0.115	0.130
-559.500	-36.659	-0.202	-0.108
-558.485	85.748	-0.122	0.133
-557.471	800.000	0.039	0.125
-556.456	-200.000	-0.023	-0.159
-555.442	454.402	0.034	0.074
-554.427	117.348	0.194	0.236
-553.412	800.000	0.012	-0.038
-552.398	-167.861	-0.230	0.009
-551.383	20.121	-0.237	0.189
-550.369	-133.256	0.140	0.017
-549.354	-57.060	0.147	-0.064
-548.339	-121.563	-0.198	-0.033
-547.325	-118.065	-0.177	-0.031
-546.310	-117.573	-0.254	-0.045
-545.296	-50.789	-0.184	-0.085
-544.281	-200.000	0.025	-0.125
-543.266	-200.000	0.000	-0.043
-542.252	9.657	-0.327	-0.245
-541.237	-197.616	0.007	0.000
-540.223	-68.980	-0.141	-0.054
-539.208	-200.000	0.021	-0.252
-538.193	-200.000	-0.088	-0.473
-537.179	-20.655	-0.077	-0.047
-536.164	-44.953	0.225	0.111
-535.150	184.530	0.131	0.193
-534.135	-140.476	0.250	0.026
-533.121	-97.801	0.224	-0.057
-532.106	-183.311	-0.236	-0.004
-531.091	-127.645	-0.234	0.033
-530.077	193.646	-0.142	0.213
-529.062	-114.809	0.227	-0.043
-528.048	-67.328	-0.263	0.102
-527.033	800.000	0.066	-0.181
-526.018	-112.630	-0.153	-0.030
-525.004	-200.000	0.014	0.109
-523.989	-43.519	-0.411	0.205
-522.975	-39.443	-0.266	-0.138
-521.960	-1.031	0.440	-0.308
-520.945	-74.297	-0.177	-0.063
-519.931	-79.074	0.311	0.104
-518.916	800.000	0.041	-0.158
-517.902	136.756	0.151	0.195
-516.887	113.435	0.073	0.087
-515.872	-125.018	0.130	0.020
-514.858	-200.000	-0.020	0.137
-513.843	183.781	0.180	-0.263
-512.829	68.953	-0.155	-0.157
-511.814	234.202	-0.181	0.295
-510.799	-112.623	0.309	-0.061
-509.785	-140.911	0.465	0.047
-508.770	112.457	-0.246	0.294
-507.756	-121.224	-0.330	0.055
-506.741	-140.926	0.109	-0.011
-505.726	-82.148	0.189	-0.061
-504.712	322.067	-0.141	0.265
-503.697	-200.000	-0.010	-0.144
-502.683	-15.520	0.235	0.148
-501.668	-127.318	0.439	0.063
-500.653	15.145	0.332	0.257
-499.639	33.190	-0.397	0.340
-498.624	-11.495	-0.185	0.120
-497.610	-71.730	0.343	0.126
-496.595	-15.400	-0.174	-0.110
-495.581	-200.000	-0.270	-0.001
-494.566	-41.422	0.101	0.051
-493.551	99.125	0.141	-0.161
-492.537	-200.000	-0.007	0.195
-491.522	8.393	-0.200	0.149
-490.508	-187.854	0.343	-0.004
-489.493	-200.000	0.018	0.097
-488.478	-130.323	0.233	-0.031
-487.464	29.154	-0.232	0.194
-486.449	-141.263	-0.371	0.037
-485.435	-47.644	-0.307	-0.147
-484.420	-200.000	0.018	-0.191
-483.405	800.000	0.078	-0.337
-482.391	177.064	-0.091	-0.131
-481.376	800.000	0.052	-0.196
-480.362	25.591	-0.120	0.099
-479.347	-200.000	0.023	-0.166
-478.332	800.000	-0.049	0.188
-477.318	402.142	0.106	0.221
-476.303	514.795	-0.054	0.123
-475.289	-36.200	0.323	0.172
-474.274	153.244	-0.046	-0.062
-473.259	45.211	0.238	-0.217
-472.245	-44.024	-0.147	-0.073
-471.230	-117.087	-0.436	-0.078
-470.216	-79.553	0.233	-0.078
-469.201	800.000	-0.045	-0.147
-468.186	-60.293	-0.306	0.128
-467.172	-123.367	-0.037	0.006
-466.157	-30.452	0.270	0.151
-465.143	-200.000	-0.073	0.345
-464.128	263.176	0.107	-0.184
-463.113	-69.825	-0.112	-0.042
-462.099	0.174	-0.359	0.252
-461.084	-131.369	-0.446	-0.058
-460.070	-0.031	0.275	0.193
-459.055	-69.767	0.323	-0.122
-458.040	-75.624	0.279	-0.098
-457.026	326.815	0.159	-0.300
-456.011	592.645	0.171	-0.417
-454.997	20.702	-0.125	-0.100
-453.982	118.798	-0.108	0.132
-452.968	-200.000	0.000	0.005
-451.953	800.000	0.085	-0.270
-450.938	133.457	-0.164	-0.208
-449.924	-40.788	0.264	-0.135
-448.909	-9.727	-0.119	0.078
-447.895	-48.937	-0.178	-0.084
-446.880	800.000	0.105	0.294
-445.865	-18.467	-0.220	0.136
-444.851	-200.000	-0.042	0.318
-443.836	-200.000	-0.037	-0.247
-442.822	-131.929	-0.121	-0.016
-441.807	-67.615	0.203	-0.078
-440.792	35.816	0.223	0.193
-439.778	327.052	0.147	0.278
-438.763	-200.000	0.023	0.244
-437.749	-200.000	0.012	0.101
-436.734	89.294	-0.204	0.224
-435.719	-10.741	0.312	0.203
-434.705	31.966	0.157	-0.133
-433.690	-76.906	0.243	-0.084
-432.676	41.386	0.191	0.170
-431.661	76.734	-0.212	0.221
-430.646	-52.956	-0.065	-0.029
-429.632	234.637	0.047	0.076
-428.617	-110.301	0.360	-0.074
-427.603	91.938	0.103	-0.115
-426.588	45.060	0.107	0.097
-425.573	-41.110	0.161	0.082
-424.559	-200.000	0.080	-0.492
-423.544	-10.905	-0.113	0.073
-422.530	-69.643	-0.037	0.014
-421.515	77.539	0.057	-0.060
-420.500	279.643	-0.204	0.359
-419.486	-175.315	0.309	0.008
-418.471	12.921	0.096	-0.073
-417.457	-200.000	0.042	-0.214
-416.442	-140.868	0.228	0.023
-415.428	-88.476	0.126	0.037
-414.413	215.222	0.139	0.217
-413.398	-11.818	0.213	0.138
-412.384	800.000	0.106	0.351
-411.369	-86.671	-0.413	-0.125
-410.355	480.057	-0.036	0.081
-409.340	-69.555	0.101	-0.038
-408.325	27.472	-0.454	-0.376
-407.311	-11.526	0.241	-0.156
-406.296	-158.765	0.497	0.028
-405.282	148.035	-0.107	0.142
-404.267	81.197	-0.424	-0.451
-403.252	800.000	0.157	-0.506
-402.238	252.776	-0.080	-0.135
-401.223	413.281	0.120	0.252
-400.209	-200.000	0.038	-0.180
-399.194	-42.966	-0.345	0.172
-398.179	-114.294	0.288	-0.055
-397.165	-200.000	0.041	-0.187
-396.150	-69.825	0.072	0.027
-395.136	318.981	-0.111	0.207
-394.121	-200.000	0.460	0.000
-393.106	23.516	-0.243	-0.196
-392.092	-200.000	0.314	-0.001
-391.077	-28.078	-0.212	0.120
-390.063	659.010	-0.069	-0.173
-389.048	524.271	-0.034	-0.078
-388.033	-136.549	0.292	-0.033
-387.019	-51.427	-0.227	0.104
-386.004	-103.818	0.368	0.085
-384.990	800.000	-0.035	-0.119
-383.975	-14.673	0.031	0.020
-382.960	131.110	0.168	-0.212
-381.946	-44.238	-0.285	0.140
-380.931	275.266	-0.076	-0.132
-379.917	-90.375	-0.182	0.052
-378.902	-99.245	0.245	0.061
-377.888	-200.000	-0.019	-0.181
-376.873	-129.633	0.136	-0.019
-375.858	800.000	0.120	0.427
-374.844	-200.000	0.033	0.152
-373.829	-200.000	-0.010	0.260
-372.815	-200.000	-0.005	-0.060
-371.800	800.000	0.019	-0.069
-370.785	800.000	0.082	-0.255
-369.771	-200.000	-0.025	0.109
-368.756	171.783	-0.162	0.229
-367.742	-104.586	0.085	-0.019
-366.727	800.000	0.080	0.298
-365.712	-63.880	0.182	-0.073
-364.698	-43.117	-0.015	-0.007
-363.683	-200.000	0.021	-0.172
-362.669	-42.583	-0.121	-0.061
-361.654	-138.073	0.237	-0.026
-360.639	-103.890	0.112	0.026
-359.625	300.096	-0.159	-0.288
-358.610	59.930	0.067	-0.065
-357.596	-50.824	-0.111	0.051
-356.581	-127.736	0.576	0.082
-355.566	177.983	-0.025	0.035
-354.552	800.000	0.046	-0.128
-353.537	-36.959	0.221	-0.116
-352.523	-100.746	-0.264	-0.064
-351.508	48.288	0.056	-0.052
-350.493	229.314	0.179	0.287
-349.479	-200.000	-0.036	0.181
-348.464	800.000	-0.025	-0.086
-347.450	265.528	-0.105	0.180
-346.435	800.000	0.067	-0.236
-345.420	-200.000	0.010	-0.148
-344.406	-156.154	0.089	0.006
-343.391	-115.885	-0.268	0.049
-342.377	26.732	-0.202	0.166
-341.362	800.000	-0.110	0.305
-340.348	800.000	0.032	0.099
-339.333	399.123	-0.064	0.131
-338.318	800.000	0.047	0.185
-337.304	416.373	0.136	0.284
-336.289	-200.000	0.036	-0.169
-335.275	-200.000	-0.012	-0.139
-334.260	-76.833	-0.417	-0.143
-333.245	121.870	-0.147	0.180
-332.231	-138.412	0.287	-0.031
-331.216	115.561	0.139	0.166
-330.202	800.000	-0.046	-0.138
-329.187	-103.938	0.280	0.064
-328.172	322.052	-0.025	0.047
-327.158	-96.049	0.112	-0.029
-326.143	-200.000	0.007	-0.103
-325.129	15.340	0.038	-0.030
-324.114	-200.000	0.038	-0.178
-323.099	-45.459	-0.116	-0.057
-322.085	-138.003	0.188	-0.021
-321.070	-11.413	0.260	0.168
-320.056	-200.000	0.000	0.104
-319.041	800.000	0.039	-0.143
-318.026	-200.000	0.025	0.163
-317.012	-125.512	0.095	0.014
-315.997	-79.661	0.135	0.045
-314.983	-200.000	-0.038	0.405
-313.968	-67.188	0.384	0.148
-312.953	-200.000	0.008	0.038
-311.939	-200.000	0.009	0.047
-310.924	45.839	0.043	0.039
-309.910	-200.000	-0.013	0.108
-308.895	536.482	0.127	0.297
-307.880	21.059	-0.412	0.328
-306.866	-37.665	-0.071	-0.037
-305.851	54.878	0.225	-0.213
-304.837	2.708	-0.180	0.128
-303.822	-200.000	-0.022	0.374
-302.807	8.050	0.117	0.086
-301.793	220.354	-0.181	0.285
-300.778	-105.083	-0.080	0.018
-299.764	-97.581	0.119	0.030
-298.749	-200.000	0.019	-0.143
-297.735	-200.000	-0.026	-0.249
-296.720	394.723	0.119	0.242
-295.705	-28.243	0.160	-0.091
-294.691	177.833	0.191	-0.273
-293.676	606.586	-0.112	0.273
-292.662	800.000	0.004	0.018
-291.647	-200.000	0.038	-0.251
-290.632	-200.000	-0.037	0.212
-289.618	-35.639	0.366	0.194
-288.603	-200.000	0.016	0.105
-287.589	-98.983	-0.321	-0.080
-286.574	-151.688	0.272	0.020
-285.559	236.139	0.201	-0.325
-284.545	-31.370	-0.340	-0.187
-283.530	-200.000	-0.030	-0.220
-282.516	265.599	-0.145	-0.247
-281.501	-200.000	-0.005	0.033
-280.486	800.000	-0.090	-0.260
-279.472	35.404	-0.302	0.260
-278.457	-200.000	0.013	-0.241
-277.443	-200.000	-0.027	-0.212
-276.428	42.292	-0.231	0.205
-275.413	166.749	-0.189	-0.262
-274.399	112.188	0.090	-0.107
-273.384	800.000	-0.034	0.137
-272.370	84.152	0.158	0.169
-271.355	105.210	0.288	0.333
-270.340	12.544	-0.026	0.019
-269.326	182.843	-0.083	0.120
-268.311	20.637	-0.112	0.089
-267.297	111.258	0.093	-0.110
-266.282	706.034	0.112	-0.288
-265.267	114.770	0.073	0.087
-264.253	220.406	0.095	0.149
-263.238	-58.184	-0.188	0.080
-262.224	-155.700	0.271	-0.017
-261.209	121.909	0.179	-0.219
-260.195	68.387	0.064	0.064
-259.180	-102.174	-0.221	-0.052
-258.165	2.927	-0.068	-0.048
-257.151	312.686	0.178	0.326
-256.136	162.889	-0.098	0.135
-255.122	800.000	0.034	0.127
-254.107	203.310	-0.159	0.241
-253.092	-16.632	-0.098	-0.061
-252.078	-11.208	-0.131	0.084
-251.063	-61.969	0.152	-0.062
-250.049	-87.032	0.423	-0.126
-249.034	79.457	-0.206	0.217
-248.019	-94.241	-0.291	0.078
-247.005	-200.000	0.075	0.394
-245.990	57.772	0.218	-0.209
-244.976	-200.000	0.022	-0.441
-243.961	201.799	0.187	-0.282
-242.946	32.428	0.168	-0.142
-241.932	-200.000	0.004	0.143
-240.917	45.695	0.243	0.220
-239.903	800.000	-0.034	-0.097
-238.888	-155.679	0.205	-0.013
-237.873	16.287	0.077	-0.059
-236.859	800.000	-0.076	-0.270
-235.844	-81.932	-0.165	0.053
-234.830	-87.903	0.334	0.098
-233.815	800.000	0.065	0.249
-232.800	175.572	0.029	-0.041
-231.786	-98.879	-0.021	0.005
-230.771	-128.234	0.044	-0.006
-229.757	-22.413	-0.151	-0.090
-228.742	-136.016	0.278	0.032
-227.727	-126.768	-0.211	-0.031
-226.713	-174.026	0.019	-0.001
-225.698	-1.074	-0.209	-0.144
-224.684	-1.043	-0.301	-0.208
-223.669	-200.000	-0.029	0.257
-222.655	425.114	-0.206	-0.434
-221.640	-37.150	-0.134	0.070
-220.625	800.000	0.052	-0.214
-219.611	625.601	-0.075	0.185
-218.596	-16.855	0.067	-0.041
-217.582	513.915	0.029	0.067
-216.567	-131.626	0.171	-0.022
-215.552	800.000	0.068	-0.193
-214.538	554.772	0.064	0.149
-213.523	-200.000	0.009	0.385
-212.509	-86.745	-0.227	-0.068
-211.494	-200.000	0.069	-0.357
-210.479	-200.000	-0.012	0.271
-209.465	22.315	0.077	-0.061
-208.450	795.233	-0.033	-0.090
-207.436	-76.202	0.127	-0.044
-206.421	18.478	-0.153	-0.119
-205.406	161.774	-0.106	0.145
-204.392	-200.000	-0.029	-0.127
-203.377	143.458	-0.145	-0.188
-202.363	-200.000	0.033	0.461
-201.348	275.869	-0.058	0.101
-200.333	-63.110	-0.099	0.040
-199.319	800.000	0.064	0.203
-198.304	128.018	0.007	0.009
-197.290	-200.000	0.048	0.334
-196.275	419.634	0.049	-0.102
-195.260	-117.800	-0.351	0.062
-194.246	-200.000	0.015	-0.170
-193.231	-26.001	0.410	-0.235
-192.217	-200.000	-0.002	0.423
-191.202	89.771	-0.058	0.063
-190.187	-200.000	-0.018	0.092
-189.173	-91.183	0.262	0.073
-188.158	-200.000	0.018	0.131
-187.144	-52.790	-0.274	-0.123
-186.129	800.000	-0.081	0.228
-185.114	800.000	0.119	0.332
-184.100	-82.495	0.246	-0.078
-183.085	-86.060	-0.229	0.069
-182.071	800.000	0.030	0.121
-181.056	-28.140	-0.164	-0.092
-180.042	-88.998	-0.303	0.088
-179.027	85.388	-0.127	-0.136
-178.012	9.605	-0.208	0.154
-176.998	-200.000	-0.058	-0.257
-175.983	186.791	-0.180	0.261
-174.969	436.554	-0.145	-0.308
-173.954	610.444	-0.096	-0.235
-172.939	-200.000	-0.025	0.153
-171.925	800.000	0.053	0.158
-170.910	12.941	-0.244	-0.184
-169.896	-37.387	0.395	0.206
-168.881	3.492	0.210	0.149
-167.866	-200.000	0.053	-0.406
-166.852	74.603	0.316	0.324
-165.837	17.398	-0.242	-0.187
-164.823	-63.144	-0.139	-0.056
-163.808	-90.722	-0.066	-0.019
-162.793	-200.000	0.046	0.202
-161.779	-29.392	0.060	-0.033
-160.764	-200.000	-0.018	-0.221
-159.750	-46.566	-0.234	0.112
-158.735	-14.420	-0.135	-0.085
-157.720	168.699	-0.159	-0.221
-156.706	-200.000	0.049	0.267
-155.691	65.715	-0.154	-0.152
-154.677	-139.252	-0.138	0.014
-153.662	800.000	-0.044	-0.175
-152.647	-200.000	0.007	-0.129
-151.633	81.109	-0.047	0.049
-150.618	800.000	-0.028	-0.082
-149.604	-200.000	0.018	0.189
-148.589	800.000	0.059	-0.198
-147.574	-200.000	0.020	-0.304
-146.560	-100.381	-0.339	-0.082
-145.545	797.992	-0.111	0.297
-144.531	-200.000	0.016	0.102
-143.516	-200.000	-0.013	-0.227
-142.502	107.411	0.109	-0.126
-141.487	-94.160	-0.113	0.030
-140.472	269.150	-0.053	0.091
-139.458	-62.845	0.413	-0.166
-138.443	43.996	-0.098	-0.088
-137.429	269.877	0.057	0.098
-136.414	-101.627	-0.078	-0.018
-135.399	208.898	0.086	-0.131
-134.385	-84.589	0.052	-0.016
-133.370	-47.694	-0.189	-0.089
-132.356	275.702	0.241	0.417
-131.341	-200.000	-0.012	0.180
-130.326	-200.000	-0.006	0.273
-129.312	-42.720	0.148	0.073
-128.297	-74.834	0.256	0.090
-127.283	-4.549	-0.380	0.256
-126.268	232.579	-0.061	-0.097
-125.253	-23.175	-0.243	0.142
-124.239	800.000	0.062	-0.261
-123.224	36.887	-0.214	0.184
-122.210	156.284	0.045	-0.060
