DTS Sentinel unit serial number:	SN413079Multiplexer serial number:	ORYXHardware model number:	OX4-SRSoftware version number:	ORYX F/W v4.00 Oryx Data Collector v3.7.2.0data status	okinstallation	princeton_trtdifferential loss correction	single-endedforward channel	channel 2reverse channel	N/Adate	2019/09/10time	19:33:11forward acquisition time	60.00reverse acquisition time	0.00gamma	496.2192k internal	0.2326k external	0.2326temperature offset calibration	0.9940default loss term (dB/km)	0.3790temperature slope calibration	1.0000multiplexer offset coefficient	1.0000multiplexer slope coefficient	1.0000fibre end	0.00T internal ref (°C)	33.39T ext. ref 1 (°C)	-0.38T ext. ref 2 (°C)	26.02length (m)	temperature (°C)	Stokes	anti-Stokes-747.200	-124.712	0.123	0.019
-746.185	692.003	-0.253	0.670
-745.171	430.863	0.125	0.274
-744.156	-200.000	0.129	0.000
-743.142	-80.314	-0.262	0.088
-742.127	190.263	0.168	-0.255
-741.112	-200.000	-0.018	-0.108
-740.098	-30.291	-0.273	0.157
-739.083	297.835	-0.119	-0.220
-738.069	-89.659	-0.313	0.092
-737.054	800.000	-0.021	0.089
-736.039	-118.426	-0.416	0.074
-735.025	-102.137	0.249	0.060
-734.010	31.956	-0.059	0.052
-732.996	-41.461	0.237	-0.123
-731.981	-200.000	-0.316	0.001
-730.966	-111.135	-0.257	-0.053
-729.952	155.076	-0.187	0.260
-728.937	-5.596	0.193	-0.133
-727.923	111.658	0.150	-0.182
-726.908	125.297	0.060	0.077
-725.894	496.676	0.113	-0.262
-724.879	8.174	-0.107	-0.081
-723.864	84.255	-0.214	0.235
-722.850	-64.245	0.439	-0.180
-721.835	-200.000	0.012	-0.288
-720.821	438.087	-0.149	-0.328
-719.806	800.000	-0.086	-0.271
-718.791	-70.285	-0.182	-0.070
-717.777	11.573	-0.067	-0.052
-716.762	-200.000	-0.028	0.172
-715.748	132.312	0.057	-0.074
-714.733	-200.000	0.002	0.159
-713.718	-143.115	0.242	-0.023
-712.704	-200.000	0.008	-0.087
-711.689	46.141	-0.061	-0.057
-710.675	306.605	-0.087	0.163
-709.660	800.000	0.058	-0.166
-708.645	10.812	-0.178	-0.137
-707.631	789.339	0.038	0.105
-706.616	-69.663	-0.175	0.067
-705.602	-80.857	-0.209	0.070
-704.587	-107.781	-0.058	0.013
-703.572	-200.000	0.012	-0.088
-702.558	-31.418	-0.055	-0.031
-701.543	800.000	0.077	-0.239
-700.529	-200.000	0.006	-0.044
-699.514	-200.000	-0.017	-0.254
-698.499	113.343	-0.169	-0.207
-697.485	-158.570	-0.241	-0.014
-696.470	355.012	0.123	0.246
-695.456	144.651	0.166	0.223
-694.441	-9.893	-0.159	0.106
-693.426	523.883	-0.128	-0.303
-692.412	690.085	0.008	-0.020
-691.397	800.000	0.142	-0.471
-690.383	270.397	-0.085	-0.150
-689.368	-91.590	-0.186	0.053
-688.354	800.000	0.153	-0.486
-687.339	56.053	-0.158	-0.154
-686.324	-121.596	-0.130	-0.022
-685.310	57.547	0.252	0.248
-684.295	202.840	0.060	0.094
-683.281	469.331	0.160	-0.361
-682.266	-65.882	-0.107	-0.043
-681.251	-200.000	0.080	0.447
-680.237	-136.728	-0.200	-0.023
-679.222	800.000	0.074	-0.224
-678.208	-114.727	0.164	0.032
-677.193	-57.784	-0.173	-0.076
-676.178	-200.000	-0.012	-0.210
-675.164	-200.000	-0.039	-0.182
-674.149	202.358	0.049	0.076
-673.135	-52.268	0.111	0.052
-672.120	231.319	0.084	0.139
-671.105	-68.022	-0.047	0.018
-670.091	-200.000	0.004	-0.144
-669.076	-33.908	-0.287	0.159
-668.062	97.454	-0.218	-0.252
-667.047	597.721	0.063	-0.158
-666.032	288.121	-0.173	-0.315
-665.018	800.000	-0.084	-0.263
-664.003	172.304	-0.053	0.077
-662.989	-70.906	-0.168	-0.064
-661.974	-200.000	-0.016	-0.143
-660.959	44.303	0.145	0.133
-659.945	-200.000	0.031	0.164
-658.930	49.665	0.088	-0.083
-657.916	-200.000	0.022	-0.153
-656.901	235.995	0.076	-0.126
-655.886	75.571	-0.201	-0.214
-654.872	325.715	0.109	-0.209
-653.857	-6.219	-0.136	0.093
-652.843	-200.000	-0.008	-0.455
-651.828	-24.401	-0.271	-0.162
-650.814	135.026	0.209	-0.273
-649.799	-147.652	-0.501	0.042
-648.784	623.317	-0.032	0.081
-647.770	-78.573	0.128	-0.044
-646.755	-74.305	-0.219	0.080
-645.741	-174.838	-0.327	0.009
-644.726	-69.429	-0.239	0.092
-643.711	-48.720	-0.153	0.074
-642.697	-19.078	0.344	0.215
-641.682	-200.000	-0.079	0.430
-640.668	94.789	-0.190	0.217
-639.653	-200.000	0.000	-0.198
-638.638	-200.000	-0.011	-0.115
-637.624	-169.586	-0.132	-0.005
-636.609	-52.866	0.133	-0.062
-635.595	-200.000	-0.069	-0.401
-634.580	-200.000	-0.016	-0.171
-633.565	-84.277	0.130	-0.041
-632.551	-99.841	-0.257	0.065
-631.536	-143.078	-0.464	0.045
-630.522	-190.918	-0.259	-0.003
-629.507	-200.000	-0.004	-0.099
-628.492	-68.108	0.386	-0.151
-627.478	-200.000	0.030	-0.171
-626.463	18.619	0.417	-0.335
-625.449	-18.085	-0.073	0.046
-624.434	-200.000	-0.027	0.133
-623.419	134.544	0.055	-0.072
-622.405	-29.546	-0.285	-0.164
-621.390	800.000	0.099	0.276
-620.376	13.020	0.194	-0.150
-619.361	125.377	0.247	-0.313
-618.346	-200.000	-0.059	-0.354
-617.332	403.569	-0.061	0.128
-616.317	-90.657	-0.256	0.074
-615.303	182.505	0.098	0.145
-614.288	250.078	0.090	-0.154
-613.273	46.004	-0.218	-0.202
-612.259	712.251	-0.095	-0.252
-611.244	37.816	-0.125	0.112
-610.230	-107.924	-0.036	0.008
-609.215	-166.016	-0.244	-0.010
-608.201	-73.194	0.315	0.116
-607.186	-94.933	0.244	0.066
-606.171	-200.000	-0.002	-0.080
-605.157	419.564	0.143	0.306
-604.142	-75.126	-0.245	0.088
-603.128	-200.000	-0.018	0.259
-602.113	800.000	-0.059	0.199
-601.098	251.733	-0.201	0.344
-600.084	-143.843	0.388	0.037
-599.069	-116.637	-0.546	-0.101
-598.055	-37.079	-0.225	-0.121
-597.040	-66.665	-0.300	-0.119
-596.025	-109.255	0.364	-0.077
-595.011	632.924	0.070	0.178
-593.996	114.924	0.098	-0.120
-592.982	80.145	0.277	-0.299
-591.967	374.134	0.165	-0.337
-590.952	800.000	-0.062	0.188
-589.938	-68.788	-0.237	-0.092
-588.923	742.989	-0.014	-0.038
-587.909	800.000	-0.038	0.124
-586.894	-37.023	0.058	0.031
-585.879	-94.978	-0.152	-0.041
-584.865	800.000	0.072	-0.215
-583.850	-200.000	0.014	0.232
-582.836	94.419	-0.046	-0.053
-581.821	78.860	-0.215	-0.231
-580.806	-85.294	-0.159	-0.050
-579.792	-200.000	-0.026	0.169
-578.777	266.662	-0.194	0.339
-577.763	18.297	-0.242	0.194
-576.748	77.152	0.116	-0.123
-575.733	101.385	-0.174	-0.203
-574.719	-200.000	0.024	-0.135
-573.704	-200.000	0.011	-0.368
-572.690	-109.562	0.083	-0.018
-571.675	-116.467	0.220	0.041
-570.661	612.970	0.070	-0.174
-569.646	-200.000	0.032	0.221
-568.631	-200.000	-0.035	-0.235
-567.617	-113.505	0.167	-0.033
-566.602	407.837	0.064	0.135
-565.588	800.000	0.072	-0.235
-564.573	73.868	-0.030	0.032
-563.558	-200.000	-0.005	0.336
-562.544	-102.411	0.291	0.070
-561.529	800.000	0.039	-0.168
-560.515	-103.506	0.267	-0.063
-559.500	800.000	-0.021	-0.086
-558.485	-9.453	-0.480	0.321
-557.471	120.460	-0.030	-0.037
-556.456	97.046	-0.134	-0.154
-555.442	289.592	0.235	0.427
-554.427	205.766	-0.057	-0.089
-553.412	-200.000	0.003	-0.032
-552.398	-200.000	-0.008	-0.138
-551.383	-155.881	-0.236	0.015
-550.369	-200.000	-0.039	-0.252
-549.354	-17.373	0.094	-0.060
-548.339	401.249	-0.053	-0.111
-547.325	287.043	0.215	-0.389
-546.310	-200.000	0.005	-0.044
-545.296	-200.000	0.029	0.306
-544.281	-138.698	-0.100	-0.011
-543.266	114.067	0.237	-0.289
-542.252	-114.890	-0.352	0.067
-541.237	322.891	-0.055	0.106
-540.223	-35.045	-0.275	0.150
-539.208	-113.071	0.106	0.021
-538.193	-35.731	0.062	-0.034
-537.179	-200.000	-0.047	-0.215
-536.164	172.993	-0.079	-0.114
-535.150	122.431	-0.163	0.204
-534.135	-200.000	0.003	-0.063
-533.121	-76.062	-0.246	-0.087
-532.106	24.117	-0.177	-0.146
-531.091	180.206	0.086	0.126
-530.077	339.999	-0.154	0.301
-529.062	155.732	0.096	0.132
-528.048	9.174	-0.163	0.123
-527.033	-157.960	-0.265	0.016
-526.018	800.000	-0.011	0.043
-525.004	-7.207	-0.176	-0.120
-523.989	800.000	0.035	0.114
-522.975	140.192	-0.053	-0.070
-521.960	-79.664	0.024	-0.008
-520.945	185.584	-0.043	-0.065
-519.931	-200.000	0.017	0.157
-518.916	800.000	0.026	0.111
-517.902	-43.391	-0.107	0.054
-516.887	167.336	0.048	0.068
-515.872	-86.465	-0.178	0.055
-514.858	-39.010	0.186	0.098
-513.843	-132.678	-0.363	0.046
-512.829	59.367	-0.034	0.034
-511.814	-122.880	0.124	-0.020
-510.799	-116.824	0.136	-0.025
-509.785	-100.764	-0.029	-0.007
-508.770	-200.000	-0.010	-0.216
-507.756	-18.781	0.169	-0.105
-506.741	4.134	0.088	0.064
-505.726	407.128	-0.197	0.417
-504.712	79.580	-0.083	0.089
-503.697	206.712	-0.068	-0.105
-502.683	35.066	-0.156	-0.137
-501.668	-108.200	-0.120	-0.026
-500.653	-70.460	-0.131	0.050
-499.639	5.625	-0.153	0.113
-498.624	-163.485	0.193	0.009
-497.610	-200.000	-0.022	0.319
-496.595	-19.320	-0.284	0.176
-495.581	-94.354	0.075	0.020
-494.566	800.000	0.020	-0.063
-493.551	26.018	-0.064	0.053
-492.537	-84.872	-0.008	0.003
-491.522	-6.417	-0.167	-0.114
-490.508	-200.000	-0.032	-0.251
-489.493	-102.748	-0.485	0.115
-488.478	-97.227	-0.193	-0.050
-487.464	462.224	0.064	0.143
-486.449	15.282	-0.260	-0.203
-485.435	-39.062	-0.082	-0.043
-484.420	-200.000	0.019	0.166
-483.405	-58.301	0.332	-0.144
-482.391	-149.595	0.240	-0.019
-481.376	-200.000	-0.042	-0.210
-480.362	-174.770	-0.056	0.002
-479.347	-171.132	-0.442	-0.015
-478.332	-53.458	-0.121	0.055
-477.318	-200.000	0.042	0.310
-476.303	-200.000	0.013	0.141
-475.289	800.000	0.054	0.175
-474.274	1.308	-0.210	-0.150
-473.259	43.305	0.091	0.083
-472.245	-24.749	0.081	0.048
-471.230	-200.000	0.014	0.226
-470.216	421.765	0.159	-0.339
-469.201	-200.000	0.060	0.287
-468.186	800.000	0.055	0.174
-467.172	10.950	0.203	0.155
-466.157	-68.885	0.141	0.054
-465.143	-2.075	-0.123	0.086
-464.128	-92.078	0.275	0.078
-463.113	800.000	0.020	-0.068
-462.099	120.920	0.137	0.170
-461.084	-117.951	0.156	0.028
-460.070	-200.000	0.005	-0.130
-459.055	-65.231	0.083	-0.033
-458.040	41.515	0.108	-0.097
-457.026	-120.646	-0.167	0.028
-456.011	187.322	0.098	0.145
-454.997	779.332	-0.012	-0.034
-453.982	178.345	-0.139	-0.202
-452.968	-108.621	0.147	-0.032
-451.953	800.000	0.071	0.241
-450.938	195.763	0.062	-0.094
-449.924	51.204	0.136	0.128
-448.909	800.000	0.068	0.204
-447.895	-200.000	0.003	0.166
-446.880	283.344	0.072	0.130
-445.865	-200.000	-0.014	-0.202
-444.851	162.328	0.131	-0.183
-443.836	-104.524	-0.154	0.035
-442.822	124.051	0.116	-0.145
-441.807	800.000	-0.072	0.254
-440.792	-48.578	-0.118	-0.057
-439.778	275.240	0.176	-0.311
-438.763	-83.925	0.071	-0.022
-437.749	44.218	-0.157	-0.144
-436.734	79.452	0.159	-0.169
-435.719	-26.069	-0.067	-0.039
-434.705	-13.951	0.108	0.070
-433.690	-39.512	0.178	-0.093
-432.676	-104.484	-0.198	-0.046
-431.661	-117.217	-0.253	0.046
-430.646	-155.621	0.393	-0.025
-429.632	-153.701	0.177	0.012
-428.617	-50.349	-0.074	0.035
-427.603	-120.472	-0.034	0.006
-426.588	22.456	-0.278	-0.227
-425.573	800.000	-0.031	0.092
-424.559	800.000	-0.080	0.266
-423.544	545.725	-0.039	-0.092
-422.530	-1.408	0.165	-0.116
-421.515	-66.491	0.089	0.035
-420.500	-19.556	0.196	-0.121
-419.486	96.928	-0.211	0.241
-418.471	-169.948	-0.031	-0.001
-417.457	347.541	-0.034	0.066
-416.442	-15.846	-0.021	0.014
-415.428	800.000	0.048	-0.167
-414.413	-200.000	-0.028	0.264
-413.398	203.069	0.085	0.131
-412.384	-200.000	-0.001	0.045
-411.369	329.750	-0.082	0.157
-410.355	169.335	-0.100	0.143
-409.340	73.842	0.063	0.066
-408.325	-200.000	0.006	0.207
-407.311	800.000	0.080	0.298
-406.296	98.543	-0.116	0.133
-405.282	-139.984	-0.189	0.020
-404.267	269.844	0.087	0.153
-403.252	-104.834	-0.325	0.074
-402.238	-57.004	0.078	-0.034
-401.223	-83.116	0.173	-0.055
-400.209	-200.000	-0.032	-0.274
-399.194	40.342	-0.080	0.072
-398.179	-74.549	-0.216	-0.077
-397.165	-98.651	0.183	-0.046
-396.150	-91.788	0.238	-0.067
-395.136	-69.935	-0.306	-0.116
-394.121	800.000	0.027	0.116
-393.106	800.000	-0.043	-0.136
-392.092	-200.000	0.018	-0.431
-391.077	-25.224	0.267	0.157
-390.063	-18.563	0.020	0.012
-389.048	-200.000	-0.024	-0.121
-388.033	-200.000	-0.020	-0.089
-387.019	56.202	0.190	-0.183
-386.004	187.396	-0.167	0.248
-384.990	-16.969	0.104	0.065
-383.975	229.256	0.103	-0.168
-382.960	-51.205	0.211	-0.098
-381.946	266.911	0.120	0.208
-380.931	152.333	-0.035	0.048
-379.917	-42.110	0.377	0.192
-378.902	-200.000	0.026	-0.134
-377.888	40.639	-0.131	0.117
-376.873	1.336	-0.274	-0.196
-375.858	-30.783	-0.155	-0.087
-374.844	800.000	-0.042	0.167
-373.829	800.000	-0.069	0.279
-372.815	61.279	0.076	0.075
-371.800	54.426	0.144	-0.138
-370.785	800.000	-0.060	0.166
-369.771	79.324	0.124	-0.132
-368.756	79.858	0.165	-0.176
-367.742	-200.000	-0.041	0.236
-366.727	-81.707	0.149	0.049
-365.712	-30.612	-0.113	0.064
-364.698	-200.000	-0.009	-0.051
-363.683	437.276	-0.176	-0.381
-362.669	154.585	0.090	0.123
-361.654	-69.422	-0.251	-0.096
-360.639	699.687	-0.046	0.121
-359.625	52.293	0.171	0.162
-358.610	96.424	-0.053	0.060
-357.596	556.303	0.136	0.325
-356.581	15.811	-0.049	-0.039
-355.566	391.946	-0.136	0.282
-354.552	-107.613	-0.177	0.038
-353.537	308.065	0.105	-0.195
-352.523	800.000	0.054	0.168
-351.508	-200.000	0.006	0.119
-350.493	-35.752	0.230	0.124
-349.479	81.754	-0.297	-0.319
-348.464	-200.000	-0.021	0.131
-347.450	-117.341	0.474	-0.085
-346.435	353.070	-0.117	0.231
-345.420	-78.998	-0.080	0.027
-344.406	74.621	0.152	0.159
-343.391	77.885	0.223	-0.236
-342.377	-163.455	-0.202	-0.010
-341.362	-87.602	-0.056	0.017
-340.348	-94.563	0.208	0.056
-339.333	183.780	0.107	0.157
-338.318	531.688	0.096	0.226
-337.304	-116.387	0.074	-0.014
-336.289	7.645	-0.348	0.258
-335.275	84.920	0.151	0.165
-334.260	30.408	0.172	0.146
-333.245	800.000	0.094	-0.260
-332.231	-56.436	-0.189	-0.083
-331.216	-117.908	0.360	0.064
-330.202	-123.724	0.307	0.048
-329.187	-55.517	0.208	-0.092
-328.172	110.440	0.194	-0.231
-327.158	207.056	-0.032	0.050
-326.143	80.707	-0.144	0.154
-325.129	143.696	-0.046	0.060
-324.114	800.000	0.118	-0.372
-323.099	-106.960	0.120	-0.026
-322.085	-42.395	0.215	-0.109
-321.070	112.519	-0.082	-0.099
-320.056	800.000	-0.025	0.090
-319.041	-200.000	-0.001	0.056
-318.026	44.947	0.204	0.186
-317.012	-112.721	0.090	0.018
-315.997	44.043	0.128	-0.117
-314.983	-200.000	0.024	-0.187
-313.968	-200.000	-0.032	0.157
-312.953	67.341	0.159	-0.161
-311.939	-12.425	-0.230	0.149
-310.924	43.424	0.263	0.239
-309.910	-5.177	-0.186	-0.127
-308.895	-104.480	0.118	0.027
-307.880	132.234	-0.093	0.118
-306.866	-53.221	-0.086	-0.039
-305.851	312.683	-0.147	0.274
-304.837	-200.000	-0.026	0.212
-303.822	53.431	0.134	-0.127
-302.807	108.964	-0.043	0.050
-301.793	-168.917	-0.129	-0.005
-300.778	30.084	-0.193	-0.163
-299.764	401.188	0.181	-0.376
-298.749	60.410	0.120	-0.118
-297.735	615.603	0.084	0.209
-296.720	-183.613	-0.257	0.004
-295.705	-18.029	0.233	-0.145
-294.691	45.389	-0.189	0.173
-293.676	248.233	-0.139	-0.233
-292.662	-80.114	0.267	0.089
-291.647	-198.039	0.161	-0.001
-290.632	-200.000	-0.024	0.136
-289.618	-120.874	0.054	-0.009
-288.603	-166.823	-0.296	-0.012
-287.589	665.254	0.056	0.143
-286.574	-134.471	-0.151	-0.018
-285.559	91.664	-0.170	0.189
-284.545	82.503	0.060	-0.065
-283.530	72.023	0.142	-0.146
-282.516	-151.183	-0.155	0.011
-281.501	-118.060	-0.070	-0.012
-280.486	-200.000	-0.034	0.364
-279.472	-75.647	0.177	-0.062
-278.457	105.043	-0.086	0.100
-277.443	264.739	-0.175	0.301
-276.428	-43.498	0.306	-0.153
-275.413	113.553	0.078	0.094
-274.399	58.093	-0.073	0.071
-273.384	70.179	-0.238	-0.244
-272.370	75.957	-0.124	-0.129
-271.355	322.887	0.028	-0.053
-270.340	7.311	0.256	0.190
-269.326	-115.768	0.038	0.007
-268.311	800.000	-0.039	0.159
-267.297	-200.000	-0.037	-0.312
-266.282	-200.000	0.010	0.189
-265.267	-71.260	-0.237	0.088
-264.253	261.614	0.071	-0.122
-263.238	15.190	-0.127	0.099
-262.224	112.599	-0.095	0.114
-261.209	488.920	-0.020	-0.046
-260.195	-12.585	0.230	-0.148
-259.180	-146.788	0.331	0.028
-258.165	192.197	0.201	-0.299
-257.151	-200.000	0.046	-0.292
-256.136	3.171	-0.144	-0.103
-255.122	137.425	0.023	-0.030
-254.107	200.967	0.181	-0.276
-253.092	-200.000	0.010	0.151
-252.078	-200.000	-0.025	0.216
-251.063	177.979	-0.114	-0.165
-250.049	-200.000	0.067	-0.301
-249.034	51.241	0.178	-0.167
-248.019	-200.000	0.002	-0.163
-247.005	234.324	-0.206	0.337
-245.990	22.487	-0.136	0.110
-244.976	-67.954	-0.113	-0.044
-243.961	800.000	0.130	-0.380
-242.946	-84.210	-0.238	0.075
-241.932	-200.000	-0.029	-0.204
-240.917	-200.000	-0.032	0.181
-239.903	-12.991	0.157	-0.101
-238.888	-45.567	0.262	0.128
-237.873	-58.843	0.189	0.081
-236.859	800.000	-0.012	-0.046
-235.844	35.140	0.289	-0.250
-234.830	-88.483	-0.188	0.056
-233.815	-2.301	0.311	0.216
-232.800	147.458	0.173	0.231
-231.786	81.598	0.106	0.113
-230.771	399.561	-0.170	-0.352
-229.757	-200.000	0.007	0.054
-228.742	-200.000	0.005	-0.038
-227.727	347.590	-0.095	0.186
-226.713	31.832	-0.198	0.168
-225.698	800.000	-0.048	0.162
-224.684	251.919	-0.248	-0.417
-223.669	-40.495	-0.321	-0.165
-222.655	-74.751	-0.280	-0.099
-221.640	-200.000	-0.027	-0.299
-220.625	339.122	0.143	0.276
-219.611	-100.958	0.161	0.039
-218.596	-200.000	0.012	0.127
-217.582	622.101	-0.058	0.144
-216.567	233.232	-0.251	0.408
-215.552	800.000	0.074	0.206
-214.538	15.099	-0.190	0.147
-213.523	6.956	0.288	-0.212
-212.509	735.616	-0.045	-0.118
-211.494	-171.721	0.148	0.005
-210.479	-128.402	0.194	-0.027
-209.465	-200.000	-0.019	-0.143
-208.450	-109.132	0.083	0.017
-207.436	-122.301	-0.160	-0.026
-206.421	-200.000	0.016	-0.369
-205.406	-200.000	0.057	-0.254
-204.392	306.736	-0.061	-0.112
-203.377	71.110	0.129	-0.133
-202.363	178.276	-0.126	-0.182
-201.348	-200.000	0.053	0.237
-200.333	6.953	0.251	0.185
-199.319	-61.222	-0.287	-0.120
-198.304	-29.184	-0.047	0.027
-197.290	-44.374	0.262	-0.129
-196.275	-200.000	-0.008	-0.121
-195.260	-47.456	0.239	-0.115
-194.246	-111.707	0.089	0.018
-193.231	-133.028	-0.016	-0.002
-192.217	-103.610	-0.094	0.022
-191.202	15.722	-0.218	0.170
-190.187	-86.110	-0.136	-0.041
-189.173	13.969	-0.061	-0.047
-188.158	83.990	0.251	0.271
-187.144	69.096	0.264	-0.268
-186.129	237.246	-0.087	-0.142
-185.114	-200.000	0.025	0.134
-184.100	-13.784	0.060	-0.038
-183.085	-200.000	-0.008	-0.287
-182.071	493.678	-0.162	-0.367
-181.056	40.826	0.102	-0.090
-180.042	436.019	-0.111	-0.238
-179.027	-59.057	0.147	0.062
-178.012	-104.949	0.317	-0.072
-176.998	-29.712	0.271	0.153
-175.983	-200.000	0.003	0.143
-174.969	-82.225	0.231	-0.074
-173.954	67.484	-0.158	0.159
-172.939	195.120	-0.055	0.083
-171.925	-141.310	0.381	0.038
-170.910	-125.220	0.346	0.052
-169.896	480.185	0.132	-0.294
-168.881	287.341	0.205	-0.365
-167.866	-158.663	-0.164	0.009
-166.852	-20.105	0.046	-0.028
-165.837	800.000	0.051	0.213
-164.823	-200.000	0.005	0.060
-163.808	800.000	0.049	0.136
-162.793	68.180	0.089	-0.090
-161.779	-200.000	-0.019	-0.231
-160.764	537.907	0.061	-0.144
-159.750	287.687	-0.050	-0.089
-158.735	-97.792	-0.318	0.081
-157.720	-191.101	-0.078	-0.001
-156.706	172.159	-0.077	-0.108
-155.691	87.167	0.170	-0.185
-154.677	62.065	-0.178	-0.175
-153.662	553.941	0.126	0.298
-152.647	-200.000	-0.019	-0.102
-151.633	637.606	0.067	0.169
-150.618	47.206	-0.152	-0.139
-149.604	-2.948	0.248	0.171
-148.589	800.000	0.028	0.090
-147.574	800.000	-0.094	-0.262
-146.560	-181.987	-0.155	-0.003
-145.545	27.283	-0.115	0.095
-144.531	-3.583	0.168	0.115
-143.516	-23.491	-0.107	-0.063
-142.502	-61.227	0.233	0.097
-141.487	-175.268	0.177	-0.005
-140.472	-69.965	-0.044	-0.017
-139.458	-47.158	-0.256	0.123
-138.443	151.535	0.113	0.152
-137.429	-64.861	-0.184	-0.073
-136.414	-175.166	0.427	-0.012
-135.399	-160.148	0.140	0.008
-134.385	800.000	0.077	0.311
-133.370	61.728	0.192	0.189
-132.356	-129.145	-0.333	-0.046
-131.341	800.000	0.136	-0.377
-130.326	123.623	0.115	0.142
-129.312	77.209	-0.097	0.101
-128.297	-84.744	-0.117	-0.036
-127.283	-152.180	0.188	0.013
-126.268	-54.051	0.235	-0.105
-125.253	-6.429	-0.107	-0.072
-124.239	800.000	0.050	0.148
-123.224	21.685	0.130	-0.104
-122.210	-93.804	0.217	0.059
-121.195	-62.592	0.018	0.008
