DTS Sentinel unit serial number:	SN413079Multiplexer serial number:	ORYXHardware model number:	OX4-SRSoftware version number:	ORYX F/W v4.00 Oryx Data Collector v3.7.2.0data status	okinstallation	princeton_trtdifferential loss correction	single-endedforward channel	channel 2reverse channel	N/Adate	2019/09/11time	14:09:11forward acquisition time	60.00reverse acquisition time	0.00gamma	496.2192k internal	0.2292k external	0.2292temperature offset calibration	1.0008default loss term (dB/km)	0.3790temperature slope calibration	1.0000multiplexer offset coefficient	1.0000multiplexer slope coefficient	1.0000fibre end	0.00T internal ref (°C)	41.87T ext. ref 1 (°C)	0.86T ext. ref 2 (°C)	36.63length (m)	temperature (°C)	Stokes	anti-Stokes-747.200	40.029	0.083	-0.076
-746.185	-110.126	-0.079	-0.017
-745.171	-47.576	-0.154	0.077
-744.156	-200.000	0.021	0.228
-743.142	141.839	0.153	-0.207
-742.127	-6.931	-0.097	0.067
-741.112	800.000	-0.061	-0.260
-740.098	22.589	0.043	-0.036
-739.083	218.461	0.095	0.155
-738.069	168.635	-0.079	0.115
-737.054	-100.580	-0.186	-0.047
-736.039	-168.115	-0.450	-0.018
-735.025	-104.193	-0.238	-0.057
-734.010	800.000	0.036	0.126
-732.996	800.000	-0.094	-0.284
-731.981	-22.377	0.252	-0.156
-730.966	18.260	0.068	-0.055
-729.952	-80.873	-0.283	-0.096
-728.937	-92.663	-0.099	-0.028
-727.923	-200.000	-0.236	-0.001
-726.908	-36.798	-0.100	-0.055
-725.894	-79.383	-0.303	-0.105
-724.879	-139.261	-0.089	0.010
-723.864	27.902	0.125	0.108
-722.850	-106.208	0.141	0.032
-721.835	659.939	0.050	-0.131
-720.821	-108.709	-0.195	0.043
-719.806	21.885	-0.223	-0.186
-718.791	23.353	0.145	-0.122
-717.777	-194.161	0.127	0.001
-716.762	98.910	-0.239	0.282
-715.748	52.919	0.036	0.035
-714.733	-38.836	-0.370	-0.199
-713.718	-92.511	0.038	-0.011
-712.704	-99.737	-0.067	0.017
-711.689	-200.000	-0.029	-0.189
-710.675	629.508	-0.221	-0.570
-709.660	70.846	0.061	-0.065
-708.645	-137.957	0.151	0.017
-707.631	800.000	0.055	-0.173
-706.616	8.518	0.034	0.027
-705.602	329.792	0.081	-0.159
-704.587	-200.000	-0.085	0.428
-703.572	146.774	0.109	-0.150
-702.558	-0.276	-0.105	-0.076
-701.543	-200.000	0.063	0.340
-700.529	-2.149	-0.206	0.148
-699.514	-24.137	0.263	0.160
-698.499	-22.766	-0.062	-0.039
-697.485	313.091	0.116	-0.223
-696.470	-117.734	-0.274	-0.050
-695.456	-200.000	0.058	0.283
-694.441	-200.000	-0.069	0.488
-693.426	-109.100	-0.348	-0.076
-692.412	87.014	-0.095	0.108
-691.397	30.439	-0.068	0.059
-690.383	19.027	-0.325	-0.266
-689.368	-1.137	-0.152	-0.110
-688.354	-62.986	-0.149	-0.063
-687.339	800.000	0.062	-0.273
-686.324	800.000	0.025	0.076
-685.310	182.490	-0.072	0.108
-684.295	162.922	-0.183	-0.263
-683.281	-200.000	0.037	0.388
-682.266	-42.550	-0.113	0.059
-681.251	800.000	0.085	-0.255
-680.237	729.136	-0.093	-0.254
-679.222	243.078	-0.104	-0.177
-678.208	17.234	0.232	-0.188
-677.193	-113.515	-0.258	-0.052
-676.178	-10.737	-0.127	0.086
-675.164	800.000	-0.089	0.272
-674.149	-200.000	-0.053	0.299
-673.135	-97.453	-0.122	-0.032
-672.120	-42.608	-0.366	-0.190
-671.105	-200.000	-0.015	0.091
-670.091	800.000	-0.057	0.247
-669.076	-106.609	0.302	-0.069
-668.062	-37.436	0.256	-0.140
-667.047	-131.395	-0.269	0.036
-666.032	315.541	0.092	0.177
-665.018	130.488	-0.094	-0.123
-664.003	301.744	0.097	-0.184
-662.989	346.638	0.135	0.271
-661.974	271.588	0.105	0.189
-660.959	-200.000	0.005	0.097
-659.945	658.554	-0.134	0.353
-658.930	-30.176	0.158	-0.091
-657.916	150.064	0.102	0.142
-656.901	-158.240	0.376	0.022
-655.886	146.525	0.117	-0.160
-654.872	-129.283	-0.209	0.030
-653.857	-163.979	-0.175	0.008
-652.843	-200.000	-0.004	-0.265
-651.828	13.207	-0.147	-0.116
-650.814	-200.000	-0.010	-0.072
-649.799	656.272	-0.135	-0.353
-648.784	-200.000	-0.017	0.194
-647.770	-6.436	-0.272	0.189
-646.755	-200.000	0.022	0.246
-645.741	266.505	-0.095	0.170
-644.726	28.991	-0.099	0.086
-643.711	-200.000	-0.029	0.143
-642.697	-50.598	-0.245	0.118
-641.682	185.390	0.050	-0.076
-640.668	-192.089	-0.451	-0.004
-639.653	800.000	0.126	0.356
-638.638	8.605	-0.133	0.102
-637.624	-200.000	-0.028	-0.140
-636.609	-80.133	-0.348	-0.119
-635.595	271.962	0.132	0.237
-634.580	-119.185	-0.194	0.035
-633.565	-172.435	0.092	0.003
-632.551	703.557	-0.096	-0.258
-631.536	86.405	0.175	-0.197
-630.522	2.485	0.059	-0.044
-629.507	-200.000	0.004	-0.110
-628.492	-70.196	0.125	-0.049
-627.478	-20.198	0.123	-0.077
-626.463	-46.067	0.425	-0.214
-625.449	20.426	0.086	-0.071
-624.434	-5.269	-0.197	0.138
-623.419	-85.448	-0.214	0.068
-622.405	97.136	0.166	0.194
-621.390	154.664	-0.122	0.171
-620.376	-177.658	0.187	0.005
-619.361	800.000	-0.049	-0.182
-618.346	-143.675	-0.236	-0.023
-617.332	-127.762	0.091	0.013
-616.317	278.271	-0.106	-0.192
-615.303	-110.290	-0.257	0.055
-614.288	433.413	0.116	-0.257
-613.273	-98.351	-0.243	-0.063
-612.259	22.128	-0.137	-0.114
-611.244	-200.000	-0.042	0.273
-610.230	-174.115	-0.059	-0.002
-609.215	113.437	0.181	0.224
-608.201	-20.254	-0.245	-0.154
-607.186	-60.233	-0.141	0.061
-606.171	800.000	0.068	0.226
-605.157	286.281	-0.038	-0.069
-604.142	-30.662	-0.303	-0.175
-603.128	-200.000	-0.008	-0.307
-602.113	-0.797	-0.215	-0.155
-601.098	800.000	-0.059	0.190
-600.084	34.954	-0.164	0.146
-599.069	658.007	-0.071	0.185
-598.055	17.566	-0.274	0.222
-597.040	62.702	0.176	-0.179
-596.025	442.004	-0.038	-0.084
-595.011	-121.040	-0.174	-0.030
-593.996	370.034	-0.132	-0.272
-592.982	-40.134	0.087	0.046
-591.967	62.620	0.342	0.348
-590.952	800.000	-0.053	-0.162
-589.938	300.288	-0.251	-0.471
-588.923	-200.000	0.026	-0.240
-587.909	-115.160	0.069	0.013
-586.894	158.517	-0.056	-0.080
-585.879	64.023	-0.106	0.109
-584.865	-200.000	0.026	0.160
-583.850	-200.000	-0.038	-0.241
-582.836	-200.000	-0.004	-0.119
-581.821	-151.431	0.261	0.020
-580.806	149.186	0.148	0.203
-579.792	-200.000	0.067	0.441
-578.777	800.000	0.066	0.253
-577.763	800.000	0.083	-0.302
-576.748	-129.137	0.276	0.039
-575.733	20.695	0.117	-0.096
-574.719	181.725	0.085	-0.127
-573.704	7.104	-0.276	0.209
-572.690	800.000	0.033	-0.112
-571.675	190.265	-0.072	-0.110
-570.661	37.381	-0.285	0.257
-569.646	-108.847	0.281	-0.061
-568.631	-85.391	0.312	-0.099
-567.617	3.476	-0.274	-0.203
-566.602	-55.587	-0.363	0.165
-565.588	800.000	-0.070	-0.254
-564.573	-200.000	-0.017	0.227
-563.558	51.362	0.075	-0.073
-562.544	120.229	0.210	0.265
-561.529	-84.430	0.228	0.073
-560.515	-200.000	-0.013	-0.253
-559.500	-34.414	-0.174	-0.097
-558.485	-72.720	-0.247	0.093
-557.471	-85.986	0.150	-0.047
-556.456	211.971	0.057	0.091
-555.442	-80.071	-0.326	0.111
-554.427	-200.000	-0.020	-0.267
-553.412	9.376	0.142	0.110
-552.398	683.318	0.097	-0.257
-551.383	455.114	-0.021	0.048
-550.369	-87.121	-0.185	0.057
-549.354	72.303	0.123	0.131
-548.339	-116.178	-0.148	-0.028
-547.325	34.300	0.071	-0.063
-546.310	-200.000	0.023	0.151
-545.296	175.201	0.193	0.284
-544.281	-33.952	-0.135	0.076
-543.266	800.000	-0.032	0.131
-542.252	-43.738	-0.105	-0.054
-541.237	91.009	-0.143	-0.163
-540.223	-137.896	-0.067	0.008
-539.208	-200.000	0.078	-0.382
-538.193	-41.502	0.235	-0.123
-537.179	-71.790	0.201	0.076
-536.164	800.000	0.027	0.094
-535.150	659.207	0.102	0.265
-534.135	52.038	-0.169	-0.163
-533.121	-76.233	-0.235	-0.084
-532.106	-138.918	0.208	-0.023
-531.091	-144.254	0.198	-0.019
-530.077	308.444	-0.068	0.129
-529.062	392.753	-0.052	0.110
-528.048	-61.309	-0.132	-0.056
-527.033	-9.212	0.134	0.091
-526.018	800.000	0.032	-0.134
-525.004	-115.794	0.122	-0.023
-523.989	800.000	-0.152	-0.542
-522.975	-6.890	-0.301	0.208
-521.960	-200.000	-0.002	-0.041
-520.945	-104.981	0.322	0.075
-519.931	-158.361	0.297	0.017
-518.916	173.512	-0.121	0.178
-517.902	-34.299	-0.225	-0.125
-516.887	800.000	0.025	-0.089
-515.872	-200.000	0.002	-0.111
-514.858	4.073	0.181	0.134
-513.843	-45.700	0.327	0.164
-512.829	-28.784	-0.063	-0.037
-511.814	800.000	-0.132	0.435
-510.799	84.890	0.249	-0.276
-509.785	800.000	0.050	-0.166
-508.770	-93.380	-0.485	-0.136
-507.756	-0.402	-0.224	-0.161
-506.741	-200.000	-0.049	-0.298
-505.726	-200.000	-0.055	0.312
-504.712	-20.943	-0.138	-0.085
-503.697	-200.000	0.016	0.118
-502.683	-200.000	0.007	-0.178
-501.668	-200.000	-0.001	-0.075
-500.653	-200.000	-0.021	0.174
-499.639	-150.817	0.233	-0.018
-498.624	485.306	0.052	0.120
-497.610	-86.966	0.325	0.101
-496.595	0.188	-0.190	0.137
-495.581	-143.557	-0.184	0.018
-494.566	42.169	0.139	0.128
-493.551	-129.750	-0.409	-0.057
-492.537	233.732	0.120	0.201
-491.522	-200.000	-0.018	-0.373
-490.508	191.780	0.216	-0.330
-489.493	-39.842	-0.141	0.075
-488.478	167.332	-0.100	-0.144
-487.464	-111.757	0.243	0.050
-486.449	-121.558	0.265	-0.045
-485.435	60.074	0.101	-0.101
-484.420	-80.001	0.225	-0.076
-483.405	-200.000	-0.007	-0.104
-482.391	-120.792	0.347	-0.059
-481.376	6.090	-0.074	0.056
-480.362	-200.000	-0.067	0.399
-479.347	37.874	-0.170	0.153
-478.332	333.601	0.271	-0.530
-477.318	21.075	-0.304	-0.250
-476.303	-133.943	-0.253	0.032
-475.289	-53.240	-0.110	-0.051
-474.274	104.735	0.177	-0.211
-473.259	146.012	0.104	0.141
-472.245	158.592	0.175	-0.246
-471.230	-116.785	-0.149	0.028
-470.216	-200.000	-0.023	-0.259
-469.201	69.953	0.093	-0.097
-468.186	85.477	0.105	-0.116
-467.172	76.607	0.088	-0.095
-466.157	318.733	-0.055	-0.105
-465.143	431.259	-0.112	0.245
-464.128	-110.496	0.201	0.042
-463.113	-45.544	0.124	0.062
-462.099	7.806	0.335	0.254
-461.084	-200.000	-0.028	-0.236
-460.070	2.075	0.261	-0.191
-459.055	9.652	-0.161	-0.124
-458.040	800.000	0.067	0.211
-457.026	-39.321	0.175	-0.093
-456.011	517.950	0.050	-0.119
-454.997	588.522	0.071	-0.177
-453.982	-90.715	-0.144	-0.042
-452.968	270.982	-0.111	0.199
-451.953	-41.534	-0.163	-0.085
-450.938	330.286	-0.030	-0.059
-449.924	-11.905	-0.167	0.111
-448.909	-60.222	0.274	0.118
-447.895	-198.777	-0.233	-0.001
-446.880	-110.134	-0.125	-0.026
-445.865	-80.160	0.222	0.075
-444.851	-3.874	-0.340	0.239
-443.836	-114.452	-0.264	0.051
-442.822	-127.151	0.187	-0.028
-441.807	197.751	0.098	-0.152
-440.792	-100.292	-0.303	-0.076
-439.778	-80.511	-0.329	-0.111
-438.763	-57.017	-0.379	-0.169
-437.749	800.000	0.034	-0.142
-436.734	-128.722	0.074	-0.011
-435.719	437.626	0.101	-0.223
-434.705	800.000	-0.072	0.219
-433.690	45.143	0.184	0.172
-432.676	59.284	-0.121	-0.121
-431.661	-200.000	0.014	-0.180
-430.646	-29.096	0.077	0.045
-429.632	-60.328	-0.207	0.089
-428.617	18.121	0.199	-0.160
-427.603	-170.139	-0.228	0.008
-426.588	-17.726	0.081	-0.051
-425.573	-144.680	0.070	0.007
-424.559	-131.289	0.164	0.022
-423.544	-200.000	0.015	0.151
-422.530	114.866	-0.153	0.189
-421.515	-32.802	-0.194	0.109
-420.500	-200.000	-0.038	-0.421
-419.486	103.910	-0.098	0.116
-418.471	473.179	0.080	-0.183
-417.457	-137.321	0.173	0.020
-416.442	-57.835	0.145	-0.064
-415.428	-200.000	-0.015	-0.156
-414.413	211.187	0.119	-0.189
-413.398	-32.137	-0.142	-0.080
-412.384	800.000	-0.040	-0.116
-411.369	800.000	-0.039	0.147
-410.355	602.328	0.074	-0.185
-409.340	-20.373	0.163	0.101
-408.325	-200.000	-0.005	0.097
-407.311	119.802	-0.056	0.070
-406.296	47.652	-0.047	-0.044
-405.282	800.000	0.022	0.093
-404.267	21.993	-0.176	0.145
-403.252	554.159	0.032	0.077
-402.238	-78.432	-0.064	-0.022
-401.223	-81.621	-0.310	0.103
-400.209	-200.000	-0.017	-0.112
-399.194	40.238	0.308	0.280
-398.179	-38.359	0.105	-0.056
-397.165	800.000	0.066	-0.279
-396.150	-200.000	-0.031	0.144
-395.136	669.690	-0.130	0.339
-394.121	-200.000	0.007	-0.033
-393.106	31.816	0.096	0.083
-392.092	88.167	-0.196	-0.220
-391.077	21.988	0.286	-0.235
-390.063	-95.303	0.209	0.057
-389.048	65.778	-0.088	0.090
-388.033	150.178	0.010	-0.014
-387.019	-36.468	0.238	0.129
-386.004	-28.704	-0.197	-0.115
-384.990	40.360	0.093	0.084
-383.975	-61.026	0.310	0.132
-382.960	-200.000	-0.004	-0.119
-381.946	211.794	0.110	-0.175
-380.931	14.494	0.105	-0.082
-379.917	-98.243	0.182	-0.047
-378.902	295.078	-0.101	-0.186
-377.888	800.000	-0.099	-0.292
-376.873	-61.951	-0.051	0.022
-375.858	-70.545	-0.210	-0.080
-374.844	-79.219	0.345	0.118
-373.829	-148.197	0.133	-0.011
-372.815	800.000	0.127	0.361
-371.800	282.607	-0.201	0.363
-370.785	-200.000	-0.009	0.190
-369.771	-9.988	0.215	0.144
-368.756	78.425	-0.180	-0.194
-367.742	-15.814	0.185	-0.119
-366.727	17.432	0.281	0.225
-365.712	47.356	0.093	-0.088
-364.698	200.769	-0.071	0.110
-363.683	800.000	-0.097	0.417
-362.669	-200.000	-0.009	0.314
-361.654	26.066	0.055	-0.046
-360.639	27.474	0.089	-0.076
-359.625	-74.828	0.049	0.018
-358.610	-102.136	0.403	-0.098
-357.596	-200.000	-0.015	-0.151
-356.581	332.537	-0.126	0.245
-355.566	-73.335	0.111	0.041
-354.552	-44.781	-0.223	0.112
-353.537	-200.000	0.084	-0.526
-352.523	-10.811	0.220	-0.147
-351.508	-20.697	-0.266	0.164
-350.493	463.078	-0.029	-0.065
-349.479	-127.051	0.559	0.083
-348.464	-79.566	0.362	-0.123
-347.450	109.231	0.156	0.188
-346.435	173.440	-0.048	-0.069
-345.420	-161.750	0.441	-0.023
-344.406	-200.000	0.076	-0.471
-343.391	-200.000	0.070	-0.453
-342.377	-100.761	0.312	0.078
-341.362	165.025	0.262	0.373
-340.348	-11.165	0.136	0.090
-339.333	-68.601	0.101	0.039
-338.318	-22.973	0.042	-0.026
-337.304	-167.010	-0.338	-0.014
-336.289	232.364	0.067	0.111
-335.275	800.000	-0.063	-0.200
-334.260	21.930	0.378	0.310
-333.245	-200.000	0.084	0.509
-332.231	800.000	-0.021	-0.077
-331.216	-98.339	-0.163	0.042
-330.202	-94.549	-0.101	0.028
-329.187	20.440	0.120	-0.097
-328.172	800.000	-0.033	-0.117
-327.158	-184.181	0.107	0.002
-326.143	-200.000	-0.028	-0.142
-325.129	800.000	0.055	0.159
-324.114	542.487	-0.028	-0.066
-323.099	548.559	0.058	0.140
-322.085	-62.522	-0.170	-0.071
-321.070	-137.737	0.227	-0.026
-320.056	-200.000	-0.091	0.538
-319.041	325.121	-0.154	0.297
-318.026	89.544	0.038	-0.042
-317.012	607.847	-0.021	0.053
-315.997	-200.000	-0.053	0.264
-314.983	21.207	0.289	0.236
-313.968	156.121	0.148	-0.205
-312.953	185.371	-0.170	-0.255
-311.939	-83.644	-0.252	-0.081
-310.924	33.109	-0.098	-0.085
-309.910	-128.386	0.201	0.029
-308.895	-149.867	0.169	0.013
-307.880	90.930	-0.291	-0.328
-306.866	800.000	0.086	-0.242
-305.851	117.449	0.206	-0.256
-304.837	130.678	0.180	-0.232
-303.822	203.693	0.131	0.205
-302.807	-200.000	-0.007	-0.054
-301.793	53.376	0.051	0.050
-300.778	-200.000	-0.008	0.146
-299.764	487.635	-0.091	-0.210
-298.749	-31.089	0.353	-0.201
-297.735	-18.005	0.300	0.189
-296.720	-51.987	-0.189	0.088
-295.705	800.000	-0.048	0.182
-294.691	-67.621	-0.141	0.055
-293.676	-43.132	0.299	0.152
-292.662	800.000	0.091	0.263
-291.647	-97.406	-0.059	-0.016
-290.632	800.000	-0.082	0.301
-289.618	125.036	0.205	-0.260
-288.603	-200.000	-0.007	-0.364
-287.589	-49.810	0.172	-0.082
-286.574	6.849	0.307	-0.230
-285.559	28.493	0.134	-0.114
-284.545	-200.000	0.039	0.272
-283.530	-200.000	-0.043	0.198
-282.516	-200.000	-0.005	-0.036
-281.501	-59.302	0.175	-0.076
-280.486	-33.723	-0.234	0.130
-279.472	-200.000	-0.021	-0.165
-278.457	-35.992	0.309	0.168
-277.443	752.377	-0.078	0.211
-276.428	224.631	-0.177	-0.288
-275.413	173.143	-0.059	0.086
-274.399	-200.000	0.030	0.144
-273.384	-165.320	-0.554	0.024
-272.370	-200.000	0.019	-0.092
-271.355	-38.983	-0.166	0.088
-270.340	-82.146	0.444	0.145
-269.326	-6.209	0.082	0.056
-268.311	-200.000	0.017	-0.317
-267.297	-200.000	0.010	0.373
-266.282	39.870	0.231	0.208
-265.267	-45.071	-0.054	0.027
-264.253	-162.181	-0.238	-0.012
-263.238	-200.000	-0.015	0.231
-262.224	-81.698	-0.430	-0.142
-261.209	114.380	0.029	-0.036
-260.195	800.000	0.040	0.126
-259.180	478.887	-0.066	-0.151
-258.165	-79.223	-0.085	-0.029
-257.151	-170.686	-0.413	-0.014
-256.136	-200.000	-0.043	0.201
-255.122	-72.868	-0.257	-0.095
-254.107	-32.771	-0.230	0.128
-253.092	109.151	-0.202	0.243
-252.078	-91.346	0.060	0.017
-251.063	-28.689	-0.271	0.156
-250.049	223.316	-0.116	0.189
-249.034	293.827	-0.064	0.117
-248.019	51.076	-0.232	0.221
-247.005	-118.001	0.342	-0.061
-245.990	-36.141	-0.105	-0.057
-244.976	-41.057	0.071	0.037
-243.961	-122.825	-0.079	-0.013
-242.946	-167.337	0.180	0.007
-241.932	486.416	-0.096	0.219
-240.917	62.597	-0.124	0.124
-239.903	-40.205	-0.282	-0.147
-238.888	-77.881	-0.287	-0.099
-237.873	320.861	-0.072	0.138
-236.859	800.000	0.048	0.178
-235.844	198.932	0.126	0.193
-234.830	-13.259	-0.188	0.122
-233.815	-33.505	-0.238	-0.132
-232.800	-200.000	0.039	-0.249
-231.786	24.017	0.064	0.053
-230.771	537.014	-0.093	0.222
-229.757	-129.662	0.134	0.019
-228.742	176.232	-0.137	0.199
-227.727	800.000	0.050	-0.204
-226.713	14.779	-0.015	-0.012
-225.698	-92.714	0.035	0.010
-224.684	484.950	0.104	0.238
-223.669	800.000	0.060	-0.169
-222.655	-132.762	-0.169	-0.022
-221.640	-200.000	0.064	0.323
-220.625	-36.532	0.211	0.114
-219.611	122.064	-0.100	0.126
-218.596	-25.803	-0.147	-0.087
-217.582	-59.781	0.229	-0.098
-216.567	393.567	0.046	0.096
-215.552	800.000	-0.046	-0.137
-214.538	-127.778	0.125	0.018
-213.523	800.000	0.064	-0.227
-212.509	-167.185	-0.349	-0.014
-211.494	418.319	-0.079	0.170
-210.479	236.765	0.097	-0.161
-209.465	-27.778	-0.178	-0.104
-208.450	800.000	-0.016	0.061
-207.436	800.000	0.116	-0.370
-206.421	164.872	0.145	0.206
-205.406	159.631	-0.012	0.016
-204.392	-15.635	-0.300	-0.192
-203.377	172.989	0.060	-0.087
-202.363	800.000	0.094	-0.327
-201.348	-31.322	-0.080	-0.045
-200.333	53.101	-0.122	0.117
-199.319	-55.502	0.073	-0.033
-198.304	-200.000	-0.007	0.236
-197.290	-200.000	-0.017	-0.163
-196.275	-162.109	0.186	0.009
-195.260	-1.192	0.056	0.039
-194.246	-122.816	0.038	-0.006
-193.231	138.797	-0.067	0.089
-192.217	36.383	0.109	0.096
-191.202	-73.109	-0.048	0.018
-190.187	6.014	0.248	-0.184
-189.173	86.341	-0.077	0.085
-188.158	-124.466	-0.116	0.018
-187.144	800.000	0.087	-0.248
-186.129	-171.420	0.381	-0.013
-185.114	-160.608	0.241	-0.013
-184.100	-200.000	0.002	-0.335
-183.085	-32.793	0.055	-0.031
-182.071	-132.093	-0.360	-0.047
-181.056	-12.745	0.156	0.102
-180.042	48.100	0.366	-0.343
-179.027	157.718	-0.115	0.159
-178.012	149.876	-0.087	-0.118
-176.998	-72.276	-0.183	0.068
-175.983	-200.000	0.008	0.106
-174.969	339.916	-0.073	0.142
-173.954	-200.000	0.008	-0.324
-172.939	800.000	0.109	0.316
-171.925	20.076	-0.348	-0.281
-170.910	41.813	0.128	0.116
-169.896	800.000	0.018	-0.057
-168.881	85.084	-0.126	-0.138
-167.866	-200.000	0.017	-0.184
-166.852	119.364	0.103	-0.128
-165.837	-130.046	0.215	-0.029
-164.823	-69.226	-0.070	-0.027
-163.808	-90.986	0.238	0.068
-162.793	-92.627	-0.399	0.112
-161.779	-25.618	-0.324	0.191
-160.764	-83.396	0.261	0.084
-159.750	-200.000	0.015	0.105
-158.735	-112.496	0.255	0.051
-157.720	18.350	-0.151	0.121
-156.706	-10.980	-0.140	-0.092
-155.691	-68.399	-0.312	0.121
-154.677	7.368	-0.287	0.215
-153.662	-200.000	-0.031	-0.229
-152.647	33.520	0.037	0.032
-151.633	-114.493	-0.204	0.039
-150.618	-200.000	0.036	0.317
-149.604	-131.062	0.178	-0.024
-148.589	62.959	0.160	0.160
-147.574	404.837	-0.183	0.386
-146.560	282.132	-0.092	0.166
-145.545	-200.000	0.003	0.053
-144.531	239.802	-0.241	0.401
-143.516	-148.613	-0.307	-0.025
-142.502	-78.578	0.256	-0.088
-141.487	-64.984	0.322	0.130
-140.472	-45.677	0.323	-0.160
-139.458	-109.455	0.192	-0.041
-138.443	389.726	0.104	0.215
-137.429	-16.687	-0.226	-0.143
-136.414	291.356	0.058	-0.105
-135.399	176.351	0.175	-0.254
-134.385	800.000	0.152	0.468
-133.370	-104.684	-0.415	-0.096
-132.356	-200.000	0.017	0.183
-131.341	-111.602	-0.205	0.042
-130.326	539.133	0.159	0.379
-129.312	-200.000	0.079	0.374
-128.297	-28.798	-0.276	0.159
-127.283	800.000	-0.093	0.351
-126.268	15.765	0.246	-0.194
-125.253	-123.403	-0.069	-0.011
-124.239	-116.653	0.197	-0.036
-123.224	335.599	0.129	-0.249
-122.210	-200.000	0.048	0.291
-121.195	-106.050	0.300	0.067
