DTS Sentinel unit serial number:	SN413079Multiplexer serial number:	ORYXHardware model number:	OX4-SRSoftware version number:	ORYX F/W v4.00 Oryx Data Collector v3.7.2.0data status	okinstallation	princeton_trtdifferential loss correction	single-endedforward channel	channel 2reverse channel	N/Adate	2019/09/13time	09:19:34forward acquisition time	60.00reverse acquisition time	0.00gamma	496.2192k internal	0.2328k external	0.2328temperature offset calibration	1.0194default loss term (dB/km)	0.3790temperature slope calibration	1.0000multiplexer offset coefficient	1.0000multiplexer slope coefficient	1.0000fibre end	0.00T internal ref (°C)	29.14T ext. ref 1 (°C)	4.41T ext. ref 2 (°C)	26.36length (m)	temperature (°C)	Stokes	anti-Stokes-747.200	-200.000	-0.054	-0.373
-746.185	-32.142	0.321	-0.181
-745.171	-127.636	0.052	0.008
-744.156	268.601	-0.120	0.212
-743.142	-50.156	0.277	0.132
-742.127	99.472	-0.193	0.225
-741.112	-155.802	0.352	-0.023
-740.098	-200.000	0.004	0.158
-739.083	800.000	0.067	0.249
-738.069	-139.151	-0.070	0.008
-737.054	188.231	-0.173	-0.261
-736.039	-13.386	-0.105	-0.069
-735.025	103.923	0.254	0.301
-734.010	19.003	-0.283	0.229
-732.996	-200.000	-0.015	0.238
-731.981	800.000	-0.052	0.182
-730.966	-49.095	-0.262	0.126
-729.952	-150.230	-0.230	-0.018
-728.937	-56.759	-0.214	-0.095
-727.923	-96.603	-0.065	-0.017
-726.908	445.602	0.032	-0.071
-725.894	-63.180	-0.124	0.051
-724.879	96.126	-0.115	-0.132
-723.864	-52.275	-0.367	-0.171
-722.850	-78.058	0.305	0.106
-721.835	249.630	-0.130	-0.222
-720.821	-200.000	0.000	-0.248
-719.806	92.361	-0.207	-0.235
-718.791	-117.197	-0.147	-0.027
-717.777	-82.760	0.062	-0.020
-716.762	-200.000	0.001	-0.357
-715.748	178.843	-0.058	-0.085
-714.733	-90.451	-0.195	-0.057
-713.718	271.294	0.273	-0.485
-712.704	-55.671	-0.070	-0.032
-711.689	94.046	0.167	-0.191
-710.675	6.617	-0.134	-0.100
-709.660	-47.627	-0.117	0.057
-708.645	-200.000	-0.035	0.245
-707.631	-2.497	-0.184	-0.129
-706.616	800.000	-0.028	-0.122
-705.602	232.275	-0.137	-0.226
-704.587	7.762	0.052	0.039
-703.572	126.289	0.143	-0.182
-702.558	-114.368	0.234	0.045
-701.543	-104.693	-0.154	-0.036
-700.529	-200.000	-0.039	-0.287
-699.514	537.375	-0.028	-0.066
-698.499	-99.612	0.330	-0.083
-697.485	-200.000	0.052	-0.233
-696.470	33.241	-0.164	-0.143
-695.456	432.664	0.188	-0.409
-694.441	34.544	0.202	-0.177
-693.426	-94.710	-0.093	-0.025
-692.412	693.223	0.037	-0.097
-691.397	800.000	-0.026	0.112
-690.383	-35.877	-0.259	0.141
-689.368	800.000	0.082	-0.234
-688.354	800.000	-0.034	-0.119
-687.339	-4.110	0.072	-0.050
-686.324	139.316	-0.148	-0.196
-685.310	-30.296	-0.346	-0.198
-684.295	-22.740	0.055	0.033
-683.281	-118.756	-0.581	0.103
-682.266	197.230	0.058	0.089
-681.251	196.637	0.050	0.077
-680.237	-114.078	0.200	-0.039
-679.222	-70.585	-0.144	0.055
-678.208	-200.000	0.070	0.342
-677.193	198.863	0.151	0.232
-676.178	800.000	0.079	0.310
-675.164	294.920	-0.057	0.104
-674.149	612.046	-0.065	0.164
-673.135	-123.378	0.360	0.058
-672.120	-117.789	-0.210	0.038
-671.105	800.000	-0.032	0.125
-670.091	190.170	-0.099	-0.149
-669.076	229.126	0.172	0.282
-668.062	-200.000	-0.051	0.255
-667.047	-81.044	0.235	-0.078
-666.032	427.697	-0.108	-0.234
-665.018	-200.000	-0.034	0.239
-664.003	-135.925	-0.136	0.016
-662.989	-67.658	0.331	-0.130
-661.974	-139.582	-0.146	-0.016
-660.959	-200.000	-0.211	0.001
-659.945	-200.000	0.020	0.164
-658.930	-200.000	-0.043	-0.289
-657.916	4.996	-0.306	-0.226
-656.901	800.000	0.066	0.223
-655.886	-200.000	-0.020	-0.114
-654.872	800.000	0.030	-0.100
-653.857	88.917	0.163	-0.183
-652.843	642.872	0.068	0.174
-651.828	-113.315	-0.163	-0.032
-650.814	-65.202	0.235	-0.095
-649.799	77.003	0.100	0.107
-648.784	-55.423	0.183	0.082
-647.770	800.000	0.030	-0.119
-646.755	800.000	0.015	0.053
-645.741	-112.879	0.274	0.054
-644.726	-144.100	-0.221	0.021
-643.711	69.285	-0.155	-0.160
-642.697	-128.040	-0.440	-0.063
-641.682	-5.067	-0.120	0.083
-640.668	-200.000	0.040	-0.258
-639.653	-26.556	-0.176	-0.104
-638.638	-119.855	0.118	-0.020
-637.624	-200.000	0.015	-0.183
-636.609	122.939	-0.036	0.046
-635.595	714.238	0.082	-0.217
-634.580	-67.712	-0.128	-0.050
-633.565	-31.475	-0.068	-0.038
-632.551	145.753	-0.107	0.143
-631.536	-103.797	-0.157	0.037
-630.522	-107.644	-0.191	-0.042
-629.507	-200.000	-0.001	0.124
-628.492	19.960	0.135	-0.109
-627.478	-94.204	-0.245	0.067
-626.463	-129.461	0.200	-0.028
-625.449	-200.000	-0.013	-0.376
-624.434	-83.378	-0.176	-0.056
-623.419	513.116	0.077	-0.180
-622.405	-200.000	0.051	-0.308
-621.390	48.950	-0.223	-0.210
-620.376	-8.959	0.364	-0.245
-619.361	-200.000	0.025	-0.274
-618.346	34.715	0.234	0.205
-617.332	-4.452	-0.488	0.338
-616.317	-50.592	0.286	-0.135
-615.303	-38.416	0.163	0.087
-614.288	125.709	-0.137	-0.174
-613.273	33.019	-0.164	-0.142
-612.259	97.884	0.105	-0.121
-611.244	800.000	-0.074	-0.272
-610.230	-156.087	-0.269	0.017
-609.215	-200.000	0.056	-0.360
-608.201	107.526	-0.322	-0.384
-607.186	-200.000	-0.007	-0.064
-606.171	340.455	0.095	-0.186
-605.157	800.000	-0.104	0.390
-604.142	-100.115	-0.093	0.023
-603.128	132.688	-0.113	-0.146
-602.113	800.000	0.027	0.088
-601.098	-200.000	-0.102	0.000
-600.084	26.780	0.100	-0.084
-599.069	60.172	0.361	-0.358
-598.055	-162.608	0.108	0.005
-597.040	-76.093	-0.152	0.054
-596.025	800.000	0.020	0.059
-595.011	-200.000	0.001	0.191
-593.996	684.653	0.009	-0.024
-592.982	164.671	-0.130	0.184
-591.967	194.978	-0.132	0.201
-590.952	11.254	-0.293	0.225
-589.938	-107.764	-0.163	-0.036
-588.923	-70.089	-0.203	-0.078
-587.909	-200.000	0.004	-0.082
-586.894	-200.000	0.031	-0.000
-585.879	-83.547	0.171	-0.055
-584.865	104.895	-0.137	-0.162
-583.850	800.000	-0.057	-0.229
-582.836	-97.234	-0.194	0.051
-581.821	-200.000	-0.045	0.330
-580.806	-31.302	-0.079	-0.044
-579.792	19.618	0.200	0.161
-578.777	-148.455	0.321	-0.026
-577.763	-200.000	0.018	-0.431
-576.748	800.000	-0.107	-0.405
-575.733	-128.125	0.209	-0.030
-574.719	-143.909	0.357	0.034
-573.704	-81.800	-0.288	0.094
-572.690	45.398	0.235	0.217
-571.675	-2.658	0.189	-0.132
-570.661	69.936	-0.288	-0.297
-569.646	51.911	-0.156	-0.148
-568.631	-51.816	0.237	-0.110
-567.617	-41.206	-0.419	0.216
-566.602	-76.521	0.322	0.113
-565.588	-200.000	-0.007	-0.129
-564.573	203.338	-0.007	0.011
-563.558	-190.911	-0.408	-0.004
-562.544	118.600	-0.306	-0.378
-561.529	-200.000	0.006	0.247
-560.515	-37.749	0.388	0.206
-559.500	-64.446	-0.155	-0.063
-558.485	-200.000	-0.012	0.058
-557.471	-69.760	0.215	0.082
-556.456	-200.000	-0.010	0.219
-555.442	-155.681	-0.060	0.004
-554.427	91.253	0.184	-0.207
-553.412	114.548	-0.089	-0.109
-552.398	-200.000	-0.044	0.222
-551.383	411.082	0.119	-0.253
-550.369	-2.881	0.111	-0.077
-549.354	63.602	-0.132	-0.132
-548.339	94.863	-0.233	-0.265
-547.325	435.606	0.057	-0.125
-546.310	-99.012	-0.475	-0.120
-545.296	214.459	-0.099	0.157
-544.281	63.926	-0.189	0.190
-543.266	92.996	-0.269	0.304
-542.252	-17.992	-0.105	-0.066
-541.237	-200.000	-0.023	-0.324
-540.223	-147.217	0.370	-0.032
-539.208	-74.505	0.288	0.104
-538.193	-106.261	-0.552	0.124
-537.179	647.985	0.099	0.254
-536.164	-93.631	-0.127	-0.035
-535.150	-58.478	0.120	0.052
-534.135	-141.817	-0.106	0.011
-533.121	57.927	-0.256	-0.250
-532.106	-8.151	-0.121	-0.081
-531.091	55.267	0.046	0.045
-530.077	-200.000	0.071	0.312
-529.062	800.000	-0.025	-0.073
-528.048	-78.038	-0.082	0.028
-527.033	-102.358	0.094	0.022
-526.018	-128.718	0.368	0.052
-525.004	-91.618	-0.164	0.047
-523.989	-80.182	0.206	-0.069
-522.975	800.000	0.056	0.228
-521.960	-106.127	-0.255	0.057
-520.945	687.690	0.065	0.171
-519.931	28.882	0.122	0.103
-518.916	-68.637	0.220	-0.085
-517.902	205.768	0.175	-0.271
-516.887	-200.000	0.011	0.138
-515.872	-16.760	0.260	-0.164
-514.858	29.367	0.155	0.132
-513.843	-200.000	-0.031	0.201
-512.829	762.499	-0.076	0.207
-511.814	266.965	-0.088	0.154
-510.799	-39.388	-0.390	0.204
-509.785	-138.617	0.284	0.031
-508.770	130.764	0.064	-0.082
-507.756	-22.431	0.187	0.113
-506.741	-200.000	-0.027	-0.129
-505.726	107.179	0.105	0.124
-504.712	-200.000	-0.017	-0.082
-503.697	-61.404	-0.071	0.030
-502.683	-63.988	0.174	0.071
-501.668	4.219	0.052	0.038
-500.653	-152.005	-0.163	-0.012
-499.639	-128.625	0.050	-0.007
-498.624	-193.356	-0.529	0.005
-497.610	-88.905	0.282	0.083
-496.595	-23.860	-0.115	0.069
-495.581	128.655	-0.018	-0.023
-494.566	800.000	0.040	-0.149
-493.551	-120.229	-0.165	0.028
-492.537	-158.901	-0.284	-0.016
-491.522	145.758	0.219	0.293
-490.508	-30.906	-0.299	-0.168
-489.493	-71.436	-0.281	0.105
-488.478	-160.733	0.274	-0.015
-487.464	259.956	-0.168	-0.289
-486.449	25.775	-0.053	0.044
-485.435	187.800	-0.173	-0.258
-484.420	800.000	0.003	-0.011
-483.405	56.310	0.106	0.103
-482.391	638.088	-0.031	0.079
-481.376	245.438	0.142	0.239
-480.362	509.464	0.047	0.109
-479.347	742.674	-0.037	-0.099
-478.332	125.452	-0.252	-0.317
-477.318	-76.175	0.176	-0.062
-476.303	-100.117	-0.047	0.012
-475.289	-48.312	-0.089	0.043
-474.274	-167.637	-0.490	-0.019
-473.259	334.582	-0.037	0.071
-472.245	-98.675	0.121	0.031
-471.230	101.964	0.160	0.187
-470.216	-174.641	-0.194	0.005
-469.201	800.000	-0.011	-0.034
-468.186	173.989	-0.075	0.109
-467.172	800.000	-0.026	-0.082
-466.157	-119.475	0.334	0.058
-465.143	152.616	-0.185	0.252
-464.128	61.949	0.211	0.209
-463.113	-200.000	0.003	0.348
-462.099	800.000	-0.026	-0.076
-461.084	386.758	-0.155	-0.320
-460.070	58.810	-0.182	0.179
-459.055	51.456	0.146	-0.138
-458.040	-135.526	0.320	0.038
-457.026	-155.483	-0.261	0.017
-456.011	536.880	0.156	0.370
-454.997	800.000	0.111	0.351
-453.982	-200.000	0.004	-0.098
-452.968	-35.802	-0.296	0.160
-451.953	-80.333	0.155	0.052
-450.938	8.162	0.185	0.138
-449.924	-75.632	-0.014	0.005
-448.909	287.363	0.148	-0.267
-447.895	727.318	-0.049	-0.131
-446.880	-200.000	-0.034	-0.246
-445.865	78.730	0.151	0.161
-444.851	-29.423	0.498	-0.284
-443.836	-200.000	0.004	0.067
-442.822	681.688	-0.037	-0.095
-441.807	507.633	-0.012	-0.028
-440.792	-200.000	-0.006	0.056
-439.778	-200.000	-0.015	0.098
-438.763	409.521	0.070	0.148
-437.749	254.028	-0.096	0.164
-436.734	-124.570	0.168	0.026
-435.719	87.654	0.109	-0.120
-434.705	93.047	0.163	-0.183
-433.690	-200.000	-0.021	-0.107
-432.676	164.634	-0.104	0.146
-431.661	-1.462	0.341	0.240
-430.646	52.837	-0.201	0.192
-429.632	-115.198	-0.314	0.059
-428.617	-179.005	-0.094	0.002
-427.603	-200.000	0.014	0.401
-426.588	58.159	-0.182	0.178
-425.573	-51.676	0.447	0.208
-424.559	800.000	0.075	0.219
-423.544	-53.967	0.136	-0.062
-422.530	-87.638	-0.322	0.097
-421.515	-200.000	-0.004	-0.423
-420.500	800.000	0.052	0.178
-419.486	-26.457	0.350	0.204
-418.471	-133.323	-0.117	-0.015
-417.457	150.915	-0.006	0.008
-416.442	-200.000	-0.010	0.228
-415.428	-104.275	0.087	0.020
-414.413	18.551	-0.317	0.252
-413.398	800.000	0.022	-0.090
-412.384	-200.000	-0.002	0.022
-411.369	9.816	-0.113	0.085
-410.355	784.088	-0.137	0.374
-409.340	546.502	-0.074	-0.175
-408.325	-200.000	0.037	-0.291
-407.311	-200.000	0.020	0.148
-406.296	79.660	0.129	0.138
-405.282	-102.404	0.156	0.037
-404.267	-200.000	-0.013	-0.263
-403.252	800.000	0.074	-0.282
-402.238	5.677	0.246	-0.181
-401.223	-118.736	0.244	-0.043
-400.209	46.765	0.165	0.152
-399.194	-116.457	-0.267	-0.049
-398.179	800.000	-0.130	-0.408
-397.165	-48.296	-0.148	0.071
-396.150	280.756	-0.166	0.295
-395.136	54.765	-0.186	-0.179
-394.121	214.689	0.108	-0.171
-393.106	8.844	-0.123	-0.092
-392.092	800.000	-0.095	0.326
-391.077	-37.903	0.193	0.102
-390.063	-55.272	-0.275	0.123
-389.048	122.637	0.323	-0.401
-388.033	169.297	-0.231	-0.327
-387.019	-115.524	-0.288	-0.054
-386.004	9.070	0.113	-0.085
-384.990	688.429	0.138	-0.358
-383.975	-200.000	0.055	0.396
-382.960	-173.176	0.108	0.003
-381.946	800.000	-0.056	0.166
-380.931	158.039	-0.132	0.182
-379.917	85.268	0.177	-0.193
-378.902	800.000	-0.083	-0.231
-377.888	-200.000	-0.005	-0.105
-376.873	52.086	-0.223	0.211
-375.858	-4.125	-0.086	0.059
-374.844	-10.887	0.158	0.104
-373.829	-185.538	0.248	0.004
-372.815	126.942	0.048	0.060
-371.800	335.960	0.099	-0.191
-370.785	-93.353	0.145	0.040
-369.771	-200.000	-0.003	-0.076
-368.756	48.622	-0.258	-0.240
-367.742	-7.990	0.061	-0.041
-366.727	-59.654	0.299	-0.127
-365.712	307.736	-0.090	-0.166
-364.698	497.245	0.087	-0.199
-363.683	-200.000	-0.006	-0.076
-362.669	116.465	0.178	-0.217
-361.654	-45.431	-0.294	0.145
-360.639	302.743	0.062	-0.114
-359.625	-200.000	0.006	0.160
-358.610	128.171	-0.081	-0.102
-357.596	-22.189	0.145	0.088
-356.581	95.233	-0.179	0.202
-355.566	-200.000	0.008	-0.422
-354.552	800.000	0.069	0.240
-353.537	45.479	0.082	-0.075
-352.523	-112.496	0.466	-0.092
-351.508	-200.000	-0.015	0.070
-350.493	110.610	0.072	-0.086
-349.479	-84.697	-0.121	-0.038
-348.464	-67.199	0.216	0.084
-347.450	-163.396	0.053	-0.002
-346.435	-90.826	-0.183	-0.052
-345.420	-166.486	-0.441	0.018
-344.406	282.149	-0.090	0.159
-343.391	-200.000	-0.037	-0.256
-342.377	-27.403	0.107	-0.062
-341.362	-124.902	0.059	-0.009
-340.348	-123.556	-0.566	0.089
-339.333	772.075	0.031	0.085
-338.318	-16.922	-0.188	0.118
-337.304	6.025	-0.121	-0.089
-336.289	-123.876	-0.348	0.054
-335.275	-200.000	-0.019	-0.178
-334.260	24.444	0.086	0.071
-333.245	20.488	-0.091	0.073
-332.231	-45.407	0.042	-0.021
-331.216	45.262	0.116	0.106
-330.202	-4.347	-0.125	0.086
-329.187	-132.543	-0.217	-0.028
-328.172	107.730	0.056	0.066
-327.158	800.000	-0.118	0.396
-326.143	710.270	-0.059	0.154
-325.129	-15.411	0.122	0.077
-324.114	222.573	0.157	0.250
-323.099	74.610	-0.101	-0.106
-322.085	-112.014	0.215	0.043
-321.070	39.331	0.063	-0.056
-320.056	332.116	0.051	-0.098
-319.041	800.000	-0.031	-0.102
-318.026	-47.889	0.134	-0.064
-317.012	-200.000	-0.028	-0.138
-315.997	14.117	0.119	0.092
-314.983	181.977	-0.286	0.417
-313.968	-125.494	0.407	-0.061
-312.953	800.000	0.009	-0.033
-311.939	551.292	-0.128	0.305
-310.924	-123.947	-0.203	0.032
-309.910	197.196	-0.161	0.243
-308.895	-146.240	0.215	0.019
-307.880	354.727	-0.116	-0.228
-306.866	-99.673	0.104	0.026
-305.851	-80.390	-0.416	-0.138
-304.837	626.492	-0.126	-0.315
-303.822	-124.312	0.246	-0.038
-302.807	-140.828	-0.223	0.023
-301.793	-193.640	0.054	0.000
-300.778	482.889	0.043	0.097
-299.764	62.539	0.191	0.189
-298.749	-200.000	0.090	0.559
-297.735	-167.743	0.045	-0.002
-296.720	-67.554	0.244	0.095
-295.705	-72.241	0.096	-0.035
-294.691	62.420	0.054	0.053
-293.676	33.456	-0.154	-0.132
-292.662	23.566	0.102	-0.083
-291.647	241.824	0.260	0.430
-290.632	619.556	-0.092	0.229
-289.618	800.000	-0.091	0.262
-288.603	104.633	0.141	0.164
-287.589	800.000	-0.041	0.158
-286.574	-153.105	0.235	0.016
-285.559	4.064	-0.035	-0.025
-284.545	800.000	0.058	0.225
-283.530	48.283	-0.192	0.177
-282.516	-104.108	0.330	-0.076
-281.501	-200.000	-0.043	-0.201
-280.486	-200.000	0.002	0.072
-279.472	-68.105	0.268	0.103
-278.457	-200.000	0.043	-0.194
-277.443	118.000	0.165	0.202
-276.428	-200.000	-0.002	-0.406
-275.413	-12.551	-0.011	0.007
-274.399	94.665	0.154	-0.173
-273.384	-26.122	0.441	-0.257
-272.370	-40.964	0.209	0.107
-271.355	49.241	0.052	-0.048
-270.340	800.000	-0.066	-0.211
-269.326	-2.866	0.271	0.187
-268.311	237.389	0.086	0.141
-267.297	-73.228	-0.244	-0.088
-266.282	-200.000	-0.037	-0.469
-265.267	800.000	-0.022	-0.092
-264.253	-128.433	0.135	-0.019
-263.238	315.434	-0.117	0.219
-262.224	5.741	-0.363	0.266
-261.209	44.293	0.152	-0.138
-260.195	-53.640	-0.234	-0.106
-259.180	262.093	-0.175	0.301
-258.165	800.000	0.014	-0.040
-257.151	274.887	-0.204	0.357
-256.136	250.951	0.224	0.376
-255.122	135.871	-0.166	0.214
-254.107	46.044	0.155	-0.142
-253.092	-132.850	-0.125	0.016
-252.078	-200.000	-0.022	-0.169
-251.063	-200.000	0.046	-0.202
-250.049	41.694	-0.075	-0.067
-249.034	-200.000	0.052	-0.523
-248.019	264.424	0.070	-0.121
-247.005	-11.149	0.231	-0.150
-245.990	-56.373	0.151	0.066
-244.976	266.071	-0.145	-0.250
-243.961	227.632	0.021	-0.034
-242.946	71.473	0.192	0.197
-241.932	248.180	-0.014	0.023
-240.917	-200.000	-0.010	-0.166
-239.903	-163.031	0.263	-0.013
-238.888	419.183	0.146	0.308
-237.873	113.028	0.112	-0.134
-236.859	134.027	0.164	-0.210
-235.844	-77.337	0.281	-0.096
-234.830	800.000	-0.065	0.242
-233.815	-200.000	0.008	0.074
-232.800	-97.517	-0.159	-0.041
-231.786	-89.472	-0.192	0.056
-230.771	800.000	0.057	0.180
-229.757	650.008	-0.053	-0.134
-228.742	-200.000	-0.013	0.083
-227.727	-200.000	0.027	0.323
-226.713	-178.617	-0.216	0.005
-225.698	116.251	-0.254	0.307
-224.684	296.237	0.098	-0.178
-223.669	230.298	0.046	0.075
-222.655	800.000	0.064	0.262
-221.640	-200.000	0.002	0.020
-220.625	-38.360	-0.057	-0.030
-219.611	201.243	0.137	-0.209
-218.596	149.072	-0.094	-0.125
-217.582	-100.928	-0.023	-0.006
-216.567	19.248	-0.134	-0.106
-215.552	24.234	0.200	0.163
-214.538	25.512	-0.177	-0.145
-213.523	-3.493	-0.280	0.192
-212.509	-169.774	0.187	-0.007
-211.494	-72.278	0.202	-0.074
-210.479	-200.000	-0.029	-0.137
-209.465	68.127	0.203	0.205
-208.450	21.562	0.065	0.052
-207.436	-86.118	0.084	-0.026
-206.421	-150.233	-0.155	-0.012
-205.406	748.961	-0.094	0.250
-204.392	446.452	-0.063	0.137
-203.377	159.455	0.097	0.133
-202.363	800.000	0.030	0.107
-201.348	-65.301	0.142	-0.056
-200.333	-179.156	-0.114	-0.003
-199.319	800.000	-0.098	0.305
-198.304	-200.000	0.014	-0.389
-197.290	28.864	-0.011	-0.009
-196.275	-75.535	0.339	-0.119
-195.260	-123.167	0.206	0.033
-194.246	153.776	-0.300	0.405
-193.231	245.957	0.058	-0.097
-192.217	-106.696	-0.267	-0.059
-191.202	54.200	0.232	0.221
-190.187	-200.000	0.049	0.314
-189.173	164.143	-0.022	-0.030
-188.158	232.716	0.134	-0.218
-187.144	16.693	0.166	0.129
-186.129	-200.000	-0.018	-0.137
-185.114	-46.057	0.072	-0.035
-184.100	-55.765	-0.109	0.048
-183.085	363.719	-0.192	-0.380
-182.071	289.931	-0.073	-0.131
-181.056	7.349	0.068	-0.050
-180.042	-155.864	0.415	-0.026
-179.027	-43.548	-0.122	0.061
-178.012	-15.992	-0.290	0.182
-176.998	-200.000	-0.008	-0.241
-175.983	-94.732	0.185	0.050
-174.969	-166.831	0.070	0.003
-173.954	74.039	-0.224	-0.232
-172.939	88.161	-0.106	-0.116
-171.925	-200.000	-0.066	0.360
-170.910	-106.619	0.277	0.061
-169.896	-200.000	-0.024	-0.187
-168.881	-51.536	-0.110	0.050
-167.866	800.000	0.059	-0.164
-166.852	298.908	0.028	0.051
-165.837	186.157	0.156	-0.228
-164.823	800.000	0.070	-0.196
-163.808	35.606	-0.396	0.343
-162.793	352.803	-0.113	-0.222
-161.779	-200.000	0.026	-0.373
-160.764	68.524	0.148	0.149
-159.750	39.329	0.269	-0.237
-158.735	-65.019	-0.229	-0.091
-157.720	800.000	-0.012	0.039
-156.706	212.788	0.171	-0.265
-155.691	-134.965	0.325	0.039
-154.677	45.123	-0.213	-0.193
-153.662	-134.536	0.346	-0.042
-152.647	207.691	0.013	-0.020
-151.633	-5.840	-0.109	0.074
-150.618	800.000	-0.019	-0.065
-149.604	-90.896	-0.233	0.066
-148.589	-200.000	-0.000	-0.006
-147.574	-139.051	-0.481	0.051
-146.560	-200.000	-0.003	0.470
-145.545	800.000	0.084	0.321
-144.531	581.908	-0.050	-0.121
-143.516	78.598	0.075	0.079
-142.502	800.000	0.139	0.381
-141.487	800.000	0.072	0.251
-140.472	13.934	0.168	0.129
-139.458	240.132	-0.052	0.085
-138.443	-200.000	-0.007	-0.289
-137.429	45.842	0.131	0.119
-136.414	-141.159	-0.096	-0.010
-135.399	-38.504	-0.109	0.057
-134.385	691.607	-0.070	0.180
-133.370	664.524	-0.111	0.281
-132.356	561.012	-0.055	0.131
-131.341	-200.000	-0.009	0.061
-130.326	157.113	0.136	0.185
-129.312	-182.475	0.091	0.002
-128.297	289.585	-0.107	0.192
-127.283	800.000	0.052	0.169
-126.268	-200.000	0.012	-0.203
-125.253	-200.000	0.009	-0.272
-124.239	800.000	0.015	-0.062
-123.224	800.000	-0.017	-0.063
-122.210	137.959	0.079	-0.102
-121.195	63.904	-0.110	-0.109
