DTS Sentinel unit serial number:	SN413079Multiplexer serial number:	ORYXHardware model number:	OX4-SRSoftware version number:	ORYX F/W v4.00 Oryx Data Collector v3.7.2.0data status	okinstallation	princeton_trtdifferential loss correction	single-endedforward channel	channel 2reverse channel	N/Adate	2019/09/11time	18:17:11forward acquisition time	60.00reverse acquisition time	0.00gamma	496.2192k internal	0.2285k external	0.2285temperature offset calibration	1.0024default loss term (dB/km)	0.3790temperature slope calibration	1.0000multiplexer offset coefficient	1.0000multiplexer slope coefficient	1.0000fibre end	0.00T internal ref (°C)	44.00T ext. ref 1 (°C)	1.14T ext. ref 2 (°C)	38.87length (m)	temperature (°C)	Stokes	anti-Stokes-747.200	-87.637	0.069	-0.021
-746.185	119.461	0.051	0.064
-745.171	-200.000	0.021	0.563
-744.156	-200.000	0.016	0.148
-743.142	26.205	-0.052	-0.045
-742.127	-200.000	0.012	0.227
-741.112	14.818	0.183	-0.147
-740.098	-200.000	0.020	0.329
-739.083	-159.752	0.163	0.009
-738.069	57.982	-0.098	-0.099
-737.054	-47.215	-0.348	0.174
-736.039	247.637	-0.157	0.273
-735.025	248.931	0.235	0.409
-734.010	800.000	-0.061	-0.268
-732.996	99.505	-0.132	-0.157
-731.981	800.000	0.071	0.205
-730.966	32.420	-0.197	-0.175
-729.952	-200.000	0.033	-0.333
-728.937	-95.366	-0.352	-0.097
-727.923	-2.511	-0.134	-0.096
-726.908	-200.000	-0.010	-0.439
-725.894	800.000	0.034	0.130
-724.879	-51.636	-0.195	-0.093
-723.864	85.342	-0.208	-0.235
-722.850	-200.000	-0.045	-0.213
-721.835	420.765	-0.060	-0.132
-720.821	-39.201	-0.241	-0.130
-719.806	-91.057	-0.226	0.067
-718.791	800.000	0.083	0.362
-717.777	-104.988	-0.350	-0.082
-716.762	-121.192	-0.194	0.033
-715.748	800.000	0.040	0.122
-714.733	310.787	-0.105	-0.201
-713.718	-140.228	-0.248	0.027
-712.704	-83.041	-0.213	-0.070
-711.689	730.609	-0.034	-0.094
-710.675	186.648	0.103	0.157
-709.660	120.148	0.146	0.186
-708.645	800.000	-0.098	0.347
-707.631	55.588	-0.077	-0.076
-706.616	-200.000	-0.012	-0.301
-705.602	114.517	-0.118	0.147
-704.587	281.319	0.073	0.133
-703.572	76.290	-0.088	0.096
-702.558	33.276	0.069	-0.062
-701.543	800.000	-0.049	-0.147
-700.529	152.557	0.017	0.023
-699.514	99.571	-0.278	-0.330
-698.499	-117.234	0.381	-0.071
-697.485	-167.249	-0.304	0.013
-696.470	34.889	-0.316	-0.284
-695.456	56.616	-0.206	0.205
-694.441	18.354	0.205	-0.168
-693.426	-6.417	-0.299	-0.209
-692.412	800.000	-0.026	0.074
-691.397	238.684	0.063	-0.107
-690.383	30.269	0.183	0.160
-689.368	-26.713	-0.184	0.110
-688.354	86.395	-0.097	0.110
-687.339	-200.000	0.043	0.270
-686.324	467.547	-0.055	0.126
-685.310	800.000	0.094	0.319
-684.295	800.000	-0.045	-0.132
-683.281	-200.000	0.041	-0.253
-682.266	240.172	0.077	0.132
-681.251	-174.338	0.061	-0.002
-680.237	-93.038	-0.230	-0.066
-679.222	-200.000	0.051	-0.265
-678.208	-183.626	0.045	0.001
-677.193	-200.000	-0.019	-0.257
-676.178	-200.000	0.037	-0.233
-675.164	416.586	0.092	0.202
-674.149	800.000	-0.029	-0.096
-673.135	800.000	0.140	-0.411
-672.120	800.000	-0.051	0.166
-671.105	-200.000	0.026	0.343
-670.091	-49.759	0.148	0.072
-669.076	-51.273	0.175	-0.084
-668.062	218.596	0.318	0.520
-667.047	-200.000	-0.013	-0.194
-666.032	250.112	0.285	-0.496
-665.018	171.673	0.101	0.149
-664.003	-78.032	-0.114	0.040
-662.989	-53.233	0.148	0.070
-661.974	-48.219	0.330	-0.163
-660.959	-73.150	-0.256	0.096
-659.945	425.355	-0.120	-0.264
-658.930	184.734	-0.169	-0.256
-657.916	-109.136	0.303	0.066
-656.901	142.142	0.267	0.363
-655.886	-200.000	-0.026	0.160
-654.872	-34.554	0.481	-0.269
-653.857	127.373	-0.105	-0.137
-652.843	-134.481	-0.241	-0.030
-651.828	522.625	0.202	-0.484
-650.814	-20.810	-0.190	-0.119
-649.799	49.321	0.034	-0.033
-648.784	-133.575	-0.321	0.041
-647.770	148.809	0.079	0.110
-646.755	158.198	0.160	-0.227
-645.741	-34.120	0.110	0.062
-644.726	56.045	0.003	-0.003
-643.711	49.858	-0.141	-0.136
-642.697	800.000	0.074	-0.329
-641.682	800.000	-0.162	-0.485
-640.668	-8.907	-0.178	-0.122
-639.653	800.000	0.064	0.232
-638.638	-200.000	0.004	-0.136
-637.624	154.229	-0.164	-0.230
-636.609	-154.948	-0.075	-0.005
-635.595	-47.123	0.209	0.104
-634.580	125.431	0.147	0.189
-633.565	122.493	-0.044	0.056
-632.551	-32.290	-0.287	-0.164
-631.536	-127.240	-0.048	-0.007
-630.522	800.000	-0.029	-0.127
-629.507	-153.201	0.142	-0.010
-628.492	7.502	0.139	0.106
-627.478	106.273	0.184	-0.223
-626.463	-161.214	-0.030	0.002
-625.449	362.122	-0.165	-0.339
-624.434	-67.374	0.292	-0.117
-623.419	148.027	0.193	0.266
-622.405	731.336	-0.057	0.156
-621.390	48.600	0.144	0.138
-620.376	52.649	-0.199	0.194
-619.361	238.532	0.046	-0.078
-618.346	800.000	0.034	0.095
-617.332	-85.728	0.257	-0.081
-616.317	603.147	-0.071	0.179
-615.303	102.180	-0.200	0.239
-614.288	-200.000	0.035	-0.160
-613.273	715.706	0.045	-0.123
-612.259	800.000	-0.033	-0.110
-611.244	213.190	0.101	-0.163
-610.230	-168.001	0.360	0.014
-609.215	800.000	-0.025	-0.108
-608.201	-85.129	-0.081	-0.026
-607.186	-21.193	0.066	0.041
-606.171	38.771	0.207	-0.189
-605.157	-76.842	-0.261	-0.093
-604.142	800.000	0.080	-0.330
-603.128	-1.224	0.373	0.269
-602.113	-140.983	-0.067	-0.007
-601.098	-34.042	0.230	0.129
-600.084	-200.000	-0.009	0.130
-599.069	-144.959	0.248	-0.023
-598.055	-107.855	-0.173	-0.038
-597.040	-56.299	0.193	-0.087
-596.025	209.661	-0.096	0.153
-595.011	77.958	-0.228	0.248
-593.996	83.718	-0.305	0.339
-592.982	-38.466	0.182	-0.098
-591.967	42.657	0.158	0.147
-590.952	-200.000	-0.013	0.242
-589.938	74.195	0.268	0.287
-588.923	25.093	-0.322	-0.273
-587.909	-200.000	0.047	-0.258
-586.894	124.011	-0.216	-0.276
-585.879	-200.000	-0.043	0.233
-584.865	-164.934	0.161	-0.007
-583.850	158.628	0.181	-0.257
-582.836	800.000	0.076	-0.252
-581.821	-200.000	0.036	0.455
-580.806	-155.291	-0.256	0.017
-579.792	-46.213	-0.239	-0.120
-578.777	800.000	-0.047	-0.172
-577.763	7.645	-0.299	-0.229
-576.748	-200.000	-0.020	-0.116
-575.733	-51.621	-0.215	0.102
-574.719	-101.184	-0.302	-0.075
-573.704	51.541	-0.352	-0.341
-572.690	-48.046	0.288	-0.142
-571.675	800.000	-0.078	0.257
-570.661	-107.918	-0.170	-0.038
-569.646	-163.539	0.055	0.003
-568.631	-110.638	0.200	0.042
-567.617	-200.000	0.021	-0.134
-566.602	-200.000	-0.012	-0.142
-565.588	209.227	-0.075	-0.120
-564.573	53.603	0.062	0.061
-563.558	785.644	0.134	-0.375
-562.544	326.197	0.112	-0.218
-561.529	800.000	-0.077	-0.218
-560.515	800.000	-0.029	0.126
-559.500	-142.209	0.135	-0.014
-558.485	-91.777	-0.394	-0.114
-557.471	-200.000	0.043	0.252
-556.456	207.029	0.168	-0.267
-555.442	-50.204	-0.312	-0.150
-554.427	-53.555	-0.034	-0.016
-553.412	-160.264	0.121	-0.007
-552.398	-200.000	0.019	0.123
-551.383	-74.083	0.256	-0.095
-550.369	88.752	-0.148	-0.168
-549.354	800.000	-0.032	-0.092
-548.339	331.307	0.156	-0.306
-547.325	28.067	0.092	-0.079
-546.310	-176.366	-0.188	-0.005
-545.296	-200.000	-0.068	0.477
-544.281	-98.730	-0.299	0.078
-543.266	-200.000	-0.043	-0.198
-542.252	800.000	0.032	-0.111
-541.237	-87.599	0.053	0.016
-540.223	-88.361	-0.141	0.043
-539.208	-55.355	-0.234	0.107
-538.193	17.126	-0.251	-0.203
-537.179	-61.912	0.187	0.080
-536.164	-81.399	0.106	0.036
-535.150	-200.000	-0.022	-0.168
-534.135	319.554	-0.112	-0.217
-533.121	-81.008	0.303	-0.102
-532.106	-200.000	0.018	-0.323
-531.091	1.898	0.123	-0.090
-530.077	800.000	0.045	0.163
-529.062	-8.997	0.143	-0.098
-528.048	-126.882	0.178	0.027
-527.033	253.717	-0.094	-0.163
-526.018	-86.610	0.200	-0.063
-525.004	-89.932	0.558	-0.166
-523.989	-200.000	-0.010	-0.185
-522.975	-81.987	-0.337	-0.112
-521.960	-131.874	0.138	-0.018
-520.945	30.646	0.077	-0.067
-519.931	-78.549	0.078	0.027
-518.916	-65.175	0.155	-0.064
-517.902	-69.441	0.057	-0.022
-516.887	-56.768	-0.108	-0.049
-515.872	190.196	0.112	0.172
-514.858	146.014	-0.158	0.215
-513.843	-81.277	-0.490	-0.165
-512.829	-85.244	-0.069	-0.022
-511.814	248.082	0.155	0.267
-510.799	135.506	-0.099	0.132
-509.785	-200.000	-0.044	0.334
-508.770	-88.128	0.232	0.071
-507.756	-75.795	0.191	0.069
-506.741	196.524	-0.102	0.158
-505.726	340.691	0.044	-0.088
-504.712	-200.000	0.055	-0.369
-503.697	14.778	0.037	0.029
-502.683	23.429	-0.202	0.169
-501.668	-51.867	-0.127	0.060
-500.653	-200.000	-0.006	0.347
-499.639	-200.000	0.058	-0.279
-498.624	-65.624	-0.257	0.105
-497.610	19.696	-0.349	0.286
-496.595	61.738	0.066	0.067
-495.581	800.000	-0.055	-0.179
-494.566	-23.871	0.088	-0.054
-493.551	359.596	0.183	0.372
-492.537	-138.915	0.146	0.016
-491.522	-98.921	-0.231	-0.060
-490.508	800.000	0.060	0.213
-489.493	-114.829	-0.126	0.024
-488.478	-54.798	-0.302	0.139
-487.464	29.601	-0.123	-0.106
-486.449	-110.148	-0.177	0.038
-485.435	800.000	0.091	0.349
-484.420	-131.383	0.139	0.019
-483.405	-53.599	0.247	0.115
-482.391	65.749	-0.140	0.144
-481.376	-97.565	-0.163	0.043
-480.362	-20.860	-0.321	0.200
-479.347	-176.295	-0.104	-0.003
-478.332	370.757	0.100	-0.205
-477.318	-200.000	-0.033	0.285
-476.303	227.632	0.133	-0.220
-475.289	-200.000	-0.037	0.289
-474.274	-63.204	-0.384	0.161
-473.259	-36.079	-0.185	0.102
-472.245	720.063	-0.120	-0.324
-471.230	379.244	0.184	-0.383
-470.216	-164.631	-0.138	0.006
-469.201	-0.189	-0.114	-0.083
-468.186	-200.000	0.028	0.157
-467.172	-76.553	-0.128	0.046
-466.157	800.000	-0.054	0.197
-465.143	43.975	-0.053	-0.050
-464.128	361.154	0.036	-0.073
-463.113	-32.107	-0.274	-0.155
-462.099	25.632	0.267	-0.226
-461.084	775.961	-0.070	-0.194
-460.070	-2.841	-0.080	0.056
-459.055	-167.776	-0.327	0.013
-458.040	42.825	0.145	0.135
-457.026	-63.117	0.114	0.048
-456.011	-57.340	-0.071	-0.032
-454.997	51.739	-0.252	-0.243
-453.982	-200.000	-0.017	-0.225
-452.968	-141.925	0.218	0.022
-451.953	690.931	-0.067	0.178
-450.938	373.613	-0.149	-0.308
-449.924	800.000	-0.076	-0.219
-448.909	-200.000	0.050	0.243
-447.895	163.333	-0.036	0.051
-446.880	-200.000	0.015	0.184
-445.865	-200.000	0.000	0.021
-444.851	-20.134	-0.123	-0.077
-443.836	-89.815	0.084	-0.025
-442.822	527.203	0.088	0.210
-441.807	800.000	-0.084	0.293
-440.792	226.352	-0.105	0.172
-439.778	282.424	0.001	0.003
-438.763	-58.397	-0.192	0.085
-437.749	-31.135	0.163	0.093
-436.734	-57.969	-0.202	-0.090
-435.719	800.000	-0.014	-0.061
-434.705	49.038	0.216	-0.206
-433.690	-97.425	-0.247	0.065
-432.676	-82.704	-0.162	0.053
-431.661	-200.000	0.033	-0.212
-430.646	-113.371	0.180	0.036
-429.632	-186.296	0.120	0.002
-428.617	49.901	-0.175	0.167
-427.603	-119.073	0.092	0.016
-426.588	-200.000	0.057	0.314
-425.573	32.824	-0.165	-0.144
-424.559	114.495	0.125	0.154
-423.544	159.785	-0.108	0.152
-422.530	-200.000	-0.009	0.118
-421.515	268.222	-0.075	-0.132
-420.500	-200.000	0.009	-0.094
-419.486	-58.809	-0.230	0.101
-418.471	-62.284	0.228	0.096
-417.457	72.816	-0.336	-0.355
-416.442	-60.472	0.259	-0.112
-415.428	-86.562	0.318	0.099
-414.413	91.885	-0.150	-0.171
-413.398	-150.263	0.256	-0.020
-412.384	473.322	0.123	-0.282
-411.369	-105.015	-0.397	0.092
-410.355	-200.000	-0.002	0.156
-409.340	800.000	0.049	0.191
-408.325	-157.579	0.180	-0.011
-407.311	-33.270	-0.145	0.081
-406.296	88.437	0.104	-0.117
-405.282	18.224	0.197	-0.159
-404.267	786.472	-0.084	0.233
-403.252	-107.712	0.288	0.064
-402.238	30.073	0.154	0.133
-401.223	18.300	0.262	0.212
-400.209	5.654	-0.273	0.205
-399.194	-40.143	0.114	0.060
-398.179	-194.004	-0.099	-0.001
-397.165	104.055	0.109	-0.130
-396.150	773.214	-0.024	-0.066
-395.136	-81.232	0.183	-0.061
-394.121	800.000	0.035	-0.134
-393.106	423.550	-0.010	0.021
-392.092	220.274	-0.173	0.281
-391.077	-136.169	-0.114	0.013
-390.063	103.694	-0.119	-0.142
-389.048	96.104	0.201	0.233
-388.033	-190.406	0.153	0.002
-387.019	-28.479	0.202	0.118
-386.004	29.601	0.109	-0.094
-384.990	-67.217	0.045	0.018
-383.975	31.164	0.032	0.027
-382.960	-166.534	-0.224	0.009
-381.946	589.806	0.050	-0.126
-380.931	-200.000	-0.001	0.195
-379.917	-138.955	-0.210	0.023
-378.902	171.341	0.154	-0.223
-377.888	800.000	-0.085	-0.258
-376.873	-200.000	-0.086	0.550
-375.858	561.247	0.067	0.164
-374.844	266.444	-0.135	0.239
-373.829	-200.000	-0.005	0.134
-372.815	-84.971	0.185	0.059
-371.800	227.211	0.192	-0.316
-370.785	84.369	0.232	0.256
-369.771	-77.246	0.230	0.081
-368.756	-28.574	-0.286	0.167
-367.742	-105.444	-0.325	0.075
-366.727	-200.000	0.000	0.040
-365.712	155.785	-0.112	0.156
-364.698	-54.212	0.199	0.091
-363.683	-50.832	-0.335	0.159
-362.669	248.979	0.157	0.269
-361.654	68.539	-0.262	-0.272
-360.639	27.230	0.046	0.039
-359.625	23.350	0.267	0.222
-358.610	251.145	0.113	0.195
-357.596	-80.361	0.180	-0.061
-356.581	-66.257	-0.381	0.154
-355.566	158.355	0.060	-0.085
-354.552	-200.000	0.037	0.360
-353.537	-54.424	-0.232	-0.106
-352.523	-200.000	0.026	-0.239
-351.508	-113.929	-0.200	0.039
-350.493	71.158	-0.136	-0.143
-349.479	800.000	-0.045	-0.151
-348.464	-38.082	-0.136	0.073
-347.450	388.215	-0.055	0.115
-346.435	-45.755	-0.198	0.099
-345.420	52.848	0.070	-0.068
-344.406	-85.346	0.227	0.072
-343.391	-200.000	-0.020	0.266
-342.377	608.199	0.116	-0.293
-341.362	301.417	0.069	-0.130
-340.348	-109.390	0.073	0.016
-339.333	582.083	-0.056	-0.138
-338.318	180.410	-0.073	-0.109
-337.304	746.033	0.094	-0.256
-336.289	540.911	-0.076	-0.183
-335.275	-134.753	-0.252	-0.031
-334.260	-176.839	0.445	0.011
-333.245	378.505	-0.056	-0.115
-332.231	-11.651	-0.064	0.043
-331.216	-75.525	-0.169	-0.061
-330.202	-36.121	-0.257	0.140
-329.187	68.076	0.087	0.090
-328.172	-24.288	-0.146	0.088
-327.158	0.488	-0.309	0.223
-326.143	-200.000	-0.059	0.290
-325.129	-200.000	-0.008	-0.121
-324.114	39.905	-0.067	0.060
-323.099	98.287	0.134	-0.156
-322.085	-193.509	0.288	0.003
-321.070	429.641	0.125	0.273
-320.056	-21.162	-0.122	-0.075
-319.041	-151.178	0.136	0.010
-318.026	259.896	-0.125	0.218
-317.012	78.127	0.052	0.056
-315.997	134.752	-0.145	0.190
-314.983	-127.919	-0.325	0.047
-313.968	-130.658	0.192	-0.026
-312.953	-107.019	-0.425	0.095
-311.939	451.455	0.045	0.101
-310.924	800.000	0.025	0.075
-309.910	17.691	0.109	-0.087
-308.895	18.495	0.187	0.151
-307.880	-200.000	-0.025	0.200
-306.866	-200.000	-0.002	0.019
-305.851	-73.134	0.111	0.041
-304.837	-132.097	0.152	-0.020
-303.822	368.236	0.057	0.116
-302.807	800.000	0.071	0.283
-301.793	532.324	-0.010	0.025
-300.778	-200.000	0.057	0.537
-299.764	800.000	0.062	-0.196
-298.749	121.353	-0.142	0.179
-297.735	-78.255	-0.140	-0.049
-296.720	-5.100	0.240	0.167
-295.705	170.205	-0.286	0.412
-294.691	48.730	-0.125	0.118
-293.676	98.086	0.204	0.236
-292.662	-200.000	-0.003	0.172
-291.647	122.094	-0.082	0.103
-290.632	141.720	0.163	0.218
-289.618	501.804	-0.061	0.143
-288.603	800.000	-0.021	-0.063
-287.589	138.694	-0.163	-0.216
-286.574	-21.237	-0.141	0.087
-285.559	218.903	0.245	-0.395
-284.545	265.457	-0.018	-0.032
-283.530	-200.000	-0.012	0.182
-282.516	-200.000	-0.020	0.390
-281.501	800.000	-0.061	0.217
-280.486	-66.337	-0.275	-0.110
-279.472	-137.573	0.254	-0.029
-278.457	-97.318	-0.040	-0.011
-277.443	-10.632	-0.161	-0.107
-276.428	167.878	-0.107	-0.154
-275.413	-62.338	0.255	-0.107
-274.399	-76.046	0.404	0.144
-273.384	-200.000	-0.049	-0.443
-272.370	8.279	0.190	0.144
-271.355	-48.332	-0.052	0.025
-270.340	-177.154	-0.321	0.008
-269.326	54.278	0.107	0.103
-268.311	-200.000	-0.021	0.201
-267.297	-8.568	-0.357	-0.242
-266.282	118.004	-0.175	0.218
-265.267	20.060	0.056	-0.046
-264.253	67.716	-0.085	-0.087
-263.238	-200.000	0.013	-0.113
-262.224	28.151	0.205	-0.174
-261.209	110.707	0.034	0.041
-260.195	28.239	0.131	0.112
-259.180	323.828	-0.041	-0.079
-258.165	-169.519	-0.245	-0.009
-257.151	-134.577	0.217	0.027
-256.136	-120.901	0.109	0.018
-255.122	701.750	-0.042	-0.111
-254.107	800.000	0.161	-0.459
-253.092	-200.000	-0.007	0.485
-252.078	-45.770	-0.338	-0.168
-251.063	-29.556	0.014	-0.008
-250.049	-98.829	-0.138	0.035
-249.034	105.513	0.238	0.284
-248.019	173.954	-0.098	0.142
-247.005	67.566	0.103	-0.106
-245.990	800.000	-0.014	0.060
-244.976	441.257	0.168	-0.371
-243.961	78.274	0.236	-0.253
-242.946	43.034	0.144	-0.132
-241.932	163.438	0.163	-0.230
-240.917	2.993	-0.231	0.169
-239.903	1.433	0.266	-0.192
-238.888	-200.000	-0.043	0.339
-237.873	-53.102	0.143	-0.066
-236.859	-200.000	-0.015	-0.402
-235.844	169.875	-0.137	0.198
-234.830	-200.000	-0.011	-0.059
-233.815	-200.000	-0.021	-0.286
-232.800	133.464	-0.215	-0.280
-231.786	800.000	-0.083	-0.261
-230.771	124.032	-0.065	-0.082
-229.757	800.000	-0.089	-0.290
-228.742	-29.631	-0.176	-0.101
-227.727	3.307	0.123	0.090
-226.713	-200.000	0.046	0.238
-225.698	-132.533	0.323	-0.042
-224.684	210.863	0.116	0.184
-223.669	-0.068	-0.364	0.261
-222.655	-179.865	0.130	0.003
-221.640	2.896	0.206	0.150
-220.625	-200.000	-0.093	0.591
-219.611	-200.000	0.014	0.081
-218.596	-175.675	-0.099	-0.003
-217.582	-48.794	0.295	-0.143
-216.567	-62.813	-0.128	0.053
-215.552	800.000	-0.050	0.185
-214.538	207.171	-0.086	-0.134
-213.523	2.002	-0.228	0.166
-212.509	-200.000	-0.014	-0.212
-211.494	-54.999	-0.235	0.107
-210.479	68.267	0.172	-0.177
-209.465	-19.376	0.075	0.047
-208.450	-149.125	-0.209	0.017
-207.436	25.168	0.198	0.166
-206.421	178.758	0.116	0.171
-205.406	91.912	0.130	-0.147
-204.392	-94.423	-0.140	-0.038
-203.377	-54.258	0.161	0.074
-202.363	-135.072	0.240	-0.029
-201.348	268.387	0.134	0.236
-200.333	-200.000	0.007	-0.211
-199.319	114.612	0.137	-0.167
-198.304	800.000	0.056	-0.188
-197.290	458.907	0.150	-0.336
-196.275	800.000	-0.031	-0.133
-195.260	800.000	0.054	-0.190
-194.246	-200.000	0.020	-0.361
-193.231	312.535	0.078	-0.147
-192.217	460.586	-0.054	-0.120
-191.202	-200.000	-0.047	0.320
-190.187	-9.855	-0.022	-0.015
-189.173	-38.990	0.257	0.136
-188.158	-200.000	0.022	-0.169
-187.144	240.354	0.115	0.192
-186.129	-200.000	0.024	0.273
-185.114	-166.188	0.207	0.009
-184.100	800.000	-0.091	-0.316
-183.085	242.941	-0.138	0.233
-182.071	-59.663	0.213	-0.092
-181.056	-154.246	0.204	0.014
-180.042	800.000	0.072	-0.278
-179.027	266.103	0.267	-0.467
-178.012	83.012	-0.270	-0.295
-176.998	710.778	0.027	0.072
-175.983	45.464	-0.074	-0.069
-174.969	3.850	-0.141	-0.103
-173.954	224.895	-0.065	-0.105
-172.939	-200.000	-0.002	0.012
-171.925	-83.296	0.485	-0.156
-170.910	88.738	0.120	-0.134
-169.896	-200.000	-0.010	0.087
-168.881	149.583	0.171	-0.232
-167.866	102.486	0.049	0.058
-166.852	386.198	0.026	-0.055
-165.837	-65.151	0.211	-0.085
-164.823	244.457	0.131	0.221
-163.808	-85.792	-0.148	-0.046
-162.793	120.974	0.157	0.196
-161.779	402.772	-0.085	-0.180
-160.764	64.001	0.238	0.241
-159.750	189.993	0.088	-0.132
-158.735	800.000	-0.041	0.117
-157.720	-138.145	-0.073	0.008
-156.706	54.597	-0.141	-0.136
-155.691	45.603	0.110	0.102
-154.677	-117.359	-0.310	-0.056
-153.662	289.588	0.145	-0.263
-152.647	800.000	0.101	-0.296
-151.633	-200.000	0.005	0.091
-150.618	-191.260	0.280	0.003
-149.604	-200.000	-0.009	-0.071
-148.589	-100.071	-0.165	0.041
-147.574	-2.413	-0.144	0.101
-146.560	-11.416	0.255	-0.168
-145.545	-128.822	0.343	0.048
-144.531	-139.539	0.025	0.003
-143.516	159.149	0.143	0.199
-142.502	25.498	0.075	-0.063
-141.487	461.752	-0.042	0.094
-140.472	-138.972	0.304	0.033
-139.458	-71.828	-0.030	-0.011
-138.443	-144.387	0.238	-0.022
-137.429	-58.141	-0.333	0.146
-136.414	-162.126	0.160	0.008
-135.399	-199.776	0.120	-0.001
-134.385	715.683	-0.147	0.391
-133.370	-80.609	0.254	0.085
-132.356	453.673	-0.060	-0.134
-131.341	193.002	0.155	-0.235
-130.326	389.001	-0.100	0.207
-129.312	-200.000	-0.015	0.158
-128.297	467.251	0.062	-0.139
-127.283	13.657	0.186	0.145
-126.268	299.133	0.146	-0.269
-125.253	-99.640	0.128	0.032
-124.239	258.543	0.184	0.317
-123.224	391.384	0.113	-0.234
-122.210	-40.760	0.458	-0.238
-121.195	-16.492	0.227	0.144
-120.180	1.275	0.223	-0.161
