DTS Sentinel unit serial number:	SN413079Multiplexer serial number:	ORYXHardware model number:	OX4-SRSoftware version number:	ORYX F/W v4.00 Oryx Data Collector v3.7.2.0data status	okinstallation	princeton_trtdifferential loss correction	single-endedforward channel	channel 2reverse channel	N/Adate	2019/09/16time	17:15:35forward acquisition time	60.00reverse acquisition time	0.00gamma	496.2192k internal	0.2308k external	0.2308temperature offset calibration	0.9941default loss term (dB/km)	0.3790temperature slope calibration	1.0000multiplexer offset coefficient	1.0000multiplexer slope coefficient	1.0000fibre end	0.00T internal ref (°C)	38.89T ext. ref 1 (°C)	15.37T ext. ref 2 (°C)	32.97length (m)	temperature (°C)	Stokes	anti-Stokes-747.200	-200.000	0.014	0.155
-746.185	52.385	-0.180	0.175
-745.171	167.024	-0.196	0.282
-744.156	594.870	-0.190	0.477
-743.142	541.911	-0.240	0.582
-742.127	-27.432	-0.259	0.153
-741.112	-200.000	0.032	-0.253
-740.098	152.790	0.128	0.178
-739.083	-140.485	-0.278	0.029
-738.069	5.414	-0.173	0.130
-737.054	-169.386	-0.176	0.007
-736.039	357.117	-0.179	-0.363
-735.025	210.162	0.060	0.096
-734.010	-30.623	0.237	-0.136
-732.996	610.024	-0.079	-0.200
-731.981	507.768	-0.128	-0.303
-730.966	-27.804	0.181	-0.107
-729.952	335.256	-0.046	-0.090
-728.937	492.454	0.126	-0.293
-727.923	24.581	0.363	-0.305
-726.908	84.197	-0.072	-0.079
-725.894	-67.956	-0.290	-0.115
-724.879	192.814	0.224	-0.343
-723.864	-82.975	-0.226	0.074
-722.850	-200.000	0.025	0.238
-721.835	337.119	-0.182	-0.358
-720.821	-114.874	-0.654	-0.126
-719.806	-85.666	0.340	-0.107
-718.791	-116.997	-0.286	0.053
-717.777	-142.366	0.103	-0.010
-716.762	-164.154	-0.361	0.017
-715.748	170.480	0.111	0.161
-714.733	492.263	-0.081	0.188
-713.718	-183.384	0.158	0.003
-712.704	292.496	0.131	0.242
-711.689	-25.913	0.141	0.084
-710.675	-123.607	0.073	0.012
-709.660	377.796	-0.150	0.312
-708.645	-41.448	-0.218	-0.114
-707.631	336.659	0.099	-0.194
-706.616	-30.161	-0.214	0.124
-705.602	-182.971	0.073	0.001
-704.587	7.933	-0.139	-0.106
-703.572	121.285	0.173	-0.219
-702.558	253.320	0.076	-0.131
-701.543	800.000	0.055	-0.236
-700.529	800.000	0.110	-0.323
-699.514	100.635	-0.227	-0.267
-698.499	304.847	-0.058	0.110
-697.485	-144.426	-0.293	0.028
-696.470	-53.431	0.117	0.055
-695.456	-28.187	-0.207	-0.121
-694.441	16.788	0.200	-0.160
-693.426	-20.654	0.274	-0.171
-692.412	-104.366	-0.233	-0.055
-691.397	42.027	0.212	-0.195
-690.383	800.000	-0.093	0.366
-689.368	-80.655	0.247	-0.083
-688.354	31.287	0.241	0.210
-687.339	-54.304	-0.244	0.112
-686.324	131.512	0.030	-0.039
-685.310	592.627	-0.083	-0.209
-684.295	643.407	-0.123	0.318
-683.281	-42.202	0.210	-0.109
-682.266	-200.000	0.052	-0.271
-681.251	-81.167	-0.035	0.012
-680.237	-71.624	-0.265	-0.100
-679.222	159.743	-0.132	0.187
-678.208	1.008	-0.170	0.123
-677.193	-41.265	-0.455	-0.238
-676.178	43.097	-0.265	0.245
-675.164	800.000	-0.079	-0.269
-674.149	31.032	-0.338	-0.294
-673.135	-113.567	-0.191	-0.038
-672.120	81.821	0.186	0.204
-671.105	-62.122	0.271	0.114
-670.091	138.074	-0.200	0.266
-669.076	300.044	0.144	-0.268
-668.062	137.324	0.188	0.249
-667.047	-198.054	0.177	-0.001
-666.032	-0.282	-0.113	-0.082
-665.018	-200.000	0.019	-0.130
-664.003	-134.564	-0.266	-0.033
-662.989	353.529	-0.218	-0.439
-661.974	147.774	-0.207	-0.283
-660.959	800.000	0.070	-0.226
-659.945	-200.000	-0.045	-0.208
-658.930	-59.356	-0.176	0.077
-657.916	800.000	-0.040	-0.139
-656.901	-90.546	0.397	0.116
-655.886	213.395	0.197	0.315
-654.872	-190.671	0.341	0.004
-653.857	-56.529	0.083	0.037
-652.843	300.868	-0.047	-0.088
-651.828	800.000	-0.142	-0.509
-650.814	-98.709	0.391	-0.101
-649.799	-133.858	-0.317	0.040
-648.784	-138.702	0.184	-0.020
-647.770	800.000	-0.076	-0.279
-646.755	-129.799	0.349	-0.049
-645.741	-148.383	0.295	0.025
-644.726	-54.731	-0.146	0.067
-643.711	-105.088	-0.152	-0.035
-642.697	-139.105	0.084	-0.009
-641.682	174.068	0.062	0.091
-640.668	772.083	-0.148	0.409
-639.653	-200.000	-0.005	-0.266
-638.638	549.311	-0.159	-0.386
-637.624	800.000	-0.075	-0.216
-636.609	121.414	0.078	0.098
-635.595	-156.175	-0.082	0.005
-634.580	-200.000	-0.039	0.209
-633.565	-160.159	0.143	-0.008
-632.551	348.824	-0.118	-0.236
-631.536	576.021	0.033	0.082
-630.522	63.723	0.050	-0.050
-629.507	-89.432	-0.264	0.079
-628.492	-200.000	-0.015	-0.228
-627.478	-30.917	0.161	0.092
-626.463	-30.721	-0.249	-0.142
-625.449	334.888	0.091	-0.178
-624.434	-97.733	0.230	-0.060
-623.419	-200.000	0.024	-0.159
-622.405	-154.586	-0.257	0.017
-621.390	83.254	0.080	-0.088
-620.376	293.614	-0.122	0.225
-619.361	25.156	0.162	-0.136
-618.346	-58.923	-0.233	-0.102
-617.332	-81.021	0.078	-0.026
-616.317	-200.000	-0.011	0.060
-615.303	592.849	-0.145	0.363
-614.288	-78.792	-0.210	0.073
-613.273	-53.891	0.120	-0.056
-612.259	-200.000	-0.005	-0.110
-611.244	-200.000	-0.071	0.327
-610.230	239.506	-0.139	-0.234
-609.215	-124.943	0.245	0.038
-608.201	-60.967	0.373	-0.159
-607.186	-108.328	0.125	0.027
-606.171	-150.114	-0.142	-0.011
-605.157	129.844	-0.191	-0.247
-604.142	800.000	0.009	-0.038
-603.128	165.979	0.040	0.057
-602.113	627.044	-0.017	-0.042
-601.098	-135.244	-0.215	-0.026
-600.084	800.000	0.089	-0.315
-599.069	-56.491	0.313	0.140
-598.055	-85.545	-0.130	0.041
-597.040	196.676	-0.181	0.279
-596.025	168.372	-0.109	-0.158
-595.011	800.000	-0.068	0.230
-593.996	-200.000	-0.046	-0.296
-592.982	216.782	-0.125	-0.201
-591.967	-200.000	-0.024	0.334
-590.952	800.000	-0.055	0.188
-589.938	32.221	0.215	0.188
-588.923	-2.994	-0.150	0.105
-587.909	387.009	0.125	-0.262
-586.894	-137.063	-0.251	0.029
-585.879	800.000	0.049	0.208
-584.865	-200.000	-0.039	-0.305
-583.850	580.702	0.075	-0.185
-582.836	341.572	-0.218	-0.431
-581.821	122.084	0.126	-0.159
-580.806	-192.222	0.230	-0.002
-579.792	7.750	0.259	0.196
-578.777	9.177	0.178	-0.136
-577.763	-12.389	0.203	-0.134
-576.748	-6.670	-0.172	-0.118
-575.733	-52.917	-0.271	-0.126
-574.719	800.000	0.126	-0.391
-573.704	132.273	-0.125	0.163
-572.690	153.703	-0.115	-0.159
-571.675	152.012	0.015	0.020
-570.661	12.356	-0.100	-0.077
-569.646	71.760	-0.114	-0.119
-568.631	2.918	-0.168	0.123
-567.617	-69.022	-0.350	0.136
-566.602	209.625	0.170	0.269
-565.588	-200.000	-0.024	-0.121
-564.573	-137.275	-0.139	0.016
-563.558	285.377	0.099	-0.179
-562.544	185.053	0.158	-0.237
-561.529	-200.000	-0.029	-0.299
-560.515	-87.499	0.127	0.039
-559.500	134.141	-0.179	-0.233
-558.485	-63.047	0.116	0.048
-557.471	153.412	0.151	0.209
-556.456	-11.750	-0.243	-0.161
-555.442	-34.734	-0.091	0.050
-554.427	-35.353	-0.490	-0.269
-553.412	14.415	0.501	0.394
-552.398	-123.702	-0.203	-0.032
-551.383	80.436	0.149	-0.162
-550.369	332.534	0.049	0.096
-549.354	565.371	-0.103	-0.252
-548.339	-30.198	0.269	-0.154
-547.325	-57.830	0.265	0.117
-546.310	-105.006	0.248	-0.057
-545.296	90.832	-0.233	0.263
-544.281	-177.510	-0.096	-0.002
-543.266	282.832	0.200	-0.361
-542.252	581.606	-0.126	-0.312
-541.237	75.486	0.175	0.187
-540.223	-200.000	0.000	0.333
-539.208	-200.000	-0.061	0.454
-538.193	266.402	0.107	0.189
-537.179	55.286	-0.271	0.264
-536.164	-61.412	-0.204	0.086
-535.150	246.285	-0.100	-0.169
-534.135	-200.000	0.001	-0.165
-533.121	550.926	-0.074	0.179
-532.106	146.164	-0.105	0.143
-531.091	283.808	0.083	-0.151
-530.077	-200.000	-0.107	0.478
-529.062	459.670	0.027	-0.060
-528.048	330.839	0.026	0.051
-527.033	55.592	0.315	0.308
-526.018	-93.927	-0.349	-0.097
-525.004	300.880	-0.113	0.211
-523.989	-79.220	-0.391	0.134
-522.975	323.895	-0.092	-0.177
-521.960	134.551	0.217	0.284
-520.945	-200.000	0.033	0.172
-519.931	-125.757	0.331	0.050
-518.916	-200.000	-0.006	0.189
-517.902	162.645	0.040	0.056
-516.887	-4.993	-0.330	-0.229
-515.872	193.301	-0.164	0.249
-514.858	29.519	-0.220	0.189
-513.843	441.308	0.084	0.184
-512.829	58.502	-0.223	-0.220
-511.814	800.000	-0.037	-0.106
-510.799	-200.000	0.049	-0.255
-509.785	-37.516	-0.244	0.131
-508.770	-68.403	0.155	0.061
-507.756	-74.309	0.255	0.093
-506.741	-80.776	-0.168	-0.056
-505.726	522.755	0.115	0.271
-504.712	-75.884	-0.173	0.062
-503.697	-0.706	0.143	-0.102
-502.683	570.814	0.141	-0.346
-501.668	394.453	0.112	0.235
-500.653	-41.384	-0.217	-0.112
-499.639	9.192	0.226	0.172
-498.624	147.209	-0.088	0.119
-497.610	-200.000	0.008	-0.144
-496.595	-151.793	-0.498	0.037
-495.581	-118.437	0.116	-0.021
-494.566	518.331	0.074	0.173
-493.551	-200.000	-0.018	-0.354
-492.537	-200.000	0.009	0.255
-491.522	-158.177	0.389	0.023
-490.508	800.000	-0.063	-0.204
-489.493	-111.626	-0.178	-0.036
-488.478	111.667	0.174	0.211
-487.464	-19.943	-0.351	-0.218
-486.449	-88.544	0.058	0.017
-485.435	229.459	-0.046	-0.076
-484.420	-32.925	0.137	0.076
-483.405	800.000	-0.091	0.288
-482.391	12.901	-0.341	0.265
-481.376	800.000	-0.057	0.213
-480.362	-25.430	-0.160	0.095
-479.347	-15.499	0.165	-0.106
-478.332	-141.896	0.244	-0.025
-477.318	-23.787	0.391	0.236
-476.303	-46.646	0.254	-0.125
-475.289	47.482	-0.275	0.258
-474.274	-200.000	0.007	-0.198
-473.259	565.269	-0.153	0.372
-472.245	322.142	-0.021	0.039
-471.230	90.408	0.149	0.168
-470.216	361.972	0.177	0.357
-469.201	-101.811	-0.091	-0.022
-468.186	76.618	0.175	0.187
-467.172	-200.000	-0.047	-0.364
-466.157	-200.000	-0.033	-0.453
-465.143	-155.123	0.022	-0.001
-464.128	-72.245	0.298	-0.111
-463.113	-120.204	0.119	0.021
-462.099	222.675	-0.173	0.280
-461.084	-80.201	-0.288	0.097
-460.070	-52.944	-0.126	0.058
-459.055	61.534	0.111	0.111
-458.040	-49.092	0.126	-0.060
-457.026	-123.617	0.250	-0.040
-456.011	282.954	-0.044	0.079
-454.997	-200.000	0.031	-0.276
-453.982	132.851	0.241	-0.313
-452.968	-44.550	-0.183	-0.092
-451.953	-148.609	0.122	-0.010
-450.938	182.949	0.097	-0.144
-449.924	-200.000	-0.004	0.222
-448.909	106.528	-0.106	0.127
-447.895	-200.000	-0.014	-0.062
-446.880	-145.209	-0.051	0.005
-445.865	-61.179	-0.090	0.038
-444.851	349.321	-0.106	-0.210
-443.836	101.883	0.176	-0.207
-442.822	61.768	-0.131	0.131
-441.807	-22.066	0.288	0.175
-440.792	-14.936	0.169	0.109
-439.778	216.744	-0.119	-0.190
-438.763	626.186	0.077	-0.195
-437.749	800.000	0.046	-0.174
-436.734	-45.777	0.206	-0.102
-435.719	-75.655	0.171	-0.061
-434.705	110.081	0.107	-0.129
-433.690	90.285	-0.062	-0.070
-432.676	-200.000	0.033	-0.240
-431.661	-109.132	0.144	0.031
-430.646	-159.186	-0.287	0.016
-429.632	169.262	-0.249	-0.357
-428.617	800.000	0.003	-0.010
-427.603	-166.130	-0.091	-0.004
-426.588	-200.000	0.021	0.131
-425.573	116.779	-0.182	-0.225
-424.559	-142.099	-0.204	0.020
-423.544	-76.438	0.133	-0.047
-422.530	800.000	0.019	0.072
-421.515	306.810	-0.121	-0.226
-420.500	800.000	-0.107	-0.380
-419.486	34.806	0.198	0.174
-418.471	151.764	0.190	-0.259
-417.457	313.373	-0.187	0.354
-416.442	109.294	0.058	0.070
-415.428	-35.220	-0.351	0.192
-414.413	-5.552	-0.226	0.155
-413.398	168.782	-0.054	-0.077
-412.384	-200.000	0.003	0.125
-411.369	-140.347	0.275	-0.029
-410.355	25.111	0.047	0.039
-409.340	-200.000	0.001	-0.096
-408.325	-98.112	-0.049	-0.013
-407.311	800.000	-0.107	0.369
-406.296	251.914	0.052	-0.089
-405.282	-200.000	-0.046	0.232
-404.267	-152.363	-0.216	-0.016
-403.252	800.000	0.054	-0.179
-402.238	-200.000	0.009	0.045
-401.223	-128.349	-0.072	0.010
-400.209	360.786	0.179	-0.359
-399.194	-51.461	-0.330	0.154
-398.179	177.099	0.105	0.153
-397.165	35.467	0.106	0.094
-396.150	-8.684	0.327	0.220
-395.136	-104.494	-0.115	-0.027
-394.121	800.000	0.139	0.459
-393.106	315.740	-0.061	-0.115
-392.092	-63.509	-0.175	0.072
-391.077	674.789	0.068	0.178
-390.063	179.967	-0.156	-0.230
-389.048	19.274	-0.088	-0.071
-388.033	-200.000	-0.021	-0.233
-387.019	8.273	0.266	-0.200
-386.004	-32.377	-0.248	0.138
-384.990	296.208	0.120	0.220
-383.975	-121.239	-0.058	0.010
-382.960	-105.014	-0.221	0.051
-381.946	800.000	-0.043	-0.155
-380.931	-200.000	-0.042	0.204
-379.917	-200.000	0.107	0.554
-378.902	-79.851	0.051	-0.017
-377.888	52.339	0.249	0.238
-376.873	-200.000	0.012	-0.051
-375.858	-109.599	-0.226	0.048
-374.844	204.823	0.230	0.358
-373.829	43.028	-0.352	0.322
-372.815	800.000	0.089	-0.355
-371.800	96.785	0.116	-0.133
-370.785	-11.254	0.182	0.120
-369.771	28.485	-0.405	-0.343
-368.756	-125.740	0.224	0.034
-367.742	171.867	0.198	0.284
-366.727	26.568	0.088	0.074
-365.712	489.348	-0.037	-0.085
-364.698	560.765	0.120	0.290
-363.683	46.933	0.194	0.181
-362.669	-75.793	0.310	0.110
-361.654	-108.566	-0.208	-0.045
-360.639	277.848	0.123	0.220
-359.625	-44.426	-0.346	0.173
-358.610	37.745	-0.058	0.052
-357.596	195.248	0.028	0.042
-356.581	800.000	-0.089	0.251
-355.566	517.767	0.029	0.067
-354.552	-200.000	-0.026	0.316
-353.537	228.306	0.198	0.323
-352.523	11.979	0.073	-0.056
-351.508	-169.525	-0.105	-0.004
-350.493	800.000	-0.069	-0.229
-349.479	54.337	-0.172	-0.166
-348.464	259.946	-0.126	-0.217
-347.450	-200.000	-0.029	-0.185
-346.435	-200.000	-0.018	0.145
-345.420	-138.909	-0.296	0.032
-344.406	67.496	0.271	-0.277
-343.391	136.431	-0.104	-0.136
-342.377	-96.492	-0.327	-0.086
-341.362	800.000	0.007	0.027
-340.348	-114.112	-0.270	-0.052
-339.333	-137.214	0.350	0.040
-338.318	369.426	0.080	0.162
-337.304	447.166	0.165	0.364
-336.289	314.470	0.105	-0.198
-335.275	187.037	0.187	-0.279
-334.260	800.000	-0.074	-0.286
-333.245	5.442	0.268	-0.198
-332.231	-200.000	0.062	-0.308
-331.216	120.700	-0.237	-0.295
-330.202	135.006	0.240	-0.312
-329.187	-200.000	0.013	0.133
-328.172	-200.000	-0.053	0.319
-327.158	292.751	-0.104	-0.189
-326.143	-200.000	-0.021	-0.113
-325.129	-97.781	-0.029	-0.007
-324.114	54.172	0.159	-0.153
-323.099	800.000	0.033	-0.095
-322.085	147.438	0.010	-0.014
-321.070	-109.979	0.177	0.037
-320.056	800.000	0.068	0.229
-319.041	-56.513	-0.239	0.106
-318.026	196.794	0.026	-0.040
-317.012	576.768	0.104	-0.254
-315.997	38.805	0.158	-0.141
-314.983	29.584	-0.064	-0.055
-313.968	-40.059	0.214	-0.112
-312.953	378.327	-0.155	0.317
-311.939	-4.101	0.229	-0.158
-310.924	-19.921	0.138	0.085
-309.910	800.000	-0.092	-0.333
-308.895	-80.039	0.083	0.028
-307.880	-50.115	0.073	-0.035
-306.866	-200.000	0.057	0.293
-305.851	-15.991	0.287	0.183
-304.837	-61.223	0.287	-0.121
-303.822	167.020	-0.122	-0.173
-302.807	-200.000	0.029	-0.138
-301.793	-54.812	-0.229	-0.103
-300.778	279.952	0.060	-0.108
-299.764	106.471	-0.166	-0.196
-298.749	64.552	-0.130	-0.131
-297.735	73.947	0.073	-0.076
-296.720	512.006	0.073	-0.170
-295.705	-135.092	-0.421	0.051
-294.691	-75.267	-0.173	-0.062
-293.676	-200.000	0.018	0.111
-292.662	-200.000	0.011	-0.455
-291.647	-15.872	-0.056	0.036
-290.632	228.662	0.174	-0.283
-289.618	22.555	0.085	0.069
-288.603	253.849	-0.175	0.299
-287.589	523.029	0.015	-0.035
-286.574	83.705	0.220	-0.239
-285.559	-200.000	0.013	0.310
-284.545	644.654	0.044	0.113
-283.530	-27.667	-0.309	0.179
-282.516	-200.000	0.021	0.239
-281.501	-200.000	-0.003	-0.090
-280.486	-69.135	0.139	-0.053
-279.472	-200.000	0.028	0.250
-278.457	582.616	-0.050	-0.122
-277.443	-200.000	0.024	0.221
-276.428	-200.000	-0.006	0.098
-275.413	-200.000	-0.035	-0.188
-274.399	-176.679	0.385	0.010
-273.384	2.849	-0.302	0.219
-272.370	64.030	-0.218	0.219
-271.355	-200.000	0.049	-0.368
-270.340	800.000	-0.040	0.159
-269.326	532.044	-0.169	-0.400
-268.311	-198.243	0.330	-0.002
-267.297	228.550	0.190	0.309
-266.282	124.924	-0.135	0.170
-265.267	723.693	0.035	0.092
-264.253	101.551	0.133	-0.155
-263.238	800.000	0.186	-0.542
-262.224	-106.916	0.188	-0.042
-261.209	-127.339	-0.190	0.028
-260.195	229.123	-0.061	0.100
-259.180	-200.000	0.003	-0.025
-258.165	800.000	0.045	-0.177
-257.151	-64.971	0.225	-0.091
-256.136	800.000	0.038	0.116
-255.122	29.952	0.101	0.086
-254.107	216.168	-0.133	0.211
-253.092	34.473	-0.277	0.241
-252.078	0.741	0.114	0.081
-251.063	423.859	-0.053	0.113
-250.049	566.243	0.185	-0.446
-249.034	-82.203	0.130	-0.042
-248.019	433.552	0.121	-0.263
-247.005	-200.000	0.036	-0.175
-245.990	-78.949	0.254	-0.086
-244.976	124.494	0.331	-0.415
-243.961	381.251	0.108	-0.222
-242.946	252.736	-0.118	-0.200
-241.932	-66.742	-0.132	-0.052
-240.917	800.000	0.206	0.641
-239.903	800.000	0.128	0.391
-238.888	206.771	0.207	0.321
-237.873	19.400	0.123	0.098
-236.859	248.184	-0.244	-0.411
-235.844	800.000	0.065	-0.218
-234.830	-9.749	-0.324	0.215
-233.815	-29.974	0.293	-0.166
-232.800	-200.000	-0.028	0.305
-231.786	180.177	-0.040	0.059
-230.771	319.093	-0.186	-0.351
-229.757	-13.175	-0.120	-0.077
-228.742	800.000	0.069	0.214
-227.727	205.669	-0.068	-0.105
-226.713	238.779	-0.090	0.149
-225.698	-102.866	-0.304	0.072
-224.684	-29.968	-0.046	-0.026
-223.669	800.000	-0.002	0.008
-222.655	108.831	0.042	0.050
-221.640	-123.901	-0.115	0.018
-220.625	148.917	0.246	0.332
-219.611	201.635	-0.230	-0.353
-218.596	-125.329	0.221	0.034
-217.582	214.594	0.180	-0.283
-216.567	800.000	0.074	-0.241
-215.552	-72.505	-0.323	0.119
-214.538	-160.291	-0.202	-0.011
-213.523	145.710	0.104	0.139
-212.509	173.096	-0.152	0.217
-211.494	800.000	-0.032	-0.127
-210.479	199.751	-0.124	0.189
-209.465	206.687	-0.113	-0.176
-208.450	-200.000	-0.039	0.295
-207.436	-152.474	-0.090	0.006
-206.421	-127.842	0.216	0.031
-205.406	-200.000	0.076	0.363
-204.392	-9.436	0.057	0.038
-203.377	313.991	0.131	0.245
-202.363	-200.000	0.127	-0.557
-201.348	-200.000	0.024	-0.291
-200.333	24.435	0.072	-0.059
-199.319	-18.829	-0.106	0.066
-198.304	415.410	-0.054	0.115
-197.290	-151.991	0.434	0.031
-196.275	-200.000	-0.035	0.271
-195.260	-31.050	0.160	0.090
-194.246	-200.000	-0.007	0.220
-193.231	28.189	0.098	0.083
-192.217	-44.730	-0.252	-0.125
-191.202	-200.000	-0.019	-0.097
-190.187	-6.729	-0.220	-0.149
-189.173	-81.922	-0.267	-0.087
-188.158	-162.021	0.210	0.011
-187.144	-200.000	0.089	0.541
-186.129	-73.289	0.215	-0.078
-185.114	72.092	-0.156	-0.162
-184.100	-200.000	0.042	-0.305
-183.085	-20.285	-0.048	-0.030
-182.071	26.729	0.141	0.117
-181.056	-55.428	0.289	-0.129
-180.042	800.000	-0.048	0.140
-179.027	-10.828	0.122	-0.080
-178.012	-70.691	-0.175	-0.066
-176.998	83.124	-0.064	-0.069
-175.983	-180.127	0.098	0.002
-174.969	-69.041	0.210	-0.080
-173.954	-200.000	0.026	0.137
-172.939	-48.323	0.324	0.155
-171.925	-171.393	-0.362	0.012
-170.910	-171.271	-0.453	-0.015
-169.896	-42.653	0.281	0.142
-168.881	-76.626	-0.207	-0.072
-167.866	61.049	-0.145	-0.143
-166.852	736.356	-0.095	0.252
-165.837	148.369	-0.096	-0.129
-164.823	-86.515	-0.140	-0.043
-163.808	36.483	0.111	0.097
-162.793	-157.358	0.029	-0.002
-161.779	349.754	-0.082	-0.160
-160.764	-200.000	-0.025	0.120
-159.750	3.849	0.133	0.096
-158.735	-200.000	-0.023	0.163
-157.720	-100.716	-0.290	0.071
-156.706	-64.145	0.190	-0.077
-155.691	15.665	0.196	0.153
-154.677	-76.245	-0.143	0.050
-153.662	-124.101	-0.248	0.039
-152.647	-200.000	0.022	-0.107
-151.633	38.418	0.147	-0.130
-150.618	-100.917	0.345	0.084
-149.604	-200.000	0.027	-0.265
-148.589	220.224	-0.098	-0.157
-147.574	-200.000	-0.032	0.242
-146.560	594.834	-0.109	-0.269
-145.545	-200.000	0.095	-0.482
-144.531	800.000	0.122	-0.343
-143.516	13.466	-0.194	0.149
-142.502	-52.146	0.290	0.134
-141.487	800.000	-0.055	0.204
-140.472	-200.000	-0.015	-0.082
-139.458	-70.208	0.178	0.067
-138.443	-189.581	-0.270	-0.003
-137.429	167.545	0.093	-0.131
-136.414	-23.910	0.118	-0.070
-135.399	674.199	-0.040	-0.103
-134.385	-64.233	0.311	0.126
-133.370	-124.278	0.270	0.042
-132.356	-200.000	0.023	-0.117
-131.341	456.557	-0.107	-0.235
-130.326	-89.729	0.135	0.039
-129.312	-50.823	0.099	-0.046
-128.297	60.144	-0.185	0.182
-127.283	-171.683	-0.023	-0.001
-126.268	-28.275	-0.129	0.074
-125.253	-22.627	-0.090	0.054
-124.239	-59.195	0.073	0.031
-123.224	-48.183	0.135	-0.065
-122.210	96.159	-0.232	0.263
-121.195	-149.384	0.120	0.009
