DTS Sentinel unit serial number:	SN413079Multiplexer serial number:	ORYXHardware model number:	OX4-SRSoftware version number:	ORYX F/W v4.00 Oryx Data Collector v3.7.2.0data status	okinstallation	princeton_trtdifferential loss correction	single-endedforward channel	channel 2reverse channel	N/Adate	2019/09/11time	20:01:11forward acquisition time	60.00reverse acquisition time	0.00gamma	496.2192k internal	0.2313k external	0.2313temperature offset calibration	1.0052default loss term (dB/km)	0.3790temperature slope calibration	1.0000multiplexer offset coefficient	1.0000multiplexer slope coefficient	1.0000fibre end	0.00T internal ref (°C)	38.78T ext. ref 1 (°C)	1.39T ext. ref 2 (°C)	31.99length (m)	temperature (°C)	Stokes	anti-Stokes-747.200	24.044	-0.167	0.140
-746.185	287.535	-0.171	0.314
-745.171	-77.756	0.281	-0.098
-744.156	-35.241	-0.161	0.089
-743.142	800.000	0.027	0.089
-742.127	171.776	-0.368	0.536
-741.112	39.443	-0.039	0.035
-740.098	-200.000	-0.044	0.295
-739.083	-25.678	-0.154	0.092
-738.069	263.422	0.244	0.429
-737.054	-200.000	0.036	0.393
-736.039	-128.454	-0.056	-0.008
-735.025	-200.000	-0.026	0.211
-734.010	92.507	-0.162	-0.185
-732.996	353.093	0.058	0.116
-731.981	-61.796	-0.241	0.102
-730.966	54.879	0.083	-0.081
-729.952	-23.849	-0.251	-0.152
-728.937	139.202	-0.058	-0.077
-727.923	-200.000	-0.007	-0.242
-726.908	23.865	0.196	-0.164
-725.894	26.038	0.434	-0.367
-724.879	678.819	0.038	0.100
-723.864	-200.000	0.052	0.500
-722.850	-200.000	-0.019	0.288
-721.835	-50.802	-0.227	-0.108
-720.821	-32.393	-0.286	-0.162
-719.806	103.222	-0.313	0.372
-718.791	12.800	-0.225	0.176
-717.777	-184.053	-0.254	0.004
-716.762	77.822	-0.043	0.046
-715.748	-135.426	-0.163	0.020
-714.733	-75.379	-0.027	0.010
-713.718	-91.227	0.026	0.008
-712.704	-200.000	-0.071	0.336
-711.689	-131.973	-0.247	-0.033
-710.675	-200.000	-0.078	-0.548
-709.660	-200.000	0.007	-0.182
-708.645	-159.527	0.339	-0.019
-707.631	-200.000	-0.033	-0.468
-706.616	-200.000	0.004	-0.377
-705.602	77.407	-0.193	-0.208
-704.587	-200.000	0.013	-0.084
-703.572	-99.743	0.354	0.090
-702.558	800.000	-0.044	-0.127
-701.543	-138.811	0.358	0.039
-700.529	349.387	-0.070	-0.139
-699.514	-48.312	0.129	0.063
-698.499	-4.799	0.278	-0.194
-697.485	5.963	0.066	-0.049
-696.470	202.127	-0.205	-0.320
-695.456	-126.350	0.123	0.019
-694.441	46.148	-0.183	0.172
-693.426	-109.699	-0.329	0.070
-692.412	-114.791	0.170	-0.033
-691.397	-123.634	-0.178	-0.029
-690.383	394.471	-0.044	0.093
-689.368	31.242	0.128	-0.112
-688.354	-159.307	-0.117	-0.007
-687.339	-141.924	-0.240	-0.024
-686.324	0.096	0.204	0.147
-685.310	-200.000	0.032	-0.304
-684.295	240.638	0.176	-0.297
-683.281	246.144	-0.112	-0.191
-682.266	0.016	0.047	0.034
-681.251	-200.000	0.026	-0.158
-680.237	495.015	-0.104	-0.241
-679.222	-200.000	0.008	0.102
-678.208	112.893	-0.226	0.277
-677.193	-91.310	-0.419	0.121
-676.178	586.069	-0.063	0.157
-675.164	273.709	0.219	0.391
-674.149	-115.493	-0.322	0.061
-673.135	-77.920	0.323	-0.113
-672.120	-60.190	-0.172	0.074
-671.105	306.403	0.096	0.181
-670.091	-159.576	-0.216	0.012
-669.076	-200.000	-0.020	-0.394
-668.062	0.308	0.270	0.195
-667.047	-55.082	-0.129	0.059
-666.032	-200.000	0.005	-0.076
-665.018	-163.939	0.092	-0.004
-664.003	-64.235	-0.220	-0.091
-662.989	38.328	0.162	0.146
-661.974	64.366	-0.122	0.124
-660.959	-139.851	0.168	-0.018
-659.945	-101.263	-0.172	-0.043
-658.930	209.291	0.130	0.206
-657.916	-200.000	-0.010	-0.106
-656.901	-60.722	-0.160	0.069
-655.886	696.814	-0.112	-0.298
-654.872	-97.702	0.045	0.012
-653.857	-128.627	-0.205	0.029
-652.843	-13.124	-0.089	-0.058
-651.828	234.463	0.140	-0.233
-650.814	-34.452	0.069	0.038
-649.799	-161.956	0.051	0.003
-648.784	-36.206	0.094	0.051
-647.770	-149.136	-0.170	0.014
-646.755	-139.328	-0.142	0.015
-645.741	-3.721	-0.202	0.142
-644.726	-200.000	0.028	0.409
-643.711	407.947	0.007	-0.015
-642.697	291.907	-0.036	-0.066
-641.682	-68.111	0.176	-0.069
-640.668	10.707	0.157	0.121
-639.653	44.004	0.122	-0.113
-638.638	570.801	0.089	0.219
-637.624	-49.688	-0.153	0.074
-636.609	800.000	-0.090	-0.275
-635.595	725.661	0.071	0.190
-634.580	80.354	-0.160	-0.173
-633.565	-107.111	-0.138	-0.031
-632.551	2.090	-0.094	0.069
-631.536	534.395	-0.221	-0.528
-630.522	800.000	-0.157	-0.450
-629.507	-200.000	0.011	-0.173
-628.492	-25.606	-0.333	-0.199
-627.478	-22.052	0.207	-0.127
-626.463	-59.641	-0.162	0.070
-625.449	-59.912	0.050	-0.022
-624.434	33.766	0.171	-0.150
-623.419	242.284	0.173	-0.292
-622.405	-162.810	-0.392	0.019
-621.390	-34.668	0.090	0.050
-620.376	-18.291	-0.157	0.099
-619.361	-103.322	-0.340	-0.081
-618.346	800.000	0.056	0.197
-617.332	-95.963	0.124	-0.033
-616.317	0.054	-0.240	0.172
-615.303	25.704	0.221	0.185
-614.288	-136.277	-0.151	0.018
-613.273	-16.564	-0.003	0.002
-612.259	-48.450	0.295	-0.143
-611.244	-200.000	0.097	0.562
-610.230	-107.485	-0.186	0.041
-609.215	-200.000	0.048	0.336
-608.201	-88.623	-0.149	-0.045
-607.186	53.106	-0.130	-0.126
-606.171	-61.420	-0.073	-0.031
-605.157	213.752	0.108	-0.172
-604.142	-200.000	-0.028	0.243
-603.128	241.200	-0.153	-0.258
-602.113	-200.000	-0.068	-0.393
-601.098	46.198	-0.097	0.091
-600.084	43.605	0.131	-0.121
-599.069	-189.302	-0.380	0.005
-598.055	-164.834	-0.561	-0.025
-597.040	-77.511	-0.449	0.157
-596.025	178.963	-0.087	-0.129
-595.011	302.652	0.063	0.117
-593.996	-111.302	-0.278	0.057
-592.982	160.307	-0.116	0.163
-591.967	-11.858	-0.387	-0.256
-590.952	640.683	-0.101	-0.260
-589.938	-87.365	-0.254	-0.078
-588.923	-173.495	0.169	-0.005
-587.909	79.333	0.117	0.126
-586.894	-9.766	0.039	-0.026
-585.879	297.696	0.054	0.101
-584.865	-153.205	-0.090	-0.006
-583.850	-200.000	0.027	0.338
-582.836	-2.032	0.181	-0.128
-581.821	-136.909	-0.499	-0.058
-580.806	-153.267	0.244	0.017
-579.792	-200.000	0.009	0.168
-578.777	-98.370	0.010	0.003
-577.763	800.000	0.023	0.065
-576.748	-142.825	0.242	0.024
-575.733	-28.347	0.089	0.052
-574.719	800.000	0.067	0.195
-573.704	471.151	-0.113	0.257
-572.690	450.062	0.043	-0.096
-571.675	430.123	-0.150	0.326
-570.661	800.000	-0.043	-0.123
-569.646	367.110	-0.094	-0.192
-568.631	-24.877	-0.134	-0.080
-567.617	39.940	0.233	-0.211
-566.602	15.939	-0.291	-0.230
-565.588	-180.945	0.168	0.003
-564.573	-156.961	-0.213	-0.013
-563.558	-163.762	-0.110	-0.005
-562.544	800.000	-0.037	0.108
-561.529	-16.837	-0.234	0.149
-560.515	-100.007	0.148	-0.037
-559.500	397.396	0.158	0.333
-558.485	208.182	0.156	-0.245
-557.471	-88.296	-0.273	-0.082
-556.456	48.804	-0.110	-0.103
-555.442	170.254	0.095	0.137
-554.427	-86.434	0.337	-0.104
-553.412	11.900	-0.226	0.175
-552.398	800.000	-0.133	-0.494
-551.383	-80.990	0.265	-0.088
-550.369	129.999	-0.254	-0.327
-549.354	-112.805	-0.132	-0.026
-548.339	-70.224	0.116	0.044
-547.325	-152.374	-0.205	0.015
-546.310	-8.685	0.149	0.101
-545.296	800.000	0.056	0.167
-544.281	-15.174	0.178	0.115
-543.266	107.468	0.125	0.149
-542.252	-113.131	-0.201	-0.040
-541.237	-200.000	0.002	0.174
-540.223	-127.814	0.180	0.026
-539.208	800.000	0.086	0.255
-538.193	-200.000	-0.006	0.064
-537.179	800.000	0.053	0.151
-536.164	-155.699	0.054	0.003
-535.150	-200.000	-0.023	0.368
-534.135	-16.856	-0.142	0.091
-533.121	83.592	-0.059	-0.065
-532.106	145.066	-0.234	0.315
-531.091	-1.828	0.051	-0.036
-530.077	218.137	0.176	0.283
-529.062	-48.483	0.245	-0.118
-528.048	-200.000	-0.013	-0.191
-527.033	-108.460	0.226	-0.049
-526.018	-200.000	0.052	0.305
-525.004	-127.136	0.297	-0.044
-523.989	-200.000	-0.042	-0.260
-522.975	-200.000	-0.041	-0.219
-521.960	113.934	-0.053	-0.065
-520.945	-130.505	0.168	-0.023
-519.931	-200.000	0.038	0.227
-518.916	266.346	0.099	0.174
-517.902	-50.447	0.389	0.185
-516.887	490.792	0.032	-0.073
-515.872	800.000	0.040	-0.176
-514.858	-200.000	-0.007	-0.072
-513.843	-122.502	0.275	0.045
-512.829	77.897	0.040	-0.043
-511.814	-87.150	-0.095	0.029
-510.799	-200.000	-0.036	0.195
-509.785	510.532	0.106	0.248
-508.770	-37.430	-0.060	0.032
-507.756	10.593	-0.043	0.033
-506.741	-200.000	0.040	0.217
-505.726	-164.120	-0.407	0.019
-504.712	-170.988	0.139	-0.005
-503.697	578.084	-0.099	-0.242
-502.683	57.911	-0.137	-0.135
-501.668	125.885	0.220	0.280
-500.653	108.829	0.222	-0.267
-499.639	-200.000	0.031	-0.253
-498.624	510.391	-0.176	-0.412
-497.610	136.987	0.197	-0.259
-496.595	800.000	0.044	0.165
-495.581	252.753	-0.217	-0.372
-494.566	-200.000	0.021	-0.160
-493.551	268.872	0.065	-0.115
-492.537	-112.358	-0.069	0.014
-491.522	61.041	0.093	-0.093
-490.508	800.000	-0.005	0.017
-489.493	177.209	-0.073	-0.106
-488.478	9.871	-0.252	-0.192
-487.464	54.419	-0.167	-0.162
-486.449	3.140	0.070	-0.051
-485.435	-19.020	-0.196	-0.123
-484.420	-2.496	-0.143	0.101
-483.405	342.512	0.091	-0.178
-482.391	-135.577	-0.148	-0.018
-481.376	800.000	0.019	0.062
-480.362	-167.552	-0.271	-0.011
-479.347	800.000	-0.132	0.375
-478.332	100.904	0.083	0.097
-477.318	-164.345	0.267	-0.012
-476.303	80.644	-0.105	0.113
-475.289	800.000	0.057	-0.206
-474.274	800.000	0.076	0.275
-473.259	-8.165	0.285	0.192
-472.245	-130.980	0.297	0.040
-471.230	-66.518	0.119	0.048
-470.216	-91.756	-0.244	-0.070
-469.201	-108.375	0.139	0.030
-468.186	-200.000	-0.001	-0.129
-467.172	-200.000	0.044	0.241
-466.157	-142.525	-0.365	0.036
-465.143	162.331	0.187	0.262
-464.128	18.635	0.410	0.329
-463.113	23.754	0.198	0.164
-462.099	-49.497	0.406	-0.194
-461.084	71.730	-0.084	-0.088
-460.070	402.132	-0.119	0.250
-459.055	-96.462	-0.132	0.035
-458.040	-64.972	0.074	-0.030
-457.026	-200.000	0.016	-0.180
-456.011	587.588	0.035	-0.087
-454.997	47.350	0.294	0.275
-453.982	-200.000	0.039	-0.339
-452.968	19.400	0.104	0.084
-451.953	53.598	0.352	-0.338
-450.938	-115.079	0.286	0.054
-449.924	-11.194	-0.059	0.039
-448.909	-37.271	-0.414	0.222
-447.895	442.362	0.049	-0.106
-446.880	2.659	0.151	-0.109
-445.865	-172.422	-0.107	0.003
-444.851	-200.000	-0.020	-0.097
-443.836	394.590	-0.064	0.133
-442.822	-2.862	-0.207	-0.145
-441.807	190.533	0.052	-0.079
-440.792	800.000	0.043	0.182
-439.778	-200.000	0.018	-0.350
-438.763	-200.000	0.055	-0.273
-437.749	-127.523	0.145	-0.021
-436.734	-105.182	-0.105	0.024
-435.719	157.420	0.066	0.092
-434.705	-129.912	0.072	0.010
-433.690	-200.000	-0.012	-0.169
-432.676	-62.950	0.246	0.102
-431.661	16.855	-0.089	-0.070
-430.646	58.808	-0.076	-0.075
-429.632	39.202	0.187	0.168
-428.617	54.400	-0.059	0.057
-427.603	800.000	-0.001	0.002
-426.588	-200.000	0.015	-0.102
-425.573	-200.000	0.010	-0.105
-424.559	73.890	0.192	-0.201
-423.544	-200.000	0.045	-0.274
-422.530	76.301	0.049	-0.052
-421.515	800.000	-0.117	-0.362
-420.500	800.000	-0.046	-0.160
-419.486	137.657	-0.171	-0.224
-418.471	-159.513	-0.097	-0.005
-417.457	-178.034	0.468	0.011
-416.442	315.804	0.160	0.303
-415.428	-131.533	0.183	-0.024
-414.413	755.334	-0.036	-0.098
-413.398	-138.148	-0.108	0.012
-412.384	192.842	-0.040	-0.061
-411.369	9.000	0.174	-0.131
-410.355	-105.215	-0.175	-0.040
-409.340	800.000	0.077	0.215
-408.325	80.970	-0.165	0.178
-407.311	-106.539	-0.210	0.047
-406.296	-200.000	-0.001	0.188
-405.282	-200.000	0.058	-0.466
-404.267	110.569	-0.121	0.145
-403.252	-30.949	-0.262	0.148
-402.238	-135.363	-0.382	0.046
-401.223	239.741	0.130	-0.217
-400.209	118.004	0.105	0.130
-399.194	-119.057	0.215	-0.038
-398.179	-200.000	0.003	0.101
-397.165	173.613	0.235	0.339
-396.150	609.776	-0.096	-0.239
-395.136	-200.000	-0.013	-0.069
-394.121	360.747	0.019	-0.037
-393.106	487.299	-0.109	-0.249
-392.092	-91.909	0.184	-0.052
-391.077	-200.000	0.015	-0.131
-390.063	345.932	0.073	-0.143
-389.048	-200.000	0.038	0.325
-388.033	347.203	0.114	-0.225
-387.019	-60.294	0.152	-0.065
-386.004	39.678	-0.127	-0.114
-384.990	523.259	0.074	-0.174
-383.975	-137.078	0.254	-0.029
-382.960	-130.639	0.222	0.030
-381.946	698.726	0.074	-0.195
-380.931	156.662	-0.144	-0.198
-379.917	-131.786	0.165	-0.022
-378.902	71.982	0.245	-0.255
-377.888	-78.809	0.295	-0.100
-376.873	112.321	0.134	0.163
-375.858	26.563	0.038	0.032
-374.844	249.227	0.263	0.445
-373.829	-200.000	0.006	0.344
-372.815	-85.106	-0.360	0.113
-371.800	138.096	-0.197	-0.258
-370.785	266.221	-0.157	-0.275
-369.771	-200.000	-0.029	0.182
-368.756	512.642	0.102	0.238
-367.742	-33.537	-0.195	-0.108
-366.727	-108.465	-0.258	-0.056
-365.712	-53.473	-0.128	0.059
-364.698	-77.933	0.173	-0.060
-363.683	76.098	-0.024	-0.025
-362.669	91.220	0.021	-0.024
-361.654	-55.647	0.164	-0.073
-360.639	189.279	0.096	0.144
-359.625	-200.000	0.007	-0.226
-358.610	344.814	0.096	0.189
-357.596	-45.846	-0.128	0.063
-356.581	800.000	-0.018	0.055
-355.566	158.790	-0.115	0.159
-354.552	-39.590	0.160	0.083
-353.537	407.495	-0.096	0.202
-352.523	171.269	0.146	-0.209
-351.508	177.629	-0.117	-0.171
-350.493	-46.813	0.089	0.044
-349.479	-68.097	0.210	0.082
-348.464	-74.045	-0.042	0.015
-347.450	-75.757	0.261	-0.092
-346.435	-106.283	-0.089	-0.020
-345.420	-200.000	-0.024	0.175
-344.406	-200.000	0.020	-0.348
-343.391	-200.000	0.024	-0.217
-342.377	-1.052	-0.076	-0.053
-341.362	181.299	0.057	-0.083
-340.348	-98.832	0.289	0.073
-339.333	298.172	0.061	0.112
-338.318	-86.315	-0.217	0.067
-337.304	20.245	0.132	-0.106
-336.289	-159.229	-0.341	-0.019
-335.275	33.819	-0.077	-0.067
-334.260	123.626	-0.148	0.185
-333.245	270.496	-0.072	0.126
-332.231	-200.000	-0.122	-0.727
-331.216	323.526	0.018	-0.034
-330.202	-89.936	0.263	0.077
-329.187	-200.000	0.009	-0.120
-328.172	97.273	-0.147	-0.168
-327.158	-111.397	0.176	-0.036
-326.143	-150.282	-0.092	0.007
-325.129	4.802	-0.096	-0.071
-324.114	-200.000	-0.065	-0.283
-323.099	-200.000	0.026	-0.124
-322.085	654.027	-0.093	-0.239
-321.070	800.000	-0.055	-0.202
-320.056	-10.783	0.418	-0.276
-319.041	169.970	-0.108	0.155
-318.026	-96.191	0.367	0.097
-317.012	-47.364	-0.209	-0.102
-315.997	-200.000	0.019	0.123
-314.983	45.117	0.213	-0.196
-313.968	-200.000	0.014	0.275
-312.953	-59.351	-0.179	0.077
-311.939	-200.000	-0.012	0.366
-310.924	61.750	0.339	0.336
-309.910	800.000	0.103	-0.312
-308.895	366.427	-0.035	-0.071
-307.880	800.000	-0.118	-0.328
-306.866	32.636	0.130	0.112
-305.851	-148.988	-0.431	0.035
-304.837	-200.000	-0.013	0.206
-303.822	-200.000	0.006	0.052
-302.807	99.386	0.314	-0.362
-301.793	-60.779	0.107	0.045
-300.778	124.327	0.225	0.282
-299.764	800.000	-0.086	-0.335
-298.749	745.269	-0.092	-0.246
-297.735	29.076	0.203	0.171
-296.720	63.491	0.154	-0.154
-295.705	71.118	0.145	0.150
-294.691	-200.000	0.004	-0.087
-293.676	145.967	0.143	-0.191
-292.662	800.000	0.178	-0.504
-291.647	583.810	-0.036	-0.089
-290.632	-115.459	-0.274	-0.051
-289.618	-200.000	0.002	-0.318
-288.603	33.636	0.061	0.053
-287.589	800.000	-0.047	-0.154
-286.574	109.518	-0.206	-0.246
-285.559	44.664	-0.245	0.224
-284.545	35.142	0.123	0.107
-283.530	6.211	-0.212	-0.157
-282.516	36.513	-0.182	-0.160
-281.501	-81.467	0.034	0.011
-280.486	800.000	0.056	-0.154
-279.472	29.170	0.360	0.304
-278.457	-0.226	0.159	0.113
-277.443	-200.000	0.000	-0.053
-276.428	-200.000	0.030	0.191
-275.413	-97.577	0.073	-0.019
-274.399	265.275	0.085	0.147
-273.384	130.101	0.113	0.144
-272.370	28.948	-0.152	0.129
-271.355	90.719	0.189	0.211
-270.340	800.000	0.206	0.623
-269.326	167.540	-0.122	0.173
-268.311	469.517	-0.211	0.472
-267.297	583.176	-0.029	-0.071
-266.282	-200.000	-0.085	0.387
-265.267	275.574	-0.083	0.146
-264.253	800.000	-0.156	0.489
-263.238	275.601	0.088	0.155
-262.224	-200.000	-0.069	0.417
-261.209	118.858	-0.057	-0.070
-260.195	-30.788	-0.290	-0.163
-259.180	133.330	-0.130	0.168
-258.165	404.438	0.115	0.240
-257.151	-200.000	0.017	-0.114
-256.136	15.637	0.089	0.070
-255.122	-90.498	0.142	-0.041
-254.107	-29.386	0.092	0.053
-253.092	133.694	0.123	-0.159
-252.078	52.227	0.150	-0.143
-251.063	164.701	-0.195	0.274
-250.049	-60.095	-0.195	-0.083
-249.034	-42.614	0.176	0.089
-248.019	800.000	-0.021	0.068
-247.005	538.632	0.039	-0.092
-245.990	607.316	0.147	-0.365
-244.976	-200.000	-0.011	0.148
-243.961	-139.050	-0.332	0.036
-242.946	688.164	0.146	0.380
-241.932	800.000	-0.077	0.320
-240.917	-88.497	-0.242	0.072
-239.903	297.894	0.374	-0.683
-238.888	-111.951	0.236	-0.047
-237.873	-200.000	-0.036	0.227
-236.859	-200.000	-0.060	0.349
-235.844	800.000	-0.083	-0.250
-234.830	111.046	0.063	0.075
-233.815	-200.000	-0.007	-0.380
-232.800	-99.167	-0.294	0.074
-231.786	5.706	0.165	0.121
-230.771	113.985	0.111	0.134
-229.757	-101.336	-0.284	-0.069
-228.742	742.928	0.097	-0.259
-227.727	-104.425	-0.295	0.068
-226.713	-0.947	-0.214	0.150
-225.698	-200.000	0.121	0.576
-224.684	102.575	-0.019	0.022
-223.669	-38.740	-0.234	0.122
-222.655	363.681	-0.048	-0.097
-221.640	103.873	-0.135	-0.157
-220.625	-42.704	-0.209	0.106
-219.611	-52.285	0.275	0.127
-218.596	661.759	-0.109	0.279
-217.582	98.497	-0.178	0.204
-216.567	-111.444	-0.187	-0.038
-215.552	-76.361	-0.216	-0.075
-214.538	-200.000	0.139	0.000
-213.523	-0.238	0.258	0.182
-212.509	366.190	0.141	0.282
-211.494	228.415	-0.220	0.356
-210.479	41.542	0.282	-0.254
-209.465	380.346	0.136	-0.276
-208.450	-24.348	-0.302	-0.179
-207.436	800.000	0.106	-0.394
-206.421	-30.877	-0.100	-0.056
-205.406	-200.000	0.005	0.165
-204.392	461.077	0.050	-0.111
-203.377	-113.769	-0.295	-0.057
-202.363	-200.000	-0.011	0.052
-201.348	800.000	0.084	-0.284
-200.333	-76.938	0.194	0.067
-199.319	444.275	0.067	0.146
-198.304	-101.353	-0.531	-0.128
-197.290	644.548	0.084	-0.213
-196.275	800.000	0.064	-0.202
-195.260	-200.000	-0.017	0.203
-194.246	-83.738	-0.105	-0.033
-193.231	-99.059	-0.244	-0.061
-192.217	-15.520	0.054	-0.034
-191.202	800.000	0.043	0.126
-190.187	-174.745	-0.170	-0.005
-189.173	-128.949	-0.553	0.077
-188.158	-68.800	0.276	0.106
-187.144	24.897	0.131	0.108
-186.129	35.811	0.221	0.193
-185.114	239.288	-0.178	-0.294
-184.100	-200.000	-0.018	0.148
-183.085	-100.150	-0.231	-0.057
-182.071	128.816	0.131	0.165
-181.056	47.042	-0.079	-0.073
-180.042	-121.798	-0.075	0.012
-179.027	-42.753	0.190	0.096
-178.012	-200.000	0.002	-0.345
-176.998	87.298	0.127	0.139
-175.983	-33.372	0.095	-0.052
-174.969	-69.510	0.114	-0.043
-173.954	-110.707	-0.183	-0.037
-172.939	800.000	0.073	0.277
-171.925	-200.000	0.129	0.575
-170.910	-51.566	0.259	0.120
-169.896	-175.223	0.065	0.002
-168.881	139.524	-0.039	-0.051
-167.866	11.798	0.137	-0.104
-166.852	-40.282	-0.377	0.194
-165.837	-59.178	-0.218	0.093
-164.823	253.287	-0.180	-0.305
-163.808	-158.863	0.310	0.018
-162.793	-200.000	0.025	0.153
-161.779	-87.421	-0.062	0.019
-160.764	-2.605	-0.297	0.206
-159.750	-200.000	-0.009	-0.137
-158.735	-89.174	0.157	-0.046
-157.720	-37.678	0.357	0.188
-156.706	-123.332	-0.152	0.024
-155.691	2.931	0.033	-0.023
-154.677	-88.352	0.129	-0.038
-153.662	-136.236	0.095	0.011
-152.647	102.378	0.061	-0.071
-151.633	536.303	0.087	-0.204
-150.618	763.356	0.087	-0.235
-149.604	261.175	0.027	-0.046
-148.589	299.497	0.120	0.220
-147.574	-131.423	0.194	0.025
-146.560	-91.001	0.224	0.064
-145.545	-200.000	0.002	-0.209
-144.531	-61.504	0.058	-0.024
-143.516	-97.157	-0.207	0.054
-142.502	-111.551	-0.117	-0.024
-141.487	432.807	0.054	0.115
-140.472	800.000	0.027	0.076
-139.458	-73.446	0.457	0.165
-138.443	30.983	-0.163	-0.138
-137.429	-108.672	0.322	-0.068
-136.414	-200.000	-0.012	0.118
-135.399	-43.989	0.182	-0.091
-134.385	-147.075	-0.113	0.010
-133.370	800.000	-0.111	-0.328
-132.356	-200.000	0.003	-0.268
-131.341	-200.000	-0.011	-0.150
-130.326	800.000	0.062	0.262
-129.312	29.314	-0.334	-0.281
-128.297	55.367	0.346	0.331
-127.283	-52.877	-0.137	-0.063
-126.268	-144.526	0.166	0.015
-125.253	-200.000	0.007	0.520
-124.239	-69.542	0.165	0.063
-123.224	-200.000	-0.003	-0.485
-122.210	-200.000	-0.001	0.139
-121.195	104.793	-0.210	0.245
