DTS Sentinel unit serial number:	SN413079Multiplexer serial number:	ORYXHardware model number:	OX4-SRSoftware version number:	ORYX F/W v4.00 Oryx Data Collector v3.7.2.0data status	okinstallation	princeton_trtdifferential loss correction	single-endedforward channel	channel 2reverse channel	N/Adate	2019/09/15time	17:55:35forward acquisition time	60.00reverse acquisition time	0.00gamma	496.2192k internal	0.2284k external	0.2284temperature offset calibration	0.9924default loss term (dB/km)	0.3790temperature slope calibration	1.0000multiplexer offset coefficient	1.0000multiplexer slope coefficient	1.0000fibre end	0.00T internal ref (°C)	44.81T ext. ref 1 (°C)	6.40T ext. ref 2 (°C)	39.17length (m)	temperature (°C)	Stokes	anti-Stokes-747.200	-105.989	0.081	0.019
-746.185	-71.669	0.192	0.074
-745.171	-200.000	0.028	0.147
-744.156	55.242	0.136	0.135
-743.142	-128.851	-0.166	0.024
-742.127	-200.000	-0.036	0.237
-741.112	-6.217	-0.132	-0.093
-740.098	-200.000	0.011	-0.129
-739.083	-200.000	0.001	-0.115
-738.069	-200.000	-0.050	1.032
-737.054	-62.855	-0.136	-0.058
-736.039	-73.712	0.397	0.149
-735.025	-200.000	0.011	0.070
-734.010	-1.664	-0.066	0.047
-732.996	-170.195	-0.177	-0.006
-731.981	-114.084	-0.187	-0.037
-730.966	800.000	-0.053	0.166
-729.952	65.626	-0.210	-0.218
-728.937	-200.000	0.009	-0.090
-727.923	-145.493	-0.254	-0.023
-726.908	-4.103	0.190	0.135
-725.894	800.000	-0.081	0.327
-724.879	-200.000	-0.179	0.000
-723.864	-177.477	-0.253	-0.006
-722.850	58.423	-0.159	0.160
-721.835	17.620	-0.111	-0.090
-720.821	-35.175	0.406	0.227
-719.806	99.514	0.115	0.137
-718.791	-180.357	-0.065	0.001
-717.777	204.145	-0.228	0.362
-716.762	227.954	-0.083	0.139
-715.748	-161.884	0.191	0.010
-714.733	800.000	0.007	0.023
-713.718	-54.178	0.051	0.024
-712.704	108.072	0.167	-0.204
-711.689	-25.244	-0.050	0.030
-710.675	-158.239	-0.660	0.040
-709.660	-86.036	0.084	-0.027
-708.645	800.000	-0.131	-0.466
-707.631	-115.842	-0.151	0.029
-706.616	56.664	0.122	-0.122
-705.602	-39.024	0.142	0.076
-704.587	73.757	-0.142	0.153
-703.572	-8.780	-0.274	0.189
-702.558	-52.728	-0.301	0.142
-701.543	-139.708	-0.634	0.069
-700.529	-41.061	0.236	-0.125
-699.514	-200.000	0.011	-0.202
-698.499	663.027	0.167	-0.443
-697.485	800.000	-0.013	0.051
-696.470	-200.000	0.006	-0.161
-695.456	250.457	-0.074	0.129
-694.441	-200.000	0.007	0.252
-693.426	25.545	0.088	0.075
-692.412	284.002	0.105	-0.194
-691.397	377.358	-0.135	-0.282
-690.383	290.775	0.086	0.160
-689.368	800.000	-0.006	0.023
-688.354	-85.986	-0.300	-0.095
-687.339	105.887	0.046	0.056
-686.324	-147.502	-0.443	-0.038
-685.310	-200.000	0.140	0.000
-684.295	-122.701	0.335	0.056
-683.281	362.826	-0.136	0.280
-682.266	-53.791	0.015	0.007
-681.251	31.874	0.141	-0.125
-680.237	44.108	-0.317	0.298
-679.222	46.163	-0.140	0.133
-678.208	37.953	-0.215	-0.196
-677.193	89.602	-0.293	0.335
-676.178	-56.316	0.167	-0.076
-675.164	-19.478	0.151	0.096
-674.149	-98.026	0.089	-0.024
-673.135	-64.901	-0.257	0.106
-672.120	14.302	0.412	0.329
-671.105	-200.000	0.006	-0.288
-670.091	427.462	0.046	0.101
-669.076	-4.764	-0.222	0.157
-668.062	36.177	-0.134	0.121
-667.047	-89.853	-0.245	-0.073
-666.032	117.735	0.131	-0.165
-665.018	-45.073	0.179	-0.091
-664.003	195.119	-0.132	-0.205
-662.989	791.818	0.032	-0.091
-661.974	111.407	0.205	0.253
-660.959	-200.000	-0.009	-0.120
-659.945	194.376	0.150	0.233
-658.930	9.198	0.085	0.066
-657.916	-157.523	0.292	0.018
-656.901	58.721	-0.398	-0.400
-655.886	-160.873	0.411	-0.022
-654.872	388.248	-0.111	-0.235
-653.857	-38.511	-0.046	-0.025
-652.843	-103.428	-0.370	-0.089
-651.828	211.610	-0.134	-0.216
-650.814	102.934	0.134	-0.160
-649.799	-200.000	0.037	-0.197
-648.784	-111.323	-0.201	0.042
-647.770	350.236	-0.048	-0.097
-646.755	98.367	-0.149	-0.176
-645.741	-93.561	0.170	0.048
-644.726	290.498	-0.120	0.224
-643.711	-200.000	0.038	-0.229
-642.697	-75.422	-0.150	0.055
-641.682	83.772	0.158	-0.177
-640.668	98.348	0.025	-0.029
-639.653	73.581	0.312	-0.335
-638.638	162.468	-0.118	-0.169
-637.624	18.084	0.065	0.053
-636.609	-18.427	-0.234	0.150
-635.595	-200.000	0.040	0.229
-634.580	-7.559	0.223	-0.154
-633.565	50.762	0.082	-0.079
-632.551	-35.404	-0.194	-0.108
-631.536	565.743	-0.094	-0.233
-630.522	41.532	0.130	0.121
-629.507	59.066	-0.249	-0.250
-628.492	-81.184	-0.188	-0.063
-627.478	-67.576	-0.279	-0.112
-626.463	-68.590	-0.263	-0.104
-625.449	23.755	0.121	-0.102
-624.434	339.438	-0.155	0.309
-623.419	15.004	0.179	0.143
-622.405	60.662	-0.104	-0.106
-621.390	-41.872	0.069	-0.036
-620.376	-103.461	-0.262	-0.063
-619.361	20.547	0.166	0.137
-618.346	274.948	-0.078	-0.141
-617.332	-140.050	-0.394	-0.042
-616.317	-200.000	0.017	-0.155
-615.303	800.000	0.040	-0.178
-614.288	-150.893	-0.075	0.006
-613.273	135.756	-0.057	0.075
-612.259	-102.130	0.251	0.062
-611.244	-200.000	0.069	-0.352
-610.230	800.000	-0.149	-0.440
-609.215	-42.061	-0.086	-0.045
-608.201	37.196	0.333	-0.302
-607.186	-200.000	-0.029	0.156
-606.171	76.485	-0.013	0.014
-605.157	800.000	-0.014	0.061
-604.142	-200.000	0.013	-0.152
-603.128	680.603	0.090	-0.238
-602.113	417.818	-0.159	0.347
-601.098	-200.000	-0.006	0.362
-600.084	98.425	0.223	0.262
-599.069	30.211	0.173	0.151
-598.055	-54.553	0.259	-0.120
-597.040	-118.896	0.216	0.039
-596.025	501.653	0.119	-0.281
-595.011	-200.000	-0.009	-0.043
-593.996	800.000	-0.041	0.171
-592.982	-136.488	0.125	-0.015
-591.967	24.738	0.249	-0.211
-590.952	73.177	-0.179	-0.191
-589.938	-25.612	-0.228	-0.137
-588.923	800.000	0.037	0.136
-587.909	310.302	-0.073	0.140
-586.894	-53.407	-0.156	0.073
-585.879	193.089	0.078	0.120
-584.865	-64.971	-0.238	0.098
-583.850	-200.000	0.030	-0.191
-582.836	96.892	0.070	-0.082
-581.821	68.646	-0.043	0.045
-580.806	-140.694	0.157	0.017
-579.792	-186.097	-0.059	-0.001
-578.777	-200.000	0.004	-0.175
-577.763	800.000	0.103	-0.450
-576.748	-49.077	-0.244	-0.119
-575.733	-39.873	-0.012	0.006
-574.719	-51.681	-0.154	-0.073
-573.704	194.086	0.111	0.171
-572.690	173.129	-0.192	-0.283
-571.675	38.299	-0.124	-0.113
-570.661	129.667	0.111	0.144
-569.646	-111.881	-0.376	-0.078
-568.631	-81.337	-0.540	0.182
-567.617	261.285	0.113	0.199
-566.602	177.153	0.103	-0.153
-565.588	155.212	0.063	-0.088
-564.573	800.000	-0.097	-0.316
-563.558	800.000	-0.067	-0.268
-562.544	-45.886	0.118	0.060
-561.529	40.852	-0.302	0.277
-560.515	800.000	-0.100	-0.340
-559.500	455.861	-0.057	-0.130
-558.485	-200.000	0.037	-0.214
-557.471	-174.508	-0.054	0.002
-556.456	-165.342	-0.425	0.019
-555.442	-200.000	0.004	0.133
-554.427	-200.000	-0.059	-0.507
-553.412	-105.837	-0.144	-0.033
-552.398	129.340	0.167	0.218
-551.383	225.169	-0.041	0.068
-550.369	97.782	0.115	0.135
-549.354	53.354	0.274	-0.268
-548.339	43.504	-0.115	0.107
-547.325	147.368	-0.047	-0.065
-546.310	-58.631	0.298	0.132
-545.296	-45.556	0.202	0.102
-544.281	128.884	-0.221	0.287
-543.266	71.471	0.178	0.188
-542.252	-14.255	-0.074	-0.049
-541.237	-40.734	-0.245	0.129
-540.223	-6.883	-0.203	-0.140
-539.208	-200.000	0.000	0.107
-538.193	-200.000	-0.009	-0.130
-537.179	800.000	-0.132	-0.425
-536.164	-89.520	0.259	0.077
-535.150	800.000	-0.131	-0.371
-534.135	136.637	0.169	0.224
-533.121	84.347	0.109	-0.121
-532.106	800.000	0.069	0.291
-531.091	127.649	0.053	0.068
-530.077	598.028	0.094	-0.237
-529.062	-18.839	-0.042	-0.027
-528.048	42.848	0.180	0.167
-527.033	-200.000	0.017	0.346
-526.018	-129.909	0.182	0.025
-525.004	-61.101	-0.136	0.058
-523.989	594.710	0.144	0.363
-522.975	-107.400	-0.183	-0.041
-521.960	37.853	0.082	0.075
-520.945	-116.572	-0.166	0.031
-519.931	278.073	-0.204	0.369
-518.916	-153.481	-0.052	-0.004
-517.902	-119.062	0.165	0.029
-516.887	11.863	-0.132	-0.103
-515.872	30.741	0.076	-0.066
-514.858	-62.789	-0.217	0.092
-513.843	62.783	0.345	-0.352
-512.829	800.000	-0.033	0.123
-511.814	-200.000	-0.042	0.202
-510.799	-200.000	-0.061	0.360
-509.785	800.000	-0.015	-0.044
-508.770	47.203	-0.179	0.169
-507.756	649.402	0.122	-0.316
-506.741	108.816	0.303	-0.368
-505.726	730.340	0.080	-0.217
-504.712	-200.000	0.010	-0.101
-503.697	-200.000	0.005	0.426
-502.683	152.573	-0.183	0.254
-501.668	208.836	-0.147	-0.235
-500.653	-55.030	0.146	0.067
-499.639	800.000	-0.131	-0.511
-498.624	-175.080	0.196	-0.006
-497.610	12.204	0.113	-0.089
-496.595	-200.000	0.035	-0.389
-495.581	173.763	-0.235	0.346
-494.566	44.884	-0.104	0.098
-493.551	26.791	0.353	0.301
-492.537	-200.000	0.012	0.064
-491.522	800.000	0.021	-0.072
-490.508	-94.521	0.243	0.067
-489.493	79.027	-0.067	0.073
-488.478	13.407	-0.072	0.057
-487.464	38.623	-0.173	0.157
-486.449	800.000	0.059	-0.182
-485.435	800.000	-0.072	-0.207
-484.420	162.585	-0.118	-0.168
-483.405	62.256	0.244	0.247
-482.391	482.999	0.196	0.453
-481.376	-36.931	-0.134	0.073
-480.362	12.514	0.029	0.022
-479.347	-107.354	-0.212	0.047
-478.332	13.579	0.179	0.141
-477.318	22.623	0.149	0.124
-476.303	800.000	0.075	0.317
-475.289	800.000	-0.063	0.214
-474.274	10.692	0.185	0.144
-473.259	658.423	0.151	0.395
-472.245	154.411	-0.162	-0.226
-471.230	-200.000	0.051	-0.414
-470.216	342.073	0.181	-0.361
-469.201	800.000	0.026	0.089
-468.186	12.685	0.011	-0.009
-467.172	-200.000	0.028	0.471
-466.157	81.584	-0.066	-0.073
-465.143	-86.955	-0.313	0.097
-464.128	-200.000	-0.021	0.300
-463.113	54.510	0.147	0.144
-462.099	-108.329	0.267	0.059
-461.084	800.000	-0.030	-0.125
-460.070	374.803	-0.111	0.230
-459.055	133.960	0.036	-0.047
-458.040	-200.000	0.029	-0.228
-457.026	36.145	-0.186	-0.167
-456.011	-58.074	0.259	0.115
-454.997	199.147	0.169	-0.263
-453.982	-81.128	0.218	0.073
-452.968	114.736	0.171	-0.212
-451.953	191.487	0.187	-0.286
-450.938	37.599	0.099	-0.089
-449.924	557.230	0.084	0.206
-448.909	-35.569	-0.184	0.101
-447.895	-36.168	-0.116	-0.063
-446.880	-121.515	0.034	0.006
-445.865	-136.167	0.229	0.027
-444.851	-200.000	0.006	-0.185
-443.836	27.742	-0.213	0.182
-442.822	-200.000	-0.004	0.327
-441.807	333.757	-0.106	0.209
-440.792	-200.000	-0.016	0.100
-439.778	186.129	-0.035	-0.053
-438.763	65.137	-0.100	-0.102
-437.749	-61.648	0.388	0.165
-436.734	-200.000	-0.003	0.048
-435.719	-25.360	-0.167	-0.100
-434.705	-151.208	-0.238	0.018
-433.690	-90.924	0.164	0.048
-432.676	-12.877	-0.181	0.120
-431.661	-65.807	-0.198	0.080
-430.646	-200.000	0.038	-0.273
-429.632	-200.000	-0.044	-0.328
-428.617	800.000	0.057	-0.215
-427.603	-200.000	-0.012	0.188
-426.588	-25.834	0.189	0.113
-425.573	-200.000	0.064	0.325
-424.559	-34.940	-0.369	0.204
-423.544	170.742	-0.162	0.236
-422.530	-200.000	-0.020	-0.141
-421.515	27.523	0.273	-0.233
-420.500	800.000	0.055	-0.179
-419.486	-52.396	-0.123	0.058
-418.471	615.938	0.055	0.140
-417.457	-76.927	-0.121	0.043
-416.442	4.323	-0.285	-0.212
-415.428	-169.912	-0.149	-0.005
-414.413	32.674	0.087	0.077
-413.398	-200.000	0.031	0.143
-412.384	-200.000	-0.058	0.332
-411.369	21.248	0.147	0.121
-410.355	4.317	0.061	-0.045
-409.340	385.752	0.133	0.279
-408.325	-200.000	-0.006	-0.084
-407.311	443.155	0.052	-0.115
-406.296	-94.702	0.490	0.135
-405.282	117.279	0.097	0.121
-404.267	120.155	0.123	0.155
-403.252	-3.589	-0.238	-0.168
-402.238	183.242	0.107	-0.160
-401.223	-52.969	-0.119	-0.055
-400.209	-200.000	0.012	-0.118
-399.194	-133.979	-0.157	-0.020
-398.179	30.328	0.185	-0.160
-397.165	-200.000	0.023	0.263
-396.150	265.762	0.026	0.045
-395.136	-200.000	0.005	-0.300
-394.121	800.000	-0.023	0.075
-393.106	800.000	-0.059	0.178
-392.092	42.360	-0.127	0.117
-391.077	62.356	-0.268	0.271
-390.063	-200.000	0.024	-0.195
-389.048	180.411	-0.067	-0.100
-388.033	12.889	-0.337	-0.264
-387.019	-41.222	-0.070	0.037
-386.004	-33.377	0.216	0.121
-384.990	104.535	-0.103	-0.123
-383.975	591.113	0.109	0.272
-382.960	214.111	0.166	0.266
-381.946	-48.621	-0.327	0.159
-380.931	541.861	0.098	0.237
-379.917	31.504	-0.044	0.038
-378.902	-139.982	-0.188	-0.020
-377.888	-200.000	0.029	-0.506
-376.873	-200.000	-0.054	0.410
-375.858	-117.211	-0.102	-0.019
-374.844	15.505	-0.169	-0.134
-373.829	431.116	0.102	0.224
-372.815	57.973	-0.140	-0.138
-371.800	-200.000	-0.033	0.241
-370.785	446.813	0.125	0.278
-369.771	628.801	-0.115	-0.295
-368.756	282.728	0.076	0.137
-367.742	49.669	-0.167	-0.159
-366.727	-200.000	0.122	0.000
-365.712	31.373	0.214	0.186
-364.698	800.000	0.116	-0.361
-363.683	453.701	-0.094	-0.211
-362.669	240.875	-0.103	-0.174
-361.654	-43.007	0.202	-0.104
-360.639	-60.105	0.257	0.111
-359.625	41.596	0.147	0.135
-358.610	167.718	0.176	0.253
-357.596	281.770	0.176	-0.318
-356.581	-179.257	-0.132	-0.003
-355.566	-121.138	-0.395	-0.067
-354.552	60.253	-0.261	-0.261
-353.537	-200.000	0.051	-0.355
-352.523	-31.563	-0.142	-0.081
-351.508	-80.060	0.278	0.094
-350.493	-200.000	-0.008	0.266
-349.479	-200.000	0.017	0.099
-348.464	-125.565	0.359	0.055
-347.450	-110.242	-0.679	-0.143
-346.435	800.000	-0.033	0.148
-345.420	497.383	0.149	0.347
-344.406	-200.000	0.044	-0.242
-343.391	-200.000	0.043	0.360
-342.377	-133.537	0.161	0.020
-341.362	293.089	-0.098	0.181
-340.348	244.507	0.040	-0.069
-339.333	-68.048	-0.098	-0.039
-338.318	-143.779	-0.282	-0.027
-337.304	-42.813	0.346	-0.178
-336.289	-143.048	-0.551	-0.054
-335.275	109.790	0.189	0.229
-334.260	-142.870	-0.200	-0.020
-333.245	43.916	-0.076	0.071
-332.231	368.332	0.106	-0.217
-331.216	352.017	-0.122	0.245
-330.202	-120.409	-0.082	0.014
-329.187	-110.846	-0.120	-0.025
-328.172	-200.000	0.011	-0.256
-327.158	-122.411	-0.025	0.004
-326.143	-8.941	0.270	-0.183
-325.129	-8.785	-0.296	0.201
-324.114	127.015	0.082	0.105
-323.099	328.587	0.066	0.129
-322.085	-200.000	0.010	-0.145
-321.070	-68.738	-0.256	-0.100
-320.056	-71.161	-0.151	-0.057
-319.041	-107.918	0.346	-0.076
-318.026	-82.714	-0.099	-0.032
-317.012	364.770	0.129	-0.262
-315.997	120.816	-0.180	0.226
-314.983	3.271	0.009	-0.007
-313.968	-150.216	-0.072	-0.006
-312.953	156.698	0.102	0.143
-311.939	157.236	0.142	-0.198
-310.924	-88.944	-0.051	0.015
-309.910	29.684	0.137	-0.118
-308.895	503.043	-0.187	0.436
-307.880	-101.965	-0.117	0.028
-306.866	-27.072	-0.057	-0.034
-305.851	-200.000	-0.012	0.261
-304.837	-59.626	-0.180	-0.078
-303.822	47.172	-0.241	-0.227
-302.807	141.165	-0.114	-0.152
-301.793	-58.503	-0.219	-0.096
-300.778	-108.883	-0.342	0.074
-299.764	270.164	0.150	0.266
-298.749	116.396	0.186	0.231
-297.735	-180.922	-0.171	-0.003
-296.720	221.332	0.036	0.058
-295.705	185.991	0.034	0.051
-294.691	84.083	-0.019	-0.020
-293.676	-71.479	0.061	0.023
-292.662	-200.000	-0.042	-0.298
-291.647	509.072	-0.110	-0.259
-290.632	-106.415	0.168	0.038
-289.618	-135.014	0.174	-0.021
-288.603	60.114	0.084	-0.084
-287.589	-115.426	-0.145	0.028
-286.574	48.139	-0.033	0.031
-285.559	-112.608	0.210	0.042
-284.545	170.055	0.057	0.082
-283.530	266.856	-0.166	0.293
-282.516	-200.000	0.045	0.281
-281.501	12.311	0.038	-0.030
-280.486	65.996	0.327	0.334
-279.472	-31.507	0.189	0.107
-278.457	-17.526	0.170	0.108
-277.443	25.077	0.104	-0.087
-276.428	-84.330	0.262	-0.084
-275.413	336.496	-0.106	-0.209
-274.399	-200.000	0.022	0.194
-273.384	41.893	0.159	-0.145
-272.370	755.047	-0.136	0.372
-271.355	-24.668	0.128	0.077
-270.340	-37.912	-0.156	-0.083
-269.326	129.776	0.134	0.172
-268.311	800.000	-0.082	0.234
-267.297	204.124	-0.042	-0.065
-266.282	99.584	0.170	0.199
-265.267	800.000	-0.020	0.067
-264.253	677.022	0.038	-0.100
-263.238	-13.136	0.265	-0.174
-262.224	-30.148	-0.257	-0.147
-261.209	-72.574	0.262	-0.098
-260.195	-152.526	-0.200	0.014
-259.180	-14.289	-0.204	0.132
-258.165	-54.198	-0.207	-0.095
-257.151	11.734	0.226	0.175
-256.136	678.036	0.093	0.245
-255.122	-1.319	-0.189	0.135
-254.107	228.297	0.339	-0.556
-253.092	132.405	-0.180	0.234
-252.078	133.047	-0.061	0.080
-251.063	-200.000	0.020	0.218
-250.049	-174.777	-0.286	0.008
-249.034	-150.712	-0.416	0.032
-248.019	-118.253	0.305	0.055
-247.005	-200.000	0.003	-0.139
-245.990	91.021	-0.054	0.061
-244.976	78.125	-0.155	-0.167
-243.961	62.613	-0.126	-0.127
-242.946	-143.694	0.145	0.014
-241.932	-173.966	0.101	-0.003
-240.917	68.624	0.168	-0.174
-239.903	800.000	0.048	-0.135
-238.888	-200.000	-0.072	0.374
-237.873	-152.631	0.268	0.019
-236.859	48.544	0.062	-0.059
-235.844	63.837	-0.265	-0.268
-234.830	640.279	0.084	-0.214
-233.815	98.715	0.100	0.116
-232.800	-0.989	0.100	-0.071
-231.786	-99.375	-0.215	-0.055
-230.771	-87.789	0.256	-0.078
-229.757	-111.042	0.147	-0.030
-228.742	41.348	0.275	-0.250
-227.727	800.000	-0.045	0.130
-226.713	272.773	-0.047	-0.084
-225.698	-141.741	0.096	-0.010
-224.684	249.781	0.133	0.227
-223.669	8.663	0.134	-0.102
-222.655	35.276	0.346	0.305
-221.640	-76.153	-0.284	0.101
-220.625	800.000	0.097	0.277
-219.611	-200.000	-0.050	0.276
-218.596	-77.747	-0.283	-0.099
-217.582	105.551	-0.173	-0.205
-216.567	348.202	-0.014	0.027
-215.552	207.540	0.031	0.048
-214.538	-50.055	-0.085	0.041
-213.523	800.000	0.067	0.238
-212.509	381.287	0.139	0.287
-211.494	12.899	-0.125	0.097
-210.479	45.472	0.146	0.136
-209.465	320.812	0.080	0.152
-208.450	22.149	0.340	0.279
-207.436	-142.772	0.061	-0.006
-206.421	-200.000	-0.037	0.292
-205.406	-123.257	-0.233	-0.037
-204.392	31.537	-0.132	0.114
-203.377	800.000	0.081	-0.293
-202.363	98.178	0.103	-0.119
-201.348	243.986	0.188	-0.317
-200.333	-200.000	0.286	0.000
-199.319	-11.505	0.153	-0.101
-198.304	-200.000	0.017	-0.250
-197.290	-200.000	-0.047	-0.256
-196.275	420.765	-0.097	-0.208
-195.260	-179.050	-0.386	-0.009
-194.246	142.159	0.353	-0.471
-193.231	-200.000	0.037	-0.172
-192.217	414.617	0.024	-0.052
-191.202	-77.297	-0.332	-0.116
-190.187	103.458	-0.298	-0.352
-189.173	202.821	-0.077	-0.120
-188.158	336.017	-0.098	-0.192
-187.144	224.615	0.311	-0.505
-186.129	258.155	-0.114	-0.197
-185.114	59.960	0.070	-0.070
-184.100	165.814	-0.112	-0.160
-183.085	11.968	0.317	0.245
-182.071	157.179	-0.032	0.045
-181.056	-111.776	0.139	-0.028
-180.042	5.076	0.051	-0.037
-179.027	383.664	-0.088	-0.182
-178.012	-200.000	-0.010	-0.267
-176.998	82.100	0.035	0.038
-175.983	-71.540	-0.200	-0.075
-174.969	259.971	0.100	0.174
-173.954	-49.895	0.189	0.090
-172.939	-23.216	-0.274	0.166
-171.925	72.835	0.030	-0.031
-170.910	-53.853	0.121	0.055
-169.896	-200.000	0.040	0.213
-168.881	-88.893	-0.106	-0.032
-167.866	-6.180	0.178	-0.122
-166.852	379.833	-0.042	-0.086
-165.837	800.000	0.035	0.123
-164.823	286.182	-0.131	0.237
-163.808	99.592	-0.119	-0.138
-162.793	-200.000	0.010	0.068
-161.779	-46.055	0.119	-0.059
-160.764	-10.599	-0.190	0.126
-159.750	178.966	0.041	0.060
-158.735	800.000	0.072	0.201
-157.720	338.324	-0.059	0.116
-156.706	149.659	-0.087	0.118
-155.691	149.337	0.064	-0.086
-154.677	-135.620	0.444	-0.053
-153.662	154.394	0.175	-0.241
-152.647	-156.124	-0.044	0.003
-151.633	-3.181	0.167	0.117
-150.618	800.000	0.057	-0.242
-149.604	-144.360	-0.271	0.025
-148.589	51.996	0.065	0.062
-147.574	26.315	-0.163	0.137
-146.560	-64.897	0.160	-0.065
-145.545	-105.647	0.089	-0.020
-144.531	-200.000	-0.045	0.282
-143.516	115.316	-0.136	0.167
-142.502	20.826	-0.313	0.255
-141.487	442.514	0.065	0.143
-140.472	-83.011	0.263	0.085
-139.458	-200.000	-0.015	-0.090
-138.443	-55.241	0.164	-0.074
-137.429	-17.533	-0.154	0.097
-136.414	160.802	0.069	0.097
-135.399	214.475	0.137	0.217
-134.385	-19.886	-0.224	-0.139
-133.370	-200.000	-0.009	-0.040
-132.356	-51.764	-0.220	0.103
-131.341	800.000	-0.055	0.226
-130.326	-66.104	0.121	0.048
-129.312	7.457	-0.251	-0.188
-128.297	-138.562	-0.135	0.015
-127.283	-135.031	0.164	0.020
-126.268	-12.646	-0.190	0.124
-125.253	-24.057	0.184	0.110
-124.239	-32.488	-0.277	0.155
-123.224	142.585	0.067	0.090
-122.210	71.812	-0.150	0.157
-121.195	-50.464	0.166	-0.079
-120.180	-126.384	0.067	-0.010
-119.166	-23.333	0.028	0.017
