DTS Sentinel unit serial number:	SN413079Multiplexer serial number:	ORYXHardware model number:	OX4-SRSoftware version number:	ORYX F/W v4.00 Oryx Data Collector v3.7.2.0data status	okinstallation	princeton_trtdifferential loss correction	single-endedforward channel	channel 2reverse channel	N/Adate	2019/09/12time	23:51:34forward acquisition time	60.00reverse acquisition time	0.00gamma	496.2192k internal	0.2333k external	0.2333temperature offset calibration	1.0177default loss term (dB/km)	0.3790temperature slope calibration	1.0000multiplexer offset coefficient	1.0000multiplexer slope coefficient	1.0000fibre end	0.00T internal ref (°C)	28.75T ext. ref 1 (°C)	3.79T ext. ref 2 (°C)	23.46length (m)	temperature (°C)	Stokes	anti-Stokes-747.200	727.102	0.089	0.239
-746.185	-200.000	-0.003	0.087
-745.171	-200.000	0.012	-0.107
-744.156	6.123	-0.200	0.149
-743.142	-86.153	-0.232	-0.072
-742.127	-159.247	-0.277	-0.016
-741.112	-103.336	0.302	-0.072
-740.098	-32.436	-0.169	0.095
-739.083	-200.000	0.002	-0.179
-738.069	-89.311	0.212	0.063
-737.054	96.859	0.386	0.445
-736.039	790.806	0.112	0.309
-735.025	-112.499	0.266	0.053
-734.010	18.541	-0.104	-0.083
-732.996	-127.786	-0.239	0.035
-731.981	469.669	-0.166	-0.374
-730.966	-115.496	0.310	-0.059
-729.952	800.000	0.028	-0.105
-728.937	15.150	0.071	0.056
-727.923	-1.211	0.134	0.095
-726.908	59.764	-0.377	-0.374
-725.894	800.000	-0.089	-0.285
-724.879	-116.894	0.319	0.059
-723.864	-7.403	-0.113	0.077
-722.850	-200.000	-0.026	-0.398
-721.835	-200.000	-0.014	0.131
-720.821	121.540	-0.019	-0.024
-719.806	-82.922	-0.313	0.102
-718.791	152.425	0.094	-0.128
-717.777	800.000	0.090	0.377
-716.762	-160.891	-0.230	0.012
-715.748	-200.000	-0.107	0.534
-714.733	10.243	0.174	-0.133
-713.718	619.189	-0.100	0.252
-712.704	800.000	-0.086	0.280
-711.689	-65.898	0.211	0.085
-710.675	572.406	-0.033	-0.081
-709.660	-113.647	-0.263	0.052
-708.645	-159.323	-0.229	-0.013
-707.631	-113.622	-0.379	-0.074
-706.616	-27.184	0.188	-0.110
-705.602	-61.484	-0.106	0.045
-704.587	800.000	-0.053	-0.233
-703.572	140.390	-0.054	-0.072
-702.558	273.768	-0.135	0.239
-701.543	1.381	-0.259	0.187
-700.529	-140.064	-0.291	0.031
-699.514	-30.626	-0.341	-0.194
-698.499	-102.021	0.174	0.042
-697.485	659.171	-0.087	-0.224
-696.470	545.317	-0.099	-0.236
-695.456	102.015	-0.003	-0.004
-694.441	-100.310	-0.253	0.063
-693.426	-52.678	-0.066	-0.030
-692.412	-11.979	0.203	0.134
-691.397	-88.680	0.127	0.038
-690.383	104.893	-0.156	0.184
-689.368	-200.000	-0.022	-0.267
-688.354	-133.823	-0.163	-0.020
-687.339	-200.000	0.023	0.116
-686.324	79.013	0.262	-0.281
-685.310	131.673	-0.204	0.263
-684.295	800.000	-0.111	0.326
-683.281	20.234	-0.090	0.073
-682.266	463.674	0.040	-0.089
-681.251	800.000	0.040	-0.123
-680.237	-200.000	0.004	-0.353
-679.222	-12.070	-0.177	-0.116
-678.208	800.000	-0.114	-0.354
-677.193	367.419	-0.113	0.229
-676.178	-200.000	0.392	-0.001
-675.164	1.224	0.156	0.112
-674.149	217.428	0.025	0.039
-673.135	-32.355	-0.255	-0.143
-672.120	213.828	-0.099	0.157
-671.105	-98.328	0.127	-0.033
-670.091	36.894	-0.138	-0.122
-669.076	-39.083	-0.383	0.202
-668.062	186.056	0.114	-0.170
-667.047	-30.804	0.106	-0.060
-666.032	549.042	-0.033	0.079
-665.018	-67.430	-0.073	0.029
-664.003	1.240	-0.282	-0.203
-662.989	-200.000	-0.046	-0.259
-661.974	418.396	0.099	-0.213
-660.959	-200.000	-0.004	0.133
-659.945	199.327	-0.159	-0.244
-658.930	43.554	0.174	-0.160
-657.916	-42.289	0.215	-0.110
-656.901	-75.249	0.133	-0.048
-655.886	-126.071	0.470	0.071
-654.872	56.675	-0.103	-0.101
-653.857	-15.099	-0.092	-0.059
-652.843	22.973	-0.199	0.164
-651.828	619.583	-0.070	-0.176
-650.814	53.076	0.069	-0.066
-649.799	800.000	0.014	0.054
-648.784	3.071	-0.255	0.186
-647.770	-200.000	0.006	0.192
-646.755	-20.026	-0.221	0.137
-645.741	-200.000	0.011	0.448
-644.726	455.629	0.073	-0.163
-643.711	104.926	0.126	0.149
-642.697	279.405	-0.115	-0.206
-641.682	-200.000	0.010	0.385
-640.668	-200.000	0.039	-0.176
-639.653	-80.122	-0.276	0.093
-638.638	-132.674	0.176	-0.023
-637.624	103.023	0.300	-0.352
-636.609	-23.912	-0.213	-0.128
-635.595	97.578	0.246	-0.282
-634.580	-16.293	-0.038	-0.024
-633.565	-200.000	0.011	0.188
-632.551	-33.608	0.208	0.115
-631.536	395.722	0.123	0.257
-630.522	-108.770	-0.247	-0.053
-629.507	178.972	0.224	0.328
-628.492	-48.500	0.181	-0.087
-627.478	-107.831	-0.169	0.037
-626.463	-92.534	-0.159	0.045
-625.449	-19.660	0.195	0.121
-624.434	89.239	0.130	0.145
-623.419	-200.000	0.035	0.198
-622.405	7.391	0.201	-0.150
-621.390	138.807	0.122	0.161
-620.376	-200.000	-0.017	-0.178
-619.361	235.305	-0.284	-0.469
-618.346	-82.164	-0.484	-0.158
-617.332	-148.100	0.093	0.008
-616.317	-200.000	-0.075	0.399
-615.303	800.000	-0.057	-0.192
-614.288	4.797	-0.251	0.184
-613.273	-200.000	-0.011	-0.283
-612.259	576.467	-0.069	-0.170
-611.244	0.228	-0.301	-0.215
-610.230	-45.678	0.249	-0.123
-609.215	3.602	0.149	0.109
-608.201	-53.581	0.056	0.026
-607.186	-200.000	0.005	-0.194
-606.171	-79.268	0.132	0.045
-605.157	-70.595	0.076	0.029
-604.142	-157.103	0.150	0.009
-603.128	-34.667	0.065	-0.036
-602.113	-60.463	-0.347	0.147
-601.098	-77.151	-0.235	0.082
-600.084	449.098	-0.161	-0.354
-599.069	171.838	0.110	0.158
-598.055	702.833	0.065	0.172
-597.040	-101.386	0.077	-0.019
-596.025	363.172	0.081	0.163
-595.011	138.451	-0.047	-0.062
-593.996	-200.000	-0.005	-0.095
-592.982	-200.000	-0.015	-0.108
-591.967	29.908	0.313	-0.267
-590.952	255.864	0.115	0.197
-589.938	769.944	-0.048	-0.131
-588.923	138.178	0.279	-0.366
-587.909	-200.000	-0.048	-0.228
-586.894	349.825	0.111	0.218
-585.879	-6.182	0.172	-0.118
-584.865	800.000	-0.029	0.097
-583.850	-200.000	0.010	-0.300
-582.836	219.417	-0.066	0.105
-581.821	10.434	0.302	-0.229
-580.806	46.413	-0.084	0.078
-579.792	-200.000	0.053	-0.336
-578.777	-200.000	0.026	0.122
-577.763	-116.544	0.267	0.049
-576.748	-88.943	-0.118	-0.035
-575.733	206.693	-0.062	-0.097
-574.719	18.899	0.191	0.153
-573.704	95.854	0.231	0.263
-572.690	-194.147	0.382	0.003
-571.675	-91.664	-0.173	-0.049
-570.661	456.673	-0.065	0.144
-569.646	-115.984	-0.253	0.047
-568.631	129.762	0.150	0.192
-567.617	-200.000	0.017	0.243
-566.602	-97.399	-0.205	0.053
-565.588	800.000	-0.066	0.189
-564.573	-141.236	0.481	-0.049
-563.558	800.000	0.066	0.290
-562.544	-45.493	0.278	-0.138
-561.529	-182.762	-0.087	0.002
-560.515	-200.000	0.045	-0.269
-559.500	-52.619	0.216	0.099
-558.485	81.979	-0.112	0.121
-557.471	-40.185	-0.207	-0.108
-556.456	800.000	0.071	0.276
-555.442	-200.000	-0.004	0.095
-554.427	33.446	-0.222	-0.193
-553.412	-47.350	0.206	-0.100
-552.398	205.486	0.194	-0.301
-551.383	-56.357	-0.430	0.191
-550.369	171.939	0.213	0.306
-549.354	-27.047	0.276	0.161
-548.339	28.524	0.234	0.198
-547.325	37.478	0.045	0.040
-546.310	-124.669	0.109	-0.017
-545.296	800.000	-0.053	-0.158
-544.281	-200.000	-0.033	-0.371
-543.266	-121.714	0.094	0.016
-542.252	63.129	-0.124	0.124
-541.237	44.612	-0.258	-0.237
-540.223	71.507	-0.167	-0.173
-539.208	-80.573	-0.240	0.080
-538.193	-117.964	-0.079	0.014
-537.179	800.000	0.100	0.298
-536.164	42.157	-0.147	-0.134
-535.150	-200.000	-0.022	0.334
-534.135	-144.311	0.402	-0.037
-533.121	165.451	0.225	-0.318
-532.106	-55.823	-0.093	-0.042
-531.091	-157.060	0.265	0.016
-530.077	800.000	-0.025	0.071
-529.062	-104.470	0.079	-0.018
-528.048	-157.568	0.189	-0.011
-527.033	-173.017	0.007	-0.000
-526.018	800.000	-0.084	0.301
-525.004	-82.932	-0.293	0.094
-523.989	-69.925	0.338	0.128
-522.975	274.998	-0.025	0.043
-521.960	203.767	0.267	0.412
-520.945	12.963	-0.115	-0.088
-519.931	-131.802	0.464	-0.060
-518.916	-200.000	-0.002	-0.299
-517.902	-200.000	0.004	-0.041
-516.887	-200.000	-0.012	-0.281
-515.872	-11.073	0.350	0.230
-514.858	-200.000	0.054	0.286
-513.843	-41.121	-0.088	-0.046
-512.829	-32.006	-0.083	-0.046
-511.814	309.962	-0.018	0.034
-510.799	-134.678	-0.229	-0.028
-509.785	-200.000	-0.042	0.440
-508.770	800.000	0.079	-0.238
-507.756	-200.000	-0.021	-0.167
-506.741	-119.719	0.220	-0.038
-505.726	-74.830	-0.434	0.155
-504.712	-95.168	-0.158	0.042
-503.697	-67.492	0.237	0.093
-502.683	182.477	0.201	-0.295
-501.668	-134.988	-0.150	-0.018
-500.653	62.762	-0.166	-0.165
-499.639	800.000	0.055	0.207
-498.624	-154.156	0.278	-0.019
-497.610	-200.000	-0.070	-0.409
-496.595	-24.184	-0.011	0.007
-495.581	62.279	-0.089	-0.088
-494.566	20.109	-0.178	-0.143
-493.551	-74.995	-0.224	0.080
-492.537	111.894	0.169	-0.203
-491.522	722.171	-0.133	-0.351
-490.508	766.862	-0.153	0.413
-489.493	152.796	0.256	-0.349
-488.478	138.641	-0.255	0.333
-487.464	544.657	-0.186	-0.443
-486.449	800.000	0.097	0.274
-485.435	-81.535	-0.296	-0.097
-484.420	595.852	-0.078	0.193
-483.405	46.764	0.180	0.167
-482.391	-126.097	-0.205	-0.031
-481.376	18.024	0.191	-0.152
-480.362	466.382	-0.067	-0.150
-479.347	4.038	-0.076	-0.055
-478.332	-159.242	0.128	-0.007
-477.318	378.272	0.183	0.372
-476.303	-42.100	0.208	-0.106
-475.289	-200.000	0.020	-0.220
-474.274	800.000	0.106	-0.300
-473.259	14.890	-0.175	0.136
-472.245	153.717	0.060	-0.082
-471.230	800.000	-0.046	0.185
-470.216	-54.526	0.327	0.147
-469.201	-12.538	0.232	-0.151
-468.186	-200.000	-0.052	-0.231
-467.172	-137.880	-0.213	-0.024
-466.157	-51.129	0.186	-0.087
-465.143	116.462	-0.397	-0.485
-464.128	-200.000	0.003	0.151
-463.113	-108.069	0.134	0.029
-462.099	-200.000	-0.009	-0.134
-461.084	-200.000	-0.030	0.136
-460.070	-13.844	-0.150	-0.096
-459.055	70.248	0.214	-0.220
-458.040	-64.635	0.321	-0.130
-457.026	800.000	-0.118	0.441
-456.011	-79.758	0.203	0.068
-454.997	-1.647	-0.132	0.092
-453.982	172.936	-0.198	-0.284
-452.968	-21.354	0.234	0.142
-451.953	-75.450	-0.224	-0.079
-450.938	-68.653	-0.259	0.100
-449.924	-63.304	-0.112	0.046
-448.909	71.447	-0.221	0.228
-447.895	60.003	-0.167	0.164
-446.880	192.124	-0.203	0.305
-445.865	84.161	0.102	-0.110
-444.851	138.617	0.083	-0.108
-443.836	-95.713	0.080	0.021
-442.822	587.968	0.105	0.256
-441.807	-128.064	-0.186	0.026
-440.792	-84.569	-0.179	0.056
-439.778	-193.231	0.246	0.002
-438.763	711.379	0.112	0.296
-437.749	120.842	-0.191	0.236
-436.734	-111.491	0.337	0.068
-435.719	-18.203	-0.073	-0.046
-434.705	107.840	-0.242	0.287
-433.690	-19.657	0.257	0.158
-432.676	778.571	0.045	0.121
-431.661	-8.721	-0.148	0.098
-430.646	800.000	-0.081	-0.334
-429.632	298.854	-0.096	-0.176
-428.617	-200.000	0.010	-0.184
-427.603	62.985	0.266	-0.264
-426.588	-22.017	-0.481	-0.290
-425.573	-200.000	-0.020	-0.127
-424.559	113.903	0.324	-0.391
-423.544	-200.000	0.016	-0.173
-422.530	192.255	-0.152	-0.227
-421.515	546.971	-0.026	0.062
-420.500	800.000	-0.063	-0.253
-419.486	-84.883	-0.262	-0.082
-418.471	110.035	0.091	-0.108
-417.457	-139.352	-0.244	-0.026
-416.442	800.000	-0.041	-0.176
-415.428	-45.506	-0.106	-0.052
-414.413	-54.328	0.239	-0.108
-413.398	-15.837	-0.217	-0.137
-412.384	-200.000	-0.018	0.256
-411.369	-200.000	-0.053	0.238
-410.355	-87.136	-0.105	-0.032
-409.340	-200.000	-0.011	-0.216
-408.325	-200.000	-0.011	-0.209
-407.311	6.330	-0.079	0.059
-406.296	-137.794	0.077	-0.009
-405.282	-68.011	0.237	0.092
-404.267	-20.951	0.128	-0.078
-403.252	381.624	0.018	0.038
-402.238	285.644	0.108	-0.194
-401.223	-87.195	-0.344	0.104
-400.209	-1.953	-0.310	-0.216
-399.194	-200.000	-0.049	0.425
-398.179	62.165	0.136	0.134
-397.165	-24.279	0.097	0.058
-396.150	435.748	-0.045	0.097
-395.136	244.915	0.170	-0.284
-394.121	800.000	-0.115	-0.318
-393.106	66.161	0.130	-0.130
-392.092	-121.182	-0.310	0.051
-391.077	-200.000	0.036	0.185
-390.063	-200.000	0.216	-0.001
-389.048	36.716	0.317	0.278
-388.033	-200.000	0.057	-0.417
-387.019	14.399	0.282	0.218
-386.004	-46.585	-0.206	0.100
-384.990	-58.810	0.063	0.027
-383.975	-200.000	-0.051	-0.246
-382.960	-46.020	0.101	0.050
-381.946	-200.000	0.014	0.301
-380.931	737.746	0.117	-0.311
-379.917	-7.497	-0.097	0.065
-378.902	-200.000	-0.001	0.299
-377.888	-78.827	-0.088	-0.030
-376.873	-122.260	-0.178	0.029
-375.858	-61.955	0.203	0.084
-374.844	8.930	-0.172	-0.128
-373.829	82.633	-0.407	-0.438
-372.815	-121.974	0.198	0.032
-371.800	531.708	-0.027	0.063
-370.785	-96.910	-0.240	0.062
-369.771	-44.156	0.118	0.059
-368.756	565.210	-0.090	-0.215
-367.742	-199.435	0.226	-0.001
-366.727	4.241	-0.101	-0.073
-365.712	-147.785	0.392	0.032
-364.698	-200.000	-0.023	0.383
-363.683	-200.000	-0.040	-0.211
-362.669	-29.528	-0.553	-0.313
-361.654	184.938	0.095	0.140
-360.639	-200.000	0.051	0.290
-359.625	-200.000	0.020	-0.238
-358.610	-200.000	-0.071	-0.393
-357.596	57.266	-0.309	0.299
-356.581	-84.743	-0.247	-0.077
-355.566	-43.703	-0.202	0.101
-354.552	-78.376	0.354	0.120
-353.537	61.049	-0.074	0.072
-352.523	-200.000	0.014	0.287
-351.508	-127.617	0.291	-0.042
-350.493	800.000	0.030	0.084
-349.479	-61.195	-0.266	-0.111
-348.464	-145.036	0.103	-0.009
-347.450	604.336	-0.118	0.290
-346.435	-68.244	-0.384	-0.148
-345.420	235.211	0.080	0.131
-344.406	-84.817	-0.100	0.031
-343.391	312.782	0.024	0.045
-342.377	-85.785	0.242	-0.074
-341.362	389.699	-0.078	0.160
-340.348	199.836	0.166	0.252
-339.333	36.361	0.072	-0.063
-338.318	1.030	0.127	0.090
-337.304	24.128	-0.097	0.079
-336.289	-12.858	-0.184	0.119
-335.275	286.491	0.081	-0.144
-334.260	75.464	-0.173	0.181
-333.245	286.953	0.091	0.162
-332.231	-34.071	-0.246	0.134
-331.216	-113.147	-0.144	-0.028
-330.202	-76.731	0.167	-0.058
-329.187	97.748	0.159	0.181
-328.172	800.000	-0.041	-0.156
-327.158	-164.696	-0.279	-0.012
-326.143	-78.899	-0.219	0.074
-325.129	54.452	-0.083	0.080
-324.114	21.195	-0.117	0.094
-323.099	800.000	0.037	0.124
-322.085	-57.750	-0.301	0.130
-321.070	-200.000	-0.013	0.081
-320.056	-53.798	0.352	0.159
-319.041	800.000	-0.033	-0.100
-318.026	800.000	-0.042	-0.127
-317.012	-91.595	-0.312	-0.088
-315.997	-101.917	-0.270	-0.065
-314.983	323.363	-0.304	0.573
-313.968	-114.403	0.106	-0.020
-312.953	-30.425	-0.346	-0.194
-311.939	-200.000	0.001	0.127
-310.924	-200.000	-0.023	-0.115
-309.910	-155.782	-0.257	-0.016
-308.895	-200.000	-0.044	0.293
-307.880	-132.178	0.230	0.029
-306.866	51.890	0.054	0.051
-305.851	-45.339	0.237	0.116
-304.837	-200.000	0.021	-0.186
-303.822	-30.503	0.248	-0.139
-302.807	-101.999	0.421	-0.100
-301.793	455.855	-0.064	-0.141
-300.778	800.000	0.030	0.108
-299.764	-75.999	0.156	-0.054
-298.749	-16.947	-0.165	0.103
-297.735	-200.000	0.011	-0.123
-296.720	-200.000	0.003	-0.051
-295.705	-200.000	0.008	0.418
-294.691	77.344	-0.069	0.072
-293.676	800.000	-0.029	-0.094
-292.662	300.951	0.085	0.155
-291.647	-121.684	0.104	0.017
-290.632	-200.000	0.043	0.300
-289.618	-51.148	0.276	-0.128
-288.603	-78.370	0.047	-0.016
-287.589	-34.467	0.286	-0.155
-286.574	-71.245	-0.164	0.061
-285.559	110.353	0.068	-0.080
-284.545	-88.504	-0.325	-0.096
-283.530	223.796	-0.108	-0.172
-282.516	80.682	0.217	-0.231
-281.501	50.143	0.292	-0.272
-280.486	-33.144	0.050	0.027
-279.472	800.000	-0.052	0.185
-278.457	98.047	-0.076	-0.087
-277.443	-120.752	-0.357	-0.060
-276.428	329.905	0.043	0.082
-275.413	-97.387	-0.140	0.036
-274.399	31.241	-0.044	0.037
-273.384	567.718	0.112	-0.270
-272.370	23.883	0.170	-0.138
-271.355	-145.485	-0.188	0.017
-270.340	124.303	0.071	-0.088
-269.326	-200.000	0.010	-0.273
-268.311	-129.100	0.056	0.008
-267.297	-200.000	0.047	0.275
-266.282	8.141	-0.174	0.129
-265.267	800.000	0.138	0.515
-264.253	-165.687	-0.201	-0.009
-263.238	617.810	0.053	0.131
-262.224	-146.324	-0.165	-0.014
-261.209	-116.539	0.210	-0.038
-260.195	-84.264	-0.203	0.063
-259.180	800.000	-0.026	-0.081
-258.165	-159.494	0.176	0.010
-257.151	-0.578	0.206	-0.144
-256.136	-200.000	-0.045	-0.273
-255.122	15.690	-0.116	-0.090
-254.107	-121.731	0.154	-0.025
-253.092	-83.684	-0.051	0.016
-252.078	-63.409	-0.044	0.018
-251.063	-116.139	0.284	0.052
-250.049	3.281	0.242	-0.173
-249.034	201.226	0.169	0.256
-248.019	393.151	0.193	0.397
-247.005	191.646	-0.161	0.239
-245.990	800.000	-0.084	-0.285
-244.976	-200.000	-0.001	-0.253
-243.961	-94.102	-0.156	0.042
-242.946	269.380	0.166	-0.287
-241.932	-96.690	0.425	0.110
-240.917	698.741	0.156	-0.405
-239.903	-200.000	0.007	0.033
-238.888	239.876	-0.098	-0.161
-237.873	62.323	0.212	-0.209
-236.859	-200.000	-0.025	-0.152
-235.844	-14.933	-0.365	-0.231
-234.830	-145.179	-0.140	-0.013
-233.815	686.330	-0.091	0.233
-232.800	-200.000	0.059	0.315
-231.786	-170.785	0.153	-0.005
-230.771	-200.000	0.025	0.169
-229.757	78.899	-0.148	0.156
-228.742	-200.000	0.011	0.070
-227.727	-100.463	-0.210	0.051
-226.713	-57.646	-0.161	-0.069
-225.698	-55.771	0.210	-0.093
-224.684	-182.827	-0.447	0.008
-223.669	-10.195	-0.188	0.123
-222.655	-32.533	0.365	-0.201
-221.640	-200.000	-0.040	-0.238
-220.625	-0.412	-0.093	0.065
-219.611	-200.000	-0.000	-0.027
-218.596	-66.240	-0.294	0.115
-217.582	251.647	-0.079	-0.132
-216.567	336.359	0.082	0.156
-215.552	21.667	-0.149	-0.119
-214.538	-38.750	0.206	0.107
-213.523	-128.101	-0.259	-0.036
-212.509	-200.000	0.066	0.402
-211.494	433.006	0.150	0.321
-210.479	-162.125	-0.359	0.018
-209.465	369.538	0.122	-0.244
-208.450	14.578	0.116	-0.089
-207.436	-158.544	0.023	-0.001
-206.421	57.967	-0.334	0.322
-205.406	545.026	0.074	0.174
-204.392	-67.598	-0.326	-0.126
-203.377	-181.635	0.180	0.003
-202.363	800.000	0.065	-0.208
-201.348	-73.688	0.162	-0.058
-200.333	800.000	0.038	0.146
-199.319	800.000	0.047	0.152
-198.304	-200.000	0.045	0.197
-197.290	504.559	0.072	-0.165
-196.275	-57.502	-0.069	0.030
-195.260	-200.000	0.019	-0.185
-194.246	-200.000	0.003	0.069
-193.231	-152.638	-0.342	-0.024
-192.217	377.418	-0.070	-0.142
-191.202	270.046	0.140	0.243
-190.187	-110.351	0.353	-0.072
-189.173	-140.943	-0.188	-0.019
-188.158	176.364	-0.151	-0.217
-187.144	521.321	0.050	-0.115
-186.129	-126.499	0.127	0.019
-185.114	-161.964	-0.113	-0.006
-184.100	800.000	-0.081	0.227
-183.085	-7.855	0.186	0.124
-182.071	-162.336	0.196	0.010
-181.056	800.000	-0.073	0.270
-180.042	-200.000	-0.000	0.095
-179.027	-47.557	0.026	-0.012
-178.012	529.245	0.191	0.443
-176.998	-200.000	0.015	-0.112
-175.983	61.200	0.154	0.150
-174.969	-200.000	0.012	-0.181
-173.954	-200.000	-0.052	-0.322
-172.939	-11.877	0.094	-0.061
-171.925	11.973	-0.114	0.086
-170.910	-41.918	-0.498	-0.251
-169.896	-98.681	0.187	-0.047
-168.881	800.000	0.091	-0.278
-167.866	293.725	-0.012	-0.022
-166.852	-200.000	-0.034	-0.193
-165.837	-113.559	0.146	-0.028
-164.823	-124.221	0.169	-0.026
-163.808	244.223	0.098	0.161
-162.793	186.924	0.145	-0.212
-161.779	-25.183	0.196	0.114
-160.764	-2.547	-0.188	0.129
-159.750	-200.000	0.031	-0.188
-158.735	-200.000	-0.045	-0.208
-157.720	-100.141	-0.113	0.028
-156.706	-200.000	-0.022	0.149
-155.691	800.000	-0.018	-0.065
-154.677	205.217	-0.223	-0.340
-153.662	-32.281	0.089	-0.049
-152.647	129.025	-0.030	0.038
-151.633	45.997	-0.174	0.158
-150.618	-128.514	0.169	-0.024
-149.604	-52.019	-0.335	0.153
-148.589	212.225	0.169	0.261
-147.574	121.130	0.260	-0.317
-146.560	19.176	0.164	-0.130
-145.545	175.390	-0.098	0.139
-144.531	750.119	-0.058	-0.153
-143.516	-105.335	0.067	0.015
-142.502	177.903	-0.134	-0.191
-141.487	-92.846	0.146	0.040
-140.472	-200.000	0.003	0.276
-139.458	800.000	-0.023	0.070
-138.443	560.517	-0.040	0.094
-137.429	800.000	-0.039	-0.115
-136.414	-39.830	0.244	0.125
-135.399	-110.259	0.327	-0.067
-134.385	-115.367	-0.155	0.029
-133.370	109.376	0.028	0.033
-132.356	-109.259	0.449	0.093
-131.341	-99.931	-0.290	0.071
-130.326	-200.000	0.024	0.203
-129.312	288.126	-0.185	-0.329
-128.297	-36.634	-0.225	-0.119
-127.283	654.750	-0.102	0.258
-126.268	36.199	-0.141	-0.122
-125.253	-48.227	-0.342	-0.162
-124.239	-58.283	0.287	-0.122
-123.224	-150.230	0.140	0.011
-122.210	68.016	-0.196	0.197
