DTS Sentinel unit serial number:	SN413079Multiplexer serial number:	ORYXHardware model number:	OX4-SRSoftware version number:	ORYX F/W v4.00 Oryx Data Collector v3.7.2.0data status	okinstallation	princeton_trtdifferential loss correction	single-endedforward channel	channel 2reverse channel	N/Adate	2019/09/11time	14:57:11forward acquisition time	60.00reverse acquisition time	0.00gamma	496.2192k internal	0.2288k external	0.2288temperature offset calibration	1.0010default loss term (dB/km)	0.3790temperature slope calibration	1.0000multiplexer offset coefficient	1.0000multiplexer slope coefficient	1.0000fibre end	0.00T internal ref (°C)	42.75T ext. ref 1 (°C)	0.94T ext. ref 2 (°C)	38.39length (m)	temperature (°C)	Stokes	anti-Stokes-747.200	325.148	-0.035	0.068
-746.185	-27.747	-0.250	0.149
-745.171	474.599	-0.035	0.081
-744.156	-200.000	-0.002	-0.147
-743.142	-78.871	-0.122	0.043
-742.127	-111.946	0.059	0.012
-741.112	72.182	0.029	-0.031
-740.098	26.367	-0.313	0.268
-739.083	104.955	0.321	-0.388
-738.069	-130.791	-0.068	0.009
-737.054	-124.479	0.203	0.032
-736.039	-125.213	-0.272	0.043
-735.025	-89.343	-0.182	0.055
-734.010	27.893	-0.212	-0.183
-732.996	285.822	-0.087	0.161
-731.981	-200.000	0.032	0.357
-730.966	-116.674	-0.238	-0.045
-729.952	393.036	0.216	-0.461
-728.937	479.729	-0.055	-0.128
-727.923	-104.586	0.126	-0.030
-726.908	-200.000	-0.028	-0.232
-725.894	343.681	-0.143	0.286
-724.879	-16.652	-0.207	-0.134
-723.864	41.805	-0.337	0.313
-722.850	165.673	-0.221	-0.321
-721.835	-5.592	-0.116	0.082
-720.821	-111.030	0.382	0.080
-719.806	-141.203	0.203	-0.021
-718.791	-67.607	0.233	-0.093
-717.777	110.014	-0.110	-0.135
-716.762	52.829	-0.128	-0.125
-715.748	233.668	0.081	0.136
-714.733	-87.477	-0.236	0.073
-713.718	100.629	0.073	0.086
-712.704	42.155	-0.132	0.122
-711.689	87.488	0.183	-0.207
-710.675	80.727	0.058	0.064
-709.660	-200.000	0.040	-0.286
-708.645	96.301	-0.254	-0.298
-707.631	-28.691	-0.207	0.122
-706.616	-57.298	-0.294	0.132
-705.602	-136.554	-0.293	0.035
-704.587	-200.000	0.029	-0.178
-703.572	-24.872	-0.218	-0.132
-702.558	-39.790	-0.011	-0.006
-701.543	-137.944	0.366	0.042
-700.529	159.560	-0.073	0.104
-699.514	-200.000	0.022	0.216
-698.499	247.443	-0.229	0.395
-697.485	165.155	-0.029	-0.042
-696.470	395.543	0.075	0.160
-695.456	-109.648	0.113	-0.024
-694.441	29.723	-0.227	-0.197
-693.426	-75.555	-0.165	-0.060
-692.412	75.631	0.241	-0.261
-691.397	-65.180	-0.195	0.080
-690.383	649.718	-0.067	0.174
-689.368	-146.956	-0.208	-0.018
-688.354	-68.049	-0.111	-0.044
-687.339	-82.780	-0.079	-0.026
-686.324	-75.740	-0.259	-0.094
-685.310	-44.927	-0.206	-0.105
-684.295	800.000	0.088	-0.342
-683.281	-138.874	0.210	-0.023
-682.266	-152.695	-0.006	0.000
-681.251	-200.000	0.015	0.391
-680.237	-127.811	-0.264	-0.039
-679.222	-27.422	-0.098	0.058
-678.208	138.488	0.060	-0.080
-677.193	702.702	0.038	-0.103
-676.178	800.000	0.061	0.220
-675.164	-72.226	0.119	-0.045
-674.149	-172.977	0.151	-0.005
-673.135	222.436	0.094	-0.154
-672.120	460.291	0.105	-0.239
-671.105	-10.314	-0.152	0.103
-670.091	142.980	-0.365	-0.496
-669.076	-150.558	0.331	0.026
-668.062	-104.685	0.187	-0.044
-667.047	-200.000	-0.013	0.102
-666.032	-28.393	-0.167	0.099
-665.018	-11.080	0.142	-0.096
-664.003	-100.395	-0.385	0.098
-662.989	170.613	0.079	0.115
-661.974	-61.966	0.315	-0.135
-660.959	-200.000	0.029	0.133
-659.945	394.740	-0.079	-0.168
-658.930	-200.000	-0.002	-0.223
-657.916	12.475	0.184	-0.145
-656.901	-98.471	0.473	-0.124
-655.886	214.732	-0.024	-0.038
-654.872	800.000	-0.061	-0.257
-653.857	124.898	0.346	0.445
-652.843	800.000	-0.080	-0.346
-651.828	-30.208	-0.211	-0.122
-650.814	-200.000	0.002	0.231
-649.799	800.000	0.089	-0.308
-648.784	-54.495	0.271	-0.125
-647.770	-84.162	0.092	0.030
-646.755	47.574	-0.333	-0.317
-645.741	800.000	0.024	0.070
-644.726	-25.005	0.345	-0.209
-643.711	800.000	-0.157	-0.483
-642.697	434.912	-0.097	-0.214
-641.682	47.563	0.069	0.065
-640.668	-200.000	-0.008	0.156
-639.653	-21.319	0.053	0.033
-638.638	699.584	0.043	0.116
-637.624	-103.029	0.062	-0.015
-636.609	-115.981	0.206	0.039
-635.595	-38.693	0.076	0.041
-634.580	-200.000	0.032	0.301
-633.565	-44.684	0.204	0.104
-632.551	-27.043	0.129	0.077
-631.536	26.990	0.073	-0.062
-630.522	125.027	-0.236	0.303
-629.507	-200.000	-0.001	-0.225
-628.492	-86.902	-0.446	-0.139
-627.478	236.768	-0.247	0.418
-626.463	-173.613	0.101	0.003
-625.449	22.529	-0.226	0.188
-624.434	76.516	0.300	-0.324
-623.419	-90.521	-0.424	0.125
-622.405	202.194	-0.073	-0.114
-621.390	52.989	-0.037	-0.036
-620.376	-146.974	0.199	-0.017
-619.361	12.241	0.151	-0.118
-618.346	-3.097	-0.114	0.081
-617.332	-123.622	-0.180	-0.029
-616.317	125.340	-0.173	0.222
-615.303	91.254	0.069	-0.079
-614.288	-145.381	0.231	-0.021
-613.273	312.473	-0.099	0.189
-612.259	-34.168	0.107	-0.060
-611.244	-80.718	0.306	0.104
-610.230	-115.263	0.202	-0.039
-609.215	300.384	-0.106	-0.199
-608.201	-200.000	0.002	-0.104
-607.186	108.316	0.105	-0.128
-606.171	335.996	-0.032	-0.064
-605.157	17.418	-0.287	0.233
-604.142	-189.207	-0.230	0.003
-603.128	800.000	0.129	-0.463
-602.113	-149.448	0.409	-0.033
-601.098	-128.202	0.076	0.011
-600.084	-70.888	-0.331	-0.127
-599.069	366.605	-0.214	0.440
-598.055	140.157	-0.088	-0.118
-597.040	141.849	0.284	0.383
-596.025	209.271	0.053	-0.085
-595.011	-31.663	-0.109	-0.062
-593.996	29.593	-0.141	0.122
-592.982	-164.827	0.078	-0.004
-591.967	-74.601	0.130	0.048
-590.952	37.509	-0.182	-0.165
-589.938	-200.000	-0.083	-0.386
-588.923	561.216	0.037	-0.092
-587.909	33.934	-0.091	0.081
-586.894	-43.306	-0.027	0.014
-585.879	3.149	-0.214	0.158
-584.865	289.105	-0.149	0.274
-583.850	-186.385	-0.220	0.003
-582.836	-200.000	-0.036	0.000
-581.821	27.123	-0.319	-0.273
-580.806	90.234	-0.105	0.120
-579.792	-37.908	-0.544	-0.295
-578.777	-12.938	-0.312	0.207
-577.763	214.946	-0.212	0.343
-576.748	116.842	0.181	0.227
-575.733	800.000	0.060	0.226
-574.719	-200.000	-0.082	-0.465
-573.704	-13.245	-0.412	0.273
-572.690	-109.731	0.213	-0.046
-571.675	254.669	-0.102	0.178
-570.661	208.274	-0.150	-0.239
-569.646	183.041	-0.055	-0.083
-568.631	-98.475	0.343	-0.089
-567.617	43.304	0.148	-0.137
-566.602	495.276	-0.108	-0.252
-565.588	800.000	-0.140	-0.514
-564.573	-200.000	-0.031	-0.208
-563.558	-35.224	-0.344	0.191
-562.544	-133.894	-0.165	0.021
-561.529	-81.986	0.292	0.097
-560.515	-200.000	-0.030	-0.157
-559.500	-110.182	-0.281	0.060
-558.485	334.730	-0.052	-0.102
-557.471	-77.223	0.279	0.099
-556.456	-12.127	0.171	0.114
-555.442	21.881	0.133	0.111
-554.427	320.386	-0.128	-0.247
-553.412	-74.800	0.100	-0.037
-552.398	-200.000	-0.018	0.387
-551.383	-101.668	-0.095	0.024
-550.369	-29.496	-0.063	0.037
-549.354	645.574	-0.107	-0.277
-548.339	800.000	0.064	0.216
-547.325	-110.819	0.121	0.025
-546.310	35.805	0.183	0.164
-545.296	152.853	0.215	-0.298
-544.281	800.000	-0.156	-0.481
-543.266	-112.844	-0.076	-0.015
-542.252	36.456	-0.148	0.133
-541.237	800.000	0.046	-0.132
-540.223	8.315	-0.249	0.191
-539.208	80.834	0.136	0.149
-538.193	-200.000	0.015	-0.155
-537.179	323.143	-0.107	0.208
-536.164	346.146	-0.115	0.229
-535.150	5.059	0.028	-0.021
-534.135	-36.313	0.223	-0.122
-533.121	-13.067	-0.019	-0.013
-532.106	-200.000	-0.037	0.000
-531.091	-15.370	-0.073	0.047
-530.077	-170.284	0.049	0.002
-529.062	800.000	-0.072	-0.284
-528.048	-175.807	-0.137	-0.004
-527.033	-27.442	0.219	0.130
-526.018	82.659	-0.172	-0.190
-525.004	-200.000	-0.013	0.135
-523.989	-138.841	0.145	-0.016
-522.975	392.736	-0.120	-0.254
-521.960	437.355	-0.043	-0.096
-520.945	800.000	0.003	0.010
-519.931	-17.730	-0.141	0.090
-518.916	-200.000	-0.045	-0.215
-517.902	24.944	0.054	0.045
-516.887	-138.086	0.093	0.010
-515.872	-53.246	0.269	-0.125
-514.858	-200.000	0.010	0.254
-513.843	75.680	-0.119	-0.128
-512.829	-200.000	0.033	0.200
-511.814	-200.000	-0.004	-0.046
-510.799	-54.394	-0.182	0.084
-509.785	-18.419	0.301	0.191
-508.770	403.030	0.030	-0.063
-507.756	-96.438	-0.478	-0.128
-506.741	-4.998	0.106	0.074
-505.726	-133.475	0.214	0.027
-504.712	143.106	-0.231	-0.312
-503.697	-77.835	0.141	0.049
-502.683	-200.000	0.053	-0.324
-501.668	-200.000	0.002	-0.182
-500.653	-200.000	0.004	0.064
-499.639	432.476	0.073	0.161
-498.624	-67.225	-0.180	-0.072
-497.610	-172.035	-0.258	-0.008
-496.595	107.706	0.193	0.234
-495.581	800.000	0.069	-0.200
-494.566	-54.976	0.128	-0.059
-493.551	67.164	-0.013	-0.014
-492.537	357.150	0.062	-0.126
-491.522	772.297	-0.114	0.314
-490.508	53.139	0.205	-0.200
-489.493	52.708	0.248	0.240
-488.478	496.933	0.020	-0.046
-487.464	249.729	0.025	0.043
-486.449	70.455	0.210	0.220
-485.435	-174.326	-0.242	0.007
-484.420	-50.455	-0.175	0.084
-483.405	313.758	0.166	-0.317
-482.391	-200.000	0.029	-0.144
-481.376	20.874	-0.127	-0.104
-480.362	-200.000	0.021	0.294
-479.347	-13.325	-0.034	-0.023
-478.332	34.370	-0.174	-0.154
-477.318	-200.000	-0.008	0.143
-476.303	-123.125	-0.073	0.012
-475.289	768.282	-0.067	-0.186
-474.274	-200.000	0.011	0.208
-473.259	-64.866	-0.229	0.094
-472.245	321.293	-0.168	-0.325
-471.230	151.536	0.101	-0.140
-470.216	243.928	-0.172	0.294
-469.201	767.714	-0.070	-0.192
-468.186	-137.158	-0.184	-0.021
-467.172	-108.756	0.306	0.066
-466.157	-58.395	-0.242	-0.107
-465.143	-65.081	-0.302	0.123
-464.128	-145.119	-0.230	0.021
-463.113	661.620	-0.041	-0.106
-462.099	24.496	0.261	0.219
-461.084	45.428	-0.164	-0.153
-460.070	-200.000	0.025	0.375
-459.055	38.278	-0.072	-0.065
-458.040	-121.579	0.364	0.061
-457.026	800.000	-0.095	0.313
-456.011	-120.833	0.131	0.022
-454.997	-147.558	0.125	0.011
-453.982	-200.000	-0.066	-0.349
-452.968	-86.265	-0.132	-0.041
-451.953	18.538	-0.082	0.067
-450.938	-78.719	-0.477	-0.165
-449.924	113.706	-0.107	-0.132
-448.909	-87.741	-0.282	0.086
-447.895	28.915	0.034	0.029
-446.880	-200.000	0.046	0.231
-445.865	71.956	-0.271	-0.286
-444.851	-69.259	-0.089	0.035
-443.836	800.000	-0.115	-0.329
-442.822	116.309	0.111	-0.138
-441.807	275.858	0.202	0.363
-440.792	232.472	-0.065	0.108
-439.778	-15.886	0.158	0.102
-438.763	-137.464	-0.049	-0.006
-437.749	-114.022	-0.293	0.057
-436.734	722.278	0.134	0.362
-435.719	-24.052	-0.292	0.177
-434.705	-172.420	-0.064	0.002
-433.690	288.756	0.057	0.104
-432.676	-200.000	-0.004	-0.110
-431.661	-112.008	0.368	0.075
-430.646	-140.058	0.075	0.008
-429.632	-34.303	-0.166	-0.092
-428.617	-200.000	-0.032	0.292
-427.603	-172.986	0.127	0.004
-426.588	-50.043	0.282	-0.136
-425.573	-57.380	0.255	-0.113
-424.559	-72.927	0.192	-0.071
-423.544	-154.273	0.074	-0.005
-422.530	-47.160	0.142	0.070
-421.515	-18.598	-0.277	-0.175
-420.500	-200.000	-0.026	-0.204
-419.486	184.914	0.192	-0.288
-418.471	-117.285	0.123	-0.023
-417.457	72.272	0.032	0.034
-416.442	-200.000	0.014	-0.077
-415.428	-129.020	0.098	0.014
-414.413	800.000	0.064	0.214
-413.398	-56.391	0.121	-0.054
-412.384	541.448	-0.031	-0.075
-411.369	-32.568	-0.139	0.078
-410.355	156.489	0.077	-0.107
-409.340	477.929	0.077	0.175
-408.325	65.934	0.143	-0.147
-407.311	-200.000	0.044	0.442
-406.296	-29.123	-0.122	-0.071
-405.282	108.902	-0.159	-0.193
-404.267	66.341	0.161	-0.166
-403.252	6.490	-0.179	0.134
-402.238	-9.523	0.240	0.162
-401.223	-81.595	0.500	0.166
-400.209	127.339	-0.088	0.113
-399.194	-3.311	-0.078	0.055
-398.179	57.712	-0.030	0.030
-397.165	125.354	0.178	-0.227
-396.150	-32.094	-0.114	-0.065
-395.136	-34.837	-0.121	0.067
-394.121	-26.162	-0.380	-0.226
-393.106	-46.578	0.508	-0.252
-392.092	125.838	0.060	0.077
-391.077	-200.000	-0.005	-0.043
-390.063	256.921	-0.055	-0.096
-389.048	-200.000	-0.053	0.323
-388.033	47.091	0.148	0.139
-387.019	-108.678	0.072	0.016
-386.004	-123.540	0.214	-0.034
-384.990	698.524	0.075	0.200
-383.975	-99.076	-0.126	-0.032
-382.960	487.896	-0.082	0.189
-381.946	-56.186	0.453	-0.204
-380.931	195.380	-0.167	0.256
-379.917	180.411	-0.150	0.223
-378.902	-71.899	0.211	0.079
-377.888	429.455	0.009	-0.020
-376.873	-200.000	-0.005	-0.230
-375.858	342.821	-0.147	0.291
-374.844	-83.587	0.410	0.132
-373.829	-42.090	-0.075	-0.039
-372.815	800.000	-0.082	0.290
-371.800	-28.159	-0.138	0.081
-370.785	-136.877	0.218	-0.025
-369.771	152.457	0.195	0.269
-368.756	-73.952	0.026	-0.010
-367.742	33.527	-0.080	-0.070
-366.727	1.676	-0.164	-0.119
-365.712	19.454	0.077	-0.063
-364.698	75.205	-0.116	0.123
-363.683	-18.377	0.165	-0.104
-362.669	800.000	-0.001	-0.004
-361.654	-33.773	0.120	0.067
-360.639	-200.000	0.001	-0.150
-359.625	800.000	0.113	-0.352
-358.610	-153.444	-0.191	-0.013
-357.596	416.588	0.174	-0.376
-356.581	-114.408	0.101	-0.020
-355.566	190.118	0.231	-0.349
-354.552	73.871	0.064	-0.067
-353.537	800.000	-0.061	-0.200
-352.523	800.000	0.072	0.229
-351.508	-200.000	-0.020	0.388
-350.493	-107.481	0.521	-0.115
-349.479	100.667	0.359	-0.421
-348.464	163.290	-0.074	-0.106
-347.450	-134.516	-0.300	0.037
-346.435	250.228	-0.183	0.314
-345.420	101.043	0.112	0.132
-344.406	25.989	0.125	0.105
-343.391	800.000	-0.081	-0.350
-342.377	190.137	-0.164	-0.248
-341.362	791.358	0.062	0.173
-340.348	-27.265	0.158	-0.093
-339.333	56.008	-0.037	0.036
-338.318	800.000	0.063	0.195
-337.304	-139.832	-0.070	-0.007
-336.289	-200.000	-0.009	-0.082
-335.275	389.305	-0.091	0.191
-334.260	800.000	0.032	0.117
-333.245	-151.687	0.203	0.015
-332.231	170.203	0.168	0.243
-331.216	-100.432	0.158	0.039
-330.202	-200.000	-0.008	0.270
-329.187	4.678	-0.068	0.051
-328.172	-44.058	-0.217	0.110
-327.158	42.004	-0.227	-0.208
-326.143	134.265	-0.078	-0.102
-325.129	338.530	0.072	-0.141
-324.114	174.321	-0.131	-0.191
-323.099	800.000	-0.065	0.194
-322.085	542.088	-0.078	-0.186
-321.070	-200.000	0.003	0.109
-320.056	68.099	-0.246	-0.254
-319.041	-200.000	-0.015	0.127
-318.026	279.088	-0.085	-0.153
-317.012	32.137	0.084	0.073
-315.997	5.234	-0.259	0.192
-314.983	41.629	0.325	0.296
-313.968	-200.000	0.003	0.047
-312.953	-200.000	0.033	-0.177
-311.939	800.000	-0.056	-0.178
-310.924	4.238	0.067	0.050
-309.910	155.528	-0.155	0.215
-308.895	-29.599	-0.235	-0.135
-307.880	-90.619	0.238	0.069
-306.866	-200.000	0.028	-0.509
-305.851	-5.020	0.046	0.032
-304.837	105.863	0.158	-0.189
-303.822	-143.935	0.186	-0.018
-302.807	-1.893	0.159	-0.113
-301.793	800.000	-0.076	0.319
-300.778	800.000	-0.172	0.504
-299.764	-200.000	0.516	-0.001
-298.749	22.768	0.280	0.231
-297.735	-200.000	0.062	-0.292
-296.720	160.174	-0.100	-0.141
-295.705	-200.000	0.018	0.233
-294.691	800.000	-0.051	0.196
-293.676	-174.730	0.137	-0.004
-292.662	-200.000	0.081	-0.399
-291.647	800.000	0.059	0.189
-290.632	-177.907	0.259	-0.006
-289.618	-200.000	0.017	-0.093
-288.603	34.222	0.301	0.264
-287.589	800.000	0.052	0.163
-286.574	-200.000	-0.022	0.167
-285.559	2.326	-0.158	0.115
-284.545	23.759	-0.203	-0.169
-283.530	-89.271	0.119	0.035
-282.516	37.092	0.121	0.108
-281.501	800.000	0.075	-0.246
-280.486	19.965	0.189	-0.153
-279.472	269.399	0.099	-0.176
-278.457	536.776	-0.173	-0.414
-277.443	92.931	0.219	0.249
-276.428	4.041	0.318	0.234
-275.413	800.000	-0.096	-0.275
-274.399	-200.000	0.034	0.264
-273.384	209.549	0.177	0.279
-272.370	42.799	0.103	-0.095
-271.355	-200.000	-0.017	0.107
-270.340	221.311	-0.078	-0.126
-269.326	-126.810	0.495	0.073
-268.311	67.510	0.185	-0.190
-267.297	426.953	-0.077	0.168
-266.282	-39.824	-0.204	0.107
-265.267	-76.276	0.137	-0.049
-264.253	-159.657	0.160	-0.009
-263.238	280.485	0.139	0.250
-262.224	28.311	-0.314	-0.267
-261.209	-91.374	-0.048	0.014
-260.195	419.919	0.054	-0.117
-259.180	276.038	0.091	-0.163
-258.165	-97.936	0.347	-0.090
-257.151	170.136	-0.185	0.266
-256.136	800.000	0.052	-0.167
-255.122	147.681	-0.154	-0.209
-254.107	145.485	-0.124	-0.167
-253.092	-58.343	-0.344	0.150
-252.078	-142.308	-0.188	0.019
-251.063	-83.484	0.106	-0.034
-250.049	151.882	0.042	-0.057
-249.034	575.383	0.029	-0.071
-248.019	-200.000	-0.014	0.149
-247.005	-85.916	0.243	0.076
-245.990	-69.052	0.243	0.094
-244.976	-138.334	0.353	-0.039
-243.961	103.982	-0.168	0.198
-242.946	494.754	0.030	0.068
-241.932	517.899	0.042	0.098
-240.917	53.465	-0.283	-0.273
-239.903	800.000	0.079	-0.269
-238.888	-200.000	-0.003	-0.387
-237.873	-200.000	-0.018	-0.126
-236.859	800.000	0.050	-0.155
-235.844	-4.910	0.152	-0.105
-234.830	-149.131	0.070	-0.006
-233.815	315.113	-0.117	0.221
-232.800	-38.787	-0.061	-0.032
-231.786	284.699	0.289	0.522
-230.771	-78.968	-0.128	0.044
-229.757	324.241	0.115	0.220
-228.742	-18.937	0.103	0.065
-227.727	-40.385	-0.286	0.149
-226.713	800.000	-0.058	0.190
-225.698	-200.000	-0.011	-0.296
-224.684	39.397	0.093	-0.084
-223.669	-115.950	-0.135	-0.025
-222.655	149.672	0.228	-0.311
-221.640	800.000	0.080	-0.277
-220.625	-200.000	-0.052	0.335
-219.611	9.723	-0.142	-0.108
-218.596	590.314	-0.108	0.268
-217.582	66.950	-0.179	0.183
-216.567	292.866	-0.001	-0.003
-215.552	-117.197	-0.252	-0.046
-214.538	45.385	0.135	-0.125
-213.523	-3.800	0.233	0.162
-212.509	467.570	-0.050	0.112
-211.494	800.000	0.069	0.280
-210.479	800.000	-0.057	-0.236
-209.465	-97.447	0.148	0.039
-208.450	-118.727	-0.273	0.048
-207.436	108.972	0.066	-0.079
-206.421	102.273	0.115	-0.135
-205.406	418.662	-0.016	-0.035
-204.392	-200.000	0.021	-0.289
-203.377	631.561	0.056	0.141
-202.363	666.943	-0.090	-0.234
-201.348	102.660	-0.098	-0.115
-200.333	-108.782	0.329	0.071
-199.319	-2.160	0.424	-0.299
-198.304	224.706	0.076	-0.124
-197.290	233.769	-0.166	0.274
-196.275	116.060	-0.040	-0.049
-195.260	800.000	-0.068	0.263
-194.246	3.305	-0.115	-0.084
-193.231	101.041	0.022	0.026
-192.217	-141.077	0.275	0.028
-191.202	57.724	-0.102	-0.100
-190.187	-200.000	-0.006	0.160
-189.173	800.000	-0.074	0.209
-188.158	-88.453	-0.124	-0.037
-187.144	52.115	-0.095	0.091
-186.129	6.197	0.141	0.105
-185.114	-105.734	-0.108	-0.024
-184.100	-179.549	-0.394	-0.009
-183.085	-173.920	-0.321	-0.010
-182.071	800.000	-0.058	0.244
-181.056	-200.000	-0.007	0.372
-180.042	-200.000	0.006	-0.160
-179.027	42.450	0.344	-0.313
-178.012	60.824	-0.072	-0.072
-176.998	800.000	0.009	0.034
-175.983	161.433	-0.122	-0.171
-174.969	83.550	0.086	-0.094
-173.954	214.205	0.102	0.161
-172.939	800.000	-0.080	0.315
-171.925	-81.246	-0.314	-0.104
-170.910	7.445	0.186	-0.139
-169.896	-115.939	-0.200	0.037
-168.881	-65.423	0.245	0.099
-167.866	-7.906	0.082	0.056
-166.852	84.060	-0.426	0.467
-165.837	-200.000	-0.013	-0.282
-164.823	-57.792	-0.308	0.135
-163.808	-16.744	-0.254	0.161
-162.793	70.641	-0.236	0.245
-161.779	-69.624	-0.121	-0.046
-160.764	-200.000	0.031	-0.203
-159.750	13.067	-0.054	-0.042
-158.735	-107.127	-0.258	0.057
-157.720	-17.079	0.106	0.067
-156.706	-170.665	0.111	0.004
-155.691	89.740	0.203	-0.227
-154.677	168.113	-0.128	-0.182
-153.662	-7.601	-0.276	0.187
-152.647	-200.000	0.030	0.282
-151.633	131.442	-0.155	-0.200
-150.618	-2.721	-0.218	0.152
-149.604	235.222	-0.160	-0.265
-148.589	-135.886	-0.224	0.027
-147.574	103.841	-0.034	-0.040
-146.560	108.944	0.071	-0.085
-145.545	-41.062	0.075	0.039
-144.531	-60.019	-0.076	-0.032
-143.516	-33.442	0.090	0.050
-142.502	-66.775	-0.079	0.031
-141.487	-129.510	0.076	-0.011
-140.472	85.925	-0.098	-0.108
-139.458	-28.372	-0.087	0.050
-138.443	-121.913	0.320	0.053
-137.429	-121.583	0.027	0.004
-136.414	246.144	-0.054	0.091
-135.399	-200.000	-0.061	0.331
-134.385	23.459	0.119	0.098
-133.370	-101.691	-0.175	0.042
-132.356	-200.000	0.052	0.287
-131.341	-200.000	-0.015	-0.182
-130.326	800.000	-0.020	0.083
-129.312	-171.694	0.377	0.012
-128.297	-58.469	0.160	0.070
-127.283	-76.519	0.055	0.019
-126.268	-25.942	-0.213	0.125
-125.253	-107.399	-0.189	0.042
-124.239	301.543	-0.182	-0.336
-123.224	171.568	0.018	0.026
-122.210	-200.000	0.240	0.001
-121.195	-200.000	0.006	0.110
