DTS Sentinel unit serial number:	SN413079Multiplexer serial number:	ORYXHardware model number:	OX4-SRSoftware version number:	ORYX F/W v4.00 Oryx Data Collector v3.7.2.0data status	okinstallation	princeton_trtdifferential loss correction	single-endedforward channel	channel 2reverse channel	N/Adate	2019/09/16time	12:51:34forward acquisition time	60.00reverse acquisition time	0.00gamma	496.2192k internal	0.2301k external	0.2301temperature offset calibration	0.9945default loss term (dB/km)	0.3790temperature slope calibration	1.0000multiplexer offset coefficient	1.0000multiplexer slope coefficient	1.0000fibre end	0.00T internal ref (°C)	40.33T ext. ref 1 (°C)	13.51T ext. ref 2 (°C)	37.06length (m)	temperature (°C)	Stokes	anti-Stokes-747.200	511.411	-0.110	-0.261
-746.185	-102.205	0.332	0.081
-745.171	-155.564	-0.416	0.027
-744.156	474.102	-0.081	0.185
-743.142	111.721	0.202	0.248
-742.127	-200.000	0.095	0.511
-741.112	800.000	0.137	-0.431
-740.098	-200.000	0.015	0.405
-739.083	19.993	-0.239	0.196
-738.069	-3.074	-0.045	0.032
-737.054	-126.881	-0.149	0.022
-736.039	73.247	-0.098	0.104
-735.025	320.803	-0.165	0.320
-734.010	-33.842	-0.639	-0.359
-732.996	800.000	-0.038	-0.158
-731.981	-19.718	-0.194	-0.122
-730.966	-161.770	-0.307	0.016
-729.952	149.095	-0.144	0.199
-728.937	95.511	-0.156	-0.181
-727.923	-168.270	-0.166	0.007
-726.908	-77.045	-0.354	-0.126
-725.894	-161.535	-0.159	0.008
-724.879	183.856	-0.141	-0.212
-723.864	-200.000	0.054	-0.511
-722.850	800.000	-0.092	-0.296
-721.835	543.749	0.135	0.327
-720.821	-73.776	-0.231	-0.085
-719.806	-16.312	-0.183	0.118
-718.791	-200.000	-0.019	0.097
-717.777	-72.182	0.331	0.125
-716.762	-200.000	0.019	-0.350
-715.748	-200.000	-0.048	-0.416
-714.733	461.468	0.086	-0.195
-713.718	-13.173	-0.073	-0.049
-712.704	390.132	0.061	-0.129
-711.689	-200.000	-0.082	0.474
-710.675	-24.331	-0.108	-0.065
-709.660	-98.945	-0.101	-0.026
-708.645	158.568	0.184	-0.260
-707.631	139.825	-0.177	0.237
-706.616	123.823	-0.071	0.091
-705.602	-6.113	0.109	0.076
-704.587	-102.946	-0.116	-0.028
-703.572	-200.000	-0.063	-0.416
-702.558	800.000	-0.042	-0.126
-701.543	273.737	0.205	0.368
-700.529	197.906	0.219	0.341
-699.514	800.000	0.057	-0.167
-698.499	55.151	0.051	-0.051
-697.485	-62.148	-0.138	-0.059
-696.470	110.125	0.138	-0.169
-695.456	577.046	0.112	-0.279
-694.441	800.000	-0.132	-0.375
-693.426	-200.000	-0.014	-0.130
-692.412	800.000	0.054	0.174
-691.397	800.000	0.012	-0.049
-690.383	299.826	0.238	-0.446
-689.368	175.563	-0.094	0.139
-688.354	366.665	0.091	-0.187
-687.339	-119.306	-0.049	0.009
-686.324	202.680	0.163	0.257
-685.310	-200.000	-0.001	-0.131
-684.295	-68.894	0.174	0.068
-683.281	497.282	-0.040	0.093
-682.266	800.000	0.108	-0.313
-681.251	395.190	-0.071	-0.150
-680.237	-200.000	-0.010	-0.324
-679.222	64.504	-0.152	0.156
-678.208	-200.000	0.002	-0.065
-677.193	313.826	0.066	-0.126
-676.178	800.000	0.057	0.182
-675.164	10.031	0.051	-0.039
-674.149	137.754	-0.093	0.124
-673.135	65.172	-0.260	-0.267
-672.120	222.291	-0.070	0.114
-671.105	-177.787	0.104	0.003
-670.091	37.723	0.184	-0.166
-669.076	27.639	0.229	-0.196
-668.062	73.373	-0.109	-0.116
-667.047	-10.819	0.306	-0.206
-666.032	-200.000	0.027	-0.131
-665.018	-88.993	-0.231	0.069
-664.003	800.000	-0.059	0.217
-662.989	527.680	0.030	-0.073
-661.974	800.000	0.147	-0.436
-660.959	800.000	-0.008	0.029
-659.945	-33.821	0.205	-0.115
-658.930	-85.463	0.215	-0.068
-657.916	-133.422	0.182	-0.023
-656.901	118.307	0.098	-0.123
-655.886	344.988	-0.130	-0.258
-654.872	445.497	0.096	0.215
-653.857	-134.446	-0.085	-0.011
-652.843	-200.000	0.033	-0.170
-651.828	-145.432	-0.129	-0.012
-650.814	-112.367	0.120	-0.024
-649.799	175.142	-0.139	0.205
-648.784	70.277	0.135	-0.141
-647.770	-55.537	-0.205	-0.093
-646.755	-200.000	0.017	-0.185
-645.741	-31.911	0.223	0.127
-644.726	-55.494	0.078	0.035
-643.711	800.000	0.019	0.075
-642.697	-200.000	-0.035	-0.441
-641.682	90.241	0.134	-0.152
-640.668	-200.000	0.025	-0.171
-639.653	145.897	0.152	0.207
-638.638	800.000	-0.099	-0.300
-637.624	-200.000	-0.009	-0.076
-636.609	-200.000	-0.037	0.376
-635.595	-200.000	0.008	-0.046
-634.580	-102.328	0.389	0.095
-633.565	-200.000	0.017	-0.149
-632.551	6.973	-0.176	-0.133
-631.536	-38.961	0.223	0.119
-630.522	88.025	0.118	-0.132
-629.507	800.000	0.091	-0.398
-628.492	800.000	-0.037	0.119
-627.478	409.354	-0.139	0.299
-626.463	37.134	0.202	0.181
-625.449	-200.000	-0.021	0.296
-624.434	336.710	0.104	-0.205
-623.419	-76.055	-0.254	0.091
-622.405	69.681	-0.115	0.121
-621.390	116.838	0.048	0.060
-620.376	-98.209	0.447	0.117
-619.361	42.911	-0.018	-0.017
-618.346	-66.773	-0.126	0.051
-617.332	-77.975	-0.086	0.030
-616.317	284.192	0.175	-0.320
-615.303	-111.200	-0.162	0.034
-614.288	99.822	-0.117	0.138
-613.273	-200.000	-0.008	-0.047
-612.259	125.498	0.129	0.165
-611.244	800.000	-0.060	-0.247
-610.230	-35.355	0.238	0.131
-609.215	317.054	0.037	-0.072
-608.201	389.867	-0.098	0.207
-607.186	139.096	0.152	-0.203
-606.171	-29.028	-0.224	0.130
-605.157	-72.747	-0.168	0.063
-604.142	3.814	-0.130	-0.096
-603.128	-200.000	-0.045	-0.265
-602.113	-71.901	-0.347	0.131
-601.098	-53.806	0.012	-0.006
-600.084	-200.000	0.042	0.198
-599.069	-99.239	-0.255	-0.065
-598.055	-34.709	-0.157	0.087
-597.040	-41.997	-0.357	-0.185
-596.025	-74.940	0.178	0.065
-595.011	-200.000	0.009	0.224
-593.996	-116.896	-0.292	0.054
-592.982	800.000	0.051	-0.151
-591.967	60.008	0.073	-0.073
-590.952	-27.891	-0.225	0.132
-589.938	-88.106	0.289	0.088
-588.923	-9.528	-0.241	0.163
-587.909	205.625	0.105	0.166
-586.894	136.788	0.206	-0.272
-585.879	75.803	0.236	-0.252
-584.865	-5.910	0.077	-0.053
-583.850	411.952	-0.057	-0.123
-582.836	-45.091	0.184	0.093
-581.821	30.313	-0.206	0.178
-580.806	52.500	-0.172	0.166
-579.792	-200.000	0.017	0.290
-578.777	86.293	-0.075	0.084
-577.763	578.169	0.086	0.214
-576.748	-53.118	-0.098	0.046
-575.733	-95.152	0.199	0.054
-574.719	39.209	-0.104	-0.095
-573.704	-77.587	-0.230	0.081
-572.690	-98.664	0.254	0.066
-571.675	-83.042	-0.283	-0.092
-570.661	-41.878	-0.285	0.148
-569.646	138.619	0.161	0.214
-568.631	800.000	0.044	-0.143
-567.617	-200.000	0.038	-0.325
-566.602	-200.000	0.002	0.087
-565.588	-56.948	0.341	-0.152
-564.573	-74.217	-0.211	-0.077
-563.558	-1.517	0.187	0.133
-562.544	-83.050	-0.439	-0.143
-561.529	-28.806	0.280	0.163
-560.515	-3.216	-0.100	0.071
-559.500	261.325	0.113	0.199
-558.485	-200.000	0.271	0.000
-557.471	35.523	0.135	0.120
-556.456	66.152	-0.255	0.262
-555.442	-116.890	0.090	0.017
-554.427	-200.000	-0.035	-0.355
-553.412	-63.572	0.139	0.058
-552.398	-80.772	-0.321	-0.108
-551.383	38.345	0.375	-0.338
-550.369	-52.472	0.023	-0.011
-549.354	-30.347	-0.172	0.099
-548.339	-200.000	0.031	0.190
-547.325	-200.000	0.045	-0.263
-546.310	138.609	0.099	-0.132
-545.296	800.000	0.041	-0.147
-544.281	-59.243	0.259	-0.113
-543.266	-43.692	-0.171	0.087
-542.252	102.872	-0.049	-0.058
-541.237	545.536	0.090	-0.218
-540.223	158.391	-0.084	0.119
-539.208	-100.332	0.345	-0.087
-538.193	84.791	-0.270	-0.299
-537.179	275.960	0.102	0.183
-536.164	129.693	-0.139	0.180
-535.150	-112.955	0.107	-0.021
-534.135	-73.292	0.204	0.075
-533.121	-91.817	-0.372	0.107
-532.106	-24.601	-0.256	-0.154
-531.091	-200.000	0.013	-0.167
-530.077	-200.000	0.004	-0.369
-529.062	-113.574	-0.152	0.030
-528.048	-200.000	0.057	-0.335
-527.033	-29.828	0.033	0.019
-526.018	-43.644	0.188	0.096
-525.004	-43.671	-0.090	0.046
-523.989	-128.225	-0.105	0.015
-522.975	73.440	-0.149	-0.158
-521.960	-122.429	0.224	0.037
-520.945	-200.000	0.004	0.205
-519.931	41.914	-0.093	0.085
-518.916	-167.876	-0.437	0.017
-517.902	-101.890	-0.244	0.060
-516.887	-114.156	0.181	-0.035
-515.872	-200.000	0.046	0.298
-514.858	-72.942	-0.388	0.144
-513.843	29.132	-0.140	-0.120
-512.829	373.537	0.098	0.202
-511.814	-3.659	0.174	0.122
-510.799	125.488	0.177	0.226
-509.785	343.685	-0.255	-0.505
-508.770	-126.847	-0.119	0.018
-507.756	-12.519	0.322	-0.212
-506.741	-152.096	0.174	-0.013
-505.726	182.800	-0.277	0.413
-504.712	800.000	-0.049	-0.190
-503.697	351.867	-0.118	-0.236
-502.683	800.000	0.060	0.179
-501.668	-8.360	0.212	0.144
-500.653	-126.171	0.086	-0.013
-499.639	-200.000	0.020	-0.178
-498.624	800.000	-0.055	0.178
-497.610	800.000	0.042	0.147
-496.595	-145.421	0.286	0.026
-495.581	284.478	0.045	0.081
-494.566	-118.952	0.098	0.017
-493.551	108.268	0.169	-0.204
-492.537	-200.000	0.031	0.201
-491.522	-200.000	-0.000	-0.045
-490.508	-200.000	-0.247	-0.001
-489.493	6.103	-0.164	-0.123
-488.478	130.984	0.142	-0.184
-487.464	84.325	-0.104	-0.115
-486.449	800.000	0.061	0.176
-485.435	-200.000	0.044	0.242
-484.420	-18.517	-0.064	-0.040
-483.405	570.469	-0.036	0.088
-482.391	-200.000	0.008	-0.129
-481.376	-45.097	0.308	0.154
-480.362	58.390	0.034	-0.034
-479.347	530.566	0.105	-0.249
-478.332	800.000	-0.017	-0.052
-477.318	-89.839	0.231	0.068
-476.303	77.815	-0.026	0.028
-475.289	800.000	0.056	-0.243
-474.274	-34.750	-0.237	0.131
-473.259	14.705	0.085	-0.067
-472.245	-200.000	0.024	-0.220
-471.230	-53.531	-0.150	0.069
-470.216	-82.554	-0.165	-0.054
-469.201	-200.000	0.023	-0.129
-468.186	-200.000	-0.033	0.312
-467.172	-49.825	0.324	-0.155
-466.157	660.247	0.036	0.093
-465.143	-89.710	-0.123	0.036
-464.128	-200.000	-0.053	-0.356
-463.113	20.253	0.188	0.153
-462.099	86.068	0.078	0.087
-461.084	49.194	-0.244	0.231
-460.070	-200.000	-0.026	0.293
-459.055	225.152	-0.052	-0.085
-458.040	584.634	-0.056	-0.140
-457.026	-10.359	0.205	-0.137
-456.011	310.768	0.214	-0.404
-454.997	179.060	0.112	0.165
-453.982	-200.000	-0.005	-0.111
-452.968	-110.864	0.125	-0.026
-451.953	-21.479	0.114	0.070
-450.938	800.000	0.076	-0.304
-449.924	-13.585	0.159	-0.104
-448.909	77.891	0.172	0.185
-447.895	48.698	0.121	0.115
-446.880	-87.110	0.144	0.044
-445.865	137.005	-0.238	-0.313
-444.851	-38.025	0.111	0.060
-443.836	413.394	0.031	-0.067
-442.822	-48.911	-0.114	-0.055
-441.807	-171.638	-0.116	0.004
-440.792	-200.000	0.020	-0.304
-439.778	226.010	0.108	-0.176
-438.763	-50.235	0.221	-0.105
-437.749	-200.000	-0.041	-0.289
-436.734	-25.350	-0.064	0.038
-435.719	0.717	-0.148	-0.107
-434.705	-88.402	0.406	-0.122
-433.690	-109.743	0.199	-0.042
-432.676	-97.296	-0.230	-0.060
-431.661	-200.000	0.002	-0.122
-430.646	44.441	0.085	0.078
-429.632	-200.000	0.012	0.171
-428.617	221.994	-0.021	-0.033
-427.603	-200.000	0.006	0.130
-426.588	-200.000	0.029	-0.315
-425.573	-103.328	-0.178	0.042
-424.559	-182.247	0.177	0.003
-423.544	-200.000	0.006	-0.114
-422.530	-200.000	0.034	-0.167
-421.515	-130.896	-0.236	-0.032
-420.500	697.026	-0.057	-0.152
-419.486	-104.716	-0.344	0.080
-418.471	-125.214	0.115	-0.018
-417.457	800.000	0.043	-0.148
-416.442	-200.000	0.023	-0.122
-415.428	34.522	0.072	-0.063
-414.413	-91.052	-0.275	-0.080
-413.398	14.379	-0.184	-0.144
-412.384	-32.212	0.173	0.097
-411.369	438.861	-0.047	0.104
-410.355	-3.749	-0.398	0.278
-409.340	253.092	-0.140	-0.240
-408.325	800.000	0.071	-0.245
-407.311	-200.000	0.078	-0.480
-406.296	-170.796	0.070	0.002
-405.282	-200.000	0.009	0.209
-404.267	178.502	0.171	0.251
-403.252	-200.000	-0.052	-0.278
-402.238	-200.000	-0.056	0.342
-401.223	-70.386	0.158	0.060
-400.209	-158.342	0.336	-0.020
-399.194	-200.000	0.011	0.155
-398.179	176.483	0.094	-0.137
-397.165	-200.000	0.027	0.428
-396.150	255.959	-0.055	0.095
-395.136	190.470	-0.096	0.146
-394.121	-87.710	0.152	-0.046
-393.106	470.633	-0.062	0.140
-392.092	-69.314	0.252	0.097
-391.077	30.215	-0.121	-0.104
-390.063	-38.362	-0.217	0.115
-389.048	-101.431	0.063	-0.015
-388.033	-131.738	0.435	0.057
-387.019	-200.000	0.010	-0.223
-386.004	10.967	-0.159	0.122
-384.990	37.661	0.105	-0.094
-383.975	-200.000	-0.005	0.051
-382.960	-200.000	-0.011	-0.129
-381.946	-200.000	-0.004	0.111
-380.931	-94.526	-0.240	0.066
-379.917	-200.000	-0.003	0.100
-378.902	47.033	0.182	0.170
-377.888	-122.321	-0.020	-0.003
-376.873	-200.000	0.061	-0.336
-375.858	1.267	0.347	-0.251
-374.844	800.000	0.163	0.457
-373.829	-200.000	-0.011	0.069
-372.815	-200.000	0.016	0.281
-371.800	17.819	0.229	0.183
-370.785	268.647	-0.174	-0.306
-369.771	289.916	-0.129	-0.235
-368.756	22.775	-0.073	0.060
-367.742	-135.977	-0.179	-0.021
-366.727	109.005	0.273	-0.328
-365.712	640.321	0.103	-0.264
-364.698	-200.000	0.017	0.260
-363.683	92.200	0.163	-0.184
-362.669	-159.222	-0.384	0.022
-361.654	15.207	0.075	-0.059
-360.639	53.819	0.035	-0.034
-359.625	35.285	0.047	0.041
-358.610	-200.000	0.001	-0.112
-357.596	101.541	0.051	0.059
-356.581	-115.349	-0.165	0.031
-355.566	800.000	0.062	0.203
-354.552	23.054	-0.057	-0.047
-353.537	-15.983	-0.139	-0.089
-352.523	-200.000	-0.037	0.217
-351.508	800.000	-0.113	0.323
-350.493	285.184	0.161	-0.291
-349.479	31.390	-0.190	0.164
-348.464	-119.215	-0.348	-0.061
-347.450	-200.000	-0.006	0.125
-346.435	-139.567	0.172	0.018
-345.420	155.950	-0.113	0.156
-344.406	-55.585	0.288	-0.129
-343.391	800.000	-0.060	0.166
-342.377	-200.000	-0.005	0.148
-341.362	-66.960	-0.263	0.104
-340.348	-200.000	0.035	-0.318
-339.333	392.940	-0.113	-0.235
-338.318	-64.222	-0.080	-0.033
-337.304	-64.606	-0.266	0.108
-336.289	113.091	0.288	-0.351
-335.275	104.641	0.184	-0.217
-334.260	-169.798	-0.333	0.012
-333.245	-83.967	-0.458	0.146
-332.231	158.564	0.132	-0.184
-331.216	-200.000	-0.032	-0.170
-330.202	122.187	-0.114	-0.143
-329.187	261.641	-0.139	-0.241
-328.172	483.211	0.058	0.133
-327.158	-54.795	-0.149	-0.067
-326.143	800.000	0.117	0.422
-325.129	182.513	0.214	0.316
-324.114	33.453	-0.163	0.142
-323.099	1.859	-0.326	0.236
-322.085	63.666	0.147	0.148
-321.070	191.385	0.041	-0.061
-320.056	347.926	-0.157	-0.311
-319.041	25.598	-0.139	-0.116
-318.026	-75.641	-0.325	-0.116
-317.012	-200.000	0.048	-0.345
-315.997	-26.614	0.286	-0.168
-314.983	-145.848	-0.222	-0.020
-313.968	718.052	0.068	0.181
-312.953	-92.139	0.183	0.052
-311.939	-200.000	0.035	-0.164
-310.924	-200.000	-0.004	-0.064
-309.910	-95.647	-0.042	0.011
-308.895	800.000	0.089	0.286
-307.880	800.000	0.121	-0.375
-306.866	-76.858	-0.125	0.044
-305.851	800.000	-0.089	0.340
-304.837	-163.165	0.088	-0.004
-303.822	304.652	-0.200	-0.371
-302.807	-200.000	0.034	0.318
-301.793	271.467	-0.305	-0.537
-300.778	-145.737	0.085	0.008
-299.764	39.147	0.239	0.214
-298.749	-200.000	-0.029	0.180
-297.735	-109.253	-0.108	-0.023
-296.720	92.557	-0.217	0.246
-295.705	-58.368	-0.173	0.075
-294.691	-155.127	-0.049	-0.003
-293.676	-92.084	-0.023	0.007
-292.662	206.078	-0.019	0.029
-291.647	-7.905	-0.178	0.120
-290.632	-200.000	0.016	0.132
-289.618	-23.800	0.176	-0.106
-288.603	-200.000	-0.007	0.059
-287.589	800.000	0.084	0.248
-286.574	368.998	0.194	0.393
-285.559	800.000	0.026	-0.089
-284.545	176.206	0.071	0.104
-283.530	800.000	0.052	0.194
-282.516	-200.000	-0.025	0.135
-281.501	-186.773	0.181	0.003
-280.486	9.584	-0.171	0.130
-279.472	-126.612	-0.061	0.009
-278.457	35.741	-0.098	0.086
-277.443	-165.013	0.435	-0.019
-276.428	-200.000	-0.014	-0.212
-275.413	204.845	0.210	0.327
-274.399	-200.000	0.060	-0.295
-273.384	93.741	-0.040	0.046
-272.370	800.000	0.094	-0.363
-271.355	-73.719	0.209	-0.076
-270.340	-200.000	0.030	-0.139
-269.326	-105.985	0.202	-0.046
-268.311	-170.189	0.115	0.004
-267.297	33.232	0.239	0.208
-266.282	800.000	0.071	0.262
-265.267	-103.698	0.207	-0.048
-264.253	-146.407	-0.174	0.015
-263.238	3.349	0.169	0.123
-262.224	-200.000	-0.056	0.314
-261.209	7.172	-0.369	-0.275
-260.195	800.000	0.050	-0.147
-259.180	-111.185	0.227	-0.047
-258.165	-200.000	0.068	-0.345
-257.151	-155.717	-0.046	-0.003
-256.136	-88.545	0.091	0.027
-255.122	50.683	-0.157	0.149
-254.107	157.708	-0.222	0.308
-253.092	96.242	-0.071	0.081
-252.078	-70.579	-0.039	-0.015
-251.063	-200.000	-0.015	0.251
-250.049	80.362	-0.263	0.284
-249.034	-134.457	0.171	-0.021
-248.019	105.918	0.170	-0.201
-247.005	124.282	0.124	0.156
-245.990	-89.842	-0.290	0.085
-244.976	-3.967	-0.502	-0.348
-243.961	-139.322	0.165	0.018
-242.946	-68.662	-0.192	-0.074
-241.932	-79.293	0.125	-0.042
-240.917	-200.000	-0.013	0.294
-239.903	-12.420	0.355	-0.232
-238.888	-61.558	-0.077	0.032
-237.873	484.527	-0.196	0.447
-236.859	-128.940	-0.274	-0.038
-235.844	-19.897	0.299	-0.185
-234.830	-200.000	-0.013	0.141
-233.815	660.302	-0.094	-0.243
-232.800	-134.565	-0.333	-0.041
-231.786	-121.614	-0.031	0.005
-230.771	686.405	-0.074	-0.194
-229.757	151.485	0.134	0.182
-228.742	800.000	-0.134	0.466
-227.727	-200.000	-0.002	-0.447
-226.713	129.037	0.126	-0.160
-225.698	168.961	-0.167	-0.238
-224.684	183.573	-0.111	0.164
-223.669	800.000	-0.033	-0.123
-222.655	23.512	0.177	0.146
-221.640	-92.020	-0.355	0.100
-220.625	-56.132	0.048	0.022
-219.611	405.879	0.068	0.142
-218.596	37.068	-0.131	-0.116
-217.582	454.175	-0.102	-0.227
-216.567	610.069	0.170	0.425
-215.552	-88.341	0.154	-0.046
-214.538	-76.669	-0.473	-0.165
-213.523	-125.384	0.298	-0.045
-212.509	103.917	-0.013	-0.015
-211.494	178.711	0.113	-0.165
-210.479	-58.468	-0.155	0.067
-209.465	-28.903	0.336	0.193
-208.450	800.000	0.023	-0.084
-207.436	800.000	0.083	0.252
-206.421	-200.000	0.047	0.372
-205.406	-102.480	0.252	0.060
-204.392	414.441	-0.135	0.286
-203.377	-6.301	-0.212	0.144
-202.363	-113.879	-0.104	-0.020
-201.348	764.807	0.084	0.229
-200.333	800.000	-0.071	-0.264
-199.319	-200.000	-0.027	0.151
-198.304	128.314	-0.148	0.188
-197.290	-1.356	0.085	0.060
-196.275	153.975	0.134	-0.184
-195.260	-36.309	0.096	-0.051
-194.246	800.000	0.108	-0.321
-193.231	-200.000	0.080	-0.679
-192.217	240.292	-0.069	0.114
-191.202	-71.602	-0.177	-0.066
-190.187	-74.711	-0.119	0.043
-189.173	353.439	0.176	-0.348
-188.158	145.391	0.049	0.065
-187.144	-79.977	0.155	0.052
-186.129	75.109	-0.076	-0.080
-185.114	-172.710	-0.476	0.015
-184.100	148.535	-0.089	-0.120
-183.085	168.026	0.092	-0.131
-182.071	-164.141	-0.305	-0.014
-181.056	6.977	0.144	-0.107
-180.042	-200.000	-0.017	-0.117
-179.027	-164.333	0.216	-0.010
-178.012	-24.790	-0.136	-0.080
-176.998	125.247	0.149	0.188
-175.983	166.310	-0.122	0.172
-174.969	715.840	0.107	0.283
-173.954	800.000	-0.108	0.306
-172.939	-200.000	-0.068	0.348
-171.925	-124.599	0.395	-0.061
-170.910	55.488	-0.212	0.205
-169.896	-159.353	0.317	0.018
-168.881	-80.928	-0.178	0.059
-167.866	14.825	-0.180	-0.140
-166.852	331.272	-0.170	0.326
-165.837	340.177	0.111	-0.216
-164.823	-200.000	0.030	-0.279
-163.808	-200.000	-0.050	-0.445
-162.793	-200.000	-0.017	0.197
-161.779	-200.000	0.008	-0.084
-160.764	31.407	-0.151	0.129
-159.750	800.000	-0.049	0.204
-158.735	-200.000	0.020	-0.101
-157.720	50.033	0.293	0.275
-156.706	-72.056	-0.202	-0.075
-155.691	99.224	-0.148	0.171
-154.677	266.674	0.147	0.256
-153.662	219.050	0.039	0.063
-152.647	78.914	0.250	-0.266
-151.633	-81.267	0.124	-0.041
-150.618	-200.000	-0.172	0.000
-149.604	-81.570	-0.280	-0.092
-148.589	-45.235	0.293	-0.145
-147.574	-110.848	-0.236	0.048
-146.560	-37.142	0.172	0.092
-145.545	-104.591	-0.379	-0.087
-144.531	-126.559	-0.024	-0.003
-143.516	-200.000	-0.001	0.278
-142.502	477.362	0.061	-0.136
-141.487	-144.027	-0.227	0.021
-140.472	-46.385	-0.087	0.043
-139.458	291.477	-0.042	0.076
-138.443	-170.597	0.311	0.011
-137.429	-66.311	0.445	-0.176
-136.414	66.868	0.143	0.145
-135.399	-109.164	-0.263	-0.056
-134.385	5.688	0.399	0.294
-133.370	-121.874	0.132	-0.022
-132.356	299.056	-0.205	-0.375
-131.341	238.798	-0.161	0.266
-130.326	-199.155	0.233	0.001
-129.312	-20.279	-0.150	0.092
-128.297	550.278	0.062	-0.147
-127.283	-16.518	0.100	0.063
-126.268	198.491	-0.033	-0.051
-125.253	18.117	0.086	-0.068
-124.239	595.689	-0.060	-0.148
-123.224	43.486	-0.219	0.199
-122.210	708.142	-0.133	0.350
-121.195	800.000	0.051	-0.146
