DTS Sentinel unit serial number:	SN413079Multiplexer serial number:	ORYXHardware model number:	OX4-SRSoftware version number:	ORYX F/W v4.00 Oryx Data Collector v3.7.2.0data status	okinstallation	princeton_trtdifferential loss correction	single-endedforward channel	channel 2reverse channel	N/Adate	2019/09/13time	17:39:35forward acquisition time	60.00reverse acquisition time	0.00gamma	496.2192k internal	0.2316k external	0.2316temperature offset calibration	1.0221default loss term (dB/km)	0.3790temperature slope calibration	1.0000multiplexer offset coefficient	1.0000multiplexer slope coefficient	1.0000fibre end	0.00T internal ref (°C)	35.87T ext. ref 1 (°C)	5.36T ext. ref 2 (°C)	29.49length (m)	temperature (°C)	Stokes	anti-Stokes-747.200	253.600	-0.100	0.174
-746.185	590.437	0.056	0.139
-745.171	24.163	-0.117	-0.098
-744.156	-133.584	0.044	-0.006
-743.142	-200.000	0.006	-0.205
-742.127	353.484	-0.050	0.101
-741.112	469.664	-0.108	0.245
-740.098	112.318	-0.233	0.286
-739.083	-200.000	-0.017	0.173
-738.069	96.969	-0.094	-0.109
-737.054	800.000	0.025	-0.079
-736.039	-17.837	-0.296	-0.188
-735.025	203.803	-0.115	-0.181
-734.010	-63.870	-0.048	0.020
-732.996	-33.610	-0.258	-0.145
-731.981	-200.000	0.016	-0.348
-730.966	800.000	0.029	-0.086
-729.952	-51.529	-0.191	0.090
-728.937	-88.495	0.113	0.034
-727.923	197.215	-0.103	-0.159
-726.908	321.258	-0.121	0.233
-725.894	333.235	-0.181	0.354
-724.879	-200.000	-0.055	0.382
-723.864	-75.355	-0.205	-0.074
-722.850	-200.000	-0.009	-0.074
-721.835	-147.806	0.263	-0.022
-720.821	-47.884	-0.203	-0.100
-719.806	70.087	-0.039	-0.040
-718.791	-200.000	0.043	-0.000
-717.777	-200.000	0.079	0.372
-716.762	-166.935	0.126	0.005
-715.748	-107.056	-0.209	0.047
-714.733	601.707	0.056	-0.141
-713.718	38.601	-0.034	0.030
-712.704	135.548	0.099	0.131
-711.689	-104.376	0.160	0.037
-710.675	-127.348	-0.436	0.064
-709.660	800.000	-0.125	-0.363
-708.645	238.942	0.057	-0.097
-707.631	313.799	-0.151	-0.288
-706.616	-93.393	0.158	-0.044
-705.602	-144.790	-0.042	0.004
-704.587	-92.449	-0.403	-0.115
-703.572	800.000	0.057	-0.177
-702.558	71.282	-0.249	-0.261
-701.543	218.440	-0.052	-0.084
-700.529	99.358	0.133	-0.155
-699.514	-200.000	0.015	-0.152
-698.499	800.000	0.092	-0.280
-697.485	-200.000	0.004	0.040
-696.470	74.992	0.307	0.327
-695.456	576.844	0.017	0.042
-694.441	-89.523	-0.178	-0.053
-693.426	-200.000	-0.004	0.019
-692.412	-149.580	0.011	-0.001
-691.397	-1.535	-0.189	-0.135
-690.383	151.789	0.114	0.156
-689.368	-200.000	0.013	0.155
-688.354	40.539	0.237	0.216
-687.339	153.294	0.160	-0.222
-686.324	-75.991	-0.121	0.043
-685.310	103.977	-0.135	0.160
-684.295	-16.706	0.315	-0.201
-683.281	62.242	-0.166	-0.168
-682.266	-113.584	0.188	0.037
-681.251	-36.342	-0.348	0.190
-680.237	-57.621	0.159	-0.070
-679.222	-200.000	-0.040	0.000
-678.208	-200.000	0.001	0.039
-677.193	5.605	-0.045	-0.033
-676.178	-200.000	-0.015	0.084
-675.164	84.346	-0.144	-0.159
-674.149	-35.154	-0.196	-0.108
-673.135	-200.000	0.034	-0.330
-672.120	-102.337	-0.274	-0.066
-671.105	-200.000	-0.007	-0.215
-670.091	671.177	-0.093	-0.243
-669.076	-150.982	-0.235	-0.018
-668.062	-158.806	0.257	-0.015
-667.047	488.012	0.172	0.398
-666.032	-116.088	-0.425	-0.080
-665.018	556.539	0.055	0.135
-664.003	-71.324	-0.566	0.214
-662.989	-23.359	-0.250	0.152
-661.974	30.259	0.136	-0.117
-660.959	-200.000	0.031	-0.202
-659.945	171.385	0.050	-0.072
-658.930	-200.000	0.258	0.001
-657.916	-200.000	-0.076	0.445
-656.901	-200.000	0.031	-0.280
-655.886	800.000	-0.048	-0.180
-654.872	-88.182	-0.097	-0.029
-653.857	-71.786	0.438	0.165
-652.843	224.617	-0.070	0.115
-651.828	-156.190	-0.091	0.006
-650.814	-164.965	-0.313	-0.014
-649.799	-200.000	0.049	-0.411
-648.784	131.558	0.133	-0.172
-647.770	129.091	-0.123	0.159
-646.755	-53.693	-0.311	-0.143
-645.741	-200.000	0.031	0.200
-644.726	-200.000	-0.024	-0.272
-643.711	-59.268	0.162	-0.070
-642.697	-77.325	0.121	-0.043
-641.682	-117.351	0.227	0.042
-640.668	-200.000	0.035	0.248
-639.653	648.024	0.166	-0.427
-638.638	-124.816	-0.154	0.024
-637.624	209.856	-0.206	-0.326
-636.609	-200.000	-0.066	-0.422
-635.595	-55.027	-0.150	-0.068
-634.580	-88.637	-0.327	0.098
-633.565	583.330	0.138	-0.341
-632.551	-144.784	-0.245	-0.023
-631.536	-100.884	0.206	-0.051
-630.522	-200.000	-0.036	-0.204
-629.507	-134.153	0.023	-0.003
-628.492	800.000	-0.064	-0.199
-627.478	800.000	0.070	0.255
-626.463	-121.973	0.202	-0.034
-625.449	800.000	-0.024	0.069
-624.434	594.723	-0.084	-0.209
-623.419	-187.969	-0.149	0.002
-622.405	47.204	-0.044	-0.042
-621.390	-35.000	0.131	-0.072
-620.376	-140.466	0.390	0.041
-619.361	-195.240	-0.077	-0.001
-618.346	195.254	-0.071	-0.109
-617.332	179.551	0.012	-0.018
-616.317	202.914	0.099	0.154
-615.303	164.421	-0.158	0.224
-614.288	-134.493	0.125	-0.015
-613.273	-200.000	-0.037	0.187
-612.259	-200.000	-0.000	-0.129
-611.244	-200.000	-0.039	-0.203
-610.230	-24.448	0.188	-0.113
-609.215	15.674	-0.091	-0.072
-608.201	-62.819	0.358	-0.149
-607.186	-59.091	-0.057	0.025
-606.171	219.199	0.116	-0.187
-605.157	-176.354	0.215	-0.006
-604.142	-200.000	-0.044	0.204
-603.128	381.921	-0.150	-0.311
-602.113	-89.619	0.216	-0.064
-601.098	-200.000	-0.019	-0.156
-600.084	-121.003	-0.409	-0.069
-599.069	18.699	0.306	0.247
-598.055	-139.123	0.336	-0.037
-597.040	-200.000	-0.002	-0.034
-596.025	7.959	-0.109	-0.083
-595.011	-137.586	0.136	0.015
-593.996	-200.000	-0.009	0.079
-592.982	21.315	-0.108	0.088
-591.967	-61.678	0.238	-0.100
-590.952	-200.000	0.079	-0.374
-589.938	387.644	0.075	0.156
-588.923	428.145	0.157	0.342
-587.909	-148.125	0.265	0.022
-586.894	-200.000	-0.001	0.067
-585.879	226.993	-0.105	-0.172
-584.865	-200.000	-0.007	0.041
-583.850	374.331	0.067	0.137
-582.836	-19.447	-0.369	0.230
-581.821	136.058	-0.066	0.087
-580.806	71.873	0.215	0.226
-579.792	684.724	-0.094	-0.246
-578.777	69.798	-0.051	0.053
-577.763	395.365	0.031	0.064
-576.748	-83.185	-0.492	0.159
-575.733	-30.340	-0.040	0.023
-574.719	309.804	-0.106	-0.200
-573.704	-71.189	-0.169	0.064
-572.690	-174.474	0.154	-0.004
-571.675	-200.000	-0.051	0.397
-570.661	146.174	-0.140	0.189
-569.646	-200.000	-0.049	-0.272
-568.631	468.145	0.116	-0.262
-567.617	-200.000	0.003	-0.141
-566.602	-27.050	0.144	-0.085
-565.588	-200.000	0.009	0.176
-564.573	592.783	0.053	0.132
-563.558	73.787	0.197	0.207
-562.544	-157.076	0.082	-0.005
-561.529	28.388	0.198	0.168
-560.515	116.551	0.048	0.060
-559.500	66.458	-0.117	-0.120
-558.485	50.769	0.109	-0.104
-557.471	-20.803	0.306	-0.189
-556.456	20.963	-0.135	-0.110
-555.442	-32.951	0.467	0.261
-554.427	60.270	0.167	0.166
-553.412	800.000	-0.045	0.172
-552.398	-200.000	-0.005	0.107
-551.383	536.143	0.050	-0.119
-550.369	-58.439	0.140	-0.061
-549.354	-84.643	-0.083	0.026
-548.339	-66.111	0.269	0.108
-547.325	-61.235	0.143	-0.061
-546.310	-200.000	-0.036	-0.289
-545.296	158.498	-0.076	0.106
-544.281	38.338	0.182	-0.163
-543.266	-118.580	0.306	-0.054
-542.252	212.849	-0.026	-0.042
-541.237	111.326	-0.324	-0.392
-540.223	247.708	-0.085	0.145
-539.208	-15.235	0.128	-0.082
-538.193	363.160	0.096	0.193
-537.179	-105.258	0.361	0.083
-536.164	-200.000	0.019	-0.100
-535.150	-110.008	0.248	0.052
-534.135	-78.214	0.040	-0.014
-533.121	5.902	-0.270	0.201
-532.106	185.527	0.077	-0.116
-531.091	-26.188	0.113	-0.066
-530.077	-132.112	-0.224	0.029
-529.062	-200.000	-0.104	-0.000
-528.048	-9.731	0.275	-0.184
-527.033	117.394	-0.078	0.096
-526.018	-200.000	0.069	-0.311
-525.004	-115.320	-0.294	0.056
-523.989	-200.000	0.011	0.202
-522.975	10.886	-0.271	0.208
-521.960	-200.000	-0.035	0.265
-520.945	800.000	-0.071	-0.275
-519.931	50.216	0.283	-0.268
-518.916	205.223	-0.179	0.279
-517.902	-32.839	0.370	-0.207
-516.887	69.964	0.146	0.151
-515.872	85.045	-0.156	-0.171
-514.858	-162.266	-0.137	0.007
-513.843	-63.365	-0.262	0.108
-512.829	-4.143	0.209	0.146
-511.814	-36.353	0.222	-0.120
-510.799	-200.000	0.014	-0.109
-509.785	275.480	0.114	-0.202
-508.770	-25.634	0.305	-0.181
-507.756	-24.642	0.129	0.077
-506.741	79.518	0.190	0.204
-505.726	-158.954	0.284	0.016
-504.712	14.275	-0.111	-0.087
-503.697	-200.000	0.038	-0.196
-502.683	-156.971	0.261	-0.016
-501.668	-44.803	-0.161	0.080
-500.653	-79.079	0.032	-0.011
-499.639	-163.549	-0.291	0.014
-498.624	-27.111	0.251	0.147
-497.610	-200.000	-0.014	-0.107
-496.595	179.862	-0.159	-0.234
-495.581	-26.769	0.112	-0.066
-494.566	-103.001	-0.301	0.072
-493.551	800.000	-0.030	0.090
-492.537	800.000	-0.054	-0.222
-491.522	-200.000	-0.028	-0.162
-490.508	91.609	-0.209	-0.235
-489.493	78.812	-0.152	0.163
-488.478	366.544	0.078	-0.159
-487.464	-79.386	0.153	-0.052
-486.449	169.273	0.053	-0.075
-485.435	148.494	-0.135	0.183
-484.420	800.000	-0.044	-0.185
-483.405	584.959	0.132	-0.324
-482.391	510.279	0.095	0.222
-481.376	266.528	-0.081	-0.142
-480.362	-200.000	-0.010	-0.237
-479.347	741.067	0.045	-0.120
-478.332	-77.661	0.173	-0.060
-477.318	-200.000	-0.021	-0.303
-476.303	800.000	0.114	-0.344
-475.289	301.991	-0.160	0.297
-474.274	-200.000	-0.002	-0.077
-473.259	-200.000	0.014	0.066
-472.245	58.730	-0.157	0.155
-471.230	-109.892	-0.155	0.033
-470.216	-3.317	-0.146	0.102
-469.201	-200.000	0.023	-0.195
-468.186	-77.683	0.267	-0.093
-467.172	-200.000	-0.054	0.282
-466.157	-200.000	-0.016	-0.149
-465.143	-9.075	0.104	0.070
-464.128	34.290	0.054	0.047
-463.113	258.559	0.145	0.251
-462.099	351.484	0.217	-0.430
-461.084	800.000	-0.085	-0.256
-460.070	-111.109	0.308	-0.063
-459.055	-78.870	-0.158	-0.054
-458.040	26.140	-0.135	0.113
-457.026	-200.000	-0.024	0.183
-456.011	-68.936	-0.371	0.143
-454.997	231.740	-0.040	-0.066
-453.982	233.024	0.123	0.202
-452.968	-63.648	-0.222	0.091
-451.953	446.084	-0.102	0.225
-450.938	85.291	-0.070	-0.077
-449.924	194.068	-0.041	0.062
-448.909	-144.249	-0.392	0.037
-447.895	-156.335	-0.104	0.007
-446.880	430.137	-0.094	-0.204
-445.865	-34.705	-0.221	0.121
-444.851	103.738	0.164	0.192
-443.836	109.524	0.251	-0.301
-442.822	152.225	-0.070	0.096
-441.807	301.432	0.093	-0.173
-440.792	800.000	0.049	0.187
-439.778	51.542	0.208	-0.198
-438.763	583.769	0.209	0.514
-437.749	-80.107	-0.279	-0.094
-436.734	-200.000	0.033	-0.291
-435.719	800.000	0.093	0.353
-434.705	-200.000	0.059	0.330
-433.690	-10.890	-0.115	-0.076
-432.676	156.318	-0.193	0.266
-431.661	800.000	0.063	-0.206
-430.646	31.947	-0.247	0.213
-429.632	490.186	0.107	0.245
-428.617	129.965	0.052	-0.067
-427.603	800.000	0.028	0.078
-426.588	129.590	0.154	-0.197
-425.573	-200.000	-0.057	-0.310
-424.559	265.446	0.186	-0.325
-423.544	220.290	0.132	0.212
-422.530	-43.374	-0.066	0.033
-421.515	-102.506	-0.148	0.035
-420.500	40.131	0.159	-0.143
-419.486	58.606	-0.118	0.116
-418.471	316.125	0.082	0.155
-417.457	208.298	0.062	0.096
-416.442	-114.664	-0.036	-0.007
-415.428	-200.000	0.019	-0.151
-414.413	516.695	-0.139	-0.325
-413.398	-86.046	-0.251	-0.077
-412.384	314.888	-0.049	0.092
-411.369	800.000	0.036	-0.152
-410.355	161.614	0.059	0.082
-409.340	-104.975	0.150	0.034
-408.325	-159.859	-0.441	0.024
-407.311	-123.853	0.187	0.030
-406.296	-58.592	-0.309	-0.134
-405.282	-200.000	0.006	-0.278
-404.267	358.637	0.159	-0.318
-403.252	800.000	-0.074	0.299
-402.238	-19.751	-0.244	-0.151
-401.223	-40.221	0.255	-0.133
-400.209	309.703	0.099	0.184
-399.194	800.000	0.035	-0.100
-398.179	-57.861	-0.246	-0.108
-397.165	-109.654	-0.049	-0.010
-396.150	-60.966	-0.606	-0.256
-395.136	-200.000	-0.035	0.179
-394.121	-200.000	0.056	-0.273
-393.106	-69.146	-0.342	0.131
-392.092	-45.821	0.278	-0.137
-391.077	76.366	0.132	-0.140
-390.063	154.571	-0.067	0.092
-389.048	-66.531	0.231	-0.092
-388.033	-124.373	-0.111	-0.017
-387.019	-177.884	-0.366	0.009
-386.004	-102.003	-0.176	0.042
-384.990	800.000	0.049	-0.164
-383.975	-30.404	0.378	0.214
-382.960	245.390	-0.166	0.279
-381.946	-200.000	0.018	0.089
-380.931	-169.815	0.145	0.005
-379.917	-200.000	0.011	0.073
-378.902	17.618	0.491	-0.390
-377.888	-128.227	-0.205	-0.029
-376.873	267.886	0.124	0.216
-375.858	-200.000	0.020	-0.243
-374.844	287.226	-0.123	-0.222
-373.829	800.000	-0.037	0.153
-372.815	171.922	0.036	-0.051
-371.800	-9.196	-0.165	0.110
-370.785	41.073	-0.250	-0.225
-369.771	122.687	-0.128	0.159
-368.756	-67.046	0.058	0.023
-367.742	-23.548	-0.226	0.135
-366.727	111.246	0.179	0.215
-365.712	126.347	-0.123	-0.155
-364.698	148.176	0.157	0.211
-363.683	-104.159	-0.280	-0.065
-362.669	-53.017	-0.263	-0.121
-361.654	-200.000	0.029	0.426
-360.639	198.156	0.128	0.196
-359.625	-60.726	-0.116	-0.049
-358.610	-17.195	-0.229	-0.144
-357.596	800.000	0.047	-0.147
-356.581	31.710	-0.110	-0.094
-355.566	-112.241	0.277	-0.055
-354.552	197.049	0.068	0.103
-353.537	318.538	0.128	-0.242
-352.523	52.295	-0.194	-0.185
-351.508	295.688	-0.085	-0.156
-350.493	350.799	0.092	0.181
-349.479	101.674	-0.063	0.073
-348.464	800.000	-0.120	0.347
-347.450	100.185	-0.096	0.112
-346.435	800.000	0.044	0.127
-345.420	-118.694	0.050	0.009
-344.406	-139.265	-0.261	-0.028
-343.391	-200.000	-0.049	0.285
-342.377	60.282	-0.157	0.155
-341.362	129.774	0.242	0.308
-340.348	56.580	-0.266	-0.258
-339.333	-200.000	0.003	-0.249
-338.318	286.623	0.126	0.227
-337.304	-46.650	-0.200	0.098
-336.289	800.000	0.069	-0.292
-335.275	87.398	0.125	-0.138
-334.260	-200.000	0.023	0.288
-333.245	-68.974	0.100	0.038
-332.231	-200.000	-0.035	0.224
-331.216	-200.000	-0.016	0.525
-330.202	165.682	0.142	0.200
-329.187	90.097	0.099	-0.110
-328.172	-200.000	-0.024	-0.286
-327.158	-147.754	0.316	-0.026
-326.143	261.952	-0.110	-0.190
-325.129	-200.000	-0.003	0.099
-324.114	800.000	-0.070	-0.232
-323.099	-200.000	0.050	0.372
-322.085	-149.937	0.227	-0.018
-321.070	90.599	0.170	0.190
-320.056	407.131	0.084	-0.176
-319.041	15.193	-0.218	0.170
-318.026	72.746	0.135	0.140
-317.012	-200.000	0.183	-0.001
-315.997	-56.013	-0.351	-0.156
-314.983	-45.151	0.058	0.029
-313.968	-200.000	0.025	-0.274
-312.953	800.000	0.022	0.082
-311.939	-25.899	-0.444	-0.261
-310.924	800.000	-0.046	-0.135
-309.910	-102.227	0.200	0.048
-308.895	-200.000	-0.021	-0.269
-307.880	-200.000	0.013	-0.266
-306.866	-200.000	-0.011	0.123
-305.851	-115.768	0.066	0.012
-304.837	27.913	0.243	-0.204
-303.822	-153.299	-0.278	0.019
-302.807	-200.000	0.027	-0.200
-301.793	800.000	0.092	0.383
-300.778	800.000	0.051	0.157
-299.764	-111.302	-0.171	-0.035
-298.749	-187.256	0.221	0.003
-297.735	153.202	-0.245	0.334
-296.720	-13.290	0.095	-0.061
-295.705	46.003	0.222	0.205
-294.691	-127.098	-0.239	0.035
-293.676	-200.000	-0.020	-0.347
-292.662	319.391	-0.025	-0.048
-291.647	-90.262	-0.065	-0.019
-290.632	205.027	0.139	-0.214
-289.618	-139.759	-0.140	-0.015
-288.603	104.903	0.071	0.083
-287.589	-53.635	0.107	-0.049
-286.574	336.673	0.169	-0.327
-285.559	369.230	-0.079	-0.160
-284.545	438.636	-0.100	0.216
-283.530	452.208	-0.125	0.276
-282.516	-121.812	-0.210	-0.034
-281.501	-31.724	0.261	0.145
-280.486	-144.152	0.231	-0.022
-279.472	-50.926	-0.334	0.156
-278.457	-126.801	-0.049	-0.007
-277.443	-200.000	0.009	-0.220
-276.428	-90.642	-0.407	-0.117
-275.413	-149.986	-0.239	0.019
-274.399	505.733	0.084	0.193
-273.384	31.705	-0.190	0.162
-272.370	-134.396	0.174	-0.021
-271.355	-98.597	-0.164	0.042
-270.340	-200.000	0.055	-0.348
-269.326	-130.971	-0.220	0.029
-268.311	1.749	0.006	-0.004
-267.297	427.640	0.104	-0.223
-266.282	124.798	0.157	-0.196
-265.267	-57.354	0.131	0.057
-264.253	-71.726	-0.106	0.039
-263.238	-142.472	-0.302	-0.030
-262.224	159.847	0.126	-0.174
-261.209	-194.736	-0.231	0.002
-260.195	674.515	-0.040	0.102
-259.180	415.161	0.145	-0.307
-258.165	14.574	0.066	0.051
-257.151	34.773	0.180	0.157
-256.136	-200.000	0.012	-0.329
-255.122	-17.579	-0.370	0.231
-254.107	-200.000	0.026	0.152
-253.092	-14.705	-0.056	0.036
-252.078	800.000	-0.080	0.274
-251.063	-200.000	-0.016	0.169
-250.049	-200.000	0.001	0.122
-249.034	-60.261	0.110	0.046
-248.019	800.000	0.068	-0.214
-247.005	449.642	0.116	-0.254
-245.990	-200.000	-0.049	0.286
-244.976	-99.332	0.349	0.087
-243.961	-149.871	-0.057	0.004
-242.946	-82.143	-0.068	0.022
-241.932	133.756	-0.139	0.179
-240.917	784.641	0.085	0.231
-239.903	287.999	-0.075	0.134
-238.888	800.000	0.086	-0.289
-237.873	325.855	-0.115	-0.219
-236.859	800.000	-0.048	0.157
-235.844	800.000	0.041	0.167
-234.830	-118.779	0.136	0.024
-233.815	-200.000	0.025	-0.270
-232.800	382.719	-0.059	0.120
-231.786	215.372	0.042	0.065
-230.771	-48.902	-0.171	-0.081
-229.757	-13.213	-0.118	0.076
-228.742	-11.431	-0.130	0.085
-227.727	-82.397	-0.127	-0.041
-226.713	800.000	-0.099	0.331
-225.698	47.952	-0.043	-0.040
-224.684	-19.996	0.090	0.055
-223.669	75.747	-0.185	0.194
-222.655	94.212	-0.171	0.192
-221.640	78.373	0.340	-0.361
-220.625	-15.188	-0.205	-0.130
-219.611	800.000	0.058	-0.187
-218.596	108.041	-0.044	0.052
-217.582	198.299	-0.052	-0.080
-216.567	-200.000	-0.026	0.287
-215.552	451.563	-0.129	0.282
-214.538	-200.000	0.030	0.136
-213.523	164.770	0.162	0.227
-212.509	-70.619	0.313	0.117
-211.494	-58.859	-0.133	0.057
-210.479	-200.000	-0.000	0.042
-209.465	-149.377	-0.139	0.011
-208.450	54.200	0.307	0.293
-207.436	99.395	-0.304	0.349
-206.421	-46.541	-0.033	0.016
-205.406	703.949	0.089	-0.233
-204.392	-200.000	0.009	0.099
-203.377	-93.842	-0.159	-0.043
-202.363	-100.502	0.220	0.054
-201.348	240.688	-0.024	0.041
-200.333	-68.490	-0.075	0.029
-199.319	364.063	0.076	0.152
-198.304	-63.911	-0.171	0.069
-197.290	-93.220	-0.186	-0.051
-196.275	-106.773	-0.321	-0.071
-195.260	-136.940	-0.208	0.024
-194.246	800.000	0.036	0.141
-193.231	213.540	-0.148	0.232
-192.217	114.733	0.108	-0.131
-191.202	800.000	0.030	0.108
-190.187	-95.768	0.117	-0.031
-189.173	800.000	0.063	-0.253
-188.158	337.247	-0.179	-0.345
-187.144	-105.318	-0.137	-0.031
-186.129	-200.000	-0.034	0.484
-185.114	586.356	-0.029	-0.072
-184.100	164.562	-0.082	0.114
-183.085	9.529	0.366	-0.275
-182.071	-27.442	0.094	0.054
-181.056	560.799	-0.140	0.336
-180.042	14.945	-0.241	0.187
-179.027	-125.697	0.072	-0.011
-178.012	-50.534	-0.264	-0.124
-176.998	-200.000	0.038	0.232
-175.983	117.509	-0.121	0.147
-174.969	36.548	-0.145	0.127
-173.954	-200.000	0.015	0.187
-172.939	205.608	0.034	-0.052
-171.925	800.000	0.067	-0.246
-170.910	522.786	0.105	0.244
-169.896	-134.376	0.217	0.026
-168.881	-53.163	0.212	0.096
-167.866	800.000	-0.058	-0.181
-166.852	221.301	0.069	0.110
-165.837	132.295	-0.151	0.193
-164.823	-200.000	-0.004	0.109
-163.808	-151.381	-0.231	-0.017
-162.793	-61.715	0.252	0.105
-161.779	-168.538	0.550	0.021
-160.764	409.752	0.044	-0.092
-159.750	171.643	0.152	0.216
-158.735	-96.047	0.260	0.068
-157.720	209.148	0.110	0.170
-156.706	-136.146	-0.159	0.018
-155.691	91.521	-0.018	0.020
-154.677	-200.000	-0.023	-0.173
-153.662	-170.455	0.223	-0.008
-152.647	-200.000	0.198	0.001
-151.633	260.531	0.090	-0.154
-150.618	360.954	-0.018	0.035
-149.604	-58.072	0.191	0.082
-148.589	240.323	-0.012	0.020
-147.574	-32.972	0.190	0.104
-146.560	403.055	-0.078	0.162
-145.545	9.013	-0.143	0.107
-144.531	82.024	-0.301	0.323
-143.516	15.497	-0.219	-0.170
-142.502	-100.375	0.140	0.034
-141.487	-83.333	-0.108	-0.034
-140.472	800.000	-0.029	0.125
-139.458	-71.044	-0.254	0.094
-138.443	-25.034	-0.042	-0.024
-137.429	-200.000	-0.019	0.203
-136.414	177.857	-0.222	0.321
-135.399	24.787	-0.229	0.188
-134.385	-200.000	-0.006	-0.036
-133.370	150.143	0.113	0.152
-132.356	-171.177	0.178	0.006
-131.341	-200.000	-0.007	0.103
-130.326	-125.491	-0.082	-0.012
-129.312	-124.776	-0.339	0.052
-128.297	-200.000	-0.076	-0.399
-127.283	376.367	-0.174	0.350
-126.268	254.628	-0.123	0.209
-125.253	-124.479	-0.234	-0.036
-124.239	-31.298	-0.126	0.070
-123.224	-163.378	0.252	0.012
