DTS Sentinel unit serial number:	SN413079Multiplexer serial number:	ORYXHardware model number:	OX4-SRSoftware version number:	ORYX F/W v4.00 Oryx Data Collector v3.7.2.0data status	okinstallation	princeton_trtdifferential loss correction	single-endedforward channel	channel 2reverse channel	N/Adate	2019/09/13time	04:23:35forward acquisition time	60.00reverse acquisition time	0.00gamma	496.2192k internal	0.2336k external	0.2336temperature offset calibration	1.0189default loss term (dB/km)	0.3790temperature slope calibration	1.0000multiplexer offset coefficient	1.0000multiplexer slope coefficient	1.0000fibre end	0.00T internal ref (°C)	26.75T ext. ref 1 (°C)	4.06T ext. ref 2 (°C)	21.20length (m)	temperature (°C)	Stokes	anti-Stokes-747.200	99.944	-0.138	0.161
-746.185	696.565	0.070	-0.185
-745.171	-170.424	-0.097	-0.003
-744.156	669.749	-0.115	0.299
-743.142	-26.734	0.242	0.142
-742.127	240.970	-0.092	0.154
-741.112	800.000	-0.065	-0.196
-740.098	-117.057	0.228	-0.042
-739.083	14.913	0.183	-0.144
-738.069	-200.000	0.050	0.694
-737.054	373.539	0.069	0.141
-736.039	-11.668	-0.336	0.222
-735.025	-6.820	0.086	-0.059
-734.010	-110.736	-0.202	0.042
-732.996	-200.000	-0.003	0.149
-731.981	136.316	-0.119	-0.156
-730.966	800.000	0.076	0.222
-729.952	214.114	0.044	-0.070
-728.937	63.655	-0.151	0.152
-727.923	-79.893	-0.407	0.137
-726.908	-200.000	-0.004	-0.269
-725.894	-70.784	-0.233	-0.088
-724.879	-200.000	-0.007	0.366
-723.864	-56.214	-0.213	-0.095
-722.850	800.000	0.087	-0.276
-721.835	-160.047	0.143	-0.008
-720.821	-200.000	-0.200	0.000
-719.806	800.000	0.147	-0.428
-718.791	-9.160	0.133	0.089
-717.777	34.287	-0.017	0.015
-716.762	-127.139	-0.385	0.057
-715.748	-47.267	-0.221	-0.108
-714.733	27.385	0.091	0.077
-713.718	213.084	-0.086	-0.136
-712.704	623.682	0.026	0.065
-711.689	-200.000	-0.034	-0.389
-710.675	-200.000	-0.065	-0.611
-709.660	-77.350	0.167	-0.058
-708.645	17.745	0.185	0.148
-707.631	64.281	0.217	0.219
-706.616	93.555	-0.223	0.254
-705.602	161.595	0.088	-0.124
-704.587	800.000	-0.129	-0.475
-703.572	800.000	-0.080	-0.320
-702.558	-30.299	-0.210	0.119
-701.543	311.503	-0.123	0.232
-700.529	-40.629	-0.052	0.027
-699.514	-98.023	0.364	-0.094
-698.499	-69.365	-0.365	-0.141
-697.485	-50.860	0.065	0.031
-696.470	185.412	0.170	-0.254
-695.456	500.490	0.054	0.124
-694.441	800.000	-0.031	-0.092
-693.426	-87.523	0.196	-0.059
-692.412	171.950	0.127	0.183
-691.397	-200.000	0.017	-0.142
-690.383	-176.387	0.188	-0.005
-689.368	-200.000	0.026	-0.290
-688.354	-70.761	-0.224	-0.085
-687.339	-200.000	-0.046	-0.286
-686.324	800.000	0.031	0.129
-685.310	800.000	0.086	-0.258
-684.295	-200.000	0.010	-0.306
-683.281	-145.301	-0.222	0.020
-682.266	-200.000	0.030	0.197
-681.251	800.000	0.024	-0.100
-680.237	-56.815	-0.144	-0.064
-679.222	-82.341	0.161	-0.053
-678.208	619.919	-0.099	0.248
-677.193	81.837	0.057	-0.062
-676.178	51.453	-0.172	-0.163
-675.164	-36.336	-0.058	0.031
-674.149	-135.570	-0.318	-0.038
-673.135	194.895	0.077	-0.116
-672.120	-46.801	0.149	-0.073
-671.105	-176.512	0.244	0.006
-670.091	38.980	-0.172	0.154
-669.076	-56.665	0.101	-0.045
-668.062	480.975	0.075	0.171
-667.047	-81.429	0.351	-0.116
-666.032	354.551	-0.088	-0.176
-665.018	800.000	0.071	-0.294
-664.003	-87.332	0.229	0.069
-662.989	708.328	-0.026	-0.068
-661.974	-76.500	-0.183	-0.064
-660.959	106.161	-0.478	0.567
-659.945	-200.000	-0.025	0.127
-658.930	-6.913	0.056	0.038
-657.916	-53.309	0.346	-0.159
-656.901	-200.000	-0.020	0.233
-655.886	702.689	-0.057	0.150
-654.872	-169.614	-0.292	-0.011
-653.857	800.000	-0.099	-0.288
-652.843	-1.097	-0.297	0.210
-651.828	32.712	-0.171	-0.148
-650.814	-43.033	0.551	0.280
-649.799	377.547	-0.168	0.343
-648.784	-37.486	0.217	-0.116
-647.770	-99.464	0.179	0.045
-646.755	226.006	-0.194	-0.315
-645.741	504.488	0.099	-0.228
-644.726	468.559	0.094	-0.211
-643.711	800.000	0.040	-0.150
-642.697	-30.695	0.147	0.083
-641.682	-200.000	0.046	-0.263
-640.668	-200.000	0.063	-0.368
-639.653	800.000	-0.006	0.023
-638.638	34.151	-0.094	0.082
-637.624	476.013	-0.033	0.074
-636.609	209.555	-0.058	-0.092
-635.595	47.113	0.137	-0.128
-634.580	189.757	-0.171	-0.257
-633.565	160.880	-0.108	0.150
-632.551	800.000	-0.107	0.330
-631.536	91.287	-0.137	0.153
-630.522	688.889	0.037	-0.097
-629.507	366.398	-0.082	-0.165
-628.492	-81.324	-0.496	-0.163
-627.478	-200.000	0.027	-0.221
-626.463	97.781	0.060	-0.069
-625.449	800.000	-0.015	0.045
-624.434	-78.693	-0.193	0.066
-623.419	120.561	0.210	-0.261
-622.405	189.768	0.046	0.070
-621.390	-46.820	-0.242	0.118
-620.376	-200.000	-0.006	-0.031
-619.361	203.013	0.177	0.274
-618.346	566.393	0.134	-0.325
-617.332	800.000	0.085	-0.234
-616.317	-200.000	-0.026	-0.204
-615.303	-129.815	-0.089	0.012
-614.288	-169.548	-0.186	-0.007
-613.273	31.847	-0.200	0.172
-612.259	-194.574	0.646	0.005
-611.244	800.000	0.044	-0.183
-610.230	37.097	-0.158	0.140
-609.215	800.000	-0.028	0.110
-608.201	-91.499	-0.212	-0.060
-607.186	-88.524	-0.224	0.067
-606.171	-61.685	-0.234	-0.098
-605.157	-200.000	-0.000	0.348
-604.142	157.794	-0.080	-0.111
-603.128	-200.000	-0.014	0.122
-602.113	-119.201	-0.471	-0.082
-601.098	-20.478	-0.159	0.097
-600.084	-157.087	-0.201	0.012
-599.069	800.000	-0.060	-0.193
-598.055	-152.516	0.134	-0.010
-597.040	101.000	-0.130	0.150
-596.025	-200.000	0.046	-0.468
-595.011	-200.000	-0.038	-0.327
-593.996	717.851	-0.109	0.290
-592.982	800.000	0.052	-0.180
-591.967	-19.614	-0.159	-0.098
-590.952	442.142	-0.098	0.215
-589.938	6.317	0.219	0.162
-588.923	-120.384	-0.321	0.054
-587.909	56.368	0.107	-0.104
-586.894	125.056	0.216	0.272
-585.879	-191.337	0.109	0.001
-584.865	128.090	0.087	-0.111
-583.850	-58.023	-0.215	-0.094
-582.836	-200.000	-0.057	-0.316
-581.821	-200.000	-0.062	-0.318
-580.806	-128.428	-0.277	-0.039
-579.792	22.167	-0.110	0.090
-578.777	-74.630	0.225	-0.081
-577.763	25.970	-0.212	-0.176
-576.748	331.986	-0.133	0.257
-575.733	-128.493	-0.407	-0.058
-574.719	600.485	0.063	-0.157
-573.704	-200.000	0.013	-0.359
-572.690	800.000	0.038	-0.114
-571.675	-7.619	0.191	-0.129
-570.661	-21.034	-0.415	-0.253
-569.646	156.223	-0.115	-0.159
-568.631	602.061	-0.077	-0.192
-567.617	230.045	-0.023	0.038
-566.602	800.000	-0.037	-0.135
-565.588	15.865	0.164	0.129
-564.573	9.233	-0.163	0.123
-563.558	271.222	-0.081	-0.143
-562.544	-200.000	-0.023	-0.168
-561.529	-200.000	-0.192	0.000
-560.515	67.320	-0.189	-0.192
-559.500	-200.000	-0.023	0.422
-558.485	-71.572	0.065	0.024
-557.471	-200.000	0.028	-0.209
-556.456	-125.799	0.033	0.005
-555.442	-200.000	0.002	0.017
-554.427	57.459	-0.153	-0.149
-553.412	221.763	-0.054	0.086
-552.398	159.390	0.242	-0.335
-551.383	-67.935	-0.086	0.034
-550.369	-60.888	-0.162	-0.068
-549.354	149.687	0.038	-0.051
-548.339	130.529	-0.243	-0.311
-547.325	-96.482	-0.092	0.024
-546.310	-200.000	-0.008	0.049
-545.296	-200.000	-0.007	-0.194
-544.281	-80.121	0.539	0.180
-543.266	23.696	-0.115	0.094
-542.252	800.000	0.050	-0.186
-541.237	348.673	-0.093	0.182
-540.223	241.360	0.049	0.082
-539.208	247.167	0.070	0.118
-538.193	20.329	-0.148	0.119
-537.179	-200.000	0.032	0.324
-536.164	32.147	-0.196	-0.168
-535.150	-12.163	0.150	-0.098
-534.135	800.000	-0.075	0.325
-533.121	800.000	0.021	0.091
-532.106	-200.000	-0.026	-0.193
-531.091	-63.267	-0.080	-0.033
-530.077	-96.246	0.517	0.137
-529.062	800.000	0.124	0.368
-528.048	-200.000	-0.012	-0.137
-527.033	103.313	0.255	-0.298
-526.018	-137.028	0.181	-0.021
-525.004	583.643	-0.075	0.184
-523.989	-128.835	-0.225	0.031
-522.975	-72.078	-0.162	0.060
-521.960	-200.000	-0.005	-0.033
-520.945	800.000	-0.005	0.023
-519.931	-95.106	-0.158	0.043
-518.916	-200.000	0.008	0.250
-517.902	451.016	-0.153	0.336
-516.887	800.000	0.046	-0.187
-515.872	116.889	-0.074	-0.091
-514.858	-200.000	-0.007	0.119
-513.843	-89.924	-0.099	-0.029
-512.829	-200.000	-0.037	0.203
-511.814	-200.000	0.016	0.263
-510.799	-194.196	0.211	-0.002
-509.785	-22.652	0.133	-0.080
-508.770	800.000	0.042	0.163
-507.756	-50.262	0.290	0.137
-506.741	800.000	-0.011	-0.044
-505.726	10.077	0.259	0.196
-504.712	669.728	-0.100	0.258
-503.697	-41.640	-0.166	0.085
-502.683	143.210	0.036	0.048
-501.668	-69.176	0.244	0.093
-500.653	536.333	-0.178	-0.421
-499.639	-109.113	0.287	0.061
-498.624	-98.654	0.347	0.088
-497.610	-200.000	0.014	0.423
-496.595	-200.000	0.045	0.256
-495.581	213.974	-0.234	0.368
-494.566	-95.886	-0.064	-0.017
-493.551	-200.000	0.006	-0.225
-492.537	-105.823	0.275	0.062
-491.522	800.000	-0.043	-0.157
-490.508	-22.305	-0.224	0.135
-489.493	-87.222	-0.122	0.037
-488.478	-2.591	-0.153	-0.106
-487.464	-141.124	0.288	-0.029
-486.449	-35.116	0.265	-0.143
-485.435	102.511	-0.035	0.040
-484.420	-200.000	0.024	0.141
-483.405	-61.315	0.139	0.058
-482.391	234.751	-0.029	-0.048
-481.376	-144.531	0.102	0.009
-480.362	800.000	0.067	-0.291
-479.347	-79.003	-0.292	-0.099
-478.332	-200.000	-0.038	0.271
-477.318	610.277	-0.165	0.409
-476.303	19.392	0.182	-0.145
-475.289	188.987	-0.130	-0.194
-474.274	-36.977	-0.395	-0.211
-473.259	631.518	-0.094	-0.237
-472.245	800.000	0.101	-0.300
-471.230	54.175	0.041	-0.039
-470.216	194.435	-0.047	0.070
-469.201	-105.557	0.267	0.060
-468.186	408.818	-0.035	0.075
-467.172	-156.149	-0.365	0.023
-466.157	-55.181	0.297	-0.133
-465.143	-159.995	-0.230	-0.012
-464.128	467.761	0.064	0.143
-463.113	-31.314	-0.239	0.134
-462.099	800.000	-0.092	0.312
-461.084	-200.000	-0.016	0.253
-460.070	418.882	-0.069	0.146
-459.055	152.120	-0.124	0.168
-458.040	464.098	0.114	-0.252
-457.026	578.158	-0.142	0.344
-456.011	-174.260	-0.203	0.006
-454.997	263.341	-0.131	-0.227
-453.982	335.638	0.033	-0.064
-452.968	67.200	0.248	-0.251
-451.953	-200.000	-0.005	-0.241
-450.938	704.884	0.136	-0.356
-449.924	-200.000	-0.011	-0.058
-448.909	-67.502	-0.128	-0.050
-447.895	-200.000	-0.032	-0.151
-446.880	165.316	0.421	-0.590
-445.865	37.872	0.133	-0.117
-444.851	558.590	-0.088	-0.211
-443.836	-78.525	0.264	0.090
-442.822	-7.074	-0.036	0.024
-441.807	21.371	0.136	-0.109
-440.792	33.168	0.176	0.151
-439.778	37.744	0.251	0.221
-438.763	-122.938	0.163	0.026
-437.749	-21.040	-0.177	0.107
-436.734	9.068	-0.045	-0.034
-435.719	316.575	0.114	0.214
-434.705	800.000	-0.081	-0.245
-433.690	-54.271	0.280	0.126
-432.676	33.240	-0.255	0.219
-431.661	-136.073	-0.307	-0.036
-430.646	-23.100	-0.129	-0.077
-429.632	-169.099	0.219	-0.008
-428.617	-200.000	-0.040	-0.190
-427.603	800.000	0.034	-0.137
-426.588	620.709	0.049	-0.121
-425.573	800.000	-0.083	-0.266
-424.559	800.000	-0.133	0.366
-423.544	40.048	-0.183	-0.163
-422.530	42.070	-0.195	0.176
-421.515	54.639	0.077	-0.073
-420.500	-147.136	0.317	-0.027
-419.486	708.317	-0.084	0.221
-418.471	-200.000	0.025	-0.173
-417.457	361.284	0.127	0.253
-416.442	-150.145	0.137	0.011
-415.428	113.359	0.029	-0.035
-414.413	74.716	0.202	0.210
-413.398	-54.728	0.170	-0.076
-412.384	-47.276	-0.164	0.079
-411.369	-200.000	0.069	-0.341
-410.355	46.744	-0.180	-0.166
-409.340	14.758	0.318	-0.247
-408.325	-200.000	-0.037	-0.233
-407.311	-200.000	-0.009	-0.279
-406.296	80.018	0.167	-0.178
-405.282	-46.844	0.136	-0.066
-404.267	-200.000	0.050	0.221
-403.252	263.087	-0.108	-0.185
-402.238	-49.563	-0.029	0.014
-401.223	239.908	-0.153	0.252
-400.209	129.339	0.090	0.114
-399.194	152.012	0.188	0.255
-398.179	-24.656	-0.148	-0.087
-397.165	-77.131	-0.163	0.056
-396.150	-71.061	-0.238	0.089
-395.136	-79.585	-0.300	0.100
-394.121	-200.000	-0.027	-0.142
-393.106	-48.233	0.057	-0.027
-392.092	96.535	0.083	0.094
-391.077	-159.352	-0.322	0.018
-390.063	-40.161	-0.033	-0.017
-389.048	-12.862	0.073	0.047
-388.033	-200.000	-0.008	-0.153
-387.019	-200.000	-0.042	-0.246
-386.004	-200.000	0.017	-0.093
-384.990	398.444	0.042	-0.086
-383.975	59.015	0.098	0.096
-382.960	-200.000	0.006	0.037
-381.946	-83.163	-0.040	-0.013
-380.931	371.487	-0.153	-0.308
-379.917	-12.076	0.199	-0.129
-378.902	-26.545	0.120	-0.069
-377.888	101.097	-0.174	0.200
-376.873	186.172	0.136	-0.201
-375.858	-44.832	-0.162	-0.080
-374.844	-118.491	0.088	0.015
-373.829	-96.668	0.194	-0.051
-372.815	407.811	-0.145	0.303
-371.800	-200.000	0.044	0.226
-370.785	-200.000	-0.020	-0.184
-369.771	-58.332	-0.100	0.043
-368.756	-90.011	0.342	0.099
-367.742	502.301	0.036	-0.081
-366.727	29.823	-0.119	-0.101
-365.712	-200.000	0.011	-0.057
-364.698	-200.000	0.014	-0.160
-363.683	-89.177	0.271	0.079
-362.669	-61.797	-0.164	0.068
-361.654	2.242	-0.109	0.078
-360.639	800.000	0.101	0.296
-359.625	-84.847	-0.132	-0.041
-358.610	-44.355	0.202	0.100
-357.596	477.653	-0.014	-0.031
-356.581	-200.000	0.009	-0.114
-355.566	108.253	0.108	0.127
-354.552	61.545	-0.144	0.142
-353.537	-200.000	-0.001	0.222
-352.523	800.000	0.028	-0.095
-351.508	800.000	-0.124	0.370
-350.493	114.680	-0.245	0.296
-349.479	-76.390	0.142	-0.049
-348.464	-67.307	-0.242	-0.094
-347.450	-116.085	0.315	-0.058
-346.435	-50.086	0.280	-0.131
-345.420	-200.000	-0.005	-0.291
-344.406	106.562	-0.122	-0.143
-343.391	438.022	-0.086	-0.185
-342.377	-26.445	-0.057	-0.033
-341.362	22.015	0.229	0.184
-340.348	800.000	0.065	-0.239
-339.333	-200.000	-0.014	-0.060
-338.318	-200.000	-0.018	-0.133
-337.304	42.167	-0.090	0.081
-336.289	264.096	0.066	0.114
-335.275	800.000	-0.056	-0.168
-334.260	162.505	0.115	0.159
-333.245	219.718	-0.139	0.220
-332.231	800.000	0.048	0.202
-331.216	-72.275	0.163	0.060
-330.202	-77.586	-0.188	0.064
-329.187	800.000	-0.058	-0.199
-328.172	-63.171	-0.199	0.081
-327.158	-200.000	-0.050	-0.311
-326.143	-98.855	-0.435	0.109
-325.129	-102.941	0.272	-0.064
-324.114	-8.576	0.297	0.197
-323.099	438.191	0.084	0.181
-322.085	800.000	0.084	0.235
-321.070	150.137	-0.213	-0.285
-320.056	800.000	-0.113	-0.443
-319.041	-172.739	0.235	0.007
-318.026	-92.045	0.515	-0.144
-317.012	-43.304	0.230	-0.115
-315.997	-64.443	-0.116	-0.047
-314.983	146.154	-0.187	-0.248
-313.968	800.000	-0.045	0.140
-312.953	166.250	0.164	0.229
-311.939	162.022	0.075	-0.104
-310.924	37.791	-0.155	0.136
-309.910	-200.000	0.000	0.255
-308.895	-79.564	-0.089	0.030
-307.880	-93.054	0.225	-0.062
-306.866	800.000	0.067	0.260
-305.851	-54.893	0.247	-0.110
-304.837	42.811	0.236	-0.213
-303.822	258.944	0.090	0.153
-302.807	745.386	0.040	-0.107
-301.793	-200.000	0.023	0.296
-300.778	-136.715	0.059	0.007
-299.764	-200.000	0.044	-0.197
-298.749	-31.114	-0.186	-0.104
-297.735	110.943	0.231	0.275
-296.720	442.395	-0.053	0.115
-295.705	470.655	0.100	-0.223
-294.691	229.928	0.105	-0.169
-293.676	-200.000	-0.038	0.361
-292.662	7.949	-0.284	0.210
-291.647	-200.000	0.011	-0.063
-290.632	-156.971	0.128	0.008
-289.618	-16.701	0.247	0.154
-288.603	341.769	0.021	0.041
-287.589	108.823	0.187	-0.220
-286.574	-136.056	-0.277	-0.032
-285.559	-61.233	-0.200	-0.083
-284.545	114.455	0.049	0.058
-283.530	43.544	-0.052	-0.047
-282.516	800.000	-0.063	-0.220
-281.501	-134.343	-0.101	0.012
-280.486	-200.000	-0.007	0.056
-279.472	574.658	-0.148	0.356
-278.457	-71.599	0.128	-0.047
-277.443	-200.000	-0.336	0.002
-276.428	-83.163	0.328	0.104
-275.413	-44.573	0.125	-0.062
-274.399	148.803	-0.246	0.327
-273.384	-200.000	0.010	0.269
-272.370	207.391	-0.198	0.304
-271.355	-173.226	0.219	-0.007
-270.340	75.919	0.205	0.214
-269.326	-178.829	0.221	0.005
-268.311	-34.443	0.311	-0.168
-267.297	-200.000	-0.030	0.175
-266.282	-104.203	0.060	0.014
-265.267	-141.363	-0.238	-0.024
-264.253	-26.092	0.323	-0.187
-263.238	800.000	-0.036	0.149
-262.224	122.540	-0.024	-0.030
-261.209	800.000	-0.067	-0.200
-260.195	-200.000	-0.017	0.120
-259.180	-107.262	0.259	0.056
-258.165	-73.415	0.183	-0.066
-257.151	281.462	0.214	0.377
-256.136	40.635	0.341	0.303
-255.122	707.056	0.089	0.233
-254.107	111.491	0.210	-0.249
-253.092	-85.965	0.363	0.110
-252.078	18.483	-0.127	0.100
-251.063	0.085	0.362	-0.254
-250.049	-167.416	0.105	0.004
-249.034	-13.540	0.255	-0.163
-248.019	75.740	-0.171	0.178
-247.005	800.000	0.093	0.294
-245.990	556.468	-0.130	-0.309
-244.976	-56.535	0.130	0.057
-243.961	21.086	0.282	-0.225
-242.946	-147.677	-0.164	0.014
-241.932	-8.109	0.116	0.077
-240.917	38.351	-0.223	-0.196
-239.903	-15.458	-0.396	0.249
-238.888	86.277	0.100	0.109
-237.873	-164.105	-0.114	0.005
-236.859	-200.000	0.011	0.186
-235.844	225.893	-0.125	-0.200
-234.830	800.000	-0.055	-0.185
-233.815	6.760	0.132	-0.096
-232.800	-200.000	0.015	-0.099
-231.786	-24.629	0.179	0.105
-230.771	-200.000	0.056	-0.270
-229.757	-11.612	-0.187	0.121
-228.742	55.428	-0.039	0.037
-227.727	-200.000	0.025	0.264
-226.713	-41.106	0.444	-0.226
-225.698	67.304	-0.151	-0.152
-224.684	152.844	-0.136	-0.183
-223.669	-200.000	0.039	-0.298
-222.655	-133.843	0.033	-0.004
-221.640	-200.000	0.065	0.365
-220.625	-200.000	-0.023	0.174
-219.611	-200.000	-0.167	0.000
-218.596	-30.079	0.100	0.056
-217.582	-200.000	0.015	0.231
-216.567	-200.000	0.088	0.465
-215.552	165.232	0.115	-0.160
-214.538	-42.217	-0.325	0.163
-213.523	354.710	0.144	-0.282
-212.509	-80.330	-0.197	-0.065
-211.494	-148.250	0.068	0.005
-210.479	-53.692	0.136	-0.061
-209.465	-2.510	0.249	-0.171
-208.450	11.777	-0.237	-0.179
-207.436	75.584	-0.231	-0.240
-206.421	-182.904	-0.366	0.006
-205.406	-86.238	-0.210	0.064
-204.392	50.454	0.143	0.133
-203.377	-74.207	0.345	0.123
-202.363	370.920	0.092	0.184
-201.348	69.724	-0.111	0.113
-200.333	-38.705	-0.322	0.167
-199.319	55.299	0.282	0.268
-198.304	-135.037	-0.317	0.038
-197.290	-200.000	-0.060	-0.282
-196.275	290.008	-0.046	0.083
-195.260	27.488	0.220	0.182
-194.246	82.560	0.157	0.168
-193.231	-200.000	0.020	0.110
-192.217	235.969	0.088	-0.143
-191.202	-25.769	-0.192	0.111
-190.187	376.787	0.091	0.183
-189.173	582.604	-0.142	0.343
-188.158	-86.906	-0.196	-0.059
-187.144	800.000	-0.032	0.110
-186.129	-65.407	-0.318	0.125
-185.114	92.853	0.231	0.256
-184.100	178.632	0.111	0.159
-183.085	10.993	-0.309	-0.232
-182.071	-200.000	0.013	-0.066
-181.056	-47.116	-0.218	-0.104
-180.042	-200.000	0.016	-0.301
-179.027	6.157	-0.295	0.215
-178.012	-130.889	-0.203	-0.027
-176.998	-135.918	0.412	0.048
-175.983	-59.359	-0.116	-0.049
-174.969	67.990	0.057	0.058
-173.954	76.341	-0.097	0.101
-172.939	784.293	0.050	-0.135
-171.925	800.000	0.129	0.353
-170.910	302.669	-0.120	0.217
-169.896	-33.804	-0.232	0.126
-168.881	800.000	0.047	-0.167
-167.866	148.439	0.251	-0.332
-166.852	98.131	-0.166	-0.188
-165.837	81.397	-0.096	0.101
-164.823	702.993	0.092	-0.238
-163.808	-200.000	0.012	-0.066
-162.793	-200.000	-0.049	-0.403
-161.779	-200.000	0.033	0.200
-160.764	170.718	0.197	0.277
-159.750	-94.762	0.056	0.015
-158.735	170.876	-0.132	0.186
-157.720	800.000	0.109	0.403
-156.706	800.000	-0.107	0.328
-155.691	-200.000	-0.028	-0.310
-154.677	-98.778	0.022	0.005
-153.662	178.231	0.044	-0.063
-152.647	107.930	0.210	-0.246
-151.633	-114.720	-0.152	0.029
-150.618	800.000	0.101	0.351
-149.604	-200.000	-0.002	0.155
-148.589	-200.000	0.017	0.118
-147.574	800.000	-0.086	-0.338
-146.560	-106.202	-0.067	-0.015
-145.545	-200.000	-0.042	0.407
-144.531	-116.737	-0.134	0.024
-143.516	52.428	0.237	-0.221
-142.502	29.510	-0.180	-0.150
-141.487	33.310	0.155	-0.132
-140.472	-16.405	-0.364	0.227
-139.458	-200.000	-0.043	-0.190
-138.443	800.000	0.049	0.207
-137.429	23.268	0.204	-0.164
-136.414	-200.000	-0.010	0.073
-135.399	-47.604	-0.149	0.071
-134.385	-135.378	-0.214	-0.025
-133.370	-110.227	0.266	0.054
-132.356	800.000	-0.088	0.286
-131.341	14.260	0.141	0.108
-130.326	-150.633	-0.345	0.026
-129.312	-200.000	-0.027	-0.272
-128.297	-50.609	-0.207	0.096
-127.283	-84.319	0.216	0.067
-126.268	-200.000	-0.004	0.188
-125.253	507.234	0.112	-0.254
-124.239	296.486	-0.101	-0.182
-123.224	-200.000	0.052	0.306
-122.210	-103.307	0.266	0.061
-121.195	1.781	-0.229	0.162
