DTS Sentinel unit serial number:	SN413079Multiplexer serial number:	ORYXHardware model number:	OX4-SRSoftware version number:	ORYX F/W v4.00 Oryx Data Collector v3.7.2.0data status	okinstallation	princeton_trtdifferential loss correction	single-endedforward channel	channel 2reverse channel	N/Adate	2019/09/13time	18:07:34forward acquisition time	60.00reverse acquisition time	0.00gamma	496.2192k internal	0.2317k external	0.2317temperature offset calibration	1.0202default loss term (dB/km)	0.3790temperature slope calibration	1.0000multiplexer offset coefficient	1.0000multiplexer slope coefficient	1.0000fibre end	0.00T internal ref (°C)	34.62T ext. ref 1 (°C)	4.59T ext. ref 2 (°C)	27.46length (m)	temperature (°C)	Stokes	anti-Stokes-747.200	-200.000	-0.014	-0.102
-746.185	385.495	0.031	0.066
-745.171	136.850	-0.083	-0.110
-744.156	684.491	0.059	-0.156
-743.142	22.708	0.177	-0.147
-742.127	-145.347	-0.085	-0.008
-741.112	-99.493	0.406	-0.103
-740.098	361.004	-0.113	0.228
-739.083	185.521	0.023	-0.035
-738.069	14.732	0.032	-0.026
-737.054	-200.000	-0.009	0.323
-736.039	-88.290	-0.272	-0.082
-735.025	9.320	0.292	-0.224
-734.010	-200.000	0.007	-0.233
-732.996	-200.000	0.011	-0.323
-731.981	256.484	0.146	-0.254
-730.966	-88.214	-0.047	0.014
-729.952	-118.620	-0.215	0.039
-728.937	-73.481	-0.124	-0.046
-727.923	178.023	-0.033	-0.049
-726.908	-168.471	0.049	-0.002
-725.894	-60.005	0.194	0.084
-724.879	-200.000	0.056	-0.311
-723.864	381.991	0.144	-0.299
-722.850	-200.000	-0.015	0.189
-721.835	800.000	-0.014	0.052
-720.821	187.848	-0.178	0.269
-719.806	-14.508	-0.213	-0.138
-718.791	-38.567	-0.208	-0.111
-717.777	134.723	-0.098	-0.129
-716.762	-1.242	0.079	-0.056
-715.748	124.918	0.123	0.157
-714.733	-145.374	0.194	0.018
-713.718	282.044	-0.130	-0.236
-712.704	-164.169	0.228	-0.011
-711.689	77.209	-0.255	-0.275
-710.675	800.000	-0.093	-0.372
-709.660	156.247	0.206	0.287
-708.645	-103.035	-0.081	-0.019
-707.631	84.940	-0.120	0.133
-706.616	-200.000	-0.008	0.135
-705.602	800.000	-0.087	-0.359
-704.587	301.936	-0.212	-0.397
-703.572	571.424	-0.131	-0.322
-702.558	569.479	0.111	-0.274
-701.543	800.000	0.137	-0.390
-700.529	385.129	0.045	0.093
-699.514	52.750	0.124	0.119
-698.499	-49.184	-0.154	-0.074
-697.485	-86.337	-0.260	0.081
-696.470	-3.783	-0.179	-0.126
-695.456	-200.000	-0.019	0.254
-694.441	-130.541	0.020	-0.003
-693.426	328.188	-0.130	0.252
-692.412	-0.156	0.150	-0.108
-691.397	188.843	-0.185	0.280
-690.383	800.000	0.076	0.237
-689.368	235.271	-0.169	-0.283
-688.354	-77.754	-0.510	-0.178
-687.339	800.000	0.120	-0.352
-686.324	800.000	-0.066	0.203
-685.310	-200.000	-0.002	0.145
-684.295	465.309	-0.186	-0.420
-683.281	800.000	0.084	0.305
-682.266	229.556	-0.052	0.085
-681.251	800.000	0.105	-0.332
-680.237	659.620	0.034	-0.089
-679.222	331.604	-0.113	0.219
-678.208	39.187	0.175	-0.158
-677.193	-200.000	-0.077	-0.405
-676.178	-77.077	0.189	0.067
-675.164	-39.786	-0.199	-0.105
-674.149	19.641	0.200	0.162
-673.135	322.429	0.075	-0.143
-672.120	-200.000	0.067	-0.356
-671.105	-30.084	-0.346	-0.199
-670.091	-28.408	0.087	-0.051
-669.076	222.974	0.147	-0.240
-668.062	681.320	-0.119	-0.314
-667.047	-13.787	0.204	0.133
-666.032	48.447	0.368	0.347
-665.018	594.372	-0.078	0.195
-664.003	212.325	0.071	0.114
-662.989	-95.598	-0.115	-0.031
-661.974	481.414	-0.083	-0.190
-660.959	-200.000	-0.089	0.401
-659.945	-139.239	0.412	-0.045
-658.930	-147.472	0.271	0.023
-657.916	-83.733	-0.152	0.049
-656.901	-200.000	-0.071	-0.342
-655.886	239.684	0.106	-0.179
-654.872	661.738	-0.121	-0.315
-653.857	63.089	-0.010	0.010
-652.843	194.101	-0.022	0.033
-651.828	188.803	0.133	0.201
-650.814	4.113	0.025	0.018
-649.799	-115.247	0.138	-0.026
-648.784	70.930	-0.116	-0.121
-647.770	376.534	-0.034	-0.070
-646.755	-200.000	0.014	-0.067
-645.741	-105.003	0.242	-0.056
-644.726	-111.318	-0.156	-0.032
-643.711	-9.876	0.137	-0.092
-642.697	-29.038	0.371	0.215
-641.682	351.027	0.056	0.112
-640.668	-8.925	0.325	-0.220
-639.653	329.833	0.106	0.206
-638.638	58.456	-0.124	-0.122
-637.624	21.750	0.233	0.192
-636.609	-55.096	-0.245	0.111
-635.595	125.968	0.187	-0.239
-634.580	-188.585	0.300	-0.004
-633.565	-81.864	-0.034	-0.011
-632.551	-92.603	0.523	0.148
-631.536	800.000	-0.107	-0.299
-630.522	103.497	0.300	-0.355
-629.507	-200.000	0.013	0.207
-628.492	-7.058	0.279	0.191
-627.478	800.000	-0.076	-0.319
-626.463	53.210	-0.222	-0.215
-625.449	259.228	0.127	0.221
-624.434	308.432	0.092	-0.173
-623.419	304.243	-0.116	-0.218
-622.405	-200.000	0.017	-0.080
-621.390	7.441	0.120	0.091
-620.376	-200.000	-0.025	0.123
-619.361	259.473	-0.160	-0.278
-618.346	207.636	-0.051	0.080
-617.332	800.000	0.062	-0.234
-616.317	800.000	0.028	-0.118
-615.303	-20.601	0.400	0.248
-614.288	219.292	0.111	0.179
-613.273	-23.259	-0.229	-0.139
-612.259	800.000	0.041	0.125
-611.244	-147.002	-0.256	0.022
-610.230	51.719	-0.233	-0.223
-609.215	372.922	0.173	0.354
-608.201	159.356	-0.227	-0.318
-607.186	-36.000	0.045	0.025
-606.171	77.979	0.224	0.241
-605.157	-200.000	0.020	-0.135
-604.142	98.633	0.083	0.097
-603.128	-200.000	-0.017	-0.146
-602.113	124.862	0.106	-0.135
-601.098	264.137	0.161	-0.282
-600.084	254.596	-0.159	-0.275
-599.069	-96.343	-0.382	0.102
-598.055	12.610	0.224	0.174
-597.040	-87.415	0.113	0.034
-596.025	-200.000	-0.033	-0.294
-595.011	-140.220	-0.191	-0.020
-593.996	-52.609	-0.164	0.076
-592.982	800.000	0.056	-0.192
-591.967	193.033	-0.071	0.108
-590.952	-53.207	-0.236	-0.109
-589.938	-113.927	0.114	-0.022
-588.923	-200.000	0.017	0.155
-587.909	65.273	-0.257	0.261
-586.894	-200.000	-0.027	-0.151
-585.879	-101.130	-0.255	-0.063
-584.865	800.000	0.118	-0.400
-583.850	234.032	-0.169	-0.280
-582.836	-200.000	0.017	-0.221
-581.821	80.116	-0.250	-0.270
-580.806	49.105	0.196	0.185
-579.792	800.000	-0.023	0.080
-578.777	-200.000	0.023	0.146
-577.763	-38.834	-0.285	-0.151
-576.748	800.000	0.058	-0.193
-575.733	21.741	-0.196	-0.160
-574.719	800.000	-0.059	-0.230
-573.704	217.271	0.048	-0.077
-572.690	-71.510	-0.511	-0.192
-571.675	-68.884	0.193	-0.075
-570.661	15.509	-0.270	-0.213
-569.646	-25.914	0.248	-0.147
-568.631	-41.121	-0.178	0.092
-567.617	-55.266	-0.061	0.028
-566.602	13.176	0.401	-0.312
-565.588	-200.000	-0.047	0.223
-564.573	-10.018	0.242	-0.162
-563.558	-116.763	-0.020	0.004
-562.544	-200.000	0.026	0.339
-561.529	-200.000	-0.010	-0.056
-560.515	-102.061	0.055	-0.013
-559.500	800.000	-0.038	-0.134
-558.485	-127.001	0.100	-0.015
-557.471	185.372	0.092	0.137
-556.456	800.000	-0.023	0.070
-555.442	800.000	0.054	0.182
-554.427	83.617	-0.112	-0.122
-553.412	105.287	-0.061	-0.072
-552.398	95.316	0.135	0.155
-551.383	-131.612	0.328	-0.043
-550.369	262.693	0.123	0.215
-549.354	111.558	0.143	0.173
-548.339	142.848	-0.244	0.326
-547.325	40.064	-0.158	0.143
-546.310	800.000	0.026	0.112
-545.296	800.000	-0.067	-0.195
-544.281	-200.000	0.020	-0.195
-543.266	-200.000	0.001	-0.228
-542.252	678.376	0.079	-0.206
-541.237	-200.000	0.010	-0.177
-540.223	-200.000	0.008	-0.144
-539.208	-68.140	0.159	0.062
-538.193	800.000	0.099	-0.294
-537.179	-10.679	-0.257	-0.171
-536.164	800.000	0.106	-0.357
-535.150	-6.875	-0.141	-0.097
-534.135	48.488	-0.162	-0.153
-533.121	800.000	0.036	-0.140
-532.106	-200.000	-0.011	-0.073
-531.091	227.118	-0.113	-0.184
-530.077	800.000	-0.030	-0.114
-529.062	-200.000	-0.037	-0.268
-528.048	-136.830	0.165	0.019
-527.033	-200.000	-0.011	-0.346
-526.018	321.061	0.164	-0.313
-525.004	192.056	-0.172	0.261
-523.989	-200.000	0.003	-0.055
-522.975	90.080	-0.253	-0.284
-521.960	-174.749	0.140	-0.004
-520.945	-116.659	0.157	-0.029
-519.931	-135.172	0.162	-0.020
-518.916	-200.000	-0.008	0.192
-517.902	319.055	0.063	0.121
-516.887	-200.000	-0.026	-0.371
-515.872	-39.029	0.185	0.098
-514.858	-118.852	-0.326	0.057
-513.843	-168.411	-0.521	0.020
-512.829	-200.000	-0.023	0.259
-511.814	-152.861	0.199	0.014
-510.799	340.780	0.121	0.236
-509.785	-77.307	0.114	-0.040
-508.770	-102.967	-0.172	0.041
-507.756	800.000	-0.077	0.322
-506.741	95.804	-0.082	0.094
-505.726	-200.000	0.037	0.174
-504.712	-154.686	-0.079	0.005
-503.697	800.000	0.090	-0.281
-502.683	-20.799	0.052	-0.032
-501.668	15.741	-0.115	-0.091
-500.653	-200.000	-0.034	0.157
-499.639	-179.146	0.326	0.007
-498.624	336.942	-0.096	0.187
-497.610	-29.713	0.118	0.068
-496.595	800.000	0.040	0.153
-495.581	-200.000	0.016	0.247
-494.566	-200.000	0.008	0.058
-493.551	-65.247	-0.495	-0.200
-492.537	-94.834	-0.362	0.098
-491.522	-177.524	0.156	-0.004
-490.508	-18.377	0.218	0.137
-489.493	13.316	-0.313	0.243
-488.478	800.000	0.073	-0.298
-487.464	-126.143	0.092	-0.014
-486.449	56.289	0.152	-0.148
-485.435	800.000	-0.036	0.148
-484.420	503.644	0.134	-0.310
-483.405	153.399	0.144	-0.198
-482.391	-9.732	0.176	0.118
-481.376	107.309	0.335	0.399
-480.362	-53.153	-0.160	-0.073
-479.347	-58.030	-0.218	-0.095
-478.332	80.159	0.116	0.125
-477.318	-200.000	0.026	0.183
-476.303	142.305	-0.156	0.207
-475.289	-200.000	0.002	-0.066
-474.274	-200.000	-0.010	-0.159
-473.259	20.390	0.108	0.088
-472.245	1.060	-0.260	0.187
-471.230	291.453	-0.104	0.190
-470.216	800.000	-0.083	0.306
-469.201	647.156	0.051	0.130
-468.186	419.636	0.188	0.403
-467.172	167.598	-0.122	-0.173
-466.157	116.032	0.313	-0.384
-465.143	-200.000	0.006	0.144
-464.128	-46.832	0.303	-0.149
-463.113	-3.538	-0.136	-0.095
-462.099	-200.000	0.007	-0.178
-461.084	-200.000	0.000	0.318
-460.070	62.007	0.229	-0.228
-459.055	31.263	-0.116	0.100
-458.040	-112.557	-0.147	-0.029
-457.026	100.764	0.056	-0.065
-456.011	37.202	-0.083	-0.074
-454.997	249.447	-0.134	-0.228
-453.982	-200.000	0.014	0.135
-452.968	-200.000	-0.007	0.207
-451.953	-18.379	-0.245	0.153
-450.938	26.772	0.387	-0.324
-449.924	92.789	-0.006	-0.007
-448.909	-40.747	-0.092	-0.048
-447.895	-70.433	0.295	0.112
-446.880	33.442	-0.210	0.183
-445.865	585.647	-0.017	0.041
-444.851	-118.945	-0.328	-0.058
-443.836	395.899	-0.101	0.212
-442.822	-107.777	0.109	0.024
-441.807	800.000	-0.031	-0.124
-440.792	161.797	0.164	-0.230
-439.778	45.738	0.107	0.099
-438.763	-106.624	0.230	-0.051
-437.749	342.407	-0.080	-0.157
-436.734	-56.510	-0.220	0.098
-435.719	-79.776	-0.244	0.082
-434.705	38.514	0.158	0.141
-433.690	-146.426	0.268	0.023
-432.676	-200.000	0.054	0.430
-431.661	295.988	-0.053	0.097
-430.646	-155.718	-0.227	0.015
-429.632	200.016	0.208	-0.319
-428.617	-200.000	0.031	-0.160
-427.603	-43.620	0.178	-0.090
-426.588	-111.885	-0.227	-0.046
-425.573	39.833	0.209	0.188
-424.559	-200.000	-0.003	0.043
-423.544	137.992	-0.153	-0.200
-422.530	31.694	0.063	-0.055
-421.515	-200.000	-0.038	-0.414
-420.500	-144.360	0.105	-0.010
-419.486	105.089	-0.181	0.214
-418.471	-125.271	-0.249	0.038
-417.457	-130.867	0.379	0.051
-416.442	-156.059	0.092	0.006
-415.428	-19.436	0.126	0.078
-414.413	251.425	-0.083	-0.142
-413.398	800.000	0.020	0.064
-412.384	123.985	-0.091	0.114
-411.369	9.778	0.221	-0.168
-410.355	348.095	0.103	0.203
-409.340	800.000	0.131	-0.364
-408.325	-21.743	0.235	-0.143
-407.311	-200.000	0.003	-0.229
-406.296	-143.720	-0.347	0.033
-405.282	-63.087	-0.123	0.051
-404.267	563.969	0.055	-0.132
-403.252	-124.680	0.234	0.036
-402.238	-200.000	-0.040	0.483
-401.223	121.842	0.049	0.061
-400.209	663.597	-0.193	-0.496
-399.194	-7.669	0.034	-0.023
-398.179	-35.401	0.140	0.076
-397.165	-44.383	0.192	0.096
-396.150	-22.589	-0.173	0.105
-395.136	9.132	-0.233	0.176
-394.121	-149.896	0.384	0.030
-393.106	-175.103	-0.079	0.002
-392.092	64.317	-0.109	-0.109
-391.077	800.000	-0.081	0.265
-390.063	-107.675	0.230	-0.050
-389.048	-89.565	0.116	-0.034
-388.033	-28.737	-0.382	0.220
-387.019	-8.530	0.356	-0.239
-386.004	177.041	0.137	-0.199
-384.990	-40.627	-0.189	0.098
-383.975	800.000	-0.045	-0.176
-382.960	-139.736	0.086	0.009
-381.946	-200.000	-0.023	-0.316
-380.931	-43.267	0.324	-0.163
-379.917	-23.864	0.027	0.016
-378.902	-10.499	-0.030	-0.020
-377.888	185.201	-0.076	0.113
-376.873	-108.639	-0.141	0.030
-375.858	17.021	-0.127	0.101
-374.844	-200.000	0.066	0.598
-373.829	206.060	-0.218	-0.339
-372.815	-140.092	-0.252	-0.026
-371.800	45.429	0.053	0.049
-370.785	364.316	0.095	0.191
-369.771	171.448	0.176	-0.252
-368.756	70.680	0.129	-0.133
-367.742	26.136	0.114	0.095
-366.727	24.897	-0.076	0.063
-365.712	319.346	-0.062	-0.118
-364.698	-67.705	-0.205	0.080
-363.683	-50.515	-0.179	0.084
-362.669	288.871	0.038	-0.068
-361.654	30.980	0.140	0.120
-360.639	29.784	-0.095	-0.081
-359.625	-200.000	0.034	-0.162
-358.610	-200.000	0.039	0.184
-357.596	130.425	-0.298	0.380
-356.581	196.270	-0.094	0.142
-355.566	-6.487	-0.137	-0.093
-354.552	-65.820	0.079	-0.031
-353.537	791.671	-0.036	0.100
-352.523	220.829	0.195	-0.311
-351.508	-6.110	0.430	0.293
-350.493	-24.795	-0.215	-0.128
-349.479	-70.798	-0.265	-0.100
-348.464	257.940	0.241	0.414
-347.450	-200.000	-0.003	0.338
-346.435	578.736	0.070	0.172
-345.420	-18.322	0.033	-0.020
-344.406	97.472	0.202	0.232
-343.391	-131.990	-0.347	-0.045
-342.377	-77.072	-0.307	0.107
-341.362	-34.406	0.128	-0.070
-340.348	538.355	0.094	0.222
-339.333	43.235	-0.269	0.245
-338.318	-4.161	-0.122	0.084
-337.304	-118.484	-0.077	0.014
-336.289	-200.000	0.007	0.254
-335.275	-141.133	-0.348	-0.035
-334.260	-0.435	-0.153	0.108
-333.245	800.000	0.084	-0.297
-332.231	190.785	-0.145	-0.217
-331.216	189.532	-0.227	-0.339
-330.202	93.922	-0.037	0.042
-329.187	40.399	-0.203	0.182
-328.172	14.580	-0.059	-0.046
-327.158	-147.959	-0.163	0.014
-326.143	-200.000	0.051	0.261
-325.129	-200.000	0.005	-0.039
-324.114	-53.894	-0.199	-0.090
-323.099	311.140	-0.216	0.403
-322.085	115.185	-0.059	-0.072
-321.070	-44.051	0.276	-0.138
-320.056	-158.354	0.284	0.016
-319.041	-47.225	-0.206	-0.100
-318.026	-115.399	-0.123	-0.023
-317.012	320.678	0.094	0.178
-315.997	-118.979	-0.108	-0.019
-314.983	-200.000	-0.021	0.295
-313.968	-166.597	-0.269	-0.011
-312.953	-101.414	0.142	-0.035
-311.939	-200.000	-0.062	0.281
-310.924	566.282	-0.109	-0.263
-309.910	-59.744	0.208	-0.089
-308.895	228.448	0.189	0.306
-307.880	218.196	0.066	0.104
-306.866	-200.000	-0.039	-0.275
-305.851	653.084	-0.057	-0.145
-304.837	25.057	0.122	-0.101
-303.822	11.417	0.077	0.059
-302.807	-200.000	-0.007	0.197
-301.793	800.000	-0.012	-0.042
-300.778	800.000	-0.065	0.222
-299.764	4.933	0.136	-0.100
-298.749	323.941	-0.246	0.466
-297.735	770.984	0.066	-0.180
-296.720	-200.000	-0.043	-0.241
-295.705	345.176	-0.050	0.097
-294.691	-192.793	0.380	0.003
-293.676	-200.000	0.029	-0.198
-292.662	366.638	-0.140	-0.282
-291.647	103.287	-0.131	-0.153
-290.632	211.358	0.030	-0.047
-289.618	35.260	0.281	-0.245
-288.603	-200.000	-0.006	0.149
-287.589	797.324	-0.082	0.224
-286.574	-200.000	-0.031	0.138
-285.559	-91.708	-0.295	0.083
-284.545	25.210	0.167	0.138
-283.530	-200.000	-0.003	-0.049
-282.516	-9.156	-0.107	0.071
-281.501	-142.249	-0.244	0.024
-280.486	800.000	-0.100	0.291
-279.472	156.915	0.143	0.196
-278.457	124.979	0.051	-0.063
-277.443	-75.986	0.448	-0.157
-276.428	-200.000	0.011	-0.104
-275.413	-123.895	0.190	-0.030
-274.399	-200.000	0.055	0.602
-273.384	-200.000	0.053	0.392
-272.370	-123.685	0.148	-0.023
-271.355	24.248	-0.127	0.104
-270.340	-185.062	0.107	0.002
-269.326	-200.000	-0.003	0.224
-268.311	-200.000	0.063	0.444
-267.297	800.000	-0.046	-0.179
-266.282	510.626	0.132	-0.305
-265.267	623.191	-0.073	0.183
-264.253	-112.199	-0.141	0.028
-263.238	-179.879	-0.047	0.001
-262.224	230.411	-0.080	-0.131
-261.209	76.448	-0.152	-0.160
-260.195	800.000	0.034	-0.105
-259.180	800.000	0.048	-0.182
-258.165	44.223	0.208	0.190
-257.151	133.358	0.156	-0.201
-256.136	800.000	0.072	0.228
-255.122	59.511	0.177	-0.174
-254.107	263.833	0.177	0.305
-253.092	-74.292	-0.018	0.006
-252.078	-200.000	-0.011	-0.049
-251.063	-120.386	0.059	-0.010
-250.049	283.680	0.147	0.262
-249.034	24.782	-0.042	0.035
-248.019	-74.333	0.162	-0.058
-247.005	-200.000	-0.063	-0.323
-245.990	-200.000	-0.033	-0.409
-244.976	-116.357	-0.121	0.022
-243.961	18.278	0.019	0.015
-242.946	-144.943	-0.067	0.006
-241.932	407.656	-0.037	-0.078
-240.917	-41.740	-0.080	0.041
-239.903	203.811	0.070	0.108
-238.888	-7.170	0.423	0.285
-237.873	-12.493	-0.125	-0.081
-236.859	1.654	0.076	-0.054
-235.844	195.832	0.092	-0.139
-234.830	-102.483	0.344	0.082
-233.815	69.308	0.205	-0.209
-232.800	119.503	-0.147	0.180
-231.786	569.850	0.159	0.384
-230.771	-50.691	-0.362	0.169
-229.757	556.267	-0.125	-0.298
-228.742	118.554	-0.094	-0.115
-227.727	-69.194	-0.249	-0.095
-226.713	261.262	0.100	-0.172
-225.698	-65.400	0.402	-0.160
-224.684	-106.359	-0.292	0.065
-223.669	-200.000	0.002	0.375
-222.655	54.030	0.149	0.142
-221.640	800.000	-0.049	-0.185
-220.625	-56.528	-0.201	0.088
-219.611	288.147	-0.099	0.178
-218.596	306.420	-0.017	-0.032
-217.582	127.351	-0.042	-0.053
-216.567	800.000	0.038	-0.162
-215.552	207.122	-0.038	-0.059
-214.538	14.544	0.168	0.130
-213.523	48.585	0.128	-0.119
-212.509	438.959	0.102	0.220
-211.494	248.902	-0.092	0.154
-210.479	800.000	-0.076	0.302
-209.465	-34.568	0.095	0.052
-208.450	669.907	0.064	0.164
-207.436	800.000	0.092	-0.262
-206.421	-74.283	-0.279	0.100
-205.406	210.715	-0.123	-0.191
-204.392	269.833	0.084	-0.147
-203.377	800.000	0.032	0.113
-202.363	-200.000	-0.003	0.234
-201.348	29.170	-0.213	0.180
-200.333	800.000	-0.153	-0.458
-199.319	146.648	-0.196	-0.261
-198.304	-141.842	-0.347	-0.034
-197.290	-42.333	-0.074	0.037
-196.275	-97.160	0.215	0.056
-195.260	800.000	0.115	0.348
-194.246	-96.596	0.165	-0.043
-193.231	54.900	0.218	-0.209
-192.217	-71.562	-0.317	-0.117
-191.202	800.000	0.061	0.222
-190.187	763.104	-0.044	-0.118
-189.173	-200.000	-0.010	0.197
-188.158	800.000	-0.117	-0.324
-187.144	-50.396	-0.192	0.090
-186.129	315.683	-0.076	-0.141
-185.114	-45.001	-0.412	-0.203
-184.100	531.782	0.082	0.193
-183.085	294.615	-0.111	-0.201
-182.071	-200.000	-0.004	0.221
-181.056	-106.867	0.294	-0.064
-180.042	82.342	-0.112	-0.120
-179.027	-200.000	0.036	-0.202
-178.012	56.440	-0.081	0.078
-176.998	69.771	-0.285	-0.291
-175.983	-33.880	0.375	-0.204
-174.969	-26.886	0.130	-0.075
-173.954	-34.802	-0.098	-0.053
-172.939	-200.000	0.054	-0.252
-171.925	-13.244	0.246	-0.158
-170.910	-64.516	-0.409	-0.165
-169.896	-77.341	-0.500	0.172
-168.881	-44.008	0.089	0.044
-167.866	141.373	0.100	0.131
-166.852	-98.833	0.055	-0.014
-165.837	-200.000	0.025	0.256
-164.823	800.000	-0.056	0.163
-163.808	253.456	0.239	0.404
-162.793	800.000	0.074	0.238
-161.779	164.489	-0.158	0.221
-160.764	-50.936	0.253	0.118
-159.750	-26.100	0.210	0.122
-158.735	-41.615	0.363	0.185
-157.720	594.536	0.040	-0.098
-156.706	-119.513	-0.289	-0.049
-155.691	75.865	-0.110	-0.115
-154.677	800.000	-0.030	-0.097
-153.662	-100.732	-0.362	-0.088
-152.647	-200.000	0.102	0.616
-151.633	-96.542	-0.191	-0.050
-150.618	-74.250	0.295	0.105
-149.604	-94.741	0.184	-0.049
-148.589	800.000	-0.027	0.116
-147.574	-77.065	0.206	-0.071
-146.560	-178.437	-0.576	0.013
-145.545	-200.000	-0.035	0.156
-144.531	14.163	-0.304	-0.234
-143.516	243.989	-0.056	-0.093
-142.502	-200.000	0.029	0.204
-141.487	-154.215	0.138	-0.009
-140.472	-200.000	0.048	0.306
-139.458	226.233	0.143	0.229
-138.443	-145.477	0.032	0.003
-137.429	-200.000	0.009	-0.066
-136.414	-7.119	0.121	-0.081
-135.399	-200.000	-0.050	0.293
-134.385	800.000	-0.027	-0.077
-133.370	3.884	0.163	0.117
-132.356	73.936	-0.291	0.302
-131.341	198.848	-0.104	-0.157
-130.326	-175.463	0.224	-0.006
-129.312	-53.221	-0.126	0.057
-128.297	-46.822	-0.275	-0.133
-127.283	313.099	-0.050	0.094
-126.268	-57.352	0.318	-0.138
-125.253	483.224	0.060	0.135
-124.239	245.329	0.075	0.124
-123.224	50.606	0.114	-0.106
-122.210	-131.860	-0.193	-0.025
-121.195	227.796	0.141	0.227
