DTS Sentinel unit serial number:	SN413079Multiplexer serial number:	ORYXHardware model number:	OX4-SRSoftware version number:	ORYX F/W v4.00 Oryx Data Collector v3.7.2.0data status	okinstallation	princeton_trtdifferential loss correction	single-endedforward channel	channel 2reverse channel	N/Adate	2019/09/11time	18:45:11forward acquisition time	60.00reverse acquisition time	0.00gamma	496.2192k internal	0.2290k external	0.2290temperature offset calibration	1.0031default loss term (dB/km)	0.3790temperature slope calibration	1.0000multiplexer offset coefficient	1.0000multiplexer slope coefficient	1.0000fibre end	0.00T internal ref (°C)	43.22T ext. ref 1 (°C)	1.23T ext. ref 2 (°C)	35.33length (m)	temperature (°C)	Stokes	anti-Stokes-747.200	402.631	0.061	-0.132
-746.185	-200.000	-0.392	-0.001
-745.171	-200.000	-0.005	-0.235
-744.156	-200.000	0.044	0.289
-743.142	-117.512	-0.148	-0.027
-742.127	-25.852	0.179	0.108
-741.112	48.063	-0.321	0.307
-740.098	607.711	0.087	0.222
-739.083	800.000	0.117	0.395
-738.069	439.169	-0.090	0.201
-737.054	800.000	0.056	-0.166
-736.039	800.000	0.074	-0.219
-735.025	-99.794	0.261	-0.067
-734.010	-85.531	0.013	0.004
-732.996	-92.824	-0.199	0.057
-731.981	178.282	-0.098	0.146
-730.966	800.000	0.030	0.119
-729.952	-50.565	-0.356	-0.172
-728.937	769.182	-0.095	-0.266
-727.923	800.000	-0.090	-0.392
-726.908	146.160	-0.114	0.157
-725.894	-200.000	-0.004	0.120
-724.879	20.605	0.275	0.228
-723.864	54.656	-0.091	0.090
-722.850	-101.321	-0.281	-0.070
-721.835	-76.628	0.017	0.006
-720.821	-56.534	0.069	-0.031
-719.806	197.882	-0.153	-0.239
-718.791	-93.501	-0.027	0.008
-717.777	-100.131	-0.168	-0.043
-716.762	0.811	-0.267	-0.195
-715.748	-117.328	-0.276	0.051
-714.733	-169.717	-0.371	-0.014
-713.718	148.345	0.053	0.073
-712.704	-134.993	-0.111	-0.014
-711.689	-200.000	0.005	0.100
-710.675	172.739	0.048	0.071
-709.660	800.000	0.022	-0.066
-708.645	800.000	-0.054	0.202
-707.631	-200.000	0.001	-0.098
-706.616	-101.570	-0.252	-0.063
-705.602	195.694	0.196	-0.304
-704.587	28.938	0.273	-0.237
-703.572	-40.382	0.117	0.062
-702.558	98.588	0.034	-0.040
-701.543	-200.000	0.201	0.000
-700.529	455.470	-0.051	-0.115
-699.514	-50.404	0.236	0.114
-698.499	275.182	-0.143	-0.260
-697.485	623.335	-0.102	-0.262
-696.470	-85.968	-0.366	0.116
-695.456	800.000	0.094	0.337
-694.441	-93.011	-0.080	-0.023
-693.426	264.715	-0.170	-0.304
-692.412	800.000	0.054	0.166
-691.397	-161.188	-0.266	0.014
-690.383	-200.000	-0.006	-0.258
-689.368	-153.054	0.088	-0.006
-688.354	-119.255	-0.381	-0.068
-687.339	800.000	0.059	0.167
-686.324	75.075	0.065	0.070
-685.310	800.000	-0.085	0.266
-684.295	-14.011	-0.232	0.153
-683.281	-200.000	-0.002	0.031
-682.266	-63.436	-0.078	-0.033
-681.251	112.557	-0.059	0.073
-680.237	800.000	-0.086	-0.316
-679.222	168.655	0.150	-0.218
-678.208	-122.464	0.024	-0.004
-677.193	-115.296	-0.300	0.058
-676.178	-200.000	-0.044	0.248
-675.164	-200.000	-0.008	0.471
-674.149	271.111	-0.112	0.201
-673.135	66.043	-0.151	0.156
-672.120	586.581	-0.067	-0.169
-671.105	33.585	0.398	0.353
-670.091	-200.000	-0.019	-0.089
-669.076	-142.832	-0.165	0.016
-668.062	4.014	0.089	0.067
-667.047	-149.556	0.156	-0.013
-666.032	-200.000	0.038	-0.219
-665.018	400.020	0.279	-0.597
-664.003	3.029	0.132	-0.098
-662.989	-116.023	0.077	0.015
-661.974	-144.123	-0.133	0.013
-660.959	-88.222	-0.341	-0.104
-659.945	-200.000	-0.000	-0.428
-658.930	-71.350	0.207	-0.079
-657.916	-114.671	-0.328	0.064
-656.901	51.501	0.291	0.283
-655.886	-155.348	-0.339	-0.022
-654.872	-96.795	0.176	-0.047
-653.857	73.125	-0.063	0.067
-652.843	734.884	-0.065	0.177
-651.828	-179.545	-0.236	-0.005
-650.814	608.715	0.097	0.247
-649.799	-12.387	-0.081	0.054
-648.784	-63.583	0.078	0.033
-647.770	-19.414	-0.068	0.043
-646.755	42.877	-0.192	-0.179
-645.741	254.271	-0.097	-0.170
-644.726	-40.212	0.104	0.055
-643.711	-66.388	-0.109	0.044
-642.697	35.005	0.280	-0.250
-641.682	29.340	0.156	0.136
-640.668	-19.517	0.057	0.036
-639.653	293.838	0.102	-0.191
-638.638	220.260	0.083	-0.136
-637.624	16.824	-0.220	-0.177
-636.609	351.823	-0.110	-0.222
-635.595	101.131	-0.259	-0.307
-634.580	-80.439	0.233	-0.079
-633.565	-4.173	0.351	0.248
-632.551	297.958	0.024	-0.044
-631.536	-61.826	0.307	0.131
-630.522	-31.462	0.230	-0.132
-629.507	-200.000	-0.028	-0.301
-628.492	30.505	-0.305	-0.266
-627.478	800.000	-0.029	0.082
-626.463	23.333	-0.151	0.127
-625.449	138.907	0.116	-0.155
-624.434	7.033	0.226	-0.172
-623.419	-56.467	0.150	-0.068
-622.405	395.569	-0.035	0.074
-621.390	539.320	-0.086	0.209
-620.376	-200.000	-0.058	0.283
-619.361	-133.233	0.201	0.026
-618.346	800.000	-0.023	-0.070
-617.332	-200.000	0.024	-0.435
-616.317	260.531	-0.160	-0.282
-615.303	460.183	0.140	0.318
-614.288	519.167	-0.147	-0.351
-613.273	253.482	0.168	-0.292
-612.259	-174.917	-0.147	0.004
-611.244	83.885	-0.168	0.187
-610.230	-200.000	0.009	0.344
-609.215	-165.339	-0.127	-0.006
-608.201	39.644	0.107	-0.098
-607.186	538.346	0.058	-0.140
-606.171	800.000	-0.029	0.088
-605.157	-136.289	-0.097	-0.011
-604.142	-191.304	-0.067	-0.001
-603.128	-139.321	-0.045	-0.005
-602.113	206.594	0.004	0.007
-601.098	-200.000	-0.019	0.218
-600.084	-200.000	-0.060	-0.317
-599.069	-64.481	0.227	-0.094
-598.055	317.611	-0.130	0.251
-597.040	97.041	-0.242	0.283
-596.025	47.048	0.136	-0.129
-595.011	-34.642	-0.122	0.068
-593.996	-200.000	-0.003	0.075
-592.982	-34.034	-0.131	0.073
-591.967	354.152	-0.053	-0.108
-590.952	-200.000	0.077	-0.427
-589.938	327.901	-0.078	0.153
-588.923	134.622	0.193	0.254
-587.909	-200.000	-0.016	0.152
-586.894	-163.449	0.216	0.010
-585.879	-200.000	0.009	0.219
-584.865	-200.000	0.057	0.368
-583.850	-38.606	0.243	0.131
-582.836	399.038	-0.205	-0.437
-581.821	9.170	0.154	0.119
-580.806	800.000	-0.056	0.239
-579.792	58.879	-0.329	-0.329
-578.777	-59.476	-0.155	0.068
-577.763	-76.611	0.117	-0.042
-576.748	16.189	0.063	0.051
-575.733	-18.857	-0.269	0.170
-574.719	646.175	-0.074	0.193
-573.704	-67.385	0.025	0.010
-572.690	-139.227	-0.158	0.017
-571.675	-12.094	-0.074	0.049
-570.661	113.660	-0.169	0.209
-569.646	-130.844	0.265	0.036
-568.631	125.546	0.139	-0.179
-567.617	-74.776	0.228	0.083
-566.602	4.969	0.114	0.085
-565.588	237.470	-0.204	0.344
-564.573	79.665	0.069	-0.075
-563.558	-200.000	0.004	-0.252
-562.544	-200.000	-0.001	0.127
-561.529	-115.358	0.380	-0.073
-560.515	-38.334	0.135	0.073
-559.500	-166.181	0.161	-0.007
-558.485	-64.033	0.080	-0.033
-557.471	11.158	0.128	-0.099
-556.456	-157.056	-0.396	0.025
-555.442	-27.261	-0.334	0.198
-554.427	800.000	0.057	-0.177
-553.412	257.969	-0.124	-0.217
-552.398	534.693	-0.034	0.083
-551.383	-32.711	0.299	0.169
-550.369	-72.119	0.059	-0.022
-549.354	-84.182	-0.346	0.111
-548.339	-118.669	-0.143	-0.026
-547.325	-114.285	0.173	-0.034
-546.310	256.272	0.073	-0.127
-545.296	-4.661	-0.116	-0.081
-544.281	-3.623	0.128	-0.091
-543.266	36.698	-0.054	0.048
-542.252	800.000	-0.042	0.147
-541.237	800.000	-0.056	-0.217
-540.223	115.094	0.284	-0.353
-539.208	-179.960	-0.176	-0.004
-538.193	800.000	-0.083	-0.304
-537.179	-56.917	-0.257	0.115
-536.164	-200.000	-0.051	0.286
-535.150	547.601	0.064	0.156
-534.135	-18.135	-0.117	0.075
-533.121	-92.073	0.352	-0.101
-532.106	-200.000	-0.008	0.418
-531.091	-78.897	0.164	0.057
-530.077	-200.000	0.015	-0.166
-529.062	621.606	-0.091	-0.234
-528.048	-108.080	0.113	0.025
-527.033	47.316	-0.148	-0.140
-526.018	406.551	0.091	0.196
-525.004	92.305	0.192	0.220
-523.989	-37.035	-0.165	0.090
-522.975	-114.829	-0.093	-0.018
-521.960	155.925	0.066	0.092
-520.945	31.296	-0.206	0.180
-519.931	278.938	0.072	-0.130
-518.916	-27.362	0.349	0.206
-517.902	5.187	0.174	0.130
-516.887	-200.000	-0.013	0.244
-515.872	-41.269	-0.303	-0.159
-514.858	-200.000	0.066	0.310
-513.843	14.389	-0.088	-0.069
-512.829	57.391	-0.112	-0.111
-511.814	-70.691	0.332	0.127
-510.799	262.739	-0.124	-0.219
-509.785	-200.000	0.024	0.120
-508.770	800.000	0.045	0.182
-507.756	-13.927	-0.132	-0.087
-506.741	236.493	-0.099	-0.166
-505.726	107.260	-0.255	-0.308
-504.712	-4.576	-0.333	0.233
-503.697	-200.000	-0.018	0.135
-502.683	-169.130	-0.499	-0.019
-501.668	-200.000	0.039	0.340
-500.653	67.203	-0.096	-0.100
-499.639	-76.004	0.226	-0.081
-498.624	-200.000	0.050	0.239
-497.610	251.273	-0.160	0.276
-496.595	172.803	0.013	0.019
-495.581	800.000	-0.130	0.371
-494.566	-181.213	0.415	0.008
-493.551	-152.480	0.271	0.020
-492.537	800.000	-0.017	0.052
-491.522	520.743	-0.026	-0.063
-490.508	468.769	-0.122	0.277
-489.493	-7.533	-0.186	0.127
-488.478	188.286	0.292	-0.443
-487.464	800.000	0.040	0.163
-486.449	-102.984	0.103	-0.025
-485.435	120.057	0.234	-0.294
-484.420	-200.000	-0.042	0.243
-483.405	-153.459	-0.233	0.016
-482.391	-164.155	-0.401	0.019
-481.376	-154.568	0.238	0.016
-480.362	-76.442	-0.066	0.023
-479.347	800.000	0.036	-0.151
-478.332	800.000	0.050	-0.142
-477.318	-180.226	-0.157	0.003
-476.303	-124.643	0.311	0.049
-475.289	51.287	-0.069	0.067
-474.274	-102.579	-0.028	0.007
-473.259	-200.000	0.008	0.212
-472.245	-158.337	0.206	-0.012
-471.230	-200.000	0.003	0.148
-470.216	20.194	-0.269	0.220
-469.201	-64.761	0.181	0.074
-468.186	171.409	-0.158	-0.230
-467.172	-130.334	-0.237	-0.033
-466.157	-200.000	0.015	-0.318
-465.143	519.962	0.059	0.140
-464.128	-155.539	0.273	0.018
-463.113	-67.919	0.299	0.118
-462.099	135.130	-0.169	-0.223
-461.084	-15.282	-0.100	0.065
-460.070	328.467	-0.170	0.331
-459.055	66.517	0.301	0.310
-458.040	108.696	0.077	0.093
-457.026	318.439	-0.018	-0.035
-456.011	-80.808	0.327	0.110
-454.997	455.464	-0.078	0.175
-453.982	110.191	0.209	0.254
-452.968	-200.000	0.321	-0.000
-451.953	56.608	-0.251	-0.247
-450.938	-115.693	0.158	0.030
-449.924	30.638	0.244	-0.211
-448.909	-47.332	0.242	-0.119
-447.895	-108.663	0.222	0.048
-446.880	-1.387	0.211	0.151
-445.865	471.441	-0.076	0.174
-444.851	-191.283	-0.296	0.003
-443.836	-83.864	0.081	-0.026
-442.822	35.052	-0.189	0.168
-441.807	552.542	0.118	0.286
-440.792	189.961	-0.237	0.361
-439.778	800.000	0.101	0.304
-438.763	-35.213	-0.298	0.164
-437.749	-200.000	-0.028	0.131
-436.734	239.340	-0.055	-0.093
-435.719	-32.470	0.185	0.104
-434.705	-43.658	0.154	0.078
-433.690	135.903	-0.035	-0.046
-432.676	-99.428	-0.123	0.031
-431.661	553.330	0.053	-0.128
-430.646	-80.922	0.065	0.022
-429.632	86.155	0.170	-0.189
-428.617	362.530	-0.091	-0.185
-427.603	130.347	0.185	-0.240
-426.588	419.535	0.022	-0.048
-425.573	-23.713	0.139	0.085
-424.559	-200.000	-0.002	0.131
-423.544	-61.163	-0.064	-0.027
-422.530	-117.006	0.478	0.088
-421.515	7.175	0.283	-0.214
-420.500	605.529	-0.258	-0.650
-419.486	800.000	-0.044	-0.152
-418.471	461.950	0.118	-0.267
-417.457	130.615	0.194	-0.251
-416.442	-140.926	0.069	-0.007
-415.428	-124.479	-0.339	-0.053
-414.413	-57.665	0.244	-0.108
-413.398	-36.969	0.049	-0.026
-412.384	57.446	-0.190	-0.188
-411.369	-30.369	0.177	-0.102
-410.355	705.271	-0.136	-0.364
-409.340	-114.695	0.100	0.019
-408.325	642.979	-0.082	-0.210
-407.311	9.148	0.141	0.108
-406.296	413.616	-0.066	-0.142
-405.282	120.440	-0.112	-0.140
-404.267	60.940	0.133	0.134
-403.252	39.801	0.167	0.152
-402.238	671.336	-0.045	0.118
-401.223	25.191	0.233	-0.196
-400.209	-103.467	0.068	-0.016
-399.194	-49.993	-0.310	0.149
-398.179	-82.251	-0.140	-0.046
-397.165	-12.691	0.144	-0.095
-396.150	800.000	-0.026	-0.108
-395.136	105.389	0.092	0.109
-394.121	138.948	-0.137	-0.182
-393.106	800.000	-0.020	-0.057
-392.092	47.057	0.167	0.157
-391.077	-103.520	-0.287	-0.068
-390.063	239.317	0.108	0.181
-389.048	382.664	-0.145	-0.301
-388.033	-200.000	-0.006	-0.146
-387.019	302.803	-0.221	-0.412
-386.004	147.570	-0.116	-0.158
-384.990	-200.000	-0.038	0.385
-383.975	655.222	0.046	-0.120
-382.960	298.875	0.087	-0.162
-381.946	800.000	-0.077	0.312
-380.931	304.494	0.143	-0.268
-379.917	-55.242	0.127	0.058
-378.902	-16.769	0.072	-0.046
-377.888	295.483	-0.122	-0.225
-376.873	-34.084	-0.127	-0.070
-375.858	-93.822	0.318	-0.089
-374.844	-200.000	0.005	0.131
-373.829	-200.000	0.006	-0.250
-372.815	800.000	0.077	0.243
-371.800	418.091	0.062	0.134
-370.785	-149.320	0.121	0.010
-369.771	-200.000	0.020	0.256
-368.756	-134.203	-0.326	0.041
-367.742	-200.000	-0.022	-0.215
-366.727	-82.369	-0.088	-0.029
-365.712	-95.778	0.173	0.047
-364.698	-124.739	0.149	0.023
-363.683	800.000	-0.131	0.434
-362.669	-200.000	-0.011	-0.173
-361.654	510.146	-0.015	-0.036
-360.639	113.830	0.165	0.203
-359.625	151.352	0.094	0.130
-358.610	85.737	0.083	0.093
-357.596	-200.000	-0.025	-0.169
-356.581	-116.217	0.168	-0.031
-355.566	133.189	-0.097	-0.127
-354.552	46.864	-0.203	0.190
-353.537	39.934	0.145	-0.131
-352.523	-200.000	-0.004	-0.168
-351.508	45.356	-0.192	0.179
-350.493	3.886	-0.141	-0.104
-349.479	-98.771	0.163	-0.042
-348.464	-37.106	-0.192	0.104
-347.450	-183.771	-0.118	0.002
-346.435	100.093	-0.069	-0.080
-345.420	55.324	-0.071	-0.070
-344.406	14.892	0.263	-0.207
-343.391	-77.203	0.242	-0.085
-342.377	108.791	-0.053	0.064
-341.362	-82.832	0.182	-0.059
-340.348	-56.698	-0.157	0.070
-339.333	59.205	-0.217	0.215
-338.318	-110.891	-0.037	0.008
-337.304	-63.836	-0.203	-0.084
-336.289	75.614	0.074	0.079
-335.275	13.092	-0.017	-0.014
-334.260	173.632	-0.106	-0.154
-333.245	-200.000	-0.023	-0.110
-332.231	-126.386	0.211	0.032
-331.216	-16.798	0.236	0.150
-330.202	-23.155	-0.200	-0.121
-329.187	371.369	0.042	0.087
-328.172	10.925	-0.130	0.100
-327.158	800.000	-0.018	0.069
-326.143	753.925	-0.081	0.222
-325.129	-200.000	0.001	-0.029
-324.114	118.831	-0.159	0.198
-323.099	-156.588	-0.312	0.020
-322.085	-31.116	-0.127	0.072
-321.070	-200.000	-0.002	0.030
-320.056	-200.000	-0.014	-0.263
-319.041	-20.494	0.159	-0.098
-318.026	317.866	0.113	0.216
-317.012	645.853	-0.129	0.332
-315.997	800.000	-0.045	0.171
-314.983	-135.726	-0.293	-0.035
-313.968	800.000	0.119	-0.364
-312.953	800.000	-0.109	-0.347
-311.939	221.039	0.077	-0.124
-310.924	-200.000	0.019	0.189
-309.910	-52.643	-0.241	-0.112
-308.895	47.072	0.291	-0.273
-307.880	782.179	-0.064	0.178
-306.866	-74.169	-0.192	0.070
-305.851	346.402	0.092	-0.183
-304.837	-140.488	-0.271	-0.028
-303.822	800.000	-0.059	-0.256
-302.807	800.000	-0.139	-0.503
-301.793	-200.000	0.009	-0.092
-300.778	-57.080	0.155	-0.069
-299.764	-53.365	-0.093	0.043
-298.749	-99.459	-0.158	-0.040
-297.735	-200.000	0.016	-0.161
-296.720	-54.244	-0.045	0.021
-295.705	233.973	-0.170	0.282
-294.691	800.000	0.110	-0.309
-293.676	29.909	0.034	-0.029
-292.662	-97.429	0.283	0.074
-291.647	-85.667	0.205	-0.064
-290.632	797.882	-0.028	0.078
-289.618	800.000	0.137	-0.543
-288.603	800.000	0.075	0.282
-287.589	-117.929	-0.363	-0.065
-286.574	-76.631	0.166	0.059
-285.559	-122.207	-0.315	0.052
-284.545	-18.809	-0.158	0.099
-283.530	-200.000	0.051	-0.363
-282.516	-31.327	-0.459	-0.260
-281.501	-138.851	-0.179	-0.020
-280.486	431.432	0.124	0.270
-279.472	239.960	-0.059	0.098
-278.457	-106.578	0.118	0.027
-277.443	-77.060	0.223	0.078
-276.428	5.950	0.100	-0.074
-275.413	-200.000	0.029	0.286
-274.399	68.502	-0.063	-0.065
-273.384	-78.799	-0.208	0.071
-272.370	116.079	-0.119	-0.146
-271.355	-200.000	-0.017	0.211
-270.340	800.000	0.032	0.128
-269.326	24.222	0.181	0.150
-268.311	400.557	0.108	-0.228
-267.297	255.060	0.083	0.143
-266.282	380.095	0.164	-0.338
-265.267	-52.066	0.153	0.071
-264.253	-31.462	-0.218	0.123
-263.238	157.460	0.219	0.305
-262.224	800.000	-0.041	0.167
-261.209	-200.000	-0.038	0.337
-260.195	-131.206	-0.215	-0.029
-259.180	131.589	-0.290	0.375
-258.165	66.541	-0.185	0.189
-257.151	196.545	-0.023	-0.036
-256.136	-200.000	-0.017	-0.149
-255.122	-200.000	-0.051	-0.302
-254.107	13.922	0.149	-0.117
-253.092	28.473	-0.116	0.098
-252.078	57.682	0.098	-0.096
-251.063	0.040	-0.184	-0.132
-250.049	-200.000	-0.046	-0.292
-249.034	45.693	0.219	0.204
-248.019	-200.000	0.012	0.068
-247.005	-115.395	0.108	0.021
-245.990	226.997	-0.142	-0.231
-244.976	275.496	0.125	0.224
-243.961	5.121	-0.224	-0.166
-242.946	-200.000	0.032	-0.145
-241.932	-200.000	0.012	-0.170
-240.917	364.178	-0.068	-0.137
-239.903	50.619	-0.110	-0.105
-238.888	-65.473	-0.153	-0.062
-237.873	-185.985	0.296	0.004
-236.859	-97.330	0.235	-0.061
-235.844	-200.000	-0.017	-0.231
-234.830	123.715	-0.073	0.092
-233.815	118.217	-0.061	0.076
-232.800	-124.959	0.080	0.012
-231.786	314.188	0.215	0.407
-230.771	-34.899	0.462	-0.253
-229.757	-1.535	0.067	0.048
-228.742	-200.000	-0.000	-0.059
-227.727	-13.715	-0.138	0.090
-226.713	19.386	0.230	0.186
-225.698	800.000	-0.026	0.093
-224.684	-46.071	0.185	-0.092
-223.669	-200.000	0.051	0.251
-222.655	-152.237	0.193	0.014
-221.640	-81.682	0.165	0.054
-220.625	-10.143	0.327	-0.218
-219.611	-127.603	0.244	0.035
-218.596	-195.014	-0.091	-0.001
-217.582	-158.667	-0.179	-0.010
-216.567	-200.000	0.027	-0.246
-215.552	-118.918	0.096	-0.017
-214.538	-120.507	0.141	0.024
-213.523	213.439	0.075	-0.118
-212.509	-109.176	-0.308	-0.066
-211.494	-135.787	0.162	-0.019
-210.479	-23.886	-0.299	-0.179
-209.465	417.160	0.141	-0.301
-208.450	-200.000	-0.016	0.285
-207.436	-200.000	-0.021	0.279
-206.421	10.851	-0.176	0.135
-205.406	112.649	0.166	-0.201
-204.392	143.144	-0.233	0.311
-203.377	26.258	0.246	-0.206
-202.363	-200.000	-0.034	-0.325
-201.348	-87.912	0.345	-0.104
-200.333	176.180	-0.283	0.412
-199.319	-200.000	0.002	-0.324
-198.304	-74.597	-0.180	0.065
-197.290	-57.310	-0.044	0.019
-196.275	13.115	-0.406	-0.315
-195.260	72.448	-0.149	0.156
-194.246	65.850	-0.347	-0.353
-193.231	75.541	0.105	-0.111
-192.217	24.044	0.054	0.044
-191.202	-200.000	-0.012	0.314
-190.187	-150.404	0.217	-0.017
-189.173	-12.729	-0.217	-0.142
-188.158	34.073	0.086	0.075
-187.144	22.615	-0.163	0.134
-186.129	189.185	-0.098	0.147
-185.114	-152.765	0.126	0.009
-184.100	-61.614	-0.116	0.049
-183.085	36.116	0.317	-0.280
-182.071	388.236	-0.072	0.150
-181.056	-82.730	-0.301	0.097
-180.042	-20.042	0.413	0.255
-179.027	800.000	0.125	0.345
-178.012	-107.355	-0.282	0.062
-176.998	463.677	-0.085	-0.191
-175.983	-169.184	-0.381	0.014
-174.969	-200.000	-0.073	0.324
-173.954	-71.257	0.214	0.081
-172.939	800.000	0.016	0.069
-171.925	-27.107	0.294	-0.172
-170.910	117.508	-0.148	-0.182
-169.896	-60.458	-0.073	-0.031
-168.881	-70.984	0.125	-0.047
-167.866	520.065	-0.102	-0.239
-166.852	199.014	0.153	0.234
-165.837	-200.000	-0.026	0.556
-164.823	-59.184	0.045	0.020
-163.808	237.362	0.062	0.103
-162.793	-148.296	-0.563	0.046
-161.779	179.383	-0.093	0.136
-160.764	504.399	-0.031	-0.072
-159.750	-48.041	0.286	-0.138
-158.735	-35.378	-0.357	0.194
-157.720	658.601	0.073	0.188
-156.706	-157.513	-0.048	0.003
-155.691	74.384	-0.043	0.045
-154.677	-200.000	-0.029	0.256
-153.662	-200.000	-0.011	-0.160
-152.647	63.582	-0.284	-0.286
-151.633	302.302	0.194	-0.360
-150.618	-129.458	-0.297	-0.041
-149.604	684.753	-0.050	-0.130
-148.589	-186.635	-0.426	0.006
-147.574	-97.968	-0.012	-0.003
-146.560	366.838	-0.018	0.035
-145.545	130.264	-0.114	-0.146
-144.531	-200.000	0.012	-0.323
-143.516	-3.185	0.133	0.093
-142.502	-92.533	0.297	0.084
-141.487	676.513	0.095	-0.248
-140.472	25.717	-0.242	-0.202
-139.458	206.195	-0.139	0.217
-138.443	439.886	0.179	-0.391
-137.429	384.433	-0.076	-0.157
-136.414	-124.997	0.183	-0.028
-135.399	28.390	0.224	-0.189
-134.385	-200.000	-0.065	-0.413
-133.370	-200.000	0.060	0.385
-132.356	-60.794	0.121	-0.051
-131.341	196.595	-0.117	-0.179
-130.326	1.008	0.100	0.072
-129.312	-49.918	0.485	0.230
-128.297	98.024	-0.214	0.246
-127.283	65.535	-0.233	-0.236
-126.268	35.290	-0.072	-0.063
-125.253	457.685	-0.094	0.208
-124.239	-35.467	0.150	0.082
-123.224	-3.107	-0.181	0.126
-122.210	800.000	0.032	-0.100
-121.195	48.346	0.070	-0.065
