DTS Sentinel unit serial number:	SN413079Multiplexer serial number:	ORYXHardware model number:	OX4-SRSoftware version number:	ORYX F/W v4.00 Oryx Data Collector v3.7.2.0data status	okinstallation	princeton_trtdifferential loss correction	single-endedforward channel	channel 2reverse channel	N/Adate	2019/09/19time	09:07:35forward acquisition time	60.00reverse acquisition time	0.00gamma	496.2192k internal	0.2352k external	0.2352temperature offset calibration	0.9996default loss term (dB/km)	0.3790temperature slope calibration	1.0000multiplexer offset coefficient	1.0000multiplexer slope coefficient	1.0000fibre end	0.00T internal ref (°C)	21.81T ext. ref 1 (°C)	0.59T ext. ref 2 (°C)	18.89length (m)	temperature (°C)	Stokes	anti-Stokes-747.200	37.117	-0.161	0.142
-746.185	-200.000	-0.038	0.487
-745.171	-200.000	0.001	0.372
-744.156	-25.486	-0.253	0.149
-743.142	-41.648	-0.405	-0.208
-742.127	-200.000	-0.013	0.402
-741.112	2.735	0.204	-0.148
-740.098	-200.000	-0.024	0.170
-739.083	275.265	-0.201	-0.356
-738.069	-45.225	-0.170	0.084
-737.054	666.664	0.059	0.152
-736.039	-29.840	-0.277	0.157
-735.025	-200.000	0.047	0.289
-734.010	67.413	-0.279	-0.284
-732.996	163.269	0.131	0.184
-731.981	-200.000	0.012	0.444
-730.966	-150.325	0.174	0.013
-729.952	-129.833	-0.309	0.042
-728.937	439.051	0.095	-0.206
-727.923	-34.999	0.161	-0.087
-726.908	257.325	-0.104	0.179
-725.894	-200.000	0.004	0.104
-724.879	-200.000	0.001	-0.333
-723.864	-109.621	-0.356	0.075
-722.850	-28.369	0.081	0.047
-721.835	64.918	0.174	-0.175
-720.821	-86.621	-0.183	-0.056
-719.806	-23.098	0.371	-0.223
-718.791	194.425	-0.147	-0.222
-717.777	21.080	0.085	0.068
-716.762	-40.357	-0.464	0.240
-715.748	-200.000	-0.070	-0.473
-714.733	21.306	-0.038	0.031
-713.718	-200.000	-0.015	0.125
-712.704	-113.915	0.124	0.024
-711.689	-158.391	-0.071	0.004
-710.675	-200.000	-0.007	-0.463
-709.660	-62.505	-0.108	0.045
-708.645	-200.000	-0.002	-0.198
-707.631	630.407	-0.048	-0.122
-706.616	800.000	0.065	-0.183
-705.602	50.615	-0.247	-0.233
-704.587	12.000	0.134	0.102
-703.572	-91.880	-0.154	-0.044
-702.558	301.272	0.091	0.167
-701.543	-32.108	-0.183	-0.102
-700.529	28.866	-0.076	-0.064
-699.514	-128.081	0.159	0.023
-698.499	-16.838	-0.227	0.143
-697.485	800.000	-0.116	0.450
-696.470	800.000	0.043	-0.130
-695.456	800.000	-0.097	-0.303
-694.441	181.343	-0.086	0.126
-693.426	-24.131	-0.147	0.087
-692.412	38.473	0.074	-0.066
-691.397	-70.575	-0.259	-0.098
-690.383	19.805	0.208	0.167
-689.368	-79.447	-0.310	0.104
-688.354	79.888	0.186	0.199
-687.339	800.000	0.086	0.291
-686.324	-45.876	0.244	-0.120
-685.310	800.000	0.058	0.225
-684.295	-88.457	-0.240	-0.071
-683.281	-200.000	-0.002	0.089
-682.266	89.913	-0.197	-0.219
-681.251	234.177	-0.066	0.108
-680.237	-200.000	0.003	-0.262
-679.222	-72.254	-0.170	-0.063
-678.208	-200.000	-0.015	-0.122
-677.193	275.975	-0.050	-0.088
-676.178	-44.813	0.031	-0.016
-675.164	108.119	-0.016	0.020
-674.149	-12.177	0.114	0.074
-673.135	-110.495	0.158	-0.033
-672.120	-95.296	-0.100	-0.027
-671.105	189.523	0.086	-0.129
-670.091	-162.551	-0.348	0.017
-669.076	92.201	-0.185	-0.207
-668.062	92.478	-0.198	-0.222
-667.047	156.548	0.109	0.150
-666.032	68.511	-0.219	-0.224
-665.018	-106.514	-0.313	0.069
-664.003	143.492	-0.024	-0.032
-662.989	285.184	0.169	-0.303
-661.974	176.968	0.153	-0.222
-660.959	39.477	0.114	0.102
-659.945	710.466	-0.035	0.091
-658.930	180.525	0.068	0.099
-657.916	-55.981	-0.049	0.022
-656.901	-12.339	-0.045	-0.029
-655.886	-34.669	0.138	0.075
-654.872	-78.633	0.385	-0.131
-653.857	-60.952	0.245	-0.103
-652.843	39.050	0.073	-0.065
-651.828	-186.015	0.110	-0.002
-650.814	800.000	-0.025	0.089
-649.799	-200.000	-0.011	0.111
-648.784	20.123	-0.183	0.147
-647.770	277.549	0.061	-0.108
-646.755	15.205	-0.385	0.300
-645.741	500.963	0.120	-0.274
-644.726	-38.755	0.340	-0.178
-643.711	117.314	-0.198	-0.241
-642.697	418.297	0.103	-0.220
-641.682	58.858	0.111	-0.108
-640.668	576.844	0.163	0.396
-639.653	-48.254	-0.137	0.066
-638.638	-27.602	-0.284	-0.164
-637.624	-87.912	-0.315	-0.094
-636.609	78.014	0.127	0.135
-635.595	9.869	0.156	0.118
-634.580	231.382	-0.092	-0.150
-633.565	81.546	0.094	0.101
-632.551	-104.601	0.165	0.038
-631.536	167.385	-0.091	-0.129
-630.522	65.210	0.221	0.221
-629.507	-54.835	0.054	-0.024
-628.492	800.000	-0.065	0.187
-627.478	686.030	0.075	0.196
-626.463	-42.615	0.210	0.106
-625.449	-58.846	-0.155	-0.066
-624.434	-117.701	-0.208	0.037
-623.419	35.760	0.035	0.031
-622.405	-73.708	-0.176	-0.064
-621.390	71.642	-0.109	-0.112
-620.376	33.915	-0.132	0.114
-619.361	161.797	0.270	0.376
-618.346	212.142	-0.101	0.157
-617.332	-53.647	-0.262	-0.119
-616.317	-200.000	-0.015	-0.197
-615.303	-134.612	0.365	-0.044
-614.288	541.833	-0.152	0.360
-613.273	39.719	-0.281	-0.250
-612.259	-156.008	-0.300	-0.019
-611.244	-47.193	-0.074	0.036
-610.230	-169.094	0.158	-0.006
-609.215	-75.031	-0.199	0.071
-608.201	-120.290	0.141	-0.024
-607.186	-200.000	-0.032	-0.319
-606.171	-57.043	-0.238	-0.104
-605.157	315.949	-0.084	-0.158
-604.142	-120.631	-0.045	-0.008
-603.128	-200.000	-0.002	0.148
-602.113	-14.067	0.112	-0.072
-601.098	-149.163	-0.127	-0.010
-600.084	2.625	-0.190	0.136
-599.069	-68.592	0.276	0.106
-598.055	-92.952	0.172	0.048
-597.040	51.317	-0.154	0.145
-596.025	800.000	-0.012	0.033
-595.011	-117.110	-0.126	-0.023
-593.996	-162.067	0.172	0.009
-592.982	-200.000	-0.015	-0.111
-591.967	-54.121	0.099	-0.045
-590.952	-200.000	0.011	0.128
-589.938	-41.565	0.096	-0.049
-588.923	57.047	0.113	-0.109
-587.909	-200.000	0.025	0.130
-586.894	800.000	-0.060	-0.225
-585.879	170.254	-0.205	-0.290
-584.865	70.352	0.399	-0.409
-583.850	430.221	-0.180	-0.387
-582.836	160.599	-0.047	0.065
-581.821	-184.469	0.191	0.003
-580.806	-200.000	0.003	0.115
-579.792	-148.575	0.096	-0.008
-578.777	-37.883	-0.386	-0.203
-577.763	165.386	-0.303	-0.424
-576.748	-62.038	0.358	0.148
-575.733	-63.127	0.269	-0.110
-574.719	98.036	0.246	0.281
-573.704	-6.550	0.261	-0.176
-572.690	-131.341	0.324	0.042
-571.675	-32.770	-0.298	0.164
-570.661	-31.515	0.102	-0.057
-569.646	-29.242	-0.397	0.225
-568.631	800.000	0.048	0.137
-567.617	-120.367	-0.378	0.064
-566.602	-53.791	0.091	-0.041
-565.588	192.745	-0.052	-0.078
-564.573	-200.000	-0.021	0.234
-563.558	48.399	0.114	-0.106
-562.544	53.081	-0.114	-0.108
-561.529	-126.948	0.355	0.052
-560.515	81.099	-0.046	0.049
-559.500	-86.633	-0.067	0.020
-558.485	-8.421	-0.162	0.108
-557.471	-51.242	-0.114	0.053
-556.456	-200.000	-0.032	0.437
-555.442	-39.181	-0.254	0.132
-554.427	-117.573	0.227	-0.041
-553.412	-39.674	-0.271	-0.140
-552.398	-200.000	0.020	-0.102
-551.383	-76.492	0.020	-0.007
-550.369	6.755	0.344	-0.253
-549.354	800.000	-0.073	0.305
-548.339	-200.000	-0.009	-0.213
-547.325	800.000	0.069	-0.279
-546.310	-200.000	0.041	0.305
-545.296	-64.727	-0.104	0.042
-544.281	-200.000	0.075	0.456
-543.266	10.987	-0.076	0.057
-542.252	-118.415	-0.310	0.054
-541.237	800.000	0.032	0.098
-540.223	45.645	0.001	-0.001
-539.208	-171.810	0.189	-0.006
-538.193	-58.834	0.347	0.149
-537.179	-77.686	0.136	-0.046
-536.164	-35.357	-0.213	-0.115
-535.150	-200.000	-0.017	0.167
-534.135	54.474	-0.287	0.274
-533.121	-64.806	0.485	0.194
-532.106	-17.861	0.350	-0.217
-531.091	-112.283	-0.471	0.093
-530.077	-200.000	0.011	-0.075
-529.062	-40.928	-0.041	0.021
-528.048	77.611	-0.155	0.163
-527.033	178.112	0.075	0.108
-526.018	224.495	-0.218	0.349
-525.004	-40.892	-0.118	0.060
-523.989	-1.738	-0.060	-0.042
-522.975	778.603	-0.042	-0.114
-521.960	800.000	-0.091	0.261
-520.945	-164.816	0.260	0.012
-519.931	228.527	-0.072	-0.115
-518.916	228.172	-0.040	-0.064
-517.902	-101.254	0.022	-0.005
-516.887	748.639	0.109	-0.290
-515.872	-119.257	-0.198	-0.034
-514.858	-47.482	-0.230	0.111
-513.843	-106.002	0.349	-0.078
-512.829	-200.000	-0.004	-0.144
-511.814	-56.422	-0.313	-0.137
-510.799	363.499	0.028	-0.057
-509.785	63.662	-0.149	0.148
-508.770	-3.243	-0.192	0.133
-507.756	-200.000	-0.019	-0.131
-506.741	800.000	-0.038	-0.120
-505.726	105.059	-0.081	-0.095
-504.712	513.264	0.151	0.348
-503.697	-32.890	-0.370	-0.203
-502.683	-200.000	-0.007	-0.038
-501.668	-6.813	-0.106	0.071
-500.653	-148.597	0.251	-0.020
-499.639	-200.000	-0.008	-0.315
-498.624	-4.935	-0.233	-0.158
-497.610	800.000	-0.035	0.111
-496.595	-200.000	0.084	0.481
-495.581	-55.754	-0.154	-0.068
-494.566	-38.106	-0.250	-0.131
-493.551	-200.000	-0.018	0.502
-492.537	-63.021	0.237	0.097
-491.522	-49.707	-0.297	0.139
-490.508	-84.794	0.665	0.207
-489.493	54.132	0.235	0.223
-488.478	339.115	-0.162	-0.312
-487.464	800.000	0.109	0.440
-486.449	-0.921	-0.081	0.057
-485.435	-200.000	0.012	0.244
-484.420	-140.036	-0.348	0.036
-483.405	501.239	0.099	-0.227
-482.391	72.856	-0.176	0.181
-481.376	195.670	0.108	0.163
-480.362	223.049	-0.165	-0.263
-479.347	-121.063	0.212	0.035
-478.332	-200.000	-0.000	0.329
-477.318	65.538	0.103	-0.103
-476.303	800.000	0.034	0.141
-475.289	-56.175	0.063	-0.028
-474.274	-200.000	-0.015	-0.449
-473.259	-200.000	0.024	-0.222
-472.245	510.710	-0.051	0.117
-471.230	583.642	0.083	0.201
-470.216	474.445	-0.087	-0.193
-469.201	176.190	0.038	-0.054
-468.186	-200.000	-0.024	0.218
-467.172	-200.000	0.013	0.066
-466.157	-43.375	0.212	-0.106
-465.143	-84.382	-0.390	0.122
-464.128	-90.973	0.033	-0.009
-463.113	335.770	-0.189	0.363
-462.099	458.290	-0.147	-0.323
-461.084	800.000	-0.025	0.098
-460.070	-200.000	-0.036	0.198
-459.055	-80.047	0.298	0.099
-458.040	-9.003	0.120	-0.079
-457.026	208.385	-0.092	0.142
-456.011	-129.670	-0.353	-0.048
-454.997	-200.000	0.032	0.158
-453.982	-20.206	0.347	0.211
-452.968	-65.151	-0.170	-0.068
-451.953	-200.000	0.030	0.310
-450.938	800.000	0.016	-0.052
-449.924	311.427	0.039	-0.072
-448.909	58.241	0.125	0.120
-447.895	-200.000	0.023	0.143
-446.880	-9.449	-0.333	-0.219
-445.865	-51.728	0.211	-0.097
-444.851	-200.000	-0.122	-0.661
-443.836	-72.870	-0.181	0.066
-442.822	531.684	-0.046	0.108
-441.807	317.561	-0.257	0.479
-440.792	-142.511	0.158	0.015
-439.778	800.000	0.095	0.317
-438.763	353.320	-0.049	-0.097
-437.749	-27.909	-0.289	-0.165
-436.734	-59.578	0.068	-0.029
-435.719	-21.082	-0.307	0.185
-434.705	163.496	0.276	0.383
-433.690	-189.854	0.216	-0.002
-432.676	-127.983	-0.316	0.045
-431.661	-88.760	0.105	-0.031
-430.646	-71.104	-0.074	-0.028
-429.632	213.403	-0.258	-0.402
-428.617	18.720	-0.212	0.167
-427.603	-16.367	0.178	0.111
-426.588	-3.840	0.196	-0.134
-425.573	-87.344	0.392	-0.117
-424.559	-41.149	-0.323	0.164
-423.544	-103.726	0.271	0.063
-422.530	345.674	-0.070	0.135
-421.515	291.682	0.164	-0.295
-420.500	-115.781	-0.089	0.016
-419.486	9.526	-0.208	0.155
-418.471	225.743	-0.096	-0.153
-417.457	-148.160	-0.086	-0.007
-416.442	190.178	0.108	-0.160
-415.428	113.345	-0.058	0.069
-414.413	-89.246	0.142	0.041
-413.398	-200.000	0.028	0.214
-412.384	18.286	0.183	0.144
-411.369	-200.000	0.035	0.168
-410.355	128.817	-0.085	0.106
-409.340	-200.000	0.039	-0.211
-408.325	454.049	-0.021	0.046
-407.311	-56.657	0.123	0.054
-406.296	-127.071	0.139	0.020
-405.282	-200.000	0.005	-0.208
-404.267	108.764	0.148	0.174
-403.252	24.028	-0.223	0.181
-402.238	99.927	0.040	-0.045
-401.223	-112.068	-0.184	-0.037
-400.209	-200.000	0.009	0.087
-399.194	89.896	-0.080	0.088
-398.179	144.521	-0.116	-0.152
-397.165	231.710	0.185	0.298
-396.150	-200.000	0.003	-0.128
-395.136	-164.714	0.304	0.013
-394.121	294.295	0.148	0.266
-393.106	51.784	-0.176	-0.165
-392.092	46.084	0.242	-0.221
-391.077	96.274	0.154	0.173
-390.063	-200.000	-0.376	-0.000
-389.048	-31.376	-0.145	0.080
-388.033	-200.000	0.033	-0.169
-387.019	-0.270	0.278	-0.194
-386.004	-72.928	-0.324	-0.117
-384.990	-79.585	-0.302	-0.100
-383.975	262.922	-0.097	-0.166
-382.960	-64.860	0.460	-0.183
-381.946	-200.000	-0.002	0.073
-380.931	-32.847	-0.255	-0.139
-379.917	36.047	0.244	0.212
-378.902	55.812	0.158	-0.151
-377.888	33.151	0.350	-0.298
-376.873	-0.759	0.042	0.029
-375.858	800.000	0.046	-0.126
-374.844	-9.480	-0.095	-0.063
-373.829	118.296	-0.032	-0.039
-372.815	-119.978	0.043	0.007
-371.800	-77.584	-0.209	-0.071
-370.785	622.726	-0.057	0.141
-369.771	-185.204	-0.251	-0.004
-368.756	133.557	0.087	0.111
-367.742	-157.088	-0.173	-0.010
-366.727	193.661	-0.124	-0.184
-365.712	-149.811	-0.137	0.011
-364.698	45.494	0.105	-0.095
-363.683	-155.938	-0.283	0.018
-362.669	27.039	-0.150	0.124
-361.654	493.645	0.069	-0.156
-360.639	-200.000	0.039	0.210
-359.625	-200.000	0.003	-0.178
-358.610	-78.746	-0.155	0.052
-357.596	118.483	0.110	0.133
-356.581	15.497	-0.091	-0.070
-355.566	-98.380	0.088	-0.022
-354.552	-148.789	0.169	0.013
-353.537	-99.313	-0.182	-0.045
-352.523	-115.643	-0.093	-0.017
-351.508	-191.252	0.268	0.003
-350.493	32.585	0.263	0.223
-349.479	19.548	0.179	0.142
-348.464	-200.000	-0.036	-0.217
-347.450	-64.511	0.294	0.117
-346.435	304.274	-0.058	0.105
-345.420	268.192	0.044	0.076
-344.406	-63.015	-0.318	-0.129
-343.391	-24.241	-0.226	-0.132
-342.377	29.763	-0.018	-0.015
-341.362	-77.674	-0.312	0.106
-340.348	-98.560	0.048	-0.012
-339.333	800.000	0.069	0.217
-338.318	588.735	-0.111	-0.267
-337.304	131.021	0.242	0.305
-336.289	-11.553	-0.159	-0.103
-335.275	-136.658	-0.071	0.008
-334.260	243.985	0.118	0.194
-333.245	-57.248	0.041	0.018
-332.231	-200.000	0.035	0.227
-331.216	220.144	0.061	-0.096
-330.202	141.551	-0.177	0.230
-329.187	11.394	0.211	-0.159
-328.172	-200.000	-0.019	0.115
-327.158	-200.000	-0.022	0.111
-326.143	800.000	-0.051	0.191
-325.129	3.348	-0.057	0.041
-324.114	111.209	0.255	-0.302
-323.099	266.360	-0.197	-0.338
-322.085	-29.725	-0.159	0.089
-321.070	67.356	0.218	-0.218
-320.056	-200.000	-0.037	0.172
-319.041	334.695	-0.112	0.213
-318.026	-174.021	-0.120	-0.003
-317.012	763.959	0.130	-0.346
-315.997	219.637	0.194	-0.305
-314.983	13.133	0.299	0.227
-313.968	-67.537	-0.093	-0.036
-312.953	764.568	-0.066	-0.175
-311.939	209.219	0.110	-0.169
-310.924	8.137	0.142	-0.105
-309.910	800.000	0.046	-0.194
-308.895	271.323	-0.176	0.305
-307.880	800.000	-0.056	0.194
-306.866	20.795	0.166	-0.131
-305.851	19.827	-0.028	0.022
-304.837	-92.043	-0.048	-0.013
-303.822	800.000	-0.061	-0.201
-302.807	0.336	-0.055	0.039
-301.793	-103.166	0.391	-0.091
-300.778	800.000	-0.031	0.129
-299.764	-67.853	0.253	-0.097
-298.749	5.907	-0.615	-0.446
-297.735	-160.479	0.228	0.012
-296.720	-200.000	0.010	0.168
-295.705	106.749	0.099	0.115
-294.691	253.466	-0.048	0.081
-293.676	-200.000	0.002	0.253
-292.662	109.757	-0.059	0.069
-291.647	-200.000	-0.128	0.573
-290.632	-200.000	0.032	-0.248
-289.618	-88.745	0.196	0.057
-288.603	14.952	-0.070	-0.054
-287.589	-147.024	-0.272	0.023
-286.574	-181.014	0.436	-0.009
-285.559	-125.361	0.357	0.053
-284.545	-40.756	-0.208	-0.105
-283.530	800.000	-0.046	0.149
-282.516	-74.799	-0.067	0.023
-281.501	-53.096	-0.364	-0.164
-280.486	-183.399	0.181	-0.003
-279.472	-200.000	-0.013	-0.195
-278.457	7.432	0.173	-0.127
-277.443	74.070	-0.176	-0.181
-276.428	-76.651	0.108	-0.037
-275.413	206.028	0.164	0.249
-274.399	-73.760	-0.375	0.134
-273.384	-200.000	-0.026	0.158
-272.370	800.000	0.067	0.279
-271.355	184.500	-0.206	0.299
-270.340	-88.032	0.081	0.024
-269.326	65.012	-0.348	-0.345
-268.311	-90.706	0.271	0.077
-267.297	-162.181	-0.337	-0.017
-266.282	-200.000	0.005	0.232
-265.267	360.045	0.135	0.264
-264.253	-20.250	-0.345	-0.208
-263.238	800.000	0.075	-0.216
-262.224	-90.993	0.216	0.061
-261.209	-200.000	-0.001	0.051
-260.195	-42.641	-0.336	-0.167
-259.180	276.259	0.088	-0.153
-258.165	185.415	0.064	-0.093
-257.151	-89.175	0.316	-0.091
-256.136	-200.000	-0.019	0.304
-255.122	346.443	0.124	-0.238
-254.107	103.520	-0.078	0.090
-253.092	50.389	-0.142	-0.131
-252.078	19.945	-0.105	0.083
-251.063	-200.000	0.004	-0.047
-250.049	-200.000	0.004	0.136
-249.034	-50.424	-0.449	0.207
-248.019	-156.429	0.150	-0.009
-247.005	-46.056	-0.367	-0.177
-245.990	-73.647	0.357	-0.127
-244.976	-200.000	0.019	-0.303
-243.961	45.824	0.188	0.170
-242.946	-128.318	0.100	0.014
-241.932	-56.960	-0.130	0.056
-240.917	0.209	-0.082	0.057
-239.903	18.391	0.181	0.141
-238.888	31.408	0.185	0.155
-237.873	126.505	-0.122	-0.151
-236.859	464.426	0.126	0.275
-235.844	-38.628	0.051	-0.027
-234.830	3.767	-0.126	0.090
-233.815	-93.004	0.273	0.074
-232.800	-80.957	-0.291	0.094
-231.786	-5.653	-0.336	-0.225
-230.771	8.733	0.337	0.248
-229.757	32.879	-0.165	0.140
-228.742	-200.000	-0.046	-0.222
-227.727	-144.873	-0.141	-0.013
-226.713	-169.642	0.399	-0.014
-225.698	398.444	0.124	-0.254
-224.684	-15.753	-0.030	0.019
-223.669	792.209	-0.143	-0.385
-222.655	-200.000	0.004	0.088
-221.640	132.013	0.256	-0.322
-220.625	-200.000	0.042	-0.353
-219.611	800.000	0.053	0.203
-218.596	3.926	-0.320	0.228
-217.582	800.000	0.108	-0.312
-216.567	-111.393	0.251	-0.050
-215.552	-200.000	-0.058	-0.465
-214.538	-180.075	-0.163	0.003
-213.523	1.289	-0.179	0.125
-212.509	-96.952	-0.182	-0.046
-211.494	52.835	0.307	-0.287
-210.479	800.000	-0.040	0.132
-209.465	-200.000	0.040	-0.221
-208.450	-157.504	0.236	-0.014
-207.436	104.359	0.121	-0.139
-206.421	-200.000	0.010	0.050
-205.406	-140.939	0.169	0.017
-204.392	33.847	0.117	-0.100
-203.377	-117.184	0.255	-0.045
-202.363	-200.000	0.033	0.158
-201.348	13.643	-0.164	-0.124
-200.333	-14.120	0.120	-0.076
-199.319	-153.331	-0.054	-0.004
-198.304	800.000	0.040	-0.169
-197.290	26.553	0.122	0.100
-196.275	114.823	0.216	-0.257
-195.260	383.431	0.087	-0.174
-194.246	-11.956	0.119	-0.076
-193.231	-200.000	0.010	0.290
-192.217	112.302	0.188	-0.222
-191.202	-50.807	-0.322	0.148
-190.187	-200.000	-0.069	-0.628
-189.173	246.163	0.077	0.126
-188.158	-124.669	-0.107	0.016
-187.144	-200.000	0.025	-0.143
-186.129	410.254	-0.060	0.123
-185.114	175.944	-0.137	0.195
-184.100	343.556	0.152	-0.290
-183.085	80.562	0.101	0.106
-182.071	-93.308	0.178	-0.048
-181.056	-117.133	0.434	-0.077
-180.042	9.886	0.164	0.121
-179.027	310.513	-0.047	-0.086
-178.012	188.128	0.284	-0.415
-176.998	195.335	0.176	-0.260
-175.983	263.628	-0.077	-0.130
-174.969	184.437	0.171	0.247
-173.954	44.379	0.088	0.079
-172.939	-33.291	-0.244	0.132
-171.925	800.000	-0.074	0.253
-170.910	-200.000	0.047	0.308
-169.896	-200.000	-0.011	-0.323
-168.881	501.621	-0.019	0.042
-167.866	800.000	0.137	0.384
-166.852	154.335	-0.159	-0.213
-165.837	-200.000	-0.015	-0.139
-164.823	387.450	-0.096	-0.194
-163.808	20.064	-0.099	-0.078
-162.793	-200.000	0.027	0.124
-161.779	-18.340	0.071	-0.043
-160.764	196.710	0.059	-0.087
-159.750	-200.000	0.019	-0.241
-158.735	79.823	-0.195	-0.204
-157.720	25.635	0.068	-0.055
-156.706	82.798	0.090	0.095
-155.691	-67.218	0.155	0.060
-154.677	-50.390	-0.154	0.071
-153.662	254.408	0.166	-0.277
-152.647	41.123	0.305	-0.269
-151.633	-200.000	-0.014	-0.070
-150.618	-1.668	0.224	-0.154
-149.604	604.423	-0.111	0.269
-148.589	336.791	-0.056	0.106
-147.574	326.699	-0.130	0.242
-146.560	-93.327	0.182	-0.049
-145.545	152.903	0.184	0.245
-144.531	-200.000	0.019	0.141
-143.516	-200.000	-0.001	0.029
-142.502	-52.274	0.362	-0.163
-141.487	382.540	-0.085	0.171
-140.472	98.752	-0.173	-0.195
-139.458	696.242	-0.065	0.166
-138.443	800.000	0.032	0.094
-137.429	-66.400	-0.128	0.050
-136.414	-200.000	0.023	0.172
-135.399	-200.000	-0.045	0.285
-134.385	-43.322	0.117	-0.058
-133.370	135.347	0.237	-0.300
-132.356	398.690	0.094	0.192
-131.341	381.624	0.084	0.168
-130.326	-200.000	-0.044	0.192
-129.312	111.359	0.329	0.387
-128.297	246.802	0.133	-0.218
-127.283	800.000	0.074	0.266
-126.268	315.480	-0.126	-0.231
-125.253	-76.512	-0.299	-0.102
-124.239	-200.000	-0.012	-0.205
-123.224	545.858	0.076	0.176
-122.210	34.401	0.054	-0.046
-121.195	-200.000	-0.014	0.360
-120.180	-200.000	-0.035	0.193
