DTS Sentinel unit serial number:	SN413079Multiplexer serial number:	ORYXHardware model number:	OX4-SRSoftware version number:	ORYX F/W v4.00 Oryx Data Collector v3.7.2.0data status	okinstallation	princeton_trtdifferential loss correction	single-endedforward channel	channel 2reverse channel	N/Adate	2019/09/18time	23:59:35forward acquisition time	60.00reverse acquisition time	0.00gamma	496.2192k internal	0.2352k external	0.2352temperature offset calibration	1.0016default loss term (dB/km)	0.3790temperature slope calibration	1.0000multiplexer offset coefficient	1.0000multiplexer slope coefficient	1.0000fibre end	0.00T internal ref (°C)	23.11T ext. ref 1 (°C)	0.75T ext. ref 2 (°C)	16.03length (m)	temperature (°C)	Stokes	anti-Stokes-747.200	590.578	-0.109	0.268
-746.185	800.000	0.091	0.285
-745.171	-80.230	-0.139	-0.046
-744.156	-35.268	-0.326	0.177
-743.142	-31.073	0.250	-0.141
-742.127	-116.855	-0.193	-0.035
-741.112	316.988	0.041	-0.077
-740.098	-87.835	-0.123	0.037
-739.083	30.602	0.078	-0.067
-738.069	429.615	-0.074	0.160
-737.054	-200.000	-0.056	-0.281
-736.039	-106.340	-0.285	-0.063
-735.025	-66.398	0.274	0.108
-734.010	178.834	-0.210	-0.305
-732.996	-13.604	-0.270	-0.174
-731.981	-188.010	-0.093	-0.001
-730.966	-200.000	-0.028	-0.191
-729.952	-44.229	-0.047	0.023
-728.937	-54.236	0.240	-0.109
-727.923	9.741	-0.299	-0.226
-726.908	194.259	0.035	0.053
-725.894	-84.314	0.166	-0.052
-724.879	14.820	-0.228	-0.177
-723.864	351.996	0.148	0.291
-722.850	420.500	-0.099	-0.211
-721.835	-191.412	-0.295	-0.003
-720.821	-63.240	0.343	-0.141
-719.806	-200.000	-0.025	0.116
-718.791	-70.122	-0.217	0.082
-717.777	527.066	0.045	0.107
-716.762	370.422	0.064	-0.129
-715.748	-169.079	-0.136	-0.005
-714.733	-200.000	0.010	0.065
-713.718	-138.233	-0.151	-0.017
-712.704	381.982	-0.142	0.290
-711.689	800.000	-0.040	-0.159
-710.675	466.435	-0.093	-0.207
-709.660	800.000	-0.045	-0.156
-708.645	319.922	-0.038	0.073
-707.631	-69.970	-0.151	-0.057
-706.616	61.476	-0.175	-0.173
-705.602	645.649	0.071	0.181
-704.587	-62.153	0.414	-0.172
-703.572	21.364	0.213	-0.173
-702.558	44.383	-0.152	0.139
-701.543	-113.063	0.340	-0.067
-700.529	-200.000	-0.052	-0.238
-699.514	112.980	-0.087	0.106
-698.499	-24.612	-0.280	-0.166
-697.485	-200.000	0.057	-0.382
-696.470	25.242	-0.132	-0.109
-695.456	800.000	-0.080	0.295
-694.441	-200.000	-0.036	0.206
-693.426	800.000	-0.070	0.223
-692.412	-43.550	-0.178	0.089
-691.397	241.741	-0.157	-0.261
-690.383	-33.714	0.109	-0.060
-689.368	527.041	-0.078	0.182
-688.354	-25.574	0.197	0.116
-687.339	-51.527	-0.254	0.118
-686.324	-200.000	-0.020	0.138
-685.310	800.000	0.047	-0.147
-684.295	166.261	0.162	-0.229
-683.281	-200.000	-0.028	0.207
-682.266	5.340	0.405	0.297
-681.251	800.000	0.110	-0.394
-680.237	-123.291	-0.078	0.012
-679.222	124.073	-0.181	-0.226
-678.208	130.817	-0.149	-0.190
-677.193	-127.629	0.403	-0.058
-676.178	256.750	-0.197	0.336
-675.164	-200.000	0.028	0.529
-674.149	-200.000	0.006	-0.240
-673.135	183.142	-0.093	0.137
-672.120	800.000	-0.087	-0.258
-671.105	5.060	-0.237	0.173
-670.091	325.482	-0.061	-0.115
-669.076	800.000	-0.019	0.062
-668.062	-56.636	0.224	0.099
-667.047	-122.766	0.158	0.025
-666.032	-52.167	0.093	-0.043
-665.018	434.768	0.098	0.212
-664.003	-2.741	-0.226	-0.157
-662.989	71.829	0.187	0.194
-661.974	-69.370	0.182	0.069
-660.959	-200.000	-0.013	-0.091
-659.945	154.630	0.062	-0.085
-658.930	-200.000	-0.031	0.247
-657.916	95.171	-0.082	-0.093
-656.901	25.594	-0.053	0.044
-655.886	357.743	-0.121	0.239
-654.872	73.647	0.150	0.156
-653.857	800.000	0.022	-0.091
-652.843	-147.573	0.280	-0.023
-651.828	103.547	0.132	-0.154
-650.814	-80.799	0.073	-0.024
-649.799	191.262	-0.127	-0.190
-648.784	-175.520	-0.193	-0.005
-647.770	121.585	0.141	-0.174
-646.755	125.059	-0.162	-0.203
-645.741	383.546	0.108	0.222
-644.726	-27.283	-0.143	0.082
-643.711	-7.703	-0.152	-0.102
-642.697	-102.122	0.078	-0.019
-641.682	-183.958	-0.157	-0.003
-640.668	710.338	0.115	0.301
-639.653	-200.000	-0.299	-0.001
-638.638	800.000	0.072	-0.230
-637.624	-117.296	-0.131	-0.024
-636.609	274.302	-0.275	0.483
-635.595	-140.805	0.208	0.021
-634.580	14.592	-0.321	-0.249
-633.565	-76.791	0.223	0.078
-632.551	-92.972	-0.011	0.003
-631.536	119.013	-0.115	-0.141
-630.522	15.421	-0.402	-0.313
-629.507	-147.798	0.074	-0.006
-628.492	-200.000	0.038	0.344
-627.478	347.916	-0.067	0.130
-626.463	-200.000	-0.028	-0.155
-625.449	-45.033	-0.331	-0.164
-624.434	-84.730	0.133	0.042
-623.419	18.441	-0.198	0.157
-622.405	-33.083	0.152	0.084
-621.390	-200.000	0.004	0.198
-620.376	-1.087	-0.081	-0.057
-619.361	-117.978	-0.224	-0.040
-618.346	404.190	0.139	-0.291
-617.332	65.838	-0.094	-0.095
-616.317	-200.000	-0.001	0.090
-615.303	-169.108	0.039	-0.001
-614.288	230.230	-0.216	-0.350
-613.273	135.226	-0.165	-0.212
-612.259	-22.789	-0.109	-0.066
-611.244	82.500	0.163	0.176
-610.230	-43.559	-0.395	0.198
-609.215	43.904	0.085	-0.078
-608.201	-200.000	-0.023	-0.113
-607.186	-92.018	0.197	-0.055
-606.171	351.906	0.027	0.053
-605.157	3.899	0.413	-0.299
-604.142	-101.043	-0.129	-0.031
-603.128	176.839	0.147	-0.212
-602.113	-29.069	-0.120	0.068
-601.098	-200.000	0.034	-0.285
-600.084	-43.490	-0.110	-0.055
-599.069	239.294	-0.048	-0.079
-598.055	121.365	-0.094	-0.116
-597.040	-94.345	-0.295	0.080
-596.025	800.000	-0.019	-0.081
-595.011	800.000	-0.130	-0.385
-593.996	-172.730	-0.182	-0.006
-592.982	52.864	-0.253	-0.240
-591.967	-59.206	0.169	-0.072
-590.952	800.000	0.027	-0.084
-589.938	119.404	0.075	0.092
-588.923	5.435	-0.171	-0.125
-587.909	800.000	0.007	0.027
-586.894	161.087	-0.141	0.195
-585.879	295.781	-0.137	0.248
-584.865	-46.847	0.554	-0.269
-583.850	-40.480	-0.263	-0.135
-582.836	-101.011	-0.117	0.029
-581.821	-200.000	-0.016	0.316
-580.806	800.000	-0.110	-0.442
-579.792	800.000	-0.041	0.127
-578.777	800.000	-0.052	0.195
-577.763	-64.489	-0.325	0.131
-576.748	134.730	-0.096	0.124
-575.733	120.553	-0.069	-0.085
-574.719	-188.843	-0.016	0.000
-573.704	-191.553	-0.420	-0.004
-572.690	-185.521	0.371	-0.006
-571.675	297.999	0.111	-0.202
-570.661	-61.875	-0.190	-0.079
-569.646	-91.452	0.189	0.054
-568.631	-39.275	0.149	0.077
-567.617	72.617	0.257	-0.266
-566.602	800.000	0.061	-0.184
-565.588	728.117	0.046	0.123
-564.573	-98.610	0.238	0.060
-563.558	66.813	0.143	-0.145
-562.544	-200.000	-0.010	0.049
-561.529	551.363	-0.034	-0.081
-560.515	103.609	-0.166	-0.193
-559.500	143.623	0.132	0.175
-558.485	-54.248	0.088	0.039
-557.471	-156.646	-0.198	0.012
-556.456	-122.592	0.148	-0.024
-555.442	-8.450	0.221	-0.147
-554.427	-114.342	0.078	-0.015
-553.412	165.001	0.100	-0.140
-552.398	-78.254	-0.376	0.128
-551.383	129.624	0.181	-0.228
-550.369	489.813	0.160	0.363
-549.354	332.365	0.045	-0.087
-548.339	-30.550	0.229	-0.129
-547.325	288.242	-0.057	-0.102
-546.310	-120.769	-0.174	0.029
-545.296	-44.038	0.079	-0.039
-544.281	81.605	-0.077	-0.083
-543.266	670.883	0.032	0.081
-542.252	800.000	0.044	0.132
-541.237	800.000	0.078	0.289
-540.223	15.757	-0.060	0.047
-539.208	-117.164	0.119	0.021
-538.193	-200.000	-0.036	-0.313
-537.179	-168.292	-0.315	-0.012
-536.164	-200.000	0.041	-0.207
-535.150	-200.000	-0.106	0.507
-534.135	-78.121	0.215	0.073
-533.121	-122.282	-0.056	0.009
-532.106	320.550	0.109	-0.204
-531.091	-200.000	-0.062	0.300
-530.077	-56.896	-0.287	0.125
-529.062	-63.136	-0.124	0.051
-528.048	-200.000	0.029	-0.156
-527.033	-200.000	0.066	0.299
-526.018	168.815	0.122	0.172
-525.004	-89.791	0.030	0.009
-523.989	-150.689	0.251	-0.019
-522.975	170.464	0.216	-0.306
-521.960	151.001	-0.094	-0.126
-520.945	667.132	-0.065	-0.165
-519.931	345.566	0.044	0.086
-518.916	141.378	-0.198	0.259
-517.902	708.280	-0.030	-0.078
-516.887	-54.344	-0.184	-0.082
-515.872	800.000	0.070	-0.201
-514.858	-140.317	-0.240	-0.025
-513.843	4.008	-0.327	0.237
-512.829	613.989	-0.145	0.358
-511.814	-36.350	-0.149	-0.079
-510.799	49.949	0.281	0.262
-509.785	-0.737	0.150	-0.105
-508.770	134.284	-0.151	0.194
-507.756	-147.406	0.393	-0.033
-506.741	-200.000	0.020	0.160
-505.726	-38.247	0.261	0.137
-504.712	-92.995	-0.101	-0.028
-503.697	800.000	-0.067	-0.189
-502.683	-68.200	-0.039	-0.015
-501.668	-200.000	0.024	0.193
-500.653	349.223	0.096	-0.188
-499.639	800.000	0.083	0.288
-498.624	-190.942	-0.016	-0.000
-497.610	10.650	0.195	0.147
-496.595	-121.500	0.233	0.038
-495.581	-132.680	-0.447	0.057
-494.566	-18.541	0.199	-0.123
-493.551	-200.000	0.043	0.209
-492.537	-92.892	-0.117	0.032
-491.522	9.287	0.262	0.196
-490.508	351.862	0.110	0.214
-489.493	-200.000	-0.020	0.200
-488.478	27.840	0.128	-0.107
-487.464	800.000	-0.067	0.202
-486.449	73.991	-0.149	-0.155
-485.435	-174.145	0.146	0.004
-484.420	800.000	0.038	-0.130
-483.405	-200.000	-0.008	-0.232
-482.391	-125.868	-0.308	-0.046
-481.376	4.222	0.271	-0.196
-480.362	700.265	-0.064	-0.166
-479.347	500.116	-0.070	0.159
-478.332	85.171	-0.158	0.171
-477.318	-32.470	-0.078	-0.043
-476.303	156.315	0.040	0.055
-475.289	-117.430	0.336	-0.060
-474.274	137.141	0.212	0.274
-473.259	-18.270	-0.105	-0.065
-472.245	190.026	0.121	0.179
-471.230	-118.814	-0.187	-0.032
-470.216	-2.230	-0.170	0.118
-469.201	235.044	0.073	0.118
-468.186	-82.080	0.208	0.067
-467.172	-36.012	-0.294	-0.157
-466.157	-22.553	0.157	0.094
-465.143	383.611	0.024	0.048
-464.128	-200.000	0.014	0.185
-463.113	-75.626	0.236	-0.083
-462.099	-76.380	0.165	-0.057
-461.084	-121.557	-0.139	-0.023
-460.070	-200.000	-0.025	-0.138
-459.055	-37.927	-0.391	0.205
-458.040	-171.072	-0.147	-0.005
-457.026	305.692	-0.088	0.161
-456.011	-49.059	0.364	0.172
-454.997	-49.486	0.259	-0.122
-453.982	-49.887	-0.065	0.031
-452.968	800.000	0.120	0.379
-451.953	-30.616	-0.257	0.144
-450.938	162.200	0.184	0.254
-449.924	800.000	-0.053	0.202
-448.909	232.508	0.154	0.249
-447.895	659.716	-0.098	0.250
-446.880	157.634	0.135	0.184
-445.865	-75.960	-0.196	-0.068
-444.851	522.685	-0.139	0.322
-443.836	-8.650	0.160	-0.106
-442.822	120.809	0.101	-0.124
-441.807	800.000	0.148	0.429
-440.792	-90.298	-0.308	0.088
-439.778	-99.553	0.159	-0.039
-438.763	-200.000	-0.002	-0.023
-437.749	-200.000	0.021	-0.122
-436.734	-77.554	-0.217	-0.074
-435.719	-8.886	0.197	-0.130
-434.705	-161.546	0.355	0.018
-433.690	-200.000	0.026	-0.149
-432.676	104.986	-0.071	-0.083
-431.661	721.973	0.099	-0.259
-430.646	-44.680	-0.272	-0.134
-429.632	130.133	-0.024	0.030
-428.617	-65.282	0.087	-0.035
-427.603	-132.589	0.235	-0.030
-426.588	-200.000	0.037	-0.175
-425.573	800.000	0.015	0.044
-424.559	80.506	0.216	0.230
-423.544	171.366	0.158	-0.223
-422.530	326.333	-0.059	-0.110
-421.515	132.668	-0.079	-0.100
-420.500	-158.230	0.041	-0.002
-419.486	301.474	-0.172	0.313
-418.471	96.506	0.142	-0.160
-417.457	56.578	0.043	-0.041
-416.442	114.541	-0.197	0.236
-415.428	-73.926	0.206	0.074
-414.413	-200.000	-0.067	-0.000
-413.398	-200.000	0.009	0.237
-412.384	94.471	0.353	0.395
-411.369	-200.000	0.003	-0.266
-410.355	800.000	0.047	-0.127
-409.340	512.171	-0.070	-0.161
-408.325	223.500	-0.174	-0.276
-407.311	-124.058	-0.104	-0.016
-406.296	80.939	-0.315	-0.334
-405.282	12.276	0.173	-0.131
-404.267	-69.303	-0.398	0.150
-403.252	-79.641	-0.165	-0.055
-402.238	193.378	-0.196	-0.292
-401.223	-25.552	-0.065	0.038
-400.209	159.961	0.181	0.249
-399.194	-40.630	0.400	0.204
-398.179	-200.000	-0.014	0.276
-397.165	-123.943	-0.253	-0.039
-396.150	-200.000	0.008	0.302
-395.136	94.273	-0.122	-0.136
-394.121	293.394	0.182	0.327
-393.106	-42.204	-0.129	0.065
-392.092	-53.605	-0.101	0.045
-391.077	-113.596	0.324	-0.062
-390.063	-42.783	0.239	-0.120
-389.048	-177.623	-0.341	0.008
-388.033	-73.010	-0.323	0.117
-387.019	165.529	0.282	0.393
-386.004	-200.000	0.041	0.400
-384.990	-200.000	-0.022	0.102
-383.975	-200.000	-0.019	0.084
-382.960	84.023	0.152	0.163
-381.946	45.769	-0.101	-0.092
-380.931	-200.000	0.026	0.115
-379.917	87.357	-0.057	-0.062
-378.902	162.698	-0.114	0.157
-377.888	19.011	0.259	-0.204
-376.873	-200.000	-0.042	0.208
-375.858	-200.000	0.019	-0.091
-374.844	83.421	0.206	0.220
-373.829	800.000	-0.100	-0.414
-372.815	-159.146	0.046	-0.003
-371.800	-140.706	-0.181	0.018
-370.785	241.619	-0.272	-0.447
-369.771	248.017	-0.065	-0.109
-368.756	-200.000	0.043	-0.206
-367.742	98.408	0.041	-0.046
-366.727	-23.180	-0.191	-0.113
-365.712	800.000	0.033	0.115
-364.698	66.934	0.152	-0.152
-363.683	-166.459	-0.380	0.016
-362.669	648.875	-0.051	0.128
-361.654	61.476	0.339	0.331
-360.639	-200.000	-0.038	0.290
-359.625	-200.000	-0.012	-0.140
-358.610	-200.000	-0.082	-0.376
-357.596	-200.000	-0.076	-0.393
-356.581	-47.884	-0.213	0.101
-355.566	-29.745	0.344	0.193
-354.552	5.525	-0.139	0.101
-353.537	-87.021	0.479	-0.143
-352.523	-151.854	-0.231	0.017
-351.508	322.241	-0.083	0.155
-350.493	-166.215	-0.153	0.006
-349.479	50.373	0.107	0.100
-348.464	-198.312	-0.207	0.001
-347.450	-200.000	0.057	0.369
-346.435	-47.865	0.153	0.073
-345.420	-79.967	0.167	-0.055
-344.406	108.208	-0.067	0.078
-343.391	-71.141	0.004	0.001
-342.377	50.859	0.170	-0.158
-341.362	-200.000	-0.020	-0.263
-340.348	-147.055	-0.510	0.043
-339.333	-82.024	0.142	0.046
-338.318	-13.299	0.094	-0.060
-337.304	-200.000	-0.004	0.277
-336.289	37.154	-0.161	-0.140
-335.275	703.325	-0.082	0.211
-334.260	-64.985	-0.210	-0.083
-333.245	396.783	0.111	0.228
-332.231	277.764	0.084	0.147
-331.216	-26.043	-0.298	0.172
-330.202	-87.211	0.223	0.066
-329.187	-77.225	-0.233	0.080
-328.172	-134.408	0.266	0.032
-327.158	-8.523	-0.178	-0.117
-326.143	-200.000	0.034	-0.156
-325.129	-37.410	0.237	0.124
-324.114	104.455	-0.344	-0.398
-323.099	166.179	0.019	-0.026
-322.085	52.608	0.170	0.160
-321.070	19.224	0.076	-0.060
-320.056	141.666	-0.121	0.158
-319.041	-200.000	-0.029	-0.293
-318.026	-200.000	-0.007	0.070
-317.012	-200.000	-0.099	-0.681
-315.997	523.987	-0.075	-0.172
-314.983	-200.000	0.029	-0.143
-313.968	-22.685	0.302	0.179
-312.953	-63.917	0.307	-0.123
-311.939	-150.927	-0.264	-0.020
-310.924	-107.797	0.260	-0.056
-309.910	393.016	0.124	0.254
-308.895	87.239	0.287	0.311
-307.880	-200.000	0.095	0.443
-306.866	58.155	-0.100	0.096
-305.851	-68.444	0.454	-0.173
-304.837	-47.246	0.069	-0.033
-303.822	324.356	-0.040	0.076
-302.807	800.000	0.031	0.133
-301.793	800.000	-0.048	-0.133
-300.778	-141.273	0.301	0.030
-299.764	130.780	-0.080	-0.101
-298.749	-60.444	-0.231	0.096
-297.735	160.977	0.233	0.319
-296.720	-97.275	-0.284	-0.072
-295.705	362.058	0.076	-0.148
-294.691	-21.075	0.486	-0.291
-293.676	-145.130	-0.378	0.034
-292.662	800.000	-0.045	-0.126
-291.647	-200.000	0.025	-0.199
-290.632	64.168	0.295	-0.291
-289.618	800.000	-0.061	-0.183
-288.603	152.617	-0.273	-0.365
-287.589	-85.388	-0.310	-0.095
-286.574	-120.508	0.101	0.017
-285.559	-112.759	0.398	0.077
-284.545	-200.000	-0.004	0.116
-283.530	-200.000	0.038	-0.172
-282.516	800.000	-0.015	0.054
-281.501	-22.112	-0.133	-0.079
-280.486	-92.961	-0.100	-0.027
-279.472	78.324	-0.085	-0.089
-278.457	341.844	0.112	0.215
-277.443	800.000	-0.084	0.256
-276.428	-90.960	-0.307	-0.086
-275.413	120.456	-0.084	-0.102
-274.399	-26.976	-0.065	-0.037
-273.384	28.215	0.104	-0.086
-272.370	581.962	0.061	0.147
-271.355	-140.362	-0.135	0.014
-270.340	-47.176	0.107	-0.051
-269.326	345.299	0.209	0.402
-268.311	-100.485	0.236	0.057
-267.297	38.094	-0.072	-0.063
-266.282	4.800	-0.212	-0.152
-265.267	-200.000	0.003	-0.198
-264.253	-2.423	-0.118	0.081
-263.238	-200.000	-0.016	-0.133
-262.224	141.702	-0.137	-0.178
-261.209	-97.953	-0.190	0.048
-260.195	-8.063	-0.309	-0.204
-259.180	-151.276	0.339	-0.025
-258.165	-161.956	-0.251	-0.012
-257.151	-49.764	-0.137	-0.064
-256.136	-139.656	-0.208	0.022
-255.122	-54.823	0.271	-0.120
-254.107	-127.528	-0.220	0.031
-253.092	61.623	-0.147	0.143
-252.078	208.744	-0.043	-0.066
-251.063	399.419	0.064	0.132
-250.049	-200.000	0.037	0.361
-249.034	-19.119	0.251	0.152
-248.019	800.000	0.024	0.083
-247.005	58.269	0.141	-0.136
-245.990	-200.000	0.014	-0.195
-244.976	54.311	0.214	-0.202
-243.961	53.605	-0.218	-0.205
-242.946	364.517	0.196	-0.387
-241.932	-144.477	0.271	0.025
-240.917	1.836	-0.109	0.077
-239.903	-26.193	0.152	0.087
-238.888	-80.398	-0.052	0.017
-237.873	-143.804	0.077	-0.007
-236.859	85.801	0.183	-0.197
-235.844	-63.539	-0.129	-0.052
-234.830	-76.993	-0.322	-0.110
-233.815	800.000	-0.015	-0.061
-232.800	683.827	0.128	-0.327
-231.786	800.000	0.007	0.029
-230.771	-200.000	0.001	0.079
-229.757	-121.481	0.059	-0.010
-228.742	-45.853	0.325	-0.157
-227.727	800.000	0.038	-0.158
-226.713	365.260	0.157	-0.309
-225.698	108.480	-0.058	-0.067
-224.684	-71.629	0.308	0.113
-223.669	-154.158	-0.257	-0.017
-222.655	175.820	0.055	-0.078
-221.640	-200.000	0.014	0.346
-220.625	-50.081	0.281	0.130
-219.611	37.643	-0.203	-0.176
-218.596	-12.610	0.174	0.111
-217.582	431.499	0.082	0.174
-216.567	-60.971	0.314	-0.130
-215.552	14.441	0.066	-0.051
-214.538	-152.533	-0.138	0.010
-213.523	5.963	0.153	0.111
-212.509	-70.080	0.182	-0.068
-211.494	-176.805	-0.223	0.006
-210.479	-200.000	0.047	-0.356
-209.465	-84.531	-0.294	0.091
-208.450	-200.000	0.039	0.244
-207.436	-96.284	0.076	0.020
-206.421	-23.556	-0.369	0.217
-205.406	-104.503	0.142	-0.032
-204.392	643.380	-0.077	-0.192
-203.377	-200.000	-0.067	0.363
-202.363	587.952	-0.088	0.213
-201.348	800.000	0.016	-0.045
-200.333	289.304	-0.060	0.106
-199.319	248.570	0.085	0.141
-198.304	-2.470	0.175	0.120
-197.290	-67.740	-0.114	-0.044
-196.275	53.903	0.139	-0.131
-195.260	1.716	-0.068	-0.048
-194.246	-92.439	-0.172	0.047
-193.231	-117.018	0.170	-0.030
-192.217	-117.593	0.166	-0.029
-191.202	-87.829	-0.150	-0.044
-190.187	-1.860	0.146	-0.100
-189.173	150.134	-0.165	-0.218
-188.158	-27.162	0.100	0.057
-187.144	6.535	0.274	0.199
-186.129	-116.357	0.343	0.062
-185.114	-200.000	0.047	0.262
-184.100	18.178	0.243	0.189
-183.085	-14.406	-0.398	0.250
-182.071	-200.000	-0.015	-0.120
-181.056	800.000	-0.072	0.298
-180.042	-56.932	0.106	0.046
-179.027	-200.000	0.040	-0.212
-178.012	54.531	0.119	-0.112
-176.998	326.134	0.044	0.082
-175.983	-20.752	-0.177	0.106
-174.969	6.161	0.311	0.225
-173.954	800.000	-0.099	-0.281
-172.939	366.711	0.054	-0.106
-171.925	108.568	-0.074	-0.086
-170.910	238.751	-0.153	0.248
-169.896	-73.714	0.102	0.036
-168.881	-164.249	0.180	0.008
-167.866	62.182	-0.125	-0.121
-166.852	-11.397	-0.290	-0.186
-165.837	29.533	0.087	0.072
-164.823	147.429	0.046	0.060
-163.808	-121.401	-0.308	0.050
-162.793	800.000	0.174	-0.613
-161.779	800.000	0.080	-0.316
-160.764	-60.262	0.321	-0.133
-159.750	-126.508	-0.121	0.017
-158.735	22.978	-0.319	0.255
-157.720	424.359	0.139	-0.291
-156.706	800.000	0.056	0.204
-155.691	-2.547	-0.123	-0.084
-154.677	-65.305	0.081	0.032
-153.662	800.000	-0.069	-0.227
-152.647	800.000	-0.064	-0.231
-151.633	133.416	0.121	0.153
-150.618	169.342	-0.124	-0.172
-149.604	233.771	0.051	0.083
-148.589	-121.298	0.110	-0.018
-147.574	519.583	-0.046	-0.106
-146.560	-51.574	0.250	-0.114
-145.545	365.180	0.092	0.180
-144.531	387.513	0.030	0.061
-143.516	-93.481	0.091	-0.024
-142.502	800.000	-0.086	-0.241
-141.487	-113.944	0.083	0.016
-140.472	-73.573	-0.120	0.043
-139.458	-36.748	0.373	0.195
-138.443	-200.000	0.018	0.104
-137.429	552.224	0.067	-0.157
-136.414	229.117	-0.176	-0.280
-135.399	50.727	-0.326	0.300
-134.385	-11.504	0.264	0.169
-133.370	-98.671	0.365	0.091
-132.356	-200.000	-0.013	-0.115
-131.341	-200.000	-0.011	-0.060
-130.326	24.696	0.184	-0.149
-129.312	-200.000	-0.008	0.102
-128.297	800.000	-0.058	0.222
-127.283	-11.360	0.274	0.176
-126.268	800.000	0.071	0.234
-125.253	49.781	-0.142	0.131
-124.239	184.823	-0.062	-0.089
-123.224	44.359	-0.130	-0.116
-122.210	422.331	-0.117	0.244
-121.195	61.150	0.237	0.229
