DTS Sentinel unit serial number:	SN413079Multiplexer serial number:	ORYXHardware model number:	OX4-SRSoftware version number:	ORYX F/W v4.00 Oryx Data Collector v3.7.2.0data status	okinstallation	princeton_trtdifferential loss correction	single-endedforward channel	channel 2reverse channel	N/Adate	2019/09/11time	02:33:11forward acquisition time	60.00reverse acquisition time	0.00gamma	496.2192k internal	0.2331k external	0.2331temperature offset calibration	0.9940default loss term (dB/km)	0.3790temperature slope calibration	1.0000multiplexer offset coefficient	1.0000multiplexer slope coefficient	1.0000fibre end	0.00T internal ref (°C)	29.25T ext. ref 1 (°C)	-0.32T ext. ref 2 (°C)	23.39length (m)	temperature (°C)	Stokes	anti-Stokes-747.200	137.355	0.095	-0.125
-746.185	24.678	-0.332	0.277
-745.171	270.886	0.069	-0.122
-744.156	379.096	-0.087	0.180
-743.142	-200.000	0.037	0.338
-742.127	-69.479	0.124	0.048
-741.112	697.282	0.038	-0.100
-740.098	-174.572	-0.292	0.008
-739.083	-72.514	0.397	0.148
-738.069	115.204	0.091	-0.111
-737.054	170.995	-0.175	0.253
-736.039	125.682	-0.188	-0.239
-735.025	-82.496	-0.174	0.057
-734.010	-64.734	-0.313	-0.128
-732.996	87.778	-0.282	-0.314
-731.981	-72.243	0.150	-0.056
-730.966	155.938	0.188	0.261
-729.952	178.264	-0.073	-0.107
-728.937	-49.862	-0.158	0.075
-727.923	96.148	0.130	0.149
-726.908	800.000	0.059	0.200
-725.894	-200.000	-0.008	-0.171
-724.879	-18.882	0.069	-0.043
-723.864	-9.833	-0.230	-0.154
-722.850	47.112	-0.148	-0.138
-721.835	163.791	0.168	-0.238
-720.821	464.747	0.103	-0.232
-719.806	-55.156	-0.209	0.095
-718.791	-196.352	-0.167	0.001
-717.777	-55.471	-0.168	-0.076
-716.762	-150.176	-0.323	0.025
-715.748	-39.409	0.151	0.080
-714.733	-72.532	0.047	0.018
-713.718	-66.763	-0.145	-0.058
-712.704	-137.067	-0.195	0.022
-711.689	-200.000	-0.007	-0.030
-710.675	-106.545	0.100	0.022
-709.660	-84.784	0.241	0.076
-708.645	273.570	0.009	0.015
-707.631	-200.000	-0.034	-0.358
-706.616	-140.173	0.377	-0.040
-705.602	-20.259	-0.149	-0.092
-704.587	800.000	-0.122	-0.374
-703.572	68.474	0.215	0.222
-702.558	-86.944	-0.337	0.103
-701.543	-109.023	0.146	-0.031
-700.529	336.019	-0.036	-0.069
-699.514	-72.625	0.209	0.077
-698.499	-200.000	0.011	-0.399
-697.485	800.000	0.141	-0.504
-696.470	-71.605	0.148	-0.056
-695.456	-200.000	-0.016	-0.127
-694.441	26.292	-0.222	0.186
-693.426	0.428	0.067	0.048
-692.412	39.104	-0.219	-0.196
-691.397	-200.000	0.024	0.234
-690.383	-10.718	-0.210	0.139
-689.368	-200.000	-0.052	0.295
-688.354	800.000	-0.086	0.323
-687.339	-32.226	0.190	-0.107
-686.324	518.290	-0.123	0.290
-685.310	121.991	0.088	0.110
-684.295	-200.000	0.001	0.064
-683.281	-200.000	0.002	0.047
-682.266	-73.805	0.405	0.148
-681.251	-200.000	-0.068	-0.427
-680.237	-135.760	0.254	-0.030
-679.222	800.000	-0.077	0.272
-678.208	-176.525	-0.271	-0.007
-677.193	-115.990	-0.229	0.043
-676.178	-200.000	-0.012	0.096
-675.164	-43.397	-0.289	-0.147
-674.149	-122.656	0.137	0.022
-673.135	-122.488	-0.429	0.070
-672.120	70.151	-0.047	0.049
-671.105	-9.468	-0.076	0.051
-670.091	54.347	0.307	-0.297
-669.076	-43.637	0.041	-0.021
-668.062	-200.000	-0.013	0.119
-667.047	-33.372	0.323	-0.180
-666.032	53.877	-0.285	-0.275
-665.018	800.000	0.082	-0.289
-664.003	51.211	-0.152	-0.144
-662.989	-30.046	0.184	-0.105
-661.974	-143.950	0.402	-0.038
-660.959	407.274	0.035	0.074
-659.945	140.203	0.047	-0.063
-658.930	-105.902	-0.178	0.040
-657.916	-200.000	-0.003	-0.212
-656.901	-166.178	-0.215	0.009
-655.886	-49.129	-0.258	-0.124
-654.872	-84.016	0.605	0.193
-653.857	800.000	-0.063	-0.236
-652.843	236.736	-0.141	-0.234
-651.828	-169.315	-0.198	-0.007
-650.814	-40.190	0.252	0.132
-649.799	-29.008	0.032	-0.018
-648.784	800.000	0.028	0.101
-647.770	62.554	-0.079	-0.079
-646.755	78.881	0.089	0.096
-645.741	800.000	0.038	0.128
-644.726	81.730	0.144	-0.157
-643.711	37.064	0.330	-0.292
-642.697	-200.000	-0.058	-0.287
-641.682	283.409	-0.142	-0.256
-640.668	416.559	0.113	0.242
-639.653	800.000	0.021	-0.061
-638.638	-200.000	-0.072	-0.422
-637.624	-45.184	-0.025	0.013
-636.609	-200.000	-0.005	0.272
-635.595	-80.845	0.323	0.107
-634.580	-77.977	-0.200	-0.069
-633.565	-200.000	-0.003	-0.031
-632.551	-200.000	0.012	0.418
-631.536	-200.000	-0.006	0.244
-630.522	127.140	-0.060	0.077
-629.507	115.072	-0.170	-0.207
-628.492	674.642	0.148	-0.386
-627.478	-62.670	0.174	0.072
-626.463	800.000	0.056	0.162
-625.449	-83.268	0.117	0.038
-624.434	149.833	0.251	-0.341
-623.419	-49.588	0.085	-0.040
-622.405	56.889	0.321	-0.314
-621.390	800.000	-0.027	-0.083
-620.376	72.110	0.197	-0.206
-619.361	800.000	-0.069	0.222
-618.346	-167.254	-0.277	0.011
-617.332	-0.078	0.144	-0.103
-616.317	800.000	0.018	0.073
-615.303	-200.000	-0.010	-0.093
-614.288	-133.039	-0.075	-0.010
-613.273	147.016	-0.135	-0.182
-612.259	-31.254	-0.238	0.134
-611.244	-141.989	0.406	-0.041
-610.230	-109.317	-0.155	-0.033
-609.215	-200.000	-0.033	0.403
-608.201	-170.051	-0.268	0.010
-607.186	207.644	-0.018	-0.028
-606.171	40.887	0.229	-0.207
-605.157	385.667	0.134	0.277
-604.142	-65.062	0.134	0.054
-603.128	-52.921	-0.279	0.129
-602.113	208.575	-0.071	0.111
-601.098	-3.912	-0.113	-0.078
-600.084	-200.000	-0.022	-0.214
-599.069	-200.000	0.209	0.000
-598.055	-86.153	-0.196	0.061
-597.040	323.985	0.227	-0.433
-596.025	11.491	-0.228	-0.175
-595.011	185.692	0.084	0.125
-593.996	-200.000	0.029	0.159
-592.982	-103.767	0.042	-0.010
-591.967	190.973	-0.176	0.264
-590.952	800.000	0.043	-0.141
-589.938	271.650	0.152	-0.268
-588.923	122.147	-0.190	-0.238
-587.909	-58.865	0.191	-0.083
-586.894	-142.223	-0.197	-0.019
-585.879	-40.663	-0.242	0.126
-584.865	463.335	0.048	0.108
-583.850	-97.769	0.368	-0.095
-582.836	-86.197	-0.173	-0.053
-581.821	-89.671	-0.039	0.011
-580.806	-69.080	0.041	-0.016
-579.792	0.386	0.351	0.251
-578.777	-71.680	0.206	-0.077
-577.763	800.000	-0.023	-0.068
-576.748	165.209	0.314	-0.443
-575.733	-200.000	-0.040	0.176
-574.719	-64.767	-0.356	0.144
-573.704	-200.000	0.038	0.239
-572.690	247.099	0.198	-0.335
-571.675	-100.871	0.263	-0.065
-570.661	800.000	0.120	0.390
-569.646	92.785	0.268	0.303
-568.631	-2.669	0.233	-0.163
-567.617	-200.000	-0.040	0.283
-566.602	85.239	-0.173	-0.190
-565.588	143.987	0.108	0.144
-564.573	474.846	-0.080	0.181
-563.558	-40.167	-0.183	0.095
-562.544	21.729	0.147	0.119
-561.529	-141.039	-0.318	-0.033
-560.515	-131.425	0.187	0.025
-559.500	55.880	-0.134	0.129
-558.485	389.083	0.196	0.406
-557.471	27.185	0.135	-0.114
-556.456	-32.653	-0.121	-0.067
-555.442	174.105	0.064	-0.093
-554.427	359.880	0.125	0.251
-553.412	-200.000	-0.046	0.276
-552.398	-200.000	-0.017	-0.136
-551.383	800.000	0.041	-0.123
-550.369	-200.000	-0.035	-0.214
-549.354	-200.000	-0.103	-0.510
-548.339	-133.793	0.373	0.046
-547.325	228.040	-0.077	0.125
-546.310	-139.186	0.194	-0.021
-545.296	-52.652	-0.307	-0.142
-544.281	112.727	-0.123	-0.149
-543.266	-117.833	-0.192	0.034
-542.252	-200.000	-0.015	-0.161
-541.237	297.440	0.076	-0.140
-540.223	114.934	-0.087	-0.106
-539.208	-53.710	-0.373	-0.170
-538.193	-162.818	0.348	-0.017
-537.179	447.034	-0.094	0.207
-536.164	-200.000	0.027	0.224
-535.150	162.391	-0.025	0.035
-534.135	-164.917	-0.228	0.010
-533.121	115.309	-0.193	0.235
-532.106	800.000	-0.071	0.222
-531.091	247.568	-0.091	-0.154
-530.077	-78.255	-0.448	0.154
-529.062	95.757	0.252	-0.287
-528.048	-7.004	-0.183	0.124
-527.033	95.096	0.137	0.155
-526.018	-65.560	-0.220	-0.088
-525.004	53.028	0.040	0.038
-523.989	800.000	-0.023	0.079
-522.975	236.409	-0.087	0.143
-521.960	-140.761	-0.342	-0.035
-520.945	39.083	0.072	-0.064
-519.931	48.020	0.083	-0.077
-518.916	27.872	-0.247	-0.208
-517.902	-63.409	-0.159	0.065
-516.887	72.267	-0.405	0.421
-515.872	14.073	0.058	-0.045
-514.858	-90.662	-0.328	0.095
-513.843	442.459	0.086	0.188
-512.829	283.694	0.078	0.139
-511.814	-20.422	-0.061	-0.037
-510.799	-52.431	-0.105	-0.048
-509.785	218.191	-0.126	-0.201
-508.770	800.000	0.066	0.266
-507.756	20.186	0.189	0.152
-506.741	-111.782	0.079	-0.016
-505.726	167.432	0.148	0.209
-504.712	664.751	-0.023	0.060
-503.697	-200.000	0.078	-0.678
-502.683	11.989	0.052	-0.040
-501.668	105.736	0.234	-0.276
-500.653	32.707	-0.181	-0.156
-499.639	-200.000	-0.014	0.131
-498.624	-200.000	0.102	0.513
-497.610	-102.055	0.240	-0.058
-496.595	800.000	0.096	-0.310
-495.581	-9.980	0.113	-0.075
-494.566	800.000	0.077	0.235
-493.551	23.088	0.064	0.052
-492.537	21.316	-0.052	0.042
-491.522	-142.325	0.221	0.022
-490.508	-107.541	0.093	0.020
-489.493	-200.000	0.030	-0.137
-488.478	672.189	-0.150	0.387
-487.464	78.223	0.288	-0.306
-486.449	74.997	0.179	0.188
-485.435	-15.805	-0.146	0.093
-484.420	-200.000	0.018	-0.226
-483.405	-22.151	-0.171	0.103
-482.391	-76.982	-0.371	-0.129
-481.376	-68.424	-0.152	-0.059
-480.362	384.060	0.058	0.120
-479.347	153.583	0.195	-0.266
-478.332	-99.156	-0.142	-0.036
-477.318	800.000	0.050	0.164
-476.303	66.798	-0.140	-0.142
-475.289	800.000	-0.045	-0.151
-474.274	8.105	0.075	-0.056
-473.259	290.035	0.225	-0.407
-472.245	-74.411	0.405	0.146
-471.230	-127.885	-0.054	0.008
-470.216	-200.000	-0.032	-0.204
-469.201	262.165	-0.213	-0.368
-468.186	253.298	-0.123	0.209
-467.172	-50.147	0.027	-0.013
-466.157	-145.790	-0.153	0.014
-465.143	-90.936	0.467	0.134
-464.128	-200.000	-0.005	-0.041
-463.113	-154.764	0.260	0.017
-462.099	800.000	0.049	-0.184
-461.084	299.433	-0.104	-0.191
-460.070	800.000	-0.056	-0.166
-459.055	-15.187	-0.380	-0.242
-458.040	-79.118	-0.160	0.054
-457.026	-84.778	0.038	0.012
-456.011	-148.626	0.246	-0.020
-454.997	-200.000	0.002	-0.175
-453.982	800.000	-0.114	0.341
-452.968	-80.223	-0.233	-0.078
-451.953	83.817	0.083	0.090
-450.938	277.224	-0.195	0.345
-449.924	0.328	0.126	-0.089
-448.909	336.141	0.152	0.293
-447.895	464.762	-0.099	0.221
-446.880	-116.573	-0.357	0.065
-445.865	-135.799	-0.166	0.020
-444.851	-13.592	-0.162	0.104
-443.836	37.525	0.183	-0.162
-442.822	-64.659	0.204	0.082
-441.807	485.744	0.091	-0.206
-440.792	4.141	-0.119	-0.086
-439.778	142.050	0.104	-0.137
-438.763	-37.465	-0.095	-0.050
-437.749	661.969	-0.042	-0.108
-436.734	-25.728	0.167	-0.098
-435.719	128.597	0.122	0.154
-434.705	-200.000	-0.005	0.195
-433.690	800.000	-0.022	0.081
-432.676	-9.880	0.111	0.073
-431.661	118.604	0.126	0.154
-430.646	596.408	0.013	-0.032
-429.632	800.000	0.011	0.034
-428.617	39.842	-0.199	0.178
-427.603	-146.994	-0.323	0.028
-426.588	-49.163	0.229	-0.109
-425.573	349.595	0.213	-0.419
-424.559	-149.900	0.087	0.007
-423.544	-138.516	-0.306	-0.033
-422.530	-200.000	0.028	0.175
-421.515	800.000	-0.107	-0.321
-420.500	-29.507	-0.169	0.096
-419.486	-93.023	-0.245	-0.068
-418.471	-98.163	-0.289	0.074
-417.457	-19.845	0.169	0.104
-416.442	-200.000	0.033	-0.180
-415.428	-112.163	0.485	0.097
-414.413	-200.000	-0.016	-0.155
-413.398	800.000	-0.051	-0.176
-412.384	169.058	0.067	-0.095
-411.369	-66.112	0.558	0.221
-410.355	-89.332	-0.103	0.030
-409.340	800.000	0.010	0.029
-408.325	-33.301	-0.185	0.102
-407.311	105.985	-0.121	0.142
-406.296	-200.000	0.018	0.130
-405.282	69.569	0.237	-0.243
-404.267	141.049	-0.145	0.190
-403.252	-102.832	0.427	0.101
-402.238	800.000	-0.152	0.422
-401.223	-200.000	0.004	-0.106
-400.209	-200.000	0.006	-0.197
-399.194	800.000	0.017	-0.063
-398.179	800.000	0.110	-0.411
-397.165	-18.098	0.205	0.128
-396.150	-200.000	0.007	0.080
-395.136	-87.307	0.217	0.065
-394.121	239.143	-0.134	0.222
-393.106	-47.272	-0.348	-0.168
-392.092	-9.438	-0.167	-0.111
-391.077	-67.760	0.485	-0.188
-390.063	-144.774	0.160	-0.015
-389.048	25.987	-0.114	0.094
-388.033	-111.112	0.357	-0.073
-387.019	-85.388	-0.273	-0.085
-386.004	-128.184	-0.225	0.032
-384.990	486.888	0.134	-0.303
-383.975	-200.000	0.033	-0.162
-382.960	259.229	0.164	-0.280
-381.946	71.001	0.091	-0.094
-380.931	92.683	-0.104	0.116
-379.917	-200.000	0.058	0.379
-378.902	-133.960	-0.126	-0.015
-377.888	5.024	-0.182	-0.133
-376.873	-29.837	-0.298	-0.169
-375.858	-96.619	0.188	0.049
-374.844	-200.000	0.103	0.467
-373.829	-93.708	0.174	0.048
-372.815	-117.956	-0.443	-0.079
-371.800	-104.000	-0.038	-0.009
-370.785	800.000	-0.064	0.179
-369.771	-101.303	-0.142	-0.034
-368.756	23.362	0.310	0.253
-367.742	-101.936	-0.192	0.046
-366.727	-42.958	-0.192	-0.097
-365.712	31.676	0.211	-0.180
-364.698	-200.000	-0.041	0.182
-363.683	-200.000	0.039	-0.252
-362.669	95.928	-0.226	-0.256
-361.654	-38.653	0.361	0.189
-360.639	583.633	0.053	0.130
-359.625	-39.301	-0.107	0.055
-358.610	-18.311	-0.078	-0.049
-357.596	800.000	0.036	-0.147
-356.581	-132.306	-0.268	0.034
-355.566	-105.258	0.262	0.059
-354.552	-119.408	0.055	-0.009
-353.537	800.000	-0.075	0.210
-352.523	218.714	-0.066	-0.105
-351.508	30.952	-0.318	0.270
-350.493	-200.000	0.004	0.134
-349.479	-28.142	0.240	0.138
-348.464	-133.985	-0.078	0.010
-347.450	3.844	0.187	0.135
-346.435	-44.765	0.141	0.070
-345.420	-59.236	-0.244	0.104
-344.406	383.139	0.217	-0.442
-343.391	122.841	0.090	0.111
-342.377	-150.229	0.158	0.012
-341.362	-95.481	-0.271	-0.072
-340.348	278.114	0.022	0.039
-339.333	-200.000	-0.006	0.157
-338.318	-61.292	0.116	0.048
-337.304	-16.023	-0.156	-0.099
-336.289	-200.000	0.075	0.566
-335.275	-200.000	0.043	0.209
-334.260	800.000	-0.036	-0.121
-333.245	800.000	-0.058	-0.197
-332.231	64.831	0.053	-0.053
-331.216	105.513	-0.176	-0.206
-330.202	800.000	0.033	0.101
-329.187	-23.617	-0.070	-0.042
-328.172	-93.599	-0.296	0.081
-327.158	260.686	-0.063	0.107
-326.143	-110.684	-0.149	-0.030
-325.129	-67.577	0.234	-0.091
-324.114	-62.114	0.365	0.151
-323.099	800.000	0.053	0.212
-322.085	-131.198	0.343	0.045
-321.070	128.200	0.116	0.147
-320.056	-146.727	-0.197	-0.017
-319.041	-21.564	-0.054	0.033
-318.026	100.592	0.189	-0.217
-317.012	-166.362	-0.384	0.016
-315.997	800.000	-0.050	-0.190
-314.983	-18.346	-0.242	-0.150
-313.968	-73.963	0.151	0.054
-312.953	-20.354	-0.136	0.083
-311.939	-120.201	0.177	-0.030
-310.924	133.174	-0.079	-0.101
-309.910	42.439	0.110	0.099
-308.895	-73.867	0.271	0.098
-307.880	-32.430	0.341	0.188
-306.866	-200.000	0.034	-0.589
-305.851	-77.845	-0.310	-0.106
-304.837	-127.235	-0.275	0.040
-303.822	-51.444	0.287	-0.132
-302.807	-73.334	-0.256	0.093
-301.793	-95.588	0.161	-0.043
-300.778	-76.745	-0.128	0.044
-299.764	-0.177	0.255	0.179
-298.749	-150.838	-0.376	-0.028
-297.735	-16.364	-0.244	0.153
-296.720	-167.659	-0.154	0.006
-295.705	43.328	0.092	-0.083
-294.691	486.134	0.085	0.191
-293.676	51.426	0.096	-0.090
-292.662	-94.899	0.213	0.057
-291.647	-166.407	0.599	-0.025
-290.632	-128.196	0.228	-0.032
-289.618	-200.000	-0.007	0.215
-288.603	800.000	0.075	-0.300
-287.589	61.854	-0.235	-0.232
-286.574	-66.785	0.109	-0.043
-285.559	-23.686	-0.216	0.128
-284.545	-200.000	0.029	0.208
-283.530	800.000	-0.088	-0.260
-282.516	764.519	-0.077	-0.206
-281.501	3.594	0.187	0.135
-280.486	-50.288	0.168	0.079
-279.472	-66.134	0.368	-0.145
-278.457	34.957	0.060	-0.052
-277.443	800.000	0.031	0.097
-276.428	61.838	-0.152	-0.149
-275.413	5.591	-0.075	-0.054
-274.399	800.000	-0.042	-0.146
-273.384	-90.075	-0.319	-0.092
-272.370	158.491	0.146	-0.200
-271.355	-54.084	-0.194	-0.087
-270.340	176.401	0.165	-0.236
-269.326	8.501	0.118	-0.088
-268.311	83.586	-0.309	0.333
-267.297	-27.154	0.226	0.130
-266.282	192.798	0.038	-0.057
-265.267	-80.103	-0.041	0.014
-264.253	205.082	0.042	-0.065
-263.238	39.571	0.097	0.086
-262.224	-111.771	-0.149	0.030
-261.209	-200.000	0.025	-0.290
-260.195	-73.394	-0.574	0.207
-259.180	-200.000	-0.009	0.151
-258.165	770.747	-0.010	0.028
-257.151	404.218	-0.118	-0.246
-256.136	-78.719	0.129	-0.044
-255.122	257.798	-0.109	-0.185
-254.107	210.794	-0.100	-0.156
-253.092	-131.808	-0.077	0.010
-252.078	-114.812	-0.468	0.088
-251.063	-131.940	-0.265	-0.034
-250.049	-200.000	0.020	0.124
-249.034	619.018	-0.082	-0.204
-248.019	463.724	-0.051	0.112
-247.005	54.228	-0.059	0.056
-245.990	-200.000	0.010	-0.061
-244.976	-12.746	-0.218	-0.140
-243.961	51.200	-0.132	0.123
-242.946	-146.224	0.090	0.008
-241.932	29.633	-0.220	-0.185
-240.917	-173.606	-0.058	-0.002
-239.903	-200.000	0.013	-0.390
-238.888	-200.000	-0.031	-0.139
-237.873	119.852	-0.168	0.206
-236.859	800.000	-0.003	0.010
-235.844	112.909	0.158	0.188
-234.830	-83.044	-0.379	-0.120
-233.815	-200.000	0.035	-0.187
-232.800	-104.213	-0.073	0.017
-231.786	557.739	0.057	-0.136
-230.771	-62.605	-0.333	-0.136
-229.757	10.556	0.255	-0.192
-228.742	800.000	-0.059	0.254
-227.727	-200.000	-0.002	0.116
-226.713	800.000	-0.042	-0.117
-225.698	-109.954	-0.237	0.049
-224.684	14.870	0.096	-0.074
-223.669	-87.632	-0.122	0.036
-222.655	-172.959	-0.275	0.008
-221.640	25.809	-0.133	0.109
-220.625	-200.000	-0.022	0.125
-219.611	165.723	-0.175	-0.245
-218.596	-200.000	-0.009	-0.196
-217.582	-100.980	0.259	-0.063
-216.567	180.573	-0.040	-0.057
-215.552	-1.304	0.281	-0.196
-214.538	-200.000	-0.013	-0.151
-213.523	-70.045	-0.146	-0.055
-212.509	104.742	-0.105	-0.123
-211.494	-118.644	0.194	-0.034
-210.479	-200.000	0.010	0.058
-209.465	800.000	0.067	0.198
-208.450	-200.000	0.007	0.344
-207.436	-200.000	-0.011	0.075
-206.421	-12.706	-0.293	0.188
-205.406	-169.793	-0.195	0.007
-204.392	105.055	0.103	-0.120
-203.377	-200.000	0.002	0.285
-202.363	800.000	0.170	-0.500
-201.348	265.828	0.116	0.200
-200.333	43.852	0.138	-0.125
-199.319	-200.000	-0.027	0.257
-198.304	269.755	-0.092	0.158
-197.290	-200.000	0.036	0.185
-196.275	0.067	0.178	0.125
-195.260	-72.568	0.273	0.099
-194.246	-200.000	-0.037	-0.174
-193.231	27.270	-0.166	-0.137
-192.217	-153.074	0.337	-0.023
-191.202	28.818	-0.286	0.239
-190.187	-200.000	0.005	-0.040
-189.173	-120.600	0.226	0.038
-188.158	-92.591	0.438	0.121
-187.144	-200.000	0.048	-0.219
-186.129	0.668	-0.069	-0.048
-185.114	500.206	0.044	0.101
-184.100	412.195	0.076	0.160
-183.085	-200.000	-0.067	0.339
-182.071	550.590	0.073	0.172
-181.056	635.691	0.049	-0.123
-180.042	-106.558	-0.119	-0.026
-179.027	25.285	-0.116	-0.095
-178.012	-192.600	0.220	0.002
-176.998	113.043	0.121	-0.144
-175.983	-42.626	0.482	-0.242
-174.969	27.180	-0.159	0.132
-173.954	-74.230	-0.116	-0.041
-172.939	-200.000	-0.006	0.133
-171.925	-200.000	-0.096	0.434
-170.910	-120.919	0.563	0.093
-169.896	800.000	0.100	0.365
-168.881	-25.908	-0.081	0.047
-167.866	-96.205	-0.257	0.067
-166.852	-178.861	0.350	0.008
-165.837	-11.298	-0.091	0.059
-164.823	-12.997	-0.102	0.066
-163.808	311.474	0.051	-0.095
-162.793	-200.000	-0.010	0.052
-161.779	-71.582	0.219	-0.080
-160.764	-66.382	0.339	0.133
-159.750	-138.157	-0.066	0.007
-158.735	79.711	-0.153	-0.162
-157.720	-78.194	-0.208	0.070
-156.706	800.000	0.107	0.358
-155.691	-166.207	-0.144	0.006
-154.677	115.406	0.048	0.058
-153.662	-116.564	-0.219	0.040
-152.647	-46.760	-0.297	0.143
-151.633	-117.990	-0.185	0.033
-150.618	446.149	0.112	0.242
-149.604	-159.897	0.221	-0.012
-148.589	800.000	-0.072	-0.197
-147.574	116.570	0.113	0.136
-146.560	-64.041	-0.095	-0.038
-145.545	-49.368	0.369	-0.173
-144.531	251.587	0.094	-0.157
-143.516	-85.352	-0.301	-0.092
-142.502	-156.154	-0.362	-0.022
-141.487	-17.735	0.065	0.040
-140.472	1.905	0.256	0.181
-139.458	-71.980	0.049	-0.018
-138.443	611.510	-0.052	0.127
-137.429	-48.255	0.223	-0.106
-136.414	-200.000	0.004	0.126
-135.399	-200.000	-0.008	0.152
-134.385	-160.087	0.073	-0.004
-133.370	800.000	0.032	0.090
-132.356	164.556	0.125	-0.173
-131.341	20.348	0.122	0.097
-130.326	143.479	-0.149	-0.195
-129.312	-22.041	0.240	0.143
-128.297	130.315	-0.249	-0.313
-127.283	-200.000	-0.028	0.502
-126.268	94.091	-0.108	0.121
-125.253	40.280	-0.057	-0.051
-124.239	647.199	0.059	0.148
-123.224	50.358	-0.132	0.123
-122.210	800.000	-0.062	0.226
-121.195	121.453	-0.125	0.153
