DTS Sentinel unit serial number:	SN413079Multiplexer serial number:	ORYXHardware model number:	OX4-SRSoftware version number:	ORYX F/W v4.00 Oryx Data Collector v3.7.2.0data status	okinstallation	princeton_trtdifferential loss correction	single-endedforward channel	channel 2reverse channel	N/Adate	2019/09/10time	22:29:10forward acquisition time	60.00reverse acquisition time	0.00gamma	496.2192k internal	0.2330k external	0.2330temperature offset calibration	0.9940default loss term (dB/km)	0.3790temperature slope calibration	1.0000multiplexer offset coefficient	1.0000multiplexer slope coefficient	1.0000fibre end	0.00T internal ref (°C)	30.37T ext. ref 1 (°C)	-0.31T ext. ref 2 (°C)	23.69length (m)	temperature (°C)	Stokes	anti-Stokes-747.200	-101.630	0.198	-0.048
-746.185	729.653	0.037	0.101
-745.171	-52.227	-0.259	0.121
-744.156	-26.994	-0.261	0.153
-743.142	144.408	-0.137	-0.184
-742.127	4.009	-0.190	0.140
-741.112	-6.988	0.164	0.112
-740.098	-99.833	0.455	-0.115
-739.083	-12.018	0.128	0.085
-738.069	9.798	0.036	0.028
-737.054	-200.000	-0.016	-0.375
-736.039	587.170	0.134	0.333
-735.025	-89.526	0.304	-0.090
-734.010	233.425	-0.073	-0.122
-732.996	-17.200	-0.124	-0.079
-731.981	-51.686	-0.106	-0.050
-730.966	190.102	-0.056	0.085
-729.952	-200.000	-0.000	0.093
-728.937	134.710	-0.055	0.071
-727.923	40.783	0.101	-0.091
-726.908	792.841	-0.060	-0.166
-725.894	-39.411	-0.330	-0.174
-724.879	-101.359	-0.116	0.029
-723.864	56.800	0.087	0.085
-722.850	-200.000	0.034	-0.304
-721.835	-124.442	-0.135	-0.021
-720.821	-14.101	-0.336	0.218
-719.806	-181.421	-0.195	0.004
-718.791	620.410	0.050	-0.126
-717.777	-27.643	-0.295	0.172
-716.762	96.445	0.053	0.061
-715.748	-33.768	-0.189	0.105
-714.733	800.000	0.034	0.134
-713.718	-11.228	-0.203	-0.134
-712.704	-20.559	-0.251	-0.155
-711.689	119.454	-0.088	-0.109
-710.675	65.145	-0.076	-0.077
-709.660	-198.962	0.349	0.002
-708.645	-150.187	0.278	-0.022
-707.631	-48.451	0.091	-0.044
-706.616	-78.933	-0.110	-0.037
-705.602	-40.452	-0.243	-0.127
-704.587	128.990	-0.117	-0.150
-703.572	-39.604	-0.061	0.032
-702.558	36.942	-0.251	-0.223
-701.543	800.000	0.111	-0.314
-700.529	-60.226	-0.220	0.094
-699.514	36.864	-0.194	0.172
-698.499	33.033	0.188	-0.164
-697.485	-15.482	-0.386	-0.248
-696.470	63.503	0.082	0.082
-695.456	-147.595	0.132	-0.011
-694.441	-43.285	0.263	-0.134
-693.426	-200.000	0.001	0.113
-692.412	247.049	-0.098	0.166
-691.397	-104.259	-0.209	-0.049
-690.383	367.447	0.108	0.219
-689.368	-200.000	-0.027	0.260
-688.354	155.561	-0.089	-0.123
-687.339	-127.944	0.235	-0.034
-686.324	-200.000	-0.012	-0.076
-685.310	13.603	-0.284	0.222
-684.295	-200.000	0.030	-0.173
-683.281	120.028	-0.098	-0.122
-682.266	800.000	-0.036	-0.123
-681.251	800.000	-0.145	-0.463
-680.237	-26.422	-0.483	-0.284
-679.222	10.532	0.223	-0.171
-678.208	-48.394	0.060	-0.029
-677.193	110.141	-0.244	-0.295
-676.178	800.000	-0.073	0.209
-675.164	91.518	0.214	-0.241
-674.149	-46.198	-0.445	0.220
-673.135	6.929	-0.284	-0.213
-672.120	-139.219	-0.420	-0.045
-671.105	273.395	0.091	-0.162
-670.091	3.006	-0.143	0.104
-669.076	30.412	-0.220	0.188
-668.062	-112.772	0.126	-0.025
-667.047	-39.918	0.062	0.032
-666.032	44.757	0.322	0.298
-665.018	-79.707	-0.417	0.141
-664.003	-17.800	0.188	-0.119
-662.989	-148.396	0.265	-0.022
-661.974	-200.000	0.006	-0.201
-660.959	-2.370	-0.131	0.092
-659.945	-37.468	-0.088	-0.047
-658.930	-31.503	0.361	0.204
-657.916	471.984	0.061	0.137
-656.901	800.000	0.020	-0.067
-655.886	154.107	-0.135	0.186
-654.872	515.057	-0.181	0.423
-653.857	49.482	-0.090	-0.085
-652.843	12.976	-0.189	0.147
-651.828	-87.439	-0.183	-0.056
-650.814	-42.670	-0.169	-0.086
-649.799	-6.701	-0.277	0.189
-648.784	539.222	0.036	-0.085
-647.770	-62.447	0.135	-0.056
-646.755	115.194	0.255	0.313
-645.741	800.000	0.065	-0.235
-644.726	255.350	0.127	-0.219
-643.711	153.006	-0.076	-0.104
-642.697	497.064	-0.098	-0.226
-641.682	-144.852	-0.054	-0.005
-640.668	119.915	-0.010	0.012
-639.653	-200.000	0.019	-0.247
-638.638	-200.000	-0.024	0.202
-637.624	-113.646	-0.235	-0.046
-636.609	95.838	0.176	-0.202
-635.595	-200.000	-0.015	-0.071
-634.580	800.000	-0.054	0.163
-633.565	800.000	-0.057	-0.175
-632.551	800.000	0.037	0.111
-631.536	800.000	0.078	-0.221
-630.522	-134.686	-0.125	-0.015
-629.507	-200.000	-0.064	0.557
-628.492	29.065	-0.181	0.154
-627.478	-79.922	0.110	-0.037
-626.463	-86.448	-0.513	0.158
-625.449	-55.075	-0.319	0.144
-624.434	-50.055	0.167	-0.079
-623.419	-138.068	-0.165	0.018
-622.405	325.944	-0.127	-0.244
-621.390	-68.468	-0.477	-0.185
-620.376	-33.597	-0.386	-0.213
-619.361	73.993	0.385	-0.405
-618.346	214.401	-0.028	-0.044
-617.332	14.098	-0.080	0.063
-616.317	-200.000	0.011	-0.118
-615.303	-109.611	-0.112	-0.024
-614.288	394.958	-0.036	0.075
-613.273	514.221	-0.084	0.196
-612.259	658.262	0.066	-0.169
-611.244	-123.447	-0.259	-0.041
-610.230	309.674	-0.231	-0.433
-609.215	-200.000	0.039	0.191
-608.201	324.262	-0.018	0.034
-607.186	48.051	-0.118	-0.110
-606.171	85.315	0.296	-0.326
-605.157	233.898	-0.104	-0.172
-604.142	-200.000	-0.018	0.335
-603.128	241.750	-0.056	-0.094
-602.113	-122.899	-0.256	-0.041
-601.098	-200.000	0.026	-0.151
-600.084	177.566	-0.226	0.329
-599.069	609.882	0.130	0.324
-598.055	199.274	-0.054	0.082
-597.040	52.513	-0.033	-0.031
-596.025	-119.822	0.206	-0.035
-595.011	-200.000	-0.022	0.369
-593.996	-176.646	0.294	0.008
-592.982	71.431	0.181	0.188
-591.967	-133.254	0.225	0.028
-590.952	-82.199	0.040	0.013
-589.938	40.957	-0.067	0.060
-588.923	104.365	-0.005	-0.006
-587.909	30.877	-0.220	0.188
-586.894	-60.447	0.421	-0.179
-585.879	-200.000	-0.023	-0.256
-584.865	-95.818	0.096	-0.026
-583.850	-200.000	-0.034	0.197
-582.836	-57.358	0.099	0.043
-581.821	188.335	0.161	-0.241
-580.806	-165.137	-0.222	0.010
-579.792	800.000	0.097	0.372
-578.777	105.100	-0.099	-0.117
-577.763	-70.888	0.251	0.095
-576.748	-55.668	-0.086	0.039
-575.733	-200.000	-0.012	-0.196
-574.719	-3.315	0.085	0.059
-573.704	23.891	0.079	-0.065
-572.690	684.634	0.043	0.112
-571.675	582.306	0.160	-0.393
-570.661	-200.000	0.021	-0.121
-569.646	-95.693	0.108	-0.029
-568.631	-129.121	-0.213	-0.030
-567.617	19.708	-0.087	0.070
-566.602	-33.878	-0.284	0.156
-565.588	-156.548	0.114	0.007
-564.573	800.000	-0.050	0.169
-563.558	133.176	-0.094	0.122
-562.544	800.000	0.026	0.095
-561.529	-2.038	0.178	0.125
-560.515	-200.000	-0.030	0.342
-559.500	800.000	-0.061	-0.247
-558.485	568.864	0.090	0.218
-557.471	-115.681	-0.016	-0.003
-556.456	-53.030	-0.182	0.084
-555.442	-50.266	0.132	-0.062
-554.427	800.000	-0.082	-0.231
-553.412	800.000	0.073	-0.219
-552.398	-138.578	-0.153	-0.017
-551.383	268.729	0.033	-0.058
-550.369	-200.000	-0.036	0.222
-549.354	-128.403	0.292	-0.042
-548.339	176.368	0.068	0.099
-547.325	-200.000	-0.006	0.055
-546.310	-85.546	-0.308	-0.096
-545.296	-200.000	0.001	0.141
-544.281	68.956	0.088	0.091
-543.266	31.502	0.162	0.140
-542.252	-200.000	-0.028	0.130
-541.237	-200.000	0.001	-0.280
-540.223	102.533	0.200	0.233
-539.208	117.982	-0.202	0.248
-538.193	-200.000	-0.015	0.074
-537.179	-118.645	0.117	0.021
-536.164	-200.000	0.008	-0.175
-535.150	800.000	-0.043	0.131
-534.135	800.000	0.072	0.214
-533.121	-9.479	-0.137	0.091
-532.106	-200.000	0.042	0.349
-531.091	649.033	0.101	0.257
-530.077	67.218	-0.060	-0.061
-529.062	20.396	0.187	0.151
-528.048	-134.509	0.224	0.027
-527.033	63.030	-0.093	-0.093
-526.018	37.195	-0.164	0.145
-525.004	-85.139	-0.179	-0.056
-523.989	-129.506	0.299	-0.041
-522.975	100.326	-0.174	0.201
-521.960	-127.437	0.217	-0.032
-520.945	749.471	-0.233	-0.628
-519.931	-121.356	-0.418	-0.070
-518.916	-124.065	0.148	0.023
-517.902	42.591	-0.412	-0.374
-516.887	-12.119	0.156	0.102
-515.872	66.666	0.279	0.284
-514.858	-200.000	-0.003	0.073
-513.843	58.871	-0.149	0.147
-512.829	-91.828	0.161	-0.046
-511.814	-62.215	-0.302	-0.125
-510.799	-109.772	0.302	-0.063
-509.785	-159.569	0.307	-0.017
-508.770	148.374	0.284	0.383
-507.756	-200.000	-0.031	0.188
-506.741	58.985	0.281	-0.275
-505.726	-200.000	-0.011	-0.168
-504.712	570.615	0.055	-0.133
-503.697	-136.193	-0.070	0.008
-502.683	-64.308	-0.083	-0.034
-501.668	207.533	-0.104	-0.161
-500.653	800.000	0.083	-0.322
-499.639	-200.000	0.010	0.152
-498.624	-158.701	0.052	0.003
-497.610	204.854	-0.075	-0.117
-496.595	-187.706	0.182	-0.002
-495.581	-200.000	0.034	-0.277
-494.566	553.123	-0.097	-0.232
-493.551	-24.715	-0.413	0.245
-492.537	-140.571	0.261	0.027
-491.522	-200.000	-0.019	0.178
-490.508	-200.000	-0.047	0.349
-489.493	15.312	-0.070	0.055
-488.478	-200.000	0.022	-0.107
-487.464	-200.000	0.001	-0.103
-486.449	644.584	0.032	-0.080
-485.435	-160.735	0.392	-0.021
-484.420	-200.000	0.009	-0.079
-483.405	-9.634	-0.216	0.143
-482.391	800.000	-0.017	0.063
-481.376	800.000	-0.067	0.234
-480.362	486.669	0.153	0.347
-479.347	-67.426	0.171	0.067
-478.332	-175.007	-0.325	0.009
-477.318	-71.475	0.031	-0.012
-476.303	-200.000	-0.025	-0.272
-475.289	83.160	0.114	-0.124
-474.274	115.387	0.160	0.195
-473.259	-45.505	0.150	-0.074
-472.245	-90.867	-0.137	0.039
-471.230	-43.961	0.352	-0.176
-470.216	800.000	-0.008	0.029
-469.201	-127.573	-0.140	0.020
-468.186	-129.378	-0.155	0.021
-467.172	228.703	-0.264	-0.429
-466.157	-58.445	-0.157	0.068
-465.143	-48.408	-0.263	-0.126
-464.128	-82.975	-0.146	-0.047
-463.113	800.000	0.036	-0.143
-462.099	340.010	0.133	0.259
-461.084	800.000	-0.046	0.155
-460.070	-200.000	0.008	-0.253
-459.055	-90.834	-0.388	0.111
-458.040	-102.007	-0.120	0.029
-457.026	118.543	-0.087	-0.107
-456.011	-200.000	0.031	-0.177
-454.997	-200.000	-0.040	-0.193
-453.982	382.104	0.067	-0.137
-452.968	670.737	0.176	-0.453
-451.953	14.752	-0.179	0.140
-450.938	-200.000	0.067	-0.336
-449.924	25.487	0.119	-0.099
-448.909	-102.576	0.415	-0.099
-447.895	85.669	-0.181	0.198
-446.880	44.290	0.274	-0.250
-445.865	-173.777	-0.306	-0.009
-444.851	-105.871	-0.388	-0.087
-443.836	246.905	0.014	-0.024
-442.822	-200.000	0.041	-0.253
-441.807	-178.929	0.111	0.003
-440.792	36.935	-0.174	-0.153
-439.778	97.924	-0.083	0.095
-438.763	-90.627	0.190	0.055
-437.749	-110.137	-0.236	-0.049
-436.734	800.000	0.141	0.466
-435.719	-166.275	0.117	-0.005
-434.705	22.309	-0.107	-0.087
-433.690	-108.626	-0.303	0.065
-432.676	-103.879	-0.268	0.062
-431.661	-74.666	-0.272	-0.097
-430.646	503.450	-0.087	-0.200
-429.632	27.785	-0.099	0.083
-428.617	198.631	-0.041	0.062
-427.603	109.361	-0.214	-0.254
-426.588	-92.171	-0.268	-0.075
-425.573	-95.040	-0.149	-0.040
-424.559	-35.187	-0.061	0.033
-423.544	363.632	0.044	-0.088
-422.530	57.493	0.235	0.228
-421.515	-47.932	-0.409	-0.197
-420.500	-80.726	0.381	0.126
-419.486	-200.000	0.043	-0.201
-418.471	-200.000	0.052	-0.482
-417.457	217.256	-0.078	-0.124
-416.442	-56.735	-0.092	-0.041
-415.428	800.000	-0.065	-0.182
-414.413	77.040	0.020	0.022
-413.398	96.028	-0.122	-0.139
-412.384	-5.672	0.262	-0.178
-411.369	228.351	0.254	-0.411
-410.355	-200.000	-0.019	-0.316
-409.340	-200.000	0.067	0.361
-408.325	115.357	0.074	0.090
-407.311	-200.000	0.000	0.165
-406.296	-200.000	-0.026	0.168
-405.282	237.898	0.123	-0.203
-404.267	344.510	0.050	0.097
-403.252	485.595	0.149	0.338
-402.238	76.961	0.203	-0.214
-401.223	545.107	-0.043	-0.103
-400.209	800.000	-0.048	-0.154
-399.194	5.331	-0.373	-0.273
-398.179	800.000	-0.035	0.120
-397.165	-145.651	0.205	0.018
-396.150	-5.044	-0.166	-0.113
-395.136	69.695	-0.081	-0.083
-394.121	540.795	0.084	0.200
-393.106	103.497	0.139	0.162
-392.092	-99.084	0.181	0.045
-391.077	-200.000	0.015	0.237
-390.063	742.424	-0.049	-0.131
-389.048	329.414	0.117	-0.224
-388.033	32.942	-0.190	0.163
-387.019	-37.814	0.137	0.072
-386.004	528.908	-0.104	-0.243
-384.990	287.540	-0.154	-0.276
-383.975	-60.776	0.039	0.016
-382.960	796.121	-0.087	0.237
-381.946	-200.000	0.043	-0.215
-380.931	-200.000	-0.017	0.143
-379.917	-136.658	0.157	-0.018
-378.902	-200.000	-0.059	0.363
-377.888	60.040	0.103	0.101
-376.873	-91.449	0.164	0.047
-375.858	800.000	-0.030	-0.107
-374.844	-200.000	0.014	0.188
-373.829	167.063	-0.183	0.258
-372.815	-53.481	0.024	-0.011
-371.800	-155.367	0.112	-0.007
-370.785	-200.000	0.004	-0.298
-369.771	800.000	0.070	-0.201
-368.756	138.667	0.066	0.086
-367.742	146.874	-0.112	-0.149
-366.727	-83.429	0.171	-0.054
-365.712	800.000	-0.072	0.309
-364.698	-200.000	0.048	0.239
-363.683	-200.000	-0.029	-0.160
-362.669	800.000	0.065	0.190
-361.654	717.207	0.095	-0.251
-360.639	554.985	0.061	0.146
-359.625	-90.532	-0.208	-0.060
-358.610	78.103	-0.099	-0.105
-357.596	-200.000	0.009	0.189
-356.581	38.806	-0.218	0.193
-355.566	-200.000	-0.012	-0.213
-354.552	-88.730	0.291	-0.086
-353.537	314.130	0.058	0.108
-352.523	-121.367	0.251	0.042
-351.508	605.021	0.056	0.138
-350.493	-44.334	0.148	-0.073
-349.479	120.701	0.035	-0.043
-348.464	-200.000	0.052	-0.379
-347.450	70.247	0.322	-0.330
-346.435	295.544	0.201	-0.365
-345.420	156.066	0.129	-0.177
-344.406	-200.000	-0.026	0.259
-343.391	104.231	0.368	0.430
-342.377	800.000	-0.056	0.180
-341.362	306.471	-0.089	0.163
-340.348	522.396	0.055	0.127
-339.333	-130.044	0.339	-0.046
-338.318	44.556	0.237	-0.216
-337.304	-200.000	-0.012	-0.350
-336.289	58.500	-0.045	0.044
-335.275	-200.000	-0.017	-0.115
-334.260	282.966	0.122	-0.218
-333.245	114.162	-0.121	-0.145
-332.231	124.936	-0.176	0.220
-331.216	-136.076	0.050	0.006
-330.202	-200.000	0.014	-0.375
-329.187	-32.709	-0.231	-0.127
-328.172	114.054	0.184	-0.222
-327.158	-40.718	-0.190	-0.098
-326.143	384.434	0.100	0.203
-325.129	75.658	-0.071	-0.075
-324.114	-8.037	-0.037	-0.025
-323.099	800.000	0.050	-0.149
-322.085	81.573	-0.251	0.269
-321.070	-200.000	-0.038	0.281
-320.056	4.527	-0.296	-0.215
-319.041	-38.740	0.261	0.136
-318.026	-45.518	-0.144	0.071
-317.012	-144.368	0.037	0.003
-315.997	-134.628	0.311	0.038
-314.983	-6.385	-0.246	0.166
-313.968	-95.970	0.296	0.078
-312.953	-97.034	0.143	-0.037
-311.939	-200.000	-0.003	0.182
-310.924	800.000	-0.066	-0.213
-309.910	274.085	0.074	-0.129
-308.895	800.000	0.028	0.104
-307.880	-3.998	0.359	-0.246
-306.866	-37.720	-0.121	-0.064
-305.851	-200.000	-0.022	0.104
-304.837	-72.955	0.110	-0.040
-303.822	-113.880	0.206	-0.040
-302.807	-11.373	0.303	0.198
-301.793	0.095	-0.194	-0.137
-300.778	-79.640	0.202	-0.067
-299.764	-200.000	-0.009	0.237
-298.749	-200.000	0.028	-0.311
-297.735	337.956	-0.216	0.416
-296.720	315.442	0.218	-0.407
-295.705	185.871	0.062	0.091
-294.691	-200.000	-0.015	0.175
-293.676	65.684	-0.043	0.043
-292.662	-97.212	0.222	0.057
-291.647	-200.000	0.002	0.133
-290.632	0.148	-0.096	0.068
-289.618	-19.222	-0.238	0.146
-288.603	-29.586	-0.317	-0.179
-287.589	713.933	0.077	-0.202
-286.574	-200.000	-0.011	-0.230
-285.559	-200.000	0.008	-0.099
-284.545	-200.000	0.074	0.334
-283.530	166.103	-0.127	-0.177
-282.516	-28.396	0.117	-0.067
-281.501	-41.081	-0.219	0.112
-280.486	-200.000	0.004	0.070
-279.472	69.877	-0.074	-0.075
-278.457	117.655	-0.163	-0.198
-277.443	-200.000	-0.014	0.204
-276.428	-172.404	0.360	0.011
-275.413	-140.265	-0.033	-0.003
-274.399	800.000	-0.065	-0.209
-273.384	42.286	0.234	-0.210
-272.370	-147.237	0.473	0.040
-271.355	505.090	-0.081	0.185
-270.340	-74.049	0.573	-0.205
-269.326	800.000	0.047	-0.197
-268.311	17.281	0.273	0.214
-267.297	-36.944	-0.300	-0.159
-266.282	-116.455	-0.236	-0.043
-265.267	51.910	-0.008	-0.007
-264.253	-61.512	-0.367	0.152
-263.238	643.751	0.155	0.391
-262.224	62.693	-0.077	0.076
-261.209	643.347	-0.088	-0.222
-260.195	37.838	0.246	-0.216
-259.180	-200.000	0.066	0.332
-258.165	261.817	0.135	0.231
-257.151	107.840	0.128	-0.150
-256.136	800.000	-0.078	0.250
-255.122	121.350	-0.081	-0.100
-254.107	-200.000	-0.044	-0.316
-253.092	62.246	0.258	0.254
-252.078	185.459	0.067	0.099
-251.063	-200.000	0.026	0.197
-250.049	-24.002	0.318	0.188
-249.034	-200.000	-0.033	-0.279
-248.019	47.464	-0.090	0.083
-247.005	80.591	-0.120	0.127
-245.990	-107.812	0.242	0.052
-244.976	1.011	0.106	-0.075
-243.961	800.000	-0.104	0.355
-242.946	-10.874	-0.389	-0.254
-241.932	-146.537	-0.291	-0.025
-240.917	-172.424	0.024	-0.001
-239.903	-200.000	0.014	0.161
-238.888	800.000	0.039	-0.111
-237.873	2.912	0.204	0.146
-236.859	57.134	-0.153	0.147
-235.844	204.273	-0.043	-0.066
-234.830	323.554	0.146	-0.275
-233.815	-3.351	0.231	0.159
-232.800	-200.000	-0.005	0.199
-231.786	-200.000	-0.032	0.224
-230.771	-176.953	-0.424	-0.011
-229.757	624.940	0.021	0.052
-228.742	-85.968	-0.170	0.052
-227.727	335.666	-0.114	-0.218
-226.713	-146.523	0.242	0.021
-225.698	-200.000	-0.014	0.250
-224.684	52.293	0.171	0.161
-223.669	-34.578	-0.250	-0.135
-222.655	-147.433	0.263	0.022
-221.640	530.864	-0.133	-0.310
-220.625	72.048	-0.183	-0.187
-219.611	-200.000	-0.021	0.297
-218.596	-200.000	0.009	0.555
-217.582	-200.000	-0.018	0.260
-216.567	-58.936	-0.023	0.010
-215.552	649.917	-0.085	0.216
-214.538	-96.191	-0.226	0.059
-213.523	-41.124	0.016	-0.008
-212.509	36.277	0.357	-0.310
-211.494	220.963	-0.151	-0.240
-210.479	99.406	0.243	0.277
-209.465	28.163	-0.095	-0.079
-208.450	32.535	-0.155	0.132
-207.436	-94.356	-0.369	0.099
-206.421	800.000	0.040	-0.140
-205.406	800.000	-0.067	0.269
-204.392	-101.732	-0.294	0.070
-203.377	19.152	0.214	0.169
-202.363	-109.809	0.092	-0.019
-201.348	-200.000	-0.000	0.115
-200.333	210.766	-0.147	0.227
-199.319	-200.000	-0.004	-0.077
-198.304	800.000	0.017	-0.061
-197.290	-36.440	0.065	0.034
-196.275	-83.749	-0.331	0.104
-195.260	129.370	0.232	-0.292
-194.246	202.509	0.125	-0.191
-193.231	301.175	0.144	0.262
-192.217	-51.198	0.149	0.069
-191.202	800.000	-0.046	0.185
-190.187	-200.000	-0.012	0.192
-189.173	800.000	0.069	0.294
-188.158	190.205	0.117	0.173
-187.144	800.000	-0.079	-0.259
-186.129	-55.358	-0.348	0.154
-185.114	800.000	-0.087	-0.246
-184.100	-77.721	0.205	-0.070
-183.085	-200.000	0.044	0.360
-182.071	-8.863	-0.070	-0.046
-181.056	72.605	-0.274	0.282
-180.042	-79.451	-0.145	-0.048
-179.027	254.513	0.161	0.272
-178.012	65.709	0.043	-0.042
-176.998	78.754	-0.220	-0.232
-175.983	-38.250	0.041	0.021
-174.969	17.836	0.087	0.069
-173.954	-84.115	-0.328	-0.102
-172.939	-19.654	0.151	-0.092
-171.925	427.965	-0.018	0.039
-170.910	-200.000	0.062	-0.561
-169.896	800.000	-0.113	-0.454
-168.881	186.273	-0.038	0.055
-167.866	471.100	-0.083	-0.185
-166.852	-200.000	-0.013	0.277
-165.837	800.000	0.022	0.087
-164.823	-106.552	0.328	-0.072
-163.808	57.269	-0.181	-0.174
-162.793	-200.000	-0.061	0.438
-161.779	-76.209	0.293	-0.102
-160.764	-54.609	0.176	-0.078
-159.750	9.378	0.073	0.054
-158.735	-200.000	-0.003	-0.022
-157.720	-133.847	0.123	0.015
-156.706	-167.961	-0.066	0.003
-155.691	565.622	0.042	0.099
-154.677	35.103	0.141	-0.121
-153.662	454.810	0.110	0.241
-152.647	-106.781	-0.450	0.098
-151.633	682.656	-0.103	0.265
-150.618	-6.953	0.187	-0.125
-149.604	-157.256	0.165	-0.010
-148.589	-25.709	-0.162	0.094
-147.574	203.875	-0.193	0.294
-146.560	-200.000	-0.038	0.171
-145.545	-22.509	-0.093	-0.056
-144.531	317.918	0.188	0.350
-143.516	456.890	-0.067	-0.145
-142.502	7.847	-0.018	0.013
-141.487	-133.784	0.254	0.031
-140.472	-172.685	-0.225	-0.007
-139.458	468.531	0.083	0.183
-138.443	-50.756	0.346	-0.160
-137.429	-200.000	-0.006	-0.609
-136.414	-17.919	0.034	-0.021
-135.399	800.000	-0.086	0.286
-134.385	268.514	-0.104	-0.179
-133.370	-147.653	0.257	0.021
-132.356	-173.219	-0.162	-0.005
-131.341	-24.574	0.203	0.119
-130.326	43.902	0.075	0.068
-129.312	800.000	-0.041	0.135
-128.297	-200.000	0.047	0.326
-127.283	-133.210	-0.151	-0.019
-126.268	-156.707	-0.148	-0.009
-125.253	99.814	0.129	-0.147
-124.239	-68.503	-0.230	0.088
-123.224	-200.000	0.008	0.047
-122.210	-69.618	-0.334	-0.126
