DTS Sentinel unit serial number:	SN413079Multiplexer serial number:	ORYXHardware model number:	OX4-SRSoftware version number:	ORYX F/W v4.00 Oryx Data Collector v3.7.2.0data status	okinstallation	princeton_trtdifferential loss correction	single-endedforward channel	channel 2reverse channel	N/Adate	2019/09/13time	22:59:35forward acquisition time	60.00reverse acquisition time	0.00gamma	496.2192k internal	0.2337k external	0.2337temperature offset calibration	1.0130default loss term (dB/km)	0.3790temperature slope calibration	1.0000multiplexer offset coefficient	1.0000multiplexer slope coefficient	1.0000fibre end	0.00T internal ref (°C)	27.36T ext. ref 1 (°C)	3.20T ext. ref 2 (°C)	21.33length (m)	temperature (°C)	Stokes	anti-Stokes-747.200	-200.000	-0.032	0.156
-746.185	-200.000	0.028	0.212
-745.171	-78.478	0.333	-0.115
-744.156	353.736	0.160	0.320
-743.142	800.000	-0.054	-0.206
-742.127	359.392	0.060	0.120
-741.112	-200.000	-0.041	0.194
-740.098	333.831	-0.197	0.383
-739.083	-106.600	-0.084	0.019
-738.069	-60.442	0.094	0.040
-737.054	-86.155	-0.265	0.082
-736.039	-40.155	-0.250	0.131
-735.025	-200.000	-0.005	0.241
-734.010	-144.623	-0.188	-0.017
-732.996	-200.000	0.002	-0.084
-731.981	-200.000	0.075	-0.341
-730.966	-137.117	-0.268	-0.031
-729.952	-113.837	-0.229	-0.045
-728.937	-101.746	0.232	-0.056
-727.923	72.036	-0.092	0.096
-726.908	118.014	0.149	-0.184
-725.894	-82.626	-0.421	0.137
-724.879	53.971	0.279	0.269
-723.864	0.675	-0.147	-0.105
-722.850	380.459	-0.085	0.174
-721.835	-89.107	-0.332	0.099
-720.821	8.312	0.286	0.215
-719.806	276.541	-0.163	-0.290
-718.791	-200.000	0.020	-0.356
-717.777	-44.615	0.156	0.078
-716.762	-102.114	0.183	-0.044
-715.748	87.650	0.334	-0.371
-714.733	74.375	-0.198	0.209
-713.718	413.450	0.112	-0.240
-712.704	800.000	0.012	-0.052
-711.689	-87.081	-0.187	0.057
-710.675	795.449	-0.015	0.040
-709.660	69.866	0.173	0.179
-708.645	49.187	0.038	0.036
-707.631	-200.000	-0.209	-0.001
-706.616	-200.000	-0.004	-0.323
-705.602	195.771	-0.044	0.067
-704.587	-84.876	0.275	-0.087
-703.572	-149.771	-0.346	-0.027
-702.558	-85.817	-0.055	-0.017
-701.543	-62.850	0.061	0.025
-700.529	-200.000	0.091	0.414
-699.514	59.082	-0.203	-0.200
-698.499	-200.000	-0.064	0.315
-697.485	-24.092	0.192	0.115
-696.470	91.325	0.094	-0.105
-695.456	18.465	-0.137	0.110
-694.441	-89.062	0.205	0.061
-693.426	-65.257	-0.419	-0.169
-692.412	800.000	-0.088	0.264
-691.397	-58.196	0.141	-0.062
-690.383	-200.000	-0.011	0.234
-689.368	-200.000	0.013	0.171
-688.354	190.698	-0.129	-0.194
-687.339	-66.056	0.345	0.138
-686.324	-200.000	-0.029	0.275
-685.310	-77.193	0.196	-0.068
-684.295	-200.000	-0.003	0.053
-683.281	-84.794	-0.222	0.070
-682.266	72.303	-0.160	0.167
-681.251	159.167	-0.059	0.082
-680.237	-200.000	-0.039	-0.249
-679.222	-5.282	0.093	-0.064
-678.208	48.890	-0.190	-0.179
-677.193	-200.000	0.011	-0.084
-676.178	-36.949	-0.151	-0.081
-675.164	226.447	0.060	-0.098
-674.149	-200.000	-0.006	-0.132
-673.135	800.000	-0.071	-0.263
-672.120	-93.308	0.354	0.098
-671.105	-62.084	-0.125	0.052
-670.091	480.162	0.138	-0.313
-669.076	36.171	-0.088	-0.077
-668.062	11.062	-0.388	-0.297
-667.047	800.000	-0.068	-0.192
-666.032	-200.000	0.003	-0.304
-665.018	-200.000	0.030	-0.315
-664.003	800.000	-0.015	0.043
-662.989	-120.491	-0.430	-0.073
-661.974	-142.329	0.048	-0.005
-660.959	29.475	-0.244	0.208
-659.945	-4.202	0.170	-0.118
-658.930	214.851	0.167	-0.266
-657.916	-70.377	-0.207	-0.078
-656.901	-200.000	0.039	-0.309
-655.886	-200.000	-0.042	0.506
-654.872	-200.000	-0.006	-0.130
-653.857	188.001	0.120	-0.179
-652.843	55.336	-0.224	0.217
-651.828	-57.935	0.189	-0.083
-650.814	-30.801	-0.239	0.135
-649.799	-34.232	0.024	0.013
-648.784	93.809	0.246	0.279
-647.770	-134.097	-0.264	-0.033
-646.755	-200.000	0.028	-0.123
-645.741	800.000	0.018	0.078
-644.726	139.220	0.122	-0.161
-643.711	584.184	-0.016	0.040
-642.697	4.578	0.036	-0.027
-641.682	51.756	0.351	-0.334
-640.668	3.690	-0.196	-0.143
-639.653	-7.394	-0.149	-0.101
-638.638	141.593	0.126	-0.166
-637.624	-200.000	0.029	0.175
-636.609	800.000	-0.040	-0.145
-635.595	143.300	0.064	0.085
-634.580	-104.059	-0.103	-0.024
-633.565	63.900	0.154	-0.155
-632.551	-25.527	0.222	0.131
-631.536	-91.074	0.120	0.035
-630.522	113.157	0.189	-0.229
-629.507	-99.958	-0.416	-0.104
-628.492	-89.363	-0.224	-0.066
-627.478	469.061	0.095	-0.213
-626.463	-200.000	0.042	0.234
-625.449	104.752	-0.103	-0.122
-624.434	-200.000	-0.010	-0.128
-623.419	-200.000	0.008	-0.119
-622.405	706.942	-0.065	0.170
-621.390	34.192	-0.264	0.230
-620.376	21.811	-0.084	-0.069
-619.361	-200.000	0.007	0.083
-618.346	800.000	0.116	-0.376
-617.332	48.981	0.278	-0.260
-616.317	-94.387	-0.085	0.023
-615.303	-200.000	0.011	-0.114
-614.288	121.854	0.262	-0.326
-613.273	-90.917	-0.490	-0.141
-612.259	23.237	-0.210	-0.173
-611.244	-158.895	0.211	-0.012
-610.230	-28.240	0.288	0.166
-609.215	398.919	-0.045	-0.094
-608.201	-47.578	0.294	0.143
-607.186	302.118	-0.081	-0.149
-606.171	217.390	0.102	-0.162
-605.157	-200.000	-0.003	0.268
-604.142	204.293	0.136	-0.211
-603.128	-102.521	-0.063	-0.015
-602.113	-178.297	-0.112	0.003
-601.098	-200.000	0.011	0.071
-600.084	-138.757	-0.163	0.018
-599.069	-102.115	-0.275	0.066
-598.055	-171.911	-0.221	-0.007
-597.040	-200.000	-0.011	0.285
-596.025	-59.793	0.276	-0.118
-595.011	365.230	-0.053	0.107
-593.996	133.482	-0.317	-0.410
-592.982	-200.000	0.012	-0.081
-591.967	786.370	-0.036	-0.100
-590.952	-133.889	0.301	0.037
-589.938	90.852	-0.313	0.350
-588.923	-84.748	-0.108	-0.034
-587.909	51.707	0.082	0.078
-586.894	-200.000	0.002	-0.180
-585.879	-29.114	0.335	-0.192
-584.865	-147.122	0.381	0.032
-583.850	111.503	-0.214	-0.257
-582.836	779.014	-0.060	0.163
-581.821	239.087	0.038	-0.063
-580.806	-79.386	-0.357	0.120
-579.792	-44.642	-0.461	-0.230
-578.777	55.548	0.169	-0.164
-577.763	-35.348	-0.039	-0.021
-576.748	-200.000	-0.001	-0.242
-575.733	-70.721	-0.163	-0.061
-574.719	-200.000	0.044	0.195
-573.704	362.036	-0.187	0.375
-572.690	12.887	0.154	-0.119
-571.675	-143.328	-0.176	-0.017
-570.661	251.728	0.130	-0.221
-569.646	-200.000	-0.013	-0.214
-568.631	-118.437	-0.039	-0.007
-567.617	-200.000	0.028	-0.125
-566.602	-77.335	-0.205	0.071
-565.588	-106.698	-0.234	0.052
-564.573	407.177	0.130	-0.273
-563.558	-103.421	-0.099	-0.023
-562.544	800.000	-0.112	-0.406
-561.529	497.532	0.187	0.430
-560.515	-100.460	-0.187	-0.046
-559.500	478.741	-0.036	0.081
-558.485	800.000	0.098	0.375
-557.471	-54.646	0.205	-0.092
-556.456	-144.548	-0.457	-0.042
-555.442	-200.000	0.009	0.060
-554.427	-22.852	0.195	-0.117
-553.412	0.318	0.029	-0.021
-552.398	-200.000	-0.050	-0.398
-551.383	-23.476	0.500	-0.299
-550.369	-17.916	-0.293	0.183
-549.354	-177.514	0.508	-0.012
-548.339	-117.486	-0.042	0.008
-547.325	160.191	-0.133	0.184
-546.310	-43.238	-0.324	-0.163
-545.296	-144.368	0.557	0.052
-544.281	13.034	0.079	-0.061
-543.266	43.026	0.213	-0.194
-542.252	-131.306	0.082	-0.011
-541.237	269.124	0.256	-0.448
-540.223	47.517	-0.160	-0.149
-539.208	-85.920	0.238	0.073
-538.193	-70.559	-0.167	-0.063
-537.179	-200.000	-0.000	-0.192
-536.164	-200.000	-0.037	-0.183
-535.150	-200.000	0.018	0.168
-534.135	-154.358	0.109	-0.007
-533.121	-8.579	-0.113	-0.075
-532.106	-165.386	0.329	-0.014
-531.091	-130.131	0.212	0.029
-530.077	-154.000	0.232	-0.016
-529.062	-22.944	-0.405	-0.243
-528.048	134.580	0.096	0.124
-527.033	-54.171	-0.320	0.145
-526.018	-16.669	-0.342	-0.215
-525.004	14.082	0.030	-0.023
-523.989	-97.650	-0.151	-0.039
-522.975	-102.652	-0.210	0.050
-521.960	35.348	-0.154	0.135
-520.945	-69.934	0.282	0.107
-519.931	455.739	-0.177	0.391
-518.916	-124.033	0.431	0.067
-517.902	-119.376	0.308	0.053
-516.887	800.000	-0.122	0.501
-515.872	290.325	-0.103	-0.186
-514.858	800.000	-0.102	0.356
-513.843	41.218	0.256	-0.231
-512.829	-0.896	-0.050	0.035
-511.814	-200.000	0.020	-0.225
-510.799	-200.000	-0.081	-0.369
-509.785	-169.554	-0.233	0.008
-508.770	198.131	0.123	0.187
-507.756	36.038	-0.177	0.155
-506.741	367.454	-0.102	0.206
-505.726	800.000	0.074	0.229
-504.712	22.200	-0.209	0.170
-503.697	547.057	0.032	-0.075
-502.683	-122.422	-0.269	-0.044
-501.668	17.618	0.191	-0.151
-500.653	-200.000	-0.049	-0.272
-499.639	-123.933	-0.132	-0.021
-498.624	37.091	-0.160	0.141
-497.610	-52.997	-0.180	0.082
-496.595	188.362	0.143	-0.212
-495.581	-50.936	0.072	-0.034
-494.566	34.405	0.050	-0.043
-493.551	690.496	-0.058	-0.150
-492.537	-194.652	0.349	-0.003
-491.522	583.365	-0.124	0.304
-490.508	-164.235	-0.333	0.015
-489.493	7.416	-0.139	-0.103
-488.478	84.672	-0.130	0.141
-487.464	-188.384	0.142	-0.002
-486.449	-69.025	0.148	0.057
-485.435	-132.473	-0.174	-0.022
-484.420	800.000	-0.123	0.416
-483.405	338.714	0.146	-0.283
-482.391	294.164	-0.093	-0.170
-481.376	800.000	0.098	-0.377
-480.362	-86.559	-0.341	-0.104
-479.347	527.260	-0.077	0.180
-478.332	-32.747	0.047	-0.026
-477.318	-51.330	0.253	0.118
-476.303	800.000	0.074	0.303
-475.289	-65.898	-0.278	0.110
-474.274	-145.837	-0.166	0.015
-473.259	-8.153	0.238	-0.160
-472.245	800.000	-0.061	-0.174
-471.230	-48.930	-0.106	-0.050
-470.216	6.212	0.103	-0.076
-469.201	203.979	0.134	0.206
-468.186	-105.195	0.133	0.030
-467.172	290.980	0.234	-0.423
-466.157	289.092	0.068	0.122
-465.143	-99.907	-0.102	0.025
-464.128	-120.257	-0.073	0.012
-463.113	-75.668	-0.179	0.063
-462.099	456.695	-0.042	-0.093
-461.084	-60.142	0.384	-0.163
-460.070	-200.000	0.038	-0.293
-459.055	800.000	-0.022	0.064
-458.040	800.000	-0.041	0.133
-457.026	594.796	-0.042	0.102
-456.011	-108.366	-0.249	0.053
-454.997	-18.445	0.238	0.148
-453.982	-8.870	-0.025	0.016
-452.968	-66.109	0.481	0.190
-451.953	-37.800	0.311	-0.164
-450.938	22.087	0.266	0.215
-449.924	49.071	0.069	-0.064
-448.909	353.643	-0.102	0.200
-447.895	51.351	0.204	-0.193
-446.880	528.503	-0.066	0.154
-445.865	-200.000	0.024	0.182
-444.851	-78.658	-0.094	0.032
-443.836	-200.000	0.066	0.290
-442.822	-200.000	-0.116	0.523
-441.807	800.000	0.080	-0.288
-440.792	-200.000	-0.032	0.141
-439.778	-22.491	-0.220	0.132
-438.763	-92.786	-0.394	-0.109
-437.749	105.875	-0.096	-0.112
-436.734	82.775	-0.244	0.264
-435.719	-23.841	-0.322	-0.191
-434.705	-200.000	0.059	-0.279
-433.690	66.807	0.256	0.259
-432.676	104.939	-0.235	-0.275
-431.661	-35.234	-0.152	-0.082
-430.646	-103.681	0.195	0.045
-429.632	719.062	0.044	-0.117
-428.617	-14.973	0.214	0.136
-427.603	800.000	0.084	-0.326
-426.588	24.134	0.063	-0.051
-425.573	-166.330	-0.392	-0.016
-424.559	660.276	-0.122	0.311
-423.544	71.056	-0.033	-0.034
-422.530	29.047	-0.232	-0.195
-421.515	-200.000	0.003	0.049
-420.500	-200.000	-0.045	0.325
-419.486	68.073	0.098	-0.099
-418.471	101.512	-0.173	-0.200
-417.457	48.421	-0.237	-0.220
-416.442	-200.000	-0.007	-0.242
-415.428	-169.145	0.285	0.010
-414.413	-168.652	0.264	0.010
-413.398	189.347	-0.252	-0.374
-412.384	-200.000	0.001	0.146
-411.369	-200.000	-0.043	0.281
-410.355	66.151	0.277	0.279
-409.340	-200.000	-0.024	0.118
-408.325	115.686	-0.248	0.300
-407.311	713.190	0.110	-0.289
-406.296	-200.000	-0.030	-0.357
-405.282	13.062	-0.092	0.071
-404.267	-115.231	-0.178	0.033
-403.252	709.389	-0.036	0.094
-402.238	-132.453	0.321	0.041
-401.223	476.928	0.076	-0.170
-400.209	-84.468	-0.100	-0.031
-399.194	-107.773	-0.237	-0.051
-398.179	392.721	-0.051	-0.105
-397.165	92.771	-0.153	0.172
-396.150	-200.000	-0.008	0.103
-395.136	434.020	0.061	0.131
-394.121	363.784	-0.088	-0.176
-393.106	94.855	-0.092	0.103
-392.092	26.787	0.070	-0.058
-391.077	-200.000	-0.014	0.549
-390.063	280.390	0.235	0.416
-389.048	-10.523	0.035	0.023
-388.033	278.425	0.007	-0.013
-387.019	22.271	0.134	-0.109
-386.004	-200.000	-0.001	-0.085
-384.990	-78.535	0.226	0.076
-383.975	-71.260	-0.197	0.073
-382.960	255.527	-0.004	0.007
-381.946	167.581	0.128	-0.180
-380.931	800.000	0.103	-0.369
-379.917	639.561	0.039	-0.099
-378.902	800.000	0.018	0.068
-377.888	-200.000	0.000	0.077
-376.873	800.000	-0.073	0.271
-375.858	-82.263	-0.098	0.032
-374.844	-50.478	0.173	-0.081
-373.829	-52.636	0.089	-0.041
-372.815	65.221	0.267	0.267
-371.800	334.980	0.059	0.113
-370.785	-34.277	-0.458	0.248
-369.771	800.000	0.010	0.037
-368.756	-105.818	-0.149	0.033
-367.742	-73.954	0.156	0.056
-366.727	-22.308	0.021	-0.013
-365.712	-200.000	0.005	-0.181
-364.698	123.310	0.177	-0.219
-363.683	425.958	0.047	-0.099
-362.669	800.000	0.066	-0.201
-361.654	-200.000	0.029	-0.345
-360.639	-113.650	-0.267	-0.052
-359.625	-58.914	-0.225	0.096
-358.610	-93.544	-0.101	0.028
-357.596	-200.000	0.019	0.094
-356.581	-126.461	0.194	-0.029
-355.566	168.169	-0.051	-0.072
-354.552	800.000	-0.071	-0.207
-353.537	457.597	0.098	-0.215
-352.523	-73.152	-0.182	-0.066
-351.508	-107.486	0.199	0.043
-350.493	204.864	-0.183	0.281
-349.479	798.470	0.156	-0.427
-348.464	-160.170	0.220	0.012
-347.450	-79.668	-0.230	-0.077
-346.435	63.745	-0.099	0.098
-345.420	182.228	-0.196	-0.286
-344.406	-128.271	0.257	-0.036
-343.391	237.813	0.115	0.189
-342.377	-144.328	0.160	-0.015
-341.362	-200.000	0.029	0.380
-340.348	-26.080	0.372	-0.216
-339.333	29.407	-0.283	0.237
-338.318	173.254	0.037	0.052
-337.304	430.113	-0.073	0.155
-336.289	-127.526	-0.187	0.027
-335.275	154.628	0.119	0.161
-334.260	-200.000	0.020	0.169
-333.245	-87.364	-0.335	-0.100
-332.231	90.214	-0.214	0.236
-331.216	167.235	0.194	0.273
-330.202	51.264	0.122	0.114
-329.187	-200.000	-0.012	0.168
-328.172	158.484	-0.158	0.217
-327.158	62.756	-0.137	-0.136
-326.143	243.169	-0.213	0.352
-325.129	-12.406	0.451	-0.291
-324.114	165.439	0.138	0.193
-323.099	-73.615	-0.074	0.027
-322.085	-200.000	-0.054	0.295
-321.070	-141.163	-0.202	-0.020
-320.056	556.073	-0.063	-0.150
-319.041	161.161	-0.110	-0.152
-318.026	-181.786	0.183	-0.003
-317.012	-155.780	-0.042	-0.003
-315.997	-73.486	-0.343	-0.124
-314.983	191.184	0.061	-0.091
-313.968	-50.240	-0.138	-0.064
-312.953	-124.257	0.328	0.051
-311.939	-10.143	-0.203	-0.133
-310.924	-137.739	-0.110	0.012
-309.910	-43.019	-0.169	-0.085
-308.895	-135.023	0.050	-0.006
-307.880	-27.722	0.035	0.020
-306.866	78.992	0.126	0.133
-305.851	-16.422	-0.112	0.070
-304.837	-200.000	-0.052	0.329
-303.822	800.000	-0.053	-0.184
-302.807	800.000	-0.090	-0.295
-301.793	-78.516	0.138	-0.047
-300.778	714.407	-0.093	-0.243
-299.764	462.185	0.090	0.199
-298.749	-67.330	0.314	0.122
-297.735	-42.789	0.292	-0.146
-296.720	165.501	-0.119	0.166
-295.705	-200.000	-0.005	-0.175
-294.691	349.814	-0.111	0.217
-293.676	-119.085	-0.240	0.041
-292.662	800.000	-0.054	-0.184
-291.647	-123.154	-0.109	-0.017
-290.632	134.778	0.234	-0.299
-289.618	-95.444	-0.096	-0.025
-288.603	-88.528	0.131	-0.038
-287.589	421.091	0.090	-0.191
-286.574	267.685	-0.140	0.242
-285.559	-32.405	0.188	-0.103
-284.545	-138.304	-0.494	-0.054
-283.530	83.756	-0.321	-0.345
-282.516	251.684	-0.060	0.100
-281.501	-152.673	0.165	-0.012
-280.486	-200.000	-0.007	0.075
-279.472	-200.000	0.001	-0.187
-278.457	-26.394	0.054	-0.031
-277.443	-200.000	-0.047	-0.382
-276.428	47.407	-0.126	0.116
-275.413	800.000	0.046	0.185
-274.399	-97.180	0.318	0.082
-273.384	82.030	0.180	-0.192
-272.370	-25.047	0.108	0.063
-271.355	115.830	0.121	0.146
-270.340	181.435	-0.123	-0.178
-269.326	-138.330	0.235	-0.026
-268.311	72.926	-0.155	-0.160
-267.297	-47.319	0.204	0.098
-266.282	-200.000	-0.036	-0.207
-265.267	249.818	-0.035	0.059
-264.253	106.390	-0.302	0.353
-263.238	-137.422	0.249	0.028
-262.224	-48.168	0.122	0.058
-261.209	800.000	-0.042	-0.160
-260.195	-49.316	0.222	-0.104
-259.180	15.612	0.109	-0.085
-258.165	220.891	-0.050	0.079
-257.151	-70.670	0.117	0.044
-256.136	-177.046	0.336	-0.008
-255.122	-200.000	-0.038	0.205
-254.107	-102.563	-0.294	0.069
-253.092	-200.000	0.039	-0.205
-252.078	1.937	0.145	0.103
-251.063	-182.570	-0.151	-0.003
-250.049	65.401	0.161	0.160
-249.034	98.466	0.170	-0.193
-248.019	462.845	0.033	0.073
-247.005	558.145	0.150	0.357
-245.990	-108.180	-0.104	-0.022
-244.976	-200.000	-0.026	0.190
-243.961	-40.559	0.360	-0.184
-242.946	81.873	0.373	-0.398
-241.932	141.286	-0.156	-0.203
-240.917	-143.510	-0.293	-0.027
-239.903	396.533	-0.126	0.260
-238.888	-85.108	-0.381	-0.117
-237.873	305.440	-0.170	0.311
-236.859	-171.240	0.186	0.006
-235.844	-200.000	0.008	-0.194
-234.830	90.682	0.230	0.253
-233.815	-134.786	0.107	-0.013
-232.800	-87.401	0.020	0.006
-231.786	244.899	-0.224	0.371
-230.771	15.463	0.257	0.199
-229.757	800.000	0.052	0.147
-228.742	36.477	-0.128	0.111
-227.727	102.369	-0.152	0.175
-226.713	-200.000	-0.030	0.139
-225.698	9.225	0.186	-0.139
-224.684	463.009	-0.084	-0.184
-223.669	-128.096	0.149	-0.021
-222.655	17.450	0.158	0.123
-221.640	-103.265	0.179	0.042
-220.625	800.000	-0.067	0.285
-219.611	-14.150	0.258	0.163
-218.596	325.629	-0.103	0.193
-217.582	-52.336	-0.217	0.099
-216.567	-111.687	0.189	0.038
-215.552	800.000	-0.043	-0.139
-214.538	253.963	0.138	0.232
-213.523	-9.961	0.209	0.137
-212.509	-200.000	-0.018	-0.237
-211.494	-200.000	-0.026	-0.165
-210.479	368.244	-0.049	-0.096
-209.465	800.000	0.016	0.048
-208.450	800.000	-0.067	0.229
-207.436	-26.065	0.220	-0.127
-206.421	-98.660	-0.365	0.091
-205.406	-30.775	0.089	-0.049
-204.392	800.000	-0.033	0.091
-203.377	-200.000	0.008	-0.369
-202.363	261.086	-0.034	-0.058
-201.348	-54.331	-0.349	0.156
-200.333	-200.000	-0.016	-0.235
-199.319	800.000	0.062	0.175
-198.304	-26.784	0.120	0.069
-197.290	-200.000	-0.025	-0.239
-196.275	35.949	-0.103	0.089
-195.260	-143.409	-0.047	-0.004
-194.246	-116.945	0.175	-0.031
-193.231	268.923	-0.110	-0.190
-192.217	25.053	-0.136	-0.111
-191.202	217.296	-0.115	0.181
-190.187	-35.466	0.132	-0.071
-189.173	-174.196	0.140	0.004
-188.158	-107.350	0.378	0.082
-187.144	4.911	0.332	-0.240
-186.129	-128.065	0.282	0.040
-185.114	-56.408	0.102	-0.044
-184.100	98.047	0.095	0.108
-183.085	-200.000	0.009	-0.155
-182.071	7.583	-0.115	-0.085
-181.056	-144.320	0.164	0.015
-180.042	800.000	0.038	0.116
-179.027	7.334	0.313	0.230
-178.012	-200.000	-0.035	0.349
-176.998	510.647	0.017	-0.040
-175.983	546.343	0.126	0.296
-174.969	78.958	-0.139	0.146
-173.954	-200.000	-0.085	-0.437
-172.939	-200.000	-0.014	-0.110
-171.925	-111.328	-0.273	-0.055
-170.910	91.883	0.153	0.169
-169.896	384.204	0.148	0.299
-168.881	-200.000	0.035	0.185
-167.866	-130.540	-0.096	-0.013
-166.852	800.000	0.042	0.129
-165.837	-61.388	0.212	0.087
-164.823	-140.613	-0.243	-0.025
-163.808	222.619	-0.123	0.194
-162.793	-54.074	0.036	-0.016
-161.779	211.961	-0.158	-0.244
-160.764	401.312	0.047	0.097
-159.750	560.946	-0.123	0.292
-158.735	-46.767	0.120	0.058
-157.720	-84.522	-0.317	0.098
-156.706	800.000	-0.023	0.089
-155.691	166.533	-0.082	0.115
-154.677	-200.000	-0.102	0.444
-153.662	-21.944	-0.199	0.119
-152.647	800.000	0.115	-0.367
-151.633	-182.257	-0.175	0.003
-150.618	-154.317	-0.240	-0.016
-149.604	-16.081	0.145	0.090
-148.589	800.000	0.045	0.133
-147.574	632.404	0.028	0.068
-146.560	-7.080	-0.168	0.112
-145.545	800.000	0.062	0.174
-144.531	70.254	-0.225	0.228
-143.516	-200.000	0.010	-0.062
-142.502	199.050	0.105	0.158
-141.487	179.653	0.082	0.117
-140.472	-200.000	-0.061	0.288
-139.458	45.857	-0.222	0.202
-138.443	-5.008	0.217	-0.146
-137.429	-200.000	0.067	0.310
-136.414	142.656	-0.031	0.041
-135.399	-146.491	0.097	0.008
-134.385	122.485	0.131	-0.160
-133.370	-84.973	0.118	0.036
-132.356	-96.560	-0.361	-0.093
-131.341	-163.538	0.200	0.009
-130.326	84.944	-0.097	0.105
-129.312	800.000	0.080	0.328
-128.297	-200.000	0.012	-0.101
-127.283	-27.349	0.290	-0.165
-126.268	239.207	-0.143	-0.232
-125.253	-149.723	-0.162	-0.013
-124.239	26.850	-0.209	-0.172
-123.224	26.555	0.126	0.103
-122.210	372.708	0.116	0.231
