DTS Sentinel unit serial number:	SN413079Multiplexer serial number:	ORYXHardware model number:	OX4-SRSoftware version number:	ORYX F/W v4.00 Oryx Data Collector v3.7.2.0data status	okinstallation	princeton_trtdifferential loss correction	single-endedforward channel	channel 2reverse channel	N/Adate	2019/09/16time	12:31:35forward acquisition time	60.00reverse acquisition time	0.00gamma	496.2192k internal	0.2302k external	0.2302temperature offset calibration	0.9949default loss term (dB/km)	0.3790temperature slope calibration	1.0000multiplexer offset coefficient	1.0000multiplexer slope coefficient	1.0000fibre end	0.00T internal ref (°C)	39.66T ext. ref 1 (°C)	13.39T ext. ref 2 (°C)	37.22length (m)	temperature (°C)	Stokes	anti-Stokes-747.200	5.985	-0.177	0.134
-746.185	-84.161	0.145	0.047
-745.171	-200.000	-0.036	0.172
-744.156	-103.436	0.185	-0.044
-743.142	25.382	0.082	0.069
-742.127	-37.439	-0.130	-0.071
-741.112	-200.000	-0.014	-0.086
-740.098	349.132	0.189	0.381
-739.083	-75.402	-0.105	-0.038
-738.069	418.077	0.162	0.352
-737.054	-200.000	0.006	-0.070
-736.039	121.018	-0.096	0.122
-735.025	66.381	-0.225	0.233
-734.010	-200.000	0.001	-0.027
-732.996	-124.879	-0.135	0.021
-731.981	125.493	0.042	-0.055
-730.966	96.240	-0.193	-0.224
-729.952	-200.000	0.027	0.297
-728.937	88.641	-0.111	-0.125
-727.923	488.073	-0.105	0.245
-726.908	60.291	0.144	-0.145
-725.894	-11.291	0.199	0.133
-724.879	800.000	-0.092	-0.313
-723.864	174.161	-0.150	-0.221
-722.850	-79.964	0.088	0.030
-721.835	-200.000	0.043	-0.256
-720.821	-104.378	0.331	0.078
-719.806	-91.913	-0.282	0.081
-718.791	-178.538	-0.342	-0.008
-717.777	-98.192	-0.069	0.018
-716.762	-200.000	-0.008	-0.257
-715.748	-59.261	0.062	-0.027
-714.733	-132.614	-0.130	-0.017
-713.718	-200.000	-0.037	0.294
-712.704	290.154	-0.194	-0.358
-711.689	-71.935	0.053	-0.020
-710.675	-105.634	0.206	-0.048
-709.660	-118.057	-0.184	-0.033
-708.645	270.282	-0.048	-0.086
-707.631	206.861	-0.185	-0.293
-706.616	133.862	0.220	-0.290
-705.602	572.254	0.145	-0.359
-704.587	301.068	0.052	0.097
-703.572	-200.000	-0.017	0.275
-702.558	366.179	-0.013	-0.026
-701.543	-200.000	-0.044	0.347
-700.529	-200.000	0.013	0.168
-699.514	-91.443	-0.399	0.116
-698.499	283.309	0.165	-0.301
-697.485	73.185	-0.343	-0.365
-696.470	-200.000	0.007	0.105
-695.456	-200.000	0.023	-0.221
-694.441	-12.270	-0.187	-0.124
-693.426	538.240	-0.079	-0.191
-692.412	-184.923	-0.146	0.002
-691.397	-200.000	-0.010	-0.052
-690.383	800.000	-0.096	-0.344
-689.368	-9.774	-0.240	-0.162
-688.354	-96.614	0.161	0.043
-687.339	-200.000	0.041	0.264
-686.324	-127.019	-0.150	0.022
-685.310	-69.219	-0.357	0.140
-684.295	-200.000	-0.023	-0.170
-683.281	27.515	0.044	0.037
-682.266	-200.000	0.006	0.140
-681.251	439.397	-0.041	0.092
-680.237	-200.000	0.021	-0.265
-679.222	-119.422	-0.273	-0.048
-678.208	30.021	0.123	-0.107
-677.193	-122.515	-0.158	-0.026
-676.178	-200.000	-0.035	0.163
-675.164	800.000	0.062	0.256
-674.149	403.359	0.059	0.126
-673.135	-200.000	-0.002	-0.287
-672.120	-10.665	0.276	0.186
-671.105	85.092	0.103	0.115
-670.091	29.033	-0.118	-0.102
-669.076	800.000	-0.094	-0.294
-668.062	-11.381	-0.186	0.124
-667.047	-55.140	-0.080	0.037
-666.032	800.000	-0.074	-0.209
-665.018	800.000	0.025	-0.102
-664.003	681.747	0.096	0.254
-662.989	57.926	0.117	-0.116
-661.974	-200.000	-0.447	0.001
-660.959	-62.522	-0.173	0.073
-659.945	800.000	0.055	-0.204
-658.930	-122.028	-0.379	-0.063
-657.916	0.445	-0.186	0.135
-656.901	61.556	0.151	0.153
-655.886	-80.592	-0.282	0.095
-654.872	-121.928	0.169	0.028
-653.857	800.000	-0.057	0.218
-652.843	-158.655	-0.336	-0.020
-651.828	36.209	0.174	0.155
-650.814	228.054	0.074	-0.122
-649.799	168.788	0.243	-0.352
-648.784	101.875	-0.131	-0.155
-647.770	-200.000	0.000	0.048
-646.755	-200.000	-0.034	0.178
-645.741	462.308	-0.128	-0.290
-644.726	16.734	-0.125	-0.101
-643.711	-108.395	-0.283	0.062
-642.697	800.000	0.017	0.071
-641.682	249.853	-0.107	0.184
-640.668	219.656	-0.128	-0.208
-639.653	-200.000	-0.091	-0.407
-638.638	251.525	0.128	-0.221
-637.624	-9.846	-0.072	0.049
-636.609	800.000	-0.108	-0.318
-635.595	-11.900	-0.187	-0.124
-634.580	98.806	0.239	0.280
-633.565	46.617	0.139	0.131
-632.551	-200.000	-0.004	-0.040
-631.536	-1.918	-0.182	-0.130
-630.522	314.340	-0.110	-0.211
-629.507	-200.000	0.012	0.127
-628.492	152.718	-0.074	-0.103
-627.478	-61.059	-0.263	-0.113
-626.463	-155.452	0.315	-0.021
-625.449	800.000	0.028	-0.116
-624.434	-93.711	0.064	0.018
-623.419	-21.747	-0.093	-0.058
-622.405	-200.000	-0.003	-0.279
-621.390	-150.052	0.174	-0.014
-620.376	-35.710	0.152	-0.083
-619.361	77.620	0.066	-0.071
-618.346	175.899	-0.125	-0.184
-617.332	33.882	-0.026	-0.023
-616.317	-20.965	-0.421	-0.261
-615.303	-83.760	0.208	0.067
-614.288	-111.272	0.401	0.083
-613.273	800.000	-0.085	-0.359
-612.259	-200.000	-0.002	-0.239
-611.244	-125.998	0.303	0.046
-610.230	362.886	-0.072	-0.146
-609.215	-200.000	-0.004	0.108
-608.201	800.000	0.106	0.334
-607.186	108.025	0.128	-0.155
-606.171	-110.610	0.299	-0.063
-605.157	-200.000	0.000	-0.048
-604.142	548.896	-0.209	0.508
-603.128	-54.351	-0.154	-0.071
-602.113	25.988	-0.067	0.056
-601.098	131.915	0.025	-0.033
-600.084	95.113	-0.127	-0.147
-599.069	29.315	-0.214	0.184
-598.055	800.000	0.068	0.198
-597.040	107.077	-0.129	-0.156
-596.025	604.890	0.034	0.085
-595.011	800.000	0.037	0.112
-593.996	433.448	-0.055	-0.122
-592.982	171.330	-0.116	-0.169
-591.967	246.921	-0.288	-0.493
-590.952	800.000	-0.065	0.204
-589.938	148.459	-0.219	-0.300
-588.923	49.948	0.161	0.153
-587.909	381.144	-0.104	-0.217
-586.894	249.964	0.022	-0.038
-585.879	-155.298	-0.244	0.016
-584.865	19.760	0.106	0.086
-583.850	-60.446	-0.332	0.143
-582.836	-87.805	0.074	-0.023
-581.821	199.611	0.076	-0.118
-580.806	-200.000	-0.019	0.269
-579.792	800.000	0.092	0.315
-578.777	-90.085	0.111	0.033
-577.763	-75.696	0.193	0.069
-576.748	12.274	-0.051	0.039
-575.733	-115.258	-0.341	0.065
-574.719	-33.682	0.217	-0.121
-573.704	-109.710	-0.228	0.049
-572.690	-73.390	-0.256	-0.095
-571.675	-122.736	-0.239	-0.039
-570.661	229.877	-0.189	0.312
-569.646	-200.000	-0.045	-0.292
-568.631	178.180	0.127	-0.188
-567.617	-163.129	0.283	0.014
-566.602	233.539	0.088	-0.147
-565.588	-200.000	0.028	-0.174
-564.573	-200.000	0.028	0.140
-563.558	-20.658	0.148	-0.092
-562.544	-200.000	-0.028	0.215
-561.529	-46.226	0.214	-0.106
-560.515	-49.874	-0.092	0.044
-559.500	41.399	0.152	0.139
-558.485	-80.921	-0.165	-0.055
-557.471	97.213	0.141	-0.164
-556.456	-43.752	0.284	-0.145
-555.442	-41.222	-0.218	-0.114
-554.427	23.705	0.174	-0.145
-553.412	-157.711	0.311	-0.019
-552.398	404.241	0.046	0.099
-551.383	-200.000	0.000	-0.072
-550.369	800.000	0.040	-0.158
-549.354	800.000	-0.055	0.161
-548.339	800.000	-0.083	-0.250
-547.325	-200.000	0.014	0.073
-546.310	-153.471	0.422	-0.030
-545.296	-111.341	-0.590	-0.122
-544.281	34.605	0.181	-0.160
-543.266	800.000	-0.066	-0.206
-542.252	-200.000	-0.010	-0.152
-541.237	-6.023	0.178	0.123
-540.223	300.516	-0.041	-0.077
-539.208	-200.000	-0.019	-0.370
-538.193	-200.000	0.017	-0.299
-537.179	-15.479	0.068	-0.044
-536.164	151.254	-0.249	0.342
-535.150	-84.652	-0.376	-0.120
-534.135	-70.632	0.033	-0.013
-533.121	-154.039	-0.110	0.008
-532.106	-200.000	-0.011	-0.124
-531.091	-42.714	0.247	-0.127
-530.077	-22.130	0.289	0.177
-529.062	-144.579	-0.121	-0.011
-528.048	-200.000	0.008	0.191
-527.033	-173.657	-0.290	0.009
-526.018	-39.549	-0.167	-0.089
-525.004	93.350	0.091	0.104
-523.989	800.000	0.043	0.161
-522.975	231.317	-0.108	0.178
-521.960	378.346	0.163	-0.338
-520.945	-200.000	0.064	-0.551
-519.931	-147.185	-0.252	-0.022
-518.916	-143.800	-0.185	-0.018
-517.902	-81.189	-0.069	0.023
-516.887	89.249	0.310	-0.349
-515.872	-197.810	-0.517	-0.003
-514.858	-200.000	0.039	-0.295
-513.843	-106.698	0.271	-0.061
-512.829	192.617	-0.156	-0.238
-511.814	800.000	-0.104	-0.426
-510.799	-57.564	0.081	-0.036
-509.785	-65.267	-0.450	-0.183
-508.770	800.000	0.114	0.340
-507.756	-200.000	-0.036	0.195
-506.741	-34.266	0.308	0.171
-505.726	-111.346	-0.329	-0.068
-504.712	118.475	-0.106	-0.131
-503.697	-136.102	0.364	-0.043
-502.683	-28.269	0.188	-0.109
-501.668	523.820	0.088	0.208
-500.653	800.000	0.015	-0.049
-499.639	800.000	0.110	0.444
-498.624	526.824	0.152	-0.362
-497.610	121.290	-0.265	0.333
-496.595	-72.896	0.246	-0.091
-495.581	14.300	-0.031	0.024
-494.566	-76.480	-0.211	-0.075
-493.551	1.988	0.185	-0.134
-492.537	785.819	0.011	0.029
-491.522	458.166	-0.083	0.185
-490.508	-122.982	0.225	0.037
-489.493	800.000	0.012	-0.040
-488.478	354.084	0.114	0.228
-487.464	800.000	-0.147	-0.461
-486.449	-200.000	0.004	-0.088
-485.435	29.229	-0.283	0.242
-484.420	14.006	-0.103	0.081
-483.405	-56.745	-0.406	0.181
-482.391	800.000	0.050	-0.219
-481.376	-17.942	0.073	-0.046
-480.362	-151.771	-0.026	-0.002
-479.347	-118.320	-0.287	0.052
-478.332	346.667	-0.111	0.220
-477.318	-49.195	0.327	0.157
-476.303	800.000	-0.094	-0.280
-475.289	-61.781	-0.200	-0.085
-474.274	140.339	-0.133	0.177
-473.259	190.253	0.155	-0.235
-472.245	367.538	0.119	0.242
-471.230	299.688	-0.060	-0.111
-470.216	800.000	0.154	0.587
-469.201	-200.000	0.010	0.097
-468.186	-92.533	-0.273	-0.077
-467.172	321.384	0.062	0.118
-466.157	800.000	0.019	0.075
-465.143	171.621	0.160	-0.231
-464.128	-54.243	-0.073	0.033
-463.113	-200.000	-0.003	0.263
-462.099	82.829	-0.280	0.306
-461.084	37.324	0.073	-0.066
-460.070	-142.702	0.079	0.008
-459.055	74.886	-0.224	0.237
-458.040	-92.403	-0.106	-0.030
-457.026	53.765	0.141	-0.137
-456.011	-46.445	-0.213	-0.105
-454.997	379.935	0.056	0.116
-453.982	609.562	-0.102	0.256
-452.968	234.676	-0.091	-0.151
-451.953	-200.000	0.019	0.237
-450.938	-75.021	-0.452	0.163
-449.924	-8.756	-0.256	0.173
-448.909	-200.000	-0.015	-0.112
-447.895	-124.660	0.222	-0.035
-446.880	-57.796	-0.297	0.131
-445.865	-200.000	-0.000	0.201
-444.851	800.000	0.039	-0.109
-443.836	800.000	0.050	0.167
-442.822	-200.000	-0.010	0.211
-441.807	-1.840	0.069	-0.049
-440.792	-38.450	0.033	-0.017
-439.778	800.000	0.045	0.131
-438.763	-200.000	0.033	-0.204
-437.749	800.000	0.065	0.186
-436.734	484.044	-0.085	-0.195
-435.719	-172.953	-0.081	0.003
-434.705	146.198	-0.065	-0.088
-433.690	-109.729	0.102	0.022
-432.676	-43.762	-0.049	0.025
-431.661	-200.000	-0.050	-0.469
-430.646	-200.000	-0.003	0.100
-429.632	-200.000	-0.013	-0.065
-428.617	-154.054	0.257	-0.018
-427.603	-101.206	0.147	-0.036
-426.588	-124.904	0.348	0.054
-425.573	-88.301	0.067	0.020
-424.559	-200.000	0.027	0.204
-423.544	62.376	-0.208	0.209
-422.530	-200.000	-0.004	0.051
-421.515	12.664	0.288	0.224
-420.500	-50.883	0.086	-0.041
-419.486	-200.000	-0.052	-0.235
-418.471	-69.152	-0.288	0.111
-417.457	160.081	-0.084	-0.117
-416.442	800.000	0.078	-0.227
-415.428	222.528	0.122	-0.197
-414.413	59.672	-0.099	0.098
-413.398	490.678	-0.118	0.272
-412.384	-182.233	0.334	-0.006
-411.369	-200.000	0.019	0.310
-410.355	-200.000	0.012	-0.160
-409.340	-146.779	0.065	-0.006
-408.325	-71.895	-0.346	0.130
-407.311	653.641	0.152	0.391
-406.296	-157.476	-0.239	-0.014
-405.282	-70.603	-0.266	-0.101
-404.267	-200.000	-0.010	0.079
-403.252	53.240	0.269	0.259
-402.238	-200.000	0.010	0.314
-401.223	60.976	0.035	-0.035
-400.209	-200.000	-0.003	0.108
-399.194	-200.000	-0.006	0.142
-398.179	-200.000	-0.030	0.174
-397.165	126.544	0.222	0.283
-396.150	-112.615	-0.154	0.031
-395.136	766.456	-0.084	0.230
-394.121	800.000	0.040	-0.171
-393.106	-190.689	-0.139	0.001
-392.092	-110.584	-0.042	-0.009
-391.077	-115.556	0.230	0.043
-390.063	-45.482	0.240	-0.119
-389.048	169.974	0.081	0.116
-388.033	-200.000	0.026	-0.308
-387.019	-28.062	-0.074	-0.043
-386.004	-128.242	0.255	0.037
-384.990	166.597	-0.126	-0.179
-383.975	325.339	-0.068	0.130
-382.960	-85.331	-0.281	-0.088
-381.946	-200.000	-0.000	-0.067
-380.931	800.000	0.030	-0.119
-379.917	-170.794	0.283	0.010
-378.902	14.245	0.132	0.104
-377.888	193.215	0.192	0.292
-376.873	-200.000	0.031	-0.164
-375.858	800.000	0.062	-0.195
-374.844	513.918	0.065	-0.152
-373.829	-27.716	-0.102	-0.059
-372.815	-115.671	-0.083	0.016
-371.800	800.000	0.045	-0.165
-370.785	800.000	0.052	-0.164
-369.771	-106.275	-0.186	-0.042
-368.756	2.503	0.186	-0.135
-367.742	-89.484	0.109	0.032
-366.727	-200.000	0.032	0.174
-365.712	-23.680	-0.132	0.079
-364.698	439.090	-0.154	-0.337
-363.683	208.507	0.205	-0.322
-362.669	713.728	0.165	-0.438
-361.654	-94.936	-0.066	0.018
-360.639	-103.296	-0.292	-0.069
-359.625	-182.692	0.181	-0.003
-358.610	-115.138	-0.059	0.011
-357.596	-200.000	0.023	-0.156
-356.581	-34.679	0.270	0.148
-355.566	354.496	0.079	-0.158
-354.552	111.755	-0.209	-0.253
-353.537	100.533	0.267	0.311
-352.523	-200.000	0.012	0.186
-351.508	269.425	-0.258	-0.455
-350.493	128.595	0.113	0.144
-349.479	58.543	-0.197	0.194
-348.464	43.048	-0.113	-0.103
-347.450	269.758	0.058	0.103
-346.435	-139.308	-0.175	0.019
-345.420	149.973	-0.184	0.251
-344.406	-200.000	-0.015	0.171
-343.391	-113.656	-0.083	-0.016
-342.377	-200.000	-0.006	0.032
-341.362	-200.000	-0.116	-0.557
-340.348	-200.000	-0.020	0.095
-339.333	173.320	0.204	0.295
-338.318	97.803	-0.220	0.253
-337.304	24.132	0.176	-0.146
-336.289	-200.000	-0.021	0.103
-335.275	3.317	-0.081	0.059
-334.260	100.115	-0.050	-0.058
-333.245	79.698	0.159	0.171
-332.231	-71.482	-0.118	-0.044
-331.216	-117.931	0.183	0.033
-330.202	-74.637	-0.155	-0.056
-329.187	-10.223	-0.043	-0.029
-328.172	-2.464	0.202	-0.142
-327.158	41.953	0.225	0.205
-326.143	143.215	-0.144	0.192
-325.129	-192.785	0.126	0.001
-324.114	-143.068	0.152	-0.015
-323.099	795.219	-0.094	-0.259
-322.085	53.202	-0.187	-0.180
-321.070	1.545	0.221	0.159
-320.056	-132.301	0.298	-0.039
-319.041	38.835	-0.125	-0.112
-318.026	188.807	-0.099	-0.148
-317.012	800.000	-0.047	-0.182
-315.997	-96.922	-0.457	0.120
-314.983	-94.940	0.135	-0.037
-313.968	-200.000	0.010	-0.414
-312.953	-122.659	-0.295	-0.048
-311.939	384.757	0.119	0.246
-310.924	-100.294	0.143	0.036
-309.910	31.527	0.211	-0.182
-308.895	318.203	0.081	0.154
-307.880	712.543	-0.135	0.358
-306.866	-171.065	-0.075	-0.003
-305.851	-41.577	-0.058	-0.030
-304.837	800.000	0.080	0.273
-303.822	124.498	-0.078	0.098
-302.807	110.284	0.149	-0.179
-301.793	-127.811	-0.148	-0.021
-300.778	-86.202	0.102	0.031
-299.764	664.040	-0.080	-0.208
-298.749	20.917	-0.215	0.175
-297.735	-12.529	0.258	-0.168
-296.720	-47.243	0.125	0.061
-295.705	272.520	-0.147	-0.260
-294.691	515.768	-0.060	-0.140
-293.676	-54.423	-0.267	-0.121
-292.662	-73.324	0.331	0.121
-291.647	-77.816	0.316	0.109
-290.632	40.707	-0.125	0.113
-289.618	-200.000	0.037	0.341
-288.603	800.000	-0.019	0.057
-287.589	-4.428	0.143	0.099
-286.574	-93.049	0.145	0.041
-285.559	-1.024	0.030	-0.021
-284.545	-63.839	-0.065	0.027
-283.530	68.655	-0.137	0.140
-282.516	800.000	0.058	0.188
-281.501	-74.869	0.142	0.051
-280.486	-200.000	-0.016	-0.110
-279.472	800.000	0.053	-0.232
-278.457	-153.187	0.115	-0.008
-277.443	800.000	-0.075	0.317
-276.428	242.031	0.122	0.205
-275.413	253.238	0.117	-0.201
-274.399	136.186	0.164	0.215
-273.384	-200.000	-0.021	0.204
-272.370	-91.451	0.219	-0.063
-271.355	-71.422	0.205	0.077
-270.340	152.636	0.068	-0.093
-269.326	-200.000	0.025	0.192
-268.311	238.570	0.117	-0.195
-267.297	-73.336	-0.191	-0.070
-266.282	503.950	0.138	0.319
-265.267	137.074	0.208	0.272
-264.253	-200.000	0.003	-0.017
-263.238	-32.183	-0.080	-0.045
-262.224	-200.000	-0.041	0.464
-261.209	-200.000	0.013	-0.195
-260.195	-156.056	-0.129	0.008
-259.180	96.226	0.117	-0.133
-258.165	370.450	-0.065	-0.132
-257.151	627.084	0.084	0.212
-256.136	-200.000	0.025	-0.303
-255.122	-147.095	-0.148	0.013
-254.107	-200.000	-0.011	0.131
-253.092	8.244	-0.071	0.053
-252.078	-200.000	0.002	0.082
-251.063	386.178	0.091	-0.189
-250.049	-155.390	0.248	-0.016
-249.034	34.168	0.403	-0.351
-248.019	48.371	-0.290	-0.271
-247.005	3.351	-0.311	0.226
-245.990	-75.120	0.218	-0.078
-244.976	55.475	-0.215	0.208
-243.961	-155.969	-0.038	-0.002
-242.946	-42.650	0.196	0.100
-241.932	88.199	-0.119	-0.132
-240.917	-150.096	0.174	0.014
-239.903	327.415	-0.095	0.183
-238.888	31.969	-0.125	0.108
-237.873	389.340	0.085	0.175
-236.859	-25.318	0.210	-0.124
-235.844	159.886	-0.179	0.249
-234.830	408.766	0.115	-0.242
-233.815	21.813	-0.068	-0.056
-232.800	99.438	0.199	-0.230
-231.786	-65.842	0.080	0.032
-230.771	138.776	0.123	0.161
-229.757	-38.724	-0.167	0.088
-228.742	-19.888	0.226	0.140
-227.727	-200.000	0.017	0.109
-226.713	203.516	0.070	-0.108
-225.698	425.366	0.051	-0.109
-224.684	316.602	-0.103	-0.194
-223.669	32.831	0.096	-0.083
-222.655	-162.729	0.158	-0.008
-221.640	-30.512	0.259	-0.146
-220.625	800.000	0.117	0.352
-219.611	2.537	0.265	-0.192
-218.596	800.000	0.052	0.215
-217.582	-86.525	-0.092	-0.028
-216.567	-200.000	-0.019	0.110
-215.552	-160.258	0.118	0.006
-214.538	-72.350	-0.084	-0.031
-213.523	800.000	0.051	0.143
-212.509	-102.416	-0.175	0.042
-211.494	-200.000	-0.021	0.173
-210.479	-4.475	-0.151	0.104
-209.465	-200.000	-0.057	0.337
-208.450	-200.000	-0.010	0.053
-207.436	-60.567	0.097	0.041
-206.421	800.000	0.023	-0.077
-205.406	77.590	-0.144	-0.153
-204.392	-200.000	-0.024	-0.163
-203.377	800.000	0.078	0.253
-202.363	-170.929	0.253	0.009
-201.348	2.688	-0.119	0.086
-200.333	800.000	0.089	-0.276
-199.319	180.449	-0.176	-0.257
-198.304	-106.785	-0.133	-0.029
-197.290	-166.056	0.064	-0.003
-196.275	-121.680	0.103	0.017
-195.260	633.393	0.048	-0.122
-194.246	221.438	0.147	-0.236
-193.231	-138.098	0.190	0.021
-192.217	-31.705	0.200	-0.112
-191.202	173.046	-0.165	-0.237
-190.187	736.911	0.028	-0.074
-189.173	167.546	-0.100	-0.142
-188.158	281.108	0.092	0.164
-187.144	-12.724	-0.124	-0.080
-186.129	619.685	-0.130	0.326
-185.114	-77.918	0.036	-0.012
-184.100	-72.727	0.184	0.068
-183.085	-200.000	0.003	0.046
-182.071	-135.226	-0.211	0.025
-181.056	105.741	0.035	0.041
-180.042	121.347	0.214	-0.266
-179.027	69.924	-0.267	-0.274
-178.012	800.000	0.102	0.329
-176.998	-74.893	0.326	0.116
-175.983	-69.137	-0.272	0.104
-174.969	-16.239	0.118	0.075
-173.954	430.558	0.105	0.226
-172.939	-131.507	-0.068	0.009
-171.925	-200.000	0.051	0.282
-170.910	-200.000	-0.006	-0.080
-169.896	319.405	-0.184	0.347
-168.881	-200.000	0.116	0.558
-167.866	-200.000	0.016	0.126
-166.852	326.488	-0.132	0.253
-165.837	51.045	0.071	0.067
-164.823	800.000	0.074	-0.227
-163.808	-18.542	-0.206	-0.128
-162.793	-85.462	-0.368	0.114
-161.779	14.427	0.048	-0.038
-160.764	2.610	-0.329	0.237
-159.750	-19.425	0.386	0.238
-158.735	210.804	-0.093	-0.146
-157.720	-60.525	-0.279	-0.118
-156.706	118.884	0.300	0.369
-155.691	-78.534	-0.137	-0.047
-154.677	-200.000	-0.064	-0.567
-153.662	405.964	0.140	0.294
-152.647	-98.028	-0.223	0.057
-151.633	792.730	-0.048	0.131
-150.618	800.000	-0.087	-0.287
-149.604	400.622	0.183	-0.382
-148.589	226.767	0.190	0.306
-147.574	100.283	0.172	0.199
-146.560	800.000	0.078	0.217
-145.545	-156.676	-0.253	0.016
-144.531	-28.032	-0.220	0.127
-143.516	124.358	0.157	0.196
-142.502	-200.000	0.055	0.328
-141.487	800.000	0.098	-0.288
-140.472	-200.000	-0.003	0.322
-139.458	155.046	-0.067	0.091
-138.443	-126.920	0.050	-0.007
-137.429	-200.000	-0.011	0.065
-136.414	95.705	0.168	0.191
-135.399	-85.769	-0.189	0.058
-134.385	-200.000	0.000	-0.080
-133.370	331.595	0.203	-0.390
-132.356	-62.288	0.344	-0.143
-131.341	-121.573	-0.205	0.034
-130.326	-160.789	0.125	-0.007
-129.312	-154.336	-0.264	0.018
-128.297	-170.006	0.441	-0.016
-127.283	-61.828	-0.182	0.076
-126.268	-200.000	-0.018	0.083
-125.253	-200.000	-0.043	-0.257
-124.239	800.000	-0.118	-0.439
-123.224	-51.750	-0.035	-0.016
-122.210	-200.000	-0.010	0.123
