DTS Sentinel unit serial number:	SN413079Multiplexer serial number:	ORYXHardware model number:	OX4-SRSoftware version number:	ORYX F/W v4.00 Oryx Data Collector v3.7.2.0data status	okinstallation	princeton_trtdifferential loss correction	single-endedforward channel	channel 2reverse channel	N/Adate	2019/09/10time	17:13:11forward acquisition time	60.00reverse acquisition time	0.00gamma	496.2192k internal	0.2310k external	0.2310temperature offset calibration	0.9932default loss term (dB/km)	0.3790temperature slope calibration	1.0000multiplexer offset coefficient	1.0000multiplexer slope coefficient	1.0000fibre end	0.00T internal ref (°C)	37.62T ext. ref 1 (°C)	-0.39T ext. ref 2 (°C)	32.02length (m)	temperature (°C)	Stokes	anti-Stokes-747.200	-119.977	0.361	-0.063
-746.185	16.454	-0.183	0.147
-745.171	800.000	-0.115	0.364
-744.156	800.000	-0.026	0.104
-743.142	183.619	0.087	0.131
-742.127	150.869	0.126	0.174
-741.112	0.251	-0.125	-0.091
-740.098	234.954	0.150	0.252
-739.083	-200.000	0.023	-0.148
-738.069	-34.133	-0.081	0.045
-737.054	-200.000	0.001	0.165
-736.039	-104.856	-0.637	0.149
-735.025	-200.000	-0.012	-0.147
-734.010	-112.851	-0.432	0.087
-732.996	89.979	0.092	-0.104
-731.981	88.960	-0.061	-0.069
-730.966	25.652	-0.145	0.122
-729.952	-81.727	-0.174	-0.058
-728.937	352.994	-0.087	-0.175
-727.923	246.753	-0.231	-0.395
-726.908	-200.000	0.008	0.188
-725.894	-125.446	-0.430	-0.066
-724.879	-54.232	0.023	0.010
-723.864	-117.052	-0.310	-0.057
-722.850	-147.274	0.135	-0.012
-721.835	-200.000	-0.049	-0.333
-720.821	-4.368	-0.332	0.233
-719.806	-103.871	-0.441	-0.105
-718.791	-76.406	-0.341	-0.122
-717.777	-33.108	0.113	-0.064
-716.762	0.844	-0.164	0.119
-715.748	-200.000	-0.062	-0.393
-714.733	-200.000	0.057	-0.440
-713.718	191.654	-0.088	-0.135
-712.704	-200.000	-0.003	-0.106
-711.689	77.392	-0.189	0.204
-710.675	95.868	-0.259	0.300
-709.660	-200.000	0.002	0.185
-708.645	-96.436	-0.354	-0.095
-707.631	-200.000	0.016	-0.585
-706.616	-37.976	-0.066	0.035
-705.602	120.097	-0.077	-0.097
-704.587	26.256	0.292	0.247
-703.572	46.422	0.119	0.112
-702.558	-74.645	-0.202	0.074
-701.543	-161.624	-0.132	0.007
-700.529	254.461	0.186	-0.323
-699.514	254.202	0.186	0.323
-698.499	-200.000	0.010	-0.377
-697.485	-200.000	0.002	0.270
-696.470	-200.000	0.009	0.044
-695.456	-71.983	-0.439	0.165
-694.441	-17.050	0.151	0.097
-693.426	92.597	0.084	-0.096
-692.412	-50.355	0.103	-0.049
-691.397	98.418	-0.274	0.320
-690.383	-200.000	0.007	-0.196
-689.368	132.265	-0.120	0.156
-688.354	-34.753	-0.040	0.022
-687.339	-66.526	-0.167	0.067
-686.324	-93.763	-0.170	0.047
-685.310	-200.000	-0.013	0.271
-684.295	427.868	0.093	-0.204
-683.281	800.000	0.071	-0.242
-682.266	148.314	-0.123	-0.168
-681.251	-49.016	-0.285	0.138
-680.237	800.000	0.043	-0.138
-679.222	-62.838	0.488	-0.204
-678.208	-200.000	0.005	-0.121
-677.193	371.319	0.064	-0.132
-676.178	165.402	-0.124	-0.177
-675.164	330.013	-0.035	-0.068
-674.149	800.000	0.027	0.091
-673.135	-89.991	0.413	-0.122
-672.120	190.677	-0.134	0.204
-671.105	-200.000	-0.082	-0.398
-670.091	70.767	-0.090	-0.094
-669.076	-0.180	0.138	0.099
-668.062	-73.561	-0.144	0.053
-667.047	408.662	-0.078	0.168
-666.032	800.000	0.081	0.294
-665.018	4.178	-0.081	0.060
-664.003	-133.525	-0.041	0.005
-662.989	714.377	-0.048	0.129
-661.974	800.000	0.051	-0.158
-660.959	-22.120	-0.080	-0.049
-659.945	83.161	-0.162	-0.179
-658.930	-58.535	0.156	-0.069
-657.916	223.702	0.285	-0.466
-656.901	313.661	-0.092	0.176
-655.886	800.000	-0.093	-0.277
-654.872	138.815	0.031	0.041
-653.857	654.342	-0.088	0.228
-652.843	800.000	0.091	0.258
-651.828	-200.000	0.075	-0.350
-650.814	37.235	0.065	0.059
-649.799	-15.188	0.235	-0.152
-648.784	-120.111	-0.233	0.040
-647.770	-157.016	0.081	-0.005
-646.755	617.055	-0.061	-0.155
-645.741	-200.000	0.039	0.283
-644.726	-200.000	0.003	-0.176
-643.711	-82.837	-0.216	-0.070
-642.697	1.664	-0.141	-0.103
-641.682	-31.375	-0.357	-0.203
-640.668	-200.000	-0.015	0.086
-639.653	320.504	-0.110	-0.211
-638.638	336.754	-0.183	-0.360
-637.624	-200.000	0.048	-0.364
-636.609	-121.052	0.266	0.045
-635.595	-200.000	0.035	-0.571
-634.580	-40.378	0.120	-0.063
-633.565	64.948	-0.168	0.172
-632.551	800.000	-0.051	-0.160
-631.536	108.327	-0.047	0.056
-630.522	-200.000	0.023	-0.176
-629.507	-31.546	-0.156	0.089
-628.492	15.666	-0.101	-0.080
-627.478	-67.517	0.457	-0.181
-626.463	-200.000	-0.026	-0.361
-625.449	800.000	-0.074	0.271
-624.434	-17.020	-0.165	0.105
-623.419	-200.000	-0.010	0.236
-622.405	-94.985	0.043	-0.012
-621.390	-147.292	0.324	-0.028
-620.376	154.804	-0.167	-0.233
-619.361	-63.688	0.174	-0.072
-618.346	-48.135	0.178	0.087
-617.332	-51.661	0.121	0.057
-616.317	-56.174	-0.073	0.033
-615.303	800.000	0.038	-0.144
-614.288	800.000	0.056	-0.171
-613.273	-200.000	-0.032	0.181
-612.259	212.454	0.107	0.171
-611.244	142.622	-0.076	0.101
-610.230	-30.529	-0.188	0.108
-609.215	800.000	-0.060	0.207
-608.201	-200.000	-0.037	0.181
-607.186	-157.570	0.288	0.017
-606.171	-113.345	-0.228	-0.045
-605.157	-200.000	-0.023	-0.136
-604.142	-56.236	-0.210	-0.094
-603.128	800.000	0.050	0.177
-602.113	185.621	-0.135	0.203
-601.098	-160.482	-0.234	0.013
-600.084	-19.460	0.364	-0.228
-599.069	17.929	-0.254	-0.204
-598.055	373.973	0.040	0.082
-597.040	-38.671	-0.090	-0.048
-596.025	-146.287	0.013	0.001
-595.011	-200.000	0.014	0.163
-593.996	-113.649	0.212	-0.042
-592.982	66.399	-0.160	0.164
-591.967	-83.331	-0.029	-0.009
-590.952	-118.399	0.326	-0.058
-589.938	800.000	0.116	-0.448
-588.923	-29.308	-0.084	-0.048
-587.909	161.917	-0.270	0.381
-586.894	-200.000	-0.045	-0.324
-585.879	109.121	0.173	0.209
-584.865	3.820	0.221	-0.163
-583.850	-38.316	0.209	-0.112
-582.836	60.854	-0.195	-0.195
-581.821	13.731	-0.189	0.148
-580.806	15.560	-0.244	-0.194
-579.792	-198.350	-0.154	0.001
-578.777	-200.000	0.006	0.185
-577.763	395.370	0.041	0.086
-576.748	-7.839	-0.141	-0.096
-575.733	-125.474	0.525	-0.081
-574.719	-57.301	0.297	-0.132
-573.704	800.000	-0.047	0.153
-572.690	177.108	-0.070	-0.103
-571.675	32.816	0.121	0.106
-570.661	800.000	-0.081	-0.353
-569.646	-59.971	0.237	0.102
-568.631	-46.403	-0.223	0.110
-567.617	113.334	-0.134	-0.164
-566.602	-128.046	0.058	0.008
-565.588	800.000	-0.091	-0.258
-564.573	-200.000	-0.001	0.274
-563.558	-117.791	0.175	0.032
-562.544	-128.289	-0.266	-0.038
-561.529	-169.826	-0.516	0.019
-560.515	800.000	0.103	-0.353
-559.500	-147.597	0.114	-0.010
-558.485	115.813	0.094	-0.115
-557.471	-200.000	-0.000	-0.091
-556.456	63.947	-0.231	-0.234
-555.442	-200.000	0.034	-0.376
-554.427	49.232	0.248	0.235
-553.412	238.651	-0.244	0.409
-552.398	156.755	-0.179	-0.249
-551.383	-57.838	-0.156	-0.069
-550.369	-174.369	-0.203	-0.006
-549.354	-46.975	-0.400	0.197
-548.339	-119.137	-0.143	-0.025
-547.325	187.331	0.233	-0.351
-546.310	-200.000	0.013	-0.227
-545.296	265.112	-0.059	0.104
-544.281	116.267	0.169	0.209
-543.266	565.873	0.070	0.172
-542.252	326.658	-0.054	-0.104
-541.237	-35.532	-0.295	0.161
-540.223	-27.832	0.297	-0.173
-539.208	487.831	0.065	-0.150
-538.193	-92.889	0.039	0.011
-537.179	97.400	0.137	-0.158
-536.164	163.121	0.145	-0.205
-535.150	41.725	-0.082	0.075
-534.135	-200.000	0.019	-0.101
-533.121	800.000	0.114	0.365
-532.106	-15.758	0.155	-0.099
-531.091	-155.834	0.289	-0.019
-530.077	618.451	-0.052	0.132
-529.062	-200.000	-0.022	0.304
-528.048	-61.154	-0.260	-0.110
-527.033	-50.477	-0.061	-0.029
-526.018	-200.000	-0.058	0.364
-525.004	1.329	-0.344	0.249
-523.989	-176.325	-0.258	-0.007
-522.975	432.016	0.059	0.129
-521.960	-97.489	-0.162	0.042
-520.945	350.107	0.206	0.410
-519.931	-34.861	-0.054	0.030
-518.916	618.228	0.024	0.061
-517.902	800.000	0.137	-0.512
-516.887	209.168	0.268	-0.423
-515.872	-200.000	-0.051	-0.298
-514.858	800.000	-0.033	0.116
-513.843	217.913	-0.230	0.369
-512.829	594.118	-0.112	-0.278
-511.814	-14.272	0.252	0.164
-510.799	-31.279	0.156	0.089
-509.785	-102.824	-0.059	-0.014
-508.770	-91.564	-0.274	-0.079
-507.756	-119.164	-0.100	0.018
-506.741	664.715	0.042	0.109
-505.726	-62.730	0.212	0.088
-504.712	800.000	0.107	-0.429
-503.697	-74.037	-0.238	0.087
-502.683	-85.295	-0.117	0.037
-501.668	800.000	-0.021	0.069
-500.653	50.462	-0.169	-0.161
-499.639	191.279	-0.195	0.296
-498.624	46.143	0.153	0.143
-497.610	248.857	-0.099	0.169
-496.595	-37.475	-0.228	0.122
-495.581	-80.080	0.207	-0.070
-494.566	550.244	-0.036	-0.088
-493.551	-200.000	-0.001	-0.255
-492.537	-104.696	0.326	0.076
-491.522	-200.000	0.054	0.320
-490.508	448.598	0.022	-0.049
-489.493	-200.000	-0.019	0.298
-488.478	519.415	-0.066	-0.157
-487.464	98.166	0.132	0.152
-486.449	-1.855	0.250	0.177
-485.435	101.767	-0.265	-0.311
-484.420	800.000	0.025	-0.086
-483.405	-200.000	0.008	0.385
-482.391	547.628	0.089	0.214
-481.376	-55.831	0.357	0.160
-480.362	-41.976	-0.208	0.107
-479.347	133.128	-0.163	-0.211
-478.332	-98.584	-0.188	0.048
-477.318	-48.270	-0.276	0.134
-476.303	-60.953	0.091	-0.038
-475.289	152.236	-0.054	-0.074
-474.274	-111.142	-0.124	-0.026
-473.259	-75.409	0.239	-0.086
-472.245	-85.286	0.260	-0.082
-471.230	-92.907	-0.309	0.087
-470.216	-6.213	-0.153	-0.105
-469.201	83.738	0.050	-0.054
-468.186	-74.496	0.246	-0.089
-467.172	68.659	-0.175	-0.180
-466.157	215.372	-0.178	-0.284
-465.143	-175.898	-0.203	-0.005
-464.128	-200.000	-0.011	-0.191
-463.113	800.000	-0.097	0.275
-462.099	-135.397	0.194	0.023
-461.084	800.000	-0.028	-0.112
-460.070	23.722	0.137	0.113
-459.055	-119.597	0.192	-0.033
-458.040	-126.295	0.168	0.025
-457.026	56.310	-0.048	-0.046
-456.011	-158.862	-0.200	-0.011
-454.997	9.929	0.038	0.029
-453.982	-66.596	0.236	-0.094
-452.968	-200.000	-0.053	-0.289
-451.953	410.892	-0.185	0.395
-450.938	20.778	-0.160	0.130
-449.924	-144.300	-0.145	0.014
-448.909	-84.137	-0.102	-0.032
-447.895	37.594	0.149	-0.133
-446.880	-200.000	0.040	-0.186
-445.865	-139.004	-0.191	0.021
-444.851	355.595	-0.009	-0.019
-443.836	-200.000	-0.012	0.080
-442.822	-200.000	-0.060	0.358
-441.807	-200.000	-0.019	0.096
-440.792	-8.872	-0.210	0.141
-439.778	144.023	-0.205	0.275
-438.763	-89.793	0.207	-0.061
-437.749	-46.299	0.074	-0.037
-436.734	-97.904	-0.087	-0.023
-435.719	2.804	-0.123	-0.089
-434.705	800.000	0.068	0.265
-433.690	-12.175	0.193	0.127
-432.676	800.000	-0.122	-0.465
-431.661	34.030	0.315	-0.276
-430.646	78.991	0.140	0.150
-429.632	-69.641	0.167	-0.064
-428.617	-135.572	-0.072	-0.009
-427.603	800.000	-0.065	-0.279
-426.588	-200.000	0.039	-0.256
-425.573	257.233	-0.255	-0.440
-424.559	800.000	0.074	-0.283
-423.544	-9.149	0.153	0.102
-422.530	51.514	0.203	0.194
-421.515	-156.438	0.204	0.013
-420.500	94.131	0.148	0.169
-419.486	-97.999	0.120	0.031
-418.471	576.548	0.053	-0.130
-417.457	-141.453	-0.424	0.043
-416.442	268.535	-0.108	0.189
-415.428	-48.391	-0.176	0.085
-414.413	22.142	0.235	-0.193
-413.398	-200.000	0.046	-0.284
-412.384	-108.463	0.247	-0.053
-411.369	-200.000	-0.012	-0.245
-410.355	9.103	0.330	0.250
-409.340	-200.000	0.000	0.006
-408.325	-120.042	-0.333	0.057
-407.311	-59.759	-0.078	-0.034
-406.296	-23.263	0.227	0.137
-405.282	29.831	0.173	-0.148
-404.267	-53.628	-0.094	-0.043
-403.252	-200.000	-0.005	0.071
-402.238	800.000	0.035	0.141
-401.223	-45.925	-0.059	0.029
-400.209	-130.702	-0.157	-0.021
-399.194	123.180	-0.096	-0.121
-398.179	150.615	-0.227	-0.310
-397.165	-77.677	0.238	-0.082
-396.150	-58.589	-0.146	-0.064
-395.136	-200.000	-0.020	-0.150
-394.121	1.995	0.243	-0.176
-393.106	-191.676	0.643	0.006
-392.092	800.000	-0.049	0.197
-391.077	440.101	0.047	-0.103
-390.063	304.744	0.096	0.179
-389.048	247.416	0.028	-0.047
-388.033	156.687	0.091	0.125
-387.019	556.368	-0.075	0.181
-386.004	-91.331	0.043	-0.012
-384.990	-124.327	-0.076	-0.012
-383.975	69.651	0.140	-0.145
-382.960	22.050	0.346	0.283
-381.946	-35.389	-0.382	-0.208
-380.931	-200.000	0.069	0.401
-379.917	-170.884	-0.110	0.004
-378.902	339.634	0.028	-0.056
-377.888	-200.000	-0.012	-0.093
-376.873	363.094	0.186	0.375
-375.858	-113.972	-0.316	0.061
-374.844	-84.353	0.347	0.110
-373.829	-200.000	0.008	0.050
-372.815	542.138	0.139	0.332
-371.800	29.723	-0.344	0.293
-370.785	-54.890	0.299	0.135
-369.771	-82.466	0.418	-0.136
-368.756	324.192	0.097	-0.185
-367.742	-6.821	-0.097	-0.066
-366.727	-18.556	0.203	-0.127
-365.712	-200.000	0.062	0.404
-364.698	800.000	0.044	-0.128
-363.683	34.353	-0.215	-0.188
-362.669	-200.000	-0.145	0.655
-361.654	-200.000	-0.047	-0.207
-360.639	63.592	0.287	-0.288
-359.625	-151.060	0.127	0.010
-358.610	335.960	-0.057	0.111
-357.596	-57.955	0.236	0.103
-356.581	-200.000	-0.015	-0.121
-355.566	-200.000	-0.027	-0.246
-354.552	-124.820	-0.169	0.026
-353.537	2.008	-0.111	0.080
-352.523	-200.000	0.007	0.069
-351.508	-121.130	0.185	0.031
-350.493	-89.399	0.063	-0.019
-349.479	-150.767	-0.230	-0.017
-348.464	278.673	-0.089	0.160
-347.450	-200.000	0.033	0.302
-346.435	-49.009	-0.243	-0.116
-345.420	-200.000	-0.008	-0.136
-344.406	-108.836	-0.147	-0.031
-343.391	144.959	-0.099	-0.133
-342.377	-200.000	-0.088	0.481
-341.362	-200.000	0.035	0.208
-340.348	-50.128	-0.082	-0.039
-339.333	-200.000	-0.024	-0.146
-338.318	-108.736	0.205	0.044
-337.304	74.089	-0.288	-0.302
-336.289	-200.000	0.054	-0.241
-335.275	-93.140	-0.356	0.099
-334.260	800.000	0.126	-0.407
-333.245	22.208	0.148	0.121
-332.231	-3.946	-0.066	-0.045
-331.216	80.230	-0.181	0.195
-330.202	60.176	0.120	-0.119
-329.187	65.550	-0.025	0.025
-328.172	-200.000	0.011	0.060
-327.158	-200.000	-0.034	-0.267
-326.143	-200.000	0.006	-0.114
-325.129	51.427	0.132	0.125
-324.114	800.000	0.068	0.237
-323.099	-176.623	0.303	0.008
-322.085	800.000	-0.087	0.319
-321.070	-84.168	-0.232	-0.074
-320.056	-200.000	0.009	-0.049
-319.041	800.000	0.031	0.119
-318.026	20.367	-0.253	-0.204
-317.012	-61.031	0.115	0.048
-315.997	143.535	-0.119	0.158
-314.983	657.304	0.117	-0.301
-313.968	-200.000	0.006	-0.111
-312.953	125.822	0.166	-0.210
-311.939	-173.371	-0.177	0.005
-310.924	91.977	0.121	-0.136
-309.910	-57.450	0.226	-0.099
-308.895	-200.000	0.011	0.257
-307.880	61.062	0.194	0.193
-306.866	77.963	-0.315	0.335
-305.851	-24.304	-0.374	0.222
-304.837	-134.451	-0.051	0.006
-303.822	-200.000	0.006	-0.222
-302.807	-72.602	-0.074	0.027
-301.793	-108.106	0.203	-0.044
-300.778	1.248	0.102	-0.073
-299.764	-200.000	0.006	-0.306
-298.749	-200.000	-0.024	0.411
-297.735	384.608	0.062	-0.128
-296.720	204.290	0.136	-0.211
-295.705	312.435	0.043	0.080
-294.691	-79.016	0.234	-0.079
-293.676	598.972	0.081	0.199
-292.662	330.816	-0.154	0.297
-291.647	-64.216	0.155	-0.063
-290.632	82.247	0.208	-0.225
-289.618	6.038	-0.193	0.142
-288.603	-38.524	0.246	-0.130
-287.589	800.000	0.037	-0.146
-286.574	-62.838	0.440	-0.182
-285.559	154.345	-0.227	-0.310
-284.545	627.322	-0.056	-0.140
-283.530	-200.000	-0.023	0.121
-282.516	-200.000	-0.082	0.402
-281.501	-96.901	-0.056	-0.015
-280.486	-80.274	0.310	-0.103
-279.472	-73.685	0.281	-0.102
-278.457	315.665	-0.119	0.225
-277.443	800.000	-0.029	0.118
-276.428	280.050	-0.064	0.113
-275.413	-8.824	-0.057	-0.038
-274.399	-162.776	0.557	-0.027
-273.384	-74.509	0.241	0.087
-272.370	391.944	-0.036	0.075
-271.355	176.245	-0.185	0.268
-270.340	55.926	0.118	0.114
-269.326	-115.864	-0.551	-0.103
-268.311	622.856	-0.103	0.259
-267.297	-118.353	-0.183	0.032
-266.282	84.129	0.178	-0.194
-265.267	-46.642	-0.176	-0.086
-264.253	229.343	0.180	0.293
-263.238	324.835	-0.141	0.269
-262.224	-93.939	-0.105	0.029
-261.209	-112.596	-0.114	-0.023
-260.195	-51.742	0.341	0.158
-259.180	-200.000	0.001	0.204
-258.165	-155.207	0.538	0.035
-257.151	174.220	-0.145	-0.209
-256.136	-200.000	-0.003	0.145
-255.122	-165.523	0.123	-0.005
-254.107	-88.641	0.254	0.075
-253.092	-91.630	-0.207	-0.059
-252.078	-119.765	0.118	0.020
-251.063	93.117	0.181	-0.203
-250.049	32.244	-0.085	0.073
-249.034	-17.087	0.147	0.092
-248.019	18.023	-0.214	-0.170
-247.005	-12.939	-0.050	0.033
-245.990	800.000	0.103	0.283
-244.976	-200.000	-0.059	-0.392
-243.961	40.254	0.258	-0.231
-242.946	185.405	-0.183	-0.270
-241.932	-81.245	-0.415	-0.136
-240.917	-15.834	0.227	-0.144
-239.903	-1.985	-0.055	-0.039
-238.888	-12.383	0.189	-0.123
-237.873	-200.000	-0.007	0.200
-236.859	394.273	0.052	-0.107
-235.844	-57.628	0.218	-0.095
-234.830	-46.257	0.307	-0.150
-233.815	-200.000	-0.007	0.063
-232.800	800.000	0.070	0.288
-231.786	297.949	-0.092	-0.167
-230.771	-7.907	0.155	-0.104
-229.757	-38.846	-0.167	0.087
-228.742	247.505	-0.113	0.190
-227.727	402.688	-0.146	0.307
-226.713	-200.000	-0.010	-0.124
-225.698	662.412	-0.114	-0.294
-224.684	-200.000	0.011	-0.060
-223.669	-174.012	0.444	0.013
-222.655	-148.704	0.200	-0.016
-221.640	-66.278	-0.441	-0.175
-220.625	735.266	0.071	-0.189
-219.611	125.988	-0.119	0.150
-218.596	800.000	-0.125	0.429
-217.582	12.818	-0.130	0.100
-216.567	-200.000	-0.012	0.282
-215.552	-84.735	0.380	0.119
-214.538	-176.418	-0.259	0.007
-213.523	-200.000	-0.072	0.324
-212.509	79.551	0.135	0.145
-211.494	-200.000	0.025	-0.203
-210.479	-7.420	-0.241	-0.162
-209.465	-197.983	0.159	0.001
-208.450	83.082	-0.079	0.085
-207.436	800.000	0.046	0.178
-206.421	-200.000	0.017	0.097
-205.406	-46.832	0.198	-0.096
-204.392	-90.320	0.014	0.004
-203.377	-112.330	-0.161	0.032
-202.363	-200.000	0.038	0.259
-201.348	551.881	0.016	-0.039
-200.333	-102.732	0.138	-0.033
-199.319	163.194	0.066	0.093
-198.304	30.009	-0.140	0.119
-197.290	-53.106	0.173	0.079
-196.275	115.540	-0.229	0.278
-195.260	-200.000	-0.016	0.298
-194.246	243.424	-0.109	0.182
-193.231	-48.926	-0.276	-0.132
-192.217	3.079	-0.266	-0.192
-191.202	-2.588	0.037	-0.026
-190.187	-151.464	0.354	0.026
-189.173	264.230	0.073	-0.127
-188.158	-20.695	0.141	0.086
-187.144	766.081	0.020	-0.055
-186.129	86.133	-0.122	0.134
-185.114	163.628	-0.200	0.279
-184.100	6.074	-0.366	0.270
-183.085	-124.670	-0.055	0.009
-182.071	-200.000	-0.022	-0.218
-181.056	-4.664	0.182	0.125
-180.042	-54.393	0.230	0.104
-179.027	-62.707	-0.335	-0.138
-178.012	-102.290	0.211	0.050
-176.998	-200.000	0.063	0.298
-175.983	543.793	-0.046	-0.109
-174.969	4.335	0.121	-0.088
-173.954	-121.548	-0.281	0.046
-172.939	-85.303	-0.471	-0.146
-171.925	-33.511	-0.036	0.020
-170.910	643.066	0.073	-0.186
-169.896	106.153	-0.419	-0.492
-168.881	597.673	0.043	0.105
-167.866	91.933	-0.122	0.136
-166.852	800.000	0.076	-0.245
-165.837	-200.000	-0.001	-0.075
-164.823	582.375	0.046	-0.112
-163.808	-200.000	-0.012	-0.077
-162.793	-200.000	0.031	-0.184
-161.779	-200.000	-0.005	0.294
-160.764	-39.612	-0.224	0.117
-159.750	84.981	-0.060	-0.065
-158.735	-200.000	-0.024	0.178
-157.720	55.084	0.220	-0.211
-156.706	-200.000	0.008	-0.160
-155.691	-54.349	0.134	0.060
-154.677	-91.830	0.136	-0.038
-153.662	117.221	-0.234	0.285
-152.647	-68.787	0.006	0.002
-151.633	-127.579	0.114	-0.016
-150.618	-118.808	0.255	0.044
-149.604	-98.028	0.128	0.033
-148.589	686.300	0.026	0.068
-147.574	800.000	-0.055	0.183
-146.560	49.381	0.225	-0.210
-145.545	332.169	0.063	0.121
-144.531	777.175	-0.121	0.329
-143.516	671.955	-0.037	0.096
-142.502	48.534	-0.055	0.051
-141.487	187.846	-0.116	0.172
-140.472	19.329	-0.066	-0.052
-139.458	-65.024	-0.170	-0.068
-138.443	689.704	0.021	0.056
-137.429	-56.809	-0.289	-0.127
-136.414	-158.297	-0.279	0.016
-135.399	112.709	-0.114	0.137
-134.385	-56.363	-0.298	0.131
-133.370	800.000	0.031	0.106
-132.356	-162.744	0.235	-0.011
-131.341	-180.468	-0.361	-0.007
-130.326	-200.000	0.013	-0.129
-129.312	-168.102	0.177	-0.007
-128.297	-175.130	-0.409	-0.011
-127.283	137.004	0.092	0.119
-126.268	346.308	0.198	0.385
-125.253	121.797	0.129	0.160
-124.239	800.000	0.030	0.124
-123.224	16.500	0.402	0.315
-122.210	63.955	0.085	-0.084
-121.195	-153.217	0.131	-0.009
