DTS Sentinel unit serial number:	SN413079Multiplexer serial number:	ORYXHardware model number:	OX4-SRSoftware version number:	ORYX F/W v4.00 Oryx Data Collector v3.7.2.0data status	okinstallation	princeton_trtdifferential loss correction	single-endedforward channel	channel 2reverse channel	N/Adate	2019/09/18time	11:51:35forward acquisition time	60.00reverse acquisition time	0.00gamma	496.2192k internal	0.2326k external	0.2326temperature offset calibration	0.9985default loss term (dB/km)	0.3790temperature slope calibration	1.0000multiplexer offset coefficient	1.0000multiplexer slope coefficient	1.0000fibre end	0.00T internal ref (°C)	31.31T ext. ref 1 (°C)	0.47T ext. ref 2 (°C)	28.14length (m)	temperature (°C)	Stokes	anti-Stokes-747.200	77.529	-0.111	0.119
-746.185	53.531	0.143	0.139
-745.171	24.219	-0.125	0.104
-744.156	-113.577	0.239	0.047
-743.142	124.648	-0.142	0.181
-742.127	301.562	-0.077	0.144
-741.112	30.084	0.251	0.216
-740.098	-65.059	-0.325	0.132
-739.083	-148.257	-0.235	-0.020
-738.069	-66.474	-0.062	-0.025
-737.054	343.844	0.056	-0.111
-736.039	-135.876	0.272	0.032
-735.025	800.000	-0.014	-0.050
-734.010	-165.991	-0.199	-0.009
-732.996	-141.746	-0.277	0.028
-731.981	-200.000	0.010	-0.232
-730.966	113.831	-0.192	0.236
-729.952	174.136	0.134	-0.196
-728.937	361.334	-0.091	0.183
-727.923	-115.415	-0.073	-0.014
-726.908	-95.357	0.318	0.086
-725.894	124.554	-0.127	-0.162
-724.879	-67.673	0.141	-0.056
-723.864	110.106	-0.098	0.119
-722.850	-14.252	-0.366	-0.237
-721.835	-62.980	-0.074	0.031
-720.821	-78.073	0.164	0.057
-719.806	-59.839	-0.228	-0.098
-718.791	-58.027	-0.300	-0.132
-717.777	-144.359	-0.208	0.020
-716.762	205.787	-0.142	-0.222
-715.748	133.041	-0.208	-0.270
-714.733	-136.383	0.115	0.013
-713.718	116.012	0.167	-0.206
-712.704	321.391	-0.153	-0.294
-711.689	-200.000	0.026	-0.186
-710.675	-200.000	0.029	-0.188
-709.660	27.664	0.259	-0.220
-708.645	800.000	0.025	-0.100
-707.631	-200.000	-0.005	-0.112
-706.616	-158.935	0.133	-0.008
-705.602	428.972	-0.073	0.158
-704.587	800.000	-0.060	0.244
-703.572	37.221	0.291	0.259
-702.558	-112.847	0.144	-0.029
-701.543	-64.122	0.169	-0.070
-700.529	7.121	-0.158	-0.119
-699.514	-56.274	-0.079	-0.035
-698.499	-200.000	0.086	-0.485
-697.485	34.233	0.207	-0.182
-696.470	58.962	-0.153	-0.151
-695.456	-112.007	-0.407	0.083
-694.441	-200.000	0.039	0.288
-693.426	-80.319	-0.225	-0.076
-692.412	84.287	-0.068	0.075
-691.397	-30.022	-0.270	0.155
-690.383	-86.421	0.181	0.056
-689.368	313.903	0.054	-0.102
-688.354	-200.000	0.013	-0.342
-687.339	11.533	-0.101	-0.078
-686.324	-163.261	0.161	-0.008
-685.310	-45.026	-0.144	-0.072
-684.295	800.000	0.018	-0.060
-683.281	-86.198	-0.113	-0.035
-682.266	695.645	-0.016	0.043
-681.251	186.595	-0.101	-0.151
-680.237	36.336	-0.129	0.114
-679.222	-200.000	-0.014	-0.086
-678.208	11.865	-0.186	-0.144
-677.193	-200.000	-0.054	0.408
-676.178	-180.834	-0.352	-0.007
-675.164	6.173	-0.047	-0.035
-674.149	108.590	0.102	-0.122
-673.135	-15.757	-0.260	0.166
-672.120	-200.000	0.000	-0.227
-671.105	191.386	0.171	0.258
-670.091	163.744	-0.126	-0.179
-669.076	-88.243	-0.119	-0.036
-668.062	-111.865	0.226	0.046
-667.047	800.000	0.036	-0.149
-666.032	-145.529	0.249	-0.022
-665.018	-160.572	-0.164	0.009
-664.003	-85.731	0.401	-0.125
-662.989	-200.000	-0.003	-0.222
-661.974	10.619	-0.130	-0.100
-660.959	-16.355	0.167	0.107
-659.945	69.357	-0.219	0.227
-658.930	-200.000	-0.004	0.236
-657.916	-200.000	-0.017	0.128
-656.901	-53.601	0.129	-0.059
-655.886	-200.000	-0.042	0.343
-654.872	324.825	0.164	-0.315
-653.857	-200.000	-0.064	-0.414
-652.843	-76.561	-0.137	-0.049
-651.828	587.055	-0.066	-0.164
-650.814	159.528	0.215	-0.300
-649.799	-200.000	-0.047	0.222
-648.784	-135.722	0.285	-0.034
-647.770	-200.000	-0.074	-0.407
-646.755	800.000	-0.001	-0.004
-645.741	-114.954	0.093	0.018
-644.726	33.192	0.186	0.162
-643.711	379.725	0.117	-0.241
-642.697	-177.192	-0.289	-0.007
-641.682	-78.421	-0.107	-0.037
-640.668	524.019	-0.031	-0.074
-639.653	19.346	0.302	0.243
-638.638	-200.000	-0.008	-0.116
-637.624	-37.617	-0.236	-0.126
-636.609	-70.307	0.261	-0.099
-635.595	-123.886	-0.033	-0.005
-634.580	756.451	0.141	-0.382
-633.565	-127.074	0.389	0.057
-632.551	584.059	-0.084	0.208
-631.536	-73.192	-0.216	-0.079
-630.522	-56.756	-0.260	-0.116
-629.507	347.219	0.162	-0.320
-628.492	-126.745	-0.152	-0.023
-627.478	-75.969	0.404	-0.144
-626.463	311.681	-0.095	0.179
-625.449	-42.903	0.168	-0.086
-624.434	136.174	0.061	-0.080
-623.419	585.951	0.075	0.186
-622.405	-5.284	-0.075	0.052
-621.390	800.000	0.028	0.119
-620.376	22.503	0.097	-0.080
-619.361	-68.653	-0.106	-0.041
-618.346	518.467	-0.091	-0.213
-617.332	-200.000	0.040	0.182
-616.317	190.764	-0.158	0.238
-615.303	-77.636	0.254	-0.088
-614.288	476.953	-0.061	0.139
-613.273	70.200	0.126	-0.131
-612.259	-200.000	0.026	-0.154
-611.244	569.369	0.054	-0.132
-610.230	-42.018	-0.120	0.062
-609.215	111.979	-0.149	0.181
-608.201	-110.097	-0.477	0.100
-607.186	-59.406	0.194	0.084
-606.171	-125.665	-0.223	0.034
-605.157	-87.755	-0.101	0.030
-604.142	800.000	0.017	-0.058
-603.128	-200.000	0.037	0.226
-602.113	-158.707	0.182	0.010
-601.098	800.000	0.090	-0.263
-600.084	99.211	-0.173	0.201
-599.069	800.000	0.145	0.581
-598.055	-154.804	0.419	0.028
-597.040	-102.054	0.346	-0.084
-596.025	16.972	-0.070	-0.056
-595.011	-96.286	0.291	0.077
-593.996	-118.215	0.163	0.029
-592.982	463.548	-0.062	0.138
-591.967	-73.092	-0.102	0.037
-590.952	-200.000	0.010	0.145
-589.938	800.000	0.023	-0.076
-588.923	-200.000	-0.046	-0.302
-587.909	-200.000	0.000	-0.249
-586.894	18.818	0.270	-0.217
-585.879	712.326	0.168	0.446
-584.865	-27.254	-0.130	-0.076
-583.850	630.798	0.124	0.313
-582.836	800.000	-0.028	0.099
-581.821	189.437	0.144	-0.216
-580.806	-200.000	-0.015	0.072
-579.792	-200.000	-0.017	0.154
-578.777	-200.000	-0.027	0.205
-577.763	60.251	0.156	0.154
-576.748	118.490	0.152	-0.188
-575.733	74.784	-0.128	-0.135
-574.719	-17.210	-0.139	0.088
-573.704	160.841	0.191	-0.267
-572.690	800.000	-0.083	-0.240
-571.675	800.000	-0.027	-0.119
-570.661	-53.141	0.088	0.041
-569.646	11.216	0.265	-0.203
-568.631	-16.562	-0.110	0.070
-567.617	-200.000	-0.060	0.309
-566.602	299.471	-0.111	0.204
-565.588	-54.370	-0.297	0.135
-564.573	-31.607	-0.203	0.114
-563.558	-200.000	0.020	-0.162
-562.544	800.000	0.040	-0.134
-561.529	108.632	0.186	0.223
-560.515	-182.718	0.061	-0.001
-559.500	-151.952	-0.192	-0.014
-558.485	-80.968	-0.304	-0.101
-557.471	-38.308	-0.161	-0.085
-556.456	42.692	0.248	-0.226
-555.442	-58.234	-0.173	0.075
-554.427	86.231	-0.172	0.190
-553.412	163.643	0.184	-0.259
-552.398	244.806	-0.299	-0.503
-551.383	-84.111	0.244	-0.078
-550.369	111.702	-0.101	-0.122
-549.354	437.681	-0.055	0.120
-548.339	-52.501	-0.232	0.108
-547.325	800.000	0.080	-0.340
-546.310	-81.007	0.170	-0.056
-545.296	-128.478	-0.138	-0.020
-544.281	-100.373	0.139	-0.035
-543.266	534.601	0.013	-0.031
-542.252	800.000	-0.023	0.090
-541.237	-67.175	-0.046	0.018
-540.223	0.352	-0.135	-0.096
-539.208	-200.000	-0.011	0.094
-538.193	71.304	0.140	-0.145
-537.179	70.320	-0.062	-0.064
-536.164	800.000	0.081	-0.230
-535.150	-200.000	0.021	-0.325
-534.135	-197.143	-0.223	0.001
-533.121	649.069	0.075	0.193
-532.106	-64.024	-0.214	0.087
-531.091	-27.877	0.278	0.161
-530.077	64.763	-0.047	-0.047
-529.062	68.907	0.124	0.128
-528.048	-200.000	0.036	0.184
-527.033	-108.340	-0.198	-0.043
-526.018	-131.726	0.259	0.034
-525.004	345.953	-0.134	0.264
-523.989	482.038	0.040	-0.090
-522.975	-134.949	-0.181	0.022
-521.960	33.967	-0.175	-0.152
-520.945	-84.774	-0.238	-0.075
-519.931	-45.318	-0.252	-0.125
-518.916	509.036	0.016	0.038
-517.902	-61.454	-0.323	-0.136
-516.887	-200.000	0.025	-0.196
-515.872	58.502	-0.143	-0.140
-514.858	323.177	-0.090	0.171
-513.843	138.237	0.072	0.095
-512.829	17.438	0.237	0.188
-511.814	313.299	0.133	0.251
-510.799	22.640	-0.279	-0.228
-509.785	-135.737	-0.238	-0.028
-508.770	-200.000	0.218	-0.001
-507.756	262.450	-0.118	-0.204
-506.741	-200.000	0.050	-0.277
-505.726	41.733	0.066	-0.060
-504.712	268.580	-0.072	-0.126
-503.697	6.023	0.287	0.213
-502.683	166.059	0.100	-0.142
-501.668	415.845	0.085	0.181
-500.653	-200.000	-0.045	-0.263
-499.639	221.679	0.211	0.339
-498.624	-68.590	0.126	0.049
-497.610	800.000	0.076	0.217
-496.595	-57.969	-0.023	0.010
-495.581	-189.035	-0.181	0.002
-494.566	800.000	0.083	-0.270
-493.551	-81.509	-0.347	-0.114
-492.537	-200.000	0.015	-0.346
-491.522	-27.296	-0.070	0.041
-490.508	-71.171	0.066	-0.025
-489.493	-148.549	0.314	-0.026
-488.478	-200.000	-0.054	-0.292
-487.464	124.197	0.094	-0.118
-486.449	-68.627	0.285	-0.110
-485.435	-21.127	0.254	-0.155
-484.420	563.827	0.170	-0.410
-483.405	308.343	-0.106	0.198
-482.391	561.484	0.096	-0.233
-481.376	93.461	-0.272	-0.307
-480.362	800.000	-0.058	-0.194
-479.347	800.000	-0.088	0.257
-478.332	57.958	-0.165	0.161
-477.318	-96.966	0.252	-0.066
-476.303	-200.000	-0.001	0.106
-475.289	-137.090	0.096	0.011
-474.274	785.805	0.020	0.056
-473.259	-138.995	0.248	-0.027
-472.245	50.235	-0.124	-0.117
-471.230	-200.000	0.010	-0.106
-470.216	-200.000	-0.041	0.601
-469.201	76.541	-0.128	0.136
-468.186	109.570	-0.119	0.142
-467.172	-200.000	-0.039	0.184
-466.157	-110.659	0.234	0.048
-465.143	-200.000	0.073	-0.434
-464.128	800.000	-0.128	0.395
-463.113	-53.808	-0.162	-0.074
-462.099	-51.537	-0.221	0.103
-461.084	2.148	0.066	-0.048
-460.070	121.457	0.154	-0.192
-459.055	301.254	-0.104	0.192
-458.040	-131.329	0.124	0.016
-457.026	-99.751	-0.306	0.076
-456.011	-200.000	0.001	0.238
-454.997	134.453	0.173	-0.224
-453.982	70.889	0.091	-0.094
-452.968	-19.052	-0.159	-0.098
-451.953	-121.196	0.148	0.025
-450.938	-200.000	-0.039	-0.237
-449.924	290.073	-0.055	0.100
-448.909	-135.322	-0.453	0.054
-447.895	-200.000	0.082	0.379
-446.880	314.715	-0.064	0.120
-445.865	156.034	0.202	-0.277
-444.851	-200.000	-0.013	-0.228
-443.836	-117.811	-0.355	0.064
-442.822	322.850	-0.094	-0.179
-441.807	-200.000	0.011	-0.128
-440.792	51.708	-0.247	-0.234
-439.778	497.955	0.064	0.146
-438.763	-200.000	-0.011	0.317
-437.749	-200.000	-0.039	0.208
-436.734	243.486	-0.078	0.131
-435.719	-55.260	0.270	-0.121
-434.705	-167.470	-0.314	-0.013
-433.690	-64.592	0.188	-0.076
-432.676	97.047	-0.105	-0.120
-431.661	-114.740	0.284	0.054
-430.646	-38.855	-0.159	0.083
-429.632	-200.000	-0.060	-0.323
-428.617	593.409	0.132	-0.325
-427.603	-200.000	-0.001	0.308
-426.588	42.846	-0.353	0.321
-425.573	405.972	0.217	-0.457
-424.559	-97.411	0.208	0.054
-423.544	-200.000	0.007	0.389
-422.530	-20.096	0.354	0.217
-421.515	-125.436	0.273	-0.041
-420.500	218.981	-0.153	-0.244
-419.486	16.477	-0.168	-0.132
-418.471	384.377	0.093	0.192
-417.457	120.405	0.342	0.423
-416.442	60.978	0.113	0.112
-415.428	-3.862	0.158	0.109
-414.413	352.163	0.119	0.235
-413.398	800.000	-0.047	0.166
-412.384	129.696	0.110	-0.140
-411.369	270.584	-0.098	0.172
-410.355	419.043	-0.191	-0.407
-409.340	-200.000	-0.027	-0.166
-408.325	800.000	-0.097	-0.422
-407.311	1.278	-0.379	-0.271
-406.296	-140.552	0.139	-0.014
-405.282	5.101	0.147	-0.108
-404.267	-200.000	-0.039	-0.198
-403.252	160.415	0.184	-0.255
-402.238	-104.843	-0.204	0.047
-401.223	294.085	-0.137	0.249
-400.209	800.000	0.066	0.267
-399.194	490.043	0.057	-0.129
-398.179	-76.219	-0.292	-0.102
-397.165	50.682	-0.272	0.256
-396.150	-24.404	0.270	0.160
-395.136	-60.211	0.289	-0.123
-394.121	-144.074	-0.345	-0.032
-393.106	800.000	0.041	-0.140
-392.092	508.720	0.069	0.158
-391.077	800.000	0.002	-0.010
-390.063	54.420	-0.214	-0.205
-389.048	-53.398	-0.317	0.144
-388.033	-56.992	0.103	-0.045
-387.019	44.246	0.017	-0.015
-386.004	-114.112	0.179	-0.034
-384.990	9.121	0.330	0.248
-383.975	-200.000	-0.006	-0.219
-382.960	-3.377	-0.268	-0.185
-381.946	-58.800	0.351	-0.151
-380.931	526.746	0.078	0.182
-379.917	-100.983	0.139	0.034
-378.902	-134.370	0.097	-0.012
-377.888	-200.000	0.021	0.411
-376.873	-112.500	-0.108	0.021
-375.858	-200.000	-0.007	-0.166
-374.844	-200.000	-0.020	0.108
-373.829	277.435	0.112	-0.198
-372.815	-64.032	0.158	-0.064
-371.800	-2.028	-0.321	-0.225
-370.785	404.433	-0.166	0.348
-369.771	214.087	0.031	0.049
-368.756	12.145	0.092	0.070
-367.742	440.486	-0.108	-0.234
-366.727	-98.598	0.209	0.053
-365.712	222.875	-0.063	-0.101
-364.698	-108.667	0.418	-0.089
-363.683	800.000	0.046	-0.197
-362.669	-104.928	-0.168	0.038
-361.654	205.946	-0.193	0.299
-360.639	214.582	0.071	0.112
-359.625	800.000	-0.083	0.328
-358.610	800.000	0.038	-0.120
-357.596	35.809	0.243	0.213
-356.581	-92.385	-0.150	-0.042
-355.566	-80.931	0.209	0.069
-354.552	-95.089	-0.133	0.036
-353.537	-35.460	0.097	0.052
-352.523	-200.000	0.021	0.228
-351.508	-200.000	-0.023	-0.186
-350.493	233.828	-0.104	0.170
-349.479	800.000	0.129	0.436
-348.464	39.075	0.140	0.124
-347.450	-124.172	0.202	0.031
-346.435	-100.469	-0.276	0.068
-345.420	-114.989	0.347	-0.066
-344.406	-107.598	0.206	-0.045
-343.391	24.285	0.129	0.106
-342.377	-200.000	-0.001	-0.053
-341.362	292.485	-0.039	0.071
-340.348	-91.457	-0.044	-0.013
-339.333	-9.246	0.283	0.188
-338.318	36.131	0.055	-0.049
-337.304	208.039	0.138	0.213
-336.289	-143.854	-0.185	-0.017
-335.275	506.561	0.024	-0.056
-334.260	-142.005	0.303	-0.030
-333.245	134.545	-0.081	0.104
-332.231	487.065	-0.021	0.048
-331.216	105.637	0.054	-0.063
-330.202	-124.302	-0.359	-0.056
-329.187	25.076	0.131	0.108
-328.172	-87.475	0.171	-0.051
-327.158	61.988	-0.081	0.080
-326.143	-50.649	0.179	-0.084
-325.129	-65.125	0.222	0.089
-324.114	132.730	-0.105	0.135
-323.099	86.636	-0.207	-0.227
-322.085	-126.583	0.060	0.009
-321.070	-56.635	-0.476	0.209
-320.056	756.746	0.101	-0.272
-319.041	-166.568	0.034	-0.001
-318.026	-26.798	-0.109	0.063
-317.012	389.238	-0.107	0.220
-315.997	414.677	-0.086	0.182
-314.983	55.567	0.139	0.134
-313.968	-127.608	-0.199	-0.029
-312.953	-160.876	0.245	-0.013
-311.939	-105.309	-0.111	-0.025
-310.924	-101.088	0.392	0.095
-309.910	-59.253	0.212	0.090
-308.895	71.663	-0.112	-0.115
-307.880	102.079	0.164	-0.190
-306.866	-98.881	0.058	-0.015
-305.851	-66.968	-0.073	-0.029
-304.837	-50.552	-0.189	-0.088
-303.822	28.267	0.191	0.160
-302.807	218.820	0.161	0.255
-301.793	-200.000	0.018	0.087
-300.778	63.710	0.067	0.066
-299.764	-105.573	-0.250	-0.056
-298.749	800.000	-0.117	0.368
-297.735	-200.000	0.031	-0.173
-296.720	-140.910	-0.184	-0.019
-295.705	91.413	-0.118	0.131
-294.691	-154.920	0.327	0.021
-293.676	388.692	0.136	0.278
-292.662	-177.908	-0.279	0.007
-291.647	-48.733	-0.183	0.087
-290.632	-18.471	0.157	0.097
-289.618	-75.636	-0.121	0.043
-288.603	-12.802	0.194	-0.125
-287.589	-100.671	0.321	0.079
-286.574	-83.842	-0.175	-0.055
-285.559	-52.977	-0.095	-0.043
-284.545	721.198	-0.062	-0.162
-283.530	-89.193	0.297	0.087
-282.516	-200.000	-0.000	0.329
-281.501	18.997	0.152	0.121
-280.486	-24.037	0.253	0.150
-279.472	-200.000	0.007	0.073
-278.457	195.384	0.224	-0.338
-277.443	44.979	0.063	0.057
-276.428	-61.781	-0.196	-0.081
-275.413	-55.833	0.284	-0.126
-274.399	800.000	0.021	0.080
-273.384	-200.000	0.000	-0.079
-272.370	-166.539	0.185	-0.008
-271.355	-200.000	0.024	-0.185
-270.340	-127.372	-0.212	0.031
-269.326	-200.000	-0.020	0.119
-268.311	-179.335	0.261	-0.006
-267.297	-172.082	-0.095	0.003
-266.282	-200.000	-0.019	-0.113
-265.267	-72.922	0.524	0.191
-264.253	267.105	0.133	0.231
-263.238	-89.526	-0.132	0.038
-262.224	-91.230	-0.265	-0.075
-261.209	-9.016	0.090	-0.060
-260.195	561.825	0.021	0.049
-259.180	-146.631	-0.238	-0.020
-258.165	-35.786	-0.340	-0.182
-257.151	3.151	-0.042	-0.030
-256.136	28.209	-0.045	0.038
-255.122	800.000	-0.100	-0.286
-254.107	-119.650	-0.090	-0.015
-253.092	-200.000	0.001	-0.187
-252.078	310.105	0.292	-0.541
-251.063	-56.128	0.037	-0.016
-250.049	800.000	-0.055	0.207
-249.034	-21.478	-0.172	-0.104
-248.019	-44.493	-0.315	-0.156
-247.005	-109.161	-0.319	0.067
-245.990	-200.000	0.044	0.207
-244.976	-104.556	-0.272	0.062
-243.961	-96.314	0.527	0.138
-242.946	-191.584	0.051	0.001
-241.932	-163.149	-0.182	-0.009
-240.917	800.000	0.042	-0.149
-239.903	212.109	0.242	-0.378
-238.888	299.336	-0.095	0.174
-237.873	800.000	-0.054	0.196
-236.859	800.000	-0.070	-0.264
-235.844	-200.000	-0.014	-0.144
-234.830	-108.880	-0.428	0.090
-233.815	800.000	-0.034	-0.129
-232.800	147.401	0.121	0.161
-231.786	-200.000	0.105	-0.604
-230.771	365.258	-0.092	-0.182
-229.757	-95.041	-0.024	-0.006
-228.742	315.010	-0.114	0.212
-227.727	290.941	-0.089	-0.160
-226.713	22.577	0.067	-0.054
-225.698	407.681	-0.135	0.283
-224.684	354.486	0.144	0.284
-223.669	-200.000	0.013	0.150
-222.655	800.000	0.076	-0.257
-221.640	563.702	-0.112	-0.268
-220.625	-90.858	0.276	-0.079
-219.611	800.000	0.033	0.108
-218.596	63.605	0.054	-0.054
-217.582	-200.000	-0.022	-0.099
-216.567	-200.000	0.049	-0.309
-215.552	-133.291	-0.225	0.028
-214.538	75.397	0.150	0.156
-213.523	-80.149	-0.141	0.047
-212.509	-38.765	-0.082	0.043
-211.494	187.745	-0.114	0.168
-210.479	191.832	-0.163	-0.243
-209.465	800.000	0.054	0.228
-208.450	800.000	-0.106	0.332
-207.436	800.000	-0.036	-0.155
-206.421	338.960	-0.138	-0.265
-205.406	26.831	0.338	0.280
-204.392	-130.528	-0.222	0.030
-203.377	-113.864	-0.254	-0.049
-202.363	-200.000	0.028	0.158
-201.348	44.182	0.122	-0.110
-200.333	-200.000	0.038	0.213
-199.319	-200.000	0.021	0.114
-198.304	-154.926	0.108	0.007
-197.290	-200.000	-0.036	-0.192
-196.275	-107.230	-0.289	-0.063
-195.260	-69.305	0.333	-0.126
-194.246	-59.108	-0.122	0.052
-193.231	639.990	0.083	0.208
-192.217	95.394	0.134	0.151
-191.202	-200.000	-0.004	0.129
-190.187	-200.000	0.021	-0.183
-189.173	81.157	-0.138	0.147
-188.158	-136.675	0.114	-0.013
-187.144	126.332	0.130	0.163
-186.129	-54.452	0.251	-0.112
-185.114	245.541	-0.158	-0.262
-184.100	160.793	0.134	-0.184
-183.085	-200.000	0.020	0.338
-182.071	-72.672	-0.177	-0.065
-181.056	800.000	-0.075	0.226
-180.042	-144.666	-0.151	0.014
-179.027	83.185	0.281	-0.301
-178.012	279.953	-0.065	0.114
-176.998	23.627	-0.478	-0.388
-175.983	279.948	-0.122	-0.214
-174.969	439.111	-0.084	-0.180
-173.954	-134.670	-0.108	-0.013
-172.939	-113.171	0.172	-0.033
-171.925	-200.000	-0.021	-0.318
-170.910	-40.252	-0.121	0.062
-169.896	84.640	-0.400	0.432
-168.881	-129.174	-0.448	-0.062
-167.866	129.832	-0.281	0.354
-166.852	390.920	-0.065	0.134
-165.837	800.000	-0.035	-0.114
-164.823	-129.179	-0.196	0.027
-163.808	-127.333	-0.205	-0.030
-162.793	545.591	0.026	0.060
-161.779	12.984	0.163	-0.125
-160.764	-74.927	-0.370	0.131
-159.750	-87.177	-0.122	-0.036
-158.735	-200.000	-0.044	0.206
-157.720	-72.776	-0.103	0.037
-156.706	-54.066	0.363	0.163
-155.691	23.154	-0.179	-0.145
-154.677	144.760	0.044	0.059
-153.662	-112.322	-0.144	-0.028
-152.647	-200.000	0.015	0.269
-151.633	-144.040	0.311	0.029
-150.618	152.450	-0.224	-0.301
-149.604	63.747	0.177	-0.175
-148.589	59.464	0.193	-0.187
-147.574	-30.073	0.222	-0.125
-146.560	-200.000	0.020	0.247
-145.545	286.848	0.019	0.033
-144.531	-16.978	-0.324	0.201
-143.516	-105.749	-0.255	-0.057
-142.502	-130.349	-0.172	0.023
-141.487	-165.097	0.093	0.004
-140.472	-200.000	0.056	0.244
-139.458	-71.744	0.069	0.025
-138.443	-95.638	-0.220	0.058
-137.429	28.989	0.152	-0.127
-136.414	-200.000	-0.023	0.133
-135.399	188.891	0.198	0.291
-134.385	68.561	-0.250	0.253
-133.370	4.344	-0.068	0.049
-132.356	114.100	-0.194	0.232
-131.341	-101.546	-0.123	-0.030
-130.326	283.031	-0.175	-0.309
-129.312	-71.243	0.079	0.029
-128.297	130.487	0.170	0.215
-127.283	155.415	0.138	-0.188
-126.268	124.243	0.131	0.162
-125.253	340.711	0.060	-0.116
-124.239	-101.131	0.165	-0.040
-123.224	132.696	-0.247	0.314
-122.210	-41.356	0.132	0.067
