DTS Sentinel unit serial number:	SN413079Multiplexer serial number:	ORYXHardware model number:	OX4-SRSoftware version number:	ORYX F/W v4.00 Oryx Data Collector v3.7.2.0data status	okinstallation	princeton_trtdifferential loss correction	single-endedforward channel	channel 2reverse channel	N/Adate	2019/09/11time	04:45:11forward acquisition time	60.00reverse acquisition time	0.00gamma	496.2192k internal	0.2329k external	0.2329temperature offset calibration	0.9938default loss term (dB/km)	0.3790temperature slope calibration	1.0000multiplexer offset coefficient	1.0000multiplexer slope coefficient	1.0000fibre end	0.00T internal ref (°C)	29.52T ext. ref 1 (°C)	-0.28T ext. ref 2 (°C)	23.38length (m)	temperature (°C)	Stokes	anti-Stokes-747.200	27.103	-0.060	-0.051
-746.185	800.000	-0.050	0.146
-745.171	-17.652	0.169	0.107
-744.156	17.531	0.098	0.079
-743.142	80.324	-0.242	-0.263
-742.127	-110.911	0.245	-0.051
-741.112	-40.621	0.049	0.025
-740.098	800.000	0.044	0.132
-739.083	27.456	0.215	-0.182
-738.069	90.681	-0.122	-0.138
-737.054	-200.000	0.000	-0.362
-736.039	131.997	-0.041	0.054
-735.025	-32.852	-0.123	0.069
-734.010	-200.000	-0.034	-0.266
-732.996	166.374	-0.091	-0.130
-731.981	46.370	-0.209	0.195
-730.966	278.774	0.163	-0.293
-729.952	-143.919	0.092	0.009
-728.937	50.057	-0.130	-0.123
-727.923	-135.733	-0.362	0.043
-726.908	-13.752	-0.163	-0.106
-725.894	-200.000	-0.020	0.186
-724.879	-104.298	0.242	-0.056
-723.864	45.811	0.097	-0.090
-722.850	609.280	0.113	-0.284
-721.835	-42.323	-0.171	-0.088
-720.821	-11.849	-0.448	0.296
-719.806	800.000	0.078	0.282
-718.791	110.477	-0.216	-0.262
-717.777	-127.543	0.336	0.049
-716.762	-64.641	0.213	0.087
-715.748	800.000	0.014	0.052
-714.733	-84.060	0.085	0.027
-713.718	507.413	-0.030	0.070
-712.704	62.436	-0.102	-0.103
-711.689	800.000	0.076	-0.220
-710.675	190.452	-0.076	-0.115
-709.660	-58.194	0.119	-0.052
-708.645	123.355	-0.007	0.009
-707.631	89.395	-0.099	-0.112
-706.616	800.000	0.016	-0.056
-705.602	673.871	-0.134	-0.349
-704.587	-79.254	-0.336	0.115
-703.572	130.492	0.090	-0.116
-702.558	-127.378	-0.074	-0.011
-701.543	101.881	0.264	-0.309
-700.529	289.076	0.204	-0.372
-699.514	94.809	0.036	-0.041
-698.499	-122.295	-0.094	0.015
-697.485	344.654	-0.142	-0.281
-696.470	784.764	0.041	0.112
-695.456	11.435	-0.314	0.242
-694.441	-118.465	-0.246	0.044
-693.426	800.000	0.033	-0.116
-692.412	32.513	-0.145	-0.126
-691.397	-118.048	0.266	-0.048
-690.383	18.133	-0.147	-0.118
-689.368	33.463	0.212	-0.185
-688.354	8.978	0.079	-0.060
-687.339	-200.000	0.045	-0.213
-686.324	-200.000	0.026	-0.238
-685.310	-119.005	0.141	0.025
-684.295	-161.276	-0.166	-0.009
-683.281	10.148	0.076	-0.058
-682.266	-4.647	0.158	-0.109
-681.251	-122.850	-0.053	0.009
-680.237	-200.000	-0.000	-0.135
-679.222	36.004	0.221	-0.195
-678.208	-200.000	0.043	0.359
-677.193	800.000	0.062	0.201
-676.178	-74.060	-0.194	0.071
-675.164	37.504	0.364	-0.324
-674.149	-10.894	-0.082	-0.055
-673.135	800.000	-0.034	-0.144
-672.120	175.317	0.024	-0.035
-671.105	-158.548	0.127	-0.007
-670.091	-200.000	-0.028	-0.287
-669.076	262.727	-0.085	0.148
-668.062	-156.337	0.012	-0.001
-667.047	-74.432	0.316	-0.114
-666.032	-200.000	-0.046	-0.299
-665.018	-75.987	0.177	0.063
-664.003	-69.544	0.278	-0.107
-662.989	-21.168	0.086	0.053
-661.974	-200.000	0.024	0.410
-660.959	100.070	-0.165	0.192
-659.945	118.008	0.072	-0.088
-658.930	-119.468	-0.182	0.032
-657.916	-200.000	0.014	-0.104
-656.901	-115.466	-0.185	0.035
-655.886	-129.586	-0.315	-0.044
-654.872	67.066	-0.100	0.103
-653.857	-123.852	0.279	0.044
-652.843	-150.760	-0.260	-0.020
-651.828	-107.238	0.064	-0.014
-650.814	142.101	-0.105	0.139
-649.799	112.396	0.122	-0.148
-648.784	133.343	-0.098	0.127
-647.770	607.118	0.098	0.245
-646.755	-80.486	0.232	0.078
-645.741	68.248	-0.198	0.203
-644.726	-200.000	0.002	0.052
-643.711	271.998	-0.049	-0.086
-642.697	-200.000	0.030	-0.168
-641.682	155.418	0.096	0.133
-640.668	554.386	0.074	-0.178
-639.653	-200.000	0.014	-0.061
-638.638	-1.824	0.068	-0.048
-637.624	2.211	-0.158	0.115
-636.609	208.424	-0.112	-0.176
-635.595	-200.000	-0.066	0.296
-634.580	800.000	-0.097	0.342
-633.565	77.946	0.141	0.151
-632.551	440.955	-0.073	0.161
-631.536	5.007	0.418	-0.308
-630.522	-200.000	0.021	0.347
-629.507	-200.000	0.040	0.180
-628.492	-16.999	-0.293	-0.186
-627.478	-34.419	0.083	-0.046
-626.463	-89.993	0.426	0.125
-625.449	236.629	-0.113	-0.187
-624.434	514.305	-0.053	-0.123
-623.419	9.518	0.151	-0.114
-622.405	-22.546	-0.366	0.222
-621.390	480.880	0.110	0.251
-620.376	267.758	-0.079	0.138
-619.361	-151.274	0.184	0.014
-618.346	800.000	0.067	0.237
-617.332	50.318	-0.233	0.221
-616.317	9.130	-0.220	0.167
-615.303	15.315	-0.258	-0.203
-614.288	800.000	0.064	0.235
-613.273	800.000	0.026	0.105
-612.259	-42.019	0.143	-0.073
-611.244	-111.788	-0.324	0.066
-610.230	-107.152	0.137	-0.030
-609.215	-200.000	-0.047	0.407
-608.201	-58.024	0.235	-0.103
-607.186	81.572	-0.103	0.111
-606.171	-50.619	0.204	-0.096
-605.157	-42.562	-0.409	0.209
-604.142	163.106	-0.176	-0.247
-603.128	-200.000	0.016	-0.494
-602.113	720.239	-0.057	-0.153
-601.098	800.000	0.058	-0.197
-600.084	-151.231	0.237	0.018
-599.069	-115.516	-0.284	-0.054
-598.055	800.000	0.100	0.285
-597.040	800.000	-0.026	0.081
-596.025	70.047	-0.095	0.098
-595.011	-200.000	-0.038	0.181
-593.996	-151.436	-0.239	0.018
-592.982	-200.000	0.061	-0.285
-591.967	-200.000	0.018	-0.141
-590.952	-100.636	-0.183	-0.045
-589.938	800.000	0.038	-0.153
-588.923	-200.000	-0.022	-0.299
-587.909	110.323	0.082	0.098
-586.894	39.864	-0.347	0.312
-585.879	-68.565	-0.411	-0.159
-584.865	-135.499	-0.310	-0.037
-583.850	1.822	0.215	-0.155
-582.836	-200.000	0.058	-0.303
-581.821	-46.476	-0.118	0.058
-580.806	-200.000	-0.183	0.001
-579.792	-13.358	0.132	-0.086
-578.777	329.023	-0.040	-0.077
-577.763	44.814	-0.106	-0.098
-576.748	-200.000	-0.014	-0.245
-575.733	-195.320	0.091	0.001
-574.719	800.000	0.103	-0.325
-573.704	800.000	-0.035	0.141
-572.690	800.000	0.080	0.326
-571.675	99.393	-0.104	-0.121
-570.661	-29.891	0.097	0.055
-569.646	-173.869	-0.188	0.006
-568.631	47.428	0.204	0.190
-567.617	75.108	-0.146	-0.154
-566.602	-82.653	0.287	0.093
-565.588	-85.430	-0.367	-0.114
-564.573	-23.981	-0.175	0.105
-563.558	-53.950	-0.256	-0.117
-562.544	800.000	-0.057	0.192
-561.529	-200.000	0.004	0.198
-560.515	800.000	0.084	-0.270
-559.500	-200.000	0.040	-0.183
-558.485	-197.654	-0.067	0.000
-557.471	800.000	0.073	-0.276
-556.456	64.488	0.181	-0.182
-555.442	-178.399	-0.093	0.002
-554.427	111.529	0.030	0.036
-553.412	-13.588	-0.288	0.186
-552.398	259.965	-0.069	0.118
-551.383	-200.000	-0.000	0.192
-550.369	800.000	0.088	-0.279
-549.354	-54.123	0.293	0.133
-548.339	-147.466	-0.266	-0.022
-547.325	10.834	-0.279	0.213
-546.310	349.388	-0.096	0.189
-545.296	142.715	0.252	-0.335
-544.281	68.775	-0.119	0.123
-543.266	21.391	0.040	0.033
-542.252	-16.629	-0.308	-0.195
-541.237	-148.014	-0.235	0.020
-540.223	-200.000	-0.031	0.266
-539.208	126.150	-0.023	0.029
-538.193	-177.309	-0.305	0.008
-537.179	-200.000	0.058	-0.353
-536.164	800.000	-0.025	-0.087
-535.150	-75.008	0.214	-0.076
-534.135	-55.765	0.121	0.054
-533.121	800.000	-0.076	0.256
-532.106	-200.000	0.005	0.222
-531.091	-200.000	-0.019	0.148
-530.077	56.688	-0.209	0.203
-529.062	-145.536	-0.276	-0.025
-528.048	619.923	-0.160	0.401
-527.033	-200.000	0.015	0.193
-526.018	-200.000	-0.004	-0.042
-525.004	150.886	0.117	0.159
-523.989	800.000	0.084	-0.332
-522.975	-24.780	0.157	-0.093
-521.960	49.019	0.098	0.092
-520.945	-42.502	0.126	-0.064
-519.931	-35.823	-0.149	-0.080
-518.916	-184.223	-0.076	-0.001
-517.902	800.000	0.100	-0.310
-516.887	-200.000	0.011	0.207
-515.872	-200.000	-0.015	0.113
-514.858	97.253	-0.231	0.264
-513.843	3.979	0.306	0.223
-512.829	-120.514	0.214	0.036
-511.814	244.155	0.035	0.058
-510.799	-3.600	-0.081	0.056
-509.785	39.471	0.138	-0.124
-508.770	-200.000	0.004	0.346
-507.756	734.046	-0.027	-0.072
-506.741	-200.000	-0.052	-0.397
-505.726	-106.430	-0.100	-0.022
-504.712	0.039	-0.194	-0.138
-503.697	136.651	0.265	-0.345
-502.683	-89.116	-0.131	-0.039
-501.668	42.770	0.017	0.015
-500.653	344.462	-0.107	0.209
-499.639	-115.330	0.182	0.034
-498.624	26.715	-0.128	-0.107
-497.610	215.336	0.232	0.368
-496.595	-119.224	0.365	0.063
-495.581	88.622	0.116	-0.129
-494.566	306.939	-0.060	0.112
-493.551	-200.000	0.034	-0.325
-492.537	18.861	0.233	-0.186
-491.522	-200.000	-0.051	-0.258
-490.508	800.000	0.071	-0.216
-489.493	-92.369	0.130	-0.037
-488.478	155.108	0.128	-0.176
-487.464	800.000	-0.064	0.192
-486.449	-200.000	-0.013	-0.124
-485.435	-200.000	-0.001	-0.231
-484.420	257.397	-0.118	0.202
-483.405	24.744	0.130	-0.107
-482.391	579.775	0.177	0.432
-481.376	-34.903	-0.056	0.031
-480.362	-133.158	0.253	-0.032
-479.347	21.635	-0.395	-0.320
-478.332	-200.000	0.050	0.306
-477.318	285.592	0.017	-0.031
-476.303	800.000	-0.063	-0.275
-475.289	793.405	0.063	-0.172
-474.274	-104.519	0.043	-0.010
-473.259	167.365	0.155	-0.220
-472.245	-56.245	-0.205	-0.091
-471.230	-200.000	0.009	-0.115
-470.216	195.521	-0.147	0.223
-469.201	39.407	-0.060	-0.054
-468.186	85.587	-0.090	-0.098
-467.172	-42.194	-0.261	0.133
-466.157	432.048	0.055	0.118
-465.143	-93.388	0.168	0.046
-464.128	121.455	0.113	0.140
-463.113	372.666	-0.133	0.270
-462.099	-182.129	0.106	-0.002
-461.084	373.918	-0.092	0.186
-460.070	28.015	0.071	0.059
-459.055	-106.967	0.184	-0.041
-458.040	-17.562	-0.233	0.146
-457.026	-53.667	-0.114	0.052
-456.011	-135.582	-0.077	0.009
-454.997	394.313	-0.222	0.461
-453.982	-168.119	-0.217	0.008
-452.968	-200.000	-0.025	0.306
-451.953	800.000	0.052	0.186
-450.938	-200.000	0.002	-0.399
-449.924	56.702	0.137	-0.132
-448.909	483.648	-0.074	-0.168
-447.895	249.564	0.070	0.119
-446.880	106.369	0.221	-0.261
-445.865	342.767	0.073	-0.143
-444.851	80.062	0.097	0.103
-443.836	-126.911	-0.258	0.038
-442.822	108.445	0.140	0.167
-441.807	-200.000	0.028	0.202
-440.792	-88.948	0.337	0.099
-439.778	-11.219	0.267	-0.175
-438.763	61.108	-0.222	-0.220
-437.749	800.000	-0.077	-0.296
-436.734	-127.277	-0.259	0.038
-435.719	66.116	-0.141	0.142
-434.705	-61.526	-0.195	0.081
-433.690	800.000	-0.013	0.041
-432.676	800.000	0.093	-0.271
-431.661	55.075	-0.309	-0.297
-430.646	-200.000	0.023	-0.144
-429.632	270.039	0.175	0.306
-428.617	-3.520	0.370	0.256
-427.603	221.305	-0.086	0.138
-426.588	287.322	-0.261	0.470
-425.573	227.145	0.067	0.109
-424.559	-90.105	-0.252	-0.073
-423.544	-48.248	-0.082	-0.039
-422.530	-78.696	0.162	-0.055
-421.515	650.081	-0.091	0.232
-420.500	8.309	0.073	-0.055
-419.486	-200.000	0.022	-0.315
-418.471	-67.710	0.121	-0.047
-417.457	312.681	-0.079	0.148
-416.442	800.000	0.075	0.210
-415.428	-98.985	0.209	0.053
-414.413	151.095	0.164	-0.222
-413.398	482.353	0.061	-0.137
-412.384	-200.000	-0.025	0.267
-411.369	363.772	0.217	0.434
-410.355	-20.557	0.127	-0.077
-409.340	-200.000	0.059	-0.267
-408.325	-200.000	0.040	-0.284
-407.311	800.000	-0.069	-0.296
-406.296	-30.697	0.223	0.125
-405.282	-200.000	0.016	0.223
-404.267	249.068	0.193	-0.325
-403.252	-77.991	-0.372	-0.127
-402.238	-200.000	-0.034	-0.313
-401.223	-102.639	-0.331	-0.078
-400.209	145.924	-0.020	-0.026
-399.194	430.914	0.066	0.143
-398.179	109.996	-0.101	0.120
-397.165	-37.611	-0.255	-0.135
-396.150	-70.308	-0.138	0.052
-395.136	277.835	-0.117	0.206
-394.121	-22.922	-0.175	-0.105
-393.106	639.731	-0.086	-0.218
-392.092	-200.000	0.014	0.211
-391.077	-42.180	0.146	0.074
-390.063	548.626	-0.101	0.241
-389.048	-200.000	-0.003	0.343
-388.033	800.000	-0.027	-0.095
-387.019	-200.000	0.016	0.156
-386.004	3.066	-0.217	0.157
-384.990	662.281	0.102	-0.262
-383.975	800.000	-0.106	0.313
-382.960	-113.537	0.336	-0.065
-381.946	-24.316	0.034	-0.020
-380.931	119.426	0.175	-0.215
-379.917	-18.253	-0.468	-0.291
-378.902	-22.118	0.197	0.119
-377.888	-200.000	-0.023	0.231
-376.873	148.052	-0.139	-0.186
-375.858	-61.297	0.235	0.098
-374.844	597.670	0.088	0.216
-373.829	382.778	0.042	0.087
-372.815	15.377	-0.042	0.033
-371.800	-153.873	-0.259	-0.018
-370.785	-43.120	0.151	-0.076
-369.771	-99.629	-0.132	-0.033
-368.756	-99.711	0.288	0.072
-367.742	-100.750	0.231	-0.056
-366.727	42.298	-0.234	-0.211
-365.712	662.762	0.127	0.325
-364.698	95.902	0.059	0.067
-363.683	-200.000	-0.038	-0.269
-362.669	-200.000	0.024	-0.198
-361.654	136.003	-0.275	-0.355
-360.639	68.905	-0.128	0.130
-359.625	173.626	-0.154	0.220
-358.610	-1.952	0.275	-0.192
-357.596	103.568	-0.168	0.195
-356.581	291.031	0.101	-0.183
-355.566	539.606	-0.073	-0.171
-354.552	49.748	0.105	0.098
-353.537	87.796	0.052	0.057
-352.523	-200.000	0.044	-0.322
-351.508	127.271	-0.130	-0.163
-350.493	800.000	-0.042	0.129
-349.479	546.161	-0.095	0.226
-348.464	-118.954	0.509	-0.089
-347.450	240.807	-0.075	-0.124
-346.435	196.326	-0.117	0.177
-345.420	-200.000	-0.016	-0.077
-344.406	-66.215	0.249	-0.098
-343.391	122.169	-0.047	-0.059
-342.377	-200.000	-0.083	0.399
-341.362	91.820	-0.089	-0.099
-340.348	-13.030	-0.200	0.129
-339.333	-200.000	0.054	0.454
-338.318	128.305	0.153	0.194
-337.304	-88.627	0.169	0.050
-336.289	-200.000	0.007	-0.049
-335.275	800.000	0.018	-0.073
-334.260	294.934	-0.058	-0.105
-333.245	30.735	0.301	0.255
-332.231	-26.498	0.221	-0.129
-331.216	-200.000	0.002	-0.036
-330.202	-131.773	-0.158	-0.021
-329.187	262.735	-0.112	0.193
-328.172	198.580	-0.025	0.039
-327.158	472.249	-0.050	-0.111
-326.143	255.263	-0.030	0.051
-325.129	800.000	-0.138	-0.393
-324.114	506.797	-0.046	0.107
-323.099	-93.289	-0.515	-0.142
-322.085	-200.000	0.033	-0.190
-321.070	-160.050	-0.083	-0.004
-320.056	-200.000	0.001	0.021
-319.041	95.361	0.222	0.250
-318.026	-59.605	-0.166	-0.071
-317.012	70.233	-0.263	0.269
-315.997	-113.419	-0.222	0.043
-314.983	-50.722	-0.243	-0.113
-313.968	-200.000	-0.045	0.202
-312.953	350.663	-0.103	-0.202
-311.939	26.583	-0.317	-0.263
-310.924	438.781	-0.030	-0.064
-309.910	800.000	0.103	0.436
-308.895	-200.000	-0.001	0.063
-307.880	-117.906	-0.204	-0.036
-306.866	-200.000	0.023	-0.115
-305.851	-174.731	0.299	-0.008
-304.837	762.504	0.021	0.056
-303.822	-200.000	-0.023	0.448
-302.807	36.348	0.198	-0.173
-301.793	-200.000	0.028	-0.339
-300.778	178.002	0.217	0.314
-299.764	19.459	-0.138	-0.110
-298.749	43.698	-0.160	-0.145
-297.735	-69.951	0.261	0.099
-296.720	-81.971	0.315	0.102
-295.705	57.623	-0.158	-0.153
-294.691	210.578	0.245	0.380
-293.676	-161.036	0.059	0.003
-292.662	241.374	-0.105	-0.173
-291.647	235.369	0.157	0.256
-290.632	-99.592	0.171	0.042
-289.618	482.986	0.067	-0.151
-288.603	-200.000	-0.000	-0.069
-287.589	190.560	0.136	0.202
-286.574	14.741	-0.101	-0.078
-285.559	59.296	-0.177	0.172
-284.545	-14.862	-0.092	0.059
-283.530	-15.457	-0.080	-0.050
-282.516	-112.123	0.313	-0.062
-281.501	-200.000	-0.037	-0.247
-280.486	-121.416	0.180	-0.030
-279.472	-175.318	-0.183	-0.005
-278.457	28.692	0.249	-0.208
-277.443	800.000	0.056	-0.231
-276.428	-109.205	0.187	-0.039
-275.413	800.000	0.061	-0.213
-274.399	800.000	0.045	0.136
-273.384	8.073	0.111	-0.082
-272.370	-200.000	-0.022	-0.100
-271.355	433.392	-0.176	-0.377
-270.340	97.069	0.203	0.230
-269.326	393.858	-0.168	0.345
-268.311	-40.545	0.076	-0.039
-267.297	640.248	0.080	0.200
-266.282	340.931	0.148	0.285
-265.267	-200.000	0.031	-0.215
-264.253	329.245	0.128	0.244
-263.238	-0.020	0.084	-0.059
-262.224	-107.705	-0.115	0.025
-261.209	642.076	-0.053	-0.134
-260.195	710.821	0.031	0.082
-259.180	54.138	-0.099	-0.094
-258.165	-109.312	0.156	0.033
-257.151	-200.000	0.025	-0.297
-256.136	539.526	0.083	-0.195
-255.122	-77.389	0.270	0.093
-254.107	363.043	-0.046	-0.091
-253.092	34.552	0.166	-0.143
-252.078	-76.810	-0.186	-0.064
-251.063	57.770	0.120	0.116
-250.049	-200.000	-0.020	0.094
-249.034	283.803	0.089	0.158
-248.019	-64.099	0.154	-0.062
-247.005	-45.840	-0.160	-0.078
-245.990	84.631	-0.040	0.043
-244.976	800.000	0.011	-0.044
-243.961	-14.241	0.197	0.125
-242.946	188.160	-0.177	0.261
-241.932	-98.154	0.162	0.041
-240.917	-41.529	-0.085	0.043
-239.903	134.176	-0.061	-0.078
-238.888	-11.978	0.216	-0.140
-237.873	-24.563	0.155	-0.091
-236.859	-77.605	-0.177	-0.061
-235.844	573.607	0.035	0.084
-234.830	538.619	-0.152	0.357
-233.815	-72.965	-0.063	0.023
-232.800	-200.000	-0.033	-0.299
-231.786	-122.846	-0.200	-0.032
-230.771	-46.101	0.424	0.206
-229.757	-200.000	0.032	-0.252
-228.742	-200.000	0.005	0.182
-227.727	-200.000	0.034	-0.203
-226.713	-200.000	-0.017	-0.278
-225.698	-200.000	-0.081	-0.455
-224.684	236.260	0.130	-0.212
-223.669	-85.079	-0.363	-0.112
-222.655	16.345	0.031	-0.024
-221.640	800.000	-0.095	0.269
-220.625	800.000	0.036	0.127
-219.611	-79.172	0.251	-0.084
-218.596	-200.000	0.018	0.162
-217.582	-197.807	0.155	-0.001
-216.567	-52.999	0.396	0.180
-215.552	56.710	-0.042	0.040
-214.538	-200.000	-0.006	0.064
-213.523	-90.839	0.274	-0.078
-212.509	82.876	0.126	-0.135
-211.494	-162.884	-0.140	-0.007
-210.479	443.211	0.099	-0.214
-209.465	-200.000	0.282	-0.001
-208.450	179.309	-0.061	-0.088
-207.436	358.817	0.097	0.191
-206.421	800.000	0.032	-0.134
-205.406	11.794	0.142	-0.107
-204.392	45.912	-0.104	0.095
-203.377	-200.000	-0.073	-0.401
-202.363	-200.000	0.036	-0.162
-201.348	222.742	-0.126	-0.201
-200.333	-200.000	0.029	-0.299
-199.319	800.000	0.082	-0.250
-198.304	87.140	-0.209	-0.228
-197.290	-82.888	-0.185	-0.059
-196.275	7.849	0.027	0.020
-195.260	313.595	0.152	-0.282
-194.246	800.000	-0.018	-0.056
-193.231	800.000	0.047	0.157
-192.217	-200.000	0.007	-0.290
-191.202	-200.000	-0.024	0.125
-190.187	53.931	0.181	-0.171
-189.173	800.000	-0.138	0.381
-188.158	192.804	0.139	0.207
-187.144	42.064	0.109	0.097
-186.129	396.694	-0.105	0.216
-185.114	-121.919	0.083	-0.013
-184.100	708.982	-0.029	-0.075
-183.085	33.366	0.190	0.162
-182.071	-59.661	-0.267	-0.113
-181.056	-39.313	0.107	0.055
-180.042	108.777	0.078	0.092
-179.027	314.729	-0.058	-0.109
-178.012	-200.000	-0.014	-0.274
-176.998	-124.038	0.166	0.026
-175.983	-200.000	-0.033	0.144
-174.969	-90.685	0.141	0.040
-173.954	142.826	-0.118	0.155
-172.939	104.538	0.126	0.146
-171.925	63.568	0.262	0.259
-170.910	-135.828	-0.304	-0.035
-169.896	-70.622	-0.068	0.025
-168.881	137.025	0.321	0.413
-167.866	-200.000	0.003	0.205
-166.852	126.749	-0.176	-0.220
-165.837	-200.000	0.027	0.376
-164.823	50.872	-0.090	-0.084
-163.808	47.218	-0.270	0.247
-162.793	191.001	0.076	0.112
-161.779	2.079	0.349	-0.248
-160.764	164.993	0.125	-0.174
-159.750	547.520	-0.043	-0.102
-158.735	24.290	0.239	0.194
-157.720	30.270	-0.141	-0.119
-156.706	-200.000	-0.021	-0.133
-155.691	-200.000	0.036	-0.302
-154.677	-64.666	-0.351	0.140
-153.662	140.902	-0.106	-0.137
-152.647	-200.000	0.028	-0.237
-151.633	800.000	-0.090	-0.337
-150.618	173.104	-0.154	-0.218
-149.604	1.248	0.219	-0.155
-148.589	-119.781	0.123	0.021
-147.574	177.274	-0.156	-0.224
-146.560	800.000	0.050	-0.181
-145.545	-121.917	0.241	-0.039
-144.531	115.030	-0.171	-0.205
-143.516	-164.886	0.402	-0.018
-142.502	390.281	0.110	0.224
-141.487	-200.000	0.017	-0.262
-140.472	101.289	0.236	0.270
-139.458	250.603	0.137	-0.229
-138.443	-200.000	-0.040	-0.313
-137.429	-92.432	0.158	0.044
-136.414	81.480	0.025	0.027
-135.399	167.825	0.142	0.199
-134.385	-57.422	0.491	0.212
-133.370	129.469	-0.187	-0.235
-132.356	-133.885	-0.109	0.013
-131.341	-99.338	-0.164	0.041
-130.326	609.492	0.218	-0.535
-129.312	800.000	0.036	-0.129
-128.297	-149.025	-0.313	0.025
-127.283	226.336	-0.143	0.228
-126.268	112.448	-0.107	-0.127
-125.253	-29.485	0.245	-0.138
-124.239	14.534	-0.262	-0.201
-123.224	800.000	0.059	0.207
-122.210	39.650	0.184	0.162
-121.195	-13.805	0.130	0.083
