DTS Sentinel unit serial number:	SN413079Multiplexer serial number:	ORYXHardware model number:	OX4-SRSoftware version number:	ORYX F/W v4.00 Oryx Data Collector v3.7.2.0data status	okinstallation	princeton_trtdifferential loss correction	single-endedforward channel	channel 2reverse channel	N/Adate	2019/09/18time	17:11:34forward acquisition time	60.00reverse acquisition time	0.00gamma	496.2192k internal	0.2301k external	0.2301temperature offset calibration	1.0010default loss term (dB/km)	0.3790temperature slope calibration	1.0000multiplexer offset coefficient	1.0000multiplexer slope coefficient	1.0000fibre end	0.00T internal ref (°C)	39.87T ext. ref 1 (°C)	0.89T ext. ref 2 (°C)	34.82length (m)	temperature (°C)	Stokes	anti-Stokes-747.200	20.889	0.138	0.114
-746.185	-117.435	-0.355	0.065
-745.171	266.858	-0.077	-0.138
-744.156	-200.000	0.042	0.231
-743.142	-32.343	0.109	-0.062
-742.127	49.436	-0.433	0.415
-741.112	-200.000	-0.038	0.299
-740.098	-66.299	-0.216	0.087
-739.083	-200.000	0.029	-0.274
-738.069	199.494	0.044	-0.069
-737.054	781.378	0.058	0.162
-736.039	800.000	0.074	-0.292
-735.025	-37.782	0.228	0.124
-734.010	-14.579	0.074	-0.049
-732.996	128.138	-0.058	-0.075
-731.981	282.841	0.018	0.034
-730.966	-124.140	-0.174	-0.028
-729.952	344.846	-0.054	0.107
-728.937	-200.000	0.076	-0.344
-727.923	62.118	-0.095	-0.096
-726.908	715.260	-0.087	-0.234
-725.894	-103.614	0.180	0.043
-724.879	-110.141	-0.086	-0.018
-723.864	270.525	-0.063	-0.112
-722.850	-171.334	-0.335	-0.011
-721.835	-191.111	-0.119	0.001
-720.821	-72.268	0.181	0.068
-719.806	-112.238	-0.247	0.051
-718.791	39.492	0.085	-0.077
-717.777	-78.754	-0.269	0.093
-716.762	-52.911	-0.103	0.048
-715.748	398.741	-0.110	0.235
-714.733	-7.642	0.130	-0.089
-713.718	756.219	0.138	0.379
-712.704	-9.889	-0.053	0.036
-711.689	-37.178	-0.150	-0.082
-710.675	-67.509	0.460	-0.184
-709.660	800.000	-0.101	-0.337
-708.645	-200.000	0.019	-0.161
-707.631	-30.767	-0.132	0.076
-706.616	-200.000	0.005	0.258
-705.602	55.354	-0.174	0.171
-704.587	-120.663	0.089	-0.015
-703.572	-82.113	0.253	-0.084
-702.558	27.870	-0.242	-0.208
-701.543	482.523	0.140	-0.325
-700.529	98.420	-0.073	0.085
-699.514	-5.356	-0.346	0.242
-698.499	106.411	-0.097	0.117
-697.485	112.800	0.226	-0.279
-696.470	-13.485	-0.185	0.122
-695.456	-50.235	0.063	-0.030
-694.441	71.632	-0.070	0.074
-693.426	-150.579	0.104	-0.008
-692.412	328.488	-0.118	-0.231
-691.397	-42.567	0.302	-0.156
-690.383	-77.683	-0.258	-0.091
-689.368	303.074	-0.063	0.118
-688.354	-200.000	0.038	-0.190
-687.339	-34.354	0.158	0.088
-686.324	-200.000	-0.010	0.203
-685.310	83.080	-0.025	0.028
-684.295	-200.000	0.372	0.002
-683.281	-145.892	0.034	0.003
-682.266	-181.310	-0.037	0.001
-681.251	800.000	0.029	0.112
-680.237	-200.000	-0.007	0.147
-679.222	27.423	0.062	-0.053
-678.208	800.000	0.027	0.115
-677.193	-200.000	0.034	0.193
-676.178	-30.449	0.077	0.044
-675.164	-92.225	-0.158	0.045
-674.149	406.257	0.119	-0.256
-673.135	7.892	-0.178	0.136
-672.120	30.441	-0.206	-0.179
-671.105	-102.490	-0.089	0.022
-670.091	2.493	-0.323	-0.238
-669.076	-200.000	-0.005	-0.427
-668.062	189.949	-0.033	-0.050
-667.047	-200.000	-0.032	-0.174
-666.032	124.255	0.039	-0.049
-665.018	-60.133	0.270	-0.117
-664.003	-200.000	-0.003	0.099
-662.989	-67.664	-0.116	-0.046
-661.974	77.813	0.031	-0.033
-660.959	-125.595	0.498	-0.077
-659.945	338.682	-0.143	-0.282
-658.930	63.723	0.034	-0.034
-657.916	-55.641	0.321	-0.146
-656.901	-117.848	-0.262	-0.048
-655.886	800.000	0.045	-0.193
-654.872	-121.328	-0.404	0.068
-653.857	331.307	-0.073	0.144
-652.843	424.800	0.119	0.261
-651.828	80.480	0.062	0.068
-650.814	85.745	-0.304	-0.339
-649.799	-179.015	-0.188	0.004
-648.784	-110.070	-0.203	0.043
-647.770	-200.000	0.011	0.076
-646.755	98.246	0.050	-0.058
-645.741	-73.143	-0.336	-0.125
-644.726	78.101	-0.102	0.110
-643.711	121.229	-0.126	0.159
-642.697	62.269	-0.026	-0.026
-641.682	-200.000	0.026	0.177
-640.668	800.000	0.042	0.162
-639.653	-200.000	-0.019	-0.216
-638.638	149.199	-0.056	-0.076
-637.624	105.152	0.385	0.461
-636.609	25.178	-0.034	-0.028
-635.595	372.032	-0.189	-0.391
-634.580	385.589	-0.139	0.290
-633.565	244.975	0.179	0.306
-632.551	196.830	0.063	0.098
-631.536	-48.172	-0.084	-0.041
-630.522	-114.307	-0.132	-0.026
-629.507	167.128	0.236	0.340
-628.492	-200.000	-0.022	0.106
-627.478	-200.000	-0.029	0.350
-626.463	-92.041	0.287	0.083
-625.449	800.000	-0.085	-0.296
-624.434	-154.219	-0.382	-0.026
-623.419	229.288	0.075	-0.125
-622.405	-111.582	-0.307	-0.063
-621.390	-90.891	-0.228	0.067
-620.376	154.636	-0.104	0.145
-619.361	124.566	0.042	0.054
-618.346	-189.180	0.326	0.004
-617.332	131.335	-0.060	-0.078
-616.317	-94.867	-0.125	0.034
-615.303	800.000	0.063	-0.236
-614.288	-146.330	-0.113	-0.010
-613.273	-55.427	0.252	-0.115
-612.259	-200.000	-0.054	-0.355
-611.244	-200.000	-0.137	0.000
-610.230	17.128	-0.315	0.253
-609.215	685.197	-0.039	-0.102
-608.201	-72.500	-0.156	-0.058
-607.186	-78.394	0.200	-0.070
-606.171	130.083	0.050	0.065
-605.157	761.043	-0.007	0.020
-604.142	-88.831	-0.154	-0.046
-603.128	117.775	-0.193	0.241
-602.113	-200.000	-0.064	0.370
-601.098	759.659	0.126	-0.346
-600.084	215.603	0.223	-0.360
-599.069	1.846	0.091	-0.066
-598.055	-94.894	0.129	-0.035
-597.040	800.000	0.065	-0.188
-596.025	-94.250	0.556	0.154
-595.011	-32.654	-0.327	0.184
-593.996	-109.659	-0.239	-0.051
-592.982	-109.111	0.259	0.056
-591.967	-165.849	0.257	0.011
-590.952	83.221	0.223	-0.246
-589.938	-93.327	0.356	-0.100
-588.923	201.275	0.137	-0.215
-587.909	-120.355	0.382	-0.066
-586.894	112.402	0.105	-0.128
-585.879	-200.000	0.017	-0.138
-584.865	-113.752	-0.126	0.025
-583.850	-2.733	0.211	0.149
-582.836	162.192	-0.049	0.069
-581.821	-200.000	-0.020	-0.168
-580.806	-63.304	0.385	0.161
-579.792	-15.468	-0.083	-0.053
-578.777	-200.000	0.090	0.000
-577.763	800.000	0.030	0.112
-576.748	-200.000	0.045	-0.311
-575.733	800.000	-0.011	0.044
-574.719	-200.000	-0.025	0.198
-573.704	202.621	-0.163	-0.255
-572.690	-200.000	-0.002	-0.012
-571.675	800.000	0.012	-0.036
-570.661	23.400	0.313	-0.260
-569.646	8.334	-0.327	-0.249
-568.631	154.496	-0.178	-0.247
-567.617	-97.483	-0.250	-0.066
-566.602	800.000	-0.017	-0.061
-565.588	254.506	0.099	-0.172
-564.573	-2.459	0.260	-0.184
-563.558	608.731	0.041	0.103
-562.544	11.421	0.225	-0.174
-561.529	-200.000	0.061	-0.491
-560.515	48.522	-0.449	-0.426
-559.500	-200.000	0.057	-0.348
-558.485	-56.492	-0.108	0.048
-557.471	800.000	-0.027	-0.098
-556.456	-196.790	-0.155	-0.001
-555.442	-200.000	0.044	0.233
-554.427	-140.184	-0.176	-0.019
-553.412	-98.632	0.241	-0.062
-552.398	800.000	0.021	-0.081
-551.383	33.164	-0.239	-0.210
-550.369	59.723	0.075	0.075
-549.354	-200.000	-0.023	-0.166
-548.339	165.579	0.055	0.078
-547.325	32.885	-0.117	0.102
-546.310	-200.000	-0.015	-0.077
-545.296	800.000	0.044	0.132
-544.281	-71.014	0.486	0.185
-543.266	-77.420	-0.252	-0.089
-542.252	-123.319	-0.357	0.058
-541.237	-52.208	-0.336	-0.157
-540.223	194.589	0.095	0.146
-539.208	-55.941	-0.082	-0.037
-538.193	-200.000	-0.001	0.098
-537.179	-200.000	-0.036	-0.256
-536.164	-200.000	0.001	-0.049
-535.150	254.956	0.188	-0.325
-534.135	-77.194	0.203	-0.071
-533.121	800.000	-0.065	-0.200
-532.106	-200.000	0.039	0.581
-531.091	-65.904	-0.184	0.075
-530.077	-200.000	0.064	0.441
-529.062	215.323	-0.080	0.129
-528.048	-134.855	-0.070	-0.009
-527.033	-127.386	-0.305	-0.045
-526.018	504.859	-0.172	0.403
-525.004	-85.526	0.225	-0.071
-523.989	42.785	-0.231	-0.213
-522.975	-12.461	-0.309	0.204
-521.960	-168.280	-0.080	0.003
-520.945	67.252	0.052	-0.053
-519.931	301.882	-0.137	0.256
-518.916	-137.229	-0.361	0.041
-517.902	4.716	-0.080	0.059
-516.887	-63.511	0.060	0.025
-515.872	337.417	-0.122	-0.240
-514.858	-65.516	0.026	-0.010
-513.843	-92.222	-0.395	0.113
-512.829	-111.562	0.170	0.035
-511.814	-196.396	0.430	-0.003
-510.799	-114.542	-0.022	-0.004
-509.785	132.318	0.332	-0.433
-508.770	353.237	0.094	0.188
-507.756	-80.517	0.121	0.041
-506.741	-98.525	0.205	-0.053
-505.726	123.077	0.114	0.144
-504.712	-56.162	-0.202	-0.091
-503.697	-51.721	0.194	-0.092
-502.683	-87.645	-0.137	-0.042
-501.668	-44.265	-0.150	-0.076
-500.653	91.845	-0.078	0.088
-499.639	198.457	0.260	0.401
-498.624	450.237	0.043	0.097
-497.610	-147.062	-0.141	-0.012
-496.595	172.872	-0.085	-0.124
-495.581	-122.171	0.248	-0.041
-494.566	37.893	0.096	-0.086
-493.551	309.014	0.083	-0.157
-492.537	-166.881	0.241	-0.010
-491.522	800.000	0.065	-0.216
-490.508	-38.278	-0.300	0.160
-489.493	-117.991	-0.282	-0.051
-488.478	36.041	0.131	0.116
-487.464	-32.418	0.248	0.139
-486.449	-152.482	-0.267	0.019
-485.435	-80.764	0.230	0.077
-484.420	-29.087	0.042	0.025
-483.405	269.606	0.112	0.198
-482.391	-165.837	-0.094	0.004
-481.376	-77.205	-0.452	0.159
-480.362	-70.996	-0.075	0.028
-479.347	-200.000	0.007	0.039
-478.332	66.593	0.151	-0.155
-477.318	-200.000	0.019	0.296
-476.303	-99.695	0.028	-0.007
-475.289	287.739	0.086	-0.157
-474.274	-100.164	-0.034	-0.009
-473.259	12.720	-0.153	-0.119
-472.245	-47.135	-0.270	0.133
-471.230	275.692	-0.056	0.100
-470.216	-74.973	-0.337	0.122
-469.201	-80.710	-0.259	-0.087
-468.186	178.855	0.027	0.040
-467.172	-200.000	-0.033	-0.342
-466.157	194.016	-0.103	-0.158
-465.143	-75.541	-0.239	-0.086
-464.128	76.283	-0.247	-0.264
-463.113	-65.294	-0.238	0.097
-462.099	145.853	0.150	0.203
-461.084	-157.341	0.105	-0.006
-460.070	-40.772	-0.223	0.117
-459.055	-80.459	-0.288	-0.097
-458.040	-71.703	-0.527	-0.198
-457.026	-71.491	0.077	0.029
-456.011	37.893	0.186	-0.167
-454.997	-200.000	-0.048	-0.243
-453.982	-25.828	0.202	0.120
-452.968	-87.865	-0.192	0.058
-451.953	693.664	-0.030	0.079
-450.938	-135.312	0.298	0.036
-449.924	219.358	0.184	-0.296
-448.909	-133.813	-0.092	0.012
-447.895	69.748	-0.192	-0.200
-446.880	-154.309	-0.151	-0.010
-445.865	800.000	0.020	-0.071
-444.851	-83.603	0.242	-0.078
-443.836	-14.169	0.215	0.140
-442.822	307.994	0.088	-0.166
-441.807	-3.980	-0.102	-0.071
-440.792	-41.222	-0.192	0.100
-439.778	-200.000	-0.037	0.311
-438.763	248.906	-0.117	0.200
-437.749	125.522	0.130	-0.165
-436.734	800.000	0.022	0.073
-435.719	8.959	-0.250	-0.190
-434.705	241.037	-0.124	0.209
-433.690	-200.000	0.037	0.375
-432.676	-200.000	-0.011	0.214
-431.661	-200.000	-0.001	-0.091
-430.646	-94.547	-0.081	-0.022
-429.632	-9.932	-0.065	-0.044
-428.617	395.221	-0.204	-0.428
-427.603	-200.000	0.226	-0.001
-426.588	195.328	0.136	-0.207
-425.573	336.855	0.095	-0.185
-424.559	-14.212	0.103	0.067
-423.544	-46.553	-0.277	-0.137
-422.530	-200.000	-0.052	0.280
-421.515	-47.822	0.144	0.070
-420.500	96.009	0.224	0.258
-419.486	-200.000	0.024	-0.293
-418.471	-200.000	0.021	-0.471
-417.457	-105.918	-0.043	-0.010
-416.442	-36.208	-0.488	0.265
-415.428	-62.953	0.308	-0.128
-414.413	203.691	0.150	0.233
-413.398	-86.674	-0.011	0.003
-412.384	-200.000	-0.002	-0.287
-411.369	800.000	0.073	-0.286
-410.355	-46.958	0.424	-0.208
-409.340	136.665	-0.157	-0.206
-408.325	-1.924	-0.154	0.109
-407.311	-147.373	-0.274	0.023
-406.296	194.882	-0.190	-0.290
-405.282	-200.000	-0.053	-0.382
-404.267	105.157	-0.100	-0.119
-403.252	-151.561	-0.513	-0.038
-402.238	-11.527	0.083	-0.055
-401.223	387.411	-0.270	0.562
-400.209	-103.151	-0.103	-0.024
-399.194	-26.981	0.067	-0.039
-398.179	3.630	-0.287	0.210
-397.165	240.057	0.179	0.301
-396.150	65.101	-0.099	0.100
-395.136	33.450	-0.089	0.078
-394.121	95.972	-0.127	-0.146
-393.106	-69.724	0.212	-0.082
-392.092	34.667	-0.171	-0.150
-391.077	800.000	-0.087	-0.244
-390.063	-81.319	0.084	-0.028
-389.048	-84.193	-0.244	-0.078
-388.033	145.660	-0.032	-0.044
-387.019	-200.000	0.009	-0.114
-386.004	352.866	0.063	0.125
-384.990	-11.719	0.265	-0.175
-383.975	-101.873	-0.219	0.053
-382.960	101.866	0.140	0.164
-381.946	-200.000	-0.023	-0.149
-380.931	-100.107	0.361	0.090
-379.917	43.461	0.188	0.172
-378.902	176.220	0.141	0.206
-377.888	-200.000	-0.049	-0.238
-376.873	352.025	-0.149	0.296
-375.858	343.497	0.124	0.243
-374.844	800.000	0.076	0.258
-373.829	-44.169	-0.048	-0.024
-372.815	-150.873	0.405	0.031
-371.800	492.910	0.133	-0.305
-370.785	159.021	-0.134	-0.187
-369.771	-168.803	-0.356	-0.013
-368.756	-130.482	0.247	0.034
-367.742	321.652	-0.098	-0.187
-366.727	-116.708	0.344	0.064
-365.712	-58.889	-0.126	-0.055
-364.698	-40.426	0.359	0.188
-363.683	-158.866	0.029	0.002
-362.669	150.083	0.068	0.092
-361.654	332.376	-0.194	0.376
-360.639	605.835	0.091	-0.228
-359.625	-109.727	-0.239	-0.050
-358.610	-200.000	-0.026	0.261
-357.596	-54.887	-0.155	0.070
-356.581	-103.977	-0.285	0.067
-355.566	76.765	-0.165	-0.175
-354.552	44.340	-0.123	-0.113
-353.537	-200.000	-0.051	0.367
-352.523	-200.000	-0.009	0.074
-351.508	-93.949	-0.105	-0.029
-350.493	-137.457	0.114	-0.013
-349.479	-200.000	0.022	-0.167
-348.464	-154.970	0.219	-0.014
-347.450	-200.000	0.019	-0.126
-346.435	44.900	0.255	0.235
-345.420	-97.489	-0.266	0.069
-344.406	-200.000	0.087	-0.457
-343.391	4.166	0.013	0.009
-342.377	-132.976	0.287	0.037
-341.362	-151.604	-0.226	-0.017
-340.348	-6.050	-0.215	-0.147
-339.333	-200.000	-0.015	-0.189
-338.318	-5.588	0.062	0.042
-337.304	54.553	0.085	0.082
-336.289	101.076	-0.200	0.233
-335.275	503.387	0.018	-0.042
-334.260	-3.489	0.237	-0.166
-333.245	-26.165	-0.286	-0.169
-332.231	-200.000	0.007	-0.218
-331.216	41.798	0.134	-0.122
-330.202	-140.699	-0.115	-0.012
-329.187	800.000	-0.037	-0.109
-328.172	-80.830	-0.108	0.036
-327.158	-200.000	0.001	-0.115
-326.143	-200.000	-0.067	-0.342
-325.129	-200.000	-0.037	0.407
-324.114	-81.005	-0.073	0.024
-323.099	-42.062	-0.139	0.072
-322.085	343.789	-0.056	0.110
-321.070	-73.987	-0.192	0.070
-320.056	109.946	-0.186	-0.223
-319.041	800.000	-0.039	0.127
-318.026	184.968	-0.033	0.049
-317.012	800.000	-0.073	-0.204
-315.997	165.135	0.316	0.447
-314.983	-200.000	-0.018	0.169
-313.968	347.566	-0.076	0.151
-312.953	-88.126	0.075	0.023
-311.939	501.965	0.062	-0.144
-310.924	66.512	-0.107	-0.109
-309.910	55.037	0.273	-0.264
-308.895	-200.000	0.073	0.379
-307.880	800.000	0.008	-0.036
-306.866	104.644	0.177	0.209
-305.851	418.028	0.045	0.096
-304.837	-52.209	-0.127	-0.059
-303.822	-143.640	0.334	-0.032
-302.807	16.303	-0.130	0.103
-301.793	-200.000	0.078	-0.371
-300.778	800.000	0.018	-0.053
-299.764	559.950	0.103	0.249
-298.749	-184.661	-0.341	0.005
-297.735	-8.885	0.239	0.160
-296.720	-200.000	0.102	0.527
-295.705	88.983	0.172	0.192
-294.691	-200.000	0.020	0.124
-293.676	800.000	0.006	-0.023
-292.662	-144.801	-0.099	0.009
-291.647	410.186	-0.075	0.159
-290.632	-200.000	0.015	0.131
-289.618	251.328	0.084	0.144
-288.603	418.332	0.104	-0.224
-287.589	-175.556	0.161	0.004
-286.574	-132.072	0.294	-0.038
-285.559	-114.292	-0.119	0.023
-284.545	-109.053	0.285	0.061
-283.530	5.189	0.221	-0.163
-282.516	-46.665	0.139	0.068
-281.501	24.350	-0.322	0.266
-280.486	278.490	0.004	0.007
-279.472	-138.621	-0.205	-0.022
-278.457	40.620	-0.339	0.305
-277.443	800.000	0.037	0.117
-276.428	-169.597	-0.138	-0.005
-275.413	354.130	0.169	-0.337
-274.399	-98.352	0.062	-0.016
-273.384	746.540	-0.088	0.237
-272.370	-171.747	-0.266	0.009
-271.355	-200.000	0.001	-0.124
-270.340	800.000	0.083	0.306
-269.326	350.804	-0.123	0.244
-268.311	-81.259	0.243	-0.080
-267.297	360.314	0.218	0.436
-266.282	48.508	0.121	-0.113
-265.267	-200.000	-0.048	0.421
-264.253	-126.205	0.519	0.078
-263.238	25.239	0.220	-0.183
-262.224	49.172	0.181	-0.170
-261.209	725.205	-0.061	-0.164
-260.195	504.467	-0.094	-0.218
-259.180	-150.534	0.094	0.007
-258.165	800.000	0.034	-0.100
-257.151	278.324	0.116	0.207
-256.136	438.128	-0.081	0.176
-255.122	-90.087	0.078	-0.023
-254.107	-48.256	0.177	0.085
-253.092	-200.000	0.032	0.205
-252.078	-70.244	0.464	0.176
-251.063	-69.810	0.509	-0.194
-250.049	145.003	-0.109	-0.146
-249.034	39.962	0.283	0.254
-248.019	800.000	0.027	-0.102
-247.005	-200.000	-0.031	-0.172
-245.990	-140.049	0.259	-0.027
-244.976	-200.000	0.003	-0.128
-243.961	-30.544	0.131	0.074
-242.946	-200.000	-0.013	0.217
-241.932	800.000	0.015	0.067
-240.917	-123.109	-0.289	0.046
-239.903	32.223	0.146	-0.126
-238.888	27.794	-0.158	-0.133
-237.873	-200.000	-0.020	0.254
-236.859	-200.000	0.061	0.278
-235.844	216.401	-0.157	-0.250
-234.830	800.000	-0.058	-0.178
-233.815	-91.443	0.424	0.121
-232.800	-196.407	-0.229	-0.002
-231.786	-66.353	-0.174	0.069
-230.771	800.000	0.075	0.266
-229.757	-17.780	-0.028	0.018
-228.742	-79.427	-0.293	-0.099
-227.727	-200.000	0.005	-0.143
-226.713	-13.074	0.055	-0.036
-225.698	800.000	0.027	0.115
-224.684	-156.709	0.193	0.012
-223.669	140.397	-0.079	0.104
-222.655	-126.131	0.057	0.009
-221.640	-163.373	-0.458	-0.022
-220.625	65.438	0.146	0.148
-219.611	-5.604	-0.132	0.090
-218.596	-107.940	-0.250	-0.054
-217.582	433.968	0.067	-0.145
-216.567	-156.685	0.028	0.002
-215.552	-200.000	-0.064	-0.367
-214.538	328.805	-0.091	-0.175
-213.523	800.000	0.044	-0.185
-212.509	593.664	-0.110	-0.271
-211.494	16.902	0.084	-0.067
-210.479	-58.364	0.194	0.084
-209.465	-52.436	0.052	0.024
-208.450	222.218	0.062	0.100
-207.436	-47.126	0.380	-0.185
-206.421	-39.031	0.282	0.148
-205.406	10.193	0.259	0.197
-204.392	-11.255	-0.219	-0.144
-203.377	50.473	0.211	0.199
-202.363	-200.000	0.039	0.461
-201.348	-106.559	-0.227	0.051
-200.333	-153.420	0.202	0.014
-199.319	-67.360	-0.108	0.042
-198.304	-8.992	0.060	-0.040
-197.290	30.406	0.193	-0.165
-196.275	-200.000	-0.058	0.402
-195.260	-100.980	0.058	-0.014
-194.246	-14.611	-0.211	-0.136
-193.231	-59.160	-0.178	-0.076
-192.217	-20.381	0.339	0.208
-191.202	413.505	-0.014	0.030
-190.187	-103.943	-0.048	0.011
-189.173	-144.711	-0.223	-0.020
-188.158	800.000	-0.068	0.219
-187.144	35.937	0.066	0.058
-186.129	328.426	-0.104	-0.198
-185.114	36.294	-0.223	-0.196
-184.100	-141.853	-0.270	0.027
-183.085	613.147	-0.024	-0.060
-182.071	-200.000	-0.001	-0.154
-181.056	-71.800	0.180	0.067
-180.042	-29.957	-0.293	-0.167
-179.027	172.861	0.179	-0.257
-178.012	-200.000	0.019	-0.181
-176.998	563.696	0.039	0.095
-175.983	800.000	-0.131	0.481
-174.969	-200.000	0.032	0.255
-173.954	432.573	-0.107	-0.231
-172.939	800.000	0.086	-0.274
-171.925	314.881	0.187	0.352
-170.910	138.586	-0.107	0.139
-169.896	145.613	0.250	-0.333
-168.881	196.043	-0.042	0.063
-167.866	-128.694	0.165	0.023
-166.852	70.265	0.221	-0.227
-165.837	-120.119	0.254	-0.043
-164.823	37.657	0.280	0.248
-163.808	-24.281	-0.248	-0.148
-162.793	599.966	0.062	0.153
-161.779	88.612	0.078	0.086
-160.764	241.639	-0.080	-0.133
-159.750	-200.000	0.016	0.214
-158.735	-106.784	0.302	0.067
-157.720	51.687	-0.146	-0.139
-156.706	-200.000	0.052	-0.356
-155.691	800.000	0.021	-0.061
-154.677	-57.953	0.175	0.076
-153.662	80.380	-0.209	0.224
-152.647	-10.041	0.114	0.075
-151.633	-200.000	-0.001	0.099
-150.618	-95.195	0.438	0.118
-149.604	321.027	-0.051	0.097
-148.589	-42.168	-0.054	-0.027
-147.574	-200.000	0.027	-0.316
-146.560	399.389	-0.160	-0.334
-145.545	-200.000	-0.010	-0.085
-144.531	-122.329	-0.171	-0.028
-143.516	346.567	-0.072	-0.142
-142.502	-200.000	0.004	0.081
-141.487	515.695	0.089	-0.207
-140.472	49.822	-0.112	0.105
-139.458	147.315	-0.097	-0.130
-138.443	800.000	0.038	0.131
-137.429	-200.000	0.006	-0.237
-136.414	-27.958	0.308	-0.177
-135.399	-34.283	0.242	-0.132
-134.385	-79.699	0.185	-0.062
-133.370	-132.579	0.243	0.031
-132.356	177.455	-0.114	-0.165
-131.341	150.729	0.087	0.118
-130.326	-107.042	-0.390	-0.086
-129.312	276.334	0.118	-0.209
-128.297	39.649	0.069	-0.061
-127.283	800.000	-0.075	0.301
-126.268	155.085	0.054	0.074
-125.253	310.599	-0.016	0.030
-124.239	800.000	0.063	-0.229
-123.224	-200.000	-0.017	0.318
-122.210	-200.000	-0.019	0.185
