DTS Sentinel unit serial number:	SN413079Multiplexer serial number:	ORYXHardware model number:	OX4-SRSoftware version number:	ORYX F/W v4.00 Oryx Data Collector v3.7.2.0data status	okinstallation	princeton_trtdifferential loss correction	single-endedforward channel	channel 2reverse channel	N/Adate	2019/09/16time	01:51:35forward acquisition time	60.00reverse acquisition time	0.00gamma	496.2192k internal	0.2336k external	0.2336temperature offset calibration	0.9963default loss term (dB/km)	0.3790temperature slope calibration	1.0000multiplexer offset coefficient	1.0000multiplexer slope coefficient	1.0000fibre end	0.00T internal ref (°C)	27.42T ext. ref 1 (°C)	10.04T ext. ref 2 (°C)	22.27length (m)	temperature (°C)	Stokes	anti-Stokes-747.200	-140.162	-0.253	-0.027
-746.185	307.574	0.022	-0.042
-745.171	1.703	0.096	-0.070
-744.156	-200.000	-0.003	0.042
-743.142	-96.645	0.082	0.022
-742.127	670.793	-0.130	0.339
-741.112	-10.692	-0.305	-0.203
-740.098	-200.000	-0.083	0.457
-739.083	33.703	0.185	0.161
-738.069	120.625	-0.015	0.018
-737.054	709.270	-0.035	0.093
-736.039	-35.831	-0.278	-0.151
-735.025	-47.504	0.331	-0.162
-734.010	-200.000	0.061	-0.488
-732.996	800.000	0.021	-0.062
-731.981	331.292	-0.048	0.092
-730.966	-59.683	-0.292	-0.125
-729.952	800.000	-0.084	-0.251
-728.937	-200.000	0.021	-0.243
-727.923	-49.707	-0.371	-0.177
-726.908	-97.042	0.141	0.037
-725.894	-76.546	-0.040	-0.014
-724.879	800.000	0.090	0.315
-723.864	-94.758	0.205	-0.056
-722.850	-118.406	0.391	-0.070
-721.835	51.906	-0.118	-0.112
-720.821	705.807	-0.112	-0.296
-719.806	-113.291	-0.312	-0.062
-718.791	-46.369	-0.266	-0.131
-717.777	-157.561	0.218	0.013
-716.762	36.218	-0.185	0.164
-715.748	-200.000	0.045	-0.242
-714.733	-200.000	0.052	-0.415
-713.718	9.003	0.130	-0.098
-712.704	-200.000	-0.037	-0.177
-711.689	-133.102	-0.058	0.007
-710.675	-200.000	-0.008	0.168
-709.660	-106.573	-0.215	-0.048
-708.645	-81.155	0.247	0.082
-707.631	-200.000	-0.004	-0.408
-706.616	68.126	-0.029	-0.030
-705.602	800.000	0.006	-0.024
-704.587	-111.885	-0.368	0.075
-703.572	99.015	0.152	-0.176
-702.558	122.523	-0.019	-0.024
-701.543	57.162	0.129	-0.126
-700.529	186.933	-0.029	0.043
-699.514	-61.944	-0.192	-0.080
-698.499	-117.595	0.215	-0.039
-697.485	-104.745	-0.054	0.013
-696.470	755.353	-0.048	-0.129
-695.456	407.603	-0.064	-0.136
-694.441	-200.000	-0.032	0.228
-693.426	31.049	-0.111	0.096
-692.412	-130.083	-0.206	0.028
-691.397	800.000	-0.067	0.223
-690.383	68.851	0.055	0.057
-689.368	417.206	-0.239	-0.512
-688.354	-100.416	0.173	-0.043
-687.339	-52.451	-0.240	-0.111
-686.324	242.690	0.108	-0.180
-685.310	-200.000	-0.018	-0.210
-684.295	209.530	-0.145	-0.228
-683.281	99.340	-0.098	-0.113
-682.266	-136.112	0.067	-0.008
-681.251	-129.980	-0.304	-0.042
-680.237	72.597	0.191	0.200
-679.222	-120.375	-0.246	-0.042
-678.208	272.973	0.106	-0.187
-677.193	93.717	0.084	0.096
-676.178	-38.928	0.242	0.128
-675.164	141.696	0.162	-0.215
-674.149	-92.912	-0.283	0.079
-673.135	144.273	-0.095	-0.127
-672.120	64.377	-0.072	-0.073
-671.105	790.101	0.065	-0.179
-670.091	1.784	0.280	-0.202
-669.076	2.702	-0.107	-0.078
-668.062	100.856	-0.217	-0.253
-667.047	352.458	-0.055	-0.110
-666.032	-148.513	-0.128	0.011
-665.018	328.103	0.101	0.193
-664.003	-4.833	0.134	-0.093
-662.989	82.857	-0.074	0.081
-661.974	-120.549	0.463	0.079
-660.959	116.934	0.213	0.262
-659.945	-200.000	0.019	-0.266
-658.930	800.000	-0.047	-0.192
-657.916	-200.000	-0.090	-0.466
-656.901	7.017	-0.331	0.247
-655.886	-131.435	-0.078	0.010
-654.872	-141.344	0.182	-0.018
-653.857	-103.411	-0.162	0.038
-652.843	-22.261	0.301	-0.183
-651.828	289.757	0.154	-0.280
-650.814	-20.057	-0.104	0.064
-649.799	-48.941	0.289	-0.139
-648.784	-117.978	0.267	0.048
-647.770	52.057	-0.255	-0.243
-646.755	98.977	-0.148	-0.172
-645.741	111.226	0.152	0.183
-644.726	-21.067	0.174	-0.107
-643.711	-200.000	-0.069	0.302
-642.697	800.000	-0.019	-0.068
-641.682	800.000	0.066	-0.219
-640.668	160.870	0.192	0.269
-639.653	-200.000	0.022	-0.285
-638.638	800.000	-0.078	0.230
-637.624	-67.426	0.195	0.077
-636.609	-121.049	-0.167	0.028
-635.595	190.291	-0.157	0.237
-634.580	290.019	-0.089	-0.161
-633.565	800.000	0.077	0.243
-632.551	-168.394	-0.091	-0.003
-631.536	-200.000	0.011	-0.069
-630.522	-43.015	0.263	0.133
-629.507	-6.225	-0.123	-0.084
-628.492	172.488	0.144	0.207
-627.478	-5.134	0.133	-0.092
-626.463	-200.000	-0.053	-0.232
-625.449	612.153	-0.080	-0.200
-624.434	27.558	0.213	-0.179
-623.419	772.191	-0.214	-0.583
-622.405	-78.405	-0.227	-0.078
-621.390	-75.775	0.356	-0.126
-620.376	-200.000	-0.002	0.173
-619.361	317.484	-0.105	-0.198
-618.346	-73.499	0.061	-0.022
-617.332	800.000	0.050	-0.191
-616.317	503.930	-0.072	-0.166
-615.303	-64.690	-0.243	-0.098
-614.288	28.033	0.195	-0.164
-613.273	-165.888	0.307	0.013
-612.259	336.662	-0.108	-0.210
-611.244	15.644	-0.433	-0.340
-610.230	128.961	-0.102	-0.130
-609.215	-98.131	0.114	0.029
-608.201	-200.000	0.058	0.297
-607.186	-9.816	-0.291	0.194
-606.171	-116.861	0.230	0.042
-605.157	162.341	0.229	0.321
-604.142	-109.002	0.162	0.034
-603.128	-14.771	0.138	-0.089
-602.113	-65.879	-0.128	0.051
-601.098	-200.000	-0.003	0.215
-600.084	75.073	-0.075	-0.079
-599.069	-90.359	-0.066	0.019
-598.055	241.117	-0.156	0.260
-597.040	769.387	0.054	0.146
-596.025	800.000	0.038	0.127
-595.011	800.000	-0.123	0.407
-593.996	-200.000	-0.028	0.439
-592.982	-200.000	-0.066	-0.313
-591.967	-200.000	0.037	-0.170
-590.952	329.107	0.042	-0.080
-589.938	-71.681	0.327	0.122
-588.923	757.083	0.072	0.193
-587.909	-113.807	0.296	0.057
-586.894	-200.000	0.039	-0.197
-585.879	-158.921	-0.140	-0.008
-584.865	-200.000	0.041	0.228
-583.850	800.000	0.057	-0.198
-582.836	-45.053	-0.660	0.328
-581.821	-200.000	0.029	-0.172
-580.806	-200.000	0.007	-0.102
-579.792	74.154	-0.195	0.204
-578.777	-116.620	0.242	0.044
-577.763	660.513	-0.071	0.182
-576.748	473.438	0.162	0.364
-575.733	-13.333	0.116	0.075
-574.719	-86.556	0.305	-0.093
-573.704	87.320	-0.237	-0.262
-572.690	-200.000	-0.009	0.125
-571.675	127.901	0.078	-0.099
-570.661	-200.000	0.016	-0.144
-569.646	-200.000	0.014	-0.341
-568.631	-117.672	-0.122	-0.022
-567.617	-22.201	-0.123	-0.074
-566.602	800.000	0.016	-0.064
-565.588	-200.000	0.010	0.293
-564.573	-142.279	-0.236	0.023
-563.558	295.110	0.201	0.367
-562.544	-113.607	0.143	-0.028
-561.529	298.192	-0.057	0.104
-560.515	376.985	0.169	-0.343
-559.500	138.490	0.169	0.221
-558.485	800.000	0.039	-0.163
-557.471	800.000	-0.073	0.225
-556.456	16.399	-0.055	-0.043
-555.442	800.000	-0.052	0.197
-554.427	-11.231	0.258	0.169
-553.412	-65.772	0.272	-0.109
-552.398	-33.031	0.222	-0.123
-551.383	-131.379	-0.096	0.013
-550.369	-200.000	-0.011	0.105
-549.354	-59.369	-0.215	-0.092
-548.339	800.000	-0.070	0.229
-547.325	-111.716	-0.133	-0.027
-546.310	75.953	-0.069	-0.073
-545.296	49.934	0.092	0.087
-544.281	-60.149	0.067	-0.028
-543.266	-79.109	-0.279	-0.094
-542.252	220.887	-0.028	-0.045
-541.237	116.220	-0.153	0.187
-540.223	-180.646	0.325	0.007
-539.208	41.712	-0.193	0.174
-538.193	-200.000	0.015	0.350
-537.179	-200.000	-0.028	-0.379
-536.164	238.329	-0.144	0.238
-535.150	250.557	0.077	0.130
-534.135	160.550	-0.062	0.086
-533.121	800.000	0.079	0.249
-532.106	-132.795	-0.157	0.020
-531.091	-200.000	-0.052	-0.259
-530.077	-200.000	0.054	0.239
-529.062	-200.000	-0.019	0.149
-528.048	16.342	-0.178	0.140
-527.033	800.000	0.070	-0.194
-526.018	800.000	-0.101	-0.383
-525.004	199.867	-0.161	-0.246
-523.989	-9.486	-0.174	-0.116
-522.975	65.961	-0.143	0.144
-521.960	458.367	-0.119	0.264
-520.945	-30.461	-0.163	0.092
-519.931	-37.079	-0.280	0.149
-518.916	-1.574	0.091	-0.064
-517.902	89.490	0.097	0.107
-516.887	-70.145	-0.199	-0.075
-515.872	352.233	-0.122	-0.240
-514.858	122.084	-0.142	0.177
-513.843	-132.263	-0.418	0.054
-512.829	-98.318	0.324	-0.083
-511.814	151.381	-0.163	0.220
-510.799	-108.741	0.215	0.046
-509.785	-157.286	-0.101	0.006
-508.770	607.943	0.072	0.179
-507.756	191.234	0.068	0.101
-506.741	800.000	-0.074	-0.304
-505.726	800.000	-0.106	-0.444
-504.712	249.267	-0.100	-0.168
-503.697	-112.296	0.355	0.071
-502.683	56.058	0.207	0.200
-501.668	-82.526	-0.077	0.025
-500.653	27.309	0.137	-0.115
-499.639	-93.558	-0.084	-0.023
-498.624	-73.808	-0.367	-0.133
-497.610	3.578	0.051	-0.037
-496.595	-53.975	-0.111	0.050
-495.581	93.973	0.175	0.198
-494.566	-90.426	-0.082	0.024
-493.551	58.634	0.150	-0.146
-492.537	-200.000	0.050	0.447
-491.522	228.616	0.223	0.362
-490.508	79.018	0.073	-0.077
-489.493	-200.000	-0.002	-0.103
-488.478	-200.000	-0.033	0.162
-487.464	-103.421	0.398	0.093
-486.449	800.000	0.033	-0.140
-485.435	-63.448	-0.116	0.048
-484.420	-68.887	0.090	0.034
-483.405	-32.405	-0.135	-0.075
-482.391	-200.000	-0.013	-0.146
-481.376	-200.000	0.056	-0.281
-480.362	575.623	0.143	-0.347
-479.347	-200.000	-0.021	0.269
-478.332	-28.961	0.071	-0.040
-477.318	-54.682	-0.152	0.068
-476.303	-8.320	0.255	0.171
-475.289	113.980	0.196	-0.237
-474.274	244.774	-0.112	-0.187
-473.259	-86.526	0.218	-0.066
-472.245	13.101	0.226	0.174
-471.230	-104.487	-0.271	0.062
-470.216	-200.000	-0.015	-0.146
-469.201	-30.739	-0.328	-0.184
-468.186	-70.363	-0.214	-0.080
-467.172	-200.000	0.044	0.252
-466.157	800.000	0.037	0.156
-465.143	364.945	-0.102	0.203
-464.128	180.525	-0.176	0.257
-463.113	-91.311	-0.036	-0.010
-462.099	218.375	-0.030	-0.048
-461.084	434.049	-0.123	-0.265
-460.070	265.178	-0.070	-0.121
-459.055	209.874	-0.170	0.264
-458.040	-136.414	-0.225	-0.026
-457.026	-200.000	-0.018	0.172
-456.011	-171.198	0.201	0.007
-454.997	66.066	-0.136	0.137
-453.982	-200.000	-0.010	0.102
-452.968	65.099	0.152	-0.152
-451.953	-200.000	0.029	-0.210
-450.938	213.451	0.036	-0.057
-449.924	-65.547	-0.259	-0.103
-448.909	11.447	-0.097	-0.073
-447.895	52.204	-0.134	-0.127
-446.880	-157.850	0.167	-0.010
-445.865	800.000	-0.034	0.143
-444.851	279.955	-0.036	-0.065
-443.836	744.603	-0.175	-0.469
-442.822	-200.000	0.046	0.235
-441.807	-135.021	-0.220	-0.026
-440.792	-49.773	0.262	-0.124
-439.778	-75.741	0.317	-0.111
-438.763	-102.791	0.043	-0.010
-437.749	586.393	-0.111	-0.270
-436.734	800.000	0.044	-0.177
-435.719	440.565	0.064	0.139
-434.705	192.133	0.149	-0.223
-433.690	605.495	-0.128	0.316
-432.676	800.000	-0.053	0.154
-431.661	14.213	-0.156	-0.120
-430.646	93.232	-0.176	0.198
-429.632	45.650	-0.166	-0.152
-428.617	272.316	-0.057	-0.099
-427.603	658.589	-0.075	0.192
-426.588	293.011	0.081	-0.147
-425.573	-115.183	-0.326	0.061
-424.559	-82.144	0.441	0.142
-423.544	-91.037	0.210	0.060
-422.530	-109.673	0.155	0.032
-421.515	-200.000	0.010	0.317
-420.500	-28.473	-0.294	0.168
-419.486	3.536	0.126	0.091
-418.471	-200.000	-0.002	0.023
-417.457	-50.801	-0.192	0.089
-416.442	-200.000	-0.042	0.246
-415.428	-200.000	-0.004	0.213
-414.413	-200.000	0.009	-0.082
-413.398	21.371	0.165	0.133
-412.384	508.927	0.073	-0.168
-411.369	-200.000	0.004	0.133
-410.355	626.772	-0.057	0.142
-409.340	-200.000	-0.019	-0.265
-408.325	84.576	-0.132	-0.143
-407.311	-23.868	-0.376	0.223
-406.296	251.146	0.156	0.263
-405.282	-58.961	0.117	-0.050
-404.267	307.748	-0.161	0.298
-403.252	-132.868	-0.017	-0.002
-402.238	-120.866	-0.016	-0.003
-401.223	481.644	0.057	0.128
-400.209	118.061	-0.271	0.331
-399.194	-200.000	-0.020	-0.151
-398.179	-200.000	0.020	-0.251
-397.165	25.126	0.263	0.216
-396.150	99.689	0.056	-0.064
-395.136	388.845	0.026	-0.053
-394.121	51.222	-0.128	-0.120
-393.106	-143.140	0.335	0.032
-392.092	-86.566	-0.096	-0.029
-391.077	-200.000	-0.237	-0.000
-390.063	-159.478	0.397	0.022
-389.048	82.452	0.072	0.078
-388.033	-9.587	-0.121	0.080
-387.019	-78.843	0.366	-0.123
-386.004	-200.000	-0.005	0.039
-384.990	747.869	-0.093	-0.249
-383.975	-59.143	0.192	0.082
-382.960	-200.000	0.003	-0.054
-381.946	197.648	-0.041	0.062
-380.931	800.000	-0.037	-0.141
-379.917	217.524	0.129	-0.204
-378.902	800.000	-0.080	0.246
-377.888	98.121	0.108	-0.123
-376.873	145.454	0.044	0.058
-375.858	-200.000	-0.044	-0.359
-374.844	83.281	-0.166	0.179
-373.829	-83.900	0.169	0.053
-372.815	-155.872	0.241	-0.015
-371.800	155.926	-0.112	-0.152
-370.785	283.881	0.042	-0.075
-369.771	-104.252	0.391	-0.090
-368.756	126.722	-0.299	0.375
-367.742	32.310	-0.081	0.069
-366.727	71.102	-0.348	0.357
-365.712	379.714	-0.135	0.273
-364.698	4.713	-0.280	0.204
-363.683	800.000	-0.047	0.163
-362.669	800.000	-0.010	-0.028
-361.654	-151.184	0.406	-0.030
-360.639	-88.145	0.064	0.019
-359.625	1.091	0.100	-0.071
-358.610	51.081	-0.147	-0.138
-357.596	382.264	0.151	-0.307
-356.581	67.080	-0.175	-0.177
-355.566	434.177	0.085	0.182
-354.552	-76.805	-0.041	-0.014
-353.537	35.990	-0.070	-0.061
-352.523	61.034	-0.053	-0.052
-351.508	21.716	0.063	0.051
-350.493	-25.953	0.089	-0.052
-349.479	67.174	-0.106	0.107
-348.464	800.000	-0.065	0.228
-347.450	-73.682	0.425	0.153
-346.435	-200.000	-0.020	0.183
-345.420	168.105	-0.129	0.181
-344.406	96.981	0.281	-0.318
-343.391	800.000	0.135	-0.377
-342.377	772.710	0.059	-0.160
-341.362	-9.634	0.187	0.123
-340.348	-133.906	0.158	-0.019
-339.333	800.000	0.048	0.142
-338.318	-30.848	0.240	0.134
-337.304	15.719	0.053	-0.041
-336.289	644.831	0.077	-0.195
-335.275	-45.111	0.348	0.171
-334.260	237.786	0.183	0.299
-333.245	-55.728	0.169	0.075
-332.231	76.283	-0.122	0.128
-331.216	-77.234	-0.162	-0.056
-330.202	800.000	0.058	0.165
-329.187	-148.436	-0.114	-0.009
-328.172	-128.572	-0.349	0.049
-327.158	-62.791	-0.415	0.170
-326.143	-28.940	-0.175	0.099
-325.129	-86.338	0.118	-0.036
-324.114	-67.576	0.125	-0.049
-323.099	255.367	-0.150	0.254
-322.085	-108.490	-0.030	-0.006
-321.070	109.306	-0.115	-0.136
-320.056	616.155	0.064	-0.159
-319.041	201.919	-0.202	-0.307
-318.026	-0.252	0.234	0.165
-317.012	-200.000	0.021	-0.179
-315.997	152.050	0.070	-0.095
-314.983	75.597	0.308	0.321
-313.968	-200.000	-0.003	0.058
-312.953	585.594	-0.162	0.393
-311.939	-125.330	0.372	0.056
-310.924	-107.784	-0.339	-0.073
-309.910	596.228	0.090	0.219
-308.895	-111.724	-0.265	-0.053
-307.880	-200.000	0.024	0.137
-306.866	800.000	0.026	-0.075
-305.851	-18.940	0.105	0.064
-304.837	-200.000	-0.050	0.372
-303.822	15.607	0.141	0.109
-302.807	66.151	-0.261	-0.261
-301.793	-92.589	0.216	0.060
-300.778	-200.000	0.027	0.118
-299.764	774.946	-0.045	0.121
-298.749	-64.063	0.145	-0.058
-297.735	164.092	-0.109	-0.152
-296.720	-61.792	-0.110	0.045
-295.705	800.000	0.056	0.203
-294.691	226.647	-0.114	0.183
-293.676	123.839	0.153	-0.189
-292.662	-153.414	-0.422	-0.029
-291.647	-200.000	0.004	-0.100
-290.632	-2.125	-0.217	-0.150
-289.618	800.000	0.018	-0.076
-288.603	39.419	0.125	0.110
-287.589	-200.000	0.075	0.372
-286.574	-200.000	0.041	0.285
-285.559	228.371	0.066	-0.107
-284.545	124.906	0.167	0.207
-283.530	-24.890	-0.155	-0.091
-282.516	-10.572	0.311	-0.203
-281.501	-26.188	-0.288	0.167
-280.486	675.478	0.066	-0.170
-279.472	122.439	0.087	-0.107
-278.457	173.992	0.078	0.110
-277.443	-15.923	-0.367	0.230
-276.428	42.015	-0.037	0.033
-275.413	-101.251	-0.276	-0.067
-274.399	-6.554	0.156	0.105
-273.384	62.955	-0.165	-0.162
-272.370	-200.000	-0.023	-0.173
-271.355	-11.072	-0.211	0.137
-270.340	-22.638	0.163	0.097
-269.326	279.181	-0.060	-0.106
-268.311	-200.000	-0.001	-0.123
-267.297	-110.277	-0.132	0.027
-266.282	586.210	0.025	-0.060
-265.267	-200.000	0.014	-0.399
-264.253	114.240	0.149	0.179
-263.238	22.061	-0.146	0.117
-262.224	-200.000	-0.016	-0.071
-261.209	181.871	-0.207	-0.300
-260.195	-107.612	-0.255	0.055
-259.180	-200.000	-0.008	0.063
-258.165	106.188	-0.164	-0.191
-257.151	800.000	-0.040	0.112
-256.136	-61.850	0.186	0.076
-255.122	800.000	-0.036	0.105
-254.107	800.000	-0.095	0.405
-253.092	635.509	0.065	-0.163
-252.078	33.900	-0.223	-0.192
-251.063	-105.501	-0.317	0.071
-250.049	-2.406	-0.091	0.063
-249.034	-151.354	0.064	-0.005
-248.019	800.000	0.066	0.187
-247.005	488.511	-0.113	-0.255
-245.990	-121.074	-0.198	0.033
-244.976	800.000	0.059	-0.177
-243.961	-111.343	0.095	-0.019
-242.946	-78.145	-0.076	0.026
-241.932	93.352	0.255	-0.284
-240.917	-112.246	0.143	-0.028
-239.903	-11.446	0.202	-0.131
-238.888	-45.577	0.182	0.089
-237.873	-118.287	0.042	-0.007
-236.859	178.630	0.185	-0.266
-235.844	82.297	0.156	-0.166
-234.830	-163.851	0.398	-0.018
-233.815	117.933	0.071	0.086
-232.800	548.730	0.066	-0.155
-231.786	-10.533	-0.168	0.110
-230.771	76.341	-0.294	0.307
-229.757	-48.364	-0.297	0.141
-228.742	-42.946	0.134	0.067
-227.727	3.227	0.093	-0.066
-226.713	800.000	-0.098	-0.337
-225.698	800.000	0.068	-0.258
-224.684	217.565	-0.047	-0.074
-223.669	-25.605	-0.130	-0.075
-222.655	800.000	-0.105	-0.289
-221.640	54.345	0.161	0.153
-220.625	686.361	0.050	-0.128
-219.611	78.636	0.171	0.180
-218.596	115.778	0.068	-0.081
-217.582	61.589	0.271	-0.265
-216.567	-51.809	0.287	0.132
-215.552	34.759	-0.152	-0.131
-214.538	76.402	-0.114	-0.119
-213.523	-176.551	-0.198	0.005
-212.509	-200.000	-0.037	0.212
-211.494	462.625	0.105	0.230
-210.479	-45.402	0.365	-0.178
-209.465	45.093	-0.036	-0.033
-208.450	-200.000	0.032	-0.298
-207.436	-200.000	-0.024	0.158
-206.421	224.260	-0.165	0.262
-205.406	-200.000	-0.004	-0.031
-204.392	-114.352	0.143	0.027
-203.377	800.000	0.043	0.139
-202.363	45.029	0.093	-0.084
-201.348	479.834	-0.197	-0.439
-200.333	-200.000	0.040	-0.184
-199.319	-200.000	0.056	-0.247
-198.304	78.556	0.075	0.079
-197.290	369.198	-0.092	-0.184
-196.275	73.193	0.079	-0.081
-195.260	-126.565	0.186	-0.027
-194.246	538.348	0.076	0.177
-193.231	-200.000	-0.089	-0.396
-192.217	-113.423	-0.204	-0.039
-191.202	238.381	-0.258	-0.421
-190.187	64.045	0.436	-0.431
-189.173	-200.000	0.042	-0.231
-188.158	-85.745	-0.240	-0.073
-187.144	-157.292	-0.108	-0.006
-186.129	-3.443	0.136	-0.093
-185.114	513.954	-0.083	-0.191
-184.100	53.889	0.070	0.066
-183.085	-134.670	-0.399	0.048
-182.071	-200.000	0.097	-0.593
-181.056	65.512	-0.229	-0.228
-180.042	-89.271	-0.162	0.047
-179.027	-37.952	0.140	-0.073
-178.012	-200.000	-0.020	0.088
-176.998	221.266	0.147	0.232
-175.983	-10.131	0.357	-0.233
-174.969	-200.000	0.005	0.230
-173.954	800.000	-0.037	0.146
-172.939	152.724	0.050	-0.068
-171.925	22.038	0.114	0.091
-170.910	578.288	-0.069	-0.167
-169.896	-200.000	-0.002	-0.036
-168.881	215.988	-0.149	-0.233
-167.866	242.675	-0.067	-0.111
-166.852	377.145	0.050	0.099
-165.837	-139.810	-0.299	-0.031
-164.823	-108.291	-0.343	-0.073
-163.808	800.000	-0.051	0.192
-162.793	-103.915	0.273	-0.062
-161.779	-119.479	0.280	0.048
-160.764	-175.927	0.109	-0.003
-159.750	-47.201	0.351	-0.168
-158.735	-200.000	0.023	0.141
-157.720	15.781	0.195	-0.151
-156.706	800.000	0.039	0.155
-155.691	-33.146	-0.248	-0.135
-154.677	-123.194	0.348	0.055
-153.662	103.283	-0.185	0.212
-152.647	233.489	-0.162	-0.262
-151.633	198.595	-0.030	-0.045
-150.618	-136.776	-0.254	0.029
-149.604	-46.881	0.182	0.087
-148.589	282.050	-0.129	-0.227
-147.574	800.000	0.033	-0.096
-146.560	-9.166	0.048	-0.032
-145.545	-200.000	-0.006	-0.035
-144.531	462.082	0.086	0.189
-143.516	660.392	-0.023	0.059
-142.502	-119.318	0.403	-0.069
-141.487	800.000	0.089	0.373
-140.472	-125.626	0.299	0.044
-139.458	-200.000	0.014	0.132
-138.443	243.506	-0.013	0.021
-137.429	-4.893	0.353	0.239
-136.414	-17.246	0.254	-0.157
-135.399	4.388	0.319	-0.229
-134.385	69.648	0.309	-0.312
-133.370	-37.622	0.374	-0.195
-132.356	277.360	0.082	-0.143
-131.341	-153.832	0.173	0.012
-130.326	-33.766	0.285	0.154
-129.312	-46.247	0.178	-0.086
-128.297	-59.876	-0.202	0.085
-127.283	374.376	-0.067	0.134
-126.268	-200.000	0.010	-0.454
-125.253	20.537	-0.411	-0.326
-124.239	307.028	0.038	-0.070
-123.224	76.637	-0.043	-0.045
-122.210	-108.443	-0.136	-0.029
