DTS Sentinel unit serial number:	SN413079Multiplexer serial number:	ORYXHardware model number:	OX4-SRSoftware version number:	ORYX F/W v4.00 Oryx Data Collector v3.7.2.0data status	okinstallation	princeton_trtdifferential loss correction	single-endedforward channel	channel 2reverse channel	N/Adate	2019/09/12time	01:49:11forward acquisition time	60.00reverse acquisition time	0.00gamma	496.2192k internal	0.2326k external	0.2326temperature offset calibration	1.0087default loss term (dB/km)	0.3790temperature slope calibration	1.0000multiplexer offset coefficient	1.0000multiplexer slope coefficient	1.0000fibre end	0.00T internal ref (°C)	32.81T ext. ref 1 (°C)	2.07T ext. ref 2 (°C)	27.51length (m)	temperature (°C)	Stokes	anti-Stokes-747.200	231.071	0.100	0.165
-746.185	-27.566	-0.364	0.213
-745.171	22.969	0.137	0.113
-744.156	12.925	0.293	0.229
-743.142	-28.063	-0.211	0.123
-742.127	-200.000	0.009	-0.173
-741.112	-80.465	0.036	0.012
-740.098	497.455	-0.133	-0.309
-739.083	800.000	-0.058	-0.251
-738.069	103.004	-0.146	0.172
-737.054	-154.362	0.356	-0.024
-736.039	75.123	0.115	-0.123
-735.025	800.000	0.120	0.336
-734.010	800.000	0.030	-0.118
-732.996	108.636	-0.195	-0.235
-731.981	12.349	0.219	-0.170
-730.966	800.000	-0.113	-0.318
-729.952	800.000	0.028	-0.098
-728.937	-95.566	-0.181	-0.049
-727.923	-200.000	-0.024	0.277
-726.908	523.101	-0.175	0.415
-725.894	-34.946	-0.226	-0.125
-724.879	-49.107	-0.266	-0.128
-723.864	562.869	-0.021	0.051
-722.850	-200.000	-0.011	-0.341
-721.835	-57.475	0.235	0.104
-720.821	-111.115	-0.140	0.029
-719.806	-1.756	0.037	0.026
-718.791	-151.708	-0.284	0.021
-717.777	3.832	-0.190	0.140
-716.762	423.303	-0.041	-0.089
-715.748	-91.007	-0.023	0.007
-714.733	-102.692	-0.256	0.061
-713.718	-8.220	-0.116	0.079
-712.704	16.401	-0.250	0.199
-711.689	-108.778	-0.249	0.054
-710.675	418.791	-0.065	-0.140
-709.660	-21.557	-0.144	0.089
-708.645	212.903	-0.145	0.230
-707.631	50.296	-0.193	-0.184
-706.616	-28.891	-0.229	-0.132
-705.602	0.719	0.063	0.045
-704.587	-34.829	0.176	-0.097
-703.572	191.290	-0.022	0.033
-702.558	181.098	0.016	-0.024
-701.543	-91.389	0.293	0.084
-700.529	-200.000	-0.011	-0.113
-699.514	-140.957	-0.166	0.017
-698.499	172.105	0.063	0.091
-697.485	4.025	0.023	0.017
-696.470	800.000	0.068	0.232
-695.456	800.000	0.080	-0.304
-694.441	7.533	-0.168	-0.126
-693.426	378.006	-0.116	-0.238
-692.412	409.444	-0.046	0.099
-691.397	-175.389	-0.310	-0.009
-690.383	28.573	-0.319	0.272
-689.368	-56.520	-0.256	-0.114
-688.354	0.058	0.008	-0.006
-687.339	21.688	-0.148	-0.122
-686.324	800.000	-0.066	-0.201
-685.310	43.554	0.226	0.208
-684.295	800.000	-0.061	-0.202
-683.281	-114.784	0.560	0.108
-682.266	800.000	-0.022	0.080
-681.251	615.949	0.130	-0.328
-680.237	-113.105	0.101	-0.020
-679.222	153.149	-0.098	0.135
-678.208	-24.993	-0.064	-0.038
-677.193	56.852	0.165	0.162
-676.178	168.405	-0.131	0.188
-675.164	226.723	-0.024	-0.039
-674.149	36.523	-0.263	-0.233
-673.135	-135.792	0.256	-0.030
-672.120	464.234	-0.028	-0.063
-671.105	-200.000	-0.002	0.026
-670.091	-45.139	-0.205	0.103
-669.076	-28.779	-0.126	-0.073
-668.062	-200.000	-0.037	-0.171
-667.047	-60.832	0.124	-0.053
-666.032	-135.456	-0.254	0.030
-665.018	800.000	-0.016	0.057
-664.003	426.901	-0.078	-0.169
-662.989	275.213	-0.077	-0.138
-661.974	-200.000	-0.017	0.121
-660.959	800.000	0.037	0.160
-659.945	78.651	-0.261	0.280
-658.930	800.000	-0.098	0.417
-657.916	56.754	0.161	-0.157
-656.901	800.000	-0.105	-0.453
-655.886	-139.926	-0.125	-0.013
-654.872	-200.000	-0.037	-0.333
-653.857	139.407	-0.259	-0.342
-652.843	-135.044	0.157	0.019
-651.828	21.916	-0.166	-0.136
-650.814	800.000	0.026	0.102
-649.799	800.000	0.024	0.084
-648.784	663.887	0.165	0.429
-647.770	53.994	-0.170	-0.164
-646.755	800.000	-0.147	0.440
-645.741	-144.765	0.149	-0.014
-644.726	82.995	-0.128	-0.140
-643.711	800.000	0.101	-0.288
-642.697	-200.000	0.005	-0.066
-641.682	664.701	-0.051	0.132
-640.668	179.975	0.189	0.279
-639.653	-178.829	0.138	0.003
-638.638	209.930	0.094	0.148
-637.624	148.910	0.225	-0.305
-636.609	690.258	-0.085	0.224
-635.595	-200.000	0.023	0.274
-634.580	35.619	-0.070	0.062
-633.565	319.806	0.094	0.180
-632.551	-87.048	0.377	0.115
-631.536	336.212	-0.148	0.288
-630.522	-153.002	-0.290	-0.021
-629.507	155.767	0.126	-0.175
-628.492	-200.000	-0.020	0.250
-627.478	-74.519	0.091	0.033
-626.463	-188.794	-0.186	0.002
-625.449	-151.420	0.090	0.007
-624.434	19.287	0.240	0.193
-623.419	-31.713	-0.180	-0.102
-622.405	-200.000	-0.050	0.251
-621.390	800.000	0.068	-0.294
-620.376	-128.168	-0.315	-0.045
-619.361	-138.497	0.338	-0.037
-618.346	-157.185	-0.356	0.022
-617.332	800.000	-0.037	-0.158
-616.317	304.529	0.054	-0.100
-615.303	152.001	0.047	-0.064
-614.288	463.270	-0.098	-0.220
-613.273	-0.620	0.207	-0.148
-612.259	800.000	0.064	-0.218
-611.244	-133.667	-0.252	0.032
-610.230	58.126	0.150	-0.148
-609.215	-7.772	0.058	-0.039
-608.201	-15.937	-0.100	0.064
-607.186	-200.000	-0.011	0.089
-606.171	44.148	-0.243	-0.224
-605.157	-159.858	-0.193	-0.011
-604.142	-34.773	0.290	-0.159
-603.128	-200.000	0.058	-0.294
-602.113	590.604	0.205	-0.507
-601.098	-30.051	0.188	0.108
-600.084	-75.962	0.117	-0.042
-599.069	21.468	0.196	0.160
-598.055	-200.000	-0.024	-0.119
-597.040	-200.000	-0.013	0.147
-596.025	86.444	-0.132	0.146
-595.011	197.277	-0.074	0.113
-593.996	-200.000	0.015	-0.140
-592.982	363.671	0.048	0.097
-591.967	-98.648	0.197	-0.050
-590.952	25.484	-0.125	0.104
-589.938	-200.000	0.040	0.217
-588.923	800.000	-0.063	0.249
-587.909	-131.617	-0.201	-0.026
-586.894	-8.067	0.276	0.186
-585.879	155.302	-0.100	-0.138
-584.865	112.448	0.211	0.256
-583.850	98.638	0.216	-0.250
-582.836	-108.793	-0.292	-0.063
-581.821	18.338	0.088	-0.070
-580.806	119.731	-0.196	-0.244
-579.792	12.337	0.087	-0.067
-578.777	-152.205	-0.181	-0.013
-577.763	-134.398	0.255	0.031
-576.748	32.583	-0.107	0.092
-575.733	-154.199	-0.262	-0.018
-574.719	-115.725	0.308	0.058
-573.704	77.943	0.249	0.266
-572.690	-200.000	0.027	-0.173
-571.675	105.490	-0.230	-0.272
-570.661	78.341	0.120	0.129
-569.646	-200.000	-0.023	0.206
-568.631	-150.076	-0.301	0.023
-567.617	-93.432	-0.136	-0.038
-566.602	-200.000	0.210	0.001
-565.588	5.449	-0.329	0.244
-564.573	-74.734	0.155	0.056
-563.558	800.000	-0.038	-0.153
-562.544	800.000	0.091	-0.258
-561.529	197.781	-0.049	0.075
-560.515	-76.849	-0.263	0.092
-559.500	-84.523	-0.258	0.082
-558.485	-102.645	0.282	-0.067
-557.471	-200.000	-0.020	-0.313
-556.456	-89.991	0.229	0.067
-555.442	-200.000	-0.065	-0.293
-554.427	-30.568	0.156	-0.089
-553.412	-67.733	0.428	0.168
-552.398	37.784	-0.042	0.037
-551.383	-1.164	-0.280	0.198
-550.369	388.529	0.028	-0.058
-549.354	480.240	-0.122	0.276
-548.339	-200.000	-0.003	-0.104
-547.325	800.000	-0.043	0.118
-546.310	800.000	0.072	-0.240
-545.296	-43.131	0.312	0.158
-544.281	426.683	0.018	-0.040
-543.266	-200.000	0.005	-0.089
-542.252	-30.571	0.266	-0.151
-541.237	29.625	0.220	0.187
-540.223	-169.129	0.071	-0.003
-539.208	-200.000	-0.034	0.149
-538.193	30.029	0.114	0.097
-537.179	22.427	-0.130	0.107
-536.164	738.478	-0.051	0.138
-535.150	738.394	0.163	0.437
-534.135	279.068	-0.106	-0.190
-533.121	-77.842	0.377	0.130
-532.106	99.512	-0.109	0.126
-531.091	272.237	0.113	-0.200
-530.077	645.316	0.110	-0.281
-529.062	-104.443	0.120	-0.028
-528.048	720.216	-0.024	0.065
-527.033	366.066	0.190	0.383
-526.018	150.682	-0.054	0.073
-525.004	771.709	0.045	-0.123
-523.989	-200.000	-0.018	-0.125
-522.975	94.872	-0.339	-0.386
-521.960	-142.145	0.143	-0.014
-520.945	27.627	0.223	0.188
-519.931	322.932	-0.062	-0.117
-518.916	-200.000	0.044	-0.303
-517.902	-130.757	0.031	0.004
-516.887	800.000	0.031	-0.097
-515.872	-6.290	0.034	0.023
-514.858	-105.041	-0.203	0.046
-513.843	-200.000	-0.023	0.102
-512.829	-200.000	-0.025	-0.192
-511.814	-67.709	-0.430	-0.168
-510.799	-95.932	-0.193	-0.051
-509.785	266.547	-0.100	0.175
-508.770	-55.162	0.127	-0.057
-507.756	-34.664	0.057	-0.031
-506.741	-39.213	-0.136	-0.071
-505.726	-53.252	0.218	0.100
-504.712	86.576	0.139	0.153
-503.697	-55.227	0.320	0.144
-502.683	800.000	0.059	0.211
-501.668	478.343	0.091	0.205
-500.653	145.379	0.114	-0.152
-499.639	42.248	-0.255	-0.232
-498.624	-69.170	0.502	-0.193
-497.610	33.317	-0.337	-0.292
-496.595	-149.663	-0.509	0.040
-495.581	-185.256	0.055	-0.001
-494.566	212.855	0.036	-0.057
-493.551	-86.289	-0.204	0.063
-492.537	800.000	-0.043	-0.141
-491.522	-101.273	-0.186	0.045
-490.508	145.203	-0.204	-0.272
-489.493	-78.902	0.178	-0.061
-488.478	800.000	0.061	-0.209
-487.464	303.619	0.145	0.269
-486.449	175.189	-0.071	-0.102
-485.435	-181.080	-0.161	-0.003
-484.420	-200.000	0.018	-0.212
-483.405	-91.822	0.087	-0.025
-482.391	-200.000	-0.017	0.099
-481.376	-29.894	-0.199	0.113
-480.362	-38.256	-0.124	0.065
-479.347	-30.389	-0.295	-0.167
-478.332	-114.598	0.292	-0.056
-477.318	141.732	-0.091	-0.120
-476.303	-170.717	-0.356	-0.012
-475.289	-200.000	0.033	0.170
-474.274	-126.026	-0.178	-0.027
-473.259	-200.000	0.025	0.406
-472.245	800.000	-0.093	-0.329
-471.230	-200.000	-0.014	0.092
-470.216	-130.844	-0.120	0.016
-469.201	-64.056	-0.420	-0.171
-468.186	800.000	-0.031	-0.096
-467.172	343.459	-0.062	0.120
-466.157	-145.020	-0.435	-0.040
-465.143	-146.019	-0.122	0.011
-464.128	99.565	-0.031	-0.036
-463.113	78.694	-0.084	0.089
-462.099	800.000	-0.126	0.386
-461.084	-51.696	-0.125	0.058
-460.070	-200.000	0.051	0.264
-459.055	15.120	0.211	0.165
-458.040	-200.000	-0.017	0.313
-457.026	256.662	-0.148	-0.253
-456.011	41.977	0.289	-0.262
-454.997	-99.468	-0.088	-0.022
-453.982	-54.147	-0.073	-0.033
-452.968	789.014	-0.035	0.096
-451.953	-30.956	-0.138	0.078
-450.938	288.995	-0.070	-0.127
-449.924	0.909	-0.327	-0.234
-448.909	51.369	-0.058	-0.055
-447.895	-124.895	0.065	-0.010
-446.880	800.000	-0.027	0.095
-445.865	-179.816	0.086	0.002
-444.851	40.776	0.045	0.040
-443.836	800.000	0.098	-0.285
-442.822	-96.047	0.192	-0.051
-441.807	-200.000	-0.000	-0.197
-440.792	70.856	0.322	-0.332
-439.778	-65.730	-0.237	-0.095
-438.763	-200.000	0.090	-0.000
-437.749	58.693	0.164	0.161
-436.734	462.883	0.041	0.091
-435.719	102.247	0.056	0.065
-434.705	456.318	0.051	-0.112
-433.690	-53.263	0.181	-0.083
-432.676	-112.218	-0.186	0.037
-431.661	-79.286	-0.073	-0.025
-430.646	-200.000	0.073	-0.372
-429.632	0.117	-0.084	-0.060
-428.617	-118.544	-0.301	-0.053
-427.603	-70.002	-0.490	0.186
-426.588	251.129	0.178	-0.301
-425.573	-200.000	-0.067	-0.318
-424.559	215.622	0.066	-0.105
-423.544	-200.000	-0.001	-0.058
-422.530	800.000	-0.038	0.118
-421.515	-200.000	0.037	0.213
-420.500	15.274	-0.144	0.112
-419.486	-112.302	-0.029	-0.006
-418.471	181.744	0.302	-0.443
-417.457	89.528	-0.097	-0.107
-416.442	218.214	-0.037	0.058
-415.428	-200.000	0.038	-0.330
-414.413	549.679	-0.161	0.384
-413.398	661.312	-0.006	0.015
-412.384	-21.349	0.165	-0.101
-411.369	800.000	-0.083	0.306
-410.355	180.206	0.069	0.101
-409.340	-69.647	-0.162	0.062
-408.325	75.804	0.224	-0.236
-407.311	-200.000	-0.019	-0.119
-406.296	44.292	0.129	-0.118
-405.282	-179.861	0.386	-0.008
-404.267	800.000	0.020	0.058
-403.252	-6.601	-0.157	0.106
-402.238	800.000	-0.061	-0.196
-401.223	669.492	-0.108	0.278
-400.209	478.172	0.100	0.225
-399.194	191.302	-0.119	-0.178
-398.179	72.028	-0.122	-0.126
-397.165	598.278	0.145	-0.359
-396.150	-59.032	-0.269	0.116
-395.136	72.045	0.216	-0.224
-394.121	-200.000	0.002	-0.258
-393.106	-55.861	0.252	-0.112
-392.092	-106.165	0.234	-0.052
-391.077	-92.427	-0.376	-0.105
-390.063	118.661	0.366	0.449
-389.048	-121.303	-0.265	0.044
-388.033	102.163	-0.090	0.104
-387.019	312.499	0.101	-0.188
-386.004	41.001	0.115	0.104
-384.990	-200.000	-0.014	-0.388
-383.975	-174.914	0.092	0.003
-382.960	-88.724	-0.110	-0.032
-381.946	-200.000	-0.056	-0.320
-380.931	122.534	0.178	0.221
-379.917	-91.334	0.214	0.061
-378.902	-84.233	0.195	-0.061
-377.888	-63.934	0.177	0.072
-376.873	800.000	0.087	0.261
-375.858	80.069	-0.053	0.057
-374.844	-107.526	-0.255	0.056
-373.829	800.000	-0.073	0.252
-372.815	-117.691	0.162	0.029
-371.800	25.916	-0.211	-0.175
-370.785	219.546	-0.165	-0.263
-369.771	-174.442	-0.206	-0.006
-368.756	800.000	0.060	-0.256
-367.742	21.106	-0.044	0.035
-366.727	-156.377	0.142	-0.009
-365.712	-200.000	-0.033	0.396
-364.698	-151.766	-0.111	-0.008
-363.683	411.596	-0.057	-0.119
-362.669	109.155	0.123	-0.146
-361.654	8.007	0.103	0.077
-360.639	-11.673	0.057	0.037
-359.625	599.024	0.007	0.017
-358.610	-102.251	-0.282	-0.067
-357.596	167.216	-0.056	-0.080
-356.581	512.484	-0.058	-0.135
-355.566	-200.000	-0.021	-0.109
-354.552	-104.802	0.184	-0.042
-353.537	94.569	0.215	-0.243
-352.523	-200.000	-0.065	0.485
-351.508	212.382	-0.188	-0.294
-350.493	261.606	0.159	0.273
-349.479	566.116	-0.128	-0.310
-348.464	120.038	0.318	0.392
-347.450	-35.059	-0.344	0.186
-346.435	180.116	-0.088	-0.128
-345.420	89.701	-0.287	-0.319
-344.406	-100.757	0.132	0.032
-343.391	-38.274	-0.272	-0.143
-342.377	47.646	-0.044	0.041
-341.362	129.528	-0.134	0.170
-340.348	800.000	0.062	0.239
-339.333	-200.000	-0.003	-0.034
-338.318	-22.442	0.217	-0.130
-337.304	-49.846	0.062	0.029
-336.289	-61.969	0.148	0.061
-335.275	189.741	-0.073	-0.109
-334.260	-67.574	0.215	0.084
-333.245	-56.675	0.072	-0.032
-332.231	-200.000	-0.003	-0.115
-331.216	-159.899	0.243	0.013
-330.202	177.954	0.123	-0.178
-329.187	-7.351	0.354	0.238
-328.172	226.651	0.118	0.190
-327.158	-125.364	-0.096	-0.014
-326.143	-200.000	0.000	0.084
-325.129	-7.797	-0.147	-0.098
-324.114	233.340	-0.086	-0.141
-323.099	5.744	-0.151	0.111
-322.085	85.871	0.021	0.023
-321.070	191.638	-0.251	0.375
-320.056	-200.000	0.001	-0.124
-319.041	-64.953	0.379	0.152
-318.026	43.677	0.061	0.056
-317.012	52.747	-0.092	0.087
-315.997	-26.705	0.214	0.124
-314.983	-200.000	-0.027	0.154
-313.968	-128.400	-0.026	-0.004
-312.953	-181.599	0.465	0.009
-311.939	16.207	-0.044	-0.034
-310.924	255.079	-0.095	-0.161
-309.910	144.310	-0.148	-0.197
-308.895	-200.000	-0.001	0.181
-307.880	-19.306	0.226	0.139
-306.866	-200.000	0.028	-0.272
-305.851	-37.598	-0.205	-0.108
-304.837	60.703	-0.109	-0.107
-303.822	-200.000	0.058	-0.347
-302.807	85.056	0.026	-0.028
-301.793	165.163	-0.125	0.175
-300.778	27.122	-0.140	-0.117
-299.764	-69.967	0.303	0.115
-298.749	-75.352	0.198	-0.070
-297.735	58.584	-0.132	-0.128
-296.720	-29.916	0.329	0.186
-295.705	-200.000	-0.009	0.146
-294.691	-115.417	0.571	-0.107
-293.676	-200.000	-0.025	-0.247
-292.662	35.107	-0.176	-0.153
-291.647	-101.357	-0.210	-0.051
-290.632	128.326	0.162	-0.205
-289.618	-12.251	-0.234	0.152
-288.603	-200.000	0.037	-0.182
-287.589	512.941	0.057	0.131
-286.574	-200.000	-0.009	0.153
-285.559	-55.024	-0.099	0.044
-284.545	216.513	-0.103	0.162
-283.530	-186.901	0.179	-0.002
-282.516	-6.236	0.345	0.233
-281.501	-152.683	0.352	-0.025
-280.486	-200.000	0.013	0.237
-279.472	-61.095	-0.229	0.096
-278.457	-200.000	0.015	0.270
-277.443	-130.736	-0.604	0.080
-276.428	-2.687	-0.029	-0.020
-275.413	800.000	-0.049	0.153
-274.399	-76.294	-0.151	0.053
-273.384	-159.209	0.435	-0.024
-272.370	-200.000	0.008	0.081
-271.355	-200.000	-0.234	0.001
-270.340	-200.000	-0.011	0.242
-269.326	-12.310	-0.136	-0.088
-268.311	153.884	0.166	0.225
-267.297	13.339	-0.180	-0.138
-266.282	-99.526	-0.219	0.055
-265.267	-178.189	0.238	0.006
-264.253	-200.000	-0.013	-0.083
-263.238	103.106	0.256	-0.297
-262.224	190.757	0.084	-0.126
-261.209	-99.932	0.160	0.040
-260.195	-28.625	0.079	-0.045
-259.180	87.276	-0.033	-0.036
-258.165	41.698	-0.153	0.137
-257.151	175.176	0.052	-0.075
-256.136	400.104	-0.138	-0.286
-255.122	9.565	0.029	0.021
-254.107	-200.000	-0.013	-0.188
-253.092	27.606	-0.149	-0.124
-252.078	234.694	-0.167	0.273
-251.063	-14.386	-0.089	-0.056
-250.049	155.504	-0.259	0.353
-249.034	-86.606	-0.253	0.077
-248.019	-65.308	0.196	0.078
-247.005	21.368	-0.190	0.153
-245.990	-200.000	0.000	0.012
-244.976	144.440	0.107	-0.141
-243.961	-109.354	-0.141	-0.029
-242.946	-9.384	0.241	0.159
-241.932	44.656	0.108	-0.098
-240.917	625.137	0.040	-0.100
-239.903	443.140	-0.045	-0.098
-238.888	800.000	-0.017	0.066
-237.873	-200.000	-0.021	0.097
-236.859	-200.000	0.024	0.333
-235.844	-5.071	0.070	0.047
-234.830	-200.000	0.054	0.323
-233.815	-80.363	-0.331	-0.109
-232.800	-200.000	-0.017	-0.107
-231.786	-118.424	-0.058	0.010
-230.771	-92.909	0.399	0.110
-229.757	-200.000	0.010	0.080
-228.742	-90.461	-0.150	0.043
-227.727	-200.000	0.068	0.294
-226.713	-69.458	-0.149	0.057
-225.698	-200.000	0.039	-0.411
-224.684	113.783	0.119	-0.142
-223.669	-167.931	-0.381	-0.015
-222.655	-200.000	-0.033	0.248
-221.640	-47.505	0.042	-0.020
-220.625	593.989	-0.094	-0.230
-219.611	45.916	0.114	-0.104
-218.596	234.436	0.119	0.195
-217.582	-151.062	0.295	-0.022
-216.567	800.000	-0.143	0.448
-215.552	800.000	0.168	0.581
-214.538	275.067	0.164	0.288
-213.523	2.132	-0.209	-0.149
-212.509	209.079	-0.132	0.204
-211.494	-58.376	-0.107	0.046
-210.479	23.717	0.214	-0.174
-209.465	-200.000	0.012	0.069
-208.450	86.272	0.170	-0.185
-207.436	-122.494	0.375	-0.060
-206.421	341.077	-0.152	-0.293
-205.406	800.000	-0.024	-0.083
-204.392	-86.937	0.280	-0.084
-203.377	92.175	-0.169	-0.188
-202.363	10.695	-0.140	0.105
-201.348	-22.476	-0.191	-0.114
-200.333	127.002	0.056	-0.071
-199.319	-90.482	0.192	0.055
-198.304	39.758	-0.212	0.188
-197.290	-144.814	-0.211	-0.019
-196.275	800.000	0.069	-0.289
-195.260	33.804	0.050	0.043
-194.246	-200.000	-0.068	-0.438
-193.231	-27.802	-0.181	-0.104
-192.217	7.582	-0.064	-0.047
-191.202	-131.556	-0.108	-0.014
-190.187	-22.312	-0.202	0.121
-189.173	-54.852	0.234	-0.104
-188.158	1.583	0.123	-0.088
-187.144	-200.000	-0.018	0.097
-186.129	97.675	0.147	-0.166
-185.114	800.000	0.067	-0.198
-184.100	233.065	-0.037	-0.060
-183.085	702.337	-0.102	0.265
-182.071	-200.000	0.031	0.209
-181.056	26.369	-0.285	0.235
-180.042	12.989	0.138	-0.105
-179.027	-53.218	-0.129	-0.058
-178.012	126.170	-0.183	0.229
-176.998	7.806	0.095	0.070
-175.983	-129.781	-0.104	-0.014
-174.969	-83.575	0.506	0.160
-173.954	-200.000	-0.023	0.380
-172.939	349.795	-0.042	0.082
-171.925	-200.000	-0.215	0.001
-170.910	38.755	0.206	-0.181
-169.896	-200.000	0.024	-0.223
-168.881	-31.971	-0.116	-0.064
-167.866	-18.651	0.159	0.098
-166.852	-200.000	0.080	-0.395
-165.837	-200.000	0.022	0.365
-164.823	-64.234	-0.220	0.089
-163.808	393.943	0.144	0.296
-162.793	-147.305	-0.170	0.014
-161.779	-152.182	-0.159	0.011
-160.764	-154.657	0.072	-0.005
-159.750	-118.536	0.517	0.090
-158.735	-161.740	-0.216	0.011
-157.720	-151.739	0.132	-0.010
-156.706	62.384	-0.106	0.104
-155.691	763.311	0.077	-0.205
-154.677	-73.465	-0.338	0.121
-153.662	-4.484	-0.141	0.096
-152.647	-69.055	-0.088	-0.033
-151.633	145.083	0.069	-0.091
-150.618	800.000	-0.073	0.278
-149.604	682.949	-0.022	0.057
-148.589	1.726	0.100	0.071
-147.574	257.945	0.097	0.164
-146.560	62.393	0.110	-0.109
-145.545	-200.000	-0.025	0.377
-144.531	-200.000	-0.013	-0.087
-143.516	153.999	0.139	-0.188
-142.502	-19.988	-0.310	0.188
-141.487	-90.189	0.480	0.138
-140.472	35.148	0.233	-0.201
-139.458	800.000	-0.072	-0.264
-138.443	269.076	0.280	0.484
-137.429	-137.786	-0.097	-0.011
-136.414	-29.900	0.273	-0.153
-135.399	18.130	0.201	0.158
-134.385	109.061	-0.223	-0.263
-133.370	-200.000	0.012	-0.105
-132.356	-200.000	0.082	0.402
-131.341	-95.103	0.177	-0.047
-130.326	-21.133	-0.190	-0.115
-129.312	-124.378	0.127	-0.020
-128.297	290.386	-0.030	0.053
-127.283	-49.957	0.112	0.052
-126.268	-64.107	0.054	0.022
-125.253	-113.577	-0.211	-0.041
-124.239	179.783	-0.105	0.152
-123.224	-200.000	-0.063	0.288
-122.210	77.590	0.236	0.248
-121.195	257.574	-0.043	0.073
