DTS Sentinel unit serial number:	SN413079Multiplexer serial number:	ORYXHardware model number:	OX4-SRSoftware version number:	ORYX F/W v4.00 Oryx Data Collector v3.7.2.0data status	okinstallation	princeton_trtdifferential loss correction	single-endedforward channel	channel 2reverse channel	N/Adate	2019/09/16time	16:23:35forward acquisition time	60.00reverse acquisition time	0.00gamma	496.2192k internal	0.2301k external	0.2301temperature offset calibration	0.9941default loss term (dB/km)	0.3790temperature slope calibration	1.0000multiplexer offset coefficient	1.0000multiplexer slope coefficient	1.0000fibre end	0.00T internal ref (°C)	40.41T ext. ref 1 (°C)	15.05T ext. ref 2 (°C)	34.31length (m)	temperature (°C)	Stokes	anti-Stokes-747.200	116.081	-0.123	-0.153
-746.185	-200.000	0.030	0.216
-745.171	-200.000	-0.004	0.023
-744.156	-62.165	-0.149	0.063
-743.142	-91.813	-0.100	-0.029
-742.127	-97.800	-0.510	0.135
-741.112	108.302	-0.286	0.347
-740.098	-200.000	0.022	0.613
-739.083	-200.000	0.014	0.153
-738.069	60.369	-0.394	0.398
-737.054	-133.535	0.253	0.032
-736.039	-102.362	-0.395	-0.096
-735.025	205.163	0.088	0.139
-734.010	174.732	-0.075	0.111
-732.996	-200.000	-0.005	-0.039
-731.981	-200.000	0.001	0.008
-730.966	-121.043	-0.098	0.017
-729.952	4.657	0.567	0.424
-728.937	-200.000	-0.005	-0.155
-727.923	-173.602	-0.099	0.003
-726.908	-200.000	0.048	-0.237
-725.894	-130.526	0.173	0.024
-724.879	-2.091	-0.266	0.190
-723.864	-200.000	0.040	-0.220
-722.850	-200.000	0.050	-0.258
-721.835	-200.000	0.010	0.422
-720.821	-200.000	-0.334	0.001
-719.806	-163.725	0.209	0.010
-718.791	167.969	0.030	-0.043
-717.777	-70.721	0.201	-0.077
-716.762	-30.237	-0.270	-0.156
-715.748	-191.853	0.292	-0.003
-714.733	97.231	-0.102	0.119
-713.718	205.588	0.217	-0.343
-712.704	2.322	0.074	-0.054
-711.689	-62.767	-0.372	-0.157
-710.675	141.003	0.174	-0.234
-709.660	99.799	-0.149	-0.176
-708.645	800.000	0.126	-0.409
-707.631	54.326	-0.298	-0.292
-706.616	-157.973	-0.259	0.016
-705.602	800.000	0.016	-0.051
-704.587	-83.084	0.141	0.046
-703.572	-134.418	0.100	-0.012
-702.558	-89.300	-0.258	-0.077
-701.543	465.500	-0.040	-0.091
-700.529	-76.472	-0.138	-0.049
-699.514	54.257	-0.122	-0.120
-698.499	403.438	0.098	-0.209
-697.485	-133.452	0.249	0.032
-696.470	-62.145	-0.104	0.044
-695.456	800.000	0.064	-0.263
-694.441	-200.000	-0.000	0.296
-693.426	-11.983	-0.084	0.056
-692.412	92.136	-0.206	0.236
-691.397	52.815	-0.066	0.064
-690.383	800.000	0.041	-0.158
-689.368	-200.000	-0.036	-0.310
-688.354	131.621	0.196	-0.257
-687.339	800.000	-0.060	-0.185
-686.324	86.462	0.118	0.133
-685.310	-200.000	0.002	-0.071
-684.295	-200.000	-0.005	0.142
-683.281	-88.132	-0.361	0.110
-682.266	102.104	-0.109	-0.129
-681.251	179.030	-0.082	-0.122
-680.237	-200.000	-0.022	-0.252
-679.222	800.000	0.013	-0.041
-678.208	156.638	-0.248	-0.348
-677.193	227.242	-0.181	0.299
-676.178	-31.134	-0.318	-0.182
-675.164	-21.685	0.284	0.176
-674.149	63.755	0.037	-0.037
-673.135	605.600	0.064	-0.161
-672.120	45.074	-0.053	-0.049
-671.105	-200.000	0.043	-0.321
-670.091	-28.567	-0.319	0.187
-669.076	412.755	0.015	0.033
-668.062	-123.858	0.264	0.042
-667.047	235.341	-0.086	-0.145
-666.032	-50.630	0.220	0.105
-665.018	-200.000	-0.005	0.048
-664.003	-139.723	-0.127	-0.014
-662.989	65.270	-0.184	-0.189
-661.974	-35.292	-0.271	-0.150
-660.959	3.997	-0.032	0.024
-659.945	739.851	-0.079	0.216
-658.930	-10.176	-0.130	-0.088
-657.916	-16.476	-0.194	-0.125
-656.901	-139.820	0.198	0.021
-655.886	800.000	0.023	-0.077
-654.872	97.784	-0.080	0.094
-653.857	800.000	0.054	-0.238
-652.843	72.106	-0.121	0.128
-651.828	499.627	-0.139	0.325
-650.814	-200.000	-0.025	0.193
-649.799	484.005	-0.049	-0.113
-648.784	-29.405	0.098	-0.057
-647.770	264.413	0.104	0.184
-646.755	-200.000	-0.005	0.152
-645.741	305.117	0.076	0.144
-644.726	134.250	0.273	0.360
-643.711	-4.262	0.090	-0.063
-642.697	800.000	0.059	-0.236
-641.682	16.278	0.212	-0.170
-640.668	-56.749	0.140	0.063
-639.653	800.000	-0.058	0.168
-638.638	800.000	0.067	-0.259
-637.624	244.411	0.119	-0.203
-636.609	-33.702	-0.165	0.092
-635.595	-127.141	0.170	0.025
-634.580	-200.000	-0.116	0.000
-633.565	-75.488	-0.105	0.038
-632.551	-47.298	-0.323	-0.160
-631.536	7.953	-0.107	0.081
-630.522	-68.508	-0.444	-0.175
-629.507	-40.584	-0.324	-0.171
-628.492	-200.000	0.051	0.234
-627.478	-31.538	0.212	-0.121
-626.463	51.832	0.138	-0.133
-625.449	-200.000	-0.024	-0.244
-624.434	-152.447	-0.257	0.019
-623.419	1.846	-0.236	-0.173
-622.405	-7.460	0.185	0.127
-621.390	-200.000	-0.014	-0.104
-620.376	29.489	0.179	0.155
-619.361	-3.879	-0.039	0.027
-618.346	-68.050	0.248	-0.098
-617.332	-200.000	0.029	-0.232
-616.317	-200.000	0.014	0.182
-615.303	286.996	0.031	-0.057
-614.288	-200.000	0.082	-0.439
-613.273	273.820	0.157	-0.281
-612.259	-200.000	-0.018	-0.103
-611.244	-148.940	0.289	-0.024
-610.230	-173.539	0.159	-0.005
-609.215	77.063	-0.090	0.097
-608.201	-115.493	-0.552	0.105
-607.186	552.890	-0.037	-0.091
-606.171	-110.704	-0.090	0.019
-605.157	519.659	0.095	0.226
-604.142	447.507	0.023	0.052
-603.128	-102.527	-0.232	-0.056
-602.113	771.109	0.130	0.358
-601.098	-200.000	-0.002	0.273
-600.084	241.626	0.089	0.150
-599.069	355.070	-0.166	0.335
-598.055	32.180	-0.221	-0.193
-597.040	800.000	-0.006	-0.019
-596.025	-136.422	0.245	-0.029
-595.011	24.121	-0.157	-0.131
-593.996	-84.309	-0.108	0.035
-592.982	-168.760	0.154	0.006
-591.967	-107.574	-0.088	0.020
-590.952	291.755	-0.060	-0.110
-589.938	58.081	0.156	-0.155
-588.923	366.686	-0.156	-0.319
-587.909	269.137	0.071	0.125
-586.894	-65.447	-0.044	0.018
-585.879	39.657	-0.049	0.044
-584.865	-92.331	-0.227	-0.065
-583.850	170.773	-0.039	0.057
-582.836	-84.496	0.143	-0.046
-581.821	146.689	0.151	-0.205
-580.806	605.227	0.053	-0.134
-579.792	731.260	-0.113	0.306
-578.777	-200.000	0.069	-0.330
-577.763	800.000	0.077	-0.228
-576.748	644.898	0.091	-0.236
-575.733	800.000	-0.044	0.150
-574.719	68.265	0.065	-0.067
-573.704	800.000	0.089	0.274
-572.690	-200.000	-0.023	-0.143
-571.675	375.137	-0.022	-0.046
-570.661	340.717	-0.086	-0.171
-569.646	-39.183	-0.198	0.105
-568.631	10.334	0.068	0.052
-567.617	357.370	0.098	-0.197
-566.602	-96.434	-0.370	-0.099
-565.588	-75.900	-0.098	0.035
-564.573	737.499	-0.097	-0.263
-563.558	-31.162	-0.047	-0.027
-562.544	106.750	0.164	0.197
-561.529	-200.000	-0.004	0.249
-560.515	-170.095	0.121	-0.004
-559.500	-141.486	-0.433	0.044
-558.485	246.500	0.105	0.179
-557.471	6.317	-0.275	-0.206
-556.456	175.813	0.117	0.171
-555.442	59.214	0.123	0.122
-554.427	423.714	-0.070	-0.152
-553.412	-87.659	0.228	0.070
-552.398	-113.375	0.195	-0.039
-551.383	733.578	-0.079	-0.213
-550.369	91.722	-0.195	-0.222
-549.354	-60.594	-0.160	-0.069
-548.339	118.380	0.130	0.162
-547.325	27.656	0.260	-0.221
-546.310	-200.000	0.006	-0.296
-545.296	-200.000	0.016	-0.172
-544.281	-171.281	0.242	-0.008
-543.266	-118.573	-0.361	-0.065
-542.252	800.000	-0.085	-0.316
-541.237	235.015	0.161	-0.268
-540.223	-127.338	-0.109	-0.016
-539.208	-36.116	0.188	-0.103
-538.193	-60.031	0.088	0.038
-537.179	120.828	-0.141	0.177
-536.164	-151.792	-0.197	0.015
-535.150	34.004	0.169	-0.149
-534.135	-8.627	0.249	-0.169
-533.121	-200.000	-0.010	0.119
-532.106	3.964	0.220	0.162
-531.091	800.000	0.088	0.308
-530.077	800.000	-0.060	0.169
-529.062	-24.343	-0.175	-0.106
-528.048	-141.941	0.205	-0.021
-527.033	24.231	-0.147	-0.123
-526.018	-91.172	-0.108	-0.031
-525.004	46.860	0.010	0.009
-523.989	5.440	-0.417	0.311
-522.975	327.364	-0.095	0.184
-521.960	51.379	0.147	-0.141
-520.945	-87.554	0.346	0.106
-519.931	76.506	-0.079	0.084
-518.916	-185.150	0.192	0.003
-517.902	-119.900	0.042	0.007
-516.887	-200.000	0.007	0.070
-515.872	181.106	-0.100	0.149
-514.858	-88.032	-0.349	-0.106
-513.843	332.104	-0.137	0.267
-512.829	29.170	-0.246	0.211
-511.814	-104.733	-0.183	0.043
-510.799	195.866	0.090	0.139
-509.785	-125.776	0.217	-0.033
-508.770	175.180	-0.064	0.094
-507.756	800.000	-0.116	-0.433
-506.741	-127.917	0.265	-0.039
-505.726	-200.000	-0.001	-0.199
-504.712	-200.000	-0.016	-0.125
-503.697	428.911	-0.068	-0.148
-502.683	-68.101	-0.176	-0.069
-501.668	-116.735	0.205	0.038
-500.653	-43.729	0.308	0.157
-499.639	102.966	-0.024	0.029
-498.624	800.000	-0.064	0.265
-497.610	680.662	-0.049	-0.130
-496.595	-119.335	-0.264	-0.046
-495.581	800.000	0.069	-0.246
-494.566	485.289	0.102	-0.236
-493.551	-200.000	0.034	0.250
-492.537	-86.025	0.233	-0.073
-491.522	-61.663	-0.094	0.040
-490.508	-94.474	0.195	0.054
-489.493	-43.339	0.168	-0.086
-488.478	-142.029	-0.236	-0.024
-487.464	57.869	0.221	0.218
-486.449	-139.089	-0.187	0.020
-485.435	254.255	0.133	0.229
-484.420	12.434	-0.083	-0.065
-483.405	-200.000	-0.029	-0.135
-482.391	800.000	0.045	0.196
-481.376	-130.676	0.228	-0.031
-480.362	67.301	-0.218	0.224
-479.347	-52.673	-0.258	0.120
-478.332	-98.415	0.201	0.052
-477.318	-200.000	-0.010	-0.079
-476.303	-38.505	0.119	0.063
-475.289	331.412	0.072	0.139
-474.274	49.761	0.180	-0.171
-473.259	800.000	-0.045	0.154
-472.245	-143.382	-0.110	0.011
-471.230	81.246	-0.241	-0.263
-470.216	518.185	0.151	-0.355
-469.201	-152.622	0.349	-0.025
-468.186	-93.807	0.098	-0.027
-467.172	-73.674	-0.219	-0.081
-466.157	-200.000	0.004	0.056
-465.143	800.000	0.067	-0.237
-464.128	484.823	-0.047	-0.108
-463.113	800.000	0.052	0.214
-462.099	800.000	0.047	-0.173
-461.084	-21.894	0.250	-0.153
-460.070	-34.732	-0.056	-0.031
-459.055	-200.000	0.001	-0.257
-458.040	150.099	0.153	-0.209
-457.026	290.561	0.133	0.244
-456.011	-54.038	0.202	-0.093
-454.997	397.542	-0.161	0.340
-453.982	200.089	-0.118	-0.183
-452.968	800.000	0.025	0.109
-451.953	-159.245	-0.112	-0.006
-450.938	79.384	0.126	0.136
-449.924	779.894	-0.034	0.094
-448.909	248.301	-0.030	-0.052
-447.895	-200.000	-0.003	0.058
-446.880	800.000	-0.052	0.170
-445.865	30.934	0.071	0.061
-444.851	800.000	0.029	0.092
-443.836	-1.785	-0.375	-0.266
-442.822	800.000	-0.038	-0.117
-441.807	535.593	-0.100	-0.239
-440.792	17.799	-0.166	0.133
-439.778	-52.527	-0.081	0.038
-438.763	-27.303	-0.042	0.025
-437.749	-200.000	0.009	0.334
-436.734	-156.950	0.155	-0.010
-435.719	267.848	0.143	0.252
-434.705	-88.014	-0.064	-0.019
-433.690	294.229	0.158	0.290
-432.676	42.419	-0.188	-0.172
-431.661	43.589	0.184	-0.169
-430.646	59.592	0.181	0.180
-429.632	-200.000	0.087	0.385
-428.617	-129.533	0.191	-0.027
-427.603	800.000	-0.037	0.147
-426.588	-74.090	0.525	-0.191
-425.573	-200.000	-0.035	-0.162
-424.559	217.788	0.053	0.085
-423.544	216.230	0.041	-0.065
-422.530	-176.953	0.166	-0.004
-421.515	-200.000	-0.002	0.101
-420.500	162.301	0.201	0.284
-419.486	-200.000	0.028	0.342
-418.471	800.000	0.116	0.327
-417.457	-123.744	-0.458	-0.073
-416.442	-172.681	-0.342	0.011
-415.428	63.967	0.036	0.037
-414.413	-39.905	0.265	-0.139
-413.398	516.801	0.120	0.283
-412.384	674.363	-0.082	-0.214
-411.369	-200.000	0.043	0.192
-410.355	-73.090	-0.463	-0.171
-409.340	-104.698	-0.209	-0.048
-408.325	-116.090	-0.287	-0.054
-407.311	-16.044	0.066	0.042
-406.296	-199.161	0.128	0.001
-405.282	-90.373	-0.089	0.026
-404.267	-200.000	-0.029	0.318
-403.252	-200.000	-0.008	0.109
-402.238	800.000	-0.024	0.071
-401.223	-38.555	0.178	-0.095
-400.209	51.223	-0.125	0.119
-399.194	70.987	0.127	0.132
-398.179	48.483	0.152	0.143
-397.165	800.000	-0.097	-0.413
-396.150	-200.000	0.058	-0.321
-395.136	-117.973	-0.136	-0.024
-394.121	-74.699	-0.169	-0.061
-393.106	119.772	0.113	-0.141
-392.092	-200.000	-0.006	0.071
-391.077	13.451	0.195	-0.152
-390.063	800.000	-0.045	-0.155
-389.048	-148.021	-0.213	-0.018
-388.033	-200.000	0.094	-0.443
-387.019	-168.886	-0.060	0.002
-386.004	800.000	-0.032	0.103
-384.990	-55.261	0.305	0.138
-383.975	16.842	0.348	0.276
-382.960	37.526	0.259	-0.231
-381.946	0.195	-0.073	-0.052
-380.931	-200.000	0.053	-0.288
-379.917	320.586	0.145	-0.277
-378.902	80.353	0.238	0.257
-377.888	800.000	-0.068	0.252
-376.873	-32.414	-0.316	0.177
-375.858	-151.229	0.024	-0.002
-374.844	348.119	-0.096	-0.189
-373.829	800.000	-0.021	-0.088
-372.815	-2.039	-0.190	0.134
-371.800	-200.000	0.032	0.220
-370.785	-51.573	-0.119	0.056
-369.771	-44.181	-0.014	-0.007
-368.756	60.422	-0.346	0.344
-367.742	-71.532	-0.307	0.115
-366.727	-2.441	-0.089	0.063
-365.712	800.000	0.080	0.276
-364.698	149.210	-0.116	-0.158
-363.683	642.613	-0.069	-0.176
-362.669	-27.680	-0.060	-0.035
-361.654	-83.240	-0.143	-0.046
-360.639	-146.370	-0.154	0.014
-359.625	555.823	-0.100	-0.241
-358.610	-200.000	0.023	0.124
-357.596	-49.845	0.129	-0.062
-356.581	68.394	-0.184	0.189
-355.566	69.594	-0.236	-0.244
-354.552	-56.906	-0.179	0.079
-353.537	275.733	0.147	-0.262
-352.523	-200.000	-0.002	0.016
-351.508	-200.000	0.029	0.309
-350.493	-121.850	0.137	0.023
-349.479	800.000	-0.054	0.160
-348.464	-6.062	0.247	-0.169
-347.450	169.950	-0.132	0.189
-346.435	-79.374	0.239	0.081
-345.420	800.000	-0.031	-0.094
-344.406	-43.842	-0.083	-0.042
-343.391	-200.000	0.048	-0.411
-342.377	73.854	-0.076	0.080
-341.362	617.413	-0.159	0.401
-340.348	87.984	-0.340	0.378
-339.333	353.325	-0.092	-0.183
-338.318	-30.624	-0.378	-0.215
-337.304	25.623	-0.074	0.062
-336.289	226.285	0.048	-0.077
-335.275	167.295	-0.215	-0.306
-334.260	800.000	-0.029	-0.093
-333.245	-176.291	-0.111	0.003
-332.231	-33.867	0.222	0.123
-331.216	64.695	0.016	-0.016
-330.202	-164.004	0.339	0.016
-329.187	800.000	-0.082	-0.315
-328.172	800.000	0.067	-0.219
-327.158	188.538	0.053	0.079
-326.143	-53.387	0.219	0.101
-325.129	-43.285	-0.115	0.058
-324.114	-100.541	-0.323	-0.080
-323.099	-117.368	-0.186	-0.034
-322.085	-200.000	-0.109	-0.706
-321.070	98.574	-0.091	0.105
-320.056	-35.991	0.131	0.071
-319.041	35.515	-0.048	-0.042
-318.026	-200.000	0.009	0.069
-317.012	-200.000	0.005	0.382
-315.997	-4.447	0.238	0.165
-314.983	-200.000	-0.012	-0.084
-313.968	217.042	-0.060	-0.096
-312.953	-200.000	0.017	0.128
-311.939	-200.000	0.030	-0.322
-310.924	-57.805	0.080	-0.035
-309.910	12.816	-0.159	0.123
-308.895	216.858	0.069	0.110
-307.880	-200.000	0.014	0.238
-306.866	800.000	-0.019	0.078
-305.851	800.000	0.093	-0.260
-304.837	281.028	-0.204	-0.366
-303.822	-27.000	0.274	-0.160
-302.807	244.445	-0.070	-0.119
-301.793	-2.433	-0.271	-0.190
-300.778	4.888	-0.214	0.158
-299.764	-71.258	0.147	0.055
-298.749	3.041	0.130	-0.094
-297.735	800.000	-0.142	-0.409
-296.720	473.916	-0.081	0.182
-295.705	35.866	-0.206	-0.181
-294.691	169.929	0.139	0.199
-293.676	494.186	0.046	0.106
-292.662	89.574	0.104	-0.116
-291.647	-88.562	0.172	0.051
-290.632	-22.033	-0.139	0.084
-289.618	1.653	-0.310	-0.224
-288.603	800.000	-0.098	0.281
-287.589	159.191	-0.201	-0.280
-286.574	-15.082	0.030	-0.019
-285.559	191.161	0.377	0.568
-284.545	101.813	-0.240	0.280
-283.530	-75.719	-0.116	-0.041
-282.516	208.427	-0.167	0.262
-281.501	-118.252	0.180	0.032
-280.486	6.271	0.162	0.120
-279.472	31.361	-0.167	0.144
-278.457	-82.754	0.119	0.039
-277.443	-200.000	0.020	0.219
-276.428	23.611	0.087	0.072
-275.413	29.385	0.052	0.044
-274.399	800.000	-0.046	-0.193
-273.384	-200.000	0.015	0.125
-272.370	-172.985	0.093	-0.003
-271.355	-200.000	0.024	-0.332
-270.340	272.865	0.050	-0.088
-269.326	69.770	-0.180	-0.185
-268.311	-200.000	0.006	0.230
-267.297	-168.763	0.081	-0.003
-266.282	800.000	-0.057	0.175
-265.267	476.702	0.165	-0.373
-264.253	-123.312	0.407	-0.065
-263.238	-200.000	-0.039	0.329
-262.224	800.000	0.191	0.699
-261.209	-132.357	0.158	-0.020
-260.195	-1.519	0.217	-0.153
-259.180	253.863	0.081	0.138
-258.165	-143.392	-0.418	0.040
-257.151	225.686	0.069	-0.112
-256.136	36.746	0.231	0.204
-255.122	-15.942	-0.389	-0.248
-254.107	800.000	-0.080	-0.260
-253.092	-200.000	0.008	-0.049
-252.078	-12.861	0.230	0.150
-251.063	68.519	0.117	0.120
-250.049	293.838	-0.185	-0.337
-249.034	76.012	-0.244	0.258
-248.019	57.556	-0.098	0.096
-247.005	-39.299	0.216	0.114
-245.990	-95.660	0.056	-0.015
-244.976	44.522	-0.188	-0.172
-243.961	-200.000	0.099	0.547
-242.946	-108.413	-0.113	-0.024
-241.932	-180.342	0.175	0.004
-240.917	437.287	0.025	-0.054
-239.903	-200.000	-0.078	0.489
-238.888	-49.756	0.161	-0.077
-237.873	170.568	-0.165	-0.236
-236.859	-102.416	0.095	-0.023
-235.844	-98.397	0.014	-0.004
-234.830	-156.910	0.081	-0.005
-233.815	-33.376	-0.290	0.161
-232.800	-100.432	0.162	0.040
-231.786	-6.467	0.103	0.070
-230.771	75.835	-0.177	0.187
-229.757	149.906	0.092	0.124
-228.742	231.423	0.093	-0.153
-227.727	-25.329	-0.110	0.065
-226.713	800.000	-0.020	0.082
-225.698	288.535	0.034	0.061
-224.684	176.484	-0.102	0.149
-223.669	318.669	0.099	-0.187
-222.655	75.968	-0.108	0.114
-221.640	-112.011	-0.210	-0.042
-220.625	25.147	-0.159	-0.132
-219.611	-200.000	-0.020	-0.092
-218.596	-126.104	-0.045	-0.007
-217.582	-200.000	-0.034	0.216
-216.567	123.830	0.230	0.288
-215.552	-200.000	-0.004	-0.128
-214.538	127.355	0.075	-0.095
-213.523	45.837	0.013	-0.012
-212.509	-95.813	0.420	-0.112
-211.494	-78.077	-0.220	-0.076
-210.479	-200.000	0.021	0.191
-209.465	-17.287	0.046	0.029
-208.450	-200.000	0.008	-0.176
-207.436	-176.286	0.277	0.007
-206.421	-14.544	0.504	0.324
-205.406	800.000	0.162	-0.534
-204.392	800.000	-0.021	0.081
-203.377	800.000	0.071	-0.276
-202.363	800.000	0.027	0.079
-201.348	232.305	-0.069	0.113
-200.333	-186.937	0.253	-0.004
-199.319	800.000	0.055	-0.189
-198.304	490.434	-0.093	0.211
-197.290	-200.000	0.039	0.230
-196.275	80.334	-0.369	0.396
-195.260	800.000	-0.045	-0.138
-194.246	67.037	0.169	0.172
-193.231	-91.448	-0.171	0.049
-192.217	-200.000	-0.011	-0.338
-191.202	-50.455	0.020	0.009
-190.187	-200.000	-0.005	0.234
-189.173	-62.351	-0.210	0.087
-188.158	-1.959	0.021	-0.015
-187.144	375.988	0.185	0.377
-186.129	-200.000	0.025	0.207
-185.114	221.491	-0.041	-0.065
-184.100	-61.140	0.070	-0.030
-183.085	335.444	-0.046	-0.088
-182.071	-74.687	-0.246	0.088
-181.056	112.263	-0.239	-0.288
-180.042	-200.000	0.022	-0.160
-179.027	151.382	0.132	0.180
-178.012	-113.698	0.190	0.037
-176.998	-161.340	0.380	-0.020
-175.983	7.111	0.105	-0.078
-174.969	385.679	0.037	-0.076
-173.954	69.875	0.244	-0.251
-172.939	-28.708	0.117	0.067
-171.925	23.190	-0.402	-0.329
-170.910	-97.241	0.258	-0.067
-169.896	-71.707	-0.201	-0.075
-168.881	-28.991	0.271	-0.155
-167.866	-73.445	0.358	-0.130
-166.852	109.976	-0.091	-0.109
-165.837	48.782	-0.348	-0.326
-164.823	-16.805	0.163	-0.103
-163.808	155.190	-0.157	-0.215
-162.793	155.082	-0.141	0.193
-161.779	-73.028	0.359	-0.131
-160.764	-63.421	0.047	-0.019
-159.750	-3.445	0.139	0.096
-158.735	-54.323	-0.448	0.203
-157.720	-200.000	0.021	-0.099
-156.706	-174.372	-0.117	0.003
-155.691	-159.697	-0.085	0.005
-154.677	574.326	0.168	0.409
-153.662	-200.000	0.000	0.197
-152.647	-1.799	-0.203	-0.143
-151.633	-37.519	0.094	-0.050
-150.618	-90.341	-0.186	-0.054
-149.604	-194.701	0.259	-0.002
-148.589	-64.908	-0.131	-0.053
-147.574	-13.639	-0.055	-0.035
-146.560	-150.387	-0.164	0.013
-145.545	-104.382	-0.455	0.105
-144.531	-91.283	0.287	-0.082
-143.516	-151.196	0.071	-0.005
-142.502	173.840	0.051	-0.073
-141.487	800.000	0.115	-0.355
-140.472	64.545	-0.114	0.115
-139.458	-132.903	-0.190	-0.024
-138.443	-131.959	0.468	-0.061
-137.429	800.000	-0.027	-0.080
-136.414	-200.000	0.053	-0.279
-135.399	800.000	-0.021	-0.080
-134.385	4.394	-0.123	0.089
-133.370	-200.000	0.001	-0.017
-132.356	-43.263	0.154	-0.077
-131.341	24.915	-0.150	0.123
-130.326	-42.163	0.316	-0.161
-129.312	418.660	0.189	0.403
-128.297	-200.000	-0.007	-0.138
-127.283	12.350	0.341	-0.261
-126.268	-122.398	0.110	-0.018
-125.253	341.144	-0.133	-0.259
-124.239	-189.118	0.108	0.001
-123.224	-29.017	-0.256	0.146
-122.210	800.000	0.018	-0.063
-121.195	40.466	-0.184	-0.165
