DTS Sentinel unit serial number:	SN413079Multiplexer serial number:	ORYXHardware model number:	OX4-SRSoftware version number:	ORYX F/W v4.00 Oryx Data Collector v3.7.2.0data status	okinstallation	princeton_trtdifferential loss correction	single-endedforward channel	channel 2reverse channel	N/Adate	2019/09/10time	23:25:11forward acquisition time	60.00reverse acquisition time	0.00gamma	496.2192k internal	0.2330k external	0.2330temperature offset calibration	0.9946default loss term (dB/km)	0.3790temperature slope calibration	1.0000multiplexer offset coefficient	1.0000multiplexer slope coefficient	1.0000fibre end	0.00T internal ref (°C)	29.75T ext. ref 1 (°C)	-0.31T ext. ref 2 (°C)	23.14length (m)	temperature (°C)	Stokes	anti-Stokes-747.200	531.724	-0.221	0.527
-746.185	167.112	0.183	0.262
-745.171	-36.972	0.349	0.188
-744.156	-166.731	-0.197	-0.008
-743.142	-85.118	-0.224	0.070
-742.127	-153.593	-0.273	0.019
-741.112	339.672	0.260	0.510
-740.098	684.176	0.021	-0.054
-739.083	-89.486	0.078	0.023
-738.069	26.972	-0.296	0.250
-737.054	24.615	-0.168	0.140
-736.039	-134.607	0.213	-0.026
-735.025	485.777	0.046	-0.106
-734.010	120.432	-0.081	0.101
-732.996	-137.183	0.218	-0.025
-731.981	-72.521	0.208	0.077
-730.966	-63.003	0.314	0.131
-729.952	362.656	-0.252	-0.509
-728.937	-69.701	-0.151	0.058
-727.923	361.844	-0.070	-0.141
-726.908	-126.871	-0.491	-0.073
-725.894	-51.624	0.247	0.116
-724.879	-200.000	0.008	-0.341
-723.864	-108.167	-0.090	0.020
-722.850	437.441	-0.140	-0.307
-721.835	-75.252	0.197	0.071
-720.821	-74.665	-0.349	0.126
-719.806	30.675	-0.030	-0.026
-718.791	159.248	0.113	-0.158
-717.777	-73.641	-0.181	-0.066
-716.762	800.000	0.056	0.200
-715.748	-200.000	0.036	-0.241
-714.733	102.640	-0.201	-0.237
-713.718	800.000	-0.079	-0.249
-712.704	402.364	0.076	-0.160
-711.689	-109.767	-0.311	-0.066
-710.675	156.150	0.143	0.198
-709.660	117.600	0.109	-0.135
-708.645	-71.197	-0.148	0.056
-707.631	56.409	-0.043	-0.042
-706.616	-128.161	0.120	-0.017
-705.602	-69.947	-0.326	0.125
-704.587	-200.000	-0.002	0.305
-703.572	37.534	-0.142	0.126
-702.558	-200.000	-0.050	0.225
-701.543	11.774	0.157	-0.121
-700.529	-117.559	0.179	0.032
-699.514	-37.124	0.177	-0.095
-698.499	602.427	0.063	-0.157
-697.485	-193.509	0.182	0.002
-696.470	-200.000	-0.039	-0.180
-695.456	-45.253	0.150	0.075
-694.441	-71.300	0.237	-0.089
-693.426	20.072	0.360	-0.292
-692.412	-48.750	0.140	0.067
-691.397	214.610	0.031	0.050
-690.383	76.796	0.258	0.275
-689.368	105.004	-0.299	-0.354
-688.354	-62.193	-0.281	-0.118
-687.339	229.878	0.066	0.108
-686.324	229.775	0.115	-0.189
-685.310	-158.636	0.237	-0.014
-684.295	-156.991	-0.192	-0.012
-683.281	800.000	0.123	-0.375
-682.266	-106.411	0.196	0.044
-681.251	-120.110	-0.410	-0.070
-680.237	-98.293	-0.107	-0.028
-679.222	136.281	-0.309	-0.404
-678.208	95.850	-0.089	0.102
-677.193	800.000	0.058	0.185
-676.178	12.731	-0.203	0.157
-675.164	-86.721	0.036	-0.011
-674.149	235.802	-0.171	0.283
-673.135	147.395	0.124	-0.168
-672.120	186.861	-0.155	-0.231
-671.105	-200.000	-0.016	-0.304
-670.091	342.711	-0.099	-0.195
-669.076	23.091	-0.087	-0.072
-668.062	-152.564	0.173	0.012
-667.047	72.138	0.035	0.036
-666.032	95.036	0.189	-0.217
-665.018	20.079	-0.197	0.159
-664.003	-200.000	-0.025	0.182
-662.989	148.209	-0.174	-0.236
-661.974	-28.169	-0.086	0.050
-660.959	-55.071	-0.213	-0.096
-659.945	28.591	0.235	0.199
-658.930	-149.698	-0.467	0.037
-657.916	-195.357	-0.110	0.001
-656.901	-200.000	-0.036	-0.179
-655.886	128.588	0.334	0.427
-654.872	52.442	-0.174	-0.166
-653.857	-200.000	0.001	-0.040
-652.843	-33.353	-0.184	-0.102
-651.828	-200.000	-0.051	0.237
-650.814	34.879	0.141	-0.123
-649.799	316.616	0.105	-0.198
-648.784	-157.352	0.105	0.006
-647.770	800.000	0.010	-0.035
-646.755	168.351	0.030	-0.042
-645.741	-200.000	0.009	0.255
-644.726	-79.394	0.107	-0.036
-643.711	546.347	0.017	0.040
-642.697	-44.804	-0.134	0.067
-641.682	-108.117	-0.053	0.012
-640.668	-49.896	-0.093	-0.044
-639.653	273.086	-0.098	0.174
-638.638	-127.280	-0.301	-0.044
-637.624	-200.000	0.016	-0.080
-636.609	-91.295	0.091	0.026
-635.595	-200.000	-0.024	-0.167
-634.580	-64.535	-0.209	-0.085
-633.565	-125.751	0.353	0.054
-632.551	-200.000	-0.014	0.412
-631.536	425.710	0.109	-0.235
-630.522	366.713	0.054	-0.109
-629.507	800.000	0.057	-0.160
-628.492	161.166	-0.076	0.107
-627.478	223.401	-0.096	0.156
-626.463	-200.000	-0.029	0.178
-625.449	800.000	-0.125	0.367
-624.434	-40.161	0.144	-0.075
-623.419	-23.324	-0.123	0.074
-622.405	800.000	0.058	-0.189
-621.390	-3.306	0.137	-0.096
-620.376	-200.000	0.036	-0.270
-619.361	-115.465	-0.343	-0.065
-618.346	50.846	-0.156	0.148
-617.332	-15.720	0.214	-0.137
-616.317	-50.875	-0.161	-0.076
-615.303	198.968	0.035	0.054
-614.288	-36.031	-0.345	-0.187
-613.273	-39.829	-0.345	0.180
-612.259	-200.000	-0.018	-0.116
-611.244	800.000	0.059	0.169
-610.230	-200.000	-0.001	-0.149
-609.215	-105.065	-0.401	-0.092
-608.201	-68.179	0.095	-0.037
-607.186	-27.279	0.290	-0.169
-606.171	275.972	-0.147	-0.262
-605.157	-98.488	-0.288	0.074
-604.142	-200.000	0.046	-0.269
-603.128	4.669	-0.184	0.135
-602.113	-52.736	0.216	-0.100
-601.098	-64.693	-0.110	-0.045
-600.084	372.129	0.144	-0.292
-599.069	800.000	-0.087	0.252
-598.055	51.328	-0.295	0.281
-597.040	0.033	0.132	0.094
-596.025	-61.847	-0.202	-0.085
-595.011	372.270	-0.071	0.145
-593.996	-200.000	0.004	0.125
-592.982	-56.558	0.056	-0.025
-591.967	-90.493	-0.105	0.030
-590.952	-62.964	0.083	0.034
-589.938	152.658	-0.044	0.060
-588.923	70.710	0.142	-0.147
-587.909	-200.000	0.030	-0.156
-586.894	18.262	0.199	0.159
-585.879	800.000	-0.098	0.322
-584.865	125.537	0.132	-0.166
-583.850	5.123	0.222	-0.163
-582.836	-113.516	-0.201	0.039
-581.821	40.176	-0.197	0.177
-580.806	209.710	0.136	0.213
-579.792	15.963	-0.155	0.122
-578.777	1.532	0.123	-0.088
-577.763	-200.000	-0.061	-0.353
-576.748	-73.474	0.061	0.022
-575.733	44.373	-0.108	0.099
-574.719	106.256	-0.175	-0.208
-573.704	-97.422	0.299	0.078
-572.690	-200.000	-0.003	-0.130
-571.675	54.800	0.330	-0.319
-570.661	-88.872	0.191	0.057
-569.646	105.832	-0.355	0.420
-568.631	-36.102	-0.448	0.242
-567.617	-45.759	0.094	-0.046
-566.602	-70.680	0.075	-0.028
-565.588	-200.000	0.018	-0.339
-564.573	-200.000	0.012	0.228
-563.558	463.745	-0.058	0.129
-562.544	800.000	0.055	0.189
-561.529	-120.203	-0.202	0.035
-560.515	138.026	0.055	-0.072
-559.500	59.847	-0.040	-0.040
-558.485	726.380	-0.068	-0.180
-557.471	-141.534	0.090	-0.009
-556.456	-96.122	0.066	-0.018
-555.442	-99.156	-0.230	0.058
-554.427	-200.000	-0.022	-0.121
-553.412	61.586	0.172	0.171
-552.398	154.465	0.078	0.106
-551.383	-26.898	0.254	-0.148
-550.369	6.710	-0.191	-0.142
-549.354	-200.000	0.004	0.029
-548.339	800.000	-0.092	-0.337
-547.325	0.964	0.098	-0.070
-546.310	-76.581	0.335	0.117
-545.296	800.000	0.017	0.064
-544.281	163.436	-0.075	0.105
-543.266	112.659	0.225	-0.272
-542.252	800.000	0.027	0.075
-541.237	301.116	0.045	0.084
-540.223	-200.000	0.009	0.208
-539.208	-200.000	-0.038	0.280
-538.193	800.000	0.121	-0.364
-537.179	15.196	-0.244	0.191
-536.164	-200.000	0.004	0.168
-535.150	-200.000	-0.007	-0.043
-534.135	-153.656	-0.465	0.032
-533.121	39.367	0.295	0.264
-532.106	65.572	0.138	-0.139
-531.091	83.857	-0.200	0.217
-530.077	74.242	-0.210	-0.220
-529.062	-70.976	-0.115	-0.043
-528.048	139.655	-0.034	-0.045
-527.033	185.200	-0.237	0.351
-526.018	44.812	-0.048	0.044
-525.004	489.576	-0.073	0.167
-523.989	-200.000	0.037	-0.281
-522.975	-134.697	0.225	0.027
-521.960	-100.072	-0.113	-0.028
-520.945	0.518	-0.130	0.093
-519.931	518.360	0.117	0.273
-518.916	204.970	0.232	0.359
-517.902	-91.343	0.260	-0.074
-516.887	-73.093	0.173	-0.063
-515.872	-57.408	-0.042	0.018
-514.858	-68.290	0.360	0.140
-513.843	28.777	0.140	-0.118
-512.829	93.606	0.123	-0.138
-511.814	800.000	-0.057	0.186
-510.799	52.038	-0.328	-0.312
-509.785	800.000	-0.107	0.298
-508.770	28.419	0.131	-0.110
-507.756	-78.970	-0.054	-0.018
-506.741	28.921	-0.120	0.101
-505.726	145.231	-0.338	-0.451
-504.712	734.725	0.089	-0.238
-503.697	800.000	0.030	-0.094
-502.683	233.582	0.250	-0.410
-501.668	800.000	0.104	-0.332
-500.653	-27.945	-0.217	0.125
-499.639	800.000	-0.079	0.224
-498.624	59.989	-0.144	0.142
-497.610	-200.000	0.047	0.390
-496.595	-101.564	-0.119	0.029
-495.581	-140.587	-0.101	0.010
-494.566	-65.741	-0.221	-0.088
-493.551	-124.455	-0.140	0.022
-492.537	-180.621	0.352	0.007
-491.522	-169.705	-0.220	-0.008
-490.508	-134.182	0.408	0.050
-489.493	-200.000	0.005	-0.337
-488.478	-200.000	0.019	-0.087
-487.464	-142.892	-0.116	-0.011
-486.449	-151.272	-0.088	-0.007
-485.435	84.750	0.224	0.245
-484.420	131.262	-0.192	0.246
-483.405	-200.000	-0.034	0.155
-482.391	207.709	-0.151	0.234
-481.376	659.574	0.132	-0.339
-480.362	177.752	-0.101	-0.146
-479.347	800.000	0.060	0.190
-478.332	-48.610	0.254	0.122
-477.318	256.257	0.092	-0.157
-476.303	33.393	0.259	0.224
-475.289	239.516	-0.110	0.182
-474.274	800.000	0.043	0.140
-473.259	800.000	-0.165	-0.509
-472.245	-200.000	-0.003	-0.263
-471.230	-108.326	-0.330	0.071
-470.216	-200.000	-0.033	-0.480
-469.201	-110.876	-0.052	0.011
-468.186	-200.000	-0.021	0.135
-467.172	706.666	-0.055	-0.146
-466.157	-133.011	0.457	-0.058
-465.143	-58.525	0.331	0.143
-464.128	-132.873	-0.289	-0.037
-463.113	-71.013	0.093	0.035
-462.099	-154.103	-0.219	0.015
-461.084	208.791	0.032	-0.050
-460.070	-142.837	-0.266	0.026
-459.055	141.801	0.091	-0.120
-458.040	-159.984	-0.140	-0.008
-457.026	780.318	-0.062	0.168
-456.011	445.617	-0.172	0.376
-454.997	-200.000	-0.012	-0.200
-453.982	21.608	-0.098	0.079
-452.968	-53.848	-0.112	0.051
-451.953	150.923	-0.211	0.286
-450.938	241.156	0.057	0.095
-449.924	325.248	0.048	0.092
-448.909	145.048	0.109	-0.145
-447.895	58.917	-0.094	-0.092
-446.880	64.574	0.233	-0.233
-445.865	-82.404	0.216	0.070
-444.851	-88.072	-0.159	-0.047
-443.836	-200.000	-0.015	-0.107
-442.822	-92.963	-0.089	0.025
-441.807	444.491	-0.047	-0.103
-440.792	-24.876	0.145	0.086
-439.778	-200.000	0.003	0.196
-438.763	172.309	0.135	0.193
-437.749	332.734	-0.045	-0.086
-436.734	-81.104	0.272	0.089
-435.719	152.069	-0.110	-0.149
-434.705	-60.223	-0.148	0.063
-433.690	800.000	0.066	0.182
-432.676	58.793	-0.160	0.156
-431.661	9.959	0.192	-0.145
-430.646	-127.300	-0.178	0.026
-429.632	432.217	0.165	0.355
-428.617	544.271	-0.060	0.142
-427.603	80.744	-0.250	-0.268
-426.588	151.283	0.219	-0.297
-425.573	-200.000	0.030	-0.134
-424.559	-144.872	0.213	-0.019
-423.544	453.344	-0.112	0.247
-422.530	-29.333	0.110	-0.063
-421.515	296.102	-0.192	-0.350
-420.500	-98.348	-0.156	0.040
-419.486	240.080	-0.100	-0.165
-418.471	-192.933	-0.340	0.003
-417.457	-78.810	0.053	-0.018
-416.442	134.984	0.051	-0.066
-415.428	-200.000	0.001	-0.227
-414.413	1.041	0.178	0.127
-413.398	111.391	-0.042	0.050
-412.384	-130.890	0.136	0.018
-411.369	167.521	0.037	0.053
-410.355	12.474	-0.192	0.147
-409.340	-99.427	0.594	0.149
-408.325	800.000	0.051	-0.199
-407.311	-38.196	0.096	-0.051
-406.296	800.000	0.033	0.093
-405.282	-75.195	0.265	-0.094
-404.267	200.190	0.075	0.115
-403.252	-55.528	-0.216	-0.096
-402.238	-42.618	0.048	-0.024
-401.223	390.959	0.111	-0.228
-400.209	22.542	-0.080	0.065
-399.194	722.395	0.056	-0.149
-398.179	22.417	-0.067	0.055
-397.165	-65.200	-0.125	0.050
-396.150	-53.158	-0.196	-0.089
-395.136	781.134	0.019	0.053
-394.121	-200.000	-0.016	0.341
-393.106	-26.057	-0.261	-0.153
-392.092	94.981	0.106	-0.120
-391.077	800.000	0.074	0.233
-390.063	106.453	0.103	-0.122
-389.048	800.000	0.037	-0.103
-388.033	-68.271	-0.145	0.056
-387.019	800.000	-0.031	-0.104
-386.004	-200.000	-0.011	-0.360
-384.990	427.012	-0.115	0.247
-383.975	800.000	-0.070	0.301
-382.960	12.474	-0.121	0.093
-381.946	-60.983	-0.203	0.085
-380.931	-40.834	0.028	0.014
-379.917	-60.936	0.232	-0.097
-378.902	-12.144	-0.126	0.082
-377.888	213.494	0.262	-0.410
-376.873	19.733	-0.301	-0.241
-375.858	-126.033	0.068	-0.010
-374.844	-64.878	-0.064	-0.026
-373.829	-164.415	-0.296	-0.013
-372.815	-49.163	0.249	0.118
-371.800	-38.375	0.352	0.185
-370.785	-15.761	-0.111	0.070
-369.771	89.144	0.231	0.255
-368.756	359.667	-0.033	-0.066
-367.742	-200.000	-0.031	-0.381
-366.727	-94.551	0.130	-0.035
-365.712	-51.321	-0.190	0.088
-364.698	-200.000	0.001	0.216
-363.683	-176.469	0.061	-0.002
-362.669	-200.000	-0.033	0.242
-361.654	-121.527	-0.269	-0.044
-360.639	306.929	0.081	0.150
-359.625	534.673	-0.047	0.110
-358.610	240.391	-0.062	-0.102
-357.596	-97.800	0.543	-0.139
-356.581	263.727	-0.134	-0.232
-355.566	346.850	-0.120	-0.235
-354.552	122.519	0.134	0.166
-353.537	75.805	-0.067	0.070
-352.523	194.670	0.247	0.371
-351.508	-119.930	-0.213	-0.036
-350.493	-58.795	0.042	0.018
-349.479	-197.203	-0.083	0.001
-348.464	-1.744	0.170	-0.119
-347.450	-103.377	0.134	-0.031
-346.435	-62.706	-0.372	0.153
-345.420	-200.000	-0.028	0.252
-344.406	-145.074	0.271	0.024
-343.391	65.547	0.182	0.182
-342.377	-77.890	-0.115	-0.039
-341.362	138.594	0.201	0.262
-340.348	-97.212	0.222	0.058
-339.333	-129.149	-0.122	-0.017
-338.318	-132.005	-0.019	-0.002
-337.304	800.000	0.090	0.307
-336.289	-157.634	0.136	-0.008
-335.275	35.625	0.222	-0.193
-334.260	-200.000	-0.024	0.167
-333.245	-200.000	0.069	0.323
-332.231	492.534	0.125	0.283
-331.216	-58.164	0.224	0.097
-330.202	-132.578	-0.278	-0.035
-329.187	-125.960	0.245	-0.037
-328.172	104.433	-0.040	0.047
-327.158	-200.000	0.068	0.419
-326.143	-20.526	0.148	-0.090
-325.129	-115.405	0.312	-0.058
-324.114	-52.401	-0.136	-0.062
-323.099	168.776	-0.107	-0.150
-322.085	-200.000	-0.054	0.340
-321.070	-86.541	0.155	0.047
-320.056	0.732	0.098	0.070
-319.041	-192.720	0.139	-0.001
-318.026	-32.220	0.134	0.074
-317.012	-109.217	-0.392	-0.082
-315.997	-117.949	0.185	0.033
-314.983	-170.513	0.166	0.006
-313.968	-101.042	-0.406	-0.099
-312.953	126.664	-0.114	0.144
-311.939	-14.050	-0.174	0.111
-310.924	134.484	0.206	0.265
-309.910	-168.580	0.076	-0.003
-308.895	112.259	-0.222	0.266
-307.880	-89.251	0.175	-0.051
-306.866	-140.954	-0.123	0.013
-305.851	168.412	0.020	0.028
-304.837	24.109	-0.213	-0.174
-303.822	800.000	0.029	-0.090
-302.807	406.081	0.079	0.165
-301.793	-176.412	0.293	0.008
-300.778	-156.829	-0.253	0.015
-299.764	800.000	0.032	0.095
-298.749	171.226	0.195	-0.277
-297.735	-200.000	0.076	0.409
-296.720	114.829	0.109	-0.131
-295.705	-200.000	0.007	-0.045
-294.691	-117.867	0.150	-0.027
-293.676	800.000	-0.111	0.355
-292.662	209.093	0.187	-0.289
-291.647	54.033	0.099	0.094
-290.632	-71.298	0.215	0.080
-289.618	106.448	-0.086	-0.101
-288.603	800.000	-0.056	-0.226
-287.589	-200.000	0.001	0.150
-286.574	-36.515	-0.442	-0.235
-285.559	-16.579	-0.148	-0.093
-284.545	-200.000	-0.002	0.039
-283.530	-164.317	0.047	-0.002
-282.516	-200.000	-0.026	-0.286
-281.501	-26.701	0.096	0.055
-280.486	340.937	0.067	0.129
-279.472	-54.052	0.094	-0.042
-278.457	-63.907	-0.087	-0.035
-277.443	-31.625	-0.253	-0.140
-276.428	36.064	0.181	-0.157
-275.413	188.670	0.144	-0.213
-274.399	347.686	-0.125	0.243
-273.384	-6.866	0.280	0.188
-272.370	-200.000	0.014	0.152
-271.355	-46.817	0.204	-0.099
-270.340	800.000	-0.133	-0.387
-269.326	69.524	-0.039	0.040
-268.311	28.919	-0.142	0.119
-267.297	145.542	0.280	-0.370
-266.282	-200.000	0.015	0.176
-265.267	94.884	0.059	0.066
-264.253	800.000	0.048	-0.195
-263.238	-200.000	0.008	0.154
-262.224	545.041	-0.088	-0.209
-261.209	-41.688	-0.224	0.114
-260.195	-20.866	-0.070	0.043
-259.180	-200.000	-0.023	-0.250
-258.165	-200.000	-0.018	-0.105
-257.151	800.000	-0.037	-0.102
-256.136	-96.626	-0.115	-0.030
-255.122	-200.000	-0.027	-0.344
-254.107	-96.078	0.094	-0.025
-253.092	-87.349	-0.105	0.032
-252.078	10.590	-0.250	-0.188
-251.063	-27.849	0.129	0.074
-250.049	-200.000	-0.030	0.156
-249.034	-200.000	-0.070	0.344
-248.019	-200.000	-0.011	-0.071
-247.005	208.564	0.079	-0.122
-245.990	-200.000	0.003	-0.257
-244.976	534.894	-0.047	0.111
-243.961	45.599	-0.081	0.074
-242.946	477.464	-0.065	0.145
-241.932	44.977	0.199	0.181
-240.917	42.667	0.165	0.148
-239.903	174.353	-0.100	-0.143
-238.888	-111.014	0.393	-0.080
-237.873	-143.992	-0.137	0.013
-236.859	672.026	-0.120	-0.306
-235.844	-166.571	-0.150	-0.006
-234.830	190.828	-0.122	-0.181
-233.815	-115.552	-0.346	0.064
-232.800	124.469	0.143	-0.178
-231.786	-159.387	0.179	-0.010
-230.771	14.175	-0.127	0.098
-229.757	-68.497	0.160	-0.061
-228.742	-200.000	-0.008	0.102
-227.727	150.591	-0.044	0.059
-226.713	-130.359	-0.067	0.009
-225.698	541.912	0.072	-0.170
-224.684	-165.068	0.287	0.013
-223.669	-95.561	0.245	0.065
-222.655	195.227	-0.071	0.107
-221.640	74.876	0.154	0.160
-220.625	-200.000	-0.021	-0.262
-219.611	571.765	-0.027	0.064
-218.596	-200.000	0.030	-0.144
-217.582	-200.000	0.032	-0.197
-216.567	-69.667	-0.239	-0.090
-215.552	99.706	0.163	0.187
-214.538	-7.069	-0.253	0.169
-213.523	-200.000	0.033	-0.153
-212.509	334.635	-0.172	-0.329
-211.494	160.300	0.072	0.099
-210.479	-52.665	0.133	-0.060
-209.465	800.000	0.102	0.304
-208.450	-68.038	-0.181	-0.070
-207.436	-50.287	0.268	-0.125
-206.421	420.468	0.010	0.021
-205.406	9.177	-0.292	-0.217
-204.392	255.768	0.056	-0.094
-203.377	-200.000	0.013	0.166
-202.363	800.000	-0.036	-0.134
-201.348	31.904	0.151	0.128
-200.333	-52.614	-0.141	-0.064
-199.319	-200.000	-0.009	0.077
-198.304	-77.444	0.412	-0.141
-197.290	11.645	-0.335	0.253
-196.275	-200.000	-0.016	-0.204
-195.260	-198.070	-0.013	0.000
-194.246	-57.242	-0.104	-0.045
-193.231	-37.385	-0.210	-0.110
-192.217	11.761	-0.214	0.162
-191.202	48.836	-0.225	-0.208
-190.187	694.086	-0.146	0.378
-189.173	304.294	0.098	0.180
-188.158	-85.335	0.185	-0.057
-187.144	-151.946	0.226	-0.016
-186.129	196.607	-0.039	0.059
-185.114	-16.829	0.138	-0.086
-184.100	223.112	0.234	0.371
-183.085	7.321	0.293	0.215
-182.071	230.623	-0.121	-0.195
-181.056	-48.808	-0.227	-0.107
-180.042	-2.138	-0.380	-0.263
-179.027	-18.225	0.088	-0.054
-178.012	-200.000	-0.054	-0.447
-176.998	-119.987	0.195	-0.033
-175.983	-200.000	-0.073	-0.339
-174.969	329.617	0.019	0.037
-173.954	-200.000	-0.022	-0.138
-172.939	47.758	-0.122	-0.112
-171.925	-79.965	-0.424	0.140
-170.910	-133.604	-0.245	-0.030
-169.896	-189.027	0.268	-0.003
-168.881	-200.000	-0.010	0.229
-167.866	-200.000	-0.039	0.237
-166.852	-51.887	0.276	0.126
-165.837	-200.000	0.010	0.183
-164.823	215.118	-0.170	-0.265
-163.808	800.000	0.068	-0.186
-162.793	120.629	0.055	-0.068
-161.779	-40.560	0.126	0.064
-160.764	-200.000	0.020	0.229
-159.750	581.386	0.143	0.345
-158.735	-200.000	-0.005	0.131
-157.720	-36.037	0.387	0.206
-156.706	245.984	-0.197	-0.326
-155.691	321.931	0.198	-0.371
-154.677	96.622	-0.063	-0.071
-153.662	458.541	0.174	-0.380
-152.647	800.000	-0.035	-0.137
-151.633	-200.000	-0.019	-0.081
-150.618	-200.000	-0.002	0.057
-149.604	0.618	-0.147	0.104
-148.589	-200.000	0.025	0.150
-147.574	14.029	-0.094	-0.072
-146.560	-200.000	0.009	-0.141
-145.545	133.245	0.233	-0.296
-144.531	-200.000	0.017	-0.350
-143.516	53.734	0.151	0.142
-142.502	800.000	0.056	0.210
-141.487	-200.000	0.007	0.107
-140.472	-55.171	0.207	0.092
-139.458	-119.996	-0.231	-0.039
-138.443	75.087	0.095	-0.099
-137.429	-182.280	0.352	-0.006
-136.414	-200.000	-0.001	-0.089
-135.399	-121.090	-0.183	-0.030
-134.385	-42.203	0.325	0.163
-133.370	85.771	0.030	0.033
-132.356	-200.000	0.012	-0.197
-131.341	-81.846	-0.095	0.031
-130.326	-11.652	-0.327	0.211
-129.312	-32.233	-0.005	0.003
-128.297	-200.000	-0.009	-0.104
-127.283	484.145	-0.202	-0.452
-126.268	-45.751	0.397	-0.193
-125.253	116.783	0.169	-0.203
-124.239	-158.962	0.352	0.020
-123.224	-1.339	0.025	0.017
-122.210	-200.000	-0.005	0.048
-121.195	-111.329	-0.362	-0.073
